SpectraSuite Data File
++++++++++++++++++++++++++++++++++++
Date: Mon Jun 06 14:52:37 CEST 2016
User: root
Dark Spectrum Present: No
Reference Spectrum Present: No
Number of Sampled Component Spectra: 1
Spectrometers: USB4C02835
Integration Time (usec): 100000 (USB4C02835)
Spectra Averaged: 1 (USB4C02835)
Boxcar Smoothing: 0 (USB4C02835)
Correct for Electrical Dark: No (USB4C02835)
Strobe/Lamp Enabled: No (USB4C02835)
Correct for Detector Non-linearity: No (USB4C02835)
Correct for Stray Light: No (USB4C02835)
Number of Pixels in Processed Spectrum: 3648
>>>>>Begin Processed Spectral Data<<<<<
177.47	1509.35
177.69	1509.35
177.91	1509.35
178.13	1429.48
178.36	1437.67
178.58	1677.29
178.80	1662.95
179.02	1632.23
179.24	1652.71
179.46	1720.29
179.68	1703.91
179.90	1630.18
180.13	1751.01
180.35	1644.52
180.57	1630.18
180.79	1677.29
181.01	1705.96
181.23	1703.91
181.45	1781.73
181.67	1675.24
181.90	1714.15
182.12	1665.00
182.34	1665.00
182.56	1722.34
182.78	1720.29
183.00	1689.57
183.22	1798.12
183.44	1624.04
183.66	1822.69
183.89	1724.39
184.11	1665.00
184.33	1718.25
184.55	1796.07
184.77	1781.73
184.99	1726.44
185.21	1722.34
185.43	1853.41
185.65	1759.21
185.87	1697.77
186.10	1837.03
186.32	1839.08
186.54	1746.92
186.76	1742.82
186.98	1738.73
187.20	1615.85
187.42	1632.23
187.64	1652.71
187.86	1675.24
188.08	1869.80
188.30	1583.08
188.52	1648.61
188.75	1832.93
188.97	1845.22
189.19	1660.90
189.41	1685.48
189.63	1716.20
189.85	1722.34
190.07	1636.33
190.29	1665.00
190.51	1652.71
190.73	1628.14
190.95	1777.64
191.17	1753.06
191.39	1544.17
191.61	1722.34
191.84	1705.96
192.06	1693.67
192.28	1601.51
192.50	1902.56
192.72	1667.05
192.94	1685.48
193.16	1718.25
193.38	1740.77
193.60	1644.52
193.82	1718.25
194.04	1730.53
194.26	1662.95
194.48	1703.91
194.70	1679.33
194.92	1646.57
195.14	1701.86
195.36	1681.38
195.58	1665.00
195.80	1662.95
196.02	1763.30
196.24	1677.29
196.46	1718.25
196.69	1703.91
196.91	1882.08
197.13	1673.19
197.35	1634.28
197.57	1759.21
197.79	1693.67
198.01	1777.64
198.23	1722.34
198.45	1681.38
198.67	1662.95
198.89	1687.53
199.11	1738.73
199.33	1716.20
199.55	1611.75
199.77	1730.53
199.99	1730.53
200.21	1675.24
200.43	1691.62
200.65	1601.51
200.87	1529.83
201.09	1708.01
201.31	1710.05
201.53	1669.09
201.75	1695.72
201.97	1681.38
202.19	1748.97
202.41	1699.81
202.63	1863.65
202.85	1744.87
203.07	1679.33
203.29	1687.53
203.51	1689.57
203.73	1619.94
203.95	1851.36
204.17	1681.38
204.39	1763.30
204.61	1677.29
204.83	1673.19
205.05	1740.77
205.27	1740.77
205.49	1783.78
205.71	1714.15
205.93	1675.24
206.15	1695.72
206.37	1685.48
206.59	1656.81
206.81	1626.09
207.03	1630.18
207.25	1550.31
207.47	1718.25
207.69	1693.67
207.91	1732.58
208.13	1767.40
208.34	1634.28
208.56	1640.42
208.78	1697.77
209.00	1636.33
209.22	1691.62
209.44	1689.57
209.66	1634.28
209.88	1673.19
210.10	1693.67
210.32	1746.92
210.54	1726.44
210.76	1689.57
210.98	1712.10
211.20	1568.74
211.42	1681.38
211.64	1726.44
211.86	1740.77
212.08	1738.73
212.30	1652.71
212.52	1689.57
212.74	1705.96
212.96	1742.82
213.17	1722.34
213.39	1720.29
213.61	1796.07
213.83	1724.39
214.05	1619.94
214.27	1783.78
214.49	1681.38
214.71	1705.96
214.93	1757.16
215.15	1712.10
215.37	1738.73
215.59	1636.33
215.81	1677.29
216.03	1818.60
216.24	1665.00
216.46	1673.19
216.68	1712.10
216.90	1775.59
217.12	1759.21
217.34	1673.19
217.56	1794.02
217.78	1779.68
218.00	1787.88
218.22	1701.86
218.44	1816.55
218.66	1773.54
218.87	1804.26
219.09	1650.66
219.31	1746.92
219.53	1726.44
219.75	1667.05
219.97	1658.85
220.19	1757.16
220.41	1564.65
220.63	1744.87
220.85	1722.34
221.06	1695.72
221.28	1708.01
221.50	1724.39
221.72	1738.73
221.94	1730.53
222.16	1777.64
222.38	1777.64
222.60	1791.97
222.82	1701.86
223.03	1722.34
223.25	1632.23
223.47	1771.49
223.69	1794.02
223.91	1769.44
224.13	1773.54
224.35	1693.67
224.57	1726.44
224.78	1722.34
225.00	1667.05
225.22	1636.33
225.44	1701.86
225.66	1769.44
225.88	1632.23
226.10	1755.11
226.32	1761.25
226.53	1794.02
226.75	1697.77
226.97	1667.05
227.19	1685.48
227.41	1665.00
227.63	1638.38
227.85	1607.66
228.06	1779.68
228.28	1734.63
228.50	1681.38
228.72	1718.25
228.94	1697.77
229.16	1628.14
229.37	1722.34
229.59	1632.23
229.81	1748.97
230.03	1636.33
230.25	1593.32
230.47	1669.09
230.69	1640.42
230.90	1710.05
231.12	1656.81
231.34	1712.10
231.56	1773.54
231.78	1607.66
232.00	1763.30
232.21	1734.63
232.43	1648.61
232.65	1660.90
232.87	1689.57
233.09	1662.95
233.30	1650.66
233.52	1681.38
233.74	1669.09
233.96	1738.73
234.18	1685.48
234.40	1675.24
234.61	1765.35
234.83	1634.28
235.05	1630.18
235.27	1806.31
235.49	1804.26
235.70	1671.14
235.92	1779.68
236.14	1710.05
236.36	1759.21
236.58	1660.90
236.79	1691.62
237.01	1681.38
237.23	1703.91
237.45	1853.41
237.67	1662.95
237.88	1640.42
238.10	1851.36
238.32	1642.47
238.54	1736.68
238.76	1644.52
238.97	1662.95
239.19	1660.90
239.41	1697.77
239.63	1779.68
239.85	1675.24
240.06	1656.81
240.28	1634.28
240.50	1751.01
240.72	1689.57
240.93	1703.91
241.15	1759.21
241.37	1689.57
241.59	1730.53
241.81	1607.66
242.02	1730.53
242.24	1769.44
242.46	1736.68
242.68	1689.57
242.89	1796.07
243.11	1748.97
243.33	1734.63
243.55	1724.39
243.76	1710.05
243.98	1611.75
244.20	1697.77
244.42	1710.05
244.64	1665.00
244.85	1574.89
245.07	1683.43
245.29	1644.52
245.51	1628.14
245.72	1689.57
245.94	1761.25
246.16	1699.81
246.38	1669.09
246.59	1685.48
246.81	1673.19
247.03	1677.29
247.24	1648.61
247.46	1646.57
247.68	1611.75
247.90	1662.95
248.11	1654.76
248.33	1818.60
248.55	1669.09
248.77	1648.61
248.98	1738.73
249.20	1738.73
249.42	1650.66
249.64	1705.96
249.85	1656.81
250.07	1685.48
250.29	1730.53
250.50	1818.60
250.72	1609.70
250.94	1722.34
251.16	1789.92
251.37	1708.01
251.59	1683.43
251.81	1710.05
252.02	1800.16
252.24	1667.05
252.46	1783.78
252.68	1687.53
252.89	1648.61
253.11	1630.18
253.33	1800.16
253.54	1791.97
253.76	1601.51
253.98	1658.85
254.20	1757.16
254.41	1621.99
254.63	1683.43
254.85	1732.58
255.06	1693.67
255.28	1656.81
255.50	1697.77
255.71	1634.28
255.93	1630.18
256.15	1656.81
256.36	1671.14
256.58	1624.04
256.80	1755.11
257.02	1730.53
257.23	1710.05
257.45	1724.39
257.67	1789.92
257.88	1652.71
258.10	1667.05
258.32	1718.25
258.53	1675.24
258.75	1787.88
258.97	1640.42
259.18	1632.23
259.40	1746.92
259.62	1742.82
259.83	1791.97
260.05	1728.49
260.27	1980.39
260.48	1701.86
260.70	1644.52
260.92	1638.38
261.13	1712.10
261.35	1705.96
261.57	1695.72
261.78	1693.67
262.00	1742.82
262.22	1693.67
262.43	1652.71
262.65	1589.22
262.86	1626.09
263.08	1890.28
263.30	1671.14
263.51	1642.47
263.73	1650.66
263.95	1818.60
264.16	1665.00
264.38	1705.96
264.60	1632.23
264.81	1619.94
265.03	1773.54
265.25	1808.36
265.46	1658.85
265.68	1806.31
265.89	1683.43
266.11	1632.23
266.33	1716.20
266.54	1695.72
266.76	1744.87
266.98	1673.19
267.19	1794.02
267.41	1767.40
267.62	1699.81
267.84	1619.94
268.06	1800.16
268.27	1740.77
268.49	1732.58
268.70	1765.35
268.92	1730.53
269.14	1619.94
269.35	1628.14
269.57	1644.52
269.79	1751.01
270.00	1630.18
270.22	1765.35
270.43	1691.62
270.65	1591.27
270.87	1724.39
271.08	1732.58
271.30	1726.44
271.51	1753.06
271.73	1716.20
271.95	1740.77
272.16	1701.86
272.38	1708.01
272.59	1667.05
272.81	1705.96
273.02	1740.77
273.24	1775.59
273.46	1720.29
273.67	1681.38
273.89	1689.57
274.10	1652.71
274.32	1794.02
274.54	1691.62
274.75	1769.44
274.97	1712.10
275.18	1697.77
275.40	1738.73
275.61	1675.24
275.83	1650.66
276.05	1642.47
276.26	1660.90
276.48	1765.35
276.69	1660.90
276.91	1581.03
277.12	1767.40
277.34	1773.54
277.55	1798.12
277.77	1675.24
277.99	1753.06
278.20	1646.57
278.42	1621.99
278.63	1617.90
278.85	1728.49
279.06	1673.19
279.28	1732.58
279.49	1738.73
279.71	1689.57
279.93	1771.49
280.14	1714.15
280.36	1632.23
280.57	1677.29
280.79	1714.15
281.00	1660.90
281.22	1615.85
281.43	1720.29
281.65	1687.53
281.86	1677.29
282.08	1695.72
282.29	1771.49
282.51	1581.03
282.73	1619.94
282.94	1632.23
283.16	1814.50
283.37	1814.50
283.59	1730.53
283.80	1779.68
284.02	1658.85
284.23	1800.16
284.45	1691.62
284.66	1665.00
284.88	1650.66
285.09	1712.10
285.31	1720.29
285.52	1726.44
285.74	1710.05
285.95	1744.87
286.17	1748.97
286.38	1658.85
286.60	1638.38
286.81	1699.81
287.03	1677.29
287.24	1652.71
287.46	1736.68
287.67	1619.94
287.89	1789.92
288.10	1638.38
288.32	1689.57
288.53	1849.32
288.75	1687.53
288.96	1759.21
289.18	1640.42
289.39	1648.61
289.61	1757.16
289.82	1808.36
290.04	1722.34
290.25	1638.38
290.47	1689.57
290.68	1673.19
290.90	1759.21
291.11	1628.14
291.33	1755.11
291.54	1691.62
291.76	1673.19
291.97	1699.81
292.18	1705.96
292.40	1685.48
292.61	1673.19
292.83	1783.78
293.04	1648.61
293.26	1703.91
293.47	1732.58
293.69	1693.67
293.90	1736.68
294.12	1791.97
294.33	1681.38
294.55	1662.95
294.76	1763.30
294.97	1804.26
295.19	1804.26
295.40	1726.44
295.62	1677.29
295.83	1726.44
296.05	1658.85
296.26	1716.20
296.48	1710.05
296.69	1652.71
296.90	1669.09
297.12	1779.68
297.33	1751.01
297.55	1724.39
297.76	1703.91
297.98	1730.53
298.19	1705.96
298.41	1669.09
298.62	1617.90
298.83	1804.26
299.05	1681.38
299.26	1708.01
299.48	1619.94
299.69	1626.09
299.90	1673.19
300.12	1724.39
300.33	1730.53
300.55	1685.48
300.76	1740.77
300.98	1671.14
301.19	1775.59
301.40	1667.05
301.62	1697.77
301.83	1734.63
302.05	1728.49
302.26	1642.47
302.47	1761.25
302.69	1605.61
302.90	1656.81
303.12	1673.19
303.33	1716.20
303.54	1693.67
303.76	1710.05
303.97	1697.77
304.19	1775.59
304.40	1609.70
304.61	1724.39
304.83	1763.30
305.04	1810.40
305.26	1691.62
305.47	1609.70
305.68	1640.42
305.90	1595.37
306.11	1787.88
306.33	1751.01
306.54	1624.04
306.75	1634.28
306.97	1628.14
307.18	1587.18
307.39	1630.18
307.61	1728.49
307.82	1724.39
308.04	1775.59
308.25	1697.77
308.46	1673.19
308.68	1740.77
308.89	1726.44
309.10	1820.64
309.32	1660.90
309.53	1689.57
309.74	1771.49
309.96	1677.29
310.17	1755.11
310.39	1638.38
310.60	1722.34
310.81	1738.73
311.03	1615.85
311.24	1695.72
311.45	1658.85
311.67	1847.27
311.88	1718.25
312.09	1667.05
312.31	1683.43
312.52	1673.19
312.73	1705.96
312.95	1624.04
313.16	1718.25
313.37	1789.92
313.59	1691.62
313.80	1859.56
314.01	1759.21
314.23	1671.14
314.44	1640.42
314.65	1572.84
314.87	1691.62
315.08	1665.00
315.29	1699.81
315.51	1665.00
315.72	1615.85
315.93	1722.34
316.15	1763.30
316.36	1665.00
316.57	1685.48
316.79	1734.63
317.00	1712.10
317.21	1693.67
317.43	1644.52
317.64	1724.39
317.85	1691.62
318.07	1626.09
318.28	1832.93
318.49	1755.11
318.70	1837.03
318.92	1839.08
319.13	1834.98
319.34	1908.71
319.56	1779.68
319.77	1791.97
319.98	1732.58
320.20	1851.36
320.41	1753.06
320.62	1751.01
320.83	1695.72
321.05	1736.68
321.26	1722.34
321.47	1687.53
321.69	1789.92
321.90	1628.14
322.11	1667.05
322.32	1714.15
322.54	1808.36
322.75	1697.77
322.96	1812.45
323.18	1611.75
323.39	1607.66
323.60	1660.90
323.81	1767.40
324.03	1679.33
324.24	1673.19
324.45	1705.96
324.66	1705.96
324.88	1722.34
325.09	1789.92
325.30	1685.48
325.52	1683.43
325.73	1673.19
325.94	1644.52
326.15	1619.94
326.37	1675.24
326.58	1718.25
326.79	1757.16
327.00	1675.24
327.22	1708.01
327.43	1679.33
327.64	1626.09
327.85	1705.96
328.07	1689.57
328.28	1830.88
328.49	1673.19
328.70	1708.01
328.92	1689.57
329.13	1687.53
329.34	1771.49
329.55	1771.49
329.76	1720.29
329.98	1720.29
330.19	1755.11
330.40	1712.10
330.61	1753.06
330.83	1726.44
331.04	1634.28
331.25	1660.90
331.46	1652.71
331.68	1671.14
331.89	1734.63
332.10	1675.24
332.31	1652.71
332.52	1619.94
332.74	1710.05
332.95	1595.37
333.16	1759.21
333.37	1693.67
333.58	1683.43
333.80	1701.86
334.01	1619.94
334.22	1693.67
334.43	1669.09
334.64	1628.14
334.86	1617.90
335.07	1677.29
335.28	1826.79
335.49	1658.85
335.70	1765.35
335.92	1730.53
336.13	1804.26
336.34	1681.38
336.55	1699.81
336.76	1751.01
336.98	1636.33
337.19	1617.90
337.40	1863.65
337.61	1855.46
337.82	1677.29
338.04	1779.68
338.25	1615.85
338.46	1798.12
338.67	1699.81
338.88	1644.52
339.09	1628.14
339.31	1638.38
339.52	1669.09
339.73	1665.00
339.94	1689.57
340.15	1759.21
340.36	1652.71
340.58	1730.53
340.79	1669.09
341.00	1660.90
341.21	1660.90
341.42	1751.01
341.63	1648.61
341.85	1710.05
342.06	1765.35
342.27	1656.81
342.48	1748.97
342.69	1675.24
342.90	1714.15
343.12	1796.07
343.33	1722.34
343.54	1693.67
343.75	1804.26
343.96	1738.73
344.17	1619.94
344.38	1767.40
344.60	1705.96
344.81	1654.76
345.02	1708.01
345.23	1681.38
345.44	1781.73
345.65	1828.84
345.86	1720.29
346.07	1695.72
346.29	1708.01
346.50	1767.40
346.71	1718.25
346.92	1785.83
347.13	1794.02
347.34	1759.21
347.55	1656.81
347.76	1699.81
347.98	1642.47
348.19	1726.44
348.40	1740.77
348.61	1574.89
348.82	1812.45
349.03	1773.54
349.24	1656.81
349.45	1834.98
349.66	1540.07
349.88	1697.77
350.09	1755.11
350.30	1730.53
350.51	1746.92
350.72	1718.25
350.93	1650.66
351.14	1685.48
351.35	1632.23
351.56	1697.77
351.77	1695.72
351.99	1669.09
352.20	1738.73
352.41	1738.73
352.62	1644.52
352.83	1705.96
353.04	1753.06
353.25	1667.05
353.46	1753.06
353.67	1798.12
353.88	1585.13
354.09	1755.11
354.30	1626.09
354.52	1722.34
354.73	1665.00
354.94	1712.10
355.15	1705.96
355.36	1849.32
355.57	1652.71
355.78	1697.77
355.99	1724.39
356.20	1714.15
356.41	1710.05
356.62	1699.81
356.83	1669.09
357.04	1728.49
357.25	1669.09
357.46	1701.86
357.68	1632.23
357.89	1609.70
358.10	1685.48
358.31	1665.00
358.52	1724.39
358.73	1632.23
358.94	1603.56
359.15	1679.33
359.36	1667.05
359.57	1628.14
359.78	1763.30
359.99	1761.25
360.20	1593.32
360.41	1720.29
360.62	1773.54
360.83	1742.82
361.04	1753.06
361.25	1746.92
361.46	1824.74
361.67	1712.10
361.88	1724.39
362.09	1648.61
362.30	1728.49
362.51	1669.09
362.72	1714.15
362.93	1710.05
363.14	1691.62
363.35	1681.38
363.56	1644.52
363.78	1701.86
363.99	1773.54
364.20	1654.76
364.41	1705.96
364.62	1804.26
364.83	1755.11
365.04	1646.57
365.25	1734.63
365.46	1796.07
365.67	1652.71
365.88	1595.37
366.09	1675.24
366.30	1628.14
366.51	1734.63
366.72	1572.84
366.93	1667.05
367.14	1722.34
367.35	1763.30
367.56	1726.44
367.77	1755.11
367.98	1665.00
368.18	1761.25
368.39	1689.57
368.60	1593.32
368.81	1728.49
369.02	1726.44
369.23	1660.90
369.44	1673.19
369.65	1681.38
369.86	1740.77
370.07	1665.00
370.28	1648.61
370.49	1767.40
370.70	1679.33
370.91	1667.05
371.12	1654.76
371.33	1667.05
371.54	1705.96
371.75	1740.77
371.96	1583.08
372.17	1722.34
372.38	1673.19
372.59	1732.58
372.80	1740.77
373.01	1675.24
373.22	1785.83
373.43	1662.95
373.64	1638.38
373.85	1771.49
374.06	1714.15
374.26	1736.68
374.47	1755.11
374.68	1896.42
374.89	1724.39
375.10	1648.61
375.31	1730.53
375.52	1703.91
375.73	1695.72
375.94	1644.52
376.15	1732.58
376.36	1644.52
376.57	1691.62
376.78	1695.72
376.99	1740.77
377.20	1779.68
377.40	1646.57
377.61	1830.88
377.82	1638.38
378.03	1779.68
378.24	1730.53
378.45	1705.96
378.66	1703.91
378.87	1626.09
379.08	1669.09
379.29	1665.00
379.50	1880.04
379.71	1697.77
379.91	1734.63
380.12	1714.15
380.33	1710.05
380.54	1675.24
380.75	1669.09
380.96	1701.86
381.17	1781.73
381.38	1744.87
381.59	1734.63
381.80	1732.58
382.00	1839.08
382.21	1744.87
382.42	1884.13
382.63	1755.11
382.84	1748.97
383.05	1822.69
383.26	1808.36
383.47	1771.49
383.68	1771.49
383.88	1714.15
384.09	1648.61
384.30	1779.68
384.51	1816.55
384.72	1646.57
384.93	1599.46
385.14	1693.67
385.35	1736.68
385.55	1658.85
385.76	1775.59
385.97	1761.25
386.18	1669.09
386.39	1667.05
386.60	1724.39
386.81	1632.23
387.02	1669.09
387.22	1763.30
387.43	1742.82
387.64	1773.54
387.85	1789.92
388.06	2129.89
388.27	4413.37
388.48	6784.92
388.68	8431.49
388.89	9715.56
389.10	9826.15
389.31	8796.03
389.52	7407.50
389.73	6741.91
389.93	6369.18
390.14	5699.50
390.35	5222.32
390.56	4542.39
390.77	3825.61
390.98	3047.38
391.18	2504.67
391.39	2045.92
391.60	1841.12
391.81	1816.55
392.02	1714.15
392.23	1798.12
392.43	1769.44
392.64	1830.88
392.85	1665.00
393.06	1755.11
393.27	1656.81
393.47	1757.16
393.68	1730.53
393.89	1699.81
394.10	1748.97
394.31	1636.33
394.52	1624.04
394.72	1673.19
394.93	1759.21
395.14	1683.43
395.35	1787.88
395.56	1703.91
395.76	1697.77
395.97	1798.12
396.18	1820.64
396.39	1802.21
396.60	2037.73
396.80	1910.75
397.01	1888.23
397.22	1796.07
397.43	1845.22
397.64	1779.68
397.84	1789.92
398.05	1837.03
398.26	1804.26
398.47	1742.82
398.67	1816.55
398.88	1677.29
399.09	1720.29
399.30	1800.16
399.51	1726.44
399.71	1638.38
399.92	1703.91
400.13	1812.45
400.34	1675.24
400.54	1671.14
400.75	1818.60
400.96	1705.96
401.17	1769.44
401.37	1736.68
401.58	1710.05
401.79	1748.97
402.00	1939.43
402.21	2041.82
402.41	1908.71
402.62	1886.18
402.83	2066.40
403.04	1994.72
403.24	2093.02
403.45	1830.88
403.66	1908.71
403.87	1863.65
404.07	1845.22
404.28	1923.04
404.49	1841.12
404.70	1716.20
404.90	1755.11
405.11	1785.83
405.32	1679.33
405.52	1675.24
405.73	1667.05
405.94	1642.47
406.15	1652.71
406.35	1757.16
406.56	1710.05
406.77	1675.24
406.98	1748.97
407.18	1683.43
407.39	1714.15
407.60	1695.72
407.80	1724.39
408.01	1652.71
408.22	1638.38
408.43	1685.48
408.63	1808.36
408.84	1724.39
409.05	1728.49
409.25	1624.04
409.46	1679.33
409.67	1560.55
409.88	1697.77
410.08	1712.10
410.29	1671.14
410.50	1718.25
410.70	1751.01
410.91	1740.77
411.12	1687.53
411.32	1722.34
411.53	1689.57
411.74	1804.26
411.95	1669.09
412.15	1843.17
412.36	1744.87
412.57	1726.44
412.77	1767.40
412.98	1726.44
413.19	1748.97
413.39	1693.67
413.60	1665.00
413.81	1869.80
414.01	1617.90
414.22	1667.05
414.43	1791.97
414.63	1753.06
414.84	1822.69
415.05	1640.42
415.25	1681.38
415.46	1757.16
415.67	1685.48
415.87	1697.77
416.08	1703.91
416.29	1710.05
416.49	1716.20
416.70	1716.20
416.91	1693.67
417.11	1703.91
417.32	1705.96
417.53	1771.49
417.73	1742.82
417.94	1726.44
418.15	1697.77
418.35	1701.86
418.56	1681.38
418.77	1832.93
418.97	1679.33
419.18	1730.53
419.38	1527.78
419.59	1693.67
419.80	1779.68
420.00	1683.43
420.21	1730.53
420.42	1765.35
420.62	1689.57
420.83	1667.05
421.04	1755.11
421.24	1669.09
421.45	1746.92
421.65	1777.64
421.86	1658.85
422.07	1667.05
422.27	1673.19
422.48	1714.15
422.69	1746.92
422.89	1697.77
423.10	1718.25
423.30	1615.85
423.51	1654.76
423.72	1824.74
423.92	1714.15
424.13	1638.38
424.33	1697.77
424.54	1718.25
424.75	1755.11
424.95	1748.97
425.16	1701.86
425.36	1730.53
425.57	1708.01
425.78	1767.40
425.98	1787.88
426.19	1677.29
426.39	1648.61
426.60	1703.91
426.81	1779.68
427.01	1757.16
427.22	1652.71
427.42	1572.84
427.63	1734.63
427.83	1705.96
428.04	1818.60
428.25	1781.73
428.45	1800.16
428.66	1708.01
428.86	1695.72
429.07	1705.96
429.28	1677.29
429.48	1701.86
429.69	1675.24
429.89	1738.73
430.10	1679.33
430.30	1732.58
430.51	1701.86
430.71	1677.29
430.92	1613.80
431.13	1681.38
431.33	1734.63
431.54	1693.67
431.74	1826.79
431.95	1791.97
432.15	1644.52
432.36	1789.92
432.56	1771.49
432.77	1871.84
432.98	1847.27
433.18	1742.82
433.39	1662.95
433.59	1665.00
433.80	1822.69
434.00	1912.80
434.21	1597.42
434.41	1658.85
434.62	1798.12
434.82	1585.13
435.03	1630.18
435.23	1789.92
435.44	1562.60
435.64	1716.20
435.85	1677.29
436.06	1724.39
436.26	1746.92
436.47	1701.86
436.67	1640.42
436.88	1740.77
437.08	1699.81
437.29	1783.78
437.49	1722.34
437.70	1748.97
437.90	1718.25
438.11	1884.13
438.31	1796.07
438.52	1865.70
438.72	1808.36
438.93	1888.23
439.13	1779.68
439.34	1800.16
439.54	1695.72
439.75	1761.25
439.95	1744.87
440.16	1755.11
440.36	1744.87
440.57	1771.49
440.77	1730.53
440.98	1773.54
441.18	1771.49
441.39	1640.42
441.59	1656.81
441.80	1810.40
442.00	1736.68
442.21	1781.73
442.41	1677.29
442.62	1798.12
442.82	1687.53
443.02	1744.87
443.23	1654.76
443.43	1734.63
443.64	1808.36
443.84	1617.90
444.05	1796.07
444.25	1759.21
444.46	1714.15
444.66	1769.44
444.87	1820.64
445.07	1656.81
445.28	1744.87
445.48	1796.07
445.69	1816.55
445.89	1777.64
446.09	1746.92
446.30	2052.06
446.50	2578.39
446.71	3831.75
446.91	4411.32
447.12	4792.25
447.32	4880.31
447.53	4411.32
447.73	3923.91
447.93	3626.95
448.14	3229.65
448.34	3295.18
448.55	2920.40
448.75	2801.62
448.96	2738.13
449.16	2422.75
449.36	2271.20
449.57	2140.13
449.77	1902.56
449.98	1783.78
450.18	1830.88
450.39	1773.54
450.59	1728.49
450.79	1675.24
451.00	1697.77
451.20	1716.20
451.41	1681.38
451.61	1751.01
451.81	1742.82
452.02	1736.68
452.22	1761.25
452.43	1755.11
452.63	1689.57
