SpectraSuite Data File
++++++++++++++++++++++++++++++++++++
Date: Mon Jun 06 13:39:57 CEST 2016
User: root
Dark Spectrum Present: No
Reference Spectrum Present: No
Number of Sampled Component Spectra: 1
Spectrometers: USB4C02835
Integration Time (usec): 100000 (USB4C02835)
Spectra Averaged: 1 (USB4C02835)
Boxcar Smoothing: 0 (USB4C02835)
Correct for Electrical Dark: No (USB4C02835)
Strobe/Lamp Enabled: No (USB4C02835)
Correct for Detector Non-linearity: No (USB4C02835)
Correct for Stray Light: No (USB4C02835)
Number of Pixels in Processed Spectrum: 3648
>>>>>Begin Processed Spectral Data<<<<<
177.47	1449.96
177.69	1449.96
177.91	1449.96
178.13	1460.20
178.36	1419.24
178.58	1617.90
178.80	1728.49
179.02	1644.52
179.24	1628.14
179.46	1708.01
179.68	1734.63
179.90	1761.25
180.13	1681.38
180.35	1677.29
180.57	1656.81
180.79	1720.29
181.01	1703.91
181.23	1697.77
181.45	1843.17
181.67	1667.05
181.90	1767.40
182.12	1613.80
182.34	1611.75
182.56	1665.00
182.78	1730.53
183.00	1683.43
183.22	1726.44
183.44	1562.60
183.66	1851.36
183.89	1800.16
184.11	1683.43
184.33	1669.09
184.55	1726.44
184.77	1648.61
184.99	1658.85
185.21	1656.81
185.43	1816.55
185.65	1677.29
185.87	1671.14
186.10	1830.88
186.32	1814.50
186.54	1691.62
186.76	1734.63
186.98	1808.36
187.20	1656.81
187.42	1677.29
187.64	1636.33
187.86	1677.29
188.08	1746.92
188.30	1646.57
188.52	1724.39
188.75	1753.06
188.97	1759.21
189.19	1679.33
189.41	1697.77
189.63	1701.86
189.85	1742.82
190.07	1624.04
190.29	1683.43
190.51	1730.53
190.73	1609.70
190.95	1736.68
191.17	1701.86
191.39	1646.57
191.61	1693.67
191.84	1681.38
192.06	1710.05
192.28	1568.74
192.50	1847.27
192.72	1722.34
192.94	1589.22
193.16	1755.11
193.38	1734.63
193.60	1644.52
193.82	1665.00
194.04	1767.40
194.26	1734.63
194.48	1693.67
194.70	1654.76
194.92	1642.47
195.14	1726.44
195.36	1681.38
195.58	1710.05
195.80	1736.68
196.02	1673.19
196.24	1677.29
196.46	1656.81
196.69	1640.42
196.91	1783.78
197.13	1669.09
197.35	1691.62
197.57	1738.73
197.79	1660.90
198.01	1716.20
198.23	1773.54
198.45	1685.48
198.67	1638.38
198.89	1730.53
199.11	1718.25
199.33	1671.14
199.55	1597.42
199.77	1763.30
199.99	1724.39
200.21	1650.66
200.43	1683.43
200.65	1624.04
200.87	1589.22
201.09	1648.61
201.31	1654.76
201.53	1765.35
201.75	1716.20
201.97	1720.29
202.19	1636.33
202.41	1763.30
202.63	1837.03
202.85	1693.67
203.07	1693.67
203.29	1691.62
203.51	1671.14
203.73	1640.42
203.95	1906.66
204.17	1800.16
204.39	1669.09
204.61	1732.58
204.83	1726.44
205.05	1679.33
205.27	1724.39
205.49	1755.11
205.71	1736.68
205.93	1570.79
206.15	1624.04
206.37	1662.95
206.59	1699.81
206.81	1617.90
207.03	1662.95
207.25	1605.61
207.47	1742.82
207.69	1705.96
207.91	1779.68
208.13	1701.86
208.34	1691.62
208.56	1603.56
208.78	1722.34
209.00	1687.53
209.22	1650.66
209.44	1693.67
209.66	1658.85
209.88	1662.95
210.10	1669.09
210.32	1699.81
210.54	1748.97
210.76	1687.53
210.98	1783.78
211.20	1626.09
211.42	1746.92
211.64	1791.97
211.86	1656.81
212.08	1775.59
212.30	1746.92
212.52	1691.62
212.74	1701.86
212.96	1769.44
213.17	1748.97
213.39	1712.10
213.61	1808.36
213.83	1607.66
214.05	1701.86
214.27	1742.82
214.49	1644.52
214.71	1619.94
214.93	1773.54
215.15	1720.29
215.37	1775.59
215.59	1591.27
215.81	1773.54
216.03	1771.49
216.24	1681.38
216.46	1662.95
216.68	1656.81
216.90	1732.58
217.12	1724.39
217.34	1755.11
217.56	1695.72
217.78	1791.97
218.00	1753.06
218.22	1677.29
218.44	1796.07
218.66	1724.39
218.87	1785.83
219.09	1701.86
219.31	1673.19
219.53	1708.01
219.75	1673.19
219.97	1730.53
220.19	1677.29
220.41	1753.06
220.63	1783.78
220.85	1677.29
221.06	1656.81
221.28	1755.11
221.50	1708.01
221.72	1740.77
221.94	1697.77
222.16	1710.05
222.38	1773.54
222.60	1695.72
222.82	1617.90
223.03	1716.20
223.25	1581.03
223.47	1802.21
223.69	1765.35
223.91	1685.48
224.13	1685.48
224.35	1626.09
224.57	1716.20
224.78	1671.14
225.00	1685.48
225.22	1609.70
225.44	1710.05
225.66	1808.36
225.88	1687.53
226.10	1755.11
226.32	1755.11
226.53	1800.16
226.75	1636.33
226.97	1646.57
227.19	1742.82
227.41	1671.14
227.63	1640.42
227.85	1667.05
228.06	1746.92
228.28	1656.81
228.50	1677.29
228.72	1587.18
228.94	1646.57
229.16	1556.46
229.37	1636.33
229.59	1624.04
229.81	1714.15
230.03	1730.53
230.25	1660.90
230.47	1640.42
230.69	1607.66
230.90	1783.78
231.12	1716.20
231.34	1742.82
231.56	1732.58
231.78	1675.24
232.00	1673.19
232.21	1691.62
232.43	1568.74
232.65	1552.36
232.87	1738.73
233.09	1671.14
233.30	1583.08
233.52	1755.11
233.74	1650.66
233.96	1595.37
234.18	1699.81
234.40	1660.90
234.61	1800.16
234.83	1632.23
235.05	1726.44
235.27	1890.28
235.49	1761.25
235.70	1656.81
235.92	1697.77
236.14	1687.53
236.36	1751.01
236.58	1636.33
236.79	1679.33
237.01	1779.68
237.23	1681.38
237.45	1789.92
237.67	1689.57
237.88	1681.38
238.10	1701.86
238.32	1681.38
238.54	1759.21
238.76	1671.14
238.97	1642.47
239.19	1683.43
239.41	1724.39
239.63	1720.29
239.85	1708.01
240.06	1708.01
240.28	1679.33
240.50	1794.02
240.72	1648.61
240.93	1679.33
241.15	1687.53
241.37	1701.86
241.59	1751.01
241.81	1683.43
242.02	1691.62
242.24	1740.77
242.46	1740.77
242.68	1679.33
242.89	1748.97
243.11	1716.20
243.33	1619.94
243.55	1712.10
243.76	1675.24
243.98	1685.48
244.20	1724.39
244.42	1728.49
244.64	1656.81
244.85	1650.66
245.07	1675.24
245.29	1716.20
245.51	1677.29
245.72	1738.73
245.94	1755.11
246.16	1665.00
246.38	1761.25
246.59	1679.33
246.81	1693.67
247.03	1632.23
247.24	1535.98
247.46	1681.38
247.68	1730.53
247.90	1662.95
248.11	1693.67
248.33	1718.25
248.55	1722.34
248.77	1667.05
248.98	1746.92
249.20	1738.73
249.42	1630.18
249.64	1757.16
249.85	1656.81
250.07	1675.24
250.29	1794.02
250.50	1755.11
250.72	1628.14
250.94	1697.77
251.16	1767.40
251.37	1759.21
251.59	1697.77
251.81	1757.16
252.02	1683.43
252.24	1662.95
252.46	1861.60
252.68	1595.37
252.89	1619.94
253.11	1585.13
253.33	1841.12
253.54	1714.15
253.76	1533.93
253.98	1650.66
254.20	1601.51
254.41	1693.67
254.63	1740.77
254.85	1648.61
255.06	1628.14
255.28	1771.49
255.50	1621.99
255.71	1597.42
255.93	1656.81
256.15	1687.53
256.36	1685.48
256.58	1740.77
256.80	1671.14
257.02	1722.34
257.23	1658.85
257.45	1642.47
257.67	1732.58
257.88	1628.14
258.10	1660.90
258.32	1736.68
258.53	1656.81
258.75	1755.11
258.97	1683.43
259.18	1734.63
259.40	1767.40
259.62	1796.07
259.83	1730.53
260.05	1681.38
260.27	1884.13
260.48	1751.01
260.70	1642.47
260.92	1712.10
261.13	1744.87
261.35	1730.53
261.57	1693.67
261.78	1648.61
262.00	1671.14
262.22	1744.87
262.43	1595.37
262.65	1701.86
262.86	1648.61
263.08	1875.94
263.30	1681.38
263.51	1601.51
263.73	1566.70
263.95	1873.89
264.16	1669.09
264.38	1699.81
264.60	1828.84
264.81	1761.25
265.03	1806.31
265.25	1732.58
265.46	1746.92
265.68	1759.21
265.89	1710.05
266.11	1677.29
266.33	1746.92
266.54	1794.02
266.76	1755.11
266.98	1771.49
267.19	1755.11
267.41	1712.10
267.62	1742.82
267.84	1683.43
268.06	1687.53
268.27	1744.87
268.49	1773.54
268.70	1761.25
268.92	1691.62
269.14	1642.47
269.35	1642.47
269.57	1677.29
269.79	1748.97
270.00	1638.38
270.22	1773.54
270.43	1683.43
270.65	1626.09
270.87	1671.14
271.08	1644.52
271.30	1736.68
271.51	1732.58
271.73	1720.29
271.95	1730.53
272.16	1683.43
272.38	1697.77
272.59	1642.47
272.81	1683.43
273.02	1718.25
273.24	1757.16
273.46	1697.77
273.67	1632.23
273.89	1685.48
274.10	1656.81
274.32	1773.54
274.54	1746.92
274.75	1738.73
274.97	1724.39
275.18	1728.49
275.40	1773.54
275.61	1736.68
275.83	1679.33
276.05	1619.94
276.26	1718.25
276.48	1777.64
276.69	1603.56
276.91	1634.28
277.12	1757.16
277.34	1751.01
277.55	1738.73
277.77	1658.85
277.99	1689.57
278.20	1628.14
278.42	1632.23
278.63	1671.14
278.85	1640.42
279.06	1636.33
279.28	1726.44
279.49	1734.63
279.71	1720.29
279.93	1648.61
280.14	1650.66
280.36	1607.66
280.57	1791.97
280.79	1751.01
281.00	1619.94
281.22	1630.18
281.43	1843.17
281.65	1574.89
281.86	1611.75
282.08	1703.91
282.29	1798.12
282.51	1548.26
282.73	1630.18
282.94	1662.95
283.16	1673.19
283.37	1736.68
283.59	1708.01
283.80	1734.63
284.02	1746.92
284.23	1759.21
284.45	1626.09
284.66	1714.15
284.88	1652.71
285.09	1759.21
285.31	1751.01
285.52	1708.01
285.74	1669.09
285.95	1746.92
286.17	1738.73
286.38	1685.48
286.60	1675.24
286.81	1671.14
287.03	1662.95
287.24	1669.09
287.46	1726.44
287.67	1720.29
287.89	1761.25
288.10	1753.06
288.32	1695.72
288.53	1689.57
288.75	1677.29
288.96	1738.73
289.18	1634.28
289.39	1615.85
289.61	1714.15
289.82	1824.74
290.04	1761.25
290.25	1642.47
290.47	1644.52
290.68	1632.23
290.90	1798.12
291.11	1595.37
291.33	1759.21
291.54	1601.51
291.76	1742.82
291.97	1689.57
292.18	1746.92
292.40	1589.22
292.61	1681.38
292.83	1796.07
293.04	1705.96
293.26	1705.96
293.47	1705.96
293.69	1574.89
293.90	1699.81
294.12	1757.16
294.33	1665.00
294.55	1605.61
294.76	1724.39
294.97	1765.35
295.19	1763.30
295.40	1716.20
295.62	1681.38
295.83	1734.63
296.05	1650.66
296.26	1796.07
296.48	1722.34
296.69	1658.85
296.90	1708.01
297.12	1753.06
297.33	1722.34
297.55	1763.30
297.76	1779.68
297.98	1693.67
298.19	1695.72
298.41	1677.29
298.62	1652.71
298.83	1812.45
299.05	1708.01
299.26	1710.05
299.48	1669.09
299.69	1746.92
299.90	1691.62
300.12	1665.00
300.33	1736.68
300.55	1675.24
300.76	1841.12
300.98	1599.46
301.19	1734.63
301.40	1662.95
301.62	1621.99
301.83	1677.29
302.05	1714.15
302.26	1695.72
302.47	1736.68
302.69	1648.61
302.90	1640.42
303.12	1609.70
303.33	1734.63
303.54	1769.44
303.76	1607.66
303.97	1783.78
304.19	1814.50
304.40	1634.28
304.61	1699.81
304.83	1841.12
305.04	1783.78
305.26	1734.63
305.47	1609.70
305.68	1656.81
305.90	1638.38
306.11	1742.82
306.33	1701.86
306.54	1660.90
306.75	1632.23
306.97	1599.46
307.18	1619.94
307.39	1708.01
307.61	1761.25
307.82	1658.85
308.04	1693.67
308.25	1574.89
308.46	1689.57
308.68	1753.06
308.89	1634.28
309.10	1742.82
309.32	1740.77
309.53	1658.85
309.74	1609.70
309.96	1632.23
310.17	1675.24
310.39	1636.33
310.60	1757.16
310.81	1677.29
311.03	1701.86
311.24	1667.05
311.45	1660.90
311.67	1791.97
311.88	1689.57
312.09	1632.23
312.31	1761.25
312.52	1703.91
312.73	1705.96
312.95	1593.32
313.16	1636.33
313.37	1837.03
313.59	1685.48
313.80	1783.78
314.01	1818.60
314.23	1640.42
314.44	1599.46
314.65	1564.65
314.87	1656.81
315.08	1732.58
315.29	1605.61
315.51	1660.90
315.72	1599.46
315.93	1753.06
316.15	1751.01
316.36	1654.76
316.57	1689.57
316.79	1728.49
317.00	1695.72
317.21	1722.34
317.43	1667.05
317.64	1728.49
317.85	1687.53
318.07	1738.73
318.28	1681.38
318.49	1705.96
318.70	1898.47
318.92	1796.07
319.13	1912.80
319.34	1871.84
319.56	1810.40
319.77	1779.68
319.98	1806.31
320.20	1742.82
320.41	1685.48
320.62	1716.20
320.83	1671.14
321.05	1761.25
321.26	1765.35
321.47	1730.53
321.69	1748.97
321.90	1552.36
322.11	1769.44
322.32	1708.01
322.54	1791.97
322.75	1648.61
322.96	1757.16
323.18	1646.57
323.39	1566.70
323.60	1675.24
323.81	1765.35
324.03	1589.22
324.24	1732.58
324.45	1718.25
324.66	1708.01
324.88	1710.05
325.09	1755.11
325.30	1722.34
325.52	1683.43
325.73	1695.72
325.94	1634.28
326.15	1652.71
326.37	1669.09
326.58	1748.97
326.79	1720.29
327.00	1607.66
327.22	1755.11
327.43	1628.14
327.64	1734.63
327.85	1712.10
328.07	1691.62
328.28	1859.56
328.49	1658.85
328.70	1669.09
328.92	1720.29
329.13	1687.53
329.34	1753.06
329.55	1853.41
329.76	1757.16
329.98	1734.63
330.19	1744.87
330.40	1779.68
330.61	1708.01
330.83	1718.25
331.04	1609.70
331.25	1691.62
331.46	1685.48
331.68	1667.05
331.89	1775.59
332.10	1662.95
332.31	1644.52
332.52	1671.14
332.74	1730.53
332.95	1574.89
333.16	1640.42
333.37	1665.00
333.58	1583.08
333.80	1730.53
334.01	1644.52
334.22	1720.29
334.43	1662.95
334.64	1687.53
334.86	1617.90
335.07	1636.33
335.28	1781.73
335.49	1665.00
335.70	1765.35
335.92	1759.21
336.13	1791.97
336.34	1697.77
336.55	1695.72
336.76	1687.53
336.98	1597.42
337.19	1734.63
337.40	1789.92
337.61	1814.50
337.82	1714.15
338.04	1669.09
338.25	1597.42
338.46	1669.09
338.67	1638.38
338.88	1644.52
339.09	1689.57
339.31	1638.38
339.52	1648.61
339.73	1587.18
339.94	1640.42
340.15	1759.21
340.36	1640.42
340.58	1740.77
340.79	1716.20
341.00	1781.73
341.21	1714.15
341.42	1810.40
341.63	1681.38
341.85	1794.02
342.06	1705.96
342.27	1615.85
342.48	1779.68
342.69	1642.47
342.90	1740.77
343.12	1761.25
343.33	1607.66
343.54	1665.00
343.75	1724.39
343.96	1705.96
344.17	1613.80
344.38	1665.00
344.60	1742.82
344.81	1724.39
345.02	1689.57
345.23	1791.97
345.44	1746.92
345.65	1740.77
345.86	1773.54
346.07	1697.77
346.29	1708.01
346.50	1734.63
346.71	1742.82
346.92	1732.58
347.13	1740.77
347.34	1705.96
347.55	1617.90
347.76	1775.59
347.98	1665.00
348.19	1677.29
348.40	1748.97
348.61	1644.52
348.82	1775.59
349.03	1716.20
349.24	1613.80
349.45	1785.83
349.66	1644.52
349.88	1703.91
350.09	1675.24
350.30	1796.07
350.51	1732.58
350.72	1710.05
350.93	1728.49
351.14	1656.81
351.35	1665.00
351.56	1720.29
351.77	1722.34
351.99	1667.05
352.20	1791.97
352.41	1738.73
352.62	1626.09
352.83	1697.77
353.04	1636.33
353.25	1734.63
353.46	1746.92
353.67	1751.01
353.88	1636.33
354.09	1744.87
354.30	1705.96
354.52	1755.11
354.73	1703.91
354.94	1677.29
355.15	1722.34
355.36	1884.13
355.57	1634.28
355.78	1742.82
355.99	1689.57
356.20	1675.24
356.41	1804.26
356.62	1701.86
356.83	1730.53
357.04	1777.64
357.25	1617.90
357.46	1646.57
357.68	1673.19
357.89	1630.18
358.10	1785.83
358.31	1679.33
358.52	1697.77
358.73	1611.75
358.94	1693.67
359.15	1667.05
359.36	1755.11
359.57	1630.18
359.78	1669.09
359.99	1714.15
360.20	1583.08
360.41	1691.62
360.62	1716.20
360.83	1746.92
361.04	1708.01
361.25	1689.57
361.46	1808.36
361.67	1708.01
361.88	1748.97
362.09	1810.40
362.30	1771.49
362.51	1734.63
362.72	1712.10
362.93	1708.01
363.14	1722.34
363.35	1732.58
363.56	1679.33
363.78	1652.71
363.99	1771.49
364.20	1621.99
364.41	1693.67
364.62	1824.74
364.83	1718.25
365.04	1687.53
365.25	1699.81
365.46	1875.94
365.67	1658.85
365.88	1671.14
366.09	1734.63
366.30	1603.56
366.51	1773.54
366.72	1669.09
366.93	1710.05
367.14	1701.86
367.35	1732.58
367.56	1742.82
367.77	1738.73
367.98	1705.96
368.18	1720.29
368.39	1730.53
368.60	1628.14
368.81	1738.73
369.02	1701.86
369.23	1683.43
369.44	1613.80
369.65	1650.66
369.86	1628.14
370.07	1740.77
370.28	1761.25
370.49	1699.81
370.70	1679.33
370.91	1619.94
371.12	1660.90
371.33	1802.21
371.54	1693.67
371.75	1869.80
371.96	1542.12
372.17	1744.87
372.38	1701.86
372.59	1765.35
372.80	1718.25
373.01	1742.82
373.22	1722.34
373.43	1746.92
373.64	1640.42
373.85	1798.12
374.06	1783.78
374.26	1843.17
374.47	1683.43
374.68	1779.68
374.89	1773.54
375.10	1746.92
375.31	1742.82
375.52	1779.68
375.73	1677.29
375.94	1603.56
376.15	1822.69
376.36	1705.96
376.57	1650.66
376.78	1652.71
376.99	1675.24
377.20	1691.62
377.40	1669.09
377.61	1744.87
377.82	1685.48
378.03	1695.72
378.24	1650.66
378.45	1732.58
378.66	1662.95
378.87	1673.19
379.08	1605.61
379.29	1634.28
379.50	1757.16
379.71	1765.35
379.91	1738.73
380.12	1632.23
380.33	1751.01
380.54	1714.15
380.75	1644.52
380.96	1740.77
381.17	1701.86
381.38	1677.29
381.59	1765.35
381.80	1751.01
382.00	1832.93
382.21	1761.25
382.42	1679.33
382.63	1886.18
382.84	1814.50
383.05	1771.49
383.26	1826.79
383.47	1621.99
383.68	1765.35
383.88	1751.01
384.09	1716.20
384.30	1751.01
384.51	1724.39
384.72	1673.19
384.93	1646.57
385.14	1671.14
385.35	1789.92
385.55	1658.85
385.76	1806.31
385.97	1734.63
386.18	1630.18
386.39	1701.86
386.60	1712.10
386.81	1607.66
387.02	1566.70
387.22	1671.14
387.43	1769.44
387.64	1857.51
387.85	1886.18
388.06	2191.33
388.27	4138.94
388.48	6707.10
388.68	8064.90
388.89	9553.77
389.10	9809.77
389.31	8492.93
389.52	7657.36
389.73	6711.19
389.93	6326.18
390.14	5799.85
390.35	5164.98
390.56	4513.72
390.77	3782.60
390.98	2998.23
391.18	2480.09
391.39	2054.11
391.60	1871.84
391.81	1800.16
392.02	1748.97
392.23	1796.07
392.43	1755.11
392.64	1736.68
392.85	1724.39
393.06	1796.07
393.27	1722.34
393.47	1595.37
393.68	1685.48
393.89	1701.86
394.10	1775.59
394.31	1613.80
394.52	1624.04
394.72	1681.38
394.93	1753.06
395.14	1691.62
395.35	1650.66
395.56	1714.15
395.76	1712.10
395.97	1845.22
396.18	1814.50
396.39	1867.75
396.60	1959.91
396.80	1935.33
397.01	1791.97
397.22	1804.26
397.43	1824.74
397.64	1671.14
397.84	1767.40
398.05	1877.99
398.26	1728.49
398.47	1806.31
398.67	1791.97
398.88	1660.90
399.09	1673.19
399.30	1648.61
399.51	1722.34
399.71	1593.32
399.92	1675.24
400.13	1781.73
400.34	1746.92
400.54	1646.57
400.75	1849.32
400.96	1662.95
401.17	1755.11
401.37	1736.68
401.58	1710.05
401.79	1740.77
402.00	1906.66
402.21	1992.67
402.41	1955.81
402.62	1951.71
402.83	2025.44
403.04	1908.71
403.24	2064.35
403.45	1861.60
403.66	1943.52
403.87	1877.99
404.07	1875.94
404.28	1851.36
404.49	1888.23
404.70	1748.97
404.90	1757.16
405.11	1705.96
405.32	1734.63
405.52	1648.61
405.73	1740.77
405.94	1685.48
406.15	1705.96
406.35	1636.33
406.56	1732.58
406.77	1697.77
406.98	1652.71
407.18	1660.90
407.39	1832.93
407.60	1691.62
407.80	1689.57
408.01	1665.00
408.22	1730.53
408.43	1617.90
408.63	1714.15
408.84	1810.40
409.05	1779.68
409.25	1621.99
409.46	1648.61
409.67	1705.96
409.88	1609.70
410.08	1746.92
410.29	1662.95
410.50	1726.44
410.70	1779.68
410.91	1675.24
411.12	1771.49
411.32	1755.11
411.53	1722.34
411.74	1857.51
411.95	1761.25
412.15	1748.97
412.36	1798.12
412.57	1734.63
412.77	1810.40
412.98	1675.24
413.19	1636.33
413.39	1789.92
413.60	1759.21
413.81	1839.08
414.01	1652.71
414.22	1714.15
414.43	1798.12
414.63	1691.62
414.84	1787.88
415.05	1722.34
415.25	1685.48
415.46	1769.44
415.67	1708.01
415.87	1722.34
416.08	1697.77
416.29	1671.14
416.49	1732.58
416.70	1681.38
416.91	1703.91
417.11	1667.05
417.32	1662.95
417.53	1757.16
417.73	1734.63
417.94	1685.48
418.15	1763.30
418.35	1738.73
418.56	1685.48
418.77	1861.60
418.97	1699.81
419.18	1665.00
419.38	1564.65
419.59	1699.81
419.80	1808.36
420.00	1675.24
420.21	1679.33
420.42	1830.88
420.62	1773.54
420.83	1658.85
421.04	1681.38
421.24	1652.71
421.45	1730.53
421.65	1712.10
421.86	1662.95
422.07	1757.16
422.27	1724.39
422.48	1761.25
422.69	1578.98
422.89	1779.68
423.10	1804.26
423.30	1679.33
423.51	1685.48
423.72	1644.52
423.92	1734.63
424.13	1656.81
424.33	1644.52
424.54	1849.32
424.75	1703.91
424.95	1787.88
425.16	1691.62
425.36	1681.38
425.57	1806.31
425.78	1744.87
425.98	1765.35
426.19	1716.20
426.39	1656.81
426.60	1732.58
426.81	1796.07
427.01	1697.77
427.22	1644.52
427.42	1619.94
427.63	1656.81
427.83	1751.01
428.04	1718.25
428.25	1734.63
428.45	1804.26
428.66	1685.48
428.86	1724.39
429.07	1675.24
429.28	1728.49
429.48	1683.43
429.69	1589.22
429.89	1656.81
430.10	1685.48
430.30	1691.62
430.51	1736.68
430.71	1626.09
430.92	1748.97
431.13	1662.95
431.33	1751.01
431.54	1722.34
431.74	1820.64
431.95	1777.64
432.15	1685.48
432.36	1695.72
432.56	1724.39
432.77	1746.92
432.98	1794.02
433.18	1665.00
433.39	1726.44
433.59	1650.66
433.80	1877.99
434.00	1894.37
434.21	1675.24
434.41	1701.86
434.62	1814.50
434.82	1685.48
435.03	1652.71
435.23	1734.63
435.44	1630.18
435.64	1673.19
435.85	1697.77
436.06	1665.00
436.26	1755.11
436.47	1744.87
436.67	1693.67
436.88	1671.14
437.08	1708.01
437.29	1814.50
437.49	1763.30
437.70	1720.29
437.90	1738.73
438.11	1888.23
438.31	1748.97
438.52	1863.65
438.72	1841.12
438.93	1933.28
439.13	1767.40
439.34	1847.27
439.54	1816.55
439.75	1781.73
439.95	1755.11
440.16	1748.97
440.36	1695.72
440.57	1724.39
440.77	1689.57
440.98	1701.86
441.18	1681.38
441.39	1660.90
441.59	1675.24
441.80	1851.36
442.00	1693.67
442.21	1796.07
442.41	1630.18
442.62	1748.97
442.82	1656.81
443.02	1701.86
443.23	1716.20
443.43	1650.66
443.64	1804.26
443.84	1681.38
444.05	1822.69
444.25	1783.78
444.46	1699.81
444.66	1640.42
444.87	1769.44
445.07	1636.33
445.28	1796.07
445.48	1841.12
445.69	1767.40
445.89	1867.75
446.09	1761.25
446.30	1976.29
446.50	2598.87
446.71	3776.45
446.91	4327.36
447.12	4747.19
447.32	4767.67
447.53	4188.10
447.73	3925.96
447.93	3532.75
448.14	3223.50
448.34	3141.58
448.55	2869.20
448.75	2791.38
448.96	2762.71
449.16	2428.89
449.36	2275.29
449.57	2084.83
449.77	1894.37
449.98	1781.73
450.18	1785.83
450.39	1820.64
450.59	1746.92
450.79	1726.44
451.00	1632.23
451.20	1808.36
451.41	1689.57
451.61	1798.12
451.81	1732.58
452.02	1722.34
452.22	1656.81
452.43	1607.66
452.63	1652.71
