SpectraSuite Data File
++++++++++++++++++++++++++++++++++++
Date: Mon Jun 06 12:34:37 CEST 2016
User: root
Dark Spectrum Present: No
Reference Spectrum Present: No
Number of Sampled Component Spectra: 1
Spectrometers: USB4C02835
Integration Time (usec): 100000 (USB4C02835)
Spectra Averaged: 1 (USB4C02835)
Boxcar Smoothing: 0 (USB4C02835)
Correct for Electrical Dark: No (USB4C02835)
Strobe/Lamp Enabled: No (USB4C02835)
Correct for Detector Non-linearity: No (USB4C02835)
Correct for Stray Light: No (USB4C02835)
Number of Pixels in Processed Spectrum: 3648
>>>>>Begin Processed Spectral Data<<<<<
177.47	1419.24
177.69	1419.24
177.91	1419.24
178.13	1513.45
178.36	1495.02
178.58	1665.00
178.80	1798.12
179.02	1617.90
179.24	1593.32
179.46	1650.66
179.68	1712.10
179.90	1660.90
180.13	1628.14
180.35	1665.00
180.57	1691.62
180.79	1753.06
181.01	1648.61
181.23	1748.97
181.45	1773.54
181.67	1708.01
181.90	1787.88
182.12	1640.42
182.34	1617.90
182.56	1679.33
182.78	1718.25
183.00	1652.71
183.22	1732.58
183.44	1636.33
183.66	1857.51
183.89	1822.69
184.11	1714.15
184.33	1722.34
184.55	1755.11
184.77	1714.15
184.99	1742.82
185.21	1738.73
185.43	1820.64
185.65	1701.86
185.87	1697.77
186.10	1798.12
186.32	1751.01
186.54	1671.14
186.76	1701.86
186.98	1748.97
187.20	1621.99
187.42	1695.72
187.64	1740.77
187.86	1748.97
188.08	1738.73
188.30	1714.15
188.52	1662.95
188.75	1771.49
188.97	1787.88
189.19	1675.24
189.41	1650.66
189.63	1695.72
189.85	1705.96
190.07	1687.53
190.29	1619.94
190.51	1677.29
190.73	1601.51
190.95	1693.67
191.17	1656.81
191.39	1609.70
191.61	1701.86
191.84	1687.53
192.06	1697.77
192.28	1634.28
192.50	1841.12
192.72	1695.72
192.94	1681.38
193.16	1796.07
193.38	1746.92
193.60	1656.81
193.82	1648.61
194.04	1816.55
194.26	1681.38
194.48	1734.63
194.70	1683.43
194.92	1638.38
195.14	1677.29
195.36	1724.39
195.58	1669.09
195.80	1683.43
196.02	1648.61
196.24	1619.94
196.46	1730.53
196.69	1660.90
196.91	1800.16
197.13	1652.71
197.35	1621.99
197.57	1802.21
197.79	1689.57
198.01	1650.66
198.23	1677.29
198.45	1777.64
198.67	1638.38
198.89	1703.91
199.11	1701.86
199.33	1665.00
199.55	1572.84
199.77	1656.81
199.99	1712.10
200.21	1683.43
200.43	1732.58
200.65	1687.53
200.87	1626.09
201.09	1730.53
201.31	1671.14
201.53	1804.26
201.75	1683.43
201.97	1755.11
202.19	1665.00
202.41	1746.92
202.63	1824.74
202.85	1679.33
203.07	1710.05
203.29	1697.77
203.51	1667.05
203.73	1681.38
203.95	1877.99
204.17	1712.10
204.39	1800.16
204.61	1658.85
204.83	1658.85
205.05	1765.35
205.27	1759.21
205.49	1806.31
205.71	1701.86
205.93	1693.67
206.15	1734.63
206.37	1765.35
206.59	1632.23
206.81	1650.66
207.03	1662.95
207.25	1658.85
207.47	1736.68
207.69	1687.53
207.91	1726.44
208.13	1785.83
208.34	1650.66
208.56	1654.76
208.78	1738.73
209.00	1701.86
209.22	1658.85
209.44	1722.34
209.66	1654.76
209.88	1710.05
210.10	1677.29
210.32	1728.49
210.54	1802.21
210.76	1726.44
210.98	1783.78
211.20	1566.70
211.42	1705.96
211.64	1759.21
211.86	1718.25
212.08	1685.48
212.30	1658.85
212.52	1693.67
212.74	1699.81
212.96	1650.66
213.17	1621.99
213.39	1773.54
213.61	1789.92
213.83	1669.09
214.05	1652.71
214.27	1779.68
214.49	1669.09
214.71	1677.29
214.93	1681.38
215.15	1630.18
215.37	1689.57
215.59	1607.66
215.81	1720.29
216.03	1798.12
216.24	1673.19
216.46	1712.10
216.68	1787.88
216.90	1789.92
217.12	1765.35
217.34	1781.73
217.56	1736.68
217.78	1779.68
218.00	1681.38
218.22	1734.63
218.44	1705.96
218.66	1681.38
218.87	1720.29
219.09	1728.49
219.31	1703.91
219.53	1763.30
219.75	1646.57
219.97	1703.91
220.19	1748.97
220.41	1642.47
220.63	1773.54
220.85	1728.49
221.06	1697.77
221.28	1683.43
221.50	1714.15
221.72	1732.58
221.94	1769.44
222.16	1644.52
222.38	1787.88
222.60	1765.35
222.82	1730.53
223.03	1710.05
223.25	1652.71
223.47	1710.05
223.69	1798.12
223.91	1789.92
224.13	1689.57
224.35	1718.25
224.57	1818.60
224.78	1744.87
225.00	1638.38
225.22	1630.18
225.44	1656.81
225.66	1734.63
225.88	1626.09
226.10	1730.53
226.32	1615.85
226.53	1777.64
226.75	1603.56
226.97	1654.76
227.19	1720.29
227.41	1607.66
227.63	1609.70
227.85	1619.94
228.06	1775.59
228.28	1681.38
228.50	1730.53
228.72	1644.52
228.94	1679.33
229.16	1624.04
229.37	1591.27
229.59	1615.85
229.81	1789.92
230.03	1683.43
230.25	1619.94
230.47	1652.71
230.69	1640.42
230.90	1726.44
231.12	1611.75
231.34	1669.09
231.56	1857.51
231.78	1605.61
232.00	1712.10
232.21	1685.48
232.43	1648.61
232.65	1544.17
232.87	1738.73
233.09	1638.38
233.30	1710.05
233.52	1701.86
233.74	1640.42
233.96	1732.58
234.18	1708.01
234.40	1665.00
234.61	1837.03
234.83	1583.08
235.05	1642.47
235.27	1812.45
235.49	1726.44
235.70	1681.38
235.92	1742.82
236.14	1720.29
236.36	1843.17
236.58	1656.81
236.79	1742.82
237.01	1710.05
237.23	1658.85
237.45	1871.84
237.67	1642.47
237.88	1689.57
238.10	1748.97
238.32	1685.48
238.54	1685.48
238.76	1705.96
238.97	1578.98
239.19	1644.52
239.41	1708.01
239.63	1734.63
239.85	1701.86
240.06	1751.01
240.28	1673.19
240.50	1759.21
240.72	1693.67
240.93	1777.64
241.15	1818.60
241.37	1708.01
241.59	1759.21
241.81	1673.19
242.02	1650.66
242.24	1681.38
242.46	1759.21
242.68	1654.76
242.89	1710.05
243.11	1771.49
243.33	1718.25
243.55	1728.49
243.76	1656.81
243.98	1773.54
244.20	1669.09
244.42	1646.57
244.64	1656.81
244.85	1644.52
245.07	1624.04
245.29	1744.87
245.51	1716.20
245.72	1779.68
245.94	1748.97
246.16	1732.58
246.38	1753.06
246.59	1593.32
246.81	1640.42
247.03	1636.33
247.24	1576.94
247.46	1665.00
247.68	1771.49
247.90	1714.15
248.11	1642.47
248.33	1742.82
248.55	1695.72
248.77	1652.71
248.98	1681.38
249.20	1800.16
249.42	1644.52
249.64	1722.34
249.85	1751.01
250.07	1624.04
250.29	1804.26
250.50	1791.97
250.72	1642.47
250.94	1744.87
251.16	1867.75
251.37	1730.53
251.59	1656.81
251.81	1714.15
252.02	1755.11
252.24	1642.47
252.46	1796.07
252.68	1660.90
252.89	1683.43
253.11	1601.51
253.33	1820.64
253.54	1724.39
253.76	1656.81
253.98	1671.14
254.20	1720.29
254.41	1607.66
254.63	1708.01
254.85	1583.08
255.06	1808.36
255.28	1730.53
255.50	1693.67
255.71	1621.99
255.93	1619.94
256.15	1718.25
256.36	1691.62
256.58	1605.61
256.80	1773.54
257.02	1753.06
257.23	1619.94
257.45	1697.77
257.67	1718.25
257.88	1644.52
258.10	1728.49
258.32	1701.86
258.53	1716.20
258.75	1751.01
258.97	1658.85
259.18	1669.09
259.40	1718.25
259.62	1755.11
259.83	1791.97
260.05	1615.85
260.27	1933.28
260.48	1671.14
260.70	1603.56
260.92	1755.11
261.13	1746.92
261.35	1726.44
261.57	1685.48
261.78	1630.18
262.00	1609.70
262.22	1673.19
262.43	1589.22
262.65	1599.46
262.86	1652.71
263.08	1871.84
263.30	1720.29
263.51	1564.65
263.73	1689.57
263.95	1775.59
264.16	1689.57
264.38	1679.33
264.60	1710.05
264.81	1624.04
265.03	1740.77
265.25	1810.40
265.46	1675.24
265.68	1753.06
265.89	1736.68
266.11	1619.94
266.33	1718.25
266.54	1726.44
266.76	1787.88
266.98	1767.40
267.19	1730.53
267.41	1796.07
267.62	1685.48
267.84	1621.99
268.06	1669.09
268.27	1636.33
268.49	1748.97
268.70	1798.12
268.92	1683.43
269.14	1626.09
269.35	1634.28
269.57	1712.10
269.79	1781.73
270.00	1652.71
270.22	1761.25
270.43	1675.24
270.65	1615.85
270.87	1728.49
271.08	1691.62
271.30	1755.11
271.51	1708.01
271.73	1755.11
271.95	1789.92
272.16	1781.73
272.38	1673.19
272.59	1628.14
272.81	1769.44
273.02	1708.01
273.24	1724.39
273.46	1755.11
273.67	1650.66
273.89	1703.91
274.10	1687.53
274.32	1677.29
274.54	1724.39
274.75	1703.91
274.97	1693.67
275.18	1816.55
275.40	1689.57
275.61	1652.71
275.83	1718.25
276.05	1636.33
276.26	1695.72
276.48	1759.21
276.69	1665.00
276.91	1712.10
277.12	1685.48
277.34	1724.39
277.55	1720.29
277.77	1701.86
277.99	1660.90
278.20	1665.00
278.42	1621.99
278.63	1605.61
278.85	1681.38
279.06	1585.13
279.28	1748.97
279.49	1744.87
279.71	1736.68
279.93	1673.19
280.14	1681.38
280.36	1650.66
280.57	1781.73
280.79	1673.19
281.00	1673.19
281.22	1640.42
281.43	1798.12
281.65	1550.31
281.86	1589.22
282.08	1693.67
282.29	1828.84
282.51	1568.74
282.73	1660.90
282.94	1595.37
283.16	1732.58
283.37	1783.78
283.59	1722.34
283.80	1705.96
284.02	1679.33
284.23	1677.29
284.45	1718.25
284.66	1644.52
284.88	1595.37
285.09	1828.84
285.31	1691.62
285.52	1738.73
285.74	1601.51
285.95	1748.97
286.17	1748.97
286.38	1830.88
286.60	1628.14
286.81	1689.57
287.03	1642.47
287.24	1662.95
287.46	1789.92
287.67	1761.25
287.89	1798.12
288.10	1708.01
288.32	1628.14
288.53	1804.26
288.75	1716.20
288.96	1699.81
289.18	1642.47
289.39	1703.91
289.61	1689.57
289.82	1757.16
290.04	1808.36
290.25	1607.66
290.47	1665.00
290.68	1730.53
290.90	1687.53
291.11	1593.32
291.33	1763.30
291.54	1671.14
291.76	1714.15
291.97	1740.77
292.18	1718.25
292.40	1624.04
292.61	1681.38
292.83	1796.07
293.04	1714.15
293.26	1783.78
293.47	1630.18
293.69	1699.81
293.90	1724.39
294.12	1748.97
294.33	1697.77
294.55	1781.73
294.76	1771.49
294.97	1787.88
295.19	1873.89
295.40	1712.10
295.62	1722.34
295.83	1732.58
296.05	1699.81
296.26	1671.14
296.48	1648.61
296.69	1794.02
296.90	1744.87
297.12	1734.63
297.33	1683.43
297.55	1730.53
297.76	1736.68
297.98	1712.10
298.19	1640.42
298.41	1724.39
298.62	1662.95
298.83	1775.59
299.05	1630.18
299.26	1662.95
299.48	1544.17
299.69	1669.09
299.90	1621.99
300.12	1660.90
300.33	1689.57
300.55	1705.96
300.76	1718.25
300.98	1570.79
301.19	1773.54
301.40	1669.09
301.62	1673.19
301.83	1716.20
302.05	1691.62
302.26	1738.73
302.47	1726.44
302.69	1681.38
302.90	1730.53
303.12	1675.24
303.33	1751.01
303.54	1859.56
303.76	1708.01
303.97	1751.01
304.19	1779.68
304.40	1634.28
304.61	1757.16
304.83	1748.97
305.04	1755.11
305.26	1804.26
305.47	1617.90
305.68	1783.78
305.90	1644.52
306.11	1806.31
306.33	1714.15
306.54	1658.85
306.75	1722.34
306.97	1615.85
307.18	1673.19
307.39	1652.71
307.61	1740.77
307.82	1681.38
308.04	1708.01
308.25	1636.33
308.46	1699.81
308.68	1697.77
308.89	1652.71
309.10	1841.12
309.32	1644.52
309.53	1722.34
309.74	1742.82
309.96	1708.01
310.17	1714.15
310.39	1638.38
310.60	1734.63
310.81	1703.91
311.03	1615.85
311.24	1693.67
311.45	1714.15
311.67	1771.49
311.88	1710.05
312.09	1726.44
312.31	1662.95
312.52	1742.82
312.73	1648.61
312.95	1624.04
313.16	1550.31
313.37	1667.05
313.59	1748.97
313.80	1726.44
314.01	1740.77
314.23	1675.24
314.44	1705.96
314.65	1693.67
314.87	1691.62
315.08	1714.15
315.29	1753.06
315.51	1619.94
315.72	1564.65
315.93	1730.53
316.15	1763.30
316.36	1724.39
316.57	1718.25
316.79	1714.15
317.00	1617.90
317.21	1685.48
317.43	1693.67
317.64	1742.82
317.85	1687.53
318.07	1701.86
318.28	1718.25
318.49	1775.59
318.70	1875.94
318.92	1820.64
319.13	1832.93
319.34	1787.88
319.56	1845.22
319.77	1771.49
319.98	1806.31
320.20	1755.11
320.41	1767.40
320.62	1703.91
320.83	1619.94
321.05	1863.65
321.26	1673.19
321.47	1693.67
321.69	1810.40
321.90	1581.03
322.11	1667.05
322.32	1703.91
322.54	1824.74
322.75	1656.81
322.96	1875.94
323.18	1681.38
323.39	1574.89
323.60	1708.01
323.81	1742.82
324.03	1650.66
324.24	1716.20
324.45	1683.43
324.66	1724.39
324.88	1830.88
325.09	1738.73
325.30	1697.77
325.52	1687.53
325.73	1693.67
325.94	1601.51
326.15	1578.98
326.37	1683.43
326.58	1765.35
326.79	1732.58
327.00	1648.61
327.22	1771.49
327.43	1640.42
327.64	1660.90
327.85	1736.68
328.07	1722.34
328.28	1755.11
328.49	1689.57
328.70	1732.58
328.92	1695.72
329.13	1652.71
329.34	1767.40
329.55	1832.93
329.76	1732.58
329.98	1665.00
330.19	1794.02
330.40	1759.21
330.61	1738.73
330.83	1695.72
331.04	1591.27
331.25	1673.19
331.46	1697.77
331.68	1640.42
331.89	1826.79
332.10	1621.99
332.31	1591.27
332.52	1730.53
332.74	1710.05
332.95	1601.51
333.16	1714.15
333.37	1718.25
333.58	1669.09
333.80	1621.99
334.01	1564.65
334.22	1662.95
334.43	1652.71
334.64	1703.91
334.86	1705.96
335.07	1671.14
335.28	1746.92
335.49	1685.48
335.70	1660.90
335.92	1769.44
336.13	1816.55
336.34	1673.19
336.55	1681.38
336.76	1705.96
336.98	1585.13
337.19	1740.77
337.40	1839.08
337.61	1882.08
337.82	1730.53
338.04	1808.36
338.25	1628.14
338.46	1732.58
338.67	1763.30
338.88	1679.33
339.09	1658.85
339.31	1626.09
339.52	1720.29
339.73	1595.37
339.94	1685.48
340.15	1763.30
340.36	1691.62
340.58	1689.57
340.79	1566.70
341.00	1791.97
341.21	1587.18
341.42	1755.11
341.63	1720.29
341.85	1693.67
342.06	1662.95
342.27	1621.99
342.48	1763.30
342.69	1621.99
342.90	1693.67
343.12	1732.58
343.33	1691.62
343.54	1701.86
343.75	1779.68
343.96	1734.63
344.17	1710.05
344.38	1658.85
344.60	1581.03
344.81	1638.38
345.02	1656.81
345.23	1740.77
345.44	1798.12
345.65	1732.58
345.86	1771.49
346.07	1611.75
346.29	1634.28
346.50	1697.77
346.71	1755.11
346.92	1724.39
347.13	1834.98
347.34	1660.90
347.55	1638.38
347.76	1685.48
347.98	1605.61
348.19	1621.99
348.40	1794.02
348.61	1673.19
348.82	1800.16
349.03	1728.49
349.24	1642.47
349.45	1755.11
349.66	1564.65
349.88	1734.63
350.09	1646.57
350.30	1849.32
350.51	1763.30
350.72	1726.44
350.93	1665.00
351.14	1699.81
351.35	1695.72
351.56	1667.05
351.77	1638.38
351.99	1691.62
352.20	1765.35
352.41	1742.82
352.62	1632.23
352.83	1718.25
353.04	1697.77
353.25	1617.90
353.46	1755.11
353.67	1724.39
353.88	1609.70
354.09	1687.53
354.30	1722.34
354.52	1660.90
354.73	1660.90
354.94	1644.52
355.15	1779.68
355.36	1689.57
355.57	1619.94
355.78	1720.29
355.99	1689.57
356.20	1648.61
356.41	1748.97
356.62	1687.53
356.83	1740.77
357.04	1722.34
357.25	1595.37
357.46	1703.91
357.68	1613.80
357.89	1660.90
358.10	1681.38
358.31	1642.47
358.52	1636.33
358.73	1732.58
358.94	1591.27
359.15	1605.61
359.36	1728.49
359.57	1619.94
359.78	1744.87
359.99	1695.72
360.20	1652.71
360.41	1724.39
360.62	1736.68
360.83	1701.86
361.04	1724.39
361.25	1767.40
361.46	1802.21
361.67	1761.25
361.88	1742.82
362.09	1771.49
362.30	1693.67
362.51	1677.29
362.72	1667.05
362.93	1834.98
363.14	1726.44
363.35	1720.29
363.56	1634.28
363.78	1834.98
363.99	1726.44
364.20	1628.14
364.41	1718.25
364.62	1814.50
364.83	1746.92
365.04	1632.23
365.25	1685.48
365.46	1769.44
365.67	1667.05
365.88	1634.28
366.09	1738.73
366.30	1705.96
366.51	1669.09
366.72	1658.85
366.93	1710.05
367.14	1771.49
367.35	1787.88
367.56	1671.14
367.77	1783.78
367.98	1722.34
368.18	1705.96
368.39	1716.20
368.60	1617.90
368.81	1718.25
369.02	1695.72
369.23	1697.77
369.44	1591.27
369.65	1642.47
369.86	1728.49
370.07	1781.73
370.28	1712.10
370.49	1650.66
370.70	1769.44
370.91	1644.52
371.12	1562.60
371.33	1736.68
371.54	1681.38
371.75	1800.16
371.96	1578.98
372.17	1679.33
372.38	1712.10
372.59	1730.53
372.80	1730.53
373.01	1722.34
373.22	1720.29
373.43	1730.53
373.64	1738.73
373.85	1716.20
374.06	1734.63
374.26	1726.44
374.47	1646.57
374.68	1710.05
374.89	1742.82
375.10	1712.10
375.31	1765.35
375.52	1697.77
375.73	1712.10
375.94	1708.01
376.15	1748.97
376.36	1675.24
376.57	1669.09
376.78	1648.61
376.99	1808.36
377.20	1732.58
377.40	1662.95
377.61	1849.32
377.82	1724.39
378.03	1755.11
378.24	1777.64
378.45	1720.29
378.66	1787.88
378.87	1683.43
379.08	1624.04
379.29	1675.24
379.50	1714.15
379.71	1660.90
379.91	1804.26
380.12	1740.77
380.33	1640.42
380.54	1681.38
380.75	1626.09
380.96	1738.73
381.17	1765.35
381.38	1746.92
381.59	1654.76
381.80	1714.15
382.00	1847.27
382.21	1740.77
382.42	1748.97
382.63	1923.04
382.84	1777.64
383.05	1755.11
383.26	1761.25
383.47	1708.01
383.68	1748.97
383.88	1730.53
384.09	1714.15
384.30	1802.21
384.51	1781.73
384.72	1761.25
384.93	1652.71
385.14	1701.86
385.35	1724.39
385.55	1648.61
385.76	1769.44
385.97	1724.39
386.18	1621.99
386.39	1724.39
386.60	1722.34
386.81	1708.01
387.02	1648.61
387.22	1630.18
387.43	1722.34
387.64	1773.54
387.85	1908.71
388.06	2215.90
388.27	4202.43
388.48	6846.36
388.68	8368.00
388.89	9906.02
389.10	10121.06
389.31	8759.16
389.52	7581.58
389.73	6840.22
389.93	6324.13
390.14	5758.89
390.35	5091.25
390.56	4577.21
390.77	3811.27
390.98	3074.00
391.18	2459.61
391.39	2082.78
391.60	1855.46
391.81	1837.03
392.02	1734.63
392.23	1822.69
392.43	1773.54
392.64	1734.63
392.85	1667.05
393.06	1757.16
393.27	1673.19
393.47	1665.00
393.68	1656.81
393.89	1656.81
394.10	1742.82
394.31	1693.67
394.52	1681.38
394.72	1665.00
394.93	1775.59
395.14	1589.22
395.35	1697.77
395.56	1617.90
395.76	1746.92
395.97	1800.16
396.18	1837.03
396.39	1783.78
396.60	2007.01
396.80	1855.46
397.01	1822.69
397.22	1845.22
397.43	1808.36
397.64	1746.92
397.84	1781.73
398.05	1857.51
398.26	1677.29
398.47	1736.68
398.67	1839.08
398.88	1789.92
399.09	1755.11
399.30	1652.71
399.51	1777.64
399.71	1697.77
399.92	1693.67
400.13	1730.53
400.34	1675.24
400.54	1695.72
400.75	1779.68
400.96	1748.97
401.17	1816.55
401.37	1759.21
401.58	1667.05
401.79	1736.68
402.00	1877.99
402.21	1955.81
402.41	1923.04
402.62	2019.30
402.83	2056.16
403.04	2072.54
403.24	2117.60
403.45	1787.88
403.66	1847.27
403.87	1890.28
404.07	1863.65
404.28	1892.32
404.49	1828.84
404.70	1751.01
404.90	1777.64
405.11	1716.20
405.32	1732.58
405.52	1675.24
405.73	1607.66
405.94	1724.39
406.15	1703.91
406.35	1814.50
406.56	1746.92
406.77	1748.97
406.98	1732.58
407.18	1615.85
407.39	1765.35
407.60	1685.48
407.80	1648.61
408.01	1738.73
408.22	1642.47
408.43	1669.09
408.63	1746.92
408.84	1714.15
409.05	1699.81
409.25	1660.90
409.46	1685.48
409.67	1648.61
409.88	1667.05
410.08	1732.58
410.29	1705.96
410.50	1746.92
410.70	1755.11
410.91	1691.62
411.12	1689.57
411.32	1742.82
411.53	1634.28
411.74	1753.06
411.95	1720.29
412.15	1763.30
412.36	1748.97
412.57	1746.92
412.77	1767.40
412.98	1728.49
413.19	1716.20
413.39	1800.16
413.60	1763.30
413.81	1757.16
414.01	1695.72
414.22	1701.86
414.43	1773.54
414.63	1689.57
414.84	1826.79
415.05	1716.20
415.25	1646.57
415.46	1736.68
415.67	1632.23
415.87	1738.73
416.08	1724.39
416.29	1726.44
416.49	1742.82
416.70	1769.44
416.91	1652.71
417.11	1726.44
417.32	1634.28
417.53	1744.87
417.73	1732.58
417.94	1624.04
418.15	1716.20
418.35	1687.53
418.56	1730.53
418.77	1925.09
418.97	1769.44
419.18	1708.01
419.38	1609.70
419.59	1730.53
419.80	1820.64
420.00	1708.01
420.21	1697.77
420.42	1720.29
420.62	1681.38
420.83	1681.38
421.04	1697.77
421.24	1781.73
421.45	1710.05
421.65	1697.77
421.86	1652.71
422.07	1718.25
422.27	1699.81
422.48	1697.77
422.69	1691.62
422.89	1673.19
423.10	1714.15
423.30	1681.38
423.51	1705.96
423.72	1660.90
423.92	1665.00
424.13	1581.03
424.33	1718.25
424.54	1755.11
424.75	1640.42
424.95	1787.88
425.16	1724.39
425.36	1736.68
425.57	1771.49
425.78	1726.44
425.98	1679.33
426.19	1712.10
426.39	1681.38
426.60	1697.77
426.81	1853.41
427.01	1683.43
427.22	1644.52
427.42	1619.94
427.63	1603.56
427.83	1775.59
428.04	1841.12
428.25	1789.92
428.45	1773.54
428.66	1744.87
428.86	1705.96
429.07	1662.95
429.28	1734.63
429.48	1699.81
429.69	1689.57
429.89	1740.77
430.10	1703.91
430.30	1671.14
430.51	1732.58
430.71	1660.90
430.92	1708.01
431.13	1675.24
431.33	1710.05
431.54	1767.40
431.74	1732.58
431.95	1837.03
432.15	1640.42
432.36	1726.44
432.56	1787.88
432.77	1791.97
432.98	1753.06
433.18	1726.44
433.39	1665.00
433.59	1656.81
433.80	1732.58
434.00	1837.03
434.21	1685.48
434.41	1656.81
434.62	1812.45
434.82	1646.57
435.03	1705.96
435.23	1736.68
435.44	1544.17
435.64	1722.34
435.85	1767.40
436.06	1761.25
436.26	1777.64
436.47	1691.62
436.67	1720.29
436.88	1695.72
437.08	1718.25
437.29	1785.83
437.49	1705.96
437.70	1753.06
437.90	1730.53
438.11	1783.78
438.31	1759.21
438.52	1785.83
438.72	1877.99
438.93	1824.74
439.13	1783.78
439.34	1841.12
439.54	1773.54
439.75	1859.56
439.95	1865.70
440.16	1744.87
440.36	1746.92
440.57	1718.25
440.77	1771.49
440.98	1746.92
441.18	1773.54
441.39	1689.57
441.59	1640.42
441.80	1851.36
442.00	1730.53
442.21	1763.30
442.41	1654.76
442.62	1779.68
442.82	1681.38
443.02	1771.49
443.23	1691.62
443.43	1660.90
443.64	1748.97
443.84	1607.66
444.05	1775.59
444.25	1767.40
444.46	1716.20
444.66	1761.25
444.87	1785.83
445.07	1671.14
445.28	1708.01
445.48	1748.97
445.69	1746.92
445.89	1851.36
446.09	1648.61
446.30	2004.96
446.50	2684.89
446.71	3788.74
446.91	4216.77
447.12	4714.42
447.32	4765.62
447.53	4362.17
447.73	3876.80
447.93	3493.83
448.14	3358.67
448.34	3121.10
448.55	2930.64
448.75	2893.78
448.96	2680.79
449.16	2473.95
449.36	2326.49
449.57	2035.68
449.77	1886.18
449.98	1757.16
450.18	1794.02
450.39	1824.74
450.59	1765.35
450.79	1687.53
451.00	1689.57
451.20	1806.31
451.41	1728.49
451.61	1744.87
451.81	1794.02
452.02	1679.33
452.22	1804.26
452.43	1742.82
452.63	1656.81
