SpectraSuite Data File
++++++++++++++++++++++++++++++++++++
Date: Mon Jun 06 16:47:17 CEST 2016
User: root
Dark Spectrum Present: No
Reference Spectrum Present: No
Number of Sampled Component Spectra: 1
Spectrometers: USB4C02835
Integration Time (usec): 100000 (USB4C02835)
Spectra Averaged: 1 (USB4C02835)
Boxcar Smoothing: 0 (USB4C02835)
Correct for Electrical Dark: No (USB4C02835)
Strobe/Lamp Enabled: No (USB4C02835)
Correct for Detector Non-linearity: No (USB4C02835)
Correct for Stray Light: No (USB4C02835)
Number of Pixels in Processed Spectrum: 3648
>>>>>Begin Processed Spectral Data<<<<<
177.47	1466.35
177.69	1466.35
177.91	1466.35
178.13	1441.77
178.36	1482.73
178.58	1691.62
178.80	1671.14
179.02	1611.75
179.24	1691.62
179.46	1726.44
179.68	1791.97
179.90	1748.97
180.13	1746.92
180.35	1685.48
180.57	1660.90
180.79	1777.64
181.01	1728.49
181.23	1753.06
181.45	1798.12
181.67	1685.48
181.90	1685.48
182.12	1701.86
182.34	1646.57
182.56	1734.63
182.78	1755.11
183.00	1671.14
183.22	1779.68
183.44	1587.18
183.66	1804.26
183.89	1816.55
184.11	1685.48
184.33	1712.10
184.55	1751.01
184.77	1687.53
184.99	1742.82
185.21	1708.01
185.43	1861.60
185.65	1646.57
185.87	1669.09
186.10	1861.60
186.32	1839.08
186.54	1718.25
186.76	1777.64
186.98	1697.77
187.20	1734.63
187.42	1734.63
187.64	1701.86
187.86	1761.25
188.08	1832.93
188.30	1708.01
188.52	1640.42
188.75	1832.93
188.97	1830.88
189.19	1734.63
189.41	1685.48
189.63	1710.05
189.85	1658.85
190.07	1691.62
190.29	1656.81
190.51	1748.97
190.73	1656.81
190.95	1769.44
191.17	1640.42
191.39	1621.99
191.61	1677.29
191.84	1660.90
192.06	1728.49
192.28	1624.04
192.50	1929.19
192.72	1640.42
192.94	1697.77
193.16	1732.58
193.38	1679.33
193.60	1587.18
193.82	1712.10
194.04	1738.73
194.26	1765.35
194.48	1681.38
194.70	1746.92
194.92	1691.62
195.14	1671.14
195.36	1632.23
195.58	1730.53
195.80	1726.44
196.02	1677.29
196.24	1708.01
196.46	1689.57
196.69	1699.81
196.91	1839.08
197.13	1714.15
197.35	1669.09
197.57	1796.07
197.79	1683.43
198.01	1759.21
198.23	1708.01
198.45	1783.78
198.67	1708.01
198.89	1697.77
199.11	1638.38
199.33	1662.95
199.55	1548.26
199.77	1710.05
199.99	1730.53
200.21	1681.38
200.43	1763.30
200.65	1634.28
200.87	1558.50
201.09	1673.19
201.31	1718.25
201.53	1826.79
201.75	1769.44
201.97	1689.57
202.19	1746.92
202.41	1740.77
202.63	1882.08
202.85	1693.67
203.07	1683.43
203.29	1748.97
203.51	1621.99
203.73	1671.14
203.95	1890.28
204.17	1705.96
204.39	1771.49
204.61	1767.40
204.83	1685.48
205.05	1675.24
205.27	1738.73
205.49	1832.93
205.71	1656.81
205.93	1626.09
206.15	1705.96
206.37	1804.26
206.59	1755.11
206.81	1619.94
207.03	1718.25
207.25	1724.39
207.47	1683.43
207.69	1716.20
207.91	1804.26
208.13	1820.64
208.34	1658.85
208.56	1720.29
208.78	1751.01
209.00	1720.29
209.22	1724.39
209.44	1689.57
209.66	1677.29
209.88	1681.38
210.10	1669.09
210.32	1660.90
210.54	1824.74
210.76	1683.43
210.98	1794.02
211.20	1621.99
211.42	1724.39
211.64	1785.83
211.86	1730.53
212.08	1771.49
212.30	1742.82
212.52	1767.40
212.74	1796.07
212.96	1759.21
213.17	1730.53
213.39	1826.79
213.61	1783.78
213.83	1738.73
214.05	1601.51
214.27	1841.12
214.49	1630.18
214.71	1667.05
214.93	1783.78
215.15	1744.87
215.37	1767.40
215.59	1654.76
215.81	1781.73
216.03	1748.97
216.24	1724.39
216.46	1683.43
216.68	1740.77
216.90	1708.01
217.12	1789.92
217.34	1722.34
217.56	1773.54
217.78	1767.40
218.00	1738.73
218.22	1669.09
218.44	1714.15
218.66	1683.43
218.87	1822.69
219.09	1708.01
219.31	1718.25
219.53	1669.09
219.75	1724.39
219.97	1753.06
220.19	1691.62
220.41	1726.44
220.63	1757.16
220.85	1755.11
221.06	1689.57
221.28	1804.26
221.50	1705.96
221.72	1695.72
221.94	1689.57
222.16	1701.86
222.38	1681.38
222.60	1767.40
222.82	1708.01
223.03	1755.11
223.25	1656.81
223.47	1777.64
223.69	1812.45
223.91	1763.30
224.13	1714.15
224.35	1673.19
224.57	1714.15
224.78	1705.96
225.00	1640.42
225.22	1728.49
225.44	1740.77
225.66	1751.01
225.88	1789.92
226.10	1720.29
226.32	1701.86
226.53	1824.74
226.75	1755.11
226.97	1738.73
227.19	1714.15
227.41	1687.53
227.63	1718.25
227.85	1583.08
228.06	1712.10
228.28	1683.43
228.50	1769.44
228.72	1701.86
228.94	1611.75
229.16	1662.95
229.37	1599.46
229.59	1738.73
229.81	1808.36
230.03	1691.62
230.25	1619.94
230.47	1705.96
230.69	1665.00
230.90	1765.35
231.12	1691.62
231.34	1728.49
231.56	1732.58
231.78	1607.66
232.00	1744.87
232.21	1742.82
232.43	1695.72
232.65	1581.03
232.87	1769.44
233.09	1652.71
233.30	1619.94
233.52	1697.77
233.74	1734.63
233.96	1658.85
234.18	1638.38
234.40	1693.67
234.61	1822.69
234.83	1654.76
235.05	1591.27
235.27	1828.84
235.49	1759.21
235.70	1712.10
235.92	1791.97
236.14	1718.25
236.36	1882.08
236.58	1628.14
236.79	1746.92
237.01	1781.73
237.23	1689.57
237.45	1826.79
237.67	1632.23
237.88	1781.73
238.10	1714.15
238.32	1673.19
238.54	1673.19
238.76	1726.44
238.97	1679.33
239.19	1609.70
239.41	1689.57
239.63	1744.87
239.85	1699.81
240.06	1695.72
240.28	1685.48
240.50	1701.86
240.72	1771.49
240.93	1751.01
241.15	1783.78
241.37	1687.53
241.59	1804.26
241.81	1562.60
242.02	1626.09
242.24	1726.44
242.46	1742.82
242.68	1671.14
242.89	1722.34
243.11	1777.64
243.33	1607.66
243.55	1714.15
243.76	1646.57
243.98	1648.61
244.20	1726.44
244.42	1699.81
244.64	1796.07
244.85	1601.51
245.07	1656.81
245.29	1699.81
245.51	1773.54
245.72	1726.44
245.94	1775.59
246.16	1777.64
246.38	1712.10
246.59	1669.09
246.81	1757.16
247.03	1708.01
247.24	1611.75
247.46	1632.23
247.68	1714.15
247.90	1693.67
248.11	1736.68
248.33	1767.40
248.55	1673.19
248.77	1755.11
248.98	1693.67
249.20	1777.64
249.42	1648.61
249.64	1689.57
249.85	1812.45
250.07	1695.72
250.29	1814.50
250.50	1761.25
250.72	1636.33
250.94	1712.10
251.16	1824.74
251.37	1681.38
251.59	1761.25
251.81	1701.86
252.02	1771.49
252.24	1630.18
252.46	1761.25
252.68	1693.67
252.89	1642.47
253.11	1570.79
253.33	1832.93
253.54	1746.92
253.76	1615.85
253.98	1656.81
254.20	1656.81
254.41	1667.05
254.63	1716.20
254.85	1619.94
255.06	1740.77
255.28	1812.45
255.50	1640.42
255.71	1695.72
255.93	1640.42
256.15	1650.66
256.36	1728.49
256.58	1656.81
256.80	1767.40
257.02	1728.49
257.23	1691.62
257.45	1687.53
257.67	1779.68
257.88	1726.44
258.10	1640.42
258.32	1742.82
258.53	1710.05
258.75	1771.49
258.97	1656.81
259.18	1669.09
259.40	1748.97
259.62	1849.32
259.83	1718.25
260.05	1732.58
260.27	2009.06
260.48	1781.73
260.70	1611.75
260.92	1722.34
261.13	1693.67
261.35	1695.72
261.57	1769.44
261.78	1656.81
262.00	1603.56
262.22	1722.34
262.43	1679.33
262.65	1617.90
262.86	1660.90
263.08	1904.61
263.30	1738.73
263.51	1648.61
263.73	1652.71
263.95	1771.49
264.16	1607.66
264.38	1763.30
264.60	1773.54
264.81	1718.25
265.03	1681.38
265.25	1701.86
265.46	1677.29
265.68	1783.78
265.89	1796.07
266.11	1642.47
266.33	1757.16
266.54	1779.68
266.76	1779.68
266.98	1740.77
267.19	1767.40
267.41	1669.09
267.62	1732.58
267.84	1689.57
268.06	1769.44
268.27	1660.90
268.49	1779.68
268.70	1757.16
268.92	1656.81
269.14	1636.33
269.35	1636.33
269.57	1763.30
269.79	1765.35
270.00	1697.77
270.22	1804.26
270.43	1759.21
270.65	1628.14
270.87	1732.58
271.08	1789.92
271.30	1738.73
271.51	1693.67
271.73	1802.21
271.95	1783.78
272.16	1806.31
272.38	1669.09
272.59	1775.59
272.81	1730.53
273.02	1744.87
273.24	1771.49
273.46	1761.25
273.67	1701.86
273.89	1648.61
274.10	1701.86
274.32	1847.27
274.54	1722.34
274.75	1798.12
274.97	1679.33
275.18	1748.97
275.40	1834.98
275.61	1691.62
275.83	1714.15
276.05	1662.95
276.26	1642.47
276.48	1808.36
276.69	1697.77
276.91	1607.66
277.12	1751.01
277.34	1759.21
277.55	1820.64
277.77	1763.30
277.99	1607.66
278.20	1644.52
278.42	1724.39
278.63	1656.81
278.85	1617.90
279.06	1634.28
279.28	1753.06
279.49	1812.45
279.71	1701.86
279.93	1751.01
280.14	1697.77
280.36	1734.63
280.57	1816.55
280.79	1714.15
281.00	1648.61
281.22	1648.61
281.43	1794.02
281.65	1599.46
281.86	1730.53
282.08	1703.91
282.29	1746.92
282.51	1615.85
282.73	1601.51
282.94	1665.00
283.16	1755.11
283.37	1853.41
283.59	1658.85
283.80	1714.15
284.02	1744.87
284.23	1814.50
284.45	1675.24
284.66	1615.85
284.88	1699.81
285.09	1757.16
285.31	1720.29
285.52	1720.29
285.74	1671.14
285.95	1738.73
286.17	1654.76
286.38	1730.53
286.60	1650.66
286.81	1697.77
287.03	1648.61
287.24	1736.68
287.46	1699.81
287.67	1642.47
287.89	1873.89
288.10	1767.40
288.32	1730.53
288.53	1761.25
288.75	1703.91
288.96	1710.05
289.18	1652.71
289.39	1742.82
289.61	1710.05
289.82	1839.08
290.04	1820.64
290.25	1650.66
290.47	1648.61
290.68	1769.44
290.90	1751.01
291.11	1624.04
291.33	1742.82
291.54	1615.85
291.76	1699.81
291.97	1701.86
292.18	1740.77
292.40	1671.14
292.61	1640.42
292.83	1834.98
293.04	1824.74
293.26	1658.85
293.47	1701.86
293.69	1673.19
293.90	1691.62
294.12	1851.36
294.33	1701.86
294.55	1771.49
294.76	1738.73
294.97	1810.40
295.19	1806.31
295.40	1675.24
295.62	1742.82
295.83	1871.84
296.05	1646.57
296.26	1828.84
296.48	1685.48
296.69	1628.14
296.90	1718.25
297.12	1755.11
297.33	1757.16
297.55	1705.96
297.76	1675.24
297.98	1759.21
298.19	1730.53
298.41	1683.43
298.62	1652.71
298.83	1769.44
299.05	1738.73
299.26	1722.34
299.48	1615.85
299.69	1746.92
299.90	1773.54
300.12	1628.14
300.33	1722.34
300.55	1724.39
300.76	1771.49
300.98	1593.32
301.19	1683.43
301.40	1671.14
301.62	1648.61
301.83	1730.53
302.05	1699.81
302.26	1638.38
302.47	1726.44
302.69	1630.18
302.90	1662.95
303.12	1566.70
303.33	1716.20
303.54	1796.07
303.76	1718.25
303.97	1693.67
304.19	1849.32
304.40	1699.81
304.61	1742.82
304.83	1920.99
305.04	1783.78
305.26	1691.62
305.47	1619.94
305.68	1695.72
305.90	1611.75
306.11	1855.46
306.33	1681.38
306.54	1673.19
306.75	1621.99
306.97	1650.66
307.18	1722.34
307.39	1650.66
307.61	1771.49
307.82	1685.48
308.04	1710.05
308.25	1705.96
308.46	1734.63
308.68	1732.58
308.89	1730.53
309.10	1718.25
309.32	1705.96
309.53	1685.48
309.74	1789.92
309.96	1703.91
310.17	1718.25
310.39	1693.67
310.60	1714.15
310.81	1726.44
311.03	1634.28
311.24	1718.25
311.45	1705.96
311.67	1855.46
311.88	1787.88
312.09	1685.48
312.31	1669.09
312.52	1755.11
312.73	1636.33
312.95	1634.28
313.16	1640.42
313.37	1794.02
313.59	1724.39
313.80	1787.88
314.01	1681.38
314.23	1662.95
314.44	1734.63
314.65	1634.28
314.87	1665.00
315.08	1738.73
315.29	1634.28
315.51	1681.38
315.72	1681.38
315.93	1796.07
316.15	1755.11
316.36	1650.66
316.57	1656.81
316.79	1759.21
317.00	1689.57
317.21	1763.30
317.43	1679.33
317.64	1660.90
317.85	1679.33
318.07	1736.68
318.28	1773.54
318.49	1822.69
318.70	1857.51
318.92	1785.83
319.13	1767.40
319.34	1890.28
319.56	1828.84
319.77	1853.41
319.98	1765.35
320.20	1710.05
320.41	1746.92
320.62	1781.73
320.83	1642.47
321.05	1908.71
321.26	1714.15
321.47	1744.87
321.69	1761.25
321.90	1634.28
322.11	1736.68
322.32	1681.38
322.54	1820.64
322.75	1617.90
322.96	1822.69
323.18	1638.38
323.39	1628.14
323.60	1652.71
323.81	1779.68
324.03	1636.33
324.24	1710.05
324.45	1705.96
324.66	1736.68
324.88	1796.07
325.09	1787.88
325.30	1716.20
325.52	1699.81
325.73	1738.73
325.94	1669.09
326.15	1597.42
326.37	1724.39
326.58	1703.91
326.79	1720.29
327.00	1671.14
327.22	1763.30
327.43	1673.19
327.64	1650.66
327.85	1708.01
328.07	1632.23
328.28	1808.36
328.49	1640.42
328.70	1660.90
328.92	1744.87
329.13	1671.14
329.34	1722.34
329.55	1755.11
329.76	1816.55
329.98	1703.91
330.19	1796.07
330.40	1703.91
330.61	1759.21
330.83	1779.68
331.04	1628.14
331.25	1734.63
331.46	1738.73
331.68	1671.14
331.89	1730.53
332.10	1726.44
332.31	1671.14
332.52	1720.29
332.74	1814.50
332.95	1671.14
333.16	1685.48
333.37	1673.19
333.58	1687.53
333.80	1722.34
334.01	1595.37
334.22	1650.66
334.43	1701.86
334.64	1695.72
334.86	1601.51
335.07	1619.94
335.28	1785.83
335.49	1615.85
335.70	1771.49
335.92	1798.12
336.13	1820.64
336.34	1687.53
336.55	1757.16
336.76	1679.33
336.98	1646.57
337.19	1652.71
337.40	1826.79
337.61	1906.66
337.82	1673.19
338.04	1865.70
338.25	1662.95
338.46	1705.96
338.67	1705.96
338.88	1652.71
339.09	1644.52
339.31	1613.80
339.52	1628.14
339.73	1675.24
339.94	1708.01
340.15	1765.35
340.36	1720.29
340.58	1746.92
340.79	1601.51
341.00	1710.05
341.21	1699.81
341.42	1787.88
341.63	1720.29
341.85	1777.64
342.06	1738.73
342.27	1636.33
342.48	1705.96
342.69	1695.72
342.90	1746.92
343.12	1830.88
343.33	1617.90
343.54	1718.25
343.75	1746.92
343.96	1757.16
344.17	1697.77
344.38	1640.42
344.60	1609.70
344.81	1650.66
345.02	1632.23
345.23	1730.53
345.44	1779.68
345.65	1638.38
345.86	1714.15
346.07	1746.92
346.29	1718.25
346.50	1814.50
346.71	1767.40
346.92	1730.53
347.13	1828.84
347.34	1769.44
347.55	1699.81
347.76	1769.44
347.98	1658.85
348.19	1687.53
348.40	1738.73
348.61	1699.81
348.82	1787.88
349.03	1734.63
349.24	1685.48
349.45	1798.12
349.66	1603.56
349.88	1679.33
350.09	1687.53
350.30	1718.25
350.51	1808.36
350.72	1740.77
350.93	1738.73
351.14	1693.67
351.35	1732.58
351.56	1802.21
351.77	1708.01
351.99	1712.10
352.20	1814.50
352.41	1818.60
352.62	1669.09
352.83	1685.48
353.04	1642.47
353.25	1677.29
353.46	1765.35
353.67	1726.44
353.88	1642.47
354.09	1712.10
354.30	1757.16
354.52	1755.11
354.73	1712.10
354.94	1705.96
355.15	1654.76
355.36	1806.31
355.57	1703.91
355.78	1708.01
355.99	1650.66
356.20	1632.23
356.41	1767.40
356.62	1748.97
356.83	1726.44
357.04	1804.26
357.25	1691.62
357.46	1689.57
357.68	1712.10
357.89	1640.42
358.10	1718.25
358.31	1673.19
358.52	1716.20
358.73	1642.47
358.94	1705.96
359.15	1724.39
359.36	1681.38
359.57	1765.35
359.78	1693.67
359.99	1718.25
360.20	1652.71
360.41	1746.92
360.62	1740.77
360.83	1714.15
361.04	1746.92
361.25	1808.36
361.46	1771.49
361.67	1767.40
361.88	1761.25
362.09	1775.59
362.30	1755.11
362.51	1630.18
362.72	1740.77
362.93	1748.97
363.14	1787.88
363.35	1701.86
363.56	1681.38
363.78	1849.32
363.99	1755.11
364.20	1730.53
364.41	1681.38
364.62	1796.07
364.83	1724.39
365.04	1697.77
365.25	1738.73
365.46	1740.77
365.67	1677.29
365.88	1734.63
366.09	1726.44
366.30	1652.71
366.51	1689.57
366.72	1626.09
366.93	1691.62
367.14	1765.35
367.35	1751.01
367.56	1656.81
367.77	1787.88
367.98	1691.62
368.18	1742.82
368.39	1675.24
368.60	1755.11
368.81	1714.15
369.02	1640.42
369.23	1769.44
369.44	1632.23
369.65	1687.53
369.86	1779.68
370.07	1720.29
370.28	1558.50
370.49	1742.82
370.70	1740.77
370.91	1617.90
371.12	1693.67
371.33	1775.59
371.54	1662.95
371.75	1787.88
371.96	1574.89
372.17	1667.05
372.38	1667.05
372.59	1781.73
372.80	1667.05
373.01	1753.06
373.22	1718.25
373.43	1718.25
373.64	1640.42
373.85	1773.54
374.06	1767.40
374.26	1726.44
374.47	1701.86
374.68	1773.54
374.89	1673.19
375.10	1667.05
375.31	1730.53
375.52	1724.39
375.73	1753.06
375.94	1662.95
376.15	1863.65
376.36	1662.95
376.57	1669.09
376.78	1753.06
376.99	1738.73
377.20	1824.74
377.40	1732.58
377.61	1791.97
377.82	1646.57
378.03	1839.08
378.24	1730.53
378.45	1728.49
378.66	1718.25
378.87	1570.79
379.08	1642.47
379.29	1697.77
379.50	1759.21
379.71	1662.95
379.91	1697.77
380.12	1726.44
380.33	1646.57
380.54	1730.53
380.75	1691.62
380.96	1726.44
381.17	1771.49
381.38	1710.05
381.59	1791.97
381.80	1759.21
382.00	1789.92
382.21	1800.16
382.42	1869.80
382.63	1943.52
382.84	1779.68
383.05	1816.55
383.26	1779.68
383.47	1716.20
383.68	1714.15
383.88	1720.29
384.09	1742.82
384.30	1845.22
384.51	1757.16
384.72	1753.06
384.93	1648.61
385.14	1701.86
385.35	1748.97
385.55	1624.04
385.76	1781.73
385.97	1742.82
386.18	1626.09
386.39	1691.62
386.60	1722.34
386.81	1730.53
387.02	1650.66
387.22	1654.76
387.43	1742.82
387.64	1855.46
387.85	1869.80
388.06	2285.53
388.27	4229.06
388.48	6776.73
388.68	8187.78
388.89	9785.19
389.10	9758.57
389.31	8564.61
389.52	7393.17
389.73	6668.19
389.93	6209.44
390.14	5826.47
390.35	5167.03
390.56	4579.26
390.77	3807.17
390.98	3071.95
391.18	2543.58
391.39	2113.50
391.60	1802.21
391.81	1773.54
392.02	1714.15
392.23	1843.17
392.43	1755.11
392.64	1806.31
392.85	1648.61
393.06	1806.31
393.27	1730.53
393.47	1603.56
393.68	1728.49
393.89	1683.43
394.10	1744.87
394.31	1720.29
394.52	1656.81
394.72	1695.72
394.93	1789.92
395.14	1683.43
395.35	1718.25
395.56	1701.86
395.76	1669.09
395.97	1804.26
396.18	1822.69
396.39	1843.17
396.60	2017.25
396.80	1906.66
397.01	1947.62
397.22	1832.93
397.43	1789.92
397.64	1705.96
397.84	1806.31
398.05	1886.18
398.26	1740.77
398.47	1773.54
398.67	1814.50
398.88	1712.10
399.09	1802.21
399.30	1667.05
399.51	1654.76
399.71	1644.52
399.92	1673.19
400.13	1681.38
400.34	1726.44
400.54	1669.09
400.75	1785.83
400.96	1701.86
401.17	1828.84
401.37	1656.81
401.58	1751.01
401.79	1648.61
402.00	1818.60
402.21	2041.82
402.41	1966.05
402.62	2052.06
402.83	2011.11
403.04	2002.91
403.24	2054.11
403.45	1847.27
403.66	1882.08
403.87	1900.52
404.07	1980.39
404.28	1941.47
404.49	1863.65
404.70	1779.68
404.90	1826.79
405.11	1798.12
405.32	1734.63
405.52	1685.48
405.73	1636.33
405.94	1761.25
406.15	1718.25
406.35	1759.21
406.56	1679.33
406.77	1732.58
406.98	1794.02
407.18	1691.62
407.39	1755.11
407.60	1685.48
407.80	1806.31
408.01	1697.77
408.22	1771.49
408.43	1656.81
408.63	1701.86
408.84	1826.79
409.05	1845.22
409.25	1654.76
409.46	1693.67
409.67	1705.96
409.88	1632.23
410.08	1712.10
410.29	1693.67
410.50	1638.38
410.70	1847.27
410.91	1658.85
411.12	1710.05
411.32	1701.86
411.53	1728.49
411.74	1822.69
411.95	1753.06
412.15	1771.49
412.36	1699.81
412.57	1761.25
412.77	1853.41
412.98	1701.86
413.19	1722.34
413.39	1746.92
413.60	1705.96
413.81	1796.07
414.01	1646.57
414.22	1714.15
414.43	1763.30
414.63	1662.95
414.84	1746.92
415.05	1710.05
415.25	1691.62
415.46	1763.30
415.67	1763.30
415.87	1734.63
416.08	1712.10
416.29	1716.20
416.49	1716.20
416.70	1708.01
416.91	1656.81
417.11	1744.87
417.32	1759.21
417.53	1832.93
417.73	1820.64
417.94	1787.88
418.15	1730.53
418.35	1724.39
418.56	1765.35
418.77	1804.26
418.97	1722.34
419.18	1726.44
419.38	1585.13
419.59	1644.52
419.80	1796.07
420.00	1681.38
420.21	1701.86
420.42	1767.40
420.62	1691.62
420.83	1662.95
421.04	1679.33
421.24	1744.87
421.45	1617.90
421.65	1662.95
421.86	1699.81
422.07	1748.97
422.27	1681.38
422.48	1742.82
422.69	1722.34
422.89	1728.49
423.10	1716.20
423.30	1662.95
423.51	1742.82
423.72	1726.44
423.92	1726.44
424.13	1576.94
424.33	1738.73
424.54	1771.49
424.75	1669.09
424.95	1857.51
425.16	1744.87
425.36	1642.47
425.57	1800.16
425.78	1720.29
425.98	1769.44
426.19	1708.01
426.39	1662.95
426.60	1669.09
426.81	1845.22
427.01	1667.05
427.22	1681.38
427.42	1585.13
427.63	1595.37
427.83	1751.01
428.04	1767.40
428.25	1767.40
428.45	1812.45
428.66	1753.06
428.86	1632.23
429.07	1652.71
429.28	1781.73
429.48	1607.66
429.69	1744.87
429.89	1697.77
430.10	1734.63
430.30	1751.01
430.51	1775.59
430.71	1650.66
430.92	1638.38
431.13	1722.34
431.33	1726.44
431.54	1796.07
431.74	1839.08
431.95	1841.12
432.15	1648.61
432.36	1769.44
432.56	1824.74
432.77	1804.26
432.98	1857.51
433.18	1753.06
433.39	1650.66
433.59	1742.82
433.80	1740.77
434.00	1814.50
434.21	1703.91
434.41	1656.81
434.62	1814.50
434.82	1677.29
435.03	1697.77
435.23	1683.43
435.44	1626.09
435.64	1761.25
435.85	1763.30
436.06	1757.16
436.26	1789.92
436.47	1732.58
436.67	1742.82
436.88	1708.01
437.08	1816.55
437.29	1845.22
437.49	1675.24
437.70	1771.49
437.90	1730.53
438.11	1814.50
438.31	1796.07
438.52	1804.26
438.72	1861.60
438.93	1824.74
439.13	1886.18
439.34	1855.46
439.54	1789.92
439.75	1804.26
439.95	1753.06
440.16	1851.36
440.36	1808.36
440.57	1759.21
440.77	1781.73
440.98	1785.83
441.18	1759.21
441.39	1693.67
441.59	1685.48
441.80	1857.51
442.00	1726.44
442.21	1822.69
442.41	1679.33
442.62	1781.73
442.82	1673.19
443.02	1716.20
443.23	1736.68
443.43	1767.40
443.64	1787.88
443.84	1669.09
444.05	1751.01
444.25	1697.77
444.46	1687.53
444.66	1710.05
444.87	1800.16
445.07	1640.42
445.28	1761.25
445.48	1794.02
445.69	1800.16
445.89	1875.94
446.09	1724.39
446.30	1966.05
446.50	2531.29
446.71	3651.53
446.91	4411.32
447.12	4839.35
447.32	4878.26
447.53	4300.73
447.73	3827.65
447.93	3485.64
448.14	3422.16
448.34	3172.30
448.55	2985.94
448.75	2797.53
448.96	2713.56
449.16	2406.36
449.36	2254.81
449.57	2160.61
449.77	1925.09
449.98	1855.46
450.18	1796.07
450.39	1808.36
450.59	1767.40
450.79	1816.55
451.00	1708.01
451.20	1726.44
451.41	1818.60
451.61	1734.63
451.81	1740.77
452.02	1724.39
452.22	1802.21
452.43	1705.96
452.63	1701.86
