SpectraSuite Data File
++++++++++++++++++++++++++++++++++++
Date: Mon Jun 06 12:34:17 CEST 2016
User: root
Dark Spectrum Present: No
Reference Spectrum Present: No
Number of Sampled Component Spectra: 1
Spectrometers: USB4C02835
Integration Time (usec): 100000 (USB4C02835)
Spectra Averaged: 1 (USB4C02835)
Boxcar Smoothing: 0 (USB4C02835)
Correct for Electrical Dark: No (USB4C02835)
Strobe/Lamp Enabled: No (USB4C02835)
Correct for Detector Non-linearity: No (USB4C02835)
Correct for Stray Light: No (USB4C02835)
Number of Pixels in Processed Spectrum: 3648
>>>>>Begin Processed Spectral Data<<<<<
177.47	1456.11
177.69	1456.11
177.91	1456.11
178.13	1437.67
178.36	1421.29
178.58	1591.27
178.80	1722.34
179.02	1617.90
179.24	1636.33
179.46	1771.49
179.68	1787.88
179.90	1652.71
180.13	1665.00
180.35	1665.00
180.57	1650.66
180.79	1703.91
181.01	1648.61
181.23	1810.40
181.45	1763.30
181.67	1691.62
181.90	1777.64
182.12	1617.90
182.34	1660.90
182.56	1736.68
182.78	1656.81
183.00	1677.29
183.22	1718.25
183.44	1648.61
183.66	1828.84
183.89	1822.69
184.11	1742.82
184.33	1648.61
184.55	1730.53
184.77	1669.09
184.99	1789.92
185.21	1605.61
185.43	1814.50
185.65	1687.53
185.87	1712.10
186.10	1830.88
186.32	1910.75
186.54	1744.87
186.76	1767.40
186.98	1714.15
187.20	1728.49
187.42	1691.62
187.64	1675.24
187.86	1718.25
188.08	1705.96
188.30	1716.20
188.52	1607.66
188.75	1789.92
188.97	1771.49
189.19	1589.22
189.41	1703.91
189.63	1695.72
189.85	1683.43
190.07	1597.42
190.29	1542.12
190.51	1722.34
190.73	1599.46
190.95	1783.78
191.17	1644.52
191.39	1611.75
191.61	1640.42
191.84	1574.89
192.06	1621.99
192.28	1554.41
192.50	1914.85
192.72	1746.92
192.94	1654.76
193.16	1730.53
193.38	1701.86
193.60	1652.71
193.82	1636.33
194.04	1695.72
194.26	1703.91
194.48	1683.43
194.70	1595.37
194.92	1714.15
195.14	1751.01
195.36	1656.81
195.58	1732.58
195.80	1718.25
196.02	1691.62
196.24	1693.67
196.46	1617.90
196.69	1671.14
196.91	1810.40
197.13	1701.86
197.35	1562.60
197.57	1753.06
197.79	1705.96
198.01	1746.92
198.23	1699.81
198.45	1796.07
198.67	1667.05
198.89	1724.39
199.11	1753.06
199.33	1763.30
199.55	1624.04
199.77	1673.19
199.99	1744.87
200.21	1695.72
200.43	1763.30
200.65	1685.48
200.87	1642.47
201.09	1679.33
201.31	1701.86
201.53	1779.68
201.75	1722.34
201.97	1714.15
202.19	1705.96
202.41	1765.35
202.63	1839.08
202.85	1654.76
203.07	1732.58
203.29	1724.39
203.51	1578.98
203.73	1626.09
203.95	1789.92
204.17	1763.30
204.39	1800.16
204.61	1742.82
204.83	1689.57
205.05	1726.44
205.27	1761.25
205.49	1869.80
205.71	1705.96
205.93	1628.14
206.15	1585.13
206.37	1677.29
206.59	1695.72
206.81	1593.32
207.03	1628.14
207.25	1652.71
207.47	1728.49
207.69	1654.76
207.91	1718.25
208.13	1761.25
208.34	1660.90
208.56	1613.80
208.78	1738.73
209.00	1708.01
209.22	1634.28
209.44	1728.49
209.66	1705.96
209.88	1665.00
210.10	1656.81
210.32	1710.05
210.54	1798.12
210.76	1710.05
210.98	1712.10
211.20	1566.70
211.42	1648.61
211.64	1753.06
211.86	1701.86
212.08	1703.91
212.30	1689.57
212.52	1679.33
212.74	1693.67
212.96	1771.49
213.17	1847.27
213.39	1732.58
213.61	1765.35
213.83	1746.92
214.05	1667.05
214.27	1730.53
214.49	1642.47
214.71	1630.18
214.93	1783.78
215.15	1683.43
215.37	1800.16
215.59	1611.75
215.81	1751.01
216.03	1769.44
216.24	1667.05
216.46	1751.01
216.68	1683.43
216.90	1791.97
217.12	1716.20
217.34	1712.10
217.56	1789.92
217.78	1732.58
218.00	1693.67
218.22	1716.20
218.44	1783.78
218.66	1613.80
218.87	1861.60
219.09	1638.38
219.31	1701.86
219.53	1681.38
219.75	1667.05
219.97	1619.94
220.19	1710.05
220.41	1697.77
220.63	1789.92
220.85	1730.53
221.06	1646.57
221.28	1777.64
221.50	1757.16
221.72	1757.16
221.94	1669.09
222.16	1630.18
222.38	1761.25
222.60	1708.01
222.82	1705.96
223.03	1714.15
223.25	1701.86
223.47	1703.91
223.69	1746.92
223.91	1708.01
224.13	1691.62
224.35	1652.71
224.57	1701.86
224.78	1734.63
225.00	1624.04
225.22	1665.00
225.44	1640.42
225.66	1685.48
225.88	1611.75
226.10	1789.92
226.32	1697.77
226.53	1802.21
226.75	1708.01
226.97	1617.90
227.19	1787.88
227.41	1646.57
227.63	1640.42
227.85	1632.23
228.06	1779.68
228.28	1689.57
228.50	1751.01
228.72	1634.28
228.94	1685.48
229.16	1703.91
229.37	1642.47
229.59	1642.47
229.81	1771.49
230.03	1677.29
230.25	1630.18
230.47	1673.19
230.69	1675.24
230.90	1759.21
231.12	1701.86
231.34	1796.07
231.56	1671.14
231.78	1632.23
232.00	1634.28
232.21	1718.25
232.43	1611.75
232.65	1560.55
232.87	1697.77
233.09	1595.37
233.30	1640.42
233.52	1675.24
233.74	1691.62
233.96	1730.53
234.18	1615.85
234.40	1671.14
234.61	1820.64
234.83	1658.85
235.05	1658.85
235.27	1837.03
235.49	1759.21
235.70	1658.85
235.92	1736.68
236.14	1685.48
236.36	1800.16
236.58	1601.51
236.79	1732.58
237.01	1714.15
237.23	1701.86
237.45	1744.87
237.67	1681.38
237.88	1728.49
238.10	1800.16
238.32	1646.57
238.54	1693.67
238.76	1687.53
238.97	1576.94
239.19	1679.33
239.41	1675.24
239.63	1796.07
239.85	1777.64
240.06	1748.97
240.28	1595.37
240.50	1751.01
240.72	1726.44
240.93	1722.34
241.15	1789.92
241.37	1759.21
241.59	1775.59
241.81	1685.48
242.02	1708.01
242.24	1693.67
242.46	1732.58
242.68	1681.38
242.89	1736.68
243.11	1777.64
243.33	1714.15
243.55	1714.15
243.76	1714.15
243.98	1591.27
244.20	1662.95
244.42	1697.77
244.64	1671.14
244.85	1581.03
245.07	1621.99
245.29	1767.40
245.51	1714.15
245.72	1724.39
245.94	1789.92
246.16	1669.09
246.38	1714.15
246.59	1730.53
246.81	1665.00
247.03	1748.97
247.24	1626.09
247.46	1566.70
247.68	1763.30
247.90	1646.57
248.11	1683.43
248.33	1718.25
248.55	1695.72
248.77	1675.24
248.98	1812.45
249.20	1705.96
249.42	1667.05
249.64	1728.49
249.85	1656.81
250.07	1667.05
250.29	1640.42
250.50	1767.40
250.72	1617.90
250.94	1716.20
251.16	1841.12
251.37	1798.12
251.59	1757.16
251.81	1705.96
252.02	1808.36
252.24	1669.09
252.46	1800.16
252.68	1644.52
252.89	1677.29
253.11	1650.66
253.33	1820.64
253.54	1806.31
253.76	1632.23
253.98	1716.20
254.20	1669.09
254.41	1609.70
254.63	1603.56
254.85	1695.72
255.06	1705.96
255.28	1751.01
255.50	1751.01
255.71	1646.57
255.93	1615.85
256.15	1724.39
256.36	1722.34
256.58	1646.57
256.80	1740.77
257.02	1644.52
257.23	1621.99
257.45	1689.57
257.67	1773.54
257.88	1673.19
258.10	1734.63
258.32	1630.18
258.53	1746.92
258.75	1779.68
258.97	1732.58
259.18	1746.92
259.40	1734.63
259.62	1818.60
259.83	1775.59
260.05	1740.77
260.27	1918.95
260.48	1695.72
260.70	1722.34
260.92	1726.44
261.13	1675.24
261.35	1755.11
261.57	1683.43
261.78	1566.70
262.00	1665.00
262.22	1644.52
262.43	1693.67
262.65	1628.14
262.86	1681.38
263.08	1886.18
263.30	1730.53
263.51	1650.66
263.73	1673.19
263.95	1757.16
264.16	1611.75
264.38	1732.58
264.60	1734.63
264.81	1736.68
265.03	1720.29
265.25	1773.54
265.46	1667.05
265.68	1769.44
265.89	1722.34
266.11	1583.08
266.33	1732.58
266.54	1789.92
266.76	1824.74
266.98	1656.81
267.19	1705.96
267.41	1753.06
267.62	1662.95
267.84	1587.18
268.06	1779.68
268.27	1751.01
268.49	1634.28
268.70	1726.44
268.92	1771.49
269.14	1656.81
269.35	1630.18
269.57	1734.63
269.79	1732.58
270.00	1624.04
270.22	1837.03
270.43	1687.53
270.65	1638.38
270.87	1695.72
271.08	1708.01
271.30	1808.36
271.51	1665.00
271.73	1726.44
271.95	1841.12
272.16	1675.24
272.38	1685.48
272.59	1673.19
272.81	1714.15
273.02	1652.71
273.24	1746.92
273.46	1726.44
273.67	1636.33
273.89	1712.10
274.10	1630.18
274.32	1726.44
274.54	1755.11
274.75	1701.86
274.97	1738.73
275.18	1742.82
275.40	1710.05
275.61	1671.14
275.83	1732.58
276.05	1630.18
276.26	1650.66
276.48	1675.24
276.69	1665.00
276.91	1642.47
277.12	1908.71
277.34	1787.88
277.55	1736.68
277.77	1636.33
277.99	1640.42
278.20	1701.86
278.42	1665.00
278.63	1624.04
278.85	1697.77
279.06	1624.04
279.28	1783.78
279.49	1695.72
279.71	1765.35
279.93	1658.85
280.14	1648.61
280.36	1642.47
280.57	1757.16
280.79	1634.28
281.00	1716.20
281.22	1669.09
281.43	1775.59
281.65	1544.17
281.86	1630.18
282.08	1705.96
282.29	1783.78
282.51	1636.33
282.73	1656.81
282.94	1626.09
283.16	1730.53
283.37	1734.63
283.59	1716.20
283.80	1767.40
284.02	1728.49
284.23	1693.67
284.45	1699.81
284.66	1746.92
284.88	1691.62
285.09	1730.53
285.31	1746.92
285.52	1603.56
285.74	1615.85
285.95	1681.38
286.17	1638.38
286.38	1689.57
286.60	1689.57
286.81	1595.37
287.03	1689.57
287.24	1634.28
287.46	1757.16
287.67	1699.81
287.89	1796.07
288.10	1705.96
288.32	1658.85
288.53	1724.39
288.75	1652.71
288.96	1812.45
289.18	1675.24
289.39	1689.57
289.61	1775.59
289.82	1744.87
290.04	1808.36
290.25	1703.91
290.47	1705.96
290.68	1646.57
290.90	1800.16
291.11	1517.54
291.33	1746.92
291.54	1607.66
291.76	1697.77
291.97	1685.48
292.18	1794.02
292.40	1648.61
292.61	1708.01
292.83	1894.37
293.04	1665.00
293.26	1673.19
293.47	1689.57
293.69	1554.41
293.90	1744.87
294.12	1761.25
294.33	1609.70
294.55	1732.58
294.76	1691.62
294.97	1771.49
295.19	1791.97
295.40	1667.05
295.62	1685.48
295.83	1771.49
296.05	1535.98
296.26	1822.69
296.48	1705.96
296.69	1734.63
296.90	1705.96
297.12	1710.05
297.33	1742.82
297.55	1701.86
297.76	1705.96
297.98	1689.57
298.19	1773.54
298.41	1701.86
298.62	1662.95
298.83	1753.06
299.05	1716.20
299.26	1634.28
299.48	1621.99
299.69	1779.68
299.90	1703.91
300.12	1757.16
300.33	1740.77
300.55	1613.80
300.76	1720.29
300.98	1683.43
301.19	1703.91
301.40	1624.04
301.62	1617.90
301.83	1779.68
302.05	1699.81
302.26	1740.77
302.47	1726.44
302.69	1617.90
302.90	1636.33
303.12	1595.37
303.33	1724.39
303.54	1777.64
303.76	1658.85
303.97	1681.38
304.19	1789.92
304.40	1675.24
304.61	1718.25
304.83	1755.11
305.04	1742.82
305.26	1691.62
305.47	1650.66
305.68	1693.67
305.90	1646.57
306.11	1746.92
306.33	1603.56
306.54	1640.42
306.75	1652.71
306.97	1605.61
307.18	1617.90
307.39	1677.29
307.61	1755.11
307.82	1673.19
308.04	1767.40
308.25	1667.05
308.46	1767.40
308.68	1685.48
308.89	1697.77
309.10	1773.54
309.32	1673.19
309.53	1773.54
309.74	1746.92
309.96	1675.24
310.17	1703.91
310.39	1697.77
310.60	1703.91
310.81	1685.48
311.03	1640.42
311.24	1675.24
311.45	1714.15
311.67	1834.98
311.88	1677.29
312.09	1697.77
312.31	1648.61
312.52	1673.19
312.73	1695.72
312.95	1652.71
313.16	1640.42
313.37	1710.05
313.59	1791.97
313.80	1705.96
314.01	1820.64
314.23	1677.29
314.44	1640.42
314.65	1615.85
314.87	1714.15
315.08	1687.53
315.29	1656.81
315.51	1701.86
315.72	1642.47
315.93	1761.25
316.15	1767.40
316.36	1624.04
316.57	1714.15
316.79	1726.44
317.00	1693.67
317.21	1705.96
317.43	1640.42
317.64	1728.49
317.85	1662.95
318.07	1669.09
318.28	1656.81
318.49	1744.87
318.70	1914.85
318.92	1816.55
319.13	1843.17
319.34	1804.26
319.56	1775.59
319.77	1794.02
319.98	1794.02
320.20	1763.30
320.41	1742.82
320.62	1767.40
320.83	1699.81
321.05	1748.97
321.26	1730.53
321.47	1673.19
321.69	1804.26
321.90	1613.80
322.11	1671.14
322.32	1710.05
322.54	1798.12
322.75	1697.77
322.96	1908.71
323.18	1636.33
323.39	1570.79
323.60	1720.29
323.81	1796.07
324.03	1626.09
324.24	1656.81
324.45	1689.57
324.66	1689.57
324.88	1734.63
325.09	1757.16
325.30	1687.53
325.52	1748.97
325.73	1683.43
325.94	1587.18
326.15	1632.23
326.37	1669.09
326.58	1705.96
326.79	1757.16
327.00	1683.43
327.22	1718.25
327.43	1701.86
327.64	1673.19
327.85	1808.36
328.07	1761.25
328.28	1757.16
328.49	1646.57
328.70	1695.72
328.92	1675.24
329.13	1685.48
329.34	1671.14
329.55	1808.36
329.76	1642.47
329.98	1648.61
330.19	1740.77
330.40	1767.40
330.61	1660.90
330.83	1789.92
331.04	1617.90
331.25	1759.21
331.46	1665.00
331.68	1603.56
331.89	1800.16
332.10	1705.96
332.31	1632.23
332.52	1648.61
332.74	1796.07
332.95	1677.29
333.16	1656.81
333.37	1724.39
333.58	1638.38
333.80	1761.25
334.01	1490.92
334.22	1669.09
334.43	1738.73
334.64	1710.05
334.86	1597.42
335.07	1587.18
335.28	1775.59
335.49	1687.53
335.70	1687.53
335.92	1718.25
336.13	1865.70
336.34	1714.15
336.55	1759.21
336.76	1748.97
336.98	1593.32
337.19	1654.76
337.40	1804.26
337.61	1849.32
337.82	1675.24
338.04	1716.20
338.25	1642.47
338.46	1660.90
338.67	1665.00
338.88	1632.23
339.09	1691.62
339.31	1677.29
339.52	1562.60
339.73	1533.93
339.94	1652.71
340.15	1699.81
340.36	1671.14
340.58	1673.19
340.79	1693.67
341.00	1665.00
341.21	1570.79
341.42	1714.15
341.63	1628.14
341.85	1744.87
342.06	1665.00
342.27	1662.95
342.48	1687.53
342.69	1581.03
342.90	1734.63
343.12	1720.29
343.33	1699.81
343.54	1716.20
343.75	1777.64
343.96	1710.05
344.17	1718.25
344.38	1615.85
344.60	1609.70
344.81	1669.09
345.02	1722.34
345.23	1769.44
345.44	1800.16
345.65	1759.21
345.86	1771.49
346.07	1757.16
346.29	1685.48
346.50	1757.16
346.71	1681.38
346.92	1767.40
347.13	1808.36
347.34	1679.33
347.55	1744.87
347.76	1748.97
347.98	1654.76
348.19	1617.90
348.40	1828.84
348.61	1724.39
348.82	1751.01
349.03	1701.86
349.24	1650.66
349.45	1804.26
349.66	1564.65
349.88	1703.91
350.09	1660.90
350.30	1794.02
350.51	1783.78
350.72	1705.96
350.93	1621.99
351.14	1615.85
351.35	1724.39
351.56	1753.06
351.77	1669.09
351.99	1714.15
352.20	1789.92
352.41	1740.77
352.62	1538.02
352.83	1726.44
353.04	1679.33
353.25	1656.81
353.46	1806.31
353.67	1804.26
353.88	1640.42
354.09	1687.53
354.30	1648.61
354.52	1685.48
354.73	1638.38
354.94	1656.81
355.15	1769.44
355.36	1771.49
355.57	1662.95
355.78	1734.63
355.99	1697.77
356.20	1660.90
356.41	1746.92
356.62	1716.20
356.83	1748.97
357.04	1740.77
357.25	1619.94
357.46	1662.95
357.68	1687.53
357.89	1703.91
358.10	1660.90
358.31	1691.62
358.52	1658.85
358.73	1642.47
358.94	1650.66
359.15	1636.33
359.36	1708.01
359.57	1697.77
359.78	1710.05
359.99	1738.73
360.20	1673.19
360.41	1697.77
360.62	1802.21
360.83	1693.67
361.04	1718.25
361.25	1746.92
361.46	1720.29
361.67	1730.53
361.88	1671.14
362.09	1718.25
362.30	1699.81
362.51	1689.57
362.72	1701.86
362.93	1705.96
363.14	1677.29
363.35	1757.16
363.56	1652.71
363.78	1689.57
363.99	1779.68
364.20	1634.28
364.41	1691.62
364.62	1863.65
364.83	1726.44
365.04	1640.42
365.25	1703.91
365.46	1710.05
365.67	1599.46
365.88	1613.80
366.09	1675.24
366.30	1665.00
366.51	1693.67
366.72	1636.33
366.93	1722.34
367.14	1738.73
367.35	1685.48
367.56	1708.01
367.77	1794.02
367.98	1710.05
368.18	1658.85
368.39	1705.96
368.60	1669.09
368.81	1671.14
369.02	1619.94
369.23	1626.09
369.44	1650.66
369.65	1630.18
369.86	1738.73
370.07	1834.98
370.28	1650.66
370.49	1708.01
370.70	1710.05
370.91	1685.48
371.12	1720.29
371.33	1724.39
371.54	1695.72
371.75	1779.68
371.96	1619.94
372.17	1710.05
372.38	1646.57
372.59	1763.30
372.80	1710.05
373.01	1697.77
373.22	1746.92
373.43	1646.57
373.64	1652.71
373.85	1728.49
374.06	1783.78
374.26	1751.01
374.47	1667.05
374.68	1777.64
374.89	1759.21
375.10	1697.77
375.31	1804.26
375.52	1662.95
375.73	1677.29
375.94	1599.46
376.15	1822.69
376.36	1701.86
376.57	1636.33
376.78	1619.94
376.99	1755.11
377.20	1716.20
377.40	1681.38
377.61	1757.16
377.82	1638.38
378.03	1785.83
378.24	1748.97
378.45	1691.62
378.66	1830.88
378.87	1564.65
379.08	1607.66
379.29	1667.05
379.50	1755.11
379.71	1665.00
379.91	1726.44
380.12	1646.57
380.33	1701.86
380.54	1716.20
380.75	1714.15
380.96	1617.90
381.17	1730.53
381.38	1763.30
381.59	1765.35
381.80	1746.92
382.00	1859.56
382.21	1773.54
382.42	1861.60
382.63	1859.56
382.84	1763.30
383.05	1697.77
383.26	1841.12
383.47	1660.90
383.68	1726.44
383.88	1652.71
384.09	1658.85
384.30	1740.77
384.51	1791.97
384.72	1646.57
384.93	1638.38
385.14	1734.63
385.35	1759.21
385.55	1595.37
385.76	1830.88
385.97	1695.72
386.18	1665.00
386.39	1646.57
386.60	1722.34
386.81	1724.39
387.02	1683.43
387.22	1626.09
387.43	1753.06
387.64	1787.88
387.85	1853.41
388.06	2267.10
388.27	4274.11
388.48	6803.35
388.68	8343.42
388.89	9709.42
389.10	9834.35
389.31	8785.79
389.52	7575.44
389.73	6758.30
389.93	6270.88
390.14	5887.91
390.35	5236.66
390.56	4665.27
390.77	3762.12
390.98	3057.62
391.18	2553.82
391.39	2070.50
391.60	1761.25
391.81	1906.66
392.02	1804.26
392.23	1861.60
392.43	1693.67
392.64	1880.04
392.85	1746.92
393.06	1767.40
393.27	1742.82
393.47	1712.10
393.68	1693.67
393.89	1730.53
394.10	1720.29
394.31	1687.53
394.52	1609.70
394.72	1648.61
394.93	1800.16
395.14	1621.99
395.35	1685.48
395.56	1585.13
395.76	1759.21
395.97	1761.25
396.18	1806.31
396.39	1816.55
396.60	2013.15
396.80	1859.56
397.01	1798.12
397.22	1855.46
397.43	1761.25
397.64	1751.01
397.84	1789.92
398.05	1767.40
398.26	1769.44
398.47	1783.78
398.67	1832.93
398.88	1701.86
399.09	1734.63
399.30	1714.15
399.51	1677.29
399.71	1660.90
399.92	1720.29
400.13	1738.73
400.34	1640.42
400.54	1718.25
400.75	1822.69
400.96	1732.58
401.17	1773.54
401.37	1738.73
401.58	1730.53
401.79	1748.97
402.00	1834.98
402.21	1953.76
402.41	1959.91
402.62	2043.87
402.83	1996.77
403.04	1988.58
403.24	1986.53
403.45	1890.28
403.66	1871.84
403.87	1859.56
404.07	1861.60
404.28	1961.95
404.49	1875.94
404.70	1751.01
404.90	1685.48
405.11	1808.36
405.32	1765.35
405.52	1613.80
405.73	1710.05
405.94	1773.54
406.15	1683.43
406.35	1730.53
406.56	1777.64
406.77	1681.38
406.98	1748.97
407.18	1636.33
407.39	1785.83
407.60	1665.00
407.80	1708.01
408.01	1626.09
408.22	1746.92
408.43	1652.71
408.63	1726.44
408.84	1785.83
409.05	1818.60
409.25	1656.81
409.46	1654.76
409.67	1738.73
409.88	1667.05
410.08	1644.52
410.29	1693.67
410.50	1701.86
410.70	1726.44
410.91	1640.42
411.12	1730.53
411.32	1671.14
411.53	1691.62
411.74	1740.77
411.95	1753.06
412.15	1767.40
412.36	1755.11
412.57	1824.74
412.77	1738.73
412.98	1677.29
413.19	1724.39
413.39	1742.82
413.60	1765.35
413.81	1775.59
414.01	1624.04
414.22	1794.02
414.43	1697.77
414.63	1660.90
414.84	1763.30
415.05	1722.34
415.25	1648.61
415.46	1681.38
415.67	1667.05
415.87	1746.92
416.08	1728.49
416.29	1705.96
416.49	1730.53
416.70	1648.61
416.91	1658.85
417.11	1775.59
417.32	1673.19
417.53	1724.39
417.73	1800.16
417.94	1619.94
418.15	1673.19
418.35	1703.91
418.56	1757.16
418.77	1816.55
418.97	1665.00
419.18	1662.95
419.38	1595.37
419.59	1738.73
419.80	1759.21
420.00	1732.58
420.21	1675.24
420.42	1746.92
420.62	1714.15
420.83	1638.38
421.04	1642.47
421.24	1689.57
421.45	1716.20
421.65	1687.53
421.86	1687.53
422.07	1714.15
422.27	1728.49
422.48	1781.73
422.69	1636.33
422.89	1732.58
423.10	1708.01
423.30	1687.53
423.51	1697.77
423.72	1777.64
423.92	1757.16
424.13	1665.00
424.33	1726.44
424.54	1689.57
424.75	1728.49
424.95	1832.93
425.16	1699.81
425.36	1714.15
425.57	1724.39
425.78	1683.43
425.98	1699.81
426.19	1665.00
426.39	1701.86
426.60	1683.43
426.81	1837.03
427.01	1718.25
427.22	1642.47
427.42	1626.09
427.63	1652.71
427.83	1830.88
428.04	1843.17
428.25	1738.73
428.45	1814.50
428.66	1744.87
428.86	1722.34
429.07	1681.38
429.28	1746.92
429.48	1638.38
429.69	1626.09
429.89	1697.77
430.10	1624.04
430.30	1712.10
430.51	1789.92
430.71	1630.18
430.92	1689.57
431.13	1673.19
431.33	1730.53
431.54	1738.73
431.74	1804.26
431.95	1771.49
432.15	1626.09
432.36	1703.91
432.56	1767.40
432.77	1771.49
432.98	1798.12
433.18	1697.77
433.39	1675.24
433.59	1634.28
433.80	1810.40
434.00	1808.36
434.21	1691.62
434.41	1607.66
434.62	1869.80
434.82	1681.38
435.03	1665.00
435.23	1730.53
435.44	1665.00
435.64	1730.53
435.85	1746.92
436.06	1677.29
436.26	1755.11
436.47	1681.38
436.67	1673.19
436.88	1603.56
437.08	1847.27
437.29	1681.38
437.49	1697.77
437.70	1761.25
437.90	1708.01
438.11	1826.79
438.31	1796.07
438.52	1894.37
438.72	1820.64
438.93	1931.23
439.13	1789.92
439.34	1837.03
439.54	1738.73
439.75	1783.78
439.95	1734.63
440.16	1628.14
440.36	1736.68
440.57	1681.38
440.77	1785.83
440.98	1685.48
441.18	1800.16
441.39	1611.75
441.59	1644.52
441.80	1769.44
442.00	1738.73
442.21	1845.22
442.41	1648.61
442.62	1834.98
442.82	1667.05
443.02	1744.87
443.23	1740.77
443.43	1697.77
443.64	1783.78
443.84	1675.24
444.05	1757.16
444.25	1771.49
444.46	1730.53
444.66	1714.15
444.87	1839.08
445.07	1648.61
445.28	1761.25
445.48	1812.45
445.69	1812.45
445.89	1910.75
446.09	1724.39
446.30	2019.30
446.50	2711.51
446.71	3735.50
446.91	4323.26
447.12	4669.37
447.32	4812.73
447.53	4317.12
447.73	3880.90
447.93	3592.14
448.14	3256.27
448.34	3227.60
448.55	2893.78
448.75	2949.08
448.96	2781.14
449.16	2441.18
449.36	2293.72
449.57	2021.35
449.77	1824.74
449.98	1777.64
450.18	1814.50
450.39	1787.88
450.59	1777.64
450.79	1716.20
451.00	1679.33
451.20	1814.50
451.41	1722.34
451.61	1863.65
451.81	1714.15
452.02	1736.68
452.22	1701.86
452.43	1738.73
452.63	1703.91
