SpectraSuite Data File
++++++++++++++++++++++++++++++++++++
Date: Mon Jun 06 13:17:17 CEST 2016
User: root
Dark Spectrum Present: No
Reference Spectrum Present: No
Number of Sampled Component Spectra: 1
Spectrometers: USB4C02835
Integration Time (usec): 100000 (USB4C02835)
Spectra Averaged: 1 (USB4C02835)
Boxcar Smoothing: 0 (USB4C02835)
Correct for Electrical Dark: No (USB4C02835)
Strobe/Lamp Enabled: No (USB4C02835)
Correct for Detector Non-linearity: No (USB4C02835)
Correct for Stray Light: No (USB4C02835)
Number of Pixels in Processed Spectrum: 3648
>>>>>Begin Processed Spectral Data<<<<<
177.47	1443.82
177.69	1443.82
177.91	1443.82
178.13	1456.11
178.36	1460.20
178.58	1650.66
178.80	1773.54
179.02	1617.90
179.24	1662.95
179.46	1755.11
179.68	1771.49
179.90	1619.94
180.13	1710.05
180.35	1638.38
180.57	1705.96
180.79	1679.33
181.01	1714.15
181.23	1712.10
181.45	1734.63
181.67	1722.34
181.90	1697.77
182.12	1714.15
182.34	1642.47
182.56	1714.15
182.78	1695.72
183.00	1693.67
183.22	1849.32
183.44	1601.51
183.66	1791.97
183.89	1685.48
184.11	1693.67
184.33	1732.58
184.55	1802.21
184.77	1740.77
184.99	1734.63
185.21	1626.09
185.43	1839.08
185.65	1685.48
185.87	1634.28
186.10	1781.73
186.32	1822.69
186.54	1748.97
186.76	1779.68
186.98	1732.58
187.20	1705.96
187.42	1607.66
187.64	1671.14
187.86	1701.86
188.08	1767.40
188.30	1726.44
188.52	1695.72
188.75	1753.06
188.97	1800.16
189.19	1634.28
189.41	1562.60
189.63	1691.62
189.85	1658.85
190.07	1648.61
190.29	1636.33
190.51	1771.49
190.73	1562.60
190.95	1734.63
191.17	1732.58
191.39	1589.22
191.61	1699.81
191.84	1695.72
192.06	1673.19
192.28	1617.90
192.50	1857.51
192.72	1785.83
192.94	1703.91
193.16	1757.16
193.38	1771.49
193.60	1732.58
193.82	1732.58
194.04	1787.88
194.26	1767.40
194.48	1730.53
194.70	1640.42
194.92	1626.09
195.14	1681.38
195.36	1714.15
195.58	1769.44
195.80	1681.38
196.02	1681.38
196.24	1726.44
196.46	1736.68
196.69	1675.24
196.91	1798.12
197.13	1644.52
197.35	1689.57
197.57	1751.01
197.79	1779.68
198.01	1794.02
198.23	1765.35
198.45	1777.64
198.67	1699.81
198.89	1650.66
199.11	1712.10
199.33	1679.33
199.55	1533.93
199.77	1628.14
199.99	1820.64
200.21	1677.29
200.43	1669.09
200.65	1535.98
200.87	1587.18
201.09	1665.00
201.31	1730.53
201.53	1716.20
201.75	1730.53
201.97	1726.44
202.19	1734.63
202.41	1701.86
202.63	1849.32
202.85	1794.02
203.07	1726.44
203.29	1751.01
203.51	1624.04
203.73	1673.19
203.95	1816.55
204.17	1785.83
204.39	1705.96
204.61	1677.29
204.83	1740.77
205.05	1785.83
205.27	1798.12
205.49	1755.11
205.71	1726.44
205.93	1701.86
206.15	1642.47
206.37	1689.57
206.59	1693.67
206.81	1644.52
207.03	1669.09
207.25	1660.90
207.47	1703.91
207.69	1699.81
207.91	1806.31
208.13	1800.16
208.34	1722.34
208.56	1656.81
208.78	1759.21
209.00	1689.57
209.22	1734.63
209.44	1652.71
209.66	1636.33
209.88	1646.57
210.10	1574.89
210.32	1734.63
210.54	1798.12
210.76	1644.52
210.98	1751.01
211.20	1583.08
211.42	1724.39
211.64	1806.31
211.86	1710.05
212.08	1769.44
212.30	1785.83
212.52	1685.48
212.74	1757.16
212.96	1736.68
213.17	1710.05
213.39	1718.25
213.61	1791.97
213.83	1779.68
214.05	1677.29
214.27	1738.73
214.49	1644.52
214.71	1712.10
214.93	1718.25
215.15	1789.92
215.37	1705.96
215.59	1599.46
215.81	1724.39
216.03	1751.01
216.24	1679.33
216.46	1732.58
216.68	1701.86
216.90	1757.16
217.12	1703.91
217.34	1767.40
217.56	1722.34
217.78	1751.01
218.00	1689.57
218.22	1728.49
218.44	1724.39
218.66	1724.39
218.87	1777.64
219.09	1691.62
219.31	1746.92
219.53	1675.24
219.75	1675.24
219.97	1650.66
220.19	1681.38
220.41	1765.35
220.63	1720.29
220.85	1695.72
221.06	1652.71
221.28	1828.84
221.50	1712.10
221.72	1683.43
221.94	1667.05
222.16	1660.90
222.38	1722.34
222.60	1708.01
222.82	1771.49
223.03	1683.43
223.25	1587.18
223.47	1798.12
223.69	1812.45
223.91	1716.20
224.13	1675.24
224.35	1724.39
224.57	1738.73
224.78	1740.77
225.00	1607.66
225.22	1748.97
225.44	1658.85
225.66	1759.21
225.88	1615.85
226.10	1746.92
226.32	1671.14
226.53	1716.20
226.75	1732.58
226.97	1730.53
227.19	1710.05
227.41	1656.81
227.63	1660.90
227.85	1644.52
228.06	1730.53
228.28	1730.53
228.50	1732.58
228.72	1714.15
228.94	1687.53
229.16	1630.18
229.37	1589.22
229.59	1669.09
229.81	1767.40
230.03	1691.62
230.25	1578.98
230.47	1603.56
230.69	1615.85
230.90	1701.86
231.12	1689.57
231.34	1669.09
231.56	1773.54
231.78	1671.14
232.00	1800.16
232.21	1617.90
232.43	1634.28
232.65	1619.94
232.87	1738.73
233.09	1652.71
233.30	1640.42
233.52	1691.62
233.74	1644.52
233.96	1689.57
234.18	1667.05
234.40	1716.20
234.61	1906.66
234.83	1607.66
235.05	1669.09
235.27	1802.21
235.49	1843.17
235.70	1587.18
235.92	1785.83
236.14	1665.00
236.36	1804.26
236.58	1628.14
236.79	1777.64
237.01	1679.33
237.23	1689.57
237.45	1746.92
237.67	1624.04
237.88	1689.57
238.10	1834.98
238.32	1611.75
238.54	1624.04
238.76	1746.92
238.97	1597.42
239.19	1652.71
239.41	1722.34
239.63	1771.49
239.85	1658.85
240.06	1640.42
240.28	1712.10
240.50	1779.68
240.72	1695.72
240.93	1673.19
241.15	1781.73
241.37	1644.52
241.59	1845.22
241.81	1775.59
242.02	1638.38
242.24	1789.92
242.46	1771.49
242.68	1589.22
242.89	1685.48
243.11	1654.76
243.33	1783.78
243.55	1826.79
243.76	1724.39
243.98	1693.67
244.20	1665.00
244.42	1697.77
244.64	1708.01
244.85	1695.72
245.07	1640.42
245.29	1847.27
245.51	1671.14
245.72	1751.01
245.94	1830.88
246.16	1712.10
246.38	1748.97
246.59	1626.09
246.81	1648.61
247.03	1685.48
247.24	1615.85
247.46	1697.77
247.68	1722.34
247.90	1646.57
248.11	1710.05
248.33	1722.34
248.55	1683.43
248.77	1720.29
248.98	1757.16
249.20	1779.68
249.42	1708.01
249.64	1746.92
249.85	1644.52
250.07	1646.57
250.29	1656.81
250.50	1718.25
250.72	1640.42
250.94	1732.58
251.16	1771.49
251.37	1824.74
251.59	1746.92
251.81	1632.23
252.02	1828.84
252.24	1636.33
252.46	1755.11
252.68	1677.29
252.89	1583.08
253.11	1593.32
253.33	1742.82
253.54	1814.50
253.76	1624.04
253.98	1716.20
254.20	1642.47
254.41	1619.94
254.63	1656.81
254.85	1650.66
255.06	1703.91
255.28	1744.87
255.50	1675.24
255.71	1619.94
255.93	1701.86
256.15	1617.90
256.36	1800.16
256.58	1652.71
256.80	1746.92
257.02	1593.32
257.23	1677.29
257.45	1761.25
257.67	1810.40
257.88	1595.37
258.10	1740.77
258.32	1667.05
258.53	1697.77
258.75	1806.31
258.97	1693.67
259.18	1712.10
259.40	1650.66
259.62	1804.26
259.83	1855.46
260.05	1701.86
260.27	1927.14
260.48	1687.53
260.70	1728.49
260.92	1693.67
261.13	1744.87
261.35	1714.15
261.57	1810.40
261.78	1667.05
262.00	1699.81
262.22	1656.81
262.43	1619.94
262.65	1728.49
262.86	1687.53
263.08	1808.36
263.30	1746.92
263.51	1568.74
263.73	1650.66
263.95	1843.17
264.16	1574.89
264.38	1658.85
264.60	1781.73
264.81	1701.86
265.03	1730.53
265.25	1730.53
265.46	1703.91
265.68	1742.82
265.89	1759.21
266.11	1607.66
266.33	1746.92
266.54	1755.11
266.76	1738.73
266.98	1724.39
267.19	1701.86
267.41	1732.58
267.62	1665.00
267.84	1658.85
268.06	1685.48
268.27	1628.14
268.49	1669.09
268.70	1806.31
268.92	1748.97
269.14	1654.76
269.35	1591.27
269.57	1796.07
269.79	1708.01
270.00	1679.33
270.22	1726.44
270.43	1617.90
270.65	1515.50
270.87	1757.16
271.08	1791.97
271.30	1767.40
271.51	1673.19
271.73	1757.16
271.95	1703.91
272.16	1742.82
272.38	1689.57
272.59	1640.42
272.81	1705.96
273.02	1679.33
273.24	1802.21
273.46	1722.34
273.67	1599.46
273.89	1683.43
274.10	1665.00
274.32	1763.30
274.54	1724.39
274.75	1710.05
274.97	1794.02
275.18	1746.92
275.40	1691.62
275.61	1722.34
275.83	1738.73
276.05	1607.66
276.26	1638.38
276.48	1769.44
276.69	1689.57
276.91	1662.95
277.12	1712.10
277.34	1785.83
277.55	1669.09
277.77	1734.63
277.99	1640.42
278.20	1669.09
278.42	1669.09
278.63	1675.24
278.85	1660.90
279.06	1607.66
279.28	1775.59
279.49	1787.88
279.71	1791.97
279.93	1705.96
280.14	1701.86
280.36	1654.76
280.57	1761.25
280.79	1775.59
281.00	1673.19
281.22	1562.60
281.43	1773.54
281.65	1552.36
281.86	1624.04
282.08	1783.78
282.29	1740.77
282.51	1660.90
282.73	1673.19
282.94	1648.61
283.16	1720.29
283.37	1822.69
283.59	1730.53
283.80	1693.67
284.02	1718.25
284.23	1800.16
284.45	1687.53
284.66	1615.85
284.88	1638.38
285.09	1673.19
285.31	1662.95
285.52	1728.49
285.74	1634.28
285.95	1753.06
286.17	1658.85
286.38	1744.87
286.60	1626.09
286.81	1669.09
287.03	1705.96
287.24	1634.28
287.46	1708.01
287.67	1644.52
287.89	1771.49
288.10	1660.90
288.32	1705.96
288.53	1771.49
288.75	1714.15
288.96	1755.11
289.18	1675.24
289.39	1662.95
289.61	1757.16
289.82	1816.55
290.04	1880.04
290.25	1675.24
290.47	1656.81
290.68	1656.81
290.90	1665.00
291.11	1583.08
291.33	1708.01
291.54	1609.70
291.76	1624.04
291.97	1701.86
292.18	1675.24
292.40	1695.72
292.61	1669.09
292.83	1857.51
293.04	1779.68
293.26	1701.86
293.47	1736.68
293.69	1615.85
293.90	1783.78
294.12	1726.44
294.33	1640.42
294.55	1705.96
294.76	1765.35
294.97	1736.68
295.19	1791.97
295.40	1646.57
295.62	1773.54
295.83	1763.30
296.05	1730.53
296.26	1730.53
296.48	1722.34
296.69	1603.56
296.90	1767.40
297.12	1744.87
297.33	1757.16
297.55	1738.73
297.76	1800.16
297.98	1748.97
298.19	1701.86
298.41	1683.43
298.62	1605.61
298.83	1845.22
299.05	1669.09
299.26	1652.71
299.48	1636.33
299.69	1759.21
299.90	1712.10
300.12	1656.81
300.33	1701.86
300.55	1685.48
300.76	1669.09
300.98	1609.70
301.19	1667.05
301.40	1650.66
301.62	1681.38
301.83	1826.79
302.05	1665.00
302.26	1691.62
302.47	1744.87
302.69	1732.58
302.90	1621.99
303.12	1593.32
303.33	1732.58
303.54	1808.36
303.76	1673.19
303.97	1687.53
304.19	1843.17
304.40	1691.62
304.61	1767.40
304.83	1787.88
305.04	1722.34
305.26	1708.01
305.47	1658.85
305.68	1669.09
305.90	1662.95
306.11	1742.82
306.33	1693.67
306.54	1662.95
306.75	1689.57
306.97	1640.42
307.18	1587.18
307.39	1638.38
307.61	1755.11
307.82	1736.68
308.04	1701.86
308.25	1660.90
308.46	1693.67
308.68	1710.05
308.89	1656.81
309.10	1705.96
309.32	1722.34
309.53	1810.40
309.74	1648.61
309.96	1685.48
310.17	1816.55
310.39	1632.23
310.60	1771.49
310.81	1718.25
311.03	1613.80
311.24	1738.73
311.45	1708.01
311.67	1855.46
311.88	1617.90
312.09	1773.54
312.31	1652.71
312.52	1685.48
312.73	1665.00
312.95	1632.23
313.16	1673.19
313.37	1716.20
313.59	1658.85
313.80	1669.09
314.01	1767.40
314.23	1693.67
314.44	1640.42
314.65	1648.61
314.87	1617.90
315.08	1693.67
315.29	1687.53
315.51	1675.24
315.72	1613.80
315.93	1806.31
316.15	1732.58
316.36	1587.18
316.57	1648.61
316.79	1716.20
317.00	1642.47
317.21	1720.29
317.43	1710.05
317.64	1744.87
317.85	1656.81
318.07	1722.34
318.28	1691.62
318.49	1794.02
318.70	1865.70
318.92	1734.63
319.13	1910.75
319.34	1804.26
319.56	1787.88
319.77	1781.73
319.98	1779.68
320.20	1787.88
320.41	1761.25
320.62	1720.29
320.83	1599.46
321.05	1837.03
321.26	1654.76
321.47	1714.15
321.69	1761.25
321.90	1599.46
322.11	1662.95
322.32	1751.01
322.54	1751.01
322.75	1658.85
322.96	1781.73
323.18	1585.13
323.39	1574.89
323.60	1759.21
323.81	1714.15
324.03	1673.19
324.24	1642.47
324.45	1660.90
324.66	1677.29
324.88	1783.78
325.09	1779.68
325.30	1761.25
325.52	1677.29
325.73	1724.39
325.94	1675.24
326.15	1613.80
326.37	1695.72
326.58	1720.29
326.79	1765.35
327.00	1636.33
327.22	1671.14
327.43	1697.77
327.64	1613.80
327.85	1718.25
328.07	1708.01
328.28	1742.82
328.49	1712.10
328.70	1634.28
328.92	1691.62
329.13	1621.99
329.34	1771.49
329.55	1716.20
329.76	1714.15
329.98	1738.73
330.19	1802.21
330.40	1783.78
330.61	1730.53
330.83	1703.91
331.04	1697.77
331.25	1705.96
331.46	1609.70
331.68	1646.57
331.89	1699.81
332.10	1695.72
332.31	1621.99
332.52	1734.63
332.74	1746.92
332.95	1669.09
333.16	1660.90
333.37	1689.57
333.58	1691.62
333.80	1732.58
334.01	1628.14
334.22	1685.48
334.43	1695.72
334.64	1687.53
334.86	1628.14
335.07	1695.72
335.28	1789.92
335.49	1644.52
335.70	1677.29
335.92	1755.11
336.13	1863.65
336.34	1738.73
336.55	1677.29
336.76	1716.20
336.98	1628.14
337.19	1650.66
337.40	1800.16
337.61	1798.12
337.82	1656.81
338.04	1748.97
338.25	1626.09
338.46	1712.10
338.67	1693.67
338.88	1632.23
339.09	1654.76
339.31	1619.94
339.52	1638.38
339.73	1751.01
339.94	1716.20
340.15	1736.68
340.36	1621.99
340.58	1677.29
340.79	1658.85
341.00	1634.28
341.21	1624.04
341.42	1841.12
341.63	1665.00
341.85	1751.01
342.06	1701.86
342.27	1675.24
342.48	1740.77
342.69	1636.33
342.90	1746.92
343.12	1679.33
343.33	1710.05
343.54	1822.69
343.75	1753.06
343.96	1654.76
344.17	1669.09
344.38	1632.23
344.60	1648.61
344.81	1595.37
345.02	1693.67
345.23	1660.90
345.44	1785.83
345.65	1718.25
345.86	1724.39
346.07	1673.19
346.29	1648.61
346.50	1714.15
346.71	1738.73
346.92	1769.44
347.13	1830.88
347.34	1669.09
347.55	1705.96
347.76	1718.25
347.98	1693.67
348.19	1665.00
348.40	1736.68
348.61	1701.86
348.82	1818.60
349.03	1732.58
349.24	1685.48
349.45	1724.39
349.66	1570.79
349.88	1728.49
350.09	1667.05
350.30	1818.60
350.51	1783.78
350.72	1710.05
350.93	1701.86
351.14	1656.81
351.35	1699.81
351.56	1656.81
351.77	1703.91
351.99	1748.97
352.20	1841.12
352.41	1806.31
352.62	1601.51
352.83	1609.70
353.04	1722.34
353.25	1665.00
353.46	1720.29
353.67	1781.73
353.88	1578.98
354.09	1748.97
354.30	1683.43
354.52	1787.88
354.73	1724.39
354.94	1697.77
355.15	1691.62
355.36	1757.16
355.57	1677.29
355.78	1699.81
355.99	1619.94
356.20	1693.67
356.41	1751.01
356.62	1712.10
356.83	1765.35
357.04	1751.01
357.25	1607.66
357.46	1667.05
357.68	1583.08
357.89	1609.70
358.10	1730.53
358.31	1708.01
358.52	1705.96
358.73	1564.65
358.94	1677.29
359.15	1701.86
359.36	1699.81
359.57	1705.96
359.78	1669.09
359.99	1648.61
360.20	1591.27
360.41	1634.28
360.62	1728.49
360.83	1671.14
361.04	1699.81
361.25	1744.87
361.46	1779.68
361.67	1679.33
361.88	1763.30
362.09	1757.16
362.30	1742.82
362.51	1578.98
362.72	1675.24
362.93	1759.21
363.14	1705.96
363.35	1687.53
363.56	1677.29
363.78	1757.16
363.99	1763.30
364.20	1658.85
364.41	1773.54
364.62	1652.71
364.83	1742.82
365.04	1654.76
365.25	1740.77
365.46	1849.32
365.67	1675.24
365.88	1574.89
366.09	1628.14
366.30	1722.34
366.51	1728.49
366.72	1644.52
366.93	1677.29
367.14	1693.67
367.35	1726.44
367.56	1742.82
367.77	1751.01
367.98	1730.53
368.18	1708.01
368.39	1693.67
368.60	1628.14
368.81	1648.61
369.02	1736.68
369.23	1705.96
369.44	1609.70
369.65	1697.77
369.86	1691.62
370.07	1761.25
370.28	1632.23
370.49	1767.40
370.70	1748.97
370.91	1701.86
371.12	1628.14
371.33	1759.21
371.54	1658.85
371.75	1828.84
371.96	1599.46
372.17	1662.95
372.38	1746.92
372.59	1650.66
372.80	1783.78
373.01	1591.27
373.22	1703.91
373.43	1744.87
373.64	1644.52
373.85	1685.48
374.06	1779.68
374.26	1673.19
374.47	1679.33
374.68	1814.50
374.89	1753.06
375.10	1634.28
375.31	1834.98
375.52	1712.10
375.73	1716.20
375.94	1626.09
376.15	1771.49
376.36	1632.23
376.57	1648.61
376.78	1667.05
376.99	1740.77
377.20	1771.49
377.40	1652.71
377.61	1787.88
377.82	1640.42
378.03	1675.24
378.24	1777.64
378.45	1771.49
378.66	1658.85
378.87	1626.09
379.08	1615.85
379.29	1652.71
379.50	1804.26
379.71	1648.61
379.91	1771.49
380.12	1730.53
380.33	1736.68
380.54	1630.18
380.75	1689.57
380.96	1662.95
381.17	1820.64
381.38	1763.30
381.59	1779.68
381.80	1703.91
382.00	1746.92
382.21	1718.25
382.42	1828.84
382.63	1886.18
382.84	1763.30
383.05	1753.06
383.26	1755.11
383.47	1660.90
383.68	1751.01
383.88	1767.40
384.09	1636.33
384.30	1802.21
384.51	1722.34
384.72	1638.38
384.93	1675.24
385.14	1691.62
385.35	1738.73
385.55	1595.37
385.76	1787.88
385.97	1693.67
386.18	1705.96
386.39	1619.94
386.60	1681.38
386.81	1660.90
387.02	1607.66
387.22	1572.84
387.43	1777.64
387.64	1759.21
387.85	1861.60
388.06	2252.77
388.27	4331.45
388.48	6918.04
388.68	8140.68
388.89	9742.19
389.10	9637.74
389.31	8630.14
389.52	7550.86
389.73	6662.04
389.93	6166.43
390.14	5840.81
390.35	5314.48
390.56	4542.39
390.77	3825.61
390.98	2983.89
391.18	2490.33
391.39	2076.64
391.60	1845.22
391.81	1925.09
392.02	1742.82
392.23	1816.55
392.43	1800.16
392.64	1847.27
392.85	1716.20
393.06	1787.88
393.27	1685.48
393.47	1665.00
393.68	1708.01
393.89	1722.34
394.10	1773.54
394.31	1697.77
394.52	1650.66
394.72	1671.14
394.93	1824.74
395.14	1718.25
395.35	1757.16
395.56	1705.96
395.76	1665.00
395.97	1832.93
396.18	1806.31
396.39	1816.55
396.60	1945.57
396.80	1859.56
397.01	1826.79
397.22	1779.68
397.43	1826.79
397.64	1771.49
397.84	1796.07
398.05	1828.84
398.26	1763.30
398.47	1851.36
398.67	1767.40
398.88	1693.67
399.09	1763.30
399.30	1634.28
399.51	1775.59
399.71	1621.99
399.92	1732.58
400.13	1685.48
400.34	1781.73
400.54	1677.29
400.75	1818.60
400.96	1785.83
401.17	1814.50
401.37	1683.43
401.58	1665.00
401.79	1681.38
402.00	1871.84
402.21	2076.64
402.41	1951.71
402.62	1982.43
402.83	2056.16
403.04	1976.29
403.24	2039.78
403.45	1904.61
403.66	1925.09
403.87	1898.47
404.07	1937.38
404.28	1894.37
404.49	1816.55
404.70	1796.07
404.90	1716.20
405.11	1710.05
405.32	1742.82
405.52	1708.01
405.73	1675.24
405.94	1630.18
406.15	1681.38
406.35	1720.29
406.56	1755.11
406.77	1726.44
406.98	1742.82
407.18	1685.48
407.39	1773.54
407.60	1699.81
407.80	1751.01
408.01	1673.19
408.22	1744.87
408.43	1687.53
408.63	1738.73
408.84	1773.54
409.05	1771.49
409.25	1652.71
409.46	1650.66
409.67	1640.42
409.88	1658.85
410.08	1683.43
410.29	1630.18
410.50	1736.68
410.70	1730.53
410.91	1585.13
411.12	1794.02
411.32	1681.38
411.53	1642.47
411.74	1800.16
411.95	1744.87
412.15	1693.67
412.36	1763.30
412.57	1839.08
412.77	1818.60
412.98	1763.30
413.19	1652.71
413.39	1779.68
413.60	1708.01
413.81	1759.21
414.01	1685.48
414.22	1763.30
414.43	1689.57
414.63	1691.62
414.84	1712.10
415.05	1730.53
415.25	1558.50
415.46	1746.92
415.67	1714.15
415.87	1744.87
416.08	1677.29
416.29	1632.23
416.49	1748.97
416.70	1665.00
416.91	1652.71
417.11	1603.56
417.32	1720.29
417.53	1832.93
417.73	1689.57
417.94	1640.42
418.15	1722.34
418.35	1724.39
418.56	1697.77
418.77	1826.79
418.97	1697.77
419.18	1687.53
419.38	1636.33
419.59	1669.09
419.80	1791.97
420.00	1681.38
420.21	1708.01
420.42	1769.44
420.62	1691.62
420.83	1636.33
421.04	1677.29
421.24	1708.01
421.45	1740.77
421.65	1742.82
421.86	1738.73
422.07	1693.67
422.27	1722.34
422.48	1693.67
422.69	1617.90
422.89	1712.10
423.10	1763.30
423.30	1648.61
423.51	1669.09
423.72	1740.77
423.92	1757.16
424.13	1748.97
424.33	1738.73
424.54	1785.83
424.75	1699.81
424.95	1751.01
425.16	1744.87
425.36	1681.38
425.57	1748.97
425.78	1710.05
425.98	1757.16
426.19	1755.11
426.39	1701.86
426.60	1685.48
426.81	1712.10
427.01	1724.39
427.22	1685.48
427.42	1570.79
427.63	1609.70
427.83	1644.52
428.04	1798.12
428.25	1781.73
428.45	1685.48
428.66	1767.40
428.86	1634.28
429.07	1714.15
429.28	1714.15
429.48	1658.85
429.69	1624.04
429.89	1667.05
430.10	1656.81
430.30	1738.73
430.51	1738.73
430.71	1722.34
430.92	1734.63
431.13	1714.15
431.33	1773.54
431.54	1808.36
431.74	1689.57
431.95	1828.84
432.15	1658.85
432.36	1714.15
432.56	1791.97
432.77	1804.26
432.98	1775.59
433.18	1738.73
433.39	1742.82
433.59	1767.40
433.80	1834.98
434.00	1851.36
434.21	1662.95
434.41	1632.23
434.62	1779.68
434.82	1642.47
435.03	1652.71
435.23	1728.49
435.44	1562.60
435.64	1710.05
435.85	1685.48
436.06	1720.29
436.26	1740.77
436.47	1703.91
436.67	1658.85
436.88	1697.77
437.08	1753.06
437.29	1779.68
437.49	1634.28
437.70	1789.92
437.90	1681.38
438.11	1900.52
438.31	1804.26
438.52	1845.22
438.72	1738.73
438.93	1871.84
439.13	1779.68
439.34	1832.93
439.54	1714.15
439.75	1779.68
439.95	1804.26
440.16	1656.81
440.36	1695.72
440.57	1765.35
440.77	1775.59
440.98	1691.62
441.18	1763.30
441.39	1679.33
441.59	1691.62
441.80	1808.36
442.00	1755.11
442.21	1832.93
442.41	1732.58
442.62	1824.74
442.82	1621.99
443.02	1755.11
443.23	1734.63
443.43	1755.11
443.64	1796.07
443.84	1646.57
444.05	1849.32
444.25	1726.44
444.46	1724.39
444.66	1679.33
444.87	1800.16
445.07	1634.28
445.28	1679.33
445.48	1812.45
445.69	1748.97
445.89	1910.75
446.09	1718.25
446.30	2054.11
446.50	2656.22
446.71	3725.26
446.91	4179.90
447.12	4759.48
447.32	4814.77
447.53	4263.87
447.73	3885.00
447.93	3502.03
448.14	3291.09
448.34	3190.74
448.55	2852.82
448.75	2801.62
448.96	2650.07
449.16	2553.82
449.36	2271.20
449.57	2039.78
449.77	1947.62
449.98	1808.36
450.18	1798.12
450.39	1849.32
450.59	1691.62
450.79	1751.01
451.00	1699.81
451.20	1814.50
451.41	1628.14
451.61	1761.25
451.81	1689.57
452.02	1699.81
452.22	1658.85
452.43	1689.57
452.63	1665.00
