SpectraSuite Data File
++++++++++++++++++++++++++++++++++++
Date: Mon Jun 06 16:02:57 CEST 2016
User: root
Dark Spectrum Present: No
Reference Spectrum Present: No
Number of Sampled Component Spectra: 1
Spectrometers: USB4C02835
Integration Time (usec): 100000 (USB4C02835)
Spectra Averaged: 1 (USB4C02835)
Boxcar Smoothing: 0 (USB4C02835)
Correct for Electrical Dark: No (USB4C02835)
Strobe/Lamp Enabled: No (USB4C02835)
Correct for Detector Non-linearity: No (USB4C02835)
Correct for Stray Light: No (USB4C02835)
Number of Pixels in Processed Spectrum: 3648
>>>>>Begin Processed Spectral Data<<<<<
177.47	1531.88
177.69	1531.88
177.91	1531.88
178.13	1484.78
178.36	1501.16
178.58	1665.00
178.80	1722.34
179.02	1691.62
179.24	1677.29
179.46	1693.67
179.68	1714.15
179.90	1724.39
180.13	1734.63
180.35	1607.66
180.57	1714.15
180.79	1785.83
181.01	1748.97
181.23	1794.02
181.45	1748.97
181.67	1775.59
181.90	1783.78
182.12	1660.90
182.34	1681.38
182.56	1820.64
182.78	1748.97
183.00	1714.15
183.22	1708.01
183.44	1617.90
183.66	1822.69
183.89	1783.78
184.11	1671.14
184.33	1718.25
184.55	1767.40
184.77	1708.01
184.99	1722.34
185.21	1671.14
185.43	1832.93
185.65	1714.15
185.87	1746.92
186.10	1806.31
186.32	1787.88
186.54	1693.67
186.76	1751.01
186.98	1738.73
187.20	1734.63
187.42	1726.44
187.64	1728.49
187.86	1769.44
188.08	1740.77
188.30	1705.96
188.52	1646.57
188.75	1763.30
188.97	1734.63
189.19	1669.09
189.41	1718.25
189.63	1785.83
189.85	1736.68
190.07	1685.48
190.29	1665.00
190.51	1761.25
190.73	1603.56
190.95	1726.44
191.17	1652.71
191.39	1566.70
191.61	1703.91
191.84	1677.29
192.06	1777.64
192.28	1691.62
192.50	1830.88
192.72	1753.06
192.94	1658.85
193.16	1722.34
193.38	1775.59
193.60	1724.39
193.82	1701.86
194.04	1779.68
194.26	1701.86
194.48	1677.29
194.70	1644.52
194.92	1769.44
195.14	1779.68
195.36	1628.14
195.58	1658.85
195.80	1724.39
196.02	1748.97
196.24	1718.25
196.46	1742.82
196.69	1708.01
196.91	1845.22
197.13	1642.47
197.35	1677.29
197.57	1818.60
197.79	1728.49
198.01	1705.96
198.23	1769.44
198.45	1751.01
198.67	1611.75
198.89	1748.97
199.11	1673.19
199.33	1671.14
199.55	1619.94
199.77	1757.16
199.99	1748.97
200.21	1716.20
200.43	1785.83
200.65	1671.14
200.87	1542.12
201.09	1710.05
201.31	1660.90
201.53	1693.67
201.75	1681.38
201.97	1746.92
202.19	1710.05
202.41	1757.16
202.63	1830.88
202.85	1746.92
203.07	1794.02
203.29	1722.34
203.51	1679.33
203.73	1644.52
203.95	1847.27
204.17	1751.01
204.39	1757.16
204.61	1714.15
204.83	1685.48
205.05	1734.63
205.27	1671.14
205.49	1845.22
205.71	1656.81
205.93	1679.33
206.15	1736.68
206.37	1689.57
206.59	1708.01
206.81	1679.33
207.03	1693.67
207.25	1669.09
207.47	1722.34
207.69	1728.49
207.91	1814.50
208.13	1695.72
208.34	1720.29
208.56	1662.95
208.78	1683.43
209.00	1634.28
209.22	1693.67
209.44	1689.57
209.66	1708.01
209.88	1689.57
210.10	1568.74
210.32	1730.53
210.54	1757.16
210.76	1687.53
210.98	1757.16
211.20	1587.18
211.42	1667.05
211.64	1730.53
211.86	1748.97
212.08	1699.81
212.30	1757.16
212.52	1636.33
212.74	1699.81
212.96	1738.73
213.17	1748.97
213.39	1710.05
213.61	1789.92
213.83	1800.16
214.05	1671.14
214.27	1791.97
214.49	1615.85
214.71	1728.49
214.93	1740.77
215.15	1703.91
215.37	1714.15
215.59	1691.62
215.81	1740.77
216.03	1763.30
216.24	1636.33
216.46	1697.77
216.68	1730.53
216.90	1757.16
217.12	1746.92
217.34	1708.01
217.56	1791.97
217.78	1748.97
218.00	1714.15
218.22	1765.35
218.44	1759.21
218.66	1675.24
218.87	1886.18
219.09	1675.24
219.31	1769.44
219.53	1738.73
219.75	1642.47
219.97	1640.42
220.19	1718.25
220.41	1703.91
220.63	1814.50
220.85	1789.92
221.06	1746.92
221.28	1785.83
221.50	1781.73
221.72	1736.68
221.94	1634.28
222.16	1789.92
222.38	1765.35
222.60	1785.83
222.82	1640.42
223.03	1757.16
223.25	1697.77
223.47	1796.07
223.69	1785.83
223.91	1746.92
224.13	1656.81
224.35	1665.00
224.57	1685.48
224.78	1734.63
225.00	1726.44
225.22	1607.66
225.44	1751.01
225.66	1716.20
225.88	1751.01
226.10	1716.20
226.32	1697.77
226.53	1865.70
226.75	1644.52
226.97	1740.77
227.19	1708.01
227.41	1716.20
227.63	1673.19
227.85	1630.18
228.06	1718.25
228.28	1724.39
228.50	1736.68
228.72	1675.24
228.94	1734.63
229.16	1681.38
229.37	1722.34
229.59	1644.52
229.81	1822.69
230.03	1673.19
230.25	1576.94
230.47	1683.43
230.69	1648.61
230.90	1763.30
231.12	1722.34
231.34	1781.73
231.56	1710.05
231.78	1679.33
232.00	1783.78
232.21	1665.00
232.43	1665.00
232.65	1619.94
232.87	1728.49
233.09	1697.77
233.30	1591.27
233.52	1718.25
233.74	1722.34
233.96	1679.33
234.18	1673.19
234.40	1710.05
234.61	1830.88
234.83	1687.53
235.05	1628.14
235.27	1855.46
235.49	1728.49
235.70	1703.91
235.92	1794.02
236.14	1787.88
236.36	1918.95
236.58	1644.52
236.79	1710.05
237.01	1728.49
237.23	1667.05
237.45	1796.07
237.67	1669.09
237.88	1599.46
238.10	1824.74
238.32	1640.42
238.54	1718.25
238.76	1640.42
238.97	1574.89
239.19	1628.14
239.41	1779.68
239.63	1755.11
239.85	1701.86
240.06	1744.87
240.28	1701.86
240.50	1802.21
240.72	1744.87
240.93	1703.91
241.15	1851.36
241.37	1748.97
241.59	1794.02
241.81	1636.33
242.02	1679.33
242.24	1734.63
242.46	1765.35
242.68	1681.38
242.89	1644.52
243.11	1767.40
243.33	1619.94
243.55	1763.30
243.76	1736.68
243.98	1710.05
244.20	1742.82
244.42	1744.87
244.64	1665.00
244.85	1667.05
245.07	1687.53
245.29	1757.16
245.51	1693.67
245.72	1677.29
245.94	1839.08
246.16	1773.54
246.38	1710.05
246.59	1720.29
246.81	1634.28
247.03	1593.32
247.24	1583.08
247.46	1593.32
247.68	1705.96
247.90	1599.46
248.11	1722.34
248.33	1732.58
248.55	1669.09
248.77	1718.25
248.98	1732.58
249.20	1783.78
249.42	1738.73
249.64	1748.97
249.85	1675.24
250.07	1660.90
250.29	1771.49
250.50	1746.92
250.72	1658.85
250.94	1703.91
251.16	1826.79
251.37	1720.29
251.59	1791.97
251.81	1712.10
252.02	1763.30
252.24	1710.05
252.46	1718.25
252.68	1695.72
252.89	1648.61
253.11	1554.41
253.33	1820.64
253.54	1681.38
253.76	1691.62
253.98	1630.18
254.20	1703.91
254.41	1624.04
254.63	1734.63
254.85	1583.08
255.06	1691.62
255.28	1763.30
255.50	1730.53
255.71	1619.94
255.93	1677.29
256.15	1732.58
256.36	1712.10
256.58	1705.96
256.80	1820.64
257.02	1671.14
257.23	1730.53
257.45	1673.19
257.67	1787.88
257.88	1714.15
258.10	1738.73
258.32	1777.64
258.53	1699.81
258.75	1845.22
258.97	1710.05
259.18	1703.91
259.40	1714.15
259.62	1857.51
259.83	1757.16
260.05	1773.54
260.27	1972.19
260.48	1683.43
260.70	1701.86
260.92	1648.61
261.13	1681.38
261.35	1712.10
261.57	1759.21
261.78	1642.47
262.00	1734.63
262.22	1734.63
262.43	1705.96
262.65	1691.62
262.86	1679.33
263.08	1916.90
263.30	1705.96
263.51	1636.33
263.73	1681.38
263.95	1783.78
264.16	1738.73
264.38	1652.71
264.60	1806.31
264.81	1724.39
265.03	1822.69
265.25	1789.92
265.46	1685.48
265.68	1800.16
265.89	1687.53
266.11	1640.42
266.33	1738.73
266.54	1783.78
266.76	1718.25
266.98	1734.63
267.19	1783.78
267.41	1738.73
267.62	1705.96
267.84	1628.14
268.06	1777.64
268.27	1697.77
268.49	1773.54
268.70	1771.49
268.92	1701.86
269.14	1644.52
269.35	1732.58
269.57	1701.86
269.79	1789.92
270.00	1673.19
270.22	1820.64
270.43	1732.58
270.65	1648.61
270.87	1728.49
271.08	1681.38
271.30	1742.82
271.51	1730.53
271.73	1738.73
271.95	1855.46
272.16	1738.73
272.38	1765.35
272.59	1722.34
272.81	1796.07
273.02	1730.53
273.24	1703.91
273.46	1789.92
273.67	1609.70
273.89	1652.71
274.10	1673.19
274.32	1781.73
274.54	1765.35
274.75	1767.40
274.97	1724.39
275.18	1765.35
275.40	1681.38
275.61	1742.82
275.83	1800.16
276.05	1603.56
276.26	1652.71
276.48	1712.10
276.69	1656.81
276.91	1755.11
277.12	1759.21
277.34	1816.55
277.55	1769.44
277.77	1742.82
277.99	1746.92
278.20	1675.24
278.42	1730.53
278.63	1679.33
278.85	1632.23
279.06	1646.57
279.28	1695.72
279.49	1746.92
279.71	1720.29
279.93	1697.77
280.14	1677.29
280.36	1652.71
280.57	1773.54
280.79	1753.06
281.00	1619.94
281.22	1716.20
281.43	1845.22
281.65	1652.71
281.86	1638.38
282.08	1691.62
282.29	1804.26
282.51	1564.65
282.73	1714.15
282.94	1615.85
283.16	1787.88
283.37	1796.07
283.59	1722.34
283.80	1767.40
284.02	1710.05
284.23	1708.01
284.45	1675.24
284.66	1652.71
284.88	1697.77
285.09	1673.19
285.31	1710.05
285.52	1687.53
285.74	1634.28
285.95	1738.73
286.17	1701.86
286.38	1746.92
286.60	1693.67
286.81	1685.48
287.03	1740.77
287.24	1753.06
287.46	1771.49
287.67	1716.20
287.89	1802.21
288.10	1685.48
288.32	1732.58
288.53	1837.03
288.75	1730.53
288.96	1738.73
289.18	1642.47
289.39	1640.42
289.61	1791.97
289.82	1900.52
290.04	1794.02
290.25	1728.49
290.47	1710.05
290.68	1765.35
290.90	1789.92
291.11	1679.33
291.33	1755.11
291.54	1619.94
291.76	1650.66
291.97	1689.57
292.18	1710.05
292.40	1650.66
292.61	1691.62
292.83	1808.36
293.04	1755.11
293.26	1740.77
293.47	1755.11
293.69	1656.81
293.90	1712.10
294.12	1734.63
294.33	1683.43
294.55	1689.57
294.76	1849.32
294.97	1775.59
295.19	1863.65
295.40	1673.19
295.62	1730.53
295.83	1738.73
296.05	1683.43
296.26	1746.92
296.48	1740.77
296.69	1710.05
296.90	1636.33
297.12	1746.92
297.33	1697.77
297.55	1742.82
297.76	1695.72
297.98	1730.53
298.19	1755.11
298.41	1701.86
298.62	1669.09
298.83	1804.26
299.05	1740.77
299.26	1720.29
299.48	1617.90
299.69	1761.25
299.90	1806.31
300.12	1640.42
300.33	1722.34
300.55	1761.25
300.76	1748.97
300.98	1667.05
301.19	1716.20
301.40	1681.38
301.62	1640.42
301.83	1761.25
302.05	1726.44
302.26	1748.97
302.47	1662.95
302.69	1673.19
302.90	1683.43
303.12	1679.33
303.33	1755.11
303.54	1779.68
303.76	1699.81
303.97	1765.35
304.19	1791.97
304.40	1662.95
304.61	1771.49
304.83	1869.80
305.04	1681.38
305.26	1732.58
305.47	1656.81
305.68	1720.29
305.90	1644.52
306.11	1808.36
306.33	1722.34
306.54	1714.15
306.75	1675.24
306.97	1599.46
307.18	1712.10
307.39	1771.49
307.61	1765.35
307.82	1665.00
308.04	1759.21
308.25	1644.52
308.46	1763.30
308.68	1783.78
308.89	1687.53
309.10	1742.82
309.32	1736.68
309.53	1753.06
309.74	1773.54
309.96	1648.61
310.17	1853.41
310.39	1691.62
310.60	1763.30
310.81	1755.11
311.03	1603.56
311.24	1738.73
311.45	1593.32
311.67	1779.68
311.88	1789.92
312.09	1730.53
312.31	1656.81
312.52	1755.11
312.73	1716.20
312.95	1636.33
313.16	1660.90
313.37	1824.74
313.59	1802.21
313.80	1857.51
314.01	1810.40
314.23	1619.94
314.44	1591.27
314.65	1675.24
314.87	1730.53
315.08	1730.53
315.29	1675.24
315.51	1671.14
315.72	1720.29
315.93	1814.50
316.15	1761.25
316.36	1703.91
316.57	1814.50
316.79	1701.86
317.00	1703.91
317.21	1724.39
317.43	1748.97
317.64	1753.06
317.85	1701.86
318.07	1656.81
318.28	1693.67
318.49	1804.26
318.70	1910.75
318.92	1873.89
319.13	1783.78
319.34	1767.40
319.56	1843.17
319.77	1820.64
319.98	1798.12
320.20	1779.68
320.41	1787.88
320.62	1800.16
320.83	1624.04
321.05	1875.94
321.26	1689.57
321.47	1748.97
321.69	1781.73
321.90	1681.38
322.11	1675.24
322.32	1771.49
322.54	1826.79
322.75	1642.47
322.96	1789.92
323.18	1646.57
323.39	1609.70
323.60	1761.25
323.81	1777.64
324.03	1679.33
324.24	1708.01
324.45	1755.11
324.66	1687.53
324.88	1740.77
325.09	1755.11
325.30	1751.01
325.52	1769.44
325.73	1673.19
325.94	1634.28
326.15	1591.27
326.37	1632.23
326.58	1757.16
326.79	1804.26
327.00	1699.81
327.22	1761.25
327.43	1677.29
327.64	1675.24
327.85	1703.91
328.07	1746.92
328.28	1867.75
328.49	1619.94
328.70	1701.86
328.92	1800.16
329.13	1681.38
329.34	1730.53
329.55	1826.79
329.76	1748.97
329.98	1705.96
330.19	1853.41
330.40	1705.96
330.61	1687.53
330.83	1771.49
331.04	1722.34
331.25	1683.43
331.46	1708.01
331.68	1619.94
331.89	1810.40
332.10	1722.34
332.31	1634.28
332.52	1697.77
332.74	1798.12
332.95	1665.00
333.16	1658.85
333.37	1787.88
333.58	1611.75
333.80	1738.73
334.01	1619.94
334.22	1667.05
334.43	1644.52
334.64	1677.29
334.86	1710.05
335.07	1736.68
335.28	1798.12
335.49	1611.75
335.70	1779.68
335.92	1773.54
336.13	1861.60
336.34	1806.31
336.55	1767.40
336.76	1685.48
336.98	1611.75
337.19	1724.39
337.40	1845.22
337.61	1816.55
337.82	1617.90
338.04	1746.92
338.25	1683.43
338.46	1681.38
338.67	1708.01
338.88	1701.86
339.09	1656.81
339.31	1611.75
339.52	1656.81
339.73	1742.82
339.94	1640.42
340.15	1757.16
340.36	1787.88
340.58	1787.88
340.79	1665.00
341.00	1753.06
341.21	1656.81
341.42	1824.74
341.63	1697.77
341.85	1798.12
342.06	1748.97
342.27	1683.43
342.48	1765.35
342.69	1613.80
342.90	1777.64
343.12	1736.68
343.33	1675.24
343.54	1777.64
343.75	1761.25
343.96	1710.05
344.17	1726.44
344.38	1724.39
344.60	1660.90
344.81	1708.01
345.02	1791.97
345.23	1773.54
345.44	1886.18
345.65	1755.11
345.86	1785.83
346.07	1738.73
346.29	1732.58
346.50	1783.78
346.71	1693.67
346.92	1839.08
347.13	1834.98
347.34	1718.25
347.55	1767.40
347.76	1775.59
347.98	1646.57
348.19	1660.90
348.40	1763.30
348.61	1736.68
348.82	1851.36
349.03	1742.82
349.24	1626.09
349.45	1896.42
349.66	1693.67
349.88	1779.68
350.09	1642.47
350.30	1763.30
350.51	1804.26
350.72	1791.97
350.93	1751.01
351.14	1599.46
351.35	1744.87
351.56	1693.67
351.77	1710.05
351.99	1816.55
352.20	1812.45
352.41	1771.49
352.62	1642.47
352.83	1710.05
353.04	1656.81
353.25	1714.15
353.46	1710.05
353.67	1746.92
353.88	1667.05
354.09	1746.92
354.30	1751.01
354.52	1710.05
354.73	1732.58
354.94	1646.57
355.15	1708.01
355.36	1794.02
355.57	1679.33
355.78	1714.15
355.99	1701.86
356.20	1611.75
356.41	1728.49
356.62	1705.96
356.83	1783.78
357.04	1828.84
357.25	1619.94
357.46	1660.90
357.68	1574.89
357.89	1677.29
358.10	1658.85
358.31	1654.76
358.52	1726.44
358.73	1607.66
358.94	1619.94
359.15	1656.81
359.36	1705.96
359.57	1701.86
359.78	1703.91
359.99	1804.26
360.20	1611.75
360.41	1679.33
360.62	1775.59
360.83	1759.21
361.04	1697.77
361.25	1730.53
361.46	1865.70
361.67	1787.88
361.88	1763.30
362.09	1730.53
362.30	1720.29
362.51	1669.09
362.72	1716.20
362.93	1699.81
363.14	1722.34
363.35	1634.28
363.56	1660.90
363.78	1820.64
363.99	1832.93
364.20	1675.24
364.41	1730.53
364.62	1814.50
364.83	1718.25
365.04	1632.23
365.25	1693.67
365.46	1845.22
365.67	1701.86
365.88	1658.85
366.09	1628.14
366.30	1728.49
366.51	1656.81
366.72	1621.99
366.93	1732.58
367.14	1710.05
367.35	1789.92
367.56	1683.43
367.77	1773.54
367.98	1683.43
368.18	1675.24
368.39	1789.92
368.60	1640.42
368.81	1828.84
369.02	1763.30
369.23	1656.81
369.44	1658.85
369.65	1697.77
369.86	1761.25
370.07	1726.44
370.28	1648.61
370.49	1751.01
370.70	1728.49
370.91	1669.09
371.12	1726.44
371.33	1736.68
371.54	1695.72
371.75	1761.25
371.96	1583.08
372.17	1685.48
372.38	1636.33
372.59	1767.40
372.80	1757.16
373.01	1683.43
373.22	1722.34
373.43	1710.05
373.64	1701.86
373.85	1769.44
374.06	1798.12
374.26	1724.39
374.47	1763.30
374.68	1781.73
374.89	1732.58
375.10	1730.53
375.31	1746.92
375.52	1710.05
375.73	1705.96
375.94	1624.04
376.15	1742.82
376.36	1662.95
376.57	1636.33
376.78	1638.38
376.99	1738.73
377.20	1761.25
377.40	1687.53
377.61	1787.88
377.82	1646.57
378.03	1767.40
378.24	1746.92
378.45	1712.10
378.66	1732.58
378.87	1624.04
379.08	1669.09
379.29	1736.68
379.50	1765.35
379.71	1669.09
379.91	1794.02
380.12	1697.77
380.33	1681.38
380.54	1732.58
380.75	1665.00
380.96	1718.25
381.17	1816.55
381.38	1765.35
381.59	1742.82
381.80	1722.34
382.00	1814.50
382.21	1654.76
382.42	1818.60
382.63	1929.19
382.84	1710.05
383.05	1779.68
383.26	1826.79
383.47	1728.49
383.68	1796.07
383.88	1789.92
384.09	1689.57
384.30	1798.12
384.51	1796.07
384.72	1691.62
384.93	1667.05
385.14	1757.16
385.35	1783.78
385.55	1605.61
385.76	1732.58
385.97	1677.29
386.18	1687.53
386.39	1677.29
386.60	1761.25
386.81	1724.39
387.02	1693.67
387.22	1640.42
387.43	1771.49
387.64	1837.03
387.85	1910.75
388.06	2244.57
388.27	4280.25
388.48	6727.58
388.68	8107.91
388.89	9441.14
389.10	9674.60
389.31	8683.39
389.52	7550.86
389.73	6592.41
389.93	6350.75
390.14	5648.30
390.35	5150.64
390.56	4552.63
390.77	3770.31
390.98	3030.99
391.18	2594.78
391.39	2101.22
391.60	1859.56
391.81	1849.32
392.02	1738.73
392.23	1871.84
392.43	1767.40
392.64	1808.36
392.85	1755.11
393.06	1880.04
393.27	1671.14
393.47	1695.72
393.68	1773.54
393.89	1712.10
394.10	1771.49
394.31	1675.24
394.52	1648.61
394.72	1624.04
394.93	1867.75
395.14	1705.96
395.35	1789.92
395.56	1716.20
395.76	1744.87
395.97	1767.40
396.18	1808.36
396.39	1830.88
396.60	2007.01
396.80	1820.64
397.01	1886.18
397.22	1759.21
397.43	1935.33
397.64	1726.44
397.84	1888.23
398.05	1900.52
398.26	1714.15
398.47	1892.32
398.67	1824.74
398.88	1720.29
399.09	1738.73
399.30	1734.63
399.51	1697.77
399.71	1732.58
399.92	1734.63
400.13	1722.34
400.34	1685.48
400.54	1746.92
400.75	1794.02
400.96	1695.72
401.17	1812.45
401.37	1822.69
401.58	1794.02
401.79	1755.11
402.00	1859.56
402.21	2103.26
402.41	2015.20
402.62	2033.63
402.83	2068.45
403.04	2015.20
403.24	2101.22
403.45	1834.98
403.66	1920.99
403.87	1875.94
404.07	1910.75
404.28	1867.75
404.49	1900.52
404.70	1785.83
404.90	1767.40
405.11	1714.15
405.32	1761.25
405.52	1685.48
405.73	1679.33
405.94	1669.09
406.15	1703.91
406.35	1757.16
406.56	1753.06
406.77	1730.53
406.98	1763.30
407.18	1677.29
407.39	1808.36
407.60	1652.71
407.80	1781.73
408.01	1646.57
408.22	1712.10
408.43	1751.01
408.63	1705.96
408.84	1806.31
409.05	1732.58
409.25	1675.24
409.46	1751.01
409.67	1769.44
409.88	1652.71
410.08	1787.88
410.29	1658.85
410.50	1755.11
410.70	1732.58
410.91	1734.63
411.12	1753.06
411.32	1705.96
411.53	1722.34
411.74	1834.98
411.95	1789.92
412.15	1730.53
412.36	1787.88
412.57	1687.53
412.77	1773.54
412.98	1769.44
413.19	1685.48
413.39	1705.96
413.60	1769.44
413.81	1808.36
414.01	1691.62
414.22	1802.21
414.43	1849.32
414.63	1681.38
414.84	1765.35
415.05	1796.07
415.25	1644.52
415.46	1726.44
415.67	1695.72
415.87	1710.05
416.08	1675.24
416.29	1771.49
416.49	1669.09
416.70	1732.58
416.91	1791.97
417.11	1771.49
417.32	1718.25
417.53	1765.35
417.73	1783.78
417.94	1705.96
418.15	1691.62
418.35	1724.39
418.56	1759.21
418.77	1791.97
418.97	1693.67
419.18	1703.91
419.38	1714.15
419.59	1746.92
419.80	1794.02
420.00	1681.38
420.21	1761.25
420.42	1816.55
420.62	1820.64
420.83	1751.01
421.04	1689.57
421.24	1738.73
421.45	1742.82
421.65	1753.06
421.86	1697.77
422.07	1775.59
422.27	1765.35
422.48	1714.15
422.69	1724.39
422.89	1693.67
423.10	1705.96
423.30	1697.77
423.51	1722.34
423.72	1599.46
423.92	1775.59
424.13	1609.70
424.33	1810.40
424.54	1744.87
424.75	1742.82
424.95	1736.68
425.16	1798.12
425.36	1716.20
425.57	1796.07
425.78	1771.49
425.98	1777.64
426.19	1763.30
426.39	1689.57
426.60	1734.63
426.81	1804.26
427.01	1683.43
427.22	1736.68
427.42	1634.28
427.63	1691.62
427.83	1699.81
428.04	1800.16
428.25	1843.17
428.45	1828.84
428.66	1773.54
428.86	1669.09
429.07	1654.76
429.28	1689.57
429.48	1794.02
429.69	1681.38
429.89	1718.25
430.10	1738.73
430.30	1771.49
430.51	1806.31
430.71	1767.40
430.92	1683.43
431.13	1689.57
431.33	1726.44
431.54	1779.68
431.74	1890.28
431.95	1802.21
432.15	1695.72
432.36	1662.95
432.56	1787.88
432.77	1808.36
432.98	1800.16
433.18	1708.01
433.39	1689.57
433.59	1724.39
433.80	1888.23
434.00	1941.47
434.21	1703.91
434.41	1701.86
434.62	1839.08
434.82	1673.19
435.03	1677.29
435.23	1759.21
435.44	1681.38
435.64	1740.77
435.85	1691.62
436.06	1820.64
436.26	1755.11
436.47	1730.53
436.67	1665.00
436.88	1755.11
437.08	1781.73
437.29	1847.27
437.49	1738.73
437.70	1740.77
437.90	1697.77
438.11	1810.40
438.31	1826.79
438.52	1896.42
438.72	1806.31
438.93	1939.43
439.13	1765.35
439.34	1845.22
439.54	1718.25
439.75	1785.83
439.95	1755.11
440.16	1742.82
440.36	1730.53
440.57	1789.92
440.77	1828.84
440.98	1775.59
441.18	1730.53
441.39	1742.82
441.59	1751.01
441.80	1849.32
442.00	1720.29
442.21	1857.51
442.41	1691.62
442.62	1818.60
442.82	1646.57
443.02	1765.35
443.23	1757.16
443.43	1697.77
443.64	1859.56
443.84	1669.09
444.05	1812.45
444.25	1751.01
444.46	1761.25
444.66	1742.82
444.87	1765.35
445.07	1648.61
445.28	1824.74
445.48	1855.46
445.69	1748.97
445.89	1890.28
446.09	1791.97
446.30	2109.41
446.50	2590.68
446.71	3712.97
446.91	4339.65
447.12	4714.42
447.32	4818.87
447.53	4378.56
447.73	3794.89
447.93	3418.06
448.14	3356.62
448.34	3139.54
448.55	2856.92
448.75	2912.21
448.96	2719.70
449.16	2482.14
449.36	2240.48
449.57	2060.26
449.77	1869.80
449.98	1818.60
450.18	1761.25
450.39	1804.26
450.59	1798.12
450.79	1728.49
451.00	1777.64
451.20	1812.45
451.41	1755.11
451.61	1697.77
451.81	1716.20
452.02	1777.64
452.22	1673.19
452.43	1650.66
452.63	1798.12
