SpectraSuite Data File
++++++++++++++++++++++++++++++++++++
Date: Mon Jun 06 17:33:17 CEST 2016
User: root
Dark Spectrum Present: No
Reference Spectrum Present: No
Number of Sampled Component Spectra: 1
Spectrometers: USB4C02835
Integration Time (usec): 100000 (USB4C02835)
Spectra Averaged: 1 (USB4C02835)
Boxcar Smoothing: 0 (USB4C02835)
Correct for Electrical Dark: No (USB4C02835)
Strobe/Lamp Enabled: No (USB4C02835)
Correct for Detector Non-linearity: No (USB4C02835)
Correct for Stray Light: No (USB4C02835)
Number of Pixels in Processed Spectrum: 3648
>>>>>Begin Processed Spectral Data<<<<<
177.47	1462.25
177.69	1462.25
177.91	1462.25
178.13	1466.35
178.36	1513.45
178.58	1640.42
178.80	1636.33
179.02	1615.85
179.24	1636.33
179.46	1705.96
179.68	1708.01
179.90	1701.86
180.13	1761.25
180.35	1615.85
180.57	1794.02
180.79	1675.24
181.01	1683.43
181.23	1804.26
181.45	1783.78
181.67	1746.92
181.90	1755.11
182.12	1683.43
182.34	1669.09
182.56	1761.25
182.78	1722.34
183.00	1744.87
183.22	1640.42
183.44	1619.94
183.66	1824.74
183.89	1824.74
184.11	1710.05
184.33	1740.77
184.55	1753.06
184.77	1695.72
184.99	1675.24
185.21	1738.73
185.43	1859.56
185.65	1738.73
185.87	1730.53
186.10	1834.98
186.32	1816.55
186.54	1763.30
186.76	1798.12
186.98	1736.68
187.20	1714.15
187.42	1640.42
187.64	1791.97
187.86	1720.29
188.08	1761.25
188.30	1695.72
188.52	1714.15
188.75	1794.02
188.97	1718.25
189.19	1685.48
189.41	1728.49
189.63	1740.77
189.85	1728.49
190.07	1683.43
190.29	1728.49
190.51	1730.53
190.73	1652.71
190.95	1806.31
191.17	1789.92
191.39	1554.41
191.61	1710.05
191.84	1748.97
192.06	1783.78
192.28	1658.85
192.50	1957.86
192.72	1773.54
192.94	1703.91
193.16	1761.25
193.38	1820.64
193.60	1740.77
193.82	1656.81
194.04	1763.30
194.26	1699.81
194.48	1755.11
194.70	1632.23
194.92	1673.19
195.14	1761.25
195.36	1669.09
195.58	1724.39
195.80	1667.05
196.02	1665.00
196.24	1744.87
196.46	1703.91
196.69	1746.92
196.91	1839.08
197.13	1710.05
197.35	1718.25
197.57	1779.68
197.79	1597.42
198.01	1714.15
198.23	1726.44
198.45	1769.44
198.67	1640.42
198.89	1744.87
199.11	1759.21
199.33	1767.40
199.55	1572.84
199.77	1712.10
199.99	1849.32
200.21	1685.48
200.43	1710.05
200.65	1652.71
200.87	1595.37
201.09	1689.57
201.31	1691.62
201.53	1718.25
201.75	1691.62
201.97	1685.48
202.19	1710.05
202.41	1765.35
202.63	1867.75
202.85	1771.49
203.07	1847.27
203.29	1693.67
203.51	1626.09
203.73	1638.38
203.95	1951.71
204.17	1740.77
204.39	1748.97
204.61	1746.92
204.83	1736.68
205.05	1761.25
205.27	1738.73
205.49	1853.41
205.71	1730.53
205.93	1630.18
206.15	1675.24
206.37	1671.14
206.59	1679.33
206.81	1710.05
207.03	1599.46
207.25	1673.19
207.47	1736.68
207.69	1722.34
207.91	1789.92
208.13	1759.21
208.34	1708.01
208.56	1685.48
208.78	1738.73
209.00	1673.19
209.22	1714.15
209.44	1732.58
209.66	1710.05
209.88	1685.48
210.10	1726.44
210.32	1667.05
210.54	1759.21
210.76	1703.91
210.98	1730.53
211.20	1613.80
211.42	1710.05
211.64	1783.78
211.86	1775.59
212.08	1759.21
212.30	1710.05
212.52	1742.82
212.74	1763.30
212.96	1732.58
213.17	1812.45
213.39	1765.35
213.61	1730.53
213.83	1720.29
214.05	1669.09
214.27	1757.16
214.49	1605.61
214.71	1677.29
214.93	1726.44
215.15	1738.73
215.37	1751.01
215.59	1621.99
215.81	1763.30
216.03	1845.22
216.24	1787.88
216.46	1699.81
216.68	1734.63
216.90	1798.12
217.12	1767.40
217.34	1689.57
217.56	1832.93
217.78	1720.29
218.00	1818.60
218.22	1691.62
218.44	1742.82
218.66	1701.86
218.87	1781.73
219.09	1662.95
219.31	1785.83
219.53	1654.76
219.75	1677.29
219.97	1771.49
220.19	1642.47
220.41	1685.48
220.63	1816.55
220.85	1740.77
221.06	1650.66
221.28	1794.02
221.50	1712.10
221.72	1718.25
221.94	1759.21
222.16	1636.33
222.38	1771.49
222.60	1787.88
222.82	1669.09
223.03	1785.83
223.25	1636.33
223.47	1757.16
223.69	1869.80
223.91	1824.74
224.13	1689.57
224.35	1740.77
224.57	1771.49
224.78	1777.64
225.00	1738.73
225.22	1636.33
225.44	1787.88
225.66	1703.91
225.88	1621.99
226.10	1761.25
226.32	1699.81
226.53	1787.88
226.75	1734.63
226.97	1730.53
227.19	1662.95
227.41	1730.53
227.63	1685.48
227.85	1576.94
228.06	1742.82
228.28	1767.40
228.50	1798.12
228.72	1644.52
228.94	1624.04
229.16	1654.76
229.37	1609.70
229.59	1660.90
229.81	1755.11
230.03	1738.73
230.25	1656.81
230.47	1669.09
230.69	1589.22
230.90	1753.06
231.12	1699.81
231.34	1671.14
231.56	1755.11
231.78	1640.42
232.00	1652.71
232.21	1791.97
232.43	1691.62
232.65	1566.70
232.87	1771.49
233.09	1683.43
233.30	1646.57
233.52	1712.10
233.74	1648.61
233.96	1697.77
234.18	1703.91
234.40	1726.44
234.61	1832.93
234.83	1732.58
235.05	1677.29
235.27	1900.52
235.49	1800.16
235.70	1716.20
235.92	1826.79
236.14	1699.81
236.36	1816.55
236.58	1624.04
236.79	1748.97
237.01	1748.97
237.23	1751.01
237.45	1865.70
237.67	1660.90
237.88	1765.35
238.10	1837.03
238.32	1652.71
238.54	1697.77
238.76	1693.67
238.97	1767.40
239.19	1615.85
239.41	1783.78
239.63	1703.91
239.85	1595.37
240.06	1697.77
240.28	1722.34
240.50	1822.69
240.72	1662.95
240.93	1701.86
241.15	1791.97
241.37	1699.81
241.59	1798.12
241.81	1683.43
242.02	1746.92
242.24	1802.21
242.46	1726.44
242.68	1738.73
242.89	1724.39
243.11	1789.92
243.33	1642.47
243.55	1816.55
243.76	1789.92
243.98	1679.33
244.20	1658.85
244.42	1681.38
244.64	1714.15
244.85	1699.81
245.07	1683.43
245.29	1798.12
245.51	1718.25
245.72	1730.53
245.94	1738.73
246.16	1716.20
246.38	1697.77
246.59	1656.81
246.81	1652.71
247.03	1689.57
247.24	1646.57
247.46	1734.63
247.68	1710.05
247.90	1673.19
248.11	1695.72
248.33	1779.68
248.55	1738.73
248.77	1683.43
248.98	1720.29
249.20	1775.59
249.42	1767.40
249.64	1775.59
249.85	1736.68
250.07	1687.53
250.29	1794.02
250.50	1765.35
250.72	1683.43
250.94	1710.05
251.16	1896.42
251.37	1748.97
251.59	1738.73
251.81	1748.97
252.02	1791.97
252.24	1648.61
252.46	1832.93
252.68	1681.38
252.89	1712.10
253.11	1638.38
253.33	1763.30
253.54	1691.62
253.76	1660.90
253.98	1746.92
254.20	1755.11
254.41	1689.57
254.63	1710.05
254.85	1636.33
255.06	1736.68
255.28	1746.92
255.50	1685.48
255.71	1685.48
255.93	1599.46
256.15	1751.01
256.36	1804.26
256.58	1656.81
256.80	1751.01
257.02	1708.01
257.23	1689.57
257.45	1781.73
257.67	1718.25
257.88	1748.97
258.10	1748.97
258.32	1683.43
258.53	1732.58
258.75	1767.40
258.97	1642.47
259.18	1720.29
259.40	1724.39
259.62	1769.44
259.83	1751.01
260.05	1789.92
260.27	1947.62
260.48	1830.88
260.70	1722.34
260.92	1742.82
261.13	1681.38
261.35	1769.44
261.57	1812.45
261.78	1589.22
262.00	1644.52
262.22	1812.45
262.43	1638.38
262.65	1748.97
262.86	1705.96
263.08	1806.31
263.30	1771.49
263.51	1583.08
263.73	1714.15
263.95	1816.55
264.16	1640.42
264.38	1656.81
264.60	1783.78
264.81	1714.15
265.03	1779.68
265.25	1738.73
265.46	1685.48
265.68	1738.73
265.89	1736.68
266.11	1675.24
266.33	1757.16
266.54	1703.91
266.76	1789.92
266.98	1775.59
267.19	1804.26
267.41	1744.87
267.62	1660.90
267.84	1681.38
268.06	1791.97
268.27	1681.38
268.49	1794.02
268.70	1761.25
268.92	1738.73
269.14	1681.38
269.35	1632.23
269.57	1691.62
269.79	1701.86
270.00	1656.81
270.22	1791.97
270.43	1628.14
270.65	1560.55
270.87	1654.76
271.08	1843.17
271.30	1710.05
271.51	1646.57
271.73	1720.29
271.95	1804.26
272.16	1755.11
272.38	1642.47
272.59	1693.67
272.81	1761.25
273.02	1779.68
273.24	1710.05
273.46	1796.07
273.67	1675.24
273.89	1683.43
274.10	1718.25
274.32	1849.32
274.54	1789.92
274.75	1718.25
274.97	1755.11
275.18	1787.88
275.40	1738.73
275.61	1710.05
275.83	1753.06
276.05	1630.18
276.26	1714.15
276.48	1759.21
276.69	1683.43
276.91	1646.57
277.12	1718.25
277.34	1814.50
277.55	1712.10
277.77	1759.21
277.99	1718.25
278.20	1638.38
278.42	1634.28
278.63	1681.38
278.85	1697.77
279.06	1665.00
279.28	1693.67
279.49	1771.49
279.71	1742.82
279.93	1742.82
280.14	1681.38
280.36	1734.63
280.57	1789.92
280.79	1746.92
281.00	1605.61
281.22	1601.51
281.43	1804.26
281.65	1609.70
281.86	1748.97
282.08	1767.40
282.29	1853.41
282.51	1695.72
282.73	1656.81
282.94	1648.61
283.16	1787.88
283.37	1785.83
283.59	1761.25
283.80	1822.69
284.02	1638.38
284.23	1689.57
284.45	1679.33
284.66	1691.62
284.88	1699.81
285.09	1693.67
285.31	1728.49
285.52	1763.30
285.74	1589.22
285.95	1742.82
286.17	1746.92
286.38	1841.12
286.60	1646.57
286.81	1716.20
287.03	1742.82
287.24	1730.53
287.46	1791.97
287.67	1728.49
287.89	1814.50
288.10	1697.77
288.32	1677.29
288.53	1783.78
288.75	1744.87
288.96	1789.92
289.18	1662.95
289.39	1691.62
289.61	1816.55
289.82	1755.11
290.04	1796.07
290.25	1611.75
290.47	1677.29
290.68	1748.97
290.90	1806.31
291.11	1634.28
291.33	1771.49
291.54	1689.57
291.76	1685.48
291.97	1769.44
292.18	1730.53
292.40	1644.52
292.61	1736.68
292.83	1847.27
293.04	1775.59
293.26	1716.20
293.47	1744.87
293.69	1710.05
293.90	1753.06
294.12	1736.68
294.33	1665.00
294.55	1683.43
294.76	1804.26
294.97	1826.79
295.19	1816.55
295.40	1646.57
295.62	1710.05
295.83	1794.02
296.05	1667.05
296.26	1730.53
296.48	1626.09
296.69	1701.86
296.90	1701.86
297.12	1775.59
297.33	1730.53
297.55	1699.81
297.76	1732.58
297.98	1777.64
298.19	1738.73
298.41	1689.57
298.62	1636.33
298.83	1779.68
299.05	1683.43
299.26	1685.48
299.48	1697.77
299.69	1718.25
299.90	1812.45
300.12	1697.77
300.33	1791.97
300.55	1654.76
300.76	1769.44
300.98	1695.72
301.19	1830.88
301.40	1699.81
301.62	1755.11
301.83	1675.24
302.05	1740.77
302.26	1701.86
302.47	1736.68
302.69	1648.61
302.90	1716.20
303.12	1609.70
303.33	1814.50
303.54	1834.98
303.76	1673.19
303.97	1683.43
304.19	1806.31
304.40	1646.57
304.61	1746.92
304.83	1855.46
305.04	1802.21
305.26	1667.05
305.47	1734.63
305.68	1708.01
305.90	1626.09
306.11	1814.50
306.33	1748.97
306.54	1681.38
306.75	1652.71
306.97	1611.75
307.18	1662.95
307.39	1791.97
307.61	1742.82
307.82	1650.66
308.04	1738.73
308.25	1683.43
308.46	1691.62
308.68	1708.01
308.89	1767.40
309.10	1791.97
309.32	1681.38
309.53	1767.40
309.74	1781.73
309.96	1681.38
310.17	1779.68
310.39	1705.96
310.60	1718.25
310.81	1748.97
311.03	1646.57
311.24	1726.44
311.45	1818.60
311.67	1828.84
311.88	1775.59
312.09	1740.77
312.31	1675.24
312.52	1785.83
312.73	1689.57
312.95	1665.00
313.16	1677.29
313.37	1744.87
313.59	1716.20
313.80	1765.35
314.01	1742.82
314.23	1720.29
314.44	1716.20
314.65	1662.95
314.87	1679.33
315.08	1757.16
315.29	1615.85
315.51	1671.14
315.72	1593.32
315.93	1804.26
316.15	1818.60
316.36	1689.57
316.57	1693.67
316.79	1742.82
317.00	1646.57
317.21	1789.92
317.43	1685.48
317.64	1705.96
317.85	1691.62
318.07	1675.24
318.28	1740.77
318.49	1781.73
318.70	1886.18
318.92	1845.22
319.13	1812.45
319.34	1810.40
319.56	1765.35
319.77	1880.04
319.98	1798.12
320.20	1755.11
320.41	1877.99
320.62	1728.49
320.83	1671.14
321.05	1828.84
321.26	1728.49
321.47	1634.28
321.69	1789.92
321.90	1585.13
322.11	1691.62
322.32	1769.44
322.54	1820.64
322.75	1636.33
322.96	1810.40
323.18	1667.05
323.39	1550.31
323.60	1693.67
323.81	1845.22
324.03	1632.23
324.24	1740.77
324.45	1630.18
324.66	1703.91
324.88	1732.58
325.09	1814.50
325.30	1701.86
325.52	1781.73
325.73	1724.39
325.94	1630.18
326.15	1630.18
326.37	1697.77
326.58	1722.34
326.79	1742.82
327.00	1650.66
327.22	1705.96
327.43	1665.00
327.64	1642.47
327.85	1732.58
328.07	1755.11
328.28	1806.31
328.49	1691.62
328.70	1771.49
328.92	1791.97
329.13	1691.62
329.34	1812.45
329.55	1849.32
329.76	1753.06
329.98	1646.57
330.19	1783.78
330.40	1751.01
330.61	1767.40
330.83	1744.87
331.04	1714.15
331.25	1791.97
331.46	1701.86
331.68	1673.19
331.89	1753.06
332.10	1759.21
332.31	1710.05
332.52	1763.30
332.74	1757.16
332.95	1607.66
333.16	1650.66
333.37	1726.44
333.58	1720.29
333.80	1779.68
334.01	1695.72
334.22	1736.68
334.43	1667.05
334.64	1720.29
334.86	1681.38
335.07	1671.14
335.28	1726.44
335.49	1669.09
335.70	1746.92
335.92	1744.87
336.13	1859.56
336.34	1710.05
336.55	1728.49
336.76	1726.44
336.98	1554.41
337.19	1683.43
337.40	1791.97
337.61	1822.69
337.82	1632.23
338.04	1730.53
338.25	1609.70
338.46	1675.24
338.67	1742.82
338.88	1626.09
339.09	1671.14
339.31	1652.71
339.52	1681.38
339.73	1613.80
339.94	1722.34
340.15	1712.10
340.36	1740.77
340.58	1701.86
340.79	1724.39
341.00	1671.14
341.21	1689.57
341.42	1822.69
341.63	1687.53
341.85	1769.44
342.06	1740.77
342.27	1708.01
342.48	1798.12
342.69	1634.28
342.90	1728.49
343.12	1746.92
343.33	1742.82
343.54	1718.25
343.75	1820.64
343.96	1695.72
344.17	1691.62
344.38	1720.29
344.60	1636.33
344.81	1617.90
345.02	1687.53
345.23	1816.55
345.44	1765.35
345.65	1796.07
345.86	1804.26
346.07	1703.91
346.29	1724.39
346.50	1769.44
346.71	1718.25
346.92	1773.54
347.13	1814.50
347.34	1693.67
347.55	1769.44
347.76	1763.30
347.98	1576.94
348.19	1714.15
348.40	1781.73
348.61	1748.97
348.82	1824.74
349.03	1812.45
349.24	1652.71
349.45	1849.32
349.66	1568.74
349.88	1714.15
350.09	1695.72
350.30	1777.64
350.51	1722.34
350.72	1699.81
350.93	1789.92
351.14	1759.21
351.35	1630.18
351.56	1693.67
351.77	1740.77
351.99	1744.87
352.20	1781.73
352.41	1734.63
352.62	1611.75
352.83	1652.71
353.04	1697.77
353.25	1697.77
353.46	1673.19
353.67	1814.50
353.88	1660.90
354.09	1669.09
354.30	1667.05
354.52	1734.63
354.73	1701.86
354.94	1724.39
355.15	1732.58
355.36	1800.16
355.57	1718.25
355.78	1763.30
355.99	1751.01
356.20	1673.19
356.41	1810.40
356.62	1742.82
356.83	1740.77
357.04	1751.01
357.25	1681.38
357.46	1681.38
357.68	1626.09
357.89	1654.76
358.10	1687.53
358.31	1701.86
358.52	1667.05
358.73	1673.19
358.94	1714.15
359.15	1646.57
359.36	1849.32
359.57	1691.62
359.78	1777.64
359.99	1783.78
360.20	1685.48
360.41	1691.62
360.62	1779.68
360.83	1798.12
361.04	1738.73
361.25	1669.09
361.46	1787.88
361.67	1761.25
361.88	1777.64
362.09	1847.27
362.30	1712.10
362.51	1693.67
362.72	1667.05
362.93	1773.54
363.14	1730.53
363.35	1736.68
363.56	1722.34
363.78	1783.78
363.99	1726.44
364.20	1673.19
364.41	1820.64
364.62	1859.56
364.83	1777.64
365.04	1697.77
365.25	1683.43
365.46	1824.74
365.67	1619.94
365.88	1693.67
366.09	1714.15
366.30	1738.73
366.51	1636.33
366.72	1615.85
366.93	1820.64
367.14	1753.06
367.35	1845.22
367.56	1748.97
367.77	1847.27
367.98	1765.35
368.18	1765.35
368.39	1689.57
368.60	1695.72
368.81	1820.64
369.02	1787.88
369.23	1748.97
369.44	1583.08
369.65	1748.97
369.86	1798.12
370.07	1796.07
370.28	1669.09
370.49	1730.53
370.70	1765.35
370.91	1699.81
371.12	1595.37
371.33	1779.68
371.54	1675.24
371.75	1839.08
371.96	1640.42
372.17	1773.54
372.38	1712.10
372.59	1775.59
372.80	1626.09
373.01	1746.92
373.22	1765.35
373.43	1763.30
373.64	1677.29
373.85	1746.92
374.06	1718.25
374.26	1685.48
374.47	1763.30
374.68	1892.32
374.89	1730.53
375.10	1724.39
375.31	1777.64
375.52	1710.05
375.73	1800.16
375.94	1689.57
376.15	1828.84
376.36	1605.61
376.57	1667.05
376.78	1722.34
376.99	1804.26
377.20	1716.20
377.40	1751.01
377.61	1873.89
377.82	1687.53
378.03	1771.49
378.24	1708.01
378.45	1736.68
378.66	1734.63
378.87	1535.98
379.08	1650.66
379.29	1697.77
379.50	1744.87
379.71	1683.43
379.91	1777.64
380.12	1726.44
380.33	1673.19
380.54	1693.67
380.75	1681.38
380.96	1652.71
381.17	1759.21
381.38	1734.63
381.59	1802.21
381.80	1712.10
382.00	1888.23
382.21	1798.12
382.42	1828.84
382.63	1896.42
382.84	1695.72
383.05	1767.40
383.26	1834.98
383.47	1810.40
383.68	1832.93
383.88	1755.11
384.09	1679.33
384.30	1798.12
384.51	1705.96
384.72	1714.15
384.93	1685.48
385.14	1751.01
385.35	1789.92
385.55	1609.70
385.76	1783.78
385.97	1804.26
386.18	1636.33
386.39	1701.86
386.60	1679.33
386.81	1687.53
387.02	1640.42
387.22	1724.39
387.43	1757.16
387.64	1742.82
387.85	1847.27
388.06	2158.56
388.27	4159.42
388.48	6801.30
388.68	8142.72
388.89	9762.67
389.10	10039.14
389.31	8740.73
389.52	7659.40
389.73	6807.45
389.93	6281.12
390.14	5945.25
390.35	5326.77
390.56	4603.83
390.77	3876.80
390.98	3016.66
391.18	2629.59
391.39	2095.07
391.60	1880.04
391.81	1853.41
392.02	1683.43
392.23	1839.08
392.43	1703.91
392.64	1920.99
392.85	1724.39
393.06	1875.94
393.27	1675.24
393.47	1718.25
393.68	1697.77
393.89	1681.38
394.10	1701.86
394.31	1662.95
394.52	1708.01
394.72	1693.67
394.93	1787.88
395.14	1662.95
395.35	1796.07
395.56	1716.20
395.76	1791.97
395.97	1824.74
396.18	1796.07
396.39	1839.08
396.60	2052.06
396.80	1918.95
397.01	1900.52
397.22	1828.84
397.43	1890.28
397.64	1812.45
397.84	1837.03
398.05	1839.08
398.26	1681.38
398.47	1771.49
398.67	1791.97
398.88	1734.63
399.09	1828.84
399.30	1755.11
399.51	1732.58
399.71	1779.68
399.92	1751.01
400.13	1689.57
400.34	1724.39
400.54	1630.18
400.75	1845.22
400.96	1751.01
401.17	1808.36
401.37	1769.44
401.58	1761.25
401.79	1701.86
402.00	1914.85
402.21	2078.69
402.41	2009.06
402.62	2047.97
402.83	2047.97
403.04	1935.33
403.24	2095.07
403.45	1886.18
403.66	1980.39
403.87	1894.37
404.07	1892.32
404.28	1853.41
404.49	1898.47
404.70	1732.58
404.90	1751.01
405.11	1785.83
405.32	1751.01
405.52	1654.76
405.73	1632.23
405.94	1656.81
406.15	1652.71
406.35	1728.49
406.56	1808.36
406.77	1677.29
406.98	1726.44
407.18	1671.14
407.39	1849.32
407.60	1685.48
407.80	1771.49
408.01	1777.64
408.22	1775.59
408.43	1636.33
408.63	1804.26
408.84	1740.77
409.05	1720.29
409.25	1665.00
409.46	1652.71
409.67	1769.44
409.88	1652.71
410.08	1665.00
410.29	1771.49
410.50	1775.59
410.70	1746.92
410.91	1619.94
411.12	1755.11
411.32	1703.91
411.53	1689.57
411.74	1822.69
411.95	1652.71
412.15	1718.25
412.36	1779.68
412.57	1736.68
412.77	1816.55
412.98	1718.25
413.19	1714.15
413.39	1757.16
413.60	1755.11
413.81	1841.12
414.01	1654.76
414.22	1728.49
414.43	1738.73
414.63	1744.87
414.84	1730.53
415.05	1744.87
415.25	1675.24
415.46	1761.25
415.67	1708.01
415.87	1796.07
416.08	1777.64
416.29	1695.72
416.49	1740.77
416.70	1798.12
416.91	1687.53
417.11	1757.16
417.32	1769.44
417.53	1767.40
417.73	1785.83
417.94	1693.67
418.15	1830.88
418.35	1740.77
418.56	1701.86
418.77	1882.08
418.97	1660.90
419.18	1730.53
419.38	1595.37
419.59	1734.63
419.80	1773.54
420.00	1662.95
420.21	1757.16
420.42	1845.22
420.62	1693.67
420.83	1662.95
421.04	1738.73
421.24	1822.69
421.45	1695.72
421.65	1779.68
421.86	1699.81
422.07	1773.54
422.27	1691.62
422.48	1742.82
422.69	1624.04
422.89	1746.92
423.10	1689.57
423.30	1656.81
423.51	1810.40
423.72	1789.92
423.92	1759.21
424.13	1576.94
424.33	1665.00
424.54	1755.11
424.75	1771.49
424.95	1822.69
425.16	1779.68
425.36	1730.53
425.57	1845.22
425.78	1751.01
425.98	1718.25
426.19	1665.00
426.39	1648.61
426.60	1759.21
426.81	1816.55
427.01	1736.68
427.22	1783.78
427.42	1619.94
427.63	1619.94
427.83	1759.21
428.04	1888.23
428.25	1806.31
428.45	1886.18
428.66	1771.49
428.86	1765.35
429.07	1708.01
429.28	1759.21
429.48	1730.53
429.69	1710.05
429.89	1675.24
430.10	1701.86
430.30	1787.88
430.51	1744.87
430.71	1607.66
430.92	1607.66
431.13	1658.85
431.33	1755.11
431.54	1728.49
431.74	1812.45
431.95	1869.80
432.15	1740.77
432.36	1720.29
432.56	1708.01
432.77	1839.08
432.98	1830.88
433.18	1730.53
433.39	1720.29
433.59	1751.01
433.80	1863.65
434.00	1816.55
434.21	1734.63
434.41	1697.77
434.62	1877.99
434.82	1587.18
435.03	1683.43
435.23	1826.79
435.44	1691.62
435.64	1675.24
435.85	1804.26
436.06	1814.50
436.26	1804.26
436.47	1699.81
436.67	1708.01
436.88	1791.97
437.08	1800.16
437.29	1839.08
437.49	1837.03
437.70	1855.46
437.90	1716.20
438.11	1910.75
438.31	1855.46
438.52	1867.75
438.72	1843.17
438.93	1898.47
439.13	1847.27
439.34	1894.37
439.54	1798.12
439.75	1746.92
439.95	1781.73
440.16	1683.43
440.36	1802.21
440.57	1800.16
440.77	1740.77
440.98	1781.73
441.18	1777.64
441.39	1740.77
441.59	1681.38
441.80	1896.42
442.00	1722.34
442.21	1787.88
442.41	1642.47
442.62	1771.49
442.82	1722.34
443.02	1722.34
443.23	1699.81
443.43	1775.59
443.64	1810.40
443.84	1677.29
444.05	1845.22
444.25	1771.49
444.46	1734.63
444.66	1714.15
444.87	1888.23
445.07	1689.57
445.28	1693.67
445.48	1740.77
445.69	1726.44
445.89	1839.08
446.09	1775.59
446.30	2031.58
446.50	2564.06
446.71	3786.69
446.91	4483.00
447.12	4872.12
447.32	5083.06
447.53	4493.24
447.73	3966.92
447.93	3561.42
448.14	3436.49
448.34	3272.65
448.55	2910.16
448.75	2820.05
448.96	2707.41
449.16	2502.62
449.36	2287.58
449.57	2103.26
449.77	1959.91
449.98	1851.36
450.18	1826.79
450.39	1824.74
450.59	1810.40
450.79	1742.82
451.00	1757.16
451.20	1812.45
451.41	1804.26
451.61	1830.88
451.81	1753.06
452.02	1779.68
452.22	1705.96
452.43	1689.57
452.63	1781.73
