SpectraSuite Data File
++++++++++++++++++++++++++++++++++++
Date: Mon Jun 06 13:04:37 CEST 2016
User: root
Dark Spectrum Present: No
Reference Spectrum Present: No
Number of Sampled Component Spectra: 1
Spectrometers: USB4C02835
Integration Time (usec): 100000 (USB4C02835)
Spectra Averaged: 1 (USB4C02835)
Boxcar Smoothing: 0 (USB4C02835)
Correct for Electrical Dark: No (USB4C02835)
Strobe/Lamp Enabled: No (USB4C02835)
Correct for Detector Non-linearity: No (USB4C02835)
Correct for Stray Light: No (USB4C02835)
Number of Pixels in Processed Spectrum: 3648
>>>>>Begin Processed Spectral Data<<<<<
177.47	1460.20
177.69	1460.20
177.91	1460.20
178.13	1437.67
178.36	1503.21
178.58	1613.80
178.80	1708.01
179.02	1705.96
179.24	1562.60
179.46	1679.33
179.68	1763.30
179.90	1644.52
180.13	1730.53
180.35	1665.00
180.57	1626.09
180.79	1712.10
181.01	1681.38
181.23	1800.16
181.45	1816.55
181.67	1781.73
181.90	1738.73
182.12	1644.52
182.34	1654.76
182.56	1601.51
182.78	1701.86
183.00	1701.86
183.22	1714.15
183.44	1656.81
183.66	1857.51
183.89	1767.40
184.11	1695.72
184.33	1697.77
184.55	1767.40
184.77	1675.24
184.99	1693.67
185.21	1705.96
185.43	1812.45
185.65	1658.85
185.87	1650.66
186.10	1826.79
186.32	1837.03
186.54	1851.36
186.76	1667.05
186.98	1761.25
187.20	1695.72
187.42	1566.70
187.64	1734.63
187.86	1679.33
188.08	1767.40
188.30	1685.48
188.52	1759.21
188.75	1771.49
188.97	1789.92
189.19	1716.20
189.41	1757.16
189.63	1777.64
189.85	1773.54
190.07	1658.85
190.29	1640.42
190.51	1726.44
190.73	1617.90
190.95	1796.07
191.17	1665.00
191.39	1640.42
191.61	1699.81
191.84	1685.48
192.06	1730.53
192.28	1648.61
192.50	1839.08
192.72	1701.86
192.94	1636.33
193.16	1742.82
193.38	1730.53
193.60	1636.33
193.82	1665.00
194.04	1783.78
194.26	1732.58
194.48	1726.44
194.70	1658.85
194.92	1652.71
195.14	1765.35
195.36	1671.14
195.58	1720.29
195.80	1732.58
196.02	1642.47
196.24	1662.95
196.46	1738.73
196.69	1619.94
196.91	1773.54
197.13	1591.27
197.35	1740.77
197.57	1787.88
197.79	1732.58
198.01	1734.63
198.23	1685.48
198.45	1685.48
198.67	1675.24
198.89	1693.67
199.11	1730.53
199.33	1681.38
199.55	1499.11
199.77	1685.48
199.99	1746.92
200.21	1613.80
200.43	1626.09
200.65	1617.90
200.87	1527.78
201.09	1669.09
201.31	1705.96
201.53	1765.35
201.75	1724.39
201.97	1753.06
202.19	1736.68
202.41	1710.05
202.63	1865.70
202.85	1708.01
203.07	1613.80
203.29	1626.09
203.51	1609.70
203.73	1656.81
203.95	1888.23
204.17	1671.14
204.39	1738.73
204.61	1669.09
204.83	1683.43
205.05	1683.43
205.27	1738.73
205.49	1773.54
205.71	1697.77
205.93	1560.55
206.15	1701.86
206.37	1665.00
206.59	1677.29
206.81	1640.42
207.03	1667.05
207.25	1619.94
207.47	1693.67
207.69	1744.87
207.91	1726.44
208.13	1771.49
208.34	1650.66
208.56	1671.14
208.78	1771.49
209.00	1677.29
209.22	1662.95
209.44	1712.10
209.66	1673.19
209.88	1710.05
210.10	1748.97
210.32	1636.33
210.54	1730.53
210.76	1644.52
210.98	1773.54
211.20	1550.31
211.42	1681.38
211.64	1839.08
211.86	1734.63
212.08	1714.15
212.30	1726.44
212.52	1593.32
212.74	1681.38
212.96	1656.81
213.17	1708.01
213.39	1714.15
213.61	1767.40
213.83	1771.49
214.05	1615.85
214.27	1757.16
214.49	1675.24
214.71	1615.85
214.93	1783.78
215.15	1757.16
215.37	1730.53
215.59	1636.33
215.81	1703.91
216.03	1763.30
216.24	1726.44
216.46	1624.04
216.68	1658.85
216.90	1701.86
217.12	1787.88
217.34	1730.53
217.56	1714.15
217.78	1783.78
218.00	1712.10
218.22	1730.53
218.44	1681.38
218.66	1730.53
218.87	1873.89
219.09	1656.81
219.31	1730.53
219.53	1744.87
219.75	1624.04
219.97	1714.15
220.19	1720.29
220.41	1691.62
220.63	1814.50
220.85	1691.62
221.06	1669.09
221.28	1705.96
221.50	1722.34
221.72	1677.29
221.94	1761.25
222.16	1710.05
222.38	1773.54
222.60	1777.64
222.82	1701.86
223.03	1685.48
223.25	1644.52
223.47	1714.15
223.69	1769.44
223.91	1730.53
224.13	1710.05
224.35	1728.49
224.57	1714.15
224.78	1771.49
225.00	1640.42
225.22	1697.77
225.44	1726.44
225.66	1751.01
225.88	1683.43
226.10	1748.97
226.32	1742.82
226.53	1794.02
226.75	1636.33
226.97	1722.34
227.19	1722.34
227.41	1660.90
227.63	1671.14
227.85	1601.51
228.06	1677.29
228.28	1656.81
228.50	1798.12
228.72	1603.56
228.94	1681.38
229.16	1630.18
229.37	1619.94
229.59	1701.86
229.81	1808.36
230.03	1691.62
230.25	1630.18
230.47	1669.09
230.69	1652.71
230.90	1693.67
231.12	1677.29
231.34	1718.25
231.56	1769.44
231.78	1591.27
232.00	1650.66
232.21	1724.39
232.43	1673.19
232.65	1562.60
232.87	1736.68
233.09	1638.38
233.30	1665.00
233.52	1736.68
233.74	1673.19
233.96	1642.47
234.18	1781.73
234.40	1646.57
234.61	1806.31
234.83	1705.96
235.05	1609.70
235.27	1859.56
235.49	1665.00
235.70	1699.81
235.92	1796.07
236.14	1685.48
236.36	1873.89
236.58	1624.04
236.79	1675.24
237.01	1671.14
237.23	1648.61
237.45	1765.35
237.67	1697.77
237.88	1740.77
238.10	1714.15
238.32	1671.14
238.54	1673.19
238.76	1648.61
238.97	1665.00
239.19	1611.75
239.41	1697.77
239.63	1834.98
239.85	1650.66
240.06	1650.66
240.28	1705.96
240.50	1732.58
240.72	1591.27
240.93	1710.05
241.15	1734.63
241.37	1710.05
241.59	1779.68
241.81	1730.53
242.02	1597.42
242.24	1724.39
242.46	1710.05
242.68	1695.72
242.89	1652.71
243.11	1789.92
243.33	1689.57
243.55	1767.40
243.76	1726.44
243.98	1699.81
244.20	1724.39
244.42	1716.20
244.64	1718.25
244.85	1705.96
245.07	1685.48
245.29	1687.53
245.51	1724.39
245.72	1654.76
245.94	1722.34
246.16	1685.48
246.38	1689.57
246.59	1683.43
246.81	1722.34
247.03	1724.39
247.24	1615.85
247.46	1605.61
247.68	1753.06
247.90	1693.67
248.11	1673.19
248.33	1701.86
248.55	1689.57
248.77	1738.73
248.98	1740.77
249.20	1824.74
249.42	1734.63
249.64	1779.68
249.85	1722.34
250.07	1636.33
250.29	1767.40
250.50	1738.73
250.72	1619.94
250.94	1708.01
251.16	1757.16
251.37	1716.20
251.59	1662.95
251.81	1710.05
252.02	1746.92
252.24	1624.04
252.46	1728.49
252.68	1671.14
252.89	1665.00
253.11	1605.61
253.33	1693.67
253.54	1724.39
253.76	1656.81
253.98	1720.29
254.20	1697.77
254.41	1665.00
254.63	1597.42
254.85	1617.90
255.06	1669.09
255.28	1656.81
255.50	1722.34
255.71	1701.86
255.93	1626.09
256.15	1763.30
256.36	1740.77
256.58	1669.09
256.80	1724.39
257.02	1689.57
257.23	1730.53
257.45	1697.77
257.67	1794.02
257.88	1634.28
258.10	1722.34
258.32	1714.15
258.53	1720.29
258.75	1777.64
258.97	1662.95
259.18	1652.71
259.40	1705.96
259.62	1818.60
259.83	1726.44
260.05	1726.44
260.27	1906.66
260.48	1742.82
260.70	1705.96
260.92	1679.33
261.13	1701.86
261.35	1728.49
261.57	1724.39
261.78	1626.09
262.00	1640.42
262.22	1759.21
262.43	1615.85
262.65	1574.89
262.86	1697.77
263.08	1880.04
263.30	1773.54
263.51	1632.23
263.73	1617.90
263.95	1757.16
264.16	1701.86
264.38	1619.94
264.60	1763.30
264.81	1701.86
265.03	1679.33
265.25	1763.30
265.46	1648.61
265.68	1738.73
265.89	1767.40
266.11	1552.36
266.33	1695.72
266.54	1800.16
266.76	1634.28
266.98	1744.87
267.19	1828.84
267.41	1757.16
267.62	1769.44
267.84	1617.90
268.06	1744.87
268.27	1695.72
268.49	1763.30
268.70	1800.16
268.92	1683.43
269.14	1595.37
269.35	1656.81
269.57	1742.82
269.79	1714.15
270.00	1589.22
270.22	1830.88
270.43	1753.06
270.65	1601.51
270.87	1681.38
271.08	1787.88
271.30	1724.39
271.51	1722.34
271.73	1675.24
271.95	1732.58
272.16	1673.19
272.38	1755.11
272.59	1699.81
272.81	1783.78
273.02	1689.57
273.24	1775.59
273.46	1708.01
273.67	1685.48
273.89	1644.52
274.10	1585.13
274.32	1730.53
274.54	1726.44
274.75	1773.54
274.97	1695.72
275.18	1773.54
275.40	1705.96
275.61	1705.96
275.83	1699.81
276.05	1581.03
276.26	1656.81
276.48	1710.05
276.69	1640.42
276.91	1613.80
277.12	1759.21
277.34	1730.53
277.55	1675.24
277.77	1681.38
277.99	1703.91
278.20	1609.70
278.42	1687.53
278.63	1636.33
278.85	1648.61
279.06	1656.81
279.28	1718.25
279.49	1761.25
279.71	1796.07
279.93	1716.20
280.14	1740.77
280.36	1687.53
280.57	1722.34
280.79	1705.96
281.00	1726.44
281.22	1646.57
281.43	1681.38
281.65	1597.42
281.86	1660.90
282.08	1757.16
282.29	1783.78
282.51	1640.42
282.73	1685.48
282.94	1607.66
283.16	1736.68
283.37	1841.12
283.59	1689.57
283.80	1742.82
284.02	1697.77
284.23	1730.53
284.45	1621.99
284.66	1646.57
284.88	1671.14
285.09	1763.30
285.31	1720.29
285.52	1679.33
285.74	1560.55
285.95	1753.06
286.17	1714.15
286.38	1773.54
286.60	1626.09
286.81	1710.05
287.03	1712.10
287.24	1679.33
287.46	1800.16
287.67	1703.91
287.89	1820.64
288.10	1675.24
288.32	1697.77
288.53	1791.97
288.75	1724.39
288.96	1775.59
289.18	1621.99
289.39	1697.77
289.61	1703.91
289.82	1877.99
290.04	1808.36
290.25	1617.90
290.47	1742.82
290.68	1667.05
290.90	1789.92
291.11	1652.71
291.33	1648.61
291.54	1701.86
291.76	1681.38
291.97	1708.01
292.18	1775.59
292.40	1669.09
292.61	1642.47
292.83	1855.46
293.04	1751.01
293.26	1683.43
293.47	1724.39
293.69	1744.87
293.90	1736.68
294.12	1710.05
294.33	1652.71
294.55	1665.00
294.76	1708.01
294.97	1683.43
295.19	1810.40
295.40	1628.14
295.62	1744.87
295.83	1722.34
296.05	1605.61
296.26	1701.86
296.48	1667.05
296.69	1671.14
296.90	1691.62
297.12	1738.73
297.33	1751.01
297.55	1742.82
297.76	1849.32
297.98	1832.93
298.19	1695.72
298.41	1673.19
298.62	1587.18
298.83	1742.82
299.05	1757.16
299.26	1685.48
299.48	1656.81
299.69	1710.05
299.90	1714.15
300.12	1599.46
300.33	1722.34
300.55	1767.40
300.76	1791.97
300.98	1552.36
301.19	1738.73
301.40	1626.09
301.62	1669.09
301.83	1689.57
302.05	1718.25
302.26	1697.77
302.47	1701.86
302.69	1609.70
302.90	1755.11
303.12	1611.75
303.33	1824.74
303.54	1820.64
303.76	1607.66
303.97	1710.05
304.19	1830.88
304.40	1646.57
304.61	1703.91
304.83	1849.32
305.04	1716.20
305.26	1671.14
305.47	1714.15
305.68	1757.16
305.90	1581.03
306.11	1697.77
306.33	1751.01
306.54	1675.24
306.75	1587.18
306.97	1576.94
307.18	1689.57
307.39	1685.48
307.61	1769.44
307.82	1693.67
308.04	1765.35
308.25	1669.09
308.46	1718.25
308.68	1677.29
308.89	1687.53
309.10	1757.16
309.32	1783.78
309.53	1767.40
309.74	1746.92
309.96	1722.34
310.17	1798.12
310.39	1642.47
310.60	1714.15
310.81	1718.25
311.03	1667.05
311.24	1708.01
311.45	1710.05
311.67	1839.08
311.88	1699.81
312.09	1671.14
312.31	1624.04
312.52	1671.14
312.73	1691.62
312.95	1624.04
313.16	1642.47
313.37	1751.01
313.59	1658.85
313.80	1804.26
314.01	1708.01
314.23	1685.48
314.44	1624.04
314.65	1632.23
314.87	1656.81
315.08	1581.03
315.29	1712.10
315.51	1642.47
315.72	1703.91
315.93	1755.11
316.15	1759.21
316.36	1648.61
316.57	1675.24
316.79	1689.57
317.00	1732.58
317.21	1697.77
317.43	1646.57
317.64	1763.30
317.85	1646.57
318.07	1662.95
318.28	1701.86
318.49	1785.83
318.70	1955.81
318.92	1796.07
319.13	1689.57
319.34	1777.64
319.56	1794.02
319.77	1761.25
319.98	1740.77
320.20	1753.06
320.41	1701.86
320.62	1705.96
320.83	1640.42
321.05	1816.55
321.26	1693.67
321.47	1697.77
321.69	1796.07
321.90	1667.05
322.11	1640.42
322.32	1794.02
322.54	1705.96
322.75	1669.09
322.96	1828.84
323.18	1640.42
323.39	1574.89
323.60	1628.14
323.81	1765.35
324.03	1796.07
324.24	1753.06
324.45	1689.57
324.66	1714.15
324.88	1757.16
325.09	1736.68
325.30	1697.77
325.52	1685.48
325.73	1779.68
325.94	1632.23
326.15	1634.28
326.37	1675.24
326.58	1734.63
326.79	1828.84
327.00	1652.71
327.22	1761.25
327.43	1679.33
327.64	1660.90
327.85	1685.48
328.07	1662.95
328.28	1787.88
328.49	1685.48
328.70	1665.00
328.92	1685.48
329.13	1703.91
329.34	1683.43
329.55	1798.12
329.76	1742.82
329.98	1779.68
330.19	1734.63
330.40	1740.77
330.61	1724.39
330.83	1730.53
331.04	1675.24
331.25	1730.53
331.46	1599.46
331.68	1554.41
331.89	1802.21
332.10	1644.52
332.31	1632.23
332.52	1695.72
332.74	1718.25
332.95	1615.85
333.16	1669.09
333.37	1687.53
333.58	1689.57
333.80	1751.01
334.01	1675.24
334.22	1640.42
334.43	1708.01
334.64	1632.23
334.86	1603.56
335.07	1595.37
335.28	1804.26
335.49	1564.65
335.70	1654.76
335.92	1718.25
336.13	1804.26
336.34	1726.44
336.55	1687.53
336.76	1648.61
336.98	1595.37
337.19	1753.06
337.40	1785.83
337.61	1800.16
337.82	1689.57
338.04	1775.59
338.25	1677.29
338.46	1648.61
338.67	1669.09
338.88	1669.09
339.09	1642.47
339.31	1644.52
339.52	1632.23
339.73	1644.52
339.94	1601.51
340.15	1812.45
340.36	1695.72
340.58	1701.86
340.79	1646.57
341.00	1716.20
341.21	1621.99
341.42	1822.69
341.63	1599.46
341.85	1767.40
342.06	1603.56
342.27	1619.94
342.48	1779.68
342.69	1601.51
342.90	1642.47
343.12	1763.30
343.33	1728.49
343.54	1734.63
343.75	1751.01
343.96	1685.48
344.17	1656.81
344.38	1615.85
344.60	1683.43
344.81	1626.09
345.02	1753.06
345.23	1812.45
345.44	1834.98
345.65	1742.82
345.86	1689.57
346.07	1708.01
346.29	1570.79
346.50	1767.40
346.71	1730.53
346.92	1691.62
347.13	1855.46
347.34	1658.85
347.55	1722.34
347.76	1775.59
347.98	1603.56
348.19	1617.90
348.40	1757.16
348.61	1652.71
348.82	1791.97
349.03	1796.07
349.24	1640.42
349.45	1767.40
349.66	1605.61
349.88	1656.81
350.09	1638.38
350.30	1791.97
350.51	1722.34
350.72	1642.47
350.93	1636.33
351.14	1617.90
351.35	1824.74
351.56	1662.95
351.77	1699.81
351.99	1654.76
352.20	1789.92
352.41	1812.45
352.62	1630.18
352.83	1628.14
353.04	1720.29
353.25	1669.09
353.46	1718.25
353.67	1716.20
353.88	1658.85
354.09	1691.62
354.30	1646.57
354.52	1761.25
354.73	1609.70
354.94	1718.25
355.15	1683.43
355.36	1824.74
355.57	1656.81
355.78	1765.35
355.99	1658.85
356.20	1662.95
356.41	1779.68
356.62	1730.53
356.83	1722.34
357.04	1695.72
357.25	1585.13
357.46	1646.57
357.68	1673.19
357.89	1632.23
358.10	1675.24
358.31	1699.81
358.52	1691.62
358.73	1626.09
358.94	1632.23
359.15	1624.04
359.36	1740.77
359.57	1621.99
359.78	1708.01
359.99	1769.44
360.20	1685.48
360.41	1660.90
360.62	1705.96
360.83	1669.09
361.04	1751.01
361.25	1708.01
361.46	1763.30
361.67	1712.10
361.88	1773.54
362.09	1783.78
362.30	1746.92
362.51	1662.95
362.72	1744.87
362.93	1732.58
363.14	1732.58
363.35	1665.00
363.56	1658.85
363.78	1767.40
363.99	1720.29
364.20	1681.38
364.41	1683.43
364.62	1796.07
364.83	1724.39
365.04	1660.90
365.25	1740.77
365.46	1748.97
365.67	1593.32
365.88	1712.10
366.09	1763.30
366.30	1673.19
366.51	1695.72
366.72	1667.05
366.93	1773.54
367.14	1746.92
367.35	1726.44
367.56	1759.21
367.77	1800.16
367.98	1724.39
368.18	1724.39
368.39	1779.68
368.60	1589.22
368.81	1697.77
369.02	1681.38
369.23	1650.66
369.44	1617.90
369.65	1617.90
369.86	1763.30
370.07	1730.53
370.28	1708.01
370.49	1714.15
370.70	1767.40
370.91	1677.29
371.12	1656.81
371.33	1701.86
371.54	1703.91
371.75	1832.93
371.96	1624.04
372.17	1765.35
372.38	1710.05
372.59	1828.84
372.80	1685.48
373.01	1638.38
373.22	1773.54
373.43	1746.92
373.64	1595.37
373.85	1808.36
374.06	1818.60
374.26	1677.29
374.47	1701.86
374.68	1775.59
374.89	1730.53
375.10	1636.33
375.31	1753.06
375.52	1710.05
375.73	1703.91
375.94	1689.57
376.15	1751.01
376.36	1691.62
376.57	1638.38
376.78	1615.85
376.99	1791.97
377.20	1697.77
377.40	1683.43
377.61	1744.87
377.82	1650.66
378.03	1849.32
378.24	1673.19
378.45	1685.48
378.66	1710.05
378.87	1570.79
379.08	1605.61
379.29	1710.05
379.50	1689.57
379.71	1718.25
379.91	1771.49
380.12	1665.00
380.33	1691.62
380.54	1708.01
380.75	1691.62
380.96	1644.52
381.17	1714.15
381.38	1640.42
381.59	1730.53
381.80	1677.29
382.00	1791.97
382.21	1724.39
382.42	1828.84
382.63	1845.22
382.84	1722.34
383.05	1720.29
383.26	1755.11
383.47	1683.43
383.68	1763.30
383.88	1759.21
384.09	1710.05
384.30	1816.55
384.51	1665.00
384.72	1570.79
384.93	1648.61
385.14	1683.43
385.35	1804.26
385.55	1660.90
385.76	1796.07
385.97	1673.19
386.18	1603.56
386.39	1630.18
386.60	1619.94
386.81	1677.29
387.02	1632.23
387.22	1669.09
387.43	1779.68
387.64	1746.92
387.85	1882.08
388.06	2174.94
388.27	4124.61
388.48	6668.19
388.68	8218.50
388.89	9631.60
389.10	10002.28
389.31	8591.23
389.52	7382.93
389.73	6737.82
389.93	6234.02
390.14	5836.71
390.35	5228.46
390.56	4538.30
390.77	3747.78
390.98	3000.27
391.18	2508.76
391.39	2115.55
391.60	1869.80
391.81	1771.49
392.02	1708.01
392.23	1890.28
392.43	1757.16
392.64	1779.68
392.85	1683.43
393.06	1742.82
393.27	1628.14
393.47	1677.29
393.68	1732.58
393.89	1701.86
394.10	1744.87
394.31	1701.86
394.52	1667.05
394.72	1703.91
394.93	1806.31
395.14	1675.24
395.35	1777.64
395.56	1656.81
395.76	1695.72
395.97	1775.59
396.18	1806.31
396.39	1789.92
396.60	2103.26
396.80	1906.66
397.01	1849.32
397.22	1808.36
397.43	1882.08
397.64	1755.11
397.84	1841.12
398.05	1791.97
398.26	1714.15
398.47	1818.60
398.67	1755.11
398.88	1669.09
399.09	1751.01
399.30	1708.01
399.51	1755.11
399.71	1634.28
399.92	1658.85
400.13	1685.48
400.34	1746.92
400.54	1665.00
400.75	1796.07
400.96	1742.82
401.17	1849.32
401.37	1796.07
401.58	1748.97
401.79	1804.26
402.00	1777.64
402.21	1992.67
402.41	1916.90
402.62	1968.10
402.83	2054.11
403.04	2035.68
403.24	2107.36
403.45	1794.02
403.66	1904.61
403.87	1894.37
404.07	1853.41
404.28	1869.80
404.49	1767.40
404.70	1886.18
404.90	1755.11
405.11	1771.49
405.32	1730.53
405.52	1687.53
405.73	1720.29
405.94	1679.33
406.15	1708.01
406.35	1667.05
406.56	1708.01
406.77	1726.44
406.98	1632.23
407.18	1597.42
407.39	1796.07
407.60	1734.63
407.80	1759.21
408.01	1675.24
408.22	1695.72
408.43	1681.38
408.63	1763.30
408.84	1703.91
409.05	1763.30
409.25	1669.09
409.46	1697.77
409.67	1691.62
409.88	1646.57
410.08	1769.44
410.29	1718.25
410.50	1740.77
410.70	1632.23
410.91	1654.76
411.12	1667.05
411.32	1742.82
411.53	1677.29
411.74	1787.88
411.95	1753.06
412.15	1777.64
412.36	1812.45
412.57	1773.54
412.77	1824.74
412.98	1753.06
413.19	1658.85
413.39	1746.92
413.60	1771.49
413.81	1693.67
414.01	1646.57
414.22	1714.15
414.43	1705.96
414.63	1605.61
414.84	1804.26
415.05	1814.50
415.25	1665.00
415.46	1755.11
415.67	1611.75
415.87	1753.06
416.08	1665.00
416.29	1705.96
416.49	1691.62
416.70	1679.33
416.91	1621.99
417.11	1701.86
417.32	1789.92
417.53	1734.63
417.73	1736.68
417.94	1724.39
418.15	1779.68
418.35	1712.10
418.56	1755.11
418.77	1841.12
418.97	1746.92
419.18	1628.14
419.38	1601.51
419.59	1697.77
419.80	1703.91
420.00	1718.25
420.21	1728.49
420.42	1746.92
420.62	1705.96
420.83	1695.72
421.04	1703.91
421.24	1671.14
421.45	1726.44
421.65	1789.92
421.86	1675.24
422.07	1791.97
422.27	1705.96
422.48	1763.30
422.69	1675.24
422.89	1703.91
423.10	1652.71
423.30	1689.57
423.51	1732.58
423.72	1613.80
423.92	1722.34
424.13	1673.19
424.33	1771.49
424.54	1789.92
424.75	1665.00
424.95	1796.07
425.16	1716.20
425.36	1701.86
425.57	1742.82
425.78	1767.40
425.98	1705.96
426.19	1732.58
426.39	1605.61
426.60	1742.82
426.81	1767.40
427.01	1742.82
427.22	1675.24
427.42	1611.75
427.63	1667.05
427.83	1787.88
428.04	1779.68
428.25	1775.59
428.45	1767.40
428.66	1865.70
428.86	1599.46
429.07	1730.53
429.28	1744.87
429.48	1703.91
429.69	1589.22
429.89	1720.29
430.10	1656.81
430.30	1761.25
430.51	1769.44
430.71	1671.14
430.92	1730.53
431.13	1755.11
431.33	1644.52
431.54	1619.94
431.74	1816.55
431.95	1738.73
432.15	1652.71
432.36	1685.48
432.56	1736.68
432.77	1865.70
432.98	1832.93
433.18	1775.59
433.39	1699.81
433.59	1701.86
433.80	1812.45
434.00	1841.12
434.21	1619.94
434.41	1753.06
434.62	1859.56
434.82	1624.04
435.03	1624.04
435.23	1689.57
435.44	1701.86
435.64	1744.87
435.85	1648.61
436.06	1787.88
436.26	1775.59
436.47	1710.05
436.67	1656.81
436.88	1642.47
437.08	1763.30
437.29	1794.02
437.49	1716.20
437.70	1845.22
437.90	1779.68
438.11	1851.36
438.31	1830.88
438.52	1722.34
438.72	1845.22
438.93	1849.32
439.13	1734.63
439.34	1787.88
439.54	1755.11
439.75	1740.77
439.95	1761.25
440.16	1757.16
440.36	1744.87
440.57	1767.40
440.77	1746.92
440.98	1777.64
441.18	1808.36
441.39	1705.96
441.59	1675.24
441.80	1873.89
442.00	1675.24
442.21	1808.36
442.41	1628.14
442.62	1755.11
442.82	1687.53
443.02	1738.73
443.23	1763.30
443.43	1632.23
443.64	1859.56
443.84	1693.67
444.05	1789.92
444.25	1765.35
444.46	1705.96
444.66	1642.47
444.87	1849.32
445.07	1703.91
445.28	1689.57
445.48	1814.50
445.69	1771.49
445.89	1841.12
446.09	1783.78
446.30	1970.15
446.50	2637.78
446.71	3837.89
446.91	4265.92
447.12	4802.49
447.32	4681.66
447.53	4151.23
447.73	3839.94
447.93	3456.97
448.14	3278.80
448.34	3127.25
448.55	2930.64
448.75	2695.13
448.96	2680.79
449.16	2418.65
449.36	2269.15
449.57	2000.87
449.77	1902.56
449.98	1742.82
450.18	1804.26
450.39	1820.64
450.59	1742.82
450.79	1759.21
451.00	1665.00
451.20	1816.55
451.41	1769.44
451.61	1753.06
451.81	1757.16
452.02	1738.73
452.22	1761.25
452.43	1673.19
452.63	1730.53
