SpectraSuite Data File
++++++++++++++++++++++++++++++++++++
Date: Mon Jun 06 16:15:17 CEST 2016
User: root
Dark Spectrum Present: No
Reference Spectrum Present: No
Number of Sampled Component Spectra: 1
Spectrometers: USB4C02835
Integration Time (usec): 100000 (USB4C02835)
Spectra Averaged: 1 (USB4C02835)
Boxcar Smoothing: 0 (USB4C02835)
Correct for Electrical Dark: No (USB4C02835)
Strobe/Lamp Enabled: No (USB4C02835)
Correct for Detector Non-linearity: No (USB4C02835)
Correct for Stray Light: No (USB4C02835)
Number of Pixels in Processed Spectrum: 3648
>>>>>Begin Processed Spectral Data<<<<<
177.47	1484.78
177.69	1484.78
177.91	1484.78
178.13	1454.06
178.36	1562.60
178.58	1667.05
178.80	1714.15
179.02	1673.19
179.24	1691.62
179.46	1720.29
179.68	1755.11
179.90	1783.78
180.13	1693.67
180.35	1632.23
180.57	1660.90
180.79	1753.06
181.01	1751.01
181.23	1791.97
181.45	1714.15
181.67	1734.63
181.90	1779.68
182.12	1693.67
182.34	1572.84
182.56	1687.53
182.78	1767.40
183.00	1699.81
183.22	1708.01
183.44	1603.56
183.66	1902.56
183.89	1865.70
184.11	1783.78
184.33	1763.30
184.55	1769.44
184.77	1722.34
184.99	1697.77
185.21	1712.10
185.43	1877.99
185.65	1732.58
185.87	1722.34
186.10	1880.04
186.32	1884.13
186.54	1796.07
186.76	1796.07
186.98	1787.88
187.20	1734.63
187.42	1683.43
187.64	1689.57
187.86	1697.77
188.08	1787.88
188.30	1644.52
188.52	1767.40
188.75	1824.74
188.97	1796.07
189.19	1697.77
189.41	1574.89
189.63	1773.54
189.85	1665.00
190.07	1693.67
190.29	1617.90
190.51	1751.01
190.73	1628.14
190.95	1794.02
191.17	1724.39
191.39	1599.46
191.61	1691.62
191.84	1675.24
192.06	1755.11
192.28	1677.29
192.50	1873.89
192.72	1820.64
192.94	1673.19
193.16	1714.15
193.38	1693.67
193.60	1656.81
193.82	1714.15
194.04	1804.26
194.26	1722.34
194.48	1722.34
194.70	1716.20
194.92	1746.92
195.14	1730.53
195.36	1632.23
195.58	1748.97
195.80	1652.71
196.02	1640.42
196.24	1724.39
196.46	1802.21
196.69	1705.96
196.91	1837.03
197.13	1726.44
197.35	1681.38
197.57	1806.31
197.79	1726.44
198.01	1695.72
198.23	1779.68
198.45	1697.77
198.67	1652.71
198.89	1691.62
199.11	1773.54
199.33	1742.82
199.55	1595.37
199.77	1755.11
199.99	1812.45
200.21	1640.42
200.43	1691.62
200.65	1710.05
200.87	1630.18
201.09	1783.78
201.31	1654.76
201.53	1722.34
201.75	1783.78
201.97	1810.40
202.19	1681.38
202.41	1742.82
202.63	1898.47
202.85	1724.39
203.07	1738.73
203.29	1724.39
203.51	1628.14
203.73	1656.81
203.95	1863.65
204.17	1814.50
204.39	1746.92
204.61	1755.11
204.83	1705.96
205.05	1738.73
205.27	1845.22
205.49	1830.88
205.71	1665.00
205.93	1718.25
206.15	1730.53
206.37	1730.53
206.59	1736.68
206.81	1679.33
207.03	1640.42
207.25	1642.47
207.47	1773.54
207.69	1763.30
207.91	1818.60
208.13	1722.34
208.34	1755.11
208.56	1679.33
208.78	1789.92
209.00	1722.34
209.22	1753.06
209.44	1701.86
209.66	1755.11
209.88	1679.33
210.10	1689.57
210.32	1701.86
210.54	1832.93
210.76	1679.33
210.98	1773.54
211.20	1640.42
211.42	1701.86
211.64	1789.92
211.86	1738.73
212.08	1710.05
212.30	1787.88
212.52	1794.02
212.74	1751.01
212.96	1705.96
213.17	1763.30
213.39	1734.63
213.61	1730.53
213.83	1662.95
214.05	1648.61
214.27	1779.68
214.49	1730.53
214.71	1658.85
214.93	1779.68
215.15	1656.81
215.37	1767.40
215.59	1587.18
215.81	1814.50
216.03	1810.40
216.24	1732.58
216.46	1687.53
216.68	1691.62
216.90	1853.41
217.12	1769.44
217.34	1732.58
217.56	1791.97
217.78	1748.97
218.00	1765.35
218.22	1785.83
218.44	1742.82
218.66	1681.38
218.87	1832.93
219.09	1718.25
219.31	1701.86
219.53	1732.58
219.75	1695.72
219.97	1687.53
220.19	1748.97
220.41	1710.05
220.63	1697.77
220.85	1736.68
221.06	1708.01
221.28	1769.44
221.50	1714.15
221.72	1757.16
221.94	1744.87
222.16	1683.43
222.38	1841.12
222.60	1740.77
222.82	1730.53
223.03	1699.81
223.25	1603.56
223.47	1755.11
223.69	1767.40
223.91	1794.02
224.13	1697.77
224.35	1703.91
224.57	1814.50
224.78	1839.08
225.00	1730.53
225.22	1656.81
225.44	1648.61
225.66	1810.40
225.88	1669.09
226.10	1806.31
226.32	1736.68
226.53	1830.88
226.75	1654.76
226.97	1736.68
227.19	1712.10
227.41	1681.38
227.63	1669.09
227.85	1671.14
228.06	1736.68
228.28	1662.95
228.50	1669.09
228.72	1705.96
228.94	1712.10
229.16	1638.38
229.37	1669.09
229.59	1677.29
229.81	1810.40
230.03	1685.48
230.25	1667.05
230.47	1654.76
230.69	1552.36
230.90	1708.01
231.12	1585.13
231.34	1740.77
231.56	1697.77
231.78	1665.00
232.00	1611.75
232.21	1642.47
232.43	1740.77
232.65	1644.52
232.87	1687.53
233.09	1611.75
233.30	1699.81
233.52	1779.68
233.74	1726.44
233.96	1744.87
234.18	1679.33
234.40	1742.82
234.61	1826.79
234.83	1665.00
235.05	1595.37
235.27	1863.65
235.49	1787.88
235.70	1677.29
235.92	1755.11
236.14	1687.53
236.36	1849.32
236.58	1662.95
236.79	1773.54
237.01	1660.90
237.23	1605.61
237.45	1781.73
237.67	1732.58
237.88	1777.64
238.10	1837.03
238.32	1712.10
238.54	1718.25
238.76	1689.57
238.97	1640.42
239.19	1660.90
239.41	1757.16
239.63	1773.54
239.85	1748.97
240.06	1665.00
240.28	1658.85
240.50	1722.34
240.72	1681.38
240.93	1697.77
241.15	1757.16
241.37	1701.86
241.59	1800.16
241.81	1683.43
242.02	1710.05
242.24	1765.35
242.46	1759.21
242.68	1705.96
242.89	1689.57
243.11	1695.72
243.33	1763.30
243.55	1757.16
243.76	1705.96
243.98	1718.25
244.20	1701.86
244.42	1685.48
244.64	1767.40
244.85	1624.04
245.07	1753.06
245.29	1705.96
245.51	1720.29
245.72	1783.78
245.94	1794.02
246.16	1681.38
246.38	1710.05
246.59	1753.06
246.81	1710.05
247.03	1695.72
247.24	1572.84
247.46	1667.05
247.68	1701.86
247.90	1695.72
248.11	1636.33
248.33	1757.16
248.55	1656.81
248.77	1701.86
248.98	1732.58
249.20	1753.06
249.42	1734.63
249.64	1738.73
249.85	1685.48
250.07	1705.96
250.29	1822.69
250.50	1753.06
250.72	1609.70
250.94	1681.38
251.16	1851.36
251.37	1787.88
251.59	1755.11
251.81	1708.01
252.02	1736.68
252.24	1744.87
252.46	1798.12
252.68	1673.19
252.89	1697.77
253.11	1574.89
253.33	1812.45
253.54	1816.55
253.76	1656.81
253.98	1679.33
254.20	1722.34
254.41	1628.14
254.63	1687.53
254.85	1677.29
255.06	1728.49
255.28	1710.05
255.50	1675.24
255.71	1705.96
255.93	1658.85
256.15	1730.53
256.36	1685.48
256.58	1656.81
256.80	1734.63
257.02	1671.14
257.23	1708.01
257.45	1722.34
257.67	1804.26
257.88	1656.81
258.10	1708.01
258.32	1677.29
258.53	1755.11
258.75	1794.02
258.97	1632.23
259.18	1718.25
259.40	1691.62
259.62	1816.55
259.83	1886.18
260.05	1748.97
260.27	2004.96
260.48	1789.92
260.70	1638.38
260.92	1632.23
261.13	1644.52
261.35	1826.79
261.57	1789.92
261.78	1636.33
262.00	1732.58
262.22	1796.07
262.43	1644.52
262.65	1703.91
262.86	1744.87
263.08	1904.61
263.30	1675.24
263.51	1628.14
263.73	1697.77
263.95	1738.73
264.16	1736.68
264.38	1689.57
264.60	1736.68
264.81	1656.81
265.03	1718.25
265.25	1839.08
265.46	1734.63
265.68	1796.07
265.89	1761.25
266.11	1658.85
266.33	1822.69
266.54	1765.35
266.76	1779.68
266.98	1697.77
267.19	1841.12
267.41	1804.26
267.62	1761.25
267.84	1624.04
268.06	1673.19
268.27	1681.38
268.49	1728.49
268.70	1787.88
268.92	1697.77
269.14	1642.47
269.35	1619.94
269.57	1710.05
269.79	1714.15
270.00	1697.77
270.22	1781.73
270.43	1630.18
270.65	1656.81
270.87	1775.59
271.08	1742.82
271.30	1628.14
271.51	1730.53
271.73	1814.50
271.95	1777.64
272.16	1771.49
272.38	1714.15
272.59	1669.09
272.81	1773.54
273.02	1783.78
273.24	1796.07
273.46	1699.81
273.67	1640.42
273.89	1712.10
274.10	1720.29
274.32	1800.16
274.54	1751.01
274.75	1703.91
274.97	1708.01
275.18	1779.68
275.40	1761.25
275.61	1697.77
275.83	1769.44
276.05	1642.47
276.26	1728.49
276.48	1781.73
276.69	1714.15
276.91	1693.67
277.12	1814.50
277.34	1798.12
277.55	1755.11
277.77	1722.34
277.99	1681.38
278.20	1679.33
278.42	1697.77
278.63	1656.81
278.85	1689.57
279.06	1660.90
279.28	1685.48
279.49	1775.59
279.71	1738.73
279.93	1693.67
280.14	1697.77
280.36	1693.67
280.57	1773.54
280.79	1800.16
281.00	1730.53
281.22	1726.44
281.43	1783.78
281.65	1574.89
281.86	1652.71
282.08	1722.34
282.29	1925.09
282.51	1619.94
282.73	1689.57
282.94	1701.86
283.16	1705.96
283.37	1796.07
283.59	1724.39
283.80	1669.09
284.02	1728.49
284.23	1636.33
284.45	1722.34
284.66	1691.62
284.88	1693.67
285.09	1718.25
285.31	1796.07
285.52	1716.20
285.74	1650.66
285.95	1681.38
286.17	1753.06
286.38	1708.01
286.60	1677.29
286.81	1695.72
287.03	1691.62
287.24	1714.15
287.46	1681.38
287.67	1697.77
287.89	1847.27
288.10	1634.28
288.32	1660.90
288.53	1730.53
288.75	1763.30
288.96	1783.78
289.18	1665.00
289.39	1734.63
289.61	1763.30
289.82	1837.03
290.04	1806.31
290.25	1599.46
290.47	1626.09
290.68	1671.14
290.90	1769.44
291.11	1529.83
291.33	1738.73
291.54	1634.28
291.76	1714.15
291.97	1697.77
292.18	1765.35
292.40	1724.39
292.61	1560.55
292.83	1904.61
293.04	1834.98
293.26	1738.73
293.47	1738.73
293.69	1660.90
293.90	1716.20
294.12	1816.55
294.33	1755.11
294.55	1685.48
294.76	1755.11
294.97	1716.20
295.19	1880.04
295.40	1710.05
295.62	1681.38
295.83	1775.59
296.05	1683.43
296.26	1798.12
296.48	1759.21
296.69	1765.35
296.90	1763.30
297.12	1779.68
297.33	1761.25
297.55	1769.44
297.76	1716.20
297.98	1863.65
298.19	1699.81
298.41	1763.30
298.62	1689.57
298.83	1812.45
299.05	1742.82
299.26	1738.73
299.48	1626.09
299.69	1699.81
299.90	1757.16
300.12	1673.19
300.33	1757.16
300.55	1683.43
300.76	1699.81
300.98	1708.01
301.19	1738.73
301.40	1665.00
301.62	1710.05
301.83	1724.39
302.05	1800.16
302.26	1699.81
302.47	1681.38
302.69	1683.43
302.90	1671.14
303.12	1578.98
303.33	1710.05
303.54	1781.73
303.76	1634.28
303.97	1773.54
304.19	1841.12
304.40	1714.15
304.61	1824.74
304.83	1773.54
305.04	1742.82
305.26	1822.69
305.47	1695.72
305.68	1726.44
305.90	1621.99
306.11	1753.06
306.33	1734.63
306.54	1759.21
306.75	1638.38
306.97	1673.19
307.18	1603.56
307.39	1720.29
307.61	1738.73
307.82	1703.91
308.04	1806.31
308.25	1695.72
308.46	1677.29
308.68	1708.01
308.89	1705.96
309.10	1691.62
309.32	1830.88
309.53	1740.77
309.74	1832.93
309.96	1779.68
310.17	1771.49
310.39	1697.77
310.60	1742.82
310.81	1781.73
311.03	1660.90
311.24	1789.92
311.45	1724.39
311.67	1824.74
311.88	1695.72
312.09	1673.19
312.31	1746.92
312.52	1705.96
312.73	1687.53
312.95	1703.91
313.16	1611.75
313.37	1791.97
313.59	1732.58
313.80	1869.80
314.01	1804.26
314.23	1701.86
314.44	1703.91
314.65	1638.38
314.87	1757.16
315.08	1685.48
315.29	1695.72
315.51	1662.95
315.72	1656.81
315.93	1822.69
316.15	1783.78
316.36	1665.00
316.57	1652.71
316.79	1804.26
317.00	1738.73
317.21	1722.34
317.43	1724.39
317.64	1693.67
317.85	1814.50
318.07	1720.29
318.28	1765.35
318.49	1789.92
318.70	1875.94
318.92	1853.41
319.13	1824.74
319.34	1896.42
319.56	1849.32
319.77	1822.69
319.98	1877.99
320.20	1785.83
320.41	1761.25
320.62	1765.35
320.83	1656.81
321.05	1904.61
321.26	1843.17
321.47	1646.57
321.69	1847.27
321.90	1669.09
322.11	1730.53
322.32	1654.76
322.54	1791.97
322.75	1742.82
322.96	1777.64
323.18	1665.00
323.39	1568.74
323.60	1642.47
323.81	1873.89
324.03	1687.53
324.24	1748.97
324.45	1703.91
324.66	1726.44
324.88	1775.59
325.09	1773.54
325.30	1689.57
325.52	1705.96
325.73	1736.68
325.94	1677.29
326.15	1648.61
326.37	1722.34
326.58	1812.45
326.79	1742.82
327.00	1597.42
327.22	1738.73
327.43	1697.77
327.64	1665.00
327.85	1767.40
328.07	1720.29
328.28	1787.88
328.49	1753.06
328.70	1712.10
328.92	1724.39
329.13	1789.92
329.34	1728.49
329.55	1783.78
329.76	1800.16
329.98	1675.24
330.19	1826.79
330.40	1781.73
330.61	1681.38
330.83	1710.05
331.04	1642.47
331.25	1718.25
331.46	1681.38
331.68	1665.00
331.89	1855.46
332.10	1638.38
332.31	1687.53
332.52	1646.57
332.74	1816.55
332.95	1640.42
333.16	1753.06
333.37	1730.53
333.58	1714.15
333.80	1806.31
334.01	1673.19
334.22	1775.59
334.43	1650.66
334.64	1738.73
334.86	1626.09
335.07	1671.14
335.28	1765.35
335.49	1533.93
335.70	1800.16
335.92	1769.44
336.13	1822.69
336.34	1738.73
336.55	1720.29
336.76	1746.92
336.98	1597.42
337.19	1712.10
337.40	1810.40
337.61	1914.85
337.82	1650.66
338.04	1798.12
338.25	1628.14
338.46	1744.87
338.67	1755.11
338.88	1761.25
339.09	1628.14
339.31	1708.01
339.52	1583.08
339.73	1656.81
339.94	1748.97
340.15	1710.05
340.36	1581.03
340.58	1695.72
340.79	1714.15
341.00	1755.11
341.21	1652.71
341.42	1851.36
341.63	1732.58
341.85	1779.68
342.06	1742.82
342.27	1675.24
342.48	1816.55
342.69	1636.33
342.90	1712.10
343.12	1777.64
343.33	1652.71
343.54	1781.73
343.75	1806.31
343.96	1673.19
344.17	1652.71
344.38	1699.81
344.60	1611.75
344.81	1683.43
345.02	1705.96
345.23	1789.92
345.44	1767.40
345.65	1710.05
345.86	1693.67
346.07	1677.29
346.29	1621.99
346.50	1732.58
346.71	1765.35
346.92	1773.54
347.13	1828.84
347.34	1740.77
347.55	1652.71
347.76	1677.29
347.98	1660.90
348.19	1636.33
348.40	1816.55
348.61	1656.81
348.82	1757.16
349.03	1755.11
349.24	1605.61
349.45	1767.40
349.66	1605.61
349.88	1615.85
350.09	1650.66
350.30	1705.96
350.51	1777.64
350.72	1648.61
350.93	1718.25
351.14	1720.29
351.35	1738.73
351.56	1769.44
351.77	1697.77
351.99	1728.49
352.20	1798.12
352.41	1746.92
352.62	1636.33
352.83	1634.28
353.04	1624.04
353.25	1720.29
353.46	1753.06
353.67	1738.73
353.88	1613.80
354.09	1671.14
354.30	1656.81
354.52	1669.09
354.73	1650.66
354.94	1609.70
355.15	1665.00
355.36	1779.68
355.57	1685.48
355.78	1759.21
355.99	1675.24
356.20	1708.01
356.41	1763.30
356.62	1720.29
356.83	1734.63
357.04	1800.16
357.25	1574.89
357.46	1652.71
357.68	1708.01
357.89	1644.52
358.10	1755.11
358.31	1703.91
358.52	1716.20
358.73	1667.05
358.94	1632.23
359.15	1730.53
359.36	1740.77
359.57	1726.44
359.78	1673.19
359.99	1730.53
360.20	1669.09
360.41	1693.67
360.62	1759.21
360.83	1654.76
361.04	1732.58
361.25	1751.01
361.46	1812.45
361.67	1705.96
361.88	1724.39
362.09	1742.82
362.30	1736.68
362.51	1654.76
362.72	1669.09
362.93	1759.21
363.14	1732.58
363.35	1761.25
363.56	1689.57
363.78	1734.63
363.99	1789.92
364.20	1665.00
364.41	1769.44
364.62	1873.89
364.83	1683.43
365.04	1681.38
365.25	1662.95
365.46	1798.12
365.67	1644.52
365.88	1638.38
366.09	1677.29
366.30	1658.85
366.51	1634.28
366.72	1685.48
366.93	1708.01
367.14	1730.53
367.35	1785.83
367.56	1740.77
367.77	1763.30
367.98	1667.05
368.18	1796.07
368.39	1794.02
368.60	1636.33
368.81	1826.79
369.02	1765.35
369.23	1734.63
369.44	1601.51
369.65	1619.94
369.86	1699.81
370.07	1728.49
370.28	1585.13
370.49	1753.06
370.70	1777.64
370.91	1730.53
371.12	1632.23
371.33	1777.64
371.54	1683.43
371.75	1773.54
371.96	1640.42
372.17	1712.10
372.38	1722.34
372.59	1845.22
372.80	1681.38
373.01	1820.64
373.22	1716.20
373.43	1673.19
373.64	1642.47
373.85	1865.70
374.06	1765.35
374.26	1775.59
374.47	1703.91
374.68	1841.12
374.89	1730.53
375.10	1665.00
375.31	1820.64
375.52	1716.20
375.73	1689.57
375.94	1718.25
376.15	1812.45
376.36	1656.81
376.57	1652.71
376.78	1736.68
376.99	1789.92
377.20	1751.01
377.40	1628.14
377.61	1814.50
377.82	1697.77
378.03	1812.45
378.24	1779.68
378.45	1714.15
378.66	1724.39
378.87	1648.61
379.08	1656.81
379.29	1705.96
379.50	1822.69
379.71	1660.90
379.91	1798.12
380.12	1685.48
380.33	1765.35
380.54	1691.62
380.75	1720.29
380.96	1669.09
381.17	1798.12
381.38	1708.01
381.59	1677.29
381.80	1767.40
382.00	1787.88
382.21	1779.68
382.42	1929.19
382.63	1890.28
382.84	1787.88
383.05	1800.16
383.26	1861.60
383.47	1652.71
383.68	1773.54
383.88	1783.78
384.09	1710.05
384.30	1820.64
384.51	1759.21
384.72	1683.43
384.93	1665.00
385.14	1646.57
385.35	1767.40
385.55	1634.28
385.76	1824.74
385.97	1751.01
386.18	1656.81
386.39	1714.15
386.60	1693.67
386.81	1718.25
387.02	1677.29
387.22	1679.33
387.43	1824.74
387.64	1771.49
387.85	1923.04
388.06	2242.53
388.27	4184.00
388.48	6786.97
388.68	8191.88
388.89	9695.08
389.10	9725.80
389.31	8443.78
389.52	7686.03
389.73	6746.01
389.93	6281.12
390.14	5638.06
390.35	5140.40
390.56	4638.65
390.77	3737.54
390.98	3063.76
391.18	2478.04
391.39	2164.70
391.60	1875.94
391.81	1837.03
392.02	1777.64
392.23	1877.99
392.43	1746.92
392.64	1775.59
392.85	1730.53
393.06	1828.84
393.27	1738.73
393.47	1748.97
393.68	1773.54
393.89	1744.87
394.10	1773.54
394.31	1718.25
394.52	1660.90
394.72	1665.00
394.93	1794.02
395.14	1665.00
395.35	1705.96
395.56	1654.76
395.76	1759.21
395.97	1761.25
396.18	1896.42
396.39	1773.54
396.60	2060.26
396.80	1904.61
397.01	1859.56
397.22	1955.81
397.43	1804.26
397.64	1714.15
397.84	1771.49
398.05	1949.67
398.26	1775.59
398.47	1785.83
398.67	1820.64
398.88	1761.25
399.09	1789.92
399.30	1726.44
399.51	1822.69
399.71	1714.15
399.92	1669.09
400.13	1689.57
400.34	1716.20
400.54	1617.90
400.75	1744.87
400.96	1705.96
401.17	1861.60
401.37	1771.49
401.58	1761.25
401.79	1736.68
402.00	1824.74
402.21	2060.26
402.41	1972.19
402.62	2064.35
402.83	1984.48
403.04	2035.68
403.24	2138.08
403.45	1849.32
403.66	2021.35
403.87	1925.09
404.07	1931.23
404.28	1912.80
404.49	1955.81
404.70	1814.50
404.90	1748.97
405.11	1746.92
405.32	1738.73
405.52	1665.00
405.73	1689.57
405.94	1710.05
406.15	1718.25
406.35	1796.07
406.56	1751.01
406.77	1716.20
406.98	1691.62
407.18	1689.57
407.39	1763.30
407.60	1728.49
407.80	1716.20
408.01	1669.09
408.22	1812.45
408.43	1730.53
408.63	1857.51
408.84	1724.39
409.05	1730.53
409.25	1722.34
409.46	1724.39
409.67	1658.85
409.88	1714.15
410.08	1671.14
410.29	1695.72
410.50	1814.50
410.70	1683.43
410.91	1583.08
411.12	1730.53
411.32	1763.30
411.53	1673.19
411.74	1783.78
411.95	1693.67
412.15	1740.77
412.36	1830.88
412.57	1742.82
412.77	1882.08
412.98	1753.06
413.19	1677.29
413.39	1732.58
413.60	1742.82
413.81	1826.79
414.01	1685.48
414.22	1759.21
414.43	1728.49
414.63	1740.77
414.84	1787.88
415.05	1685.48
415.25	1642.47
415.46	1734.63
415.67	1689.57
415.87	1683.43
416.08	1798.12
416.29	1746.92
416.49	1767.40
416.70	1669.09
416.91	1677.29
417.11	1685.48
417.32	1828.84
417.53	1859.56
417.73	1748.97
417.94	1732.58
418.15	1798.12
418.35	1703.91
418.56	1714.15
418.77	1886.18
418.97	1689.57
419.18	1734.63
419.38	1611.75
419.59	1714.15
419.80	1832.93
420.00	1697.77
420.21	1712.10
420.42	1804.26
420.62	1785.83
420.83	1695.72
421.04	1746.92
421.24	1578.98
421.45	1769.44
421.65	1783.78
421.86	1714.15
422.07	1730.53
422.27	1718.25
422.48	1710.05
422.69	1748.97
422.89	1679.33
423.10	1708.01
423.30	1636.33
423.51	1744.87
423.72	1789.92
423.92	1730.53
424.13	1726.44
424.33	1771.49
424.54	1796.07
424.75	1714.15
424.95	1816.55
425.16	1722.34
425.36	1708.01
425.57	1812.45
425.78	1748.97
425.98	1814.50
426.19	1675.24
426.39	1720.29
426.60	1673.19
426.81	1839.08
427.01	1693.67
427.22	1728.49
427.42	1656.81
427.63	1689.57
427.83	1822.69
428.04	1812.45
428.25	1722.34
428.45	1773.54
428.66	1785.83
428.86	1646.57
429.07	1716.20
429.28	1775.59
429.48	1652.71
429.69	1689.57
429.89	1773.54
430.10	1687.53
430.30	1755.11
430.51	1716.20
430.71	1691.62
430.92	1730.53
431.13	1771.49
431.33	1794.02
431.54	1736.68
431.74	1800.16
431.95	1845.22
432.15	1691.62
432.36	1734.63
432.56	1775.59
432.77	1824.74
432.98	1753.06
433.18	1728.49
433.39	1605.61
433.59	1710.05
433.80	1839.08
434.00	1992.67
434.21	1761.25
434.41	1642.47
434.62	1845.22
434.82	1624.04
435.03	1634.28
435.23	1755.11
435.44	1628.14
435.64	1699.81
435.85	1722.34
436.06	1794.02
436.26	1734.63
436.47	1726.44
436.67	1701.86
436.88	1710.05
437.08	1824.74
437.29	1810.40
437.49	1705.96
437.70	1765.35
437.90	1708.01
438.11	1837.03
438.31	1681.38
438.52	1898.47
438.72	1886.18
438.93	1941.47
439.13	1818.60
439.34	1869.80
439.54	1757.16
439.75	1812.45
439.95	1724.39
440.16	1751.01
440.36	1806.31
440.57	1808.36
440.77	1714.15
440.98	1787.88
441.18	1785.83
441.39	1710.05
441.59	1689.57
441.80	1845.22
442.00	1794.02
442.21	1826.79
442.41	1691.62
442.62	1816.55
442.82	1736.68
443.02	1753.06
443.23	1781.73
443.43	1699.81
443.64	1832.93
443.84	1646.57
444.05	1843.17
444.25	1673.19
444.46	1740.77
444.66	1701.86
444.87	1861.60
445.07	1634.28
445.28	1748.97
445.48	1785.83
445.69	1779.68
445.89	1812.45
446.09	1730.53
446.30	1972.19
446.50	2623.45
446.71	3735.50
446.91	4241.34
447.12	4650.94
447.32	4808.63
447.53	4282.30
447.73	3946.44
447.93	3557.32
448.14	3317.71
448.34	3184.59
448.55	2928.60
448.75	2832.34
448.96	2678.74
449.16	2449.37
449.36	2269.15
449.57	2058.21
449.77	1933.28
449.98	1818.60
450.18	1869.80
450.39	1873.89
450.59	1845.22
450.79	1810.40
451.00	1648.61
451.20	1785.83
451.41	1691.62
451.61	1796.07
451.81	1701.86
452.02	1638.38
452.22	1730.53
452.43	1701.86
452.63	1705.96
