SpectraSuite Data File
++++++++++++++++++++++++++++++++++++
Date: Mon Jun 06 14:59:57 CEST 2016
User: root
Dark Spectrum Present: No
Reference Spectrum Present: No
Number of Sampled Component Spectra: 1
Spectrometers: USB4C02835
Integration Time (usec): 100000 (USB4C02835)
Spectra Averaged: 1 (USB4C02835)
Boxcar Smoothing: 0 (USB4C02835)
Correct for Electrical Dark: No (USB4C02835)
Strobe/Lamp Enabled: No (USB4C02835)
Correct for Detector Non-linearity: No (USB4C02835)
Correct for Stray Light: No (USB4C02835)
Number of Pixels in Processed Spectrum: 3648
>>>>>Begin Processed Spectral Data<<<<<
177.47	1454.06
177.69	1454.06
177.91	1454.06
178.13	1507.30
178.36	1535.98
178.58	1724.39
178.80	1699.81
179.02	1591.27
179.24	1636.33
179.46	1679.33
179.68	1734.63
179.90	1662.95
180.13	1708.01
180.35	1615.85
180.57	1677.29
180.79	1769.44
181.01	1681.38
181.23	1765.35
181.45	1783.78
181.67	1710.05
181.90	1771.49
182.12	1660.90
182.34	1703.91
182.56	1710.05
182.78	1718.25
183.00	1685.48
183.22	1705.96
183.44	1636.33
183.66	1849.32
183.89	1812.45
184.11	1646.57
184.33	1753.06
184.55	1755.11
184.77	1751.01
184.99	1785.83
185.21	1683.43
185.43	1849.32
185.65	1546.22
185.87	1679.33
186.10	1865.70
186.32	1781.73
186.54	1673.19
186.76	1746.92
186.98	1646.57
187.20	1714.15
187.42	1695.72
187.64	1771.49
187.86	1703.91
188.08	1740.77
188.30	1703.91
188.52	1630.18
188.75	1712.10
188.97	1796.07
189.19	1652.71
189.41	1710.05
189.63	1746.92
189.85	1751.01
190.07	1652.71
190.29	1630.18
190.51	1785.83
190.73	1695.72
190.95	1736.68
191.17	1691.62
191.39	1660.90
191.61	1679.33
191.84	1677.29
192.06	1734.63
192.28	1640.42
192.50	1816.55
192.72	1736.68
192.94	1703.91
193.16	1759.21
193.38	1640.42
193.60	1626.09
193.82	1681.38
194.04	1806.31
194.26	1693.67
194.48	1683.43
194.70	1675.24
194.92	1628.14
195.14	1654.76
195.36	1658.85
195.58	1734.63
195.80	1701.86
196.02	1701.86
196.24	1705.96
196.46	1753.06
196.69	1695.72
196.91	1902.56
197.13	1675.24
197.35	1673.19
197.57	1791.97
197.79	1705.96
198.01	1783.78
198.23	1798.12
198.45	1781.73
198.67	1640.42
198.89	1695.72
199.11	1738.73
199.33	1746.92
199.55	1566.70
199.77	1654.76
199.99	1720.29
200.21	1683.43
200.43	1751.01
200.65	1669.09
200.87	1560.55
201.09	1691.62
201.31	1693.67
201.53	1724.39
201.75	1736.68
201.97	1679.33
202.19	1705.96
202.41	1746.92
202.63	1834.98
202.85	1708.01
203.07	1742.82
203.29	1648.61
203.51	1683.43
203.73	1667.05
203.95	1906.66
204.17	1691.62
204.39	1722.34
204.61	1656.81
204.83	1667.05
205.05	1753.06
205.27	1738.73
205.49	1791.97
205.71	1634.28
205.93	1695.72
206.15	1665.00
206.37	1724.39
206.59	1662.95
206.81	1679.33
207.03	1665.00
207.25	1667.05
207.47	1703.91
207.69	1656.81
207.91	1714.15
208.13	1789.92
208.34	1681.38
208.56	1650.66
208.78	1779.68
209.00	1689.57
209.22	1605.61
209.44	1603.56
209.66	1703.91
209.88	1740.77
210.10	1759.21
210.32	1617.90
210.54	1748.97
210.76	1720.29
210.98	1781.73
211.20	1578.98
211.42	1804.26
211.64	1689.57
211.86	1705.96
212.08	1759.21
212.30	1734.63
212.52	1759.21
212.74	1757.16
212.96	1726.44
213.17	1761.25
213.39	1705.96
213.61	1837.03
213.83	1718.25
214.05	1624.04
214.27	1656.81
214.49	1667.05
214.71	1675.24
214.93	1804.26
215.15	1734.63
215.37	1791.97
215.59	1583.08
215.81	1746.92
216.03	1791.97
216.24	1681.38
216.46	1685.48
216.68	1695.72
216.90	1736.68
217.12	1785.83
217.34	1714.15
217.56	1722.34
217.78	1785.83
218.00	1779.68
218.22	1699.81
218.44	1701.86
218.66	1720.29
218.87	1798.12
219.09	1669.09
219.31	1748.97
219.53	1677.29
219.75	1581.03
219.97	1748.97
220.19	1699.81
220.41	1640.42
220.63	1824.74
220.85	1693.67
221.06	1640.42
221.28	1767.40
221.50	1652.71
221.72	1648.61
221.94	1658.85
222.16	1722.34
222.38	1691.62
222.60	1804.26
222.82	1648.61
223.03	1759.21
223.25	1654.76
223.47	1648.61
223.69	1806.31
223.91	1789.92
224.13	1710.05
224.35	1662.95
224.57	1751.01
224.78	1779.68
225.00	1726.44
225.22	1656.81
225.44	1716.20
225.66	1746.92
225.88	1724.39
226.10	1693.67
226.32	1734.63
226.53	1763.30
226.75	1726.44
226.97	1730.53
227.19	1685.48
227.41	1701.86
227.63	1689.57
227.85	1685.48
228.06	1730.53
228.28	1693.67
228.50	1738.73
228.72	1646.57
228.94	1718.25
229.16	1648.61
229.37	1591.27
229.59	1585.13
229.81	1681.38
230.03	1673.19
230.25	1650.66
230.47	1607.66
230.69	1644.52
230.90	1734.63
231.12	1730.53
231.34	1726.44
231.56	1734.63
231.78	1638.38
232.00	1757.16
232.21	1701.86
232.43	1687.53
232.65	1574.89
232.87	1755.11
233.09	1615.85
233.30	1624.04
233.52	1781.73
233.74	1734.63
233.96	1662.95
234.18	1685.48
234.40	1759.21
234.61	1804.26
234.83	1650.66
235.05	1665.00
235.27	1785.83
235.49	1769.44
235.70	1630.18
235.92	1748.97
236.14	1689.57
236.36	1834.98
236.58	1683.43
236.79	1726.44
237.01	1654.76
237.23	1755.11
237.45	1767.40
237.67	1634.28
237.88	1730.53
238.10	1820.64
238.32	1603.56
238.54	1660.90
238.76	1712.10
238.97	1658.85
239.19	1710.05
239.41	1687.53
239.63	1744.87
239.85	1730.53
240.06	1636.33
240.28	1640.42
240.50	1718.25
240.72	1675.24
240.93	1710.05
241.15	1732.58
241.37	1714.15
241.59	1826.79
241.81	1710.05
242.02	1646.57
242.24	1742.82
242.46	1693.67
242.68	1712.10
242.89	1755.11
243.11	1652.71
243.33	1701.86
243.55	1718.25
243.76	1759.21
243.98	1720.29
244.20	1712.10
244.42	1689.57
244.64	1748.97
244.85	1677.29
245.07	1691.62
245.29	1787.88
245.51	1685.48
245.72	1722.34
245.94	1783.78
246.16	1726.44
246.38	1773.54
246.59	1636.33
246.81	1677.29
247.03	1673.19
247.24	1652.71
247.46	1652.71
247.68	1722.34
247.90	1722.34
248.11	1665.00
248.33	1779.68
248.55	1687.53
248.77	1681.38
248.98	1724.39
249.20	1800.16
249.42	1665.00
249.64	1804.26
249.85	1714.15
250.07	1708.01
250.29	1802.21
250.50	1705.96
250.72	1685.48
250.94	1701.86
251.16	1865.70
251.37	1744.87
251.59	1740.77
251.81	1751.01
252.02	1730.53
252.24	1642.47
252.46	1746.92
252.68	1648.61
252.89	1679.33
253.11	1648.61
253.33	1839.08
253.54	1710.05
253.76	1624.04
253.98	1673.19
254.20	1703.91
254.41	1650.66
254.63	1640.42
254.85	1650.66
255.06	1736.68
255.28	1742.82
255.50	1724.39
255.71	1644.52
255.93	1619.94
256.15	1621.99
256.36	1753.06
256.58	1603.56
256.80	1730.53
257.02	1748.97
257.23	1695.72
257.45	1712.10
257.67	1759.21
257.88	1677.29
258.10	1640.42
258.32	1744.87
258.53	1687.53
258.75	1773.54
258.97	1648.61
259.18	1665.00
259.40	1773.54
259.62	1791.97
259.83	1742.82
260.05	1710.05
260.27	1994.72
260.48	1761.25
260.70	1710.05
260.92	1677.29
261.13	1595.37
261.35	1677.29
261.57	1697.77
261.78	1615.85
262.00	1613.80
262.22	1701.86
262.43	1730.53
262.65	1660.90
262.86	1619.94
263.08	1890.28
263.30	1710.05
263.51	1576.94
263.73	1630.18
263.95	1767.40
264.16	1691.62
264.38	1722.34
264.60	1763.30
264.81	1695.72
265.03	1720.29
265.25	1736.68
265.46	1730.53
265.68	1726.44
265.89	1712.10
266.11	1642.47
266.33	1679.33
266.54	1726.44
266.76	1665.00
266.98	1695.72
267.19	1814.50
267.41	1724.39
267.62	1708.01
267.84	1628.14
268.06	1662.95
268.27	1701.86
268.49	1740.77
268.70	1757.16
268.92	1656.81
269.14	1685.48
269.35	1568.74
269.57	1738.73
269.79	1798.12
270.00	1708.01
270.22	1781.73
270.43	1607.66
270.65	1605.61
270.87	1736.68
271.08	1671.14
271.30	1720.29
271.51	1714.15
271.73	1765.35
271.95	1730.53
272.16	1726.44
272.38	1705.96
272.59	1734.63
272.81	1742.82
273.02	1734.63
273.24	1773.54
273.46	1726.44
273.67	1626.09
273.89	1605.61
274.10	1605.61
274.32	1820.64
274.54	1699.81
274.75	1757.16
274.97	1718.25
275.18	1724.39
275.40	1718.25
275.61	1761.25
275.83	1748.97
276.05	1642.47
276.26	1681.38
276.48	1726.44
276.69	1708.01
276.91	1619.94
277.12	1699.81
277.34	1763.30
277.55	1730.53
277.77	1703.91
277.99	1726.44
278.20	1667.05
278.42	1679.33
278.63	1527.78
278.85	1648.61
279.06	1621.99
279.28	1781.73
279.49	1705.96
279.71	1712.10
279.93	1705.96
280.14	1662.95
280.36	1636.33
280.57	1730.53
280.79	1763.30
281.00	1587.18
281.22	1624.04
281.43	1703.91
281.65	1640.42
281.86	1619.94
282.08	1732.58
282.29	1773.54
282.51	1587.18
282.73	1644.52
282.94	1636.33
283.16	1740.77
283.37	1748.97
283.59	1691.62
283.80	1699.81
284.02	1665.00
284.23	1763.30
284.45	1626.09
284.66	1681.38
284.88	1642.47
285.09	1712.10
285.31	1699.81
285.52	1677.29
285.74	1572.84
285.95	1736.68
286.17	1728.49
286.38	1673.19
286.60	1771.49
286.81	1628.14
287.03	1648.61
287.24	1724.39
287.46	1753.06
287.67	1748.97
287.89	1771.49
288.10	1726.44
288.32	1658.85
288.53	1839.08
288.75	1689.57
288.96	1734.63
289.18	1646.57
289.39	1665.00
289.61	1720.29
289.82	1820.64
290.04	1890.28
290.25	1615.85
290.47	1705.96
290.68	1662.95
290.90	1695.72
291.11	1648.61
291.33	1720.29
291.54	1570.79
291.76	1710.05
291.97	1693.67
292.18	1734.63
292.40	1673.19
292.61	1665.00
292.83	1804.26
293.04	1716.20
293.26	1728.49
293.47	1710.05
293.69	1681.38
293.90	1775.59
294.12	1775.59
294.33	1626.09
294.55	1705.96
294.76	1736.68
294.97	1781.73
295.19	1812.45
295.40	1675.24
295.62	1669.09
295.83	1775.59
296.05	1632.23
296.26	1763.30
296.48	1642.47
296.69	1644.52
296.90	1720.29
297.12	1810.40
297.33	1734.63
297.55	1679.33
297.76	1722.34
297.98	1691.62
298.19	1734.63
298.41	1630.18
298.62	1591.27
298.83	1806.31
299.05	1761.25
299.26	1617.90
299.48	1701.86
299.69	1718.25
299.90	1691.62
300.12	1679.33
300.33	1734.63
300.55	1699.81
300.76	1652.71
300.98	1656.81
301.19	1748.97
301.40	1673.19
301.62	1681.38
301.83	1726.44
302.05	1746.92
302.26	1679.33
302.47	1691.62
302.69	1701.86
302.90	1789.92
303.12	1599.46
303.33	1648.61
303.54	1802.21
303.76	1705.96
303.97	1765.35
304.19	1751.01
304.40	1630.18
304.61	1779.68
304.83	1787.88
305.04	1726.44
305.26	1726.44
305.47	1624.04
305.68	1720.29
305.90	1597.42
306.11	1710.05
306.33	1730.53
306.54	1656.81
306.75	1609.70
306.97	1603.56
307.18	1648.61
307.39	1681.38
307.61	1710.05
307.82	1675.24
308.04	1669.09
308.25	1656.81
308.46	1730.53
308.68	1703.91
308.89	1757.16
309.10	1802.21
309.32	1718.25
309.53	1677.29
309.74	1689.57
309.96	1648.61
310.17	1771.49
310.39	1636.33
310.60	1759.21
310.81	1671.14
311.03	1619.94
311.24	1681.38
311.45	1673.19
311.67	1814.50
311.88	1697.77
312.09	1757.16
312.31	1755.11
312.52	1656.81
312.73	1683.43
312.95	1640.42
313.16	1640.42
313.37	1775.59
313.59	1734.63
313.80	1796.07
314.01	1851.36
314.23	1687.53
314.44	1732.58
314.65	1589.22
314.87	1667.05
315.08	1689.57
315.29	1722.34
315.51	1646.57
315.72	1705.96
315.93	1800.16
316.15	1783.78
316.36	1705.96
316.57	1710.05
316.79	1759.21
317.00	1734.63
317.21	1701.86
317.43	1669.09
317.64	1781.73
317.85	1640.42
318.07	1691.62
318.28	1699.81
318.49	1841.12
318.70	1914.85
318.92	1820.64
319.13	1722.34
319.34	1767.40
319.56	1705.96
319.77	1800.16
319.98	1705.96
320.20	1736.68
320.41	1755.11
320.62	1705.96
320.83	1660.90
321.05	1837.03
321.26	1773.54
321.47	1705.96
321.69	1755.11
321.90	1648.61
322.11	1697.77
322.32	1734.63
322.54	1787.88
322.75	1648.61
322.96	1865.70
323.18	1644.52
323.39	1607.66
323.60	1705.96
323.81	1759.21
324.03	1685.48
324.24	1708.01
324.45	1665.00
324.66	1724.39
324.88	1732.58
325.09	1714.15
325.30	1685.48
325.52	1753.06
325.73	1740.77
325.94	1685.48
326.15	1632.23
326.37	1665.00
326.58	1767.40
326.79	1808.36
327.00	1654.76
327.22	1705.96
327.43	1673.19
327.64	1712.10
327.85	1767.40
328.07	1654.76
328.28	1755.11
328.49	1724.39
328.70	1761.25
328.92	1738.73
329.13	1693.67
329.34	1796.07
329.55	1875.94
329.76	1724.39
329.98	1621.99
330.19	1789.92
330.40	1673.19
330.61	1724.39
330.83	1724.39
331.04	1673.19
331.25	1710.05
331.46	1665.00
331.68	1615.85
331.89	1665.00
332.10	1687.53
332.31	1552.36
332.52	1658.85
332.74	1738.73
332.95	1683.43
333.16	1673.19
333.37	1683.43
333.58	1708.01
333.80	1742.82
334.01	1658.85
334.22	1761.25
334.43	1626.09
334.64	1650.66
334.86	1621.99
335.07	1609.70
335.28	1755.11
335.49	1587.18
335.70	1673.19
335.92	1705.96
336.13	1837.03
336.34	1701.86
336.55	1675.24
336.76	1691.62
336.98	1581.03
337.19	1710.05
337.40	1783.78
337.61	1859.56
337.82	1714.15
338.04	1679.33
338.25	1585.13
338.46	1720.29
338.67	1665.00
338.88	1656.81
339.09	1621.99
339.31	1697.77
339.52	1615.85
339.73	1742.82
339.94	1658.85
340.15	1740.77
340.36	1646.57
340.58	1691.62
340.79	1626.09
341.00	1744.87
341.21	1626.09
341.42	1751.01
341.63	1697.77
341.85	1691.62
342.06	1714.15
342.27	1601.51
342.48	1730.53
342.69	1619.94
342.90	1757.16
343.12	1710.05
343.33	1665.00
343.54	1734.63
343.75	1820.64
343.96	1695.72
344.17	1712.10
344.38	1701.86
344.60	1636.33
344.81	1673.19
345.02	1710.05
345.23	1808.36
345.44	1740.77
345.65	1744.87
345.86	1681.38
346.07	1753.06
346.29	1677.29
346.50	1714.15
346.71	1736.68
346.92	1806.31
347.13	1765.35
347.34	1607.66
347.55	1701.86
347.76	1738.73
347.98	1591.27
348.19	1673.19
348.40	1746.92
348.61	1701.86
348.82	1748.97
349.03	1769.44
349.24	1697.77
349.45	1884.13
349.66	1589.22
349.88	1650.66
350.09	1681.38
350.30	1736.68
350.51	1767.40
350.72	1742.82
350.93	1777.64
351.14	1671.14
351.35	1808.36
351.56	1681.38
351.77	1710.05
351.99	1687.53
352.20	1724.39
352.41	1701.86
352.62	1525.74
352.83	1644.52
353.04	1634.28
353.25	1677.29
353.46	1693.67
353.67	1775.59
353.88	1613.80
354.09	1775.59
354.30	1681.38
354.52	1761.25
354.73	1701.86
354.94	1693.67
355.15	1683.43
355.36	1783.78
355.57	1722.34
355.78	1691.62
355.99	1681.38
356.20	1716.20
356.41	1804.26
356.62	1673.19
356.83	1720.29
357.04	1826.79
357.25	1558.50
357.46	1673.19
357.68	1593.32
357.89	1708.01
358.10	1693.67
358.31	1708.01
358.52	1669.09
358.73	1613.80
358.94	1609.70
359.15	1753.06
359.36	1740.77
359.57	1665.00
359.78	1613.80
359.99	1714.15
360.20	1695.72
360.41	1669.09
360.62	1755.11
360.83	1708.01
361.04	1708.01
361.25	1681.38
361.46	1806.31
361.67	1675.24
361.88	1681.38
362.09	1775.59
362.30	1701.86
362.51	1654.76
362.72	1738.73
362.93	1710.05
363.14	1712.10
363.35	1650.66
363.56	1667.05
363.78	1679.33
363.99	1781.73
364.20	1701.86
364.41	1726.44
364.62	1744.87
364.83	1703.91
365.04	1667.05
365.25	1716.20
365.46	1728.49
365.67	1658.85
365.88	1624.04
366.09	1669.09
366.30	1728.49
366.51	1783.78
366.72	1679.33
366.93	1708.01
367.14	1638.38
367.35	1871.84
367.56	1685.48
367.77	1791.97
367.98	1734.63
368.18	1714.15
368.39	1695.72
368.60	1671.14
368.81	1660.90
369.02	1722.34
369.23	1757.16
369.44	1595.37
369.65	1656.81
369.86	1697.77
370.07	1787.88
370.28	1765.35
370.49	1701.86
370.70	1675.24
370.91	1658.85
371.12	1730.53
371.33	1738.73
371.54	1683.43
371.75	1826.79
371.96	1574.89
372.17	1669.09
372.38	1722.34
372.59	1716.20
372.80	1708.01
373.01	1705.96
373.22	1693.67
373.43	1628.14
373.64	1617.90
373.85	1746.92
374.06	1857.51
374.26	1755.11
374.47	1746.92
374.68	1763.30
374.89	1679.33
375.10	1675.24
375.31	1783.78
375.52	1656.81
375.73	1697.77
375.94	1597.42
376.15	1785.83
376.36	1632.23
376.57	1699.81
376.78	1671.14
376.99	1753.06
377.20	1818.60
377.40	1691.62
377.61	1746.92
377.82	1681.38
378.03	1736.68
378.24	1712.10
378.45	1699.81
378.66	1685.48
378.87	1656.81
379.08	1601.51
379.29	1681.38
379.50	1802.21
379.71	1699.81
379.91	1771.49
380.12	1640.42
380.33	1738.73
380.54	1722.34
380.75	1689.57
380.96	1648.61
381.17	1755.11
381.38	1683.43
381.59	1714.15
381.80	1679.33
382.00	1859.56
382.21	1695.72
382.42	1779.68
382.63	1861.60
382.84	1732.58
383.05	1812.45
383.26	1820.64
383.47	1701.86
383.68	1783.78
383.88	1753.06
384.09	1712.10
384.30	1789.92
384.51	1683.43
384.72	1728.49
384.93	1683.43
385.14	1720.29
385.35	1794.02
385.55	1628.14
385.76	1773.54
385.97	1665.00
386.18	1691.62
386.39	1646.57
386.60	1673.19
386.81	1673.19
387.02	1699.81
387.22	1593.32
387.43	1791.97
387.64	1746.92
387.85	1916.90
388.06	2246.62
388.27	4167.62
388.48	6436.77
388.68	7913.35
388.89	9357.17
389.10	9377.65
389.31	8165.25
389.52	7210.90
389.73	6483.87
389.93	6059.94
390.14	5605.29
390.35	4923.32
390.56	4239.30
390.77	3559.37
390.98	3061.71
391.18	2463.71
391.39	2107.36
391.60	1845.22
391.81	1808.36
392.02	1742.82
392.23	1910.75
392.43	1734.63
392.64	1800.16
392.85	1734.63
393.06	1757.16
393.27	1748.97
393.47	1656.81
393.68	1677.29
393.89	1683.43
394.10	1837.03
394.31	1671.14
394.52	1632.23
394.72	1726.44
394.93	1808.36
395.14	1681.38
395.35	1755.11
395.56	1607.66
395.76	1781.73
395.97	1748.97
396.18	1839.08
396.39	1859.56
396.60	1935.33
396.80	1818.60
397.01	1763.30
397.22	1851.36
397.43	1843.17
397.64	1730.53
397.84	1863.65
398.05	1865.70
398.26	1714.15
398.47	1693.67
398.67	1779.68
398.88	1701.86
399.09	1683.43
399.30	1708.01
399.51	1720.29
399.71	1685.48
399.92	1730.53
400.13	1834.98
400.34	1746.92
400.54	1691.62
400.75	1738.73
400.96	1701.86
401.17	1783.78
401.37	1746.92
401.58	1679.33
401.79	1726.44
402.00	1880.04
402.21	1978.34
402.41	1945.57
402.62	1939.43
402.83	1998.82
403.04	1990.63
403.24	2035.68
403.45	1773.54
403.66	1875.94
403.87	1863.65
404.07	1849.32
404.28	1947.62
404.49	1918.95
404.70	1824.74
404.90	1798.12
405.11	1738.73
405.32	1785.83
405.52	1699.81
405.73	1712.10
405.94	1673.19
406.15	1724.39
406.35	1773.54
406.56	1748.97
406.77	1755.11
406.98	1757.16
407.18	1665.00
407.39	1665.00
407.60	1695.72
407.80	1736.68
408.01	1673.19
408.22	1718.25
408.43	1693.67
408.63	1744.87
408.84	1640.42
409.05	1755.11
409.25	1669.09
409.46	1533.93
409.67	1650.66
409.88	1718.25
410.08	1726.44
410.29	1673.19
410.50	1806.31
410.70	1691.62
410.91	1603.56
411.12	1806.31
411.32	1722.34
411.53	1648.61
411.74	1861.60
411.95	1800.16
412.15	1683.43
412.36	1746.92
412.57	1611.75
412.77	1787.88
412.98	1716.20
413.19	1662.95
413.39	1720.29
413.60	1718.25
413.81	1763.30
414.01	1648.61
414.22	1853.41
414.43	1769.44
414.63	1685.48
414.84	1738.73
415.05	1660.90
415.25	1734.63
415.46	1744.87
415.67	1685.48
415.87	1650.66
416.08	1710.05
416.29	1621.99
416.49	1703.91
416.70	1693.67
416.91	1675.24
417.11	1677.29
417.32	1767.40
417.53	1845.22
417.73	1724.39
417.94	1730.53
418.15	1677.29
418.35	1679.33
418.56	1689.57
418.77	1824.74
418.97	1732.58
419.18	1689.57
419.38	1519.59
419.59	1746.92
419.80	1769.44
420.00	1667.05
420.21	1662.95
420.42	1746.92
420.62	1687.53
420.83	1638.38
421.04	1716.20
421.24	1654.76
421.45	1765.35
421.65	1763.30
421.86	1662.95
422.07	1800.16
422.27	1828.84
422.48	1759.21
422.69	1593.32
422.89	1736.68
423.10	1755.11
423.30	1665.00
423.51	1699.81
423.72	1697.77
423.92	1746.92
424.13	1626.09
424.33	1775.59
424.54	1746.92
424.75	1734.63
424.95	1773.54
425.16	1789.92
425.36	1695.72
425.57	1761.25
425.78	1781.73
425.98	1806.31
426.19	1695.72
426.39	1660.90
426.60	1669.09
426.81	1730.53
427.01	1699.81
427.22	1671.14
427.42	1640.42
427.63	1656.81
427.83	1794.02
428.04	1810.40
428.25	1742.82
428.45	1806.31
428.66	1726.44
428.86	1718.25
429.07	1656.81
429.28	1697.77
429.48	1705.96
429.69	1648.61
429.89	1794.02
430.10	1665.00
430.30	1818.60
430.51	1751.01
430.71	1677.29
430.92	1734.63
431.13	1648.61
431.33	1744.87
431.54	1705.96
431.74	1828.84
431.95	1861.60
432.15	1615.85
432.36	1736.68
432.56	1744.87
432.77	1802.21
432.98	1796.07
433.18	1726.44
433.39	1665.00
433.59	1644.52
433.80	1748.97
434.00	1771.49
434.21	1683.43
434.41	1636.33
434.62	1828.84
434.82	1632.23
435.03	1613.80
435.23	1617.90
435.44	1589.22
435.64	1683.43
435.85	1736.68
436.06	1746.92
436.26	1785.83
436.47	1753.06
436.67	1681.38
436.88	1662.95
437.08	1732.58
437.29	1755.11
437.49	1660.90
437.70	1800.16
437.90	1613.80
438.11	1841.12
438.31	1773.54
438.52	1830.88
438.72	1824.74
438.93	1816.55
439.13	1763.30
439.34	1816.55
439.54	1681.38
439.75	1755.11
439.95	1791.97
440.16	1673.19
440.36	1783.78
440.57	1708.01
440.77	1769.44
440.98	1726.44
441.18	1738.73
441.39	1710.05
441.59	1617.90
441.80	1845.22
442.00	1665.00
442.21	1812.45
442.41	1714.15
442.62	1742.82
442.82	1658.85
443.02	1734.63
443.23	1695.72
443.43	1730.53
443.64	1800.16
443.84	1615.85
444.05	1730.53
444.25	1675.24
444.46	1689.57
444.66	1736.68
444.87	1777.64
445.07	1632.23
445.28	1691.62
445.48	1896.42
445.69	1775.59
445.89	1748.97
446.09	1779.68
446.30	2045.92
446.50	2541.53
446.71	3655.62
446.91	4087.75
447.12	4499.39
447.32	4753.34
447.53	4190.14
447.73	3749.83
447.93	3422.16
448.14	3190.74
448.34	3174.35
448.55	2813.91
448.75	2840.53
448.96	2650.07
449.16	2402.27
449.36	2232.29
449.57	2074.59
449.77	1873.89
449.98	1765.35
450.18	1843.17
450.39	1800.16
450.59	1759.21
450.79	1728.49
451.00	1791.97
451.20	1753.06
451.41	1632.23
451.61	1744.87
451.81	1769.44
452.02	1728.49
452.22	1849.32
452.43	1652.71
452.63	1697.77
