SpectraSuite Data File
++++++++++++++++++++++++++++++++++++
Date: Mon Jun 06 13:05:57 CEST 2016
User: root
Dark Spectrum Present: No
Reference Spectrum Present: No
Number of Sampled Component Spectra: 1
Spectrometers: USB4C02835
Integration Time (usec): 100000 (USB4C02835)
Spectra Averaged: 1 (USB4C02835)
Boxcar Smoothing: 0 (USB4C02835)
Correct for Electrical Dark: No (USB4C02835)
Strobe/Lamp Enabled: No (USB4C02835)
Correct for Detector Non-linearity: No (USB4C02835)
Correct for Stray Light: No (USB4C02835)
Number of Pixels in Processed Spectrum: 3648
>>>>>Begin Processed Spectral Data<<<<<
177.47	1523.69
177.69	1523.69
177.91	1523.69
178.13	1359.85
178.36	1540.07
178.58	1695.72
178.80	1693.67
179.02	1617.90
179.24	1626.09
179.46	1665.00
179.68	1742.82
179.90	1630.18
180.13	1705.96
180.35	1718.25
180.57	1675.24
180.79	1794.02
181.01	1667.05
181.23	1828.84
181.45	1685.48
181.67	1714.15
181.90	1761.25
182.12	1634.28
182.34	1605.61
182.56	1726.44
182.78	1662.95
183.00	1630.18
183.22	1701.86
183.44	1617.90
183.66	1812.45
183.89	1861.60
184.11	1763.30
184.33	1677.29
184.55	1746.92
184.77	1748.97
184.99	1689.57
185.21	1718.25
185.43	1882.08
185.65	1646.57
185.87	1714.15
186.10	1869.80
186.32	1794.02
186.54	1691.62
186.76	1669.09
186.98	1724.39
187.20	1667.05
187.42	1665.00
187.64	1771.49
187.86	1777.64
188.08	1689.57
188.30	1644.52
188.52	1644.52
188.75	1748.97
188.97	1734.63
189.19	1662.95
189.41	1708.01
189.63	1712.10
189.85	1675.24
190.07	1587.18
190.29	1636.33
190.51	1714.15
190.73	1683.43
190.95	1734.63
191.17	1732.58
191.39	1628.14
191.61	1695.72
191.84	1730.53
192.06	1730.53
192.28	1632.23
192.50	1822.69
192.72	1701.86
192.94	1632.23
193.16	1724.39
193.38	1720.29
193.60	1718.25
193.82	1673.19
194.04	1753.06
194.26	1671.14
194.48	1781.73
194.70	1628.14
194.92	1744.87
195.14	1724.39
195.36	1624.04
195.58	1679.33
195.80	1695.72
196.02	1699.81
196.24	1665.00
196.46	1763.30
196.69	1665.00
196.91	1869.80
197.13	1726.44
197.35	1630.18
197.57	1730.53
197.79	1648.61
198.01	1746.92
198.23	1705.96
198.45	1744.87
198.67	1640.42
198.89	1734.63
199.11	1773.54
199.33	1730.53
199.55	1574.89
199.77	1667.05
199.99	1699.81
200.21	1673.19
200.43	1722.34
200.65	1613.80
200.87	1550.31
201.09	1699.81
201.31	1697.77
201.53	1785.83
201.75	1728.49
201.97	1742.82
202.19	1748.97
202.41	1740.77
202.63	1843.17
202.85	1699.81
203.07	1697.77
203.29	1640.42
203.51	1646.57
203.73	1652.71
203.95	1898.47
204.17	1761.25
204.39	1689.57
204.61	1718.25
204.83	1740.77
205.05	1705.96
205.27	1746.92
205.49	1810.40
205.71	1734.63
205.93	1660.90
206.15	1662.95
206.37	1693.67
206.59	1701.86
206.81	1693.67
207.03	1708.01
207.25	1617.90
207.47	1763.30
207.69	1658.85
207.91	1787.88
208.13	1722.34
208.34	1640.42
208.56	1650.66
208.78	1748.97
209.00	1642.47
209.22	1724.39
209.44	1673.19
209.66	1650.66
209.88	1617.90
210.10	1656.81
210.32	1662.95
210.54	1746.92
210.76	1642.47
210.98	1689.57
211.20	1628.14
211.42	1697.77
211.64	1787.88
211.86	1667.05
212.08	1759.21
212.30	1810.40
212.52	1660.90
212.74	1751.01
212.96	1675.24
213.17	1771.49
213.39	1677.29
213.61	1757.16
213.83	1679.33
214.05	1714.15
214.27	1783.78
214.49	1621.99
214.71	1697.77
214.93	1742.82
215.15	1701.86
215.37	1736.68
215.59	1603.56
215.81	1691.62
216.03	1748.97
216.24	1753.06
216.46	1705.96
216.68	1783.78
216.90	1783.78
217.12	1675.24
217.34	1714.15
217.56	1753.06
217.78	1859.56
218.00	1738.73
218.22	1734.63
218.44	1642.47
218.66	1695.72
218.87	1843.17
219.09	1724.39
219.31	1738.73
219.53	1705.96
219.75	1701.86
219.97	1740.77
220.19	1667.05
220.41	1730.53
220.63	1722.34
220.85	1740.77
221.06	1677.29
221.28	1740.77
221.50	1789.92
221.72	1699.81
221.94	1720.29
222.16	1677.29
222.38	1699.81
222.60	1714.15
222.82	1626.09
223.03	1703.91
223.25	1640.42
223.47	1681.38
223.69	1832.93
223.91	1703.91
224.13	1744.87
224.35	1689.57
224.57	1705.96
224.78	1777.64
225.00	1658.85
225.22	1683.43
225.44	1697.77
225.66	1708.01
225.88	1685.48
226.10	1744.87
226.32	1738.73
226.53	1853.41
226.75	1681.38
226.97	1638.38
227.19	1714.15
227.41	1523.69
227.63	1701.86
227.85	1601.51
228.06	1738.73
228.28	1710.05
228.50	1744.87
228.72	1685.48
228.94	1701.86
229.16	1597.42
229.37	1693.67
229.59	1628.14
229.81	1789.92
230.03	1638.38
230.25	1648.61
230.47	1554.41
230.69	1675.24
230.90	1830.88
231.12	1640.42
231.34	1710.05
231.56	1728.49
231.78	1742.82
232.00	1691.62
232.21	1689.57
232.43	1587.18
232.65	1570.79
232.87	1724.39
233.09	1710.05
233.30	1636.33
233.52	1730.53
233.74	1701.86
233.96	1681.38
234.18	1697.77
234.40	1687.53
234.61	1820.64
234.83	1624.04
235.05	1675.24
235.27	1820.64
235.49	1806.31
235.70	1712.10
235.92	1763.30
236.14	1687.53
236.36	1886.18
236.58	1689.57
236.79	1718.25
237.01	1705.96
237.23	1650.66
237.45	1787.88
237.67	1624.04
237.88	1746.92
238.10	1832.93
238.32	1687.53
238.54	1642.47
238.76	1714.15
238.97	1572.84
239.19	1669.09
239.41	1720.29
239.63	1820.64
239.85	1720.29
240.06	1681.38
240.28	1697.77
240.50	1718.25
240.72	1665.00
240.93	1705.96
241.15	1753.06
241.37	1767.40
241.59	1794.02
241.81	1783.78
242.02	1675.24
242.24	1675.24
242.46	1658.85
242.68	1718.25
242.89	1677.29
243.11	1660.90
243.33	1669.09
243.55	1775.59
243.76	1740.77
243.98	1695.72
244.20	1636.33
244.42	1673.19
244.64	1740.77
244.85	1640.42
245.07	1656.81
245.29	1722.34
245.51	1742.82
245.72	1716.20
245.94	1755.11
246.16	1773.54
246.38	1789.92
246.59	1691.62
246.81	1693.67
247.03	1732.58
247.24	1624.04
247.46	1642.47
247.68	1662.95
247.90	1652.71
248.11	1634.28
248.33	1722.34
248.55	1718.25
248.77	1693.67
248.98	1810.40
249.20	1808.36
249.42	1708.01
249.64	1681.38
249.85	1626.09
250.07	1669.09
250.29	1662.95
250.50	1689.57
250.72	1611.75
250.94	1665.00
251.16	1783.78
251.37	1773.54
251.59	1734.63
251.81	1791.97
252.02	1701.86
252.24	1685.48
252.46	1787.88
252.68	1673.19
252.89	1697.77
253.11	1636.33
253.33	1740.77
253.54	1691.62
253.76	1665.00
253.98	1648.61
254.20	1656.81
254.41	1626.09
254.63	1691.62
254.85	1640.42
255.06	1665.00
255.28	1761.25
255.50	1687.53
255.71	1648.61
255.93	1632.23
256.15	1667.05
256.36	1708.01
256.58	1689.57
256.80	1728.49
257.02	1714.15
257.23	1726.44
257.45	1656.81
257.67	1699.81
257.88	1665.00
258.10	1685.48
258.32	1806.31
258.53	1656.81
258.75	1804.26
258.97	1650.66
259.18	1699.81
259.40	1665.00
259.62	1841.12
259.83	1849.32
260.05	1722.34
260.27	2009.06
260.48	1798.12
260.70	1593.32
260.92	1693.67
261.13	1652.71
261.35	1757.16
261.57	1695.72
261.78	1617.90
262.00	1681.38
262.22	1738.73
262.43	1718.25
262.65	1683.43
262.86	1697.77
263.08	1798.12
263.30	1796.07
263.51	1607.66
263.73	1634.28
263.95	1796.07
264.16	1648.61
264.38	1673.19
264.60	1746.92
264.81	1617.90
265.03	1769.44
265.25	1699.81
265.46	1746.92
265.68	1794.02
265.89	1744.87
266.11	1605.61
266.33	1812.45
266.54	1734.63
266.76	1722.34
266.98	1691.62
267.19	1787.88
267.41	1757.16
267.62	1701.86
267.84	1601.51
268.06	1716.20
268.27	1757.16
268.49	1724.39
268.70	1808.36
268.92	1718.25
269.14	1626.09
269.35	1679.33
269.57	1742.82
269.79	1789.92
270.00	1595.37
270.22	1769.44
270.43	1605.61
270.65	1611.75
270.87	1689.57
271.08	1746.92
271.30	1798.12
271.51	1742.82
271.73	1658.85
271.95	1757.16
272.16	1740.77
272.38	1669.09
272.59	1597.42
272.81	1693.67
273.02	1691.62
273.24	1705.96
273.46	1773.54
273.67	1644.52
273.89	1636.33
274.10	1665.00
274.32	1724.39
274.54	1730.53
274.75	1687.53
274.97	1673.19
275.18	1755.11
275.40	1724.39
275.61	1724.39
275.83	1742.82
276.05	1679.33
276.26	1724.39
276.48	1740.77
276.69	1673.19
276.91	1638.38
277.12	1691.62
277.34	1742.82
277.55	1748.97
277.77	1703.91
277.99	1650.66
278.20	1654.76
278.42	1601.51
278.63	1607.66
278.85	1642.47
279.06	1591.27
279.28	1687.53
279.49	1724.39
279.71	1677.29
279.93	1685.48
280.14	1701.86
280.36	1626.09
280.57	1677.29
280.79	1744.87
281.00	1636.33
281.22	1591.27
281.43	1787.88
281.65	1691.62
281.86	1636.33
282.08	1714.15
282.29	1806.31
282.51	1619.94
282.73	1605.61
282.94	1660.90
283.16	1730.53
283.37	1771.49
283.59	1726.44
283.80	1708.01
284.02	1681.38
284.23	1677.29
284.45	1673.19
284.66	1628.14
284.88	1714.15
285.09	1742.82
285.31	1759.21
285.52	1716.20
285.74	1681.38
285.95	1697.77
286.17	1665.00
286.38	1740.77
286.60	1677.29
286.81	1644.52
287.03	1689.57
287.24	1615.85
287.46	1738.73
287.67	1726.44
287.89	1816.55
288.10	1624.04
288.32	1746.92
288.53	1781.73
288.75	1724.39
288.96	1720.29
289.18	1636.33
289.39	1779.68
289.61	1716.20
289.82	1820.64
290.04	1869.80
290.25	1599.46
290.47	1796.07
290.68	1718.25
290.90	1728.49
291.11	1619.94
291.33	1755.11
291.54	1660.90
291.76	1621.99
291.97	1705.96
292.18	1626.09
292.40	1734.63
292.61	1654.76
292.83	1812.45
293.04	1720.29
293.26	1746.92
293.47	1615.85
293.69	1650.66
293.90	1728.49
294.12	1796.07
294.33	1724.39
294.55	1757.16
294.76	1736.68
294.97	1718.25
295.19	1834.98
295.40	1722.34
295.62	1730.53
295.83	1765.35
296.05	1593.32
296.26	1734.63
296.48	1607.66
296.69	1638.38
296.90	1703.91
297.12	1783.78
297.33	1761.25
297.55	1636.33
297.76	1718.25
297.98	1705.96
298.19	1757.16
298.41	1685.48
298.62	1585.13
298.83	1787.88
299.05	1691.62
299.26	1660.90
299.48	1611.75
299.69	1769.44
299.90	1724.39
300.12	1658.85
300.33	1720.29
300.55	1730.53
300.76	1740.77
300.98	1640.42
301.19	1779.68
301.40	1685.48
301.62	1738.73
301.83	1697.77
302.05	1665.00
302.26	1781.73
302.47	1656.81
302.69	1681.38
302.90	1615.85
303.12	1644.52
303.33	1681.38
303.54	1830.88
303.76	1642.47
303.97	1763.30
304.19	1771.49
304.40	1642.47
304.61	1742.82
304.83	1884.13
305.04	1773.54
305.26	1699.81
305.47	1691.62
305.68	1695.72
305.90	1697.77
306.11	1699.81
306.33	1769.44
306.54	1671.14
306.75	1726.44
306.97	1615.85
307.18	1632.23
307.39	1689.57
307.61	1691.62
307.82	1718.25
308.04	1634.28
308.25	1626.09
308.46	1746.92
308.68	1712.10
308.89	1726.44
309.10	1783.78
309.32	1728.49
309.53	1734.63
309.74	1726.44
309.96	1679.33
310.17	1738.73
310.39	1718.25
310.60	1691.62
310.81	1697.77
311.03	1628.14
311.24	1765.35
311.45	1722.34
311.67	1837.03
311.88	1753.06
312.09	1634.28
312.31	1650.66
312.52	1763.30
312.73	1677.29
312.95	1712.10
313.16	1640.42
313.37	1767.40
313.59	1744.87
313.80	1708.01
314.01	1802.21
314.23	1679.33
314.44	1630.18
314.65	1640.42
314.87	1593.32
315.08	1671.14
315.29	1671.14
315.51	1665.00
315.72	1613.80
315.93	1794.02
316.15	1634.28
316.36	1665.00
316.57	1740.77
316.79	1701.86
317.00	1650.66
317.21	1746.92
317.43	1718.25
317.64	1685.48
317.85	1687.53
318.07	1642.47
318.28	1695.72
318.49	1746.92
318.70	1886.18
318.92	1802.21
319.13	1744.87
319.34	1871.84
319.56	1783.78
319.77	1757.16
319.98	1863.65
320.20	1896.42
320.41	1771.49
320.62	1746.92
320.83	1705.96
321.05	1880.04
321.26	1710.05
321.47	1624.04
321.69	1742.82
321.90	1642.47
322.11	1652.71
322.32	1703.91
322.54	1759.21
322.75	1654.76
322.96	1787.88
323.18	1665.00
323.39	1601.51
323.60	1628.14
323.81	1710.05
324.03	1751.01
324.24	1759.21
324.45	1677.29
324.66	1697.77
324.88	1761.25
325.09	1779.68
325.30	1660.90
325.52	1751.01
325.73	1695.72
325.94	1568.74
326.15	1581.03
326.37	1687.53
326.58	1701.86
326.79	1714.15
327.00	1634.28
327.22	1771.49
327.43	1630.18
327.64	1607.66
327.85	1800.16
328.07	1755.11
328.28	1841.12
328.49	1705.96
328.70	1710.05
328.92	1603.56
329.13	1695.72
329.34	1751.01
329.55	1808.36
329.76	1796.07
329.98	1771.49
330.19	1785.83
330.40	1753.06
330.61	1697.77
330.83	1759.21
331.04	1665.00
331.25	1732.58
331.46	1767.40
331.68	1642.47
331.89	1748.97
332.10	1759.21
332.31	1591.27
332.52	1736.68
332.74	1824.74
332.95	1556.46
333.16	1656.81
333.37	1773.54
333.58	1685.48
333.80	1730.53
334.01	1585.13
334.22	1705.96
334.43	1689.57
334.64	1730.53
334.86	1611.75
335.07	1611.75
335.28	1730.53
335.49	1632.23
335.70	1779.68
335.92	1736.68
336.13	1787.88
336.34	1783.78
336.55	1675.24
336.76	1681.38
336.98	1568.74
337.19	1646.57
337.40	1794.02
337.61	1865.70
337.82	1683.43
338.04	1703.91
338.25	1662.95
338.46	1761.25
338.67	1673.19
338.88	1624.04
339.09	1642.47
339.31	1601.51
339.52	1656.81
339.73	1648.61
339.94	1626.09
340.15	1691.62
340.36	1697.77
340.58	1720.29
340.79	1603.56
341.00	1742.82
341.21	1665.00
341.42	1830.88
341.63	1632.23
341.85	1763.30
342.06	1671.14
342.27	1689.57
342.48	1710.05
342.69	1558.50
342.90	1755.11
343.12	1648.61
343.33	1718.25
343.54	1791.97
343.75	1724.39
343.96	1638.38
344.17	1691.62
344.38	1671.14
344.60	1652.71
344.81	1656.81
345.02	1667.05
345.23	1746.92
345.44	1789.92
345.65	1765.35
345.86	1781.73
346.07	1722.34
346.29	1691.62
346.50	1742.82
346.71	1689.57
346.92	1806.31
347.13	1949.67
347.34	1591.27
347.55	1673.19
347.76	1703.91
347.98	1589.22
348.19	1636.33
348.40	1771.49
348.61	1685.48
348.82	1818.60
349.03	1773.54
349.24	1624.04
349.45	1773.54
349.66	1615.85
349.88	1763.30
350.09	1705.96
350.30	1789.92
350.51	1771.49
350.72	1759.21
350.93	1642.47
351.14	1681.38
351.35	1810.40
351.56	1726.44
351.77	1595.37
351.99	1726.44
352.20	1816.55
352.41	1703.91
352.62	1644.52
352.83	1732.58
353.04	1650.66
353.25	1675.24
353.46	1738.73
353.67	1812.45
353.88	1595.37
354.09	1716.20
354.30	1673.19
354.52	1748.97
354.73	1708.01
354.94	1705.96
355.15	1716.20
355.36	1759.21
355.57	1597.42
355.78	1742.82
355.99	1677.29
356.20	1703.91
356.41	1765.35
356.62	1716.20
356.83	1746.92
357.04	1808.36
357.25	1656.81
357.46	1667.05
357.68	1619.94
357.89	1687.53
358.10	1728.49
358.31	1605.61
358.52	1640.42
358.73	1597.42
358.94	1701.86
359.15	1677.29
359.36	1771.49
359.57	1658.85
359.78	1669.09
359.99	1699.81
360.20	1681.38
360.41	1695.72
360.62	1789.92
360.83	1673.19
361.04	1773.54
361.25	1681.38
361.46	1871.84
361.67	1621.99
361.88	1759.21
362.09	1789.92
362.30	1681.38
362.51	1710.05
362.72	1640.42
362.93	1726.44
363.14	1755.11
363.35	1699.81
363.56	1691.62
363.78	1757.16
363.99	1699.81
364.20	1673.19
364.41	1705.96
364.62	1794.02
364.83	1705.96
365.04	1673.19
365.25	1720.29
365.46	1732.58
365.67	1583.08
365.88	1574.89
366.09	1646.57
366.30	1744.87
366.51	1720.29
366.72	1591.27
366.93	1720.29
367.14	1667.05
367.35	1806.31
367.56	1699.81
367.77	1779.68
367.98	1720.29
368.18	1701.86
368.39	1703.91
368.60	1634.28
368.81	1732.58
369.02	1763.30
369.23	1689.57
369.44	1624.04
369.65	1736.68
369.86	1697.77
370.07	1746.92
370.28	1697.77
370.49	1673.19
370.70	1708.01
370.91	1609.70
371.12	1673.19
371.33	1771.49
371.54	1691.62
371.75	1828.84
371.96	1527.78
372.17	1701.86
372.38	1693.67
372.59	1775.59
372.80	1660.90
373.01	1671.14
373.22	1705.96
373.43	1767.40
373.64	1673.19
373.85	1765.35
374.06	1865.70
374.26	1693.67
374.47	1755.11
374.68	1755.11
374.89	1716.20
375.10	1701.86
375.31	1861.60
375.52	1734.63
375.73	1779.68
375.94	1630.18
376.15	1783.78
376.36	1705.96
376.57	1654.76
376.78	1679.33
376.99	1638.38
377.20	1740.77
377.40	1722.34
377.61	1732.58
377.82	1613.80
378.03	1759.21
378.24	1742.82
378.45	1701.86
378.66	1722.34
378.87	1609.70
379.08	1603.56
379.29	1691.62
379.50	1640.42
379.71	1656.81
379.91	1783.78
380.12	1695.72
380.33	1675.24
380.54	1665.00
380.75	1708.01
380.96	1759.21
381.17	1802.21
381.38	1787.88
381.59	1695.72
381.80	1736.68
382.00	1871.84
382.21	1720.29
382.42	1806.31
382.63	1822.69
382.84	1765.35
383.05	1740.77
383.26	1775.59
383.47	1773.54
383.68	1761.25
383.88	1714.15
384.09	1701.86
384.30	1767.40
384.51	1773.54
384.72	1714.15
384.93	1603.56
385.14	1681.38
385.35	1773.54
385.55	1576.94
385.76	1740.77
385.97	1710.05
386.18	1640.42
386.39	1691.62
386.60	1746.92
386.81	1687.53
387.02	1685.48
387.22	1652.71
387.43	1802.21
387.64	1785.83
387.85	1900.52
388.06	2160.61
388.27	4159.42
388.48	6829.98
388.68	8275.84
388.89	9561.97
389.10	9834.35
389.31	8695.68
389.52	7557.00
389.73	6875.03
389.93	6268.83
390.14	5875.62
390.35	5193.65
390.56	4530.11
390.77	3692.49
390.98	2975.70
391.18	2559.96
391.39	2164.70
391.60	1818.60
391.81	1886.18
392.02	1763.30
392.23	1828.84
392.43	1744.87
392.64	1785.83
392.85	1732.58
393.06	1837.03
393.27	1767.40
393.47	1658.85
393.68	1679.33
393.89	1652.71
394.10	1742.82
394.31	1757.16
394.52	1705.96
394.72	1658.85
394.93	1763.30
395.14	1574.89
395.35	1761.25
395.56	1687.53
395.76	1716.20
395.97	1855.46
396.18	1787.88
396.39	1884.13
396.60	2002.91
396.80	1931.23
397.01	1828.84
397.22	1882.08
397.43	1832.93
397.64	1742.82
397.84	1796.07
398.05	1867.75
398.26	1740.77
398.47	1820.64
398.67	1769.44
398.88	1697.77
399.09	1697.77
399.30	1691.62
399.51	1660.90
399.71	1656.81
399.92	1765.35
400.13	1677.29
400.34	1765.35
400.54	1669.09
400.75	1785.83
400.96	1748.97
401.17	1828.84
401.37	1716.20
401.58	1773.54
401.79	1738.73
402.00	1853.41
402.21	1951.71
402.41	1953.76
402.62	1972.19
402.83	1990.63
403.04	1984.48
403.24	1996.77
403.45	1853.41
403.66	1914.85
403.87	1896.42
404.07	1908.71
404.28	1892.32
404.49	1931.23
404.70	1777.64
404.90	1841.12
405.11	1701.86
405.32	1734.63
405.52	1628.14
405.73	1646.57
405.94	1748.97
406.15	1718.25
406.35	1785.83
406.56	1738.73
406.77	1757.16
406.98	1769.44
407.18	1691.62
407.39	1851.36
407.60	1681.38
407.80	1748.97
408.01	1658.85
408.22	1740.77
408.43	1673.19
408.63	1755.11
408.84	1769.44
409.05	1796.07
409.25	1732.58
409.46	1677.29
409.67	1667.05
409.88	1773.54
410.08	1693.67
410.29	1689.57
410.50	1689.57
410.70	1714.15
410.91	1617.90
411.12	1642.47
411.32	1710.05
411.53	1656.81
411.74	1765.35
411.95	1734.63
412.15	1740.77
412.36	1783.78
412.57	1652.71
412.77	1808.36
412.98	1683.43
413.19	1765.35
413.39	1736.68
413.60	1771.49
413.81	1783.78
414.01	1683.43
414.22	1767.40
414.43	1787.88
414.63	1708.01
414.84	1748.97
415.05	1636.33
415.25	1640.42
415.46	1814.50
415.67	1656.81
415.87	1710.05
416.08	1779.68
416.29	1654.76
416.49	1744.87
416.70	1716.20
416.91	1703.91
417.11	1640.42
417.32	1730.53
417.53	1728.49
417.73	1720.29
417.94	1746.92
418.15	1738.73
418.35	1728.49
418.56	1726.44
418.77	1912.80
418.97	1708.01
419.18	1755.11
419.38	1564.65
419.59	1681.38
419.80	1888.23
420.00	1705.96
420.21	1712.10
420.42	1716.20
420.62	1720.29
420.83	1712.10
421.04	1736.68
421.24	1667.05
421.45	1714.15
421.65	1773.54
421.86	1607.66
422.07	1667.05
422.27	1677.29
422.48	1720.29
422.69	1681.38
422.89	1718.25
423.10	1720.29
423.30	1654.76
423.51	1695.72
423.72	1673.19
423.92	1728.49
424.13	1603.56
424.33	1736.68
424.54	1779.68
424.75	1705.96
424.95	1810.40
425.16	1755.11
425.36	1738.73
425.57	1595.37
425.78	1689.57
425.98	1693.67
426.19	1703.91
426.39	1652.71
426.60	1705.96
426.81	1828.84
427.01	1669.09
427.22	1566.70
427.42	1605.61
427.63	1642.47
427.83	1814.50
428.04	1744.87
428.25	1814.50
428.45	1798.12
428.66	1738.73
428.86	1656.81
429.07	1736.68
429.28	1785.83
429.48	1708.01
429.69	1648.61
429.89	1687.53
430.10	1677.29
430.30	1724.39
430.51	1775.59
430.71	1703.91
430.92	1738.73
431.13	1652.71
431.33	1791.97
431.54	1765.35
431.74	1849.32
431.95	1830.88
432.15	1656.81
432.36	1767.40
432.56	1746.92
432.77	1779.68
432.98	1820.64
433.18	1699.81
433.39	1722.34
433.59	1691.62
433.80	1775.59
434.00	1843.17
434.21	1722.34
434.41	1705.96
434.62	1783.78
434.82	1671.14
435.03	1609.70
435.23	1730.53
435.44	1628.14
435.64	1757.16
435.85	1767.40
436.06	1748.97
436.26	1779.68
436.47	1710.05
436.67	1621.99
436.88	1695.72
437.08	1718.25
437.29	1755.11
437.49	1753.06
437.70	1787.88
437.90	1771.49
438.11	1771.49
438.31	1828.84
438.52	1847.27
438.72	1773.54
438.93	1880.04
439.13	1847.27
439.34	1783.78
439.54	1767.40
439.75	1888.23
439.95	1769.44
440.16	1642.47
440.36	1730.53
440.57	1812.45
440.77	1771.49
440.98	1712.10
441.18	1839.08
441.39	1624.04
441.59	1601.51
441.80	1814.50
442.00	1669.09
442.21	1814.50
442.41	1697.77
442.62	1748.97
442.82	1681.38
443.02	1738.73
443.23	1796.07
443.43	1667.05
443.64	1740.77
443.84	1671.14
444.05	1796.07
444.25	1714.15
444.46	1732.58
444.66	1701.86
444.87	1787.88
445.07	1695.72
445.28	1732.58
445.48	1800.16
445.69	1800.16
445.89	1882.08
446.09	1837.03
446.30	2060.26
446.50	2658.26
446.71	3698.63
446.91	4288.45
447.12	4685.75
447.32	4853.69
447.53	4474.81
447.73	3925.96
447.93	3528.65
448.14	3313.61
448.34	3139.54
448.55	2967.51
448.75	2844.63
448.96	2764.76
449.16	2389.98
449.36	2228.19
449.57	2041.82
449.77	1877.99
449.98	1787.88
450.18	1869.80
450.39	1791.97
450.59	1691.62
450.79	1708.01
451.00	1710.05
451.20	1744.87
451.41	1724.39
451.61	1718.25
451.81	1740.77
452.02	1771.49
452.22	1667.05
452.43	1681.38
452.63	1658.85
