SpectraSuite Data File
++++++++++++++++++++++++++++++++++++
Date: Mon Jun 06 17:23:37 CEST 2016
User: root
Dark Spectrum Present: No
Reference Spectrum Present: No
Number of Sampled Component Spectra: 1
Spectrometers: USB4C02835
Integration Time (usec): 100000 (USB4C02835)
Spectra Averaged: 1 (USB4C02835)
Boxcar Smoothing: 0 (USB4C02835)
Correct for Electrical Dark: No (USB4C02835)
Strobe/Lamp Enabled: No (USB4C02835)
Correct for Detector Non-linearity: No (USB4C02835)
Correct for Stray Light: No (USB4C02835)
Number of Pixels in Processed Spectrum: 3648
>>>>>Begin Processed Spectral Data<<<<<
177.47	1445.87
177.69	1445.87
177.91	1445.87
178.13	1488.87
178.36	1484.78
178.58	1667.05
178.80	1714.15
179.02	1638.38
179.24	1736.68
179.46	1656.81
179.68	1751.01
179.90	1746.92
180.13	1732.58
180.35	1628.14
180.57	1730.53
180.79	1769.44
181.01	1642.47
181.23	1769.44
181.45	1687.53
181.67	1732.58
181.90	1757.16
182.12	1681.38
182.34	1683.43
182.56	1757.16
182.78	1714.15
183.00	1644.52
183.22	1771.49
183.44	1595.37
183.66	1849.32
183.89	1785.83
184.11	1804.26
184.33	1693.67
184.55	1732.58
184.77	1800.16
184.99	1708.01
185.21	1691.62
185.43	1863.65
185.65	1689.57
185.87	1746.92
186.10	1927.14
186.32	1880.04
186.54	1681.38
186.76	1736.68
186.98	1765.35
187.20	1708.01
187.42	1660.90
187.64	1697.77
187.86	1716.20
188.08	1705.96
188.30	1691.62
188.52	1701.86
188.75	1761.25
188.97	1796.07
189.19	1677.29
189.41	1736.68
189.63	1742.82
189.85	1738.73
190.07	1662.95
190.29	1621.99
190.51	1771.49
190.73	1656.81
190.95	1751.01
191.17	1716.20
191.39	1607.66
191.61	1689.57
191.84	1703.91
192.06	1695.72
192.28	1667.05
192.50	1957.86
192.72	1791.97
192.94	1652.71
193.16	1732.58
193.38	1638.38
193.60	1654.76
193.82	1687.53
194.04	1787.88
194.26	1714.15
194.48	1691.62
194.70	1660.90
194.92	1708.01
195.14	1673.19
195.36	1648.61
195.58	1746.92
195.80	1720.29
196.02	1624.04
196.24	1699.81
196.46	1738.73
196.69	1665.00
196.91	1781.73
197.13	1667.05
197.35	1609.70
197.57	1812.45
197.79	1730.53
198.01	1771.49
198.23	1791.97
198.45	1787.88
198.67	1681.38
198.89	1777.64
199.11	1765.35
199.33	1697.77
199.55	1581.03
199.77	1748.97
199.99	1742.82
200.21	1712.10
200.43	1662.95
200.65	1671.14
200.87	1640.42
201.09	1718.25
201.31	1761.25
201.53	1699.81
201.75	1689.57
201.97	1748.97
202.19	1710.05
202.41	1738.73
202.63	1871.84
202.85	1734.63
203.07	1771.49
203.29	1726.44
203.51	1687.53
203.73	1601.51
203.95	1873.89
204.17	1796.07
204.39	1734.63
204.61	1683.43
204.83	1716.20
205.05	1818.60
205.27	1804.26
205.49	1845.22
205.71	1738.73
205.93	1654.76
206.15	1677.29
206.37	1677.29
206.59	1705.96
206.81	1640.42
207.03	1595.37
207.25	1591.27
207.47	1740.77
207.69	1685.48
207.91	1736.68
208.13	1800.16
208.34	1624.04
208.56	1708.01
208.78	1742.82
209.00	1673.19
209.22	1679.33
209.44	1697.77
209.66	1716.20
209.88	1765.35
210.10	1699.81
210.32	1732.58
210.54	1832.93
210.76	1705.96
210.98	1755.11
211.20	1583.08
211.42	1695.72
211.64	1871.84
211.86	1716.20
212.08	1740.77
212.30	1761.25
212.52	1671.14
212.74	1787.88
212.96	1732.58
213.17	1738.73
213.39	1763.30
213.61	1890.28
213.83	1714.15
214.05	1626.09
214.27	1755.11
214.49	1628.14
214.71	1640.42
214.93	1849.32
215.15	1697.77
215.37	1820.64
215.59	1658.85
215.81	1757.16
216.03	1806.31
216.24	1763.30
216.46	1624.04
216.68	1665.00
216.90	1843.17
217.12	1755.11
217.34	1718.25
217.56	1742.82
217.78	1769.44
218.00	1755.11
218.22	1718.25
218.44	1730.53
218.66	1669.09
218.87	1822.69
219.09	1652.71
219.31	1763.30
219.53	1691.62
219.75	1665.00
219.97	1740.77
220.19	1714.15
220.41	1724.39
220.63	1849.32
220.85	1751.01
221.06	1734.63
221.28	1773.54
221.50	1648.61
221.72	1675.24
221.94	1673.19
222.16	1648.61
222.38	1779.68
222.60	1763.30
222.82	1667.05
223.03	1759.21
223.25	1679.33
223.47	1738.73
223.69	1865.70
223.91	1740.77
224.13	1708.01
224.35	1662.95
224.57	1736.68
224.78	1726.44
225.00	1687.53
225.22	1667.05
225.44	1708.01
225.66	1714.15
225.88	1746.92
226.10	1761.25
226.32	1730.53
226.53	1839.08
226.75	1648.61
226.97	1712.10
227.19	1652.71
227.41	1583.08
227.63	1697.77
227.85	1611.75
228.06	1761.25
228.28	1771.49
228.50	1722.34
228.72	1660.90
228.94	1683.43
229.16	1591.27
229.37	1667.05
229.59	1611.75
229.81	1791.97
230.03	1701.86
230.25	1634.28
230.47	1644.52
230.69	1671.14
230.90	1716.20
231.12	1679.33
231.34	1769.44
231.56	1791.97
231.78	1644.52
232.00	1677.29
232.21	1830.88
232.43	1730.53
232.65	1609.70
232.87	1816.55
233.09	1650.66
233.30	1650.66
233.52	1742.82
233.74	1714.15
233.96	1613.80
234.18	1748.97
234.40	1667.05
234.61	1871.84
234.83	1667.05
235.05	1591.27
235.27	1812.45
235.49	1785.83
235.70	1736.68
235.92	1822.69
236.14	1699.81
236.36	1824.74
236.58	1671.14
236.79	1697.77
237.01	1669.09
237.23	1669.09
237.45	1787.88
237.67	1613.80
237.88	1714.15
238.10	1781.73
238.32	1630.18
238.54	1710.05
238.76	1718.25
238.97	1628.14
239.19	1685.48
239.41	1744.87
239.63	1884.13
239.85	1697.77
240.06	1718.25
240.28	1685.48
240.50	1755.11
240.72	1714.15
240.93	1728.49
241.15	1812.45
241.37	1689.57
241.59	1814.50
241.81	1660.90
242.02	1705.96
242.24	1753.06
242.46	1773.54
242.68	1708.01
242.89	1722.34
243.11	1724.39
243.33	1742.82
243.55	1705.96
243.76	1746.92
243.98	1654.76
244.20	1785.83
244.42	1746.92
244.64	1632.23
244.85	1660.90
245.07	1671.14
245.29	1732.58
245.51	1658.85
245.72	1738.73
245.94	1759.21
246.16	1777.64
246.38	1802.21
246.59	1685.48
246.81	1646.57
247.03	1644.52
247.24	1687.53
247.46	1665.00
247.68	1691.62
247.90	1626.09
248.11	1695.72
248.33	1763.30
248.55	1703.91
248.77	1775.59
248.98	1769.44
249.20	1728.49
249.42	1652.71
249.64	1791.97
249.85	1710.05
250.07	1693.67
250.29	1769.44
250.50	1697.77
250.72	1660.90
250.94	1701.86
251.16	1914.85
251.37	1820.64
251.59	1765.35
251.81	1720.29
252.02	1804.26
252.24	1730.53
252.46	1783.78
252.68	1699.81
252.89	1691.62
253.11	1640.42
253.33	1845.22
253.54	1742.82
253.76	1632.23
253.98	1697.77
254.20	1675.24
254.41	1646.57
254.63	1671.14
254.85	1679.33
255.06	1681.38
255.28	1773.54
255.50	1730.53
255.71	1662.95
255.93	1591.27
256.15	1667.05
256.36	1822.69
256.58	1669.09
256.80	1822.69
257.02	1695.72
257.23	1626.09
257.45	1738.73
257.67	1757.16
257.88	1611.75
258.10	1718.25
258.32	1771.49
258.53	1732.58
258.75	1763.30
258.97	1642.47
259.18	1718.25
259.40	1759.21
259.62	1818.60
259.83	1791.97
260.05	1830.88
260.27	1990.63
260.48	1746.92
260.70	1665.00
260.92	1734.63
261.13	1759.21
261.35	1671.14
261.57	1738.73
261.78	1630.18
262.00	1615.85
262.22	1705.96
262.43	1683.43
262.65	1744.87
262.86	1769.44
263.08	1859.56
263.30	1728.49
263.51	1566.70
263.73	1685.48
263.95	1783.78
264.16	1576.94
264.38	1669.09
264.60	1746.92
264.81	1681.38
265.03	1744.87
265.25	1753.06
265.46	1765.35
265.68	1796.07
265.89	1769.44
266.11	1630.18
266.33	1841.12
266.54	1816.55
266.76	1751.01
266.98	1744.87
267.19	1806.31
267.41	1779.68
267.62	1714.15
267.84	1705.96
268.06	1742.82
268.27	1701.86
268.49	1761.25
268.70	1796.07
268.92	1779.68
269.14	1675.24
269.35	1667.05
269.57	1673.19
269.79	1703.91
270.00	1683.43
270.22	1845.22
270.43	1615.85
270.65	1615.85
270.87	1748.97
271.08	1720.29
271.30	1791.97
271.51	1730.53
271.73	1685.48
271.95	1783.78
272.16	1691.62
272.38	1806.31
272.59	1665.00
272.81	1716.20
273.02	1757.16
273.24	1675.24
273.46	1751.01
273.67	1587.18
273.89	1638.38
274.10	1658.85
274.32	1783.78
274.54	1660.90
274.75	1660.90
274.97	1695.72
275.18	1755.11
275.40	1748.97
275.61	1701.86
275.83	1775.59
276.05	1642.47
276.26	1738.73
276.48	1794.02
276.69	1583.08
276.91	1656.81
277.12	1761.25
277.34	1742.82
277.55	1746.92
277.77	1683.43
277.99	1708.01
278.20	1718.25
278.42	1712.10
278.63	1636.33
278.85	1662.95
279.06	1615.85
279.28	1804.26
279.49	1806.31
279.71	1769.44
279.93	1699.81
280.14	1689.57
280.36	1753.06
280.57	1763.30
280.79	1744.87
281.00	1689.57
281.22	1662.95
281.43	1775.59
281.65	1669.09
281.86	1683.43
282.08	1701.86
282.29	1910.75
282.51	1652.71
282.73	1628.14
282.94	1648.61
283.16	1746.92
283.37	1781.73
283.59	1746.92
283.80	1724.39
284.02	1644.52
284.23	1695.72
284.45	1781.73
284.66	1662.95
284.88	1718.25
285.09	1755.11
285.31	1757.16
285.52	1781.73
285.74	1681.38
285.95	1753.06
286.17	1808.36
286.38	1791.97
286.60	1695.72
286.81	1671.14
287.03	1689.57
287.24	1660.90
287.46	1761.25
287.67	1748.97
287.89	1865.70
288.10	1626.09
288.32	1720.29
288.53	1841.12
288.75	1734.63
288.96	1724.39
289.18	1646.57
289.39	1699.81
289.61	1757.16
289.82	1865.70
290.04	1865.70
290.25	1630.18
290.47	1667.05
290.68	1728.49
290.90	1730.53
291.11	1691.62
291.33	1771.49
291.54	1640.42
291.76	1710.05
291.97	1705.96
292.18	1740.77
292.40	1652.71
292.61	1652.71
292.83	1837.03
293.04	1714.15
293.26	1679.33
293.47	1705.96
293.69	1658.85
293.90	1771.49
294.12	1787.88
294.33	1658.85
294.55	1802.21
294.76	1798.12
294.97	1861.60
295.19	1812.45
295.40	1681.38
295.62	1677.29
295.83	1820.64
296.05	1667.05
296.26	1798.12
296.48	1669.09
296.69	1714.15
296.90	1683.43
297.12	1724.39
297.33	1714.15
297.55	1808.36
297.76	1681.38
297.98	1718.25
298.19	1736.68
298.41	1708.01
298.62	1759.21
298.83	1697.77
299.05	1732.58
299.26	1642.47
299.48	1687.53
299.69	1660.90
299.90	1712.10
300.12	1626.09
300.33	1761.25
300.55	1660.90
300.76	1759.21
300.98	1628.14
301.19	1751.01
301.40	1675.24
301.62	1656.81
301.83	1728.49
302.05	1759.21
302.26	1759.21
302.47	1755.11
302.69	1636.33
302.90	1830.88
303.12	1589.22
303.33	1761.25
303.54	1785.83
303.76	1636.33
303.97	1685.48
304.19	1773.54
304.40	1662.95
304.61	1708.01
304.83	1814.50
305.04	1814.50
305.26	1757.16
305.47	1621.99
305.68	1755.11
305.90	1681.38
306.11	1738.73
306.33	1765.35
306.54	1740.77
306.75	1624.04
306.97	1591.27
307.18	1693.67
307.39	1691.62
307.61	1748.97
307.82	1693.67
308.04	1738.73
308.25	1683.43
308.46	1705.96
308.68	1689.57
308.89	1763.30
309.10	1748.97
309.32	1742.82
309.53	1755.11
309.74	1781.73
309.96	1724.39
310.17	1837.03
310.39	1714.15
310.60	1726.44
310.81	1712.10
311.03	1658.85
311.24	1701.86
311.45	1722.34
311.67	1826.79
311.88	1722.34
312.09	1656.81
312.31	1667.05
312.52	1667.05
312.73	1773.54
312.95	1550.31
313.16	1652.71
313.37	1814.50
313.59	1658.85
313.80	1644.52
314.01	1861.60
314.23	1695.72
314.44	1710.05
314.65	1687.53
314.87	1695.72
315.08	1656.81
315.29	1669.09
315.51	1642.47
315.72	1599.46
315.93	1755.11
316.15	1802.21
316.36	1652.71
316.57	1773.54
316.79	1763.30
317.00	1624.04
317.21	1748.97
317.43	1705.96
317.64	1742.82
317.85	1665.00
318.07	1673.19
318.28	1687.53
318.49	1796.07
318.70	1937.38
318.92	1873.89
319.13	1900.52
319.34	1890.28
319.56	1808.36
319.77	1820.64
319.98	1783.78
320.20	1853.41
320.41	1738.73
320.62	1726.44
320.83	1738.73
321.05	1845.22
321.26	1816.55
321.47	1779.68
321.69	1755.11
321.90	1656.81
322.11	1675.24
322.32	1724.39
322.54	1767.40
322.75	1710.05
322.96	1857.51
323.18	1628.14
323.39	1587.18
323.60	1693.67
323.81	1722.34
324.03	1669.09
324.24	1734.63
324.45	1708.01
324.66	1644.52
324.88	1798.12
325.09	1824.74
325.30	1650.66
325.52	1757.16
325.73	1718.25
325.94	1632.23
326.15	1609.70
326.37	1665.00
326.58	1777.64
326.79	1816.55
327.00	1656.81
327.22	1753.06
327.43	1632.23
327.64	1599.46
327.85	1716.20
328.07	1667.05
328.28	1869.80
328.49	1626.09
328.70	1755.11
328.92	1791.97
329.13	1734.63
329.34	1738.73
329.55	1820.64
329.76	1812.45
329.98	1701.86
330.19	1740.77
330.40	1722.34
330.61	1730.53
330.83	1802.21
331.04	1681.38
331.25	1742.82
331.46	1654.76
331.68	1693.67
331.89	1834.98
332.10	1689.57
332.31	1691.62
332.52	1697.77
332.74	1771.49
332.95	1701.86
333.16	1738.73
333.37	1738.73
333.58	1675.24
333.80	1744.87
334.01	1621.99
334.22	1732.58
334.43	1669.09
334.64	1671.14
334.86	1650.66
335.07	1693.67
335.28	1728.49
335.49	1673.19
335.70	1705.96
335.92	1757.16
336.13	1882.08
336.34	1720.29
336.55	1718.25
336.76	1691.62
336.98	1636.33
337.19	1699.81
337.40	1794.02
337.61	1845.22
337.82	1734.63
338.04	1791.97
338.25	1603.56
338.46	1712.10
338.67	1673.19
338.88	1699.81
339.09	1617.90
339.31	1660.90
339.52	1683.43
339.73	1714.15
339.94	1781.73
340.15	1669.09
340.36	1679.33
340.58	1714.15
340.79	1667.05
341.00	1763.30
341.21	1585.13
341.42	1841.12
341.63	1726.44
341.85	1753.06
342.06	1710.05
342.27	1636.33
342.48	1740.77
342.69	1679.33
342.90	1755.11
343.12	1822.69
343.33	1679.33
343.54	1773.54
343.75	1806.31
343.96	1744.87
344.17	1724.39
344.38	1642.47
344.60	1642.47
344.81	1671.14
345.02	1703.91
345.23	1726.44
345.44	1808.36
345.65	1787.88
345.86	1714.15
346.07	1656.81
346.29	1665.00
346.50	1779.68
346.71	1771.49
346.92	1888.23
347.13	1914.85
347.34	1648.61
347.55	1691.62
347.76	1769.44
347.98	1595.37
348.19	1753.06
348.40	1746.92
348.61	1726.44
348.82	1818.60
349.03	1753.06
349.24	1697.77
349.45	1845.22
349.66	1519.59
349.88	1744.87
350.09	1691.62
350.30	1753.06
350.51	1812.45
350.72	1701.86
350.93	1771.49
351.14	1636.33
351.35	1751.01
351.56	1738.73
351.77	1716.20
351.99	1744.87
352.20	1771.49
352.41	1771.49
352.62	1619.94
352.83	1695.72
353.04	1697.77
353.25	1665.00
353.46	1761.25
353.67	1824.74
353.88	1691.62
354.09	1761.25
354.30	1734.63
354.52	1726.44
354.73	1730.53
354.94	1675.24
355.15	1769.44
355.36	1855.46
355.57	1712.10
355.78	1753.06
355.99	1732.58
356.20	1570.79
356.41	1804.26
356.62	1769.44
356.83	1736.68
357.04	1830.88
357.25	1603.56
357.46	1697.77
357.68	1591.27
357.89	1628.14
358.10	1720.29
358.31	1648.61
358.52	1701.86
358.73	1581.03
358.94	1632.23
359.15	1734.63
359.36	1738.73
359.57	1660.90
359.78	1701.86
359.99	1751.01
360.20	1673.19
360.41	1658.85
360.62	1720.29
360.83	1705.96
361.04	1656.81
361.25	1726.44
361.46	1818.60
361.67	1820.64
361.88	1746.92
362.09	1769.44
362.30	1722.34
362.51	1624.04
362.72	1783.78
362.93	1761.25
363.14	1785.83
363.35	1732.58
363.56	1615.85
363.78	1734.63
363.99	1746.92
364.20	1673.19
364.41	1699.81
364.62	1716.20
364.83	1658.85
365.04	1748.97
365.25	1691.62
365.46	1851.36
365.67	1669.09
365.88	1568.74
366.09	1693.67
366.30	1636.33
366.51	1716.20
366.72	1615.85
366.93	1816.55
367.14	1705.96
367.35	1757.16
367.56	1722.34
367.77	1751.01
367.98	1677.29
368.18	1687.53
368.39	1773.54
368.60	1685.48
368.81	1785.83
369.02	1767.40
369.23	1654.76
369.44	1497.07
369.65	1740.77
369.86	1710.05
370.07	1781.73
370.28	1646.57
370.49	1800.16
370.70	1705.96
370.91	1681.38
371.12	1642.47
371.33	1763.30
371.54	1673.19
371.75	1828.84
371.96	1660.90
372.17	1710.05
372.38	1634.28
372.59	1738.73
372.80	1701.86
373.01	1691.62
373.22	1736.68
373.43	1695.72
373.64	1613.80
373.85	1783.78
374.06	1781.73
374.26	1726.44
374.47	1710.05
374.68	1769.44
374.89	1718.25
375.10	1755.11
375.31	1796.07
375.52	1718.25
375.73	1802.21
375.94	1691.62
376.15	1822.69
376.36	1638.38
376.57	1705.96
376.78	1673.19
376.99	1736.68
377.20	1767.40
377.40	1755.11
377.61	1746.92
377.82	1685.48
378.03	1767.40
378.24	1759.21
378.45	1718.25
378.66	1738.73
378.87	1656.81
379.08	1587.18
379.29	1746.92
379.50	1705.96
379.71	1701.86
379.91	1763.30
380.12	1656.81
380.33	1746.92
380.54	1644.52
380.75	1697.77
380.96	1701.86
381.17	1794.02
381.38	1732.58
381.59	1769.44
381.80	1644.52
382.00	1861.60
382.21	1775.59
382.42	1894.37
382.63	1894.37
382.84	1812.45
383.05	1765.35
383.26	1771.49
383.47	1730.53
383.68	1703.91
383.88	1785.83
384.09	1697.77
384.30	1806.31
384.51	1746.92
384.72	1693.67
384.93	1597.42
385.14	1722.34
385.35	1814.50
385.55	1687.53
385.76	1759.21
385.97	1710.05
386.18	1656.81
386.39	1683.43
386.60	1714.15
386.81	1675.24
387.02	1683.43
387.22	1685.48
387.43	1798.12
387.64	1808.36
387.85	1894.37
388.06	2222.05
388.27	4304.83
388.48	6782.87
388.68	8365.95
388.89	9480.05
389.10	9846.63
389.31	8824.70
389.52	7563.15
389.73	6588.32
389.93	6217.63
390.14	5965.73
390.35	5126.07
390.56	4685.75
390.77	3794.89
390.98	3059.67
391.18	2625.50
391.39	2127.84
391.60	1873.89
391.81	1824.74
392.02	1824.74
392.23	1896.42
392.43	1800.16
392.64	1816.55
392.85	1697.77
393.06	1830.88
393.27	1705.96
393.47	1740.77
393.68	1767.40
393.89	1710.05
394.10	1806.31
394.31	1716.20
394.52	1636.33
394.72	1783.78
394.93	1773.54
395.14	1621.99
395.35	1738.73
395.56	1755.11
395.76	1751.01
395.97	1843.17
396.18	1841.12
396.39	1853.41
396.60	2047.97
396.80	1941.47
397.01	1816.55
397.22	1779.68
397.43	1824.74
397.64	1798.12
397.84	1779.68
398.05	1888.23
398.26	1771.49
398.47	1798.12
398.67	1773.54
398.88	1703.91
399.09	1777.64
399.30	1681.38
399.51	1800.16
399.71	1746.92
399.92	1734.63
400.13	1767.40
400.34	1712.10
400.54	1714.15
400.75	1730.53
400.96	1701.86
401.17	1822.69
401.37	1738.73
401.58	1773.54
401.79	1812.45
402.00	1902.56
402.21	1978.34
402.41	1861.60
402.62	2025.44
402.83	2000.87
403.04	2033.63
403.24	2179.04
403.45	1880.04
403.66	1939.43
403.87	1920.99
404.07	1898.47
404.28	1818.60
404.49	1839.08
404.70	1773.54
404.90	1751.01
405.11	1767.40
405.32	1755.11
405.52	1759.21
405.73	1654.76
405.94	1703.91
406.15	1705.96
406.35	1740.77
406.56	1783.78
406.77	1671.14
406.98	1693.67
407.18	1679.33
407.39	1767.40
407.60	1724.39
407.80	1785.83
408.01	1771.49
408.22	1791.97
408.43	1644.52
408.63	1738.73
408.84	1769.44
409.05	1763.30
409.25	1701.86
409.46	1708.01
409.67	1677.29
409.88	1757.16
410.08	1722.34
410.29	1748.97
410.50	1763.30
410.70	1771.49
410.91	1644.52
411.12	1714.15
411.32	1726.44
411.53	1669.09
411.74	1818.60
411.95	1761.25
412.15	1689.57
412.36	1806.31
412.57	1767.40
412.77	1830.88
412.98	1724.39
413.19	1759.21
413.39	1693.67
413.60	1812.45
413.81	1794.02
414.01	1689.57
414.22	1742.82
414.43	1771.49
414.63	1720.29
414.84	1771.49
415.05	1732.58
415.25	1683.43
415.46	1794.02
415.67	1677.29
415.87	1789.92
416.08	1720.29
416.29	1671.14
416.49	1802.21
416.70	1742.82
416.91	1660.90
417.11	1714.15
417.32	1755.11
417.53	1730.53
417.73	1742.82
417.94	1718.25
418.15	1691.62
418.35	1740.77
418.56	1660.90
418.77	1828.84
418.97	1650.66
419.18	1748.97
419.38	1648.61
419.59	1662.95
419.80	1796.07
420.00	1744.87
420.21	1742.82
420.42	1839.08
420.62	1779.68
420.83	1673.19
421.04	1730.53
421.24	1703.91
421.45	1746.92
421.65	1728.49
421.86	1656.81
422.07	1652.71
422.27	1683.43
422.48	1669.09
422.69	1726.44
422.89	1730.53
423.10	1783.78
423.30	1675.24
423.51	1736.68
423.72	1677.29
423.92	1748.97
424.13	1636.33
424.33	1748.97
424.54	1708.01
424.75	1695.72
424.95	1791.97
425.16	1755.11
425.36	1701.86
425.57	1837.03
425.78	1779.68
425.98	1804.26
426.19	1689.57
426.39	1648.61
426.60	1771.49
426.81	1857.51
427.01	1765.35
427.22	1691.62
427.42	1607.66
427.63	1697.77
427.83	1695.72
428.04	1820.64
428.25	1877.99
428.45	1812.45
428.66	1814.50
428.86	1806.31
429.07	1773.54
429.28	1714.15
429.48	1746.92
429.69	1726.44
429.89	1718.25
430.10	1599.46
430.30	1789.92
430.51	1718.25
430.71	1632.23
430.92	1732.58
431.13	1693.67
431.33	1753.06
431.54	1759.21
431.74	1718.25
431.95	1851.36
432.15	1697.77
432.36	1730.53
432.56	1757.16
432.77	1759.21
432.98	1849.32
433.18	1730.53
433.39	1699.81
433.59	1665.00
433.80	1783.78
434.00	1853.41
434.21	1714.15
434.41	1611.75
434.62	1929.19
434.82	1671.14
435.03	1599.46
435.23	1734.63
435.44	1726.44
435.64	1722.34
435.85	1757.16
436.06	1771.49
436.26	1820.64
436.47	1695.72
436.67	1734.63
436.88	1761.25
437.08	1767.40
437.29	1791.97
437.49	1757.16
437.70	1814.50
437.90	1751.01
438.11	1816.55
438.31	1906.66
438.52	1882.08
438.72	1832.93
438.93	1935.33
439.13	1708.01
439.34	1841.12
439.54	1732.58
439.75	1871.84
439.95	1771.49
440.16	1705.96
440.36	1830.88
440.57	1843.17
440.77	1763.30
440.98	1644.52
441.18	1742.82
441.39	1705.96
441.59	1722.34
441.80	1890.28
442.00	1751.01
442.21	1796.07
442.41	1767.40
442.62	1781.73
442.82	1714.15
443.02	1841.12
443.23	1855.46
443.43	1701.86
443.64	1714.15
443.84	1691.62
444.05	1794.02
444.25	1712.10
444.46	1687.53
444.66	1794.02
444.87	1853.41
445.07	1632.23
445.28	1728.49
445.48	1759.21
445.69	1769.44
445.89	1806.31
446.09	1816.55
446.30	2086.88
446.50	2729.94
446.71	3760.07
446.91	4257.73
447.12	4773.82
447.32	4935.60
447.53	4538.30
447.73	3903.43
447.93	3655.62
448.14	3280.85
448.34	3225.55
448.55	2955.22
448.75	2885.59
448.96	2701.27
449.16	2445.27
449.36	2267.10
449.57	2068.45
449.77	1918.95
449.98	1822.69
450.18	1867.75
450.39	1787.88
450.59	1839.08
450.79	1677.29
451.00	1705.96
451.20	1783.78
451.41	1734.63
451.61	1730.53
451.81	1757.16
452.02	1673.19
452.22	1740.77
452.43	1748.97
452.63	1746.92
