SpectraSuite Data File
++++++++++++++++++++++++++++++++++++
Date: Mon Jun 06 16:20:57 CEST 2016
User: root
Dark Spectrum Present: No
Reference Spectrum Present: No
Number of Sampled Component Spectra: 1
Spectrometers: USB4C02835
Integration Time (usec): 100000 (USB4C02835)
Spectra Averaged: 1 (USB4C02835)
Boxcar Smoothing: 0 (USB4C02835)
Correct for Electrical Dark: No (USB4C02835)
Strobe/Lamp Enabled: No (USB4C02835)
Correct for Detector Non-linearity: No (USB4C02835)
Correct for Stray Light: No (USB4C02835)
Number of Pixels in Processed Spectrum: 3648
>>>>>Begin Processed Spectral Data<<<<<
177.47	1441.77
177.69	1441.77
177.91	1441.77
178.13	1435.63
178.36	1427.43
178.58	1615.85
178.80	1712.10
179.02	1646.57
179.24	1671.14
179.46	1740.77
179.68	1763.30
179.90	1624.04
180.13	1681.38
180.35	1650.66
180.57	1708.01
180.79	1769.44
181.01	1705.96
181.23	1691.62
181.45	1787.88
181.67	1712.10
181.90	1724.39
182.12	1724.39
182.34	1619.94
182.56	1681.38
182.78	1755.11
183.00	1738.73
183.22	1722.34
183.44	1671.14
183.66	1861.60
183.89	1753.06
184.11	1712.10
184.33	1736.68
184.55	1783.78
184.77	1652.71
184.99	1724.39
185.21	1710.05
185.43	1880.04
185.65	1751.01
185.87	1779.68
186.10	1796.07
186.32	1839.08
186.54	1720.29
186.76	1812.45
186.98	1742.82
187.20	1683.43
187.42	1669.09
187.64	1726.44
187.86	1693.67
188.08	1796.07
188.30	1824.74
188.52	1656.81
188.75	1841.12
188.97	1703.91
189.19	1656.81
189.41	1705.96
189.63	1730.53
189.85	1722.34
190.07	1662.95
190.29	1613.80
190.51	1716.20
190.73	1685.48
190.95	1773.54
191.17	1665.00
191.39	1658.85
191.61	1724.39
191.84	1710.05
192.06	1789.92
192.28	1613.80
192.50	1871.84
192.72	1693.67
192.94	1689.57
193.16	1722.34
193.38	1783.78
193.60	1705.96
193.82	1730.53
194.04	1779.68
194.26	1689.57
194.48	1744.87
194.70	1665.00
194.92	1718.25
195.14	1738.73
195.36	1716.20
195.58	1753.06
195.80	1730.53
196.02	1679.33
196.24	1703.91
196.46	1714.15
196.69	1701.86
196.91	1773.54
197.13	1712.10
197.35	1757.16
197.57	1861.60
197.79	1767.40
198.01	1705.96
198.23	1736.68
198.45	1800.16
198.67	1673.19
198.89	1740.77
199.11	1740.77
199.33	1650.66
199.55	1560.55
199.77	1673.19
199.99	1714.15
200.21	1615.85
200.43	1679.33
200.65	1613.80
200.87	1630.18
201.09	1662.95
201.31	1722.34
201.53	1781.73
201.75	1777.64
201.97	1783.78
202.19	1757.16
202.41	1708.01
202.63	1763.30
202.85	1783.78
203.07	1771.49
203.29	1683.43
203.51	1617.90
203.73	1722.34
203.95	1900.52
204.17	1734.63
204.39	1683.43
204.61	1658.85
204.83	1691.62
205.05	1646.57
205.27	1794.02
205.49	1873.89
205.71	1701.86
205.93	1642.47
206.15	1652.71
206.37	1757.16
206.59	1642.47
206.81	1675.24
207.03	1648.61
207.25	1630.18
207.47	1740.77
207.69	1640.42
207.91	1726.44
208.13	1820.64
208.34	1710.05
208.56	1677.29
208.78	1701.86
209.00	1603.56
209.22	1648.61
209.44	1708.01
209.66	1665.00
209.88	1662.95
210.10	1693.67
210.32	1660.90
210.54	1798.12
210.76	1677.29
210.98	1800.16
211.20	1611.75
211.42	1773.54
211.64	1824.74
211.86	1687.53
212.08	1689.57
212.30	1765.35
212.52	1726.44
212.74	1796.07
212.96	1628.14
213.17	1738.73
213.39	1761.25
213.61	1855.46
213.83	1787.88
214.05	1656.81
214.27	1751.01
214.49	1636.33
214.71	1646.57
214.93	1742.82
215.15	1693.67
215.37	1763.30
215.59	1640.42
215.81	1755.11
216.03	1718.25
216.24	1656.81
216.46	1695.72
216.68	1718.25
216.90	1804.26
217.12	1755.11
217.34	1765.35
217.56	1722.34
217.78	1804.26
218.00	1740.77
218.22	1775.59
218.44	1726.44
218.66	1712.10
218.87	1726.44
219.09	1703.91
219.31	1744.87
219.53	1781.73
219.75	1671.14
219.97	1650.66
220.19	1753.06
220.41	1660.90
220.63	1818.60
220.85	1775.59
221.06	1708.01
221.28	1845.22
221.50	1755.11
221.72	1681.38
221.94	1746.92
222.16	1710.05
222.38	1761.25
222.60	1798.12
222.82	1701.86
223.03	1765.35
223.25	1648.61
223.47	1796.07
223.69	1785.83
223.91	1748.97
224.13	1716.20
224.35	1665.00
224.57	1763.30
224.78	1701.86
225.00	1665.00
225.22	1703.91
225.44	1718.25
225.66	1736.68
225.88	1710.05
226.10	1695.72
226.32	1755.11
226.53	1757.16
226.75	1710.05
226.97	1710.05
227.19	1755.11
227.41	1591.27
227.63	1742.82
227.85	1642.47
228.06	1714.15
228.28	1693.67
228.50	1757.16
228.72	1669.09
228.94	1705.96
229.16	1671.14
229.37	1679.33
229.59	1734.63
229.81	1781.73
230.03	1703.91
230.25	1687.53
230.47	1703.91
230.69	1644.52
230.90	1738.73
231.12	1650.66
231.34	1763.30
231.56	1800.16
231.78	1662.95
232.00	1730.53
232.21	1691.62
232.43	1695.72
232.65	1552.36
232.87	1703.91
233.09	1624.04
233.30	1726.44
233.52	1800.16
233.74	1755.11
233.96	1779.68
234.18	1748.97
234.40	1746.92
234.61	1861.60
234.83	1695.72
235.05	1636.33
235.27	1757.16
235.49	1804.26
235.70	1642.47
235.92	1783.78
236.14	1783.78
236.36	1882.08
236.58	1624.04
236.79	1701.86
237.01	1716.20
237.23	1755.11
237.45	1804.26
237.67	1673.19
237.88	1701.86
238.10	1802.21
238.32	1673.19
238.54	1677.29
238.76	1699.81
238.97	1669.09
239.19	1689.57
239.41	1708.01
239.63	1705.96
239.85	1724.39
240.06	1683.43
240.28	1718.25
240.50	1791.97
240.72	1728.49
240.93	1703.91
241.15	1875.94
241.37	1744.87
241.59	1824.74
241.81	1718.25
242.02	1660.90
242.24	1757.16
242.46	1740.77
242.68	1673.19
242.89	1708.01
243.11	1755.11
243.33	1564.65
243.55	1718.25
243.76	1708.01
243.98	1705.96
244.20	1730.53
244.42	1746.92
244.64	1773.54
244.85	1691.62
245.07	1644.52
245.29	1712.10
245.51	1726.44
245.72	1675.24
245.94	1789.92
246.16	1673.19
246.38	1757.16
246.59	1603.56
246.81	1701.86
247.03	1677.29
247.24	1654.76
247.46	1753.06
247.68	1814.50
247.90	1742.82
248.11	1710.05
248.33	1787.88
248.55	1642.47
248.77	1691.62
248.98	1761.25
249.20	1701.86
249.42	1667.05
249.64	1824.74
249.85	1697.77
250.07	1685.48
250.29	1751.01
250.50	1796.07
250.72	1689.57
250.94	1730.53
251.16	1865.70
251.37	1718.25
251.59	1742.82
251.81	1705.96
252.02	1753.06
252.24	1691.62
252.46	1755.11
252.68	1671.14
252.89	1710.05
253.11	1611.75
253.33	1748.97
253.54	1820.64
253.76	1642.47
253.98	1708.01
254.20	1708.01
254.41	1652.71
254.63	1748.97
254.85	1730.53
255.06	1671.14
255.28	1767.40
255.50	1624.04
255.71	1726.44
255.93	1578.98
256.15	1589.22
256.36	1783.78
256.58	1595.37
256.80	1732.58
257.02	1626.09
257.23	1671.14
257.45	1695.72
257.67	1779.68
257.88	1648.61
258.10	1765.35
258.32	1810.40
258.53	1773.54
258.75	1839.08
258.97	1599.46
259.18	1642.47
259.40	1746.92
259.62	1818.60
259.83	1724.39
260.05	1800.16
260.27	1947.62
260.48	1787.88
260.70	1644.52
260.92	1714.15
261.13	1726.44
261.35	1693.67
261.57	1742.82
261.78	1697.77
262.00	1621.99
262.22	1779.68
262.43	1722.34
262.65	1662.95
262.86	1740.77
263.08	1845.22
263.30	1775.59
263.51	1581.03
263.73	1703.91
263.95	1724.39
264.16	1705.96
264.38	1658.85
264.60	1837.03
264.81	1705.96
265.03	1796.07
265.25	1710.05
265.46	1763.30
265.68	1796.07
265.89	1726.44
266.11	1599.46
266.33	1787.88
266.54	1767.40
266.76	1705.96
266.98	1738.73
267.19	1785.83
267.41	1695.72
267.62	1689.57
267.84	1640.42
268.06	1681.38
268.27	1720.29
268.49	1783.78
268.70	1796.07
268.92	1755.11
269.14	1681.38
269.35	1681.38
269.57	1697.77
269.79	1718.25
270.00	1648.61
270.22	1830.88
270.43	1667.05
270.65	1550.31
270.87	1759.21
271.08	1751.01
271.30	1800.16
271.51	1748.97
271.73	1722.34
271.95	1834.98
272.16	1771.49
272.38	1691.62
272.59	1693.67
272.81	1734.63
273.02	1746.92
273.24	1748.97
273.46	1746.92
273.67	1662.95
273.89	1675.24
274.10	1763.30
274.32	1804.26
274.54	1703.91
274.75	1687.53
274.97	1673.19
275.18	1705.96
275.40	1771.49
275.61	1716.20
275.83	1748.97
276.05	1609.70
276.26	1746.92
276.48	1728.49
276.69	1718.25
276.91	1638.38
277.12	1753.06
277.34	1755.11
277.55	1783.78
277.77	1681.38
277.99	1683.43
278.20	1656.81
278.42	1656.81
278.63	1703.91
278.85	1615.85
279.06	1665.00
279.28	1724.39
279.49	1757.16
279.71	1781.73
279.93	1767.40
280.14	1751.01
280.36	1628.14
280.57	1791.97
280.79	1740.77
281.00	1708.01
281.22	1744.87
281.43	1845.22
281.65	1570.79
281.86	1636.33
282.08	1804.26
282.29	1779.68
282.51	1589.22
282.73	1726.44
282.94	1671.14
283.16	1701.86
283.37	1812.45
283.59	1701.86
283.80	1681.38
284.02	1609.70
284.23	1687.53
284.45	1695.72
284.66	1632.23
284.88	1734.63
285.09	1804.26
285.31	1736.68
285.52	1724.39
285.74	1665.00
285.95	1720.29
286.17	1744.87
286.38	1796.07
286.60	1656.81
286.81	1712.10
287.03	1665.00
287.24	1744.87
287.46	1791.97
287.67	1763.30
287.89	1943.52
288.10	1728.49
288.32	1742.82
288.53	1759.21
288.75	1697.77
288.96	1808.36
289.18	1630.18
289.39	1710.05
289.61	1761.25
289.82	1855.46
290.04	1785.83
290.25	1609.70
290.47	1730.53
290.68	1763.30
290.90	1773.54
291.11	1656.81
291.33	1796.07
291.54	1644.52
291.76	1667.05
291.97	1726.44
292.18	1744.87
292.40	1703.91
292.61	1671.14
292.83	1861.60
293.04	1738.73
293.26	1710.05
293.47	1689.57
293.69	1617.90
293.90	1726.44
294.12	1767.40
294.33	1712.10
294.55	1673.19
294.76	1845.22
294.97	1757.16
295.19	1826.79
295.40	1640.42
295.62	1742.82
295.83	1791.97
296.05	1658.85
296.26	1740.77
296.48	1677.29
296.69	1687.53
296.90	1765.35
297.12	1785.83
297.33	1738.73
297.55	1763.30
297.76	1722.34
297.98	1828.84
298.19	1746.92
298.41	1734.63
298.62	1656.81
298.83	1781.73
299.05	1736.68
299.26	1734.63
299.48	1708.01
299.69	1734.63
299.90	1714.15
300.12	1703.91
300.33	1720.29
300.55	1755.11
300.76	1697.77
300.98	1615.85
301.19	1755.11
301.40	1691.62
301.62	1726.44
301.83	1738.73
302.05	1681.38
302.26	1755.11
302.47	1712.10
302.69	1640.42
302.90	1675.24
303.12	1607.66
303.33	1753.06
303.54	1841.12
303.76	1734.63
303.97	1722.34
304.19	1808.36
304.40	1615.85
304.61	1757.16
304.83	1849.32
305.04	1757.16
305.26	1787.88
305.47	1619.94
305.68	1673.19
305.90	1601.51
306.11	1757.16
306.33	1716.20
306.54	1669.09
306.75	1746.92
306.97	1665.00
307.18	1621.99
307.39	1636.33
307.61	1794.02
307.82	1703.91
308.04	1816.55
308.25	1734.63
308.46	1755.11
308.68	1767.40
308.89	1746.92
309.10	1773.54
309.32	1703.91
309.53	1730.53
309.74	1773.54
309.96	1722.34
310.17	1781.73
310.39	1675.24
310.60	1716.20
310.81	1708.01
311.03	1634.28
311.24	1804.26
311.45	1753.06
311.67	1783.78
311.88	1724.39
312.09	1634.28
312.31	1708.01
312.52	1740.77
312.73	1757.16
312.95	1638.38
313.16	1619.94
313.37	1769.44
313.59	1804.26
313.80	1779.68
314.01	1863.65
314.23	1693.67
314.44	1624.04
314.65	1617.90
314.87	1626.09
315.08	1691.62
315.29	1697.77
315.51	1626.09
315.72	1654.76
315.93	1765.35
316.15	1787.88
316.36	1624.04
316.57	1781.73
316.79	1724.39
317.00	1675.24
317.21	1724.39
317.43	1736.68
317.64	1759.21
317.85	1652.71
318.07	1718.25
318.28	1722.34
318.49	1800.16
318.70	1912.80
318.92	1871.84
319.13	1865.70
319.34	1904.61
319.56	1798.12
319.77	1734.63
319.98	1773.54
320.20	1771.49
320.41	1773.54
320.62	1798.12
320.83	1677.29
321.05	1875.94
321.26	1720.29
321.47	1769.44
321.69	1722.34
321.90	1624.04
322.11	1642.47
322.32	1724.39
322.54	1816.55
322.75	1730.53
322.96	1812.45
323.18	1630.18
323.39	1599.46
323.60	1665.00
323.81	1773.54
324.03	1658.85
324.24	1740.77
324.45	1720.29
324.66	1665.00
324.88	1753.06
325.09	1845.22
325.30	1720.29
325.52	1730.53
325.73	1812.45
325.94	1679.33
326.15	1669.09
326.37	1693.67
326.58	1763.30
326.79	1824.74
327.00	1685.48
327.22	1722.34
327.43	1740.77
327.64	1609.70
327.85	1779.68
328.07	1660.90
328.28	1861.60
328.49	1667.05
328.70	1718.25
328.92	1699.81
329.13	1687.53
329.34	1710.05
329.55	1798.12
329.76	1740.77
329.98	1691.62
330.19	1781.73
330.40	1771.49
330.61	1748.97
330.83	1791.97
331.04	1679.33
331.25	1693.67
331.46	1699.81
331.68	1742.82
331.89	1765.35
332.10	1728.49
332.31	1619.94
332.52	1767.40
332.74	1849.32
332.95	1673.19
333.16	1683.43
333.37	1652.71
333.58	1755.11
333.80	1732.58
334.01	1669.09
334.22	1714.15
334.43	1681.38
334.64	1693.67
334.86	1611.75
335.07	1669.09
335.28	1771.49
335.49	1640.42
335.70	1718.25
335.92	1691.62
336.13	1796.07
336.34	1746.92
336.55	1773.54
336.76	1691.62
336.98	1595.37
337.19	1710.05
337.40	1853.41
337.61	1853.41
337.82	1665.00
338.04	1677.29
338.25	1611.75
338.46	1669.09
338.67	1634.28
338.88	1654.76
339.09	1683.43
339.31	1732.58
339.52	1687.53
339.73	1656.81
339.94	1681.38
340.15	1785.83
340.36	1624.04
340.58	1722.34
340.79	1681.38
341.00	1732.58
341.21	1673.19
341.42	1896.42
341.63	1738.73
341.85	1820.64
342.06	1708.01
342.27	1621.99
342.48	1767.40
342.69	1648.61
342.90	1730.53
343.12	1763.30
343.33	1701.86
343.54	1695.72
343.75	1877.99
343.96	1714.15
344.17	1654.76
344.38	1728.49
344.60	1669.09
344.81	1556.46
345.02	1716.20
345.23	1703.91
345.44	1814.50
345.65	1710.05
345.86	1783.78
346.07	1660.90
346.29	1658.85
346.50	1744.87
346.71	1732.58
346.92	1767.40
347.13	1816.55
347.34	1716.20
347.55	1675.24
347.76	1789.92
347.98	1667.05
348.19	1656.81
348.40	1724.39
348.61	1755.11
348.82	1814.50
349.03	1728.49
349.24	1662.95
349.45	1775.59
349.66	1648.61
349.88	1730.53
350.09	1681.38
350.30	1783.78
350.51	1708.01
350.72	1726.44
350.93	1636.33
351.14	1669.09
351.35	1738.73
351.56	1753.06
351.77	1714.15
351.99	1767.40
352.20	1779.68
352.41	1824.74
352.62	1611.75
352.83	1662.95
353.04	1718.25
353.25	1730.53
353.46	1777.64
353.67	1857.51
353.88	1689.57
354.09	1724.39
354.30	1744.87
354.52	1755.11
354.73	1685.48
354.94	1681.38
355.15	1609.70
355.36	1783.78
355.57	1755.11
355.78	1724.39
355.99	1691.62
356.20	1695.72
356.41	1804.26
356.62	1689.57
356.83	1708.01
357.04	1789.92
357.25	1619.94
357.46	1705.96
357.68	1556.46
357.89	1611.75
358.10	1652.71
358.31	1746.92
358.52	1697.77
358.73	1699.81
358.94	1660.90
359.15	1626.09
359.36	1736.68
359.57	1683.43
359.78	1703.91
359.99	1693.67
360.20	1675.24
360.41	1701.86
360.62	1730.53
360.83	1744.87
361.04	1734.63
361.25	1710.05
361.46	1806.31
361.67	1673.19
361.88	1773.54
362.09	1767.40
362.30	1736.68
362.51	1697.77
362.72	1667.05
362.93	1814.50
363.14	1779.68
363.35	1753.06
363.56	1720.29
363.78	1767.40
363.99	1748.97
364.20	1669.09
364.41	1783.78
364.62	1775.59
364.83	1820.64
365.04	1699.81
365.25	1697.77
365.46	1867.75
365.67	1632.23
365.88	1669.09
366.09	1693.67
366.30	1701.86
366.51	1669.09
366.72	1630.18
366.93	1632.23
367.14	1722.34
367.35	1738.73
367.56	1814.50
367.77	1804.26
367.98	1781.73
368.18	1624.04
368.39	1742.82
368.60	1673.19
368.81	1699.81
369.02	1685.48
369.23	1673.19
369.44	1576.94
369.65	1656.81
369.86	1724.39
370.07	1777.64
370.28	1636.33
370.49	1740.77
370.70	1798.12
370.91	1615.85
371.12	1638.38
371.33	1787.88
371.54	1724.39
371.75	1796.07
371.96	1591.27
372.17	1640.42
372.38	1734.63
372.59	1722.34
372.80	1777.64
373.01	1753.06
373.22	1765.35
373.43	1736.68
373.64	1599.46
373.85	1753.06
374.06	1869.80
374.26	1767.40
374.47	1693.67
374.68	1783.78
374.89	1728.49
375.10	1759.21
375.31	1763.30
375.52	1763.30
375.73	1742.82
375.94	1673.19
376.15	1787.88
376.36	1665.00
376.57	1675.24
376.78	1673.19
376.99	1726.44
377.20	1802.21
377.40	1644.52
377.61	1773.54
377.82	1687.53
378.03	1785.83
378.24	1718.25
378.45	1658.85
378.66	1722.34
378.87	1636.33
379.08	1652.71
379.29	1673.19
379.50	1804.26
379.71	1701.86
379.91	1724.39
380.12	1728.49
380.33	1748.97
380.54	1685.48
380.75	1675.24
380.96	1722.34
381.17	1738.73
381.38	1695.72
381.59	1771.49
381.80	1699.81
382.00	1845.22
382.21	1744.87
382.42	1843.17
382.63	1888.23
382.84	1853.41
383.05	1785.83
383.26	1828.84
383.47	1724.39
383.68	1738.73
383.88	1761.25
384.09	1751.01
384.30	1820.64
384.51	1712.10
384.72	1603.56
384.93	1597.42
385.14	1683.43
385.35	1761.25
385.55	1665.00
385.76	1771.49
385.97	1624.04
386.18	1728.49
386.39	1734.63
386.60	1681.38
386.81	1669.09
387.02	1636.33
387.22	1673.19
387.43	1738.73
387.64	1820.64
387.85	1933.28
388.06	2148.32
388.27	4235.20
388.48	6688.67
388.68	8388.48
388.89	9529.20
389.10	9684.84
389.31	8591.23
389.52	7522.19
389.73	6678.43
389.93	6227.87
390.14	5787.56
390.35	5105.59
390.56	4599.74
390.77	3727.30
390.98	2977.75
391.18	2510.81
391.39	2099.17
391.60	1886.18
391.81	1884.13
392.02	1779.68
392.23	1884.13
392.43	1693.67
392.64	1834.98
392.85	1697.77
393.06	1724.39
393.27	1736.68
393.47	1595.37
393.68	1685.48
393.89	1757.16
394.10	1777.64
394.31	1605.61
394.52	1648.61
394.72	1671.14
394.93	1843.17
395.14	1650.66
395.35	1794.02
395.56	1669.09
395.76	1765.35
395.97	1783.78
396.18	1812.45
396.39	1861.60
396.60	2037.73
396.80	1839.08
397.01	1816.55
397.22	1894.37
397.43	1789.92
397.64	1658.85
397.84	1837.03
398.05	1925.09
398.26	1779.68
398.47	1742.82
398.67	1773.54
398.88	1748.97
399.09	1746.92
399.30	1687.53
399.51	1726.44
399.71	1714.15
399.92	1693.67
400.13	1759.21
400.34	1665.00
400.54	1785.83
400.75	1781.73
400.96	1742.82
401.17	1769.44
401.37	1759.21
401.58	1759.21
401.79	1660.90
402.00	1882.08
402.21	1957.86
402.41	1996.77
402.62	1970.15
402.83	2023.39
403.04	1982.43
403.24	2095.07
403.45	1804.26
403.66	1892.32
403.87	1914.85
404.07	1918.95
404.28	1894.37
404.49	1882.08
404.70	1751.01
404.90	1767.40
405.11	1712.10
405.32	1828.84
405.52	1703.91
405.73	1705.96
405.94	1726.44
406.15	1730.53
406.35	1810.40
406.56	1769.44
406.77	1753.06
406.98	1767.40
407.18	1562.60
407.39	1806.31
407.60	1738.73
407.80	1732.58
408.01	1587.18
408.22	1738.73
408.43	1730.53
408.63	1667.05
408.84	1736.68
409.05	1820.64
409.25	1654.76
409.46	1712.10
409.67	1654.76
409.88	1722.34
410.08	1814.50
410.29	1681.38
410.50	1777.64
410.70	1736.68
410.91	1693.67
411.12	1662.95
411.32	1738.73
411.53	1699.81
411.74	1828.84
411.95	1765.35
412.15	1814.50
412.36	1849.32
412.57	1865.70
412.77	1783.78
412.98	1757.16
413.19	1693.67
413.39	1853.41
413.60	1691.62
413.81	1794.02
414.01	1730.53
414.22	1753.06
414.43	1755.11
414.63	1697.77
414.84	1804.26
415.05	1648.61
415.25	1617.90
415.46	1728.49
415.67	1708.01
415.87	1671.14
416.08	1794.02
416.29	1632.23
416.49	1798.12
416.70	1736.68
416.91	1681.38
417.11	1710.05
417.32	1794.02
417.53	1781.73
417.73	1730.53
417.94	1652.71
418.15	1722.34
418.35	1767.40
418.56	1681.38
418.77	1886.18
418.97	1705.96
419.18	1648.61
419.38	1587.18
419.59	1683.43
419.80	1808.36
420.00	1634.28
420.21	1781.73
420.42	1837.03
420.62	1732.58
420.83	1662.95
421.04	1699.81
421.24	1699.81
421.45	1816.55
421.65	1689.57
421.86	1652.71
422.07	1777.64
422.27	1771.49
422.48	1763.30
422.69	1730.53
422.89	1665.00
423.10	1724.39
423.30	1646.57
423.51	1730.53
423.72	1796.07
423.92	1742.82
424.13	1681.38
424.33	1734.63
424.54	1822.69
424.75	1794.02
424.95	1853.41
425.16	1675.24
425.36	1681.38
425.57	1718.25
425.78	1779.68
425.98	1742.82
426.19	1734.63
426.39	1748.97
426.60	1705.96
426.81	1763.30
427.01	1742.82
427.22	1609.70
427.42	1640.42
427.63	1689.57
427.83	1769.44
428.04	1869.80
428.25	1787.88
428.45	1763.30
428.66	1806.31
428.86	1714.15
429.07	1751.01
429.28	1765.35
429.48	1701.86
429.69	1628.14
429.89	1738.73
430.10	1660.90
430.30	1724.39
430.51	1771.49
430.71	1703.91
430.92	1677.29
431.13	1685.48
431.33	1796.07
431.54	1755.11
431.74	1826.79
431.95	1818.60
432.15	1697.77
432.36	1728.49
432.56	1822.69
432.77	1791.97
432.98	1742.82
433.18	1722.34
433.39	1734.63
433.59	1671.14
433.80	1820.64
434.00	1984.48
434.21	1718.25
434.41	1640.42
434.62	1857.51
434.82	1640.42
435.03	1660.90
435.23	1738.73
435.44	1636.33
435.64	1695.72
435.85	1759.21
436.06	1865.70
436.26	1771.49
436.47	1775.59
436.67	1777.64
436.88	1785.83
437.08	1849.32
437.29	1822.69
437.49	1681.38
437.70	1804.26
437.90	1738.73
438.11	1939.43
438.31	1724.39
438.52	1970.15
438.72	1910.75
438.93	1904.61
439.13	1787.88
439.34	1775.59
439.54	1751.01
439.75	1794.02
439.95	1798.12
440.16	1730.53
440.36	1779.68
440.57	1826.79
440.77	1742.82
440.98	1722.34
441.18	1708.01
441.39	1718.25
441.59	1720.29
441.80	1896.42
442.00	1720.29
442.21	1822.69
442.41	1689.57
442.62	1734.63
442.82	1665.00
443.02	1708.01
443.23	1730.53
443.43	1607.66
443.64	1871.84
443.84	1675.24
444.05	1806.31
444.25	1650.66
444.46	1757.16
444.66	1736.68
444.87	1783.78
445.07	1714.15
445.28	1779.68
445.48	1718.25
445.69	1710.05
445.89	1882.08
446.09	1714.15
446.30	2088.93
446.50	2572.25
446.71	3723.21
446.91	4331.45
447.12	4698.04
447.32	4923.32
447.53	4339.65
447.73	3891.14
447.93	3463.12
448.14	3321.81
448.34	3129.30
448.55	2942.93
448.75	2858.96
448.96	2729.94
449.16	2473.95
449.36	2254.81
449.57	2009.06
449.77	1894.37
449.98	1787.88
450.18	1812.45
450.39	1783.78
450.59	1744.87
450.79	1679.33
451.00	1724.39
451.20	1822.69
451.41	1783.78
451.61	1798.12
451.81	1746.92
452.02	1705.96
452.22	1761.25
452.43	1759.21
452.63	1675.24
