SpectraSuite Data File
++++++++++++++++++++++++++++++++++++
Date: Mon Jun 06 16:28:57 CEST 2016
User: root
Dark Spectrum Present: No
Reference Spectrum Present: No
Number of Sampled Component Spectra: 1
Spectrometers: USB4C02835
Integration Time (usec): 100000 (USB4C02835)
Spectra Averaged: 1 (USB4C02835)
Boxcar Smoothing: 0 (USB4C02835)
Correct for Electrical Dark: No (USB4C02835)
Strobe/Lamp Enabled: No (USB4C02835)
Correct for Detector Non-linearity: No (USB4C02835)
Correct for Stray Light: No (USB4C02835)
Number of Pixels in Processed Spectrum: 3648
>>>>>Begin Processed Spectral Data<<<<<
177.47	1476.59
177.69	1476.59
177.91	1476.59
178.13	1501.16
178.36	1509.35
178.58	1654.76
178.80	1775.59
179.02	1626.09
179.24	1669.09
179.46	1597.42
179.68	1677.29
179.90	1767.40
180.13	1746.92
180.35	1705.96
180.57	1675.24
180.79	1755.11
181.01	1654.76
181.23	1767.40
181.45	1769.44
181.67	1738.73
181.90	1714.15
182.12	1689.57
182.34	1601.51
182.56	1646.57
182.78	1691.62
183.00	1751.01
183.22	1722.34
183.44	1566.70
183.66	1894.37
183.89	1794.02
184.11	1626.09
184.33	1724.39
184.55	1738.73
184.77	1693.67
184.99	1771.49
185.21	1609.70
185.43	1869.80
185.65	1658.85
185.87	1734.63
186.10	1812.45
186.32	1875.94
186.54	1732.58
186.76	1730.53
186.98	1822.69
187.20	1669.09
187.42	1693.67
187.64	1701.86
187.86	1767.40
188.08	1720.29
188.30	1603.56
188.52	1662.95
188.75	1785.83
188.97	1781.73
189.19	1753.06
189.41	1734.63
189.63	1757.16
189.85	1705.96
190.07	1681.38
190.29	1628.14
190.51	1708.01
190.73	1691.62
190.95	1847.27
191.17	1740.77
191.39	1613.80
191.61	1673.19
191.84	1714.15
192.06	1742.82
192.28	1621.99
192.50	2011.11
192.72	1796.07
192.94	1609.70
193.16	1816.55
193.38	1681.38
193.60	1646.57
193.82	1712.10
194.04	1841.12
194.26	1720.29
194.48	1708.01
194.70	1677.29
194.92	1724.39
195.14	1730.53
195.36	1603.56
195.58	1791.97
195.80	1683.43
196.02	1712.10
196.24	1701.86
196.46	1697.77
196.69	1662.95
196.91	1800.16
197.13	1685.48
197.35	1677.29
197.57	1724.39
197.79	1677.29
198.01	1703.91
198.23	1701.86
198.45	1779.68
198.67	1761.25
198.89	1667.05
199.11	1640.42
199.33	1667.05
199.55	1566.70
199.77	1718.25
199.99	1814.50
200.21	1740.77
200.43	1761.25
200.65	1714.15
200.87	1654.76
201.09	1775.59
201.31	1693.67
201.53	1759.21
201.75	1730.53
201.97	1695.72
202.19	1687.53
202.41	1726.44
202.63	1839.08
202.85	1773.54
203.07	1708.01
203.29	1693.67
203.51	1634.28
203.73	1746.92
203.95	1865.70
204.17	1757.16
204.39	1693.67
204.61	1748.97
204.83	1665.00
205.05	1740.77
205.27	1683.43
205.49	1808.36
205.71	1677.29
205.93	1652.71
206.15	1691.62
206.37	1624.04
206.59	1767.40
206.81	1656.81
207.03	1646.57
207.25	1703.91
207.47	1800.16
207.69	1646.57
207.91	1853.41
208.13	1857.51
208.34	1716.20
208.56	1665.00
208.78	1746.92
209.00	1656.81
209.22	1648.61
209.44	1746.92
209.66	1724.39
209.88	1734.63
210.10	1685.48
210.32	1671.14
210.54	1775.59
210.76	1665.00
210.98	1734.63
211.20	1591.27
211.42	1751.01
211.64	1812.45
211.86	1765.35
212.08	1744.87
212.30	1767.40
212.52	1714.15
212.74	1742.82
212.96	1722.34
213.17	1804.26
213.39	1775.59
213.61	1718.25
213.83	1689.57
214.05	1658.85
214.27	1843.17
214.49	1617.90
214.71	1587.18
214.93	1781.73
215.15	1708.01
215.37	1712.10
215.59	1591.27
215.81	1720.29
216.03	1802.21
216.24	1765.35
216.46	1675.24
216.68	1669.09
216.90	1695.72
217.12	1681.38
217.34	1712.10
217.56	1708.01
217.78	1712.10
218.00	1701.86
218.22	1677.29
218.44	1722.34
218.66	1722.34
218.87	1748.97
219.09	1669.09
219.31	1718.25
219.53	1753.06
219.75	1712.10
219.97	1751.01
220.19	1710.05
220.41	1675.24
220.63	1708.01
220.85	1736.68
221.06	1687.53
221.28	1822.69
221.50	1726.44
221.72	1716.20
221.94	1705.96
222.16	1726.44
222.38	1722.34
222.60	1783.78
222.82	1759.21
223.03	1769.44
223.25	1632.23
223.47	1744.87
223.69	1787.88
223.91	1712.10
224.13	1732.58
224.35	1681.38
224.57	1755.11
224.78	1736.68
225.00	1665.00
225.22	1681.38
225.44	1695.72
225.66	1802.21
225.88	1734.63
226.10	1699.81
226.32	1720.29
226.53	1804.26
226.75	1650.66
226.97	1656.81
227.19	1771.49
227.41	1660.90
227.63	1671.14
227.85	1593.32
228.06	1746.92
228.28	1722.34
228.50	1810.40
228.72	1703.91
228.94	1656.81
229.16	1593.32
229.37	1617.90
229.59	1656.81
229.81	1771.49
230.03	1644.52
230.25	1621.99
230.47	1642.47
230.69	1697.77
230.90	1738.73
231.12	1619.94
231.34	1767.40
231.56	1701.86
231.78	1613.80
232.00	1763.30
232.21	1687.53
232.43	1705.96
232.65	1601.51
232.87	1652.71
233.09	1673.19
233.30	1710.05
233.52	1843.17
233.74	1705.96
233.96	1767.40
234.18	1724.39
234.40	1687.53
234.61	1837.03
234.83	1626.09
235.05	1611.75
235.27	1869.80
235.49	1759.21
235.70	1738.73
235.92	1746.92
236.14	1716.20
236.36	1925.09
236.58	1712.10
236.79	1708.01
237.01	1650.66
237.23	1677.29
237.45	1839.08
237.67	1716.20
237.88	1751.01
238.10	1814.50
238.32	1630.18
238.54	1646.57
238.76	1693.67
238.97	1658.85
239.19	1683.43
239.41	1808.36
239.63	1814.50
239.85	1718.25
240.06	1689.57
240.28	1701.86
240.50	1712.10
240.72	1697.77
240.93	1714.15
241.15	1761.25
241.37	1787.88
241.59	1837.03
241.81	1695.72
242.02	1710.05
242.24	1742.82
242.46	1773.54
242.68	1669.09
242.89	1714.15
243.11	1716.20
243.33	1775.59
243.55	1710.05
243.76	1728.49
243.98	1679.33
244.20	1751.01
244.42	1730.53
244.64	1705.96
244.85	1638.38
245.07	1636.33
245.29	1787.88
245.51	1757.16
245.72	1685.48
245.94	1783.78
246.16	1697.77
246.38	1724.39
246.59	1685.48
246.81	1763.30
247.03	1642.47
247.24	1587.18
247.46	1656.81
247.68	1703.91
247.90	1746.92
248.11	1697.77
248.33	1828.84
248.55	1789.92
248.77	1757.16
248.98	1689.57
249.20	1841.12
249.42	1654.76
249.64	1763.30
249.85	1656.81
250.07	1779.68
250.29	1658.85
250.50	1832.93
250.72	1648.61
250.94	1757.16
251.16	1826.79
251.37	1726.44
251.59	1757.16
251.81	1738.73
252.02	1826.79
252.24	1712.10
252.46	1724.39
252.68	1658.85
252.89	1712.10
253.11	1705.96
253.33	1861.60
253.54	1808.36
253.76	1636.33
253.98	1669.09
254.20	1685.48
254.41	1642.47
254.63	1714.15
254.85	1628.14
255.06	1693.67
255.28	1753.06
255.50	1734.63
255.71	1718.25
255.93	1662.95
256.15	1665.00
256.36	1705.96
256.58	1638.38
256.80	1779.68
257.02	1689.57
257.23	1699.81
257.45	1693.67
257.67	1744.87
257.88	1646.57
258.10	1716.20
258.32	1718.25
258.53	1701.86
258.75	1775.59
258.97	1648.61
259.18	1800.16
259.40	1716.20
259.62	1798.12
259.83	1763.30
260.05	1753.06
260.27	1984.48
260.48	1697.77
260.70	1710.05
260.92	1646.57
261.13	1673.19
261.35	1728.49
261.57	1736.68
261.78	1601.51
262.00	1722.34
262.22	1796.07
262.43	1673.19
262.65	1587.18
262.86	1658.85
263.08	1783.78
263.30	1662.95
263.51	1593.32
263.73	1648.61
263.95	1753.06
264.16	1681.38
264.38	1677.29
264.60	1691.62
264.81	1636.33
265.03	1777.64
265.25	1708.01
265.46	1718.25
265.68	1830.88
265.89	1695.72
266.11	1656.81
266.33	1746.92
266.54	1691.62
266.76	1720.29
266.98	1769.44
267.19	1802.21
267.41	1800.16
267.62	1744.87
267.84	1685.48
268.06	1767.40
268.27	1800.16
268.49	1783.78
268.70	1777.64
268.92	1615.85
269.14	1603.56
269.35	1576.94
269.57	1726.44
269.79	1753.06
270.00	1626.09
270.22	1710.05
270.43	1681.38
270.65	1636.33
270.87	1732.58
271.08	1753.06
271.30	1724.39
271.51	1710.05
271.73	1751.01
271.95	1738.73
272.16	1773.54
272.38	1734.63
272.59	1705.96
272.81	1734.63
273.02	1773.54
273.24	1779.68
273.46	1701.86
273.67	1638.38
273.89	1656.81
274.10	1640.42
274.32	1814.50
274.54	1759.21
274.75	1742.82
274.97	1681.38
275.18	1734.63
275.40	1708.01
275.61	1632.23
275.83	1703.91
276.05	1621.99
276.26	1642.47
276.48	1751.01
276.69	1660.90
276.91	1665.00
277.12	1828.84
277.34	1785.83
277.55	1773.54
277.77	1626.09
277.99	1621.99
278.20	1671.14
278.42	1595.37
278.63	1699.81
278.85	1665.00
279.06	1585.13
279.28	1716.20
279.49	1675.24
279.71	1822.69
279.93	1648.61
280.14	1673.19
280.36	1650.66
280.57	1699.81
280.79	1796.07
281.00	1650.66
281.22	1693.67
281.43	1828.84
281.65	1599.46
281.86	1638.38
282.08	1697.77
282.29	1818.60
282.51	1665.00
282.73	1640.42
282.94	1581.03
283.16	1728.49
283.37	1783.78
283.59	1701.86
283.80	1742.82
284.02	1738.73
284.23	1636.33
284.45	1665.00
284.66	1638.38
284.88	1693.67
285.09	1714.15
285.31	1828.84
285.52	1742.82
285.74	1609.70
285.95	1746.92
286.17	1785.83
286.38	1791.97
286.60	1710.05
286.81	1734.63
287.03	1804.26
287.24	1775.59
287.46	1748.97
287.67	1699.81
287.89	1843.17
288.10	1677.29
288.32	1708.01
288.53	1800.16
288.75	1681.38
288.96	1808.36
289.18	1677.29
289.39	1775.59
289.61	1814.50
289.82	1808.36
290.04	1705.96
290.25	1570.79
290.47	1714.15
290.68	1714.15
290.90	1847.27
291.11	1650.66
291.33	1736.68
291.54	1693.67
291.76	1734.63
291.97	1742.82
292.18	1660.90
292.40	1669.09
292.61	1689.57
292.83	1918.95
293.04	1691.62
293.26	1662.95
293.47	1720.29
293.69	1572.84
293.90	1763.30
294.12	1771.49
294.33	1765.35
294.55	1691.62
294.76	1716.20
294.97	1765.35
295.19	1751.01
295.40	1683.43
295.62	1693.67
295.83	1771.49
296.05	1648.61
296.26	1718.25
296.48	1677.29
296.69	1794.02
296.90	1691.62
297.12	1755.11
297.33	1789.92
297.55	1689.57
297.76	1755.11
297.98	1763.30
298.19	1660.90
298.41	1689.57
298.62	1607.66
298.83	1765.35
299.05	1712.10
299.26	1722.34
299.48	1632.23
299.69	1791.97
299.90	1716.20
300.12	1673.19
300.33	1667.05
300.55	1710.05
300.76	1845.22
300.98	1617.90
301.19	1746.92
301.40	1742.82
301.62	1691.62
301.83	1665.00
302.05	1740.77
302.26	1734.63
302.47	1675.24
302.69	1738.73
302.90	1699.81
303.12	1546.22
303.33	1734.63
303.54	1857.51
303.76	1734.63
303.97	1675.24
304.19	1816.55
304.40	1628.14
304.61	1742.82
304.83	1877.99
305.04	1773.54
305.26	1791.97
305.47	1597.42
305.68	1736.68
305.90	1603.56
306.11	1726.44
306.33	1669.09
306.54	1687.53
306.75	1644.52
306.97	1640.42
307.18	1742.82
307.39	1757.16
307.61	1794.02
307.82	1757.16
308.04	1734.63
308.25	1685.48
308.46	1740.77
308.68	1654.76
308.89	1718.25
309.10	1849.32
309.32	1681.38
309.53	1634.28
309.74	1767.40
309.96	1650.66
310.17	1794.02
310.39	1781.73
310.60	1646.57
310.81	1662.95
311.03	1673.19
311.24	1730.53
311.45	1730.53
311.67	1791.97
311.88	1767.40
312.09	1722.34
312.31	1656.81
312.52	1726.44
312.73	1738.73
312.95	1554.41
313.16	1677.29
313.37	1789.92
313.59	1816.55
313.80	1683.43
314.01	1861.60
314.23	1720.29
314.44	1617.90
314.65	1587.18
314.87	1652.71
315.08	1738.73
315.29	1697.77
315.51	1589.22
315.72	1681.38
315.93	1804.26
316.15	1763.30
316.36	1722.34
316.57	1746.92
316.79	1771.49
317.00	1675.24
317.21	1681.38
317.43	1705.96
317.64	1677.29
317.85	1650.66
318.07	1697.77
318.28	1726.44
318.49	1845.22
318.70	1953.76
318.92	1818.60
319.13	1839.08
319.34	1845.22
319.56	1818.60
319.77	1783.78
319.98	1820.64
320.20	1791.97
320.41	1732.58
320.62	1740.77
320.83	1587.18
321.05	1828.84
321.26	1714.15
321.47	1736.68
321.69	1736.68
321.90	1671.14
322.11	1718.25
322.32	1748.97
322.54	1763.30
322.75	1662.95
322.96	1777.64
323.18	1619.94
323.39	1675.24
323.60	1744.87
323.81	1855.46
324.03	1660.90
324.24	1691.62
324.45	1744.87
324.66	1660.90
324.88	1730.53
325.09	1753.06
325.30	1685.48
325.52	1728.49
325.73	1613.80
325.94	1632.23
326.15	1656.81
326.37	1740.77
326.58	1781.73
326.79	1765.35
327.00	1703.91
327.22	1826.79
327.43	1660.90
327.64	1636.33
327.85	1734.63
328.07	1746.92
328.28	1796.07
328.49	1697.77
328.70	1763.30
328.92	1667.05
329.13	1675.24
329.34	1789.92
329.55	1789.92
329.76	1677.29
329.98	1720.29
330.19	1841.12
330.40	1751.01
330.61	1693.67
330.83	1755.11
331.04	1683.43
331.25	1718.25
331.46	1667.05
331.68	1685.48
331.89	1841.12
332.10	1769.44
332.31	1630.18
332.52	1705.96
332.74	1724.39
332.95	1650.66
333.16	1791.97
333.37	1703.91
333.58	1712.10
333.80	1738.73
334.01	1609.70
334.22	1755.11
334.43	1685.48
334.64	1648.61
334.86	1576.94
335.07	1695.72
335.28	1779.68
335.49	1642.47
335.70	1728.49
335.92	1783.78
336.13	1716.20
336.34	1777.64
336.55	1660.90
336.76	1738.73
336.98	1619.94
337.19	1712.10
337.40	1763.30
337.61	1857.51
337.82	1685.48
338.04	1783.78
338.25	1683.43
338.46	1632.23
338.67	1679.33
338.88	1689.57
339.09	1609.70
339.31	1691.62
339.52	1640.42
339.73	1626.09
339.94	1722.34
340.15	1828.84
340.36	1683.43
340.58	1660.90
340.79	1619.94
341.00	1783.78
341.21	1701.86
341.42	1783.78
341.63	1738.73
341.85	1796.07
342.06	1783.78
342.27	1650.66
342.48	1742.82
342.69	1628.14
342.90	1738.73
343.12	1693.67
343.33	1636.33
343.54	1761.25
343.75	1808.36
343.96	1705.96
344.17	1605.61
344.38	1695.72
344.60	1658.85
344.81	1621.99
345.02	1705.96
345.23	1740.77
345.44	1781.73
345.65	1734.63
345.86	1738.73
346.07	1681.38
346.29	1726.44
346.50	1685.48
346.71	1759.21
346.92	1806.31
347.13	1742.82
347.34	1652.71
347.55	1652.71
347.76	1736.68
347.98	1705.96
348.19	1732.58
348.40	1837.03
348.61	1656.81
348.82	1834.98
349.03	1742.82
349.24	1669.09
349.45	1837.03
349.66	1736.68
349.88	1748.97
350.09	1671.14
350.30	1800.16
350.51	1781.73
350.72	1683.43
350.93	1728.49
351.14	1669.09
351.35	1755.11
351.56	1722.34
351.77	1652.71
351.99	1734.63
352.20	1773.54
352.41	1718.25
352.62	1601.51
352.83	1712.10
353.04	1742.82
353.25	1634.28
353.46	1769.44
353.67	1736.68
353.88	1634.28
354.09	1761.25
354.30	1687.53
354.52	1728.49
354.73	1677.29
354.94	1701.86
355.15	1703.91
355.36	1822.69
355.57	1669.09
355.78	1730.53
355.99	1693.67
356.20	1652.71
356.41	1751.01
356.62	1791.97
356.83	1730.53
357.04	1730.53
357.25	1705.96
357.46	1662.95
357.68	1658.85
357.89	1695.72
358.10	1759.21
358.31	1697.77
358.52	1724.39
358.73	1621.99
358.94	1699.81
359.15	1679.33
359.36	1734.63
359.57	1755.11
359.78	1691.62
359.99	1791.97
360.20	1699.81
360.41	1644.52
360.62	1834.98
360.83	1751.01
361.04	1722.34
361.25	1742.82
361.46	1794.02
361.67	1677.29
361.88	1785.83
362.09	1773.54
362.30	1710.05
362.51	1695.72
362.72	1691.62
362.93	1761.25
363.14	1716.20
363.35	1722.34
363.56	1669.09
363.78	1767.40
363.99	1740.77
364.20	1636.33
364.41	1757.16
364.62	1753.06
364.83	1705.96
365.04	1607.66
365.25	1728.49
365.46	1740.77
365.67	1695.72
365.88	1660.90
366.09	1693.67
366.30	1667.05
366.51	1763.30
366.72	1636.33
366.93	1751.01
367.14	1726.44
367.35	1767.40
367.56	1736.68
367.77	1810.40
367.98	1683.43
368.18	1744.87
368.39	1769.44
368.60	1632.23
368.81	1716.20
369.02	1718.25
369.23	1759.21
369.44	1656.81
369.65	1716.20
369.86	1738.73
370.07	1689.57
370.28	1687.53
370.49	1742.82
370.70	1728.49
370.91	1683.43
371.12	1667.05
371.33	1794.02
371.54	1703.91
371.75	1892.32
371.96	1619.94
372.17	1675.24
372.38	1681.38
372.59	1802.21
372.80	1671.14
373.01	1710.05
373.22	1714.15
373.43	1703.91
373.64	1624.04
373.85	1769.44
374.06	1890.28
374.26	1777.64
374.47	1718.25
374.68	1816.55
374.89	1773.54
375.10	1791.97
375.31	1794.02
375.52	1675.24
375.73	1755.11
375.94	1726.44
376.15	1785.83
376.36	1660.90
376.57	1634.28
376.78	1726.44
376.99	1734.63
377.20	1812.45
377.40	1685.48
377.61	1789.92
377.82	1675.24
378.03	1796.07
378.24	1800.16
378.45	1697.77
378.66	1757.16
378.87	1734.63
379.08	1611.75
379.29	1685.48
379.50	1773.54
379.71	1632.23
379.91	1796.07
380.12	1705.96
380.33	1773.54
380.54	1781.73
380.75	1669.09
380.96	1662.95
381.17	1677.29
381.38	1683.43
381.59	1724.39
381.80	1652.71
382.00	1820.64
382.21	1738.73
382.42	1841.12
382.63	1808.36
382.84	1728.49
383.05	1767.40
383.26	1808.36
383.47	1697.77
383.68	1734.63
383.88	1710.05
384.09	1775.59
384.30	1841.12
384.51	1755.11
384.72	1646.57
384.93	1671.14
385.14	1726.44
385.35	1751.01
385.55	1689.57
385.76	1691.62
385.97	1796.07
386.18	1650.66
386.39	1740.77
386.60	1740.77
386.81	1808.36
387.02	1710.05
387.22	1669.09
387.43	1732.58
387.64	1804.26
387.85	1869.80
388.06	2183.13
388.27	4222.91
388.48	6621.08
388.68	8218.50
388.89	9496.43
389.10	9830.25
389.31	8513.41
389.52	7632.78
389.73	6588.32
389.93	6236.06
390.14	5920.68
390.35	5201.84
390.56	4564.92
390.77	3661.77
390.98	3053.52
391.18	2486.23
391.39	2166.75
391.60	1820.64
391.81	1855.46
392.02	1720.29
392.23	1894.37
392.43	1777.64
392.64	1746.92
392.85	1787.88
393.06	1837.03
393.27	1800.16
393.47	1689.57
393.68	1718.25
393.89	1681.38
394.10	1732.58
394.31	1712.10
394.52	1677.29
394.72	1705.96
394.93	1945.57
395.14	1662.95
395.35	1685.48
395.56	1691.62
395.76	1746.92
395.97	1798.12
396.18	1863.65
396.39	1808.36
396.60	2066.40
396.80	1873.89
397.01	1839.08
397.22	1914.85
397.43	1777.64
397.64	1751.01
397.84	1730.53
398.05	1888.23
398.26	1660.90
398.47	1804.26
398.67	1785.83
398.88	1718.25
399.09	1740.77
399.30	1652.71
399.51	1781.73
399.71	1679.33
399.92	1716.20
400.13	1746.92
400.34	1710.05
400.54	1705.96
400.75	1820.64
400.96	1693.67
401.17	1757.16
401.37	1716.20
401.58	1730.53
401.79	1746.92
402.00	1970.15
402.21	1998.82
402.41	1937.38
402.62	1951.71
402.83	1953.76
403.04	1937.38
403.24	2101.22
403.45	1802.21
403.66	1830.88
403.87	1875.94
404.07	1951.71
404.28	1957.86
404.49	1814.50
404.70	1759.21
404.90	1843.17
405.11	1736.68
405.32	1701.86
405.52	1775.59
405.73	1687.53
405.94	1632.23
406.15	1736.68
406.35	1736.68
406.56	1759.21
406.77	1667.05
406.98	1771.49
407.18	1751.01
407.39	1837.03
407.60	1787.88
407.80	1734.63
408.01	1642.47
408.22	1720.29
408.43	1636.33
408.63	1812.45
408.84	1673.19
409.05	1804.26
409.25	1681.38
409.46	1617.90
409.67	1695.72
409.88	1732.58
410.08	1740.77
410.29	1693.67
410.50	1724.39
410.70	1724.39
410.91	1710.05
411.12	1687.53
411.32	1716.20
411.53	1701.86
411.74	1828.84
411.95	1828.84
412.15	1775.59
412.36	1837.03
412.57	1744.87
412.77	1828.84
412.98	1722.34
413.19	1660.90
413.39	1671.14
413.60	1736.68
413.81	1771.49
414.01	1658.85
414.22	1687.53
414.43	1867.75
414.63	1720.29
414.84	1746.92
415.05	1826.79
415.25	1675.24
415.46	1767.40
415.67	1738.73
415.87	1689.57
416.08	1718.25
416.29	1701.86
416.49	1705.96
416.70	1710.05
416.91	1701.86
417.11	1648.61
417.32	1828.84
417.53	1759.21
417.73	1718.25
417.94	1652.71
418.15	1701.86
418.35	1679.33
418.56	1708.01
418.77	1806.31
418.97	1667.05
419.18	1736.68
419.38	1601.51
419.59	1705.96
419.80	1777.64
420.00	1703.91
420.21	1669.09
420.42	1828.84
420.62	1724.39
420.83	1712.10
421.04	1697.77
421.24	1660.90
421.45	1703.91
421.65	1767.40
421.86	1718.25
422.07	1757.16
422.27	1685.48
422.48	1732.58
422.69	1665.00
422.89	1761.25
423.10	1728.49
423.30	1636.33
423.51	1779.68
423.72	1697.77
423.92	1775.59
424.13	1599.46
424.33	1697.77
424.54	1738.73
424.75	1673.19
424.95	1796.07
425.16	1746.92
425.36	1632.23
425.57	1726.44
425.78	1773.54
425.98	1783.78
426.19	1724.39
426.39	1619.94
426.60	1734.63
426.81	1837.03
427.01	1701.86
427.22	1652.71
427.42	1607.66
427.63	1689.57
427.83	1773.54
428.04	1822.69
428.25	1775.59
428.45	1863.65
428.66	1681.38
428.86	1771.49
429.07	1708.01
429.28	1769.44
429.48	1726.44
429.69	1599.46
429.89	1654.76
430.10	1705.96
430.30	1755.11
430.51	1759.21
430.71	1662.95
430.92	1685.48
431.13	1660.90
431.33	1757.16
431.54	1687.53
431.74	1853.41
431.95	1818.60
432.15	1619.94
432.36	1828.84
432.56	1724.39
432.77	1744.87
432.98	1853.41
433.18	1738.73
433.39	1746.92
433.59	1685.48
433.80	1890.28
434.00	1890.28
434.21	1687.53
434.41	1712.10
434.62	1826.79
434.82	1689.57
435.03	1671.14
435.23	1705.96
435.44	1587.18
435.64	1679.33
435.85	1685.48
436.06	1837.03
436.26	1761.25
436.47	1761.25
436.67	1632.23
436.88	1718.25
437.08	1734.63
437.29	1832.93
437.49	1734.63
437.70	1822.69
437.90	1689.57
438.11	1851.36
438.31	1746.92
438.52	1873.89
438.72	1888.23
438.93	1910.75
439.13	1849.32
439.34	1822.69
439.54	1765.35
439.75	1808.36
439.95	1789.92
440.16	1757.16
440.36	1767.40
440.57	1779.68
440.77	1779.68
440.98	1742.82
441.18	1875.94
441.39	1693.67
441.59	1683.43
441.80	1906.66
442.00	1712.10
442.21	1822.69
442.41	1683.43
442.62	1853.41
442.82	1646.57
443.02	1730.53
443.23	1773.54
443.43	1720.29
443.64	1783.78
443.84	1665.00
444.05	1865.70
444.25	1769.44
444.46	1736.68
444.66	1763.30
444.87	1863.65
445.07	1624.04
445.28	1691.62
445.48	1853.41
445.69	1757.16
445.89	1898.47
446.09	1744.87
446.30	2052.06
446.50	2691.03
446.71	3774.41
446.91	4476.86
447.12	4749.24
447.32	4890.55
447.53	4302.78
447.73	3852.23
447.93	3583.95
448.14	3354.57
448.34	3239.89
448.55	2889.68
448.75	2770.90
448.96	2705.37
449.16	2496.47
449.36	2322.40
449.57	2039.78
449.77	1923.04
449.98	1730.53
450.18	1886.18
450.39	1863.65
450.59	1822.69
450.79	1697.77
451.00	1781.73
451.20	1810.40
451.41	1691.62
451.61	1783.78
451.81	1730.53
452.02	1755.11
452.22	1722.34
452.43	1773.54
452.63	1728.49
