SpectraSuite Data File
++++++++++++++++++++++++++++++++++++
Date: Mon Jun 06 15:06:17 CEST 2016
User: root
Dark Spectrum Present: No
Reference Spectrum Present: No
Number of Sampled Component Spectra: 1
Spectrometers: USB4C02835
Integration Time (usec): 100000 (USB4C02835)
Spectra Averaged: 1 (USB4C02835)
Boxcar Smoothing: 0 (USB4C02835)
Correct for Electrical Dark: No (USB4C02835)
Strobe/Lamp Enabled: No (USB4C02835)
Correct for Detector Non-linearity: No (USB4C02835)
Correct for Stray Light: No (USB4C02835)
Number of Pixels in Processed Spectrum: 3648
>>>>>Begin Processed Spectral Data<<<<<
177.47	1452.01
177.69	1452.01
177.91	1452.01
178.13	1435.63
178.36	1468.39
178.58	1607.66
178.80	1796.07
179.02	1687.53
179.24	1642.47
179.46	1687.53
179.68	1738.73
179.90	1703.91
180.13	1720.29
180.35	1673.19
180.57	1665.00
180.79	1738.73
181.01	1681.38
181.23	1767.40
181.45	1779.68
181.67	1677.29
181.90	1708.01
182.12	1675.24
182.34	1691.62
182.56	1665.00
182.78	1734.63
183.00	1759.21
183.22	1714.15
183.44	1597.42
183.66	1783.78
183.89	1791.97
184.11	1699.81
184.33	1718.25
184.55	1806.31
184.77	1701.86
184.99	1742.82
185.21	1644.52
185.43	1832.93
185.65	1740.77
185.87	1669.09
186.10	1857.51
186.32	1816.55
186.54	1716.20
186.76	1683.43
186.98	1708.01
187.20	1683.43
187.42	1660.90
187.64	1710.05
187.86	1726.44
188.08	1740.77
188.30	1654.76
188.52	1665.00
188.75	1877.99
188.97	1767.40
189.19	1640.42
189.41	1728.49
189.63	1673.19
189.85	1656.81
190.07	1677.29
190.29	1585.13
190.51	1718.25
190.73	1705.96
190.95	1722.34
191.17	1642.47
191.39	1603.56
191.61	1658.85
191.84	1662.95
192.06	1730.53
192.28	1636.33
192.50	1902.56
192.72	1669.09
192.94	1732.58
193.16	1832.93
193.38	1714.15
193.60	1626.09
193.82	1685.48
194.04	1765.35
194.26	1710.05
194.48	1710.05
194.70	1673.19
194.92	1767.40
195.14	1775.59
195.36	1667.05
195.58	1714.15
195.80	1697.77
196.02	1654.76
196.24	1677.29
196.46	1654.76
196.69	1642.47
196.91	1820.64
197.13	1728.49
197.35	1669.09
197.57	1802.21
197.79	1638.38
198.01	1714.15
198.23	1714.15
198.45	1748.97
198.67	1630.18
198.89	1703.91
199.11	1732.58
199.33	1665.00
199.55	1597.42
199.77	1679.33
199.99	1808.36
200.21	1665.00
200.43	1681.38
200.65	1669.09
200.87	1607.66
201.09	1763.30
201.31	1603.56
201.53	1808.36
201.75	1710.05
201.97	1738.73
202.19	1667.05
202.41	1765.35
202.63	1816.55
202.85	1751.01
203.07	1757.16
203.29	1685.48
203.51	1708.01
203.73	1675.24
203.95	1855.46
204.17	1738.73
204.39	1671.14
204.61	1679.33
204.83	1697.77
205.05	1699.81
205.27	1753.06
205.49	1859.56
205.71	1634.28
205.93	1656.81
206.15	1687.53
206.37	1669.09
206.59	1724.39
206.81	1679.33
207.03	1617.90
207.25	1619.94
207.47	1730.53
207.69	1658.85
207.91	1804.26
208.13	1753.06
208.34	1683.43
208.56	1613.80
208.78	1714.15
209.00	1603.56
209.22	1695.72
209.44	1652.71
209.66	1669.09
209.88	1675.24
210.10	1656.81
210.32	1755.11
210.54	1783.78
210.76	1746.92
210.98	1763.30
211.20	1605.61
211.42	1771.49
211.64	1798.12
211.86	1732.58
212.08	1804.26
212.30	1802.21
212.52	1693.67
212.74	1693.67
212.96	1679.33
213.17	1796.07
213.39	1785.83
213.61	1798.12
213.83	1607.66
214.05	1574.89
214.27	1728.49
214.49	1550.31
214.71	1603.56
214.93	1755.11
215.15	1632.23
215.37	1783.78
215.59	1703.91
215.81	1689.57
216.03	1757.16
216.24	1779.68
216.46	1755.11
216.68	1732.58
216.90	1808.36
217.12	1757.16
217.34	1644.52
217.56	1712.10
217.78	1703.91
218.00	1701.86
218.22	1714.15
218.44	1722.34
218.66	1703.91
218.87	1763.30
219.09	1632.23
219.31	1753.06
219.53	1732.58
219.75	1681.38
219.97	1671.14
220.19	1656.81
220.41	1701.86
220.63	1816.55
220.85	1644.52
221.06	1650.66
221.28	1740.77
221.50	1714.15
221.72	1730.53
221.94	1726.44
222.16	1593.32
222.38	1720.29
222.60	1781.73
222.82	1677.29
223.03	1742.82
223.25	1677.29
223.47	1796.07
223.69	1845.22
223.91	1708.01
224.13	1662.95
224.35	1638.38
224.57	1724.39
224.78	1773.54
225.00	1708.01
225.22	1677.29
225.44	1693.67
225.66	1769.44
225.88	1675.24
226.10	1806.31
226.32	1740.77
226.53	1779.68
226.75	1648.61
226.97	1716.20
227.19	1658.85
227.41	1607.66
227.63	1722.34
227.85	1644.52
228.06	1742.82
228.28	1701.86
228.50	1834.98
228.72	1632.23
228.94	1585.13
229.16	1617.90
229.37	1636.33
229.59	1658.85
229.81	1755.11
230.03	1767.40
230.25	1681.38
230.47	1613.80
230.69	1593.32
230.90	1724.39
231.12	1720.29
231.34	1679.33
231.56	1787.88
231.78	1687.53
232.00	1777.64
232.21	1703.91
232.43	1642.47
232.65	1562.60
232.87	1728.49
233.09	1632.23
233.30	1613.80
233.52	1748.97
233.74	1650.66
233.96	1665.00
234.18	1722.34
234.40	1734.63
234.61	1849.32
234.83	1601.51
235.05	1701.86
235.27	1837.03
235.49	1763.30
235.70	1689.57
235.92	1839.08
236.14	1693.67
236.36	1863.65
236.58	1710.05
236.79	1763.30
237.01	1669.09
237.23	1773.54
237.45	1855.46
237.67	1679.33
237.88	1701.86
238.10	1736.68
238.32	1671.14
238.54	1716.20
238.76	1675.24
238.97	1648.61
239.19	1675.24
239.41	1861.60
239.63	1673.19
239.85	1669.09
240.06	1626.09
240.28	1644.52
240.50	1724.39
240.72	1705.96
240.93	1658.85
241.15	1755.11
241.37	1654.76
241.59	1744.87
241.81	1617.90
242.02	1744.87
242.24	1712.10
242.46	1701.86
242.68	1744.87
242.89	1718.25
243.11	1724.39
243.33	1638.38
243.55	1783.78
243.76	1718.25
243.98	1667.05
244.20	1712.10
244.42	1689.57
244.64	1722.34
244.85	1644.52
245.07	1705.96
245.29	1681.38
245.51	1624.04
245.72	1714.15
245.94	1763.30
246.16	1675.24
246.38	1708.01
246.59	1665.00
246.81	1667.05
247.03	1652.71
247.24	1591.27
247.46	1650.66
247.68	1742.82
247.90	1722.34
248.11	1687.53
248.33	1785.83
248.55	1669.09
248.77	1724.39
248.98	1800.16
249.20	1787.88
249.42	1730.53
249.64	1656.81
249.85	1638.38
250.07	1564.65
250.29	1732.58
250.50	1734.63
250.72	1609.70
250.94	1746.92
251.16	1826.79
251.37	1691.62
251.59	1626.09
251.81	1697.77
252.02	1791.97
252.24	1677.29
252.46	1755.11
252.68	1589.22
252.89	1677.29
253.11	1662.95
253.33	1832.93
253.54	1820.64
253.76	1632.23
253.98	1767.40
254.20	1691.62
254.41	1599.46
254.63	1718.25
254.85	1605.61
255.06	1726.44
255.28	1708.01
255.50	1683.43
255.71	1726.44
255.93	1621.99
256.15	1714.15
256.36	1763.30
256.58	1705.96
256.80	1812.45
257.02	1691.62
257.23	1718.25
257.45	1679.33
257.67	1763.30
257.88	1638.38
258.10	1695.72
258.32	1705.96
258.53	1699.81
258.75	1734.63
258.97	1617.90
259.18	1822.69
259.40	1722.34
259.62	1783.78
259.83	1830.88
260.05	1656.81
260.27	1982.43
260.48	1818.60
260.70	1708.01
260.92	1646.57
261.13	1630.18
261.35	1757.16
261.57	1759.21
261.78	1587.18
262.00	1599.46
262.22	1705.96
262.43	1677.29
262.65	1624.04
262.86	1781.73
263.08	1871.84
263.30	1681.38
263.51	1642.47
263.73	1722.34
263.95	1775.59
264.16	1636.33
264.38	1648.61
264.60	1738.73
264.81	1665.00
265.03	1775.59
265.25	1693.67
265.46	1662.95
265.68	1683.43
265.89	1759.21
266.11	1665.00
266.33	1701.86
266.54	1769.44
266.76	1730.53
266.98	1722.34
267.19	1773.54
267.41	1812.45
267.62	1652.71
267.84	1587.18
268.06	1730.53
268.27	1728.49
268.49	1738.73
268.70	1777.64
268.92	1726.44
269.14	1628.14
269.35	1673.19
269.57	1708.01
269.79	1714.15
270.00	1656.81
270.22	1814.50
270.43	1607.66
270.65	1570.79
270.87	1665.00
271.08	1710.05
271.30	1726.44
271.51	1738.73
271.73	1716.20
271.95	1732.58
272.16	1636.33
272.38	1685.48
272.59	1705.96
272.81	1722.34
273.02	1728.49
273.24	1703.91
273.46	1710.05
273.67	1615.85
273.89	1701.86
274.10	1689.57
274.32	1748.97
274.54	1742.82
274.75	1712.10
274.97	1658.85
275.18	1736.68
275.40	1769.44
275.61	1693.67
275.83	1648.61
276.05	1667.05
276.26	1656.81
276.48	1697.77
276.69	1673.19
276.91	1693.67
277.12	1771.49
277.34	1744.87
277.55	1691.62
277.77	1691.62
277.99	1673.19
278.20	1699.81
278.42	1699.81
278.63	1658.85
278.85	1689.57
279.06	1581.03
279.28	1718.25
279.49	1683.43
279.71	1781.73
279.93	1695.72
280.14	1714.15
280.36	1703.91
280.57	1751.01
280.79	1751.01
281.00	1683.43
281.22	1779.68
281.43	1755.11
281.65	1613.80
281.86	1673.19
282.08	1730.53
282.29	1781.73
282.51	1650.66
282.73	1683.43
282.94	1650.66
283.16	1787.88
283.37	1765.35
283.59	1742.82
283.80	1761.25
284.02	1671.14
284.23	1740.77
284.45	1665.00
284.66	1697.77
284.88	1701.86
285.09	1755.11
285.31	1744.87
285.52	1673.19
285.74	1656.81
285.95	1771.49
286.17	1781.73
286.38	1763.30
286.60	1644.52
286.81	1660.90
287.03	1714.15
287.24	1677.29
287.46	1757.16
287.67	1675.24
287.89	1830.88
288.10	1714.15
288.32	1779.68
288.53	1773.54
288.75	1667.05
288.96	1812.45
289.18	1665.00
289.39	1714.15
289.61	1783.78
289.82	1810.40
290.04	1724.39
290.25	1673.19
290.47	1689.57
290.68	1636.33
290.90	1714.15
291.11	1673.19
291.33	1796.07
291.54	1675.24
291.76	1685.48
291.97	1830.88
292.18	1728.49
292.40	1658.85
292.61	1673.19
292.83	1781.73
293.04	1757.16
293.26	1730.53
293.47	1669.09
293.69	1621.99
293.90	1638.38
294.12	1800.16
294.33	1714.15
294.55	1683.43
294.76	1753.06
294.97	1746.92
295.19	1818.60
295.40	1742.82
295.62	1693.67
295.83	1755.11
296.05	1644.52
296.26	1777.64
296.48	1656.81
296.69	1732.58
296.90	1720.29
297.12	1689.57
297.33	1763.30
297.55	1648.61
297.76	1673.19
297.98	1736.68
298.19	1716.20
298.41	1644.52
298.62	1667.05
298.83	1763.30
299.05	1759.21
299.26	1599.46
299.48	1708.01
299.69	1742.82
299.90	1763.30
300.12	1636.33
300.33	1748.97
300.55	1724.39
300.76	1777.64
300.98	1691.62
301.19	1767.40
301.40	1621.99
301.62	1646.57
301.83	1757.16
302.05	1679.33
302.26	1722.34
302.47	1665.00
302.69	1660.90
302.90	1736.68
303.12	1626.09
303.33	1769.44
303.54	1875.94
303.76	1624.04
303.97	1699.81
304.19	1763.30
304.40	1693.67
304.61	1718.25
304.83	1781.73
305.04	1751.01
305.26	1787.88
305.47	1656.81
305.68	1710.05
305.90	1599.46
306.11	1730.53
306.33	1665.00
306.54	1671.14
306.75	1679.33
306.97	1648.61
307.18	1685.48
307.39	1646.57
307.61	1740.77
307.82	1679.33
308.04	1757.16
308.25	1576.94
308.46	1748.97
308.68	1642.47
308.89	1701.86
309.10	1671.14
309.32	1798.12
309.53	1693.67
309.74	1714.15
309.96	1763.30
310.17	1763.30
310.39	1710.05
310.60	1718.25
310.81	1728.49
311.03	1660.90
311.24	1742.82
311.45	1648.61
311.67	1755.11
311.88	1722.34
312.09	1660.90
312.31	1652.71
312.52	1703.91
312.73	1769.44
312.95	1673.19
313.16	1660.90
313.37	1746.92
313.59	1681.38
313.80	1701.86
314.01	1802.21
314.23	1701.86
314.44	1624.04
314.65	1658.85
314.87	1679.33
315.08	1636.33
315.29	1671.14
315.51	1630.18
315.72	1550.31
315.93	1771.49
316.15	1755.11
316.36	1683.43
316.57	1636.33
316.79	1808.36
317.00	1699.81
317.21	1748.97
317.43	1617.90
317.64	1621.99
317.85	1656.81
318.07	1636.33
318.28	1781.73
318.49	1769.44
318.70	1875.94
318.92	1812.45
319.13	1843.17
319.34	1851.36
319.56	1767.40
319.77	1779.68
319.98	1757.16
320.20	1851.36
320.41	1771.49
320.62	1699.81
320.83	1730.53
321.05	1880.04
321.26	1710.05
321.47	1728.49
321.69	1742.82
321.90	1617.90
322.11	1642.47
322.32	1650.66
322.54	1816.55
322.75	1660.90
322.96	1847.27
323.18	1578.98
323.39	1570.79
323.60	1642.47
323.81	1806.31
324.03	1677.29
324.24	1677.29
324.45	1703.91
324.66	1617.90
324.88	1724.39
325.09	1787.88
325.30	1722.34
325.52	1699.81
325.73	1734.63
325.94	1638.38
326.15	1660.90
326.37	1695.72
326.58	1748.97
326.79	1808.36
327.00	1665.00
327.22	1724.39
327.43	1607.66
327.64	1650.66
327.85	1746.92
328.07	1693.67
328.28	1777.64
328.49	1685.48
328.70	1669.09
328.92	1683.43
329.13	1675.24
329.34	1705.96
329.55	1804.26
329.76	1728.49
329.98	1689.57
330.19	1785.83
330.40	1685.48
330.61	1744.87
330.83	1714.15
331.04	1656.81
331.25	1683.43
331.46	1656.81
331.68	1701.86
331.89	1814.50
332.10	1748.97
332.31	1638.38
332.52	1665.00
332.74	1736.68
332.95	1716.20
333.16	1732.58
333.37	1730.53
333.58	1734.63
333.80	1677.29
334.01	1624.04
334.22	1648.61
334.43	1611.75
334.64	1669.09
334.86	1654.76
335.07	1669.09
335.28	1798.12
335.49	1617.90
335.70	1705.96
335.92	1753.06
336.13	1808.36
336.34	1748.97
336.55	1705.96
336.76	1673.19
336.98	1722.34
337.19	1591.27
337.40	1697.77
337.61	1816.55
337.82	1607.66
338.04	1761.25
338.25	1667.05
338.46	1755.11
338.67	1714.15
338.88	1665.00
339.09	1681.38
339.31	1648.61
339.52	1630.18
339.73	1599.46
339.94	1656.81
340.15	1695.72
340.36	1660.90
340.58	1722.34
340.79	1695.72
341.00	1724.39
341.21	1658.85
341.42	1787.88
341.63	1585.13
341.85	1712.10
342.06	1746.92
342.27	1701.86
342.48	1767.40
342.69	1601.51
342.90	1710.05
343.12	1603.56
343.33	1652.71
343.54	1748.97
343.75	1742.82
343.96	1671.14
344.17	1673.19
344.38	1765.35
344.60	1656.81
344.81	1720.29
345.02	1619.94
345.23	1755.11
345.44	1789.92
345.65	1753.06
345.86	1689.57
346.07	1691.62
346.29	1632.23
346.50	1785.83
346.71	1726.44
346.92	1763.30
347.13	1853.41
347.34	1662.95
347.55	1669.09
347.76	1722.34
347.98	1652.71
348.19	1673.19
348.40	1791.97
348.61	1632.23
348.82	1751.01
349.03	1712.10
349.24	1693.67
349.45	1751.01
349.66	1593.32
349.88	1740.77
350.09	1689.57
350.30	1724.39
350.51	1789.92
350.72	1708.01
350.93	1785.83
351.14	1644.52
351.35	1771.49
351.56	1656.81
351.77	1755.11
351.99	1701.86
352.20	1837.03
352.41	1755.11
352.62	1611.75
352.83	1679.33
353.04	1689.57
353.25	1718.25
353.46	1802.21
353.67	1765.35
353.88	1576.94
354.09	1728.49
354.30	1650.66
354.52	1726.44
354.73	1685.48
354.94	1652.71
355.15	1689.57
355.36	1777.64
355.57	1681.38
355.78	1755.11
355.99	1681.38
356.20	1656.81
356.41	1669.09
356.62	1730.53
356.83	1701.86
357.04	1832.93
357.25	1611.75
357.46	1660.90
357.68	1638.38
357.89	1693.67
358.10	1728.49
358.31	1660.90
358.52	1660.90
358.73	1607.66
358.94	1693.67
359.15	1662.95
359.36	1708.01
359.57	1650.66
359.78	1728.49
359.99	1791.97
360.20	1740.77
360.41	1605.61
360.62	1751.01
360.83	1646.57
361.04	1738.73
361.25	1738.73
361.46	1820.64
361.67	1763.30
361.88	1742.82
362.09	1722.34
362.30	1673.19
362.51	1652.71
362.72	1742.82
362.93	1767.40
363.14	1724.39
363.35	1685.48
363.56	1693.67
363.78	1751.01
363.99	1753.06
364.20	1644.52
364.41	1748.97
364.62	1806.31
364.83	1794.02
365.04	1652.71
365.25	1695.72
365.46	1751.01
365.67	1679.33
365.88	1669.09
366.09	1718.25
366.30	1744.87
366.51	1656.81
366.72	1656.81
366.93	1624.04
367.14	1611.75
367.35	1787.88
367.56	1699.81
367.77	1720.29
367.98	1689.57
368.18	1673.19
368.39	1714.15
368.60	1603.56
368.81	1804.26
369.02	1730.53
369.23	1751.01
369.44	1658.85
369.65	1714.15
369.86	1736.68
370.07	1757.16
370.28	1683.43
370.49	1724.39
370.70	1746.92
370.91	1656.81
371.12	1642.47
371.33	1775.59
371.54	1673.19
371.75	1818.60
371.96	1630.18
372.17	1687.53
372.38	1712.10
372.59	1767.40
372.80	1765.35
373.01	1624.04
373.22	1650.66
373.43	1724.39
373.64	1589.22
373.85	1800.16
374.06	1841.12
374.26	1787.88
374.47	1683.43
374.68	1796.07
374.89	1800.16
375.10	1644.52
375.31	1734.63
375.52	1673.19
375.73	1736.68
375.94	1640.42
376.15	1800.16
376.36	1689.57
376.57	1658.85
376.78	1648.61
376.99	1746.92
377.20	1746.92
377.40	1712.10
377.61	1789.92
377.82	1687.53
378.03	1763.30
378.24	1732.58
378.45	1705.96
378.66	1730.53
378.87	1583.08
379.08	1617.90
379.29	1689.57
379.50	1691.62
379.71	1681.38
379.91	1779.68
380.12	1689.57
380.33	1720.29
380.54	1624.04
380.75	1681.38
380.96	1660.90
381.17	1751.01
381.38	1751.01
381.59	1787.88
381.80	1652.71
382.00	1839.08
382.21	1736.68
382.42	1877.99
382.63	1886.18
382.84	1763.30
383.05	1703.91
383.26	1783.78
383.47	1634.28
383.68	1753.06
383.88	1728.49
384.09	1714.15
384.30	1863.65
384.51	1763.30
384.72	1652.71
384.93	1722.34
385.14	1710.05
385.35	1849.32
385.55	1665.00
385.76	1714.15
385.97	1671.14
386.18	1632.23
386.39	1665.00
386.60	1681.38
386.81	1603.56
387.02	1640.42
387.22	1607.66
387.43	1773.54
387.64	1689.57
387.85	1886.18
388.06	2121.70
388.27	4196.29
388.48	6604.70
388.68	8085.38
388.89	9426.80
389.10	9549.68
389.31	8456.06
389.52	7323.54
389.73	6530.97
389.93	6154.15
390.14	5609.39
390.35	5179.31
390.56	4440.00
390.77	3643.34
390.98	2979.79
391.18	2430.94
391.39	2154.46
391.60	1783.78
391.81	1855.46
392.02	1689.57
392.23	1775.59
392.43	1773.54
392.64	1820.64
392.85	1740.77
393.06	1781.73
393.27	1716.20
393.47	1648.61
393.68	1759.21
393.89	1673.19
394.10	1839.08
394.31	1642.47
394.52	1660.90
394.72	1669.09
394.93	1822.69
395.14	1667.05
395.35	1720.29
395.56	1742.82
395.76	1755.11
395.97	1783.78
396.18	1841.12
396.39	1765.35
396.60	1933.28
396.80	1923.04
397.01	1863.65
397.22	1806.31
397.43	1779.68
397.64	1734.63
397.84	1837.03
398.05	1824.74
398.26	1775.59
398.47	1775.59
398.67	1781.73
398.88	1691.62
399.09	1658.85
399.30	1630.18
399.51	1720.29
399.71	1615.85
399.92	1671.14
400.13	1724.39
400.34	1710.05
400.54	1767.40
400.75	1818.60
400.96	1757.16
401.17	1806.31
401.37	1820.64
401.58	1757.16
401.79	1732.58
402.00	1820.64
402.21	2011.11
402.41	1970.15
402.62	1976.29
402.83	2082.78
403.04	1970.15
403.24	1976.29
403.45	1849.32
403.66	1880.04
403.87	1877.99
404.07	1927.14
404.28	1918.95
404.49	1851.36
404.70	1779.68
404.90	1837.03
405.11	1767.40
405.32	1689.57
405.52	1705.96
405.73	1654.76
405.94	1638.38
406.15	1636.33
406.35	1705.96
406.56	1697.77
406.77	1740.77
406.98	1677.29
407.18	1683.43
407.39	1736.68
407.60	1710.05
407.80	1779.68
408.01	1687.53
408.22	1822.69
408.43	1705.96
408.63	1734.63
408.84	1751.01
409.05	1771.49
409.25	1640.42
409.46	1701.86
409.67	1685.48
409.88	1656.81
410.08	1710.05
410.29	1746.92
410.50	1671.14
410.70	1693.67
410.91	1621.99
411.12	1714.15
411.32	1689.57
411.53	1685.48
411.74	1791.97
411.95	1830.88
412.15	1802.21
412.36	1834.98
412.57	1759.21
412.77	1828.84
412.98	1685.48
413.19	1685.48
413.39	1734.63
413.60	1734.63
413.81	1714.15
414.01	1701.86
414.22	1712.10
414.43	1703.91
414.63	1667.05
414.84	1742.82
415.05	1755.11
415.25	1660.90
415.46	1820.64
415.67	1673.19
415.87	1763.30
416.08	1761.25
416.29	1695.72
416.49	1796.07
416.70	1769.44
416.91	1693.67
417.11	1687.53
417.32	1710.05
417.53	1771.49
417.73	1697.77
417.94	1734.63
418.15	1734.63
418.35	1751.01
418.56	1738.73
418.77	1859.56
418.97	1757.16
419.18	1705.96
419.38	1699.81
419.59	1689.57
419.80	1769.44
420.00	1660.90
420.21	1738.73
420.42	1763.30
420.62	1738.73
420.83	1642.47
421.04	1728.49
421.24	1722.34
421.45	1812.45
421.65	1689.57
421.86	1652.71
422.07	1757.16
422.27	1767.40
422.48	1710.05
422.69	1611.75
422.89	1644.52
423.10	1689.57
423.30	1648.61
423.51	1722.34
423.72	1710.05
423.92	1796.07
424.13	1621.99
424.33	1681.38
424.54	1699.81
424.75	1708.01
424.95	1914.85
425.16	1677.29
425.36	1708.01
425.57	1769.44
425.78	1773.54
425.98	1687.53
426.19	1675.24
426.39	1669.09
426.60	1675.24
426.81	1810.40
427.01	1724.39
427.22	1617.90
427.42	1640.42
427.63	1701.86
427.83	1882.08
428.04	1775.59
428.25	1822.69
428.45	1789.92
428.66	1814.50
428.86	1671.14
429.07	1724.39
429.28	1755.11
429.48	1689.57
429.69	1689.57
429.89	1708.01
430.10	1681.38
430.30	1726.44
430.51	1791.97
430.71	1597.42
430.92	1722.34
431.13	1693.67
431.33	1724.39
431.54	1705.96
431.74	1865.70
431.95	1783.78
432.15	1728.49
432.36	1679.33
432.56	1763.30
432.77	1884.13
432.98	1822.69
433.18	1734.63
433.39	1675.24
433.59	1687.53
433.80	1820.64
434.00	1824.74
434.21	1615.85
434.41	1654.76
434.62	1880.04
434.82	1673.19
435.03	1703.91
435.23	1757.16
435.44	1621.99
435.64	1679.33
435.85	1746.92
436.06	1775.59
436.26	1783.78
436.47	1736.68
436.67	1658.85
436.88	1744.87
437.08	1708.01
437.29	1810.40
437.49	1730.53
437.70	1789.92
437.90	1791.97
438.11	1824.74
438.31	1779.68
438.52	1855.46
438.72	1832.93
438.93	1931.23
439.13	1804.26
439.34	1832.93
439.54	1765.35
439.75	1820.64
439.95	1775.59
440.16	1681.38
440.36	1773.54
440.57	1679.33
440.77	1771.49
440.98	1753.06
441.18	1681.38
441.39	1759.21
441.59	1705.96
441.80	1857.51
442.00	1806.31
442.21	1802.21
442.41	1675.24
442.62	1744.87
442.82	1714.15
443.02	1730.53
443.23	1779.68
443.43	1767.40
443.64	1779.68
443.84	1642.47
444.05	1769.44
444.25	1679.33
444.46	1689.57
444.66	1753.06
444.87	1783.78
445.07	1607.66
445.28	1734.63
445.48	1740.77
445.69	1724.39
445.89	1855.46
446.09	1665.00
446.30	2021.35
446.50	2629.59
446.71	3663.82
446.91	4229.06
447.12	4659.13
447.32	4786.10
447.53	4198.34
447.73	3704.78
447.93	3434.44
448.14	3319.76
448.34	3162.06
448.55	2885.59
448.75	2809.81
448.96	2676.70
449.16	2375.64
449.36	2154.46
449.57	2066.40
449.77	1980.39
449.98	1796.07
450.18	1748.97
450.39	1791.97
450.59	1849.32
450.79	1753.06
451.00	1722.34
451.20	1824.74
451.41	1722.34
451.61	1751.01
451.81	1810.40
452.02	1673.19
452.22	1685.48
452.43	1685.48
452.63	1718.25
