SpectraSuite Data File
++++++++++++++++++++++++++++++++++++
Date: Mon Jun 06 14:58:57 CEST 2016
User: root
Dark Spectrum Present: No
Reference Spectrum Present: No
Number of Sampled Component Spectra: 1
Spectrometers: USB4C02835
Integration Time (usec): 100000 (USB4C02835)
Spectra Averaged: 1 (USB4C02835)
Boxcar Smoothing: 0 (USB4C02835)
Correct for Electrical Dark: No (USB4C02835)
Strobe/Lamp Enabled: No (USB4C02835)
Correct for Detector Non-linearity: No (USB4C02835)
Correct for Stray Light: No (USB4C02835)
Number of Pixels in Processed Spectrum: 3648
>>>>>Begin Processed Spectral Data<<<<<
177.47	1447.91
177.69	1447.91
177.91	1447.91
178.13	1468.39
178.36	1394.67
178.58	1619.94
178.80	1708.01
179.02	1529.83
179.24	1695.72
179.46	1667.05
179.68	1720.29
179.90	1716.20
180.13	1714.15
180.35	1677.29
180.57	1634.28
180.79	1759.21
181.01	1642.47
181.23	1693.67
181.45	1820.64
181.67	1734.63
181.90	1746.92
182.12	1679.33
182.34	1634.28
182.56	1812.45
182.78	1695.72
183.00	1705.96
183.22	1736.68
183.44	1581.03
183.66	1869.80
183.89	1716.20
184.11	1759.21
184.33	1683.43
184.55	1765.35
184.77	1722.34
184.99	1669.09
185.21	1603.56
185.43	1800.16
185.65	1705.96
185.87	1712.10
186.10	1820.64
186.32	1791.97
186.54	1759.21
186.76	1716.20
186.98	1718.25
187.20	1740.77
187.42	1730.53
187.64	1765.35
187.86	1751.01
188.08	1761.25
188.30	1699.81
188.52	1697.77
188.75	1712.10
188.97	1789.92
189.19	1669.09
189.41	1728.49
189.63	1654.76
189.85	1669.09
190.07	1619.94
190.29	1669.09
190.51	1689.57
190.73	1648.61
190.95	1773.54
191.17	1740.77
191.39	1617.90
191.61	1648.61
191.84	1640.42
192.06	1728.49
192.28	1654.76
192.50	1869.80
192.72	1693.67
192.94	1744.87
193.16	1785.83
193.38	1699.81
193.60	1587.18
193.82	1708.01
194.04	1767.40
194.26	1667.05
194.48	1730.53
194.70	1730.53
194.92	1652.71
195.14	1751.01
195.36	1695.72
195.58	1720.29
195.80	1675.24
196.02	1671.14
196.24	1677.29
196.46	1765.35
196.69	1646.57
196.91	1880.04
197.13	1675.24
197.35	1656.81
197.57	1783.78
197.79	1695.72
198.01	1783.78
198.23	1701.86
198.45	1710.05
198.67	1683.43
198.89	1744.87
199.11	1798.12
199.33	1716.20
199.55	1642.47
199.77	1632.23
199.99	1751.01
200.21	1656.81
200.43	1748.97
200.65	1558.50
200.87	1632.23
201.09	1681.38
201.31	1669.09
201.53	1701.86
201.75	1738.73
201.97	1765.35
202.19	1695.72
202.41	1763.30
202.63	1759.21
202.85	1753.06
203.07	1777.64
203.29	1705.96
203.51	1658.85
203.73	1699.81
203.95	1832.93
204.17	1677.29
204.39	1689.57
204.61	1687.53
204.83	1671.14
205.05	1710.05
205.27	1814.50
205.49	1877.99
205.71	1681.38
205.93	1585.13
206.15	1712.10
206.37	1650.66
206.59	1742.82
206.81	1591.27
207.03	1662.95
207.25	1708.01
207.47	1689.57
207.69	1759.21
207.91	1859.56
208.13	1785.83
208.34	1558.50
208.56	1646.57
208.78	1742.82
209.00	1685.48
209.22	1665.00
209.44	1708.01
209.66	1634.28
209.88	1710.05
210.10	1728.49
210.32	1730.53
210.54	1753.06
210.76	1677.29
210.98	1730.53
211.20	1609.70
211.42	1677.29
211.64	1834.98
211.86	1710.05
212.08	1787.88
212.30	1687.53
212.52	1628.14
212.74	1681.38
212.96	1677.29
213.17	1708.01
213.39	1759.21
213.61	1791.97
213.83	1650.66
214.05	1593.32
214.27	1773.54
214.49	1576.94
214.71	1669.09
214.93	1759.21
215.15	1685.48
215.37	1804.26
215.59	1634.28
215.81	1748.97
216.03	1699.81
216.24	1738.73
216.46	1683.43
216.68	1771.49
216.90	1728.49
217.12	1736.68
217.34	1787.88
217.56	1730.53
217.78	1826.79
218.00	1673.19
218.22	1708.01
218.44	1693.67
218.66	1705.96
218.87	1808.36
219.09	1640.42
219.31	1703.91
219.53	1710.05
219.75	1701.86
219.97	1687.53
220.19	1701.86
220.41	1767.40
220.63	1759.21
220.85	1677.29
221.06	1746.92
221.28	1722.34
221.50	1742.82
221.72	1710.05
221.94	1746.92
222.16	1669.09
222.38	1697.77
222.60	1738.73
222.82	1652.71
223.03	1652.71
223.25	1570.79
223.47	1748.97
223.69	1810.40
223.91	1710.05
224.13	1681.38
224.35	1656.81
224.57	1744.87
224.78	1736.68
225.00	1656.81
225.22	1689.57
225.44	1687.53
225.66	1791.97
225.88	1640.42
226.10	1742.82
226.32	1683.43
226.53	1810.40
226.75	1769.44
226.97	1650.66
227.19	1808.36
227.41	1667.05
227.63	1642.47
227.85	1701.86
228.06	1742.82
228.28	1648.61
228.50	1767.40
228.72	1605.61
228.94	1697.77
229.16	1763.30
229.37	1656.81
229.59	1628.14
229.81	1765.35
230.03	1650.66
230.25	1607.66
230.47	1638.38
230.69	1677.29
230.90	1728.49
231.12	1765.35
231.34	1705.96
231.56	1796.07
231.78	1691.62
232.00	1671.14
232.21	1710.05
232.43	1699.81
232.65	1605.61
232.87	1718.25
233.09	1619.94
233.30	1595.37
233.52	1724.39
233.74	1775.59
233.96	1691.62
234.18	1728.49
234.40	1740.77
234.61	1757.16
234.83	1652.71
235.05	1640.42
235.27	1822.69
235.49	1746.92
235.70	1724.39
235.92	1777.64
236.14	1640.42
236.36	1849.32
236.58	1607.66
236.79	1705.96
237.01	1665.00
237.23	1658.85
237.45	1783.78
237.67	1673.19
237.88	1675.24
238.10	1839.08
238.32	1650.66
238.54	1660.90
238.76	1685.48
238.97	1708.01
239.19	1626.09
239.41	1693.67
239.63	1759.21
239.85	1638.38
240.06	1703.91
240.28	1638.38
240.50	1656.81
240.72	1716.20
240.93	1736.68
241.15	1748.97
241.37	1710.05
241.59	1771.49
241.81	1724.39
242.02	1699.81
242.24	1712.10
242.46	1759.21
242.68	1617.90
242.89	1726.44
243.11	1773.54
243.33	1646.57
243.55	1816.55
243.76	1652.71
243.98	1736.68
244.20	1691.62
244.42	1687.53
244.64	1697.77
244.85	1630.18
245.07	1640.42
245.29	1738.73
245.51	1662.95
245.72	1720.29
245.94	1759.21
246.16	1689.57
246.38	1802.21
246.59	1662.95
246.81	1685.48
247.03	1712.10
247.24	1574.89
247.46	1597.42
247.68	1718.25
247.90	1751.01
248.11	1695.72
248.33	1777.64
248.55	1656.81
248.77	1691.62
248.98	1718.25
249.20	1863.65
249.42	1673.19
249.64	1646.57
249.85	1740.77
250.07	1691.62
250.29	1751.01
250.50	1734.63
250.72	1583.08
250.94	1693.67
251.16	1859.56
251.37	1757.16
251.59	1642.47
251.81	1759.21
252.02	1775.59
252.24	1654.76
252.46	1732.58
252.68	1716.20
252.89	1691.62
253.11	1660.90
253.33	1796.07
253.54	1757.16
253.76	1646.57
253.98	1673.19
254.20	1650.66
254.41	1662.95
254.63	1722.34
254.85	1738.73
255.06	1632.23
255.28	1734.63
255.50	1634.28
255.71	1656.81
255.93	1638.38
256.15	1726.44
256.36	1755.11
256.58	1671.14
256.80	1734.63
257.02	1683.43
257.23	1714.15
257.45	1665.00
257.67	1763.30
257.88	1687.53
258.10	1689.57
258.32	1640.42
258.53	1714.15
258.75	1753.06
258.97	1662.95
259.18	1716.20
259.40	1654.76
259.62	1855.46
259.83	1791.97
260.05	1710.05
260.27	2007.01
260.48	1718.25
260.70	1599.46
260.92	1699.81
261.13	1673.19
261.35	1677.29
261.57	1732.58
261.78	1626.09
262.00	1697.77
262.22	1675.24
262.43	1638.38
262.65	1689.57
262.86	1650.66
263.08	1808.36
263.30	1728.49
263.51	1572.84
263.73	1738.73
263.95	1757.16
264.16	1667.05
264.38	1660.90
264.60	1736.68
264.81	1679.33
265.03	1722.34
265.25	1689.57
265.46	1705.96
265.68	1714.15
265.89	1730.53
266.11	1626.09
266.33	1748.97
266.54	1728.49
266.76	1720.29
266.98	1701.86
267.19	1789.92
267.41	1767.40
267.62	1757.16
267.84	1640.42
268.06	1695.72
268.27	1740.77
268.49	1744.87
268.70	1714.15
268.92	1708.01
269.14	1617.90
269.35	1605.61
269.57	1734.63
269.79	1765.35
270.00	1648.61
270.22	1759.21
270.43	1736.68
270.65	1615.85
270.87	1671.14
271.08	1787.88
271.30	1816.55
271.51	1667.05
271.73	1779.68
271.95	1787.88
272.16	1789.92
272.38	1765.35
272.59	1669.09
272.81	1742.82
273.02	1660.90
273.24	1722.34
273.46	1722.34
273.67	1648.61
273.89	1677.29
274.10	1708.01
274.32	1800.16
274.54	1738.73
274.75	1761.25
274.97	1718.25
275.18	1656.81
275.40	1767.40
275.61	1662.95
275.83	1705.96
276.05	1669.09
276.26	1728.49
276.48	1734.63
276.69	1648.61
276.91	1708.01
277.12	1775.59
277.34	1748.97
277.55	1775.59
277.77	1730.53
277.99	1685.48
278.20	1546.22
278.42	1665.00
278.63	1660.90
278.85	1615.85
279.06	1640.42
279.28	1677.29
279.49	1697.77
279.71	1757.16
279.93	1701.86
280.14	1673.19
280.36	1681.38
280.57	1656.81
280.79	1734.63
281.00	1695.72
281.22	1613.80
281.43	1763.30
281.65	1607.66
281.86	1677.29
282.08	1755.11
282.29	1771.49
282.51	1648.61
282.73	1642.47
282.94	1605.61
283.16	1746.92
283.37	1839.08
283.59	1679.33
283.80	1691.62
284.02	1728.49
284.23	1714.15
284.45	1615.85
284.66	1644.52
284.88	1689.57
285.09	1757.16
285.31	1710.05
285.52	1708.01
285.74	1640.42
285.95	1787.88
286.17	1701.86
286.38	1775.59
286.60	1671.14
286.81	1695.72
287.03	1679.33
287.24	1640.42
287.46	1716.20
287.67	1722.34
287.89	1871.84
288.10	1681.38
288.32	1689.57
288.53	1871.84
288.75	1734.63
288.96	1759.21
289.18	1650.66
289.39	1701.86
289.61	1785.83
289.82	1851.36
290.04	1767.40
290.25	1599.46
290.47	1761.25
290.68	1718.25
290.90	1812.45
291.11	1640.42
291.33	1714.15
291.54	1638.38
291.76	1697.77
291.97	1665.00
292.18	1759.21
292.40	1738.73
292.61	1736.68
292.83	1886.18
293.04	1730.53
293.26	1785.83
293.47	1699.81
293.69	1658.85
293.90	1697.77
294.12	1818.60
294.33	1763.30
294.55	1656.81
294.76	1775.59
294.97	1800.16
295.19	1867.75
295.40	1697.77
295.62	1783.78
295.83	1691.62
296.05	1697.77
296.26	1781.73
296.48	1679.33
296.69	1720.29
296.90	1742.82
297.12	1746.92
297.33	1806.31
297.55	1765.35
297.76	1673.19
297.98	1755.11
298.19	1746.92
298.41	1660.90
298.62	1665.00
298.83	1755.11
299.05	1611.75
299.26	1726.44
299.48	1693.67
299.69	1800.16
299.90	1751.01
300.12	1640.42
300.33	1755.11
300.55	1744.87
300.76	1787.88
300.98	1689.57
301.19	1701.86
301.40	1667.05
301.62	1644.52
301.83	1730.53
302.05	1675.24
302.26	1716.20
302.47	1753.06
302.69	1712.10
302.90	1740.77
303.12	1540.07
303.33	1738.73
303.54	1787.88
303.76	1693.67
303.97	1724.39
304.19	1816.55
304.40	1656.81
304.61	1740.77
304.83	1789.92
305.04	1742.82
305.26	1730.53
305.47	1679.33
305.68	1720.29
305.90	1665.00
306.11	1740.77
306.33	1667.05
306.54	1730.53
306.75	1642.47
306.97	1656.81
307.18	1626.09
307.39	1665.00
307.61	1720.29
307.82	1714.15
308.04	1630.18
308.25	1693.67
308.46	1738.73
308.68	1753.06
308.89	1609.70
309.10	1806.31
309.32	1746.92
309.53	1687.53
309.74	1679.33
309.96	1675.24
310.17	1732.58
310.39	1705.96
310.60	1597.42
310.81	1748.97
311.03	1656.81
311.24	1730.53
311.45	1679.33
311.67	1808.36
311.88	1689.57
312.09	1681.38
312.31	1665.00
312.52	1628.14
312.73	1669.09
312.95	1601.51
313.16	1691.62
313.37	1728.49
313.59	1724.39
313.80	1806.31
314.01	1775.59
314.23	1726.44
314.44	1669.09
314.65	1716.20
314.87	1619.94
315.08	1648.61
315.29	1644.52
315.51	1712.10
315.72	1638.38
315.93	1718.25
316.15	1816.55
316.36	1685.48
316.57	1665.00
316.79	1777.64
317.00	1640.42
317.21	1761.25
317.43	1648.61
317.64	1669.09
317.85	1681.38
318.07	1599.46
318.28	1660.90
318.49	1796.07
318.70	1914.85
318.92	1849.32
319.13	1855.46
319.34	1914.85
319.56	1804.26
319.77	1724.39
319.98	1714.15
320.20	1789.92
320.41	1708.01
320.62	1738.73
320.83	1630.18
321.05	1834.98
321.26	1794.02
321.47	1619.94
321.69	1755.11
321.90	1642.47
322.11	1705.96
322.32	1695.72
322.54	1767.40
322.75	1671.14
322.96	1771.49
323.18	1605.61
323.39	1669.09
323.60	1679.33
323.81	1712.10
324.03	1669.09
324.24	1724.39
324.45	1742.82
324.66	1718.25
324.88	1779.68
325.09	1748.97
325.30	1708.01
325.52	1773.54
325.73	1779.68
325.94	1615.85
326.15	1615.85
326.37	1597.42
326.58	1726.44
326.79	1779.68
327.00	1687.53
327.22	1701.86
327.43	1646.57
327.64	1593.32
327.85	1738.73
328.07	1656.81
328.28	1808.36
328.49	1642.47
328.70	1640.42
328.92	1722.34
329.13	1728.49
329.34	1710.05
329.55	1742.82
329.76	1781.73
329.98	1681.38
330.19	1738.73
330.40	1726.44
330.61	1757.16
330.83	1732.58
331.04	1689.57
331.25	1714.15
331.46	1654.76
331.68	1628.14
331.89	1806.31
332.10	1675.24
332.31	1636.33
332.52	1675.24
332.74	1777.64
332.95	1607.66
333.16	1671.14
333.37	1701.86
333.58	1660.90
333.80	1726.44
334.01	1718.25
334.22	1638.38
334.43	1640.42
334.64	1687.53
334.86	1603.56
335.07	1626.09
335.28	1722.34
335.49	1642.47
335.70	1775.59
335.92	1726.44
336.13	1779.68
336.34	1718.25
336.55	1714.15
336.76	1677.29
336.98	1587.18
337.19	1693.67
337.40	1759.21
337.61	1845.22
337.82	1665.00
338.04	1718.25
338.25	1640.42
338.46	1667.05
338.67	1626.09
338.88	1650.66
339.09	1638.38
339.31	1628.14
339.52	1638.38
339.73	1695.72
339.94	1744.87
340.15	1746.92
340.36	1677.29
340.58	1681.38
340.79	1648.61
341.00	1683.43
341.21	1626.09
341.42	1832.93
341.63	1808.36
341.85	1757.16
342.06	1667.05
342.27	1656.81
342.48	1734.63
342.69	1576.94
342.90	1724.39
343.12	1677.29
343.33	1630.18
343.54	1777.64
343.75	1763.30
343.96	1701.86
344.17	1658.85
344.38	1640.42
344.60	1615.85
344.81	1642.47
345.02	1652.71
345.23	1767.40
345.44	1794.02
345.65	1662.95
345.86	1652.71
346.07	1736.68
346.29	1640.42
346.50	1675.24
346.71	1697.77
346.92	1761.25
347.13	1847.27
347.34	1681.38
347.55	1652.71
347.76	1740.77
347.98	1642.47
348.19	1665.00
348.40	1722.34
348.61	1681.38
348.82	1744.87
349.03	1777.64
349.24	1607.66
349.45	1865.70
349.66	1611.75
349.88	1642.47
350.09	1662.95
350.30	1738.73
350.51	1722.34
350.72	1740.77
350.93	1742.82
351.14	1648.61
351.35	1740.77
351.56	1660.90
351.77	1656.81
351.99	1691.62
352.20	1796.07
352.41	1738.73
352.62	1677.29
352.83	1714.15
353.04	1722.34
353.25	1662.95
353.46	1785.83
353.67	1683.43
353.88	1554.41
354.09	1669.09
354.30	1718.25
354.52	1722.34
354.73	1767.40
354.94	1714.15
355.15	1759.21
355.36	1787.88
355.57	1691.62
355.78	1740.77
355.99	1669.09
356.20	1644.52
356.41	1810.40
356.62	1753.06
356.83	1710.05
357.04	1779.68
357.25	1595.37
357.46	1712.10
357.68	1615.85
357.89	1640.42
358.10	1673.19
358.31	1697.77
358.52	1667.05
358.73	1671.14
358.94	1687.53
359.15	1712.10
359.36	1724.39
359.57	1757.16
359.78	1669.09
359.99	1783.78
360.20	1667.05
360.41	1679.33
360.62	1726.44
360.83	1730.53
361.04	1669.09
361.25	1677.29
361.46	1806.31
361.67	1759.21
361.88	1693.67
362.09	1773.54
362.30	1718.25
362.51	1644.52
362.72	1660.90
362.93	1742.82
363.14	1722.34
363.35	1736.68
363.56	1681.38
363.78	1734.63
363.99	1761.25
364.20	1699.81
364.41	1689.57
364.62	1812.45
364.83	1681.38
365.04	1701.86
365.25	1730.53
365.46	1794.02
365.67	1646.57
365.88	1595.37
366.09	1634.28
366.30	1732.58
366.51	1669.09
366.72	1648.61
366.93	1640.42
367.14	1767.40
367.35	1818.60
367.56	1724.39
367.77	1746.92
367.98	1726.44
368.18	1697.77
368.39	1753.06
368.60	1632.23
368.81	1798.12
369.02	1677.29
369.23	1728.49
369.44	1568.74
369.65	1640.42
369.86	1705.96
370.07	1748.97
370.28	1691.62
370.49	1689.57
370.70	1714.15
370.91	1626.09
371.12	1628.14
371.33	1798.12
371.54	1644.52
371.75	1800.16
371.96	1642.47
372.17	1744.87
372.38	1669.09
372.59	1669.09
372.80	1683.43
373.01	1716.20
373.22	1804.26
373.43	1785.83
373.64	1632.23
373.85	1759.21
374.06	1771.49
374.26	1726.44
374.47	1718.25
374.68	1771.49
374.89	1722.34
375.10	1654.76
375.31	1816.55
375.52	1755.11
375.73	1746.92
375.94	1644.52
376.15	1812.45
376.36	1564.65
376.57	1648.61
376.78	1708.01
376.99	1691.62
377.20	1746.92
377.40	1730.53
377.61	1845.22
377.82	1632.23
378.03	1771.49
378.24	1804.26
378.45	1644.52
378.66	1722.34
378.87	1640.42
379.08	1646.57
379.29	1705.96
379.50	1779.68
379.71	1718.25
379.91	1732.58
380.12	1673.19
380.33	1689.57
380.54	1689.57
380.75	1673.19
380.96	1791.97
381.17	1816.55
381.38	1669.09
381.59	1705.96
381.80	1710.05
382.00	1845.22
382.21	1794.02
382.42	1710.05
382.63	1828.84
382.84	1703.91
383.05	1755.11
383.26	1798.12
383.47	1763.30
383.68	1712.10
383.88	1701.86
384.09	1679.33
384.30	1832.93
384.51	1755.11
384.72	1607.66
384.93	1644.52
385.14	1665.00
385.35	1673.19
385.55	1718.25
385.76	1804.26
385.97	1697.77
386.18	1779.68
386.39	1697.77
386.60	1722.34
386.81	1691.62
387.02	1634.28
387.22	1685.48
387.43	1742.82
387.64	1828.84
387.85	1875.94
388.06	2172.89
388.27	4220.86
388.48	6664.09
388.68	8089.48
388.89	9275.25
389.10	9512.81
389.31	8208.26
389.52	7405.46
389.73	6514.59
389.93	6027.17
390.14	5785.51
390.35	5089.20
390.56	4396.99
390.77	3688.39
390.98	2957.27
391.18	2484.19
391.39	2181.09
391.60	1863.65
391.81	1814.50
392.02	1705.96
392.23	1820.64
392.43	1771.49
392.64	1736.68
392.85	1744.87
393.06	1818.60
393.27	1728.49
393.47	1765.35
393.68	1740.77
393.89	1763.30
394.10	1728.49
394.31	1611.75
394.52	1683.43
394.72	1691.62
394.93	1789.92
395.14	1634.28
395.35	1773.54
395.56	1681.38
395.76	1746.92
395.97	1716.20
396.18	1855.46
396.39	1771.49
396.60	1970.15
396.80	1865.70
397.01	1847.27
397.22	1781.73
397.43	1828.84
397.64	1697.77
397.84	1849.32
398.05	1855.46
398.26	1744.87
398.47	1785.83
398.67	1767.40
398.88	1783.78
399.09	1785.83
399.30	1753.06
399.51	1720.29
399.71	1613.80
399.92	1689.57
400.13	1826.79
400.34	1636.33
400.54	1703.91
400.75	1804.26
400.96	1798.12
401.17	1736.68
401.37	1626.09
401.58	1683.43
401.79	1714.15
402.00	1939.43
402.21	1998.82
402.41	1957.86
402.62	1974.24
402.83	2013.15
403.04	1994.72
403.24	2074.59
403.45	1740.77
403.66	1923.04
403.87	1880.04
404.07	1949.67
404.28	1898.47
404.49	1845.22
404.70	1822.69
404.90	1736.68
405.11	1722.34
405.32	1728.49
405.52	1640.42
405.73	1691.62
405.94	1675.24
406.15	1687.53
406.35	1746.92
406.56	1708.01
406.77	1759.21
406.98	1724.39
407.18	1644.52
407.39	1779.68
407.60	1675.24
407.80	1726.44
408.01	1705.96
408.22	1630.18
408.43	1552.36
408.63	1763.30
408.84	1718.25
409.05	1769.44
409.25	1650.66
409.46	1662.95
409.67	1677.29
409.88	1646.57
410.08	1779.68
410.29	1675.24
410.50	1787.88
410.70	1767.40
410.91	1638.38
411.12	1705.96
411.32	1648.61
411.53	1660.90
411.74	1759.21
411.95	1779.68
412.15	1751.01
412.36	1802.21
412.57	1705.96
412.77	1787.88
412.98	1691.62
413.19	1708.01
413.39	1720.29
413.60	1738.73
413.81	1802.21
414.01	1701.86
414.22	1748.97
414.43	1742.82
414.63	1712.10
414.84	1828.84
415.05	1662.95
415.25	1617.90
415.46	1802.21
415.67	1691.62
415.87	1732.58
416.08	1787.88
416.29	1695.72
416.49	1693.67
416.70	1656.81
416.91	1677.29
417.11	1757.16
417.32	1751.01
417.53	1712.10
417.73	1744.87
417.94	1718.25
418.15	1703.91
418.35	1718.25
418.56	1755.11
418.77	1810.40
418.97	1703.91
419.18	1738.73
419.38	1578.98
419.59	1726.44
419.80	1818.60
420.00	1673.19
420.21	1705.96
420.42	1767.40
420.62	1665.00
420.83	1669.09
421.04	1691.62
421.24	1708.01
421.45	1769.44
421.65	1710.05
421.86	1734.63
422.07	1667.05
422.27	1662.95
422.48	1640.42
422.69	1609.70
422.89	1703.91
423.10	1640.42
423.30	1648.61
423.51	1746.92
423.72	1751.01
423.92	1771.49
424.13	1613.80
424.33	1728.49
424.54	1814.50
424.75	1718.25
424.95	1746.92
425.16	1753.06
425.36	1705.96
425.57	1773.54
425.78	1781.73
425.98	1785.83
426.19	1621.99
426.39	1624.04
426.60	1681.38
426.81	1845.22
427.01	1771.49
427.22	1619.94
427.42	1607.66
427.63	1640.42
427.83	1753.06
428.04	1824.74
428.25	1812.45
428.45	1681.38
428.66	1691.62
428.86	1710.05
429.07	1753.06
429.28	1748.97
429.48	1646.57
429.69	1624.04
429.89	1757.16
430.10	1697.77
430.30	1730.53
430.51	1728.49
430.71	1675.24
430.92	1644.52
431.13	1693.67
431.33	1796.07
431.54	1720.29
431.74	1730.53
431.95	1847.27
432.15	1671.14
432.36	1685.48
432.56	1705.96
432.77	1818.60
432.98	1910.75
433.18	1800.16
433.39	1628.14
433.59	1648.61
433.80	1892.32
434.00	1830.88
434.21	1693.67
434.41	1755.11
434.62	1912.80
434.82	1669.09
435.03	1658.85
435.23	1775.59
435.44	1701.86
435.64	1695.72
435.85	1781.73
436.06	1798.12
436.26	1789.92
436.47	1714.15
436.67	1714.15
436.88	1652.71
437.08	1742.82
437.29	1787.88
437.49	1656.81
437.70	1800.16
437.90	1695.72
438.11	1845.22
438.31	1783.78
438.52	1834.98
438.72	1849.32
438.93	1904.61
439.13	1785.83
439.34	1794.02
439.54	1812.45
439.75	1818.60
439.95	1771.49
440.16	1687.53
440.36	1726.44
440.57	1783.78
440.77	1685.48
440.98	1712.10
441.18	1781.73
441.39	1646.57
441.59	1630.18
441.80	1910.75
442.00	1644.52
442.21	1812.45
442.41	1624.04
442.62	1800.16
442.82	1693.67
443.02	1730.53
443.23	1777.64
443.43	1677.29
443.64	1767.40
443.84	1720.29
444.05	1726.44
444.25	1673.19
444.46	1669.09
444.66	1724.39
444.87	1777.64
445.07	1609.70
445.28	1677.29
445.48	1773.54
445.69	1732.58
445.89	1894.37
446.09	1718.25
446.30	2062.30
446.50	2631.64
446.71	3684.30
446.91	4196.29
447.12	4710.33
447.32	4734.90
447.53	4304.83
447.73	3821.51
447.93	3502.03
448.14	3127.25
448.34	3184.59
448.55	2895.83
448.75	2770.90
448.96	2770.90
449.16	2344.92
449.36	2234.33
449.57	2129.89
449.77	1890.28
449.98	1785.83
450.18	1767.40
450.39	1828.84
450.59	1796.07
450.79	1794.02
451.00	1621.99
451.20	1789.92
451.41	1751.01
451.61	1798.12
451.81	1742.82
452.02	1755.11
452.22	1701.86
452.43	1773.54
452.63	1728.49
