SpectraSuite Data File
++++++++++++++++++++++++++++++++++++
Date: Mon Jun 06 15:42:37 CEST 2016
User: root
Dark Spectrum Present: No
Reference Spectrum Present: No
Number of Sampled Component Spectra: 1
Spectrometers: USB4C02835
Integration Time (usec): 100000 (USB4C02835)
Spectra Averaged: 1 (USB4C02835)
Boxcar Smoothing: 0 (USB4C02835)
Correct for Electrical Dark: No (USB4C02835)
Strobe/Lamp Enabled: No (USB4C02835)
Correct for Detector Non-linearity: No (USB4C02835)
Correct for Stray Light: No (USB4C02835)
Number of Pixels in Processed Spectrum: 3648
>>>>>Begin Processed Spectral Data<<<<<
177.47	1538.02
177.69	1538.02
177.91	1538.02
178.13	1495.02
178.36	1509.35
178.58	1607.66
178.80	1732.58
179.02	1624.04
179.24	1609.70
179.46	1683.43
179.68	1767.40
179.90	1710.05
180.13	1740.77
180.35	1683.43
180.57	1632.23
180.79	1679.33
181.01	1732.58
181.23	1812.45
181.45	1744.87
181.67	1753.06
181.90	1765.35
182.12	1646.57
182.34	1613.80
182.56	1761.25
182.78	1718.25
183.00	1638.38
183.22	1685.48
183.44	1617.90
183.66	1882.08
183.89	1812.45
184.11	1693.67
184.33	1818.60
184.55	1710.05
184.77	1757.16
184.99	1691.62
185.21	1681.38
185.43	1873.89
185.65	1624.04
185.87	1746.92
186.10	1763.30
186.32	1789.92
186.54	1777.64
186.76	1732.58
186.98	1669.09
187.20	1671.14
187.42	1665.00
187.64	1705.96
187.86	1726.44
188.08	1751.01
188.30	1738.73
188.52	1679.33
188.75	1773.54
188.97	1787.88
189.19	1744.87
189.41	1732.58
189.63	1673.19
189.85	1652.71
190.07	1705.96
190.29	1642.47
190.51	1759.21
190.73	1693.67
190.95	1800.16
191.17	1742.82
191.39	1687.53
191.61	1738.73
191.84	1599.46
192.06	1734.63
192.28	1650.66
192.50	1865.70
192.72	1724.39
192.94	1718.25
193.16	1787.88
193.38	1796.07
193.60	1673.19
193.82	1673.19
194.04	1726.44
194.26	1730.53
194.48	1697.77
194.70	1708.01
194.92	1642.47
195.14	1773.54
195.36	1748.97
195.58	1722.34
195.80	1714.15
196.02	1714.15
196.24	1761.25
196.46	1730.53
196.69	1718.25
196.91	1810.40
197.13	1705.96
197.35	1665.00
197.57	1763.30
197.79	1783.78
198.01	1789.92
198.23	1751.01
198.45	1751.01
198.67	1679.33
198.89	1656.81
199.11	1775.59
199.33	1708.01
199.55	1646.57
199.77	1742.82
199.99	1812.45
200.21	1662.95
200.43	1761.25
200.65	1677.29
200.87	1613.80
201.09	1675.24
201.31	1691.62
201.53	1779.68
201.75	1701.86
201.97	1740.77
202.19	1724.39
202.41	1800.16
202.63	1888.23
202.85	1724.39
203.07	1767.40
203.29	1685.48
203.51	1593.32
203.73	1675.24
203.95	1910.75
204.17	1773.54
204.39	1703.91
204.61	1660.90
204.83	1683.43
205.05	1767.40
205.27	1775.59
205.49	1796.07
205.71	1665.00
205.93	1640.42
206.15	1703.91
206.37	1687.53
206.59	1712.10
206.81	1630.18
207.03	1660.90
207.25	1681.38
207.47	1791.97
207.69	1744.87
207.91	1816.55
208.13	1767.40
208.34	1671.14
208.56	1662.95
208.78	1783.78
209.00	1652.71
209.22	1695.72
209.44	1705.96
209.66	1730.53
209.88	1755.11
210.10	1673.19
210.32	1673.19
210.54	1800.16
210.76	1673.19
210.98	1734.63
211.20	1646.57
211.42	1755.11
211.64	1771.49
211.86	1701.86
212.08	1761.25
212.30	1714.15
212.52	1722.34
212.74	1699.81
212.96	1685.48
213.17	1761.25
213.39	1697.77
213.61	1804.26
213.83	1640.42
214.05	1697.77
214.27	1738.73
214.49	1669.09
214.71	1689.57
214.93	1794.02
215.15	1732.58
215.37	1726.44
215.59	1640.42
215.81	1701.86
216.03	1710.05
216.24	1748.97
216.46	1708.01
216.68	1720.29
216.90	1826.79
217.12	1712.10
217.34	1779.68
217.56	1662.95
217.78	1822.69
218.00	1732.58
218.22	1736.68
218.44	1740.77
218.66	1701.86
218.87	1769.44
219.09	1734.63
219.31	1732.58
219.53	1751.01
219.75	1669.09
219.97	1759.21
220.19	1777.64
220.41	1757.16
220.63	1742.82
220.85	1755.11
221.06	1636.33
221.28	1775.59
221.50	1748.97
221.72	1640.42
221.94	1794.02
222.16	1736.68
222.38	1779.68
222.60	1734.63
222.82	1679.33
223.03	1728.49
223.25	1595.37
223.47	1804.26
223.69	1834.98
223.91	1736.68
224.13	1720.29
224.35	1652.71
224.57	1785.83
224.78	1773.54
225.00	1675.24
225.22	1665.00
225.44	1730.53
225.66	1667.05
225.88	1642.47
226.10	1843.17
226.32	1724.39
226.53	1720.29
226.75	1677.29
226.97	1638.38
227.19	1742.82
227.41	1718.25
227.63	1705.96
227.85	1644.52
228.06	1624.04
228.28	1785.83
228.50	1837.03
228.72	1646.57
228.94	1656.81
229.16	1638.38
229.37	1673.19
229.59	1718.25
229.81	1798.12
230.03	1677.29
230.25	1599.46
230.47	1564.65
230.69	1617.90
230.90	1800.16
231.12	1746.92
231.34	1701.86
231.56	1804.26
231.78	1726.44
232.00	1703.91
232.21	1665.00
232.43	1716.20
232.65	1681.38
232.87	1759.21
233.09	1632.23
233.30	1646.57
233.52	1714.15
233.74	1753.06
233.96	1667.05
234.18	1736.68
234.40	1789.92
234.61	1857.51
234.83	1574.89
235.05	1675.24
235.27	1884.13
235.49	1769.44
235.70	1751.01
235.92	1722.34
236.14	1726.44
236.36	1861.60
236.58	1646.57
236.79	1769.44
237.01	1722.34
237.23	1763.30
237.45	1800.16
237.67	1734.63
237.88	1783.78
238.10	1787.88
238.32	1667.05
238.54	1703.91
238.76	1665.00
238.97	1654.76
239.19	1677.29
239.41	1761.25
239.63	1718.25
239.85	1691.62
240.06	1683.43
240.28	1714.15
240.50	1777.64
240.72	1708.01
240.93	1695.72
241.15	1757.16
241.37	1712.10
241.59	1828.84
241.81	1693.67
242.02	1695.72
242.24	1785.83
242.46	1722.34
242.68	1640.42
242.89	1804.26
243.11	1724.39
243.33	1722.34
243.55	1697.77
243.76	1796.07
243.98	1714.15
244.20	1695.72
244.42	1726.44
244.64	1730.53
244.85	1624.04
245.07	1632.23
245.29	1744.87
245.51	1748.97
245.72	1646.57
245.94	1810.40
246.16	1777.64
246.38	1703.91
246.59	1636.33
246.81	1658.85
247.03	1705.96
247.24	1617.90
247.46	1693.67
247.68	1781.73
247.90	1701.86
248.11	1712.10
248.33	1734.63
248.55	1683.43
248.77	1691.62
248.98	1841.12
249.20	1845.22
249.42	1755.11
249.64	1744.87
249.85	1726.44
250.07	1656.81
250.29	1734.63
250.50	1734.63
250.72	1656.81
250.94	1761.25
251.16	1742.82
251.37	1789.92
251.59	1781.73
251.81	1697.77
252.02	1871.84
252.24	1648.61
252.46	1791.97
252.68	1685.48
252.89	1675.24
253.11	1607.66
253.33	1826.79
253.54	1771.49
253.76	1640.42
253.98	1714.15
254.20	1642.47
254.41	1636.33
254.63	1716.20
254.85	1650.66
255.06	1787.88
255.28	1730.53
255.50	1677.29
255.71	1701.86
255.93	1583.08
256.15	1689.57
256.36	1789.92
256.58	1730.53
256.80	1763.30
257.02	1738.73
257.23	1714.15
257.45	1748.97
257.67	1757.16
257.88	1667.05
258.10	1650.66
258.32	1728.49
258.53	1671.14
258.75	1816.55
258.97	1673.19
259.18	1744.87
259.40	1681.38
259.62	1767.40
259.83	1824.74
260.05	1705.96
260.27	1964.00
260.48	1746.92
260.70	1646.57
260.92	1757.16
261.13	1779.68
261.35	1673.19
261.57	1742.82
261.78	1689.57
262.00	1689.57
262.22	1791.97
262.43	1621.99
262.65	1587.18
262.86	1730.53
263.08	1837.03
263.30	1730.53
263.51	1689.57
263.73	1681.38
263.95	1820.64
264.16	1681.38
264.38	1716.20
264.60	1775.59
264.81	1720.29
265.03	1787.88
265.25	1724.39
265.46	1658.85
265.68	1800.16
265.89	1722.34
266.11	1570.79
266.33	1791.97
266.54	1769.44
266.76	1718.25
266.98	1728.49
267.19	1779.68
267.41	1851.36
267.62	1685.48
267.84	1742.82
268.06	1767.40
268.27	1746.92
268.49	1691.62
268.70	1832.93
268.92	1695.72
269.14	1714.15
269.35	1660.90
269.57	1742.82
269.79	1701.86
270.00	1708.01
270.22	1740.77
270.43	1667.05
270.65	1607.66
270.87	1765.35
271.08	1773.54
271.30	1775.59
271.51	1720.29
271.73	1761.25
271.95	1789.92
272.16	1755.11
272.38	1769.44
272.59	1708.01
272.81	1765.35
273.02	1773.54
273.24	1781.73
273.46	1728.49
273.67	1667.05
273.89	1724.39
274.10	1644.52
274.32	1673.19
274.54	1701.86
274.75	1759.21
274.97	1697.77
275.18	1791.97
275.40	1724.39
275.61	1748.97
275.83	1755.11
276.05	1646.57
276.26	1687.53
276.48	1800.16
276.69	1642.47
276.91	1720.29
277.12	1759.21
277.34	1718.25
277.55	1798.12
277.77	1679.33
277.99	1685.48
278.20	1791.97
278.42	1671.14
278.63	1595.37
278.85	1738.73
279.06	1667.05
279.28	1763.30
279.49	1755.11
279.71	1755.11
279.93	1708.01
280.14	1673.19
280.36	1656.81
280.57	1751.01
280.79	1796.07
281.00	1652.71
281.22	1646.57
281.43	1787.88
281.65	1626.09
281.86	1626.09
282.08	1753.06
282.29	1796.07
282.51	1685.48
282.73	1619.94
282.94	1599.46
283.16	1755.11
283.37	1916.90
283.59	1716.20
283.80	1757.16
284.02	1751.01
284.23	1710.05
284.45	1751.01
284.66	1589.22
284.88	1630.18
285.09	1777.64
285.31	1746.92
285.52	1708.01
285.74	1624.04
285.95	1822.69
286.17	1665.00
286.38	1718.25
286.60	1675.24
286.81	1691.62
287.03	1703.91
287.24	1742.82
287.46	1720.29
287.67	1660.90
287.89	1794.02
288.10	1703.91
288.32	1736.68
288.53	1789.92
288.75	1732.58
288.96	1845.22
289.18	1654.76
289.39	1716.20
289.61	1734.63
289.82	1880.04
290.04	1746.92
290.25	1679.33
290.47	1755.11
290.68	1626.09
290.90	1755.11
291.11	1722.34
291.33	1777.64
291.54	1658.85
291.76	1718.25
291.97	1716.20
292.18	1759.21
292.40	1638.38
292.61	1714.15
292.83	1818.60
293.04	1732.58
293.26	1720.29
293.47	1730.53
293.69	1681.38
293.90	1738.73
294.12	1818.60
294.33	1705.96
294.55	1738.73
294.76	1751.01
294.97	1751.01
295.19	1845.22
295.40	1660.90
295.62	1791.97
295.83	1822.69
296.05	1691.62
296.26	1779.68
296.48	1636.33
296.69	1667.05
296.90	1652.71
297.12	1798.12
297.33	1832.93
297.55	1693.67
297.76	1779.68
297.98	1814.50
298.19	1751.01
298.41	1638.38
298.62	1691.62
298.83	1787.88
299.05	1722.34
299.26	1720.29
299.48	1685.48
299.69	1705.96
299.90	1759.21
300.12	1710.05
300.33	1800.16
300.55	1667.05
300.76	1773.54
300.98	1681.38
301.19	1716.20
301.40	1775.59
301.62	1736.68
301.83	1710.05
302.05	1738.73
302.26	1722.34
302.47	1710.05
302.69	1738.73
302.90	1652.71
303.12	1578.98
303.33	1757.16
303.54	1908.71
303.76	1648.61
303.97	1720.29
304.19	1736.68
304.40	1658.85
304.61	1761.25
304.83	1787.88
305.04	1808.36
305.26	1689.57
305.47	1632.23
305.68	1726.44
305.90	1660.90
306.11	1804.26
306.33	1742.82
306.54	1701.86
306.75	1689.57
306.97	1699.81
307.18	1650.66
307.39	1597.42
307.61	1740.77
307.82	1673.19
308.04	1751.01
308.25	1734.63
308.46	1726.44
308.68	1710.05
308.89	1748.97
309.10	1791.97
309.32	1728.49
309.53	1712.10
309.74	1730.53
309.96	1753.06
310.17	1787.88
310.39	1599.46
310.60	1824.74
310.81	1701.86
311.03	1642.47
311.24	1763.30
311.45	1714.15
311.67	1757.16
311.88	1773.54
312.09	1699.81
312.31	1652.71
312.52	1695.72
312.73	1773.54
312.95	1636.33
313.16	1703.91
313.37	1720.29
313.59	1787.88
313.80	1724.39
314.01	1699.81
314.23	1701.86
314.44	1720.29
314.65	1665.00
314.87	1665.00
315.08	1671.14
315.29	1718.25
315.51	1626.09
315.72	1687.53
315.93	1802.21
316.15	1761.25
316.36	1781.73
316.57	1740.77
316.79	1751.01
317.00	1722.34
317.21	1697.77
317.43	1660.90
317.64	1703.91
317.85	1636.33
318.07	1646.57
318.28	1708.01
318.49	1834.98
318.70	1910.75
318.92	1820.64
319.13	1712.10
319.34	1957.86
319.56	1724.39
319.77	1785.83
319.98	1796.07
320.20	1710.05
320.41	1787.88
320.62	1722.34
320.83	1581.03
321.05	1808.36
321.26	1796.07
321.47	1742.82
321.69	1886.18
321.90	1732.58
322.11	1667.05
322.32	1748.97
322.54	1742.82
322.75	1716.20
322.96	1869.80
323.18	1650.66
323.39	1499.11
323.60	1687.53
323.81	1765.35
324.03	1705.96
324.24	1763.30
324.45	1705.96
324.66	1730.53
324.88	1832.93
325.09	1757.16
325.30	1658.85
325.52	1759.21
325.73	1791.97
325.94	1648.61
326.15	1626.09
326.37	1693.67
326.58	1726.44
326.79	1667.05
327.00	1609.70
327.22	1683.43
327.43	1593.32
327.64	1683.43
327.85	1722.34
328.07	1765.35
328.28	1787.88
328.49	1640.42
328.70	1685.48
328.92	1740.77
329.13	1685.48
329.34	1753.06
329.55	1834.98
329.76	1777.64
329.98	1646.57
330.19	1755.11
330.40	1730.53
330.61	1708.01
330.83	1777.64
331.04	1667.05
331.25	1714.15
331.46	1712.10
331.68	1642.47
331.89	1834.98
332.10	1705.96
332.31	1658.85
332.52	1738.73
332.74	1822.69
332.95	1597.42
333.16	1681.38
333.37	1789.92
333.58	1703.91
333.80	1673.19
334.01	1652.71
334.22	1689.57
334.43	1683.43
334.64	1669.09
334.86	1650.66
335.07	1671.14
335.28	1783.78
335.49	1660.90
335.70	1775.59
335.92	1755.11
336.13	1867.75
336.34	1755.11
336.55	1767.40
336.76	1720.29
336.98	1535.98
337.19	1681.38
337.40	1800.16
337.61	1832.93
337.82	1640.42
338.04	1763.30
338.25	1642.47
338.46	1738.73
338.67	1660.90
338.88	1722.34
339.09	1665.00
339.31	1689.57
339.52	1632.23
339.73	1621.99
339.94	1697.77
340.15	1775.59
340.36	1718.25
340.58	1699.81
340.79	1763.30
341.00	1757.16
341.21	1628.14
341.42	1767.40
341.63	1753.06
341.85	1740.77
342.06	1732.58
342.27	1693.67
342.48	1693.67
342.69	1638.38
342.90	1755.11
343.12	1755.11
343.33	1601.51
343.54	1800.16
343.75	1798.12
343.96	1757.16
344.17	1662.95
344.38	1697.77
344.60	1683.43
344.81	1662.95
345.02	1679.33
345.23	1781.73
345.44	1806.31
345.65	1779.68
345.86	1761.25
346.07	1730.53
346.29	1667.05
346.50	1755.11
346.71	1693.67
346.92	1738.73
347.13	1818.60
347.34	1669.09
347.55	1658.85
347.76	1689.57
347.98	1656.81
348.19	1654.76
348.40	1742.82
348.61	1681.38
348.82	1773.54
349.03	1746.92
349.24	1691.62
349.45	1822.69
349.66	1673.19
349.88	1775.59
350.09	1652.71
350.30	1787.88
350.51	1785.83
350.72	1796.07
350.93	1687.53
351.14	1658.85
351.35	1771.49
351.56	1730.53
351.77	1708.01
351.99	1714.15
352.20	1853.41
352.41	1773.54
352.62	1560.55
352.83	1722.34
353.04	1681.38
353.25	1677.29
353.46	1814.50
353.67	1832.93
353.88	1619.94
354.09	1730.53
354.30	1714.15
354.52	1761.25
354.73	1689.57
354.94	1648.61
355.15	1755.11
355.36	1804.26
355.57	1679.33
355.78	1791.97
355.99	1771.49
356.20	1675.24
356.41	1777.64
356.62	1775.59
356.83	1681.38
357.04	1865.70
357.25	1673.19
357.46	1638.38
357.68	1607.66
357.89	1656.81
358.10	1683.43
358.31	1701.86
358.52	1697.77
358.73	1617.90
358.94	1630.18
359.15	1730.53
359.36	1734.63
359.57	1736.68
359.78	1734.63
359.99	1720.29
360.20	1677.29
360.41	1779.68
360.62	1740.77
360.83	1609.70
361.04	1806.31
361.25	1716.20
361.46	1777.64
361.67	1705.96
361.88	1791.97
362.09	1712.10
362.30	1763.30
362.51	1634.28
362.72	1683.43
362.93	1744.87
363.14	1705.96
363.35	1705.96
363.56	1695.72
363.78	1787.88
363.99	1794.02
364.20	1689.57
364.41	1753.06
364.62	1851.36
364.83	1724.39
365.04	1712.10
365.25	1779.68
365.46	1896.42
365.67	1734.63
365.88	1644.52
366.09	1722.34
366.30	1712.10
366.51	1687.53
366.72	1656.81
366.93	1720.29
367.14	1669.09
367.35	1828.84
367.56	1648.61
367.77	1800.16
367.98	1734.63
368.18	1734.63
368.39	1787.88
368.60	1640.42
368.81	1748.97
369.02	1773.54
369.23	1609.70
369.44	1617.90
369.65	1611.75
369.86	1691.62
370.07	1703.91
370.28	1673.19
370.49	1748.97
370.70	1755.11
370.91	1665.00
371.12	1697.77
371.33	1816.55
371.54	1650.66
371.75	1849.32
371.96	1624.04
372.17	1812.45
372.38	1681.38
372.59	1759.21
372.80	1757.16
373.01	1701.86
373.22	1683.43
373.43	1708.01
373.64	1652.71
373.85	1722.34
374.06	1830.88
374.26	1785.83
374.47	1753.06
374.68	1761.25
374.89	1734.63
375.10	1701.86
375.31	1832.93
375.52	1761.25
375.73	1710.05
375.94	1675.24
376.15	1771.49
376.36	1740.77
376.57	1669.09
376.78	1703.91
376.99	1781.73
377.20	1738.73
377.40	1689.57
377.61	1884.13
377.82	1675.24
378.03	1769.44
378.24	1783.78
378.45	1779.68
378.66	1681.38
378.87	1601.51
379.08	1673.19
379.29	1734.63
379.50	1830.88
379.71	1683.43
379.91	1814.50
380.12	1669.09
380.33	1759.21
380.54	1691.62
380.75	1718.25
380.96	1646.57
381.17	1732.58
381.38	1800.16
381.59	1710.05
381.80	1695.72
382.00	1886.18
382.21	1734.63
382.42	1820.64
382.63	1906.66
382.84	1673.19
383.05	1746.92
383.26	1843.17
383.47	1687.53
383.68	1736.68
383.88	1787.88
384.09	1689.57
384.30	1763.30
384.51	1712.10
384.72	1689.57
384.93	1705.96
385.14	1738.73
385.35	1757.16
385.55	1683.43
385.76	1791.97
385.97	1751.01
386.18	1658.85
386.39	1695.72
386.60	1755.11
386.81	1751.01
387.02	1667.05
387.22	1652.71
387.43	1720.29
387.64	1849.32
387.85	1929.19
388.06	2191.33
388.27	4124.61
388.48	6643.61
388.68	8128.39
388.89	9445.23
389.10	9770.86
389.31	8599.42
389.52	7458.70
389.73	6662.04
389.93	5967.78
390.14	5818.28
390.35	5060.53
390.56	4483.00
390.77	3790.79
390.98	3014.61
391.18	2537.43
391.39	2144.22
391.60	1904.61
391.81	1918.95
392.02	1626.09
392.23	1861.60
392.43	1736.68
392.64	1834.98
392.85	1734.63
393.06	1845.22
393.27	1722.34
393.47	1669.09
393.68	1734.63
393.89	1769.44
394.10	1791.97
394.31	1665.00
394.52	1736.68
394.72	1767.40
394.93	1789.92
395.14	1689.57
395.35	1726.44
395.56	1646.57
395.76	1789.92
395.97	1744.87
396.18	1843.17
396.39	1828.84
396.60	2017.25
396.80	1894.37
397.01	1834.98
397.22	1865.70
397.43	1888.23
397.64	1769.44
397.84	1742.82
398.05	1865.70
398.26	1726.44
398.47	1775.59
398.67	1783.78
398.88	1736.68
399.09	1736.68
399.30	1714.15
399.51	1687.53
399.71	1656.81
399.92	1781.73
400.13	1675.24
400.34	1695.72
400.54	1677.29
400.75	1837.03
400.96	1724.39
401.17	1751.01
401.37	1728.49
401.58	1808.36
401.79	1744.87
402.00	1882.08
402.21	1990.63
402.41	1994.72
402.62	2062.30
402.83	2074.59
403.04	1964.00
403.24	2084.83
403.45	1875.94
403.66	1927.14
403.87	1918.95
404.07	1871.84
404.28	1839.08
404.49	1904.61
404.70	1783.78
404.90	1775.59
405.11	1695.72
405.32	1757.16
405.52	1624.04
405.73	1697.77
405.94	1644.52
406.15	1667.05
406.35	1800.16
406.56	1775.59
406.77	1837.03
406.98	1773.54
407.18	1746.92
407.39	1837.03
407.60	1759.21
407.80	1744.87
408.01	1705.96
408.22	1744.87
408.43	1718.25
408.63	1757.16
408.84	1742.82
409.05	1744.87
409.25	1609.70
409.46	1728.49
409.67	1761.25
409.88	1755.11
410.08	1779.68
410.29	1679.33
410.50	1697.77
410.70	1697.77
410.91	1755.11
411.12	1748.97
411.32	1828.84
411.53	1640.42
411.74	1822.69
411.95	1789.92
412.15	1820.64
412.36	1763.30
412.57	1734.63
412.77	1775.59
412.98	1755.11
413.19	1863.65
413.39	1714.15
413.60	1740.77
413.81	1818.60
414.01	1681.38
414.22	1818.60
414.43	1802.21
414.63	1677.29
414.84	1718.25
415.05	1734.63
415.25	1660.90
415.46	1855.46
415.67	1667.05
415.87	1734.63
416.08	1689.57
416.29	1656.81
416.49	1789.92
416.70	1638.38
416.91	1710.05
417.11	1724.39
417.32	1730.53
417.53	1697.77
417.73	1740.77
417.94	1665.00
418.15	1701.86
418.35	1722.34
418.56	1689.57
418.77	1863.65
418.97	1742.82
419.18	1691.62
419.38	1603.56
419.59	1726.44
419.80	1734.63
420.00	1759.21
420.21	1740.77
420.42	1738.73
420.62	1669.09
420.83	1671.14
421.04	1761.25
421.24	1777.64
421.45	1726.44
421.65	1767.40
421.86	1755.11
422.07	1730.53
422.27	1740.77
422.48	1759.21
422.69	1619.94
422.89	1685.48
423.10	1619.94
423.30	1671.14
423.51	1734.63
423.72	1691.62
423.92	1744.87
424.13	1642.47
424.33	1753.06
424.54	1773.54
424.75	1699.81
424.95	1847.27
425.16	1832.93
425.36	1644.52
425.57	1834.98
425.78	1828.84
425.98	1814.50
426.19	1683.43
426.39	1667.05
426.60	1701.86
426.81	1834.98
427.01	1722.34
427.22	1751.01
427.42	1619.94
427.63	1699.81
427.83	1726.44
428.04	1877.99
428.25	1800.16
428.45	1843.17
428.66	1759.21
428.86	1744.87
429.07	1763.30
429.28	1728.49
429.48	1699.81
429.69	1624.04
429.89	1681.38
430.10	1757.16
430.30	1732.58
430.51	1767.40
430.71	1660.90
430.92	1662.95
431.13	1703.91
431.33	1810.40
431.54	1748.97
431.74	1816.55
431.95	1744.87
432.15	1667.05
432.36	1665.00
432.56	1753.06
432.77	1861.60
432.98	1910.75
433.18	1853.41
433.39	1728.49
433.59	1652.71
433.80	1775.59
434.00	1824.74
434.21	1685.48
434.41	1640.42
434.62	1884.13
434.82	1656.81
435.03	1708.01
435.23	1722.34
435.44	1677.29
435.64	1712.10
435.85	1701.86
436.06	1830.88
436.26	1816.55
436.47	1648.61
436.67	1658.85
436.88	1802.21
437.08	1767.40
437.29	1808.36
437.49	1728.49
437.70	1742.82
437.90	1796.07
438.11	1828.84
438.31	1920.99
438.52	1880.04
438.72	1908.71
438.93	1822.69
439.13	1773.54
439.34	1834.98
439.54	1677.29
439.75	1812.45
439.95	1810.40
440.16	1767.40
440.36	1687.53
440.57	1820.64
440.77	1738.73
440.98	1730.53
441.18	1798.12
441.39	1716.20
441.59	1722.34
441.80	1818.60
442.00	1783.78
442.21	1810.40
442.41	1632.23
442.62	1841.12
442.82	1671.14
443.02	1699.81
443.23	1853.41
443.43	1658.85
443.64	1789.92
443.84	1726.44
444.05	1896.42
444.25	1773.54
444.46	1718.25
444.66	1697.77
444.87	1865.70
445.07	1712.10
445.28	1714.15
445.48	1767.40
445.69	1808.36
445.89	1900.52
446.09	1787.88
446.30	2004.96
446.50	2584.54
446.71	3729.35
446.91	4130.75
447.12	4691.90
447.32	4810.68
447.53	4429.76
447.73	3823.56
447.93	3534.79
448.14	3338.19
448.34	3307.47
448.55	2830.29
448.75	2756.57
448.96	2617.30
449.16	2351.07
449.36	2269.15
449.57	2019.30
449.77	1933.28
449.98	1794.02
450.18	1882.08
450.39	1814.50
450.59	1769.44
450.79	1761.25
451.00	1751.01
451.20	1822.69
451.41	1738.73
451.61	1697.77
451.81	1753.06
452.02	1716.20
452.22	1673.19
452.43	1712.10
452.63	1726.44
