SpectraSuite Data File
++++++++++++++++++++++++++++++++++++
Date: Mon Jun 06 14:34:37 CEST 2016
User: root
Dark Spectrum Present: No
Reference Spectrum Present: No
Number of Sampled Component Spectra: 1
Spectrometers: USB4C02835
Integration Time (usec): 100000 (USB4C02835)
Spectra Averaged: 1 (USB4C02835)
Boxcar Smoothing: 0 (USB4C02835)
Correct for Electrical Dark: No (USB4C02835)
Strobe/Lamp Enabled: No (USB4C02835)
Correct for Detector Non-linearity: No (USB4C02835)
Correct for Stray Light: No (USB4C02835)
Number of Pixels in Processed Spectrum: 3648
>>>>>Begin Processed Spectral Data<<<<<
177.47	1454.06
177.69	1454.06
177.91	1454.06
178.13	1429.48
178.36	1501.16
178.58	1570.79
178.80	1726.44
179.02	1638.38
179.24	1634.28
179.46	1687.53
179.68	1683.43
179.90	1638.38
180.13	1740.77
180.35	1640.42
180.57	1677.29
180.79	1812.45
181.01	1679.33
181.23	1787.88
181.45	1816.55
181.67	1759.21
181.90	1812.45
182.12	1683.43
182.34	1621.99
182.56	1773.54
182.78	1732.58
183.00	1675.24
183.22	1730.53
183.44	1554.41
183.66	1830.88
183.89	1839.08
184.11	1667.05
184.33	1691.62
184.55	1755.11
184.77	1732.58
184.99	1789.92
185.21	1626.09
185.43	1863.65
185.65	1654.76
185.87	1726.44
186.10	1781.73
186.32	1789.92
186.54	1746.92
186.76	1814.50
186.98	1730.53
187.20	1675.24
187.42	1638.38
187.64	1640.42
187.86	1693.67
188.08	1769.44
188.30	1742.82
188.52	1763.30
188.75	1751.01
188.97	1742.82
189.19	1652.71
189.41	1587.18
189.63	1693.67
189.85	1656.81
190.07	1673.19
190.29	1603.56
190.51	1777.64
190.73	1665.00
190.95	1703.91
191.17	1671.14
191.39	1603.56
191.61	1624.04
191.84	1642.47
192.06	1673.19
192.28	1611.75
192.50	1828.84
192.72	1748.97
192.94	1609.70
193.16	1769.44
193.38	1714.15
193.60	1730.53
193.82	1765.35
194.04	1722.34
194.26	1705.96
194.48	1748.97
194.70	1652.71
194.92	1621.99
195.14	1802.21
195.36	1720.29
195.58	1701.86
195.80	1675.24
196.02	1677.29
196.24	1738.73
196.46	1689.57
196.69	1669.09
196.91	1845.22
197.13	1607.66
197.35	1701.86
197.57	1771.49
197.79	1763.30
198.01	1712.10
198.23	1722.34
198.45	1669.09
198.67	1632.23
198.89	1736.68
199.11	1757.16
199.33	1576.94
199.55	1611.75
199.77	1673.19
199.99	1834.98
200.21	1673.19
200.43	1712.10
200.65	1624.04
200.87	1597.42
201.09	1638.38
201.31	1681.38
201.53	1697.77
201.75	1767.40
201.97	1701.86
202.19	1665.00
202.41	1697.77
202.63	1720.29
202.85	1775.59
203.07	1671.14
203.29	1662.95
203.51	1701.86
203.73	1677.29
203.95	1822.69
204.17	1742.82
204.39	1779.68
204.61	1726.44
204.83	1732.58
205.05	1828.84
205.27	1830.88
205.49	1814.50
205.71	1732.58
205.93	1650.66
206.15	1667.05
206.37	1738.73
206.59	1722.34
206.81	1669.09
207.03	1687.53
207.25	1701.86
207.47	1697.77
207.69	1626.09
207.91	1748.97
208.13	1826.79
208.34	1640.42
208.56	1652.71
208.78	1703.91
209.00	1712.10
209.22	1703.91
209.44	1710.05
209.66	1705.96
209.88	1730.53
210.10	1675.24
210.32	1701.86
210.54	1779.68
210.76	1681.38
210.98	1761.25
211.20	1607.66
211.42	1773.54
211.64	1796.07
211.86	1796.07
212.08	1689.57
212.30	1771.49
212.52	1652.71
212.74	1691.62
212.96	1738.73
213.17	1767.40
213.39	1757.16
213.61	1804.26
213.83	1738.73
214.05	1619.94
214.27	1775.59
214.49	1683.43
214.71	1624.04
214.93	1716.20
215.15	1691.62
215.37	1796.07
215.59	1628.14
215.81	1746.92
216.03	1771.49
216.24	1730.53
216.46	1669.09
216.68	1617.90
216.90	1757.16
217.12	1763.30
217.34	1714.15
217.56	1775.59
217.78	1722.34
218.00	1771.49
218.22	1638.38
218.44	1791.97
218.66	1824.74
218.87	1847.27
219.09	1744.87
219.31	1730.53
219.53	1693.67
219.75	1693.67
219.97	1712.10
220.19	1650.66
220.41	1699.81
220.63	1683.43
220.85	1677.29
221.06	1751.01
221.28	1755.11
221.50	1691.62
221.72	1652.71
221.94	1730.53
222.16	1720.29
222.38	1716.20
222.60	1744.87
222.82	1665.00
223.03	1724.39
223.25	1660.90
223.47	1683.43
223.69	1791.97
223.91	1748.97
224.13	1693.67
224.35	1693.67
224.57	1779.68
224.78	1652.71
225.00	1652.71
225.22	1693.67
225.44	1632.23
225.66	1638.38
225.88	1603.56
226.10	1730.53
226.32	1705.96
226.53	1669.09
226.75	1691.62
226.97	1689.57
227.19	1751.01
227.41	1703.91
227.63	1708.01
227.85	1642.47
228.06	1714.15
228.28	1716.20
228.50	1787.88
228.72	1605.61
228.94	1710.05
229.16	1607.66
229.37	1662.95
229.59	1652.71
229.81	1763.30
230.03	1654.76
230.25	1619.94
230.47	1654.76
230.69	1728.49
230.90	1720.29
231.12	1681.38
231.34	1746.92
231.56	1787.88
231.78	1630.18
232.00	1746.92
232.21	1605.61
232.43	1683.43
232.65	1566.70
232.87	1712.10
233.09	1687.53
233.30	1658.85
233.52	1738.73
233.74	1714.15
233.96	1611.75
234.18	1654.76
234.40	1703.91
234.61	1888.23
234.83	1628.14
235.05	1660.90
235.27	1800.16
235.49	1822.69
235.70	1728.49
235.92	1714.15
236.14	1791.97
236.36	1808.36
236.58	1624.04
236.79	1759.21
237.01	1689.57
237.23	1685.48
237.45	1787.88
237.67	1656.81
237.88	1669.09
238.10	1673.19
238.32	1689.57
238.54	1662.95
238.76	1679.33
238.97	1642.47
239.19	1675.24
239.41	1744.87
239.63	1810.40
239.85	1712.10
240.06	1708.01
240.28	1705.96
240.50	1708.01
240.72	1722.34
240.93	1734.63
241.15	1730.53
241.37	1677.29
241.59	1748.97
241.81	1703.91
242.02	1632.23
242.24	1742.82
242.46	1755.11
242.68	1677.29
242.89	1708.01
243.11	1857.51
243.33	1714.15
243.55	1693.67
243.76	1742.82
243.98	1763.30
244.20	1675.24
244.42	1689.57
244.64	1673.19
244.85	1730.53
245.07	1710.05
245.29	1759.21
245.51	1722.34
245.72	1710.05
245.94	1720.29
246.16	1802.21
246.38	1748.97
246.59	1572.84
246.81	1650.66
247.03	1693.67
247.24	1554.41
247.46	1617.90
247.68	1796.07
247.90	1665.00
248.11	1708.01
248.33	1779.68
248.55	1724.39
248.77	1726.44
248.98	1708.01
249.20	1820.64
249.42	1693.67
249.64	1693.67
249.85	1675.24
250.07	1718.25
250.29	1654.76
250.50	1701.86
250.72	1576.94
250.94	1718.25
251.16	1808.36
251.37	1746.92
251.59	1697.77
251.81	1681.38
252.02	1740.77
252.24	1726.44
252.46	1845.22
252.68	1654.76
252.89	1656.81
253.11	1652.71
253.33	1791.97
253.54	1708.01
253.76	1587.18
253.98	1642.47
254.20	1646.57
254.41	1644.52
254.63	1708.01
254.85	1632.23
255.06	1783.78
255.28	1708.01
255.50	1609.70
255.71	1699.81
255.93	1624.04
256.15	1734.63
256.36	1802.21
256.58	1675.24
256.80	1722.34
257.02	1714.15
257.23	1691.62
257.45	1726.44
257.67	1769.44
257.88	1652.71
258.10	1685.48
258.32	1734.63
258.53	1720.29
258.75	1859.56
258.97	1603.56
259.18	1775.59
259.40	1673.19
259.62	1824.74
259.83	1800.16
260.05	1681.38
260.27	1976.29
260.48	1777.64
260.70	1611.75
260.92	1728.49
261.13	1703.91
261.35	1710.05
261.57	1681.38
261.78	1568.74
262.00	1636.33
262.22	1798.12
262.43	1642.47
262.65	1730.53
262.86	1654.76
263.08	1873.89
263.30	1685.48
263.51	1603.56
263.73	1683.43
263.95	1837.03
264.16	1685.48
264.38	1701.86
264.60	1710.05
264.81	1669.09
265.03	1677.29
265.25	1748.97
265.46	1652.71
265.68	1783.78
265.89	1644.52
266.11	1591.27
266.33	1742.82
266.54	1777.64
266.76	1703.91
266.98	1665.00
267.19	1730.53
267.41	1701.86
267.62	1728.49
267.84	1587.18
268.06	1775.59
268.27	1722.34
268.49	1740.77
268.70	1736.68
268.92	1697.77
269.14	1595.37
269.35	1601.51
269.57	1708.01
269.79	1796.07
270.00	1697.77
270.22	1759.21
270.43	1650.66
270.65	1546.22
270.87	1695.72
271.08	1744.87
271.30	1785.83
271.51	1714.15
271.73	1654.76
271.95	1804.26
272.16	1675.24
272.38	1794.02
272.59	1650.66
272.81	1746.92
273.02	1607.66
273.24	1753.06
273.46	1673.19
273.67	1607.66
273.89	1669.09
274.10	1656.81
274.32	1742.82
274.54	1734.63
274.75	1701.86
274.97	1689.57
275.18	1687.53
275.40	1783.78
275.61	1675.24
275.83	1648.61
276.05	1660.90
276.26	1669.09
276.48	1767.40
276.69	1703.91
276.91	1738.73
277.12	1814.50
277.34	1685.48
277.55	1763.30
277.77	1687.53
277.99	1658.85
278.20	1693.67
278.42	1624.04
278.63	1681.38
278.85	1691.62
279.06	1621.99
279.28	1771.49
279.49	1802.21
279.71	1642.47
279.93	1705.96
280.14	1634.28
280.36	1701.86
280.57	1757.16
280.79	1763.30
281.00	1681.38
281.22	1648.61
281.43	1714.15
281.65	1513.45
281.86	1683.43
282.08	1751.01
282.29	1826.79
282.51	1589.22
282.73	1656.81
282.94	1677.29
283.16	1728.49
283.37	1845.22
283.59	1773.54
283.80	1720.29
284.02	1718.25
284.23	1673.19
284.45	1658.85
284.66	1644.52
284.88	1626.09
285.09	1662.95
285.31	1746.92
285.52	1685.48
285.74	1613.80
285.95	1710.05
286.17	1658.85
286.38	1767.40
286.60	1597.42
286.81	1660.90
287.03	1675.24
287.24	1736.68
287.46	1748.97
287.67	1597.42
287.89	1855.46
288.10	1736.68
288.32	1726.44
288.53	1771.49
288.75	1779.68
288.96	1708.01
289.18	1648.61
289.39	1691.62
289.61	1777.64
289.82	1769.44
290.04	1777.64
290.25	1681.38
290.47	1656.81
290.68	1683.43
290.90	1712.10
291.11	1609.70
291.33	1742.82
291.54	1605.61
291.76	1677.29
291.97	1742.82
292.18	1734.63
292.40	1669.09
292.61	1636.33
292.83	1839.08
293.04	1771.49
293.26	1730.53
293.47	1648.61
293.69	1695.72
293.90	1716.20
294.12	1794.02
294.33	1732.58
294.55	1667.05
294.76	1736.68
294.97	1777.64
295.19	1796.07
295.40	1677.29
295.62	1726.44
295.83	1724.39
296.05	1640.42
296.26	1751.01
296.48	1708.01
296.69	1710.05
296.90	1732.58
297.12	1744.87
297.33	1726.44
297.55	1705.96
297.76	1732.58
297.98	1753.06
298.19	1660.90
298.41	1738.73
298.62	1611.75
298.83	1779.68
299.05	1632.23
299.26	1683.43
299.48	1619.94
299.69	1771.49
299.90	1683.43
300.12	1650.66
300.33	1742.82
300.55	1646.57
300.76	1685.48
300.98	1658.85
301.19	1761.25
301.40	1705.96
301.62	1587.18
301.83	1734.63
302.05	1681.38
302.26	1714.15
302.47	1740.77
302.69	1648.61
302.90	1654.76
303.12	1632.23
303.33	1767.40
303.54	1773.54
303.76	1673.19
303.97	1716.20
304.19	1832.93
304.40	1730.53
304.61	1775.59
304.83	1748.97
305.04	1773.54
305.26	1714.15
305.47	1644.52
305.68	1683.43
305.90	1591.27
306.11	1705.96
306.33	1703.91
306.54	1726.44
306.75	1693.67
306.97	1591.27
307.18	1581.03
307.39	1691.62
307.61	1710.05
307.82	1609.70
308.04	1683.43
308.25	1679.33
308.46	1673.19
308.68	1757.16
308.89	1652.71
309.10	1781.73
309.32	1757.16
309.53	1662.95
309.74	1714.15
309.96	1660.90
310.17	1771.49
310.39	1695.72
310.60	1751.01
310.81	1634.28
311.03	1624.04
311.24	1675.24
311.45	1730.53
311.67	1777.64
311.88	1671.14
312.09	1701.86
312.31	1652.71
312.52	1648.61
312.73	1634.28
312.95	1667.05
313.16	1685.48
313.37	1800.16
313.59	1691.62
313.80	1753.06
314.01	1722.34
314.23	1632.23
314.44	1601.51
314.65	1714.15
314.87	1699.81
315.08	1765.35
315.29	1646.57
315.51	1662.95
315.72	1591.27
315.93	1871.84
316.15	1791.97
316.36	1689.57
316.57	1691.62
316.79	1681.38
317.00	1714.15
317.21	1693.67
317.43	1634.28
317.64	1734.63
317.85	1679.33
318.07	1677.29
318.28	1775.59
318.49	1763.30
318.70	2017.25
318.92	1834.98
319.13	1830.88
319.34	1871.84
319.56	1751.01
319.77	1859.56
319.98	1787.88
320.20	1785.83
320.41	1734.63
320.62	1755.11
320.83	1746.92
321.05	1910.75
321.26	1646.57
321.47	1673.19
321.69	1687.53
321.90	1626.09
322.11	1703.91
322.32	1751.01
322.54	1777.64
322.75	1708.01
322.96	1800.16
323.18	1658.85
323.39	1599.46
323.60	1699.81
323.81	1728.49
324.03	1669.09
324.24	1673.19
324.45	1667.05
324.66	1689.57
324.88	1814.50
325.09	1781.73
325.30	1726.44
325.52	1740.77
325.73	1769.44
325.94	1595.37
326.15	1562.60
326.37	1687.53
326.58	1767.40
326.79	1779.68
327.00	1648.61
327.22	1710.05
327.43	1701.86
327.64	1626.09
327.85	1775.59
328.07	1683.43
328.28	1796.07
328.49	1681.38
328.70	1673.19
328.92	1673.19
329.13	1699.81
329.34	1728.49
329.55	1763.30
329.76	1697.77
329.98	1722.34
330.19	1701.86
330.40	1720.29
330.61	1665.00
330.83	1685.48
331.04	1703.91
331.25	1667.05
331.46	1701.86
331.68	1665.00
331.89	1761.25
332.10	1705.96
332.31	1591.27
332.52	1634.28
332.74	1757.16
332.95	1599.46
333.16	1718.25
333.37	1701.86
333.58	1642.47
333.80	1685.48
334.01	1656.81
334.22	1683.43
334.43	1654.76
334.64	1669.09
334.86	1621.99
335.07	1675.24
335.28	1796.07
335.49	1607.66
335.70	1720.29
335.92	1777.64
336.13	1730.53
336.34	1796.07
336.55	1648.61
336.76	1716.20
336.98	1519.59
337.19	1695.72
337.40	1783.78
337.61	1841.12
337.82	1626.09
338.04	1806.31
338.25	1603.56
338.46	1677.29
338.67	1593.32
338.88	1624.04
339.09	1660.90
339.31	1607.66
339.52	1673.19
339.73	1650.66
339.94	1677.29
340.15	1701.86
340.36	1708.01
340.58	1693.67
340.79	1656.81
341.00	1703.91
341.21	1722.34
341.42	1783.78
341.63	1720.29
341.85	1716.20
342.06	1742.82
342.27	1675.24
342.48	1730.53
342.69	1593.32
342.90	1710.05
343.12	1703.91
343.33	1728.49
343.54	1787.88
343.75	1738.73
343.96	1708.01
344.17	1705.96
344.38	1597.42
344.60	1640.42
344.81	1687.53
345.02	1681.38
345.23	1791.97
345.44	1783.78
345.65	1771.49
345.86	1738.73
346.07	1718.25
346.29	1654.76
346.50	1687.53
346.71	1740.77
346.92	1726.44
347.13	1769.44
347.34	1630.18
347.55	1701.86
347.76	1763.30
347.98	1646.57
348.19	1669.09
348.40	1753.06
348.61	1732.58
348.82	1755.11
349.03	1761.25
349.24	1628.14
349.45	1781.73
349.66	1646.57
349.88	1677.29
350.09	1646.57
350.30	1791.97
350.51	1751.01
350.72	1722.34
350.93	1769.44
351.14	1673.19
351.35	1687.53
351.56	1705.96
351.77	1744.87
351.99	1789.92
352.20	1746.92
352.41	1716.20
352.62	1624.04
352.83	1697.77
353.04	1708.01
353.25	1626.09
353.46	1742.82
353.67	1779.68
353.88	1669.09
354.09	1650.66
354.30	1738.73
354.52	1640.42
354.73	1738.73
354.94	1701.86
355.15	1748.97
355.36	1781.73
355.57	1646.57
355.78	1798.12
355.99	1671.14
356.20	1691.62
356.41	1814.50
356.62	1621.99
356.83	1708.01
357.04	1791.97
357.25	1621.99
357.46	1587.18
357.68	1578.98
357.89	1667.05
358.10	1675.24
358.31	1775.59
358.52	1769.44
358.73	1648.61
358.94	1613.80
359.15	1705.96
359.36	1705.96
359.57	1669.09
359.78	1695.72
359.99	1744.87
360.20	1599.46
360.41	1652.71
360.62	1695.72
360.83	1720.29
361.04	1677.29
361.25	1746.92
361.46	1818.60
361.67	1712.10
361.88	1751.01
362.09	1785.83
362.30	1730.53
362.51	1642.47
362.72	1718.25
362.93	1753.06
363.14	1738.73
363.35	1728.49
363.56	1673.19
363.78	1757.16
363.99	1783.78
364.20	1726.44
364.41	1746.92
364.62	1744.87
364.83	1791.97
365.04	1658.85
365.25	1716.20
365.46	1787.88
365.67	1677.29
365.88	1615.85
366.09	1638.38
366.30	1697.77
366.51	1726.44
366.72	1632.23
366.93	1720.29
367.14	1644.52
367.35	1740.77
367.56	1689.57
367.77	1816.55
367.98	1716.20
368.18	1687.53
368.39	1685.48
368.60	1681.38
368.81	1732.58
369.02	1669.09
369.23	1660.90
369.44	1603.56
369.65	1656.81
369.86	1757.16
370.07	1710.05
370.28	1703.91
370.49	1787.88
370.70	1783.78
370.91	1652.71
371.12	1667.05
371.33	1871.84
371.54	1619.94
371.75	1744.87
371.96	1585.13
372.17	1697.77
372.38	1650.66
372.59	1736.68
372.80	1640.42
373.01	1697.77
373.22	1630.18
373.43	1695.72
373.64	1656.81
373.85	1779.68
374.06	1826.79
374.26	1720.29
374.47	1658.85
374.68	1722.34
374.89	1753.06
375.10	1636.33
375.31	1759.21
375.52	1763.30
375.73	1720.29
375.94	1529.83
376.15	1740.77
376.36	1689.57
376.57	1683.43
376.78	1595.37
376.99	1732.58
377.20	1710.05
377.40	1777.64
377.61	1765.35
377.82	1624.04
378.03	1828.84
378.24	1712.10
378.45	1679.33
378.66	1765.35
378.87	1607.66
379.08	1607.66
379.29	1658.85
379.50	1761.25
379.71	1679.33
379.91	1705.96
380.12	1685.48
380.33	1703.91
380.54	1675.24
380.75	1648.61
380.96	1695.72
381.17	1712.10
381.38	1738.73
381.59	1753.06
381.80	1683.43
382.00	1941.47
382.21	1662.95
382.42	1765.35
382.63	1837.03
382.84	1798.12
383.05	1746.92
383.26	1851.36
383.47	1701.86
383.68	1740.77
383.88	1671.14
384.09	1783.78
384.30	1837.03
384.51	1755.11
384.72	1691.62
384.93	1687.53
385.14	1724.39
385.35	1789.92
385.55	1640.42
385.76	1791.97
385.97	1648.61
386.18	1595.37
386.39	1662.95
386.60	1808.36
386.81	1671.14
387.02	1669.09
387.22	1685.48
387.43	1761.25
387.64	1744.87
387.85	1853.41
388.06	2195.42
388.27	4274.11
388.48	6784.92
388.68	8054.66
388.89	9498.48
389.10	9824.11
389.31	8546.17
389.52	7475.09
389.73	6760.34
389.93	6285.22
390.14	5902.25
390.35	5337.01
390.56	4622.27
390.77	3870.66
390.98	3098.58
391.18	2469.85
391.39	2107.36
391.60	1822.69
391.81	1865.70
392.02	1685.48
392.23	1820.64
392.43	1767.40
392.64	1759.21
392.85	1714.15
393.06	1863.65
393.27	1673.19
393.47	1593.32
393.68	1738.73
393.89	1673.19
394.10	1830.88
394.31	1689.57
394.52	1677.29
394.72	1712.10
394.93	1773.54
395.14	1644.52
395.35	1718.25
395.56	1708.01
395.76	1761.25
395.97	1755.11
396.18	1865.70
396.39	1927.14
396.60	1988.58
396.80	1814.50
397.01	1886.18
397.22	1841.12
397.43	1882.08
397.64	1650.66
397.84	1781.73
398.05	1841.12
398.26	1689.57
398.47	1810.40
398.67	1771.49
398.88	1757.16
399.09	1738.73
399.30	1687.53
399.51	1738.73
399.71	1691.62
399.92	1798.12
400.13	1746.92
400.34	1683.43
400.54	1665.00
400.75	1710.05
400.96	1785.83
401.17	1728.49
401.37	1771.49
401.58	1624.04
401.79	1765.35
402.00	1855.46
402.21	1988.58
402.41	1910.75
402.62	2002.91
402.83	2076.64
403.04	1949.67
403.24	2062.30
403.45	1877.99
403.66	1945.57
403.87	1871.84
404.07	1939.43
404.28	1867.75
404.49	1894.37
404.70	1798.12
404.90	1724.39
405.11	1738.73
405.32	1693.67
405.52	1662.95
405.73	1611.75
405.94	1685.48
406.15	1757.16
406.35	1740.77
406.56	1636.33
406.77	1660.90
406.98	1740.77
407.18	1703.91
407.39	1814.50
407.60	1708.01
407.80	1746.92
408.01	1744.87
408.22	1716.20
408.43	1662.95
408.63	1730.53
408.84	1732.58
409.05	1746.92
409.25	1652.71
409.46	1701.86
409.67	1671.14
409.88	1691.62
410.08	1771.49
410.29	1708.01
410.50	1746.92
410.70	1697.77
410.91	1660.90
411.12	1787.88
411.32	1759.21
411.53	1697.77
411.74	1806.31
411.95	1849.32
412.15	1740.77
412.36	1736.68
412.57	1751.01
412.77	1816.55
412.98	1820.64
413.19	1642.47
413.39	1703.91
413.60	1787.88
413.81	1783.78
414.01	1677.29
414.22	1738.73
414.43	1746.92
414.63	1697.77
414.84	1738.73
415.05	1703.91
415.25	1595.37
415.46	1767.40
415.67	1677.29
415.87	1708.01
416.08	1738.73
416.29	1654.76
416.49	1767.40
416.70	1730.53
416.91	1673.19
417.11	1724.39
417.32	1783.78
417.53	1751.01
417.73	1697.77
417.94	1710.05
418.15	1701.86
418.35	1714.15
418.56	1685.48
418.77	1789.92
418.97	1712.10
419.18	1695.72
419.38	1607.66
419.59	1583.08
419.80	1759.21
420.00	1640.42
420.21	1730.53
420.42	1810.40
420.62	1724.39
420.83	1685.48
421.04	1716.20
421.24	1630.18
421.45	1767.40
421.65	1708.01
421.86	1718.25
422.07	1718.25
422.27	1722.34
422.48	1689.57
422.69	1695.72
422.89	1675.24
423.10	1669.09
423.30	1699.81
423.51	1699.81
423.72	1708.01
423.92	1724.39
424.13	1617.90
424.33	1791.97
424.54	1757.16
424.75	1796.07
424.95	1746.92
425.16	1705.96
425.36	1681.38
425.57	1767.40
425.78	1777.64
425.98	1724.39
426.19	1640.42
426.39	1710.05
426.60	1712.10
426.81	1773.54
427.01	1728.49
427.22	1673.19
427.42	1566.70
427.63	1738.73
427.83	1712.10
428.04	1816.55
428.25	1808.36
428.45	1759.21
428.66	1689.57
428.86	1767.40
429.07	1703.91
429.28	1806.31
429.48	1691.62
429.69	1720.29
429.89	1712.10
430.10	1617.90
430.30	1740.77
430.51	1667.05
430.71	1687.53
430.92	1701.86
431.13	1714.15
431.33	1761.25
431.54	1751.01
431.74	1837.03
431.95	1816.55
432.15	1703.91
432.36	1691.62
432.56	1738.73
432.77	1775.59
432.98	1802.21
433.18	1667.05
433.39	1691.62
433.59	1705.96
433.80	1892.32
434.00	1857.51
434.21	1710.05
434.41	1654.76
434.62	1791.97
434.82	1652.71
435.03	1705.96
435.23	1726.44
435.44	1578.98
435.64	1685.48
435.85	1726.44
436.06	1812.45
436.26	1701.86
436.47	1689.57
436.67	1699.81
436.88	1685.48
437.08	1699.81
437.29	1777.64
437.49	1775.59
437.70	1789.92
437.90	1732.58
438.11	1871.84
438.31	1773.54
438.52	1800.16
438.72	1828.84
438.93	1896.42
439.13	1724.39
439.34	1869.80
439.54	1730.53
439.75	1810.40
439.95	1791.97
440.16	1697.77
440.36	1693.67
440.57	1740.77
440.77	1738.73
440.98	1740.77
441.18	1746.92
441.39	1679.33
441.59	1710.05
441.80	1798.12
442.00	1763.30
442.21	1802.21
442.41	1626.09
442.62	1771.49
442.82	1708.01
443.02	1722.34
443.23	1771.49
443.43	1744.87
443.64	1785.83
443.84	1697.77
444.05	1748.97
444.25	1697.77
444.46	1734.63
444.66	1708.01
444.87	1839.08
445.07	1703.91
445.28	1728.49
445.48	1787.88
445.69	1726.44
445.89	1882.08
446.09	1746.92
446.30	1996.77
446.50	2648.02
446.71	3725.26
446.91	4331.45
447.12	4775.86
447.32	4818.87
447.53	4280.25
447.73	3819.46
447.93	3448.78
448.14	3393.48
448.34	3139.54
448.55	2928.60
448.75	2918.36
448.96	2707.41
449.16	2381.79
449.36	2293.72
449.57	2047.97
449.77	1855.46
449.98	1800.16
450.18	1808.36
450.39	1834.98
450.59	1693.67
450.79	1685.48
451.00	1703.91
451.20	1771.49
451.41	1746.92
451.61	1841.12
451.81	1748.97
452.02	1728.49
452.22	1681.38
452.43	1746.92
452.63	1714.15
