SpectraSuite Data File
++++++++++++++++++++++++++++++++++++
Date: Mon Jun 06 17:06:37 CEST 2016
User: root
Dark Spectrum Present: No
Reference Spectrum Present: No
Number of Sampled Component Spectra: 1
Spectrometers: USB4C02835
Integration Time (usec): 100000 (USB4C02835)
Spectra Averaged: 1 (USB4C02835)
Boxcar Smoothing: 0 (USB4C02835)
Correct for Electrical Dark: No (USB4C02835)
Strobe/Lamp Enabled: No (USB4C02835)
Correct for Detector Non-linearity: No (USB4C02835)
Correct for Stray Light: No (USB4C02835)
Number of Pixels in Processed Spectrum: 3648
>>>>>Begin Processed Spectral Data<<<<<
177.47	1525.74
177.69	1525.74
177.91	1525.74
178.13	1533.93
178.36	1507.30
178.58	1550.31
178.80	1783.78
179.02	1724.39
179.24	1701.86
179.46	1701.86
179.68	1742.82
179.90	1716.20
180.13	1738.73
180.35	1681.38
180.57	1689.57
180.79	1769.44
181.01	1683.43
181.23	1748.97
181.45	1773.54
181.67	1683.43
181.90	1779.68
182.12	1689.57
182.34	1652.71
182.56	1755.11
182.78	1695.72
183.00	1617.90
183.22	1724.39
183.44	1665.00
183.66	1863.65
183.89	1781.73
184.11	1720.29
184.33	1681.38
184.55	1761.25
184.77	1681.38
184.99	1744.87
185.21	1599.46
185.43	1857.51
185.65	1605.61
185.87	1755.11
186.10	1824.74
186.32	1853.41
186.54	1728.49
186.76	1730.53
186.98	1748.97
187.20	1656.81
187.42	1699.81
187.64	1648.61
187.86	1699.81
188.08	1722.34
188.30	1636.33
188.52	1650.66
188.75	1781.73
188.97	1816.55
189.19	1617.90
189.41	1730.53
189.63	1771.49
189.85	1718.25
190.07	1705.96
190.29	1628.14
190.51	1732.58
190.73	1572.84
190.95	1855.46
191.17	1777.64
191.39	1683.43
191.61	1728.49
191.84	1693.67
192.06	1726.44
192.28	1615.85
192.50	1884.13
192.72	1763.30
192.94	1742.82
193.16	1744.87
193.38	1685.48
193.60	1699.81
193.82	1658.85
194.04	1722.34
194.26	1724.39
194.48	1644.52
194.70	1730.53
194.92	1681.38
195.14	1791.97
195.36	1652.71
195.58	1746.92
195.80	1689.57
196.02	1675.24
196.24	1712.10
196.46	1730.53
196.69	1665.00
196.91	1816.55
197.13	1722.34
197.35	1732.58
197.57	1740.77
197.79	1658.85
198.01	1734.63
198.23	1771.49
198.45	1705.96
198.67	1718.25
198.89	1705.96
199.11	1732.58
199.33	1632.23
199.55	1568.74
199.77	1755.11
199.99	1767.40
200.21	1673.19
200.43	1669.09
200.65	1679.33
200.87	1628.14
201.09	1744.87
201.31	1701.86
201.53	1779.68
201.75	1658.85
201.97	1673.19
202.19	1671.14
202.41	1787.88
202.63	1814.50
202.85	1726.44
203.07	1746.92
203.29	1648.61
203.51	1640.42
203.73	1634.28
203.95	1867.75
204.17	1800.16
204.39	1751.01
204.61	1617.90
204.83	1673.19
205.05	1769.44
205.27	1757.16
205.49	1859.56
205.71	1656.81
205.93	1720.29
206.15	1746.92
206.37	1761.25
206.59	1744.87
206.81	1624.04
207.03	1658.85
207.25	1609.70
207.47	1738.73
207.69	1724.39
207.91	1773.54
208.13	1826.79
208.34	1699.81
208.56	1722.34
208.78	1744.87
209.00	1646.57
209.22	1742.82
209.44	1701.86
209.66	1734.63
209.88	1722.34
210.10	1650.66
210.32	1634.28
210.54	1771.49
210.76	1691.62
210.98	1705.96
211.20	1634.28
211.42	1738.73
211.64	1667.05
211.86	1812.45
212.08	1800.16
212.30	1769.44
212.52	1730.53
212.74	1646.57
212.96	1718.25
213.17	1794.02
213.39	1689.57
213.61	1802.21
213.83	1701.86
214.05	1730.53
214.27	1816.55
214.49	1689.57
214.71	1691.62
214.93	1730.53
215.15	1701.86
215.37	1824.74
215.59	1693.67
215.81	1785.83
216.03	1787.88
216.24	1654.76
216.46	1695.72
216.68	1726.44
216.90	1726.44
217.12	1796.07
217.34	1722.34
217.56	1705.96
217.78	1804.26
218.00	1695.72
218.22	1779.68
218.44	1755.11
218.66	1679.33
218.87	1808.36
219.09	1693.67
219.31	1681.38
219.53	1728.49
219.75	1640.42
219.97	1673.19
220.19	1738.73
220.41	1658.85
220.63	1712.10
220.85	1722.34
221.06	1681.38
221.28	1722.34
221.50	1748.97
221.72	1634.28
221.94	1732.58
222.16	1728.49
222.38	1724.39
222.60	1742.82
222.82	1763.30
223.03	1691.62
223.25	1615.85
223.47	1746.92
223.69	1812.45
223.91	1808.36
224.13	1701.86
224.35	1685.48
224.57	1806.31
224.78	1767.40
225.00	1630.18
225.22	1683.43
225.44	1665.00
225.66	1796.07
225.88	1708.01
226.10	1791.97
226.32	1693.67
226.53	1789.92
226.75	1714.15
226.97	1710.05
227.19	1738.73
227.41	1656.81
227.63	1755.11
227.85	1617.90
228.06	1656.81
228.28	1683.43
228.50	1753.06
228.72	1710.05
228.94	1677.29
229.16	1574.89
229.37	1632.23
229.59	1687.53
229.81	1789.92
230.03	1697.77
230.25	1658.85
230.47	1611.75
230.69	1613.80
230.90	1787.88
231.12	1638.38
231.34	1691.62
231.56	1804.26
231.78	1634.28
232.00	1712.10
232.21	1765.35
232.43	1695.72
232.65	1574.89
232.87	1738.73
233.09	1710.05
233.30	1705.96
233.52	1716.20
233.74	1689.57
233.96	1697.77
234.18	1675.24
234.40	1718.25
234.61	1855.46
234.83	1656.81
235.05	1681.38
235.27	1820.64
235.49	1785.83
235.70	1675.24
235.92	1728.49
236.14	1708.01
236.36	1861.60
236.58	1615.85
236.79	1751.01
237.01	1650.66
237.23	1599.46
237.45	1742.82
237.67	1652.71
237.88	1716.20
238.10	1898.47
238.32	1630.18
238.54	1691.62
238.76	1728.49
238.97	1691.62
239.19	1738.73
239.41	1812.45
239.63	1818.60
239.85	1634.28
240.06	1705.96
240.28	1640.42
240.50	1763.30
240.72	1728.49
240.93	1665.00
241.15	1753.06
241.37	1755.11
241.59	1837.03
241.81	1708.01
242.02	1701.86
242.24	1746.92
242.46	1791.97
242.68	1634.28
242.89	1730.53
243.11	1761.25
243.33	1656.81
243.55	1722.34
243.76	1693.67
243.98	1699.81
244.20	1708.01
244.42	1748.97
244.64	1638.38
244.85	1630.18
245.07	1605.61
245.29	1769.44
245.51	1679.33
245.72	1718.25
245.94	1740.77
246.16	1722.34
246.38	1783.78
246.59	1617.90
246.81	1636.33
247.03	1689.57
247.24	1626.09
247.46	1685.48
247.68	1638.38
247.90	1626.09
248.11	1638.38
248.33	1716.20
248.55	1708.01
248.77	1687.53
248.98	1726.44
249.20	1816.55
249.42	1732.58
249.64	1720.29
249.85	1736.68
250.07	1744.87
250.29	1755.11
250.50	1712.10
250.72	1644.52
250.94	1714.15
251.16	1910.75
251.37	1724.39
251.59	1769.44
251.81	1820.64
252.02	1759.21
252.24	1632.23
252.46	1812.45
252.68	1658.85
252.89	1699.81
253.11	1593.32
253.33	1828.84
253.54	1804.26
253.76	1578.98
253.98	1652.71
254.20	1765.35
254.41	1656.81
254.63	1685.48
254.85	1648.61
255.06	1658.85
255.28	1687.53
255.50	1710.05
255.71	1726.44
255.93	1724.39
256.15	1705.96
256.36	1718.25
256.58	1681.38
256.80	1746.92
257.02	1742.82
257.23	1705.96
257.45	1693.67
257.67	1767.40
257.88	1695.72
258.10	1751.01
258.32	1671.14
258.53	1693.67
258.75	1785.83
258.97	1669.09
259.18	1734.63
259.40	1716.20
259.62	1765.35
259.83	1851.36
260.05	1716.20
260.27	2031.58
260.48	1837.03
260.70	1667.05
260.92	1695.72
261.13	1732.58
261.35	1779.68
261.57	1730.53
261.78	1654.76
262.00	1662.95
262.22	1730.53
262.43	1652.71
262.65	1693.67
262.86	1763.30
263.08	1882.08
263.30	1742.82
263.51	1654.76
263.73	1691.62
263.95	1783.78
264.16	1646.57
264.38	1619.94
264.60	1662.95
264.81	1767.40
265.03	1783.78
265.25	1769.44
265.46	1730.53
265.68	1781.73
265.89	1746.92
266.11	1599.46
266.33	1779.68
266.54	1742.82
266.76	1701.86
266.98	1781.73
267.19	1791.97
267.41	1728.49
267.62	1652.71
267.84	1705.96
268.06	1769.44
268.27	1769.44
268.49	1734.63
268.70	1714.15
268.92	1671.14
269.14	1679.33
269.35	1624.04
269.57	1665.00
269.79	1697.77
270.00	1628.14
270.22	1890.28
270.43	1669.09
270.65	1650.66
270.87	1765.35
271.08	1765.35
271.30	1755.11
271.51	1722.34
271.73	1714.15
271.95	1781.73
272.16	1763.30
272.38	1771.49
272.59	1712.10
272.81	1712.10
273.02	1773.54
273.24	1767.40
273.46	1732.58
273.67	1679.33
273.89	1701.86
274.10	1748.97
274.32	1740.77
274.54	1726.44
274.75	1736.68
274.97	1724.39
275.18	1828.84
275.40	1673.19
275.61	1654.76
275.83	1730.53
276.05	1585.13
276.26	1736.68
276.48	1724.39
276.69	1570.79
276.91	1652.71
277.12	1761.25
277.34	1769.44
277.55	1710.05
277.77	1665.00
277.99	1677.29
278.20	1642.47
278.42	1671.14
278.63	1681.38
278.85	1644.52
279.06	1755.11
279.28	1701.86
279.49	1736.68
279.71	1728.49
279.93	1712.10
280.14	1712.10
280.36	1517.54
280.57	1746.92
280.79	1808.36
281.00	1705.96
281.22	1691.62
281.43	1787.88
281.65	1574.89
281.86	1601.51
282.08	1757.16
282.29	1781.73
282.51	1667.05
282.73	1681.38
282.94	1642.47
283.16	1746.92
283.37	1751.01
283.59	1638.38
283.80	1726.44
284.02	1671.14
284.23	1722.34
284.45	1705.96
284.66	1669.09
284.88	1644.52
285.09	1689.57
285.31	1718.25
285.52	1726.44
285.74	1636.33
285.95	1751.01
286.17	1703.91
286.38	1767.40
286.60	1642.47
286.81	1757.16
287.03	1687.53
287.24	1703.91
287.46	1730.53
287.67	1697.77
287.89	1796.07
288.10	1724.39
288.32	1699.81
288.53	1751.01
288.75	1726.44
288.96	1753.06
289.18	1671.14
289.39	1658.85
289.61	1701.86
289.82	1822.69
290.04	1794.02
290.25	1619.94
290.47	1730.53
290.68	1681.38
290.90	1767.40
291.11	1615.85
291.33	1773.54
291.54	1667.05
291.76	1685.48
291.97	1751.01
292.18	1642.47
292.40	1732.58
292.61	1687.53
292.83	1865.70
293.04	1773.54
293.26	1742.82
293.47	1718.25
293.69	1644.52
293.90	1705.96
294.12	1802.21
294.33	1730.53
294.55	1742.82
294.76	1736.68
294.97	1796.07
295.19	1834.98
295.40	1718.25
295.62	1736.68
295.83	1785.83
296.05	1708.01
296.26	1806.31
296.48	1710.05
296.69	1624.04
296.90	1619.94
297.12	1728.49
297.33	1759.21
297.55	1646.57
297.76	1708.01
297.98	1767.40
298.19	1714.15
298.41	1660.90
298.62	1734.63
298.83	1830.88
299.05	1673.19
299.26	1693.67
299.48	1697.77
299.69	1773.54
299.90	1695.72
300.12	1665.00
300.33	1726.44
300.55	1708.01
300.76	1779.68
300.98	1624.04
301.19	1708.01
301.40	1701.86
301.62	1671.14
301.83	1763.30
302.05	1734.63
302.26	1681.38
302.47	1669.09
302.69	1617.90
302.90	1726.44
303.12	1570.79
303.33	1724.39
303.54	1814.50
303.76	1689.57
303.97	1779.68
304.19	1753.06
304.40	1662.95
304.61	1742.82
304.83	1746.92
305.04	1779.68
305.26	1734.63
305.47	1757.16
305.68	1748.97
305.90	1648.61
306.11	1767.40
306.33	1728.49
306.54	1624.04
306.75	1724.39
306.97	1673.19
307.18	1671.14
307.39	1699.81
307.61	1718.25
307.82	1630.18
308.04	1738.73
308.25	1693.67
308.46	1740.77
308.68	1662.95
308.89	1773.54
309.10	1775.59
309.32	1693.67
309.53	1677.29
309.74	1718.25
309.96	1734.63
310.17	1769.44
310.39	1693.67
310.60	1781.73
310.81	1697.77
311.03	1619.94
311.24	1759.21
311.45	1634.28
311.67	1839.08
311.88	1695.72
312.09	1644.52
312.31	1640.42
312.52	1761.25
312.73	1693.67
312.95	1652.71
313.16	1650.66
313.37	1820.64
313.59	1757.16
313.80	1693.67
314.01	1845.22
314.23	1671.14
314.44	1640.42
314.65	1634.28
314.87	1632.23
315.08	1681.38
315.29	1640.42
315.51	1681.38
315.72	1581.03
315.93	1806.31
316.15	1736.68
316.36	1630.18
316.57	1691.62
316.79	1779.68
317.00	1763.30
317.21	1746.92
317.43	1705.96
317.64	1705.96
317.85	1615.85
318.07	1679.33
318.28	1746.92
318.49	1806.31
318.70	1925.09
318.92	1740.77
319.13	1824.74
319.34	1802.21
319.56	1763.30
319.77	1826.79
319.98	1834.98
320.20	1794.02
320.41	1753.06
320.62	1728.49
320.83	1705.96
321.05	1822.69
321.26	1783.78
321.47	1712.10
321.69	1724.39
321.90	1632.23
322.11	1753.06
322.32	1765.35
322.54	1757.16
322.75	1708.01
322.96	1789.92
323.18	1583.08
323.39	1544.17
323.60	1673.19
323.81	1736.68
324.03	1740.77
324.24	1636.33
324.45	1726.44
324.66	1615.85
324.88	1849.32
325.09	1734.63
325.30	1726.44
325.52	1744.87
325.73	1730.53
325.94	1722.34
326.15	1658.85
326.37	1722.34
326.58	1767.40
326.79	1810.40
327.00	1724.39
327.22	1798.12
327.43	1730.53
327.64	1636.33
327.85	1767.40
328.07	1769.44
328.28	1837.03
328.49	1691.62
328.70	1728.49
328.92	1693.67
329.13	1710.05
329.34	1783.78
329.55	1826.79
329.76	1767.40
329.98	1667.05
330.19	1769.44
330.40	1779.68
330.61	1658.85
330.83	1730.53
331.04	1667.05
331.25	1738.73
331.46	1730.53
331.68	1632.23
331.89	1742.82
332.10	1726.44
332.31	1689.57
332.52	1701.86
332.74	1818.60
332.95	1640.42
333.16	1701.86
333.37	1693.67
333.58	1712.10
333.80	1720.29
334.01	1650.66
334.22	1759.21
334.43	1656.81
334.64	1722.34
334.86	1675.24
335.07	1697.77
335.28	1806.31
335.49	1624.04
335.70	1751.01
335.92	1800.16
336.13	1814.50
336.34	1701.86
336.55	1730.53
336.76	1757.16
336.98	1531.88
337.19	1732.58
337.40	1740.77
337.61	1853.41
337.82	1648.61
338.04	1783.78
338.25	1578.98
338.46	1732.58
338.67	1667.05
338.88	1693.67
339.09	1634.28
339.31	1683.43
339.52	1669.09
339.73	1662.95
339.94	1714.15
340.15	1751.01
340.36	1646.57
340.58	1728.49
340.79	1714.15
341.00	1689.57
341.21	1658.85
341.42	1812.45
341.63	1673.19
341.85	1771.49
342.06	1601.51
342.27	1669.09
342.48	1697.77
342.69	1605.61
342.90	1685.48
343.12	1757.16
343.33	1759.21
343.54	1779.68
343.75	1849.32
343.96	1660.90
344.17	1738.73
344.38	1722.34
344.60	1644.52
344.81	1652.71
345.02	1720.29
345.23	1828.84
345.44	1783.78
345.65	1748.97
345.86	1820.64
346.07	1656.81
346.29	1708.01
346.50	1734.63
346.71	1722.34
346.92	1767.40
347.13	1847.27
347.34	1642.47
347.55	1658.85
347.76	1738.73
347.98	1665.00
348.19	1646.57
348.40	1722.34
348.61	1708.01
348.82	1806.31
349.03	1751.01
349.24	1644.52
349.45	1869.80
349.66	1636.33
349.88	1765.35
350.09	1691.62
350.30	1761.25
350.51	1779.68
350.72	1734.63
350.93	1769.44
351.14	1689.57
351.35	1744.87
351.56	1699.81
351.77	1687.53
351.99	1724.39
352.20	1820.64
352.41	1748.97
352.62	1640.42
352.83	1800.16
353.04	1740.77
353.25	1640.42
353.46	1726.44
353.67	1798.12
353.88	1538.02
354.09	1775.59
354.30	1740.77
354.52	1730.53
354.73	1699.81
354.94	1724.39
355.15	1726.44
355.36	1751.01
355.57	1726.44
355.78	1779.68
355.99	1746.92
356.20	1626.09
356.41	1820.64
356.62	1708.01
356.83	1738.73
357.04	1828.84
357.25	1613.80
357.46	1699.81
357.68	1609.70
357.89	1644.52
358.10	1697.77
358.31	1705.96
358.52	1652.71
358.73	1705.96
358.94	1603.56
359.15	1656.81
359.36	1820.64
359.57	1703.91
359.78	1740.77
359.99	1849.32
360.20	1701.86
360.41	1679.33
360.62	1771.49
360.83	1726.44
361.04	1722.34
361.25	1769.44
361.46	1869.80
361.67	1714.15
361.88	1763.30
362.09	1785.83
362.30	1744.87
362.51	1665.00
362.72	1708.01
362.93	1763.30
363.14	1773.54
363.35	1687.53
363.56	1630.18
363.78	1759.21
363.99	1769.44
364.20	1728.49
364.41	1683.43
364.62	1877.99
364.83	1755.11
365.04	1689.57
365.25	1714.15
365.46	1800.16
365.67	1687.53
365.88	1685.48
366.09	1636.33
366.30	1740.77
366.51	1695.72
366.72	1624.04
366.93	1724.39
367.14	1705.96
367.35	1769.44
367.56	1753.06
367.77	1789.92
367.98	1667.05
368.18	1728.49
368.39	1705.96
368.60	1650.66
368.81	1742.82
369.02	1716.20
369.23	1648.61
369.44	1642.47
369.65	1673.19
369.86	1783.78
370.07	1703.91
370.28	1683.43
370.49	1798.12
370.70	1808.36
370.91	1652.71
371.12	1619.94
371.33	1800.16
371.54	1722.34
371.75	1812.45
371.96	1542.12
372.17	1703.91
372.38	1853.41
372.59	1775.59
372.80	1712.10
373.01	1761.25
373.22	1675.24
373.43	1705.96
373.64	1656.81
373.85	1746.92
374.06	1824.74
374.26	1779.68
374.47	1728.49
374.68	1812.45
374.89	1708.01
375.10	1738.73
375.31	1796.07
375.52	1759.21
375.73	1740.77
375.94	1708.01
376.15	1804.26
376.36	1673.19
376.57	1673.19
376.78	1701.86
376.99	1744.87
377.20	1779.68
377.40	1640.42
377.61	1804.26
377.82	1665.00
378.03	1779.68
378.24	1740.77
378.45	1712.10
378.66	1669.09
378.87	1570.79
379.08	1675.24
379.29	1712.10
379.50	1697.77
379.71	1734.63
379.91	1783.78
380.12	1677.29
380.33	1687.53
380.54	1712.10
380.75	1677.29
380.96	1761.25
381.17	1779.68
381.38	1652.71
381.59	1755.11
381.80	1724.39
382.00	1959.91
382.21	1710.05
382.42	1902.56
382.63	1810.40
382.84	1783.78
383.05	1710.05
383.26	1877.99
383.47	1777.64
383.68	1738.73
383.88	1738.73
384.09	1716.20
384.30	1791.97
384.51	1734.63
384.72	1705.96
384.93	1691.62
385.14	1722.34
385.35	1736.68
385.55	1632.23
385.76	1746.92
385.97	1791.97
386.18	1665.00
386.39	1701.86
386.60	1681.38
386.81	1720.29
387.02	1638.38
387.22	1636.33
387.43	1796.07
387.64	1708.01
387.85	1865.70
388.06	2154.46
388.27	4216.77
388.48	6778.78
388.68	8202.11
388.89	9660.27
389.10	9883.50
389.31	8853.37
389.52	7614.35
389.73	6768.54
389.93	6268.83
390.14	5840.81
390.35	5214.13
390.56	4659.13
390.77	3858.37
390.98	2934.74
391.18	2453.47
391.39	2148.32
391.60	1808.36
391.81	1785.83
392.02	1726.44
392.23	1818.60
392.43	1787.88
392.64	1867.75
392.85	1724.39
393.06	1787.88
393.27	1705.96
393.47	1732.58
393.68	1794.02
393.89	1640.42
394.10	1927.14
394.31	1683.43
394.52	1675.24
394.72	1714.15
394.93	1820.64
395.14	1697.77
395.35	1722.34
395.56	1701.86
395.76	1732.58
395.97	1859.56
396.18	1861.60
396.39	1818.60
396.60	2074.59
396.80	1912.80
397.01	1929.19
397.22	1818.60
397.43	1871.84
397.64	1714.15
397.84	1783.78
398.05	1826.79
398.26	1771.49
398.47	1781.73
398.67	1783.78
398.88	1703.91
399.09	1685.48
399.30	1722.34
399.51	1669.09
399.71	1630.18
399.92	1691.62
400.13	1726.44
400.34	1730.53
400.54	1732.58
400.75	1746.92
400.96	1714.15
401.17	1861.60
401.37	1683.43
401.58	1710.05
401.79	1767.40
402.00	1888.23
402.21	2025.44
402.41	1959.91
402.62	2045.92
402.83	1978.34
403.04	1937.38
403.24	2062.30
403.45	1884.13
403.66	1900.52
403.87	1845.22
404.07	1904.61
404.28	1908.71
404.49	1873.89
404.70	1740.77
404.90	1810.40
405.11	1662.95
405.32	1738.73
405.52	1742.82
405.73	1697.77
405.94	1634.28
406.15	1675.24
406.35	1695.72
406.56	1710.05
406.77	1724.39
406.98	1742.82
407.18	1726.44
407.39	1820.64
407.60	1791.97
407.80	1675.24
408.01	1722.34
408.22	1675.24
408.43	1667.05
408.63	1712.10
408.84	1746.92
409.05	1763.30
409.25	1634.28
409.46	1679.33
409.67	1660.90
409.88	1677.29
410.08	1753.06
410.29	1714.15
410.50	1710.05
410.70	1712.10
410.91	1697.77
411.12	1703.91
411.32	1644.52
411.53	1705.96
411.74	1832.93
411.95	1798.12
412.15	1767.40
412.36	1837.03
412.57	1763.30
412.77	1890.28
412.98	1730.53
413.19	1736.68
413.39	1791.97
413.60	1845.22
413.81	1740.77
414.01	1607.66
414.22	1748.97
414.43	1855.46
414.63	1644.52
414.84	1744.87
415.05	1705.96
415.25	1679.33
415.46	1808.36
415.67	1665.00
415.87	1722.34
416.08	1789.92
416.29	1673.19
416.49	1740.77
416.70	1712.10
416.91	1751.01
417.11	1732.58
417.32	1736.68
417.53	1755.11
417.73	1705.96
417.94	1703.91
418.15	1677.29
418.35	1712.10
418.56	1724.39
418.77	1863.65
418.97	1730.53
419.18	1755.11
419.38	1601.51
419.59	1736.68
419.80	1730.53
420.00	1699.81
420.21	1746.92
420.42	1759.21
420.62	1771.49
420.83	1681.38
421.04	1681.38
421.24	1703.91
421.45	1738.73
421.65	1742.82
421.86	1734.63
422.07	1785.83
422.27	1714.15
422.48	1708.01
422.69	1662.95
422.89	1781.73
423.10	1685.48
423.30	1628.14
423.51	1773.54
423.72	1683.43
423.92	1701.86
424.13	1652.71
424.33	1714.15
424.54	1775.59
424.75	1703.91
424.95	1730.53
425.16	1691.62
425.36	1665.00
425.57	1791.97
425.78	1828.84
425.98	1810.40
426.19	1734.63
426.39	1691.62
426.60	1683.43
426.81	1738.73
427.01	1708.01
427.22	1671.14
427.42	1632.23
427.63	1746.92
427.83	1738.73
428.04	1763.30
428.25	1783.78
428.45	1759.21
428.66	1785.83
428.86	1705.96
429.07	1665.00
429.28	1701.86
429.48	1695.72
429.69	1646.57
429.89	1814.50
430.10	1689.57
430.30	1730.53
430.51	1826.79
430.71	1675.24
430.92	1724.39
431.13	1685.48
431.33	1753.06
431.54	1671.14
431.74	1755.11
431.95	1830.88
432.15	1591.27
432.36	1730.53
432.56	1763.30
432.77	1865.70
432.98	1824.74
433.18	1751.01
433.39	1667.05
433.59	1722.34
433.80	1828.84
434.00	1910.75
434.21	1714.15
434.41	1718.25
434.62	1826.79
434.82	1722.34
435.03	1679.33
435.23	1677.29
435.44	1535.98
435.64	1708.01
435.85	1736.68
436.06	1722.34
436.26	1757.16
436.47	1718.25
436.67	1732.58
436.88	1757.16
437.08	1761.25
437.29	1824.74
437.49	1726.44
437.70	1769.44
437.90	1714.15
438.11	1814.50
438.31	1712.10
438.52	1828.84
438.72	1910.75
438.93	1902.56
439.13	1855.46
439.34	1804.26
439.54	1724.39
439.75	1773.54
439.95	1808.36
440.16	1658.85
440.36	1832.93
440.57	1781.73
440.77	1710.05
440.98	1742.82
441.18	1681.38
441.39	1638.38
441.59	1581.03
441.80	1839.08
442.00	1789.92
442.21	1820.64
442.41	1648.61
442.62	1834.98
442.82	1685.48
443.02	1656.81
443.23	1701.86
443.43	1742.82
443.64	1763.30
443.84	1734.63
444.05	1765.35
444.25	1761.25
444.46	1652.71
444.66	1769.44
444.87	1841.12
445.07	1640.42
445.28	1685.48
445.48	1877.99
445.69	1742.82
445.89	1914.85
446.09	1736.68
446.30	1939.43
446.50	2650.07
446.71	3774.41
446.91	4310.97
447.12	4800.44
447.32	4884.41
447.53	4317.12
447.73	3930.05
447.93	3424.20
448.14	3360.72
448.34	3266.51
448.55	2842.58
448.75	2844.63
448.96	2607.06
449.16	2447.32
449.36	2318.30
449.57	2070.50
449.77	1910.75
449.98	1736.68
450.18	1820.64
450.39	1832.93
450.59	1775.59
450.79	1687.53
451.00	1697.77
451.20	1753.06
451.41	1714.15
451.61	1789.92
451.81	1724.39
452.02	1611.75
452.22	1773.54
452.43	1730.53
452.63	1687.53
