SpectraSuite Data File
++++++++++++++++++++++++++++++++++++
Date: Mon Jun 06 12:43:37 CEST 2016
User: root
Dark Spectrum Present: No
Reference Spectrum Present: No
Number of Sampled Component Spectra: 1
Spectrometers: USB4C02835
Integration Time (usec): 100000 (USB4C02835)
Spectra Averaged: 1 (USB4C02835)
Boxcar Smoothing: 0 (USB4C02835)
Correct for Electrical Dark: No (USB4C02835)
Strobe/Lamp Enabled: No (USB4C02835)
Correct for Detector Non-linearity: No (USB4C02835)
Correct for Stray Light: No (USB4C02835)
Number of Pixels in Processed Spectrum: 3648
>>>>>Begin Processed Spectral Data<<<<<
177.47	1419.24
177.69	1419.24
177.91	1419.24
178.13	1486.83
178.36	1464.30
178.58	1695.72
178.80	1693.67
179.02	1695.72
179.24	1689.57
179.46	1644.52
179.68	1718.25
179.90	1693.67
180.13	1767.40
180.35	1648.61
180.57	1718.25
180.79	1716.20
181.01	1751.01
181.23	1775.59
181.45	1730.53
181.67	1724.39
181.90	1738.73
182.12	1722.34
182.34	1626.09
182.56	1697.77
182.78	1726.44
183.00	1683.43
183.22	1767.40
183.44	1570.79
183.66	1847.27
183.89	1779.68
184.11	1736.68
184.33	1714.15
184.55	1757.16
184.77	1685.48
184.99	1796.07
185.21	1708.01
185.43	1753.06
185.65	1593.32
185.87	1656.81
186.10	1771.49
186.32	1812.45
186.54	1738.73
186.76	1724.39
186.98	1791.97
187.20	1652.71
187.42	1650.66
187.64	1710.05
187.86	1705.96
188.08	1734.63
188.30	1679.33
188.52	1759.21
188.75	1751.01
188.97	1798.12
189.19	1689.57
189.41	1673.19
189.63	1720.29
189.85	1652.71
190.07	1560.55
190.29	1591.27
190.51	1753.06
190.73	1626.09
190.95	1791.97
191.17	1677.29
191.39	1562.60
191.61	1708.01
191.84	1576.94
192.06	1665.00
192.28	1632.23
192.50	1802.21
192.72	1763.30
192.94	1681.38
193.16	1789.92
193.38	1720.29
193.60	1693.67
193.82	1656.81
194.04	1769.44
194.26	1710.05
194.48	1720.29
194.70	1699.81
194.92	1626.09
195.14	1748.97
195.36	1701.86
195.58	1822.69
195.80	1673.19
196.02	1685.48
196.24	1746.92
196.46	1740.77
196.69	1640.42
196.91	1839.08
197.13	1738.73
197.35	1652.71
197.57	1738.73
197.79	1759.21
198.01	1695.72
198.23	1732.58
198.45	1693.67
198.67	1617.90
198.89	1712.10
199.11	1650.66
199.33	1650.66
199.55	1515.50
199.77	1636.33
199.99	1761.25
200.21	1701.86
200.43	1697.77
200.65	1662.95
200.87	1568.74
201.09	1701.86
201.31	1732.58
201.53	1730.53
201.75	1648.61
201.97	1734.63
202.19	1693.67
202.41	1722.34
202.63	1849.32
202.85	1759.21
203.07	1667.05
203.29	1722.34
203.51	1675.24
203.73	1705.96
203.95	1890.28
204.17	1720.29
204.39	1714.15
204.61	1730.53
204.83	1746.92
205.05	1714.15
205.27	1732.58
205.49	1912.80
205.71	1679.33
205.93	1628.14
206.15	1695.72
206.37	1714.15
206.59	1685.48
206.81	1570.79
207.03	1632.23
207.25	1697.77
207.47	1751.01
207.69	1640.42
207.91	1753.06
208.13	1718.25
208.34	1705.96
208.56	1636.33
208.78	1699.81
209.00	1652.71
209.22	1628.14
209.44	1646.57
209.66	1687.53
209.88	1671.14
210.10	1681.38
210.32	1755.11
210.54	1763.30
210.76	1665.00
210.98	1783.78
211.20	1566.70
211.42	1724.39
211.64	1740.77
211.86	1673.19
212.08	1779.68
212.30	1728.49
212.52	1734.63
212.74	1746.92
212.96	1673.19
213.17	1748.97
213.39	1767.40
213.61	1695.72
213.83	1751.01
214.05	1605.61
214.27	1703.91
214.49	1613.80
214.71	1693.67
214.93	1781.73
215.15	1677.29
215.37	1687.53
215.59	1624.04
215.81	1673.19
216.03	1779.68
216.24	1722.34
216.46	1628.14
216.68	1697.77
216.90	1722.34
217.12	1675.24
217.34	1710.05
217.56	1728.49
217.78	1824.74
218.00	1726.44
218.22	1720.29
218.44	1701.86
218.66	1730.53
218.87	1734.63
219.09	1697.77
219.31	1722.34
219.53	1710.05
219.75	1660.90
219.97	1669.09
220.19	1703.91
220.41	1665.00
220.63	1779.68
220.85	1701.86
221.06	1679.33
221.28	1769.44
221.50	1701.86
221.72	1638.38
221.94	1703.91
222.16	1669.09
222.38	1720.29
222.60	1710.05
222.82	1636.33
223.03	1705.96
223.25	1626.09
223.47	1736.68
223.69	1853.41
223.91	1748.97
224.13	1630.18
224.35	1669.09
224.57	1714.15
224.78	1675.24
225.00	1714.15
225.22	1724.39
225.44	1697.77
225.66	1759.21
225.88	1697.77
226.10	1791.97
226.32	1708.01
226.53	1794.02
226.75	1671.14
226.97	1658.85
227.19	1679.33
227.41	1665.00
227.63	1703.91
227.85	1603.56
228.06	1654.76
228.28	1683.43
228.50	1761.25
228.72	1710.05
228.94	1595.37
229.16	1613.80
229.37	1624.04
229.59	1685.48
229.81	1730.53
230.03	1736.68
230.25	1599.46
230.47	1636.33
230.69	1617.90
230.90	1691.62
231.12	1613.80
231.34	1716.20
231.56	1759.21
231.78	1566.70
232.00	1669.09
232.21	1771.49
232.43	1609.70
232.65	1587.18
232.87	1759.21
233.09	1679.33
233.30	1669.09
233.52	1804.26
233.74	1689.57
233.96	1703.91
234.18	1710.05
234.40	1640.42
234.61	1849.32
234.83	1630.18
235.05	1652.71
235.27	1820.64
235.49	1822.69
235.70	1667.05
235.92	1810.40
236.14	1673.19
236.36	1890.28
236.58	1568.74
236.79	1740.77
237.01	1621.99
237.23	1689.57
237.45	1720.29
237.67	1695.72
237.88	1726.44
238.10	1812.45
238.32	1642.47
238.54	1724.39
238.76	1714.15
238.97	1701.86
239.19	1603.56
239.41	1773.54
239.63	1816.55
239.85	1660.90
240.06	1710.05
240.28	1689.57
240.50	1753.06
240.72	1740.77
240.93	1679.33
241.15	1757.16
241.37	1648.61
241.59	1773.54
241.81	1765.35
242.02	1646.57
242.24	1734.63
242.46	1650.66
242.68	1671.14
242.89	1705.96
243.11	1771.49
243.33	1685.48
243.55	1671.14
243.76	1718.25
243.98	1683.43
244.20	1714.15
244.42	1732.58
244.64	1665.00
244.85	1615.85
245.07	1562.60
245.29	1695.72
245.51	1716.20
245.72	1712.10
245.94	1759.21
246.16	1746.92
246.38	1667.05
246.59	1705.96
246.81	1599.46
247.03	1685.48
247.24	1626.09
247.46	1652.71
247.68	1734.63
247.90	1720.29
248.11	1740.77
248.33	1755.11
248.55	1714.15
248.77	1683.43
248.98	1675.24
249.20	1810.40
249.42	1705.96
249.64	1740.77
249.85	1753.06
250.07	1665.00
250.29	1755.11
250.50	1720.29
250.72	1568.74
250.94	1748.97
251.16	1839.08
251.37	1814.50
251.59	1779.68
251.81	1708.01
252.02	1806.31
252.24	1599.46
252.46	1769.44
252.68	1648.61
252.89	1693.67
253.11	1599.46
253.33	1820.64
253.54	1753.06
253.76	1601.51
253.98	1722.34
254.20	1697.77
254.41	1570.79
254.63	1724.39
254.85	1619.94
255.06	1710.05
255.28	1734.63
255.50	1660.90
255.71	1660.90
255.93	1574.89
256.15	1683.43
256.36	1722.34
256.58	1669.09
256.80	1683.43
257.02	1669.09
257.23	1669.09
257.45	1722.34
257.67	1804.26
257.88	1681.38
258.10	1658.85
258.32	1755.11
258.53	1691.62
258.75	1769.44
258.97	1681.38
259.18	1710.05
259.40	1724.39
259.62	1828.84
259.83	1718.25
260.05	1703.91
260.27	1902.56
260.48	1802.21
260.70	1599.46
260.92	1742.82
261.13	1673.19
261.35	1650.66
261.57	1671.14
261.78	1677.29
262.00	1642.47
262.22	1796.07
262.43	1617.90
262.65	1624.04
262.86	1710.05
263.08	1837.03
263.30	1685.48
263.51	1578.98
263.73	1689.57
263.95	1703.91
264.16	1638.38
264.38	1648.61
264.60	1714.15
264.81	1673.19
265.03	1771.49
265.25	1677.29
265.46	1744.87
265.68	1820.64
265.89	1642.47
266.11	1576.94
266.33	1708.01
266.54	1761.25
266.76	1726.44
266.98	1652.71
267.19	1804.26
267.41	1656.81
267.62	1708.01
267.84	1587.18
268.06	1722.34
268.27	1720.29
268.49	1738.73
268.70	1751.01
268.92	1732.58
269.14	1660.90
269.35	1642.47
269.57	1703.91
269.79	1701.86
270.00	1681.38
270.22	1861.60
270.43	1689.57
270.65	1505.26
270.87	1656.81
271.08	1689.57
271.30	1765.35
271.51	1679.33
271.73	1697.77
271.95	1765.35
272.16	1681.38
272.38	1710.05
272.59	1679.33
272.81	1775.59
273.02	1677.29
273.24	1738.73
273.46	1751.01
273.67	1691.62
273.89	1701.86
274.10	1662.95
274.32	1791.97
274.54	1689.57
274.75	1689.57
274.97	1638.38
275.18	1730.53
275.40	1689.57
275.61	1656.81
275.83	1681.38
276.05	1640.42
276.26	1683.43
276.48	1759.21
276.69	1615.85
276.91	1705.96
277.12	1798.12
277.34	1740.77
277.55	1722.34
277.77	1708.01
277.99	1691.62
278.20	1644.52
278.42	1527.78
278.63	1679.33
278.85	1708.01
279.06	1591.27
279.28	1681.38
279.49	1714.15
279.71	1728.49
279.93	1775.59
280.14	1740.77
280.36	1734.63
280.57	1794.02
280.79	1753.06
281.00	1675.24
281.22	1673.19
281.43	1775.59
281.65	1636.33
281.86	1630.18
282.08	1751.01
282.29	1806.31
282.51	1658.85
282.73	1658.85
282.94	1597.42
283.16	1759.21
283.37	1753.06
283.59	1624.04
283.80	1681.38
284.02	1665.00
284.23	1703.91
284.45	1656.81
284.66	1714.15
284.88	1689.57
285.09	1759.21
285.31	1736.68
285.52	1726.44
285.74	1572.84
285.95	1681.38
286.17	1732.58
286.38	1746.92
286.60	1617.90
286.81	1705.96
287.03	1658.85
287.24	1652.71
287.46	1724.39
287.67	1767.40
287.89	1712.10
288.10	1669.09
288.32	1736.68
288.53	1785.83
288.75	1679.33
288.96	1755.11
289.18	1648.61
289.39	1669.09
289.61	1738.73
289.82	1789.92
290.04	1767.40
290.25	1619.94
290.47	1689.57
290.68	1658.85
290.90	1789.92
291.11	1621.99
291.33	1761.25
291.54	1685.48
291.76	1687.53
291.97	1730.53
292.18	1730.53
292.40	1581.03
292.61	1785.83
292.83	1849.32
293.04	1755.11
293.26	1726.44
293.47	1687.53
293.69	1677.29
293.90	1746.92
294.12	1791.97
294.33	1740.77
294.55	1675.24
294.76	1712.10
294.97	1728.49
295.19	1775.59
295.40	1710.05
295.62	1787.88
295.83	1691.62
296.05	1660.90
296.26	1777.64
296.48	1626.09
296.69	1708.01
296.90	1697.77
297.12	1699.81
297.33	1775.59
297.55	1710.05
297.76	1761.25
297.98	1738.73
298.19	1757.16
298.41	1671.14
298.62	1716.20
298.83	1718.25
299.05	1740.77
299.26	1675.24
299.48	1675.24
299.69	1710.05
299.90	1656.81
300.12	1617.90
300.33	1681.38
300.55	1763.30
300.76	1685.48
300.98	1642.47
301.19	1710.05
301.40	1667.05
301.62	1660.90
301.83	1728.49
302.05	1669.09
302.26	1691.62
302.47	1722.34
302.69	1638.38
302.90	1738.73
303.12	1593.32
303.33	1802.21
303.54	1800.16
303.76	1687.53
303.97	1789.92
304.19	1757.16
304.40	1673.19
304.61	1708.01
304.83	1798.12
305.04	1794.02
305.26	1728.49
305.47	1585.13
305.68	1718.25
305.90	1677.29
306.11	1777.64
306.33	1720.29
306.54	1724.39
306.75	1621.99
306.97	1681.38
307.18	1705.96
307.39	1646.57
307.61	1689.57
307.82	1705.96
308.04	1712.10
308.25	1720.29
308.46	1726.44
308.68	1681.38
308.89	1761.25
309.10	1808.36
309.32	1767.40
309.53	1646.57
309.74	1685.48
309.96	1716.20
310.17	1718.25
310.39	1642.47
310.60	1701.86
310.81	1660.90
311.03	1585.13
311.24	1677.29
311.45	1720.29
311.67	1794.02
311.88	1714.15
312.09	1650.66
312.31	1693.67
312.52	1689.57
312.73	1699.81
312.95	1624.04
313.16	1681.38
313.37	1779.68
313.59	1726.44
313.80	1744.87
314.01	1828.84
314.23	1669.09
314.44	1701.86
314.65	1613.80
314.87	1744.87
315.08	1617.90
315.29	1697.77
315.51	1679.33
315.72	1660.90
315.93	1869.80
316.15	1781.73
316.36	1581.03
316.57	1703.91
316.79	1697.77
317.00	1673.19
317.21	1742.82
317.43	1648.61
317.64	1689.57
317.85	1648.61
318.07	1669.09
318.28	1726.44
318.49	1761.25
318.70	1867.75
318.92	1806.31
319.13	1814.50
319.34	1861.60
319.56	1783.78
319.77	1834.98
319.98	1798.12
320.20	1826.79
320.41	1757.16
320.62	1630.18
320.83	1665.00
321.05	1841.12
321.26	1722.34
321.47	1767.40
321.69	1767.40
321.90	1597.42
322.11	1685.48
322.32	1710.05
322.54	1748.97
322.75	1703.91
322.96	1839.08
323.18	1640.42
323.39	1617.90
323.60	1714.15
323.81	1751.01
324.03	1681.38
324.24	1665.00
324.45	1703.91
324.66	1636.33
324.88	1683.43
325.09	1751.01
325.30	1738.73
325.52	1710.05
325.73	1691.62
325.94	1660.90
326.15	1669.09
326.37	1681.38
326.58	1732.58
326.79	1740.77
327.00	1679.33
327.22	1755.11
327.43	1726.44
327.64	1601.51
327.85	1714.15
328.07	1714.15
328.28	1818.60
328.49	1660.90
328.70	1695.72
328.92	1720.29
329.13	1656.81
329.34	1730.53
329.55	1783.78
329.76	1751.01
329.98	1703.91
330.19	1705.96
330.40	1736.68
330.61	1658.85
330.83	1738.73
331.04	1658.85
331.25	1650.66
331.46	1648.61
331.68	1650.66
331.89	1755.11
332.10	1724.39
332.31	1626.09
332.52	1728.49
332.74	1744.87
332.95	1615.85
333.16	1687.53
333.37	1763.30
333.58	1583.08
333.80	1714.15
334.01	1634.28
334.22	1728.49
334.43	1685.48
334.64	1669.09
334.86	1681.38
335.07	1650.66
335.28	1773.54
335.49	1570.79
335.70	1755.11
335.92	1771.49
336.13	1861.60
336.34	1599.46
336.55	1644.52
336.76	1732.58
336.98	1576.94
337.19	1687.53
337.40	1802.21
337.61	1880.04
337.82	1736.68
338.04	1763.30
338.25	1648.61
338.46	1693.67
338.67	1685.48
338.88	1687.53
339.09	1607.66
339.31	1718.25
339.52	1650.66
339.73	1626.09
339.94	1718.25
340.15	1761.25
340.36	1619.94
340.58	1687.53
340.79	1660.90
341.00	1763.30
341.21	1701.86
341.42	1773.54
341.63	1619.94
341.85	1681.38
342.06	1687.53
342.27	1665.00
342.48	1744.87
342.69	1640.42
342.90	1675.24
343.12	1746.92
343.33	1742.82
343.54	1779.68
343.75	1767.40
343.96	1767.40
344.17	1615.85
344.38	1804.26
344.60	1636.33
344.81	1691.62
345.02	1718.25
345.23	1773.54
345.44	1802.21
345.65	1677.29
345.86	1665.00
346.07	1726.44
346.29	1720.29
346.50	1710.05
346.71	1732.58
346.92	1697.77
347.13	1769.44
347.34	1665.00
347.55	1708.01
347.76	1716.20
347.98	1611.75
348.19	1662.95
348.40	1804.26
348.61	1785.83
348.82	1751.01
349.03	1744.87
349.24	1593.32
349.45	1841.12
349.66	1619.94
349.88	1689.57
350.09	1710.05
350.30	1728.49
350.51	1787.88
350.72	1708.01
350.93	1703.91
351.14	1689.57
351.35	1777.64
351.56	1683.43
351.77	1746.92
351.99	1669.09
352.20	1746.92
352.41	1751.01
352.62	1546.22
352.83	1679.33
353.04	1740.77
353.25	1695.72
353.46	1708.01
353.67	1716.20
353.88	1583.08
354.09	1712.10
354.30	1697.77
354.52	1724.39
354.73	1746.92
354.94	1689.57
355.15	1685.48
355.36	1841.12
355.57	1599.46
355.78	1703.91
355.99	1718.25
356.20	1775.59
356.41	1755.11
356.62	1734.63
356.83	1716.20
357.04	1769.44
357.25	1591.27
357.46	1691.62
357.68	1597.42
357.89	1671.14
358.10	1607.66
358.31	1728.49
358.52	1683.43
358.73	1640.42
358.94	1605.61
359.15	1593.32
359.36	1699.81
359.57	1667.05
359.78	1710.05
359.99	1781.73
360.20	1611.75
360.41	1660.90
360.62	1771.49
360.83	1665.00
361.04	1660.90
361.25	1712.10
361.46	1839.08
361.67	1765.35
361.88	1691.62
362.09	1708.01
362.30	1640.42
362.51	1683.43
362.72	1783.78
362.93	1755.11
363.14	1685.48
363.35	1665.00
363.56	1617.90
363.78	1712.10
363.99	1789.92
364.20	1644.52
364.41	1695.72
364.62	1847.27
364.83	1662.95
365.04	1703.91
365.25	1656.81
365.46	1751.01
365.67	1689.57
365.88	1675.24
366.09	1624.04
366.30	1691.62
366.51	1701.86
366.72	1687.53
366.93	1726.44
367.14	1636.33
367.35	1712.10
367.56	1605.61
367.77	1800.16
367.98	1689.57
368.18	1740.77
368.39	1771.49
368.60	1593.32
368.81	1724.39
369.02	1748.97
369.23	1642.47
369.44	1581.03
369.65	1695.72
369.86	1632.23
370.07	1736.68
370.28	1599.46
370.49	1693.67
370.70	1798.12
370.91	1576.94
371.12	1665.00
371.33	1746.92
371.54	1652.71
371.75	1808.36
371.96	1589.22
372.17	1763.30
372.38	1632.23
372.59	1708.01
372.80	1738.73
373.01	1730.53
373.22	1734.63
373.43	1685.48
373.64	1583.08
373.85	1671.14
374.06	1773.54
374.26	1705.96
374.47	1638.38
374.68	1789.92
374.89	1716.20
375.10	1720.29
375.31	1751.01
375.52	1730.53
375.73	1705.96
375.94	1628.14
376.15	1761.25
376.36	1695.72
376.57	1710.05
376.78	1615.85
376.99	1742.82
377.20	1761.25
377.40	1605.61
377.61	1791.97
377.82	1599.46
378.03	1775.59
378.24	1746.92
378.45	1687.53
378.66	1691.62
378.87	1658.85
379.08	1581.03
379.29	1634.28
379.50	1767.40
379.71	1642.47
379.91	1697.77
380.12	1695.72
380.33	1714.15
380.54	1609.70
380.75	1669.09
380.96	1720.29
381.17	1710.05
381.38	1830.88
381.59	1722.34
381.80	1738.73
382.00	1802.21
382.21	1800.16
382.42	1789.92
382.63	1871.84
382.84	1804.26
383.05	1771.49
383.26	1769.44
383.47	1753.06
383.68	1705.96
383.88	1734.63
384.09	1730.53
384.30	1800.16
384.51	1779.68
384.72	1665.00
384.93	1675.24
385.14	1695.72
385.35	1761.25
385.55	1673.19
385.76	1810.40
385.97	1710.05
386.18	1591.27
386.39	1669.09
386.60	1722.34
386.81	1675.24
387.02	1628.14
387.22	1703.91
387.43	1794.02
387.64	1794.02
387.85	1867.75
388.06	2203.61
388.27	4227.01
388.48	6815.64
388.68	8253.31
388.89	9682.80
389.10	9883.50
389.31	8525.69
389.52	7534.48
389.73	6717.34
389.93	6227.87
390.14	5697.45
390.35	5273.52
390.56	4564.92
390.77	3712.97
390.98	2947.03
391.18	2465.75
391.39	2170.85
391.60	1853.41
391.81	1849.32
392.02	1675.24
392.23	1871.84
392.43	1724.39
392.64	1785.83
392.85	1705.96
393.06	1826.79
393.27	1722.34
393.47	1685.48
393.68	1705.96
393.89	1634.28
394.10	1837.03
394.31	1654.76
394.52	1701.86
394.72	1677.29
394.93	1832.93
395.14	1685.48
395.35	1726.44
395.56	1687.53
395.76	1738.73
395.97	1824.74
396.18	1777.64
396.39	1898.47
396.60	2039.78
396.80	1939.43
397.01	1877.99
397.22	1837.03
397.43	1798.12
397.64	1714.15
397.84	1781.73
398.05	1841.12
398.26	1755.11
398.47	1767.40
398.67	1708.01
398.88	1777.64
399.09	1697.77
399.30	1581.03
399.51	1757.16
399.71	1697.77
399.92	1679.33
400.13	1681.38
400.34	1630.18
400.54	1718.25
400.75	1783.78
400.96	1656.81
401.17	1826.79
401.37	1691.62
401.58	1755.11
401.79	1746.92
402.00	1888.23
402.21	1972.19
402.41	1966.05
402.62	1978.34
402.83	2027.49
403.04	2031.58
403.24	2037.73
403.45	1865.70
403.66	1861.60
403.87	1822.69
404.07	1877.99
404.28	1871.84
404.49	1875.94
404.70	1814.50
404.90	1755.11
405.11	1767.40
405.32	1708.01
405.52	1689.57
405.73	1681.38
405.94	1689.57
406.15	1689.57
406.35	1679.33
406.56	1699.81
406.77	1683.43
406.98	1738.73
407.18	1685.48
407.39	1728.49
407.60	1685.48
407.80	1615.85
408.01	1634.28
408.22	1761.25
408.43	1673.19
408.63	1714.15
408.84	1781.73
409.05	1738.73
409.25	1617.90
409.46	1693.67
409.67	1693.67
409.88	1705.96
410.08	1751.01
410.29	1617.90
410.50	1679.33
410.70	1697.77
410.91	1662.95
411.12	1710.05
411.32	1716.20
411.53	1644.52
411.74	1763.30
411.95	1779.68
412.15	1767.40
412.36	1759.21
412.57	1708.01
412.77	1800.16
412.98	1673.19
413.19	1656.81
413.39	1716.20
413.60	1746.92
413.81	1763.30
414.01	1728.49
414.22	1785.83
414.43	1744.87
414.63	1619.94
414.84	1787.88
415.05	1679.33
415.25	1660.90
415.46	1615.85
415.67	1677.29
415.87	1703.91
416.08	1648.61
416.29	1605.61
416.49	1671.14
416.70	1662.95
416.91	1599.46
417.11	1648.61
417.32	1783.78
417.53	1734.63
417.73	1710.05
417.94	1712.10
418.15	1718.25
418.35	1697.77
418.56	1736.68
418.77	1824.74
418.97	1640.42
419.18	1771.49
419.38	1583.08
419.59	1714.15
419.80	1781.73
420.00	1730.53
420.21	1724.39
420.42	1722.34
420.62	1746.92
420.83	1701.86
421.04	1691.62
421.24	1675.24
421.45	1753.06
421.65	1787.88
421.86	1724.39
422.07	1724.39
422.27	1718.25
422.48	1722.34
422.69	1630.18
422.89	1695.72
423.10	1740.77
423.30	1609.70
423.51	1722.34
423.72	1742.82
423.92	1746.92
424.13	1617.90
424.33	1773.54
424.54	1728.49
424.75	1691.62
424.95	1830.88
425.16	1673.19
425.36	1724.39
425.57	1691.62
425.78	1718.25
425.98	1798.12
426.19	1617.90
426.39	1691.62
426.60	1722.34
426.81	1808.36
427.01	1673.19
427.22	1761.25
427.42	1607.66
427.63	1626.09
427.83	1724.39
428.04	1853.41
428.25	1705.96
428.45	1841.12
428.66	1681.38
428.86	1708.01
429.07	1718.25
429.28	1683.43
429.48	1720.29
429.69	1609.70
429.89	1720.29
430.10	1609.70
430.30	1712.10
430.51	1748.97
430.71	1775.59
430.92	1697.77
431.13	1738.73
431.33	1759.21
431.54	1822.69
431.74	1746.92
431.95	1810.40
432.15	1716.20
432.36	1720.29
432.56	1712.10
432.77	1763.30
432.98	1781.73
433.18	1699.81
433.39	1726.44
433.59	1755.11
433.80	1804.26
434.00	1865.70
434.21	1611.75
434.41	1675.24
434.62	1861.60
434.82	1558.50
435.03	1665.00
435.23	1732.58
435.44	1574.89
435.64	1675.24
435.85	1708.01
436.06	1677.29
436.26	1697.77
436.47	1796.07
436.67	1619.94
436.88	1665.00
437.08	1783.78
437.29	1771.49
437.49	1738.73
437.70	1818.60
437.90	1740.77
438.11	1834.98
438.31	1794.02
438.52	1875.94
438.72	1865.70
438.93	1939.43
439.13	1738.73
439.34	1820.64
439.54	1834.98
439.75	1853.41
439.95	1769.44
440.16	1630.18
440.36	1783.78
440.57	1779.68
440.77	1761.25
440.98	1648.61
441.18	1732.58
441.39	1677.29
441.59	1642.47
441.80	1875.94
442.00	1718.25
442.21	1779.68
442.41	1681.38
442.62	1751.01
442.82	1679.33
443.02	1695.72
443.23	1775.59
443.43	1806.31
443.64	1841.12
443.84	1675.24
444.05	1800.16
444.25	1726.44
444.46	1673.19
444.66	1742.82
444.87	1824.74
445.07	1601.51
445.28	1638.38
445.48	1783.78
445.69	1738.73
445.89	1918.95
446.09	1773.54
446.30	1996.77
446.50	2676.70
446.71	3659.72
446.91	4298.69
447.12	4747.19
447.32	4810.68
447.53	4284.35
447.73	3823.56
447.93	3522.51
448.14	3258.32
448.34	3147.73
448.55	2947.03
448.75	2828.24
448.96	2678.74
449.16	2371.55
449.36	2256.86
449.57	2047.97
449.77	1955.81
449.98	1873.89
450.18	1796.07
450.39	1849.32
450.59	1800.16
450.79	1708.01
451.00	1730.53
451.20	1697.77
451.41	1708.01
451.61	1712.10
451.81	1753.06
452.02	1767.40
452.22	1734.63
452.43	1658.85
452.63	1654.76
