SpectraSuite Data File
++++++++++++++++++++++++++++++++++++
Date: Mon Jun 06 15:29:37 CEST 2016
User: root
Dark Spectrum Present: No
Reference Spectrum Present: No
Number of Sampled Component Spectra: 1
Spectrometers: USB4C02835
Integration Time (usec): 100000 (USB4C02835)
Spectra Averaged: 1 (USB4C02835)
Boxcar Smoothing: 0 (USB4C02835)
Correct for Electrical Dark: No (USB4C02835)
Strobe/Lamp Enabled: No (USB4C02835)
Correct for Detector Non-linearity: No (USB4C02835)
Correct for Stray Light: No (USB4C02835)
Number of Pixels in Processed Spectrum: 3648
>>>>>Begin Processed Spectral Data<<<<<
177.47	1433.58
177.69	1433.58
177.91	1433.58
178.13	1452.01
178.36	1431.53
178.58	1734.63
178.80	1699.81
179.02	1671.14
179.24	1568.74
179.46	1683.43
179.68	1849.32
179.90	1728.49
180.13	1705.96
180.35	1724.39
180.57	1779.68
180.79	1744.87
181.01	1615.85
181.23	1740.77
181.45	1744.87
181.67	1734.63
181.90	1800.16
182.12	1734.63
182.34	1607.66
182.56	1742.82
182.78	1695.72
183.00	1650.66
183.22	1771.49
183.44	1578.98
183.66	1865.70
183.89	1791.97
184.11	1732.58
184.33	1800.16
184.55	1744.87
184.77	1742.82
184.99	1667.05
185.21	1632.23
185.43	1863.65
185.65	1703.91
185.87	1746.92
186.10	1812.45
186.32	1791.97
186.54	1669.09
186.76	1839.08
186.98	1753.06
187.20	1751.01
187.42	1705.96
187.64	1687.53
187.86	1703.91
188.08	1757.16
188.30	1740.77
188.52	1701.86
188.75	1796.07
188.97	1773.54
189.19	1738.73
189.41	1738.73
189.63	1794.02
189.85	1619.94
190.07	1722.34
190.29	1634.28
190.51	1761.25
190.73	1650.66
190.95	1732.58
191.17	1734.63
191.39	1562.60
191.61	1677.29
191.84	1619.94
192.06	1759.21
192.28	1660.90
192.50	1863.65
192.72	1726.44
192.94	1718.25
193.16	1785.83
193.38	1697.77
193.60	1636.33
193.82	1669.09
194.04	1812.45
194.26	1675.24
194.48	1685.48
194.70	1615.85
194.92	1636.33
195.14	1703.91
195.36	1759.21
195.58	1714.15
195.80	1732.58
196.02	1650.66
196.24	1738.73
196.46	1732.58
196.69	1683.43
196.91	1787.88
197.13	1648.61
197.35	1695.72
197.57	1736.68
197.79	1740.77
198.01	1761.25
198.23	1730.53
198.45	1753.06
198.67	1638.38
198.89	1685.48
199.11	1720.29
199.33	1660.90
199.55	1603.56
199.77	1726.44
199.99	1734.63
200.21	1697.77
200.43	1716.20
200.65	1626.09
200.87	1583.08
201.09	1781.73
201.31	1687.53
201.53	1765.35
201.75	1771.49
201.97	1691.62
202.19	1708.01
202.41	1787.88
202.63	1783.78
202.85	1728.49
203.07	1742.82
203.29	1658.85
203.51	1589.22
203.73	1576.94
203.95	1931.23
204.17	1726.44
204.39	1720.29
204.61	1712.10
204.83	1689.57
205.05	1701.86
205.27	1722.34
205.49	1871.84
205.71	1714.15
205.93	1628.14
206.15	1595.37
206.37	1751.01
206.59	1748.97
206.81	1601.51
207.03	1667.05
207.25	1675.24
207.47	1759.21
207.69	1667.05
207.91	1744.87
208.13	1853.41
208.34	1697.77
208.56	1724.39
208.78	1722.34
209.00	1669.09
209.22	1660.90
209.44	1716.20
209.66	1740.77
209.88	1814.50
210.10	1646.57
210.32	1746.92
210.54	1804.26
210.76	1624.04
210.98	1812.45
211.20	1605.61
211.42	1693.67
211.64	1753.06
211.86	1738.73
212.08	1742.82
212.30	1732.58
212.52	1720.29
212.74	1761.25
212.96	1730.53
213.17	1748.97
213.39	1714.15
213.61	1824.74
213.83	1822.69
214.05	1617.90
214.27	1761.25
214.49	1615.85
214.71	1751.01
214.93	1820.64
215.15	1724.39
215.37	1726.44
215.59	1583.08
215.81	1738.73
216.03	1779.68
216.24	1742.82
216.46	1740.77
216.68	1759.21
216.90	1796.07
217.12	1783.78
217.34	1703.91
217.56	1734.63
217.78	1759.21
218.00	1765.35
218.22	1701.86
218.44	1771.49
218.66	1751.01
218.87	1787.88
219.09	1699.81
219.31	1714.15
219.53	1687.53
219.75	1726.44
219.97	1746.92
220.19	1757.16
220.41	1642.47
220.63	1769.44
220.85	1773.54
221.06	1634.28
221.28	1777.64
221.50	1761.25
221.72	1675.24
221.94	1734.63
222.16	1675.24
222.38	1748.97
222.60	1755.11
222.82	1665.00
223.03	1769.44
223.25	1665.00
223.47	1724.39
223.69	1837.03
223.91	1787.88
224.13	1738.73
224.35	1673.19
224.57	1744.87
224.78	1773.54
225.00	1685.48
225.22	1759.21
225.44	1671.14
225.66	1748.97
225.88	1658.85
226.10	1755.11
226.32	1746.92
226.53	1802.21
226.75	1679.33
226.97	1636.33
227.19	1724.39
227.41	1667.05
227.63	1669.09
227.85	1701.86
228.06	1609.70
228.28	1742.82
228.50	1779.68
228.72	1720.29
228.94	1746.92
229.16	1609.70
229.37	1722.34
229.59	1703.91
229.81	1753.06
230.03	1708.01
230.25	1638.38
230.47	1708.01
230.69	1689.57
230.90	1716.20
231.12	1681.38
231.34	1693.67
231.56	1730.53
231.78	1726.44
232.00	1677.29
232.21	1652.71
232.43	1603.56
232.65	1576.94
232.87	1746.92
233.09	1673.19
233.30	1642.47
233.52	1697.77
233.74	1718.25
233.96	1714.15
234.18	1687.53
234.40	1677.29
234.61	1812.45
234.83	1716.20
235.05	1611.75
235.27	1837.03
235.49	1859.56
235.70	1736.68
235.92	1748.97
236.14	1701.86
236.36	1808.36
236.58	1644.52
236.79	1787.88
237.01	1626.09
237.23	1755.11
237.45	1779.68
237.67	1703.91
237.88	1730.53
238.10	1886.18
238.32	1705.96
238.54	1619.94
238.76	1683.43
238.97	1654.76
239.19	1699.81
239.41	1757.16
239.63	1769.44
239.85	1673.19
240.06	1736.68
240.28	1640.42
240.50	1771.49
240.72	1755.11
240.93	1705.96
241.15	1771.49
241.37	1703.91
241.59	1806.31
241.81	1722.34
242.02	1710.05
242.24	1695.72
242.46	1779.68
242.68	1716.20
242.89	1710.05
243.11	1787.88
243.33	1730.53
243.55	1626.09
243.76	1714.15
243.98	1646.57
244.20	1751.01
244.42	1796.07
244.64	1751.01
244.85	1691.62
245.07	1605.61
245.29	1683.43
245.51	1677.29
245.72	1730.53
245.94	1699.81
246.16	1648.61
246.38	1781.73
246.59	1726.44
246.81	1730.53
247.03	1714.15
247.24	1630.18
247.46	1755.11
247.68	1798.12
247.90	1742.82
248.11	1738.73
248.33	1691.62
248.55	1732.58
248.77	1742.82
248.98	1791.97
249.20	1845.22
249.42	1710.05
249.64	1732.58
249.85	1656.81
250.07	1681.38
250.29	1769.44
250.50	1718.25
250.72	1656.81
250.94	1697.77
251.16	1804.26
251.37	1767.40
251.59	1775.59
251.81	1777.64
252.02	1853.41
252.24	1691.62
252.46	1810.40
252.68	1675.24
252.89	1742.82
253.11	1656.81
253.33	1796.07
253.54	1736.68
253.76	1744.87
253.98	1685.48
254.20	1687.53
254.41	1589.22
254.63	1685.48
254.85	1585.13
255.06	1685.48
255.28	1660.90
255.50	1714.15
255.71	1595.37
255.93	1646.57
256.15	1701.86
256.36	1714.15
256.58	1599.46
256.80	1744.87
257.02	1679.33
257.23	1628.14
257.45	1753.06
257.67	1791.97
257.88	1591.27
258.10	1755.11
258.32	1746.92
258.53	1705.96
258.75	1751.01
258.97	1718.25
259.18	1689.57
259.40	1728.49
259.62	1751.01
259.83	1789.92
260.05	1828.84
260.27	1992.67
260.48	1791.97
260.70	1705.96
260.92	1732.58
261.13	1691.62
261.35	1648.61
261.57	1789.92
261.78	1587.18
262.00	1609.70
262.22	1658.85
262.43	1710.05
262.65	1751.01
262.86	1638.38
263.08	1841.12
263.30	1665.00
263.51	1609.70
263.73	1689.57
263.95	1802.21
264.16	1804.26
264.38	1755.11
264.60	1703.91
264.81	1677.29
265.03	1773.54
265.25	1800.16
265.46	1722.34
265.68	1755.11
265.89	1734.63
266.11	1644.52
266.33	1669.09
266.54	1791.97
266.76	1732.58
266.98	1775.59
267.19	1861.60
267.41	1736.68
267.62	1689.57
267.84	1626.09
268.06	1785.83
268.27	1705.96
268.49	1759.21
268.70	1732.58
268.92	1755.11
269.14	1681.38
269.35	1628.14
269.57	1734.63
269.79	1722.34
270.00	1736.68
270.22	1724.39
270.43	1757.16
270.65	1605.61
270.87	1730.53
271.08	1757.16
271.30	1751.01
271.51	1755.11
271.73	1712.10
271.95	1773.54
272.16	1701.86
272.38	1712.10
272.59	1648.61
272.81	1734.63
273.02	1771.49
273.24	1732.58
273.46	1740.77
273.67	1605.61
273.89	1638.38
274.10	1695.72
274.32	1734.63
274.54	1748.97
274.75	1757.16
274.97	1667.05
275.18	1734.63
275.40	1740.77
275.61	1648.61
275.83	1767.40
276.05	1665.00
276.26	1759.21
276.48	1775.59
276.69	1689.57
276.91	1669.09
277.12	1716.20
277.34	1781.73
277.55	1744.87
277.77	1732.58
277.99	1683.43
278.20	1644.52
278.42	1705.96
278.63	1669.09
278.85	1654.76
279.06	1626.09
279.28	1720.29
279.49	1769.44
279.71	1779.68
279.93	1726.44
280.14	1744.87
280.36	1660.90
280.57	1783.78
280.79	1742.82
281.00	1640.42
281.22	1703.91
281.43	1820.64
281.65	1679.33
281.86	1656.81
282.08	1662.95
282.29	1824.74
282.51	1656.81
282.73	1644.52
282.94	1626.09
283.16	1740.77
283.37	1828.84
283.59	1775.59
283.80	1685.48
284.02	1705.96
284.23	1718.25
284.45	1701.86
284.66	1697.77
284.88	1667.05
285.09	1640.42
285.31	1730.53
285.52	1798.12
285.74	1703.91
285.95	1763.30
286.17	1738.73
286.38	1802.21
286.60	1619.94
286.81	1693.67
287.03	1685.48
287.24	1726.44
287.46	1656.81
287.67	1734.63
287.89	1824.74
288.10	1763.30
288.32	1759.21
288.53	1800.16
288.75	1624.04
288.96	1724.39
289.18	1740.77
289.39	1695.72
289.61	1787.88
289.82	1849.32
290.04	1865.70
290.25	1638.38
290.47	1667.05
290.68	1757.16
290.90	1751.01
291.11	1570.79
291.33	1757.16
291.54	1636.33
291.76	1720.29
291.97	1765.35
292.18	1677.29
292.40	1699.81
292.61	1720.29
292.83	1927.14
293.04	1726.44
293.26	1722.34
293.47	1691.62
293.69	1665.00
293.90	1746.92
294.12	1771.49
294.33	1679.33
294.55	1736.68
294.76	1810.40
294.97	1759.21
295.19	1837.03
295.40	1767.40
295.62	1728.49
295.83	1812.45
296.05	1732.58
296.26	1796.07
296.48	1695.72
296.69	1669.09
296.90	1757.16
297.12	1656.81
297.33	1789.92
297.55	1744.87
297.76	1761.25
297.98	1734.63
298.19	1665.00
298.41	1703.91
298.62	1679.33
298.83	1796.07
299.05	1734.63
299.26	1718.25
299.48	1648.61
299.69	1779.68
299.90	1769.44
300.12	1642.47
300.33	1814.50
300.55	1712.10
300.76	1794.02
300.98	1562.60
301.19	1769.44
301.40	1712.10
301.62	1642.47
301.83	1800.16
302.05	1712.10
302.26	1742.82
302.47	1712.10
302.69	1611.75
302.90	1636.33
303.12	1599.46
303.33	1708.01
303.54	1812.45
303.76	1695.72
303.97	1722.34
304.19	1834.98
304.40	1681.38
304.61	1738.73
304.83	1796.07
305.04	1804.26
305.26	1699.81
305.47	1705.96
305.68	1705.96
305.90	1624.04
306.11	1798.12
306.33	1681.38
306.54	1701.86
306.75	1677.29
306.97	1705.96
307.18	1701.86
307.39	1628.14
307.61	1767.40
307.82	1656.81
308.04	1751.01
308.25	1710.05
308.46	1767.40
308.68	1751.01
308.89	1716.20
309.10	1810.40
309.32	1710.05
309.53	1771.49
309.74	1705.96
309.96	1687.53
310.17	1712.10
310.39	1675.24
310.60	1736.68
310.81	1755.11
311.03	1679.33
311.24	1765.35
311.45	1689.57
311.67	1839.08
311.88	1738.73
312.09	1716.20
312.31	1701.86
312.52	1679.33
312.73	1669.09
312.95	1605.61
313.16	1722.34
313.37	1773.54
313.59	1802.21
313.80	1769.44
314.01	1832.93
314.23	1701.86
314.44	1632.23
314.65	1669.09
314.87	1785.83
315.08	1703.91
315.29	1710.05
315.51	1724.39
315.72	1613.80
315.93	1839.08
316.15	1828.84
316.36	1705.96
316.57	1656.81
316.79	1785.83
317.00	1705.96
317.21	1734.63
317.43	1673.19
317.64	1652.71
317.85	1632.23
318.07	1697.77
318.28	1671.14
318.49	1771.49
318.70	1853.41
318.92	1804.26
319.13	1814.50
319.34	1925.09
319.56	1771.49
319.77	1877.99
319.98	1855.46
320.20	1751.01
320.41	1765.35
320.62	1771.49
320.83	1689.57
321.05	1859.56
321.26	1718.25
321.47	1751.01
321.69	1744.87
321.90	1636.33
322.11	1718.25
322.32	1771.49
322.54	1779.68
322.75	1699.81
322.96	1718.25
323.18	1638.38
323.39	1646.57
323.60	1685.48
323.81	1636.33
324.03	1683.43
324.24	1789.92
324.45	1738.73
324.66	1705.96
324.88	1781.73
325.09	1748.97
325.30	1662.95
325.52	1740.77
325.73	1783.78
325.94	1652.71
326.15	1595.37
326.37	1689.57
326.58	1753.06
326.79	1791.97
327.00	1665.00
327.22	1718.25
327.43	1687.53
327.64	1675.24
327.85	1845.22
328.07	1726.44
328.28	1798.12
328.49	1718.25
328.70	1703.91
328.92	1675.24
329.13	1669.09
329.34	1683.43
329.55	1812.45
329.76	1886.18
329.98	1691.62
330.19	1828.84
330.40	1775.59
330.61	1705.96
330.83	1767.40
331.04	1662.95
331.25	1740.77
331.46	1642.47
331.68	1617.90
331.89	1779.68
332.10	1683.43
332.31	1656.81
332.52	1730.53
332.74	1718.25
332.95	1669.09
333.16	1753.06
333.37	1765.35
333.58	1730.53
333.80	1691.62
334.01	1605.61
334.22	1679.33
334.43	1710.05
334.64	1693.67
334.86	1683.43
335.07	1607.66
335.28	1693.67
335.49	1611.75
335.70	1730.53
335.92	1736.68
336.13	1802.21
336.34	1753.06
336.55	1808.36
336.76	1705.96
336.98	1654.76
337.19	1687.53
337.40	1781.73
337.61	1892.32
337.82	1699.81
338.04	1808.36
338.25	1669.09
338.46	1677.29
338.67	1710.05
338.88	1656.81
339.09	1613.80
339.31	1726.44
339.52	1640.42
339.73	1654.76
339.94	1794.02
340.15	1685.48
340.36	1701.86
340.58	1701.86
340.79	1689.57
341.00	1714.15
341.21	1654.76
341.42	1843.17
341.63	1652.71
341.85	1708.01
342.06	1685.48
342.27	1677.29
342.48	1708.01
342.69	1619.94
342.90	1753.06
343.12	1703.91
343.33	1687.53
343.54	1755.11
343.75	1791.97
343.96	1740.77
344.17	1669.09
344.38	1730.53
344.60	1665.00
344.81	1628.14
345.02	1814.50
345.23	1781.73
345.44	1828.84
345.65	1751.01
345.86	1736.68
346.07	1798.12
346.29	1671.14
346.50	1814.50
346.71	1705.96
346.92	1851.36
347.13	1851.36
347.34	1779.68
347.55	1746.92
347.76	1701.86
347.98	1624.04
348.19	1642.47
348.40	1759.21
348.61	1763.30
348.82	1834.98
349.03	1779.68
349.24	1669.09
349.45	1875.94
349.66	1642.47
349.88	1730.53
350.09	1708.01
350.30	1751.01
350.51	1800.16
350.72	1722.34
350.93	1746.92
351.14	1716.20
351.35	1757.16
351.56	1791.97
351.77	1658.85
351.99	1775.59
352.20	1826.79
352.41	1753.06
352.62	1615.85
352.83	1751.01
353.04	1726.44
353.25	1689.57
353.46	1767.40
353.67	1708.01
353.88	1644.52
354.09	1701.86
354.30	1708.01
354.52	1769.44
354.73	1697.77
354.94	1648.61
355.15	1765.35
355.36	1871.84
355.57	1681.38
355.78	1699.81
355.99	1710.05
356.20	1699.81
356.41	1734.63
356.62	1761.25
356.83	1662.95
357.04	1740.77
357.25	1621.99
357.46	1748.97
357.68	1652.71
357.89	1736.68
358.10	1712.10
358.31	1726.44
358.52	1669.09
358.73	1669.09
358.94	1644.52
359.15	1746.92
359.36	1785.83
359.57	1742.82
359.78	1728.49
359.99	1757.16
360.20	1710.05
360.41	1644.52
360.62	1802.21
360.83	1730.53
361.04	1720.29
361.25	1669.09
361.46	1783.78
361.67	1783.78
361.88	1732.58
362.09	1779.68
362.30	1769.44
362.51	1638.38
362.72	1730.53
362.93	1767.40
363.14	1722.34
363.35	1710.05
363.56	1716.20
363.78	1705.96
363.99	1855.46
364.20	1708.01
364.41	1740.77
364.62	1787.88
364.83	1699.81
365.04	1720.29
365.25	1710.05
365.46	1818.60
365.67	1587.18
365.88	1705.96
366.09	1693.67
366.30	1644.52
366.51	1744.87
366.72	1695.72
366.93	1718.25
367.14	1697.77
367.35	1849.32
367.56	1748.97
367.77	1763.30
367.98	1636.33
368.18	1644.52
368.39	1691.62
368.60	1669.09
368.81	1779.68
369.02	1642.47
369.23	1732.58
369.44	1615.85
369.65	1710.05
369.86	1763.30
370.07	1804.26
370.28	1662.95
370.49	1705.96
370.70	1826.79
370.91	1697.77
371.12	1619.94
371.33	1798.12
371.54	1751.01
371.75	1806.31
371.96	1480.68
372.17	1703.91
372.38	1689.57
372.59	1755.11
372.80	1701.86
373.01	1617.90
373.22	1685.48
373.43	1730.53
373.64	1644.52
373.85	1775.59
374.06	1726.44
374.26	1759.21
374.47	1787.88
374.68	1779.68
374.89	1722.34
375.10	1689.57
375.31	1738.73
375.52	1716.20
375.73	1751.01
375.94	1681.38
376.15	1871.84
376.36	1705.96
376.57	1634.28
376.78	1716.20
376.99	1730.53
377.20	1830.88
377.40	1691.62
377.61	1783.78
377.82	1675.24
378.03	1794.02
378.24	1740.77
378.45	1744.87
378.66	1736.68
378.87	1648.61
379.08	1617.90
379.29	1787.88
379.50	1861.60
379.71	1671.14
379.91	1783.78
380.12	1714.15
380.33	1667.05
380.54	1740.77
380.75	1744.87
380.96	1697.77
381.17	1855.46
381.38	1722.34
381.59	1683.43
381.80	1724.39
382.00	1853.41
382.21	1785.83
382.42	1826.79
382.63	1806.31
382.84	1806.31
383.05	1812.45
383.26	1775.59
383.47	1697.77
383.68	1736.68
383.88	1794.02
384.09	1730.53
384.30	1822.69
384.51	1712.10
384.72	1687.53
384.93	1748.97
385.14	1701.86
385.35	1814.50
385.55	1730.53
385.76	1802.21
385.97	1710.05
386.18	1656.81
386.39	1722.34
386.60	1820.64
386.81	1675.24
387.02	1656.81
387.22	1542.12
387.43	1818.60
387.64	1738.73
387.85	1869.80
388.06	2238.43
388.27	4116.42
388.48	6639.51
388.68	8071.04
388.89	9576.30
389.10	9713.52
389.31	8492.93
389.52	7583.63
389.73	6526.88
389.93	6066.08
390.14	5750.70
390.35	4980.66
390.56	4497.34
390.77	3717.06
390.98	3133.39
391.18	2426.84
391.39	2072.54
391.60	1955.81
391.81	1837.03
392.02	1746.92
392.23	1849.32
392.43	1732.58
392.64	1834.98
392.85	1734.63
393.06	1837.03
393.27	1703.91
393.47	1699.81
393.68	1673.19
393.89	1773.54
394.10	1724.39
394.31	1708.01
394.52	1619.94
394.72	1638.38
394.93	1828.84
395.14	1646.57
395.35	1779.68
395.56	1730.53
395.76	1734.63
395.97	1812.45
396.18	1855.46
396.39	1826.79
396.60	1994.72
396.80	1875.94
397.01	1812.45
397.22	1847.27
397.43	1837.03
397.64	1769.44
397.84	1832.93
398.05	1828.84
398.26	1703.91
398.47	1761.25
398.67	1781.73
398.88	1701.86
399.09	1687.53
399.30	1660.90
399.51	1802.21
399.71	1632.23
399.92	1738.73
400.13	1722.34
400.34	1744.87
400.54	1726.44
400.75	1775.59
400.96	1791.97
401.17	1908.71
401.37	1824.74
401.58	1665.00
401.79	1771.49
402.00	1931.23
402.21	1923.04
402.41	1910.75
402.62	2074.59
402.83	2070.50
403.04	2029.54
403.24	2066.40
403.45	1802.21
403.66	1945.57
403.87	1947.62
404.07	1935.33
404.28	2029.54
404.49	1861.60
404.70	1759.21
404.90	1751.01
405.11	1783.78
405.32	1763.30
405.52	1660.90
405.73	1701.86
405.94	1650.66
406.15	1779.68
406.35	1783.78
406.56	1781.73
406.77	1673.19
406.98	1759.21
407.18	1703.91
407.39	1812.45
407.60	1665.00
407.80	1685.48
408.01	1644.52
408.22	1787.88
408.43	1662.95
408.63	1738.73
408.84	1808.36
409.05	1794.02
409.25	1683.43
409.46	1701.86
409.67	1636.33
409.88	1697.77
410.08	1763.30
410.29	1673.19
410.50	1746.92
410.70	1730.53
410.91	1636.33
411.12	1808.36
411.32	1720.29
411.53	1658.85
411.74	1744.87
411.95	1783.78
412.15	1656.81
412.36	1771.49
412.57	1773.54
412.77	1763.30
412.98	1779.68
413.19	1617.90
413.39	1730.53
413.60	1763.30
413.81	1783.78
414.01	1763.30
414.22	1787.88
414.43	1771.49
414.63	1783.78
414.84	1824.74
415.05	1693.67
415.25	1667.05
415.46	1818.60
415.67	1738.73
415.87	1781.73
416.08	1751.01
416.29	1712.10
416.49	1669.09
416.70	1646.57
416.91	1722.34
417.11	1751.01
417.32	1779.68
417.53	1767.40
417.73	1773.54
417.94	1658.85
418.15	1742.82
418.35	1619.94
418.56	1705.96
418.77	1896.42
418.97	1759.21
419.18	1701.86
419.38	1595.37
419.59	1652.71
419.80	1761.25
420.00	1712.10
420.21	1652.71
420.42	1775.59
420.62	1708.01
420.83	1660.90
421.04	1626.09
421.24	1593.32
421.45	1705.96
421.65	1738.73
421.86	1755.11
422.07	1767.40
422.27	1826.79
422.48	1746.92
422.69	1675.24
422.89	1708.01
423.10	1712.10
423.30	1714.15
423.51	1771.49
423.72	1673.19
423.92	1769.44
424.13	1630.18
424.33	1660.90
424.54	1699.81
424.75	1722.34
424.95	1820.64
425.16	1736.68
425.36	1763.30
425.57	1763.30
425.78	1730.53
425.98	1787.88
426.19	1665.00
426.39	1693.67
426.60	1810.40
426.81	1820.64
427.01	1742.82
427.22	1734.63
427.42	1669.09
427.63	1619.94
427.83	1812.45
428.04	1888.23
428.25	1802.21
428.45	1845.22
428.66	1808.36
428.86	1703.91
429.07	1681.38
429.28	1742.82
429.48	1665.00
429.69	1646.57
429.89	1736.68
430.10	1650.66
430.30	1759.21
430.51	1796.07
430.71	1642.47
430.92	1738.73
431.13	1628.14
431.33	1773.54
431.54	1732.58
431.74	1785.83
431.95	1812.45
432.15	1601.51
432.36	1736.68
432.56	1773.54
432.77	1794.02
432.98	1859.56
433.18	1718.25
433.39	1738.73
433.59	1783.78
433.80	1832.93
434.00	1890.28
434.21	1720.29
434.41	1755.11
434.62	1898.47
434.82	1644.52
435.03	1648.61
435.23	1724.39
435.44	1593.32
435.64	1757.16
435.85	1812.45
436.06	1769.44
436.26	1816.55
436.47	1714.15
436.67	1710.05
436.88	1800.16
437.08	1806.31
437.29	1781.73
437.49	1755.11
437.70	1826.79
437.90	1677.29
438.11	1902.56
438.31	1841.12
438.52	1877.99
438.72	1869.80
438.93	1877.99
439.13	1748.97
439.34	1865.70
439.54	1730.53
439.75	1771.49
439.95	1820.64
440.16	1726.44
440.36	1828.84
440.57	1834.98
440.77	1738.73
440.98	1708.01
441.18	1734.63
441.39	1665.00
441.59	1742.82
441.80	1841.12
442.00	1722.34
442.21	1773.54
442.41	1644.52
442.62	1722.34
442.82	1703.91
443.02	1757.16
443.23	1751.01
443.43	1751.01
443.64	1865.70
443.84	1701.86
444.05	1877.99
444.25	1806.31
444.46	1781.73
444.66	1763.30
444.87	1806.31
445.07	1683.43
445.28	1804.26
445.48	1822.69
445.69	1777.64
445.89	1843.17
446.09	1738.73
446.30	2035.68
446.50	2570.20
446.71	3665.86
446.91	4327.36
447.12	4698.04
447.32	4759.48
447.53	4304.83
447.73	3831.75
447.93	3467.21
448.14	3280.85
448.34	3186.64
448.55	2856.92
448.75	2856.92
448.96	2691.03
449.16	2394.08
449.36	2193.37
449.57	2129.89
449.77	1898.47
449.98	1806.31
450.18	1841.12
450.39	1769.44
450.59	1753.06
450.79	1671.14
451.00	1683.43
451.20	1761.25
451.41	1744.87
451.61	1818.60
451.81	1710.05
452.02	1744.87
452.22	1705.96
452.43	1730.53
452.63	1714.15
