SpectraSuite Data File
++++++++++++++++++++++++++++++++++++
Date: Mon Jun 06 16:17:37 CEST 2016
User: root
Dark Spectrum Present: No
Reference Spectrum Present: No
Number of Sampled Component Spectra: 1
Spectrometers: USB4C02835
Integration Time (usec): 100000 (USB4C02835)
Spectra Averaged: 1 (USB4C02835)
Boxcar Smoothing: 0 (USB4C02835)
Correct for Electrical Dark: No (USB4C02835)
Strobe/Lamp Enabled: No (USB4C02835)
Correct for Detector Non-linearity: No (USB4C02835)
Correct for Stray Light: No (USB4C02835)
Number of Pixels in Processed Spectrum: 3648
>>>>>Begin Processed Spectral Data<<<<<
177.47	1484.78
177.69	1484.78
177.91	1484.78
178.13	1454.06
178.36	1447.91
178.58	1624.04
178.80	1800.16
179.02	1662.95
179.24	1726.44
179.46	1687.53
179.68	1732.58
179.90	1736.68
180.13	1820.64
180.35	1671.14
180.57	1703.91
180.79	1773.54
181.01	1650.66
181.23	1763.30
181.45	1777.64
181.67	1716.20
181.90	1761.25
182.12	1714.15
182.34	1648.61
182.56	1712.10
182.78	1671.14
183.00	1759.21
183.22	1783.78
183.44	1585.13
183.66	1857.51
183.89	1818.60
184.11	1740.77
184.33	1701.86
184.55	1730.53
184.77	1732.58
184.99	1708.01
185.21	1724.39
185.43	1859.56
185.65	1644.52
185.87	1685.48
186.10	1804.26
186.32	1871.84
186.54	1785.83
186.76	1773.54
186.98	1828.84
187.20	1730.53
187.42	1734.63
187.64	1665.00
187.86	1722.34
188.08	1734.63
188.30	1677.29
188.52	1636.33
188.75	1734.63
188.97	1701.86
189.19	1669.09
189.41	1783.78
189.63	1781.73
189.85	1742.82
190.07	1626.09
190.29	1628.14
190.51	1742.82
190.73	1722.34
190.95	1771.49
191.17	1712.10
191.39	1701.86
191.61	1652.71
191.84	1705.96
192.06	1722.34
192.28	1636.33
192.50	1914.85
192.72	1779.68
192.94	1626.09
193.16	1728.49
193.38	1714.15
193.60	1665.00
193.82	1703.91
194.04	1791.97
194.26	1689.57
194.48	1769.44
194.70	1701.86
194.92	1679.33
195.14	1722.34
195.36	1660.90
195.58	1708.01
195.80	1791.97
196.02	1716.20
196.24	1736.68
196.46	1787.88
196.69	1740.77
196.91	1877.99
197.13	1701.86
197.35	1617.90
197.57	1806.31
197.79	1742.82
198.01	1740.77
198.23	1712.10
198.45	1697.77
198.67	1607.66
198.89	1736.68
199.11	1703.91
199.33	1671.14
199.55	1615.85
199.77	1728.49
199.99	1763.30
200.21	1714.15
200.43	1730.53
200.65	1619.94
200.87	1665.00
201.09	1656.81
201.31	1751.01
201.53	1710.05
201.75	1798.12
201.97	1761.25
202.19	1714.15
202.41	1783.78
202.63	1834.98
202.85	1796.07
203.07	1773.54
203.29	1662.95
203.51	1722.34
203.73	1660.90
203.95	1951.71
204.17	1726.44
204.39	1716.20
204.61	1681.38
204.83	1665.00
205.05	1814.50
205.27	1738.73
205.49	1824.74
205.71	1728.49
205.93	1660.90
206.15	1662.95
206.37	1705.96
206.59	1691.62
206.81	1671.14
207.03	1626.09
207.25	1687.53
207.47	1697.77
207.69	1677.29
207.91	1808.36
208.13	1814.50
208.34	1656.81
208.56	1646.57
208.78	1783.78
209.00	1705.96
209.22	1724.39
209.44	1665.00
209.66	1705.96
209.88	1726.44
210.10	1681.38
210.32	1718.25
210.54	1759.21
210.76	1730.53
210.98	1748.97
211.20	1646.57
211.42	1789.92
211.64	1777.64
211.86	1708.01
212.08	1697.77
212.30	1712.10
212.52	1679.33
212.74	1699.81
212.96	1736.68
213.17	1738.73
213.39	1701.86
213.61	1751.01
213.83	1695.72
214.05	1701.86
214.27	1736.68
214.49	1589.22
214.71	1695.72
214.93	1861.60
215.15	1728.49
215.37	1742.82
215.59	1585.13
215.81	1771.49
216.03	1755.11
216.24	1683.43
216.46	1662.95
216.68	1763.30
216.90	1789.92
217.12	1789.92
217.34	1730.53
217.56	1763.30
217.78	1775.59
218.00	1796.07
218.22	1677.29
218.44	1689.57
218.66	1742.82
218.87	1837.03
219.09	1648.61
219.31	1742.82
219.53	1710.05
219.75	1695.72
219.97	1705.96
220.19	1732.58
220.41	1730.53
220.63	1738.73
220.85	1728.49
221.06	1640.42
221.28	1755.11
221.50	1722.34
221.72	1767.40
221.94	1714.15
222.16	1720.29
222.38	1710.05
222.60	1791.97
222.82	1718.25
223.03	1771.49
223.25	1593.32
223.47	1708.01
223.69	1873.89
223.91	1802.21
224.13	1736.68
224.35	1626.09
224.57	1861.60
224.78	1824.74
225.00	1638.38
225.22	1681.38
225.44	1683.43
225.66	1744.87
225.88	1642.47
226.10	1787.88
226.32	1685.48
226.53	1783.78
226.75	1609.70
226.97	1710.05
227.19	1757.16
227.41	1736.68
227.63	1642.47
227.85	1576.94
228.06	1703.91
228.28	1742.82
228.50	1755.11
228.72	1660.90
228.94	1722.34
229.16	1609.70
229.37	1613.80
229.59	1744.87
229.81	1787.88
230.03	1599.46
230.25	1669.09
230.47	1724.39
230.69	1585.13
230.90	1767.40
231.12	1589.22
231.34	1708.01
231.56	1722.34
231.78	1599.46
232.00	1701.86
232.21	1736.68
232.43	1665.00
232.65	1568.74
232.87	1714.15
233.09	1671.14
233.30	1669.09
233.52	1712.10
233.74	1812.45
233.96	1693.67
234.18	1718.25
234.40	1705.96
234.61	1837.03
234.83	1630.18
235.05	1644.52
235.27	1845.22
235.49	1685.48
235.70	1675.24
235.92	1767.40
236.14	1710.05
236.36	1933.28
236.58	1648.61
236.79	1820.64
237.01	1742.82
237.23	1669.09
237.45	1847.27
237.67	1642.47
237.88	1767.40
238.10	1787.88
238.32	1652.71
238.54	1703.91
238.76	1693.67
238.97	1673.19
239.19	1695.72
239.41	1726.44
239.63	1794.02
239.85	1667.05
240.06	1722.34
240.28	1746.92
240.50	1806.31
240.72	1767.40
240.93	1699.81
241.15	1779.68
241.37	1730.53
241.59	1832.93
241.81	1697.77
242.02	1652.71
242.24	1712.10
242.46	1726.44
242.68	1710.05
242.89	1720.29
243.11	1720.29
243.33	1705.96
243.55	1712.10
243.76	1720.29
243.98	1648.61
244.20	1802.21
244.42	1724.39
244.64	1722.34
244.85	1683.43
245.07	1599.46
245.29	1824.74
245.51	1703.91
245.72	1693.67
245.94	1834.98
246.16	1716.20
246.38	1710.05
246.59	1650.66
246.81	1646.57
247.03	1718.25
247.24	1591.27
247.46	1771.49
247.68	1728.49
247.90	1714.15
248.11	1671.14
248.33	1767.40
248.55	1697.77
248.77	1785.83
248.98	1767.40
249.20	1822.69
249.42	1636.33
249.64	1716.20
249.85	1714.15
250.07	1634.28
250.29	1773.54
250.50	1810.40
250.72	1568.74
250.94	1755.11
251.16	1787.88
251.37	1759.21
251.59	1724.39
251.81	1738.73
252.02	1763.30
252.24	1701.86
252.46	1769.44
252.68	1615.85
252.89	1746.92
253.11	1595.37
253.33	1757.16
253.54	1705.96
253.76	1658.85
253.98	1712.10
254.20	1699.81
254.41	1640.42
254.63	1632.23
254.85	1695.72
255.06	1705.96
255.28	1736.68
255.50	1695.72
255.71	1687.53
255.93	1665.00
256.15	1767.40
256.36	1699.81
256.58	1722.34
256.80	1785.83
257.02	1681.38
257.23	1714.15
257.45	1765.35
257.67	1716.20
257.88	1730.53
258.10	1775.59
258.32	1734.63
258.53	1802.21
258.75	1777.64
258.97	1599.46
259.18	1732.58
259.40	1769.44
259.62	1832.93
259.83	1761.25
260.05	1751.01
260.27	1914.85
260.48	1791.97
260.70	1601.51
260.92	1642.47
261.13	1777.64
261.35	1693.67
261.57	1726.44
261.78	1607.66
262.00	1591.27
262.22	1726.44
262.43	1714.15
262.65	1761.25
262.86	1726.44
263.08	1830.88
263.30	1691.62
263.51	1648.61
263.73	1632.23
263.95	1783.78
264.16	1576.94
264.38	1671.14
264.60	1708.01
264.81	1677.29
265.03	1751.01
265.25	1777.64
265.46	1785.83
265.68	1794.02
265.89	1738.73
266.11	1607.66
266.33	1783.78
266.54	1722.34
266.76	1705.96
266.98	1701.86
267.19	1804.26
267.41	1730.53
267.62	1712.10
267.84	1662.95
268.06	1767.40
268.27	1742.82
268.49	1751.01
268.70	1712.10
268.92	1804.26
269.14	1720.29
269.35	1607.66
269.57	1699.81
269.79	1712.10
270.00	1626.09
270.22	1759.21
270.43	1751.01
270.65	1599.46
270.87	1744.87
271.08	1730.53
271.30	1734.63
271.51	1738.73
271.73	1730.53
271.95	1783.78
272.16	1738.73
272.38	1746.92
272.59	1656.81
272.81	1763.30
273.02	1705.96
273.24	1732.58
273.46	1847.27
273.67	1677.29
273.89	1732.58
274.10	1640.42
274.32	1773.54
274.54	1763.30
274.75	1759.21
274.97	1654.76
275.18	1794.02
275.40	1779.68
275.61	1699.81
275.83	1718.25
276.05	1675.24
276.26	1652.71
276.48	1765.35
276.69	1671.14
276.91	1687.53
277.12	1748.97
277.34	1826.79
277.55	1767.40
277.77	1755.11
277.99	1646.57
278.20	1660.90
278.42	1611.75
278.63	1693.67
278.85	1699.81
279.06	1591.27
279.28	1763.30
279.49	1744.87
279.71	1759.21
279.93	1730.53
280.14	1660.90
280.36	1658.85
280.57	1689.57
280.79	1736.68
281.00	1599.46
281.22	1673.19
281.43	1753.06
281.65	1607.66
281.86	1644.52
282.08	1777.64
282.29	1867.75
282.51	1669.09
282.73	1710.05
282.94	1581.03
283.16	1806.31
283.37	1861.60
283.59	1730.53
283.80	1734.63
284.02	1734.63
284.23	1734.63
284.45	1722.34
284.66	1636.33
284.88	1658.85
285.09	1716.20
285.31	1746.92
285.52	1734.63
285.74	1574.89
285.95	1830.88
286.17	1814.50
286.38	1708.01
286.60	1755.11
286.81	1691.62
287.03	1755.11
287.24	1652.71
287.46	1681.38
287.67	1787.88
287.89	1861.60
288.10	1644.52
288.32	1753.06
288.53	1800.16
288.75	1746.92
288.96	1660.90
289.18	1624.04
289.39	1699.81
289.61	1746.92
289.82	1763.30
290.04	1814.50
290.25	1665.00
290.47	1658.85
290.68	1611.75
290.90	1787.88
291.11	1634.28
291.33	1779.68
291.54	1650.66
291.76	1619.94
291.97	1761.25
292.18	1689.57
292.40	1716.20
292.61	1681.38
292.83	1808.36
293.04	1763.30
293.26	1636.33
293.47	1720.29
293.69	1642.47
293.90	1621.99
294.12	1783.78
294.33	1658.85
294.55	1701.86
294.76	1810.40
294.97	1837.03
295.19	1822.69
295.40	1730.53
295.62	1708.01
295.83	1720.29
296.05	1738.73
296.26	1728.49
296.48	1652.71
296.69	1738.73
296.90	1652.71
297.12	1775.59
297.33	1837.03
297.55	1708.01
297.76	1718.25
297.98	1814.50
298.19	1642.47
298.41	1718.25
298.62	1710.05
298.83	1783.78
299.05	1730.53
299.26	1701.86
299.48	1658.85
299.69	1806.31
299.90	1669.09
300.12	1626.09
300.33	1720.29
300.55	1751.01
300.76	1810.40
300.98	1597.42
301.19	1787.88
301.40	1716.20
301.62	1687.53
301.83	1689.57
302.05	1687.53
302.26	1769.44
302.47	1705.96
302.69	1714.15
302.90	1728.49
303.12	1605.61
303.33	1742.82
303.54	1843.17
303.76	1701.86
303.97	1798.12
304.19	1794.02
304.40	1679.33
304.61	1800.16
304.83	1802.21
305.04	1802.21
305.26	1775.59
305.47	1646.57
305.68	1742.82
305.90	1603.56
306.11	1769.44
306.33	1775.59
306.54	1658.85
306.75	1671.14
306.97	1570.79
307.18	1667.05
307.39	1669.09
307.61	1796.07
307.82	1710.05
308.04	1800.16
308.25	1679.33
308.46	1808.36
308.68	1611.75
308.89	1718.25
309.10	1806.31
309.32	1726.44
309.53	1765.35
309.74	1726.44
309.96	1683.43
310.17	1775.59
310.39	1734.63
310.60	1740.77
310.81	1683.43
311.03	1638.38
311.24	1687.53
311.45	1656.81
311.67	1841.12
311.88	1671.14
312.09	1695.72
312.31	1726.44
312.52	1630.18
312.73	1769.44
312.95	1574.89
313.16	1621.99
313.37	1783.78
313.59	1740.77
313.80	1812.45
314.01	1808.36
314.23	1681.38
314.44	1640.42
314.65	1640.42
314.87	1671.14
315.08	1667.05
315.29	1697.77
315.51	1671.14
315.72	1642.47
315.93	1812.45
316.15	1714.15
316.36	1683.43
316.57	1708.01
316.79	1742.82
317.00	1730.53
317.21	1722.34
317.43	1660.90
317.64	1730.53
317.85	1697.77
318.07	1662.95
318.28	1759.21
318.49	1832.93
318.70	1920.99
318.92	1851.36
319.13	1871.84
319.34	1837.03
319.56	1779.68
319.77	1734.63
319.98	1837.03
320.20	1798.12
320.41	1736.68
320.62	1769.44
320.83	1628.14
321.05	1841.12
321.26	1820.64
321.47	1714.15
321.69	1785.83
321.90	1646.57
322.11	1720.29
322.32	1699.81
322.54	1808.36
322.75	1685.48
322.96	1783.78
323.18	1697.77
323.39	1531.88
323.60	1746.92
323.81	1896.42
324.03	1673.19
324.24	1732.58
324.45	1732.58
324.66	1701.86
324.88	1705.96
325.09	1759.21
325.30	1765.35
325.52	1748.97
325.73	1787.88
325.94	1640.42
326.15	1652.71
326.37	1648.61
326.58	1751.01
326.79	1828.84
327.00	1642.47
327.22	1761.25
327.43	1667.05
327.64	1621.99
327.85	1708.01
328.07	1746.92
328.28	1824.74
328.49	1699.81
328.70	1724.39
328.92	1753.06
329.13	1759.21
329.34	1734.63
329.55	1812.45
329.76	1746.92
329.98	1662.95
330.19	1738.73
330.40	1656.81
330.61	1718.25
330.83	1769.44
331.04	1662.95
331.25	1804.26
331.46	1701.86
331.68	1624.04
331.89	1765.35
332.10	1720.29
332.31	1685.48
332.52	1701.86
332.74	1773.54
332.95	1691.62
333.16	1673.19
333.37	1800.16
333.58	1697.77
333.80	1724.39
334.01	1585.13
334.22	1710.05
334.43	1605.61
334.64	1650.66
334.86	1677.29
335.07	1677.29
335.28	1804.26
335.49	1675.24
335.70	1783.78
335.92	1781.73
336.13	1785.83
336.34	1720.29
336.55	1796.07
336.76	1714.15
336.98	1613.80
337.19	1732.58
337.40	1816.55
337.61	1818.60
337.82	1687.53
338.04	1757.16
338.25	1660.90
338.46	1691.62
338.67	1658.85
338.88	1665.00
339.09	1701.86
339.31	1746.92
339.52	1697.77
339.73	1583.08
339.94	1824.74
340.15	1796.07
340.36	1722.34
340.58	1742.82
340.79	1656.81
341.00	1718.25
341.21	1646.57
341.42	1724.39
341.63	1685.48
341.85	1740.77
342.06	1685.48
342.27	1671.14
342.48	1744.87
342.69	1724.39
342.90	1832.93
343.12	1800.16
343.33	1648.61
343.54	1748.97
343.75	1806.31
343.96	1675.24
344.17	1630.18
344.38	1744.87
344.60	1697.77
344.81	1679.33
345.02	1673.19
345.23	1755.11
345.44	1863.65
345.65	1738.73
345.86	1777.64
346.07	1669.09
346.29	1656.81
346.50	1753.06
346.71	1705.96
346.92	1779.68
347.13	1886.18
347.34	1697.77
347.55	1636.33
347.76	1751.01
347.98	1599.46
348.19	1728.49
348.40	1781.73
348.61	1667.05
348.82	1861.60
349.03	1759.21
349.24	1677.29
349.45	1800.16
349.66	1648.61
349.88	1755.11
350.09	1681.38
350.30	1705.96
350.51	1859.56
350.72	1683.43
350.93	1759.21
351.14	1652.71
351.35	1755.11
351.56	1810.40
351.77	1687.53
351.99	1751.01
352.20	1781.73
352.41	1757.16
352.62	1607.66
352.83	1699.81
353.04	1691.62
353.25	1763.30
353.46	1839.08
353.67	1730.53
353.88	1634.28
354.09	1701.86
354.30	1693.67
354.52	1712.10
354.73	1669.09
354.94	1597.42
355.15	1630.18
355.36	1857.51
355.57	1732.58
355.78	1703.91
355.99	1648.61
356.20	1699.81
356.41	1777.64
356.62	1763.30
356.83	1712.10
357.04	1832.93
357.25	1624.04
357.46	1773.54
357.68	1585.13
357.89	1724.39
358.10	1683.43
358.31	1677.29
358.52	1816.55
358.73	1617.90
358.94	1642.47
359.15	1742.82
359.36	1712.10
359.57	1734.63
359.78	1701.86
359.99	1746.92
360.20	1662.95
360.41	1765.35
360.62	1734.63
360.83	1810.40
361.04	1677.29
361.25	1783.78
361.46	1767.40
361.67	1765.35
361.88	1716.20
362.09	1714.15
362.30	1722.34
362.51	1681.38
362.72	1720.29
362.93	1853.41
363.14	1740.77
363.35	1671.14
363.56	1673.19
363.78	1800.16
363.99	1708.01
364.20	1679.33
364.41	1808.36
364.62	1804.26
364.83	1677.29
365.04	1626.09
365.25	1738.73
365.46	1865.70
365.67	1640.42
365.88	1636.33
366.09	1763.30
366.30	1613.80
366.51	1654.76
366.72	1650.66
366.93	1761.25
367.14	1759.21
367.35	1724.39
367.56	1665.00
367.77	1732.58
367.98	1767.40
368.18	1722.34
368.39	1705.96
368.60	1652.71
368.81	1808.36
369.02	1687.53
369.23	1669.09
369.44	1601.51
369.65	1681.38
369.86	1695.72
370.07	1853.41
370.28	1712.10
370.49	1808.36
370.70	1677.29
370.91	1708.01
371.12	1656.81
371.33	1814.50
371.54	1705.96
371.75	1894.37
371.96	1642.47
372.17	1771.49
372.38	1640.42
372.59	1703.91
372.80	1714.15
373.01	1724.39
373.22	1714.15
373.43	1777.64
373.64	1671.14
373.85	1785.83
374.06	1902.56
374.26	1773.54
374.47	1728.49
374.68	1734.63
374.89	1724.39
375.10	1693.67
375.31	1748.97
375.52	1722.34
375.73	1806.31
375.94	1660.90
376.15	1744.87
376.36	1699.81
376.57	1665.00
376.78	1744.87
376.99	1693.67
377.20	1826.79
377.40	1779.68
377.61	1808.36
377.82	1648.61
378.03	1863.65
378.24	1798.12
378.45	1708.01
378.66	1820.64
378.87	1660.90
379.08	1615.85
379.29	1638.38
379.50	1816.55
379.71	1712.10
379.91	1748.97
380.12	1746.92
380.33	1761.25
380.54	1708.01
380.75	1710.05
380.96	1730.53
381.17	1783.78
381.38	1751.01
381.59	1740.77
381.80	1689.57
382.00	1845.22
382.21	1767.40
382.42	1859.56
382.63	1884.13
382.84	1763.30
383.05	1785.83
383.26	1785.83
383.47	1730.53
383.68	1724.39
383.88	1714.15
384.09	1748.97
384.30	1824.74
384.51	1714.15
384.72	1746.92
384.93	1652.71
385.14	1730.53
385.35	1671.14
385.55	1697.77
385.76	1755.11
385.97	1726.44
386.18	1630.18
386.39	1732.58
386.60	1650.66
386.81	1767.40
387.02	1646.57
387.22	1587.18
387.43	1804.26
387.64	1834.98
387.85	1904.61
388.06	2195.42
388.27	4249.54
388.48	6782.87
388.68	8296.32
388.89	9742.19
389.10	9844.59
389.31	8720.25
389.52	7825.29
389.73	6852.50
389.93	6254.50
390.14	5849.00
390.35	5169.07
390.56	4560.83
390.77	3885.00
390.98	3084.24
391.18	2463.71
391.39	2197.47
391.60	1892.32
391.81	1761.25
392.02	1705.96
392.23	1894.37
392.43	1783.78
392.64	1818.60
392.85	1722.34
393.06	1892.32
393.27	1734.63
393.47	1703.91
393.68	1775.59
393.89	1677.29
394.10	1875.94
394.31	1687.53
394.52	1640.42
394.72	1585.13
394.93	1886.18
395.14	1656.81
395.35	1718.25
395.56	1742.82
395.76	1753.06
395.97	1771.49
396.18	1814.50
396.39	1859.56
396.60	2052.06
396.80	1925.09
397.01	1982.43
397.22	1804.26
397.43	1873.89
397.64	1699.81
397.84	1787.88
398.05	1871.84
398.26	1730.53
398.47	1798.12
398.67	1785.83
398.88	1644.52
399.09	1691.62
399.30	1708.01
399.51	1738.73
399.71	1757.16
399.92	1685.48
400.13	1798.12
400.34	1722.34
400.54	1714.15
400.75	1763.30
400.96	1753.06
401.17	1804.26
401.37	1726.44
401.58	1699.81
401.79	1720.29
402.00	1908.71
402.21	1994.72
402.41	1972.19
402.62	1998.82
402.83	1986.53
403.04	2058.21
403.24	2164.70
403.45	1957.86
403.66	1964.00
403.87	1871.84
404.07	1855.46
404.28	1972.19
404.49	1886.18
404.70	1810.40
404.90	1771.49
405.11	1802.21
405.32	1753.06
405.52	1611.75
405.73	1720.29
405.94	1642.47
406.15	1681.38
406.35	1841.12
406.56	1722.34
406.77	1665.00
406.98	1669.09
407.18	1775.59
407.39	1837.03
407.60	1697.77
407.80	1771.49
408.01	1697.77
408.22	1824.74
408.43	1701.86
408.63	1701.86
408.84	1687.53
409.05	1730.53
409.25	1718.25
409.46	1673.19
409.67	1621.99
409.88	1740.77
410.08	1751.01
410.29	1712.10
410.50	1781.73
410.70	1687.53
410.91	1675.24
411.12	1681.38
411.32	1716.20
411.53	1685.48
411.74	1818.60
411.95	1759.21
412.15	1761.25
412.36	1798.12
412.57	1769.44
412.77	1753.06
412.98	1771.49
413.19	1689.57
413.39	1755.11
413.60	1753.06
413.81	1873.89
414.01	1753.06
414.22	1804.26
414.43	1755.11
414.63	1662.95
414.84	1732.58
415.05	1708.01
415.25	1656.81
415.46	1691.62
415.67	1710.05
415.87	1744.87
416.08	1730.53
416.29	1675.24
416.49	1697.77
416.70	1746.92
416.91	1732.58
417.11	1699.81
417.32	1753.06
417.53	1732.58
417.73	1746.92
417.94	1726.44
418.15	1744.87
418.35	1734.63
418.56	1781.73
418.77	1800.16
418.97	1728.49
419.18	1638.38
419.38	1595.37
419.59	1673.19
419.80	1781.73
420.00	1714.15
420.21	1734.63
420.42	1773.54
420.62	1804.26
420.83	1703.91
421.04	1769.44
421.24	1695.72
421.45	1816.55
421.65	1722.34
421.86	1687.53
422.07	1701.86
422.27	1763.30
422.48	1734.63
422.69	1679.33
422.89	1708.01
423.10	1732.58
423.30	1615.85
423.51	1710.05
423.72	1746.92
423.92	1748.97
424.13	1654.76
424.33	1724.39
424.54	1816.55
424.75	1740.77
424.95	1855.46
425.16	1746.92
425.36	1777.64
425.57	1718.25
425.78	1832.93
425.98	1779.68
426.19	1636.33
426.39	1572.84
426.60	1712.10
426.81	1875.94
427.01	1734.63
427.22	1703.91
427.42	1673.19
427.63	1609.70
427.83	1734.63
428.04	1820.64
428.25	1818.60
428.45	1798.12
428.66	1769.44
428.86	1720.29
429.07	1767.40
429.28	1693.67
429.48	1724.39
429.69	1626.09
429.89	1697.77
430.10	1681.38
430.30	1746.92
430.51	1802.21
430.71	1710.05
430.92	1736.68
431.13	1677.29
431.33	1701.86
431.54	1718.25
431.74	1773.54
431.95	1845.22
432.15	1724.39
432.36	1648.61
432.56	1837.03
432.77	1884.13
432.98	1834.98
433.18	1738.73
433.39	1712.10
433.59	1705.96
433.80	1834.98
434.00	1914.85
434.21	1708.01
434.41	1724.39
434.62	1820.64
434.82	1656.81
435.03	1660.90
435.23	1771.49
435.44	1617.90
435.64	1746.92
435.85	1826.79
436.06	1740.77
436.26	1834.98
436.47	1669.09
436.67	1691.62
436.88	1671.14
437.08	1814.50
437.29	1779.68
437.49	1757.16
437.70	1763.30
437.90	1697.77
438.11	1890.28
438.31	1832.93
438.52	1875.94
438.72	1843.17
438.93	1982.43
439.13	1804.26
439.34	1841.12
439.54	1734.63
439.75	1755.11
439.95	1753.06
440.16	1681.38
440.36	1660.90
440.57	1814.50
440.77	1728.49
440.98	1722.34
441.18	1814.50
441.39	1724.39
441.59	1701.86
441.80	1920.99
442.00	1736.68
442.21	1853.41
442.41	1751.01
442.62	1804.26
442.82	1789.92
443.02	1771.49
443.23	1746.92
443.43	1769.44
443.64	1787.88
443.84	1665.00
444.05	1871.84
444.25	1732.58
444.46	1681.38
444.66	1742.82
444.87	1802.21
445.07	1710.05
445.28	1701.86
445.48	1763.30
445.69	1783.78
445.89	1828.84
446.09	1718.25
446.30	2033.63
446.50	2672.60
446.71	3665.86
446.91	4425.66
447.12	4788.15
447.32	4820.92
447.53	4319.17
447.73	3860.42
447.93	3583.95
448.14	3305.42
448.34	3274.70
448.55	3000.27
448.75	2879.44
448.96	2633.69
449.16	2412.51
449.36	2209.76
449.57	2097.12
449.77	1877.99
449.98	1804.26
450.18	1810.40
450.39	1855.46
450.59	1787.88
450.79	1779.68
451.00	1693.67
451.20	1789.92
451.41	1753.06
451.61	1804.26
451.81	1730.53
452.02	1710.05
452.22	1734.63
452.43	1746.92
452.63	1759.21
