SpectraSuite Data File
++++++++++++++++++++++++++++++++++++
Date: Mon Jun 06 13:56:57 CEST 2016
User: root
Dark Spectrum Present: No
Reference Spectrum Present: No
Number of Sampled Component Spectra: 1
Spectrometers: USB4C02835
Integration Time (usec): 100000 (USB4C02835)
Spectra Averaged: 1 (USB4C02835)
Boxcar Smoothing: 0 (USB4C02835)
Correct for Electrical Dark: No (USB4C02835)
Strobe/Lamp Enabled: No (USB4C02835)
Correct for Detector Non-linearity: No (USB4C02835)
Correct for Stray Light: No (USB4C02835)
Number of Pixels in Processed Spectrum: 3648
>>>>>Begin Processed Spectral Data<<<<<
177.47	1427.43
177.69	1427.43
177.91	1427.43
178.13	1492.97
178.36	1433.58
178.58	1646.57
178.80	1689.57
179.02	1570.79
179.24	1687.53
179.46	1720.29
179.68	1804.26
179.90	1744.87
180.13	1634.28
180.35	1634.28
180.57	1732.58
180.79	1734.63
181.01	1730.53
181.23	1716.20
181.45	1816.55
181.67	1705.96
181.90	1783.78
182.12	1693.67
182.34	1566.70
182.56	1740.77
182.78	1689.57
183.00	1759.21
183.22	1769.44
183.44	1583.08
183.66	1812.45
183.89	1796.07
184.11	1722.34
184.33	1718.25
184.55	1740.77
184.77	1660.90
184.99	1714.15
185.21	1769.44
185.43	1822.69
185.65	1607.66
185.87	1683.43
186.10	1818.60
186.32	1857.51
186.54	1699.81
186.76	1652.71
186.98	1775.59
187.20	1677.29
187.42	1681.38
187.64	1675.24
187.86	1736.68
188.08	1660.90
188.30	1730.53
188.52	1714.15
188.75	1800.16
188.97	1787.88
189.19	1652.71
189.41	1720.29
189.63	1669.09
189.85	1675.24
190.07	1708.01
190.29	1595.37
190.51	1740.77
190.73	1634.28
190.95	1812.45
191.17	1740.77
191.39	1667.05
191.61	1611.75
191.84	1650.66
192.06	1687.53
192.28	1654.76
192.50	1847.27
192.72	1714.15
192.94	1732.58
193.16	1755.11
193.38	1718.25
193.60	1628.14
193.82	1681.38
194.04	1761.25
194.26	1681.38
194.48	1718.25
194.70	1638.38
194.92	1660.90
195.14	1636.33
195.36	1615.85
195.58	1681.38
195.80	1648.61
196.02	1648.61
196.24	1730.53
196.46	1722.34
196.69	1701.86
196.91	1841.12
197.13	1632.23
197.35	1624.04
197.57	1755.11
197.79	1740.77
198.01	1683.43
198.23	1626.09
198.45	1718.25
198.67	1628.14
198.89	1660.90
199.11	1701.86
199.33	1660.90
199.55	1542.12
199.77	1712.10
199.99	1714.15
200.21	1728.49
200.43	1814.50
200.65	1587.18
200.87	1611.75
201.09	1730.53
201.31	1665.00
201.53	1742.82
201.75	1695.72
201.97	1755.11
202.19	1671.14
202.41	1746.92
202.63	1873.89
202.85	1667.05
203.07	1728.49
203.29	1667.05
203.51	1677.29
203.73	1744.87
203.95	1812.45
204.17	1652.71
204.39	1710.05
204.61	1710.05
204.83	1615.85
205.05	1765.35
205.27	1701.86
205.49	1820.64
205.71	1714.15
205.93	1669.09
206.15	1660.90
206.37	1787.88
206.59	1722.34
206.81	1587.18
207.03	1578.98
207.25	1650.66
207.47	1714.15
207.69	1720.29
207.91	1802.21
208.13	1832.93
208.34	1646.57
208.56	1687.53
208.78	1685.48
209.00	1660.90
209.22	1681.38
209.44	1757.16
209.66	1591.27
209.88	1681.38
210.10	1685.48
210.32	1634.28
210.54	1804.26
210.76	1708.01
210.98	1724.39
211.20	1554.41
211.42	1781.73
211.64	1732.58
211.86	1748.97
212.08	1761.25
212.30	1769.44
212.52	1638.38
212.74	1611.75
212.96	1677.29
213.17	1775.59
213.39	1724.39
213.61	1798.12
213.83	1716.20
214.05	1644.52
214.27	1755.11
214.49	1705.96
214.71	1644.52
214.93	1771.49
215.15	1644.52
215.37	1691.62
215.59	1574.89
215.81	1714.15
216.03	1775.59
216.24	1716.20
216.46	1652.71
216.68	1687.53
216.90	1763.30
217.12	1681.38
217.34	1683.43
217.56	1722.34
217.78	1724.39
218.00	1687.53
218.22	1783.78
218.44	1660.90
218.66	1677.29
218.87	1820.64
219.09	1751.01
219.31	1730.53
219.53	1693.67
219.75	1630.18
219.97	1685.48
220.19	1761.25
220.41	1648.61
220.63	1738.73
220.85	1761.25
221.06	1632.23
221.28	1744.87
221.50	1677.29
221.72	1746.92
221.94	1742.82
222.16	1667.05
222.38	1744.87
222.60	1777.64
222.82	1697.77
223.03	1705.96
223.25	1703.91
223.47	1734.63
223.69	1810.40
223.91	1726.44
224.13	1681.38
224.35	1708.01
224.57	1740.77
224.78	1746.92
225.00	1656.81
225.22	1765.35
225.44	1710.05
225.66	1714.15
225.88	1681.38
226.10	1757.16
226.32	1718.25
226.53	1869.80
226.75	1662.95
226.97	1624.04
227.19	1697.77
227.41	1660.90
227.63	1765.35
227.85	1589.22
228.06	1742.82
228.28	1660.90
228.50	1736.68
228.72	1624.04
228.94	1689.57
229.16	1626.09
229.37	1636.33
229.59	1605.61
229.81	1810.40
230.03	1681.38
230.25	1638.38
230.47	1615.85
230.69	1755.11
230.90	1746.92
231.12	1697.77
231.34	1710.05
231.56	1722.34
231.78	1617.90
232.00	1650.66
232.21	1652.71
232.43	1718.25
232.65	1626.09
232.87	1726.44
233.09	1708.01
233.30	1679.33
233.52	1744.87
233.74	1722.34
233.96	1728.49
234.18	1730.53
234.40	1716.20
234.61	1802.21
234.83	1656.81
235.05	1619.94
235.27	1800.16
235.49	1748.97
235.70	1675.24
235.92	1738.73
236.14	1714.15
236.36	1871.84
236.58	1656.81
236.79	1718.25
237.01	1718.25
237.23	1714.15
237.45	1822.69
237.67	1626.09
237.88	1730.53
238.10	1796.07
238.32	1662.95
238.54	1712.10
238.76	1697.77
238.97	1671.14
239.19	1648.61
239.41	1798.12
239.63	1746.92
239.85	1714.15
240.06	1689.57
240.28	1703.91
240.50	1767.40
240.72	1744.87
240.93	1734.63
241.15	1753.06
241.37	1671.14
241.59	1787.88
241.81	1712.10
242.02	1703.91
242.24	1730.53
242.46	1728.49
242.68	1703.91
242.89	1734.63
243.11	1746.92
243.33	1669.09
243.55	1677.29
243.76	1705.96
243.98	1581.03
244.20	1746.92
244.42	1648.61
244.64	1638.38
244.85	1542.12
245.07	1609.70
245.29	1732.58
245.51	1705.96
245.72	1800.16
245.94	1697.77
246.16	1726.44
246.38	1744.87
246.59	1626.09
246.81	1759.21
247.03	1642.47
247.24	1630.18
247.46	1626.09
247.68	1708.01
247.90	1650.66
248.11	1628.14
248.33	1789.92
248.55	1722.34
248.77	1757.16
248.98	1705.96
249.20	1787.88
249.42	1607.66
249.64	1687.53
249.85	1654.76
250.07	1703.91
250.29	1755.11
250.50	1789.92
250.72	1632.23
250.94	1726.44
251.16	1794.02
251.37	1726.44
251.59	1779.68
251.81	1740.77
252.02	1775.59
252.24	1730.53
252.46	1679.33
252.68	1722.34
252.89	1685.48
253.11	1634.28
253.33	1742.82
253.54	1710.05
253.76	1638.38
253.98	1607.66
254.20	1683.43
254.41	1654.76
254.63	1730.53
254.85	1691.62
255.06	1726.44
255.28	1779.68
255.50	1716.20
255.71	1646.57
255.93	1605.61
256.15	1658.85
256.36	1724.39
256.58	1648.61
256.80	1744.87
257.02	1691.62
257.23	1681.38
257.45	1728.49
257.67	1785.83
257.88	1695.72
258.10	1757.16
258.32	1665.00
258.53	1662.95
258.75	1765.35
258.97	1648.61
259.18	1720.29
259.40	1675.24
259.62	1783.78
259.83	1794.02
260.05	1720.29
260.27	1937.38
260.48	1716.20
260.70	1658.85
260.92	1689.57
261.13	1685.48
261.35	1730.53
261.57	1714.15
261.78	1581.03
262.00	1630.18
262.22	1738.73
262.43	1662.95
262.65	1603.56
262.86	1714.15
263.08	1843.17
263.30	1701.86
263.51	1703.91
263.73	1632.23
263.95	1699.81
264.16	1660.90
264.38	1710.05
264.60	1734.63
264.81	1636.33
265.03	1755.11
265.25	1761.25
265.46	1626.09
265.68	1820.64
265.89	1714.15
266.11	1554.41
266.33	1830.88
266.54	1804.26
266.76	1691.62
266.98	1673.19
267.19	1789.92
267.41	1695.72
267.62	1773.54
267.84	1638.38
268.06	1695.72
268.27	1703.91
268.49	1734.63
268.70	1759.21
268.92	1718.25
269.14	1640.42
269.35	1681.38
269.57	1710.05
269.79	1748.97
270.00	1611.75
270.22	1751.01
270.43	1662.95
270.65	1597.42
270.87	1634.28
271.08	1705.96
271.30	1765.35
271.51	1673.19
271.73	1802.21
271.95	1773.54
272.16	1734.63
272.38	1740.77
272.59	1701.86
272.81	1730.53
273.02	1734.63
273.24	1714.15
273.46	1740.77
273.67	1681.38
273.89	1628.14
274.10	1669.09
274.32	1757.16
274.54	1779.68
274.75	1646.57
274.97	1677.29
275.18	1751.01
275.40	1689.57
275.61	1728.49
275.83	1761.25
276.05	1720.29
276.26	1630.18
276.48	1814.50
276.69	1644.52
276.91	1628.14
277.12	1802.21
277.34	1753.06
277.55	1775.59
277.77	1714.15
277.99	1660.90
278.20	1673.19
278.42	1628.14
278.63	1640.42
278.85	1681.38
279.06	1615.85
279.28	1757.16
279.49	1740.77
279.71	1708.01
279.93	1738.73
280.14	1757.16
280.36	1695.72
280.57	1779.68
280.79	1705.96
281.00	1626.09
281.22	1617.90
281.43	1812.45
281.65	1595.37
281.86	1648.61
282.08	1734.63
282.29	1765.35
282.51	1656.81
282.73	1624.04
282.94	1587.18
283.16	1779.68
283.37	1808.36
283.59	1603.56
283.80	1746.92
284.02	1771.49
284.23	1798.12
284.45	1740.77
284.66	1562.60
284.88	1640.42
285.09	1646.57
285.31	1648.61
285.52	1697.77
285.74	1658.85
285.95	1822.69
286.17	1755.11
286.38	1771.49
286.60	1675.24
286.81	1595.37
287.03	1669.09
287.24	1742.82
287.46	1781.73
287.67	1695.72
287.89	1822.69
288.10	1615.85
288.32	1751.01
288.53	1828.84
288.75	1683.43
288.96	1705.96
289.18	1695.72
289.39	1689.57
289.61	1730.53
289.82	1779.68
290.04	1816.55
290.25	1525.74
290.47	1681.38
290.68	1732.58
290.90	1746.92
291.11	1607.66
291.33	1701.86
291.54	1583.08
291.76	1695.72
291.97	1634.28
292.18	1716.20
292.40	1730.53
292.61	1728.49
292.83	1849.32
293.04	1718.25
293.26	1665.00
293.47	1697.77
293.69	1613.80
293.90	1578.98
294.12	1730.53
294.33	1667.05
294.55	1691.62
294.76	1718.25
294.97	1718.25
295.19	1830.88
295.40	1630.18
295.62	1689.57
295.83	1724.39
296.05	1626.09
296.26	1712.10
296.48	1640.42
296.69	1691.62
296.90	1658.85
297.12	1757.16
297.33	1726.44
297.55	1662.95
297.76	1728.49
297.98	1771.49
298.19	1722.34
298.41	1646.57
298.62	1630.18
298.83	1808.36
299.05	1724.39
299.26	1638.38
299.48	1675.24
299.69	1816.55
299.90	1605.61
300.12	1656.81
300.33	1755.11
300.55	1708.01
300.76	1728.49
300.98	1646.57
301.19	1763.30
301.40	1681.38
301.62	1689.57
301.83	1773.54
302.05	1691.62
302.26	1681.38
302.47	1744.87
302.69	1611.75
302.90	1712.10
303.12	1562.60
303.33	1765.35
303.54	1800.16
303.76	1769.44
303.97	1671.14
304.19	1773.54
304.40	1746.92
304.61	1720.29
304.83	1726.44
305.04	1759.21
305.26	1748.97
305.47	1630.18
305.68	1705.96
305.90	1585.13
306.11	1755.11
306.33	1617.90
306.54	1673.19
306.75	1687.53
306.97	1656.81
307.18	1699.81
307.39	1712.10
307.61	1699.81
307.82	1673.19
308.04	1634.28
308.25	1638.38
308.46	1701.86
308.68	1679.33
308.89	1665.00
309.10	1767.40
309.32	1671.14
309.53	1710.05
309.74	1687.53
309.96	1701.86
310.17	1773.54
310.39	1693.67
310.60	1712.10
310.81	1734.63
311.03	1660.90
311.24	1757.16
311.45	1689.57
311.67	1753.06
311.88	1683.43
312.09	1724.39
312.31	1695.72
312.52	1632.23
312.73	1687.53
312.95	1615.85
313.16	1660.90
313.37	1744.87
313.59	1787.88
313.80	1742.82
314.01	1787.88
314.23	1720.29
314.44	1685.48
314.65	1648.61
314.87	1615.85
315.08	1673.19
315.29	1699.81
315.51	1648.61
315.72	1669.09
315.93	1841.12
316.15	1742.82
316.36	1695.72
316.57	1726.44
316.79	1687.53
317.00	1615.85
317.21	1714.15
317.43	1644.52
317.64	1687.53
317.85	1660.90
318.07	1646.57
318.28	1667.05
318.49	1826.79
318.70	1964.00
318.92	1841.12
319.13	1800.16
319.34	1791.97
319.56	1742.82
319.77	1810.40
319.98	1781.73
320.20	1744.87
320.41	1757.16
320.62	1763.30
320.83	1673.19
321.05	1865.70
321.26	1685.48
321.47	1708.01
321.69	1763.30
321.90	1712.10
322.11	1638.38
322.32	1703.91
322.54	1822.69
322.75	1648.61
322.96	1853.41
323.18	1576.94
323.39	1671.14
323.60	1652.71
323.81	1716.20
324.03	1630.18
324.24	1755.11
324.45	1705.96
324.66	1712.10
324.88	1685.48
325.09	1705.96
325.30	1697.77
325.52	1667.05
325.73	1681.38
325.94	1685.48
326.15	1613.80
326.37	1648.61
326.58	1685.48
326.79	1787.88
327.00	1605.61
327.22	1642.47
327.43	1611.75
327.64	1642.47
327.85	1748.97
328.07	1658.85
328.28	1820.64
328.49	1691.62
328.70	1677.29
328.92	1728.49
329.13	1732.58
329.34	1660.90
329.55	1890.28
329.76	1757.16
329.98	1685.48
330.19	1742.82
330.40	1783.78
330.61	1730.53
330.83	1757.16
331.04	1685.48
331.25	1728.49
331.46	1656.81
331.68	1650.66
331.89	1718.25
332.10	1665.00
332.31	1585.13
332.52	1703.91
332.74	1693.67
332.95	1642.47
333.16	1648.61
333.37	1697.77
333.58	1644.52
333.80	1703.91
334.01	1552.36
334.22	1675.24
334.43	1671.14
334.64	1716.20
334.86	1660.90
335.07	1665.00
335.28	1818.60
335.49	1624.04
335.70	1714.15
335.92	1757.16
336.13	1849.32
336.34	1771.49
336.55	1691.62
336.76	1705.96
336.98	1585.13
337.19	1730.53
337.40	1759.21
337.61	1834.98
337.82	1720.29
338.04	1732.58
338.25	1609.70
338.46	1652.71
338.67	1660.90
338.88	1599.46
339.09	1691.62
339.31	1648.61
339.52	1662.95
339.73	1660.90
339.94	1705.96
340.15	1742.82
340.36	1617.90
340.58	1683.43
340.79	1624.04
341.00	1779.68
341.21	1603.56
341.42	1869.80
341.63	1716.20
341.85	1773.54
342.06	1697.77
342.27	1644.52
342.48	1615.85
342.69	1646.57
342.90	1720.29
343.12	1673.19
343.33	1755.11
343.54	1814.50
343.75	1748.97
343.96	1644.52
344.17	1681.38
344.38	1705.96
344.60	1675.24
344.81	1673.19
345.02	1726.44
345.23	1677.29
345.44	1771.49
345.65	1716.20
345.86	1691.62
346.07	1703.91
346.29	1771.49
346.50	1744.87
346.71	1732.58
346.92	1724.39
347.13	1828.84
347.34	1738.73
347.55	1673.19
347.76	1751.01
347.98	1628.14
348.19	1722.34
348.40	1765.35
348.61	1656.81
348.82	1800.16
349.03	1673.19
349.24	1712.10
349.45	1783.78
349.66	1603.56
349.88	1740.77
350.09	1599.46
350.30	1730.53
350.51	1740.77
350.72	1724.39
350.93	1730.53
351.14	1599.46
351.35	1744.87
351.56	1755.11
351.77	1652.71
351.99	1783.78
352.20	1837.03
352.41	1763.30
352.62	1660.90
352.83	1671.14
353.04	1728.49
353.25	1714.15
353.46	1806.31
353.67	1687.53
353.88	1609.70
354.09	1767.40
354.30	1683.43
354.52	1720.29
354.73	1693.67
354.94	1648.61
355.15	1701.86
355.36	1873.89
355.57	1626.09
355.78	1699.81
355.99	1636.33
356.20	1665.00
356.41	1732.58
356.62	1759.21
356.83	1730.53
357.04	1732.58
357.25	1581.03
357.46	1775.59
357.68	1560.55
357.89	1744.87
358.10	1714.15
358.31	1667.05
358.52	1708.01
358.73	1603.56
358.94	1685.48
359.15	1617.90
359.36	1751.01
359.57	1695.72
359.78	1712.10
359.99	1753.06
360.20	1599.46
360.41	1699.81
360.62	1732.58
360.83	1652.71
361.04	1669.09
361.25	1636.33
361.46	1791.97
361.67	1771.49
361.88	1728.49
362.09	1804.26
362.30	1722.34
362.51	1632.23
362.72	1720.29
362.93	1718.25
363.14	1730.53
363.35	1740.77
363.56	1636.33
363.78	1757.16
363.99	1759.21
364.20	1650.66
364.41	1712.10
364.62	1826.79
364.83	1695.72
365.04	1714.15
365.25	1757.16
365.46	1783.78
365.67	1708.01
365.88	1652.71
366.09	1656.81
366.30	1689.57
366.51	1638.38
366.72	1726.44
366.93	1699.81
367.14	1712.10
367.35	1740.77
367.56	1691.62
367.77	1718.25
367.98	1681.38
368.18	1703.91
368.39	1697.77
368.60	1677.29
368.81	1701.86
369.02	1673.19
369.23	1669.09
369.44	1683.43
369.65	1646.57
369.86	1705.96
370.07	1660.90
370.28	1689.57
370.49	1693.67
370.70	1740.77
370.91	1630.18
371.12	1613.80
371.33	1740.77
371.54	1689.57
371.75	1851.36
371.96	1593.32
372.17	1685.48
372.38	1701.86
372.59	1843.17
372.80	1652.71
373.01	1683.43
373.22	1685.48
373.43	1685.48
373.64	1613.80
373.85	1773.54
374.06	1855.46
374.26	1755.11
374.47	1779.68
374.68	1759.21
374.89	1738.73
375.10	1695.72
375.31	1798.12
375.52	1718.25
375.73	1656.81
375.94	1660.90
376.15	1789.92
376.36	1665.00
376.57	1572.84
376.78	1669.09
376.99	1650.66
377.20	1759.21
377.40	1693.67
377.61	1769.44
377.82	1642.47
378.03	1775.59
378.24	1748.97
378.45	1726.44
378.66	1740.77
378.87	1542.12
379.08	1591.27
379.29	1634.28
379.50	1800.16
379.71	1675.24
379.91	1730.53
380.12	1671.14
380.33	1730.53
380.54	1538.02
380.75	1654.76
380.96	1685.48
381.17	1798.12
381.38	1632.23
381.59	1716.20
381.80	1804.26
382.00	1847.27
382.21	1732.58
382.42	1867.75
382.63	1834.98
382.84	1710.05
383.05	1751.01
383.26	1789.92
383.47	1681.38
383.68	1744.87
383.88	1802.21
384.09	1671.14
384.30	1818.60
384.51	1689.57
384.72	1658.85
384.93	1601.51
385.14	1607.66
385.35	1724.39
385.55	1630.18
385.76	1693.67
385.97	1654.76
386.18	1648.61
386.39	1691.62
386.60	1681.38
386.81	1691.62
387.02	1619.94
387.22	1619.94
387.43	1710.05
387.64	1841.12
387.85	1873.89
388.06	2193.37
388.27	4345.79
388.48	6768.54
388.68	8142.72
388.89	9838.44
389.10	9916.26
389.31	8669.05
389.52	7706.51
389.73	6643.61
389.93	6252.45
390.14	5826.47
390.35	5179.31
390.56	4626.36
390.77	3663.82
390.98	3008.47
391.18	2459.61
391.39	2107.36
391.60	1816.55
391.81	1796.07
392.02	1746.92
392.23	1845.22
392.43	1695.72
392.64	1755.11
392.85	1812.45
393.06	1804.26
393.27	1660.90
393.47	1705.96
393.68	1718.25
393.89	1693.67
394.10	1757.16
394.31	1728.49
394.52	1617.90
394.72	1687.53
394.93	1753.06
395.14	1611.75
395.35	1810.40
395.56	1656.81
395.76	1746.92
395.97	1789.92
396.18	1808.36
396.39	1849.32
396.60	2007.01
396.80	1894.37
397.01	1886.18
397.22	1740.77
397.43	1826.79
397.64	1744.87
397.84	1775.59
398.05	1882.08
398.26	1673.19
398.47	1804.26
398.67	1789.92
398.88	1757.16
399.09	1779.68
399.30	1683.43
399.51	1740.77
399.71	1603.56
399.92	1650.66
400.13	1742.82
400.34	1705.96
400.54	1728.49
400.75	1740.77
400.96	1775.59
401.17	1822.69
401.37	1771.49
401.58	1712.10
401.79	1746.92
402.00	1918.95
402.21	2045.92
402.41	1953.76
402.62	1998.82
402.83	2017.25
403.04	2035.68
403.24	2037.73
403.45	1773.54
403.66	1914.85
403.87	1843.17
404.07	1910.75
404.28	1896.42
404.49	1845.22
404.70	1796.07
404.90	1804.26
405.11	1716.20
405.32	1691.62
405.52	1730.53
405.73	1652.71
405.94	1650.66
406.15	1681.38
406.35	1785.83
406.56	1828.84
406.77	1714.15
406.98	1724.39
407.18	1734.63
407.39	1769.44
407.60	1665.00
407.80	1748.97
408.01	1703.91
408.22	1779.68
408.43	1708.01
408.63	1769.44
408.84	1759.21
409.05	1812.45
409.25	1689.57
409.46	1630.18
409.67	1644.52
409.88	1632.23
410.08	1673.19
410.29	1728.49
410.50	1773.54
410.70	1751.01
410.91	1615.85
411.12	1714.15
411.32	1714.15
411.53	1685.48
411.74	1828.84
411.95	1734.63
412.15	1732.58
412.36	1681.38
412.57	1685.48
412.77	1800.16
412.98	1658.85
413.19	1710.05
413.39	1679.33
413.60	1773.54
413.81	1820.64
414.01	1603.56
414.22	1710.05
414.43	1722.34
414.63	1675.24
414.84	1753.06
415.05	1677.29
415.25	1652.71
415.46	1714.15
415.67	1683.43
415.87	1714.15
416.08	1769.44
416.29	1660.90
416.49	1744.87
416.70	1669.09
416.91	1613.80
417.11	1673.19
417.32	1828.84
417.53	1730.53
417.73	1691.62
417.94	1673.19
418.15	1658.85
418.35	1699.81
418.56	1695.72
418.77	1759.21
418.97	1673.19
419.18	1699.81
419.38	1595.37
419.59	1660.90
419.80	1759.21
420.00	1650.66
420.21	1726.44
420.42	1791.97
420.62	1771.49
420.83	1628.14
421.04	1665.00
421.24	1638.38
421.45	1740.77
421.65	1677.29
421.86	1701.86
422.07	1757.16
422.27	1751.01
422.48	1781.73
422.69	1662.95
422.89	1697.77
423.10	1689.57
423.30	1656.81
423.51	1662.95
423.72	1744.87
423.92	1796.07
424.13	1628.14
424.33	1736.68
424.54	1730.53
424.75	1722.34
424.95	1882.08
425.16	1720.29
425.36	1656.81
425.57	1746.92
425.78	1726.44
425.98	1777.64
426.19	1669.09
426.39	1642.47
426.60	1763.30
426.81	1812.45
427.01	1718.25
427.22	1697.77
427.42	1574.89
427.63	1628.14
427.83	1703.91
428.04	1804.26
428.25	1798.12
428.45	1832.93
428.66	1822.69
428.86	1691.62
429.07	1673.19
429.28	1675.24
429.48	1644.52
429.69	1640.42
429.89	1689.57
430.10	1636.33
430.30	1720.29
430.51	1849.32
430.71	1712.10
430.92	1716.20
431.13	1693.67
431.33	1746.92
431.54	1693.67
431.74	1761.25
431.95	1804.26
432.15	1677.29
432.36	1714.15
432.56	1734.63
432.77	1779.68
432.98	1843.17
433.18	1740.77
433.39	1765.35
433.59	1667.05
433.80	1773.54
434.00	1839.08
434.21	1722.34
434.41	1730.53
434.62	1794.02
434.82	1673.19
435.03	1679.33
435.23	1777.64
435.44	1615.85
435.64	1738.73
435.85	1656.81
436.06	1726.44
436.26	1728.49
436.47	1740.77
436.67	1648.61
436.88	1677.29
437.08	1712.10
437.29	1779.68
437.49	1722.34
437.70	1794.02
437.90	1742.82
438.11	1849.32
438.31	1867.75
438.52	1847.27
438.72	1826.79
438.93	1834.98
439.13	1798.12
439.34	1794.02
439.54	1767.40
439.75	1755.11
439.95	1816.55
440.16	1767.40
440.36	1679.33
440.57	1810.40
440.77	1744.87
440.98	1691.62
441.18	1816.55
441.39	1751.01
441.59	1595.37
441.80	1791.97
442.00	1765.35
442.21	1814.50
442.41	1693.67
442.62	1826.79
442.82	1705.96
443.02	1742.82
443.23	1765.35
443.43	1650.66
443.64	1841.12
443.84	1607.66
444.05	1804.26
444.25	1791.97
444.46	1697.77
444.66	1714.15
444.87	1798.12
445.07	1656.81
445.28	1660.90
445.48	1822.69
445.69	1798.12
445.89	1787.88
446.09	1722.34
446.30	2058.21
446.50	2750.42
446.71	3618.76
446.91	4235.20
447.12	4702.14
447.32	4728.76
447.53	4323.26
447.73	3876.80
447.93	3510.22
448.14	3280.85
448.34	3151.82
448.55	2824.15
448.75	2867.16
448.96	2709.46
449.16	2449.37
449.36	2291.68
449.57	2072.54
449.77	1933.28
449.98	1775.59
450.18	1832.93
450.39	1861.60
450.59	1765.35
450.79	1777.64
451.00	1658.85
451.20	1830.88
451.41	1656.81
451.61	1746.92
451.81	1755.11
452.02	1675.24
452.22	1732.58
452.43	1746.92
452.63	1699.81
