SpectraSuite Data File
++++++++++++++++++++++++++++++++++++
Date: Mon Jun 06 15:04:17 CEST 2016
User: root
Dark Spectrum Present: No
Reference Spectrum Present: No
Number of Sampled Component Spectra: 1
Spectrometers: USB4C02835
Integration Time (usec): 100000 (USB4C02835)
Spectra Averaged: 1 (USB4C02835)
Boxcar Smoothing: 0 (USB4C02835)
Correct for Electrical Dark: No (USB4C02835)
Strobe/Lamp Enabled: No (USB4C02835)
Correct for Detector Non-linearity: No (USB4C02835)
Correct for Stray Light: No (USB4C02835)
Number of Pixels in Processed Spectrum: 3648
>>>>>Begin Processed Spectral Data<<<<<
177.47	1464.30
177.69	1464.30
177.91	1464.30
178.13	1447.91
178.36	1456.11
178.58	1603.56
178.80	1695.72
179.02	1597.42
179.24	1646.57
179.46	1703.91
179.68	1757.16
179.90	1753.06
180.13	1726.44
180.35	1638.38
180.57	1634.28
180.79	1675.24
181.01	1736.68
181.23	1767.40
181.45	1789.92
181.67	1708.01
181.90	1703.91
182.12	1689.57
182.34	1542.12
182.56	1677.29
182.78	1669.09
183.00	1644.52
183.22	1708.01
183.44	1611.75
183.66	1826.79
183.89	1781.73
184.11	1642.47
184.33	1697.77
184.55	1755.11
184.77	1726.44
184.99	1757.16
185.21	1640.42
185.43	1808.36
185.65	1673.19
185.87	1705.96
186.10	1841.12
186.32	1902.56
186.54	1708.01
186.76	1712.10
186.98	1712.10
187.20	1708.01
187.42	1685.48
187.64	1636.33
187.86	1699.81
188.08	1691.62
188.30	1728.49
188.52	1687.53
188.75	1779.68
188.97	1769.44
189.19	1636.33
189.41	1699.81
189.63	1789.92
189.85	1757.16
190.07	1677.29
190.29	1636.33
190.51	1818.60
190.73	1699.81
190.95	1773.54
191.17	1665.00
191.39	1593.32
191.61	1665.00
191.84	1775.59
192.06	1845.22
192.28	1576.94
192.50	1896.42
192.72	1697.77
192.94	1675.24
193.16	1771.49
193.38	1718.25
193.60	1751.01
193.82	1665.00
194.04	1753.06
194.26	1757.16
194.48	1734.63
194.70	1732.58
194.92	1675.24
195.14	1730.53
195.36	1724.39
195.58	1775.59
195.80	1615.85
196.02	1683.43
196.24	1753.06
196.46	1763.30
196.69	1669.09
196.91	1814.50
197.13	1652.71
197.35	1619.94
197.57	1751.01
197.79	1701.86
198.01	1742.82
198.23	1697.77
198.45	1660.90
198.67	1636.33
198.89	1636.33
199.11	1638.38
199.33	1712.10
199.55	1601.51
199.77	1722.34
199.99	1744.87
200.21	1728.49
200.43	1744.87
200.65	1644.52
200.87	1550.31
201.09	1648.61
201.31	1716.20
201.53	1771.49
201.75	1730.53
201.97	1665.00
202.19	1677.29
202.41	1718.25
202.63	1775.59
202.85	1685.48
203.07	1683.43
203.29	1660.90
203.51	1654.76
203.73	1624.04
203.95	1888.23
204.17	1806.31
204.39	1773.54
204.61	1683.43
204.83	1757.16
205.05	1814.50
205.27	1755.11
205.49	1822.69
205.71	1722.34
205.93	1689.57
206.15	1701.86
206.37	1732.58
206.59	1728.49
206.81	1583.08
207.03	1652.71
207.25	1697.77
207.47	1746.92
207.69	1716.20
207.91	1849.32
208.13	1705.96
208.34	1671.14
208.56	1681.38
208.78	1822.69
209.00	1669.09
209.22	1673.19
209.44	1593.32
209.66	1740.77
209.88	1658.85
210.10	1740.77
210.32	1722.34
210.54	1818.60
210.76	1636.33
210.98	1781.73
211.20	1624.04
211.42	1660.90
211.64	1804.26
211.86	1685.48
212.08	1681.38
212.30	1861.60
212.52	1693.67
212.74	1675.24
212.96	1701.86
213.17	1689.57
213.39	1742.82
213.61	1794.02
213.83	1701.86
214.05	1642.47
214.27	1730.53
214.49	1703.91
214.71	1718.25
214.93	1869.80
215.15	1757.16
215.37	1730.53
215.59	1634.28
215.81	1703.91
216.03	1851.36
216.24	1685.48
216.46	1689.57
216.68	1734.63
216.90	1716.20
217.12	1779.68
217.34	1697.77
217.56	1634.28
217.78	1728.49
218.00	1808.36
218.22	1716.20
218.44	1753.06
218.66	1757.16
218.87	1834.98
219.09	1697.77
219.31	1667.05
219.53	1722.34
219.75	1632.23
219.97	1705.96
220.19	1763.30
220.41	1720.29
220.63	1789.92
220.85	1634.28
221.06	1673.19
221.28	1665.00
221.50	1716.20
221.72	1667.05
221.94	1652.71
222.16	1736.68
222.38	1734.63
222.60	1759.21
222.82	1644.52
223.03	1705.96
223.25	1630.18
223.47	1779.68
223.69	1763.30
223.91	1726.44
224.13	1726.44
224.35	1648.61
224.57	1771.49
224.78	1697.77
225.00	1658.85
225.22	1718.25
225.44	1771.49
225.66	1765.35
225.88	1662.95
226.10	1794.02
226.32	1753.06
226.53	1812.45
226.75	1644.52
226.97	1683.43
227.19	1669.09
227.41	1673.19
227.63	1798.12
227.85	1597.42
228.06	1724.39
228.28	1693.67
228.50	1687.53
228.72	1681.38
228.94	1724.39
229.16	1644.52
229.37	1650.66
229.59	1675.24
229.81	1798.12
230.03	1685.48
230.25	1617.90
230.47	1589.22
230.69	1529.83
230.90	1720.29
231.12	1730.53
231.34	1787.88
231.56	1794.02
231.78	1650.66
232.00	1691.62
232.21	1675.24
232.43	1714.15
232.65	1554.41
232.87	1773.54
233.09	1632.23
233.30	1724.39
233.52	1726.44
233.74	1716.20
233.96	1701.86
234.18	1722.34
234.40	1740.77
234.61	1800.16
234.83	1654.76
235.05	1650.66
235.27	1845.22
235.49	1800.16
235.70	1718.25
235.92	1808.36
236.14	1701.86
236.36	1851.36
236.58	1546.22
236.79	1705.96
237.01	1712.10
237.23	1701.86
237.45	1755.11
237.67	1644.52
237.88	1689.57
238.10	1796.07
238.32	1646.57
238.54	1701.86
238.76	1601.51
238.97	1650.66
239.19	1644.52
239.41	1810.40
239.63	1810.40
239.85	1626.09
240.06	1742.82
240.28	1720.29
240.50	1783.78
240.72	1665.00
240.93	1708.01
241.15	1796.07
241.37	1720.29
241.59	1779.68
241.81	1695.72
242.02	1619.94
242.24	1677.29
242.46	1728.49
242.68	1691.62
242.89	1722.34
243.11	1759.21
243.33	1675.24
243.55	1691.62
243.76	1675.24
243.98	1669.09
244.20	1681.38
244.42	1718.25
244.64	1714.15
244.85	1650.66
245.07	1576.94
245.29	1742.82
245.51	1619.94
245.72	1714.15
245.94	1779.68
246.16	1800.16
246.38	1746.92
246.59	1626.09
246.81	1646.57
247.03	1703.91
247.24	1535.98
247.46	1718.25
247.68	1693.67
247.90	1699.81
248.11	1693.67
248.33	1742.82
248.55	1656.81
248.77	1683.43
248.98	1728.49
249.20	1757.16
249.42	1744.87
249.64	1761.25
249.85	1710.05
250.07	1644.52
250.29	1738.73
250.50	1691.62
250.72	1609.70
250.94	1716.20
251.16	1808.36
251.37	1804.26
251.59	1714.15
251.81	1714.15
252.02	1767.40
252.24	1613.80
252.46	1796.07
252.68	1630.18
252.89	1611.75
253.11	1574.89
253.33	1794.02
253.54	1726.44
253.76	1609.70
253.98	1755.11
254.20	1607.66
254.41	1650.66
254.63	1740.77
254.85	1619.94
255.06	1689.57
255.28	1730.53
255.50	1728.49
255.71	1673.19
255.93	1617.90
256.15	1669.09
256.36	1697.77
256.58	1652.71
256.80	1740.77
257.02	1712.10
257.23	1654.76
257.45	1734.63
257.67	1738.73
257.88	1619.94
258.10	1650.66
258.32	1591.27
258.53	1705.96
258.75	1742.82
258.97	1665.00
259.18	1726.44
259.40	1634.28
259.62	1832.93
259.83	1751.01
260.05	1769.44
260.27	1951.71
260.48	1791.97
260.70	1656.81
260.92	1687.53
261.13	1738.73
261.35	1665.00
261.57	1769.44
261.78	1628.14
262.00	1615.85
262.22	1677.29
262.43	1693.67
262.65	1695.72
262.86	1603.56
263.08	1816.55
263.30	1669.09
263.51	1630.18
263.73	1677.29
263.95	1816.55
264.16	1697.77
264.38	1656.81
264.60	1675.24
264.81	1626.09
265.03	1767.40
265.25	1705.96
265.46	1685.48
265.68	1787.88
265.89	1710.05
266.11	1638.38
266.33	1681.38
266.54	1763.30
266.76	1724.39
266.98	1800.16
267.19	1824.74
267.41	1701.86
267.62	1646.57
267.84	1617.90
268.06	1695.72
268.27	1732.58
268.49	1740.77
268.70	1765.35
268.92	1640.42
269.14	1624.04
269.35	1644.52
269.57	1675.24
269.79	1800.16
270.00	1640.42
270.22	1808.36
270.43	1603.56
270.65	1576.94
270.87	1732.58
271.08	1742.82
271.30	1740.77
271.51	1619.94
271.73	1802.21
271.95	1759.21
272.16	1718.25
272.38	1732.58
272.59	1658.85
272.81	1740.77
273.02	1804.26
273.24	1775.59
273.46	1789.92
273.67	1583.08
273.89	1730.53
274.10	1650.66
274.32	1746.92
274.54	1716.20
274.75	1757.16
274.97	1751.01
275.18	1763.30
275.40	1681.38
275.61	1701.86
275.83	1726.44
276.05	1609.70
276.26	1693.67
276.48	1681.38
276.69	1630.18
276.91	1718.25
277.12	1722.34
277.34	1773.54
277.55	1730.53
277.77	1689.57
277.99	1757.16
278.20	1576.94
278.42	1656.81
278.63	1644.52
278.85	1759.21
279.06	1626.09
279.28	1703.91
279.49	1728.49
279.71	1722.34
279.93	1626.09
280.14	1720.29
280.36	1667.05
280.57	1777.64
280.79	1730.53
281.00	1652.71
281.22	1728.49
281.43	1789.92
281.65	1593.32
281.86	1601.51
282.08	1744.87
282.29	1832.93
282.51	1689.57
282.73	1558.50
282.94	1621.99
283.16	1658.85
283.37	1818.60
283.59	1742.82
283.80	1726.44
284.02	1634.28
284.23	1814.50
284.45	1660.90
284.66	1632.23
284.88	1701.86
285.09	1757.16
285.31	1675.24
285.52	1771.49
285.74	1599.46
285.95	1728.49
286.17	1785.83
286.38	1777.64
286.60	1650.66
286.81	1734.63
287.03	1705.96
287.24	1689.57
287.46	1660.90
287.67	1710.05
287.89	1869.80
288.10	1660.90
288.32	1720.29
288.53	1720.29
288.75	1708.01
288.96	1806.31
289.18	1593.32
289.39	1705.96
289.61	1638.38
289.82	1853.41
290.04	1800.16
290.25	1621.99
290.47	1693.67
290.68	1693.67
290.90	1718.25
291.11	1609.70
291.33	1761.25
291.54	1665.00
291.76	1697.77
291.97	1662.95
292.18	1740.77
292.40	1697.77
292.61	1730.53
292.83	1812.45
293.04	1703.91
293.26	1685.48
293.47	1703.91
293.69	1667.05
293.90	1697.77
294.12	1775.59
294.33	1669.09
294.55	1626.09
294.76	1724.39
294.97	1765.35
295.19	1814.50
295.40	1673.19
295.62	1701.86
295.83	1847.27
296.05	1607.66
296.26	1767.40
296.48	1619.94
296.69	1671.14
296.90	1634.28
297.12	1787.88
297.33	1837.03
297.55	1869.80
297.76	1738.73
297.98	1742.82
298.19	1691.62
298.41	1734.63
298.62	1697.77
298.83	1857.51
299.05	1769.44
299.26	1660.90
299.48	1673.19
299.69	1722.34
299.90	1685.48
300.12	1632.23
300.33	1722.34
300.55	1695.72
300.76	1712.10
300.98	1662.95
301.19	1724.39
301.40	1728.49
301.62	1673.19
301.83	1673.19
302.05	1699.81
302.26	1652.71
302.47	1728.49
302.69	1693.67
302.90	1671.14
303.12	1525.74
303.33	1732.58
303.54	1806.31
303.76	1681.38
303.97	1720.29
304.19	1759.21
304.40	1665.00
304.61	1683.43
304.83	1785.83
305.04	1755.11
305.26	1708.01
305.47	1714.15
305.68	1689.57
305.90	1585.13
306.11	1738.73
306.33	1722.34
306.54	1658.85
306.75	1685.48
306.97	1634.28
307.18	1660.90
307.39	1599.46
307.61	1675.24
307.82	1667.05
308.04	1734.63
308.25	1660.90
308.46	1746.92
308.68	1746.92
308.89	1689.57
309.10	1779.68
309.32	1648.61
309.53	1714.15
309.74	1681.38
309.96	1695.72
310.17	1796.07
310.39	1685.48
310.60	1783.78
310.81	1675.24
311.03	1619.94
311.24	1773.54
311.45	1730.53
311.67	1785.83
311.88	1658.85
312.09	1687.53
312.31	1572.84
312.52	1720.29
312.73	1722.34
312.95	1673.19
313.16	1687.53
313.37	1773.54
313.59	1791.97
313.80	1716.20
314.01	1785.83
314.23	1691.62
314.44	1609.70
314.65	1667.05
314.87	1708.01
315.08	1699.81
315.29	1738.73
315.51	1552.36
315.72	1591.27
315.93	1832.93
316.15	1763.30
316.36	1648.61
316.57	1699.81
316.79	1779.68
317.00	1730.53
317.21	1675.24
317.43	1716.20
317.64	1687.53
317.85	1652.71
318.07	1665.00
318.28	1740.77
318.49	1740.77
318.70	1892.32
318.92	1867.75
319.13	1757.16
319.34	1855.46
319.56	1777.64
319.77	1736.68
319.98	1757.16
320.20	1794.02
320.41	1767.40
320.62	1718.25
320.83	1626.09
321.05	1873.89
321.26	1734.63
321.47	1695.72
321.69	1734.63
321.90	1677.29
322.11	1705.96
322.32	1705.96
322.54	1812.45
322.75	1742.82
322.96	1744.87
323.18	1638.38
323.39	1662.95
323.60	1691.62
323.81	1755.11
324.03	1705.96
324.24	1810.40
324.45	1710.05
324.66	1705.96
324.88	1834.98
325.09	1740.77
325.30	1740.77
325.52	1751.01
325.73	1697.77
325.94	1599.46
326.15	1611.75
326.37	1660.90
326.58	1785.83
326.79	1742.82
327.00	1615.85
327.22	1732.58
327.43	1685.48
327.64	1681.38
327.85	1765.35
328.07	1689.57
328.28	1789.92
328.49	1640.42
328.70	1675.24
328.92	1720.29
329.13	1703.91
329.34	1640.42
329.55	1794.02
329.76	1724.39
329.98	1677.29
330.19	1724.39
330.40	1816.55
330.61	1699.81
330.83	1718.25
331.04	1636.33
331.25	1701.86
331.46	1705.96
331.68	1568.74
331.89	1675.24
332.10	1697.77
332.31	1607.66
332.52	1687.53
332.74	1730.53
332.95	1667.05
333.16	1675.24
333.37	1710.05
333.58	1695.72
333.80	1669.09
334.01	1667.05
334.22	1691.62
334.43	1675.24
334.64	1650.66
334.86	1730.53
335.07	1665.00
335.28	1808.36
335.49	1642.47
335.70	1761.25
335.92	1789.92
336.13	1824.74
336.34	1689.57
336.55	1701.86
336.76	1712.10
336.98	1642.47
337.19	1656.81
337.40	1742.82
337.61	1828.84
337.82	1660.90
338.04	1730.53
338.25	1607.66
338.46	1720.29
338.67	1689.57
338.88	1720.29
339.09	1710.05
339.31	1591.27
339.52	1687.53
339.73	1705.96
339.94	1638.38
340.15	1759.21
340.36	1716.20
340.58	1675.24
340.79	1691.62
341.00	1783.78
341.21	1673.19
341.42	1751.01
341.63	1695.72
341.85	1767.40
342.06	1667.05
342.27	1650.66
342.48	1798.12
342.69	1624.04
342.90	1722.34
343.12	1679.33
343.33	1654.76
343.54	1705.96
343.75	1816.55
343.96	1662.95
344.17	1648.61
344.38	1636.33
344.60	1605.61
344.81	1740.77
345.02	1705.96
345.23	1783.78
345.44	1722.34
345.65	1751.01
345.86	1730.53
346.07	1736.68
346.29	1585.13
346.50	1710.05
346.71	1763.30
346.92	1673.19
347.13	1796.07
347.34	1695.72
347.55	1632.23
347.76	1712.10
347.98	1638.38
348.19	1722.34
348.40	1804.26
348.61	1669.09
348.82	1742.82
349.03	1742.82
349.24	1650.66
349.45	1771.49
349.66	1634.28
349.88	1736.68
350.09	1691.62
350.30	1783.78
350.51	1806.31
350.72	1718.25
350.93	1710.05
351.14	1638.38
351.35	1642.47
351.56	1681.38
351.77	1640.42
351.99	1656.81
352.20	1794.02
352.41	1730.53
352.62	1609.70
352.83	1734.63
353.04	1728.49
353.25	1701.86
353.46	1751.01
353.67	1787.88
353.88	1617.90
354.09	1665.00
354.30	1705.96
354.52	1767.40
354.73	1650.66
354.94	1697.77
355.15	1714.15
355.36	1824.74
355.57	1654.76
355.78	1726.44
355.99	1615.85
356.20	1722.34
356.41	1761.25
356.62	1740.77
356.83	1689.57
357.04	1843.17
357.25	1615.85
357.46	1681.38
357.68	1574.89
357.89	1617.90
358.10	1771.49
358.31	1697.77
358.52	1669.09
358.73	1630.18
358.94	1624.04
359.15	1589.22
359.36	1738.73
359.57	1701.86
359.78	1695.72
359.99	1710.05
360.20	1685.48
360.41	1716.20
360.62	1771.49
360.83	1734.63
361.04	1755.11
361.25	1683.43
361.46	1804.26
361.67	1763.30
361.88	1755.11
362.09	1748.97
362.30	1720.29
362.51	1685.48
362.72	1722.34
362.93	1732.58
363.14	1763.30
363.35	1701.86
363.56	1662.95
363.78	1710.05
363.99	1722.34
364.20	1632.23
364.41	1763.30
364.62	1708.01
364.83	1673.19
365.04	1685.48
365.25	1675.24
365.46	1814.50
365.67	1597.42
365.88	1619.94
366.09	1710.05
366.30	1665.00
366.51	1705.96
366.72	1636.33
366.93	1728.49
367.14	1736.68
367.35	1791.97
367.56	1683.43
367.77	1808.36
367.98	1685.48
368.18	1767.40
368.39	1736.68
368.60	1701.86
368.81	1818.60
369.02	1609.70
369.23	1714.15
369.44	1648.61
369.65	1701.86
369.86	1701.86
370.07	1736.68
370.28	1615.85
370.49	1728.49
370.70	1755.11
370.91	1587.18
371.12	1601.51
371.33	1724.39
371.54	1652.71
371.75	1796.07
371.96	1591.27
372.17	1705.96
372.38	1648.61
372.59	1730.53
372.80	1642.47
373.01	1703.91
373.22	1683.43
373.43	1767.40
373.64	1619.94
373.85	1781.73
374.06	1808.36
374.26	1814.50
374.47	1773.54
374.68	1718.25
374.89	1746.92
375.10	1669.09
375.31	1720.29
375.52	1716.20
375.73	1687.53
375.94	1658.85
376.15	1804.26
376.36	1695.72
376.57	1642.47
376.78	1681.38
376.99	1691.62
377.20	1669.09
377.40	1640.42
377.61	1765.35
377.82	1658.85
378.03	1757.16
378.24	1638.38
378.45	1734.63
378.66	1767.40
378.87	1603.56
379.08	1542.12
379.29	1746.92
379.50	1767.40
379.71	1679.33
379.91	1710.05
380.12	1740.77
380.33	1687.53
380.54	1759.21
380.75	1751.01
380.96	1597.42
381.17	1722.34
381.38	1667.05
381.59	1759.21
381.80	1755.11
382.00	1875.94
382.21	1800.16
382.42	1853.41
382.63	1830.88
382.84	1828.84
383.05	1732.58
383.26	1849.32
383.47	1724.39
383.68	1712.10
383.88	1740.77
384.09	1712.10
384.30	1796.07
384.51	1671.14
384.72	1710.05
384.93	1589.22
385.14	1685.48
385.35	1746.92
385.55	1630.18
385.76	1765.35
385.97	1609.70
386.18	1669.09
386.39	1619.94
386.60	1724.39
386.81	1705.96
387.02	1710.05
387.22	1613.80
387.43	1765.35
387.64	1769.44
387.85	1830.88
388.06	2281.44
388.27	4265.92
388.48	6580.12
388.68	7950.21
388.89	9232.24
389.10	9559.92
389.31	8191.88
389.52	7321.49
389.73	6502.30
389.93	6043.56
390.14	5588.91
390.35	5038.00
390.56	4411.32
390.77	3762.12
390.98	3014.61
391.18	2527.19
391.39	2136.03
391.60	1820.64
391.81	1787.88
392.02	1705.96
392.23	1855.46
392.43	1724.39
392.64	1812.45
392.85	1683.43
393.06	1791.97
393.27	1691.62
393.47	1726.44
393.68	1677.29
393.89	1675.24
394.10	1697.77
394.31	1708.01
394.52	1673.19
394.72	1691.62
394.93	1748.97
395.14	1703.91
395.35	1703.91
395.56	1615.85
395.76	1720.29
395.97	1816.55
396.18	1861.60
396.39	1820.64
396.60	1990.63
396.80	1966.05
397.01	1871.84
397.22	1800.16
397.43	1781.73
397.64	1740.77
397.84	1839.08
398.05	1910.75
398.26	1746.92
398.47	1771.49
398.67	1855.46
398.88	1720.29
399.09	1759.21
399.30	1744.87
399.51	1687.53
399.71	1675.24
399.92	1718.25
400.13	1687.53
400.34	1738.73
400.54	1681.38
400.75	1783.78
400.96	1728.49
401.17	1740.77
401.37	1714.15
401.58	1718.25
401.79	1730.53
402.00	1802.21
402.21	2009.06
402.41	1955.81
402.62	1980.39
402.83	1945.57
403.04	1951.71
403.24	2142.18
403.45	1738.73
403.66	1908.71
403.87	1886.18
404.07	1863.65
404.28	1849.32
404.49	1822.69
404.70	1769.44
404.90	1718.25
405.11	1753.06
405.32	1742.82
405.52	1732.58
405.73	1718.25
405.94	1636.33
406.15	1775.59
406.35	1830.88
406.56	1712.10
406.77	1734.63
406.98	1705.96
407.18	1673.19
407.39	1783.78
407.60	1714.15
407.80	1720.29
408.01	1734.63
408.22	1761.25
408.43	1665.00
408.63	1685.48
408.84	1753.06
409.05	1761.25
409.25	1681.38
409.46	1654.76
409.67	1689.57
409.88	1640.42
410.08	1710.05
410.29	1689.57
410.50	1724.39
410.70	1681.38
410.91	1646.57
411.12	1812.45
411.32	1734.63
411.53	1724.39
411.74	1834.98
411.95	1794.02
412.15	1767.40
412.36	1734.63
412.57	1785.83
412.77	1771.49
412.98	1736.68
413.19	1691.62
413.39	1806.31
413.60	1734.63
413.81	1769.44
414.01	1714.15
414.22	1697.77
414.43	1820.64
414.63	1720.29
414.84	1761.25
415.05	1806.31
415.25	1550.31
415.46	1755.11
415.67	1669.09
415.87	1710.05
416.08	1689.57
416.29	1736.68
416.49	1753.06
416.70	1642.47
416.91	1699.81
417.11	1730.53
417.32	1765.35
417.53	1697.77
417.73	1669.09
417.94	1701.86
418.15	1724.39
418.35	1693.67
418.56	1697.77
418.77	1789.92
418.97	1775.59
419.18	1660.90
419.38	1628.14
419.59	1703.91
419.80	1853.41
420.00	1689.57
420.21	1724.39
420.42	1759.21
420.62	1724.39
420.83	1710.05
421.04	1699.81
421.24	1726.44
421.45	1732.58
421.65	1738.73
421.86	1708.01
422.07	1746.92
422.27	1685.48
422.48	1753.06
422.69	1583.08
422.89	1716.20
423.10	1636.33
423.30	1632.23
423.51	1742.82
423.72	1652.71
423.92	1675.24
424.13	1648.61
424.33	1705.96
424.54	1853.41
424.75	1718.25
424.95	1808.36
425.16	1699.81
425.36	1748.97
425.57	1687.53
425.78	1652.71
425.98	1783.78
426.19	1630.18
426.39	1599.46
426.60	1783.78
426.81	1798.12
427.01	1628.14
427.22	1677.29
427.42	1681.38
427.63	1628.14
427.83	1787.88
428.04	1798.12
428.25	1783.78
428.45	1812.45
428.66	1755.11
428.86	1675.24
429.07	1652.71
429.28	1738.73
429.48	1810.40
429.69	1617.90
429.89	1794.02
430.10	1574.89
430.30	1798.12
430.51	1818.60
430.71	1654.76
430.92	1746.92
431.13	1708.01
431.33	1808.36
431.54	1679.33
431.74	1765.35
431.95	1863.65
432.15	1697.77
432.36	1677.29
432.56	1716.20
432.77	1841.12
432.98	1804.26
433.18	1712.10
433.39	1728.49
433.59	1742.82
433.80	1800.16
434.00	1861.60
434.21	1722.34
434.41	1693.67
434.62	1877.99
434.82	1671.14
435.03	1730.53
435.23	1746.92
435.44	1624.04
435.64	1779.68
435.85	1724.39
436.06	1718.25
436.26	1771.49
436.47	1724.39
436.67	1617.90
436.88	1730.53
437.08	1783.78
437.29	1796.07
437.49	1783.78
437.70	1804.26
437.90	1708.01
438.11	1843.17
438.31	1781.73
438.52	1906.66
438.72	1753.06
438.93	1929.19
439.13	1816.55
439.34	1832.93
439.54	1763.30
439.75	1812.45
439.95	1757.16
440.16	1765.35
440.36	1732.58
440.57	1781.73
440.77	1724.39
440.98	1687.53
441.18	1767.40
441.39	1726.44
441.59	1652.71
441.80	1814.50
442.00	1746.92
442.21	1867.75
442.41	1669.09
442.62	1843.17
442.82	1611.75
443.02	1787.88
443.23	1730.53
443.43	1660.90
443.64	1839.08
443.84	1656.81
444.05	1808.36
444.25	1699.81
444.46	1720.29
444.66	1716.20
444.87	1751.01
445.07	1621.99
445.28	1669.09
445.48	1824.74
445.69	1728.49
445.89	1828.84
446.09	1732.58
446.30	1986.53
446.50	2643.93
446.71	3672.01
446.91	4247.49
447.12	4548.54
447.32	4681.66
447.53	4202.43
447.73	3848.13
447.93	3504.07
448.14	3307.47
448.34	3074.00
448.55	2877.40
448.75	2750.42
448.96	2744.28
449.16	2439.13
449.36	2260.96
449.57	2066.40
449.77	1914.85
449.98	1828.84
450.18	1767.40
450.39	1765.35
450.59	1718.25
450.79	1806.31
451.00	1685.48
451.20	1853.41
451.41	1660.90
451.61	1777.64
451.81	1660.90
452.02	1695.72
452.22	1695.72
452.43	1714.15
452.63	1671.14
