SpectraSuite Data File
++++++++++++++++++++++++++++++++++++
Date: Mon Jun 06 15:31:37 CEST 2016
User: root
Dark Spectrum Present: No
Reference Spectrum Present: No
Number of Sampled Component Spectra: 1
Spectrometers: USB4C02835
Integration Time (usec): 100000 (USB4C02835)
Spectra Averaged: 1 (USB4C02835)
Boxcar Smoothing: 0 (USB4C02835)
Correct for Electrical Dark: No (USB4C02835)
Strobe/Lamp Enabled: No (USB4C02835)
Correct for Detector Non-linearity: No (USB4C02835)
Correct for Stray Light: No (USB4C02835)
Number of Pixels in Processed Spectrum: 3648
>>>>>Begin Processed Spectral Data<<<<<
177.47	1462.25
177.69	1462.25
177.91	1462.25
178.13	1447.91
178.36	1449.96
178.58	1689.57
178.80	1685.48
179.02	1624.04
179.24	1617.90
179.46	1697.77
179.68	1710.05
179.90	1646.57
180.13	1697.77
180.35	1628.14
180.57	1738.73
180.79	1767.40
181.01	1730.53
181.23	1742.82
181.45	1789.92
181.67	1710.05
181.90	1787.88
182.12	1617.90
182.34	1589.22
182.56	1802.21
182.78	1746.92
183.00	1761.25
183.22	1687.53
183.44	1660.90
183.66	1814.50
183.89	1761.25
184.11	1724.39
184.33	1744.87
184.55	1791.97
184.77	1708.01
184.99	1775.59
185.21	1648.61
185.43	1818.60
185.65	1789.92
185.87	1753.06
186.10	1884.13
186.32	1855.46
186.54	1699.81
186.76	1785.83
186.98	1769.44
187.20	1720.29
187.42	1724.39
187.64	1712.10
187.86	1783.78
188.08	1783.78
188.30	1714.15
188.52	1669.09
188.75	1757.16
188.97	1720.29
189.19	1722.34
189.41	1740.77
189.63	1759.21
189.85	1654.76
190.07	1652.71
190.29	1703.91
190.51	1675.24
190.73	1548.26
190.95	1826.79
191.17	1798.12
191.39	1599.46
191.61	1611.75
191.84	1685.48
192.06	1675.24
192.28	1621.99
192.50	1941.47
192.72	1746.92
192.94	1656.81
193.16	1785.83
193.38	1726.44
193.60	1746.92
193.82	1673.19
194.04	1796.07
194.26	1681.38
194.48	1740.77
194.70	1728.49
194.92	1638.38
195.14	1722.34
195.36	1673.19
195.58	1683.43
195.80	1681.38
196.02	1669.09
196.24	1714.15
196.46	1712.10
196.69	1599.46
196.91	1820.64
197.13	1662.95
197.35	1701.86
197.57	1751.01
197.79	1722.34
198.01	1740.77
198.23	1665.00
198.45	1736.68
198.67	1755.11
198.89	1720.29
199.11	1738.73
199.33	1736.68
199.55	1681.38
199.77	1648.61
199.99	1812.45
200.21	1632.23
200.43	1748.97
200.65	1677.29
200.87	1626.09
201.09	1722.34
201.31	1687.53
201.53	1722.34
201.75	1767.40
201.97	1744.87
202.19	1775.59
202.41	1732.58
202.63	1884.13
202.85	1699.81
203.07	1665.00
203.29	1693.67
203.51	1640.42
203.73	1724.39
203.95	1804.26
204.17	1734.63
204.39	1783.78
204.61	1634.28
204.83	1662.95
205.05	1738.73
205.27	1820.64
205.49	1820.64
205.71	1691.62
205.93	1669.09
206.15	1677.29
206.37	1724.39
206.59	1730.53
206.81	1667.05
207.03	1677.29
207.25	1613.80
207.47	1734.63
207.69	1742.82
207.91	1781.73
208.13	1796.07
208.34	1691.62
208.56	1665.00
208.78	1783.78
209.00	1628.14
209.22	1683.43
209.44	1607.66
209.66	1689.57
209.88	1701.86
210.10	1695.72
210.32	1687.53
210.54	1806.31
210.76	1656.81
210.98	1740.77
211.20	1656.81
211.42	1771.49
211.64	1746.92
211.86	1738.73
212.08	1796.07
212.30	1724.39
212.52	1656.81
212.74	1718.25
212.96	1753.06
213.17	1734.63
213.39	1744.87
213.61	1834.98
213.83	1734.63
214.05	1685.48
214.27	1787.88
214.49	1660.90
214.71	1665.00
214.93	1785.83
215.15	1730.53
215.37	1753.06
215.59	1634.28
215.81	1744.87
216.03	1814.50
216.24	1681.38
216.46	1697.77
216.68	1699.81
216.90	1763.30
217.12	1802.21
217.34	1724.39
217.56	1738.73
217.78	1753.06
218.00	1714.15
218.22	1679.33
218.44	1714.15
218.66	1667.05
218.87	1853.41
219.09	1705.96
219.31	1730.53
219.53	1763.30
219.75	1660.90
219.97	1679.33
220.19	1658.85
220.41	1665.00
220.63	1785.83
220.85	1763.30
221.06	1644.52
221.28	1822.69
221.50	1734.63
221.72	1728.49
221.94	1699.81
222.16	1736.68
222.38	1693.67
222.60	1755.11
222.82	1724.39
223.03	1816.55
223.25	1648.61
223.47	1794.02
223.69	1824.74
223.91	1767.40
224.13	1812.45
224.35	1714.15
224.57	1748.97
224.78	1814.50
225.00	1685.48
225.22	1669.09
225.44	1660.90
225.66	1742.82
225.88	1689.57
226.10	1767.40
226.32	1761.25
226.53	1818.60
226.75	1732.58
226.97	1710.05
227.19	1683.43
227.41	1687.53
227.63	1624.04
227.85	1662.95
228.06	1716.20
228.28	1677.29
228.50	1773.54
228.72	1673.19
228.94	1648.61
229.16	1652.71
229.37	1667.05
229.59	1677.29
229.81	1826.79
230.03	1630.18
230.25	1683.43
230.47	1660.90
230.69	1669.09
230.90	1689.57
231.12	1773.54
231.34	1791.97
231.56	1763.30
231.78	1615.85
232.00	1662.95
232.21	1673.19
232.43	1669.09
232.65	1570.79
232.87	1697.77
233.09	1697.77
233.30	1697.77
233.52	1736.68
233.74	1689.57
233.96	1634.28
234.18	1708.01
234.40	1693.67
234.61	1804.26
234.83	1576.94
235.05	1609.70
235.27	1806.31
235.49	1800.16
235.70	1751.01
235.92	1779.68
236.14	1757.16
236.36	1847.27
236.58	1632.23
236.79	1730.53
237.01	1681.38
237.23	1677.29
237.45	1820.64
237.67	1626.09
237.88	1730.53
238.10	1755.11
238.32	1619.94
238.54	1775.59
238.76	1740.77
238.97	1705.96
239.19	1783.78
239.41	1726.44
239.63	1832.93
239.85	1712.10
240.06	1720.29
240.28	1665.00
240.50	1763.30
240.72	1642.47
240.93	1736.68
241.15	1748.97
241.37	1656.81
241.59	1773.54
241.81	1751.01
242.02	1640.42
242.24	1720.29
242.46	1738.73
242.68	1671.14
242.89	1767.40
243.11	1720.29
243.33	1781.73
243.55	1712.10
243.76	1765.35
243.98	1642.47
244.20	1712.10
244.42	1757.16
244.64	1669.09
244.85	1738.73
245.07	1726.44
245.29	1746.92
245.51	1718.25
245.72	1724.39
245.94	1775.59
246.16	1708.01
246.38	1787.88
246.59	1716.20
246.81	1660.90
247.03	1671.14
247.24	1603.56
247.46	1636.33
247.68	1751.01
247.90	1787.88
248.11	1689.57
248.33	1820.64
248.55	1691.62
248.77	1828.84
248.98	1738.73
249.20	1894.37
249.42	1665.00
249.64	1744.87
249.85	1699.81
250.07	1656.81
250.29	1773.54
250.50	1712.10
250.72	1605.61
250.94	1734.63
251.16	1882.08
251.37	1843.17
251.59	1763.30
251.81	1746.92
252.02	1767.40
252.24	1697.77
252.46	1787.88
252.68	1652.71
252.89	1769.44
253.11	1591.27
253.33	1810.40
253.54	1738.73
253.76	1650.66
253.98	1640.42
254.20	1679.33
254.41	1679.33
254.63	1701.86
254.85	1667.05
255.06	1691.62
255.28	1748.97
255.50	1656.81
255.71	1642.47
255.93	1695.72
256.15	1693.67
256.36	1783.78
256.58	1632.23
256.80	1798.12
257.02	1695.72
257.23	1742.82
257.45	1732.58
257.67	1728.49
257.88	1640.42
258.10	1742.82
258.32	1734.63
258.53	1763.30
258.75	1751.01
258.97	1740.77
259.18	1710.05
259.40	1681.38
259.62	1814.50
259.83	1800.16
260.05	1701.86
260.27	2000.87
260.48	1755.11
260.70	1716.20
260.92	1673.19
261.13	1685.48
261.35	1734.63
261.57	1716.20
261.78	1646.57
262.00	1681.38
262.22	1708.01
262.43	1662.95
262.65	1722.34
262.86	1748.97
263.08	1851.36
263.30	1662.95
263.51	1613.80
263.73	1677.29
263.95	1779.68
264.16	1720.29
264.38	1665.00
264.60	1765.35
264.81	1755.11
265.03	1681.38
265.25	1730.53
265.46	1673.19
265.68	1740.77
265.89	1714.15
266.11	1697.77
266.33	1701.86
266.54	1771.49
266.76	1722.34
266.98	1738.73
267.19	1804.26
267.41	1763.30
267.62	1755.11
267.84	1589.22
268.06	1685.48
268.27	1740.77
268.49	1755.11
268.70	1775.59
268.92	1718.25
269.14	1619.94
269.35	1589.22
269.57	1759.21
269.79	1794.02
270.00	1675.24
270.22	1791.97
270.43	1708.01
270.65	1615.85
270.87	1785.83
271.08	1732.58
271.30	1736.68
271.51	1744.87
271.73	1714.15
271.95	1791.97
272.16	1738.73
272.38	1763.30
272.59	1718.25
272.81	1722.34
273.02	1753.06
273.24	1753.06
273.46	1708.01
273.67	1693.67
273.89	1681.38
274.10	1740.77
274.32	1787.88
274.54	1665.00
274.75	1736.68
274.97	1626.09
275.18	1791.97
275.40	1746.92
275.61	1667.05
275.83	1730.53
276.05	1677.29
276.26	1597.42
276.48	1722.34
276.69	1705.96
276.91	1697.77
277.12	1812.45
277.34	1820.64
277.55	1783.78
277.77	1771.49
277.99	1701.86
278.20	1632.23
278.42	1607.66
278.63	1701.86
278.85	1642.47
279.06	1705.96
279.28	1738.73
279.49	1665.00
279.71	1734.63
279.93	1695.72
280.14	1734.63
280.36	1638.38
280.57	1740.77
280.79	1773.54
281.00	1660.90
281.22	1656.81
281.43	1751.01
281.65	1656.81
281.86	1667.05
282.08	1765.35
282.29	1755.11
282.51	1619.94
282.73	1644.52
282.94	1675.24
283.16	1724.39
283.37	1853.41
283.59	1640.42
283.80	1720.29
284.02	1679.33
284.23	1761.25
284.45	1695.72
284.66	1630.18
284.88	1716.20
285.09	1703.91
285.31	1716.20
285.52	1746.92
285.74	1671.14
285.95	1757.16
286.17	1705.96
286.38	1779.68
286.60	1705.96
286.81	1685.48
287.03	1751.01
287.24	1746.92
287.46	1771.49
287.67	1699.81
287.89	1896.42
288.10	1683.43
288.32	1646.57
288.53	1830.88
288.75	1701.86
288.96	1789.92
289.18	1695.72
289.39	1746.92
289.61	1703.91
289.82	1871.84
290.04	1808.36
290.25	1681.38
290.47	1787.88
290.68	1753.06
290.90	1837.03
291.11	1665.00
291.33	1728.49
291.54	1726.44
291.76	1656.81
291.97	1654.76
292.18	1755.11
292.40	1751.01
292.61	1716.20
292.83	1871.84
293.04	1763.30
293.26	1777.64
293.47	1736.68
293.69	1669.09
293.90	1779.68
294.12	1804.26
294.33	1601.51
294.55	1665.00
294.76	1822.69
294.97	1841.12
295.19	1800.16
295.40	1783.78
295.62	1660.90
295.83	1724.39
296.05	1638.38
296.26	1773.54
296.48	1669.09
296.69	1685.48
296.90	1773.54
297.12	1755.11
297.33	1791.97
297.55	1748.97
297.76	1763.30
297.98	1734.63
298.19	1665.00
298.41	1746.92
298.62	1628.14
298.83	1724.39
299.05	1796.07
299.26	1609.70
299.48	1714.15
299.69	1699.81
299.90	1667.05
300.12	1650.66
300.33	1744.87
300.55	1673.19
300.76	1726.44
300.98	1708.01
301.19	1757.16
301.40	1757.16
301.62	1734.63
301.83	1667.05
302.05	1705.96
302.26	1722.34
302.47	1812.45
302.69	1693.67
302.90	1738.73
303.12	1648.61
303.33	1736.68
303.54	1771.49
303.76	1697.77
303.97	1677.29
304.19	1800.16
304.40	1693.67
304.61	1771.49
304.83	1775.59
305.04	1810.40
305.26	1757.16
305.47	1681.38
305.68	1695.72
305.90	1701.86
306.11	1730.53
306.33	1697.77
306.54	1638.38
306.75	1658.85
306.97	1669.09
307.18	1656.81
307.39	1693.67
307.61	1712.10
307.82	1744.87
308.04	1767.40
308.25	1673.19
308.46	1730.53
308.68	1732.58
308.89	1677.29
309.10	1761.25
309.32	1769.44
309.53	1738.73
309.74	1722.34
309.96	1730.53
310.17	1800.16
310.39	1736.68
310.60	1816.55
310.81	1730.53
311.03	1708.01
311.24	1667.05
311.45	1718.25
311.67	1849.32
311.88	1667.05
312.09	1742.82
312.31	1644.52
312.52	1701.86
312.73	1697.77
312.95	1662.95
313.16	1677.29
313.37	1779.68
313.59	1665.00
313.80	1742.82
314.01	1763.30
314.23	1712.10
314.44	1722.34
314.65	1699.81
314.87	1677.29
315.08	1636.33
315.29	1720.29
315.51	1619.94
315.72	1583.08
315.93	1787.88
316.15	1849.32
316.36	1628.14
316.57	1751.01
316.79	1714.15
317.00	1615.85
317.21	1730.53
317.43	1722.34
317.64	1746.92
317.85	1665.00
318.07	1710.05
318.28	1736.68
318.49	1781.73
318.70	1939.43
318.92	1882.08
319.13	1755.11
319.34	1861.60
319.56	1834.98
319.77	1857.51
319.98	1849.32
320.20	1814.50
320.41	1736.68
320.62	1759.21
320.83	1632.23
321.05	1822.69
321.26	1767.40
321.47	1673.19
321.69	1822.69
321.90	1628.14
322.11	1673.19
322.32	1763.30
322.54	1818.60
322.75	1705.96
322.96	1875.94
323.18	1624.04
323.39	1603.56
323.60	1757.16
323.81	1769.44
324.03	1669.09
324.24	1697.77
324.45	1751.01
324.66	1667.05
324.88	1748.97
325.09	1882.08
325.30	1716.20
325.52	1783.78
325.73	1746.92
325.94	1683.43
326.15	1722.34
326.37	1773.54
326.58	1734.63
326.79	1816.55
327.00	1642.47
327.22	1679.33
327.43	1740.77
327.64	1665.00
327.85	1779.68
328.07	1718.25
328.28	1763.30
328.49	1738.73
328.70	1675.24
328.92	1716.20
329.13	1769.44
329.34	1728.49
329.55	1896.42
329.76	1783.78
329.98	1759.21
330.19	1808.36
330.40	1689.57
330.61	1705.96
330.83	1712.10
331.04	1634.28
331.25	1832.93
331.46	1669.09
331.68	1626.09
331.89	1714.15
332.10	1710.05
332.31	1669.09
332.52	1667.05
332.74	1683.43
332.95	1609.70
333.16	1724.39
333.37	1708.01
333.58	1746.92
333.80	1732.58
334.01	1525.74
334.22	1714.15
334.43	1601.51
334.64	1679.33
334.86	1695.72
335.07	1683.43
335.28	1783.78
335.49	1669.09
335.70	1720.29
335.92	1763.30
336.13	1828.84
336.34	1800.16
336.55	1652.71
336.76	1689.57
336.98	1613.80
337.19	1730.53
337.40	1730.53
337.61	1824.74
337.82	1691.62
338.04	1765.35
338.25	1576.94
338.46	1728.49
338.67	1710.05
338.88	1695.72
339.09	1634.28
339.31	1798.12
339.52	1599.46
339.73	1669.09
339.94	1722.34
340.15	1746.92
340.36	1716.20
340.58	1697.77
340.79	1650.66
341.00	1685.48
341.21	1603.56
341.42	1763.30
341.63	1701.86
341.85	1771.49
342.06	1732.58
342.27	1615.85
342.48	1837.03
342.69	1601.51
342.90	1734.63
343.12	1789.92
343.33	1611.75
343.54	1736.68
343.75	1841.12
343.96	1744.87
344.17	1667.05
344.38	1697.77
344.60	1656.81
344.81	1658.85
345.02	1693.67
345.23	1744.87
345.44	1794.02
345.65	1724.39
345.86	1796.07
346.07	1720.29
346.29	1675.24
346.50	1705.96
346.71	1771.49
346.92	1701.86
347.13	1855.46
347.34	1701.86
347.55	1730.53
347.76	1705.96
347.98	1554.41
348.19	1679.33
348.40	1755.11
348.61	1656.81
348.82	1822.69
349.03	1742.82
349.24	1675.24
349.45	1830.88
349.66	1648.61
349.88	1783.78
350.09	1665.00
350.30	1755.11
350.51	1757.16
350.72	1660.90
350.93	1828.84
351.14	1703.91
351.35	1710.05
351.56	1742.82
351.77	1697.77
351.99	1773.54
352.20	1804.26
352.41	1753.06
352.62	1615.85
352.83	1683.43
353.04	1687.53
353.25	1624.04
353.46	1818.60
353.67	1699.81
353.88	1607.66
354.09	1734.63
354.30	1716.20
354.52	1671.14
354.73	1732.58
354.94	1710.05
355.15	1724.39
355.36	1789.92
355.57	1669.09
355.78	1722.34
355.99	1675.24
356.20	1671.14
356.41	1763.30
356.62	1665.00
356.83	1777.64
357.04	1781.73
357.25	1646.57
357.46	1730.53
357.68	1669.09
357.89	1730.53
358.10	1787.88
358.31	1677.29
358.52	1714.15
358.73	1697.77
358.94	1662.95
359.15	1724.39
359.36	1779.68
359.57	1679.33
359.78	1685.48
359.99	1697.77
360.20	1697.77
360.41	1671.14
360.62	1701.86
360.83	1759.21
361.04	1722.34
361.25	1703.91
361.46	1761.25
361.67	1761.25
361.88	1738.73
362.09	1712.10
362.30	1781.73
362.51	1734.63
362.72	1775.59
362.93	1818.60
363.14	1767.40
363.35	1650.66
363.56	1650.66
363.78	1728.49
363.99	1753.06
364.20	1667.05
364.41	1730.53
364.62	1875.94
364.83	1685.48
365.04	1718.25
365.25	1681.38
365.46	1808.36
365.67	1636.33
365.88	1669.09
366.09	1671.14
366.30	1665.00
366.51	1730.53
366.72	1654.76
366.93	1693.67
367.14	1775.59
367.35	1730.53
367.56	1665.00
367.77	1779.68
367.98	1771.49
368.18	1697.77
368.39	1742.82
368.60	1654.76
368.81	1718.25
369.02	1720.29
369.23	1671.14
369.44	1691.62
369.65	1648.61
369.86	1726.44
370.07	1771.49
370.28	1611.75
370.49	1798.12
370.70	1724.39
370.91	1703.91
371.12	1677.29
371.33	1740.77
371.54	1705.96
371.75	1818.60
371.96	1591.27
372.17	1699.81
372.38	1615.85
372.59	1705.96
372.80	1736.68
373.01	1744.87
373.22	1730.53
373.43	1683.43
373.64	1771.49
373.85	1853.41
374.06	1822.69
374.26	1771.49
374.47	1730.53
374.68	1824.74
374.89	1720.29
375.10	1693.67
375.31	1812.45
375.52	1720.29
375.73	1746.92
375.94	1671.14
376.15	1865.70
376.36	1669.09
376.57	1669.09
376.78	1665.00
376.99	1720.29
377.20	1812.45
377.40	1767.40
377.61	1871.84
377.82	1642.47
378.03	1710.05
378.24	1714.15
378.45	1728.49
378.66	1708.01
378.87	1638.38
379.08	1638.38
379.29	1720.29
379.50	1757.16
379.71	1753.06
379.91	1781.73
380.12	1736.68
380.33	1718.25
380.54	1691.62
380.75	1699.81
380.96	1736.68
381.17	1705.96
381.38	1693.67
381.59	1763.30
381.80	1773.54
382.00	1939.43
382.21	1777.64
382.42	1779.68
382.63	1875.94
382.84	1796.07
383.05	1757.16
383.26	1740.77
383.47	1724.39
383.68	1804.26
383.88	1783.78
384.09	1726.44
384.30	1814.50
384.51	1695.72
384.72	1638.38
384.93	1689.57
385.14	1728.49
385.35	1716.20
385.55	1597.42
385.76	1783.78
385.97	1658.85
386.18	1697.77
386.39	1716.20
386.60	1824.74
386.81	1669.09
387.02	1658.85
387.22	1662.95
387.43	1746.92
387.64	1716.20
387.85	1894.37
388.06	2193.37
388.27	4149.18
388.48	6580.12
388.68	8017.80
388.89	9426.80
389.10	9789.29
389.31	8277.89
389.52	7415.69
389.73	6623.13
389.93	6111.14
390.14	5681.07
390.35	5126.07
390.56	4446.14
390.77	3872.71
390.98	2918.36
391.18	2422.75
391.39	2043.87
391.60	1837.03
391.81	1808.36
392.02	1732.58
392.23	1904.61
392.43	1865.70
392.64	1877.99
392.85	1730.53
393.06	1755.11
393.27	1671.14
393.47	1646.57
393.68	1820.64
393.89	1734.63
394.10	1783.78
394.31	1693.67
394.52	1593.32
394.72	1648.61
394.93	1832.93
395.14	1634.28
395.35	1808.36
395.56	1621.99
395.76	1726.44
395.97	1759.21
396.18	1845.22
396.39	1832.93
396.60	2029.54
396.80	1959.91
397.01	1867.75
397.22	1740.77
397.43	1808.36
397.64	1746.92
397.84	1882.08
398.05	1861.60
398.26	1705.96
398.47	1810.40
398.67	1730.53
398.88	1718.25
399.09	1787.88
399.30	1728.49
399.51	1830.88
399.71	1599.46
399.92	1708.01
400.13	1781.73
400.34	1742.82
400.54	1726.44
400.75	1810.40
400.96	1689.57
401.17	1775.59
401.37	1662.95
401.58	1708.01
401.79	1744.87
402.00	1923.04
402.21	2007.01
402.41	1918.95
402.62	1994.72
402.83	1959.91
403.04	1976.29
403.24	2023.39
403.45	1783.78
403.66	1923.04
403.87	1828.84
404.07	1867.75
404.28	1896.42
404.49	1873.89
404.70	1728.49
404.90	1757.16
405.11	1769.44
405.32	1714.15
405.52	1771.49
405.73	1648.61
405.94	1665.00
406.15	1718.25
406.35	1732.58
406.56	1783.78
406.77	1740.77
406.98	1716.20
407.18	1708.01
407.39	1779.68
407.60	1697.77
407.80	1757.16
408.01	1628.14
408.22	1712.10
408.43	1726.44
408.63	1728.49
408.84	1687.53
409.05	1816.55
409.25	1714.15
409.46	1638.38
409.67	1648.61
409.88	1742.82
410.08	1710.05
410.29	1697.77
410.50	1724.39
410.70	1714.15
410.91	1648.61
411.12	1687.53
411.32	1726.44
411.53	1687.53
411.74	1806.31
411.95	1755.11
412.15	1699.81
412.36	1789.92
412.57	1738.73
412.77	1837.03
412.98	1726.44
413.19	1730.53
413.39	1748.97
413.60	1763.30
413.81	1894.37
414.01	1689.57
414.22	1755.11
414.43	1812.45
414.63	1617.90
414.84	1736.68
415.05	1763.30
415.25	1718.25
415.46	1710.05
415.67	1701.86
415.87	1669.09
416.08	1656.81
416.29	1703.91
416.49	1753.06
416.70	1818.60
416.91	1675.24
417.11	1732.58
417.32	1798.12
417.53	1806.31
417.73	1789.92
417.94	1712.10
418.15	1697.77
418.35	1708.01
418.56	1724.39
418.77	1826.79
418.97	1710.05
419.18	1744.87
419.38	1607.66
419.59	1714.15
419.80	1787.88
420.00	1708.01
420.21	1685.48
420.42	1748.97
420.62	1667.05
420.83	1697.77
421.04	1726.44
421.24	1693.67
421.45	1746.92
421.65	1779.68
421.86	1759.21
422.07	1751.01
422.27	1773.54
422.48	1736.68
422.69	1667.05
422.89	1736.68
423.10	1697.77
423.30	1654.76
423.51	1769.44
423.72	1734.63
423.92	1665.00
424.13	1660.90
424.33	1679.33
424.54	1728.49
424.75	1785.83
424.95	1841.12
425.16	1701.86
425.36	1742.82
425.57	1800.16
425.78	1798.12
425.98	1894.37
426.19	1689.57
426.39	1699.81
426.60	1689.57
426.81	1757.16
427.01	1695.72
427.22	1703.91
427.42	1572.84
427.63	1708.01
427.83	1689.57
428.04	1740.77
428.25	1769.44
428.45	1789.92
428.66	1691.62
428.86	1693.67
429.07	1673.19
429.28	1734.63
429.48	1699.81
429.69	1650.66
429.89	1843.17
430.10	1677.29
430.30	1812.45
430.51	1783.78
430.71	1683.43
430.92	1710.05
431.13	1767.40
431.33	1783.78
431.54	1800.16
431.74	1755.11
431.95	1843.17
432.15	1667.05
432.36	1687.53
432.56	1771.49
432.77	1779.68
432.98	1853.41
433.18	1701.86
433.39	1687.53
433.59	1640.42
433.80	1798.12
434.00	1853.41
434.21	1695.72
434.41	1658.85
434.62	1779.68
434.82	1662.95
435.03	1675.24
435.23	1767.40
435.44	1554.41
435.64	1693.67
435.85	1728.49
436.06	1734.63
436.26	1716.20
436.47	1748.97
436.67	1699.81
436.88	1687.53
437.08	1828.84
437.29	1843.17
437.49	1751.01
437.70	1845.22
437.90	1660.90
438.11	1888.23
438.31	1804.26
438.52	1888.23
438.72	1804.26
438.93	1990.63
439.13	1763.30
439.34	1894.37
439.54	1757.16
439.75	1814.50
439.95	1857.51
440.16	1751.01
440.36	1787.88
440.57	1751.01
440.77	1755.11
440.98	1755.11
441.18	1798.12
441.39	1660.90
441.59	1738.73
441.80	1910.75
442.00	1740.77
442.21	1806.31
442.41	1726.44
442.62	1753.06
442.82	1687.53
443.02	1679.33
443.23	1806.31
443.43	1769.44
443.64	1837.03
443.84	1636.33
444.05	1806.31
444.25	1746.92
444.46	1738.73
444.66	1705.96
444.87	1828.84
445.07	1624.04
445.28	1759.21
445.48	1867.75
445.69	1791.97
445.89	1877.99
446.09	1728.49
446.30	2009.06
446.50	2572.25
446.71	3694.54
446.91	4292.54
447.12	4589.50
447.32	4775.86
447.53	4378.56
447.73	3821.51
447.93	3551.18
448.14	3301.33
448.34	3213.26
448.55	2901.97
448.75	2867.16
448.96	2623.45
449.16	2459.61
449.36	2201.57
449.57	1986.53
449.77	1953.76
449.98	1757.16
450.18	1742.82
450.39	1806.31
450.59	1736.68
450.79	1701.86
451.00	1773.54
451.20	1763.30
451.41	1759.21
451.61	1761.25
451.81	1716.20
452.02	1742.82
452.22	1669.09
452.43	1755.11
452.63	1701.86
