SpectraSuite Data File
++++++++++++++++++++++++++++++++++++
Date: Mon Jun 06 13:22:37 CEST 2016
User: root
Dark Spectrum Present: No
Reference Spectrum Present: No
Number of Sampled Component Spectra: 1
Spectrometers: USB4C02835
Integration Time (usec): 100000 (USB4C02835)
Spectra Averaged: 1 (USB4C02835)
Boxcar Smoothing: 0 (USB4C02835)
Correct for Electrical Dark: No (USB4C02835)
Strobe/Lamp Enabled: No (USB4C02835)
Correct for Detector Non-linearity: No (USB4C02835)
Correct for Stray Light: No (USB4C02835)
Number of Pixels in Processed Spectrum: 3648
>>>>>Begin Processed Spectral Data<<<<<
177.47	1456.11
177.69	1456.11
177.91	1456.11
178.13	1476.59
178.36	1443.82
178.58	1568.74
178.80	1667.05
179.02	1665.00
179.24	1705.96
179.46	1722.34
179.68	1736.68
179.90	1665.00
180.13	1722.34
180.35	1632.23
180.57	1732.58
180.79	1714.15
181.01	1656.81
181.23	1744.87
181.45	1775.59
181.67	1683.43
181.90	1755.11
182.12	1689.57
182.34	1632.23
182.56	1806.31
182.78	1693.67
183.00	1679.33
183.22	1708.01
183.44	1689.57
183.66	1806.31
183.89	1732.58
184.11	1699.81
184.33	1771.49
184.55	1806.31
184.77	1679.33
184.99	1683.43
185.21	1742.82
185.43	1826.79
185.65	1628.14
185.87	1681.38
186.10	1824.74
186.32	1804.26
186.54	1798.12
186.76	1691.62
186.98	1738.73
187.20	1722.34
187.42	1771.49
187.64	1767.40
187.86	1685.48
188.08	1710.05
188.30	1656.81
188.52	1689.57
188.75	1796.07
188.97	1757.16
189.19	1656.81
189.41	1693.67
189.63	1716.20
189.85	1726.44
190.07	1665.00
190.29	1632.23
190.51	1634.28
190.73	1675.24
190.95	1728.49
191.17	1730.53
191.39	1656.81
191.61	1722.34
191.84	1689.57
192.06	1726.44
192.28	1699.81
192.50	1914.85
192.72	1742.82
192.94	1783.78
193.16	1771.49
193.38	1738.73
193.60	1607.66
193.82	1632.23
194.04	1765.35
194.26	1648.61
194.48	1673.19
194.70	1662.95
194.92	1654.76
195.14	1746.92
195.36	1621.99
195.58	1685.48
195.80	1753.06
196.02	1677.29
196.24	1693.67
196.46	1775.59
196.69	1636.33
196.91	1859.56
197.13	1685.48
197.35	1640.42
197.57	1814.50
197.79	1691.62
198.01	1730.53
198.23	1708.01
198.45	1691.62
198.67	1603.56
198.89	1677.29
199.11	1732.58
199.33	1677.29
199.55	1603.56
199.77	1726.44
199.99	1812.45
200.21	1685.48
200.43	1779.68
200.65	1568.74
200.87	1644.52
201.09	1740.77
201.31	1705.96
201.53	1785.83
201.75	1652.71
201.97	1691.62
202.19	1787.88
202.41	1710.05
202.63	1806.31
202.85	1699.81
203.07	1619.94
203.29	1689.57
203.51	1677.29
203.73	1736.68
203.95	1861.60
204.17	1691.62
204.39	1671.14
204.61	1687.53
204.83	1671.14
205.05	1753.06
205.27	1744.87
205.49	1828.84
205.71	1628.14
205.93	1662.95
206.15	1652.71
206.37	1736.68
206.59	1673.19
206.81	1650.66
207.03	1720.29
207.25	1693.67
207.47	1746.92
207.69	1710.05
207.91	1781.73
208.13	1834.98
208.34	1640.42
208.56	1638.38
208.78	1773.54
209.00	1705.96
209.22	1685.48
209.44	1656.81
209.66	1675.24
209.88	1722.34
210.10	1656.81
210.32	1656.81
210.54	1830.88
210.76	1740.77
210.98	1730.53
211.20	1591.27
211.42	1722.34
211.64	1773.54
211.86	1710.05
212.08	1734.63
212.30	1665.00
212.52	1751.01
212.74	1681.38
212.96	1705.96
213.17	1781.73
213.39	1724.39
213.61	1845.22
213.83	1699.81
214.05	1632.23
214.27	1708.01
214.49	1609.70
214.71	1685.48
214.93	1765.35
215.15	1675.24
215.37	1722.34
215.59	1665.00
215.81	1714.15
216.03	1748.97
216.24	1689.57
216.46	1660.90
216.68	1658.85
216.90	1771.49
217.12	1755.11
217.34	1751.01
217.56	1705.96
217.78	1738.73
218.00	1681.38
218.22	1675.24
218.44	1658.85
218.66	1751.01
218.87	1732.58
219.09	1626.09
219.31	1732.58
219.53	1667.05
219.75	1689.57
219.97	1669.09
220.19	1757.16
220.41	1658.85
220.63	1777.64
220.85	1667.05
221.06	1662.95
221.28	1710.05
221.50	1738.73
221.72	1718.25
221.94	1705.96
222.16	1691.62
222.38	1724.39
222.60	1695.72
222.82	1724.39
223.03	1722.34
223.25	1632.23
223.47	1828.84
223.69	1802.21
223.91	1744.87
224.13	1710.05
224.35	1683.43
224.57	1775.59
224.78	1748.97
225.00	1693.67
225.22	1675.24
225.44	1748.97
225.66	1765.35
225.88	1626.09
226.10	1845.22
226.32	1744.87
226.53	1679.33
226.75	1683.43
226.97	1712.10
227.19	1642.47
227.41	1701.86
227.63	1595.37
227.85	1605.61
228.06	1708.01
228.28	1687.53
228.50	1757.16
228.72	1648.61
228.94	1689.57
229.16	1693.67
229.37	1648.61
229.59	1636.33
229.81	1800.16
230.03	1708.01
230.25	1583.08
230.47	1634.28
230.69	1681.38
230.90	1742.82
231.12	1570.79
231.34	1646.57
231.56	1638.38
231.78	1667.05
232.00	1656.81
232.21	1726.44
232.43	1734.63
232.65	1568.74
232.87	1814.50
233.09	1652.71
233.30	1722.34
233.52	1738.73
233.74	1693.67
233.96	1693.67
234.18	1738.73
234.40	1716.20
234.61	1783.78
234.83	1712.10
235.05	1587.18
235.27	1828.84
235.49	1701.86
235.70	1689.57
235.92	1806.31
236.14	1753.06
236.36	1816.55
236.58	1626.09
236.79	1705.96
237.01	1638.38
237.23	1669.09
237.45	1800.16
237.67	1632.23
237.88	1669.09
238.10	1806.31
238.32	1679.33
238.54	1681.38
238.76	1724.39
238.97	1662.95
239.19	1708.01
239.41	1730.53
239.63	1748.97
239.85	1648.61
240.06	1693.67
240.28	1726.44
240.50	1697.77
240.72	1636.33
240.93	1777.64
241.15	1673.19
241.37	1578.98
241.59	1751.01
241.81	1726.44
242.02	1689.57
242.24	1759.21
242.46	1763.30
242.68	1650.66
242.89	1718.25
243.11	1765.35
243.33	1656.81
243.55	1716.20
243.76	1783.78
243.98	1708.01
244.20	1714.15
244.42	1656.81
244.64	1665.00
244.85	1660.90
245.07	1605.61
245.29	1710.05
245.51	1628.14
245.72	1697.77
245.94	1812.45
246.16	1753.06
246.38	1761.25
246.59	1632.23
246.81	1630.18
247.03	1650.66
247.24	1587.18
247.46	1693.67
247.68	1720.29
247.90	1703.91
248.11	1652.71
248.33	1785.83
248.55	1742.82
248.77	1685.48
248.98	1763.30
249.20	1796.07
249.42	1710.05
249.64	1728.49
249.85	1748.97
250.07	1640.42
250.29	1773.54
250.50	1712.10
250.72	1615.85
250.94	1712.10
251.16	1798.12
251.37	1683.43
251.59	1734.63
251.81	1732.58
252.02	1732.58
252.24	1693.67
252.46	1837.03
252.68	1714.15
252.89	1665.00
253.11	1574.89
253.33	1853.41
253.54	1796.07
253.76	1705.96
253.98	1624.04
254.20	1705.96
254.41	1638.38
254.63	1660.90
254.85	1624.04
255.06	1738.73
255.28	1740.77
255.50	1683.43
255.71	1665.00
255.93	1677.29
256.15	1660.90
256.36	1722.34
256.58	1673.19
256.80	1759.21
257.02	1691.62
257.23	1673.19
257.45	1650.66
257.67	1746.92
257.88	1634.28
258.10	1714.15
258.32	1714.15
258.53	1712.10
258.75	1841.12
258.97	1638.38
259.18	1771.49
259.40	1703.91
259.62	1832.93
259.83	1732.58
260.05	1769.44
260.27	1970.15
260.48	1746.92
260.70	1648.61
260.92	1630.18
261.13	1656.81
261.35	1796.07
261.57	1695.72
261.78	1605.61
262.00	1660.90
262.22	1722.34
262.43	1691.62
262.65	1701.86
262.86	1650.66
263.08	1804.26
263.30	1742.82
263.51	1607.66
263.73	1621.99
263.95	1812.45
264.16	1603.56
264.38	1722.34
264.60	1751.01
264.81	1777.64
265.03	1787.88
265.25	1665.00
265.46	1734.63
265.68	1701.86
265.89	1730.53
266.11	1648.61
266.33	1787.88
266.54	1791.97
266.76	1675.24
266.98	1767.40
267.19	1730.53
267.41	1751.01
267.62	1730.53
267.84	1636.33
268.06	1677.29
268.27	1669.09
268.49	1830.88
268.70	1759.21
268.92	1638.38
269.14	1611.75
269.35	1626.09
269.57	1689.57
269.79	1656.81
270.00	1656.81
270.22	1810.40
270.43	1665.00
270.65	1640.42
270.87	1681.38
271.08	1767.40
271.30	1763.30
271.51	1665.00
271.73	1765.35
271.95	1755.11
272.16	1648.61
272.38	1650.66
272.59	1701.86
272.81	1712.10
273.02	1787.88
273.24	1710.05
273.46	1736.68
273.67	1634.28
273.89	1693.67
274.10	1718.25
274.32	1781.73
274.54	1697.77
274.75	1738.73
274.97	1728.49
275.18	1765.35
275.40	1722.34
275.61	1732.58
275.83	1656.81
276.05	1621.99
276.26	1658.85
276.48	1798.12
276.69	1679.33
276.91	1716.20
277.12	1820.64
277.34	1732.58
277.55	1767.40
277.77	1673.19
277.99	1695.72
278.20	1621.99
278.42	1656.81
278.63	1660.90
278.85	1634.28
279.06	1566.70
279.28	1763.30
279.49	1738.73
279.71	1728.49
279.93	1685.48
280.14	1738.73
280.36	1648.61
280.57	1769.44
280.79	1757.16
281.00	1681.38
281.22	1669.09
281.43	1675.24
281.65	1583.08
281.86	1566.70
282.08	1716.20
282.29	1851.36
282.51	1593.32
282.73	1689.57
282.94	1630.18
283.16	1705.96
283.37	1894.37
283.59	1740.77
283.80	1697.77
284.02	1681.38
284.23	1644.52
284.45	1718.25
284.66	1636.33
284.88	1726.44
285.09	1712.10
285.31	1757.16
285.52	1783.78
285.74	1640.42
285.95	1722.34
286.17	1687.53
286.38	1714.15
286.60	1624.04
286.81	1753.06
287.03	1701.86
287.24	1714.15
287.46	1744.87
287.67	1675.24
287.89	1751.01
288.10	1642.47
288.32	1646.57
288.53	1800.16
288.75	1732.58
288.96	1734.63
289.18	1679.33
289.39	1697.77
289.61	1738.73
289.82	1853.41
290.04	1746.92
290.25	1636.33
290.47	1687.53
290.68	1685.48
290.90	1839.08
291.11	1613.80
291.33	1730.53
291.54	1609.70
291.76	1636.33
291.97	1705.96
292.18	1708.01
292.40	1650.66
292.61	1675.24
292.83	1800.16
293.04	1658.85
293.26	1728.49
293.47	1646.57
293.69	1685.48
293.90	1646.57
294.12	1689.57
294.33	1722.34
294.55	1658.85
294.76	1740.77
294.97	1738.73
295.19	1798.12
295.40	1683.43
295.62	1746.92
295.83	1720.29
296.05	1738.73
296.26	1730.53
296.48	1697.77
296.69	1660.90
296.90	1693.67
297.12	1695.72
297.33	1751.01
297.55	1718.25
297.76	1746.92
297.98	1669.09
298.19	1748.97
298.41	1691.62
298.62	1624.04
298.83	1808.36
299.05	1699.81
299.26	1642.47
299.48	1654.76
299.69	1753.06
299.90	1683.43
300.12	1615.85
300.33	1699.81
300.55	1601.51
300.76	1720.29
300.98	1654.76
301.19	1757.16
301.40	1638.38
301.62	1691.62
301.83	1703.91
302.05	1734.63
302.26	1726.44
302.47	1742.82
302.69	1658.85
302.90	1691.62
303.12	1583.08
303.33	1761.25
303.54	1742.82
303.76	1626.09
303.97	1728.49
304.19	1761.25
304.40	1609.70
304.61	1789.92
304.83	1826.79
305.04	1798.12
305.26	1724.39
305.47	1662.95
305.68	1681.38
305.90	1640.42
306.11	1751.01
306.33	1607.66
306.54	1621.99
306.75	1689.57
306.97	1644.52
307.18	1640.42
307.39	1609.70
307.61	1753.06
307.82	1712.10
308.04	1691.62
308.25	1654.76
308.46	1787.88
308.68	1691.62
308.89	1722.34
309.10	1712.10
309.32	1675.24
309.53	1685.48
309.74	1708.01
309.96	1718.25
310.17	1753.06
310.39	1718.25
310.60	1738.73
310.81	1656.81
311.03	1654.76
311.24	1734.63
311.45	1640.42
311.67	1826.79
311.88	1726.44
312.09	1648.61
312.31	1738.73
312.52	1697.77
312.73	1705.96
312.95	1599.46
313.16	1689.57
313.37	1769.44
313.59	1746.92
313.80	1726.44
314.01	1794.02
314.23	1705.96
314.44	1681.38
314.65	1644.52
314.87	1736.68
315.08	1621.99
315.29	1617.90
315.51	1642.47
315.72	1576.94
315.93	1824.74
316.15	1755.11
316.36	1701.86
316.57	1679.33
316.79	1785.83
317.00	1675.24
317.21	1730.53
317.43	1609.70
317.64	1718.25
317.85	1665.00
318.07	1646.57
318.28	1736.68
318.49	1834.98
318.70	1896.42
318.92	1751.01
319.13	1880.04
319.34	1857.51
319.56	1808.36
319.77	1791.97
319.98	1753.06
320.20	1814.50
320.41	1728.49
320.62	1689.57
320.83	1605.61
321.05	1837.03
321.26	1730.53
321.47	1675.24
321.69	1720.29
321.90	1660.90
322.11	1773.54
322.32	1679.33
322.54	1740.77
322.75	1621.99
322.96	1845.22
323.18	1644.52
323.39	1660.90
323.60	1646.57
323.81	1777.64
324.03	1693.67
324.24	1669.09
324.45	1675.24
324.66	1658.85
324.88	1716.20
325.09	1828.84
325.30	1779.68
325.52	1677.29
325.73	1724.39
325.94	1609.70
326.15	1615.85
326.37	1662.95
326.58	1628.14
326.79	1779.68
327.00	1611.75
327.22	1736.68
327.43	1673.19
327.64	1671.14
327.85	1712.10
328.07	1742.82
328.28	1779.68
328.49	1753.06
328.70	1630.18
328.92	1697.77
329.13	1679.33
329.34	1697.77
329.55	1789.92
329.76	1757.16
329.98	1658.85
330.19	1755.11
330.40	1767.40
330.61	1705.96
330.83	1718.25
331.04	1646.57
331.25	1718.25
331.46	1669.09
331.68	1665.00
331.89	1726.44
332.10	1669.09
332.31	1576.94
332.52	1693.67
332.74	1689.57
332.95	1628.14
333.16	1738.73
333.37	1763.30
333.58	1603.56
333.80	1753.06
334.01	1583.08
334.22	1636.33
334.43	1718.25
334.64	1689.57
334.86	1554.41
335.07	1648.61
335.28	1789.92
335.49	1552.36
335.70	1634.28
335.92	1761.25
336.13	1834.98
336.34	1650.66
336.55	1697.77
336.76	1626.09
336.98	1583.08
337.19	1687.53
337.40	1828.84
337.61	1845.22
337.82	1683.43
338.04	1728.49
338.25	1603.56
338.46	1751.01
338.67	1652.71
338.88	1648.61
339.09	1652.71
339.31	1699.81
339.52	1703.91
339.73	1662.95
339.94	1675.24
340.15	1691.62
340.36	1673.19
340.58	1757.16
340.79	1685.48
341.00	1714.15
341.21	1671.14
341.42	1796.07
341.63	1689.57
341.85	1753.06
342.06	1634.28
342.27	1695.72
342.48	1667.05
342.69	1619.94
342.90	1685.48
343.12	1744.87
343.33	1708.01
343.54	1714.15
343.75	1669.09
343.96	1708.01
344.17	1667.05
344.38	1720.29
344.60	1685.48
344.81	1689.57
345.02	1660.90
345.23	1794.02
345.44	1781.73
345.65	1755.11
345.86	1648.61
346.07	1681.38
346.29	1617.90
346.50	1753.06
346.71	1746.92
346.92	1783.78
347.13	1789.92
347.34	1703.91
347.55	1742.82
347.76	1726.44
347.98	1609.70
348.19	1669.09
348.40	1728.49
348.61	1677.29
348.82	1751.01
349.03	1697.77
349.24	1599.46
349.45	1800.16
349.66	1527.78
349.88	1660.90
350.09	1640.42
350.30	1796.07
350.51	1779.68
350.72	1683.43
350.93	1716.20
351.14	1687.53
351.35	1691.62
351.56	1648.61
351.77	1667.05
351.99	1681.38
352.20	1787.88
352.41	1744.87
352.62	1550.31
352.83	1660.90
353.04	1652.71
353.25	1646.57
353.46	1738.73
353.67	1761.25
353.88	1538.02
354.09	1673.19
354.30	1671.14
354.52	1699.81
354.73	1740.77
354.94	1617.90
355.15	1687.53
355.36	1751.01
355.57	1652.71
355.78	1728.49
355.99	1701.86
356.20	1685.48
356.41	1755.11
356.62	1710.05
356.83	1673.19
357.04	1761.25
357.25	1587.18
357.46	1710.05
357.68	1644.52
357.89	1613.80
358.10	1699.81
358.31	1693.67
358.52	1673.19
358.73	1624.04
358.94	1689.57
359.15	1677.29
359.36	1746.92
359.57	1755.11
359.78	1742.82
359.99	1771.49
360.20	1626.09
360.41	1695.72
360.62	1703.91
360.83	1697.77
361.04	1652.71
361.25	1726.44
361.46	1775.59
361.67	1726.44
361.88	1791.97
362.09	1765.35
362.30	1834.98
362.51	1697.77
362.72	1724.39
362.93	1783.78
363.14	1658.85
363.35	1691.62
363.56	1667.05
363.78	1755.11
363.99	1804.26
364.20	1718.25
364.41	1683.43
364.62	1734.63
364.83	1681.38
365.04	1732.58
365.25	1722.34
365.46	1853.41
365.67	1724.39
365.88	1705.96
366.09	1683.43
366.30	1708.01
366.51	1757.16
366.72	1599.46
366.93	1722.34
367.14	1705.96
367.35	1677.29
367.56	1689.57
367.77	1695.72
367.98	1718.25
368.18	1730.53
368.39	1763.30
368.60	1703.91
368.81	1726.44
369.02	1705.96
369.23	1648.61
369.44	1648.61
369.65	1738.73
369.86	1722.34
370.07	1738.73
370.28	1630.18
370.49	1812.45
370.70	1796.07
370.91	1716.20
371.12	1634.28
371.33	1740.77
371.54	1644.52
371.75	1796.07
371.96	1601.51
372.17	1689.57
372.38	1769.44
372.59	1705.96
372.80	1693.67
373.01	1675.24
373.22	1714.15
373.43	1697.77
373.64	1603.56
373.85	1751.01
374.06	1767.40
374.26	1736.68
374.47	1642.47
374.68	1791.97
374.89	1732.58
375.10	1703.91
375.31	1798.12
375.52	1705.96
375.73	1712.10
375.94	1624.04
376.15	1900.52
376.36	1632.23
376.57	1671.14
376.78	1660.90
376.99	1679.33
377.20	1708.01
377.40	1677.29
377.61	1834.98
377.82	1624.04
378.03	1787.88
378.24	1755.11
378.45	1714.15
378.66	1763.30
378.87	1619.94
379.08	1673.19
379.29	1730.53
379.50	1773.54
379.71	1652.71
379.91	1916.90
380.12	1683.43
380.33	1675.24
380.54	1683.43
380.75	1728.49
380.96	1755.11
381.17	1738.73
381.38	1779.68
381.59	1738.73
381.80	1708.01
382.00	1855.46
382.21	1695.72
382.42	1861.60
382.63	1787.88
382.84	1771.49
383.05	1789.92
383.26	1839.08
383.47	1699.81
383.68	1802.21
383.88	1689.57
384.09	1794.02
384.30	1826.79
384.51	1687.53
384.72	1581.03
384.93	1640.42
385.14	1794.02
385.35	1697.77
385.55	1656.81
385.76	1773.54
385.97	1669.09
386.18	1591.27
386.39	1617.90
386.60	1685.48
386.81	1744.87
387.02	1658.85
387.22	1658.85
387.43	1847.27
387.64	1771.49
387.85	1894.37
388.06	2217.95
388.27	4276.16
388.48	6956.95
388.68	8146.82
388.89	9480.05
389.10	9754.48
389.31	8603.52
389.52	7542.67
389.73	6637.47
389.93	6340.51
390.14	5775.27
390.35	5263.28
390.56	4487.10
390.77	3733.45
390.98	2955.22
391.18	2490.33
391.39	2047.97
391.60	1794.02
391.81	1804.26
392.02	1714.15
392.23	1853.41
392.43	1757.16
392.64	1808.36
392.85	1689.57
393.06	1800.16
393.27	1701.86
393.47	1644.52
393.68	1722.34
393.89	1665.00
394.10	1834.98
394.31	1646.57
394.52	1652.71
394.72	1656.81
394.93	1865.70
395.14	1640.42
395.35	1718.25
395.56	1587.18
395.76	1769.44
395.97	1755.11
396.18	1765.35
396.39	1818.60
396.60	1994.72
396.80	1843.17
397.01	1837.03
397.22	1753.06
397.43	1839.08
397.64	1748.97
397.84	1779.68
398.05	1804.26
398.26	1705.96
398.47	1800.16
398.67	1775.59
398.88	1722.34
399.09	1810.40
399.30	1650.66
399.51	1703.91
399.71	1656.81
399.92	1687.53
400.13	1730.53
400.34	1785.83
400.54	1673.19
400.75	1771.49
400.96	1697.77
401.17	1759.21
401.37	1732.58
401.58	1693.67
401.79	1681.38
402.00	1806.31
402.21	2011.11
402.41	1920.99
402.62	1982.43
402.83	1966.05
403.04	2004.96
403.24	2000.87
403.45	1841.12
403.66	1877.99
403.87	1933.28
404.07	1931.23
404.28	1898.47
404.49	1859.56
404.70	1787.88
404.90	1787.88
405.11	1689.57
405.32	1773.54
405.52	1648.61
405.73	1677.29
405.94	1683.43
406.15	1693.67
406.35	1763.30
406.56	1703.91
406.77	1722.34
406.98	1814.50
407.18	1656.81
407.39	1701.86
407.60	1669.09
407.80	1802.21
408.01	1714.15
408.22	1708.01
408.43	1636.33
408.63	1769.44
408.84	1787.88
409.05	1746.92
409.25	1667.05
409.46	1710.05
409.67	1656.81
409.88	1648.61
410.08	1820.64
410.29	1640.42
410.50	1724.39
410.70	1761.25
410.91	1650.66
411.12	1681.38
411.32	1671.14
411.53	1697.77
411.74	1767.40
411.95	1755.11
412.15	1781.73
412.36	1798.12
412.57	1818.60
412.77	1773.54
412.98	1732.58
413.19	1720.29
413.39	1714.15
413.60	1740.77
413.81	1724.39
414.01	1660.90
414.22	1708.01
414.43	1746.92
414.63	1638.38
414.84	1726.44
415.05	1665.00
415.25	1581.03
415.46	1755.11
415.67	1712.10
415.87	1689.57
416.08	1654.76
416.29	1669.09
416.49	1742.82
416.70	1669.09
416.91	1667.05
417.11	1681.38
417.32	1810.40
417.53	1759.21
417.73	1796.07
417.94	1654.76
418.15	1744.87
418.35	1757.16
418.56	1708.01
418.77	1802.21
418.97	1714.15
419.18	1681.38
419.38	1533.93
419.59	1628.14
419.80	1720.29
420.00	1652.71
420.21	1710.05
420.42	1748.97
420.62	1722.34
420.83	1710.05
421.04	1656.81
421.24	1683.43
421.45	1783.78
421.65	1763.30
421.86	1619.94
422.07	1742.82
422.27	1718.25
422.48	1599.46
422.69	1613.80
422.89	1736.68
423.10	1665.00
423.30	1681.38
423.51	1730.53
423.72	1640.42
423.92	1732.58
424.13	1665.00
424.33	1689.57
424.54	1820.64
424.75	1677.29
424.95	1744.87
425.16	1708.01
425.36	1718.25
425.57	1810.40
425.78	1722.34
425.98	1736.68
426.19	1695.72
426.39	1691.62
426.60	1738.73
426.81	1742.82
427.01	1751.01
427.22	1669.09
427.42	1615.85
427.63	1644.52
427.83	1746.92
428.04	1855.46
428.25	1791.97
428.45	1748.97
428.66	1736.68
428.86	1638.38
429.07	1648.61
429.28	1607.66
429.48	1667.05
429.69	1601.51
429.89	1720.29
430.10	1589.22
430.30	1710.05
430.51	1785.83
430.71	1662.95
430.92	1685.48
431.13	1732.58
431.33	1767.40
431.54	1718.25
431.74	1816.55
431.95	1855.46
432.15	1568.74
432.36	1736.68
432.56	1714.15
432.77	1791.97
432.98	1783.78
433.18	1771.49
433.39	1652.71
433.59	1738.73
433.80	1822.69
434.00	1841.12
434.21	1624.04
434.41	1638.38
434.62	1892.32
434.82	1642.47
435.03	1632.23
435.23	1683.43
435.44	1609.70
435.64	1738.73
435.85	1599.46
436.06	1759.21
436.26	1742.82
436.47	1669.09
436.67	1662.95
436.88	1746.92
437.08	1787.88
437.29	1794.02
437.49	1673.19
437.70	1781.73
437.90	1671.14
438.11	1867.75
438.31	1837.03
438.52	1880.04
438.72	1824.74
438.93	1916.90
439.13	1763.30
439.34	1853.41
439.54	1728.49
439.75	1794.02
439.95	1765.35
440.16	1812.45
440.36	1847.27
440.57	1787.88
440.77	1755.11
440.98	1712.10
441.18	1695.72
441.39	1691.62
441.59	1683.43
441.80	1712.10
442.00	1718.25
442.21	1804.26
442.41	1724.39
442.62	1724.39
442.82	1615.85
443.02	1734.63
443.23	1714.15
443.43	1730.53
443.64	1705.96
443.84	1644.52
444.05	1785.83
444.25	1730.53
444.46	1751.01
444.66	1728.49
444.87	1796.07
445.07	1636.33
445.28	1718.25
445.48	1794.02
445.69	1736.68
445.89	1832.93
446.09	1845.22
446.30	1933.28
446.50	2621.40
446.71	3575.75
446.91	4270.01
447.12	4716.47
447.32	4878.26
447.53	4327.36
447.73	3870.66
447.93	3573.71
448.14	3221.45
448.34	3209.17
448.55	2873.30
448.75	2822.10
448.96	2691.03
449.16	2553.82
449.36	2265.05
449.57	2060.26
449.77	1931.23
449.98	1705.96
450.18	1845.22
450.39	1814.50
450.59	1726.44
450.79	1726.44
451.00	1675.24
451.20	1748.97
451.41	1746.92
451.61	1744.87
451.81	1705.96
452.02	1740.77
452.22	1712.10
452.43	1619.94
452.63	1710.05
