SpectraSuite Data File
++++++++++++++++++++++++++++++++++++
Date: Mon Jun 06 13:27:57 CEST 2016
User: root
Dark Spectrum Present: No
Reference Spectrum Present: No
Number of Sampled Component Spectra: 1
Spectrometers: USB4C02835
Integration Time (usec): 100000 (USB4C02835)
Spectra Averaged: 1 (USB4C02835)
Boxcar Smoothing: 0 (USB4C02835)
Correct for Electrical Dark: No (USB4C02835)
Strobe/Lamp Enabled: No (USB4C02835)
Correct for Detector Non-linearity: No (USB4C02835)
Correct for Stray Light: No (USB4C02835)
Number of Pixels in Processed Spectrum: 3648
>>>>>Begin Processed Spectral Data<<<<<
177.47	1413.10
177.69	1413.10
177.91	1413.10
178.13	1495.02
178.36	1435.63
178.58	1638.38
178.80	1689.57
179.02	1667.05
179.24	1630.18
179.46	1716.20
179.68	1771.49
179.90	1658.85
180.13	1673.19
180.35	1603.56
180.57	1673.19
180.79	1767.40
181.01	1705.96
181.23	1705.96
181.45	1736.68
181.67	1705.96
181.90	1744.87
182.12	1671.14
182.34	1693.67
182.56	1775.59
182.78	1726.44
183.00	1757.16
183.22	1710.05
183.44	1576.94
183.66	1740.77
183.89	1822.69
184.11	1695.72
184.33	1705.96
184.55	1779.68
184.77	1748.97
184.99	1759.21
185.21	1634.28
185.43	1804.26
185.65	1675.24
185.87	1763.30
186.10	1804.26
186.32	1837.03
186.54	1716.20
186.76	1730.53
186.98	1734.63
187.20	1658.85
187.42	1773.54
187.64	1718.25
187.86	1757.16
188.08	1730.53
188.30	1667.05
188.52	1742.82
188.75	1785.83
188.97	1775.59
189.19	1636.33
189.41	1654.76
189.63	1718.25
189.85	1667.05
190.07	1609.70
190.29	1710.05
190.51	1703.91
190.73	1679.33
190.95	1820.64
191.17	1740.77
191.39	1617.90
191.61	1634.28
191.84	1675.24
192.06	1732.58
192.28	1607.66
192.50	1871.84
192.72	1724.39
192.94	1736.68
193.16	1761.25
193.38	1732.58
193.60	1650.66
193.82	1705.96
194.04	1779.68
194.26	1691.62
194.48	1705.96
194.70	1650.66
194.92	1679.33
195.14	1755.11
195.36	1617.90
195.58	1667.05
195.80	1759.21
196.02	1656.81
196.24	1665.00
196.46	1742.82
196.69	1730.53
196.91	1775.59
197.13	1667.05
197.35	1554.41
197.57	1742.82
197.79	1751.01
198.01	1669.09
198.23	1720.29
198.45	1695.72
198.67	1607.66
198.89	1689.57
199.11	1726.44
199.33	1648.61
199.55	1669.09
199.77	1767.40
199.99	1724.39
200.21	1671.14
200.43	1759.21
200.65	1603.56
200.87	1574.89
201.09	1787.88
201.31	1691.62
201.53	1794.02
201.75	1662.95
201.97	1681.38
202.19	1644.52
202.41	1662.95
202.63	1820.64
202.85	1677.29
203.07	1624.04
203.29	1716.20
203.51	1665.00
203.73	1640.42
203.95	1814.50
204.17	1781.73
204.39	1746.92
204.61	1728.49
204.83	1683.43
205.05	1734.63
205.27	1765.35
205.49	1779.68
205.71	1632.23
205.93	1634.28
206.15	1658.85
206.37	1699.81
206.59	1662.95
206.81	1564.65
207.03	1640.42
207.25	1714.15
207.47	1705.96
207.69	1685.48
207.91	1755.11
208.13	1779.68
208.34	1738.73
208.56	1681.38
208.78	1673.19
209.00	1703.91
209.22	1710.05
209.44	1701.86
209.66	1660.90
209.88	1683.43
210.10	1689.57
210.32	1712.10
210.54	1818.60
210.76	1660.90
210.98	1691.62
211.20	1621.99
211.42	1675.24
211.64	1732.58
211.86	1697.77
212.08	1699.81
212.30	1701.86
212.52	1681.38
212.74	1751.01
212.96	1791.97
213.17	1755.11
213.39	1746.92
213.61	1722.34
213.83	1771.49
214.05	1619.94
214.27	1796.07
214.49	1595.37
214.71	1748.97
214.93	1798.12
215.15	1634.28
215.37	1824.74
215.59	1691.62
215.81	1693.67
216.03	1796.07
216.24	1742.82
216.46	1699.81
216.68	1767.40
216.90	1687.53
217.12	1769.44
217.34	1669.09
217.56	1767.40
217.78	1796.07
218.00	1699.81
218.22	1714.15
218.44	1687.53
218.66	1732.58
218.87	1761.25
219.09	1689.57
219.31	1746.92
219.53	1732.58
219.75	1703.91
219.97	1677.29
220.19	1798.12
220.41	1695.72
220.63	1789.92
220.85	1705.96
221.06	1662.95
221.28	1769.44
221.50	1726.44
221.72	1753.06
221.94	1669.09
222.16	1714.15
222.38	1757.16
222.60	1742.82
222.82	1611.75
223.03	1687.53
223.25	1652.71
223.47	1771.49
223.69	1802.21
223.91	1669.09
224.13	1673.19
224.35	1683.43
224.57	1798.12
224.78	1757.16
225.00	1646.57
225.22	1601.51
225.44	1718.25
225.66	1757.16
225.88	1671.14
226.10	1755.11
226.32	1677.29
226.53	1787.88
226.75	1708.01
226.97	1619.94
227.19	1656.81
227.41	1599.46
227.63	1675.24
227.85	1619.94
228.06	1675.24
228.28	1665.00
228.50	1648.61
228.72	1603.56
228.94	1710.05
229.16	1556.46
229.37	1701.86
229.59	1681.38
229.81	1814.50
230.03	1703.91
230.25	1673.19
230.47	1673.19
230.69	1705.96
230.90	1779.68
231.12	1662.95
231.34	1736.68
231.56	1794.02
231.78	1667.05
232.00	1718.25
232.21	1730.53
232.43	1599.46
232.65	1544.17
232.87	1724.39
233.09	1656.81
233.30	1609.70
233.52	1708.01
233.74	1656.81
233.96	1628.14
234.18	1708.01
234.40	1701.86
234.61	1845.22
234.83	1636.33
235.05	1591.27
235.27	1845.22
235.49	1822.69
235.70	1755.11
235.92	1701.86
236.14	1759.21
236.36	1822.69
236.58	1642.47
236.79	1714.15
237.01	1697.77
237.23	1632.23
237.45	1781.73
237.67	1708.01
237.88	1736.68
238.10	1804.26
238.32	1638.38
238.54	1671.14
238.76	1718.25
238.97	1650.66
239.19	1728.49
239.41	1724.39
239.63	1738.73
239.85	1636.33
240.06	1744.87
240.28	1703.91
240.50	1730.53
240.72	1742.82
240.93	1685.48
241.15	1767.40
241.37	1755.11
241.59	1791.97
241.81	1779.68
242.02	1708.01
242.24	1722.34
242.46	1658.85
242.68	1646.57
242.89	1746.92
243.11	1763.30
243.33	1683.43
243.55	1734.63
243.76	1789.92
243.98	1699.81
244.20	1685.48
244.42	1718.25
244.64	1693.67
244.85	1628.14
245.07	1593.32
245.29	1720.29
245.51	1677.29
245.72	1724.39
245.94	1751.01
246.16	1679.33
246.38	1767.40
246.59	1626.09
246.81	1609.70
247.03	1730.53
247.24	1562.60
247.46	1667.05
247.68	1781.73
247.90	1677.29
248.11	1652.71
248.33	1734.63
248.55	1714.15
248.77	1720.29
248.98	1779.68
249.20	1828.84
249.42	1695.72
249.64	1697.77
249.85	1693.67
250.07	1712.10
250.29	1675.24
250.50	1822.69
250.72	1605.61
250.94	1683.43
251.16	1886.18
251.37	1771.49
251.59	1730.53
251.81	1693.67
252.02	1771.49
252.24	1679.33
252.46	1800.16
252.68	1681.38
252.89	1652.71
253.11	1591.27
253.33	1730.53
253.54	1738.73
253.76	1675.24
253.98	1712.10
254.20	1650.66
254.41	1621.99
254.63	1705.96
254.85	1642.47
255.06	1697.77
255.28	1718.25
255.50	1615.85
255.71	1665.00
255.93	1554.41
256.15	1681.38
256.36	1665.00
256.58	1699.81
256.80	1763.30
257.02	1679.33
257.23	1748.97
257.45	1675.24
257.67	1740.77
257.88	1695.72
258.10	1689.57
258.32	1636.33
258.53	1748.97
258.75	1755.11
258.97	1599.46
259.18	1710.05
259.40	1708.01
259.62	1751.01
259.83	1808.36
260.05	1789.92
260.27	1996.77
260.48	1769.44
260.70	1591.27
260.92	1693.67
261.13	1689.57
261.35	1718.25
261.57	1744.87
261.78	1540.07
262.00	1677.29
262.22	1734.63
262.43	1658.85
262.65	1681.38
262.86	1716.20
263.08	1894.37
263.30	1701.86
263.51	1677.29
263.73	1675.24
263.95	1748.97
264.16	1667.05
264.38	1619.94
264.60	1665.00
264.81	1724.39
265.03	1701.86
265.25	1812.45
265.46	1628.14
265.68	1763.30
265.89	1724.39
266.11	1726.44
266.33	1757.16
266.54	1748.97
266.76	1710.05
266.98	1671.14
267.19	1779.68
267.41	1720.29
267.62	1591.27
267.84	1644.52
268.06	1746.92
268.27	1687.53
268.49	1732.58
268.70	1736.68
268.92	1794.02
269.14	1665.00
269.35	1613.80
269.57	1728.49
269.79	1724.39
270.00	1710.05
270.22	1816.55
270.43	1624.04
270.65	1443.82
270.87	1708.01
271.08	1718.25
271.30	1765.35
271.51	1744.87
271.73	1689.57
271.95	1785.83
272.16	1695.72
272.38	1724.39
272.59	1751.01
272.81	1775.59
273.02	1726.44
273.24	1757.16
273.46	1783.78
273.67	1617.90
273.89	1656.81
274.10	1613.80
274.32	1746.92
274.54	1667.05
274.75	1705.96
274.97	1603.56
275.18	1810.40
275.40	1697.77
275.61	1697.77
275.83	1740.77
276.05	1646.57
276.26	1646.57
276.48	1658.85
276.69	1636.33
276.91	1621.99
277.12	1765.35
277.34	1675.24
277.55	1767.40
277.77	1773.54
277.99	1634.28
278.20	1726.44
278.42	1660.90
278.63	1619.94
278.85	1644.52
279.06	1597.42
279.28	1691.62
279.49	1638.38
279.71	1671.14
279.93	1738.73
280.14	1714.15
280.36	1681.38
280.57	1804.26
280.79	1796.07
281.00	1660.90
281.22	1640.42
281.43	1787.88
281.65	1564.65
281.86	1652.71
282.08	1714.15
282.29	1755.11
282.51	1624.04
282.73	1634.28
282.94	1624.04
283.16	1693.67
283.37	1806.31
283.59	1665.00
283.80	1630.18
284.02	1726.44
284.23	1677.29
284.45	1652.71
284.66	1669.09
284.88	1667.05
285.09	1726.44
285.31	1736.68
285.52	1769.44
285.74	1605.61
285.95	1748.97
286.17	1673.19
286.38	1730.53
286.60	1675.24
286.81	1648.61
287.03	1650.66
287.24	1689.57
287.46	1724.39
287.67	1734.63
287.89	1779.68
288.10	1742.82
288.32	1681.38
288.53	1705.96
288.75	1724.39
288.96	1728.49
289.18	1726.44
289.39	1728.49
289.61	1705.96
289.82	1773.54
290.04	1726.44
290.25	1624.04
290.47	1724.39
290.68	1775.59
290.90	1753.06
291.11	1681.38
291.33	1769.44
291.54	1650.66
291.76	1675.24
291.97	1665.00
292.18	1708.01
292.40	1765.35
292.61	1619.94
292.83	1800.16
293.04	1708.01
293.26	1605.61
293.47	1695.72
293.69	1662.95
293.90	1705.96
294.12	1769.44
294.33	1699.81
294.55	1697.77
294.76	1763.30
294.97	1744.87
295.19	1767.40
295.40	1665.00
295.62	1611.75
295.83	1738.73
296.05	1691.62
296.26	1748.97
296.48	1603.56
296.69	1646.57
296.90	1673.19
297.12	1701.86
297.33	1728.49
297.55	1669.09
297.76	1699.81
297.98	1812.45
298.19	1726.44
298.41	1716.20
298.62	1630.18
298.83	1757.16
299.05	1693.67
299.26	1701.86
299.48	1665.00
299.69	1775.59
299.90	1656.81
300.12	1671.14
300.33	1757.16
300.55	1695.72
300.76	1701.86
300.98	1603.56
301.19	1746.92
301.40	1677.29
301.62	1718.25
301.83	1716.20
302.05	1697.77
302.26	1757.16
302.47	1693.67
302.69	1652.71
302.90	1699.81
303.12	1599.46
303.33	1699.81
303.54	1763.30
303.76	1587.18
303.97	1722.34
304.19	1751.01
304.40	1597.42
304.61	1628.14
304.83	1816.55
305.04	1751.01
305.26	1851.36
305.47	1648.61
305.68	1675.24
305.90	1685.48
306.11	1814.50
306.33	1697.77
306.54	1654.76
306.75	1630.18
306.97	1640.42
307.18	1619.94
307.39	1703.91
307.61	1724.39
307.82	1683.43
308.04	1730.53
308.25	1591.27
308.46	1685.48
308.68	1718.25
308.89	1716.20
309.10	1730.53
309.32	1738.73
309.53	1742.82
309.74	1681.38
309.96	1632.23
310.17	1779.68
310.39	1669.09
310.60	1685.48
310.81	1701.86
311.03	1685.48
311.24	1751.01
311.45	1736.68
311.67	1802.21
311.88	1736.68
312.09	1726.44
312.31	1652.71
312.52	1679.33
312.73	1710.05
312.95	1660.90
313.16	1679.33
313.37	1755.11
313.59	1697.77
313.80	1746.92
314.01	1726.44
314.23	1667.05
314.44	1716.20
314.65	1595.37
314.87	1648.61
315.08	1642.47
315.29	1640.42
315.51	1560.55
315.72	1630.18
315.93	1767.40
316.15	1773.54
316.36	1640.42
316.57	1597.42
316.79	1751.01
317.00	1644.52
317.21	1693.67
317.43	1652.71
317.64	1718.25
317.85	1691.62
318.07	1669.09
318.28	1783.78
318.49	1783.78
318.70	1953.76
318.92	1791.97
319.13	1714.15
319.34	1914.85
319.56	1779.68
319.77	1769.44
319.98	1812.45
320.20	1730.53
320.41	1746.92
320.62	1724.39
320.83	1593.32
321.05	1847.27
321.26	1714.15
321.47	1726.44
321.69	1718.25
321.90	1609.70
322.11	1621.99
322.32	1650.66
322.54	1789.92
322.75	1687.53
322.96	1886.18
323.18	1607.66
323.39	1601.51
323.60	1597.42
323.81	1712.10
324.03	1619.94
324.24	1738.73
324.45	1734.63
324.66	1675.24
324.88	1677.29
325.09	1765.35
325.30	1650.66
325.52	1744.87
325.73	1765.35
325.94	1689.57
326.15	1716.20
326.37	1601.51
326.58	1759.21
326.79	1722.34
327.00	1656.81
327.22	1665.00
327.43	1681.38
327.64	1632.23
327.85	1775.59
328.07	1611.75
328.28	1822.69
328.49	1685.48
328.70	1669.09
328.92	1730.53
329.13	1765.35
329.34	1773.54
329.55	1822.69
329.76	1701.86
329.98	1728.49
330.19	1806.31
330.40	1646.57
330.61	1724.39
330.83	1681.38
331.04	1677.29
331.25	1726.44
331.46	1703.91
331.68	1617.90
331.89	1769.44
332.10	1658.85
332.31	1714.15
332.52	1675.24
332.74	1724.39
332.95	1624.04
333.16	1759.21
333.37	1779.68
333.58	1644.52
333.80	1746.92
334.01	1648.61
334.22	1658.85
334.43	1650.66
334.64	1601.51
334.86	1619.94
335.07	1691.62
335.28	1763.30
335.49	1628.14
335.70	1728.49
335.92	1742.82
336.13	1834.98
336.34	1740.77
336.55	1755.11
336.76	1669.09
336.98	1671.14
337.19	1697.77
337.40	1810.40
337.61	1777.64
337.82	1683.43
338.04	1806.31
338.25	1615.85
338.46	1681.38
338.67	1628.14
338.88	1632.23
339.09	1712.10
339.31	1619.94
339.52	1626.09
339.73	1708.01
339.94	1681.38
340.15	1775.59
340.36	1665.00
340.58	1742.82
340.79	1656.81
341.00	1693.67
341.21	1705.96
341.42	1810.40
341.63	1712.10
341.85	1800.16
342.06	1732.58
342.27	1746.92
342.48	1751.01
342.69	1646.57
342.90	1816.55
343.12	1730.53
343.33	1685.48
343.54	1728.49
343.75	1765.35
343.96	1634.28
344.17	1683.43
344.38	1716.20
344.60	1675.24
344.81	1640.42
345.02	1624.04
345.23	1671.14
345.44	1779.68
345.65	1757.16
345.86	1642.47
346.07	1644.52
346.29	1712.10
346.50	1691.62
346.71	1759.21
346.92	1796.07
347.13	1804.26
347.34	1699.81
347.55	1662.95
347.76	1695.72
347.98	1615.85
348.19	1691.62
348.40	1802.21
348.61	1646.57
348.82	1755.11
349.03	1785.83
349.24	1650.66
349.45	1730.53
349.66	1617.90
349.88	1662.95
350.09	1665.00
350.30	1824.74
350.51	1877.99
350.72	1773.54
350.93	1701.86
351.14	1726.44
351.35	1746.92
351.56	1718.25
351.77	1667.05
351.99	1722.34
352.20	1863.65
352.41	1705.96
352.62	1611.75
352.83	1699.81
353.04	1681.38
353.25	1601.51
353.46	1753.06
353.67	1812.45
353.88	1609.70
354.09	1738.73
354.30	1685.48
354.52	1710.05
354.73	1640.42
354.94	1595.37
355.15	1722.34
355.36	1863.65
355.57	1746.92
355.78	1767.40
355.99	1601.51
356.20	1787.88
356.41	1806.31
356.62	1705.96
356.83	1775.59
357.04	1769.44
357.25	1619.94
357.46	1699.81
357.68	1613.80
357.89	1671.14
358.10	1771.49
358.31	1691.62
358.52	1648.61
358.73	1685.48
358.94	1609.70
359.15	1689.57
359.36	1701.86
359.57	1675.24
359.78	1701.86
359.99	1744.87
360.20	1691.62
360.41	1693.67
360.62	1650.66
360.83	1658.85
361.04	1636.33
361.25	1687.53
361.46	1769.44
361.67	1734.63
361.88	1714.15
362.09	1726.44
362.30	1720.29
362.51	1656.81
362.72	1732.58
362.93	1775.59
363.14	1742.82
363.35	1679.33
363.56	1693.67
363.78	1714.15
363.99	1724.39
364.20	1693.67
364.41	1691.62
364.62	1798.12
364.83	1716.20
365.04	1585.13
365.25	1697.77
365.46	1796.07
365.67	1665.00
365.88	1652.71
366.09	1701.86
366.30	1734.63
366.51	1671.14
366.72	1644.52
366.93	1642.47
367.14	1722.34
367.35	1826.79
367.56	1732.58
367.77	1785.83
367.98	1730.53
368.18	1654.76
368.39	1699.81
368.60	1589.22
368.81	1773.54
369.02	1722.34
369.23	1681.38
369.44	1675.24
369.65	1697.77
369.86	1710.05
370.07	1789.92
370.28	1646.57
370.49	1755.11
370.70	1699.81
370.91	1591.27
371.12	1619.94
371.33	1796.07
371.54	1705.96
371.75	1791.97
371.96	1619.94
372.17	1630.18
372.38	1697.77
372.59	1757.16
372.80	1607.66
373.01	1708.01
373.22	1718.25
373.43	1644.52
373.64	1693.67
373.85	1689.57
374.06	1767.40
374.26	1771.49
374.47	1732.58
374.68	1787.88
374.89	1765.35
375.10	1691.62
375.31	1738.73
375.52	1753.06
375.73	1785.83
375.94	1662.95
376.15	1810.40
376.36	1646.57
376.57	1730.53
376.78	1667.05
376.99	1794.02
377.20	1769.44
377.40	1730.53
377.61	1824.74
377.82	1665.00
378.03	1773.54
378.24	1730.53
378.45	1714.15
378.66	1738.73
378.87	1636.33
379.08	1662.95
379.29	1689.57
379.50	1736.68
379.71	1697.77
379.91	1726.44
380.12	1619.94
380.33	1714.15
380.54	1744.87
380.75	1687.53
380.96	1673.19
381.17	1765.35
381.38	1669.09
381.59	1675.24
381.80	1660.90
382.00	1853.41
382.21	1777.64
382.42	1800.16
382.63	1863.65
382.84	1845.22
383.05	1812.45
383.26	1662.95
383.47	1748.97
383.68	1785.83
383.88	1658.85
384.09	1669.09
384.30	1855.46
384.51	1718.25
384.72	1714.15
384.93	1693.67
385.14	1689.57
385.35	1726.44
385.55	1677.29
385.76	1685.48
385.97	1722.34
386.18	1626.09
386.39	1677.29
386.60	1667.05
386.81	1705.96
387.02	1681.38
387.22	1689.57
387.43	1849.32
387.64	1769.44
387.85	1923.04
388.06	2252.77
388.27	4310.97
388.48	6786.97
388.68	8169.35
388.89	9453.42
389.10	9768.81
389.31	8519.55
389.52	7579.53
389.73	6555.55
389.93	6178.72
390.14	5832.62
390.35	5164.98
390.56	4587.45
390.77	3737.54
390.98	2955.22
391.18	2572.25
391.39	2113.50
391.60	1929.19
391.81	1853.41
392.02	1679.33
392.23	1894.37
392.43	1710.05
392.64	1837.03
392.85	1738.73
393.06	1767.40
393.27	1779.68
393.47	1685.48
393.68	1718.25
393.89	1677.29
394.10	1718.25
394.31	1638.38
394.52	1634.28
394.72	1697.77
394.93	1783.78
395.14	1640.42
395.35	1740.77
395.56	1669.09
395.76	1730.53
395.97	1763.30
396.18	1724.39
396.39	1834.98
396.60	2027.49
396.80	1943.52
397.01	1744.87
397.22	1896.42
397.43	1785.83
397.64	1705.96
397.84	1826.79
398.05	1796.07
398.26	1673.19
398.47	1695.72
398.67	1746.92
398.88	1683.43
399.09	1691.62
399.30	1650.66
399.51	1796.07
399.71	1673.19
399.92	1722.34
400.13	1755.11
400.34	1742.82
400.54	1658.85
400.75	1841.12
400.96	1751.01
401.17	1806.31
401.37	1734.63
401.58	1646.57
401.79	1691.62
402.00	1851.36
402.21	2041.82
402.41	1943.52
402.62	2058.21
402.83	2027.49
403.04	1988.58
403.24	2115.55
403.45	1918.95
403.66	1947.62
403.87	1773.54
404.07	1929.19
404.28	1898.47
404.49	1773.54
404.70	1710.05
404.90	1740.77
405.11	1798.12
405.32	1630.18
405.52	1587.18
405.73	1669.09
405.94	1722.34
406.15	1728.49
406.35	1755.11
406.56	1765.35
406.77	1710.05
406.98	1699.81
407.18	1632.23
407.39	1748.97
407.60	1621.99
407.80	1804.26
408.01	1697.77
408.22	1697.77
408.43	1677.29
408.63	1765.35
408.84	1812.45
409.05	1689.57
409.25	1603.56
409.46	1687.53
409.67	1587.18
409.88	1687.53
410.08	1779.68
410.29	1710.05
410.50	1746.92
410.70	1742.82
410.91	1665.00
411.12	1732.58
411.32	1736.68
411.53	1644.52
411.74	1800.16
411.95	1751.01
412.15	1693.67
412.36	1732.58
412.57	1806.31
412.77	1789.92
412.98	1710.05
413.19	1683.43
413.39	1740.77
413.60	1751.01
413.81	1738.73
414.01	1607.66
414.22	1726.44
414.43	1685.48
414.63	1652.71
414.84	1753.06
415.05	1730.53
415.25	1587.18
415.46	1767.40
415.67	1544.17
415.87	1734.63
416.08	1730.53
416.29	1675.24
416.49	1738.73
416.70	1685.48
416.91	1730.53
417.11	1679.33
417.32	1837.03
417.53	1765.35
417.73	1720.29
417.94	1708.01
418.15	1710.05
418.35	1693.67
418.56	1730.53
418.77	1943.52
418.97	1769.44
419.18	1730.53
419.38	1654.76
419.59	1669.09
419.80	1783.78
420.00	1617.90
420.21	1687.53
420.42	1804.26
420.62	1683.43
420.83	1730.53
421.04	1740.77
421.24	1701.86
421.45	1738.73
421.65	1759.21
421.86	1677.29
422.07	1763.30
422.27	1738.73
422.48	1728.49
422.69	1669.09
422.89	1605.61
423.10	1621.99
423.30	1591.27
423.51	1646.57
423.72	1697.77
423.92	1755.11
424.13	1662.95
424.33	1736.68
424.54	1730.53
424.75	1712.10
424.95	1705.96
425.16	1759.21
425.36	1703.91
425.57	1748.97
425.78	1742.82
425.98	1800.16
426.19	1728.49
426.39	1681.38
426.60	1650.66
426.81	1787.88
427.01	1689.57
427.22	1630.18
427.42	1544.17
427.63	1574.89
427.83	1710.05
428.04	1849.32
428.25	1665.00
428.45	1818.60
428.66	1763.30
428.86	1738.73
429.07	1738.73
429.28	1695.72
429.48	1595.37
429.69	1669.09
429.89	1703.91
430.10	1669.09
430.30	1626.09
430.51	1730.53
430.71	1607.66
430.92	1673.19
431.13	1669.09
431.33	1796.07
431.54	1726.44
431.74	1804.26
431.95	1869.80
432.15	1626.09
432.36	1736.68
432.56	1757.16
432.77	1755.11
432.98	1812.45
433.18	1722.34
433.39	1667.05
433.59	1673.19
433.80	1740.77
434.00	1810.40
434.21	1630.18
434.41	1722.34
434.62	1884.13
434.82	1677.29
435.03	1703.91
435.23	1726.44
435.44	1628.14
435.64	1605.61
435.85	1703.91
436.06	1830.88
436.26	1775.59
436.47	1734.63
436.67	1705.96
436.88	1671.14
437.08	1701.86
437.29	1783.78
437.49	1802.21
437.70	1798.12
437.90	1738.73
438.11	1777.64
438.31	1728.49
438.52	1871.84
438.72	1925.09
438.93	1927.14
439.13	1751.01
439.34	1812.45
439.54	1808.36
439.75	1755.11
439.95	1787.88
440.16	1654.76
440.36	1826.79
440.57	1769.44
440.77	1683.43
440.98	1822.69
441.18	1789.92
441.39	1632.23
441.59	1738.73
441.80	1910.75
442.00	1744.87
442.21	1824.74
442.41	1626.09
442.62	1761.25
442.82	1603.56
443.02	1757.16
443.23	1738.73
443.43	1710.05
443.64	1773.54
443.84	1683.43
444.05	1816.55
444.25	1714.15
444.46	1753.06
444.66	1691.62
444.87	1779.68
445.07	1568.74
445.28	1718.25
445.48	1800.16
445.69	1761.25
445.89	1877.99
446.09	1736.68
446.30	2021.35
446.50	2631.64
446.71	3667.91
446.91	4372.41
447.12	4749.24
447.32	4825.01
447.53	4276.16
447.73	3903.43
447.93	3438.54
448.14	3246.03
448.34	3170.26
448.55	2930.64
448.75	2766.81
448.96	2623.45
449.16	2281.44
449.36	2258.91
449.57	2045.92
449.77	1822.69
449.98	1781.73
450.18	1775.59
450.39	1796.07
450.59	1757.16
450.79	1734.63
451.00	1644.52
451.20	1841.12
451.41	1708.01
451.61	1771.49
451.81	1705.96
452.02	1697.77
452.22	1652.71
452.43	1681.38
452.63	1665.00
