SpectraSuite Data File
++++++++++++++++++++++++++++++++++++
Date: Mon Jun 06 13:41:17 CEST 2016
User: root
Dark Spectrum Present: No
Reference Spectrum Present: No
Number of Sampled Component Spectra: 1
Spectrometers: USB4C02835
Integration Time (usec): 100000 (USB4C02835)
Spectra Averaged: 1 (USB4C02835)
Boxcar Smoothing: 0 (USB4C02835)
Correct for Electrical Dark: No (USB4C02835)
Strobe/Lamp Enabled: No (USB4C02835)
Correct for Detector Non-linearity: No (USB4C02835)
Correct for Stray Light: No (USB4C02835)
Number of Pixels in Processed Spectrum: 3648
>>>>>Begin Processed Spectral Data<<<<<
177.47	1503.21
177.69	1503.21
177.91	1503.21
178.13	1447.91
178.36	1460.20
178.58	1732.58
178.80	1816.55
179.02	1613.80
179.24	1617.90
179.46	1732.58
179.68	1732.58
179.90	1699.81
180.13	1677.29
180.35	1699.81
180.57	1677.29
180.79	1718.25
181.01	1726.44
181.23	1794.02
181.45	1783.78
181.67	1662.95
181.90	1667.05
182.12	1626.09
182.34	1599.46
182.56	1738.73
182.78	1681.38
183.00	1705.96
183.22	1679.33
183.44	1605.61
183.66	1812.45
183.89	1773.54
184.11	1693.67
184.33	1705.96
184.55	1781.73
184.77	1697.77
184.99	1726.44
185.21	1665.00
185.43	1783.78
185.65	1671.14
185.87	1644.52
186.10	1882.08
186.32	1837.03
186.54	1738.73
186.76	1755.11
186.98	1834.98
187.20	1705.96
187.42	1568.74
187.64	1701.86
187.86	1734.63
188.08	1732.58
188.30	1781.73
188.52	1667.05
188.75	1748.97
188.97	1724.39
189.19	1665.00
189.41	1703.91
189.63	1742.82
189.85	1632.23
190.07	1671.14
190.29	1617.90
190.51	1744.87
190.73	1613.80
190.95	1742.82
191.17	1667.05
191.39	1578.98
191.61	1740.77
191.84	1695.72
192.06	1787.88
192.28	1628.14
192.50	1961.95
192.72	1728.49
192.94	1710.05
193.16	1716.20
193.38	1673.19
193.60	1634.28
193.82	1677.29
194.04	1732.58
194.26	1699.81
194.48	1648.61
194.70	1658.85
194.92	1656.81
195.14	1708.01
195.36	1689.57
195.58	1724.39
195.80	1691.62
196.02	1634.28
196.24	1652.71
196.46	1761.25
196.69	1605.61
196.91	1773.54
197.13	1714.15
197.35	1632.23
197.57	1791.97
197.79	1714.15
198.01	1746.92
198.23	1716.20
198.45	1771.49
198.67	1673.19
198.89	1697.77
199.11	1757.16
199.33	1654.76
199.55	1626.09
199.77	1607.66
199.99	1830.88
200.21	1628.14
200.43	1771.49
200.65	1611.75
200.87	1581.03
201.09	1679.33
201.31	1716.20
201.53	1761.25
201.75	1669.09
201.97	1757.16
202.19	1744.87
202.41	1701.86
202.63	1804.26
202.85	1662.95
203.07	1679.33
203.29	1701.86
203.51	1726.44
203.73	1705.96
203.95	1830.88
204.17	1724.39
204.39	1742.82
204.61	1699.81
204.83	1603.56
205.05	1720.29
205.27	1730.53
205.49	1875.94
205.71	1644.52
205.93	1624.04
206.15	1572.84
206.37	1718.25
206.59	1656.81
206.81	1644.52
207.03	1640.42
207.25	1611.75
207.47	1757.16
207.69	1712.10
207.91	1794.02
208.13	1759.21
208.34	1683.43
208.56	1652.71
208.78	1765.35
209.00	1667.05
209.22	1722.34
209.44	1748.97
209.66	1603.56
209.88	1740.77
210.10	1677.29
210.32	1697.77
210.54	1701.86
210.76	1665.00
210.98	1730.53
211.20	1669.09
211.42	1667.05
211.64	1701.86
211.86	1683.43
212.08	1697.77
212.30	1701.86
212.52	1689.57
212.74	1681.38
212.96	1736.68
213.17	1687.53
213.39	1751.01
213.61	1755.11
213.83	1656.81
214.05	1630.18
214.27	1787.88
214.49	1615.85
214.71	1697.77
214.93	1796.07
215.15	1683.43
215.37	1751.01
215.59	1595.37
215.81	1736.68
216.03	1724.39
216.24	1734.63
216.46	1681.38
216.68	1697.77
216.90	1732.58
217.12	1751.01
217.34	1613.80
217.56	1703.91
217.78	1740.77
218.00	1658.85
218.22	1728.49
218.44	1730.53
218.66	1656.81
218.87	1798.12
219.09	1691.62
219.31	1742.82
219.53	1701.86
219.75	1722.34
219.97	1624.04
220.19	1787.88
220.41	1628.14
220.63	1757.16
220.85	1673.19
221.06	1656.81
221.28	1834.98
221.50	1751.01
221.72	1724.39
221.94	1773.54
222.16	1777.64
222.38	1808.36
222.60	1736.68
222.82	1746.92
223.03	1775.59
223.25	1591.27
223.47	1740.77
223.69	1849.32
223.91	1691.62
224.13	1691.62
224.35	1687.53
224.57	1697.77
224.78	1697.77
225.00	1660.90
225.22	1740.77
225.44	1615.85
225.66	1710.05
225.88	1630.18
226.10	1746.92
226.32	1765.35
226.53	1816.55
226.75	1601.51
226.97	1693.67
227.19	1689.57
227.41	1693.67
227.63	1675.24
227.85	1601.51
228.06	1656.81
228.28	1701.86
228.50	1673.19
228.72	1554.41
228.94	1619.94
229.16	1607.66
229.37	1658.85
229.59	1677.29
229.81	1783.78
230.03	1697.77
230.25	1621.99
230.47	1671.14
230.69	1638.38
230.90	1791.97
231.12	1681.38
231.34	1621.99
231.56	1744.87
231.78	1636.33
232.00	1638.38
232.21	1691.62
232.43	1746.92
232.65	1632.23
232.87	1759.21
233.09	1677.29
233.30	1669.09
233.52	1701.86
233.74	1712.10
233.96	1677.29
234.18	1701.86
234.40	1679.33
234.61	1791.97
234.83	1660.90
235.05	1656.81
235.27	1822.69
235.49	1765.35
235.70	1775.59
235.92	1781.73
236.14	1677.29
236.36	1820.64
236.58	1617.90
236.79	1767.40
237.01	1697.77
237.23	1718.25
237.45	1791.97
237.67	1681.38
237.88	1693.67
238.10	1802.21
238.32	1619.94
238.54	1738.73
238.76	1683.43
238.97	1705.96
239.19	1658.85
239.41	1730.53
239.63	1767.40
239.85	1708.01
240.06	1652.71
240.28	1652.71
240.50	1751.01
240.72	1718.25
240.93	1746.92
241.15	1757.16
241.37	1650.66
241.59	1800.16
241.81	1652.71
242.02	1677.29
242.24	1689.57
242.46	1634.28
242.68	1648.61
242.89	1720.29
243.11	1751.01
243.33	1683.43
243.55	1703.91
243.76	1628.14
243.98	1550.31
244.20	1732.58
244.42	1675.24
244.64	1665.00
244.85	1652.71
245.07	1693.67
245.29	1773.54
245.51	1742.82
245.72	1714.15
245.94	1800.16
246.16	1722.34
246.38	1742.82
246.59	1673.19
246.81	1691.62
247.03	1673.19
247.24	1624.04
247.46	1693.67
247.68	1650.66
247.90	1681.38
248.11	1708.01
248.33	1662.95
248.55	1796.07
248.77	1693.67
248.98	1783.78
249.20	1802.21
249.42	1679.33
249.64	1744.87
249.85	1681.38
250.07	1744.87
250.29	1699.81
250.50	1740.77
250.72	1699.81
250.94	1681.38
251.16	1828.84
251.37	1755.11
251.59	1730.53
251.81	1724.39
252.02	1789.92
252.24	1636.33
252.46	1650.66
252.68	1665.00
252.89	1628.14
253.11	1595.37
253.33	1787.88
253.54	1800.16
253.76	1662.95
253.98	1683.43
254.20	1675.24
254.41	1656.81
254.63	1658.85
254.85	1593.32
255.06	1662.95
255.28	1767.40
255.50	1710.05
255.71	1703.91
255.93	1630.18
256.15	1685.48
256.36	1685.48
256.58	1726.44
256.80	1765.35
257.02	1730.53
257.23	1685.48
257.45	1660.90
257.67	1763.30
257.88	1683.43
258.10	1755.11
258.32	1742.82
258.53	1726.44
258.75	1853.41
258.97	1665.00
259.18	1714.15
259.40	1689.57
259.62	1832.93
259.83	1775.59
260.05	1798.12
260.27	1935.33
260.48	1742.82
260.70	1585.13
260.92	1728.49
261.13	1804.26
261.35	1802.21
261.57	1695.72
261.78	1683.43
262.00	1658.85
262.22	1763.30
262.43	1648.61
262.65	1626.09
262.86	1744.87
263.08	1783.78
263.30	1681.38
263.51	1654.76
263.73	1716.20
263.95	1718.25
264.16	1652.71
264.38	1720.29
264.60	1787.88
264.81	1708.01
265.03	1724.39
265.25	1724.39
265.46	1708.01
265.68	1810.40
265.89	1736.68
266.11	1683.43
266.33	1710.05
266.54	1798.12
266.76	1804.26
266.98	1732.58
267.19	1822.69
267.41	1734.63
267.62	1736.68
267.84	1632.23
268.06	1695.72
268.27	1685.48
268.49	1769.44
268.70	1714.15
268.92	1763.30
269.14	1677.29
269.35	1615.85
269.57	1705.96
269.79	1714.15
270.00	1658.85
270.22	1755.11
270.43	1642.47
270.65	1662.95
270.87	1712.10
271.08	1710.05
271.30	1656.81
271.51	1673.19
271.73	1738.73
271.95	1771.49
272.16	1751.01
272.38	1708.01
272.59	1734.63
272.81	1683.43
273.02	1691.62
273.24	1699.81
273.46	1789.92
273.67	1671.14
273.89	1673.19
274.10	1744.87
274.32	1839.08
274.54	1669.09
274.75	1652.71
274.97	1736.68
275.18	1781.73
275.40	1712.10
275.61	1681.38
275.83	1650.66
276.05	1578.98
276.26	1671.14
276.48	1822.69
276.69	1658.85
276.91	1665.00
277.12	1765.35
277.34	1695.72
277.55	1765.35
277.77	1679.33
277.99	1628.14
278.20	1689.57
278.42	1718.25
278.63	1689.57
278.85	1675.24
279.06	1650.66
279.28	1789.92
279.49	1697.77
279.71	1765.35
279.93	1691.62
280.14	1763.30
280.36	1658.85
280.57	1714.15
280.79	1742.82
281.00	1640.42
281.22	1665.00
281.43	1751.01
281.65	1597.42
281.86	1687.53
282.08	1718.25
282.29	1800.16
282.51	1621.99
282.73	1611.75
282.94	1669.09
283.16	1724.39
283.37	1812.45
283.59	1697.77
283.80	1740.77
284.02	1742.82
284.23	1716.20
284.45	1607.66
284.66	1683.43
284.88	1675.24
285.09	1746.92
285.31	1744.87
285.52	1693.67
285.74	1572.84
285.95	1714.15
286.17	1763.30
286.38	1644.52
286.60	1615.85
286.81	1638.38
287.03	1677.29
287.24	1640.42
287.46	1734.63
287.67	1669.09
287.89	1882.08
288.10	1716.20
288.32	1722.34
288.53	1806.31
288.75	1636.33
288.96	1730.53
289.18	1734.63
289.39	1671.14
289.61	1732.58
289.82	1826.79
290.04	1787.88
290.25	1652.71
290.47	1658.85
290.68	1693.67
290.90	1693.67
291.11	1679.33
291.33	1716.20
291.54	1669.09
291.76	1630.18
291.97	1679.33
292.18	1734.63
292.40	1615.85
292.61	1718.25
292.83	1814.50
293.04	1763.30
293.26	1769.44
293.47	1736.68
293.69	1652.71
293.90	1689.57
294.12	1710.05
294.33	1714.15
294.55	1740.77
294.76	1763.30
294.97	1730.53
295.19	1777.64
295.40	1652.71
295.62	1617.90
295.83	1732.58
296.05	1658.85
296.26	1757.16
296.48	1650.66
296.69	1738.73
296.90	1701.86
297.12	1744.87
297.33	1746.92
297.55	1671.14
297.76	1701.86
297.98	1759.21
298.19	1742.82
298.41	1726.44
298.62	1697.77
298.83	1875.94
299.05	1675.24
299.26	1652.71
299.48	1718.25
299.69	1726.44
299.90	1757.16
300.12	1662.95
300.33	1748.97
300.55	1742.82
300.76	1708.01
300.98	1695.72
301.19	1701.86
301.40	1685.48
301.62	1718.25
301.83	1746.92
302.05	1671.14
302.26	1722.34
302.47	1636.33
302.69	1583.08
302.90	1644.52
303.12	1566.70
303.33	1781.73
303.54	1738.73
303.76	1681.38
303.97	1697.77
304.19	1787.88
304.40	1648.61
304.61	1679.33
304.83	1847.27
305.04	1728.49
305.26	1675.24
305.47	1671.14
305.68	1679.33
305.90	1628.14
306.11	1791.97
306.33	1746.92
306.54	1724.39
306.75	1644.52
306.97	1617.90
307.18	1744.87
307.39	1699.81
307.61	1787.88
307.82	1652.71
308.04	1656.81
308.25	1705.96
308.46	1695.72
308.68	1746.92
308.89	1726.44
309.10	1710.05
309.32	1732.58
309.53	1732.58
309.74	1710.05
309.96	1626.09
310.17	1759.21
310.39	1646.57
310.60	1732.58
310.81	1646.57
311.03	1632.23
311.24	1755.11
311.45	1726.44
311.67	1718.25
311.88	1679.33
312.09	1628.14
312.31	1638.38
312.52	1728.49
312.73	1755.11
312.95	1624.04
313.16	1621.99
313.37	1744.87
313.59	1726.44
313.80	1656.81
314.01	1753.06
314.23	1673.19
314.44	1667.05
314.65	1673.19
314.87	1734.63
315.08	1619.94
315.29	1640.42
315.51	1652.71
315.72	1632.23
315.93	1722.34
316.15	1732.58
316.36	1675.24
316.57	1701.86
316.79	1822.69
317.00	1599.46
317.21	1730.53
317.43	1642.47
317.64	1681.38
317.85	1767.40
318.07	1624.04
318.28	1746.92
318.49	1796.07
318.70	1890.28
318.92	1734.63
319.13	1771.49
319.34	1898.47
319.56	1738.73
319.77	1804.26
319.98	1693.67
320.20	1738.73
320.41	1722.34
320.62	1861.60
320.83	1646.57
321.05	1847.27
321.26	1703.91
321.47	1755.11
321.69	1791.97
321.90	1689.57
322.11	1683.43
322.32	1667.05
322.54	1767.40
322.75	1697.77
322.96	1796.07
323.18	1572.84
323.39	1589.22
323.60	1613.80
323.81	1753.06
324.03	1648.61
324.24	1699.81
324.45	1658.85
324.66	1722.34
324.88	1740.77
325.09	1748.97
325.30	1710.05
325.52	1708.01
325.73	1689.57
325.94	1658.85
326.15	1652.71
326.37	1669.09
326.58	1654.76
326.79	1742.82
327.00	1560.55
327.22	1767.40
327.43	1703.91
327.64	1712.10
327.85	1697.77
328.07	1669.09
328.28	1808.36
328.49	1630.18
328.70	1734.63
328.92	1669.09
329.13	1675.24
329.34	1740.77
329.55	1837.03
329.76	1779.68
329.98	1705.96
330.19	1771.49
330.40	1740.77
330.61	1787.88
330.83	1693.67
331.04	1626.09
331.25	1705.96
331.46	1726.44
331.68	1669.09
331.89	1724.39
332.10	1658.85
332.31	1568.74
332.52	1722.34
332.74	1748.97
332.95	1542.12
333.16	1681.38
333.37	1740.77
333.58	1732.58
333.80	1726.44
334.01	1652.71
334.22	1642.47
334.43	1726.44
334.64	1734.63
334.86	1624.04
335.07	1634.28
335.28	1804.26
335.49	1615.85
335.70	1779.68
335.92	1761.25
336.13	1761.25
336.34	1640.42
336.55	1714.15
336.76	1732.58
336.98	1673.19
337.19	1722.34
337.40	1824.74
337.61	1865.70
337.82	1662.95
338.04	1759.21
338.25	1576.94
338.46	1720.29
338.67	1734.63
338.88	1642.47
339.09	1624.04
339.31	1562.60
339.52	1667.05
339.73	1603.56
339.94	1689.57
340.15	1650.66
340.36	1656.81
340.58	1697.77
340.79	1613.80
341.00	1781.73
341.21	1648.61
341.42	1857.51
341.63	1728.49
341.85	1757.16
342.06	1712.10
342.27	1660.90
342.48	1734.63
342.69	1689.57
342.90	1701.86
343.12	1691.62
343.33	1673.19
343.54	1683.43
343.75	1787.88
343.96	1710.05
344.17	1652.71
344.38	1681.38
344.60	1714.15
344.81	1677.29
345.02	1708.01
345.23	1726.44
345.44	1759.21
345.65	1732.58
345.86	1701.86
346.07	1630.18
346.29	1609.70
346.50	1697.77
346.71	1732.58
346.92	1789.92
347.13	1820.64
347.34	1708.01
347.55	1755.11
347.76	1681.38
347.98	1677.29
348.19	1685.48
348.40	1730.53
348.61	1626.09
348.82	1765.35
349.03	1658.85
349.24	1617.90
349.45	1775.59
349.66	1591.27
349.88	1730.53
350.09	1613.80
350.30	1804.26
350.51	1712.10
350.72	1689.57
350.93	1726.44
351.14	1703.91
351.35	1757.16
351.56	1658.85
351.77	1669.09
351.99	1722.34
352.20	1751.01
352.41	1736.68
352.62	1673.19
352.83	1701.86
353.04	1662.95
353.25	1736.68
353.46	1779.68
353.67	1814.50
353.88	1603.56
354.09	1781.73
354.30	1746.92
354.52	1716.20
354.73	1710.05
354.94	1667.05
355.15	1716.20
355.36	1710.05
355.57	1730.53
355.78	1705.96
355.99	1734.63
356.20	1648.61
356.41	1796.07
356.62	1740.77
356.83	1730.53
357.04	1787.88
357.25	1662.95
357.46	1621.99
357.68	1675.24
357.89	1615.85
358.10	1652.71
358.31	1701.86
358.52	1683.43
358.73	1607.66
358.94	1679.33
359.15	1644.52
359.36	1740.77
359.57	1621.99
359.78	1658.85
359.99	1652.71
360.20	1624.04
360.41	1722.34
360.62	1753.06
360.83	1675.24
361.04	1705.96
361.25	1728.49
361.46	1841.12
361.67	1742.82
361.88	1744.87
362.09	1759.21
362.30	1736.68
362.51	1662.95
362.72	1701.86
362.93	1656.81
363.14	1703.91
363.35	1681.38
363.56	1675.24
363.78	1734.63
363.99	1785.83
364.20	1746.92
364.41	1736.68
364.62	1851.36
364.83	1710.05
365.04	1671.14
365.25	1665.00
365.46	1869.80
365.67	1599.46
365.88	1587.18
366.09	1675.24
366.30	1652.71
366.51	1724.39
366.72	1646.57
366.93	1701.86
367.14	1722.34
367.35	1796.07
367.56	1701.86
367.77	1804.26
367.98	1656.81
368.18	1705.96
368.39	1683.43
368.60	1667.05
368.81	1726.44
369.02	1701.86
369.23	1687.53
369.44	1578.98
369.65	1671.14
369.86	1744.87
370.07	1742.82
370.28	1648.61
370.49	1718.25
370.70	1708.01
370.91	1703.91
371.12	1607.66
371.33	1783.78
371.54	1634.28
371.75	1828.84
371.96	1597.42
372.17	1718.25
372.38	1732.58
372.59	1710.05
372.80	1650.66
373.01	1681.38
373.22	1671.14
373.43	1755.11
373.64	1701.86
373.85	1781.73
374.06	1783.78
374.26	1730.53
374.47	1665.00
374.68	1734.63
374.89	1720.29
375.10	1634.28
375.31	1767.40
375.52	1716.20
375.73	1736.68
375.94	1648.61
376.15	1767.40
376.36	1689.57
376.57	1591.27
376.78	1658.85
376.99	1691.62
377.20	1705.96
377.40	1652.71
377.61	1765.35
377.82	1675.24
378.03	1738.73
378.24	1722.34
378.45	1718.25
378.66	1769.44
378.87	1667.05
379.08	1689.57
379.29	1685.48
379.50	1800.16
379.71	1648.61
379.91	1720.29
380.12	1693.67
380.33	1722.34
380.54	1687.53
380.75	1650.66
380.96	1681.38
381.17	1691.62
381.38	1669.09
381.59	1796.07
381.80	1642.47
382.00	1839.08
382.21	1705.96
382.42	1767.40
382.63	1927.14
382.84	1763.30
383.05	1822.69
383.26	1759.21
383.47	1695.72
383.68	1814.50
383.88	1636.33
384.09	1751.01
384.30	1753.06
384.51	1720.29
384.72	1646.57
384.93	1681.38
385.14	1693.67
385.35	1720.29
385.55	1607.66
385.76	1708.01
385.97	1724.39
386.18	1724.39
386.39	1646.57
386.60	1710.05
386.81	1716.20
387.02	1628.14
387.22	1591.27
387.43	1826.79
387.64	1734.63
387.85	1845.22
388.06	2293.72
388.27	4313.02
388.48	6709.15
388.68	8329.09
388.89	9555.82
389.10	9799.53
389.31	8587.13
389.52	7563.15
389.73	6571.93
389.93	6227.87
390.14	5838.76
390.35	5205.94
390.56	4448.19
390.77	3721.16
390.98	3004.37
391.18	2549.72
391.39	2119.65
391.60	1804.26
391.81	1834.98
392.02	1759.21
392.23	1861.60
392.43	1767.40
392.64	1812.45
392.85	1732.58
393.06	1867.75
393.27	1759.21
393.47	1658.85
393.68	1726.44
393.89	1687.53
394.10	1734.63
394.31	1640.42
394.52	1675.24
394.72	1730.53
394.93	1796.07
395.14	1595.37
395.35	1771.49
395.56	1738.73
395.76	1746.92
395.97	1757.16
396.18	1855.46
396.39	1820.64
396.60	2017.25
396.80	1875.94
397.01	1847.27
397.22	1761.25
397.43	1845.22
397.64	1783.78
397.84	1808.36
398.05	1890.28
398.26	1675.24
398.47	1826.79
398.67	1710.05
398.88	1699.81
399.09	1751.01
399.30	1617.90
399.51	1746.92
399.71	1669.09
399.92	1652.71
400.13	1691.62
400.34	1685.48
400.54	1714.15
400.75	1740.77
400.96	1718.25
401.17	1806.31
401.37	1722.34
401.58	1710.05
401.79	1642.47
402.00	1943.52
402.21	2033.63
402.41	1951.71
402.62	2019.30
402.83	2113.50
403.04	1927.14
403.24	2050.02
403.45	1898.47
403.66	1839.08
403.87	1849.32
404.07	1943.52
404.28	1906.66
404.49	1863.65
404.70	1710.05
404.90	1769.44
405.11	1701.86
405.32	1834.98
405.52	1755.11
405.73	1652.71
405.94	1615.85
406.15	1658.85
406.35	1755.11
406.56	1687.53
406.77	1648.61
406.98	1767.40
407.18	1630.18
407.39	1732.58
407.60	1681.38
407.80	1693.67
408.01	1695.72
408.22	1767.40
408.43	1705.96
408.63	1683.43
408.84	1761.25
409.05	1755.11
409.25	1624.04
409.46	1714.15
409.67	1626.09
409.88	1681.38
410.08	1705.96
410.29	1654.76
410.50	1720.29
410.70	1744.87
410.91	1701.86
411.12	1681.38
411.32	1716.20
411.53	1662.95
411.74	1834.98
411.95	1755.11
412.15	1701.86
412.36	1765.35
412.57	1740.77
412.77	1746.92
412.98	1658.85
413.19	1675.24
413.39	1712.10
413.60	1746.92
413.81	1724.39
414.01	1648.61
414.22	1730.53
414.43	1730.53
414.63	1701.86
414.84	1798.12
415.05	1720.29
415.25	1587.18
415.46	1687.53
415.67	1738.73
415.87	1785.83
416.08	1626.09
416.29	1619.94
416.49	1685.48
416.70	1671.14
416.91	1738.73
417.11	1675.24
417.32	1775.59
417.53	1755.11
417.73	1669.09
417.94	1699.81
418.15	1759.21
418.35	1738.73
418.56	1681.38
418.77	1800.16
418.97	1673.19
419.18	1638.38
419.38	1630.18
419.59	1691.62
419.80	1828.84
420.00	1689.57
420.21	1681.38
420.42	1779.68
420.62	1755.11
420.83	1636.33
421.04	1701.86
421.24	1632.23
421.45	1703.91
421.65	1763.30
421.86	1685.48
422.07	1679.33
422.27	1693.67
422.48	1695.72
422.69	1724.39
422.89	1722.34
423.10	1687.53
423.30	1660.90
423.51	1716.20
423.72	1705.96
423.92	1738.73
424.13	1576.94
424.33	1751.01
424.54	1751.01
424.75	1767.40
424.95	1732.58
425.16	1742.82
425.36	1697.77
425.57	1714.15
425.78	1703.91
425.98	1724.39
426.19	1730.53
426.39	1605.61
426.60	1742.82
426.81	1708.01
427.01	1746.92
427.22	1724.39
427.42	1626.09
427.63	1681.38
427.83	1714.15
428.04	1783.78
428.25	1701.86
428.45	1738.73
428.66	1748.97
428.86	1652.71
429.07	1587.18
429.28	1654.76
429.48	1710.05
429.69	1648.61
429.89	1769.44
430.10	1658.85
430.30	1775.59
430.51	1730.53
430.71	1693.67
430.92	1683.43
431.13	1665.00
431.33	1751.01
431.54	1599.46
431.74	1769.44
431.95	1832.93
432.15	1695.72
432.36	1640.42
432.56	1720.29
432.77	1740.77
432.98	1853.41
433.18	1658.85
433.39	1701.86
433.59	1714.15
433.80	1828.84
434.00	1810.40
434.21	1718.25
434.41	1638.38
434.62	1843.17
434.82	1718.25
435.03	1654.76
435.23	1777.64
435.44	1673.19
435.64	1626.09
435.85	1701.86
436.06	1728.49
436.26	1695.72
436.47	1767.40
436.67	1697.77
436.88	1685.48
437.08	1767.40
437.29	1765.35
437.49	1802.21
437.70	1722.34
437.90	1746.92
438.11	1800.16
438.31	1832.93
438.52	1849.32
438.72	1884.13
438.93	1904.61
439.13	1718.25
439.34	1841.12
439.54	1708.01
439.75	1845.22
439.95	1771.49
440.16	1712.10
440.36	1673.19
440.57	1716.20
440.77	1695.72
440.98	1722.34
441.18	1775.59
441.39	1660.90
441.59	1683.43
441.80	1804.26
442.00	1746.92
442.21	1810.40
442.41	1613.80
442.62	1730.53
442.82	1732.58
443.02	1720.29
443.23	1810.40
443.43	1689.57
443.64	1800.16
443.84	1671.14
444.05	1789.92
444.25	1761.25
444.46	1771.49
444.66	1746.92
444.87	1820.64
445.07	1656.81
445.28	1753.06
445.48	1798.12
445.69	1800.16
445.89	1849.32
446.09	1787.88
446.30	2002.91
446.50	2691.03
446.71	3758.02
446.91	4310.97
447.12	4788.15
447.32	4872.12
447.53	4345.79
447.73	3925.96
447.93	3549.13
448.14	3336.14
448.34	3168.21
448.55	2811.86
448.75	2801.62
448.96	2731.99
449.16	2385.88
449.36	2271.20
449.57	1957.86
449.77	1791.97
449.98	1798.12
450.18	1841.12
450.39	1834.98
450.59	1714.15
450.79	1658.85
451.00	1667.05
451.20	1832.93
451.41	1757.16
451.61	1771.49
451.81	1634.28
452.02	1705.96
452.22	1673.19
452.43	1697.77
452.63	1681.38
