SpectraSuite Data File
++++++++++++++++++++++++++++++++++++
Date: Mon Jun 06 13:02:17 CEST 2016
User: root
Dark Spectrum Present: No
Reference Spectrum Present: No
Number of Sampled Component Spectra: 1
Spectrometers: USB4C02835
Integration Time (usec): 100000 (USB4C02835)
Spectra Averaged: 1 (USB4C02835)
Boxcar Smoothing: 0 (USB4C02835)
Correct for Electrical Dark: No (USB4C02835)
Strobe/Lamp Enabled: No (USB4C02835)
Correct for Detector Non-linearity: No (USB4C02835)
Correct for Stray Light: No (USB4C02835)
Number of Pixels in Processed Spectrum: 3648
>>>>>Begin Processed Spectral Data<<<<<
177.47	1542.12
177.69	1542.12
177.91	1542.12
178.13	1456.11
178.36	1435.63
178.58	1667.05
178.80	1726.44
179.02	1646.57
179.24	1665.00
179.46	1630.18
179.68	1701.86
179.90	1710.05
180.13	1671.14
180.35	1701.86
180.57	1703.91
180.79	1624.04
181.01	1636.33
181.23	1806.31
181.45	1789.92
181.67	1691.62
181.90	1710.05
182.12	1675.24
182.34	1619.94
182.56	1708.01
182.78	1767.40
183.00	1734.63
183.22	1710.05
183.44	1603.56
183.66	1834.98
183.89	1814.50
184.11	1755.11
184.33	1767.40
184.55	1722.34
184.77	1691.62
184.99	1738.73
185.21	1681.38
185.43	1853.41
185.65	1568.74
185.87	1783.78
186.10	1816.55
186.32	1787.88
186.54	1701.86
186.76	1775.59
186.98	1785.83
187.20	1763.30
187.42	1728.49
187.64	1691.62
187.86	1712.10
188.08	1681.38
188.30	1597.42
188.52	1710.05
188.75	1755.11
188.97	1785.83
189.19	1681.38
189.41	1751.01
189.63	1693.67
189.85	1648.61
190.07	1632.23
190.29	1785.83
190.51	1671.14
190.73	1621.99
190.95	1789.92
191.17	1769.44
191.39	1607.66
191.61	1638.38
191.84	1708.01
192.06	1714.15
192.28	1626.09
192.50	1853.41
192.72	1712.10
192.94	1757.16
193.16	1796.07
193.38	1740.77
193.60	1601.51
193.82	1656.81
194.04	1767.40
194.26	1751.01
194.48	1732.58
194.70	1646.57
194.92	1753.06
195.14	1775.59
195.36	1697.77
195.58	1703.91
195.80	1650.66
196.02	1693.67
196.24	1759.21
196.46	1705.96
196.69	1685.48
196.91	1847.27
197.13	1654.76
197.35	1660.90
197.57	1830.88
197.79	1619.94
198.01	1718.25
198.23	1710.05
198.45	1689.57
198.67	1667.05
198.89	1691.62
199.11	1630.18
199.33	1691.62
199.55	1613.80
199.77	1654.76
199.99	1710.05
200.21	1669.09
200.43	1687.53
200.65	1615.85
200.87	1626.09
201.09	1742.82
201.31	1685.48
201.53	1720.29
201.75	1712.10
201.97	1699.81
202.19	1714.15
202.41	1722.34
202.63	1861.60
202.85	1720.29
203.07	1681.38
203.29	1689.57
203.51	1665.00
203.73	1611.75
203.95	1888.23
204.17	1671.14
204.39	1736.68
204.61	1697.77
204.83	1759.21
205.05	1716.20
205.27	1761.25
205.49	1865.70
205.71	1673.19
205.93	1619.94
206.15	1640.42
206.37	1751.01
206.59	1710.05
206.81	1619.94
207.03	1636.33
207.25	1701.86
207.47	1746.92
207.69	1626.09
207.91	1771.49
208.13	1763.30
208.34	1658.85
208.56	1646.57
208.78	1703.91
209.00	1683.43
209.22	1724.39
209.44	1734.63
209.66	1697.77
209.88	1714.15
210.10	1628.14
210.32	1613.80
210.54	1779.68
210.76	1710.05
210.98	1757.16
211.20	1617.90
211.42	1763.30
211.64	1744.87
211.86	1748.97
212.08	1742.82
212.30	1740.77
212.52	1699.81
212.74	1775.59
212.96	1759.21
213.17	1740.77
213.39	1697.77
213.61	1783.78
213.83	1705.96
214.05	1673.19
214.27	1679.33
214.49	1693.67
214.71	1695.72
214.93	1740.77
215.15	1687.53
215.37	1693.67
215.59	1554.41
215.81	1763.30
216.03	1714.15
216.24	1724.39
216.46	1687.53
216.68	1726.44
216.90	1718.25
217.12	1791.97
217.34	1708.01
217.56	1730.53
217.78	1783.78
218.00	1777.64
218.22	1656.81
218.44	1746.92
218.66	1703.91
218.87	1746.92
219.09	1695.72
219.31	1619.94
219.53	1683.43
219.75	1630.18
219.97	1660.90
220.19	1671.14
220.41	1708.01
220.63	1798.12
220.85	1699.81
221.06	1675.24
221.28	1777.64
221.50	1753.06
221.72	1726.44
221.94	1675.24
222.16	1679.33
222.38	1720.29
222.60	1806.31
222.82	1722.34
223.03	1798.12
223.25	1642.47
223.47	1783.78
223.69	1744.87
223.91	1703.91
224.13	1695.72
224.35	1667.05
224.57	1685.48
224.78	1734.63
225.00	1667.05
225.22	1716.20
225.44	1667.05
225.66	1763.30
225.88	1628.14
226.10	1734.63
226.32	1763.30
226.53	1775.59
226.75	1626.09
226.97	1714.15
227.19	1730.53
227.41	1609.70
227.63	1667.05
227.85	1609.70
228.06	1689.57
228.28	1763.30
228.50	1771.49
228.72	1634.28
228.94	1689.57
229.16	1568.74
229.37	1685.48
229.59	1652.71
229.81	1877.99
230.03	1658.85
230.25	1638.38
230.47	1632.23
230.69	1675.24
230.90	1798.12
231.12	1691.62
231.34	1685.48
231.56	1748.97
231.78	1771.49
232.00	1728.49
232.21	1681.38
232.43	1634.28
232.65	1626.09
232.87	1773.54
233.09	1630.18
233.30	1640.42
233.52	1730.53
233.74	1656.81
233.96	1681.38
234.18	1679.33
234.40	1730.53
234.61	1832.93
234.83	1617.90
235.05	1634.28
235.27	1759.21
235.49	1785.83
235.70	1755.11
235.92	1738.73
236.14	1652.71
236.36	1820.64
236.58	1630.18
236.79	1755.11
237.01	1718.25
237.23	1679.33
237.45	1839.08
237.67	1605.61
237.88	1695.72
238.10	1830.88
238.32	1660.90
238.54	1683.43
238.76	1681.38
238.97	1689.57
239.19	1644.52
239.41	1767.40
239.63	1712.10
239.85	1619.94
240.06	1658.85
240.28	1767.40
240.50	1730.53
240.72	1744.87
240.93	1677.29
241.15	1740.77
241.37	1669.09
241.59	1816.55
241.81	1689.57
242.02	1677.29
242.24	1691.62
242.46	1673.19
242.68	1675.24
242.89	1714.15
243.11	1855.46
243.33	1683.43
243.55	1730.53
243.76	1718.25
243.98	1671.14
244.20	1740.77
244.42	1714.15
244.64	1718.25
244.85	1642.47
245.07	1673.19
245.29	1691.62
245.51	1626.09
245.72	1787.88
245.94	1824.74
246.16	1677.29
246.38	1806.31
246.59	1601.51
246.81	1662.95
247.03	1701.86
247.24	1613.80
247.46	1683.43
247.68	1703.91
247.90	1699.81
248.11	1621.99
248.33	1769.44
248.55	1689.57
248.77	1658.85
248.98	1808.36
249.20	1757.16
249.42	1660.90
249.64	1708.01
249.85	1652.71
250.07	1722.34
250.29	1753.06
250.50	1722.34
250.72	1611.75
250.94	1753.06
251.16	1804.26
251.37	1751.01
251.59	1765.35
251.81	1738.73
252.02	1753.06
252.24	1677.29
252.46	1755.11
252.68	1595.37
252.89	1660.90
253.11	1650.66
253.33	1830.88
253.54	1779.68
253.76	1640.42
253.98	1697.77
254.20	1703.91
254.41	1646.57
254.63	1699.81
254.85	1634.28
255.06	1703.91
255.28	1732.58
255.50	1722.34
255.71	1638.38
255.93	1576.94
256.15	1685.48
256.36	1677.29
256.58	1650.66
256.80	1771.49
257.02	1685.48
257.23	1667.05
257.45	1638.38
257.67	1828.84
257.88	1685.48
258.10	1705.96
258.32	1673.19
258.53	1728.49
258.75	1806.31
258.97	1632.23
259.18	1681.38
259.40	1710.05
259.62	1794.02
259.83	1814.50
260.05	1677.29
260.27	1949.67
260.48	1781.73
260.70	1632.23
260.92	1724.39
261.13	1746.92
261.35	1693.67
261.57	1662.95
261.78	1673.19
262.00	1667.05
262.22	1708.01
262.43	1662.95
262.65	1726.44
262.86	1742.82
263.08	1765.35
263.30	1638.38
263.51	1681.38
263.73	1642.47
263.95	1763.30
264.16	1673.19
264.38	1673.19
264.60	1761.25
264.81	1611.75
265.03	1798.12
265.25	1693.67
265.46	1714.15
265.68	1716.20
265.89	1806.31
266.11	1689.57
266.33	1779.68
266.54	1775.59
266.76	1722.34
266.98	1652.71
267.19	1796.07
267.41	1740.77
267.62	1685.48
267.84	1615.85
268.06	1701.86
268.27	1714.15
268.49	1785.83
268.70	1759.21
268.92	1728.49
269.14	1689.57
269.35	1646.57
269.57	1761.25
269.79	1771.49
270.00	1710.05
270.22	1740.77
270.43	1693.67
270.65	1624.04
270.87	1640.42
271.08	1687.53
271.30	1644.52
271.51	1693.67
271.73	1722.34
271.95	1804.26
272.16	1734.63
272.38	1746.92
272.59	1587.18
272.81	1769.44
273.02	1722.34
273.24	1681.38
273.46	1744.87
273.67	1644.52
273.89	1722.34
274.10	1660.90
274.32	1740.77
274.54	1775.59
274.75	1791.97
274.97	1703.91
275.18	1730.53
275.40	1669.09
275.61	1658.85
275.83	1748.97
276.05	1613.80
276.26	1685.48
276.48	1730.53
276.69	1644.52
276.91	1710.05
277.12	1701.86
277.34	1679.33
277.55	1783.78
277.77	1716.20
277.99	1730.53
278.20	1634.28
278.42	1640.42
278.63	1656.81
278.85	1734.63
279.06	1617.90
279.28	1746.92
279.49	1767.40
279.71	1701.86
279.93	1640.42
280.14	1695.72
280.36	1660.90
280.57	1804.26
280.79	1728.49
281.00	1665.00
281.22	1677.29
281.43	1746.92
281.65	1624.04
281.86	1619.94
282.08	1609.70
282.29	1916.90
282.51	1662.95
282.73	1679.33
282.94	1564.65
283.16	1720.29
283.37	1834.98
283.59	1648.61
283.80	1724.39
284.02	1705.96
284.23	1816.55
284.45	1703.91
284.66	1654.76
284.88	1665.00
285.09	1722.34
285.31	1777.64
285.52	1671.14
285.74	1556.46
285.95	1769.44
286.17	1751.01
286.38	1693.67
286.60	1652.71
286.81	1665.00
287.03	1771.49
287.24	1648.61
287.46	1736.68
287.67	1665.00
287.89	1777.64
288.10	1662.95
288.32	1724.39
288.53	1806.31
288.75	1710.05
288.96	1691.62
289.18	1673.19
289.39	1630.18
289.61	1777.64
289.82	1779.68
290.04	1748.97
290.25	1677.29
290.47	1734.63
290.68	1615.85
290.90	1771.49
291.11	1619.94
291.33	1714.15
291.54	1578.98
291.76	1675.24
291.97	1693.67
292.18	1761.25
292.40	1671.14
292.61	1619.94
292.83	1841.12
293.04	1820.64
293.26	1769.44
293.47	1673.19
293.69	1687.53
293.90	1685.48
294.12	1712.10
294.33	1640.42
294.55	1685.48
294.76	1742.82
294.97	1839.08
295.19	1855.46
295.40	1669.09
295.62	1714.15
295.83	1667.05
296.05	1689.57
296.26	1763.30
296.48	1615.85
296.69	1710.05
296.90	1689.57
297.12	1744.87
297.33	1771.49
297.55	1730.53
297.76	1689.57
297.98	1744.87
298.19	1740.77
298.41	1734.63
298.62	1677.29
298.83	1742.82
299.05	1697.77
299.26	1654.76
299.48	1720.29
299.69	1730.53
299.90	1705.96
300.12	1525.74
300.33	1751.01
300.55	1681.38
300.76	1722.34
300.98	1697.77
301.19	1697.77
301.40	1675.24
301.62	1687.53
301.83	1775.59
302.05	1736.68
302.26	1744.87
302.47	1687.53
302.69	1683.43
302.90	1646.57
303.12	1601.51
303.33	1771.49
303.54	1806.31
303.76	1665.00
303.97	1652.71
304.19	1783.78
304.40	1611.75
304.61	1763.30
304.83	1847.27
305.04	1710.05
305.26	1710.05
305.47	1660.90
305.68	1628.14
305.90	1624.04
306.11	1720.29
306.33	1728.49
306.54	1716.20
306.75	1691.62
306.97	1595.37
307.18	1646.57
307.39	1648.61
307.61	1763.30
307.82	1718.25
308.04	1730.53
308.25	1574.89
308.46	1656.81
308.68	1724.39
308.89	1734.63
309.10	1705.96
309.32	1681.38
309.53	1695.72
309.74	1689.57
309.96	1650.66
310.17	1755.11
310.39	1675.24
310.60	1720.29
310.81	1646.57
311.03	1554.41
311.24	1679.33
311.45	1673.19
311.67	1808.36
311.88	1783.78
312.09	1746.92
312.31	1638.38
312.52	1720.29
312.73	1716.20
312.95	1560.55
313.16	1691.62
313.37	1779.68
313.59	1724.39
313.80	1779.68
314.01	1779.68
314.23	1695.72
314.44	1634.28
314.65	1587.18
314.87	1746.92
315.08	1767.40
315.29	1726.44
315.51	1679.33
315.72	1648.61
315.93	1826.79
316.15	1755.11
316.36	1695.72
316.57	1671.14
316.79	1665.00
317.00	1720.29
317.21	1732.58
317.43	1705.96
317.64	1701.86
317.85	1673.19
318.07	1679.33
318.28	1705.96
318.49	1771.49
318.70	1923.04
318.92	1808.36
319.13	1834.98
319.34	1857.51
319.56	1771.49
319.77	1789.92
319.98	1746.92
320.20	1845.22
320.41	1730.53
320.62	1753.06
320.83	1681.38
321.05	1910.75
321.26	1642.47
321.47	1697.77
321.69	1832.93
321.90	1619.94
322.11	1628.14
322.32	1718.25
322.54	1753.06
322.75	1691.62
322.96	1906.66
323.18	1665.00
323.39	1576.94
323.60	1578.98
323.81	1802.21
324.03	1669.09
324.24	1763.30
324.45	1669.09
324.66	1617.90
324.88	1738.73
325.09	1837.03
325.30	1746.92
325.52	1728.49
325.73	1728.49
325.94	1617.90
326.15	1572.84
326.37	1705.96
326.58	1753.06
326.79	1761.25
327.00	1607.66
327.22	1693.67
327.43	1742.82
327.64	1658.85
327.85	1724.39
328.07	1699.81
328.28	1791.97
328.49	1656.81
328.70	1689.57
328.92	1669.09
329.13	1714.15
329.34	1634.28
329.55	1744.87
329.76	1748.97
329.98	1722.34
330.19	1865.70
330.40	1730.53
330.61	1683.43
330.83	1724.39
331.04	1751.01
331.25	1701.86
331.46	1640.42
331.68	1658.85
331.89	1736.68
332.10	1681.38
332.31	1703.91
332.52	1673.19
332.74	1751.01
332.95	1630.18
333.16	1714.15
333.37	1859.56
333.58	1724.39
333.80	1716.20
334.01	1544.17
334.22	1701.86
334.43	1671.14
334.64	1675.24
334.86	1675.24
335.07	1654.76
335.28	1759.21
335.49	1667.05
335.70	1705.96
335.92	1771.49
336.13	1859.56
336.34	1759.21
336.55	1779.68
336.76	1716.20
336.98	1597.42
337.19	1718.25
337.40	1877.99
337.61	1814.50
337.82	1679.33
338.04	1820.64
338.25	1615.85
338.46	1699.81
338.67	1748.97
338.88	1638.38
339.09	1773.54
339.31	1628.14
339.52	1685.48
339.73	1613.80
339.94	1675.24
340.15	1722.34
340.36	1652.71
340.58	1683.43
340.79	1738.73
341.00	1644.52
341.21	1697.77
341.42	1798.12
341.63	1701.86
341.85	1728.49
342.06	1695.72
342.27	1632.23
342.48	1722.34
342.69	1656.81
342.90	1665.00
343.12	1687.53
343.33	1669.09
343.54	1775.59
343.75	1761.25
343.96	1724.39
344.17	1658.85
344.38	1642.47
344.60	1703.91
344.81	1673.19
345.02	1701.86
345.23	1822.69
345.44	1787.88
345.65	1767.40
345.86	1632.23
346.07	1699.81
346.29	1650.66
346.50	1722.34
346.71	1714.15
346.92	1716.20
347.13	1787.88
347.34	1714.15
347.55	1730.53
347.76	1718.25
347.98	1601.51
348.19	1648.61
348.40	1800.16
348.61	1617.90
348.82	1794.02
349.03	1695.72
349.24	1736.68
349.45	1742.82
349.66	1585.13
349.88	1683.43
350.09	1603.56
350.30	1705.96
350.51	1781.73
350.72	1693.67
350.93	1695.72
351.14	1654.76
351.35	1728.49
351.56	1636.33
351.77	1699.81
351.99	1738.73
352.20	1837.03
352.41	1791.97
352.62	1570.79
352.83	1652.71
353.04	1740.77
353.25	1638.38
353.46	1767.40
353.67	1716.20
353.88	1597.42
354.09	1656.81
354.30	1720.29
354.52	1787.88
354.73	1755.11
354.94	1603.56
355.15	1710.05
355.36	1808.36
355.57	1720.29
355.78	1703.91
355.99	1660.90
356.20	1640.42
356.41	1695.72
356.62	1679.33
356.83	1683.43
357.04	1748.97
357.25	1607.66
357.46	1671.14
357.68	1667.05
357.89	1662.95
358.10	1652.71
358.31	1730.53
358.52	1738.73
358.73	1677.29
358.94	1601.51
359.15	1716.20
359.36	1742.82
359.57	1689.57
359.78	1681.38
359.99	1738.73
360.20	1648.61
360.41	1714.15
360.62	1730.53
360.83	1662.95
361.04	1697.77
361.25	1705.96
361.46	1755.11
361.67	1763.30
361.88	1697.77
362.09	1757.16
362.30	1757.16
362.51	1689.57
362.72	1722.34
362.93	1681.38
363.14	1759.21
363.35	1693.67
363.56	1642.47
363.78	1701.86
363.99	1767.40
364.20	1607.66
364.41	1701.86
364.62	1794.02
364.83	1687.53
365.04	1742.82
365.25	1705.96
365.46	1794.02
365.67	1648.61
365.88	1683.43
366.09	1640.42
366.30	1665.00
366.51	1761.25
366.72	1603.56
366.93	1718.25
367.14	1726.44
367.35	1744.87
367.56	1638.38
367.77	1863.65
367.98	1644.52
368.18	1783.78
368.39	1716.20
368.60	1658.85
368.81	1751.01
369.02	1746.92
369.23	1716.20
369.44	1601.51
369.65	1689.57
369.86	1755.11
370.07	1755.11
370.28	1640.42
370.49	1812.45
370.70	1636.33
370.91	1660.90
371.12	1667.05
371.33	1708.01
371.54	1716.20
371.75	1845.22
371.96	1538.02
372.17	1714.15
372.38	1765.35
372.59	1681.38
372.80	1552.36
373.01	1681.38
373.22	1738.73
373.43	1646.57
373.64	1675.24
373.85	1712.10
374.06	1857.51
374.26	1744.87
374.47	1767.40
374.68	1710.05
374.89	1742.82
375.10	1763.30
375.31	1820.64
375.52	1667.05
375.73	1726.44
375.94	1693.67
376.15	1816.55
376.36	1675.24
376.57	1699.81
376.78	1593.32
376.99	1728.49
377.20	1777.64
377.40	1691.62
377.61	1789.92
377.82	1681.38
378.03	1769.44
378.24	1667.05
378.45	1683.43
378.66	1708.01
378.87	1615.85
379.08	1656.81
379.29	1591.27
379.50	1822.69
379.71	1685.48
379.91	1800.16
380.12	1650.66
380.33	1742.82
380.54	1685.48
380.75	1798.12
380.96	1701.86
381.17	1781.73
381.38	1644.52
381.59	1726.44
381.80	1654.76
382.00	1861.60
382.21	1843.17
382.42	1906.66
382.63	1783.78
382.84	1771.49
383.05	1742.82
383.26	1804.26
383.47	1726.44
383.68	1763.30
383.88	1712.10
384.09	1679.33
384.30	1767.40
384.51	1703.91
384.72	1628.14
384.93	1675.24
385.14	1732.58
385.35	1802.21
385.55	1630.18
385.76	1861.60
385.97	1660.90
386.18	1640.42
386.39	1665.00
386.60	1724.39
386.81	1685.48
387.02	1695.72
387.22	1642.47
387.43	1761.25
387.64	1759.21
387.85	1861.60
388.06	2168.80
388.27	4341.69
388.48	6815.64
388.68	8200.07
388.89	9627.50
389.10	9779.05
389.31	8660.86
389.52	7667.60
389.73	6786.97
389.93	6277.02
390.14	5855.14
390.35	5287.86
390.56	4593.59
390.77	3903.43
390.98	3004.37
391.18	2402.27
391.39	2152.42
391.60	1699.81
391.81	1796.07
392.02	1714.15
392.23	1841.12
392.43	1761.25
392.64	1771.49
392.85	1634.28
393.06	1853.41
393.27	1665.00
393.47	1695.72
393.68	1773.54
393.89	1687.53
394.10	1726.44
394.31	1701.86
394.52	1662.95
394.72	1687.53
394.93	1800.16
395.14	1654.76
395.35	1730.53
395.56	1701.86
395.76	1734.63
395.97	1771.49
396.18	1875.94
396.39	1710.05
396.60	1968.10
396.80	1849.32
397.01	1882.08
397.22	1771.49
397.43	1845.22
397.64	1810.40
397.84	1877.99
398.05	1820.64
398.26	1675.24
398.47	1724.39
398.67	1742.82
398.88	1691.62
399.09	1783.78
399.30	1828.84
399.51	1783.78
399.71	1634.28
399.92	1697.77
400.13	1695.72
400.34	1699.81
400.54	1673.19
400.75	1800.16
400.96	1726.44
401.17	1826.79
401.37	1738.73
401.58	1677.29
401.79	1726.44
402.00	1781.73
402.21	1927.14
402.41	1908.71
402.62	1970.15
402.83	2084.83
403.04	1996.77
403.24	2041.82
403.45	1820.64
403.66	1976.29
403.87	1871.84
404.07	1892.32
404.28	1929.19
404.49	1837.03
404.70	1748.97
404.90	1757.16
405.11	1734.63
405.32	1798.12
405.52	1630.18
405.73	1650.66
405.94	1701.86
406.15	1710.05
406.35	1755.11
406.56	1693.67
406.77	1687.53
406.98	1757.16
407.18	1681.38
407.39	1877.99
407.60	1624.04
407.80	1726.44
408.01	1687.53
408.22	1714.15
408.43	1732.58
408.63	1691.62
408.84	1699.81
409.05	1693.67
409.25	1642.47
409.46	1697.77
409.67	1703.91
409.88	1740.77
410.08	1679.33
410.29	1722.34
410.50	1740.77
410.70	1740.77
410.91	1609.70
411.12	1804.26
411.32	1703.91
411.53	1683.43
411.74	1857.51
411.95	1761.25
412.15	1751.01
412.36	1787.88
412.57	1730.53
412.77	1777.64
412.98	1757.16
413.19	1687.53
413.39	1810.40
413.60	1693.67
413.81	1849.32
414.01	1667.05
414.22	1746.92
414.43	1730.53
414.63	1671.14
414.84	1730.53
415.05	1796.07
415.25	1619.94
415.46	1802.21
415.67	1669.09
415.87	1722.34
416.08	1738.73
416.29	1703.91
416.49	1742.82
416.70	1697.77
416.91	1667.05
417.11	1628.14
417.32	1773.54
417.53	1744.87
417.73	1689.57
417.94	1697.77
418.15	1708.01
418.35	1781.73
418.56	1648.61
418.77	1818.60
418.97	1665.00
419.18	1708.01
419.38	1609.70
419.59	1708.01
419.80	1777.64
420.00	1660.90
420.21	1681.38
420.42	1716.20
420.62	1740.77
420.83	1642.47
421.04	1742.82
421.24	1699.81
421.45	1710.05
421.65	1744.87
421.86	1636.33
422.07	1705.96
422.27	1607.66
422.48	1697.77
422.69	1626.09
422.89	1658.85
423.10	1667.05
423.30	1554.41
423.51	1771.49
423.72	1757.16
423.92	1693.67
424.13	1662.95
424.33	1765.35
424.54	1732.58
424.75	1742.82
424.95	1824.74
425.16	1705.96
425.36	1624.04
425.57	1781.73
425.78	1714.15
425.98	1798.12
426.19	1701.86
426.39	1656.81
426.60	1705.96
426.81	1828.84
427.01	1738.73
427.22	1671.14
427.42	1613.80
427.63	1665.00
427.83	1751.01
428.04	1869.80
428.25	1775.59
428.45	1798.12
428.66	1730.53
428.86	1681.38
429.07	1695.72
429.28	1705.96
429.48	1681.38
429.69	1689.57
429.89	1665.00
430.10	1669.09
430.30	1695.72
430.51	1705.96
430.71	1683.43
430.92	1722.34
431.13	1714.15
431.33	1708.01
431.54	1710.05
431.74	1806.31
431.95	1918.95
432.15	1642.47
432.36	1679.33
432.56	1783.78
432.77	1771.49
432.98	1828.84
433.18	1681.38
433.39	1740.77
433.59	1714.15
433.80	1837.03
434.00	1845.22
434.21	1748.97
434.41	1705.96
434.62	1839.08
434.82	1628.14
435.03	1583.08
435.23	1665.00
435.44	1656.81
435.64	1675.24
435.85	1736.68
436.06	1769.44
436.26	1740.77
436.47	1708.01
436.67	1683.43
436.88	1740.77
437.08	1703.91
437.29	1822.69
437.49	1763.30
437.70	1814.50
437.90	1722.34
438.11	1843.17
438.31	1824.74
438.52	1777.64
438.72	1884.13
438.93	1902.56
439.13	1787.88
439.34	1869.80
439.54	1765.35
439.75	1746.92
439.95	1775.59
440.16	1691.62
440.36	1740.77
440.57	1773.54
440.77	1767.40
440.98	1728.49
441.18	1777.64
441.39	1634.28
441.59	1703.91
441.80	1820.64
442.00	1726.44
442.21	1779.68
442.41	1710.05
442.62	1726.44
442.82	1691.62
443.02	1751.01
443.23	1763.30
443.43	1714.15
443.64	1802.21
443.84	1665.00
444.05	1810.40
444.25	1716.20
444.46	1714.15
444.66	1748.97
444.87	1834.98
445.07	1607.66
445.28	1708.01
445.48	1906.66
445.69	1746.92
445.89	1849.32
446.09	1779.68
446.30	2015.20
446.50	2594.78
446.71	3755.97
446.91	4212.67
447.12	4779.96
447.32	4775.86
447.53	4247.49
447.73	3829.70
447.93	3465.16
448.14	3254.22
448.34	3200.98
448.55	2883.54
448.75	2803.67
448.96	2627.54
449.16	2363.36
449.36	2222.05
449.57	2045.92
449.77	1896.42
449.98	1738.73
450.18	1851.36
450.39	1773.54
450.59	1763.30
450.79	1802.21
451.00	1697.77
451.20	1853.41
451.41	1724.39
451.61	1703.91
451.81	1718.25
452.02	1751.01
452.22	1738.73
452.43	1609.70
452.63	1658.85
