SpectraSuite Data File
++++++++++++++++++++++++++++++++++++
Date: Mon Jun 06 16:13:37 CEST 2016
User: root
Dark Spectrum Present: No
Reference Spectrum Present: No
Number of Sampled Component Spectra: 1
Spectrometers: USB4C02835
Integration Time (usec): 100000 (USB4C02835)
Spectra Averaged: 1 (USB4C02835)
Boxcar Smoothing: 0 (USB4C02835)
Correct for Electrical Dark: No (USB4C02835)
Strobe/Lamp Enabled: No (USB4C02835)
Correct for Detector Non-linearity: No (USB4C02835)
Correct for Stray Light: No (USB4C02835)
Number of Pixels in Processed Spectrum: 3648
>>>>>Begin Processed Spectral Data<<<<<
177.47	1501.16
177.69	1501.16
177.91	1501.16
178.13	1478.63
178.36	1460.20
178.58	1679.33
178.80	1716.20
179.02	1611.75
179.24	1646.57
179.46	1695.72
179.68	1744.87
179.90	1697.77
180.13	1791.97
180.35	1673.19
180.57	1746.92
180.79	1834.98
181.01	1722.34
181.23	1738.73
181.45	1722.34
181.67	1697.77
181.90	1751.01
182.12	1648.61
182.34	1609.70
182.56	1746.92
182.78	1728.49
183.00	1644.52
183.22	1689.57
183.44	1593.32
183.66	1877.99
183.89	1816.55
184.11	1722.34
184.33	1785.83
184.55	1779.68
184.77	1763.30
184.99	1722.34
185.21	1714.15
185.43	1832.93
185.65	1652.71
185.87	1748.97
186.10	1875.94
186.32	1832.93
186.54	1753.06
186.76	1738.73
186.98	1708.01
187.20	1712.10
187.42	1675.24
187.64	1773.54
187.86	1681.38
188.08	1802.21
188.30	1734.63
188.52	1667.05
188.75	1759.21
188.97	1824.74
189.19	1759.21
189.41	1697.77
189.63	1773.54
189.85	1714.15
190.07	1658.85
190.29	1652.71
190.51	1753.06
190.73	1652.71
190.95	1740.77
191.17	1742.82
191.39	1658.85
191.61	1710.05
191.84	1591.27
192.06	1685.48
192.28	1673.19
192.50	1906.66
192.72	1759.21
192.94	1654.76
193.16	1773.54
193.38	1771.49
193.60	1650.66
193.82	1730.53
194.04	1759.21
194.26	1697.77
194.48	1701.86
194.70	1640.42
194.92	1699.81
195.14	1787.88
195.36	1714.15
195.58	1720.29
195.80	1710.05
196.02	1611.75
196.24	1718.25
196.46	1738.73
196.69	1722.34
196.91	1777.64
197.13	1697.77
197.35	1669.09
197.57	1767.40
197.79	1796.07
198.01	1763.30
198.23	1701.86
198.45	1751.01
198.67	1630.18
198.89	1720.29
199.11	1708.01
199.33	1675.24
199.55	1628.14
199.77	1640.42
199.99	1818.60
200.21	1738.73
200.43	1808.36
200.65	1691.62
200.87	1660.90
201.09	1769.44
201.31	1710.05
201.53	1738.73
201.75	1740.77
201.97	1726.44
202.19	1746.92
202.41	1705.96
202.63	1744.87
202.85	1722.34
203.07	1767.40
203.29	1703.91
203.51	1607.66
203.73	1697.77
203.95	1882.08
204.17	1716.20
204.39	1669.09
204.61	1796.07
204.83	1679.33
205.05	1728.49
205.27	1791.97
205.49	1834.98
205.71	1689.57
205.93	1703.91
206.15	1656.81
206.37	1712.10
206.59	1683.43
206.81	1701.86
207.03	1675.24
207.25	1751.01
207.47	1789.92
207.69	1712.10
207.91	1806.31
208.13	1755.11
208.34	1755.11
208.56	1703.91
208.78	1738.73
209.00	1656.81
209.22	1675.24
209.44	1712.10
209.66	1644.52
209.88	1726.44
210.10	1691.62
210.32	1738.73
210.54	1841.12
210.76	1755.11
210.98	1798.12
211.20	1640.42
211.42	1710.05
211.64	1769.44
211.86	1730.53
212.08	1736.68
212.30	1763.30
212.52	1714.15
212.74	1703.91
212.96	1667.05
213.17	1746.92
213.39	1763.30
213.61	1843.17
213.83	1804.26
214.05	1656.81
214.27	1802.21
214.49	1679.33
214.71	1693.67
214.93	1748.97
215.15	1705.96
215.37	1785.83
215.59	1607.66
215.81	1734.63
216.03	1767.40
216.24	1677.29
216.46	1697.77
216.68	1773.54
216.90	1720.29
217.12	1757.16
217.34	1724.39
217.56	1673.19
217.78	1791.97
218.00	1722.34
218.22	1705.96
218.44	1798.12
218.66	1734.63
218.87	1794.02
219.09	1640.42
219.31	1738.73
219.53	1722.34
219.75	1718.25
219.97	1607.66
220.19	1791.97
220.41	1697.77
220.63	1796.07
220.85	1734.63
221.06	1730.53
221.28	1769.44
221.50	1761.25
221.72	1720.29
221.94	1712.10
222.16	1773.54
222.38	1787.88
222.60	1736.68
222.82	1685.48
223.03	1738.73
223.25	1683.43
223.47	1808.36
223.69	1877.99
223.91	1818.60
224.13	1673.19
224.35	1636.33
224.57	1779.68
224.78	1783.78
225.00	1673.19
225.22	1673.19
225.44	1734.63
225.66	1701.86
225.88	1640.42
226.10	1804.26
226.32	1818.60
226.53	1783.78
226.75	1751.01
226.97	1701.86
227.19	1742.82
227.41	1675.24
227.63	1640.42
227.85	1619.94
228.06	1660.90
228.28	1703.91
228.50	1748.97
228.72	1607.66
228.94	1673.19
229.16	1683.43
229.37	1718.25
229.59	1636.33
229.81	1755.11
230.03	1755.11
230.25	1636.33
230.47	1630.18
230.69	1687.53
230.90	1740.77
231.12	1634.28
231.34	1710.05
231.56	1773.54
231.78	1730.53
232.00	1708.01
232.21	1658.85
232.43	1744.87
232.65	1587.18
232.87	1736.68
233.09	1718.25
233.30	1757.16
233.52	1734.63
233.74	1669.09
233.96	1654.76
234.18	1714.15
234.40	1693.67
234.61	1861.60
234.83	1667.05
235.05	1654.76
235.27	1916.90
235.49	1722.34
235.70	1685.48
235.92	1859.56
236.14	1789.92
236.36	1916.90
236.58	1611.75
236.79	1767.40
237.01	1738.73
237.23	1705.96
237.45	1794.02
237.67	1716.20
237.88	1753.06
238.10	1789.92
238.32	1689.57
238.54	1771.49
238.76	1667.05
238.97	1576.94
239.19	1656.81
239.41	1822.69
239.63	1826.79
239.85	1705.96
240.06	1677.29
240.28	1648.61
240.50	1796.07
240.72	1742.82
240.93	1671.14
241.15	1789.92
241.37	1712.10
241.59	1839.08
241.81	1667.05
242.02	1665.00
242.24	1781.73
242.46	1730.53
242.68	1697.77
242.89	1751.01
243.11	1751.01
243.33	1765.35
243.55	1757.16
243.76	1767.40
243.98	1722.34
244.20	1740.77
244.42	1726.44
244.64	1697.77
244.85	1701.86
245.07	1740.77
245.29	1767.40
245.51	1644.52
245.72	1712.10
245.94	1789.92
246.16	1710.05
246.38	1761.25
246.59	1685.48
246.81	1656.81
247.03	1662.95
247.24	1650.66
247.46	1724.39
247.68	1806.31
247.90	1720.29
248.11	1689.57
248.33	1761.25
248.55	1761.25
248.77	1718.25
248.98	1763.30
249.20	1832.93
249.42	1734.63
249.64	1728.49
249.85	1679.33
250.07	1675.24
250.29	1728.49
250.50	1767.40
250.72	1628.14
250.94	1689.57
251.16	1880.04
251.37	1695.72
251.59	1705.96
251.81	1726.44
252.02	1849.32
252.24	1710.05
252.46	1781.73
252.68	1728.49
252.89	1673.19
253.11	1685.48
253.33	1849.32
253.54	1783.78
253.76	1650.66
253.98	1705.96
254.20	1742.82
254.41	1593.32
254.63	1724.39
254.85	1665.00
255.06	1677.29
255.28	1767.40
255.50	1689.57
255.71	1673.19
255.93	1650.66
256.15	1679.33
256.36	1775.59
256.58	1699.81
256.80	1755.11
257.02	1669.09
257.23	1701.86
257.45	1810.40
257.67	1808.36
257.88	1615.85
258.10	1716.20
258.32	1755.11
258.53	1755.11
258.75	1728.49
258.97	1634.28
259.18	1621.99
259.40	1699.81
259.62	1759.21
259.83	1769.44
260.05	1734.63
260.27	1959.91
260.48	1771.49
260.70	1669.09
260.92	1804.26
261.13	1820.64
261.35	1660.90
261.57	1693.67
261.78	1605.61
262.00	1730.53
262.22	1843.17
262.43	1677.29
262.65	1667.05
262.86	1775.59
263.08	1861.60
263.30	1751.01
263.51	1636.33
263.73	1718.25
263.95	1777.64
264.16	1722.34
264.38	1787.88
264.60	1763.30
264.81	1722.34
265.03	1746.92
265.25	1718.25
265.46	1656.81
265.68	1806.31
265.89	1763.30
266.11	1656.81
266.33	1701.86
266.54	1816.55
266.76	1689.57
266.98	1734.63
267.19	1787.88
267.41	1652.71
267.62	1759.21
267.84	1636.33
268.06	1714.15
268.27	1705.96
268.49	1740.77
268.70	1787.88
268.92	1734.63
269.14	1667.05
269.35	1683.43
269.57	1789.92
269.79	1771.49
270.00	1708.01
270.22	1796.07
270.43	1705.96
270.65	1607.66
270.87	1665.00
271.08	1800.16
271.30	1828.84
271.51	1736.68
271.73	1796.07
271.95	1808.36
272.16	1660.90
272.38	1736.68
272.59	1775.59
272.81	1763.30
273.02	1789.92
273.24	1730.53
273.46	1705.96
273.67	1740.77
273.89	1621.99
274.10	1648.61
274.32	1773.54
274.54	1691.62
274.75	1687.53
274.97	1656.81
275.18	1720.29
275.40	1746.92
275.61	1642.47
275.83	1761.25
276.05	1642.47
276.26	1681.38
276.48	1787.88
276.69	1652.71
276.91	1722.34
277.12	1834.98
277.34	1748.97
277.55	1783.78
277.77	1783.78
277.99	1673.19
278.20	1703.91
278.42	1732.58
278.63	1611.75
278.85	1705.96
279.06	1669.09
279.28	1685.48
279.49	1744.87
279.71	1871.84
279.93	1658.85
280.14	1746.92
280.36	1644.52
280.57	1789.92
280.79	1726.44
281.00	1730.53
281.22	1683.43
281.43	1746.92
281.65	1595.37
281.86	1660.90
282.08	1824.74
282.29	1837.03
282.51	1624.04
282.73	1626.09
282.94	1642.47
283.16	1753.06
283.37	1767.40
283.59	1761.25
283.80	1748.97
284.02	1734.63
284.23	1751.01
284.45	1660.90
284.66	1716.20
284.88	1730.53
285.09	1718.25
285.31	1771.49
285.52	1728.49
285.74	1591.27
285.95	1726.44
286.17	1751.01
286.38	1746.92
286.60	1705.96
286.81	1699.81
287.03	1712.10
287.24	1718.25
287.46	1708.01
287.67	1712.10
287.89	1804.26
288.10	1656.81
288.32	1742.82
288.53	1832.93
288.75	1720.29
288.96	1712.10
289.18	1726.44
289.39	1708.01
289.61	1753.06
289.82	1837.03
290.04	1875.94
290.25	1685.48
290.47	1646.57
290.68	1683.43
290.90	1808.36
291.11	1669.09
291.33	1859.56
291.54	1638.38
291.76	1642.47
291.97	1724.39
292.18	1738.73
292.40	1681.38
292.61	1679.33
292.83	1882.08
293.04	1800.16
293.26	1671.14
293.47	1675.24
293.69	1679.33
293.90	1699.81
294.12	1791.97
294.33	1648.61
294.55	1677.29
294.76	1763.30
294.97	1781.73
295.19	1861.60
295.40	1736.68
295.62	1712.10
295.83	1738.73
296.05	1699.81
296.26	1740.77
296.48	1699.81
296.69	1794.02
296.90	1662.95
297.12	1777.64
297.33	1705.96
297.55	1703.91
297.76	1722.34
297.98	1701.86
298.19	1751.01
298.41	1716.20
298.62	1683.43
298.83	1785.83
299.05	1703.91
299.26	1665.00
299.48	1689.57
299.69	1742.82
299.90	1699.81
300.12	1587.18
300.33	1736.68
300.55	1720.29
300.76	1742.82
300.98	1648.61
301.19	1818.60
301.40	1693.67
301.62	1791.97
301.83	1703.91
302.05	1693.67
302.26	1712.10
302.47	1730.53
302.69	1677.29
302.90	1746.92
303.12	1519.59
303.33	1740.77
303.54	1740.77
303.76	1744.87
303.97	1703.91
304.19	1771.49
304.40	1630.18
304.61	1734.63
304.83	1847.27
305.04	1738.73
305.26	1716.20
305.47	1648.61
305.68	1740.77
305.90	1632.23
306.11	1779.68
306.33	1689.57
306.54	1720.29
306.75	1658.85
306.97	1599.46
307.18	1697.77
307.39	1746.92
307.61	1701.86
307.82	1722.34
308.04	1802.21
308.25	1654.76
308.46	1714.15
308.68	1732.58
308.89	1732.58
309.10	1728.49
309.32	1701.86
309.53	1634.28
309.74	1738.73
309.96	1691.62
310.17	1771.49
310.39	1724.39
310.60	1724.39
310.81	1689.57
311.03	1667.05
311.24	1714.15
311.45	1697.77
311.67	1822.69
311.88	1705.96
312.09	1660.90
312.31	1718.25
312.52	1730.53
312.73	1671.14
312.95	1658.85
313.16	1742.82
313.37	1806.31
313.59	1712.10
313.80	1746.92
314.01	1845.22
314.23	1662.95
314.44	1710.05
314.65	1634.28
314.87	1626.09
315.08	1677.29
315.29	1783.78
315.51	1662.95
315.72	1646.57
315.93	1798.12
316.15	1800.16
316.36	1720.29
316.57	1683.43
316.79	1791.97
317.00	1695.72
317.21	1755.11
317.43	1675.24
317.64	1701.86
317.85	1671.14
318.07	1687.53
318.28	1771.49
318.49	1859.56
318.70	1865.70
318.92	1822.69
319.13	1837.03
319.34	1888.23
319.56	1808.36
319.77	1789.92
319.98	1781.73
320.20	1794.02
320.41	1839.08
320.62	1701.86
320.83	1636.33
321.05	1890.28
321.26	1658.85
321.47	1769.44
321.69	1818.60
321.90	1632.23
322.11	1671.14
322.32	1693.67
322.54	1789.92
322.75	1630.18
322.96	1783.78
323.18	1652.71
323.39	1595.37
323.60	1710.05
323.81	1779.68
324.03	1634.28
324.24	1759.21
324.45	1730.53
324.66	1710.05
324.88	1742.82
325.09	1767.40
325.30	1621.99
325.52	1714.15
325.73	1757.16
325.94	1714.15
326.15	1585.13
326.37	1667.05
326.58	1761.25
326.79	1800.16
327.00	1685.48
327.22	1673.19
327.43	1759.21
327.64	1607.66
327.85	1708.01
328.07	1705.96
328.28	1804.26
328.49	1636.33
328.70	1697.77
328.92	1730.53
329.13	1710.05
329.34	1748.97
329.55	1769.44
329.76	1751.01
329.98	1693.67
330.19	1822.69
330.40	1726.44
330.61	1730.53
330.83	1820.64
331.04	1714.15
331.25	1738.73
331.46	1779.68
331.68	1638.38
331.89	1826.79
332.10	1789.92
332.31	1656.81
332.52	1697.77
332.74	1869.80
332.95	1640.42
333.16	1677.29
333.37	1714.15
333.58	1679.33
333.80	1759.21
334.01	1683.43
334.22	1624.04
334.43	1636.33
334.64	1722.34
334.86	1658.85
335.07	1728.49
335.28	1767.40
335.49	1642.47
335.70	1794.02
335.92	1724.39
336.13	1861.60
336.34	1738.73
336.55	1724.39
336.76	1771.49
336.98	1574.89
337.19	1650.66
337.40	1763.30
337.61	1822.69
337.82	1656.81
338.04	1771.49
338.25	1630.18
338.46	1681.38
338.67	1693.67
338.88	1669.09
339.09	1634.28
339.31	1693.67
339.52	1697.77
339.73	1662.95
339.94	1708.01
340.15	1814.50
340.36	1718.25
340.58	1751.01
340.79	1632.23
341.00	1789.92
341.21	1697.77
341.42	1841.12
341.63	1689.57
341.85	1759.21
342.06	1724.39
342.27	1677.29
342.48	1665.00
342.69	1656.81
342.90	1744.87
343.12	1775.59
343.33	1703.91
343.54	1708.01
343.75	1773.54
343.96	1732.58
344.17	1648.61
344.38	1669.09
344.60	1619.94
344.81	1619.94
345.02	1757.16
345.23	1765.35
345.44	1851.36
345.65	1837.03
345.86	1701.86
346.07	1724.39
346.29	1730.53
346.50	1746.92
346.71	1847.27
346.92	1763.30
347.13	1779.68
347.34	1683.43
347.55	1716.20
347.76	1742.82
347.98	1613.80
348.19	1656.81
348.40	1820.64
348.61	1669.09
348.82	1849.32
349.03	1800.16
349.24	1652.71
349.45	1800.16
349.66	1519.59
349.88	1761.25
350.09	1656.81
350.30	1771.49
350.51	1810.40
350.72	1712.10
350.93	1705.96
351.14	1650.66
351.35	1714.15
351.56	1720.29
351.77	1642.47
351.99	1794.02
352.20	1830.88
352.41	1742.82
352.62	1599.46
352.83	1759.21
353.04	1726.44
353.25	1724.39
353.46	1796.07
353.67	1834.98
353.88	1630.18
354.09	1753.06
354.30	1726.44
354.52	1816.55
354.73	1755.11
354.94	1703.91
355.15	1779.68
355.36	1880.04
355.57	1656.81
355.78	1708.01
355.99	1705.96
356.20	1673.19
356.41	1806.31
356.62	1685.48
356.83	1722.34
357.04	1755.11
357.25	1665.00
357.46	1681.38
357.68	1650.66
357.89	1689.57
358.10	1775.59
358.31	1734.63
358.52	1677.29
358.73	1656.81
358.94	1691.62
359.15	1685.48
359.36	1705.96
359.57	1759.21
359.78	1656.81
359.99	1785.83
360.20	1630.18
360.41	1667.05
360.62	1634.28
360.83	1763.30
361.04	1718.25
361.25	1724.39
361.46	1869.80
361.67	1890.28
361.88	1744.87
362.09	1824.74
362.30	1753.06
362.51	1679.33
362.72	1724.39
362.93	1767.40
363.14	1865.70
363.35	1699.81
363.56	1695.72
363.78	1773.54
363.99	1783.78
364.20	1734.63
364.41	1718.25
364.62	1728.49
364.83	1718.25
365.04	1710.05
365.25	1632.23
365.46	1890.28
365.67	1685.48
365.88	1589.22
366.09	1705.96
366.30	1720.29
366.51	1677.29
366.72	1703.91
366.93	1679.33
367.14	1703.91
367.35	1914.85
367.56	1695.72
367.77	1767.40
367.98	1720.29
368.18	1734.63
368.39	1742.82
368.60	1695.72
368.81	1748.97
369.02	1693.67
369.23	1701.86
369.44	1656.81
369.65	1679.33
369.86	1783.78
370.07	1763.30
370.28	1683.43
370.49	1705.96
370.70	1796.07
370.91	1650.66
371.12	1691.62
371.33	1763.30
371.54	1675.24
371.75	1814.50
371.96	1609.70
372.17	1697.77
372.38	1722.34
372.59	1761.25
372.80	1695.72
373.01	1726.44
373.22	1705.96
373.43	1603.56
373.64	1632.23
373.85	1816.55
374.06	1847.27
374.26	1716.20
374.47	1761.25
374.68	1722.34
374.89	1781.73
375.10	1708.01
375.31	1753.06
375.52	1658.85
375.73	1751.01
375.94	1675.24
376.15	1738.73
376.36	1730.53
376.57	1693.67
376.78	1675.24
376.99	1761.25
377.20	1814.50
377.40	1720.29
377.61	1814.50
377.82	1667.05
378.03	1810.40
378.24	1802.21
378.45	1703.91
378.66	1693.67
378.87	1607.66
379.08	1591.27
379.29	1714.15
379.50	1757.16
379.71	1683.43
379.91	1726.44
380.12	1667.05
380.33	1714.15
380.54	1705.96
380.75	1646.57
380.96	1673.19
381.17	1708.01
381.38	1675.24
381.59	1697.77
381.80	1789.92
382.00	1859.56
382.21	1734.63
382.42	1933.28
382.63	1855.46
382.84	1800.16
383.05	1839.08
383.26	1812.45
383.47	1712.10
383.68	1755.11
383.88	1765.35
384.09	1769.44
384.30	1806.31
384.51	1742.82
384.72	1701.86
384.93	1560.55
385.14	1714.15
385.35	1736.68
385.55	1652.71
385.76	1832.93
385.97	1724.39
386.18	1652.71
386.39	1667.05
386.60	1724.39
386.81	1703.91
387.02	1673.19
387.22	1693.67
387.43	1787.88
387.64	1851.36
387.85	1861.60
388.06	2166.75
388.27	4239.30
388.48	6809.50
388.68	8316.80
388.89	9645.93
389.10	9899.88
389.31	8554.37
389.52	7612.30
389.73	6635.42
389.93	6387.61
390.14	5846.95
390.35	5326.77
390.56	4558.78
390.77	3796.93
390.98	3049.43
391.18	2553.82
391.39	2148.32
391.60	1896.42
391.81	1959.91
392.02	1742.82
392.23	1847.27
392.43	1705.96
392.64	1791.97
392.85	1736.68
393.06	1845.22
393.27	1734.63
393.47	1660.90
393.68	1701.86
393.89	1734.63
394.10	1837.03
394.31	1671.14
394.52	1656.81
394.72	1626.09
394.93	1787.88
395.14	1759.21
395.35	1740.77
395.56	1652.71
395.76	1740.77
395.97	1771.49
396.18	1865.70
396.39	1816.55
396.60	2056.16
396.80	1898.47
397.01	1832.93
397.22	1925.09
397.43	1845.22
397.64	1724.39
397.84	1800.16
398.05	1886.18
398.26	1779.68
398.47	1830.88
398.67	1837.03
398.88	1738.73
399.09	1708.01
399.30	1703.91
399.51	1738.73
399.71	1609.70
399.92	1742.82
400.13	1691.62
400.34	1732.58
400.54	1734.63
400.75	1746.92
400.96	1746.92
401.17	1779.68
401.37	1794.02
401.58	1720.29
401.79	1705.96
402.00	1830.88
402.21	2019.30
402.41	1957.86
402.62	2000.87
402.83	2025.44
403.04	1994.72
403.24	1980.39
403.45	1837.03
403.66	1910.75
403.87	1875.94
404.07	1867.75
404.28	1894.37
404.49	1894.37
404.70	1826.79
404.90	1808.36
405.11	1822.69
405.32	1824.74
405.52	1730.53
405.73	1730.53
405.94	1687.53
406.15	1714.15
406.35	1701.86
406.56	1744.87
406.77	1699.81
406.98	1769.44
407.18	1736.68
407.39	1869.80
407.60	1701.86
407.80	1751.01
408.01	1705.96
408.22	1763.30
408.43	1701.86
408.63	1732.58
408.84	1777.64
409.05	1882.08
409.25	1703.91
409.46	1701.86
409.67	1687.53
409.88	1742.82
410.08	1656.81
410.29	1714.15
410.50	1775.59
410.70	1722.34
410.91	1720.29
411.12	1705.96
411.32	1671.14
411.53	1716.20
411.74	1794.02
411.95	1800.16
412.15	1779.68
412.36	1728.49
412.57	1759.21
412.77	1767.40
412.98	1728.49
413.19	1722.34
413.39	1773.54
413.60	1820.64
413.81	1863.65
414.01	1628.14
414.22	1736.68
414.43	1732.58
414.63	1710.05
414.84	1783.78
415.05	1705.96
415.25	1697.77
415.46	1734.63
415.67	1697.77
415.87	1722.34
416.08	1755.11
416.29	1738.73
416.49	1734.63
416.70	1757.16
416.91	1626.09
417.11	1744.87
417.32	1724.39
417.53	1742.82
417.73	1767.40
417.94	1732.58
418.15	1738.73
418.35	1609.70
418.56	1712.10
418.77	1914.85
418.97	1687.53
419.18	1695.72
419.38	1578.98
419.59	1730.53
419.80	1830.88
420.00	1689.57
420.21	1798.12
420.42	1732.58
420.62	1724.39
420.83	1640.42
421.04	1650.66
421.24	1693.67
421.45	1626.09
421.65	1753.06
421.86	1695.72
422.07	1724.39
422.27	1761.25
422.48	1699.81
422.69	1585.13
422.89	1679.33
423.10	1722.34
423.30	1697.77
423.51	1736.68
423.72	1742.82
423.92	1755.11
424.13	1654.76
424.33	1722.34
424.54	1753.06
424.75	1738.73
424.95	1861.60
425.16	1816.55
425.36	1740.77
425.57	1812.45
425.78	1687.53
425.98	1726.44
426.19	1734.63
426.39	1671.14
426.60	1779.68
426.81	1785.83
427.01	1710.05
427.22	1673.19
427.42	1621.99
427.63	1652.71
427.83	1820.64
428.04	1859.56
428.25	1787.88
428.45	1751.01
428.66	1816.55
428.86	1689.57
429.07	1759.21
429.28	1716.20
429.48	1683.43
429.69	1705.96
429.89	1804.26
430.10	1648.61
430.30	1720.29
430.51	1740.77
430.71	1718.25
430.92	1691.62
431.13	1689.57
431.33	1773.54
431.54	1722.34
431.74	1855.46
431.95	1851.36
432.15	1728.49
432.36	1710.05
432.56	1810.40
432.77	1818.60
432.98	1863.65
433.18	1759.21
433.39	1699.81
433.59	1677.29
433.80	1804.26
434.00	1884.13
434.21	1689.57
434.41	1679.33
434.62	1869.80
434.82	1701.86
435.03	1718.25
435.23	1785.83
435.44	1624.04
435.64	1712.10
435.85	1726.44
436.06	1824.74
436.26	1779.68
436.47	1763.30
436.67	1673.19
436.88	1718.25
437.08	1763.30
437.29	1814.50
437.49	1742.82
437.70	1738.73
437.90	1765.35
438.11	1843.17
438.31	1816.55
438.52	1847.27
438.72	1857.51
438.93	1804.26
439.13	1837.03
439.34	1771.49
439.54	1699.81
439.75	1697.77
439.95	1796.07
440.16	1689.57
440.36	1779.68
440.57	1814.50
440.77	1783.78
440.98	1757.16
441.18	1714.15
441.39	1814.50
441.59	1632.23
441.80	1773.54
442.00	1730.53
442.21	1814.50
442.41	1675.24
442.62	1861.60
442.82	1714.15
443.02	1740.77
443.23	1757.16
443.43	1701.86
443.64	1796.07
443.84	1734.63
444.05	1771.49
444.25	1755.11
444.46	1763.30
444.66	1783.78
444.87	1820.64
445.07	1609.70
445.28	1695.72
445.48	1871.84
445.69	1710.05
445.89	1900.52
446.09	1896.42
446.30	1964.00
446.50	2723.80
446.71	3696.58
446.91	4343.74
447.12	4792.25
447.32	4878.26
447.53	4335.55
447.73	3938.24
447.93	3493.83
448.14	3360.72
448.34	3266.51
448.55	2975.70
448.75	2889.68
448.96	2738.13
449.16	2463.71
449.36	2256.86
449.57	2146.27
449.77	1925.09
449.98	1785.83
450.18	1767.40
450.39	1828.84
450.59	1800.16
450.79	1789.92
451.00	1769.44
451.20	1736.68
451.41	1685.48
451.61	1779.68
451.81	1675.24
452.02	1679.33
452.22	1720.29
452.43	1673.19
452.63	1685.48
