SpectraSuite Data File
++++++++++++++++++++++++++++++++++++
Date: Mon Jun 06 14:37:37 CEST 2016
User: root
Dark Spectrum Present: No
Reference Spectrum Present: No
Number of Sampled Component Spectra: 1
Spectrometers: USB4C02835
Integration Time (usec): 100000 (USB4C02835)
Spectra Averaged: 1 (USB4C02835)
Boxcar Smoothing: 0 (USB4C02835)
Correct for Electrical Dark: No (USB4C02835)
Strobe/Lamp Enabled: No (USB4C02835)
Correct for Detector Non-linearity: No (USB4C02835)
Correct for Stray Light: No (USB4C02835)
Number of Pixels in Processed Spectrum: 3648
>>>>>Begin Processed Spectral Data<<<<<
177.47	1452.01
177.69	1452.01
177.91	1452.01
178.13	1458.15
178.36	1495.02
178.58	1525.74
178.80	1730.53
179.02	1695.72
179.24	1697.77
179.46	1650.66
179.68	1722.34
179.90	1689.57
180.13	1726.44
180.35	1644.52
180.57	1654.76
180.79	1691.62
181.01	1718.25
181.23	1712.10
181.45	1755.11
181.67	1703.91
181.90	1718.25
182.12	1628.14
182.34	1673.19
182.56	1810.40
182.78	1683.43
183.00	1755.11
183.22	1746.92
183.44	1576.94
183.66	1820.64
183.89	1791.97
184.11	1732.58
184.33	1654.76
184.55	1755.11
184.77	1677.29
184.99	1798.12
185.21	1673.19
185.43	1804.26
185.65	1705.96
185.87	1726.44
186.10	1789.92
186.32	1804.26
186.54	1826.79
186.76	1689.57
186.98	1767.40
187.20	1701.86
187.42	1689.57
187.64	1740.77
187.86	1751.01
188.08	1781.73
188.30	1683.43
188.52	1662.95
188.75	1742.82
188.97	1759.21
189.19	1644.52
189.41	1697.77
189.63	1763.30
189.85	1667.05
190.07	1599.46
190.29	1609.70
190.51	1724.39
190.73	1658.85
190.95	1763.30
191.17	1710.05
191.39	1607.66
191.61	1665.00
191.84	1679.33
192.06	1685.48
192.28	1638.38
192.50	1834.98
192.72	1703.91
192.94	1671.14
193.16	1757.16
193.38	1691.62
193.60	1644.52
193.82	1615.85
194.04	1732.58
194.26	1687.53
194.48	1703.91
194.70	1699.81
194.92	1630.18
195.14	1683.43
195.36	1632.23
195.58	1763.30
195.80	1697.77
196.02	1550.31
196.24	1648.61
196.46	1656.81
196.69	1632.23
196.91	1818.60
197.13	1671.14
197.35	1677.29
197.57	1734.63
197.79	1703.91
198.01	1740.77
198.23	1791.97
198.45	1689.57
198.67	1652.71
198.89	1669.09
199.11	1697.77
199.33	1736.68
199.55	1578.98
199.77	1597.42
199.99	1775.59
200.21	1652.71
200.43	1804.26
200.65	1671.14
200.87	1578.98
201.09	1695.72
201.31	1720.29
201.53	1773.54
201.75	1689.57
201.97	1722.34
202.19	1632.23
202.41	1740.77
202.63	1742.82
202.85	1656.81
203.07	1751.01
203.29	1669.09
203.51	1624.04
203.73	1701.86
203.95	1837.03
204.17	1720.29
204.39	1640.42
204.61	1654.76
204.83	1683.43
205.05	1755.11
205.27	1712.10
205.49	1798.12
205.71	1726.44
205.93	1628.14
206.15	1667.05
206.37	1687.53
206.59	1619.94
206.81	1552.36
207.03	1667.05
207.25	1595.37
207.47	1714.15
207.69	1646.57
207.91	1728.49
208.13	1763.30
208.34	1710.05
208.56	1624.04
208.78	1769.44
209.00	1720.29
209.22	1652.71
209.44	1718.25
209.66	1621.99
209.88	1693.67
210.10	1679.33
210.32	1724.39
210.54	1718.25
210.76	1654.76
210.98	1736.68
211.20	1628.14
211.42	1656.81
211.64	1779.68
211.86	1691.62
212.08	1677.29
212.30	1738.73
212.52	1673.19
212.74	1738.73
212.96	1746.92
213.17	1708.01
213.39	1714.15
213.61	1734.63
213.83	1738.73
214.05	1589.22
214.27	1665.00
214.49	1638.38
214.71	1712.10
214.93	1781.73
215.15	1701.86
215.37	1783.78
215.59	1638.38
215.81	1791.97
216.03	1789.92
216.24	1708.01
216.46	1712.10
216.68	1744.87
216.90	1718.25
217.12	1697.77
217.34	1724.39
217.56	1673.19
217.78	1767.40
218.00	1699.81
218.22	1648.61
218.44	1695.72
218.66	1767.40
218.87	1746.92
219.09	1695.72
219.31	1689.57
219.53	1724.39
219.75	1679.33
219.97	1744.87
220.19	1734.63
220.41	1714.15
220.63	1746.92
220.85	1726.44
221.06	1689.57
221.28	1742.82
221.50	1689.57
221.72	1718.25
221.94	1701.86
222.16	1683.43
222.38	1769.44
222.60	1724.39
222.82	1662.95
223.03	1736.68
223.25	1640.42
223.47	1759.21
223.69	1853.41
223.91	1781.73
224.13	1642.47
224.35	1562.60
224.57	1779.68
224.78	1757.16
225.00	1642.47
225.22	1691.62
225.44	1705.96
225.66	1705.96
225.88	1603.56
226.10	1755.11
226.32	1785.83
226.53	1736.68
226.75	1669.09
226.97	1732.58
227.19	1697.77
227.41	1718.25
227.63	1626.09
227.85	1634.28
228.06	1662.95
228.28	1714.15
228.50	1728.49
228.72	1681.38
228.94	1677.29
229.16	1665.00
229.37	1648.61
229.59	1656.81
229.81	1769.44
230.03	1607.66
230.25	1646.57
230.47	1648.61
230.69	1585.13
230.90	1765.35
231.12	1695.72
231.34	1677.29
231.56	1841.12
231.78	1605.61
232.00	1732.58
232.21	1734.63
232.43	1740.77
232.65	1566.70
232.87	1755.11
233.09	1630.18
233.30	1634.28
233.52	1683.43
233.74	1701.86
233.96	1656.81
234.18	1718.25
234.40	1632.23
234.61	1892.32
234.83	1615.85
235.05	1671.14
235.27	1834.98
235.49	1812.45
235.70	1691.62
235.92	1730.53
236.14	1701.86
236.36	1810.40
236.58	1619.94
236.79	1689.57
237.01	1669.09
237.23	1703.91
237.45	1773.54
237.67	1679.33
237.88	1660.90
238.10	1828.84
238.32	1714.15
238.54	1591.27
238.76	1699.81
238.97	1613.80
239.19	1695.72
239.41	1708.01
239.63	1779.68
239.85	1652.71
240.06	1652.71
240.28	1669.09
240.50	1738.73
240.72	1714.15
240.93	1722.34
241.15	1738.73
241.37	1712.10
241.59	1740.77
241.81	1656.81
242.02	1689.57
242.24	1802.21
242.46	1724.39
242.68	1644.52
242.89	1748.97
243.11	1720.29
243.33	1742.82
243.55	1691.62
243.76	1775.59
243.98	1656.81
244.20	1691.62
244.42	1730.53
244.64	1701.86
244.85	1570.79
245.07	1654.76
245.29	1775.59
245.51	1636.33
245.72	1701.86
245.94	1755.11
246.16	1761.25
246.38	1746.92
246.59	1624.04
246.81	1601.51
247.03	1732.58
247.24	1550.31
247.46	1685.48
247.68	1607.66
247.90	1705.96
248.11	1742.82
248.33	1726.44
248.55	1689.57
248.77	1734.63
248.98	1638.38
249.20	1806.31
249.42	1757.16
249.64	1724.39
249.85	1683.43
250.07	1642.47
250.29	1662.95
250.50	1626.09
250.72	1650.66
250.94	1667.05
251.16	1779.68
251.37	1728.49
251.59	1689.57
251.81	1712.10
252.02	1769.44
252.24	1617.90
252.46	1751.01
252.68	1675.24
252.89	1615.85
253.11	1628.14
253.33	1769.44
253.54	1761.25
253.76	1691.62
253.98	1654.76
254.20	1675.24
254.41	1665.00
254.63	1685.48
254.85	1554.41
255.06	1708.01
255.28	1710.05
255.50	1650.66
255.71	1642.47
255.93	1720.29
256.15	1730.53
256.36	1736.68
256.58	1693.67
256.80	1724.39
257.02	1591.27
257.23	1681.38
257.45	1722.34
257.67	1671.14
257.88	1714.15
258.10	1720.29
258.32	1648.61
258.53	1767.40
258.75	1798.12
258.97	1650.66
259.18	1656.81
259.40	1775.59
259.62	1746.92
259.83	1789.92
260.05	1755.11
260.27	1898.47
260.48	1771.49
260.70	1640.42
260.92	1613.80
261.13	1722.34
261.35	1685.48
261.57	1675.24
261.78	1619.94
262.00	1615.85
262.22	1685.48
262.43	1697.77
262.65	1712.10
262.86	1693.67
263.08	1824.74
263.30	1708.01
263.51	1576.94
263.73	1660.90
263.95	1767.40
264.16	1591.27
264.38	1705.96
264.60	1710.05
264.81	1654.76
265.03	1767.40
265.25	1710.05
265.46	1591.27
265.68	1671.14
265.89	1755.11
266.11	1636.33
266.33	1740.77
266.54	1748.97
266.76	1779.68
266.98	1718.25
267.19	1794.02
267.41	1791.97
267.62	1689.57
267.84	1615.85
268.06	1720.29
268.27	1621.99
268.49	1746.92
268.70	1755.11
268.92	1660.90
269.14	1630.18
269.35	1669.09
269.57	1722.34
269.79	1697.77
270.00	1699.81
270.22	1837.03
270.43	1667.05
270.65	1572.84
270.87	1720.29
271.08	1787.88
271.30	1734.63
271.51	1708.01
271.73	1718.25
271.95	1783.78
272.16	1789.92
272.38	1802.21
272.59	1632.23
272.81	1695.72
273.02	1705.96
273.24	1744.87
273.46	1677.29
273.67	1675.24
273.89	1669.09
274.10	1650.66
274.32	1763.30
274.54	1757.16
274.75	1640.42
274.97	1705.96
275.18	1705.96
275.40	1736.68
275.61	1726.44
275.83	1689.57
276.05	1697.77
276.26	1628.14
276.48	1724.39
276.69	1691.62
276.91	1613.80
277.12	1751.01
277.34	1814.50
277.55	1716.20
277.77	1742.82
277.99	1777.64
278.20	1634.28
278.42	1648.61
278.63	1679.33
278.85	1691.62
279.06	1585.13
279.28	1691.62
279.49	1687.53
279.71	1736.68
279.93	1740.77
280.14	1746.92
280.36	1650.66
280.57	1730.53
280.79	1748.97
281.00	1601.51
281.22	1708.01
281.43	1785.83
281.65	1617.90
281.86	1634.28
282.08	1626.09
282.29	1771.49
282.51	1552.36
282.73	1626.09
282.94	1636.33
283.16	1738.73
283.37	1701.86
283.59	1677.29
283.80	1767.40
284.02	1693.67
284.23	1748.97
284.45	1703.91
284.66	1656.81
284.88	1669.09
285.09	1732.58
285.31	1689.57
285.52	1728.49
285.74	1650.66
285.95	1775.59
286.17	1738.73
286.38	1703.91
286.60	1630.18
286.81	1691.62
287.03	1642.47
287.24	1638.38
287.46	1722.34
287.67	1708.01
287.89	1753.06
288.10	1701.86
288.32	1681.38
288.53	1736.68
288.75	1732.58
288.96	1781.73
289.18	1648.61
289.39	1691.62
289.61	1757.16
289.82	1794.02
290.04	1824.74
290.25	1714.15
290.47	1744.87
290.68	1646.57
290.90	1759.21
291.11	1624.04
291.33	1751.01
291.54	1587.18
291.76	1710.05
291.97	1734.63
292.18	1763.30
292.40	1636.33
292.61	1724.39
292.83	1834.98
293.04	1665.00
293.26	1769.44
293.47	1695.72
293.69	1669.09
293.90	1789.92
294.12	1732.58
294.33	1736.68
294.55	1701.86
294.76	1738.73
294.97	1775.59
295.19	1855.46
295.40	1685.48
295.62	1716.20
295.83	1722.34
296.05	1673.19
296.26	1730.53
296.48	1634.28
296.69	1652.71
296.90	1716.20
297.12	1710.05
297.33	1751.01
297.55	1734.63
297.76	1716.20
297.98	1734.63
298.19	1667.05
298.41	1705.96
298.62	1640.42
298.83	1689.57
299.05	1730.53
299.26	1599.46
299.48	1675.24
299.69	1767.40
299.90	1679.33
300.12	1587.18
300.33	1724.39
300.55	1726.44
300.76	1705.96
300.98	1722.34
301.19	1703.91
301.40	1640.42
301.62	1675.24
301.83	1751.01
302.05	1695.72
302.26	1669.09
302.47	1710.05
302.69	1601.51
302.90	1736.68
303.12	1591.27
303.33	1718.25
303.54	1804.26
303.76	1642.47
303.97	1693.67
304.19	1714.15
304.40	1564.65
304.61	1755.11
304.83	1726.44
305.04	1771.49
305.26	1714.15
305.47	1615.85
305.68	1722.34
305.90	1642.47
306.11	1746.92
306.33	1646.57
306.54	1648.61
306.75	1699.81
306.97	1611.75
307.18	1675.24
307.39	1699.81
307.61	1722.34
307.82	1761.25
308.04	1640.42
308.25	1683.43
308.46	1791.97
308.68	1710.05
308.89	1683.43
309.10	1777.64
309.32	1726.44
309.53	1691.62
309.74	1654.76
309.96	1648.61
310.17	1781.73
310.39	1712.10
310.60	1640.42
310.81	1695.72
311.03	1634.28
311.24	1722.34
311.45	1769.44
311.67	1796.07
311.88	1630.18
312.09	1720.29
312.31	1705.96
312.52	1720.29
312.73	1697.77
312.95	1626.09
313.16	1619.94
313.37	1785.83
313.59	1746.92
313.80	1746.92
314.01	1767.40
314.23	1775.59
314.44	1654.76
314.65	1626.09
314.87	1718.25
315.08	1654.76
315.29	1693.67
315.51	1632.23
315.72	1554.41
315.93	1693.67
316.15	1761.25
316.36	1712.10
316.57	1648.61
316.79	1669.09
317.00	1677.29
317.21	1621.99
317.43	1677.29
317.64	1718.25
317.85	1677.29
318.07	1714.15
318.28	1808.36
318.49	1812.45
318.70	1931.23
318.92	1865.70
319.13	1757.16
319.34	1845.22
319.56	1787.88
319.77	1867.75
319.98	1794.02
320.20	1763.30
320.41	1724.39
320.62	1763.30
320.83	1634.28
321.05	1787.88
321.26	1738.73
321.47	1720.29
321.69	1748.97
321.90	1583.08
322.11	1718.25
322.32	1685.48
322.54	1771.49
322.75	1673.19
322.96	1925.09
323.18	1611.75
323.39	1538.02
323.60	1681.38
323.81	1757.16
324.03	1712.10
324.24	1705.96
324.45	1738.73
324.66	1718.25
324.88	1800.16
325.09	1699.81
325.30	1714.15
325.52	1710.05
325.73	1748.97
325.94	1636.33
326.15	1615.85
326.37	1644.52
326.58	1775.59
326.79	1814.50
327.00	1667.05
327.22	1777.64
327.43	1646.57
327.64	1578.98
327.85	1773.54
328.07	1710.05
328.28	1794.02
328.49	1691.62
328.70	1708.01
328.92	1673.19
329.13	1693.67
329.34	1624.04
329.55	1841.12
329.76	1763.30
329.98	1691.62
330.19	1832.93
330.40	1609.70
330.61	1681.38
330.83	1812.45
331.04	1693.67
331.25	1632.23
331.46	1658.85
331.68	1632.23
331.89	1746.92
332.10	1677.29
332.31	1687.53
332.52	1669.09
332.74	1738.73
332.95	1669.09
333.16	1669.09
333.37	1773.54
333.58	1697.77
333.80	1681.38
334.01	1658.85
334.22	1755.11
334.43	1665.00
334.64	1689.57
334.86	1587.18
335.07	1665.00
335.28	1757.16
335.49	1550.31
335.70	1744.87
335.92	1777.64
336.13	1816.55
336.34	1697.77
336.55	1691.62
336.76	1691.62
336.98	1607.66
337.19	1677.29
337.40	1845.22
337.61	1945.57
337.82	1695.72
338.04	1695.72
338.25	1558.50
338.46	1669.09
338.67	1695.72
338.88	1671.14
339.09	1648.61
339.31	1591.27
339.52	1609.70
339.73	1710.05
339.94	1685.48
340.15	1732.58
340.36	1708.01
340.58	1689.57
340.79	1671.14
341.00	1685.48
341.21	1716.20
341.42	1773.54
341.63	1638.38
341.85	1714.15
342.06	1757.16
342.27	1712.10
342.48	1789.92
342.69	1599.46
342.90	1751.01
343.12	1701.86
343.33	1714.15
343.54	1806.31
343.75	1814.50
343.96	1646.57
344.17	1656.81
344.38	1722.34
344.60	1728.49
344.81	1624.04
345.02	1628.14
345.23	1714.15
345.44	1810.40
345.65	1697.77
345.86	1681.38
346.07	1685.48
346.29	1624.04
346.50	1710.05
346.71	1724.39
346.92	1761.25
347.13	1798.12
347.34	1648.61
347.55	1705.96
347.76	1732.58
347.98	1542.12
348.19	1705.96
348.40	1814.50
348.61	1677.29
348.82	1802.21
349.03	1722.34
349.24	1656.81
349.45	1775.59
349.66	1589.22
349.88	1736.68
350.09	1634.28
350.30	1767.40
350.51	1705.96
350.72	1675.24
350.93	1705.96
351.14	1642.47
351.35	1712.10
351.56	1773.54
351.77	1746.92
351.99	1736.68
352.20	1724.39
352.41	1808.36
352.62	1642.47
352.83	1638.38
353.04	1679.33
353.25	1716.20
353.46	1708.01
353.67	1722.34
353.88	1583.08
354.09	1671.14
354.30	1665.00
354.52	1665.00
354.73	1734.63
354.94	1617.90
355.15	1716.20
355.36	1785.83
355.57	1628.14
355.78	1658.85
355.99	1640.42
356.20	1681.38
356.41	1681.38
356.62	1779.68
356.83	1632.23
357.04	1771.49
357.25	1652.71
357.46	1671.14
357.68	1568.74
357.89	1718.25
358.10	1712.10
358.31	1681.38
358.52	1658.85
358.73	1671.14
358.94	1646.57
359.15	1667.05
359.36	1712.10
359.57	1689.57
359.78	1703.91
359.99	1724.39
360.20	1669.09
360.41	1671.14
360.62	1677.29
360.83	1710.05
361.04	1650.66
361.25	1705.96
361.46	1863.65
361.67	1673.19
361.88	1826.79
362.09	1746.92
362.30	1753.06
362.51	1679.33
362.72	1728.49
362.93	1736.68
363.14	1730.53
363.35	1693.67
363.56	1671.14
363.78	1708.01
363.99	1712.10
364.20	1687.53
364.41	1691.62
364.62	1816.55
364.83	1621.99
365.04	1751.01
365.25	1681.38
365.46	1791.97
365.67	1701.86
365.88	1636.33
366.09	1675.24
366.30	1662.95
366.51	1734.63
366.72	1648.61
366.93	1746.92
367.14	1728.49
367.35	1783.78
367.56	1689.57
367.77	1800.16
367.98	1699.81
368.18	1650.66
368.39	1751.01
368.60	1708.01
368.81	1751.01
369.02	1751.01
369.23	1648.61
369.44	1578.98
369.65	1669.09
369.86	1738.73
370.07	1734.63
370.28	1738.73
370.49	1683.43
370.70	1742.82
370.91	1621.99
371.12	1642.47
371.33	1665.00
371.54	1673.19
371.75	1787.88
371.96	1550.31
372.17	1751.01
372.38	1753.06
372.59	1740.77
372.80	1693.67
373.01	1683.43
373.22	1720.29
373.43	1714.15
373.64	1535.98
373.85	1695.72
374.06	1849.32
374.26	1746.92
374.47	1705.96
374.68	1746.92
374.89	1746.92
375.10	1675.24
375.31	1755.11
375.52	1638.38
375.73	1701.86
375.94	1613.80
376.15	1806.31
376.36	1654.76
376.57	1759.21
376.78	1705.96
376.99	1744.87
377.20	1767.40
377.40	1710.05
377.61	1804.26
377.82	1673.19
378.03	1769.44
378.24	1787.88
378.45	1703.91
378.66	1705.96
378.87	1613.80
379.08	1603.56
379.29	1660.90
379.50	1775.59
379.71	1607.66
379.91	1845.22
380.12	1722.34
380.33	1771.49
380.54	1681.38
380.75	1736.68
380.96	1642.47
381.17	1718.25
381.38	1732.58
381.59	1685.48
381.80	1744.87
382.00	1841.12
382.21	1730.53
382.42	1847.27
382.63	1896.42
382.84	1751.01
383.05	1765.35
383.26	1808.36
383.47	1708.01
383.68	1685.48
383.88	1597.42
384.09	1785.83
384.30	1779.68
384.51	1791.97
384.72	1650.66
384.93	1638.38
385.14	1708.01
385.35	1732.58
385.55	1695.72
385.76	1783.78
385.97	1712.10
386.18	1652.71
386.39	1667.05
386.60	1730.53
386.81	1648.61
387.02	1687.53
387.22	1665.00
387.43	1722.34
387.64	1800.16
387.85	1865.70
388.06	2252.77
388.27	4235.20
388.48	6803.35
388.68	8363.90
388.89	9629.55
389.10	9883.50
389.31	8671.10
389.52	7444.37
389.73	6709.15
389.93	6250.40
390.14	5869.48
390.35	5224.37
390.56	4595.64
390.77	3702.73
390.98	3102.67
391.18	2516.95
391.39	2201.57
391.60	1789.92
391.81	1880.04
392.02	1738.73
392.23	1837.03
392.43	1703.91
392.64	1742.82
392.85	1679.33
393.06	1839.08
393.27	1699.81
393.47	1691.62
393.68	1699.81
393.89	1716.20
394.10	1742.82
394.31	1683.43
394.52	1691.62
394.72	1646.57
394.93	1814.50
395.14	1728.49
395.35	1626.09
395.56	1742.82
395.76	1728.49
395.97	1748.97
396.18	1849.32
396.39	1810.40
396.60	2045.92
396.80	1824.74
397.01	1800.16
397.22	1882.08
397.43	1851.36
397.64	1746.92
397.84	1785.83
398.05	1892.32
398.26	1712.10
398.47	1820.64
398.67	1761.25
398.88	1687.53
399.09	1701.86
399.30	1644.52
399.51	1771.49
399.71	1687.53
399.92	1685.48
400.13	1665.00
400.34	1628.14
400.54	1611.75
400.75	1814.50
400.96	1738.73
401.17	1824.74
401.37	1730.53
401.58	1691.62
401.79	1775.59
402.00	1845.22
402.21	2011.11
402.41	1957.86
402.62	1918.95
402.83	2074.59
403.04	1947.62
403.24	2025.44
403.45	1810.40
403.66	1906.66
403.87	1861.60
404.07	1896.42
404.28	1912.80
404.49	1904.61
404.70	1765.35
404.90	1832.93
405.11	1685.48
405.32	1728.49
405.52	1609.70
405.73	1626.09
405.94	1632.23
406.15	1726.44
406.35	1705.96
406.56	1734.63
406.77	1671.14
406.98	1683.43
407.18	1583.08
407.39	1726.44
407.60	1744.87
407.80	1748.97
408.01	1669.09
408.22	1751.01
408.43	1691.62
408.63	1710.05
408.84	1720.29
409.05	1755.11
409.25	1675.24
409.46	1738.73
409.67	1679.33
409.88	1667.05
410.08	1783.78
410.29	1656.81
410.50	1730.53
410.70	1689.57
410.91	1669.09
411.12	1673.19
411.32	1730.53
411.53	1705.96
411.74	1857.51
411.95	1716.20
412.15	1802.21
412.36	1814.50
412.57	1656.81
412.77	1816.55
412.98	1699.81
413.19	1685.48
413.39	1771.49
413.60	1755.11
413.81	1800.16
414.01	1675.24
414.22	1759.21
414.43	1771.49
414.63	1675.24
414.84	1693.67
415.05	1693.67
415.25	1611.75
415.46	1769.44
415.67	1630.18
415.87	1736.68
416.08	1636.33
416.29	1669.09
416.49	1798.12
416.70	1730.53
416.91	1716.20
417.11	1628.14
417.32	1734.63
417.53	1769.44
417.73	1718.25
417.94	1669.09
418.15	1650.66
418.35	1617.90
418.56	1740.77
418.77	1927.14
418.97	1699.81
419.18	1705.96
419.38	1591.27
419.59	1738.73
419.80	1767.40
420.00	1708.01
420.21	1765.35
420.42	1724.39
420.62	1722.34
420.83	1730.53
421.04	1734.63
421.24	1761.25
421.45	1746.92
421.65	1736.68
421.86	1701.86
422.07	1781.73
422.27	1685.48
422.48	1677.29
422.69	1656.81
422.89	1714.15
423.10	1720.29
423.30	1546.22
423.51	1710.05
423.72	1705.96
423.92	1697.77
424.13	1589.22
424.33	1740.77
424.54	1773.54
424.75	1626.09
424.95	1869.80
425.16	1722.34
425.36	1654.76
425.57	1738.73
425.78	1748.97
425.98	1767.40
426.19	1714.15
426.39	1568.74
426.60	1714.15
426.81	1765.35
427.01	1761.25
427.22	1642.47
427.42	1593.32
427.63	1574.89
427.83	1775.59
428.04	1726.44
428.25	1824.74
428.45	1675.24
428.66	1757.16
428.86	1667.05
429.07	1679.33
429.28	1716.20
429.48	1628.14
429.69	1738.73
429.89	1738.73
430.10	1540.07
430.30	1691.62
430.51	1824.74
430.71	1628.14
430.92	1660.90
431.13	1665.00
431.33	1755.11
431.54	1710.05
431.74	1804.26
431.95	1853.41
432.15	1671.14
432.36	1732.58
432.56	1751.01
432.77	1810.40
432.98	1796.07
433.18	1746.92
433.39	1665.00
433.59	1703.91
433.80	1814.50
434.00	1867.75
434.21	1660.90
434.41	1650.66
434.62	1839.08
434.82	1691.62
435.03	1669.09
435.23	1679.33
435.44	1628.14
435.64	1765.35
435.85	1728.49
436.06	1695.72
436.26	1808.36
436.47	1675.24
436.67	1624.04
436.88	1697.77
437.08	1718.25
437.29	1767.40
437.49	1699.81
437.70	1781.73
437.90	1748.97
438.11	1845.22
438.31	1832.93
438.52	1824.74
438.72	1865.70
438.93	1865.70
439.13	1765.35
439.34	1861.60
439.54	1761.25
439.75	1781.73
439.95	1837.03
440.16	1716.20
440.36	1722.34
440.57	1763.30
440.77	1697.77
440.98	1761.25
441.18	1806.31
441.39	1691.62
441.59	1685.48
441.80	1859.56
442.00	1673.19
442.21	1746.92
442.41	1621.99
442.62	1800.16
442.82	1738.73
443.02	1728.49
443.23	1679.33
443.43	1767.40
443.64	1791.97
443.84	1722.34
444.05	1769.44
444.25	1685.48
444.46	1697.77
444.66	1759.21
444.87	1865.70
445.07	1562.60
445.28	1689.57
445.48	1763.30
445.69	1783.78
445.89	1875.94
446.09	1714.15
446.30	2062.30
446.50	2535.39
446.71	3745.73
446.91	4325.31
447.12	4716.47
447.32	4859.83
447.53	4353.98
447.73	3852.23
447.93	3553.23
448.14	3262.41
448.34	3313.61
448.55	2959.31
448.75	2961.36
448.96	2648.02
449.16	2400.22
449.36	2316.25
449.57	2093.02
449.77	1857.51
449.98	1802.21
450.18	1837.03
450.39	1822.69
450.59	1744.87
450.79	1705.96
451.00	1628.14
451.20	1744.87
451.41	1732.58
451.61	1755.11
451.81	1724.39
452.02	1736.68
452.22	1665.00
452.43	1726.44
452.63	1687.53
