SpectraSuite Data File
++++++++++++++++++++++++++++++++++++
Date: Mon Jun 06 17:16:17 CEST 2016
User: root
Dark Spectrum Present: No
Reference Spectrum Present: No
Number of Sampled Component Spectra: 1
Spectrometers: USB4C02835
Integration Time (usec): 100000 (USB4C02835)
Spectra Averaged: 1 (USB4C02835)
Boxcar Smoothing: 0 (USB4C02835)
Correct for Electrical Dark: No (USB4C02835)
Strobe/Lamp Enabled: No (USB4C02835)
Correct for Detector Non-linearity: No (USB4C02835)
Correct for Stray Light: No (USB4C02835)
Number of Pixels in Processed Spectrum: 3648
>>>>>Begin Processed Spectral Data<<<<<
177.47	1398.76
177.69	1398.76
177.91	1398.76
178.13	1501.16
178.36	1452.01
178.58	1626.09
178.80	1687.53
179.02	1691.62
179.24	1697.77
179.46	1703.91
179.68	1751.01
179.90	1722.34
180.13	1699.81
180.35	1677.29
180.57	1665.00
180.79	1773.54
181.01	1671.14
181.23	1732.58
181.45	1812.45
181.67	1695.72
181.90	1730.53
182.12	1660.90
182.34	1658.85
182.56	1703.91
182.78	1689.57
183.00	1777.64
183.22	1802.21
183.44	1632.23
183.66	1794.02
183.89	1832.93
184.11	1712.10
184.33	1687.53
184.55	1771.49
184.77	1759.21
184.99	1818.60
185.21	1693.67
185.43	1849.32
185.65	1703.91
185.87	1699.81
186.10	1783.78
186.32	1837.03
186.54	1751.01
186.76	1695.72
186.98	1785.83
187.20	1699.81
187.42	1658.85
187.64	1722.34
187.86	1685.48
188.08	1732.58
188.30	1716.20
188.52	1714.15
188.75	1806.31
188.97	1781.73
189.19	1683.43
189.41	1652.71
189.63	1722.34
189.85	1689.57
190.07	1669.09
190.29	1699.81
190.51	1720.29
190.73	1599.46
190.95	1757.16
191.17	1748.97
191.39	1617.90
191.61	1646.57
191.84	1697.77
192.06	1712.10
192.28	1677.29
192.50	1910.75
192.72	1789.92
192.94	1665.00
193.16	1818.60
193.38	1798.12
193.60	1673.19
193.82	1656.81
194.04	1705.96
194.26	1718.25
194.48	1640.42
194.70	1632.23
194.92	1642.47
195.14	1701.86
195.36	1628.14
195.58	1667.05
195.80	1787.88
196.02	1689.57
196.24	1703.91
196.46	1675.24
196.69	1683.43
196.91	1818.60
197.13	1697.77
197.35	1689.57
197.57	1816.55
197.79	1720.29
198.01	1832.93
198.23	1738.73
198.45	1730.53
198.67	1660.90
198.89	1660.90
199.11	1710.05
199.33	1681.38
199.55	1613.80
199.77	1701.86
199.99	1730.53
200.21	1669.09
200.43	1751.01
200.65	1611.75
200.87	1591.27
201.09	1757.16
201.31	1656.81
201.53	1720.29
201.75	1767.40
201.97	1691.62
202.19	1730.53
202.41	1783.78
202.63	1849.32
202.85	1736.68
203.07	1775.59
203.29	1644.52
203.51	1673.19
203.73	1665.00
203.95	1863.65
204.17	1746.92
204.39	1761.25
204.61	1738.73
204.83	1683.43
205.05	1781.73
205.27	1689.57
205.49	1691.62
205.71	1826.79
205.93	1728.49
206.15	1640.42
206.37	1738.73
206.59	1746.92
206.81	1650.66
207.03	1626.09
207.25	1701.86
207.47	1748.97
207.69	1791.97
207.91	1734.63
208.13	1728.49
208.34	1636.33
208.56	1759.21
208.78	1800.16
209.00	1701.86
209.22	1708.01
209.44	1730.53
209.66	1726.44
209.88	1742.82
210.10	1767.40
210.32	1740.77
210.54	1710.05
210.76	1677.29
210.98	1802.21
211.20	1589.22
211.42	1716.20
211.64	1785.83
211.86	1673.19
212.08	1789.92
212.30	1681.38
212.52	1693.67
212.74	1734.63
212.96	1746.92
213.17	1765.35
213.39	1775.59
213.61	1691.62
213.83	1783.78
214.05	1650.66
214.27	1705.96
214.49	1609.70
214.71	1650.66
214.93	1667.05
215.15	1751.01
215.37	1746.92
215.59	1667.05
215.81	1742.82
216.03	1796.07
216.24	1734.63
216.46	1687.53
216.68	1667.05
216.90	1828.84
217.12	1826.79
217.34	1722.34
217.56	1746.92
217.78	1734.63
218.00	1769.44
218.22	1734.63
218.44	1728.49
218.66	1812.45
218.87	1839.08
219.09	1697.77
219.31	1796.07
219.53	1683.43
219.75	1665.00
219.97	1656.81
220.19	1685.48
220.41	1644.52
220.63	1761.25
220.85	1683.43
221.06	1685.48
221.28	1769.44
221.50	1722.34
221.72	1759.21
221.94	1740.77
222.16	1701.86
222.38	1843.17
222.60	1763.30
222.82	1675.24
223.03	1703.91
223.25	1560.55
223.47	1740.77
223.69	1808.36
223.91	1701.86
224.13	1701.86
224.35	1630.18
224.57	1748.97
224.78	1796.07
225.00	1677.29
225.22	1689.57
225.44	1681.38
225.66	1640.42
225.88	1636.33
226.10	1742.82
226.32	1796.07
226.53	1832.93
226.75	1720.29
226.97	1736.68
227.19	1740.77
227.41	1724.39
227.63	1667.05
227.85	1621.99
228.06	1742.82
228.28	1714.15
228.50	1744.87
228.72	1636.33
228.94	1730.53
229.16	1691.62
229.37	1671.14
229.59	1619.94
229.81	1701.86
230.03	1712.10
230.25	1677.29
230.47	1603.56
230.69	1685.48
230.90	1775.59
231.12	1705.96
231.34	1691.62
231.56	1779.68
231.78	1642.47
232.00	1722.34
232.21	1699.81
232.43	1691.62
232.65	1626.09
232.87	1744.87
233.09	1574.89
233.30	1644.52
233.52	1714.15
233.74	1722.34
233.96	1748.97
234.18	1642.47
234.40	1712.10
234.61	1822.69
234.83	1667.05
235.05	1656.81
235.27	1849.32
235.49	1808.36
235.70	1765.35
235.92	1757.16
236.14	1683.43
236.36	1904.61
236.58	1628.14
236.79	1730.53
237.01	1738.73
237.23	1710.05
237.45	1849.32
237.67	1662.95
237.88	1740.77
238.10	1822.69
238.32	1626.09
238.54	1675.24
238.76	1701.86
238.97	1679.33
239.19	1642.47
239.41	1732.58
239.63	1748.97
239.85	1716.20
240.06	1699.81
240.28	1722.34
240.50	1738.73
240.72	1648.61
240.93	1660.90
241.15	1765.35
241.37	1748.97
241.59	1785.83
241.81	1675.24
242.02	1722.34
242.24	1748.97
242.46	1769.44
242.68	1714.15
242.89	1730.53
243.11	1757.16
243.33	1761.25
243.55	1757.16
243.76	1763.30
243.98	1724.39
244.20	1742.82
244.42	1703.91
244.64	1814.50
244.85	1718.25
245.07	1650.66
245.29	1681.38
245.51	1681.38
245.72	1746.92
245.94	1699.81
246.16	1769.44
246.38	1759.21
246.59	1744.87
246.81	1669.09
247.03	1738.73
247.24	1611.75
247.46	1671.14
247.68	1748.97
247.90	1658.85
248.11	1722.34
248.33	1761.25
248.55	1708.01
248.77	1753.06
248.98	1689.57
249.20	1796.07
249.42	1667.05
249.64	1748.97
249.85	1710.05
250.07	1675.24
250.29	1716.20
250.50	1779.68
250.72	1644.52
250.94	1800.16
251.16	1810.40
251.37	1779.68
251.59	1714.15
251.81	1730.53
252.02	1757.16
252.24	1673.19
252.46	1785.83
252.68	1677.29
252.89	1648.61
253.11	1675.24
253.33	1826.79
253.54	1810.40
253.76	1615.85
253.98	1658.85
254.20	1714.15
254.41	1630.18
254.63	1652.71
254.85	1716.20
255.06	1656.81
255.28	1787.88
255.50	1736.68
255.71	1722.34
255.93	1636.33
256.15	1699.81
256.36	1742.82
256.58	1644.52
256.80	1814.50
257.02	1687.53
257.23	1714.15
257.45	1722.34
257.67	1757.16
257.88	1718.25
258.10	1734.63
258.32	1773.54
258.53	1650.66
258.75	1820.64
258.97	1693.67
259.18	1724.39
259.40	1783.78
259.62	1826.79
259.83	1775.59
260.05	1751.01
260.27	2043.87
260.48	1714.15
260.70	1640.42
260.92	1679.33
261.13	1783.78
261.35	1708.01
261.57	1734.63
261.78	1644.52
262.00	1628.14
262.22	1722.34
262.43	1646.57
262.65	1701.86
262.86	1679.33
263.08	1865.70
263.30	1669.09
263.51	1644.52
263.73	1675.24
263.95	1742.82
264.16	1667.05
264.38	1632.23
264.60	1773.54
264.81	1685.48
265.03	1804.26
265.25	1724.39
265.46	1730.53
265.68	1697.77
265.89	1767.40
266.11	1562.60
266.33	1773.54
266.54	1738.73
266.76	1744.87
266.98	1718.25
267.19	1800.16
267.41	1728.49
267.62	1751.01
267.84	1662.95
268.06	1781.73
268.27	1794.02
268.49	1751.01
268.70	1806.31
268.92	1697.77
269.14	1703.91
269.35	1634.28
269.57	1683.43
269.79	1779.68
270.00	1748.97
270.22	1839.08
270.43	1685.48
270.65	1607.66
270.87	1718.25
271.08	1789.92
271.30	1730.53
271.51	1675.24
271.73	1701.86
271.95	1773.54
272.16	1712.10
272.38	1691.62
272.59	1626.09
272.81	1781.73
273.02	1720.29
273.24	1705.96
273.46	1740.77
273.67	1632.23
273.89	1693.67
274.10	1718.25
274.32	1718.25
274.54	1683.43
274.75	1695.72
274.97	1669.09
275.18	1748.97
275.40	1748.97
275.61	1753.06
275.83	1720.29
276.05	1738.73
276.26	1757.16
276.48	1765.35
276.69	1722.34
276.91	1685.48
277.12	1712.10
277.34	1759.21
277.55	1757.16
277.77	1648.61
277.99	1685.48
278.20	1671.14
278.42	1634.28
278.63	1708.01
278.85	1669.09
279.06	1722.34
279.28	1644.52
279.49	1763.30
279.71	1763.30
279.93	1693.67
280.14	1710.05
280.36	1679.33
280.57	1728.49
280.79	1724.39
281.00	1609.70
281.22	1722.34
281.43	1753.06
281.65	1609.70
281.86	1624.04
282.08	1742.82
282.29	1775.59
282.51	1591.27
282.73	1699.81
282.94	1581.03
283.16	1765.35
283.37	1804.26
283.59	1665.00
283.80	1789.92
284.02	1679.33
284.23	1757.16
284.45	1697.77
284.66	1658.85
284.88	1640.42
285.09	1759.21
285.31	1710.05
285.52	1660.90
285.74	1624.04
285.95	1759.21
286.17	1783.78
286.38	1703.91
286.60	1636.33
286.81	1689.57
287.03	1665.00
287.24	1701.86
287.46	1740.77
287.67	1687.53
287.89	1767.40
288.10	1736.68
288.32	1769.44
288.53	1787.88
288.75	1691.62
288.96	1779.68
289.18	1724.39
289.39	1732.58
289.61	1783.78
289.82	1810.40
290.04	1880.04
290.25	1619.94
290.47	1685.48
290.68	1746.92
290.90	1800.16
291.11	1638.38
291.33	1751.01
291.54	1656.81
291.76	1722.34
291.97	1640.42
292.18	1638.38
292.40	1677.29
292.61	1656.81
292.83	1830.88
293.04	1748.97
293.26	1763.30
293.47	1761.25
293.69	1673.19
293.90	1691.62
294.12	1765.35
294.33	1744.87
294.55	1675.24
294.76	1751.01
294.97	1798.12
295.19	1789.92
295.40	1710.05
295.62	1624.04
295.83	1781.73
296.05	1669.09
296.26	1759.21
296.48	1642.47
296.69	1710.05
296.90	1587.18
297.12	1767.40
297.33	1755.11
297.55	1738.73
297.76	1755.11
297.98	1808.36
298.19	1732.58
298.41	1626.09
298.62	1650.66
298.83	1761.25
299.05	1718.25
299.26	1738.73
299.48	1716.20
299.69	1787.88
299.90	1730.53
300.12	1708.01
300.33	1755.11
300.55	1669.09
300.76	1738.73
300.98	1691.62
301.19	1728.49
301.40	1705.96
301.62	1691.62
301.83	1677.29
302.05	1667.05
302.26	1693.67
302.47	1738.73
302.69	1638.38
302.90	1724.39
303.12	1621.99
303.33	1740.77
303.54	1882.08
303.76	1646.57
303.97	1726.44
304.19	1841.12
304.40	1601.51
304.61	1751.01
304.83	1847.27
305.04	1763.30
305.26	1730.53
305.47	1718.25
305.68	1763.30
305.90	1681.38
306.11	1732.58
306.33	1693.67
306.54	1681.38
306.75	1691.62
306.97	1693.67
307.18	1669.09
307.39	1714.15
307.61	1728.49
307.82	1701.86
308.04	1773.54
308.25	1757.16
308.46	1779.68
308.68	1660.90
308.89	1740.77
309.10	1857.51
309.32	1789.92
309.53	1677.29
309.74	1720.29
309.96	1703.91
310.17	1839.08
310.39	1695.72
310.60	1746.92
310.81	1646.57
311.03	1738.73
311.24	1710.05
311.45	1724.39
311.67	1820.64
311.88	1669.09
312.09	1660.90
312.31	1673.19
312.52	1736.68
312.73	1769.44
312.95	1634.28
313.16	1585.13
313.37	1771.49
313.59	1798.12
313.80	1826.79
314.01	1767.40
314.23	1712.10
314.44	1650.66
314.65	1583.08
314.87	1665.00
315.08	1644.52
315.29	1669.09
315.51	1669.09
315.72	1613.80
315.93	1812.45
316.15	1759.21
316.36	1703.91
316.57	1695.72
316.79	1722.34
317.00	1751.01
317.21	1738.73
317.43	1736.68
317.64	1712.10
317.85	1753.06
318.07	1718.25
318.28	1765.35
318.49	1824.74
318.70	1964.00
318.92	1837.03
319.13	1773.54
319.34	1927.14
319.56	1841.12
319.77	1867.75
319.98	1822.69
320.20	1771.49
320.41	1812.45
320.62	1736.68
320.83	1683.43
321.05	1861.60
321.26	1730.53
321.47	1681.38
321.69	1724.39
321.90	1570.79
322.11	1699.81
322.32	1775.59
322.54	1820.64
322.75	1695.72
322.96	1865.70
323.18	1644.52
323.39	1652.71
323.60	1683.43
323.81	1800.16
324.03	1656.81
324.24	1695.72
324.45	1726.44
324.66	1693.67
324.88	1773.54
325.09	1880.04
325.30	1710.05
325.52	1712.10
325.73	1759.21
325.94	1632.23
326.15	1624.04
326.37	1669.09
326.58	1724.39
326.79	1748.97
327.00	1646.57
327.22	1775.59
327.43	1648.61
327.64	1687.53
327.85	1734.63
328.07	1722.34
328.28	1755.11
328.49	1648.61
328.70	1677.29
328.92	1732.58
329.13	1740.77
329.34	1695.72
329.55	1773.54
329.76	1677.29
329.98	1705.96
330.19	1812.45
330.40	1730.53
330.61	1724.39
330.83	1808.36
331.04	1705.96
331.25	1720.29
331.46	1611.75
331.68	1697.77
331.89	1871.84
332.10	1751.01
332.31	1644.52
332.52	1787.88
332.74	1757.16
332.95	1656.81
333.16	1669.09
333.37	1746.92
333.58	1677.29
333.80	1714.15
334.01	1585.13
334.22	1685.48
334.43	1734.63
334.64	1701.86
334.86	1583.08
335.07	1667.05
335.28	1841.12
335.49	1587.18
335.70	1738.73
335.92	1757.16
336.13	1861.60
336.34	1779.68
336.55	1716.20
336.76	1705.96
336.98	1646.57
337.19	1755.11
337.40	1746.92
337.61	1810.40
337.82	1732.58
338.04	1771.49
338.25	1624.04
338.46	1742.82
338.67	1697.77
338.88	1665.00
339.09	1611.75
339.31	1748.97
339.52	1626.09
339.73	1695.72
339.94	1783.78
340.15	1695.72
340.36	1638.38
340.58	1695.72
340.79	1595.37
341.00	1726.44
341.21	1640.42
341.42	1859.56
341.63	1722.34
341.85	1730.53
342.06	1730.53
342.27	1685.48
342.48	1730.53
342.69	1722.34
342.90	1660.90
343.12	1716.20
343.33	1619.94
343.54	1751.01
343.75	1816.55
343.96	1736.68
344.17	1691.62
344.38	1751.01
344.60	1705.96
344.81	1652.71
345.02	1757.16
345.23	1851.36
345.44	1828.84
345.65	1759.21
345.86	1769.44
346.07	1777.64
346.29	1675.24
346.50	1722.34
346.71	1683.43
346.92	1757.16
347.13	1779.68
347.34	1601.51
347.55	1744.87
347.76	1800.16
347.98	1654.76
348.19	1705.96
348.40	1794.02
348.61	1710.05
348.82	1755.11
349.03	1728.49
349.24	1681.38
349.45	1865.70
349.66	1632.23
349.88	1714.15
350.09	1677.29
350.30	1773.54
350.51	1775.59
350.72	1697.77
350.93	1703.91
351.14	1685.48
351.35	1689.57
351.56	1738.73
351.77	1759.21
351.99	1689.57
352.20	1796.07
352.41	1775.59
352.62	1628.14
352.83	1671.14
353.04	1697.77
353.25	1759.21
353.46	1732.58
353.67	1726.44
353.88	1642.47
354.09	1742.82
354.30	1703.91
354.52	1765.35
354.73	1716.20
354.94	1703.91
355.15	1755.11
355.36	1802.21
355.57	1662.95
355.78	1777.64
355.99	1667.05
356.20	1646.57
356.41	1742.82
356.62	1675.24
356.83	1681.38
357.04	1765.35
357.25	1617.90
357.46	1587.18
357.68	1587.18
357.89	1675.24
358.10	1716.20
358.31	1681.38
358.52	1734.63
358.73	1675.24
358.94	1716.20
359.15	1671.14
359.36	1771.49
359.57	1718.25
359.78	1699.81
359.99	1777.64
360.20	1570.79
360.41	1685.48
360.62	1705.96
360.83	1710.05
361.04	1728.49
361.25	1759.21
361.46	1761.25
361.67	1808.36
361.88	1816.55
362.09	1746.92
362.30	1791.97
362.51	1712.10
362.72	1755.11
362.93	1830.88
363.14	1734.63
363.35	1746.92
363.56	1669.09
363.78	1748.97
363.99	1771.49
364.20	1703.91
364.41	1761.25
364.62	1808.36
364.83	1673.19
365.04	1738.73
365.25	1705.96
365.46	1865.70
365.67	1603.56
365.88	1685.48
366.09	1697.77
366.30	1724.39
366.51	1699.81
366.72	1642.47
366.93	1687.53
367.14	1736.68
367.35	1808.36
367.56	1701.86
367.77	1751.01
367.98	1695.72
368.18	1697.77
368.39	1726.44
368.60	1558.50
368.81	1742.82
369.02	1699.81
369.23	1697.77
369.44	1621.99
369.65	1626.09
369.86	1732.58
370.07	1785.83
370.28	1722.34
370.49	1761.25
370.70	1820.64
370.91	1679.33
371.12	1599.46
371.33	1759.21
371.54	1701.86
371.75	1871.84
371.96	1669.09
372.17	1742.82
372.38	1742.82
372.59	1763.30
372.80	1701.86
373.01	1695.72
373.22	1736.68
373.43	1662.95
373.64	1615.85
373.85	1705.96
374.06	1849.32
374.26	1773.54
374.47	1656.81
374.68	1812.45
374.89	1798.12
375.10	1683.43
375.31	1738.73
375.52	1669.09
375.73	1683.43
375.94	1683.43
376.15	1757.16
376.36	1644.52
376.57	1681.38
376.78	1671.14
376.99	1761.25
377.20	1703.91
377.40	1685.48
377.61	1806.31
377.82	1683.43
378.03	1769.44
378.24	1738.73
378.45	1787.88
378.66	1728.49
378.87	1597.42
379.08	1656.81
379.29	1710.05
379.50	1800.16
379.71	1628.14
379.91	1818.60
380.12	1767.40
380.33	1740.77
380.54	1720.29
380.75	1693.67
380.96	1638.38
381.17	1755.11
381.38	1703.91
381.59	1812.45
381.80	1755.11
382.00	1832.93
382.21	1763.30
382.42	1812.45
382.63	1794.02
382.84	1769.44
383.05	1783.78
383.26	1777.64
383.47	1656.81
383.68	1771.49
383.88	1716.20
384.09	1755.11
384.30	1859.56
384.51	1744.87
384.72	1665.00
384.93	1665.00
385.14	1669.09
385.35	1689.57
385.55	1617.90
385.76	1763.30
385.97	1660.90
386.18	1617.90
386.39	1689.57
386.60	1722.34
386.81	1650.66
387.02	1662.95
387.22	1716.20
387.43	1773.54
387.64	1824.74
387.85	1849.32
388.06	2166.75
388.27	4157.38
388.48	6915.99
388.68	8292.23
388.89	9461.62
389.10	9697.13
389.31	8638.33
389.52	7714.70
389.73	6653.85
389.93	6197.15
390.14	5717.93
390.35	5275.57
390.56	4579.26
390.77	3704.78
390.98	3000.27
391.18	2502.62
391.39	2172.89
391.60	1886.18
391.81	1865.70
392.02	1703.91
392.23	1843.17
392.43	1779.68
392.64	1755.11
392.85	1765.35
393.06	1900.52
393.27	1726.44
393.47	1652.71
393.68	1687.53
393.89	1665.00
394.10	1822.69
394.31	1742.82
394.52	1636.33
394.72	1720.29
394.93	1841.12
395.14	1644.52
395.35	1771.49
395.56	1662.95
395.76	1859.56
395.97	1818.60
396.18	1863.65
396.39	1939.43
396.60	2037.73
396.80	1920.99
397.01	1816.55
397.22	1828.84
397.43	1808.36
397.64	1744.87
397.84	1722.34
398.05	1916.90
398.26	1716.20
398.47	1791.97
398.67	1794.02
398.88	1765.35
399.09	1783.78
399.30	1648.61
399.51	1796.07
399.71	1669.09
399.92	1687.53
400.13	1777.64
400.34	1781.73
400.54	1744.87
400.75	1798.12
400.96	1814.50
401.17	1820.64
401.37	1755.11
401.58	1740.77
401.79	1671.14
402.00	1771.49
402.21	1996.77
402.41	1877.99
402.62	2068.45
402.83	2007.01
403.04	1984.48
403.24	2123.74
403.45	1855.46
403.66	1910.75
403.87	1873.89
404.07	1849.32
404.28	1914.85
404.49	1923.04
404.70	1761.25
404.90	1734.63
405.11	1755.11
405.32	1671.14
405.52	1654.76
405.73	1681.38
405.94	1671.14
406.15	1744.87
406.35	1738.73
406.56	1724.39
406.77	1787.88
406.98	1751.01
407.18	1724.39
407.39	1736.68
407.60	1763.30
407.80	1718.25
408.01	1769.44
408.22	1683.43
408.43	1685.48
408.63	1753.06
408.84	1755.11
409.05	1734.63
409.25	1650.66
409.46	1634.28
409.67	1714.15
409.88	1693.67
410.08	1779.68
410.29	1728.49
410.50	1701.86
410.70	1771.49
410.91	1613.80
411.12	1757.16
411.32	1673.19
411.53	1669.09
411.74	1841.12
411.95	1738.73
412.15	1759.21
412.36	1824.74
412.57	1751.01
412.77	1857.51
412.98	1753.06
413.19	1787.88
413.39	1783.78
413.60	1773.54
413.81	1773.54
414.01	1773.54
414.22	1775.59
414.43	1740.77
414.63	1697.77
414.84	1734.63
415.05	1759.21
415.25	1648.61
415.46	1708.01
415.67	1718.25
415.87	1677.29
416.08	1845.22
416.29	1693.67
416.49	1716.20
416.70	1714.15
416.91	1675.24
417.11	1751.01
417.32	1740.77
417.53	1800.16
417.73	1851.36
417.94	1714.15
418.15	1703.91
418.35	1693.67
418.56	1662.95
418.77	1875.94
418.97	1710.05
419.18	1697.77
419.38	1632.23
419.59	1722.34
419.80	1785.83
420.00	1665.00
420.21	1689.57
420.42	1818.60
420.62	1738.73
420.83	1648.61
421.04	1734.63
421.24	1755.11
421.45	1771.49
421.65	1716.20
421.86	1714.15
422.07	1646.57
422.27	1718.25
422.48	1738.73
422.69	1617.90
422.89	1673.19
423.10	1681.38
423.30	1697.77
423.51	1718.25
423.72	1740.77
423.92	1697.77
424.13	1759.21
424.33	1677.29
424.54	1724.39
424.75	1734.63
424.95	1769.44
425.16	1720.29
425.36	1738.73
425.57	1861.60
425.78	1714.15
425.98	1761.25
426.19	1726.44
426.39	1621.99
426.60	1683.43
426.81	1791.97
427.01	1779.68
427.22	1701.86
427.42	1603.56
427.63	1703.91
427.83	1728.49
428.04	1843.17
428.25	1820.64
428.45	1763.30
428.66	1839.08
428.86	1714.15
429.07	1736.68
429.28	1697.77
429.48	1710.05
429.69	1673.19
429.89	1759.21
430.10	1685.48
430.30	1734.63
430.51	1791.97
430.71	1683.43
430.92	1703.91
431.13	1744.87
431.33	1720.29
431.54	1753.06
431.74	1830.88
431.95	1873.89
432.15	1681.38
432.36	1685.48
432.56	1791.97
432.77	1812.45
432.98	1857.51
433.18	1738.73
433.39	1738.73
433.59	1685.48
433.80	1834.98
434.00	1851.36
434.21	1716.20
434.41	1658.85
434.62	1918.95
434.82	1665.00
435.03	1681.38
435.23	1658.85
435.44	1640.42
435.64	1689.57
435.85	1695.72
436.06	1779.68
436.26	1746.92
436.47	1787.88
436.67	1767.40
436.88	1716.20
437.08	1718.25
437.29	1816.55
437.49	1710.05
437.70	1742.82
437.90	1695.72
438.11	1837.03
438.31	1837.03
438.52	1923.04
438.72	1837.03
438.93	1918.95
439.13	1802.21
439.34	1822.69
439.54	1689.57
439.75	1798.12
439.95	1814.50
440.16	1759.21
440.36	1791.97
440.57	1828.84
440.77	1730.53
440.98	1759.21
441.18	1812.45
441.39	1667.05
441.59	1644.52
441.80	1814.50
442.00	1744.87
442.21	1820.64
442.41	1638.38
442.62	1769.44
442.82	1617.90
443.02	1734.63
443.23	1816.55
443.43	1757.16
443.64	1796.07
443.84	1746.92
444.05	1828.84
444.25	1701.86
444.46	1753.06
444.66	1742.82
444.87	1880.04
445.07	1669.09
445.28	1728.49
445.48	1845.22
445.69	1751.01
445.89	1992.67
446.09	1789.92
446.30	2058.21
446.50	2648.02
446.71	3690.44
446.91	4286.40
447.12	4792.25
447.32	4904.89
447.53	4390.84
447.73	3844.04
447.93	3641.29
448.14	3280.85
448.34	3221.45
448.55	2928.60
448.75	2813.91
448.96	2758.61
449.16	2389.98
449.36	2254.81
449.57	2072.54
449.77	1843.17
449.98	1767.40
450.18	1791.97
450.39	1861.60
450.59	1800.16
450.79	1697.77
451.00	1705.96
451.20	1802.21
451.41	1665.00
451.61	1710.05
451.81	1763.30
452.02	1705.96
452.22	1615.85
452.43	1712.10
452.63	1691.62
