SpectraSuite Data File
++++++++++++++++++++++++++++++++++++
Date: Mon Jun 06 12:29:37 CEST 2016
User: root
Dark Spectrum Present: No
Reference Spectrum Present: No
Number of Sampled Component Spectra: 1
Spectrometers: USB4C02835
Integration Time (usec): 100000 (USB4C02835)
Spectra Averaged: 1 (USB4C02835)
Boxcar Smoothing: 0 (USB4C02835)
Correct for Electrical Dark: No (USB4C02835)
Strobe/Lamp Enabled: No (USB4C02835)
Correct for Detector Non-linearity: No (USB4C02835)
Correct for Stray Light: No (USB4C02835)
Number of Pixels in Processed Spectrum: 3648
>>>>>Begin Processed Spectral Data<<<<<
177.47	1400.81
177.69	1400.81
177.91	1400.81
178.13	1443.82
178.36	1470.44
178.58	1626.09
178.80	1765.35
179.02	1665.00
179.24	1632.23
179.46	1677.29
179.68	1687.53
179.90	1671.14
180.13	1669.09
180.35	1665.00
180.57	1695.72
180.79	1701.86
181.01	1712.10
181.23	1773.54
181.45	1769.44
181.67	1757.16
181.90	1785.83
182.12	1701.86
182.34	1673.19
182.56	1708.01
182.78	1775.59
183.00	1673.19
183.22	1748.97
183.44	1599.46
183.66	1867.75
183.89	1841.12
184.11	1658.85
184.33	1724.39
184.55	1665.00
184.77	1730.53
184.99	1660.90
185.21	1697.77
185.43	1783.78
185.65	1636.33
185.87	1724.39
186.10	1820.64
186.32	1832.93
186.54	1759.21
186.76	1662.95
186.98	1734.63
187.20	1695.72
187.42	1671.14
187.64	1703.91
187.86	1742.82
188.08	1689.57
188.30	1683.43
188.52	1683.43
188.75	1742.82
188.97	1837.03
189.19	1681.38
189.41	1677.29
189.63	1699.81
189.85	1714.15
190.07	1593.32
190.29	1632.23
190.51	1775.59
190.73	1646.57
190.95	1751.01
191.17	1755.11
191.39	1642.47
191.61	1662.95
191.84	1603.56
192.06	1763.30
192.28	1619.94
192.50	1822.69
192.72	1726.44
192.94	1710.05
193.16	1697.77
193.38	1744.87
193.60	1642.47
193.82	1697.77
194.04	1763.30
194.26	1732.58
194.48	1767.40
194.70	1681.38
194.92	1673.19
195.14	1767.40
195.36	1705.96
195.58	1683.43
195.80	1660.90
196.02	1691.62
196.24	1769.44
196.46	1710.05
196.69	1656.81
196.91	1759.21
197.13	1669.09
197.35	1648.61
197.57	1826.79
197.79	1691.62
198.01	1665.00
198.23	1699.81
198.45	1722.34
198.67	1624.04
198.89	1671.14
199.11	1753.06
199.33	1740.77
199.55	1554.41
199.77	1691.62
199.99	1724.39
200.21	1726.44
200.43	1716.20
200.65	1632.23
200.87	1662.95
201.09	1730.53
201.31	1728.49
201.53	1767.40
201.75	1712.10
201.97	1740.77
202.19	1726.44
202.41	1634.28
202.63	1861.60
202.85	1757.16
203.07	1724.39
203.29	1683.43
203.51	1683.43
203.73	1617.90
203.95	1873.89
204.17	1751.01
204.39	1648.61
204.61	1667.05
204.83	1624.04
205.05	1757.16
205.27	1791.97
205.49	1828.84
205.71	1683.43
205.93	1656.81
206.15	1648.61
206.37	1712.10
206.59	1615.85
206.81	1701.86
207.03	1716.20
207.25	1607.66
207.47	1710.05
207.69	1685.48
207.91	1783.78
208.13	1701.86
208.34	1646.57
208.56	1646.57
208.78	1775.59
209.00	1667.05
209.22	1671.14
209.44	1701.86
209.66	1699.81
209.88	1687.53
210.10	1638.38
210.32	1726.44
210.54	1773.54
210.76	1662.95
210.98	1746.92
211.20	1587.18
211.42	1650.66
211.64	1785.83
211.86	1761.25
212.08	1759.21
212.30	1779.68
212.52	1628.14
212.74	1693.67
212.96	1714.15
213.17	1775.59
213.39	1769.44
213.61	1730.53
213.83	1710.05
214.05	1660.90
214.27	1703.91
214.49	1617.90
214.71	1638.38
214.93	1779.68
215.15	1701.86
215.37	1746.92
215.59	1624.04
215.81	1804.26
216.03	1767.40
216.24	1697.77
216.46	1691.62
216.68	1609.70
216.90	1771.49
217.12	1798.12
217.34	1716.20
217.56	1724.39
217.78	1785.83
218.00	1724.39
218.22	1738.73
218.44	1767.40
218.66	1665.00
218.87	1777.64
219.09	1660.90
219.31	1673.19
219.53	1652.71
219.75	1689.57
219.97	1650.66
220.19	1720.29
220.41	1722.34
220.63	1798.12
220.85	1712.10
221.06	1689.57
221.28	1751.01
221.50	1761.25
221.72	1658.85
221.94	1742.82
222.16	1599.46
222.38	1708.01
222.60	1763.30
222.82	1710.05
223.03	1742.82
223.25	1632.23
223.47	1800.16
223.69	1763.30
223.91	1665.00
224.13	1685.48
224.35	1638.38
224.57	1689.57
224.78	1667.05
225.00	1599.46
225.22	1740.77
225.44	1759.21
225.66	1718.25
225.88	1615.85
226.10	1804.26
226.32	1775.59
226.53	1806.31
226.75	1701.86
226.97	1644.52
227.19	1718.25
227.41	1693.67
227.63	1736.68
227.85	1648.61
228.06	1742.82
228.28	1630.18
228.50	1753.06
228.72	1636.33
228.94	1636.33
229.16	1644.52
229.37	1624.04
229.59	1642.47
229.81	1744.87
230.03	1683.43
230.25	1595.37
230.47	1583.08
230.69	1667.05
230.90	1744.87
231.12	1593.32
231.34	1767.40
231.56	1705.96
231.78	1521.64
232.00	1714.15
232.21	1652.71
232.43	1585.13
232.65	1646.57
232.87	1830.88
233.09	1578.98
233.30	1617.90
233.52	1738.73
233.74	1767.40
233.96	1695.72
234.18	1699.81
234.40	1753.06
234.61	1812.45
234.83	1607.66
235.05	1564.65
235.27	1873.89
235.49	1777.64
235.70	1669.09
235.92	1742.82
236.14	1714.15
236.36	1820.64
236.58	1634.28
236.79	1789.92
237.01	1671.14
237.23	1656.81
237.45	1804.26
237.67	1787.88
237.88	1669.09
238.10	1812.45
238.32	1667.05
238.54	1716.20
238.76	1677.29
238.97	1740.77
239.19	1636.33
239.41	1808.36
239.63	1740.77
239.85	1658.85
240.06	1712.10
240.28	1712.10
240.50	1716.20
240.72	1722.34
240.93	1734.63
241.15	1796.07
241.37	1658.85
241.59	1779.68
241.81	1808.36
242.02	1683.43
242.24	1703.91
242.46	1781.73
242.68	1695.72
242.89	1681.38
243.11	1667.05
243.33	1738.73
243.55	1710.05
243.76	1753.06
243.98	1601.51
244.20	1703.91
244.42	1671.14
244.64	1669.09
244.85	1708.01
245.07	1595.37
245.29	1716.20
245.51	1574.89
245.72	1638.38
245.94	1757.16
246.16	1617.90
246.38	1734.63
246.59	1644.52
246.81	1648.61
247.03	1665.00
247.24	1605.61
247.46	1671.14
247.68	1718.25
247.90	1697.77
248.11	1753.06
248.33	1740.77
248.55	1730.53
248.77	1681.38
248.98	1783.78
249.20	1695.72
249.42	1677.29
249.64	1761.25
249.85	1656.81
250.07	1714.15
250.29	1779.68
250.50	1732.58
250.72	1662.95
250.94	1640.42
251.16	1839.08
251.37	1769.44
251.59	1708.01
251.81	1724.39
252.02	1746.92
252.24	1642.47
252.46	1787.88
252.68	1632.23
252.89	1683.43
253.11	1632.23
253.33	1781.73
253.54	1718.25
253.76	1585.13
253.98	1632.23
254.20	1718.25
254.41	1599.46
254.63	1585.13
254.85	1652.71
255.06	1757.16
255.28	1746.92
255.50	1683.43
255.71	1587.18
255.93	1673.19
256.15	1761.25
256.36	1761.25
256.58	1638.38
256.80	1689.57
257.02	1730.53
257.23	1699.81
257.45	1734.63
257.67	1687.53
257.88	1675.24
258.10	1720.29
258.32	1685.48
258.53	1679.33
258.75	1771.49
258.97	1630.18
259.18	1736.68
259.40	1714.15
259.62	1812.45
259.83	1808.36
260.05	1724.39
260.27	2011.11
260.48	1820.64
260.70	1632.23
260.92	1687.53
261.13	1703.91
261.35	1640.42
261.57	1714.15
261.78	1681.38
262.00	1578.98
262.22	1773.54
262.43	1652.71
262.65	1660.90
262.86	1691.62
263.08	1771.49
263.30	1718.25
263.51	1658.85
263.73	1599.46
263.95	1789.92
264.16	1689.57
264.38	1687.53
264.60	1665.00
264.81	1693.67
265.03	1806.31
265.25	1787.88
265.46	1726.44
265.68	1730.53
265.89	1722.34
266.11	1642.47
266.33	1761.25
266.54	1824.74
266.76	1699.81
266.98	1800.16
267.19	1800.16
267.41	1767.40
267.62	1677.29
267.84	1628.14
268.06	1677.29
268.27	1628.14
268.49	1732.58
268.70	1738.73
268.92	1740.77
269.14	1693.67
269.35	1607.66
269.57	1689.57
269.79	1744.87
270.00	1675.24
270.22	1796.07
270.43	1638.38
270.65	1605.61
270.87	1677.29
271.08	1665.00
271.30	1718.25
271.51	1705.96
271.73	1662.95
271.95	1800.16
272.16	1656.81
272.38	1736.68
272.59	1669.09
272.81	1669.09
273.02	1722.34
273.24	1775.59
273.46	1705.96
273.67	1605.61
273.89	1667.05
274.10	1683.43
274.32	1744.87
274.54	1624.04
274.75	1753.06
274.97	1634.28
275.18	1748.97
275.40	1652.71
275.61	1642.47
275.83	1617.90
276.05	1550.31
276.26	1656.81
276.48	1681.38
276.69	1658.85
276.91	1705.96
277.12	1732.58
277.34	1695.72
277.55	1767.40
277.77	1648.61
277.99	1660.90
278.20	1695.72
278.42	1611.75
278.63	1656.81
278.85	1705.96
279.06	1722.34
279.28	1753.06
279.49	1652.71
279.71	1724.39
279.93	1736.68
280.14	1673.19
280.36	1617.90
280.57	1775.59
280.79	1853.41
281.00	1689.57
281.22	1720.29
281.43	1677.29
281.65	1656.81
281.86	1634.28
282.08	1624.04
282.29	1755.11
282.51	1640.42
282.73	1642.47
282.94	1599.46
283.16	1742.82
283.37	1755.11
283.59	1714.15
283.80	1699.81
284.02	1648.61
284.23	1667.05
284.45	1652.71
284.66	1634.28
284.88	1689.57
285.09	1681.38
285.31	1697.77
285.52	1697.77
285.74	1621.99
285.95	1726.44
286.17	1669.09
286.38	1765.35
286.60	1687.53
286.81	1677.29
287.03	1667.05
287.24	1716.20
287.46	1689.57
287.67	1660.90
287.89	1773.54
288.10	1695.72
288.32	1691.62
288.53	1748.97
288.75	1685.48
288.96	1724.39
289.18	1746.92
289.39	1648.61
289.61	1681.38
289.82	1771.49
290.04	1746.92
290.25	1611.75
290.47	1675.24
290.68	1624.04
290.90	1726.44
291.11	1699.81
291.33	1732.58
291.54	1658.85
291.76	1673.19
291.97	1730.53
292.18	1624.04
292.40	1650.66
292.61	1650.66
292.83	1798.12
293.04	1763.30
293.26	1662.95
293.47	1726.44
293.69	1656.81
293.90	1744.87
294.12	1773.54
294.33	1722.34
294.55	1718.25
294.76	1755.11
294.97	1738.73
295.19	1853.41
295.40	1718.25
295.62	1736.68
295.83	1681.38
296.05	1683.43
296.26	1742.82
296.48	1621.99
296.69	1685.48
296.90	1714.15
297.12	1712.10
297.33	1771.49
297.55	1738.73
297.76	1712.10
297.98	1796.07
298.19	1687.53
298.41	1660.90
298.62	1671.14
298.83	1716.20
299.05	1722.34
299.26	1738.73
299.48	1662.95
299.69	1728.49
299.90	1734.63
300.12	1646.57
300.33	1697.77
300.55	1685.48
300.76	1728.49
300.98	1675.24
301.19	1746.92
301.40	1652.71
301.62	1673.19
301.83	1681.38
302.05	1716.20
302.26	1771.49
302.47	1730.53
302.69	1607.66
302.90	1632.23
303.12	1505.26
303.33	1714.15
303.54	1810.40
303.76	1632.23
303.97	1652.71
304.19	1722.34
304.40	1626.09
304.61	1751.01
304.83	1753.06
305.04	1751.01
305.26	1791.97
305.47	1652.71
305.68	1820.64
305.90	1597.42
306.11	1695.72
306.33	1722.34
306.54	1644.52
306.75	1638.38
306.97	1689.57
307.18	1669.09
307.39	1734.63
307.61	1714.15
307.82	1669.09
308.04	1738.73
308.25	1660.90
308.46	1720.29
308.68	1660.90
308.89	1638.38
309.10	1693.67
309.32	1691.62
309.53	1652.71
309.74	1693.67
309.96	1722.34
310.17	1675.24
310.39	1640.42
310.60	1742.82
310.81	1681.38
311.03	1652.71
311.24	1785.83
311.45	1736.68
311.67	1769.44
311.88	1662.95
312.09	1652.71
312.31	1730.53
312.52	1681.38
312.73	1687.53
312.95	1662.95
313.16	1630.18
313.37	1748.97
313.59	1798.12
313.80	1742.82
314.01	1779.68
314.23	1714.15
314.44	1679.33
314.65	1648.61
314.87	1642.47
315.08	1699.81
315.29	1695.72
315.51	1609.70
315.72	1652.71
315.93	1802.21
316.15	1708.01
316.36	1689.57
316.57	1652.71
316.79	1667.05
317.00	1671.14
317.21	1660.90
317.43	1626.09
317.64	1789.92
317.85	1595.37
318.07	1724.39
318.28	1742.82
318.49	1877.99
318.70	1935.33
318.92	1826.79
319.13	1755.11
319.34	1888.23
319.56	1818.60
319.77	1832.93
319.98	1726.44
320.20	1728.49
320.41	1794.02
320.62	1703.91
320.83	1624.04
321.05	1877.99
321.26	1710.05
321.47	1724.39
321.69	1812.45
321.90	1605.61
322.11	1648.61
322.32	1744.87
322.54	1794.02
322.75	1613.80
322.96	1814.50
323.18	1558.50
323.39	1560.55
323.60	1720.29
323.81	1736.68
324.03	1677.29
324.24	1667.05
324.45	1656.81
324.66	1615.85
324.88	1695.72
325.09	1781.73
325.30	1650.66
325.52	1732.58
325.73	1703.91
325.94	1587.18
326.15	1533.93
326.37	1671.14
326.58	1730.53
326.79	1775.59
327.00	1648.61
327.22	1695.72
327.43	1710.05
327.64	1615.85
327.85	1689.57
328.07	1652.71
328.28	1716.20
328.49	1669.09
328.70	1718.25
328.92	1732.58
329.13	1667.05
329.34	1675.24
329.55	1748.97
329.76	1714.15
329.98	1710.05
330.19	1791.97
330.40	1771.49
330.61	1736.68
330.83	1722.34
331.04	1679.33
331.25	1761.25
331.46	1665.00
331.68	1646.57
331.89	1781.73
332.10	1703.91
332.31	1640.42
332.52	1683.43
332.74	1771.49
332.95	1705.96
333.16	1591.27
333.37	1734.63
333.58	1642.47
333.80	1744.87
334.01	1734.63
334.22	1691.62
334.43	1660.90
334.64	1755.11
334.86	1667.05
335.07	1636.33
335.28	1816.55
335.49	1615.85
335.70	1726.44
335.92	1808.36
336.13	1783.78
336.34	1818.60
336.55	1720.29
336.76	1738.73
336.98	1529.83
337.19	1652.71
337.40	1746.92
337.61	1791.97
337.82	1673.19
338.04	1769.44
338.25	1554.41
338.46	1775.59
338.67	1667.05
338.88	1671.14
339.09	1636.33
339.31	1720.29
339.52	1634.28
339.73	1621.99
339.94	1724.39
340.15	1726.44
340.36	1619.94
340.58	1650.66
340.79	1607.66
341.00	1789.92
341.21	1617.90
341.42	1742.82
341.63	1640.42
341.85	1763.30
342.06	1679.33
342.27	1626.09
342.48	1691.62
342.69	1662.95
342.90	1710.05
343.12	1791.97
343.33	1730.53
343.54	1712.10
343.75	1822.69
343.96	1734.63
344.17	1632.23
344.38	1802.21
344.60	1648.61
344.81	1636.33
345.02	1689.57
345.23	1791.97
345.44	1761.25
345.65	1726.44
345.86	1771.49
346.07	1701.86
346.29	1652.71
346.50	1755.11
346.71	1705.96
346.92	1812.45
347.13	1853.41
347.34	1720.29
347.55	1703.91
347.76	1656.81
347.98	1566.70
348.19	1675.24
348.40	1826.79
348.61	1652.71
348.82	1757.16
349.03	1791.97
349.24	1615.85
349.45	1834.98
349.66	1554.41
349.88	1699.81
350.09	1640.42
350.30	1736.68
350.51	1781.73
350.72	1724.39
350.93	1675.24
351.14	1665.00
351.35	1675.24
351.56	1759.21
351.77	1718.25
351.99	1716.20
352.20	1767.40
352.41	1687.53
352.62	1591.27
352.83	1669.09
353.04	1765.35
353.25	1642.47
353.46	1724.39
353.67	1767.40
353.88	1609.70
354.09	1617.90
354.30	1679.33
354.52	1667.05
354.73	1683.43
354.94	1660.90
355.15	1703.91
355.36	1804.26
355.57	1720.29
355.78	1785.83
355.99	1677.29
356.20	1712.10
356.41	1683.43
356.62	1726.44
356.83	1628.14
357.04	1740.77
357.25	1609.70
357.46	1695.72
357.68	1642.47
357.89	1652.71
358.10	1675.24
358.31	1714.15
358.52	1693.67
358.73	1603.56
358.94	1568.74
359.15	1667.05
359.36	1732.58
359.57	1701.86
359.78	1681.38
359.99	1669.09
360.20	1619.94
360.41	1687.53
360.62	1679.33
360.83	1748.97
361.04	1751.01
361.25	1746.92
361.46	1861.60
361.67	1761.25
361.88	1685.48
362.09	1796.07
362.30	1757.16
362.51	1675.24
362.72	1734.63
362.93	1646.57
363.14	1679.33
363.35	1724.39
363.56	1640.42
363.78	1777.64
363.99	1701.86
364.20	1658.85
364.41	1691.62
364.62	1806.31
364.83	1695.72
365.04	1728.49
365.25	1781.73
365.46	1845.22
365.67	1667.05
365.88	1642.47
366.09	1654.76
366.30	1697.77
366.51	1667.05
366.72	1712.10
366.93	1675.24
367.14	1740.77
367.35	1787.88
367.56	1685.48
367.77	1695.72
367.98	1646.57
368.18	1712.10
368.39	1720.29
368.60	1665.00
368.81	1779.68
369.02	1705.96
369.23	1699.81
369.44	1566.70
369.65	1626.09
369.86	1746.92
370.07	1724.39
370.28	1665.00
370.49	1714.15
370.70	1714.15
370.91	1656.81
371.12	1675.24
371.33	1705.96
371.54	1718.25
371.75	1728.49
371.96	1505.26
372.17	1708.01
372.38	1710.05
372.59	1714.15
372.80	1665.00
373.01	1624.04
373.22	1691.62
373.43	1708.01
373.64	1720.29
373.85	1714.15
374.06	1818.60
374.26	1787.88
374.47	1730.53
374.68	1761.25
374.89	1796.07
375.10	1667.05
375.31	1705.96
375.52	1710.05
375.73	1683.43
375.94	1564.65
376.15	1759.21
376.36	1679.33
376.57	1634.28
376.78	1742.82
376.99	1759.21
377.20	1724.39
377.40	1552.36
377.61	1853.41
377.82	1597.42
378.03	1714.15
378.24	1673.19
378.45	1652.71
378.66	1787.88
378.87	1601.51
379.08	1638.38
379.29	1681.38
379.50	1812.45
379.71	1757.16
379.91	1726.44
380.12	1695.72
380.33	1693.67
380.54	1710.05
380.75	1665.00
380.96	1710.05
381.17	1714.15
381.38	1693.67
381.59	1699.81
381.80	1738.73
382.00	1820.64
382.21	1755.11
382.42	1755.11
382.63	1800.16
382.84	1724.39
383.05	1765.35
383.26	1796.07
383.47	1730.53
383.68	1697.77
383.88	1679.33
384.09	1689.57
384.30	1753.06
384.51	1742.82
384.72	1656.81
384.93	1630.18
385.14	1708.01
385.35	1767.40
385.55	1646.57
385.76	1787.88
385.97	1708.01
386.18	1535.98
386.39	1701.86
386.60	1714.15
386.81	1671.14
387.02	1671.14
387.22	1570.79
387.43	1794.02
387.64	1816.55
387.85	1910.75
388.06	2203.61
388.27	4343.74
388.48	6883.22
388.68	8298.37
388.89	9838.44
389.10	9981.80
389.31	8832.89
389.52	7645.07
389.73	7018.39
389.93	6516.64
390.14	5887.91
390.35	5283.76
390.56	4671.42
390.77	3831.75
390.98	3088.34
391.18	2449.37
391.39	2142.18
391.60	1859.56
391.81	1794.02
392.02	1755.11
392.23	1933.28
392.43	1730.53
392.64	1787.88
392.85	1675.24
393.06	1834.98
393.27	1648.61
393.47	1710.05
393.68	1701.86
393.89	1718.25
394.10	1751.01
394.31	1677.29
394.52	1624.04
394.72	1697.77
394.93	1742.82
395.14	1636.33
395.35	1705.96
395.56	1650.66
395.76	1730.53
395.97	1732.58
396.18	1798.12
396.39	1789.92
396.60	2027.49
396.80	1912.80
397.01	1806.31
397.22	1855.46
397.43	1796.07
397.64	1736.68
397.84	1814.50
398.05	1808.36
398.26	1718.25
398.47	1781.73
398.67	1824.74
398.88	1730.53
399.09	1732.58
399.30	1656.81
399.51	1748.97
399.71	1611.75
399.92	1724.39
400.13	1740.77
400.34	1630.18
400.54	1650.66
400.75	1804.26
400.96	1697.77
401.17	1818.60
401.37	1742.82
401.58	1748.97
401.79	1814.50
402.00	1902.56
402.21	1992.67
402.41	1994.72
402.62	1976.29
402.83	2025.44
403.04	1939.43
403.24	2093.02
403.45	1800.16
403.66	1953.76
403.87	1914.85
404.07	1884.13
404.28	1918.95
404.49	1841.12
404.70	1785.83
404.90	1703.91
405.11	1814.50
405.32	1761.25
405.52	1611.75
405.73	1699.81
405.94	1656.81
406.15	1763.30
406.35	1720.29
406.56	1736.68
406.77	1675.24
406.98	1763.30
407.18	1656.81
407.39	1751.01
407.60	1662.95
407.80	1740.77
408.01	1681.38
408.22	1777.64
408.43	1660.90
408.63	1691.62
408.84	1800.16
409.05	1738.73
409.25	1599.46
409.46	1591.27
409.67	1648.61
409.88	1738.73
410.08	1646.57
410.29	1689.57
410.50	1708.01
410.70	1714.15
410.91	1740.77
411.12	1738.73
411.32	1675.24
411.53	1611.75
411.74	1853.41
411.95	1722.34
412.15	1787.88
412.36	1732.58
412.57	1757.16
412.77	1777.64
412.98	1703.91
413.19	1658.85
413.39	1841.12
413.60	1734.63
413.81	1710.05
414.01	1675.24
414.22	1720.29
414.43	1798.12
414.63	1697.77
414.84	1779.68
415.05	1642.47
415.25	1669.09
415.46	1812.45
415.67	1687.53
415.87	1763.30
416.08	1710.05
416.29	1726.44
416.49	1730.53
416.70	1638.38
416.91	1699.81
417.11	1681.38
417.32	1716.20
417.53	1755.11
417.73	1689.57
417.94	1689.57
418.15	1773.54
418.35	1697.77
418.56	1724.39
418.77	1818.60
418.97	1669.09
419.18	1720.29
419.38	1593.32
419.59	1681.38
419.80	1734.63
420.00	1722.34
420.21	1595.37
420.42	1781.73
420.62	1705.96
420.83	1652.71
421.04	1662.95
421.24	1710.05
421.45	1734.63
421.65	1712.10
421.86	1724.39
422.07	1705.96
422.27	1730.53
422.48	1726.44
422.69	1632.23
422.89	1712.10
423.10	1609.70
423.30	1624.04
423.51	1796.07
423.72	1710.05
423.92	1744.87
424.13	1611.75
424.33	1685.48
424.54	1791.97
424.75	1665.00
424.95	1814.50
425.16	1636.33
425.36	1656.81
425.57	1763.30
425.78	1730.53
425.98	1701.86
426.19	1718.25
426.39	1646.57
426.60	1751.01
426.81	1787.88
427.01	1742.82
427.22	1708.01
427.42	1642.47
427.63	1662.95
427.83	1816.55
428.04	1769.44
428.25	1722.34
428.45	1828.84
428.66	1757.16
428.86	1683.43
429.07	1701.86
429.28	1794.02
429.48	1695.72
429.69	1671.14
429.89	1693.67
430.10	1667.05
430.30	1789.92
430.51	1705.96
430.71	1660.90
430.92	1619.94
431.13	1615.85
431.33	1742.82
431.54	1718.25
431.74	1796.07
431.95	1781.73
432.15	1634.28
432.36	1679.33
432.56	1736.68
432.77	1759.21
432.98	1779.68
433.18	1734.63
433.39	1677.29
433.59	1699.81
433.80	1822.69
434.00	1814.50
434.21	1660.90
434.41	1650.66
434.62	1857.51
434.82	1701.86
435.03	1568.74
435.23	1648.61
435.44	1617.90
435.64	1699.81
435.85	1660.90
436.06	1765.35
436.26	1740.77
436.47	1703.91
436.67	1626.09
436.88	1734.63
437.08	1800.16
437.29	1757.16
437.49	1771.49
437.70	1820.64
437.90	1769.44
438.11	1877.99
438.31	1802.21
438.52	1804.26
438.72	1865.70
438.93	1853.41
439.13	1832.93
439.34	1818.60
439.54	1658.85
439.75	1787.88
439.95	1812.45
440.16	1681.38
440.36	1722.34
440.57	1726.44
440.77	1722.34
440.98	1732.58
441.18	1701.86
441.39	1720.29
441.59	1589.22
441.80	1837.03
442.00	1673.19
442.21	1798.12
442.41	1609.70
442.62	1775.59
442.82	1697.77
443.02	1722.34
443.23	1714.15
443.43	1710.05
443.64	1853.41
443.84	1626.09
444.05	1789.92
444.25	1675.24
444.46	1722.34
444.66	1789.92
444.87	1791.97
445.07	1556.46
445.28	1740.77
445.48	1691.62
445.69	1734.63
445.89	1890.28
446.09	1683.43
446.30	2002.91
446.50	2650.07
446.71	3772.36
446.91	4329.41
447.12	4798.39
447.32	4925.36
447.53	4255.68
447.73	4001.73
447.93	3448.78
448.14	3350.48
448.34	3233.74
448.55	2928.60
448.75	2815.96
448.96	2727.89
449.16	2369.50
449.36	2326.49
449.57	2035.68
449.77	1849.32
449.98	1751.01
450.18	1736.68
450.39	1779.68
450.59	1830.88
450.79	1710.05
451.00	1675.24
451.20	1771.49
451.41	1740.77
451.61	1734.63
451.81	1710.05
452.02	1685.48
452.22	1751.01
452.43	1703.91
452.63	1671.14
