SpectraSuite Data File
++++++++++++++++++++++++++++++++++++
Date: Mon Jun 06 14:36:57 CEST 2016
User: root
Dark Spectrum Present: No
Reference Spectrum Present: No
Number of Sampled Component Spectra: 1
Spectrometers: USB4C02835
Integration Time (usec): 100000 (USB4C02835)
Spectra Averaged: 1 (USB4C02835)
Boxcar Smoothing: 0 (USB4C02835)
Correct for Electrical Dark: No (USB4C02835)
Strobe/Lamp Enabled: No (USB4C02835)
Correct for Detector Non-linearity: No (USB4C02835)
Correct for Stray Light: No (USB4C02835)
Number of Pixels in Processed Spectrum: 3648
>>>>>Begin Processed Spectral Data<<<<<
177.47	1484.78
177.69	1484.78
177.91	1484.78
178.13	1482.73
178.36	1384.43
178.58	1544.17
178.80	1740.77
179.02	1603.56
179.24	1583.08
179.46	1748.97
179.68	1759.21
179.90	1624.04
180.13	1710.05
180.35	1744.87
180.57	1710.05
180.79	1714.15
181.01	1808.36
181.23	1826.79
181.45	1796.07
181.67	1710.05
181.90	1742.82
182.12	1640.42
182.34	1697.77
182.56	1671.14
182.78	1640.42
183.00	1693.67
183.22	1671.14
183.44	1605.61
183.66	1820.64
183.89	1779.68
184.11	1697.77
184.33	1708.01
184.55	1773.54
184.77	1708.01
184.99	1708.01
185.21	1644.52
185.43	1830.88
185.65	1648.61
185.87	1751.01
186.10	1804.26
186.32	1902.56
186.54	1839.08
186.76	1740.77
186.98	1701.86
187.20	1650.66
187.42	1691.62
187.64	1759.21
187.86	1724.39
188.08	1748.97
188.30	1802.21
188.52	1640.42
188.75	1802.21
188.97	1718.25
189.19	1673.19
189.41	1705.96
189.63	1734.63
189.85	1644.52
190.07	1712.10
190.29	1576.94
190.51	1712.10
190.73	1605.61
190.95	1800.16
191.17	1652.71
191.39	1636.33
191.61	1617.90
191.84	1615.85
192.06	1744.87
192.28	1650.66
192.50	1873.89
192.72	1705.96
192.94	1705.96
193.16	1863.65
193.38	1785.83
193.60	1638.38
193.82	1722.34
194.04	1720.29
194.26	1736.68
194.48	1685.48
194.70	1644.52
194.92	1624.04
195.14	1789.92
195.36	1640.42
195.58	1724.39
195.80	1732.58
196.02	1718.25
196.24	1701.86
196.46	1767.40
196.69	1638.38
196.91	1843.17
197.13	1714.15
197.35	1638.38
197.57	1736.68
197.79	1777.64
198.01	1724.39
198.23	1748.97
198.45	1714.15
198.67	1634.28
198.89	1691.62
199.11	1691.62
199.33	1736.68
199.55	1564.65
199.77	1705.96
199.99	1742.82
200.21	1677.29
200.43	1742.82
200.65	1669.09
200.87	1589.22
201.09	1677.29
201.31	1656.81
201.53	1703.91
201.75	1724.39
201.97	1734.63
202.19	1705.96
202.41	1775.59
202.63	1767.40
202.85	1619.94
203.07	1724.39
203.29	1693.67
203.51	1619.94
203.73	1652.71
203.95	1867.75
204.17	1669.09
204.39	1818.60
204.61	1710.05
204.83	1677.29
205.05	1732.58
205.27	1708.01
205.49	1820.64
205.71	1667.05
205.93	1644.52
206.15	1619.94
206.37	1673.19
206.59	1599.46
206.81	1656.81
207.03	1722.34
207.25	1646.57
207.47	1755.11
207.69	1685.48
207.91	1787.88
208.13	1765.35
208.34	1689.57
208.56	1640.42
208.78	1775.59
209.00	1656.81
209.22	1697.77
209.44	1841.12
209.66	1646.57
209.88	1748.97
210.10	1697.77
210.32	1636.33
210.54	1841.12
210.76	1718.25
210.98	1734.63
211.20	1605.61
211.42	1632.23
211.64	1775.59
211.86	1691.62
212.08	1746.92
212.30	1617.90
212.52	1675.24
212.74	1705.96
212.96	1785.83
213.17	1730.53
213.39	1818.60
213.61	1767.40
213.83	1708.01
214.05	1632.23
214.27	1675.24
214.49	1550.31
214.71	1681.38
214.93	1791.97
215.15	1728.49
215.37	1656.81
215.59	1560.55
215.81	1755.11
216.03	1746.92
216.24	1722.34
216.46	1720.29
216.68	1619.94
216.90	1746.92
217.12	1705.96
217.34	1724.39
217.56	1767.40
217.78	1755.11
218.00	1755.11
218.22	1675.24
218.44	1757.16
218.66	1757.16
218.87	1730.53
219.09	1560.55
219.31	1681.38
219.53	1755.11
219.75	1705.96
219.97	1708.01
220.19	1697.77
220.41	1703.91
220.63	1824.74
220.85	1708.01
221.06	1652.71
221.28	1773.54
221.50	1734.63
221.72	1685.48
221.94	1697.77
222.16	1710.05
222.38	1755.11
222.60	1738.73
222.82	1677.29
223.03	1685.48
223.25	1675.24
223.47	1726.44
223.69	1839.08
223.91	1757.16
224.13	1669.09
224.35	1677.29
224.57	1744.87
224.78	1769.44
225.00	1656.81
225.22	1658.85
225.44	1771.49
225.66	1748.97
225.88	1576.94
226.10	1708.01
226.32	1779.68
226.53	1830.88
226.75	1679.33
226.97	1642.47
227.19	1636.33
227.41	1624.04
227.63	1632.23
227.85	1669.09
228.06	1658.85
228.28	1658.85
228.50	1701.86
228.72	1587.18
228.94	1685.48
229.16	1568.74
229.37	1595.37
229.59	1617.90
229.81	1781.73
230.03	1705.96
230.25	1626.09
230.47	1648.61
230.69	1638.38
230.90	1748.97
231.12	1650.66
231.34	1705.96
231.56	1765.35
231.78	1583.08
232.00	1697.77
232.21	1681.38
232.43	1718.25
232.65	1568.74
232.87	1683.43
233.09	1601.51
233.30	1671.14
233.52	1736.68
233.74	1708.01
233.96	1675.24
234.18	1701.86
234.40	1691.62
234.61	1853.41
234.83	1576.94
235.05	1611.75
235.27	1814.50
235.49	1761.25
235.70	1703.91
235.92	1839.08
236.14	1759.21
236.36	1855.46
236.58	1581.03
236.79	1800.16
237.01	1718.25
237.23	1771.49
237.45	1800.16
237.67	1697.77
237.88	1665.00
238.10	1818.60
238.32	1650.66
238.54	1658.85
238.76	1648.61
238.97	1632.23
239.19	1621.99
239.41	1740.77
239.63	1775.59
239.85	1714.15
240.06	1705.96
240.28	1685.48
240.50	1742.82
240.72	1638.38
240.93	1722.34
241.15	1800.16
241.37	1728.49
241.59	1746.92
241.81	1757.16
242.02	1652.71
242.24	1828.84
242.46	1683.43
242.68	1701.86
242.89	1679.33
243.11	1812.45
243.33	1777.64
243.55	1705.96
243.76	1740.77
243.98	1595.37
244.20	1714.15
244.42	1667.05
244.64	1691.62
244.85	1581.03
245.07	1687.53
245.29	1751.01
245.51	1658.85
245.72	1650.66
245.94	1757.16
246.16	1730.53
246.38	1812.45
246.59	1683.43
246.81	1652.71
247.03	1673.19
247.24	1523.69
247.46	1654.76
247.68	1728.49
247.90	1679.33
248.11	1677.29
248.33	1714.15
248.55	1701.86
248.77	1691.62
248.98	1705.96
249.20	1826.79
249.42	1656.81
249.64	1703.91
249.85	1611.75
250.07	1677.29
250.29	1765.35
250.50	1755.11
250.72	1673.19
250.94	1710.05
251.16	1773.54
251.37	1832.93
251.59	1681.38
251.81	1796.07
252.02	1738.73
252.24	1687.53
252.46	1787.88
252.68	1712.10
252.89	1660.90
253.11	1576.94
253.33	1669.09
253.54	1767.40
253.76	1648.61
253.98	1689.57
254.20	1679.33
254.41	1634.28
254.63	1726.44
254.85	1638.38
255.06	1738.73
255.28	1701.86
255.50	1738.73
255.71	1605.61
255.93	1636.33
256.15	1689.57
256.36	1689.57
256.58	1660.90
256.80	1714.15
257.02	1669.09
257.23	1724.39
257.45	1746.92
257.67	1720.29
257.88	1665.00
258.10	1699.81
258.32	1667.05
258.53	1673.19
258.75	1783.78
258.97	1701.86
259.18	1595.37
259.40	1636.33
259.62	1802.21
259.83	1763.30
260.05	1777.64
260.27	1929.19
260.48	1720.29
260.70	1595.37
260.92	1722.34
261.13	1687.53
261.35	1697.77
261.57	1722.34
261.78	1521.64
262.00	1650.66
262.22	1744.87
262.43	1673.19
262.65	1732.58
262.86	1679.33
263.08	1843.17
263.30	1777.64
263.51	1642.47
263.73	1660.90
263.95	1765.35
264.16	1746.92
264.38	1699.81
264.60	1746.92
264.81	1712.10
265.03	1744.87
265.25	1806.31
265.46	1685.48
265.68	1746.92
265.89	1755.11
266.11	1681.38
266.33	1697.77
266.54	1765.35
266.76	1728.49
266.98	1699.81
267.19	1757.16
267.41	1718.25
267.62	1708.01
267.84	1654.76
268.06	1728.49
268.27	1728.49
268.49	1775.59
268.70	1712.10
268.92	1679.33
269.14	1605.61
269.35	1593.32
269.57	1634.28
269.79	1646.57
270.00	1751.01
270.22	1757.16
270.43	1656.81
270.65	1552.36
270.87	1732.58
271.08	1771.49
271.30	1705.96
271.51	1705.96
271.73	1755.11
271.95	1800.16
272.16	1718.25
272.38	1742.82
272.59	1683.43
272.81	1675.24
273.02	1720.29
273.24	1787.88
273.46	1759.21
273.67	1665.00
273.89	1648.61
274.10	1677.29
274.32	1693.67
274.54	1734.63
274.75	1751.01
274.97	1710.05
275.18	1740.77
275.40	1732.58
275.61	1730.53
275.83	1656.81
276.05	1669.09
276.26	1775.59
276.48	1652.71
276.69	1705.96
276.91	1697.77
277.12	1771.49
277.34	1751.01
277.55	1687.53
277.77	1652.71
277.99	1703.91
278.20	1550.31
278.42	1685.48
278.63	1687.53
278.85	1656.81
279.06	1578.98
279.28	1771.49
279.49	1736.68
279.71	1728.49
279.93	1677.29
280.14	1665.00
280.36	1738.73
280.57	1699.81
280.79	1759.21
281.00	1662.95
281.22	1646.57
281.43	1722.34
281.65	1611.75
281.86	1626.09
282.08	1771.49
282.29	1826.79
282.51	1640.42
282.73	1642.47
282.94	1654.76
283.16	1751.01
283.37	1783.78
283.59	1640.42
283.80	1730.53
284.02	1703.91
284.23	1759.21
284.45	1697.77
284.66	1607.66
284.88	1685.48
285.09	1681.38
285.31	1689.57
285.52	1654.76
285.74	1548.26
285.95	1751.01
286.17	1724.39
286.38	1695.72
286.60	1689.57
286.81	1728.49
287.03	1630.18
287.24	1652.71
287.46	1708.01
287.67	1703.91
287.89	1810.40
288.10	1697.77
288.32	1660.90
288.53	1708.01
288.75	1724.39
288.96	1800.16
289.18	1681.38
289.39	1607.66
289.61	1763.30
289.82	1798.12
290.04	1832.93
290.25	1693.67
290.47	1714.15
290.68	1689.57
290.90	1757.16
291.11	1613.80
291.33	1691.62
291.54	1648.61
291.76	1660.90
291.97	1685.48
292.18	1665.00
292.40	1673.19
292.61	1687.53
292.83	1775.59
293.04	1775.59
293.26	1773.54
293.47	1804.26
293.69	1652.71
293.90	1693.67
294.12	1722.34
294.33	1693.67
294.55	1644.52
294.76	1724.39
294.97	1738.73
295.19	1824.74
295.40	1667.05
295.62	1720.29
295.83	1732.58
296.05	1648.61
296.26	1697.77
296.48	1736.68
296.69	1703.91
296.90	1761.25
297.12	1757.16
297.33	1794.02
297.55	1714.15
297.76	1775.59
297.98	1800.16
298.19	1669.09
298.41	1667.05
298.62	1626.09
298.83	1714.15
299.05	1738.73
299.26	1677.29
299.48	1697.77
299.69	1787.88
299.90	1665.00
300.12	1605.61
300.33	1665.00
300.55	1617.90
300.76	1730.53
300.98	1646.57
301.19	1714.15
301.40	1648.61
301.62	1660.90
301.83	1714.15
302.05	1677.29
302.26	1732.58
302.47	1642.47
302.69	1601.51
302.90	1689.57
303.12	1673.19
303.33	1796.07
303.54	1812.45
303.76	1675.24
303.97	1665.00
304.19	1816.55
304.40	1677.29
304.61	1732.58
304.83	1810.40
305.04	1726.44
305.26	1636.33
305.47	1673.19
305.68	1693.67
305.90	1660.90
306.11	1677.29
306.33	1724.39
306.54	1691.62
306.75	1722.34
306.97	1601.51
307.18	1648.61
307.39	1679.33
307.61	1697.77
307.82	1697.77
308.04	1744.87
308.25	1607.66
308.46	1652.71
308.68	1681.38
308.89	1669.09
309.10	1724.39
309.32	1722.34
309.53	1691.62
309.74	1691.62
309.96	1662.95
310.17	1722.34
310.39	1587.18
310.60	1759.21
310.81	1656.81
311.03	1632.23
311.24	1804.26
311.45	1671.14
311.67	1746.92
311.88	1726.44
312.09	1705.96
312.31	1646.57
312.52	1744.87
312.73	1640.42
312.95	1658.85
313.16	1648.61
313.37	1759.21
313.59	1812.45
313.80	1720.29
314.01	1765.35
314.23	1675.24
314.44	1607.66
314.65	1630.18
314.87	1640.42
315.08	1673.19
315.29	1650.66
315.51	1599.46
315.72	1673.19
315.93	1771.49
316.15	1720.29
316.36	1624.04
316.57	1755.11
316.79	1714.15
317.00	1675.24
317.21	1820.64
317.43	1638.38
317.64	1665.00
317.85	1658.85
318.07	1691.62
318.28	1775.59
318.49	1781.73
318.70	1832.93
318.92	1834.98
319.13	1779.68
319.34	1882.08
319.56	1757.16
319.77	1812.45
319.98	1705.96
320.20	1748.97
320.41	1718.25
320.62	1822.69
320.83	1693.67
321.05	1857.51
321.26	1763.30
321.47	1738.73
321.69	1722.34
321.90	1689.57
322.11	1671.14
322.32	1687.53
322.54	1761.25
322.75	1693.67
322.96	1869.80
323.18	1685.48
323.39	1542.12
323.60	1712.10
323.81	1718.25
324.03	1609.70
324.24	1777.64
324.45	1716.20
324.66	1734.63
324.88	1787.88
325.09	1730.53
325.30	1726.44
325.52	1802.21
325.73	1748.97
325.94	1607.66
326.15	1581.03
326.37	1722.34
326.58	1798.12
326.79	1751.01
327.00	1667.05
327.22	1681.38
327.43	1716.20
327.64	1607.66
327.85	1644.52
328.07	1712.10
328.28	1757.16
328.49	1619.94
328.70	1738.73
328.92	1703.91
329.13	1609.70
329.34	1751.01
329.55	1791.97
329.76	1685.48
329.98	1718.25
330.19	1763.30
330.40	1718.25
330.61	1656.81
330.83	1710.05
331.04	1648.61
331.25	1679.33
331.46	1669.09
331.68	1640.42
331.89	1710.05
332.10	1669.09
332.31	1644.52
332.52	1714.15
332.74	1853.41
332.95	1609.70
333.16	1701.86
333.37	1683.43
333.58	1648.61
333.80	1708.01
334.01	1574.89
334.22	1667.05
334.43	1665.00
334.64	1714.15
334.86	1660.90
335.07	1585.13
335.28	1810.40
335.49	1634.28
335.70	1662.95
335.92	1812.45
336.13	1773.54
336.34	1789.92
336.55	1708.01
336.76	1642.47
336.98	1652.71
337.19	1681.38
337.40	1806.31
337.61	1880.04
337.82	1685.48
338.04	1716.20
338.25	1607.66
338.46	1673.19
338.67	1642.47
338.88	1673.19
339.09	1746.92
339.31	1703.91
339.52	1742.82
339.73	1634.28
339.94	1701.86
340.15	1728.49
340.36	1634.28
340.58	1761.25
340.79	1665.00
341.00	1759.21
341.21	1619.94
341.42	1740.77
341.63	1699.81
341.85	1726.44
342.06	1683.43
342.27	1628.14
342.48	1755.11
342.69	1630.18
342.90	1685.48
343.12	1730.53
343.33	1669.09
343.54	1748.97
343.75	1771.49
343.96	1744.87
344.17	1640.42
344.38	1703.91
344.60	1675.24
344.81	1656.81
345.02	1644.52
345.23	1720.29
345.44	1720.29
345.65	1732.58
345.86	1697.77
346.07	1683.43
346.29	1660.90
346.50	1767.40
346.71	1671.14
346.92	1714.15
347.13	1832.93
347.34	1656.81
347.55	1665.00
347.76	1724.39
347.98	1615.85
348.19	1689.57
348.40	1728.49
348.61	1673.19
348.82	1736.68
349.03	1771.49
349.24	1656.81
349.45	1773.54
349.66	1615.85
349.88	1730.53
350.09	1652.71
350.30	1800.16
350.51	1785.83
350.72	1654.76
350.93	1675.24
351.14	1669.09
351.35	1724.39
351.56	1705.96
351.77	1779.68
351.99	1730.53
352.20	1781.73
352.41	1716.20
352.62	1595.37
352.83	1675.24
353.04	1687.53
353.25	1683.43
353.46	1767.40
353.67	1724.39
353.88	1628.14
354.09	1751.01
354.30	1691.62
354.52	1736.68
354.73	1740.77
354.94	1636.33
355.15	1732.58
355.36	1730.53
355.57	1576.94
355.78	1748.97
355.99	1632.23
356.20	1648.61
356.41	1710.05
356.62	1722.34
356.83	1708.01
357.04	1751.01
357.25	1578.98
357.46	1646.57
357.68	1607.66
357.89	1613.80
358.10	1701.86
358.31	1693.67
358.52	1714.15
358.73	1632.23
358.94	1628.14
359.15	1685.48
359.36	1765.35
359.57	1722.34
359.78	1648.61
359.99	1740.77
360.20	1685.48
360.41	1656.81
360.62	1685.48
360.83	1685.48
361.04	1667.05
361.25	1755.11
361.46	1763.30
361.67	1660.90
361.88	1726.44
362.09	1732.58
362.30	1751.01
362.51	1677.29
362.72	1740.77
362.93	1714.15
363.14	1736.68
363.35	1605.61
363.56	1538.02
363.78	1804.26
363.99	1685.48
364.20	1697.77
364.41	1763.30
364.62	1796.07
364.83	1746.92
365.04	1695.72
365.25	1632.23
365.46	1742.82
365.67	1722.34
365.88	1632.23
366.09	1699.81
366.30	1726.44
366.51	1720.29
366.72	1607.66
366.93	1693.67
367.14	1714.15
367.35	1755.11
367.56	1712.10
367.77	1787.88
367.98	1648.61
368.18	1662.95
368.39	1697.77
368.60	1621.99
368.81	1703.91
369.02	1722.34
369.23	1712.10
369.44	1615.85
369.65	1650.66
369.86	1763.30
370.07	1755.11
370.28	1634.28
370.49	1681.38
370.70	1714.15
370.91	1642.47
371.12	1640.42
371.33	1767.40
371.54	1650.66
371.75	1775.59
371.96	1624.04
372.17	1722.34
372.38	1665.00
372.59	1742.82
372.80	1634.28
373.01	1650.66
373.22	1757.16
373.43	1671.14
373.64	1658.85
373.85	1783.78
374.06	1818.60
374.26	1787.88
374.47	1751.01
374.68	1736.68
374.89	1679.33
375.10	1718.25
375.31	1777.64
375.52	1738.73
375.73	1714.15
375.94	1615.85
376.15	1839.08
376.36	1650.66
376.57	1658.85
376.78	1712.10
376.99	1722.34
377.20	1732.58
377.40	1638.38
377.61	1740.77
377.82	1646.57
378.03	1746.92
378.24	1665.00
378.45	1658.85
378.66	1634.28
378.87	1591.27
379.08	1607.66
379.29	1722.34
379.50	1757.16
379.71	1615.85
379.91	1794.02
380.12	1744.87
380.33	1761.25
380.54	1730.53
380.75	1740.77
380.96	1738.73
381.17	1761.25
381.38	1748.97
381.59	1665.00
381.80	1820.64
382.00	1923.04
382.21	1769.44
382.42	1826.79
382.63	1824.74
382.84	1738.73
383.05	1781.73
383.26	1794.02
383.47	1658.85
383.68	1697.77
383.88	1748.97
384.09	1716.20
384.30	1820.64
384.51	1665.00
384.72	1716.20
384.93	1656.81
385.14	1763.30
385.35	1755.11
385.55	1597.42
385.76	1740.77
385.97	1697.77
386.18	1630.18
386.39	1630.18
386.60	1671.14
386.81	1636.33
387.02	1681.38
387.22	1691.62
387.43	1714.15
387.64	1814.50
387.85	1800.16
388.06	2176.99
388.27	4270.01
388.48	6817.69
388.68	8337.28
388.89	9623.41
389.10	9846.63
389.31	8501.12
389.52	7577.48
389.73	6717.34
389.93	6305.70
390.14	5885.86
390.35	5353.39
390.56	4573.11
390.77	3798.98
390.98	3061.71
391.18	2496.47
391.39	2140.13
391.60	1857.51
391.81	1796.07
392.02	1720.29
392.23	1877.99
392.43	1763.30
392.64	1781.73
392.85	1730.53
393.06	1851.36
393.27	1673.19
393.47	1621.99
393.68	1693.67
393.89	1708.01
394.10	1759.21
394.31	1665.00
394.52	1658.85
394.72	1714.15
394.93	1779.68
395.14	1669.09
395.35	1736.68
395.56	1683.43
395.76	1748.97
395.97	1796.07
396.18	1810.40
396.39	1855.46
396.60	2002.91
396.80	1896.42
397.01	1845.22
397.22	1818.60
397.43	1873.89
397.64	1665.00
397.84	1783.78
398.05	1849.32
398.26	1769.44
398.47	1839.08
398.67	1832.93
398.88	1771.49
399.09	1693.67
399.30	1572.84
399.51	1857.51
399.71	1652.71
399.92	1716.20
400.13	1722.34
400.34	1644.52
400.54	1665.00
400.75	1787.88
400.96	1699.81
401.17	1742.82
401.37	1765.35
401.58	1642.47
401.79	1755.11
402.00	1869.80
402.21	2015.20
402.41	1869.80
402.62	1984.48
402.83	1882.08
403.04	1968.10
403.24	2111.46
403.45	1773.54
403.66	1861.60
403.87	1886.18
404.07	1951.71
404.28	1912.80
404.49	1896.42
404.70	1732.58
404.90	1757.16
405.11	1705.96
405.32	1708.01
405.52	1632.23
405.73	1689.57
405.94	1675.24
406.15	1751.01
406.35	1703.91
406.56	1701.86
406.77	1701.86
406.98	1710.05
407.18	1648.61
407.39	1814.50
407.60	1656.81
407.80	1691.62
408.01	1650.66
408.22	1738.73
408.43	1667.05
408.63	1732.58
408.84	1705.96
409.05	1751.01
409.25	1587.18
409.46	1724.39
409.67	1646.57
409.88	1677.29
410.08	1708.01
410.29	1708.01
410.50	1705.96
410.70	1710.05
410.91	1681.38
411.12	1761.25
411.32	1650.66
411.53	1673.19
411.74	1804.26
411.95	1796.07
412.15	1781.73
412.36	1746.92
412.57	1794.02
412.77	1886.18
412.98	1712.10
413.19	1701.86
413.39	1722.34
413.60	1787.88
413.81	1759.21
414.01	1562.60
414.22	1681.38
414.43	1826.79
414.63	1720.29
414.84	1802.21
415.05	1671.14
415.25	1640.42
415.46	1759.21
415.67	1683.43
415.87	1746.92
416.08	1636.33
416.29	1728.49
416.49	1748.97
416.70	1646.57
416.91	1720.29
417.11	1726.44
417.32	1759.21
417.53	1839.08
417.73	1642.47
417.94	1656.81
418.15	1728.49
418.35	1708.01
418.56	1726.44
418.77	1857.51
418.97	1720.29
419.18	1677.29
419.38	1566.70
419.59	1683.43
419.80	1771.49
420.00	1677.29
420.21	1740.77
420.42	1816.55
420.62	1720.29
420.83	1656.81
421.04	1654.76
421.24	1667.05
421.45	1699.81
421.65	1751.01
421.86	1673.19
422.07	1744.87
422.27	1730.53
422.48	1699.81
422.69	1648.61
422.89	1748.97
423.10	1673.19
423.30	1710.05
423.51	1785.83
423.72	1665.00
423.92	1771.49
424.13	1626.09
424.33	1767.40
424.54	1781.73
424.75	1710.05
424.95	1775.59
425.16	1759.21
425.36	1708.01
425.57	1791.97
425.78	1740.77
425.98	1751.01
426.19	1677.29
426.39	1667.05
426.60	1691.62
426.81	1755.11
427.01	1746.92
427.22	1681.38
427.42	1654.76
427.63	1675.24
427.83	1724.39
428.04	1757.16
428.25	1800.16
428.45	1771.49
428.66	1812.45
428.86	1667.05
429.07	1765.35
429.28	1675.24
429.48	1621.99
429.69	1654.76
429.89	1744.87
430.10	1681.38
430.30	1718.25
430.51	1705.96
430.71	1628.14
430.92	1730.53
431.13	1734.63
431.33	1787.88
431.54	1675.24
431.74	1785.83
431.95	1816.55
432.15	1646.57
432.36	1763.30
432.56	1726.44
432.77	1738.73
432.98	1845.22
433.18	1751.01
433.39	1705.96
433.59	1734.63
433.80	1845.22
434.00	1798.12
434.21	1636.33
434.41	1642.47
434.62	1814.50
434.82	1642.47
435.03	1654.76
435.23	1751.01
435.44	1615.85
435.64	1675.24
435.85	1718.25
436.06	1824.74
436.26	1775.59
436.47	1658.85
436.67	1705.96
436.88	1654.76
437.08	1740.77
437.29	1802.21
437.49	1736.68
437.70	1759.21
437.90	1753.06
438.11	1847.27
438.31	1806.31
438.52	1806.31
438.72	1804.26
438.93	1875.94
439.13	1718.25
439.34	1877.99
439.54	1775.59
439.75	1769.44
439.95	1755.11
440.16	1710.05
440.36	1775.59
440.57	1708.01
440.77	1820.64
440.98	1644.52
441.18	1724.39
441.39	1748.97
441.59	1658.85
441.80	1871.84
442.00	1740.77
442.21	1802.21
442.41	1677.29
442.62	1777.64
442.82	1669.09
443.02	1691.62
443.23	1681.38
443.43	1732.58
443.64	1818.60
443.84	1673.19
444.05	1812.45
444.25	1722.34
444.46	1667.05
444.66	1728.49
444.87	1843.17
445.07	1648.61
445.28	1675.24
445.48	1877.99
445.69	1701.86
445.89	1875.94
446.09	1695.72
446.30	2002.91
446.50	2670.55
446.71	3747.78
446.91	4351.93
447.12	4700.09
447.32	4880.31
447.53	4358.08
447.73	3862.47
447.93	3520.46
448.14	3411.92
448.34	3229.65
448.55	2959.31
448.75	2752.47
448.96	2684.89
449.16	2437.08
449.36	2205.66
449.57	2035.68
449.77	1904.61
449.98	1804.26
450.18	1771.49
450.39	1800.16
450.59	1781.73
450.79	1757.16
451.00	1656.81
451.20	1775.59
451.41	1634.28
451.61	1662.95
451.81	1728.49
452.02	1665.00
452.22	1732.58
452.43	1642.47
452.63	1748.97
