SpectraSuite Data File
++++++++++++++++++++++++++++++++++++
Date: Mon Jun 06 17:14:17 CEST 2016
User: root
Dark Spectrum Present: No
Reference Spectrum Present: No
Number of Sampled Component Spectra: 1
Spectrometers: USB4C02835
Integration Time (usec): 100000 (USB4C02835)
Spectra Averaged: 1 (USB4C02835)
Boxcar Smoothing: 0 (USB4C02835)
Correct for Electrical Dark: No (USB4C02835)
Strobe/Lamp Enabled: No (USB4C02835)
Correct for Detector Non-linearity: No (USB4C02835)
Correct for Stray Light: No (USB4C02835)
Number of Pixels in Processed Spectrum: 3648
>>>>>Begin Processed Spectral Data<<<<<
177.47	1484.78
177.69	1484.78
177.91	1484.78
178.13	1488.87
178.36	1456.11
178.58	1652.71
178.80	1714.15
179.02	1640.42
179.24	1708.01
179.46	1738.73
179.68	1732.58
179.90	1701.86
180.13	1736.68
180.35	1636.33
180.57	1630.18
180.79	1751.01
181.01	1705.96
181.23	1759.21
181.45	1767.40
181.67	1763.30
181.90	1746.92
182.12	1701.86
182.34	1562.60
182.56	1699.81
182.78	1751.01
183.00	1693.67
183.22	1738.73
183.44	1603.56
183.66	1822.69
183.89	1818.60
184.11	1669.09
184.33	1730.53
184.55	1767.40
184.77	1689.57
184.99	1791.97
185.21	1669.09
185.43	1847.27
185.65	1667.05
185.87	1744.87
186.10	1834.98
186.32	1886.18
186.54	1732.58
186.76	1761.25
186.98	1689.57
187.20	1722.34
187.42	1626.09
187.64	1695.72
187.86	1726.44
188.08	1771.49
188.30	1654.76
188.52	1689.57
188.75	1810.40
188.97	1757.16
189.19	1734.63
189.41	1683.43
189.63	1710.05
189.85	1650.66
190.07	1636.33
190.29	1677.29
190.51	1734.63
190.73	1634.28
190.95	1802.21
191.17	1730.53
191.39	1587.18
191.61	1679.33
191.84	1728.49
192.06	1732.58
192.28	1695.72
192.50	1982.43
192.72	1722.34
192.94	1730.53
193.16	1691.62
193.38	1648.61
193.60	1617.90
193.82	1761.25
194.04	1736.68
194.26	1695.72
194.48	1718.25
194.70	1691.62
194.92	1718.25
195.14	1798.12
195.36	1652.71
195.58	1703.91
195.80	1644.52
196.02	1687.53
196.24	1736.68
196.46	1718.25
196.69	1662.95
196.91	1908.71
197.13	1689.57
197.35	1728.49
197.57	1669.09
197.79	1730.53
198.01	1697.77
198.23	1806.31
198.45	1757.16
198.67	1640.42
198.89	1705.96
199.11	1718.25
199.33	1642.47
199.55	1564.65
199.77	1703.91
199.99	1755.11
200.21	1576.94
200.43	1697.77
200.65	1617.90
200.87	1558.50
201.09	1662.95
201.31	1658.85
201.53	1763.30
201.75	1779.68
201.97	1744.87
202.19	1724.39
202.41	1755.11
202.63	1845.22
202.85	1695.72
203.07	1703.91
203.29	1685.48
203.51	1732.58
203.73	1746.92
203.95	1820.64
204.17	1673.19
204.39	1679.33
204.61	1714.15
204.83	1697.77
205.05	1771.49
205.27	1810.40
205.49	1796.07
205.71	1613.80
205.93	1642.47
206.15	1652.71
206.37	1783.78
206.59	1796.07
206.81	1646.57
207.03	1738.73
207.25	1613.80
207.47	1718.25
207.69	1701.86
207.91	1763.30
208.13	1753.06
208.34	1683.43
208.56	1689.57
208.78	1769.44
209.00	1753.06
209.22	1763.30
209.44	1683.43
209.66	1632.23
209.88	1779.68
210.10	1662.95
210.32	1734.63
210.54	1804.26
210.76	1775.59
210.98	1806.31
211.20	1564.65
211.42	1701.86
211.64	1810.40
211.86	1765.35
212.08	1777.64
212.30	1740.77
212.52	1718.25
212.74	1693.67
212.96	1759.21
213.17	1744.87
213.39	1738.73
213.61	1724.39
213.83	1748.97
214.05	1636.33
214.27	1681.38
214.49	1681.38
214.71	1650.66
214.93	1787.88
215.15	1681.38
215.37	1736.68
215.59	1640.42
215.81	1718.25
216.03	1746.92
216.24	1742.82
216.46	1695.72
216.68	1701.86
216.90	1763.30
217.12	1742.82
217.34	1636.33
217.56	1722.34
217.78	1847.27
218.00	1787.88
218.22	1630.18
218.44	1679.33
218.66	1724.39
218.87	1767.40
219.09	1669.09
219.31	1732.58
219.53	1720.29
219.75	1648.61
219.97	1677.29
220.19	1746.92
220.41	1673.19
220.63	1814.50
220.85	1724.39
221.06	1675.24
221.28	1767.40
221.50	1673.19
221.72	1654.76
221.94	1732.58
222.16	1679.33
222.38	1789.92
222.60	1687.53
222.82	1783.78
223.03	1775.59
223.25	1712.10
223.47	1693.67
223.69	1806.31
223.91	1738.73
224.13	1681.38
224.35	1646.57
224.57	1765.35
224.78	1724.39
225.00	1712.10
225.22	1722.34
225.44	1765.35
225.66	1773.54
225.88	1662.95
226.10	1787.88
226.32	1716.20
226.53	1804.26
226.75	1681.38
226.97	1744.87
227.19	1697.77
227.41	1591.27
227.63	1714.15
227.85	1650.66
228.06	1761.25
228.28	1771.49
228.50	1757.16
228.72	1615.85
228.94	1691.62
229.16	1648.61
229.37	1689.57
229.59	1634.28
229.81	1771.49
230.03	1634.28
230.25	1646.57
230.47	1615.85
230.69	1703.91
230.90	1753.06
231.12	1624.04
231.34	1730.53
231.56	1742.82
231.78	1689.57
232.00	1730.53
232.21	1744.87
232.43	1667.05
232.65	1611.75
232.87	1689.57
233.09	1624.04
233.30	1681.38
233.52	1755.11
233.74	1728.49
233.96	1757.16
234.18	1701.86
234.40	1673.19
234.61	1826.79
234.83	1673.19
235.05	1599.46
235.27	1882.08
235.49	1845.22
235.70	1734.63
235.92	1771.49
236.14	1662.95
236.36	1886.18
236.58	1611.75
236.79	1779.68
237.01	1732.58
237.23	1744.87
237.45	1853.41
237.67	1665.00
237.88	1679.33
238.10	1845.22
238.32	1703.91
238.54	1710.05
238.76	1650.66
238.97	1683.43
239.19	1634.28
239.41	1781.73
239.63	1701.86
239.85	1648.61
240.06	1691.62
240.28	1646.57
240.50	1683.43
240.72	1675.24
240.93	1703.91
241.15	1765.35
241.37	1677.29
241.59	1824.74
241.81	1693.67
242.02	1658.85
242.24	1726.44
242.46	1757.16
242.68	1640.42
242.89	1730.53
243.11	1771.49
243.33	1611.75
243.55	1714.15
243.76	1634.28
243.98	1693.67
244.20	1683.43
244.42	1665.00
244.64	1728.49
244.85	1775.59
245.07	1613.80
245.29	1679.33
245.51	1689.57
245.72	1669.09
245.94	1820.64
246.16	1722.34
246.38	1720.29
246.59	1714.15
246.81	1662.95
247.03	1726.44
247.24	1626.09
247.46	1679.33
247.68	1701.86
247.90	1699.81
248.11	1708.01
248.33	1748.97
248.55	1665.00
248.77	1687.53
248.98	1781.73
249.20	1755.11
249.42	1728.49
249.64	1734.63
249.85	1791.97
250.07	1703.91
250.29	1710.05
250.50	1822.69
250.72	1636.33
250.94	1710.05
251.16	1787.88
251.37	1701.86
251.59	1791.97
251.81	1751.01
252.02	1783.78
252.24	1650.66
252.46	1753.06
252.68	1660.90
252.89	1748.97
253.11	1568.74
253.33	1732.58
253.54	1779.68
253.76	1601.51
253.98	1691.62
254.20	1683.43
254.41	1665.00
254.63	1722.34
254.85	1679.33
255.06	1703.91
255.28	1710.05
255.50	1695.72
255.71	1701.86
255.93	1613.80
256.15	1703.91
256.36	1751.01
256.58	1638.38
256.80	1730.53
257.02	1695.72
257.23	1740.77
257.45	1734.63
257.67	1746.92
257.88	1669.09
258.10	1751.01
258.32	1693.67
258.53	1708.01
258.75	1763.30
258.97	1667.05
259.18	1742.82
259.40	1687.53
259.62	1787.88
259.83	1761.25
260.05	1722.34
260.27	1828.84
260.48	1828.84
260.70	1716.20
260.92	1656.81
261.13	1716.20
261.35	1757.16
261.57	1710.05
261.78	1632.23
262.00	1593.32
262.22	1746.92
262.43	1691.62
262.65	1718.25
262.86	1701.86
263.08	1841.12
263.30	1753.06
263.51	1705.96
263.73	1687.53
263.95	1712.10
264.16	1689.57
264.38	1599.46
264.60	1642.47
264.81	1640.42
265.03	1826.79
265.25	1757.16
265.46	1703.91
265.68	1779.68
265.89	1685.48
266.11	1638.38
266.33	1773.54
266.54	1742.82
266.76	1755.11
266.98	1728.49
267.19	1849.32
267.41	1796.07
267.62	1705.96
267.84	1656.81
268.06	1757.16
268.27	1740.77
268.49	1843.17
268.70	1757.16
268.92	1695.72
269.14	1636.33
269.35	1638.38
269.57	1697.77
269.79	1763.30
270.00	1687.53
270.22	1824.74
270.43	1667.05
270.65	1693.67
270.87	1714.15
271.08	1779.68
271.30	1724.39
271.51	1675.24
271.73	1761.25
271.95	1808.36
272.16	1718.25
272.38	1722.34
272.59	1720.29
272.81	1730.53
273.02	1755.11
273.24	1714.15
273.46	1779.68
273.67	1681.38
273.89	1667.05
274.10	1628.14
274.32	1822.69
274.54	1718.25
274.75	1796.07
274.97	1658.85
275.18	1744.87
275.40	1691.62
275.61	1759.21
275.83	1761.25
276.05	1714.15
276.26	1767.40
276.48	1757.16
276.69	1763.30
276.91	1650.66
277.12	1789.92
277.34	1748.97
277.55	1738.73
277.77	1660.90
277.99	1683.43
278.20	1667.05
278.42	1660.90
278.63	1658.85
278.85	1691.62
279.06	1626.09
279.28	1771.49
279.49	1734.63
279.71	1824.74
279.93	1722.34
280.14	1648.61
280.36	1699.81
280.57	1785.83
280.79	1740.77
281.00	1669.09
281.22	1685.48
281.43	1818.60
281.65	1624.04
281.86	1738.73
282.08	1763.30
282.29	1720.29
282.51	1656.81
282.73	1617.90
282.94	1640.42
283.16	1728.49
283.37	1873.89
283.59	1742.82
283.80	1814.50
284.02	1665.00
284.23	1712.10
284.45	1685.48
284.66	1736.68
284.88	1673.19
285.09	1720.29
285.31	1757.16
285.52	1691.62
285.74	1640.42
285.95	1730.53
286.17	1734.63
286.38	1748.97
286.60	1621.99
286.81	1751.01
287.03	1779.68
287.24	1720.29
287.46	1732.58
287.67	1693.67
287.89	1837.03
288.10	1753.06
288.32	1718.25
288.53	1818.60
288.75	1714.15
288.96	1742.82
289.18	1712.10
289.39	1648.61
289.61	1806.31
289.82	1865.70
290.04	1843.17
290.25	1591.27
290.47	1736.68
290.68	1755.11
290.90	1828.84
291.11	1660.90
291.33	1789.92
291.54	1591.27
291.76	1656.81
291.97	1650.66
292.18	1769.44
292.40	1701.86
292.61	1665.00
292.83	1871.84
293.04	1728.49
293.26	1644.52
293.47	1679.33
293.69	1679.33
293.90	1677.29
294.12	1808.36
294.33	1675.24
294.55	1648.61
294.76	1775.59
294.97	1806.31
295.19	1800.16
295.40	1665.00
295.62	1732.58
295.83	1755.11
296.05	1642.47
296.26	1761.25
296.48	1658.85
296.69	1714.15
296.90	1710.05
297.12	1804.26
297.33	1804.26
297.55	1712.10
297.76	1685.48
297.98	1763.30
298.19	1748.97
298.41	1650.66
298.62	1685.48
298.83	1753.06
299.05	1710.05
299.26	1613.80
299.48	1730.53
299.69	1791.97
299.90	1705.96
300.12	1724.39
300.33	1697.77
300.55	1746.92
300.76	1765.35
300.98	1603.56
301.19	1701.86
301.40	1669.09
301.62	1671.14
301.83	1740.77
302.05	1683.43
302.26	1769.44
302.47	1724.39
302.69	1697.77
302.90	1693.67
303.12	1540.07
303.33	1755.11
303.54	1810.40
303.76	1689.57
303.97	1708.01
304.19	1812.45
304.40	1650.66
304.61	1734.63
304.83	1798.12
305.04	1828.84
305.26	1720.29
305.47	1667.05
305.68	1724.39
305.90	1714.15
306.11	1755.11
306.33	1642.47
306.54	1650.66
306.75	1656.81
306.97	1554.41
307.18	1628.14
307.39	1693.67
307.61	1757.16
307.82	1687.53
308.04	1646.57
308.25	1728.49
308.46	1738.73
308.68	1695.72
308.89	1732.58
309.10	1734.63
309.32	1791.97
309.53	1660.90
309.74	1771.49
309.96	1681.38
310.17	1771.49
310.39	1730.53
310.60	1689.57
310.81	1847.27
311.03	1677.29
311.24	1779.68
311.45	1683.43
311.67	1859.56
311.88	1781.73
312.09	1673.19
312.31	1640.42
312.52	1685.48
312.73	1701.86
312.95	1665.00
313.16	1669.09
313.37	1814.50
313.59	1769.44
313.80	1746.92
314.01	1812.45
314.23	1693.67
314.44	1607.66
314.65	1673.19
314.87	1683.43
315.08	1660.90
315.29	1777.64
315.51	1638.38
315.72	1603.56
315.93	1853.41
316.15	1751.01
316.36	1646.57
316.57	1736.68
316.79	1759.21
317.00	1646.57
317.21	1753.06
317.43	1675.24
317.64	1636.33
317.85	1667.05
318.07	1665.00
318.28	1701.86
318.49	1800.16
318.70	1888.23
318.92	1814.50
319.13	1798.12
319.34	1861.60
319.56	1834.98
319.77	1757.16
319.98	1832.93
320.20	1812.45
320.41	1789.92
320.62	1753.06
320.83	1646.57
321.05	1839.08
321.26	1736.68
321.47	1787.88
321.69	1703.91
321.90	1691.62
322.11	1689.57
322.32	1687.53
322.54	1841.12
322.75	1695.72
322.96	1853.41
323.18	1662.95
323.39	1642.47
323.60	1669.09
323.81	1705.96
324.03	1675.24
324.24	1621.99
324.45	1652.71
324.66	1675.24
324.88	1738.73
325.09	1765.35
325.30	1742.82
325.52	1755.11
325.73	1744.87
325.94	1628.14
326.15	1681.38
326.37	1671.14
326.58	1763.30
326.79	1935.33
327.00	1634.28
327.22	1697.77
327.43	1648.61
327.64	1705.96
327.85	1742.82
328.07	1714.15
328.28	1761.25
328.49	1701.86
328.70	1656.81
328.92	1710.05
329.13	1673.19
329.34	1753.06
329.55	1767.40
329.76	1812.45
329.98	1775.59
330.19	1732.58
330.40	1650.66
330.61	1724.39
330.83	1726.44
331.04	1648.61
331.25	1724.39
331.46	1746.92
331.68	1632.23
331.89	1716.20
332.10	1640.42
332.31	1593.32
332.52	1685.48
332.74	1828.84
332.95	1568.74
333.16	1679.33
333.37	1806.31
333.58	1648.61
333.80	1830.88
334.01	1642.47
334.22	1648.61
334.43	1683.43
334.64	1660.90
334.86	1581.03
335.07	1667.05
335.28	1761.25
335.49	1603.56
335.70	1755.11
335.92	1834.98
336.13	1765.35
336.34	1771.49
336.55	1697.77
336.76	1703.91
336.98	1603.56
337.19	1712.10
337.40	1787.88
337.61	1892.32
337.82	1615.85
338.04	1769.44
338.25	1660.90
338.46	1646.57
338.67	1689.57
338.88	1669.09
339.09	1652.71
339.31	1683.43
339.52	1699.81
339.73	1662.95
339.94	1681.38
340.15	1730.53
340.36	1699.81
340.58	1681.38
340.79	1710.05
341.00	1767.40
341.21	1703.91
341.42	1820.64
341.63	1738.73
341.85	1648.61
342.06	1658.85
342.27	1708.01
342.48	1787.88
342.69	1599.46
342.90	1708.01
343.12	1730.53
343.33	1699.81
343.54	1728.49
343.75	1783.78
343.96	1751.01
344.17	1650.66
344.38	1722.34
344.60	1675.24
344.81	1617.90
345.02	1636.33
345.23	1734.63
345.44	1828.84
345.65	1798.12
345.86	1746.92
346.07	1673.19
346.29	1697.77
346.50	1693.67
346.71	1779.68
346.92	1785.83
347.13	1755.11
347.34	1615.85
347.55	1697.77
347.76	1781.73
347.98	1646.57
348.19	1613.80
348.40	1761.25
348.61	1683.43
348.82	1742.82
349.03	1767.40
349.24	1693.67
349.45	1779.68
349.66	1589.22
349.88	1718.25
350.09	1693.67
350.30	1785.83
350.51	1824.74
350.72	1722.34
350.93	1734.63
351.14	1730.53
351.35	1728.49
351.56	1763.30
351.77	1699.81
351.99	1789.92
352.20	1804.26
352.41	1804.26
352.62	1656.81
352.83	1705.96
353.04	1781.73
353.25	1681.38
353.46	1757.16
353.67	1800.16
353.88	1601.51
354.09	1748.97
354.30	1718.25
354.52	1767.40
354.73	1718.25
354.94	1677.29
355.15	1703.91
355.36	1841.12
355.57	1628.14
355.78	1812.45
355.99	1683.43
356.20	1675.24
356.41	1777.64
356.62	1732.58
356.83	1656.81
357.04	1773.54
357.25	1566.70
357.46	1681.38
357.68	1550.31
357.89	1728.49
358.10	1708.01
358.31	1781.73
358.52	1730.53
358.73	1656.81
358.94	1624.04
359.15	1665.00
359.36	1798.12
359.57	1726.44
359.78	1708.01
359.99	1861.60
360.20	1660.90
360.41	1718.25
360.62	1699.81
360.83	1763.30
361.04	1728.49
361.25	1732.58
361.46	1800.16
361.67	1755.11
361.88	1785.83
362.09	1763.30
362.30	1738.73
362.51	1720.29
362.72	1763.30
362.93	1769.44
363.14	1724.39
363.35	1722.34
363.56	1621.99
363.78	1742.82
363.99	1665.00
364.20	1646.57
364.41	1724.39
364.62	1800.16
364.83	1755.11
365.04	1728.49
365.25	1640.42
365.46	1845.22
365.67	1640.42
365.88	1611.75
366.09	1712.10
366.30	1824.74
366.51	1751.01
366.72	1722.34
366.93	1746.92
367.14	1695.72
367.35	1822.69
367.56	1753.06
367.77	1734.63
367.98	1656.81
368.18	1746.92
368.39	1763.30
368.60	1638.38
368.81	1771.49
369.02	1722.34
369.23	1632.23
369.44	1634.28
369.65	1615.85
369.86	1757.16
370.07	1869.80
370.28	1708.01
370.49	1763.30
370.70	1800.16
370.91	1693.67
371.12	1624.04
371.33	1804.26
371.54	1699.81
371.75	1744.87
371.96	1611.75
372.17	1738.73
372.38	1738.73
372.59	1816.55
372.80	1685.48
373.01	1671.14
373.22	1728.49
373.43	1650.66
373.64	1667.05
373.85	1751.01
374.06	1826.79
374.26	1710.05
374.47	1736.68
374.68	1800.16
374.89	1767.40
375.10	1746.92
375.31	1757.16
375.52	1726.44
375.73	1718.25
375.94	1691.62
376.15	1798.12
376.36	1691.62
376.57	1693.67
376.78	1609.70
376.99	1689.57
377.20	1791.97
377.40	1734.63
377.61	1857.51
377.82	1736.68
378.03	1785.83
378.24	1744.87
378.45	1775.59
378.66	1775.59
378.87	1593.32
379.08	1550.31
379.29	1615.85
379.50	1794.02
379.71	1722.34
379.91	1806.31
380.12	1685.48
380.33	1701.86
380.54	1665.00
380.75	1708.01
380.96	1693.67
381.17	1773.54
381.38	1732.58
381.59	1808.36
381.80	1742.82
382.00	1888.23
382.21	1736.68
382.42	1755.11
382.63	1935.33
382.84	1736.68
383.05	1816.55
383.26	1894.37
383.47	1773.54
383.68	1818.60
383.88	1703.91
384.09	1783.78
384.30	1787.88
384.51	1738.73
384.72	1691.62
384.93	1677.29
385.14	1701.86
385.35	1812.45
385.55	1591.27
385.76	1814.50
385.97	1685.48
386.18	1738.73
386.39	1652.71
386.60	1613.80
386.81	1710.05
387.02	1740.77
387.22	1714.15
387.43	1755.11
387.64	1791.97
387.85	1912.80
388.06	2136.03
388.27	4245.44
388.48	6801.30
388.68	8120.20
388.89	9492.34
389.10	9639.79
389.31	8550.27
389.52	7509.90
389.73	6655.90
389.93	6104.99
390.14	5805.99
390.35	5261.23
390.56	4528.06
390.77	3725.26
390.98	2987.99
391.18	2586.58
391.39	2066.40
391.60	1884.13
391.81	1783.78
392.02	1748.97
392.23	1834.98
392.43	1718.25
392.64	1845.22
392.85	1632.23
393.06	1845.22
393.27	1738.73
393.47	1744.87
393.68	1757.16
393.89	1728.49
394.10	1775.59
394.31	1697.77
394.52	1677.29
394.72	1759.21
394.93	1808.36
395.14	1734.63
395.35	1734.63
395.56	1671.14
395.76	1724.39
395.97	1753.06
396.18	1804.26
396.39	1935.33
396.60	1998.82
396.80	1880.04
397.01	1824.74
397.22	1767.40
397.43	1781.73
397.64	1751.01
397.84	1845.22
398.05	1875.94
398.26	1810.40
398.47	1789.92
398.67	1769.44
398.88	1687.53
399.09	1802.21
399.30	1728.49
399.51	1753.06
399.71	1644.52
399.92	1746.92
400.13	1789.92
400.34	1689.57
400.54	1675.24
400.75	1802.21
400.96	1773.54
401.17	1755.11
401.37	1669.09
401.58	1669.09
401.79	1771.49
402.00	1906.66
402.21	1968.10
402.41	1990.63
402.62	1914.85
402.83	2031.58
403.04	2068.45
403.24	2123.74
403.45	1869.80
403.66	1900.52
403.87	1916.90
404.07	1925.09
404.28	1943.52
404.49	1939.43
404.70	1787.88
404.90	1804.26
405.11	1759.21
405.32	1748.97
405.52	1718.25
405.73	1626.09
405.94	1662.95
406.15	1701.86
406.35	1781.73
406.56	1753.06
406.77	1697.77
406.98	1740.77
407.18	1640.42
407.39	1794.02
407.60	1791.97
407.80	1714.15
408.01	1712.10
408.22	1837.03
408.43	1724.39
408.63	1662.95
408.84	1765.35
409.05	1763.30
409.25	1691.62
409.46	1755.11
409.67	1593.32
409.88	1656.81
410.08	1722.34
410.29	1683.43
410.50	1787.88
410.70	1689.57
410.91	1662.95
411.12	1746.92
411.32	1710.05
411.53	1722.34
411.74	1785.83
411.95	1916.90
412.15	1746.92
412.36	1740.77
412.57	1755.11
412.77	1675.24
412.98	1808.36
413.19	1703.91
413.39	1726.44
413.60	1775.59
413.81	1816.55
414.01	1689.57
414.22	1720.29
414.43	1724.39
414.63	1718.25
414.84	1785.83
415.05	1789.92
415.25	1660.90
415.46	1798.12
415.67	1714.15
415.87	1695.72
416.08	1677.29
416.29	1685.48
416.49	1730.53
416.70	1763.30
416.91	1714.15
417.11	1708.01
417.32	1734.63
417.53	1841.12
417.73	1746.92
417.94	1634.28
418.15	1787.88
418.35	1738.73
418.56	1667.05
418.77	1755.11
418.97	1634.28
419.18	1761.25
419.38	1583.08
419.59	1701.86
419.80	1779.68
420.00	1683.43
420.21	1689.57
420.42	1738.73
420.62	1765.35
420.83	1597.42
421.04	1718.25
421.24	1665.00
421.45	1791.97
421.65	1761.25
421.86	1656.81
422.07	1773.54
422.27	1742.82
422.48	1746.92
422.69	1662.95
422.89	1761.25
423.10	1634.28
423.30	1685.48
423.51	1687.53
423.72	1746.92
423.92	1794.02
424.13	1626.09
424.33	1718.25
424.54	1845.22
424.75	1771.49
424.95	1765.35
425.16	1710.05
425.36	1656.81
425.57	1808.36
425.78	1802.21
425.98	1763.30
426.19	1683.43
426.39	1703.91
426.60	1759.21
426.81	1751.01
427.01	1640.42
427.22	1648.61
427.42	1583.08
427.63	1656.81
427.83	1834.98
428.04	1742.82
428.25	1730.53
428.45	1734.63
428.66	1824.74
428.86	1748.97
429.07	1710.05
429.28	1736.68
429.48	1724.39
429.69	1662.95
429.89	1781.73
430.10	1628.14
430.30	1658.85
430.51	1837.03
430.71	1679.33
430.92	1751.01
431.13	1648.61
431.33	1724.39
431.54	1673.19
431.74	1824.74
431.95	1814.50
432.15	1632.23
432.36	1742.82
432.56	1708.01
432.77	1871.84
432.98	1859.56
433.18	1798.12
433.39	1683.43
433.59	1697.77
433.80	1863.65
434.00	1849.32
434.21	1699.81
434.41	1683.43
434.62	1869.80
434.82	1640.42
435.03	1671.14
435.23	1755.11
435.44	1675.24
435.64	1718.25
435.85	1665.00
436.06	1744.87
436.26	1773.54
436.47	1718.25
436.67	1677.29
436.88	1738.73
437.08	1789.92
437.29	1806.31
437.49	1724.39
437.70	1759.21
437.90	1748.97
438.11	1886.18
438.31	1738.73
438.52	1851.36
438.72	1816.55
438.93	2004.96
439.13	1761.25
439.34	1845.22
439.54	1808.36
439.75	1857.51
439.95	1796.07
440.16	1779.68
440.36	1771.49
440.57	1753.06
440.77	1703.91
440.98	1712.10
441.18	1775.59
441.39	1669.09
441.59	1607.66
441.80	1906.66
442.00	1642.47
442.21	1818.60
442.41	1691.62
442.62	1742.82
442.82	1636.33
443.02	1693.67
443.23	1701.86
443.43	1759.21
443.64	1800.16
443.84	1689.57
444.05	1753.06
444.25	1798.12
444.46	1681.38
444.66	1677.29
444.87	1808.36
445.07	1703.91
445.28	1734.63
445.48	1773.54
445.69	1863.65
445.89	1875.94
446.09	1740.77
446.30	2004.96
446.50	2697.17
446.71	3696.58
446.91	4321.21
447.12	4747.19
447.32	5025.72
447.53	4388.80
447.73	3819.46
447.93	3456.97
448.14	3338.19
448.34	3149.78
448.55	2848.72
448.75	2768.85
448.96	2656.22
449.16	2430.94
449.36	2277.34
449.57	2060.26
449.77	1943.52
449.98	1851.36
450.18	1775.59
450.39	1816.55
450.59	1859.56
450.79	1791.97
451.00	1654.76
451.20	1818.60
451.41	1712.10
451.61	1773.54
451.81	1646.57
452.02	1712.10
452.22	1585.13
452.43	1802.21
452.63	1728.49
