SpectraSuite Data File
++++++++++++++++++++++++++++++++++++
Date: Mon Jun 06 12:46:37 CEST 2016
User: root
Dark Spectrum Present: No
Reference Spectrum Present: No
Number of Sampled Component Spectra: 1
Spectrometers: USB4C02835
Integration Time (usec): 100000 (USB4C02835)
Spectra Averaged: 1 (USB4C02835)
Boxcar Smoothing: 0 (USB4C02835)
Correct for Electrical Dark: No (USB4C02835)
Strobe/Lamp Enabled: No (USB4C02835)
Correct for Detector Non-linearity: No (USB4C02835)
Correct for Stray Light: No (USB4C02835)
Number of Pixels in Processed Spectrum: 3648
>>>>>Begin Processed Spectral Data<<<<<
177.47	1533.93
177.69	1533.93
177.91	1533.93
178.13	1505.26
178.36	1447.91
178.58	1650.66
178.80	1732.58
179.02	1628.14
179.24	1648.61
179.46	1712.10
179.68	1800.16
179.90	1671.14
180.13	1732.58
180.35	1662.95
180.57	1726.44
180.79	1705.96
181.01	1681.38
181.23	1718.25
181.45	1771.49
181.67	1757.16
181.90	1755.11
182.12	1687.53
182.34	1650.66
182.56	1714.15
182.78	1755.11
183.00	1652.71
183.22	1740.77
183.44	1558.50
183.66	1812.45
183.89	1746.92
184.11	1720.29
184.33	1742.82
184.55	1798.12
184.77	1746.92
184.99	1648.61
185.21	1675.24
185.43	1884.13
185.65	1617.90
185.87	1681.38
186.10	1755.11
186.32	1828.84
186.54	1710.05
186.76	1765.35
186.98	1658.85
187.20	1744.87
187.42	1660.90
187.64	1742.82
187.86	1781.73
188.08	1673.19
188.30	1648.61
188.52	1728.49
188.75	1699.81
188.97	1808.36
189.19	1656.81
189.41	1677.29
189.63	1697.77
189.85	1681.38
190.07	1681.38
190.29	1646.57
190.51	1802.21
190.73	1630.18
190.95	1787.88
191.17	1683.43
191.39	1660.90
191.61	1646.57
191.84	1683.43
192.06	1718.25
192.28	1640.42
192.50	1923.04
192.72	1681.38
192.94	1662.95
193.16	1701.86
193.38	1765.35
193.60	1654.76
193.82	1689.57
194.04	1773.54
194.26	1685.48
194.48	1767.40
194.70	1681.38
194.92	1685.48
195.14	1681.38
195.36	1642.47
195.58	1697.77
195.80	1669.09
196.02	1658.85
196.24	1691.62
196.46	1722.34
196.69	1665.00
196.91	1865.70
197.13	1613.80
197.35	1697.77
197.57	1841.12
197.79	1722.34
198.01	1699.81
198.23	1738.73
198.45	1738.73
198.67	1531.88
198.89	1683.43
199.11	1685.48
199.33	1628.14
199.55	1576.94
199.77	1636.33
199.99	1773.54
200.21	1640.42
200.43	1642.47
200.65	1652.71
200.87	1630.18
201.09	1654.76
201.31	1669.09
201.53	1753.06
201.75	1757.16
201.97	1710.05
202.19	1648.61
202.41	1658.85
202.63	1761.25
202.85	1740.77
203.07	1693.67
203.29	1681.38
203.51	1624.04
203.73	1652.71
203.95	1914.85
204.17	1693.67
204.39	1808.36
204.61	1681.38
204.83	1662.95
205.05	1669.09
205.27	1677.29
205.49	1779.68
205.71	1701.86
205.93	1587.18
206.15	1652.71
206.37	1703.91
206.59	1679.33
206.81	1656.81
207.03	1652.71
207.25	1677.29
207.47	1763.30
207.69	1693.67
207.91	1751.01
208.13	1783.78
208.34	1679.33
208.56	1619.94
208.78	1652.71
209.00	1677.29
209.22	1736.68
209.44	1712.10
209.66	1650.66
209.88	1730.53
210.10	1689.57
210.32	1697.77
210.54	1759.21
210.76	1691.62
210.98	1722.34
211.20	1609.70
211.42	1656.81
211.64	1796.07
211.86	1714.15
212.08	1660.90
212.30	1783.78
212.52	1675.24
212.74	1689.57
212.96	1761.25
213.17	1708.01
213.39	1705.96
213.61	1806.31
213.83	1718.25
214.05	1642.47
214.27	1775.59
214.49	1583.08
214.71	1648.61
214.93	1773.54
215.15	1693.67
215.37	1708.01
215.59	1667.05
215.81	1699.81
216.03	1718.25
216.24	1726.44
216.46	1665.00
216.68	1652.71
216.90	1781.73
217.12	1798.12
217.34	1665.00
217.56	1677.29
217.78	1763.30
218.00	1763.30
218.22	1656.81
218.44	1667.05
218.66	1660.90
218.87	1761.25
219.09	1644.52
219.31	1689.57
219.53	1697.77
219.75	1673.19
219.97	1689.57
220.19	1675.24
220.41	1658.85
220.63	1800.16
220.85	1667.05
221.06	1658.85
221.28	1744.87
221.50	1685.48
221.72	1710.05
221.94	1828.84
222.16	1701.86
222.38	1671.14
222.60	1691.62
222.82	1662.95
223.03	1673.19
223.25	1665.00
223.47	1718.25
223.69	1759.21
223.91	1814.50
224.13	1736.68
224.35	1691.62
224.57	1710.05
224.78	1726.44
225.00	1613.80
225.22	1677.29
225.44	1667.05
225.66	1742.82
225.88	1675.24
226.10	1789.92
226.32	1701.86
226.53	1720.29
226.75	1710.05
226.97	1677.29
227.19	1771.49
227.41	1771.49
227.63	1671.14
227.85	1546.22
228.06	1720.29
228.28	1660.90
228.50	1697.77
228.72	1718.25
228.94	1646.57
229.16	1599.46
229.37	1613.80
229.59	1691.62
229.81	1779.68
230.03	1693.67
230.25	1617.90
230.47	1628.14
230.69	1611.75
230.90	1697.77
231.12	1681.38
231.34	1712.10
231.56	1804.26
231.78	1681.38
232.00	1753.06
232.21	1693.67
232.43	1705.96
232.65	1599.46
232.87	1685.48
233.09	1621.99
233.30	1669.09
233.52	1775.59
233.74	1736.68
233.96	1636.33
234.18	1667.05
234.40	1695.72
234.61	1761.25
234.83	1673.19
235.05	1658.85
235.27	1871.84
235.49	1841.12
235.70	1673.19
235.92	1826.79
236.14	1695.72
236.36	1804.26
236.58	1689.57
236.79	1703.91
237.01	1699.81
237.23	1669.09
237.45	1783.78
237.67	1597.42
237.88	1673.19
238.10	1873.89
238.32	1660.90
238.54	1630.18
238.76	1691.62
238.97	1665.00
239.19	1650.66
239.41	1775.59
239.63	1855.46
239.85	1650.66
240.06	1728.49
240.28	1744.87
240.50	1779.68
240.72	1732.58
240.93	1728.49
241.15	1732.58
241.37	1681.38
241.59	1773.54
241.81	1701.86
242.02	1632.23
242.24	1751.01
242.46	1710.05
242.68	1638.38
242.89	1732.58
243.11	1697.77
243.33	1675.24
243.55	1732.58
243.76	1705.96
243.98	1636.33
244.20	1656.81
244.42	1697.77
244.64	1681.38
244.85	1658.85
245.07	1615.85
245.29	1683.43
245.51	1679.33
245.72	1687.53
245.94	1751.01
246.16	1748.97
246.38	1753.06
246.59	1640.42
246.81	1728.49
247.03	1718.25
247.24	1681.38
247.46	1736.68
247.68	1673.19
247.90	1656.81
248.11	1650.66
248.33	1763.30
248.55	1724.39
248.77	1722.34
248.98	1757.16
249.20	1814.50
249.42	1724.39
249.64	1783.78
249.85	1654.76
250.07	1628.14
250.29	1816.55
250.50	1708.01
250.72	1638.38
250.94	1658.85
251.16	1845.22
251.37	1775.59
251.59	1675.24
251.81	1640.42
252.02	1726.44
252.24	1722.34
252.46	1722.34
252.68	1566.70
252.89	1685.48
253.11	1650.66
253.33	1771.49
253.54	1753.06
253.76	1703.91
253.98	1621.99
254.20	1742.82
254.41	1605.61
254.63	1695.72
254.85	1675.24
255.06	1691.62
255.28	1705.96
255.50	1640.42
255.71	1640.42
255.93	1591.27
256.15	1691.62
256.36	1724.39
256.58	1617.90
256.80	1773.54
257.02	1732.58
257.23	1632.23
257.45	1705.96
257.67	1726.44
257.88	1654.76
258.10	1779.68
258.32	1689.57
258.53	1742.82
258.75	1755.11
258.97	1656.81
259.18	1755.11
259.40	1734.63
259.62	1828.84
259.83	1837.03
260.05	1658.85
260.27	2009.06
260.48	1662.95
260.70	1669.09
260.92	1658.85
261.13	1679.33
261.35	1675.24
261.57	1681.38
261.78	1658.85
262.00	1714.15
262.22	1718.25
262.43	1638.38
262.65	1667.05
262.86	1646.57
263.08	1830.88
263.30	1720.29
263.51	1660.90
263.73	1669.09
263.95	1771.49
264.16	1726.44
264.38	1691.62
264.60	1746.92
264.81	1589.22
265.03	1871.84
265.25	1746.92
265.46	1726.44
265.68	1763.30
265.89	1746.92
266.11	1615.85
266.33	1777.64
266.54	1681.38
266.76	1718.25
266.98	1783.78
267.19	1814.50
267.41	1736.68
267.62	1705.96
267.84	1593.32
268.06	1695.72
268.27	1716.20
268.49	1734.63
268.70	1839.08
268.92	1701.86
269.14	1634.28
269.35	1611.75
269.57	1658.85
269.79	1714.15
270.00	1703.91
270.22	1783.78
270.43	1675.24
270.65	1634.28
270.87	1728.49
271.08	1761.25
271.30	1730.53
271.51	1734.63
271.73	1699.81
271.95	1767.40
272.16	1759.21
272.38	1728.49
272.59	1660.90
272.81	1730.53
273.02	1771.49
273.24	1759.21
273.46	1730.53
273.67	1679.33
273.89	1724.39
274.10	1644.52
274.32	1744.87
274.54	1691.62
274.75	1777.64
274.97	1621.99
275.18	1718.25
275.40	1753.06
275.61	1705.96
275.83	1722.34
276.05	1617.90
276.26	1679.33
276.48	1732.58
276.69	1675.24
276.91	1703.91
277.12	1765.35
277.34	1761.25
277.55	1781.73
277.77	1691.62
277.99	1691.62
278.20	1656.81
278.42	1722.34
278.63	1646.57
278.85	1720.29
279.06	1630.18
279.28	1705.96
279.49	1755.11
279.71	1705.96
279.93	1634.28
280.14	1736.68
280.36	1650.66
280.57	1798.12
280.79	1783.78
281.00	1566.70
281.22	1617.90
281.43	1705.96
281.65	1607.66
281.86	1708.01
282.08	1787.88
282.29	1742.82
282.51	1701.86
282.73	1628.14
282.94	1562.60
283.16	1648.61
283.37	1816.55
283.59	1789.92
283.80	1685.48
284.02	1648.61
284.23	1611.75
284.45	1634.28
284.66	1650.66
284.88	1658.85
285.09	1693.67
285.31	1767.40
285.52	1679.33
285.74	1589.22
285.95	1732.58
286.17	1724.39
286.38	1775.59
286.60	1697.77
286.81	1638.38
287.03	1693.67
287.24	1748.97
287.46	1748.97
287.67	1771.49
287.89	1765.35
288.10	1673.19
288.32	1724.39
288.53	1755.11
288.75	1763.30
288.96	1779.68
289.18	1740.77
289.39	1665.00
289.61	1677.29
289.82	1851.36
290.04	1820.64
290.25	1572.84
290.47	1755.11
290.68	1714.15
290.90	1716.20
291.11	1638.38
291.33	1765.35
291.54	1624.04
291.76	1652.71
291.97	1691.62
292.18	1730.53
292.40	1718.25
292.61	1644.52
292.83	1826.79
293.04	1726.44
293.26	1820.64
293.47	1751.01
293.69	1656.81
293.90	1660.90
294.12	1767.40
294.33	1701.86
294.55	1728.49
294.76	1703.91
294.97	1742.82
295.19	1828.84
295.40	1613.80
295.62	1720.29
295.83	1742.82
296.05	1662.95
296.26	1726.44
296.48	1644.52
296.69	1697.77
296.90	1665.00
297.12	1804.26
297.33	1796.07
297.55	1744.87
297.76	1724.39
297.98	1806.31
298.19	1728.49
298.41	1728.49
298.62	1593.32
298.83	1734.63
299.05	1796.07
299.26	1658.85
299.48	1685.48
299.69	1726.44
299.90	1636.33
300.12	1638.38
300.33	1804.26
300.55	1734.63
300.76	1824.74
300.98	1648.61
301.19	1722.34
301.40	1685.48
301.62	1646.57
301.83	1703.91
302.05	1701.86
302.26	1708.01
302.47	1763.30
302.69	1656.81
302.90	1714.15
303.12	1634.28
303.33	1730.53
303.54	1787.88
303.76	1740.77
303.97	1812.45
304.19	1787.88
304.40	1650.66
304.61	1753.06
304.83	1802.21
305.04	1732.58
305.26	1708.01
305.47	1648.61
305.68	1669.09
305.90	1615.85
306.11	1744.87
306.33	1607.66
306.54	1642.47
306.75	1693.67
306.97	1679.33
307.18	1593.32
307.39	1601.51
307.61	1767.40
307.82	1689.57
308.04	1734.63
308.25	1685.48
308.46	1781.73
308.68	1744.87
308.89	1626.09
309.10	1742.82
309.32	1638.38
309.53	1718.25
309.74	1755.11
309.96	1630.18
310.17	1746.92
310.39	1685.48
310.60	1718.25
310.81	1787.88
311.03	1677.29
311.24	1697.77
311.45	1732.58
311.67	1789.92
311.88	1689.57
312.09	1732.58
312.31	1722.34
312.52	1671.14
312.73	1689.57
312.95	1605.61
313.16	1658.85
313.37	1757.16
313.59	1732.58
313.80	1673.19
314.01	1746.92
314.23	1615.85
314.44	1708.01
314.65	1701.86
314.87	1638.38
315.08	1638.38
315.29	1669.09
315.51	1712.10
315.72	1630.18
315.93	1816.55
316.15	1767.40
316.36	1607.66
316.57	1667.05
316.79	1673.19
317.00	1689.57
317.21	1705.96
317.43	1703.91
317.64	1673.19
317.85	1675.24
318.07	1636.33
318.28	1658.85
318.49	1791.97
318.70	1916.90
318.92	1816.55
319.13	1822.69
319.34	1847.27
319.56	1763.30
319.77	1746.92
319.98	1671.14
320.20	1746.92
320.41	1687.53
320.62	1746.92
320.83	1615.85
321.05	1877.99
321.26	1675.24
321.47	1695.72
321.69	1863.65
321.90	1689.57
322.11	1677.29
322.32	1746.92
322.54	1779.68
322.75	1705.96
322.96	1761.25
323.18	1591.27
323.39	1595.37
323.60	1646.57
323.81	1757.16
324.03	1693.67
324.24	1697.77
324.45	1697.77
324.66	1615.85
324.88	1806.31
325.09	1742.82
325.30	1718.25
325.52	1695.72
325.73	1689.57
325.94	1660.90
326.15	1611.75
326.37	1665.00
326.58	1726.44
326.79	1720.29
327.00	1609.70
327.22	1722.34
327.43	1564.65
327.64	1689.57
327.85	1767.40
328.07	1705.96
328.28	1806.31
328.49	1689.57
328.70	1734.63
328.92	1628.14
329.13	1697.77
329.34	1761.25
329.55	1773.54
329.76	1757.16
329.98	1697.77
330.19	1751.01
330.40	1769.44
330.61	1775.59
330.83	1679.33
331.04	1634.28
331.25	1677.29
331.46	1746.92
331.68	1642.47
331.89	1705.96
332.10	1689.57
332.31	1593.32
332.52	1650.66
332.74	1779.68
332.95	1644.52
333.16	1658.85
333.37	1769.44
333.58	1712.10
333.80	1681.38
334.01	1636.33
334.22	1654.76
334.43	1634.28
334.64	1652.71
334.86	1617.90
335.07	1673.19
335.28	1818.60
335.49	1597.42
335.70	1712.10
335.92	1802.21
336.13	1746.92
336.34	1683.43
336.55	1720.29
336.76	1658.85
336.98	1595.37
337.19	1665.00
337.40	1824.74
337.61	1855.46
337.82	1703.91
338.04	1724.39
338.25	1519.59
338.46	1593.32
338.67	1656.81
338.88	1640.42
339.09	1615.85
339.31	1634.28
339.52	1681.38
339.73	1669.09
339.94	1652.71
340.15	1724.39
340.36	1665.00
340.58	1767.40
340.79	1677.29
341.00	1697.77
341.21	1634.28
341.42	1808.36
341.63	1665.00
341.85	1742.82
342.06	1746.92
342.27	1634.28
342.48	1767.40
342.69	1699.81
342.90	1650.66
343.12	1685.48
343.33	1658.85
343.54	1765.35
343.75	1744.87
343.96	1699.81
344.17	1673.19
344.38	1673.19
344.60	1667.05
344.81	1654.76
345.02	1591.27
345.23	1746.92
345.44	1822.69
345.65	1773.54
345.86	1673.19
346.07	1720.29
346.29	1722.34
346.50	1767.40
346.71	1716.20
346.92	1769.44
347.13	1873.89
347.34	1644.52
347.55	1669.09
347.76	1695.72
347.98	1628.14
348.19	1677.29
348.40	1712.10
348.61	1640.42
348.82	1736.68
349.03	1693.67
349.24	1650.66
349.45	1826.79
349.66	1703.91
349.88	1775.59
350.09	1683.43
350.30	1757.16
350.51	1761.25
350.72	1773.54
350.93	1677.29
351.14	1628.14
351.35	1724.39
351.56	1667.05
351.77	1691.62
351.99	1685.48
352.20	1779.68
352.41	1761.25
352.62	1626.09
352.83	1660.90
353.04	1763.30
353.25	1685.48
353.46	1665.00
353.67	1720.29
353.88	1581.03
354.09	1746.92
354.30	1720.29
354.52	1732.58
354.73	1738.73
354.94	1701.86
355.15	1691.62
355.36	1765.35
355.57	1712.10
355.78	1773.54
355.99	1632.23
356.20	1705.96
356.41	1832.93
356.62	1695.72
356.83	1675.24
357.04	1857.51
357.25	1605.61
357.46	1640.42
357.68	1617.90
357.89	1673.19
358.10	1697.77
358.31	1699.81
358.52	1691.62
358.73	1658.85
358.94	1613.80
359.15	1705.96
359.36	1783.78
359.57	1703.91
359.78	1665.00
359.99	1771.49
360.20	1642.47
360.41	1697.77
360.62	1761.25
360.83	1740.77
361.04	1675.24
361.25	1779.68
361.46	1761.25
361.67	1722.34
361.88	1779.68
362.09	1738.73
362.30	1746.92
362.51	1716.20
362.72	1619.94
362.93	1722.34
363.14	1689.57
363.35	1738.73
363.56	1665.00
363.78	1712.10
363.99	1728.49
364.20	1632.23
364.41	1748.97
364.62	1755.11
364.83	1693.67
365.04	1716.20
365.25	1699.81
365.46	1763.30
365.67	1708.01
365.88	1691.62
366.09	1685.48
366.30	1581.03
366.51	1691.62
366.72	1646.57
366.93	1685.48
367.14	1599.46
367.35	1738.73
367.56	1697.77
367.77	1824.74
367.98	1705.96
368.18	1677.29
368.39	1724.39
368.60	1656.81
368.81	1705.96
369.02	1615.85
369.23	1699.81
369.44	1669.09
369.65	1710.05
369.86	1771.49
370.07	1718.25
370.28	1656.81
370.49	1724.39
370.70	1767.40
370.91	1619.94
371.12	1630.18
371.33	1677.29
371.54	1656.81
371.75	1834.98
371.96	1540.07
372.17	1640.42
372.38	1658.85
372.59	1722.34
372.80	1636.33
373.01	1695.72
373.22	1724.39
373.43	1683.43
373.64	1681.38
373.85	1722.34
374.06	1738.73
374.26	1806.31
374.47	1681.38
374.68	1779.68
374.89	1787.88
375.10	1587.18
375.31	1714.15
375.52	1648.61
375.73	1796.07
375.94	1615.85
376.15	1787.88
376.36	1708.01
376.57	1697.77
376.78	1560.55
376.99	1779.68
377.20	1834.98
377.40	1714.15
377.61	1820.64
377.82	1708.01
378.03	1880.04
378.24	1685.48
378.45	1683.43
378.66	1679.33
378.87	1667.05
379.08	1591.27
379.29	1603.56
379.50	1730.53
379.71	1712.10
379.91	1685.48
380.12	1699.81
380.33	1685.48
380.54	1714.15
380.75	1689.57
380.96	1718.25
381.17	1771.49
381.38	1693.67
381.59	1669.09
381.80	1759.21
382.00	1828.84
382.21	1810.40
382.42	1830.88
382.63	1837.03
382.84	1722.34
383.05	1710.05
383.26	1804.26
383.47	1773.54
383.68	1714.15
383.88	1765.35
384.09	1748.97
384.30	1857.51
384.51	1742.82
384.72	1732.58
384.93	1656.81
385.14	1642.47
385.35	1789.92
385.55	1703.91
385.76	1789.92
385.97	1712.10
386.18	1689.57
386.39	1609.70
386.60	1640.42
386.81	1710.05
387.02	1734.63
387.22	1640.42
387.43	1818.60
387.64	1787.88
387.85	1914.85
388.06	2254.81
388.27	4286.40
388.48	6805.40
388.68	8238.98
388.89	9779.05
389.10	9959.27
389.31	8638.33
389.52	7667.60
389.73	6860.70
389.93	6457.25
390.14	5889.96
390.35	5146.55
390.56	4624.31
390.77	3778.50
390.98	2930.64
391.18	2537.43
391.39	2127.84
391.60	1861.60
391.81	1841.12
392.02	1708.01
392.23	1826.79
392.43	1755.11
392.64	1787.88
392.85	1744.87
393.06	1810.40
393.27	1677.29
393.47	1658.85
393.68	1755.11
393.89	1785.83
394.10	1773.54
394.31	1669.09
394.52	1581.03
394.72	1650.66
394.93	1804.26
395.14	1673.19
395.35	1775.59
395.56	1626.09
395.76	1697.77
395.97	1763.30
396.18	1746.92
396.39	1845.22
396.60	1990.63
396.80	1900.52
397.01	1779.68
397.22	1877.99
397.43	1855.46
397.64	1689.57
397.84	1765.35
398.05	1783.78
398.26	1697.77
398.47	1759.21
398.67	1775.59
398.88	1652.71
399.09	1701.86
399.30	1716.20
399.51	1777.64
399.71	1626.09
399.92	1742.82
400.13	1671.14
400.34	1748.97
400.54	1634.28
400.75	1802.21
400.96	1742.82
401.17	1853.41
401.37	1767.40
401.58	1705.96
401.79	1705.96
402.00	1880.04
402.21	2068.45
402.41	1890.28
402.62	1945.57
402.83	2066.40
403.04	1968.10
403.24	2043.87
403.45	1816.55
403.66	1982.43
403.87	1834.98
404.07	1884.13
404.28	1832.93
404.49	1824.74
404.70	1701.86
404.90	1751.01
405.11	1728.49
405.32	1789.92
405.52	1699.81
405.73	1638.38
405.94	1656.81
406.15	1691.62
406.35	1753.06
406.56	1703.91
406.77	1718.25
406.98	1701.86
407.18	1683.43
407.39	1787.88
407.60	1656.81
407.80	1765.35
408.01	1658.85
408.22	1693.67
408.43	1697.77
408.63	1703.91
408.84	1755.11
409.05	1832.93
409.25	1675.24
409.46	1640.42
409.67	1578.98
409.88	1648.61
410.08	1665.00
410.29	1765.35
410.50	1763.30
410.70	1800.16
410.91	1697.77
411.12	1736.68
411.32	1689.57
411.53	1761.25
411.74	1812.45
411.95	1814.50
412.15	1837.03
412.36	1712.10
412.57	1777.64
412.77	1783.78
412.98	1714.15
413.19	1677.29
413.39	1800.16
413.60	1751.01
413.81	1824.74
414.01	1697.77
414.22	1681.38
414.43	1728.49
414.63	1718.25
414.84	1810.40
415.05	1736.68
415.25	1609.70
415.46	1753.06
415.67	1730.53
415.87	1810.40
416.08	1701.86
416.29	1662.95
416.49	1609.70
416.70	1638.38
416.91	1617.90
417.11	1665.00
417.32	1771.49
417.53	1845.22
417.73	1679.33
417.94	1628.14
418.15	1716.20
418.35	1712.10
418.56	1699.81
418.77	1834.98
418.97	1685.48
419.18	1710.05
419.38	1615.85
419.59	1685.48
419.80	1753.06
420.00	1619.94
420.21	1685.48
420.42	1681.38
420.62	1689.57
420.83	1626.09
421.04	1724.39
421.24	1701.86
421.45	1701.86
421.65	1677.29
421.86	1634.28
422.07	1716.20
422.27	1705.96
422.48	1748.97
422.69	1642.47
422.89	1759.21
423.10	1693.67
423.30	1611.75
423.51	1705.96
423.72	1718.25
423.92	1738.73
424.13	1728.49
424.33	1732.58
424.54	1714.15
424.75	1691.62
424.95	1802.21
425.16	1699.81
425.36	1710.05
425.57	1785.83
425.78	1712.10
425.98	1738.73
426.19	1681.38
426.39	1685.48
426.60	1736.68
426.81	1751.01
427.01	1679.33
427.22	1656.81
427.42	1642.47
427.63	1705.96
427.83	1724.39
428.04	1779.68
428.25	1779.68
428.45	1830.88
428.66	1773.54
428.86	1742.82
429.07	1730.53
429.28	1665.00
429.48	1675.24
429.69	1708.01
429.89	1728.49
430.10	1634.28
430.30	1718.25
430.51	1816.55
430.71	1761.25
430.92	1703.91
431.13	1701.86
431.33	1736.68
431.54	1669.09
431.74	1820.64
431.95	1769.44
432.15	1679.33
432.36	1681.38
432.56	1732.58
432.77	1865.70
432.98	1789.92
433.18	1662.95
433.39	1722.34
433.59	1685.48
433.80	1802.21
434.00	1945.57
434.21	1642.47
434.41	1695.72
434.62	1841.12
434.82	1671.14
435.03	1658.85
435.23	1667.05
435.44	1632.23
435.64	1669.09
435.85	1675.24
436.06	1755.11
436.26	1742.82
436.47	1777.64
436.67	1646.57
436.88	1730.53
437.08	1718.25
437.29	1851.36
437.49	1708.01
437.70	1751.01
437.90	1675.24
438.11	1841.12
438.31	1746.92
438.52	1775.59
438.72	1845.22
438.93	1857.51
439.13	1808.36
439.34	1787.88
439.54	1781.73
439.75	1812.45
439.95	1757.16
440.16	1683.43
440.36	1775.59
440.57	1693.67
440.77	1746.92
440.98	1761.25
441.18	1765.35
441.39	1714.15
441.59	1681.38
441.80	1839.08
442.00	1667.05
442.21	1757.16
442.41	1658.85
442.62	1777.64
442.82	1646.57
443.02	1714.15
443.23	1714.15
443.43	1748.97
443.64	1714.15
443.84	1759.21
444.05	1771.49
444.25	1675.24
444.46	1705.96
444.66	1767.40
444.87	1777.64
445.07	1630.18
445.28	1765.35
445.48	1771.49
445.69	1746.92
445.89	1863.65
446.09	1699.81
446.30	2023.39
446.50	2787.29
446.71	3780.55
446.91	4368.32
447.12	4829.11
447.32	4810.68
447.53	4368.32
447.73	3946.44
447.93	3536.84
448.14	3338.19
448.34	3178.45
448.55	2936.79
448.75	2832.34
448.96	2680.79
449.16	2418.65
449.36	2316.25
449.57	2017.25
449.77	1884.13
449.98	1820.64
450.18	1789.92
450.39	1832.93
450.59	1783.78
450.79	1759.21
451.00	1716.20
451.20	1785.83
451.41	1806.31
451.61	1691.62
451.81	1808.36
452.02	1630.18
452.22	1759.21
452.43	1603.56
452.63	1697.77
