SpectraSuite Data File
++++++++++++++++++++++++++++++++++++
Date: Mon Jun 06 14:31:57 CEST 2016
User: root
Dark Spectrum Present: No
Reference Spectrum Present: No
Number of Sampled Component Spectra: 1
Spectrometers: USB4C02835
Integration Time (usec): 100000 (USB4C02835)
Spectra Averaged: 1 (USB4C02835)
Boxcar Smoothing: 0 (USB4C02835)
Correct for Electrical Dark: No (USB4C02835)
Strobe/Lamp Enabled: No (USB4C02835)
Correct for Detector Non-linearity: No (USB4C02835)
Correct for Stray Light: No (USB4C02835)
Number of Pixels in Processed Spectrum: 3648
>>>>>Begin Processed Spectral Data<<<<<
177.47	1460.20
177.69	1460.20
177.91	1460.20
178.13	1480.68
178.36	1458.15
178.58	1675.24
178.80	1689.57
179.02	1730.53
179.24	1611.75
179.46	1724.39
179.68	1804.26
179.90	1662.95
180.13	1703.91
180.35	1697.77
180.57	1683.43
180.79	1703.91
181.01	1705.96
181.23	1753.06
181.45	1785.83
181.67	1714.15
181.90	1759.21
182.12	1648.61
182.34	1607.66
182.56	1757.16
182.78	1726.44
183.00	1675.24
183.22	1753.06
183.44	1560.55
183.66	1832.93
183.89	1837.03
184.11	1683.43
184.33	1744.87
184.55	1759.21
184.77	1720.29
184.99	1732.58
185.21	1665.00
185.43	1824.74
185.65	1703.91
185.87	1685.48
186.10	1769.44
186.32	1877.99
186.54	1753.06
186.76	1726.44
186.98	1812.45
187.20	1734.63
187.42	1689.57
187.64	1642.47
187.86	1708.01
188.08	1714.15
188.30	1701.86
188.52	1671.14
188.75	1830.88
188.97	1789.92
189.19	1679.33
189.41	1654.76
189.63	1740.77
189.85	1736.68
190.07	1611.75
190.29	1681.38
190.51	1800.16
190.73	1578.98
190.95	1769.44
191.17	1742.82
191.39	1673.19
191.61	1736.68
191.84	1697.77
192.06	1640.42
192.28	1560.55
192.50	1896.42
192.72	1697.77
192.94	1679.33
193.16	1695.72
193.38	1701.86
193.60	1652.71
193.82	1697.77
194.04	1763.30
194.26	1681.38
194.48	1697.77
194.70	1708.01
194.92	1712.10
195.14	1734.63
195.36	1671.14
195.58	1695.72
195.80	1673.19
196.02	1640.42
196.24	1665.00
196.46	1705.96
196.69	1724.39
196.91	1884.13
197.13	1724.39
197.35	1642.47
197.57	1751.01
197.79	1769.44
198.01	1746.92
198.23	1685.48
198.45	1681.38
198.67	1671.14
198.89	1689.57
199.11	1757.16
199.33	1593.32
199.55	1583.08
199.77	1714.15
199.99	1720.29
200.21	1665.00
200.43	1730.53
200.65	1574.89
200.87	1542.12
201.09	1681.38
201.31	1615.85
201.53	1771.49
201.75	1708.01
201.97	1730.53
202.19	1751.01
202.41	1810.40
202.63	1812.45
202.85	1779.68
203.07	1783.78
203.29	1593.32
203.51	1699.81
203.73	1607.66
203.95	1880.04
204.17	1759.21
204.39	1699.81
204.61	1712.10
204.83	1685.48
205.05	1753.06
205.27	1662.95
205.49	1767.40
205.71	1658.85
205.93	1613.80
206.15	1712.10
206.37	1628.14
206.59	1591.27
206.81	1660.90
207.03	1613.80
207.25	1685.48
207.47	1667.05
207.69	1714.15
207.91	1755.11
208.13	1828.84
208.34	1689.57
208.56	1642.47
208.78	1763.30
209.00	1734.63
209.22	1679.33
209.44	1703.91
209.66	1665.00
209.88	1648.61
210.10	1691.62
210.32	1712.10
210.54	1714.15
210.76	1720.29
210.98	1697.77
211.20	1517.54
211.42	1652.71
211.64	1767.40
211.86	1710.05
212.08	1732.58
212.30	1669.09
212.52	1773.54
212.74	1697.77
212.96	1716.20
213.17	1656.81
213.39	1759.21
213.61	1781.73
213.83	1687.53
214.05	1607.66
214.27	1724.39
214.49	1638.38
214.71	1644.52
214.93	1724.39
215.15	1697.77
215.37	1710.05
215.59	1673.19
215.81	1779.68
216.03	1771.49
216.24	1779.68
216.46	1748.97
216.68	1624.04
216.90	1791.97
217.12	1771.49
217.34	1701.86
217.56	1714.15
217.78	1783.78
218.00	1697.77
218.22	1742.82
218.44	1677.29
218.66	1677.29
218.87	1812.45
219.09	1656.81
219.31	1720.29
219.53	1802.21
219.75	1679.33
219.97	1662.95
220.19	1828.84
220.41	1701.86
220.63	1830.88
220.85	1742.82
221.06	1681.38
221.28	1736.68
221.50	1722.34
221.72	1689.57
221.94	1738.73
222.16	1769.44
222.38	1767.40
222.60	1689.57
222.82	1761.25
223.03	1708.01
223.25	1611.75
223.47	1720.29
223.69	1832.93
223.91	1751.01
224.13	1685.48
224.35	1638.38
224.57	1726.44
224.78	1730.53
225.00	1660.90
225.22	1705.96
225.44	1748.97
225.66	1740.77
225.88	1640.42
226.10	1720.29
226.32	1699.81
226.53	1816.55
226.75	1652.71
226.97	1703.91
227.19	1697.77
227.41	1636.33
227.63	1708.01
227.85	1667.05
228.06	1742.82
228.28	1665.00
228.50	1730.53
228.72	1644.52
228.94	1650.66
229.16	1646.57
229.37	1726.44
229.59	1636.33
229.81	1779.68
230.03	1687.53
230.25	1681.38
230.47	1607.66
230.69	1648.61
230.90	1742.82
231.12	1632.23
231.34	1738.73
231.56	1830.88
231.78	1595.37
232.00	1763.30
232.21	1701.86
232.43	1695.72
232.65	1595.37
232.87	1759.21
233.09	1638.38
233.30	1687.53
233.52	1722.34
233.74	1757.16
233.96	1634.28
234.18	1652.71
234.40	1685.48
234.61	1841.12
234.83	1644.52
235.05	1724.39
235.27	1769.44
235.49	1763.30
235.70	1755.11
235.92	1751.01
236.14	1708.01
236.36	1830.88
236.58	1587.18
236.79	1652.71
237.01	1681.38
237.23	1669.09
237.45	1808.36
237.67	1736.68
237.88	1693.67
238.10	1834.98
238.32	1634.28
238.54	1693.67
238.76	1695.72
238.97	1689.57
239.19	1673.19
239.41	1736.68
239.63	1818.60
239.85	1714.15
240.06	1738.73
240.28	1701.86
240.50	1781.73
240.72	1763.30
240.93	1699.81
241.15	1828.84
241.37	1742.82
241.59	1718.25
241.81	1716.20
242.02	1724.39
242.24	1683.43
242.46	1791.97
242.68	1675.24
242.89	1722.34
243.11	1798.12
243.33	1683.43
243.55	1730.53
243.76	1728.49
243.98	1650.66
244.20	1740.77
244.42	1710.05
244.64	1728.49
244.85	1562.60
245.07	1644.52
245.29	1775.59
245.51	1708.01
245.72	1691.62
245.94	1796.07
246.16	1763.30
246.38	1740.77
246.59	1767.40
246.81	1695.72
247.03	1675.24
247.24	1654.76
247.46	1644.52
247.68	1722.34
247.90	1767.40
248.11	1660.90
248.33	1689.57
248.55	1740.77
248.77	1744.87
248.98	1724.39
249.20	1775.59
249.42	1699.81
249.64	1681.38
249.85	1638.38
250.07	1712.10
250.29	1697.77
250.50	1765.35
250.72	1658.85
250.94	1693.67
251.16	1732.58
251.37	1736.68
251.59	1679.33
251.81	1720.29
252.02	1763.30
252.24	1673.19
252.46	1738.73
252.68	1597.42
252.89	1654.76
253.11	1640.42
253.33	1744.87
253.54	1794.02
253.76	1724.39
253.98	1679.33
254.20	1734.63
254.41	1591.27
254.63	1724.39
254.85	1652.71
255.06	1724.39
255.28	1714.15
255.50	1634.28
255.71	1669.09
255.93	1634.28
256.15	1728.49
256.36	1685.48
256.58	1691.62
256.80	1724.39
257.02	1722.34
257.23	1652.71
257.45	1689.57
257.67	1714.15
257.88	1724.39
258.10	1757.16
258.32	1742.82
258.53	1705.96
258.75	1755.11
258.97	1697.77
259.18	1648.61
259.40	1714.15
259.62	1859.56
259.83	1771.49
260.05	1740.77
260.27	1986.53
260.48	1697.77
260.70	1648.61
260.92	1779.68
261.13	1697.77
261.35	1689.57
261.57	1695.72
261.78	1583.08
262.00	1673.19
262.22	1759.21
262.43	1718.25
262.65	1714.15
262.86	1638.38
263.08	1828.84
263.30	1697.77
263.51	1624.04
263.73	1685.48
263.95	1740.77
264.16	1689.57
264.38	1705.96
264.60	1722.34
264.81	1669.09
265.03	1753.06
265.25	1779.68
265.46	1689.57
265.68	1734.63
265.89	1710.05
266.11	1687.53
266.33	1779.68
266.54	1822.69
266.76	1695.72
266.98	1748.97
267.19	1816.55
267.41	1753.06
267.62	1708.01
267.84	1634.28
268.06	1783.78
268.27	1742.82
268.49	1759.21
268.70	1744.87
268.92	1705.96
269.14	1593.32
269.35	1574.89
269.57	1744.87
269.79	1650.66
270.00	1636.33
270.22	1771.49
270.43	1673.19
270.65	1656.81
270.87	1722.34
271.08	1806.31
271.30	1712.10
271.51	1773.54
271.73	1779.68
271.95	1814.50
272.16	1619.94
272.38	1710.05
272.59	1675.24
272.81	1763.30
273.02	1714.15
273.24	1708.01
273.46	1777.64
273.67	1648.61
273.89	1671.14
274.10	1650.66
274.32	1730.53
274.54	1746.92
274.75	1712.10
274.97	1642.47
275.18	1742.82
275.40	1755.11
275.61	1742.82
275.83	1701.86
276.05	1632.23
276.26	1746.92
276.48	1701.86
276.69	1658.85
276.91	1708.01
277.12	1787.88
277.34	1767.40
277.55	1740.77
277.77	1730.53
277.99	1705.96
278.20	1652.71
278.42	1632.23
278.63	1642.47
278.85	1681.38
279.06	1671.14
279.28	1710.05
279.49	1736.68
279.71	1726.44
279.93	1712.10
280.14	1642.47
280.36	1693.67
280.57	1759.21
280.79	1736.68
281.00	1626.09
281.22	1640.42
281.43	1812.45
281.65	1554.41
281.86	1583.08
282.08	1722.34
282.29	1708.01
282.51	1617.90
282.73	1681.38
282.94	1523.69
283.16	1714.15
283.37	1746.92
283.59	1708.01
283.80	1689.57
284.02	1693.67
284.23	1675.24
284.45	1718.25
284.66	1695.72
284.88	1665.00
285.09	1712.10
285.31	1736.68
285.52	1652.71
285.74	1630.18
285.95	1755.11
286.17	1730.53
286.38	1722.34
286.60	1716.20
286.81	1714.15
287.03	1656.81
287.24	1726.44
287.46	1681.38
287.67	1599.46
287.89	1845.22
288.10	1646.57
288.32	1705.96
288.53	1779.68
288.75	1712.10
288.96	1683.43
289.18	1603.56
289.39	1626.09
289.61	1681.38
289.82	1773.54
290.04	1828.84
290.25	1677.29
290.47	1691.62
290.68	1632.23
290.90	1765.35
291.11	1587.18
291.33	1693.67
291.54	1601.51
291.76	1718.25
291.97	1728.49
292.18	1705.96
292.40	1671.14
292.61	1599.46
292.83	1779.68
293.04	1732.58
293.26	1732.58
293.47	1646.57
293.69	1746.92
293.90	1800.16
294.12	1783.78
294.33	1708.01
294.55	1724.39
294.76	1660.90
294.97	1712.10
295.19	1857.51
295.40	1656.81
295.62	1777.64
295.83	1734.63
296.05	1650.66
296.26	1732.58
296.48	1650.66
296.69	1697.77
296.90	1658.85
297.12	1705.96
297.33	1798.12
297.55	1787.88
297.76	1740.77
297.98	1753.06
298.19	1646.57
298.41	1685.48
298.62	1583.08
298.83	1769.44
299.05	1751.01
299.26	1728.49
299.48	1591.27
299.69	1660.90
299.90	1718.25
300.12	1681.38
300.33	1751.01
300.55	1646.57
300.76	1767.40
300.98	1630.18
301.19	1667.05
301.40	1701.86
301.62	1640.42
301.83	1703.91
302.05	1726.44
302.26	1634.28
302.47	1691.62
302.69	1628.14
302.90	1693.67
303.12	1638.38
303.33	1730.53
303.54	1726.44
303.76	1611.75
303.97	1767.40
304.19	1726.44
304.40	1544.17
304.61	1730.53
304.83	1775.59
305.04	1712.10
305.26	1671.14
305.47	1652.71
305.68	1685.48
305.90	1599.46
306.11	1740.77
306.33	1675.24
306.54	1652.71
306.75	1714.15
306.97	1562.60
307.18	1734.63
307.39	1687.53
307.61	1718.25
307.82	1726.44
308.04	1761.25
308.25	1632.23
308.46	1804.26
308.68	1695.72
308.89	1738.73
309.10	1644.52
309.32	1726.44
309.53	1644.52
309.74	1718.25
309.96	1669.09
310.17	1751.01
310.39	1679.33
310.60	1763.30
310.81	1724.39
311.03	1658.85
311.24	1791.97
311.45	1626.09
311.67	1849.32
311.88	1724.39
312.09	1615.85
312.31	1603.56
312.52	1722.34
312.73	1705.96
312.95	1603.56
313.16	1691.62
313.37	1818.60
313.59	1652.71
313.80	1726.44
314.01	1789.92
314.23	1722.34
314.44	1656.81
314.65	1638.38
314.87	1574.89
315.08	1775.59
315.29	1716.20
315.51	1626.09
315.72	1695.72
315.93	1781.73
316.15	1757.16
316.36	1621.99
316.57	1724.39
316.79	1693.67
317.00	1734.63
317.21	1789.92
317.43	1626.09
317.64	1742.82
317.85	1564.65
318.07	1617.90
318.28	1710.05
318.49	1837.03
318.70	1902.56
318.92	1726.44
319.13	1771.49
319.34	1843.17
319.56	1837.03
319.77	1787.88
319.98	1816.55
320.20	1834.98
320.41	1710.05
320.62	1808.36
320.83	1705.96
321.05	1839.08
321.26	1675.24
321.47	1665.00
321.69	1712.10
321.90	1572.84
322.11	1654.76
322.32	1677.29
322.54	1732.58
322.75	1656.81
322.96	1781.73
323.18	1636.33
323.39	1568.74
323.60	1638.38
323.81	1791.97
324.03	1638.38
324.24	1705.96
324.45	1665.00
324.66	1736.68
324.88	1746.92
325.09	1712.10
325.30	1789.92
325.52	1748.97
325.73	1738.73
325.94	1693.67
326.15	1617.90
326.37	1665.00
326.58	1765.35
326.79	1734.63
327.00	1691.62
327.22	1685.48
327.43	1632.23
327.64	1662.95
327.85	1742.82
328.07	1722.34
328.28	1773.54
328.49	1638.38
328.70	1773.54
328.92	1671.14
329.13	1716.20
329.34	1689.57
329.55	1857.51
329.76	1775.59
329.98	1607.66
330.19	1763.30
330.40	1732.58
330.61	1677.29
330.83	1716.20
331.04	1720.29
331.25	1679.33
331.46	1628.14
331.68	1667.05
331.89	1742.82
332.10	1710.05
332.31	1646.57
332.52	1679.33
332.74	1746.92
332.95	1665.00
333.16	1718.25
333.37	1775.59
333.58	1722.34
333.80	1683.43
334.01	1677.29
334.22	1662.95
334.43	1628.14
334.64	1624.04
334.86	1615.85
335.07	1697.77
335.28	1748.97
335.49	1585.13
335.70	1720.29
335.92	1722.34
336.13	1861.60
336.34	1757.16
336.55	1751.01
336.76	1708.01
336.98	1632.23
337.19	1681.38
337.40	1775.59
337.61	1845.22
337.82	1667.05
338.04	1740.77
338.25	1574.89
338.46	1673.19
338.67	1697.77
338.88	1683.43
339.09	1644.52
339.31	1695.72
339.52	1624.04
339.73	1628.14
339.94	1687.53
340.15	1681.38
340.36	1662.95
340.58	1648.61
340.79	1681.38
341.00	1746.92
341.21	1640.42
341.42	1783.78
341.63	1710.05
341.85	1628.14
342.06	1712.10
342.27	1667.05
342.48	1710.05
342.69	1617.90
342.90	1734.63
343.12	1720.29
343.33	1705.96
343.54	1740.77
343.75	1681.38
343.96	1683.43
344.17	1607.66
344.38	1714.15
344.60	1642.47
344.81	1648.61
345.02	1765.35
345.23	1761.25
345.44	1839.08
345.65	1761.25
345.86	1685.48
346.07	1722.34
346.29	1691.62
346.50	1708.01
346.71	1644.52
346.92	1767.40
347.13	1726.44
347.34	1687.53
347.55	1634.28
347.76	1673.19
347.98	1583.08
348.19	1648.61
348.40	1851.36
348.61	1710.05
348.82	1732.58
349.03	1757.16
349.24	1718.25
349.45	1824.74
349.66	1611.75
349.88	1665.00
350.09	1714.15
350.30	1779.68
350.51	1773.54
350.72	1730.53
350.93	1697.77
351.14	1722.34
351.35	1736.68
351.56	1763.30
351.77	1757.16
351.99	1689.57
352.20	1783.78
352.41	1736.68
352.62	1540.07
352.83	1632.23
353.04	1671.14
353.25	1615.85
353.46	1724.39
353.67	1791.97
353.88	1587.18
354.09	1794.02
354.30	1691.62
354.52	1802.21
354.73	1656.81
354.94	1671.14
355.15	1650.66
355.36	1779.68
355.57	1742.82
355.78	1714.15
355.99	1705.96
356.20	1660.90
356.41	1734.63
356.62	1722.34
356.83	1701.86
357.04	1763.30
357.25	1642.47
357.46	1738.73
357.68	1568.74
357.89	1654.76
358.10	1732.58
358.31	1708.01
358.52	1675.24
358.73	1650.66
358.94	1669.09
359.15	1734.63
359.36	1753.06
359.57	1726.44
359.78	1628.14
359.99	1697.77
360.20	1599.46
360.41	1662.95
360.62	1712.10
360.83	1701.86
361.04	1679.33
361.25	1730.53
361.46	1796.07
361.67	1785.83
361.88	1693.67
362.09	1742.82
362.30	1689.57
362.51	1697.77
362.72	1732.58
362.93	1748.97
363.14	1693.67
363.35	1650.66
363.56	1613.80
363.78	1746.92
363.99	1744.87
364.20	1656.81
364.41	1687.53
364.62	1812.45
364.83	1660.90
365.04	1705.96
365.25	1648.61
365.46	1888.23
365.67	1652.71
365.88	1585.13
366.09	1630.18
366.30	1648.61
366.51	1767.40
366.72	1650.66
366.93	1646.57
367.14	1705.96
367.35	1787.88
367.56	1703.91
367.77	1794.02
367.98	1617.90
368.18	1718.25
368.39	1671.14
368.60	1615.85
368.81	1714.15
369.02	1675.24
369.23	1697.77
369.44	1632.23
369.65	1654.76
369.86	1703.91
370.07	1693.67
370.28	1642.47
370.49	1701.86
370.70	1658.85
370.91	1591.27
371.12	1628.14
371.33	1761.25
371.54	1710.05
371.75	1800.16
371.96	1542.12
372.17	1708.01
372.38	1685.48
372.59	1816.55
372.80	1644.52
373.01	1703.91
373.22	1667.05
373.43	1662.95
373.64	1650.66
373.85	1710.05
374.06	1779.68
374.26	1703.91
374.47	1687.53
374.68	1777.64
374.89	1708.01
375.10	1662.95
375.31	1779.68
375.52	1755.11
375.73	1740.77
375.94	1568.74
376.15	1775.59
376.36	1662.95
376.57	1726.44
376.78	1689.57
376.99	1673.19
377.20	1767.40
377.40	1667.05
377.61	1818.60
377.82	1621.99
378.03	1755.11
378.24	1718.25
378.45	1720.29
378.66	1677.29
378.87	1540.07
379.08	1624.04
379.29	1722.34
379.50	1785.83
379.71	1703.91
379.91	1732.58
380.12	1695.72
380.33	1720.29
380.54	1697.77
380.75	1644.52
380.96	1714.15
381.17	1763.30
381.38	1720.29
381.59	1740.77
381.80	1740.77
382.00	1839.08
382.21	1714.15
382.42	1839.08
382.63	1832.93
382.84	1779.68
383.05	1742.82
383.26	1779.68
383.47	1703.91
383.68	1800.16
383.88	1720.29
384.09	1728.49
384.30	1769.44
384.51	1744.87
384.72	1660.90
384.93	1611.75
385.14	1730.53
385.35	1779.68
385.55	1611.75
385.76	1798.12
385.97	1665.00
386.18	1658.85
386.39	1701.86
386.60	1699.81
386.81	1718.25
387.02	1712.10
387.22	1679.33
387.43	1734.63
387.64	1845.22
387.85	1841.12
388.06	2234.33
388.27	4302.78
388.48	6670.23
388.68	8159.11
388.89	9502.58
389.10	9715.56
389.31	8474.49
389.52	7546.76
389.73	6727.58
389.93	6250.40
390.14	5765.03
390.35	5113.78
390.56	4536.25
390.77	3653.58
390.98	3026.90
391.18	2426.84
391.39	2076.64
391.60	1875.94
391.81	1804.26
392.02	1738.73
392.23	1828.84
392.43	1697.77
392.64	1736.68
392.85	1665.00
393.06	1800.16
393.27	1691.62
393.47	1683.43
393.68	1730.53
393.89	1658.85
394.10	1783.78
394.31	1677.29
394.52	1636.33
394.72	1626.09
394.93	1771.49
395.14	1693.67
395.35	1683.43
395.56	1652.71
395.76	1718.25
395.97	1818.60
396.18	1886.18
396.39	1865.70
396.60	1996.77
396.80	1890.28
397.01	1816.55
397.22	1755.11
397.43	1742.82
397.64	1634.28
397.84	1761.25
398.05	1865.70
398.26	1722.34
398.47	1794.02
398.67	1779.68
398.88	1703.91
399.09	1740.77
399.30	1636.33
399.51	1763.30
399.71	1667.05
399.92	1748.97
400.13	1665.00
400.34	1802.21
400.54	1689.57
400.75	1738.73
400.96	1703.91
401.17	1789.92
401.37	1755.11
401.58	1730.53
401.79	1730.53
402.00	1822.69
402.21	1961.95
402.41	1927.14
402.62	1964.00
402.83	1982.43
403.04	2025.44
403.24	1984.48
403.45	1877.99
403.66	1834.98
403.87	1898.47
404.07	1830.88
404.28	1873.89
404.49	1839.08
404.70	1722.34
404.90	1738.73
405.11	1751.01
405.32	1687.53
405.52	1667.05
405.73	1660.90
405.94	1660.90
406.15	1677.29
406.35	1767.40
406.56	1705.96
406.77	1759.21
406.98	1746.92
407.18	1705.96
407.39	1773.54
407.60	1701.86
407.80	1843.17
408.01	1673.19
408.22	1728.49
408.43	1632.23
408.63	1769.44
408.84	1746.92
409.05	1796.07
409.25	1660.90
409.46	1626.09
409.67	1677.29
409.88	1642.47
410.08	1744.87
410.29	1656.81
410.50	1789.92
410.70	1720.29
410.91	1665.00
411.12	1697.77
411.32	1681.38
411.53	1624.04
411.74	1865.70
411.95	1744.87
412.15	1724.39
412.36	1710.05
412.57	1722.34
412.77	1791.97
412.98	1714.15
413.19	1644.52
413.39	1748.97
413.60	1751.01
413.81	1886.18
414.01	1673.19
414.22	1660.90
414.43	1734.63
414.63	1714.15
414.84	1722.34
415.05	1767.40
415.25	1658.85
415.46	1697.77
415.67	1730.53
415.87	1656.81
416.08	1656.81
416.29	1617.90
416.49	1732.58
416.70	1685.48
416.91	1677.29
417.11	1626.09
417.32	1753.06
417.53	1736.68
417.73	1722.34
417.94	1665.00
418.15	1763.30
418.35	1710.05
418.56	1642.47
418.77	1781.73
418.97	1724.39
419.18	1675.24
419.38	1603.56
419.59	1730.53
419.80	1787.88
420.00	1714.15
420.21	1693.67
420.42	1701.86
420.62	1724.39
420.83	1662.95
421.04	1695.72
421.24	1730.53
421.45	1705.96
421.65	1689.57
421.86	1746.92
422.07	1767.40
422.27	1718.25
422.48	1677.29
422.69	1615.85
422.89	1681.38
423.10	1683.43
423.30	1626.09
423.51	1748.97
423.72	1712.10
423.92	1767.40
424.13	1667.05
424.33	1697.77
424.54	1798.12
424.75	1789.92
424.95	1841.12
425.16	1748.97
425.36	1697.77
425.57	1740.77
425.78	1791.97
425.98	1771.49
426.19	1677.29
426.39	1673.19
426.60	1673.19
426.81	1765.35
427.01	1710.05
427.22	1701.86
427.42	1636.33
427.63	1667.05
427.83	1710.05
428.04	1740.77
428.25	1710.05
428.45	1867.75
428.66	1773.54
428.86	1740.77
429.07	1613.80
429.28	1738.73
429.48	1648.61
429.69	1732.58
429.89	1771.49
430.10	1599.46
430.30	1744.87
430.51	1771.49
430.71	1648.61
430.92	1708.01
431.13	1644.52
431.33	1798.12
431.54	1744.87
431.74	1785.83
431.95	1853.41
432.15	1665.00
432.36	1734.63
432.56	1775.59
432.77	1810.40
432.98	1802.21
433.18	1708.01
433.39	1683.43
433.59	1646.57
433.80	1820.64
434.00	1857.51
434.21	1697.77
434.41	1667.05
434.62	1777.64
434.82	1660.90
435.03	1697.77
435.23	1736.68
435.44	1634.28
435.64	1724.39
435.85	1658.85
436.06	1722.34
436.26	1800.16
436.47	1734.63
436.67	1730.53
436.88	1669.09
437.08	1744.87
437.29	1791.97
437.49	1789.92
437.70	1810.40
437.90	1742.82
438.11	1877.99
438.31	1730.53
438.52	1834.98
438.72	1789.92
438.93	1884.13
439.13	1755.11
439.34	1814.50
439.54	1845.22
439.75	1724.39
439.95	1785.83
440.16	1722.34
440.36	1728.49
440.57	1773.54
440.77	1742.82
440.98	1738.73
441.18	1671.14
441.39	1671.14
441.59	1738.73
441.80	1843.17
442.00	1714.15
442.21	1767.40
442.41	1613.80
442.62	1771.49
442.82	1798.12
443.02	1665.00
443.23	1656.81
443.43	1695.72
443.64	1826.79
443.84	1667.05
444.05	1771.49
444.25	1720.29
444.46	1722.34
444.66	1767.40
444.87	1863.65
445.07	1609.70
445.28	1724.39
445.48	1816.55
445.69	1708.01
445.89	1845.22
446.09	1712.10
446.30	2070.50
446.50	2648.02
446.71	3727.30
446.91	4224.96
447.12	4736.95
447.32	4937.65
447.53	4339.65
447.73	3844.04
447.93	3422.16
448.14	3266.51
448.34	3250.13
448.55	2920.40
448.75	2805.72
448.96	2656.22
449.16	2383.84
449.36	2316.25
449.57	2025.44
449.77	1832.93
449.98	1718.25
450.18	1902.56
450.39	1812.45
450.59	1701.86
450.79	1722.34
451.00	1658.85
451.20	1824.74
451.41	1718.25
451.61	1777.64
451.81	1802.21
452.02	1646.57
452.22	1718.25
452.43	1736.68
452.63	1683.43
