SpectraSuite Data File
++++++++++++++++++++++++++++++++++++
Date: Mon Jun 06 17:23:57 CEST 2016
User: root
Dark Spectrum Present: No
Reference Spectrum Present: No
Number of Sampled Component Spectra: 1
Spectrometers: USB4C02835
Integration Time (usec): 100000 (USB4C02835)
Spectra Averaged: 1 (USB4C02835)
Boxcar Smoothing: 0 (USB4C02835)
Correct for Electrical Dark: No (USB4C02835)
Strobe/Lamp Enabled: No (USB4C02835)
Correct for Detector Non-linearity: No (USB4C02835)
Correct for Stray Light: No (USB4C02835)
Number of Pixels in Processed Spectrum: 3648
>>>>>Begin Processed Spectral Data<<<<<
177.47	1527.78
177.69	1527.78
177.91	1527.78
178.13	1458.15
178.36	1501.16
178.58	1708.01
178.80	1804.26
179.02	1615.85
179.24	1701.86
179.46	1728.49
179.68	1742.82
179.90	1638.38
180.13	1814.50
180.35	1636.33
180.57	1705.96
180.79	1757.16
181.01	1679.33
181.23	1802.21
181.45	1751.01
181.67	1683.43
181.90	1777.64
182.12	1748.97
182.34	1652.71
182.56	1742.82
182.78	1705.96
183.00	1695.72
183.22	1697.77
183.44	1681.38
183.66	1804.26
183.89	1859.56
184.11	1646.57
184.33	1791.97
184.55	1705.96
184.77	1691.62
184.99	1765.35
185.21	1708.01
185.43	1923.04
185.65	1675.24
185.87	1726.44
186.10	1816.55
186.32	1890.28
186.54	1761.25
186.76	1783.78
186.98	1816.55
187.20	1697.77
187.42	1734.63
187.64	1669.09
187.86	1738.73
188.08	1708.01
188.30	1720.29
188.52	1757.16
188.75	1806.31
188.97	1789.92
189.19	1654.76
189.41	1722.34
189.63	1744.87
189.85	1720.29
190.07	1691.62
190.29	1640.42
190.51	1804.26
190.73	1669.09
190.95	1755.11
191.17	1730.53
191.39	1595.37
191.61	1675.24
191.84	1691.62
192.06	1675.24
192.28	1595.37
192.50	1812.45
192.72	1765.35
192.94	1703.91
193.16	1765.35
193.38	1691.62
193.60	1685.48
193.82	1714.15
194.04	1845.22
194.26	1771.49
194.48	1775.59
194.70	1695.72
194.92	1683.43
195.14	1738.73
195.36	1624.04
195.58	1714.15
195.80	1757.16
196.02	1730.53
196.24	1708.01
196.46	1728.49
196.69	1714.15
196.91	1839.08
197.13	1712.10
197.35	1701.86
197.57	1722.34
197.79	1814.50
198.01	1781.73
198.23	1708.01
198.45	1705.96
198.67	1648.61
198.89	1751.01
199.11	1660.90
199.33	1662.95
199.55	1593.32
199.77	1693.67
199.99	1816.55
200.21	1687.53
200.43	1703.91
200.65	1642.47
200.87	1576.94
201.09	1701.86
201.31	1716.20
201.53	1806.31
201.75	1716.20
201.97	1685.48
202.19	1648.61
202.41	1746.92
202.63	1824.74
202.85	1646.57
203.07	1716.20
203.29	1677.29
203.51	1665.00
203.73	1597.42
203.95	1828.84
204.17	1787.88
204.39	1751.01
204.61	1708.01
204.83	1665.00
205.05	1742.82
205.27	1726.44
205.49	1843.17
205.71	1632.23
205.93	1621.99
206.15	1783.78
206.37	1724.39
206.59	1708.01
206.81	1609.70
207.03	1583.08
207.25	1654.76
207.47	1763.30
207.69	1634.28
207.91	1789.92
208.13	1738.73
208.34	1632.23
208.56	1669.09
208.78	1697.77
209.00	1720.29
209.22	1697.77
209.44	1697.77
209.66	1691.62
209.88	1783.78
210.10	1581.03
210.32	1755.11
210.54	1773.54
210.76	1705.96
210.98	1759.21
211.20	1589.22
211.42	1791.97
211.64	1828.84
211.86	1744.87
212.08	1759.21
212.30	1732.58
212.52	1689.57
212.74	1730.53
212.96	1755.11
213.17	1748.97
213.39	1720.29
213.61	1777.64
213.83	1740.77
214.05	1669.09
214.27	1765.35
214.49	1628.14
214.71	1658.85
214.93	1767.40
215.15	1693.67
215.37	1654.76
215.59	1585.13
215.81	1740.77
216.03	1806.31
216.24	1705.96
216.46	1742.82
216.68	1703.91
216.90	1765.35
217.12	1765.35
217.34	1748.97
217.56	1755.11
217.78	1820.64
218.00	1722.34
218.22	1683.43
218.44	1740.77
218.66	1714.15
218.87	1810.40
219.09	1748.97
219.31	1757.16
219.53	1697.77
219.75	1642.47
219.97	1683.43
220.19	1742.82
220.41	1679.33
220.63	1830.88
220.85	1839.08
221.06	1621.99
221.28	1808.36
221.50	1787.88
221.72	1712.10
221.94	1693.67
222.16	1732.58
222.38	1740.77
222.60	1726.44
222.82	1693.67
223.03	1816.55
223.25	1662.95
223.47	1705.96
223.69	1853.41
223.91	1794.02
224.13	1669.09
224.35	1746.92
224.57	1767.40
224.78	1755.11
225.00	1675.24
225.22	1677.29
225.44	1607.66
225.66	1761.25
225.88	1687.53
226.10	1746.92
226.32	1783.78
226.53	1779.68
226.75	1648.61
226.97	1714.15
227.19	1679.33
227.41	1695.72
227.63	1619.94
227.85	1652.71
228.06	1667.05
228.28	1755.11
228.50	1814.50
228.72	1681.38
228.94	1720.29
229.16	1660.90
229.37	1679.33
229.59	1648.61
229.81	1767.40
230.03	1652.71
230.25	1685.48
230.47	1691.62
230.69	1640.42
230.90	1814.50
231.12	1621.99
231.34	1675.24
231.56	1843.17
231.78	1632.23
232.00	1767.40
232.21	1660.90
232.43	1683.43
232.65	1669.09
232.87	1755.11
233.09	1701.86
233.30	1748.97
233.52	1726.44
233.74	1675.24
233.96	1757.16
234.18	1751.01
234.40	1705.96
234.61	1847.27
234.83	1585.13
235.05	1628.14
235.27	1914.85
235.49	1765.35
235.70	1697.77
235.92	1839.08
236.14	1734.63
236.36	1927.14
236.58	1701.86
236.79	1734.63
237.01	1701.86
237.23	1705.96
237.45	1781.73
237.67	1591.27
237.88	1712.10
238.10	1806.31
238.32	1675.24
238.54	1734.63
238.76	1648.61
238.97	1671.14
239.19	1783.78
239.41	1673.19
239.63	1734.63
239.85	1689.57
240.06	1771.49
240.28	1722.34
240.50	1773.54
240.72	1736.68
240.93	1683.43
241.15	1789.92
241.37	1736.68
241.59	1783.78
241.81	1630.18
242.02	1734.63
242.24	1665.00
242.46	1767.40
242.68	1644.52
242.89	1722.34
243.11	1761.25
243.33	1730.53
243.55	1701.86
243.76	1738.73
243.98	1705.96
244.20	1740.77
244.42	1732.58
244.64	1658.85
244.85	1621.99
245.07	1671.14
245.29	1759.21
245.51	1683.43
245.72	1716.20
245.94	1785.83
246.16	1773.54
246.38	1734.63
246.59	1642.47
246.81	1716.20
247.03	1734.63
247.24	1660.90
247.46	1595.37
247.68	1728.49
247.90	1640.42
248.11	1619.94
248.33	1705.96
248.55	1695.72
248.77	1732.58
248.98	1740.77
249.20	1824.74
249.42	1720.29
249.64	1734.63
249.85	1632.23
250.07	1708.01
250.29	1751.01
250.50	1679.33
250.72	1599.46
250.94	1667.05
251.16	1814.50
251.37	1789.92
251.59	1718.25
251.81	1742.82
252.02	1695.72
252.24	1642.47
252.46	1763.30
252.68	1667.05
252.89	1763.30
253.11	1636.33
253.33	1871.84
253.54	1781.73
253.76	1693.67
253.98	1714.15
254.20	1728.49
254.41	1548.26
254.63	1673.19
254.85	1642.47
255.06	1710.05
255.28	1812.45
255.50	1624.04
255.71	1615.85
255.93	1691.62
256.15	1601.51
256.36	1695.72
256.58	1576.94
256.80	1689.57
257.02	1773.54
257.23	1726.44
257.45	1744.87
257.67	1779.68
257.88	1648.61
258.10	1722.34
258.32	1712.10
258.53	1718.25
258.75	1808.36
258.97	1675.24
259.18	1619.94
259.40	1746.92
259.62	1736.68
259.83	1779.68
260.05	1777.64
260.27	2043.87
260.48	1730.53
260.70	1734.63
260.92	1660.90
261.13	1783.78
261.35	1726.44
261.57	1746.92
261.78	1630.18
262.00	1732.58
262.22	1769.44
262.43	1673.19
262.65	1740.77
262.86	1771.49
263.08	1822.69
263.30	1746.92
263.51	1720.29
263.73	1660.90
263.95	1767.40
264.16	1646.57
264.38	1714.15
264.60	1761.25
264.81	1646.57
265.03	1716.20
265.25	1712.10
265.46	1738.73
265.68	1763.30
265.89	1757.16
266.11	1660.90
266.33	1755.11
266.54	1859.56
266.76	1689.57
266.98	1703.91
267.19	1724.39
267.41	1718.25
267.62	1722.34
267.84	1611.75
268.06	1738.73
268.27	1761.25
268.49	1714.15
268.70	1787.88
268.92	1732.58
269.14	1671.14
269.35	1658.85
269.57	1710.05
269.79	1705.96
270.00	1658.85
270.22	1855.46
270.43	1718.25
270.65	1626.09
270.87	1736.68
271.08	1757.16
271.30	1796.07
271.51	1736.68
271.73	1757.16
271.95	1832.93
272.16	1767.40
272.38	1740.77
272.59	1751.01
272.81	1742.82
273.02	1755.11
273.24	1730.53
273.46	1871.84
273.67	1681.38
273.89	1734.63
274.10	1697.77
274.32	1837.03
274.54	1714.15
274.75	1726.44
274.97	1791.97
275.18	1775.59
275.40	1812.45
275.61	1736.68
275.83	1746.92
276.05	1685.48
276.26	1683.43
276.48	1771.49
276.69	1679.33
276.91	1630.18
277.12	1732.58
277.34	1773.54
277.55	1699.81
277.77	1662.95
277.99	1712.10
278.20	1617.90
278.42	1689.57
278.63	1648.61
278.85	1677.29
279.06	1636.33
279.28	1738.73
279.49	1826.79
279.71	1789.92
279.93	1722.34
280.14	1773.54
280.36	1675.24
280.57	1695.72
280.79	1777.64
281.00	1624.04
281.22	1611.75
281.43	1718.25
281.65	1583.08
281.86	1748.97
282.08	1712.10
282.29	1875.94
282.51	1718.25
282.73	1609.70
282.94	1583.08
283.16	1734.63
283.37	1855.46
283.59	1660.90
283.80	1804.26
284.02	1773.54
284.23	1771.49
284.45	1648.61
284.66	1710.05
284.88	1687.53
285.09	1816.55
285.31	1730.53
285.52	1826.79
285.74	1626.09
285.95	1751.01
286.17	1730.53
286.38	1783.78
286.60	1738.73
286.81	1644.52
287.03	1660.90
287.24	1660.90
287.46	1751.01
287.67	1724.39
287.89	1804.26
288.10	1734.63
288.32	1779.68
288.53	1843.17
288.75	1689.57
288.96	1753.06
289.18	1675.24
289.39	1726.44
289.61	1794.02
289.82	1822.69
290.04	1810.40
290.25	1665.00
290.47	1697.77
290.68	1708.01
290.90	1708.01
291.11	1593.32
291.33	1697.77
291.54	1607.66
291.76	1748.97
291.97	1759.21
292.18	1851.36
292.40	1730.53
292.61	1689.57
292.83	1857.51
293.04	1691.62
293.26	1710.05
293.47	1646.57
293.69	1656.81
293.90	1738.73
294.12	1783.78
294.33	1763.30
294.55	1728.49
294.76	1806.31
294.97	1816.55
295.19	1849.32
295.40	1613.80
295.62	1761.25
295.83	1781.73
296.05	1628.14
296.26	1720.29
296.48	1736.68
296.69	1736.68
296.90	1734.63
297.12	1746.92
297.33	1744.87
297.55	1724.39
297.76	1822.69
297.98	1761.25
298.19	1703.91
298.41	1681.38
298.62	1677.29
298.83	1796.07
299.05	1691.62
299.26	1654.76
299.48	1687.53
299.69	1808.36
299.90	1699.81
300.12	1718.25
300.33	1728.49
300.55	1695.72
300.76	1767.40
300.98	1660.90
301.19	1734.63
301.40	1695.72
301.62	1714.15
301.83	1765.35
302.05	1730.53
302.26	1748.97
302.47	1699.81
302.69	1638.38
302.90	1705.96
303.12	1572.84
303.33	1775.59
303.54	1769.44
303.76	1669.09
303.97	1718.25
304.19	1812.45
304.40	1701.86
304.61	1718.25
304.83	1806.31
305.04	1787.88
305.26	1771.49
305.47	1648.61
305.68	1607.66
305.90	1621.99
306.11	1787.88
306.33	1683.43
306.54	1755.11
306.75	1648.61
306.97	1652.71
307.18	1611.75
307.39	1718.25
307.61	1654.76
307.82	1693.67
308.04	1861.60
308.25	1617.90
308.46	1699.81
308.68	1693.67
308.89	1798.12
309.10	1785.83
309.32	1765.35
309.53	1722.34
309.74	1710.05
309.96	1759.21
310.17	1806.31
310.39	1617.90
310.60	1761.25
310.81	1726.44
311.03	1714.15
311.24	1781.73
311.45	1677.29
311.67	1918.95
311.88	1693.67
312.09	1638.38
312.31	1724.39
312.52	1671.14
312.73	1730.53
312.95	1695.72
313.16	1669.09
313.37	1722.34
313.59	1753.06
313.80	1753.06
314.01	1851.36
314.23	1742.82
314.44	1630.18
314.65	1712.10
314.87	1685.48
315.08	1687.53
315.29	1673.19
315.51	1615.85
315.72	1601.51
315.93	1761.25
316.15	1783.78
316.36	1697.77
316.57	1716.20
316.79	1771.49
317.00	1687.53
317.21	1697.77
317.43	1744.87
317.64	1714.15
317.85	1687.53
318.07	1689.57
318.28	1742.82
318.49	1820.64
318.70	1871.84
318.92	1837.03
319.13	1841.12
319.34	1773.54
319.56	1767.40
319.77	1791.97
319.98	1800.16
320.20	1837.03
320.41	1689.57
320.62	1759.21
320.83	1662.95
321.05	1791.97
321.26	1746.92
321.47	1728.49
321.69	1789.92
321.90	1658.85
322.11	1683.43
322.32	1812.45
322.54	1757.16
322.75	1662.95
322.96	1816.55
323.18	1617.90
323.39	1624.04
323.60	1714.15
323.81	1771.49
324.03	1632.23
324.24	1712.10
324.45	1755.11
324.66	1697.77
324.88	1810.40
325.09	1820.64
325.30	1685.48
325.52	1734.63
325.73	1673.19
325.94	1665.00
326.15	1607.66
326.37	1652.71
326.58	1718.25
326.79	1759.21
327.00	1701.86
327.22	1687.53
327.43	1689.57
327.64	1609.70
327.85	1765.35
328.07	1671.14
328.28	1841.12
328.49	1746.92
328.70	1685.48
328.92	1724.39
329.13	1660.90
329.34	1730.53
329.55	1804.26
329.76	1781.73
329.98	1636.33
330.19	1736.68
330.40	1757.16
330.61	1726.44
330.83	1732.58
331.04	1665.00
331.25	1689.57
331.46	1708.01
331.68	1632.23
331.89	1839.08
332.10	1748.97
332.31	1669.09
332.52	1687.53
332.74	1746.92
332.95	1626.09
333.16	1660.90
333.37	1775.59
333.58	1701.86
333.80	1695.72
334.01	1599.46
334.22	1691.62
334.43	1720.29
334.64	1677.29
334.86	1626.09
335.07	1689.57
335.28	1798.12
335.49	1611.75
335.70	1730.53
335.92	1787.88
336.13	1853.41
336.34	1693.67
336.55	1742.82
336.76	1755.11
336.98	1648.61
337.19	1673.19
337.40	1826.79
337.61	1824.74
337.82	1677.29
338.04	1767.40
338.25	1603.56
338.46	1634.28
338.67	1722.34
338.88	1708.01
339.09	1630.18
339.31	1710.05
339.52	1734.63
339.73	1685.48
339.94	1689.57
340.15	1751.01
340.36	1777.64
340.58	1730.53
340.79	1691.62
341.00	1748.97
341.21	1615.85
341.42	1853.41
341.63	1691.62
341.85	1722.34
342.06	1771.49
342.27	1683.43
342.48	1714.15
342.69	1642.47
342.90	1796.07
343.12	1699.81
343.33	1703.91
343.54	1767.40
343.75	1771.49
343.96	1734.63
344.17	1652.71
344.38	1628.14
344.60	1615.85
344.81	1648.61
345.02	1683.43
345.23	1761.25
345.44	1808.36
345.65	1722.34
345.86	1730.53
346.07	1708.01
346.29	1605.61
346.50	1759.21
346.71	1730.53
346.92	1802.21
347.13	1818.60
347.34	1687.53
347.55	1660.90
347.76	1714.15
347.98	1740.77
348.19	1693.67
348.40	1781.73
348.61	1669.09
348.82	1851.36
349.03	1796.07
349.24	1732.58
349.45	1818.60
349.66	1597.42
349.88	1730.53
350.09	1685.48
350.30	1789.92
350.51	1767.40
350.72	1738.73
350.93	1783.78
351.14	1687.53
351.35	1802.21
351.56	1761.25
351.77	1675.24
351.99	1728.49
352.20	1746.92
352.41	1822.69
352.62	1550.31
352.83	1720.29
353.04	1781.73
353.25	1660.90
353.46	1802.21
353.67	1730.53
353.88	1595.37
354.09	1744.87
354.30	1738.73
354.52	1787.88
354.73	1673.19
354.94	1665.00
355.15	1761.25
355.36	1837.03
355.57	1691.62
355.78	1732.58
355.99	1714.15
356.20	1728.49
356.41	1783.78
356.62	1689.57
356.83	1687.53
357.04	1785.83
357.25	1599.46
357.46	1687.53
357.68	1562.60
357.89	1781.73
358.10	1687.53
358.31	1732.58
358.52	1689.57
358.73	1736.68
358.94	1701.86
359.15	1689.57
359.36	1791.97
359.57	1695.72
359.78	1777.64
359.99	1763.30
360.20	1650.66
360.41	1757.16
360.62	1796.07
360.83	1695.72
361.04	1681.38
361.25	1779.68
361.46	1773.54
361.67	1771.49
361.88	1816.55
362.09	1765.35
362.30	1791.97
362.51	1710.05
362.72	1781.73
362.93	1685.48
363.14	1734.63
363.35	1693.67
363.56	1660.90
363.78	1742.82
363.99	1746.92
364.20	1689.57
364.41	1759.21
364.62	1796.07
364.83	1824.74
365.04	1738.73
365.25	1767.40
365.46	1802.21
365.67	1673.19
365.88	1675.24
366.09	1665.00
366.30	1724.39
366.51	1675.24
366.72	1638.38
366.93	1689.57
367.14	1685.48
367.35	1742.82
367.56	1726.44
367.77	1834.98
367.98	1724.39
368.18	1691.62
368.39	1693.67
368.60	1654.76
368.81	1761.25
369.02	1748.97
369.23	1667.05
369.44	1667.05
369.65	1695.72
369.86	1785.83
370.07	1744.87
370.28	1662.95
370.49	1710.05
370.70	1742.82
370.91	1628.14
371.12	1603.56
371.33	1673.19
371.54	1656.81
371.75	1779.68
371.96	1640.42
372.17	1644.52
372.38	1673.19
372.59	1761.25
372.80	1718.25
373.01	1714.15
373.22	1753.06
373.43	1687.53
373.64	1599.46
373.85	1746.92
374.06	1820.64
374.26	1818.60
374.47	1736.68
374.68	1724.39
374.89	1650.66
375.10	1718.25
375.31	1718.25
375.52	1761.25
375.73	1781.73
375.94	1646.57
376.15	1781.73
376.36	1658.85
376.57	1710.05
376.78	1759.21
376.99	1753.06
377.20	1804.26
377.40	1728.49
377.61	1933.28
377.82	1656.81
378.03	1732.58
378.24	1783.78
378.45	1681.38
378.66	1738.73
378.87	1626.09
379.08	1650.66
379.29	1773.54
379.50	1781.73
379.71	1726.44
379.91	1777.64
380.12	1744.87
380.33	1705.96
380.54	1722.34
380.75	1765.35
380.96	1642.47
381.17	1816.55
381.38	1765.35
381.59	1794.02
381.80	1726.44
382.00	1839.08
382.21	1689.57
382.42	1845.22
382.63	1892.32
382.84	1832.93
383.05	1767.40
383.26	1834.98
383.47	1757.16
383.68	1728.49
383.88	1757.16
384.09	1755.11
384.30	1804.26
384.51	1679.33
384.72	1685.48
384.93	1617.90
385.14	1767.40
385.35	1730.53
385.55	1701.86
385.76	1767.40
385.97	1746.92
386.18	1626.09
386.39	1677.29
386.60	1712.10
386.81	1703.91
387.02	1615.85
387.22	1716.20
387.43	1800.16
387.64	1822.69
387.85	1828.84
388.06	2164.70
388.27	4302.78
388.48	6647.71
388.68	8234.88
388.89	9387.89
389.10	9668.46
389.31	8542.08
389.52	7567.24
389.73	6768.54
389.93	6311.84
390.14	5805.99
390.35	5179.31
390.56	4618.17
390.77	3784.65
390.98	3033.04
391.18	2514.91
391.39	2166.75
391.60	1859.56
391.81	1841.12
392.02	1701.86
392.23	1929.19
392.43	1712.10
392.64	1873.89
392.85	1748.97
393.06	1796.07
393.27	1736.68
393.47	1720.29
393.68	1779.68
393.89	1646.57
394.10	1761.25
394.31	1681.38
394.52	1658.85
394.72	1718.25
394.93	1789.92
395.14	1755.11
395.35	1779.68
395.56	1722.34
395.76	1779.68
395.97	1796.07
396.18	1832.93
396.39	1820.64
396.60	2037.73
396.80	1880.04
397.01	1820.64
397.22	1820.64
397.43	1859.56
397.64	1785.83
397.84	1718.25
398.05	1871.84
398.26	1767.40
398.47	1865.70
398.67	1714.15
398.88	1732.58
399.09	1728.49
399.30	1742.82
399.51	1783.78
399.71	1613.80
399.92	1687.53
400.13	1771.49
400.34	1708.01
400.54	1796.07
400.75	1736.68
400.96	1720.29
401.17	1867.75
401.37	1734.63
401.58	1705.96
401.79	1765.35
402.00	1902.56
402.21	2023.39
402.41	1869.80
402.62	1996.77
402.83	2082.78
403.04	2013.15
403.24	2191.33
403.45	1834.98
403.66	2021.35
403.87	1845.22
404.07	1920.99
404.28	1877.99
404.49	1863.65
404.70	1769.44
404.90	1746.92
405.11	1761.25
405.32	1742.82
405.52	1689.57
405.73	1693.67
405.94	1726.44
406.15	1728.49
406.35	1796.07
406.56	1783.78
406.77	1701.86
406.98	1746.92
407.18	1671.14
407.39	1779.68
407.60	1683.43
407.80	1763.30
408.01	1697.77
408.22	1814.50
408.43	1710.05
408.63	1765.35
408.84	1734.63
409.05	1857.51
409.25	1654.76
409.46	1742.82
409.67	1759.21
409.88	1708.01
410.08	1732.58
410.29	1789.92
410.50	1751.01
410.70	1761.25
410.91	1683.43
411.12	1697.77
411.32	1730.53
411.53	1677.29
411.74	1785.83
411.95	1794.02
412.15	1787.88
412.36	1853.41
412.57	1785.83
412.77	1851.36
412.98	1812.45
413.19	1806.31
413.39	1701.86
413.60	1769.44
413.81	1779.68
414.01	1619.94
414.22	1751.01
414.43	1816.55
414.63	1773.54
414.84	1742.82
415.05	1669.09
415.25	1650.66
415.46	1712.10
415.67	1757.16
415.87	1732.58
416.08	1703.91
416.29	1708.01
416.49	1806.31
416.70	1701.86
416.91	1751.01
417.11	1720.29
417.32	1769.44
417.53	1746.92
417.73	1660.90
417.94	1757.16
418.15	1800.16
418.35	1705.96
418.56	1693.67
418.77	1839.08
418.97	1757.16
419.18	1705.96
419.38	1585.13
419.59	1712.10
419.80	1714.15
420.00	1640.42
420.21	1736.68
420.42	1791.97
420.62	1673.19
420.83	1689.57
421.04	1732.58
421.24	1689.57
421.45	1755.11
421.65	1751.01
421.86	1703.91
422.07	1800.16
422.27	1812.45
422.48	1728.49
422.69	1603.56
422.89	1765.35
423.10	1763.30
423.30	1710.05
423.51	1796.07
423.72	1755.11
423.92	1806.31
424.13	1720.29
424.33	1761.25
424.54	1783.78
424.75	1757.16
424.95	1898.47
425.16	1755.11
425.36	1681.38
425.57	1789.92
425.78	1726.44
425.98	1789.92
426.19	1738.73
426.39	1662.95
426.60	1738.73
426.81	1746.92
427.01	1767.40
427.22	1732.58
427.42	1624.04
427.63	1697.77
427.83	1703.91
428.04	1814.50
428.25	1726.44
428.45	1734.63
428.66	1755.11
428.86	1800.16
429.07	1736.68
429.28	1781.73
429.48	1660.90
429.69	1746.92
429.89	1673.19
430.10	1656.81
430.30	1732.58
430.51	1814.50
430.71	1705.96
430.92	1720.29
431.13	1665.00
431.33	1757.16
431.54	1703.91
431.74	1806.31
431.95	1791.97
432.15	1746.92
432.36	1685.48
432.56	1718.25
432.77	1816.55
432.98	1880.04
433.18	1814.50
433.39	1679.33
433.59	1630.18
433.80	1800.16
434.00	1857.51
434.21	1654.76
434.41	1689.57
434.62	1857.51
434.82	1687.53
435.03	1738.73
435.23	1761.25
435.44	1697.77
435.64	1671.14
435.85	1779.68
436.06	1789.92
436.26	1802.21
436.47	1712.10
436.67	1656.81
436.88	1798.12
437.08	1757.16
437.29	1785.83
437.49	1781.73
437.70	1755.11
437.90	1701.86
438.11	1839.08
438.31	1798.12
438.52	1877.99
438.72	1820.64
438.93	1910.75
439.13	1849.32
439.34	1804.26
439.54	1740.77
439.75	1787.88
439.95	1759.21
440.16	1744.87
440.36	1771.49
440.57	1777.64
440.77	1677.29
440.98	1689.57
441.18	1806.31
441.39	1656.81
441.59	1613.80
441.80	1871.84
442.00	1679.33
442.21	1785.83
442.41	1681.38
442.62	1832.93
442.82	1712.10
443.02	1738.73
443.23	1722.34
443.43	1751.01
443.64	1781.73
443.84	1669.09
444.05	1824.74
444.25	1687.53
444.46	1710.05
444.66	1699.81
444.87	1839.08
445.07	1665.00
445.28	1718.25
445.48	1863.65
445.69	1763.30
445.89	1871.84
446.09	1697.77
446.30	2086.88
446.50	2688.98
446.71	3639.24
446.91	4308.93
447.12	4659.13
447.32	4937.65
447.53	4300.73
447.73	3917.76
447.93	3549.13
448.14	3272.65
448.34	3176.40
448.55	2990.03
448.75	2944.98
448.96	2789.33
449.16	2475.99
449.36	2299.87
449.57	2041.82
449.77	1845.22
449.98	1863.65
450.18	1853.41
450.39	1882.08
450.59	1691.62
450.79	1662.95
451.00	1724.39
451.20	1746.92
451.41	1595.37
451.61	1695.72
451.81	1748.97
452.02	1724.39
452.22	1632.23
452.43	1689.57
452.63	1767.40
