SpectraSuite Data File
++++++++++++++++++++++++++++++++++++
Date: Mon Jun 06 14:03:37 CEST 2016
User: root
Dark Spectrum Present: No
Reference Spectrum Present: No
Number of Sampled Component Spectra: 1
Spectrometers: USB4C02835
Integration Time (usec): 100000 (USB4C02835)
Spectra Averaged: 1 (USB4C02835)
Boxcar Smoothing: 0 (USB4C02835)
Correct for Electrical Dark: No (USB4C02835)
Strobe/Lamp Enabled: No (USB4C02835)
Correct for Detector Non-linearity: No (USB4C02835)
Correct for Stray Light: No (USB4C02835)
Number of Pixels in Processed Spectrum: 3648
>>>>>Begin Processed Spectral Data<<<<<
177.47	1378.28
177.69	1378.28
177.91	1378.28
178.13	1421.29
178.36	1396.71
178.58	1720.29
178.80	1691.62
179.02	1638.38
179.24	1595.37
179.46	1679.33
179.68	1791.97
179.90	1632.23
180.13	1767.40
180.35	1632.23
180.57	1603.56
180.79	1785.83
181.01	1617.90
181.23	1716.20
181.45	1779.68
181.67	1751.01
181.90	1771.49
182.12	1673.19
182.34	1603.56
182.56	1777.64
182.78	1681.38
183.00	1724.39
183.22	1736.68
183.44	1613.80
183.66	1896.42
183.89	1746.92
184.11	1675.24
184.33	1718.25
184.55	1830.88
184.77	1695.72
184.99	1673.19
185.21	1632.23
185.43	1873.89
185.65	1718.25
185.87	1669.09
186.10	1859.56
186.32	1798.12
186.54	1710.05
186.76	1742.82
186.98	1783.78
187.20	1642.47
187.42	1683.43
187.64	1716.20
187.86	1738.73
188.08	1691.62
188.30	1667.05
188.52	1679.33
188.75	1779.68
188.97	1812.45
189.19	1685.48
189.41	1652.71
189.63	1671.14
189.85	1699.81
190.07	1652.71
190.29	1681.38
190.51	1673.19
190.73	1597.42
190.95	1791.97
191.17	1726.44
191.39	1640.42
191.61	1669.09
191.84	1685.48
192.06	1691.62
192.28	1652.71
192.50	1882.08
192.72	1708.01
192.94	1718.25
193.16	1712.10
193.38	1650.66
193.60	1619.94
193.82	1759.21
194.04	1765.35
194.26	1669.09
194.48	1687.53
194.70	1675.24
194.92	1708.01
195.14	1736.68
195.36	1701.86
195.58	1662.95
195.80	1712.10
196.02	1581.03
196.24	1697.77
196.46	1742.82
196.69	1683.43
196.91	1863.65
197.13	1683.43
197.35	1683.43
197.57	1796.07
197.79	1763.30
198.01	1673.19
198.23	1761.25
198.45	1730.53
198.67	1689.57
198.89	1759.21
199.11	1734.63
199.33	1634.28
199.55	1636.33
199.77	1720.29
199.99	1722.34
200.21	1607.66
200.43	1714.15
200.65	1656.81
200.87	1609.70
201.09	1724.39
201.31	1703.91
201.53	1708.01
201.75	1796.07
201.97	1689.57
202.19	1783.78
202.41	1665.00
202.63	1863.65
202.85	1775.59
203.07	1708.01
203.29	1691.62
203.51	1599.46
203.73	1591.27
203.95	1869.80
204.17	1697.77
204.39	1759.21
204.61	1691.62
204.83	1626.09
205.05	1769.44
205.27	1775.59
205.49	1830.88
205.71	1644.52
205.93	1652.71
206.15	1654.76
206.37	1722.34
206.59	1644.52
206.81	1628.14
207.03	1630.18
207.25	1628.14
207.47	1779.68
207.69	1722.34
207.91	1765.35
208.13	1703.91
208.34	1658.85
208.56	1599.46
208.78	1732.58
209.00	1697.77
209.22	1576.94
209.44	1699.81
209.66	1708.01
209.88	1708.01
210.10	1689.57
210.32	1693.67
210.54	1779.68
210.76	1601.51
210.98	1757.16
211.20	1517.54
211.42	1726.44
211.64	1771.49
211.86	1691.62
212.08	1726.44
212.30	1744.87
212.52	1685.48
212.74	1699.81
212.96	1730.53
213.17	1736.68
213.39	1734.63
213.61	1746.92
213.83	1685.48
214.05	1626.09
214.27	1824.74
214.49	1595.37
214.71	1607.66
214.93	1708.01
215.15	1714.15
215.37	1759.21
215.59	1589.22
215.81	1773.54
216.03	1814.50
216.24	1720.29
216.46	1738.73
216.68	1724.39
216.90	1738.73
217.12	1765.35
217.34	1720.29
217.56	1751.01
217.78	1787.88
218.00	1712.10
218.22	1708.01
218.44	1697.77
218.66	1744.87
218.87	1785.83
219.09	1669.09
219.31	1724.39
219.53	1726.44
219.75	1724.39
219.97	1751.01
220.19	1673.19
220.41	1683.43
220.63	1763.30
220.85	1724.39
221.06	1667.05
221.28	1771.49
221.50	1767.40
221.72	1669.09
221.94	1699.81
222.16	1665.00
222.38	1740.77
222.60	1732.58
222.82	1687.53
223.03	1742.82
223.25	1609.70
223.47	1759.21
223.69	1796.07
223.91	1791.97
224.13	1697.77
224.35	1681.38
224.57	1748.97
224.78	1701.86
225.00	1667.05
225.22	1665.00
225.44	1759.21
225.66	1669.09
225.88	1646.57
226.10	1726.44
226.32	1703.91
226.53	1882.08
226.75	1640.42
226.97	1712.10
227.19	1732.58
227.41	1705.96
227.63	1656.81
227.85	1642.47
228.06	1677.29
228.28	1638.38
228.50	1726.44
228.72	1611.75
228.94	1662.95
229.16	1576.94
229.37	1632.23
229.59	1658.85
229.81	1757.16
230.03	1718.25
230.25	1660.90
230.47	1695.72
230.69	1701.86
230.90	1744.87
231.12	1636.33
231.34	1722.34
231.56	1755.11
231.78	1630.18
232.00	1716.20
232.21	1685.48
232.43	1648.61
232.65	1544.17
232.87	1779.68
233.09	1650.66
233.30	1726.44
233.52	1693.67
233.74	1669.09
233.96	1765.35
234.18	1783.78
234.40	1665.00
234.61	1861.60
234.83	1665.00
235.05	1630.18
235.27	1757.16
235.49	1775.59
235.70	1730.53
235.92	1794.02
236.14	1650.66
236.36	1877.99
236.58	1652.71
236.79	1728.49
237.01	1744.87
237.23	1757.16
237.45	1783.78
237.67	1650.66
237.88	1699.81
238.10	1824.74
238.32	1701.86
238.54	1708.01
238.76	1693.67
238.97	1722.34
239.19	1667.05
239.41	1716.20
239.63	1689.57
239.85	1638.38
240.06	1708.01
240.28	1705.96
240.50	1785.83
240.72	1679.33
240.93	1753.06
241.15	1755.11
241.37	1681.38
241.59	1767.40
241.81	1730.53
242.02	1689.57
242.24	1738.73
242.46	1820.64
242.68	1621.99
242.89	1726.44
243.11	1773.54
243.33	1716.20
243.55	1718.25
243.76	1740.77
243.98	1691.62
244.20	1675.24
244.42	1630.18
244.64	1742.82
244.85	1634.28
245.07	1621.99
245.29	1716.20
245.51	1685.48
245.72	1697.77
245.94	1763.30
246.16	1718.25
246.38	1777.64
246.59	1613.80
246.81	1574.89
247.03	1689.57
247.24	1644.52
247.46	1677.29
247.68	1634.28
247.90	1675.24
248.11	1634.28
248.33	1695.72
248.55	1748.97
248.77	1675.24
248.98	1781.73
249.20	1763.30
249.42	1656.81
249.64	1728.49
249.85	1683.43
250.07	1617.90
250.29	1742.82
250.50	1710.05
250.72	1695.72
250.94	1667.05
251.16	1761.25
251.37	1771.49
251.59	1789.92
251.81	1642.47
252.02	1665.00
252.24	1716.20
252.46	1765.35
252.68	1624.04
252.89	1636.33
253.11	1640.42
253.33	1771.49
253.54	1765.35
253.76	1632.23
253.98	1648.61
254.20	1673.19
254.41	1585.13
254.63	1765.35
254.85	1681.38
255.06	1753.06
255.28	1697.77
255.50	1626.09
255.71	1681.38
255.93	1621.99
256.15	1605.61
256.36	1748.97
256.58	1705.96
256.80	1724.39
257.02	1671.14
257.23	1703.91
257.45	1675.24
257.67	1779.68
257.88	1716.20
258.10	1662.95
258.32	1669.09
258.53	1687.53
258.75	1796.07
258.97	1654.76
259.18	1724.39
259.40	1708.01
259.62	1830.88
259.83	1765.35
260.05	1718.25
260.27	1986.53
260.48	1742.82
260.70	1615.85
260.92	1693.67
261.13	1705.96
261.35	1638.38
261.57	1728.49
261.78	1697.77
262.00	1677.29
262.22	1732.58
262.43	1724.39
262.65	1640.42
262.86	1689.57
263.08	1865.70
263.30	1740.77
263.51	1607.66
263.73	1615.85
263.95	1794.02
264.16	1660.90
264.38	1679.33
264.60	1757.16
264.81	1687.53
265.03	1691.62
265.25	1720.29
265.46	1740.77
265.68	1716.20
265.89	1796.07
266.11	1617.90
266.33	1789.92
266.54	1753.06
266.76	1775.59
266.98	1708.01
267.19	1775.59
267.41	1718.25
267.62	1665.00
267.84	1619.94
268.06	1714.15
268.27	1806.31
268.49	1748.97
268.70	1722.34
268.92	1660.90
269.14	1658.85
269.35	1624.04
269.57	1660.90
269.79	1726.44
270.00	1705.96
270.22	1873.89
270.43	1712.10
270.65	1652.71
270.87	1744.87
271.08	1757.16
271.30	1777.64
271.51	1683.43
271.73	1699.81
271.95	1814.50
272.16	1660.90
272.38	1683.43
272.59	1736.68
272.81	1624.04
273.02	1740.77
273.24	1679.33
273.46	1636.33
273.67	1675.24
273.89	1626.09
274.10	1667.05
274.32	1810.40
274.54	1724.39
274.75	1681.38
274.97	1667.05
275.18	1734.63
275.40	1794.02
275.61	1669.09
275.83	1624.04
276.05	1654.76
276.26	1667.05
276.48	1755.11
276.69	1759.21
276.91	1746.92
277.12	1761.25
277.34	1722.34
277.55	1736.68
277.77	1695.72
277.99	1611.75
278.20	1648.61
278.42	1687.53
278.63	1628.14
278.85	1660.90
279.06	1673.19
279.28	1767.40
279.49	1736.68
279.71	1771.49
279.93	1748.97
280.14	1716.20
280.36	1650.66
280.57	1765.35
280.79	1716.20
281.00	1699.81
281.22	1660.90
281.43	1808.36
281.65	1583.08
281.86	1650.66
282.08	1771.49
282.29	1806.31
282.51	1632.23
282.73	1570.79
282.94	1601.51
283.16	1710.05
283.37	1818.60
283.59	1665.00
283.80	1765.35
284.02	1720.29
284.23	1736.68
284.45	1685.48
284.66	1624.04
284.88	1640.42
285.09	1675.24
285.31	1804.26
285.52	1746.92
285.74	1615.85
285.95	1763.30
286.17	1691.62
286.38	1718.25
286.60	1636.33
286.81	1708.01
287.03	1691.62
287.24	1665.00
287.46	1591.27
287.67	1697.77
287.89	1853.41
288.10	1691.62
288.32	1781.73
288.53	1806.31
288.75	1751.01
288.96	1738.73
289.18	1632.23
289.39	1628.14
289.61	1763.30
289.82	1841.12
290.04	1787.88
290.25	1638.38
290.47	1705.96
290.68	1650.66
290.90	1718.25
291.11	1652.71
291.33	1773.54
291.54	1654.76
291.76	1689.57
291.97	1794.02
292.18	1738.73
292.40	1658.85
292.61	1660.90
292.83	1884.13
293.04	1783.78
293.26	1693.67
293.47	1689.57
293.69	1683.43
293.90	1677.29
294.12	1730.53
294.33	1783.78
294.55	1632.23
294.76	1744.87
294.97	1769.44
295.19	1765.35
295.40	1718.25
295.62	1705.96
295.83	1726.44
296.05	1574.89
296.26	1826.79
296.48	1720.29
296.69	1738.73
296.90	1681.38
297.12	1761.25
297.33	1738.73
297.55	1728.49
297.76	1738.73
297.98	1796.07
298.19	1656.81
298.41	1624.04
298.62	1683.43
298.83	1800.16
299.05	1751.01
299.26	1714.15
299.48	1634.28
299.69	1748.97
299.90	1738.73
300.12	1662.95
300.33	1771.49
300.55	1785.83
300.76	1771.49
300.98	1632.23
301.19	1757.16
301.40	1689.57
301.62	1619.94
301.83	1779.68
302.05	1732.58
302.26	1648.61
302.47	1783.78
302.69	1695.72
302.90	1755.11
303.12	1595.37
303.33	1769.44
303.54	1806.31
303.76	1615.85
303.97	1665.00
304.19	1892.32
304.40	1689.57
304.61	1748.97
304.83	1689.57
305.04	1761.25
305.26	1757.16
305.47	1619.94
305.68	1687.53
305.90	1660.90
306.11	1753.06
306.33	1677.29
306.54	1665.00
306.75	1687.53
306.97	1611.75
307.18	1640.42
307.39	1718.25
307.61	1730.53
307.82	1712.10
308.04	1669.09
308.25	1640.42
308.46	1677.29
308.68	1675.24
308.89	1712.10
309.10	1689.57
309.32	1697.77
309.53	1697.77
309.74	1767.40
309.96	1699.81
310.17	1775.59
310.39	1689.57
310.60	1697.77
310.81	1658.85
311.03	1724.39
311.24	1683.43
311.45	1765.35
311.67	1736.68
311.88	1716.20
312.09	1640.42
312.31	1656.81
312.52	1689.57
312.73	1697.77
312.95	1687.53
313.16	1650.66
313.37	1802.21
313.59	1714.15
313.80	1744.87
314.01	1783.78
314.23	1599.46
314.44	1718.25
314.65	1621.99
314.87	1673.19
315.08	1720.29
315.29	1712.10
315.51	1677.29
315.72	1560.55
315.93	1785.83
316.15	1734.63
316.36	1746.92
316.57	1617.90
316.79	1695.72
317.00	1695.72
317.21	1724.39
317.43	1621.99
317.64	1671.14
317.85	1697.77
318.07	1714.15
318.28	1695.72
318.49	1806.31
318.70	1904.61
318.92	1746.92
319.13	1869.80
319.34	1873.89
319.56	1771.49
319.77	1812.45
319.98	1787.88
320.20	1781.73
320.41	1789.92
320.62	1705.96
320.83	1712.10
321.05	1781.73
321.26	1742.82
321.47	1740.77
321.69	1785.83
321.90	1685.48
322.11	1705.96
322.32	1681.38
322.54	1763.30
322.75	1716.20
322.96	1820.64
323.18	1642.47
323.39	1583.08
323.60	1673.19
323.81	1710.05
324.03	1617.90
324.24	1642.47
324.45	1708.01
324.66	1660.90
324.88	1734.63
325.09	1746.92
325.30	1734.63
325.52	1755.11
325.73	1619.94
325.94	1673.19
326.15	1599.46
326.37	1675.24
326.58	1761.25
326.79	1812.45
327.00	1650.66
327.22	1634.28
327.43	1656.81
327.64	1665.00
327.85	1714.15
328.07	1693.67
328.28	1820.64
328.49	1689.57
328.70	1697.77
328.92	1740.77
329.13	1724.39
329.34	1638.38
329.55	1748.97
329.76	1742.82
329.98	1693.67
330.19	1728.49
330.40	1746.92
330.61	1681.38
330.83	1720.29
331.04	1689.57
331.25	1689.57
331.46	1650.66
331.68	1685.48
331.89	1746.92
332.10	1703.91
332.31	1644.52
332.52	1662.95
332.74	1755.11
332.95	1669.09
333.16	1683.43
333.37	1738.73
333.58	1609.70
333.80	1701.86
334.01	1605.61
334.22	1701.86
334.43	1595.37
334.64	1681.38
334.86	1615.85
335.07	1658.85
335.28	1746.92
335.49	1638.38
335.70	1751.01
335.92	1826.79
336.13	1861.60
336.34	1665.00
336.55	1705.96
336.76	1720.29
336.98	1599.46
337.19	1761.25
337.40	1771.49
337.61	1808.36
337.82	1669.09
338.04	1705.96
338.25	1599.46
338.46	1650.66
338.67	1691.62
338.88	1656.81
339.09	1689.57
339.31	1679.33
339.52	1650.66
339.73	1695.72
339.94	1687.53
340.15	1734.63
340.36	1718.25
340.58	1660.90
340.79	1640.42
341.00	1734.63
341.21	1603.56
341.42	1855.46
341.63	1648.61
341.85	1679.33
342.06	1773.54
342.27	1642.47
342.48	1748.97
342.69	1587.18
342.90	1677.29
343.12	1699.81
343.33	1734.63
343.54	1714.15
343.75	1773.54
343.96	1712.10
344.17	1705.96
344.38	1654.76
344.60	1669.09
344.81	1638.38
345.02	1693.67
345.23	1767.40
345.44	1816.55
345.65	1697.77
345.86	1728.49
346.07	1693.67
346.29	1732.58
346.50	1771.49
346.71	1761.25
346.92	1716.20
347.13	1683.43
347.34	1656.81
347.55	1683.43
347.76	1732.58
347.98	1613.80
348.19	1609.70
348.40	1802.21
348.61	1671.14
348.82	1748.97
349.03	1683.43
349.24	1695.72
349.45	1800.16
349.66	1587.18
349.88	1724.39
350.09	1675.24
350.30	1759.21
350.51	1789.92
350.72	1710.05
350.93	1712.10
351.14	1714.15
351.35	1734.63
351.56	1759.21
351.77	1644.52
351.99	1710.05
352.20	1783.78
352.41	1830.88
352.62	1660.90
352.83	1744.87
353.04	1681.38
353.25	1736.68
353.46	1763.30
353.67	1767.40
353.88	1660.90
354.09	1765.35
354.30	1615.85
354.52	1769.44
354.73	1722.34
354.94	1632.23
355.15	1685.48
355.36	1775.59
355.57	1619.94
355.78	1724.39
355.99	1658.85
356.20	1683.43
356.41	1765.35
356.62	1712.10
356.83	1699.81
357.04	1806.31
357.25	1722.34
357.46	1658.85
357.68	1675.24
357.89	1730.53
358.10	1693.67
358.31	1687.53
358.52	1708.01
358.73	1611.75
358.94	1544.17
359.15	1730.53
359.36	1804.26
359.57	1669.09
359.78	1722.34
359.99	1769.44
360.20	1658.85
360.41	1671.14
360.62	1621.99
360.83	1665.00
361.04	1722.34
361.25	1673.19
361.46	1789.92
361.67	1710.05
361.88	1734.63
362.09	1751.01
362.30	1714.15
362.51	1685.48
362.72	1708.01
362.93	1736.68
363.14	1755.11
363.35	1744.87
363.56	1671.14
363.78	1769.44
363.99	1728.49
364.20	1673.19
364.41	1662.95
364.62	1837.03
364.83	1656.81
365.04	1693.67
365.25	1726.44
365.46	1851.36
365.67	1714.15
365.88	1646.57
366.09	1683.43
366.30	1716.20
366.51	1691.62
366.72	1630.18
366.93	1708.01
367.14	1644.52
367.35	1761.25
367.56	1638.38
367.77	1832.93
367.98	1693.67
368.18	1751.01
368.39	1781.73
368.60	1648.61
368.81	1738.73
369.02	1695.72
369.23	1669.09
369.44	1503.21
369.65	1685.48
369.86	1826.79
370.07	1742.82
370.28	1550.31
370.49	1714.15
370.70	1712.10
370.91	1595.37
371.12	1648.61
371.33	1693.67
371.54	1705.96
371.75	1789.92
371.96	1535.98
372.17	1671.14
372.38	1697.77
372.59	1775.59
372.80	1724.39
373.01	1671.14
373.22	1701.86
373.43	1697.77
373.64	1667.05
373.85	1787.88
374.06	1832.93
374.26	1673.19
374.47	1720.29
374.68	1832.93
374.89	1681.38
375.10	1611.75
375.31	1759.21
375.52	1732.58
375.73	1695.72
375.94	1671.14
376.15	1804.26
376.36	1603.56
376.57	1675.24
376.78	1693.67
376.99	1673.19
377.20	1748.97
377.40	1662.95
377.61	1781.73
377.82	1603.56
378.03	1789.92
378.24	1796.07
378.45	1658.85
378.66	1730.53
378.87	1624.04
379.08	1624.04
379.29	1681.38
379.50	1824.74
379.71	1705.96
379.91	1720.29
380.12	1683.43
380.33	1710.05
380.54	1652.71
380.75	1669.09
380.96	1675.24
381.17	1753.06
381.38	1728.49
381.59	1695.72
381.80	1712.10
382.00	1892.32
382.21	1714.15
382.42	1796.07
382.63	1857.51
382.84	1716.20
383.05	1767.40
383.26	1775.59
383.47	1744.87
383.68	1726.44
383.88	1695.72
384.09	1703.91
384.30	1832.93
384.51	1701.86
384.72	1763.30
384.93	1607.66
385.14	1718.25
385.35	1718.25
385.55	1624.04
385.76	1855.46
385.97	1732.58
386.18	1654.76
386.39	1593.32
386.60	1726.44
386.81	1728.49
387.02	1662.95
387.22	1675.24
387.43	1796.07
387.64	1779.68
387.85	1802.21
388.06	2168.80
388.27	4224.96
388.48	6852.50
388.68	8105.86
388.89	9629.55
389.10	9815.91
389.31	8380.29
389.52	7704.46
389.73	6666.14
389.93	6223.78
390.14	5777.32
390.35	5248.94
390.56	4476.86
390.77	3866.56
390.98	3002.32
391.18	2467.80
391.39	2107.36
391.60	1826.79
391.81	1755.11
392.02	1691.62
392.23	1847.27
392.43	1705.96
392.64	1796.07
392.85	1798.12
393.06	1789.92
393.27	1671.14
393.47	1685.48
393.68	1708.01
393.89	1665.00
394.10	1794.02
394.31	1652.71
394.52	1673.19
394.72	1730.53
394.93	1755.11
395.14	1673.19
395.35	1697.77
395.56	1705.96
395.76	1734.63
395.97	1708.01
396.18	1863.65
396.39	1767.40
396.60	2033.63
396.80	1826.79
397.01	1896.42
397.22	1824.74
397.43	1882.08
397.64	1726.44
397.84	1773.54
398.05	1873.89
398.26	1755.11
398.47	1712.10
398.67	1816.55
398.88	1705.96
399.09	1753.06
399.30	1763.30
399.51	1734.63
399.71	1675.24
399.92	1640.42
400.13	1708.01
400.34	1718.25
400.54	1695.72
400.75	1837.03
400.96	1636.33
401.17	1808.36
401.37	1728.49
401.58	1689.57
401.79	1732.58
402.00	1886.18
402.21	2023.39
402.41	1961.95
402.62	1935.33
402.83	2041.82
403.04	1984.48
403.24	2041.82
403.45	1898.47
403.66	1951.71
403.87	1820.64
404.07	1888.23
404.28	1898.47
404.49	1816.55
404.70	1738.73
404.90	1757.16
405.11	1763.30
405.32	1679.33
405.52	1648.61
405.73	1728.49
405.94	1646.57
406.15	1699.81
406.35	1714.15
406.56	1773.54
406.77	1705.96
406.98	1685.48
407.18	1630.18
407.39	1757.16
407.60	1628.14
407.80	1732.58
408.01	1671.14
408.22	1755.11
408.43	1714.15
408.63	1730.53
408.84	1714.15
409.05	1769.44
409.25	1697.77
409.46	1636.33
409.67	1736.68
409.88	1667.05
410.08	1628.14
410.29	1656.81
410.50	1761.25
410.70	1697.77
410.91	1671.14
411.12	1691.62
411.32	1724.39
411.53	1685.48
411.74	1812.45
411.95	1732.58
412.15	1789.92
412.36	1765.35
412.57	1802.21
412.77	1765.35
412.98	1662.95
413.19	1660.90
413.39	1775.59
413.60	1714.15
413.81	1812.45
414.01	1656.81
414.22	1779.68
414.43	1701.86
414.63	1671.14
414.84	1724.39
415.05	1732.58
415.25	1675.24
415.46	1757.16
415.67	1648.61
415.87	1724.39
416.08	1748.97
416.29	1677.29
416.49	1755.11
416.70	1687.53
416.91	1701.86
417.11	1703.91
417.32	1746.92
417.53	1681.38
417.73	1716.20
417.94	1662.95
418.15	1656.81
418.35	1730.53
418.56	1705.96
418.77	1847.27
418.97	1640.42
419.18	1714.15
419.38	1593.32
419.59	1681.38
419.80	1828.84
420.00	1732.58
420.21	1769.44
420.42	1755.11
420.62	1757.16
420.83	1585.13
421.04	1687.53
421.24	1665.00
421.45	1693.67
421.65	1734.63
421.86	1605.61
422.07	1736.68
422.27	1757.16
422.48	1669.09
422.69	1583.08
422.89	1765.35
423.10	1724.39
423.30	1662.95
423.51	1636.33
423.72	1710.05
423.92	1681.38
424.13	1652.71
424.33	1775.59
424.54	1740.77
424.75	1730.53
424.95	1818.60
425.16	1759.21
425.36	1761.25
425.57	1705.96
425.78	1705.96
425.98	1757.16
426.19	1701.86
426.39	1667.05
426.60	1724.39
426.81	1779.68
427.01	1703.91
427.22	1603.56
427.42	1671.14
427.63	1624.04
427.83	1693.67
428.04	1796.07
428.25	1751.01
428.45	1796.07
428.66	1740.77
428.86	1699.81
429.07	1685.48
429.28	1673.19
429.48	1720.29
429.69	1599.46
429.89	1738.73
430.10	1589.22
430.30	1669.09
430.51	1697.77
430.71	1644.52
430.92	1722.34
431.13	1712.10
431.33	1699.81
431.54	1761.25
431.74	1828.84
431.95	1783.78
432.15	1691.62
432.36	1634.28
432.56	1703.91
432.77	1832.93
432.98	1744.87
433.18	1742.82
433.39	1703.91
433.59	1751.01
433.80	1787.88
434.00	1839.08
434.21	1705.96
434.41	1630.18
434.62	1751.01
434.82	1658.85
435.03	1662.95
435.23	1800.16
435.44	1624.04
435.64	1710.05
435.85	1742.82
436.06	1775.59
436.26	1767.40
436.47	1724.39
436.67	1619.94
436.88	1662.95
437.08	1662.95
437.29	1763.30
437.49	1708.01
437.70	1748.97
437.90	1730.53
438.11	1837.03
438.31	1820.64
438.52	1785.83
438.72	1861.60
438.93	1914.85
439.13	1769.44
439.34	1837.03
439.54	1812.45
439.75	1800.16
439.95	1812.45
440.16	1675.24
440.36	1746.92
440.57	1734.63
440.77	1662.95
440.98	1800.16
441.18	1734.63
441.39	1660.90
441.59	1689.57
441.80	1847.27
442.00	1675.24
442.21	1824.74
442.41	1689.57
442.62	1765.35
442.82	1705.96
443.02	1761.25
443.23	1763.30
443.43	1699.81
443.64	1765.35
443.84	1671.14
444.05	1800.16
444.25	1708.01
444.46	1705.96
444.66	1740.77
444.87	1832.93
445.07	1617.90
445.28	1691.62
445.48	1806.31
445.69	1765.35
445.89	1816.55
446.09	1779.68
446.30	2045.92
446.50	2582.49
446.71	3694.54
446.91	4343.74
447.12	4761.53
447.32	4900.79
447.53	4257.73
447.73	3876.80
447.93	3581.90
448.14	3330.00
448.34	3248.08
448.55	2918.36
448.75	2838.48
448.96	2740.18
449.16	2338.78
449.36	2201.57
449.57	2070.50
449.77	1904.61
449.98	1822.69
450.18	1861.60
450.39	1812.45
450.59	1734.63
450.79	1687.53
451.00	1736.68
451.20	1755.11
451.41	1699.81
451.61	1828.84
451.81	1718.25
452.02	1738.73
452.22	1714.15
452.43	1720.29
452.63	1703.91
