SpectraSuite Data File
++++++++++++++++++++++++++++++++++++
Date: Mon Jun 06 13:25:37 CEST 2016
User: root
Dark Spectrum Present: No
Reference Spectrum Present: No
Number of Sampled Component Spectra: 1
Spectrometers: USB4C02835
Integration Time (usec): 100000 (USB4C02835)
Spectra Averaged: 1 (USB4C02835)
Boxcar Smoothing: 0 (USB4C02835)
Correct for Electrical Dark: No (USB4C02835)
Strobe/Lamp Enabled: No (USB4C02835)
Correct for Detector Non-linearity: No (USB4C02835)
Correct for Stray Light: No (USB4C02835)
Number of Pixels in Processed Spectrum: 3648
>>>>>Begin Processed Spectral Data<<<<<
177.47	1490.92
177.69	1490.92
177.91	1490.92
178.13	1437.67
178.36	1490.92
178.58	1759.21
178.80	1677.29
179.02	1644.52
179.24	1679.33
179.46	1599.46
179.68	1734.63
179.90	1746.92
180.13	1734.63
180.35	1722.34
180.57	1644.52
180.79	1714.15
181.01	1617.90
181.23	1697.77
181.45	1726.44
181.67	1742.82
181.90	1767.40
182.12	1564.65
182.34	1566.70
182.56	1665.00
182.78	1755.11
183.00	1685.48
183.22	1746.92
183.44	1632.23
183.66	1789.92
183.89	1693.67
184.11	1671.14
184.33	1708.01
184.55	1687.53
184.77	1679.33
184.99	1687.53
185.21	1681.38
185.43	1843.17
185.65	1734.63
185.87	1681.38
186.10	1837.03
186.32	1816.55
186.54	1677.29
186.76	1708.01
186.98	1765.35
187.20	1658.85
187.42	1644.52
187.64	1656.81
187.86	1656.81
188.08	1695.72
188.30	1595.37
188.52	1720.29
188.75	1781.73
188.97	1781.73
189.19	1716.20
189.41	1712.10
189.63	1734.63
189.85	1697.77
190.07	1615.85
190.29	1615.85
190.51	1701.86
190.73	1613.80
190.95	1773.54
191.17	1781.73
191.39	1591.27
191.61	1648.61
191.84	1660.90
192.06	1728.49
192.28	1621.99
192.50	1880.04
192.72	1771.49
192.94	1628.14
193.16	1732.58
193.38	1632.23
193.60	1652.71
193.82	1542.12
194.04	1775.59
194.26	1673.19
194.48	1724.39
194.70	1665.00
194.92	1638.38
195.14	1699.81
195.36	1701.86
195.58	1759.21
195.80	1697.77
196.02	1636.33
196.24	1679.33
196.46	1738.73
196.69	1652.71
196.91	1812.45
197.13	1658.85
197.35	1730.53
197.57	1781.73
197.79	1746.92
198.01	1806.31
198.23	1705.96
198.45	1654.76
198.67	1587.18
198.89	1619.94
199.11	1697.77
199.33	1710.05
199.55	1576.94
199.77	1722.34
199.99	1796.07
200.21	1693.67
200.43	1679.33
200.65	1595.37
200.87	1630.18
201.09	1763.30
201.31	1683.43
201.53	1732.58
201.75	1720.29
201.97	1726.44
202.19	1730.53
202.41	1736.68
202.63	1826.79
202.85	1728.49
203.07	1740.77
203.29	1695.72
203.51	1609.70
203.73	1609.70
203.95	1933.28
204.17	1753.06
204.39	1730.53
204.61	1691.62
204.83	1624.04
205.05	1701.86
205.27	1841.12
205.49	1851.36
205.71	1607.66
205.93	1556.46
206.15	1644.52
206.37	1693.67
206.59	1712.10
206.81	1665.00
207.03	1673.19
207.25	1656.81
207.47	1796.07
207.69	1673.19
207.91	1814.50
208.13	1800.16
208.34	1599.46
208.56	1665.00
208.78	1759.21
209.00	1689.57
209.22	1634.28
209.44	1726.44
209.66	1705.96
209.88	1679.33
210.10	1669.09
210.32	1691.62
210.54	1714.15
210.76	1662.95
210.98	1679.33
211.20	1562.60
211.42	1730.53
211.64	1714.15
211.86	1695.72
212.08	1730.53
212.30	1658.85
212.52	1630.18
212.74	1783.78
212.96	1673.19
213.17	1781.73
213.39	1808.36
213.61	1814.50
213.83	1789.92
214.05	1689.57
214.27	1818.60
214.49	1599.46
214.71	1683.43
214.93	1796.07
215.15	1744.87
215.37	1724.39
215.59	1634.28
215.81	1701.86
216.03	1783.78
216.24	1681.38
216.46	1693.67
216.68	1642.47
216.90	1720.29
217.12	1693.67
217.34	1714.15
217.56	1724.39
217.78	1769.44
218.00	1685.48
218.22	1669.09
218.44	1781.73
218.66	1767.40
218.87	1757.16
219.09	1654.76
219.31	1701.86
219.53	1816.55
219.75	1665.00
219.97	1687.53
220.19	1689.57
220.41	1787.88
220.63	1726.44
220.85	1714.15
221.06	1652.71
221.28	1771.49
221.50	1722.34
221.72	1662.95
221.94	1624.04
222.16	1695.72
222.38	1775.59
222.60	1791.97
222.82	1695.72
223.03	1671.14
223.25	1644.52
223.47	1736.68
223.69	1789.92
223.91	1677.29
224.13	1716.20
224.35	1699.81
224.57	1787.88
224.78	1763.30
225.00	1587.18
225.22	1722.34
225.44	1722.34
225.66	1777.64
225.88	1658.85
226.10	1755.11
226.32	1767.40
226.53	1794.02
226.75	1765.35
226.97	1660.90
227.19	1751.01
227.41	1714.15
227.63	1656.81
227.85	1585.13
228.06	1667.05
228.28	1695.72
228.50	1748.97
228.72	1615.85
228.94	1703.91
229.16	1609.70
229.37	1638.38
229.59	1632.23
229.81	1736.68
230.03	1677.29
230.25	1603.56
230.47	1585.13
230.69	1624.04
230.90	1746.92
231.12	1593.32
231.34	1759.21
231.56	1757.16
231.78	1634.28
232.00	1665.00
232.21	1669.09
232.43	1619.94
232.65	1503.21
232.87	1691.62
233.09	1654.76
233.30	1599.46
233.52	1759.21
233.74	1669.09
233.96	1720.29
234.18	1716.20
234.40	1730.53
234.61	1814.50
234.83	1658.85
235.05	1597.42
235.27	1837.03
235.49	1771.49
235.70	1710.05
235.92	1779.68
236.14	1671.14
236.36	1794.02
236.58	1667.05
236.79	1746.92
237.01	1791.97
237.23	1644.52
237.45	1834.98
237.67	1681.38
237.88	1779.68
238.10	1847.27
238.32	1677.29
238.54	1738.73
238.76	1794.02
238.97	1630.18
239.19	1636.33
239.41	1748.97
239.63	1677.29
239.85	1697.77
240.06	1730.53
240.28	1724.39
240.50	1767.40
240.72	1689.57
240.93	1708.01
241.15	1759.21
241.37	1728.49
241.59	1722.34
241.81	1724.39
242.02	1714.15
242.24	1722.34
242.46	1755.11
242.68	1701.86
242.89	1677.29
243.11	1773.54
243.33	1691.62
243.55	1730.53
243.76	1718.25
243.98	1658.85
244.20	1609.70
244.42	1683.43
244.64	1691.62
244.85	1615.85
245.07	1710.05
245.29	1751.01
245.51	1738.73
245.72	1677.29
245.94	1751.01
246.16	1753.06
246.38	1773.54
246.59	1628.14
246.81	1640.42
247.03	1683.43
247.24	1652.71
247.46	1687.53
247.68	1673.19
247.90	1685.48
248.11	1613.80
248.33	1738.73
248.55	1685.48
248.77	1703.91
248.98	1796.07
249.20	1796.07
249.42	1705.96
249.64	1683.43
249.85	1691.62
250.07	1615.85
250.29	1751.01
250.50	1785.83
250.72	1669.09
250.94	1775.59
251.16	1734.63
251.37	1808.36
251.59	1724.39
251.81	1695.72
252.02	1730.53
252.24	1697.77
252.46	1773.54
252.68	1689.57
252.89	1642.47
253.11	1652.71
253.33	1847.27
253.54	1763.30
253.76	1667.05
253.98	1673.19
254.20	1779.68
254.41	1611.75
254.63	1636.33
254.85	1691.62
255.06	1656.81
255.28	1726.44
255.50	1718.25
255.71	1646.57
255.93	1652.71
256.15	1603.56
256.36	1718.25
256.58	1587.18
256.80	1712.10
257.02	1665.00
257.23	1683.43
257.45	1685.48
257.67	1720.29
257.88	1712.10
258.10	1679.33
258.32	1679.33
258.53	1701.86
258.75	1724.39
258.97	1662.95
259.18	1701.86
259.40	1724.39
259.62	1755.11
259.83	1718.25
260.05	1742.82
260.27	1945.57
260.48	1738.73
260.70	1632.23
260.92	1683.43
261.13	1773.54
261.35	1736.68
261.57	1746.92
261.78	1603.56
262.00	1609.70
262.22	1773.54
262.43	1695.72
262.65	1714.15
262.86	1771.49
263.08	1812.45
263.30	1705.96
263.51	1644.52
263.73	1722.34
263.95	1755.11
264.16	1732.58
264.38	1646.57
264.60	1748.97
264.81	1669.09
265.03	1761.25
265.25	1697.77
265.46	1716.20
265.68	1742.82
265.89	1779.68
266.11	1685.48
266.33	1746.92
266.54	1693.67
266.76	1714.15
266.98	1714.15
267.19	1724.39
267.41	1771.49
267.62	1789.92
267.84	1595.37
268.06	1703.91
268.27	1624.04
268.49	1814.50
268.70	1765.35
268.92	1693.67
269.14	1650.66
269.35	1677.29
269.57	1708.01
269.79	1732.58
270.00	1691.62
270.22	1746.92
270.43	1640.42
270.65	1624.04
270.87	1728.49
271.08	1763.30
271.30	1789.92
271.51	1681.38
271.73	1767.40
271.95	1757.16
272.16	1726.44
272.38	1705.96
272.59	1669.09
272.81	1662.95
273.02	1720.29
273.24	1681.38
273.46	1730.53
273.67	1667.05
273.89	1630.18
274.10	1632.23
274.32	1703.91
274.54	1671.14
274.75	1687.53
274.97	1681.38
275.18	1822.69
275.40	1740.77
275.61	1755.11
275.83	1677.29
276.05	1671.14
276.26	1671.14
276.48	1691.62
276.69	1665.00
276.91	1683.43
277.12	1738.73
277.34	1753.06
277.55	1732.58
277.77	1808.36
277.99	1671.14
278.20	1679.33
278.42	1740.77
278.63	1665.00
278.85	1652.71
279.06	1656.81
279.28	1697.77
279.49	1732.58
279.71	1796.07
279.93	1697.77
280.14	1728.49
280.36	1531.88
280.57	1660.90
280.79	1763.30
281.00	1650.66
281.22	1677.29
281.43	1716.20
281.65	1603.56
281.86	1636.33
282.08	1722.34
282.29	1771.49
282.51	1671.14
282.73	1621.99
282.94	1603.56
283.16	1757.16
283.37	1775.59
283.59	1714.15
283.80	1746.92
284.02	1671.14
284.23	1748.97
284.45	1708.01
284.66	1675.24
284.88	1617.90
285.09	1716.20
285.31	1789.92
285.52	1667.05
285.74	1652.71
285.95	1691.62
286.17	1665.00
286.38	1748.97
286.60	1648.61
286.81	1644.52
287.03	1673.19
287.24	1693.67
287.46	1755.11
287.67	1683.43
287.89	1759.21
288.10	1640.42
288.32	1695.72
288.53	1699.81
288.75	1679.33
288.96	1710.05
289.18	1687.53
289.39	1708.01
289.61	1701.86
289.82	1839.08
290.04	1732.58
290.25	1595.37
290.47	1681.38
290.68	1652.71
290.90	1736.68
291.11	1609.70
291.33	1791.97
291.54	1662.95
291.76	1697.77
291.97	1658.85
292.18	1781.73
292.40	1708.01
292.61	1673.19
292.83	1859.56
293.04	1757.16
293.26	1673.19
293.47	1705.96
293.69	1685.48
293.90	1621.99
294.12	1720.29
294.33	1626.09
294.55	1665.00
294.76	1757.16
294.97	1738.73
295.19	1787.88
295.40	1718.25
295.62	1734.63
295.83	1779.68
296.05	1662.95
296.26	1693.67
296.48	1683.43
296.69	1683.43
296.90	1710.05
297.12	1714.15
297.33	1738.73
297.55	1699.81
297.76	1769.44
297.98	1775.59
298.19	1632.23
298.41	1691.62
298.62	1693.67
298.83	1802.21
299.05	1744.87
299.26	1691.62
299.48	1634.28
299.69	1775.59
299.90	1742.82
300.12	1716.20
300.33	1738.73
300.55	1746.92
300.76	1783.78
300.98	1619.94
301.19	1720.29
301.40	1673.19
301.62	1667.05
301.83	1738.73
302.05	1697.77
302.26	1683.43
302.47	1718.25
302.69	1638.38
302.90	1609.70
303.12	1585.13
303.33	1812.45
303.54	1847.27
303.76	1710.05
303.97	1703.91
304.19	1826.79
304.40	1671.14
304.61	1824.74
304.83	1806.31
305.04	1767.40
305.26	1736.68
305.47	1607.66
305.68	1669.09
305.90	1589.22
306.11	1744.87
306.33	1699.81
306.54	1691.62
306.75	1673.19
306.97	1665.00
307.18	1677.29
307.39	1642.47
307.61	1767.40
307.82	1673.19
308.04	1624.04
308.25	1648.61
308.46	1751.01
308.68	1708.01
308.89	1724.39
309.10	1755.11
309.32	1796.07
309.53	1675.24
309.74	1753.06
309.96	1687.53
310.17	1753.06
310.39	1665.00
310.60	1667.05
310.81	1755.11
311.03	1624.04
311.24	1744.87
311.45	1693.67
311.67	1800.16
311.88	1677.29
312.09	1681.38
312.31	1617.90
312.52	1669.09
312.73	1669.09
312.95	1705.96
313.16	1642.47
313.37	1769.44
313.59	1624.04
313.80	1777.64
314.01	1783.78
314.23	1701.86
314.44	1685.48
314.65	1644.52
314.87	1652.71
315.08	1669.09
315.29	1714.15
315.51	1710.05
315.72	1624.04
315.93	1781.73
316.15	1734.63
316.36	1785.83
316.57	1724.39
316.79	1775.59
317.00	1658.85
317.21	1634.28
317.43	1718.25
317.64	1665.00
317.85	1681.38
318.07	1605.61
318.28	1783.78
318.49	1789.92
318.70	1867.75
318.92	1808.36
319.13	1767.40
319.34	1822.69
319.56	1689.57
319.77	1775.59
319.98	1820.64
320.20	1798.12
320.41	1665.00
320.62	1695.72
320.83	1632.23
321.05	1824.74
321.26	1665.00
321.47	1734.63
321.69	1703.91
321.90	1681.38
322.11	1679.33
322.32	1730.53
322.54	1818.60
322.75	1667.05
322.96	1824.74
323.18	1562.60
323.39	1587.18
323.60	1650.66
323.81	1699.81
324.03	1626.09
324.24	1665.00
324.45	1681.38
324.66	1697.77
324.88	1818.60
325.09	1806.31
325.30	1660.90
325.52	1773.54
325.73	1755.11
325.94	1693.67
326.15	1609.70
326.37	1675.24
326.58	1746.92
326.79	1722.34
327.00	1636.33
327.22	1722.34
327.43	1589.22
327.64	1626.09
327.85	1847.27
328.07	1626.09
328.28	1775.59
328.49	1679.33
328.70	1624.04
328.92	1675.24
329.13	1685.48
329.34	1703.91
329.55	1777.64
329.76	1701.86
329.98	1742.82
330.19	1787.88
330.40	1693.67
330.61	1644.52
330.83	1689.57
331.04	1617.90
331.25	1724.39
331.46	1728.49
331.68	1595.37
331.89	1718.25
332.10	1757.16
332.31	1587.18
332.52	1656.81
332.74	1718.25
332.95	1644.52
333.16	1601.51
333.37	1751.01
333.58	1732.58
333.80	1650.66
334.01	1591.27
334.22	1685.48
334.43	1669.09
334.64	1677.29
334.86	1603.56
335.07	1681.38
335.28	1834.98
335.49	1566.70
335.70	1720.29
335.92	1718.25
336.13	1824.74
336.34	1710.05
336.55	1755.11
336.76	1720.29
336.98	1576.94
337.19	1693.67
337.40	1763.30
337.61	1812.45
337.82	1687.53
338.04	1705.96
338.25	1628.14
338.46	1667.05
338.67	1699.81
338.88	1611.75
339.09	1638.38
339.31	1662.95
339.52	1630.18
339.73	1656.81
339.94	1726.44
340.15	1744.87
340.36	1673.19
340.58	1665.00
340.79	1628.14
341.00	1691.62
341.21	1705.96
341.42	1748.97
341.63	1660.90
341.85	1726.44
342.06	1691.62
342.27	1636.33
342.48	1746.92
342.69	1660.90
342.90	1736.68
343.12	1656.81
343.33	1720.29
343.54	1781.73
343.75	1765.35
343.96	1724.39
344.17	1638.38
344.38	1619.94
344.60	1656.81
344.81	1710.05
345.02	1691.62
345.23	1812.45
345.44	1791.97
345.65	1720.29
345.86	1744.87
346.07	1667.05
346.29	1679.33
346.50	1740.77
346.71	1716.20
346.92	1742.82
347.13	1828.84
347.34	1648.61
347.55	1763.30
347.76	1757.16
347.98	1632.23
348.19	1708.01
348.40	1732.58
348.61	1638.38
348.82	1710.05
349.03	1765.35
349.24	1634.28
349.45	1791.97
349.66	1609.70
349.88	1636.33
350.09	1599.46
350.30	1798.12
350.51	1724.39
350.72	1638.38
350.93	1660.90
351.14	1689.57
351.35	1712.10
351.56	1650.66
351.77	1665.00
351.99	1650.66
352.20	1740.77
352.41	1808.36
352.62	1591.27
352.83	1617.90
353.04	1746.92
353.25	1708.01
353.46	1769.44
353.67	1720.29
353.88	1638.38
354.09	1730.53
354.30	1718.25
354.52	1751.01
354.73	1701.86
354.94	1714.15
355.15	1738.73
355.36	1722.34
355.57	1673.19
355.78	1734.63
355.99	1601.51
356.20	1595.37
356.41	1738.73
356.62	1689.57
356.83	1701.86
357.04	1746.92
357.25	1601.51
357.46	1632.23
357.68	1617.90
357.89	1619.94
358.10	1660.90
358.31	1691.62
358.52	1638.38
358.73	1673.19
358.94	1728.49
359.15	1630.18
359.36	1755.11
359.57	1628.14
359.78	1675.24
359.99	1714.15
360.20	1607.66
360.41	1689.57
360.62	1665.00
360.83	1644.52
361.04	1800.16
361.25	1693.67
361.46	1767.40
361.67	1730.53
361.88	1722.34
362.09	1853.41
362.30	1722.34
362.51	1673.19
362.72	1624.04
362.93	1728.49
363.14	1701.86
363.35	1685.48
363.56	1673.19
363.78	1773.54
363.99	1736.68
364.20	1683.43
364.41	1699.81
364.62	1857.51
364.83	1691.62
365.04	1732.58
365.25	1669.09
365.46	1746.92
365.67	1619.94
365.88	1636.33
366.09	1728.49
366.30	1636.33
366.51	1681.38
366.72	1617.90
366.93	1665.00
367.14	1814.50
367.35	1785.83
367.56	1675.24
367.77	1767.40
367.98	1683.43
368.18	1732.58
368.39	1740.77
368.60	1648.61
368.81	1736.68
369.02	1761.25
369.23	1693.67
369.44	1634.28
369.65	1757.16
369.86	1685.48
370.07	1763.30
370.28	1652.71
370.49	1742.82
370.70	1699.81
370.91	1576.94
371.12	1652.71
371.33	1771.49
371.54	1685.48
371.75	1826.79
371.96	1560.55
372.17	1701.86
372.38	1662.95
372.59	1781.73
372.80	1726.44
373.01	1691.62
373.22	1736.68
373.43	1640.42
373.64	1595.37
373.85	1810.40
374.06	1851.36
374.26	1714.15
374.47	1726.44
374.68	1796.07
374.89	1703.91
375.10	1714.15
375.31	1726.44
375.52	1720.29
375.73	1708.01
375.94	1634.28
376.15	1771.49
376.36	1675.24
376.57	1701.86
376.78	1744.87
376.99	1710.05
377.20	1804.26
377.40	1648.61
377.61	1734.63
377.82	1583.08
378.03	1771.49
378.24	1849.32
378.45	1646.57
378.66	1726.44
378.87	1605.61
379.08	1609.70
379.29	1632.23
379.50	1710.05
379.71	1697.77
379.91	1771.49
380.12	1689.57
380.33	1693.67
380.54	1685.48
380.75	1662.95
380.96	1650.66
381.17	1730.53
381.38	1816.55
381.59	1708.01
381.80	1734.63
382.00	1837.03
382.21	1726.44
382.42	1837.03
382.63	1873.89
382.84	1685.48
383.05	1705.96
383.26	1837.03
383.47	1644.52
383.68	1720.29
383.88	1705.96
384.09	1712.10
384.30	1828.84
384.51	1744.87
384.72	1708.01
384.93	1644.52
385.14	1689.57
385.35	1761.25
385.55	1697.77
385.76	1740.77
385.97	1734.63
386.18	1634.28
386.39	1654.76
386.60	1626.09
386.81	1744.87
387.02	1660.90
387.22	1632.23
387.43	1697.77
387.64	1748.97
387.85	1869.80
388.06	2201.57
388.27	4241.34
388.48	6662.04
388.68	8118.15
388.89	9406.32
389.10	9760.62
389.31	8349.57
389.52	7409.55
389.73	6612.89
389.93	6334.37
390.14	5744.55
390.35	5132.21
390.56	4478.91
390.77	3708.87
390.98	2975.70
391.18	2551.77
391.39	2093.02
391.60	1849.32
391.81	1763.30
392.02	1654.76
392.23	1851.36
392.43	1740.77
392.64	1800.16
392.85	1665.00
393.06	1857.51
393.27	1757.16
393.47	1714.15
393.68	1693.67
393.89	1669.09
394.10	1800.16
394.31	1667.05
394.52	1626.09
394.72	1708.01
394.93	1683.43
395.14	1685.48
395.35	1728.49
395.56	1648.61
395.76	1763.30
395.97	1759.21
396.18	1781.73
396.39	1810.40
396.60	2041.82
396.80	1916.90
397.01	1902.56
397.22	1855.46
397.43	1839.08
397.64	1757.16
397.84	1820.64
398.05	1875.94
398.26	1763.30
398.47	1834.98
398.67	1769.44
398.88	1736.68
399.09	1763.30
399.30	1630.18
399.51	1740.77
399.71	1671.14
399.92	1685.48
400.13	1765.35
400.34	1677.29
400.54	1644.52
400.75	1826.79
400.96	1705.96
401.17	1806.31
401.37	1751.01
401.58	1761.25
401.79	1695.72
402.00	1873.89
402.21	1961.95
402.41	1953.76
402.62	1980.39
402.83	1996.77
403.04	1972.19
403.24	2093.02
403.45	1898.47
403.66	1902.56
403.87	1796.07
404.07	1912.80
404.28	1943.52
404.49	1853.41
404.70	1783.78
404.90	1787.88
405.11	1791.97
405.32	1714.15
405.52	1732.58
405.73	1679.33
405.94	1660.90
406.15	1687.53
406.35	1746.92
406.56	1681.38
406.77	1701.86
406.98	1710.05
407.18	1677.29
407.39	1751.01
407.60	1734.63
407.80	1701.86
408.01	1660.90
408.22	1697.77
408.43	1667.05
408.63	1673.19
408.84	1771.49
409.05	1832.93
409.25	1753.06
409.46	1619.94
409.67	1621.99
409.88	1703.91
410.08	1726.44
410.29	1652.71
410.50	1746.92
410.70	1742.82
410.91	1636.33
411.12	1730.53
411.32	1662.95
411.53	1652.71
411.74	1771.49
411.95	1748.97
412.15	1781.73
412.36	1773.54
412.57	1738.73
412.77	1734.63
412.98	1697.77
413.19	1646.57
413.39	1701.86
413.60	1814.50
413.81	1779.68
414.01	1699.81
414.22	1718.25
414.43	1820.64
414.63	1722.34
414.84	1789.92
415.05	1697.77
415.25	1619.94
415.46	1734.63
415.67	1699.81
415.87	1646.57
416.08	1640.42
416.29	1761.25
416.49	1761.25
416.70	1724.39
416.91	1699.81
417.11	1638.38
417.32	1820.64
417.53	1740.77
417.73	1636.33
417.94	1656.81
418.15	1730.53
418.35	1759.21
418.56	1716.20
418.77	1740.77
418.97	1773.54
419.18	1646.57
419.38	1636.33
419.59	1744.87
419.80	1783.78
420.00	1677.29
420.21	1689.57
420.42	1751.01
420.62	1722.34
420.83	1660.90
421.04	1654.76
421.24	1683.43
421.45	1730.53
421.65	1703.91
421.86	1697.77
422.07	1708.01
422.27	1652.71
422.48	1673.19
422.69	1689.57
422.89	1738.73
423.10	1703.91
423.30	1660.90
423.51	1755.11
423.72	1646.57
423.92	1775.59
424.13	1646.57
424.33	1697.77
424.54	1708.01
424.75	1652.71
424.95	1794.02
425.16	1765.35
425.36	1677.29
425.57	1769.44
425.78	1728.49
425.98	1794.02
426.19	1615.85
426.39	1699.81
426.60	1681.38
426.81	1763.30
427.01	1734.63
427.22	1662.95
427.42	1599.46
427.63	1601.51
427.83	1812.45
428.04	1779.68
428.25	1726.44
428.45	1738.73
428.66	1736.68
428.86	1712.10
429.07	1740.77
429.28	1732.58
429.48	1728.49
429.69	1619.94
429.89	1675.24
430.10	1677.29
430.30	1716.20
430.51	1771.49
430.71	1652.71
430.92	1705.96
431.13	1646.57
431.33	1718.25
431.54	1755.11
431.74	1736.68
431.95	1861.60
432.15	1595.37
432.36	1697.77
432.56	1798.12
432.77	1794.02
432.98	1785.83
433.18	1746.92
433.39	1615.85
433.59	1624.04
433.80	1773.54
434.00	1777.64
434.21	1708.01
434.41	1632.23
434.62	1814.50
434.82	1599.46
435.03	1646.57
435.23	1794.02
435.44	1658.85
435.64	1763.30
435.85	1765.35
436.06	1720.29
436.26	1708.01
436.47	1617.90
436.67	1718.25
436.88	1665.00
437.08	1714.15
437.29	1820.64
437.49	1632.23
437.70	1761.25
437.90	1744.87
438.11	1781.73
438.31	1843.17
438.52	1861.60
438.72	1910.75
438.93	1877.99
439.13	1841.12
439.34	1826.79
439.54	1693.67
439.75	1830.88
439.95	1837.03
440.16	1736.68
440.36	1798.12
440.57	1705.96
440.77	1798.12
440.98	1775.59
441.18	1804.26
441.39	1648.61
441.59	1630.18
441.80	1771.49
442.00	1767.40
442.21	1751.01
442.41	1650.66
442.62	1812.45
442.82	1683.43
443.02	1701.86
443.23	1755.11
443.43	1722.34
443.64	1751.01
443.84	1703.91
444.05	1816.55
444.25	1695.72
444.46	1673.19
444.66	1705.96
444.87	1783.78
445.07	1677.29
445.28	1753.06
445.48	1806.31
445.69	1703.91
445.89	1892.32
446.09	1779.68
446.30	2090.98
446.50	2772.95
446.71	3641.29
446.91	4210.62
447.12	4607.93
447.32	4843.45
447.53	4339.65
447.73	3846.09
447.93	3520.46
448.14	3315.66
448.34	3172.30
448.55	2934.74
448.75	2811.86
448.96	2678.74
449.16	2439.13
449.36	2275.29
449.57	2027.49
449.77	1845.22
449.98	1798.12
450.18	1773.54
450.39	1746.92
450.59	1716.20
450.79	1789.92
451.00	1640.42
451.20	1751.01
451.41	1685.48
451.61	1753.06
451.81	1665.00
452.02	1724.39
452.22	1679.33
452.43	1650.66
452.63	1671.14
