SpectraSuite Data File
++++++++++++++++++++++++++++++++++++
Date: Mon Jun 06 16:00:37 CEST 2016
User: root
Dark Spectrum Present: No
Reference Spectrum Present: No
Number of Sampled Component Spectra: 1
Spectrometers: USB4C02835
Integration Time (usec): 100000 (USB4C02835)
Spectra Averaged: 1 (USB4C02835)
Boxcar Smoothing: 0 (USB4C02835)
Correct for Electrical Dark: No (USB4C02835)
Strobe/Lamp Enabled: No (USB4C02835)
Correct for Detector Non-linearity: No (USB4C02835)
Correct for Stray Light: No (USB4C02835)
Number of Pixels in Processed Spectrum: 3648
>>>>>Begin Processed Spectral Data<<<<<
177.47	1445.87
177.69	1445.87
177.91	1445.87
178.13	1538.02
178.36	1511.40
178.58	1656.81
178.80	1675.24
179.02	1650.66
179.24	1669.09
179.46	1691.62
179.68	1724.39
179.90	1718.25
180.13	1697.77
180.35	1662.95
180.57	1660.90
180.79	1763.30
181.01	1691.62
181.23	1759.21
181.45	1771.49
181.67	1624.04
181.90	1712.10
182.12	1648.61
182.34	1617.90
182.56	1746.92
182.78	1767.40
183.00	1691.62
183.22	1662.95
183.44	1576.94
183.66	1884.13
183.89	1736.68
184.11	1753.06
184.33	1759.21
184.55	1773.54
184.77	1767.40
184.99	1818.60
185.21	1738.73
185.43	1859.56
185.65	1675.24
185.87	1710.05
186.10	1867.75
186.32	1884.13
186.54	1789.92
186.76	1765.35
186.98	1736.68
187.20	1667.05
187.42	1781.73
187.64	1740.77
187.86	1675.24
188.08	1740.77
188.30	1720.29
188.52	1734.63
188.75	1779.68
188.97	1787.88
189.19	1736.68
189.41	1699.81
189.63	1658.85
189.85	1691.62
190.07	1626.09
190.29	1665.00
190.51	1726.44
190.73	1632.23
190.95	1832.93
191.17	1783.78
191.39	1689.57
191.61	1732.58
191.84	1767.40
192.06	1775.59
192.28	1675.24
192.50	1896.42
192.72	1716.20
192.94	1570.79
193.16	1734.63
193.38	1734.63
193.60	1652.71
193.82	1705.96
194.04	1816.55
194.26	1796.07
194.48	1669.09
194.70	1701.86
194.92	1628.14
195.14	1742.82
195.36	1626.09
195.58	1640.42
195.80	1738.73
196.02	1689.57
196.24	1701.86
196.46	1755.11
196.69	1689.57
196.91	1890.28
197.13	1708.01
197.35	1701.86
197.57	1791.97
197.79	1742.82
198.01	1755.11
198.23	1724.39
198.45	1765.35
198.67	1644.52
198.89	1730.53
199.11	1755.11
199.33	1605.61
199.55	1568.74
199.77	1673.19
199.99	1853.41
200.21	1650.66
200.43	1732.58
200.65	1632.23
200.87	1538.02
201.09	1724.39
201.31	1685.48
201.53	1701.86
201.75	1751.01
201.97	1697.77
202.19	1728.49
202.41	1794.02
202.63	1765.35
202.85	1742.82
203.07	1695.72
203.29	1632.23
203.51	1603.56
203.73	1605.61
203.95	1912.80
204.17	1679.33
204.39	1720.29
204.61	1642.47
204.83	1685.48
205.05	1757.16
205.27	1746.92
205.49	1783.78
205.71	1769.44
205.93	1630.18
206.15	1697.77
206.37	1761.25
206.59	1671.14
206.81	1624.04
207.03	1660.90
207.25	1609.70
207.47	1800.16
207.69	1748.97
207.91	1753.06
208.13	1738.73
208.34	1699.81
208.56	1759.21
208.78	1765.35
209.00	1677.29
209.22	1730.53
209.44	1656.81
209.66	1646.57
209.88	1724.39
210.10	1732.58
210.32	1665.00
210.54	1822.69
210.76	1705.96
210.98	1761.25
211.20	1552.36
211.42	1791.97
211.64	1734.63
211.86	1699.81
212.08	1736.68
212.30	1738.73
212.52	1722.34
212.74	1787.88
212.96	1677.29
213.17	1767.40
213.39	1781.73
213.61	1822.69
213.83	1728.49
214.05	1607.66
214.27	1769.44
214.49	1576.94
214.71	1644.52
214.93	1751.01
215.15	1703.91
215.37	1783.78
215.59	1593.32
215.81	1699.81
216.03	1832.93
216.24	1742.82
216.46	1671.14
216.68	1681.38
216.90	1667.05
217.12	1765.35
217.34	1701.86
217.56	1701.86
217.78	1759.21
218.00	1761.25
218.22	1726.44
218.44	1781.73
218.66	1695.72
218.87	1824.74
219.09	1699.81
219.31	1755.11
219.53	1816.55
219.75	1697.77
219.97	1693.67
220.19	1714.15
220.41	1695.72
220.63	1824.74
220.85	1744.87
221.06	1761.25
221.28	1796.07
221.50	1703.91
221.72	1693.67
221.94	1740.77
222.16	1693.67
222.38	1732.58
222.60	1753.06
222.82	1736.68
223.03	1699.81
223.25	1613.80
223.47	1832.93
223.69	1736.68
223.91	1787.88
224.13	1695.72
224.35	1710.05
224.57	1779.68
224.78	1714.15
225.00	1624.04
225.22	1783.78
225.44	1695.72
225.66	1802.21
225.88	1783.78
226.10	1718.25
226.32	1777.64
226.53	1771.49
226.75	1673.19
226.97	1675.24
227.19	1824.74
227.41	1695.72
227.63	1718.25
227.85	1578.98
228.06	1751.01
228.28	1720.29
228.50	1771.49
228.72	1691.62
228.94	1771.49
229.16	1607.66
229.37	1671.14
229.59	1710.05
229.81	1791.97
230.03	1642.47
230.25	1701.86
230.47	1697.77
230.69	1650.66
230.90	1796.07
231.12	1712.10
231.34	1718.25
231.56	1783.78
231.78	1646.57
232.00	1705.96
232.21	1638.38
232.43	1726.44
232.65	1603.56
232.87	1695.72
233.09	1687.53
233.30	1732.58
233.52	1736.68
233.74	1628.14
233.96	1708.01
234.18	1791.97
234.40	1695.72
234.61	1992.67
234.83	1609.70
235.05	1685.48
235.27	1826.79
235.49	1791.97
235.70	1718.25
235.92	1767.40
236.14	1755.11
236.36	1945.57
236.58	1685.48
236.79	1691.62
237.01	1748.97
237.23	1742.82
237.45	1789.92
237.67	1589.22
237.88	1675.24
238.10	1802.21
238.32	1660.90
238.54	1710.05
238.76	1701.86
238.97	1648.61
239.19	1675.24
239.41	1796.07
239.63	1841.12
239.85	1671.14
240.06	1734.63
240.28	1742.82
240.50	1699.81
240.72	1658.85
240.93	1656.81
241.15	1779.68
241.37	1710.05
241.59	1789.92
241.81	1665.00
242.02	1705.96
242.24	1736.68
242.46	1738.73
242.68	1681.38
242.89	1746.92
243.11	1742.82
243.33	1771.49
243.55	1791.97
243.76	1667.05
243.98	1689.57
244.20	1796.07
244.42	1689.57
244.64	1763.30
244.85	1673.19
245.07	1634.28
245.29	1808.36
245.51	1722.34
245.72	1787.88
245.94	1791.97
246.16	1669.09
246.38	1736.68
246.59	1632.23
246.81	1636.33
247.03	1667.05
247.24	1628.14
247.46	1716.20
247.68	1781.73
247.90	1775.59
248.11	1701.86
248.33	1748.97
248.55	1714.15
248.77	1675.24
248.98	1724.39
249.20	1812.45
249.42	1722.34
249.64	1761.25
249.85	1701.86
250.07	1732.58
250.29	1730.53
250.50	1800.16
250.72	1619.94
250.94	1662.95
251.16	1841.12
251.37	1755.11
251.59	1751.01
251.81	1705.96
252.02	1718.25
252.24	1761.25
252.46	1849.32
252.68	1642.47
252.89	1660.90
253.11	1640.42
253.33	1771.49
253.54	1832.93
253.76	1648.61
253.98	1742.82
254.20	1701.86
254.41	1568.74
254.63	1734.63
254.85	1642.47
255.06	1687.53
255.28	1714.15
255.50	1685.48
255.71	1681.38
255.93	1667.05
256.15	1642.47
256.36	1744.87
256.58	1728.49
256.80	1761.25
257.02	1667.05
257.23	1621.99
257.45	1679.33
257.67	1763.30
257.88	1705.96
258.10	1755.11
258.32	1757.16
258.53	1701.86
258.75	1808.36
258.97	1722.34
259.18	1708.01
259.40	1673.19
259.62	1849.32
259.83	1798.12
260.05	1695.72
260.27	2056.16
260.48	1705.96
260.70	1687.53
260.92	1695.72
261.13	1769.44
261.35	1701.86
261.57	1816.55
261.78	1652.71
262.00	1667.05
262.22	1785.83
262.43	1720.29
262.65	1697.77
262.86	1751.01
263.08	1849.32
263.30	1755.11
263.51	1652.71
263.73	1662.95
263.95	1843.17
264.16	1634.28
264.38	1677.29
264.60	1722.34
264.81	1693.67
265.03	1818.60
265.25	1787.88
265.46	1708.01
265.68	1804.26
265.89	1728.49
266.11	1636.33
266.33	1787.88
266.54	1738.73
266.76	1748.97
266.98	1798.12
267.19	1806.31
267.41	1828.84
267.62	1753.06
267.84	1667.05
268.06	1722.34
268.27	1710.05
268.49	1767.40
268.70	1728.49
268.92	1796.07
269.14	1753.06
269.35	1687.53
269.57	1732.58
269.79	1787.88
270.00	1679.33
270.22	1757.16
270.43	1662.95
270.65	1687.53
270.87	1599.46
271.08	1855.46
271.30	1716.20
271.51	1701.86
271.73	1703.91
271.95	1757.16
272.16	1679.33
272.38	1746.92
272.59	1578.98
272.81	1755.11
273.02	1761.25
273.24	1624.04
273.46	1812.45
273.67	1648.61
273.89	1724.39
274.10	1642.47
274.32	1791.97
274.54	1761.25
274.75	1730.53
274.97	1615.85
275.18	1740.77
275.40	1726.44
275.61	1714.15
275.83	1642.47
276.05	1595.37
276.26	1691.62
276.48	1740.77
276.69	1685.48
276.91	1607.66
277.12	1763.30
277.34	1699.81
277.55	1773.54
277.77	1732.58
277.99	1658.85
278.20	1660.90
278.42	1667.05
278.63	1648.61
278.85	1681.38
279.06	1642.47
279.28	1779.68
279.49	1816.55
279.71	1728.49
279.93	1689.57
280.14	1710.05
280.36	1722.34
280.57	1718.25
280.79	1669.09
281.00	1656.81
281.22	1687.53
281.43	1767.40
281.65	1552.36
281.86	1640.42
282.08	1703.91
282.29	1873.89
282.51	1708.01
282.73	1652.71
282.94	1669.09
283.16	1726.44
283.37	1773.54
283.59	1701.86
283.80	1794.02
284.02	1673.19
284.23	1779.68
284.45	1660.90
284.66	1740.77
284.88	1626.09
285.09	1789.92
285.31	1832.93
285.52	1734.63
285.74	1665.00
285.95	1724.39
286.17	1722.34
286.38	1820.64
286.60	1708.01
286.81	1708.01
287.03	1624.04
287.24	1726.44
287.46	1777.64
287.67	1722.34
287.89	1880.04
288.10	1689.57
288.32	1746.92
288.53	1771.49
288.75	1654.76
288.96	1714.15
289.18	1652.71
289.39	1699.81
289.61	1646.57
289.82	1816.55
290.04	1820.64
290.25	1615.85
290.47	1732.58
290.68	1712.10
290.90	1851.36
291.11	1603.56
291.33	1804.26
291.54	1712.10
291.76	1683.43
291.97	1740.77
292.18	1804.26
292.40	1644.52
292.61	1648.61
292.83	1902.56
293.04	1724.39
293.26	1761.25
293.47	1746.92
293.69	1656.81
293.90	1675.24
294.12	1759.21
294.33	1716.20
294.55	1671.14
294.76	1693.67
294.97	1830.88
295.19	1822.69
295.40	1640.42
295.62	1763.30
295.83	1808.36
296.05	1697.77
296.26	1810.40
296.48	1746.92
296.69	1716.20
296.90	1726.44
297.12	1779.68
297.33	1806.31
297.55	1751.01
297.76	1740.77
297.98	1726.44
298.19	1703.91
298.41	1691.62
298.62	1660.90
298.83	1695.72
299.05	1699.81
299.26	1679.33
299.48	1744.87
299.69	1708.01
299.90	1732.58
300.12	1603.56
300.33	1701.86
300.55	1712.10
300.76	1718.25
300.98	1714.15
301.19	1744.87
301.40	1681.38
301.62	1751.01
301.83	1701.86
302.05	1728.49
302.26	1654.76
302.47	1716.20
302.69	1675.24
302.90	1724.39
303.12	1578.98
303.33	1783.78
303.54	1845.22
303.76	1703.91
303.97	1726.44
304.19	1781.73
304.40	1656.81
304.61	1779.68
304.83	1828.84
305.04	1738.73
305.26	1841.12
305.47	1746.92
305.68	1679.33
305.90	1628.14
306.11	1757.16
306.33	1722.34
306.54	1742.82
306.75	1773.54
306.97	1662.95
307.18	1671.14
307.39	1726.44
307.61	1765.35
307.82	1665.00
308.04	1685.48
308.25	1671.14
308.46	1726.44
308.68	1685.48
308.89	1751.01
309.10	1763.30
309.32	1710.05
309.53	1685.48
309.74	1779.68
309.96	1693.67
310.17	1730.53
310.39	1650.66
310.60	1716.20
310.81	1728.49
311.03	1726.44
311.24	1714.15
311.45	1769.44
311.67	1765.35
311.88	1730.53
312.09	1699.81
312.31	1675.24
312.52	1671.14
312.73	1712.10
312.95	1644.52
313.16	1665.00
313.37	1724.39
313.59	1722.34
313.80	1763.30
314.01	1765.35
314.23	1644.52
314.44	1736.68
314.65	1646.57
314.87	1697.77
315.08	1718.25
315.29	1732.58
315.51	1722.34
315.72	1640.42
315.93	1830.88
316.15	1800.16
316.36	1667.05
316.57	1701.86
316.79	1800.16
317.00	1722.34
317.21	1734.63
317.43	1646.57
317.64	1722.34
317.85	1669.09
318.07	1720.29
318.28	1685.48
318.49	1828.84
318.70	2000.87
318.92	1804.26
319.13	1865.70
319.34	1828.84
319.56	1748.97
319.77	1802.21
319.98	1796.07
320.20	1812.45
320.41	1755.11
320.62	1771.49
320.83	1646.57
321.05	1816.55
321.26	1724.39
321.47	1710.05
321.69	1753.06
321.90	1683.43
322.11	1656.81
322.32	1726.44
322.54	1796.07
322.75	1673.19
322.96	1857.51
323.18	1658.85
323.39	1607.66
323.60	1642.47
323.81	1746.92
324.03	1755.11
324.24	1638.38
324.45	1740.77
324.66	1673.19
324.88	1753.06
325.09	1748.97
325.30	1714.15
325.52	1779.68
325.73	1714.15
325.94	1689.57
326.15	1689.57
326.37	1732.58
326.58	1693.67
326.79	1820.64
327.00	1703.91
327.22	1697.77
327.43	1730.53
327.64	1665.00
327.85	1759.21
328.07	1708.01
328.28	1767.40
328.49	1759.21
328.70	1716.20
328.92	1683.43
329.13	1677.29
329.34	1773.54
329.55	1773.54
329.76	1818.60
329.98	1630.18
330.19	1820.64
330.40	1751.01
330.61	1740.77
330.83	1771.49
331.04	1656.81
331.25	1687.53
331.46	1765.35
331.68	1624.04
331.89	1759.21
332.10	1679.33
332.31	1617.90
332.52	1679.33
332.74	1775.59
332.95	1599.46
333.16	1658.85
333.37	1712.10
333.58	1734.63
333.80	1697.77
334.01	1550.31
334.22	1644.52
334.43	1744.87
334.64	1685.48
334.86	1652.71
335.07	1636.33
335.28	1751.01
335.49	1576.94
335.70	1759.21
335.92	1728.49
336.13	1834.98
336.34	1789.92
336.55	1714.15
336.76	1746.92
336.98	1617.90
337.19	1665.00
337.40	1794.02
337.61	1820.64
337.82	1742.82
338.04	1791.97
338.25	1544.17
338.46	1763.30
338.67	1632.23
338.88	1685.48
339.09	1638.38
339.31	1689.57
339.52	1630.18
339.73	1689.57
339.94	1732.58
340.15	1783.78
340.36	1632.23
340.58	1708.01
340.79	1656.81
341.00	1753.06
341.21	1703.91
341.42	1789.92
341.63	1648.61
341.85	1705.96
342.06	1708.01
342.27	1660.90
342.48	1746.92
342.69	1576.94
342.90	1732.58
343.12	1679.33
343.33	1675.24
343.54	1681.38
343.75	1851.36
343.96	1652.71
344.17	1710.05
344.38	1712.10
344.60	1640.42
344.81	1748.97
345.02	1701.86
345.23	1740.77
345.44	1806.31
345.65	1763.30
345.86	1787.88
346.07	1656.81
346.29	1693.67
346.50	1791.97
346.71	1730.53
346.92	1759.21
347.13	1832.93
347.34	1708.01
347.55	1685.48
347.76	1744.87
347.98	1677.29
348.19	1675.24
348.40	1794.02
348.61	1640.42
348.82	1806.31
349.03	1738.73
349.24	1722.34
349.45	1781.73
349.66	1681.38
349.88	1779.68
350.09	1685.48
350.30	1751.01
350.51	1796.07
350.72	1697.77
350.93	1695.72
351.14	1691.62
351.35	1724.39
351.56	1689.57
351.77	1710.05
351.99	1718.25
352.20	1796.07
352.41	1665.00
352.62	1605.61
352.83	1695.72
353.04	1703.91
353.25	1660.90
353.46	1740.77
353.67	1765.35
353.88	1648.61
354.09	1681.38
354.30	1755.11
354.52	1751.01
354.73	1640.42
354.94	1693.67
355.15	1742.82
355.36	1746.92
355.57	1701.86
355.78	1740.77
355.99	1681.38
356.20	1679.33
356.41	1779.68
356.62	1703.91
356.83	1705.96
357.04	1820.64
357.25	1560.55
357.46	1712.10
357.68	1638.38
357.89	1671.14
358.10	1683.43
358.31	1732.58
358.52	1716.20
358.73	1679.33
358.94	1665.00
359.15	1712.10
359.36	1771.49
359.57	1650.66
359.78	1728.49
359.99	1744.87
360.20	1609.70
360.41	1673.19
360.62	1740.77
360.83	1755.11
361.04	1681.38
361.25	1746.92
361.46	1828.84
361.67	1718.25
361.88	1804.26
362.09	1718.25
362.30	1677.29
362.51	1714.15
362.72	1714.15
362.93	1712.10
363.14	1796.07
363.35	1808.36
363.56	1605.61
363.78	1738.73
363.99	1808.36
364.20	1697.77
364.41	1742.82
364.62	1851.36
364.83	1716.20
365.04	1779.68
365.25	1734.63
365.46	1777.64
365.67	1677.29
365.88	1689.57
366.09	1685.48
366.30	1693.67
366.51	1665.00
366.72	1640.42
366.93	1751.01
367.14	1705.96
367.35	1832.93
367.56	1650.66
367.77	1787.88
367.98	1712.10
368.18	1730.53
368.39	1789.92
368.60	1679.33
368.81	1726.44
369.02	1744.87
369.23	1658.85
369.44	1599.46
369.65	1669.09
369.86	1761.25
370.07	1755.11
370.28	1708.01
370.49	1718.25
370.70	1748.97
370.91	1636.33
371.12	1669.09
371.33	1857.51
371.54	1755.11
371.75	1931.23
371.96	1644.52
372.17	1632.23
372.38	1630.18
372.59	1732.58
372.80	1648.61
373.01	1703.91
373.22	1699.81
373.43	1757.16
373.64	1640.42
373.85	1771.49
374.06	1755.11
374.26	1843.17
374.47	1701.86
374.68	1775.59
374.89	1734.63
375.10	1732.58
375.31	1806.31
375.52	1759.21
375.73	1732.58
375.94	1636.33
376.15	1804.26
376.36	1667.05
376.57	1628.14
376.78	1732.58
376.99	1669.09
377.20	1771.49
377.40	1687.53
377.61	1746.92
377.82	1681.38
378.03	1783.78
378.24	1714.15
378.45	1701.86
378.66	1710.05
378.87	1626.09
379.08	1566.70
379.29	1697.77
379.50	1720.29
379.71	1734.63
379.91	1816.55
380.12	1724.39
380.33	1626.09
380.54	1644.52
380.75	1710.05
380.96	1701.86
381.17	1667.05
381.38	1714.15
381.59	1826.79
381.80	1722.34
382.00	1820.64
382.21	1695.72
382.42	1794.02
382.63	1869.80
382.84	1763.30
383.05	1802.21
383.26	1886.18
383.47	1726.44
383.68	1638.38
383.88	1775.59
384.09	1718.25
384.30	1875.94
384.51	1794.02
384.72	1675.24
384.93	1652.71
385.14	1667.05
385.35	1812.45
385.55	1607.66
385.76	1832.93
385.97	1638.38
386.18	1769.44
386.39	1710.05
386.60	1755.11
386.81	1673.19
387.02	1718.25
387.22	1734.63
387.43	1818.60
387.64	1880.04
387.85	1845.22
388.06	2195.42
388.27	4194.24
388.48	6815.64
388.68	7956.36
388.89	9570.16
389.10	9635.69
389.31	8664.96
389.52	7487.37
389.73	6590.36
389.93	6104.99
390.14	5863.33
390.35	5220.27
390.56	4497.34
390.77	3739.59
390.98	3024.85
391.18	2559.96
391.39	2107.36
391.60	1810.40
391.81	1894.37
392.02	1665.00
392.23	1908.71
392.43	1751.01
392.64	1720.29
392.85	1685.48
393.06	1783.78
393.27	1746.92
393.47	1755.11
393.68	1751.01
393.89	1765.35
394.10	1791.97
394.31	1720.29
394.52	1679.33
394.72	1736.68
394.93	1734.63
395.14	1654.76
395.35	1779.68
395.56	1665.00
395.76	1800.16
395.97	1800.16
396.18	1882.08
396.39	1877.99
396.60	2031.58
396.80	1869.80
397.01	1877.99
397.22	1884.13
397.43	1839.08
397.64	1771.49
397.84	1746.92
398.05	1865.70
398.26	1810.40
398.47	1769.44
398.67	1812.45
398.88	1724.39
399.09	1728.49
399.30	1697.77
399.51	1785.83
399.71	1726.44
399.92	1740.77
400.13	1755.11
400.34	1701.86
400.54	1728.49
400.75	1783.78
400.96	1677.29
401.17	1820.64
401.37	1769.44
401.58	1732.58
401.79	1675.24
402.00	1791.97
402.21	2021.35
402.41	1972.19
402.62	1976.29
402.83	2009.06
403.04	1964.00
403.24	2045.92
403.45	1941.47
403.66	1910.75
403.87	1900.52
404.07	1880.04
404.28	1867.75
404.49	1886.18
404.70	1763.30
404.90	1781.73
405.11	1693.67
405.32	1771.49
405.52	1722.34
405.73	1740.77
405.94	1697.77
406.15	1701.86
406.35	1751.01
406.56	1718.25
406.77	1759.21
406.98	1765.35
407.18	1732.58
407.39	1834.98
407.60	1755.11
407.80	1779.68
408.01	1689.57
408.22	1761.25
408.43	1656.81
408.63	1669.09
408.84	1845.22
409.05	1730.53
409.25	1671.14
409.46	1703.91
409.67	1701.86
409.88	1644.52
410.08	1742.82
410.29	1699.81
410.50	1734.63
410.70	1656.81
410.91	1646.57
411.12	1777.64
411.32	1689.57
411.53	1732.58
411.74	1800.16
411.95	1757.16
412.15	1714.15
412.36	1783.78
412.57	1773.54
412.77	1798.12
412.98	1800.16
413.19	1691.62
413.39	1755.11
413.60	1748.97
413.81	1843.17
414.01	1689.57
414.22	1720.29
414.43	1773.54
414.63	1703.91
414.84	1761.25
415.05	1724.39
415.25	1656.81
415.46	1722.34
415.67	1656.81
415.87	1746.92
416.08	1665.00
416.29	1708.01
416.49	1699.81
416.70	1703.91
416.91	1687.53
417.11	1689.57
417.32	1703.91
417.53	1728.49
417.73	1738.73
417.94	1691.62
418.15	1759.21
418.35	1744.87
418.56	1718.25
418.77	1888.23
418.97	1720.29
419.18	1669.09
419.38	1626.09
419.59	1722.34
419.80	1812.45
420.00	1638.38
420.21	1681.38
420.42	1744.87
420.62	1757.16
420.83	1710.05
421.04	1724.39
421.24	1683.43
421.45	1755.11
421.65	1714.15
421.86	1730.53
422.07	1744.87
422.27	1658.85
422.48	1662.95
422.69	1638.38
422.89	1734.63
423.10	1701.86
423.30	1683.43
423.51	1714.15
423.72	1712.10
423.92	1787.88
424.13	1621.99
424.33	1779.68
424.54	1748.97
424.75	1746.92
424.95	1781.73
425.16	1785.83
425.36	1763.30
425.57	1810.40
425.78	1773.54
425.98	1771.49
426.19	1697.77
426.39	1658.85
426.60	1693.67
426.81	1722.34
427.01	1699.81
427.22	1640.42
427.42	1560.55
427.63	1679.33
427.83	1800.16
428.04	1865.70
428.25	1771.49
428.45	1804.26
428.66	1816.55
428.86	1734.63
429.07	1775.59
429.28	1730.53
429.48	1720.29
429.69	1689.57
429.89	1722.34
430.10	1648.61
430.30	1751.01
430.51	1757.16
430.71	1640.42
430.92	1691.62
431.13	1767.40
431.33	1736.68
431.54	1802.21
431.74	1736.68
431.95	1837.03
432.15	1738.73
432.36	1742.82
432.56	1804.26
432.77	1806.31
432.98	1822.69
433.18	1738.73
433.39	1660.90
433.59	1669.09
433.80	1818.60
434.00	1890.28
434.21	1703.91
434.41	1720.29
434.62	1910.75
434.82	1662.95
435.03	1667.05
435.23	1820.64
435.44	1615.85
435.64	1736.68
435.85	1710.05
436.06	1765.35
436.26	1873.89
436.47	1746.92
436.67	1685.48
436.88	1771.49
437.08	1734.63
437.29	1837.03
437.49	1769.44
437.70	1759.21
437.90	1773.54
438.11	1873.89
438.31	1802.21
438.52	1888.23
438.72	1861.60
438.93	1912.80
439.13	1816.55
439.34	1847.27
439.54	1728.49
439.75	1771.49
439.95	1734.63
440.16	1736.68
440.36	1726.44
440.57	1802.21
440.77	1734.63
440.98	1751.01
441.18	1787.88
441.39	1687.53
441.59	1687.53
441.80	1861.60
442.00	1775.59
442.21	1800.16
442.41	1677.29
442.62	1808.36
442.82	1669.09
443.02	1740.77
443.23	1771.49
443.43	1734.63
443.64	1920.99
443.84	1658.85
444.05	1822.69
444.25	1841.12
444.46	1665.00
444.66	1724.39
444.87	1845.22
445.07	1652.71
445.28	1740.77
445.48	1843.17
445.69	1728.49
445.89	1845.22
446.09	1787.88
446.30	2099.17
446.50	2645.98
446.71	3760.07
446.91	4296.64
447.12	4745.14
447.32	4734.90
447.53	4337.60
447.73	3897.28
447.93	3610.57
448.14	3313.61
448.34	3147.73
448.55	2918.36
448.75	2756.57
448.96	2701.27
449.16	2402.27
449.36	2260.96
449.57	2058.21
449.77	1927.14
449.98	1806.31
450.18	1834.98
450.39	1791.97
450.59	1828.84
450.79	1722.34
451.00	1767.40
451.20	1804.26
451.41	1759.21
451.61	1728.49
451.81	1744.87
452.02	1710.05
452.22	1718.25
452.43	1806.31
452.63	1662.95
