SpectraSuite Data File
++++++++++++++++++++++++++++++++++++
Date: Mon Jun 06 15:23:37 CEST 2016
User: root
Dark Spectrum Present: No
Reference Spectrum Present: No
Number of Sampled Component Spectra: 1
Spectrometers: USB4C02835
Integration Time (usec): 100000 (USB4C02835)
Spectra Averaged: 1 (USB4C02835)
Boxcar Smoothing: 0 (USB4C02835)
Correct for Electrical Dark: No (USB4C02835)
Strobe/Lamp Enabled: No (USB4C02835)
Correct for Detector Non-linearity: No (USB4C02835)
Correct for Stray Light: No (USB4C02835)
Number of Pixels in Processed Spectrum: 3648
>>>>>Begin Processed Spectral Data<<<<<
177.47	1501.16
177.69	1501.16
177.91	1501.16
178.13	1458.15
178.36	1507.30
178.58	1613.80
178.80	1708.01
179.02	1642.47
179.24	1681.38
179.46	1677.29
179.68	1763.30
179.90	1716.20
180.13	1644.52
180.35	1697.77
180.57	1691.62
180.79	1662.95
181.01	1716.20
181.23	1765.35
181.45	1730.53
181.67	1679.33
181.90	1779.68
182.12	1636.33
182.34	1626.09
182.56	1718.25
182.78	1808.36
183.00	1716.20
183.22	1755.11
183.44	1617.90
183.66	1853.41
183.89	1822.69
184.11	1796.07
184.33	1777.64
184.55	1695.72
184.77	1843.17
184.99	1724.39
185.21	1617.90
185.43	1826.79
185.65	1710.05
185.87	1691.62
186.10	1867.75
186.32	1820.64
186.54	1687.53
186.76	1830.88
186.98	1744.87
187.20	1730.53
187.42	1730.53
187.64	1720.29
187.86	1679.33
188.08	1722.34
188.30	1744.87
188.52	1757.16
188.75	1736.68
188.97	1837.03
189.19	1701.86
189.41	1675.24
189.63	1667.05
189.85	1619.94
190.07	1669.09
190.29	1665.00
190.51	1712.10
190.73	1646.57
190.95	1779.68
191.17	1763.30
191.39	1611.75
191.61	1689.57
191.84	1640.42
192.06	1789.92
192.28	1617.90
192.50	1916.90
192.72	1708.01
192.94	1701.86
193.16	1808.36
193.38	1746.92
193.60	1675.24
193.82	1644.52
194.04	1769.44
194.26	1679.33
194.48	1710.05
194.70	1640.42
194.92	1648.61
195.14	1724.39
195.36	1726.44
195.58	1814.50
195.80	1701.86
196.02	1753.06
196.24	1689.57
196.46	1683.43
196.69	1703.91
196.91	1826.79
197.13	1673.19
197.35	1656.81
197.57	1851.36
197.79	1716.20
198.01	1736.68
198.23	1765.35
198.45	1759.21
198.67	1607.66
198.89	1695.72
199.11	1804.26
199.33	1691.62
199.55	1609.70
199.77	1791.97
199.99	1863.65
200.21	1712.10
200.43	1751.01
200.65	1677.29
200.87	1574.89
201.09	1699.81
201.31	1757.16
201.53	1761.25
201.75	1808.36
201.97	1789.92
202.19	1654.76
202.41	1738.73
202.63	1873.89
202.85	1736.68
203.07	1740.77
203.29	1712.10
203.51	1671.14
203.73	1667.05
203.95	1849.32
204.17	1738.73
204.39	1826.79
204.61	1675.24
204.83	1642.47
205.05	1771.49
205.27	1767.40
205.49	1863.65
205.71	1697.77
205.93	1644.52
206.15	1615.85
206.37	1734.63
206.59	1703.91
206.81	1703.91
207.03	1601.51
207.25	1665.00
207.47	1796.07
207.69	1716.20
207.91	1845.22
208.13	1767.40
208.34	1691.62
208.56	1669.09
208.78	1673.19
209.00	1714.15
209.22	1654.76
209.44	1722.34
209.66	1708.01
209.88	1767.40
210.10	1685.48
210.32	1687.53
210.54	1736.68
210.76	1755.11
210.98	1824.74
211.20	1669.09
211.42	1763.30
211.64	1791.97
211.86	1708.01
212.08	1808.36
212.30	1708.01
212.52	1720.29
212.74	1701.86
212.96	1734.63
213.17	1818.60
213.39	1798.12
213.61	1820.64
213.83	1773.54
214.05	1669.09
214.27	1818.60
214.49	1636.33
214.71	1712.10
214.93	1802.21
215.15	1683.43
215.37	1685.48
215.59	1660.90
215.81	1681.38
216.03	1742.82
216.24	1685.48
216.46	1689.57
216.68	1708.01
216.90	1753.06
217.12	1726.44
217.34	1777.64
217.56	1724.39
217.78	1783.78
218.00	1753.06
218.22	1757.16
218.44	1691.62
218.66	1736.68
218.87	1806.31
219.09	1671.14
219.31	1738.73
219.53	1724.39
219.75	1652.71
219.97	1677.29
220.19	1728.49
220.41	1685.48
220.63	1839.08
220.85	1685.48
221.06	1699.81
221.28	1767.40
221.50	1687.53
221.72	1701.86
221.94	1787.88
222.16	1718.25
222.38	1787.88
222.60	1742.82
222.82	1748.97
223.03	1820.64
223.25	1685.48
223.47	1777.64
223.69	1789.92
223.91	1656.81
224.13	1667.05
224.35	1617.90
224.57	1796.07
224.78	1794.02
225.00	1679.33
225.22	1724.39
225.44	1783.78
225.66	1757.16
225.88	1681.38
226.10	1769.44
226.32	1738.73
226.53	1806.31
226.75	1748.97
226.97	1679.33
227.19	1652.71
227.41	1656.81
227.63	1687.53
227.85	1673.19
228.06	1714.15
228.28	1710.05
228.50	1765.35
228.72	1671.14
228.94	1654.76
229.16	1607.66
229.37	1683.43
229.59	1689.57
229.81	1771.49
230.03	1662.95
230.25	1665.00
230.47	1710.05
230.69	1726.44
230.90	1720.29
231.12	1605.61
231.34	1685.48
231.56	1800.16
231.78	1621.99
232.00	1703.91
232.21	1695.72
232.43	1730.53
232.65	1544.17
232.87	1783.78
233.09	1689.57
233.30	1677.29
233.52	1785.83
233.74	1712.10
233.96	1691.62
234.18	1718.25
234.40	1695.72
234.61	1830.88
234.83	1615.85
235.05	1656.81
235.27	1849.32
235.49	1839.08
235.70	1679.33
235.92	1808.36
236.14	1746.92
236.36	1822.69
236.58	1636.33
236.79	1609.70
237.01	1650.66
237.23	1783.78
237.45	1841.12
237.67	1648.61
237.88	1671.14
238.10	1761.25
238.32	1617.90
238.54	1763.30
238.76	1624.04
238.97	1636.33
239.19	1593.32
239.41	1732.58
239.63	1742.82
239.85	1652.71
240.06	1699.81
240.28	1689.57
240.50	1832.93
240.72	1636.33
240.93	1730.53
241.15	1779.68
241.37	1697.77
241.59	1804.26
241.81	1683.43
242.02	1714.15
242.24	1736.68
242.46	1685.48
242.68	1705.96
242.89	1738.73
243.11	1757.16
243.33	1673.19
243.55	1665.00
243.76	1751.01
243.98	1642.47
244.20	1716.20
244.42	1755.11
244.64	1720.29
244.85	1660.90
245.07	1652.71
245.29	1757.16
245.51	1681.38
245.72	1720.29
245.94	1740.77
246.16	1683.43
246.38	1804.26
246.59	1685.48
246.81	1642.47
247.03	1751.01
247.24	1607.66
247.46	1648.61
247.68	1724.39
247.90	1634.28
248.11	1662.95
248.33	1753.06
248.55	1742.82
248.77	1742.82
248.98	1734.63
249.20	1804.26
249.42	1710.05
249.64	1732.58
249.85	1732.58
250.07	1689.57
250.29	1675.24
250.50	1757.16
250.72	1667.05
250.94	1732.58
251.16	1873.89
251.37	1777.64
251.59	1720.29
251.81	1685.48
252.02	1822.69
252.24	1665.00
252.46	1845.22
252.68	1722.34
252.89	1730.53
253.11	1566.70
253.33	1820.64
253.54	1816.55
253.76	1558.50
253.98	1683.43
254.20	1681.38
254.41	1632.23
254.63	1720.29
254.85	1701.86
255.06	1710.05
255.28	1802.21
255.50	1740.77
255.71	1679.33
255.93	1562.60
256.15	1669.09
256.36	1767.40
256.58	1665.00
256.80	1798.12
257.02	1658.85
257.23	1687.53
257.45	1746.92
257.67	1720.29
257.88	1691.62
258.10	1822.69
258.32	1673.19
258.53	1712.10
258.75	1843.17
258.97	1714.15
259.18	1677.29
259.40	1689.57
259.62	1839.08
259.83	1779.68
260.05	1767.40
260.27	1939.43
260.48	1761.25
260.70	1726.44
260.92	1736.68
261.13	1763.30
261.35	1722.34
261.57	1748.97
261.78	1720.29
262.00	1705.96
262.22	1787.88
262.43	1654.76
262.65	1654.76
262.86	1712.10
263.08	1826.79
263.30	1648.61
263.51	1589.22
263.73	1658.85
263.95	1791.97
264.16	1685.48
264.38	1714.15
264.60	1751.01
264.81	1671.14
265.03	1884.13
265.25	1734.63
265.46	1673.19
265.68	1771.49
265.89	1753.06
266.11	1636.33
266.33	1746.92
266.54	1748.97
266.76	1722.34
266.98	1888.23
267.19	1722.34
267.41	1734.63
267.62	1701.86
267.84	1673.19
268.06	1804.26
268.27	1691.62
268.49	1740.77
268.70	1773.54
268.92	1687.53
269.14	1722.34
269.35	1581.03
269.57	1755.11
269.79	1726.44
270.00	1726.44
270.22	1787.88
270.43	1710.05
270.65	1566.70
270.87	1693.67
271.08	1748.97
271.30	1693.67
271.51	1660.90
271.73	1701.86
271.95	1783.78
272.16	1746.92
272.38	1699.81
272.59	1669.09
272.81	1732.58
273.02	1732.58
273.24	1714.15
273.46	1796.07
273.67	1662.95
273.89	1693.67
274.10	1630.18
274.32	1789.92
274.54	1681.38
274.75	1718.25
274.97	1671.14
275.18	1763.30
275.40	1730.53
275.61	1673.19
275.83	1675.24
276.05	1718.25
276.26	1667.05
276.48	1738.73
276.69	1613.80
276.91	1583.08
277.12	1714.15
277.34	1771.49
277.55	1771.49
277.77	1755.11
277.99	1716.20
278.20	1607.66
278.42	1665.00
278.63	1640.42
278.85	1673.19
279.06	1607.66
279.28	1798.12
279.49	1736.68
279.71	1736.68
279.93	1671.14
280.14	1695.72
280.36	1691.62
280.57	1806.31
280.79	1757.16
281.00	1685.48
281.22	1667.05
281.43	1763.30
281.65	1597.42
281.86	1607.66
282.08	1718.25
282.29	1820.64
282.51	1730.53
282.73	1607.66
282.94	1607.66
283.16	1781.73
283.37	1787.88
283.59	1732.58
283.80	1771.49
284.02	1722.34
284.23	1759.21
284.45	1679.33
284.66	1654.76
284.88	1771.49
285.09	1753.06
285.31	1775.59
285.52	1720.29
285.74	1644.52
285.95	1703.91
286.17	1691.62
286.38	1845.22
286.60	1689.57
286.81	1665.00
287.03	1658.85
287.24	1726.44
287.46	1791.97
287.67	1689.57
287.89	1806.31
288.10	1718.25
288.32	1734.63
288.53	1740.77
288.75	1689.57
288.96	1765.35
289.18	1656.81
289.39	1734.63
289.61	1783.78
289.82	1824.74
290.04	1779.68
290.25	1638.38
290.47	1615.85
290.68	1722.34
290.90	1806.31
291.11	1665.00
291.33	1640.42
291.54	1658.85
291.76	1693.67
291.97	1673.19
292.18	1705.96
292.40	1658.85
292.61	1669.09
292.83	1808.36
293.04	1660.90
293.26	1701.86
293.47	1646.57
293.69	1652.71
293.90	1671.14
294.12	1826.79
294.33	1705.96
294.55	1683.43
294.76	1744.87
294.97	1785.83
295.19	1892.32
295.40	1638.38
295.62	1722.34
295.83	1742.82
296.05	1615.85
296.26	1703.91
296.48	1673.19
296.69	1660.90
296.90	1708.01
297.12	1665.00
297.33	1886.18
297.55	1710.05
297.76	1730.53
297.98	1734.63
298.19	1662.95
298.41	1673.19
298.62	1644.52
298.83	1757.16
299.05	1757.16
299.26	1636.33
299.48	1689.57
299.69	1785.83
299.90	1767.40
300.12	1640.42
300.33	1746.92
300.55	1796.07
300.76	1746.92
300.98	1609.70
301.19	1746.92
301.40	1658.85
301.62	1677.29
301.83	1859.56
302.05	1712.10
302.26	1662.95
302.47	1738.73
302.69	1642.47
302.90	1716.20
303.12	1662.95
303.33	1787.88
303.54	1857.51
303.76	1710.05
303.97	1642.47
304.19	1763.30
304.40	1640.42
304.61	1720.29
304.83	1802.21
305.04	1708.01
305.26	1703.91
305.47	1703.91
305.68	1734.63
305.90	1677.29
306.11	1730.53
306.33	1732.58
306.54	1730.53
306.75	1687.53
306.97	1560.55
307.18	1746.92
307.39	1673.19
307.61	1828.84
307.82	1681.38
308.04	1697.77
308.25	1662.95
308.46	1693.67
308.68	1714.15
308.89	1722.34
309.10	1652.71
309.32	1751.01
309.53	1667.05
309.74	1716.20
309.96	1710.05
310.17	1802.21
310.39	1642.47
310.60	1761.25
310.81	1753.06
311.03	1638.38
311.24	1761.25
311.45	1685.48
311.67	1894.37
311.88	1724.39
312.09	1716.20
312.31	1665.00
312.52	1691.62
312.73	1673.19
312.95	1654.76
313.16	1677.29
313.37	1902.56
313.59	1759.21
313.80	1773.54
314.01	1701.86
314.23	1726.44
314.44	1697.77
314.65	1570.79
314.87	1722.34
315.08	1710.05
315.29	1767.40
315.51	1652.71
315.72	1599.46
315.93	1798.12
316.15	1761.25
316.36	1734.63
316.57	1726.44
316.79	1765.35
317.00	1710.05
317.21	1718.25
317.43	1753.06
317.64	1748.97
317.85	1673.19
318.07	1724.39
318.28	1853.41
318.49	1810.40
318.70	1869.80
318.92	1734.63
319.13	1824.74
319.34	1812.45
319.56	1800.16
319.77	1773.54
319.98	1810.40
320.20	1789.92
320.41	1748.97
320.62	1693.67
320.83	1681.38
321.05	1884.13
321.26	1800.16
321.47	1714.15
321.69	1804.26
321.90	1634.28
322.11	1685.48
322.32	1746.92
322.54	1837.03
322.75	1718.25
322.96	1841.12
323.18	1712.10
323.39	1654.76
323.60	1683.43
323.81	1810.40
324.03	1726.44
324.24	1691.62
324.45	1669.09
324.66	1677.29
324.88	1773.54
325.09	1746.92
325.30	1718.25
325.52	1722.34
325.73	1742.82
325.94	1667.05
326.15	1732.58
326.37	1718.25
326.58	1767.40
326.79	1798.12
327.00	1699.81
327.22	1691.62
327.43	1697.77
327.64	1646.57
327.85	1740.77
328.07	1710.05
328.28	1734.63
328.49	1705.96
328.70	1675.24
328.92	1669.09
329.13	1648.61
329.34	1677.29
329.55	1802.21
329.76	1714.15
329.98	1730.53
330.19	1779.68
330.40	1722.34
330.61	1722.34
330.83	1701.86
331.04	1716.20
331.25	1683.43
331.46	1759.21
331.68	1609.70
331.89	1775.59
332.10	1783.78
332.31	1665.00
332.52	1730.53
332.74	1757.16
332.95	1722.34
333.16	1781.73
333.37	1783.78
333.58	1648.61
333.80	1712.10
334.01	1626.09
334.22	1738.73
334.43	1681.38
334.64	1695.72
334.86	1656.81
335.07	1636.33
335.28	1820.64
335.49	1603.56
335.70	1722.34
335.92	1718.25
336.13	1906.66
336.34	1781.73
336.55	1689.57
336.76	1753.06
336.98	1548.26
337.19	1697.77
337.40	1773.54
337.61	1794.02
337.82	1679.33
338.04	1804.26
338.25	1632.23
338.46	1617.90
338.67	1720.29
338.88	1636.33
339.09	1585.13
339.31	1691.62
339.52	1611.75
339.73	1720.29
339.94	1693.67
340.15	1822.69
340.36	1691.62
340.58	1769.44
340.79	1669.09
341.00	1726.44
341.21	1677.29
341.42	1802.21
341.63	1671.14
341.85	1791.97
342.06	1695.72
342.27	1697.77
342.48	1710.05
342.69	1624.04
342.90	1763.30
343.12	1703.91
343.33	1646.57
343.54	1763.30
343.75	1746.92
343.96	1693.67
344.17	1665.00
344.38	1744.87
344.60	1609.70
344.81	1656.81
345.02	1724.39
345.23	1820.64
345.44	1845.22
345.65	1751.01
345.86	1691.62
346.07	1693.67
346.29	1626.09
346.50	1765.35
346.71	1757.16
346.92	1771.49
347.13	1796.07
347.34	1683.43
347.55	1636.33
347.76	1734.63
347.98	1703.91
348.19	1685.48
348.40	1732.58
348.61	1718.25
348.82	1849.32
349.03	1724.39
349.24	1677.29
349.45	1845.22
349.66	1652.71
349.88	1697.77
350.09	1656.81
350.30	1734.63
350.51	1769.44
350.72	1763.30
350.93	1705.96
351.14	1656.81
351.35	1714.15
351.56	1710.05
351.77	1740.77
351.99	1699.81
352.20	1796.07
352.41	1800.16
352.62	1533.93
352.83	1691.62
353.04	1605.61
353.25	1640.42
353.46	1746.92
353.67	1751.01
353.88	1652.71
354.09	1746.92
354.30	1722.34
354.52	1806.31
354.73	1699.81
354.94	1695.72
355.15	1699.81
355.36	1845.22
355.57	1716.20
355.78	1773.54
355.99	1712.10
356.20	1656.81
356.41	1771.49
356.62	1742.82
356.83	1744.87
357.04	1814.50
357.25	1642.47
357.46	1683.43
357.68	1738.73
357.89	1710.05
358.10	1732.58
358.31	1701.86
358.52	1699.81
358.73	1650.66
358.94	1673.19
359.15	1691.62
359.36	1763.30
359.57	1730.53
359.78	1665.00
359.99	1775.59
360.20	1724.39
360.41	1617.90
360.62	1753.06
360.83	1736.68
361.04	1771.49
361.25	1683.43
361.46	1826.79
361.67	1732.58
361.88	1755.11
362.09	1824.74
362.30	1789.92
362.51	1742.82
362.72	1685.48
362.93	1865.70
363.14	1710.05
363.35	1779.68
363.56	1695.72
363.78	1767.40
363.99	1791.97
364.20	1705.96
364.41	1742.82
364.62	1888.23
364.83	1732.58
365.04	1769.44
365.25	1675.24
365.46	1828.84
365.67	1701.86
365.88	1673.19
366.09	1683.43
366.30	1736.68
366.51	1746.92
366.72	1701.86
366.93	1753.06
367.14	1716.20
367.35	1763.30
367.56	1701.86
367.77	1759.21
367.98	1726.44
368.18	1648.61
368.39	1722.34
368.60	1671.14
368.81	1722.34
369.02	1691.62
369.23	1705.96
369.44	1669.09
369.65	1652.71
369.86	1785.83
370.07	1701.86
370.28	1617.90
370.49	1710.05
370.70	1736.68
370.91	1705.96
371.12	1626.09
371.33	1783.78
371.54	1755.11
371.75	1783.78
371.96	1617.90
372.17	1740.77
372.38	1716.20
372.59	1806.31
372.80	1644.52
373.01	1763.30
373.22	1751.01
373.43	1683.43
373.64	1646.57
373.85	1828.84
374.06	1800.16
374.26	1806.31
374.47	1839.08
374.68	1775.59
374.89	1726.44
375.10	1685.48
375.31	1732.58
375.52	1751.01
375.73	1718.25
375.94	1693.67
376.15	1775.59
376.36	1697.77
376.57	1662.95
376.78	1705.96
376.99	1722.34
377.20	1824.74
377.40	1662.95
377.61	1857.51
377.82	1595.37
378.03	1759.21
378.24	1656.81
378.45	1703.91
378.66	1769.44
378.87	1683.43
379.08	1630.18
379.29	1714.15
379.50	1787.88
379.71	1685.48
379.91	1742.82
380.12	1650.66
380.33	1689.57
380.54	1665.00
380.75	1714.15
380.96	1728.49
381.17	1748.97
381.38	1800.16
381.59	1714.15
381.80	1763.30
382.00	1802.21
382.21	1757.16
382.42	1851.36
382.63	1843.17
382.84	1806.31
383.05	1798.12
383.26	1822.69
383.47	1691.62
383.68	1669.09
383.88	1705.96
384.09	1785.83
384.30	1847.27
384.51	1732.58
384.72	1681.38
384.93	1701.86
385.14	1738.73
385.35	1794.02
385.55	1677.29
385.76	1787.88
385.97	1699.81
386.18	1609.70
386.39	1638.38
386.60	1722.34
386.81	1771.49
387.02	1732.58
387.22	1697.77
387.43	1777.64
387.64	1810.40
387.85	1916.90
388.06	2101.22
388.27	4130.75
388.48	6483.87
388.68	7960.45
388.89	9297.78
389.10	9445.23
389.31	8130.44
389.52	7430.03
389.73	6463.39
389.93	6094.76
390.14	5654.44
390.35	5021.62
390.56	4550.59
390.77	3743.69
390.98	2920.40
391.18	2527.19
391.39	2054.11
391.60	1806.31
391.81	1818.60
392.02	1753.06
392.23	1855.46
392.43	1726.44
392.64	1888.23
392.85	1683.43
393.06	1869.80
393.27	1748.97
393.47	1728.49
393.68	1771.49
393.89	1710.05
394.10	1734.63
394.31	1708.01
394.52	1611.75
394.72	1685.48
394.93	1826.79
395.14	1587.18
395.35	1787.88
395.56	1722.34
395.76	1771.49
395.97	1800.16
396.18	1845.22
396.39	1849.32
396.60	2029.54
396.80	1910.75
397.01	1781.73
397.22	1855.46
397.43	1841.12
397.64	1744.87
397.84	1751.01
398.05	1832.93
398.26	1759.21
398.47	1810.40
398.67	1839.08
398.88	1734.63
399.09	1742.82
399.30	1712.10
399.51	1765.35
399.71	1728.49
399.92	1687.53
400.13	1710.05
400.34	1648.61
400.54	1685.48
400.75	1785.83
400.96	1759.21
401.17	1771.49
401.37	1808.36
401.58	1720.29
401.79	1728.49
402.00	1935.33
402.21	1974.24
402.41	1912.80
402.62	1984.48
402.83	1955.81
403.04	2021.35
403.24	2109.41
403.45	1843.17
403.66	1920.99
403.87	1839.08
404.07	1939.43
404.28	1966.05
404.49	1787.88
404.70	1728.49
404.90	1695.72
405.11	1767.40
405.32	1820.64
405.52	1669.09
405.73	1769.44
405.94	1669.09
406.15	1738.73
406.35	1683.43
406.56	1728.49
406.77	1779.68
406.98	1798.12
407.18	1640.42
407.39	1837.03
407.60	1648.61
407.80	1748.97
408.01	1677.29
408.22	1761.25
408.43	1703.91
408.63	1708.01
408.84	1697.77
409.05	1800.16
409.25	1687.53
409.46	1628.14
409.67	1738.73
409.88	1646.57
410.08	1708.01
410.29	1740.77
410.50	1757.16
410.70	1761.25
410.91	1669.09
411.12	1726.44
411.32	1675.24
411.53	1720.29
411.74	1763.30
411.95	1808.36
412.15	1722.34
412.36	1748.97
412.57	1728.49
412.77	1877.99
412.98	1751.01
413.19	1744.87
413.39	1771.49
413.60	1828.84
413.81	1748.97
414.01	1656.81
414.22	1748.97
414.43	1732.58
414.63	1730.53
414.84	1841.12
415.05	1769.44
415.25	1628.14
415.46	1699.81
415.67	1650.66
415.87	1785.83
416.08	1697.77
416.29	1683.43
416.49	1718.25
416.70	1714.15
416.91	1738.73
417.11	1705.96
417.32	1765.35
417.53	1765.35
417.73	1710.05
417.94	1652.71
418.15	1767.40
418.35	1710.05
418.56	1679.33
418.77	1875.94
418.97	1691.62
419.18	1669.09
419.38	1611.75
419.59	1693.67
419.80	1783.78
420.00	1687.53
420.21	1722.34
420.42	1861.60
420.62	1759.21
420.83	1777.64
421.04	1736.68
421.24	1742.82
421.45	1722.34
421.65	1681.38
421.86	1695.72
422.07	1753.06
422.27	1742.82
422.48	1734.63
422.69	1705.96
422.89	1730.53
423.10	1675.24
423.30	1665.00
423.51	1746.92
423.72	1662.95
423.92	1695.72
424.13	1601.51
424.33	1712.10
424.54	1775.59
424.75	1728.49
424.95	1859.56
425.16	1767.40
425.36	1714.15
425.57	1730.53
425.78	1777.64
425.98	1736.68
426.19	1699.81
426.39	1648.61
426.60	1755.11
426.81	1802.21
427.01	1773.54
427.22	1607.66
427.42	1558.50
427.63	1714.15
427.83	1748.97
428.04	1798.12
428.25	1798.12
428.45	1802.21
428.66	1771.49
428.86	1712.10
429.07	1619.94
429.28	1800.16
429.48	1660.90
429.69	1656.81
429.89	1720.29
430.10	1671.14
430.30	1751.01
430.51	1665.00
430.71	1656.81
430.92	1718.25
431.13	1671.14
431.33	1740.77
431.54	1695.72
431.74	1828.84
431.95	1796.07
432.15	1650.66
432.36	1722.34
432.56	1757.16
432.77	1820.64
432.98	1802.21
433.18	1693.67
433.39	1693.67
433.59	1742.82
433.80	1785.83
434.00	1834.98
434.21	1689.57
434.41	1662.95
434.62	1834.98
434.82	1658.85
435.03	1656.81
435.23	1697.77
435.44	1556.46
435.64	1701.86
435.85	1828.84
436.06	1761.25
436.26	1781.73
436.47	1777.64
436.67	1679.33
436.88	1720.29
437.08	1726.44
437.29	1796.07
437.49	1722.34
437.70	1773.54
437.90	1703.91
438.11	1843.17
438.31	1806.31
438.52	1828.84
438.72	1886.18
438.93	1894.37
439.13	1863.65
439.34	1804.26
439.54	1839.08
439.75	1843.17
439.95	1851.36
440.16	1730.53
440.36	1685.48
440.57	1810.40
440.77	1740.77
440.98	1718.25
441.18	1755.11
441.39	1720.29
441.59	1652.71
441.80	1853.41
442.00	1767.40
442.21	1843.17
442.41	1658.85
442.62	1830.88
442.82	1722.34
443.02	1683.43
443.23	1730.53
443.43	1728.49
443.64	1800.16
443.84	1693.67
444.05	1865.70
444.25	1726.44
444.46	1753.06
444.66	1789.92
444.87	1841.12
445.07	1679.33
445.28	1789.92
445.48	1775.59
445.69	1755.11
445.89	1937.38
446.09	1755.11
446.30	2058.21
446.50	2691.03
446.71	3694.54
446.91	4147.14
447.12	4577.21
447.32	4814.77
447.53	4184.00
447.73	3622.86
447.93	3516.36
448.14	3278.80
448.34	3153.87
448.55	2863.06
448.75	2791.38
448.96	2582.49
449.16	2412.51
449.36	2222.05
449.57	2090.98
449.77	1867.75
449.98	1796.07
450.18	1837.03
450.39	1810.40
450.59	1783.78
450.79	1781.73
451.00	1701.86
451.20	1779.68
451.41	1673.19
451.61	1767.40
451.81	1765.35
452.02	1742.82
452.22	1791.97
452.43	1708.01
452.63	1726.44
