SpectraSuite Data File
++++++++++++++++++++++++++++++++++++
Date: Mon Jun 06 13:42:37 CEST 2016
User: root
Dark Spectrum Present: No
Reference Spectrum Present: No
Number of Sampled Component Spectra: 1
Spectrometers: USB4C02835
Integration Time (usec): 100000 (USB4C02835)
Spectra Averaged: 1 (USB4C02835)
Boxcar Smoothing: 0 (USB4C02835)
Correct for Electrical Dark: No (USB4C02835)
Strobe/Lamp Enabled: No (USB4C02835)
Correct for Detector Non-linearity: No (USB4C02835)
Correct for Stray Light: No (USB4C02835)
Number of Pixels in Processed Spectrum: 3648
>>>>>Begin Processed Spectral Data<<<<<
177.47	1472.49
177.69	1472.49
177.91	1472.49
178.13	1427.43
178.36	1460.20
178.58	1654.76
178.80	1753.06
179.02	1640.42
179.24	1611.75
179.46	1673.19
179.68	1742.82
179.90	1673.19
180.13	1689.57
180.35	1648.61
180.57	1695.72
180.79	1720.29
181.01	1742.82
181.23	1714.15
181.45	1757.16
181.67	1744.87
181.90	1748.97
182.12	1691.62
182.34	1642.47
182.56	1697.77
182.78	1687.53
183.00	1718.25
183.22	1677.29
183.44	1619.94
183.66	1843.17
183.89	1869.80
184.11	1714.15
184.33	1779.68
184.55	1761.25
184.77	1791.97
184.99	1714.15
185.21	1691.62
185.43	1779.68
185.65	1708.01
185.87	1751.01
186.10	1832.93
186.32	1830.88
186.54	1742.82
186.76	1779.68
186.98	1763.30
187.20	1658.85
187.42	1630.18
187.64	1683.43
187.86	1730.53
188.08	1779.68
188.30	1703.91
188.52	1800.16
188.75	1705.96
188.97	1712.10
189.19	1685.48
189.41	1669.09
189.63	1800.16
189.85	1660.90
190.07	1617.90
190.29	1617.90
190.51	1738.73
190.73	1615.85
190.95	1800.16
191.17	1650.66
191.39	1593.32
191.61	1656.81
191.84	1628.14
192.06	1722.34
192.28	1599.46
192.50	1873.89
192.72	1701.86
192.94	1724.39
193.16	1734.63
193.38	1751.01
193.60	1787.88
193.82	1681.38
194.04	1742.82
194.26	1724.39
194.48	1734.63
194.70	1673.19
194.92	1740.77
195.14	1708.01
195.36	1642.47
195.58	1681.38
195.80	1662.95
196.02	1665.00
196.24	1677.29
196.46	1697.77
196.69	1660.90
196.91	1849.32
197.13	1720.29
197.35	1687.53
197.57	1753.06
197.79	1699.81
198.01	1787.88
198.23	1675.24
198.45	1724.39
198.67	1636.33
198.89	1708.01
199.11	1705.96
199.33	1576.94
199.55	1587.18
199.77	1748.97
199.99	1724.39
200.21	1658.85
200.43	1720.29
200.65	1621.99
200.87	1505.26
201.09	1708.01
201.31	1665.00
201.53	1669.09
201.75	1681.38
201.97	1724.39
202.19	1697.77
202.41	1699.81
202.63	1816.55
202.85	1703.91
203.07	1705.96
203.29	1751.01
203.51	1554.41
203.73	1626.09
203.95	1890.28
204.17	1673.19
204.39	1775.59
204.61	1740.77
204.83	1656.81
205.05	1759.21
205.27	1765.35
205.49	1769.44
205.71	1681.38
205.93	1644.52
206.15	1621.99
206.37	1718.25
206.59	1781.73
206.81	1665.00
207.03	1685.48
207.25	1583.08
207.47	1820.64
207.69	1708.01
207.91	1724.39
208.13	1777.64
208.34	1650.66
208.56	1656.81
208.78	1699.81
209.00	1695.72
209.22	1660.90
209.44	1724.39
209.66	1658.85
209.88	1718.25
210.10	1640.42
210.32	1669.09
210.54	1818.60
210.76	1724.39
210.98	1742.82
211.20	1609.70
211.42	1726.44
211.64	1775.59
211.86	1734.63
212.08	1751.01
212.30	1734.63
212.52	1654.76
212.74	1751.01
212.96	1660.90
213.17	1742.82
213.39	1767.40
213.61	1699.81
213.83	1660.90
214.05	1603.56
214.27	1744.87
214.49	1683.43
214.71	1626.09
214.93	1740.77
215.15	1703.91
215.37	1753.06
215.59	1648.61
215.81	1693.67
216.03	1722.34
216.24	1693.67
216.46	1638.38
216.68	1744.87
216.90	1665.00
217.12	1718.25
217.34	1679.33
217.56	1783.78
217.78	1775.59
218.00	1742.82
218.22	1642.47
218.44	1677.29
218.66	1736.68
218.87	1830.88
219.09	1734.63
219.31	1685.48
219.53	1648.61
219.75	1689.57
219.97	1636.33
220.19	1742.82
220.41	1724.39
220.63	1716.20
220.85	1662.95
221.06	1660.90
221.28	1759.21
221.50	1710.05
221.72	1671.14
221.94	1693.67
222.16	1613.80
222.38	1732.58
222.60	1730.53
222.82	1691.62
223.03	1804.26
223.25	1648.61
223.47	1767.40
223.69	1785.83
223.91	1720.29
224.13	1732.58
224.35	1689.57
224.57	1791.97
224.78	1759.21
225.00	1611.75
225.22	1644.52
225.44	1611.75
225.66	1751.01
225.88	1693.67
226.10	1757.16
226.32	1736.68
226.53	1720.29
226.75	1687.53
226.97	1705.96
227.19	1644.52
227.41	1656.81
227.63	1679.33
227.85	1603.56
228.06	1697.77
228.28	1732.58
228.50	1732.58
228.72	1675.24
228.94	1722.34
229.16	1566.70
229.37	1640.42
229.59	1681.38
229.81	1779.68
230.03	1658.85
230.25	1611.75
230.47	1617.90
230.69	1564.65
230.90	1720.29
231.12	1669.09
231.34	1697.77
231.56	1724.39
231.78	1681.38
232.00	1658.85
232.21	1722.34
232.43	1673.19
232.65	1615.85
232.87	1726.44
233.09	1599.46
233.30	1708.01
233.52	1755.11
233.74	1646.57
233.96	1669.09
234.18	1769.44
234.40	1658.85
234.61	1740.77
234.83	1644.52
235.05	1578.98
235.27	1841.12
235.49	1773.54
235.70	1679.33
235.92	1798.12
236.14	1695.72
236.36	1794.02
236.58	1591.27
236.79	1763.30
237.01	1654.76
237.23	1683.43
237.45	1820.64
237.67	1626.09
237.88	1769.44
238.10	1837.03
238.32	1636.33
238.54	1757.16
238.76	1701.86
238.97	1726.44
239.19	1636.33
239.41	1746.92
239.63	1685.48
239.85	1619.94
240.06	1701.86
240.28	1697.77
240.50	1757.16
240.72	1683.43
240.93	1662.95
241.15	1820.64
241.37	1660.90
241.59	1783.78
241.81	1667.05
242.02	1656.81
242.24	1710.05
242.46	1751.01
242.68	1621.99
242.89	1691.62
243.11	1775.59
243.33	1697.77
243.55	1710.05
243.76	1742.82
243.98	1632.23
244.20	1761.25
244.42	1705.96
244.64	1689.57
244.85	1671.14
245.07	1628.14
245.29	1619.94
245.51	1626.09
245.72	1714.15
245.94	1763.30
246.16	1759.21
246.38	1746.92
246.59	1673.19
246.81	1728.49
247.03	1728.49
247.24	1626.09
247.46	1628.14
247.68	1703.91
247.90	1681.38
248.11	1638.38
248.33	1677.29
248.55	1710.05
248.77	1669.09
248.98	1705.96
249.20	1767.40
249.42	1732.58
249.64	1759.21
249.85	1703.91
250.07	1578.98
250.29	1751.01
250.50	1755.11
250.72	1634.28
250.94	1728.49
251.16	1769.44
251.37	1730.53
251.59	1755.11
251.81	1742.82
252.02	1834.98
252.24	1677.29
252.46	1699.81
252.68	1642.47
252.89	1628.14
253.11	1591.27
253.33	1763.30
253.54	1751.01
253.76	1619.94
253.98	1740.77
254.20	1662.95
254.41	1662.95
254.63	1714.15
254.85	1646.57
255.06	1705.96
255.28	1755.11
255.50	1763.30
255.71	1644.52
255.93	1550.31
256.15	1712.10
256.36	1785.83
256.58	1648.61
256.80	1671.14
257.02	1669.09
257.23	1634.28
257.45	1693.67
257.67	1728.49
257.88	1667.05
258.10	1685.48
258.32	1638.38
258.53	1714.15
258.75	1785.83
258.97	1675.24
259.18	1689.57
259.40	1681.38
259.62	1798.12
259.83	1740.77
260.05	1744.87
260.27	1970.15
260.48	1744.87
260.70	1660.90
260.92	1679.33
261.13	1734.63
261.35	1746.92
261.57	1685.48
261.78	1593.32
262.00	1574.89
262.22	1744.87
262.43	1574.89
262.65	1685.48
262.86	1687.53
263.08	1724.39
263.30	1685.48
263.51	1591.27
263.73	1656.81
263.95	1712.10
264.16	1654.76
264.38	1650.66
264.60	1738.73
264.81	1650.66
265.03	1679.33
265.25	1781.73
265.46	1705.96
265.68	1716.20
265.89	1718.25
266.11	1591.27
266.33	1722.34
266.54	1769.44
266.76	1705.96
266.98	1722.34
267.19	1789.92
267.41	1705.96
267.62	1755.11
267.84	1605.61
268.06	1697.77
268.27	1732.58
268.49	1746.92
268.70	1701.86
268.92	1722.34
269.14	1626.09
269.35	1656.81
269.57	1642.47
269.79	1734.63
270.00	1697.77
270.22	1759.21
270.43	1675.24
270.65	1497.07
270.87	1687.53
271.08	1693.67
271.30	1722.34
271.51	1673.19
271.73	1775.59
271.95	1757.16
272.16	1697.77
272.38	1804.26
272.59	1615.85
272.81	1771.49
273.02	1699.81
273.24	1796.07
273.46	1775.59
273.67	1667.05
273.89	1593.32
274.10	1691.62
274.32	1773.54
274.54	1652.71
274.75	1669.09
274.97	1689.57
275.18	1728.49
275.40	1697.77
275.61	1665.00
275.83	1699.81
276.05	1681.38
276.26	1646.57
276.48	1710.05
276.69	1701.86
276.91	1671.14
277.12	1714.15
277.34	1716.20
277.55	1701.86
277.77	1753.06
277.99	1611.75
278.20	1667.05
278.42	1617.90
278.63	1617.90
278.85	1607.66
279.06	1636.33
279.28	1701.86
279.49	1748.97
279.71	1732.58
279.93	1660.90
280.14	1640.42
280.36	1654.76
280.57	1794.02
280.79	1757.16
281.00	1628.14
281.22	1687.53
281.43	1810.40
281.65	1562.60
281.86	1603.56
282.08	1748.97
282.29	1791.97
282.51	1615.85
282.73	1744.87
282.94	1621.99
283.16	1724.39
283.37	1761.25
283.59	1759.21
283.80	1689.57
284.02	1751.01
284.23	1751.01
284.45	1640.42
284.66	1648.61
284.88	1619.94
285.09	1697.77
285.31	1714.15
285.52	1679.33
285.74	1630.18
285.95	1736.68
286.17	1748.97
286.38	1718.25
286.60	1634.28
286.81	1601.51
287.03	1675.24
287.24	1716.20
287.46	1740.77
287.67	1789.92
287.89	1798.12
288.10	1720.29
288.32	1722.34
288.53	1824.74
288.75	1701.86
288.96	1734.63
289.18	1705.96
289.39	1673.19
289.61	1765.35
289.82	1763.30
290.04	1781.73
290.25	1587.18
290.47	1716.20
290.68	1769.44
290.90	1705.96
291.11	1587.18
291.33	1722.34
291.54	1630.18
291.76	1660.90
291.97	1613.80
292.18	1787.88
292.40	1691.62
292.61	1626.09
292.83	1771.49
293.04	1724.39
293.26	1679.33
293.47	1701.86
293.69	1685.48
293.90	1742.82
294.12	1787.88
294.33	1742.82
294.55	1607.66
294.76	1791.97
294.97	1726.44
295.19	1847.27
295.40	1658.85
295.62	1673.19
295.83	1691.62
296.05	1679.33
296.26	1712.10
296.48	1671.14
296.69	1718.25
296.90	1734.63
297.12	1763.30
297.33	1826.79
297.55	1720.29
297.76	1759.21
297.98	1798.12
298.19	1628.14
298.41	1669.09
298.62	1697.77
298.83	1759.21
299.05	1695.72
299.26	1660.90
299.48	1601.51
299.69	1798.12
299.90	1718.25
300.12	1662.95
300.33	1759.21
300.55	1708.01
300.76	1705.96
300.98	1621.99
301.19	1710.05
301.40	1689.57
301.62	1675.24
301.83	1734.63
302.05	1767.40
302.26	1714.15
302.47	1724.39
302.69	1654.76
302.90	1691.62
303.12	1593.32
303.33	1804.26
303.54	1802.21
303.76	1708.01
303.97	1761.25
304.19	1753.06
304.40	1658.85
304.61	1632.23
304.83	1789.92
305.04	1726.44
305.26	1679.33
305.47	1642.47
305.68	1654.76
305.90	1675.24
306.11	1753.06
306.33	1656.81
306.54	1656.81
306.75	1677.29
306.97	1609.70
307.18	1662.95
307.39	1693.67
307.61	1720.29
307.82	1626.09
308.04	1763.30
308.25	1640.42
308.46	1718.25
308.68	1701.86
308.89	1669.09
309.10	1742.82
309.32	1720.29
309.53	1656.81
309.74	1736.68
309.96	1683.43
310.17	1759.21
310.39	1681.38
310.60	1722.34
310.81	1656.81
311.03	1642.47
311.24	1738.73
311.45	1677.29
311.67	1757.16
311.88	1726.44
312.09	1697.77
312.31	1667.05
312.52	1720.29
312.73	1708.01
312.95	1595.37
313.16	1640.42
313.37	1740.77
313.59	1710.05
313.80	1820.64
314.01	1701.86
314.23	1652.71
314.44	1669.09
314.65	1603.56
314.87	1648.61
315.08	1683.43
315.29	1683.43
315.51	1621.99
315.72	1609.70
315.93	1830.88
316.15	1839.08
316.36	1689.57
316.57	1701.86
316.79	1697.77
317.00	1669.09
317.21	1712.10
317.43	1648.61
317.64	1685.48
317.85	1609.70
318.07	1601.51
318.28	1718.25
318.49	1804.26
318.70	1902.56
318.92	1830.88
319.13	1902.56
319.34	1841.12
319.56	1738.73
319.77	1785.83
319.98	1738.73
320.20	1701.86
320.41	1789.92
320.62	1691.62
320.83	1656.81
321.05	1908.71
321.26	1693.67
321.47	1724.39
321.69	1738.73
321.90	1654.76
322.11	1656.81
322.32	1705.96
322.54	1746.92
322.75	1755.11
322.96	1904.61
323.18	1695.72
323.39	1621.99
323.60	1667.05
323.81	1806.31
324.03	1712.10
324.24	1665.00
324.45	1685.48
324.66	1695.72
324.88	1722.34
325.09	1722.34
325.30	1673.19
325.52	1658.85
325.73	1703.91
325.94	1697.77
326.15	1574.89
326.37	1718.25
326.58	1662.95
326.79	1726.44
327.00	1626.09
327.22	1710.05
327.43	1679.33
327.64	1665.00
327.85	1695.72
328.07	1728.49
328.28	1814.50
328.49	1726.44
328.70	1714.15
328.92	1740.77
329.13	1695.72
329.34	1755.11
329.55	1853.41
329.76	1796.07
329.98	1687.53
330.19	1802.21
330.40	1755.11
330.61	1734.63
330.83	1665.00
331.04	1652.71
331.25	1626.09
331.46	1675.24
331.68	1662.95
331.89	1695.72
332.10	1681.38
332.31	1644.52
332.52	1734.63
332.74	1708.01
332.95	1656.81
333.16	1710.05
333.37	1677.29
333.58	1658.85
333.80	1722.34
334.01	1581.03
334.22	1697.77
334.43	1683.43
334.64	1691.62
334.86	1632.23
335.07	1607.66
335.28	1730.53
335.49	1613.80
335.70	1685.48
335.92	1738.73
336.13	1892.32
336.34	1746.92
336.55	1746.92
336.76	1693.67
336.98	1638.38
337.19	1662.95
337.40	1796.07
337.61	1916.90
337.82	1665.00
338.04	1738.73
338.25	1615.85
338.46	1671.14
338.67	1652.71
338.88	1654.76
339.09	1617.90
339.31	1660.90
339.52	1652.71
339.73	1671.14
339.94	1689.57
340.15	1775.59
340.36	1699.81
340.58	1701.86
340.79	1669.09
341.00	1765.35
341.21	1673.19
341.42	1751.01
341.63	1693.67
341.85	1710.05
342.06	1701.86
342.27	1619.94
342.48	1791.97
342.69	1636.33
342.90	1687.53
343.12	1665.00
343.33	1734.63
343.54	1718.25
343.75	1779.68
343.96	1722.34
344.17	1632.23
344.38	1679.33
344.60	1630.18
344.81	1683.43
345.02	1697.77
345.23	1722.34
345.44	1765.35
345.65	1746.92
345.86	1605.61
346.07	1601.51
346.29	1609.70
346.50	1710.05
346.71	1722.34
346.92	1771.49
347.13	1812.45
347.34	1701.86
347.55	1675.24
347.76	1699.81
347.98	1613.80
348.19	1669.09
348.40	1787.88
348.61	1712.10
348.82	1779.68
349.03	1714.15
349.24	1703.91
349.45	1771.49
349.66	1681.38
349.88	1681.38
350.09	1640.42
350.30	1763.30
350.51	1802.21
350.72	1660.90
350.93	1656.81
351.14	1619.94
351.35	1738.73
351.56	1658.85
351.77	1714.15
351.99	1615.85
352.20	1806.31
352.41	1738.73
352.62	1562.60
352.83	1710.05
353.04	1705.96
353.25	1685.48
353.46	1644.52
353.67	1742.82
353.88	1550.31
354.09	1746.92
354.30	1697.77
354.52	1712.10
354.73	1632.23
354.94	1626.09
355.15	1697.77
355.36	1771.49
355.57	1636.33
355.78	1748.97
355.99	1746.92
356.20	1691.62
356.41	1722.34
356.62	1697.77
356.83	1744.87
357.04	1806.31
357.25	1593.32
357.46	1658.85
357.68	1593.32
357.89	1759.21
358.10	1658.85
358.31	1683.43
358.52	1671.14
358.73	1705.96
358.94	1611.75
359.15	1640.42
359.36	1728.49
359.57	1748.97
359.78	1730.53
359.99	1681.38
360.20	1640.42
360.41	1728.49
360.62	1654.76
360.83	1677.29
361.04	1673.19
361.25	1791.97
361.46	1804.26
361.67	1728.49
361.88	1724.39
362.09	1785.83
362.30	1695.72
362.51	1742.82
362.72	1808.36
362.93	1669.09
363.14	1689.57
363.35	1785.83
363.56	1656.81
363.78	1671.14
363.99	1787.88
364.20	1636.33
364.41	1755.11
364.62	1742.82
364.83	1734.63
365.04	1677.29
365.25	1705.96
365.46	1808.36
365.67	1738.73
365.88	1601.51
366.09	1683.43
366.30	1648.61
366.51	1611.75
366.72	1636.33
366.93	1695.72
367.14	1710.05
367.35	1816.55
367.56	1712.10
367.77	1828.84
367.98	1675.24
368.18	1685.48
368.39	1705.96
368.60	1615.85
368.81	1781.73
369.02	1699.81
369.23	1660.90
369.44	1638.38
369.65	1669.09
369.86	1650.66
370.07	1755.11
370.28	1656.81
370.49	1724.39
370.70	1699.81
370.91	1636.33
371.12	1593.32
371.33	1726.44
371.54	1705.96
371.75	1777.64
371.96	1585.13
372.17	1740.77
372.38	1601.51
372.59	1730.53
372.80	1644.52
373.01	1683.43
373.22	1673.19
373.43	1742.82
373.64	1683.43
373.85	1777.64
374.06	1789.92
374.26	1773.54
374.47	1687.53
374.68	1761.25
374.89	1658.85
375.10	1662.95
375.31	1705.96
375.52	1773.54
375.73	1724.39
375.94	1673.19
376.15	1798.12
376.36	1736.68
376.57	1669.09
376.78	1665.00
376.99	1759.21
377.20	1751.01
377.40	1722.34
377.61	1757.16
377.82	1615.85
378.03	1834.98
378.24	1753.06
378.45	1699.81
378.66	1773.54
378.87	1593.32
379.08	1599.46
379.29	1689.57
379.50	1781.73
379.71	1697.77
379.91	1779.68
380.12	1593.32
380.33	1673.19
380.54	1640.42
380.75	1703.91
380.96	1740.77
381.17	1740.77
381.38	1744.87
381.59	1673.19
381.80	1732.58
382.00	1853.41
382.21	1720.29
382.42	1890.28
382.63	1832.93
382.84	1718.25
383.05	1818.60
383.26	1787.88
383.47	1738.73
383.68	1769.44
383.88	1738.73
384.09	1783.78
384.30	1769.44
384.51	1779.68
384.72	1681.38
384.93	1710.05
385.14	1662.95
385.35	1738.73
385.55	1589.22
385.76	1820.64
385.97	1748.97
386.18	1656.81
386.39	1699.81
386.60	1714.15
386.81	1675.24
387.02	1650.66
387.22	1652.71
387.43	1732.58
387.64	1751.01
387.85	1882.08
388.06	2234.33
388.27	4335.55
388.48	6733.72
388.68	8226.69
388.89	9471.86
389.10	9820.01
389.31	8611.71
389.52	7706.51
389.73	6801.30
389.93	6322.08
390.14	6061.99
390.35	5302.19
390.56	4548.54
390.77	3968.96
390.98	3028.95
391.18	2574.30
391.39	2133.98
391.60	1832.93
391.81	1757.16
392.02	1757.16
392.23	1808.36
392.43	1687.53
392.64	1710.05
392.85	1753.06
393.06	1751.01
393.27	1638.38
393.47	1640.42
393.68	1691.62
393.89	1724.39
394.10	1751.01
394.31	1681.38
394.52	1636.33
394.72	1667.05
394.93	1779.68
395.14	1662.95
395.35	1689.57
395.56	1720.29
395.76	1720.29
395.97	1712.10
396.18	1828.84
396.39	1781.73
396.60	2052.06
396.80	1814.50
397.01	1808.36
397.22	1808.36
397.43	1794.02
397.64	1757.16
397.84	1824.74
398.05	1824.74
398.26	1724.39
398.47	1810.40
398.67	1781.73
398.88	1699.81
399.09	1779.68
399.30	1714.15
399.51	1718.25
399.71	1644.52
399.92	1712.10
400.13	1703.91
400.34	1665.00
400.54	1736.68
400.75	1787.88
400.96	1660.90
401.17	1851.36
401.37	1687.53
401.58	1728.49
401.79	1695.72
402.00	1791.97
402.21	1947.62
402.41	1945.57
402.62	1964.00
402.83	1886.18
403.04	1943.52
403.24	2054.11
403.45	1832.93
403.66	1927.14
403.87	1841.12
404.07	1912.80
404.28	1861.60
404.49	1818.60
404.70	1763.30
404.90	1712.10
405.11	1691.62
405.32	1748.97
405.52	1648.61
405.73	1634.28
405.94	1650.66
406.15	1671.14
406.35	1710.05
406.56	1767.40
406.77	1757.16
406.98	1791.97
407.18	1718.25
407.39	1775.59
407.60	1724.39
407.80	1677.29
408.01	1671.14
408.22	1732.58
408.43	1621.99
408.63	1738.73
408.84	1787.88
409.05	1714.15
409.25	1732.58
409.46	1679.33
409.67	1656.81
409.88	1652.71
410.08	1746.92
410.29	1658.85
410.50	1679.33
410.70	1732.58
410.91	1632.23
411.12	1742.82
411.32	1691.62
411.53	1632.23
411.74	1814.50
411.95	1759.21
412.15	1742.82
412.36	1722.34
412.57	1769.44
412.77	1814.50
412.98	1665.00
413.19	1738.73
413.39	1794.02
413.60	1800.16
413.81	1781.73
414.01	1675.24
414.22	1765.35
414.43	1753.06
414.63	1705.96
414.84	1783.78
415.05	1742.82
415.25	1630.18
415.46	1726.44
415.67	1693.67
415.87	1701.86
416.08	1771.49
416.29	1665.00
416.49	1708.01
416.70	1681.38
416.91	1669.09
417.11	1697.77
417.32	1724.39
417.53	1777.64
417.73	1771.49
417.94	1658.85
418.15	1710.05
418.35	1677.29
418.56	1703.91
418.77	1927.14
418.97	1662.95
419.18	1675.24
419.38	1581.03
419.59	1662.95
419.80	1779.68
420.00	1630.18
420.21	1771.49
420.42	1730.53
420.62	1708.01
420.83	1648.61
421.04	1615.85
421.24	1628.14
421.45	1763.30
421.65	1662.95
421.86	1656.81
422.07	1695.72
422.27	1697.77
422.48	1650.66
422.69	1660.90
422.89	1646.57
423.10	1636.33
423.30	1607.66
423.51	1669.09
423.72	1742.82
423.92	1720.29
424.13	1624.04
424.33	1607.66
424.54	1673.19
424.75	1695.72
424.95	1820.64
425.16	1800.16
425.36	1619.94
425.57	1814.50
425.78	1740.77
425.98	1718.25
426.19	1761.25
426.39	1656.81
426.60	1738.73
426.81	1730.53
427.01	1748.97
427.22	1705.96
427.42	1603.56
427.63	1615.85
427.83	1755.11
428.04	1771.49
428.25	1730.53
428.45	1765.35
428.66	1701.86
428.86	1714.15
429.07	1697.77
429.28	1693.67
429.48	1624.04
429.69	1642.47
429.89	1714.15
430.10	1667.05
430.30	1697.77
430.51	1744.87
430.71	1697.77
430.92	1730.53
431.13	1671.14
431.33	1703.91
431.54	1671.14
431.74	1779.68
431.95	1851.36
432.15	1642.47
432.36	1783.78
432.56	1773.54
432.77	1794.02
432.98	1738.73
433.18	1695.72
433.39	1718.25
433.59	1665.00
433.80	1773.54
434.00	1884.13
434.21	1624.04
434.41	1619.94
434.62	1877.99
434.82	1638.38
435.03	1687.53
435.23	1734.63
435.44	1665.00
435.64	1759.21
435.85	1722.34
436.06	1789.92
436.26	1734.63
436.47	1624.04
436.67	1712.10
436.88	1695.72
437.08	1697.77
437.29	1753.06
437.49	1730.53
437.70	1753.06
437.90	1687.53
438.11	1880.04
438.31	1744.87
438.52	1816.55
438.72	1783.78
438.93	1908.71
439.13	1734.63
439.34	1730.53
439.54	1738.73
439.75	1791.97
439.95	1808.36
440.16	1730.53
440.36	1673.19
440.57	1832.93
440.77	1638.38
440.98	1701.86
441.18	1787.88
441.39	1730.53
441.59	1648.61
441.80	1816.55
442.00	1769.44
442.21	1796.07
442.41	1685.48
442.62	1736.68
442.82	1632.23
443.02	1699.81
443.23	1730.53
443.43	1753.06
443.64	1849.32
443.84	1667.05
444.05	1808.36
444.25	1781.73
444.46	1681.38
444.66	1722.34
444.87	1787.88
445.07	1654.76
445.28	1697.77
445.48	1744.87
445.69	1769.44
445.89	1861.60
446.09	1779.68
446.30	2027.49
446.50	2715.61
446.71	3807.17
446.91	4360.13
447.12	4816.82
447.32	4896.69
447.53	4294.59
447.73	3962.82
447.93	3629.00
448.14	3321.81
448.34	3250.13
448.55	2879.44
448.75	2918.36
448.96	2582.49
449.16	2387.93
449.36	2338.78
449.57	2088.93
449.77	1910.75
449.98	1814.50
450.18	1777.64
450.39	1781.73
450.59	1763.30
450.79	1691.62
451.00	1687.53
451.20	1796.07
451.41	1705.96
451.61	1722.34
451.81	1796.07
452.02	1710.05
452.22	1726.44
452.43	1658.85
452.63	1673.19
