SpectraSuite Data File
++++++++++++++++++++++++++++++++++++
Date: Mon Jun 06 15:31:57 CEST 2016
User: root
Dark Spectrum Present: No
Reference Spectrum Present: No
Number of Sampled Component Spectra: 1
Spectrometers: USB4C02835
Integration Time (usec): 100000 (USB4C02835)
Spectra Averaged: 1 (USB4C02835)
Boxcar Smoothing: 0 (USB4C02835)
Correct for Electrical Dark: No (USB4C02835)
Strobe/Lamp Enabled: No (USB4C02835)
Correct for Detector Non-linearity: No (USB4C02835)
Correct for Stray Light: No (USB4C02835)
Number of Pixels in Processed Spectrum: 3648
>>>>>Begin Processed Spectral Data<<<<<
177.47	1476.59
177.69	1476.59
177.91	1476.59
178.13	1449.96
178.36	1486.83
178.58	1662.95
178.80	1722.34
179.02	1615.85
179.24	1662.95
179.46	1691.62
179.68	1744.87
179.90	1636.33
180.13	1665.00
180.35	1693.67
180.57	1689.57
180.79	1757.16
181.01	1738.73
181.23	1779.68
181.45	1771.49
181.67	1730.53
181.90	1751.01
182.12	1689.57
182.34	1595.37
182.56	1691.62
182.78	1701.86
183.00	1724.39
183.22	1693.67
183.44	1652.71
183.66	1863.65
183.89	1800.16
184.11	1687.53
184.33	1759.21
184.55	1757.16
184.77	1730.53
184.99	1705.96
185.21	1728.49
185.43	1875.94
185.65	1693.67
185.87	1708.01
186.10	1886.18
186.32	1808.36
186.54	1693.67
186.76	1791.97
186.98	1701.86
187.20	1714.15
187.42	1687.53
187.64	1714.15
187.86	1722.34
188.08	1724.39
188.30	1753.06
188.52	1740.77
188.75	1773.54
188.97	1779.68
189.19	1685.48
189.41	1705.96
189.63	1718.25
189.85	1691.62
190.07	1632.23
190.29	1634.28
190.51	1736.68
190.73	1650.66
190.95	1736.68
191.17	1789.92
191.39	1628.14
191.61	1701.86
191.84	1701.86
192.06	1759.21
192.28	1683.43
192.50	1853.41
192.72	1714.15
192.94	1736.68
193.16	1742.82
193.38	1757.16
193.60	1626.09
193.82	1685.48
194.04	1800.16
194.26	1722.34
194.48	1701.86
194.70	1697.77
194.92	1675.24
195.14	1714.15
195.36	1710.05
195.58	1652.71
195.80	1660.90
196.02	1695.72
196.24	1730.53
196.46	1716.20
196.69	1708.01
196.91	1841.12
197.13	1759.21
197.35	1624.04
197.57	1806.31
197.79	1804.26
198.01	1691.62
198.23	1773.54
198.45	1748.97
198.67	1703.91
198.89	1714.15
199.11	1701.86
199.33	1665.00
199.55	1605.61
199.77	1650.66
199.99	1841.12
200.21	1734.63
200.43	1724.39
200.65	1744.87
200.87	1658.85
201.09	1683.43
201.31	1720.29
201.53	1683.43
201.75	1675.24
201.97	1683.43
202.19	1724.39
202.41	1748.97
202.63	1892.32
202.85	1746.92
203.07	1777.64
203.29	1710.05
203.51	1667.05
203.73	1609.70
203.95	1830.88
204.17	1742.82
204.39	1685.48
204.61	1699.81
204.83	1787.88
205.05	1742.82
205.27	1830.88
205.49	1873.89
205.71	1689.57
205.93	1632.23
206.15	1681.38
206.37	1744.87
206.59	1734.63
206.81	1697.77
207.03	1652.71
207.25	1662.95
207.47	1734.63
207.69	1785.83
207.91	1732.58
208.13	1839.08
208.34	1708.01
208.56	1654.76
208.78	1783.78
209.00	1699.81
209.22	1751.01
209.44	1681.38
209.66	1714.15
209.88	1662.95
210.10	1699.81
210.32	1648.61
210.54	1755.11
210.76	1675.24
210.98	1796.07
211.20	1578.98
211.42	1656.81
211.64	1859.56
211.86	1730.53
212.08	1798.12
212.30	1708.01
212.52	1708.01
212.74	1761.25
212.96	1734.63
213.17	1738.73
213.39	1783.78
213.61	1794.02
213.83	1683.43
214.05	1615.85
214.27	1824.74
214.49	1738.73
214.71	1734.63
214.93	1771.49
215.15	1695.72
215.37	1732.58
215.59	1615.85
215.81	1716.20
216.03	1708.01
216.24	1699.81
216.46	1689.57
216.68	1697.77
216.90	1857.51
217.12	1740.77
217.34	1757.16
217.56	1722.34
217.78	1783.78
218.00	1787.88
218.22	1785.83
218.44	1701.86
218.66	1671.14
218.87	1861.60
219.09	1673.19
219.31	1705.96
219.53	1783.78
219.75	1708.01
219.97	1673.19
220.19	1714.15
220.41	1679.33
220.63	1779.68
220.85	1722.34
221.06	1650.66
221.28	1771.49
221.50	1757.16
221.72	1714.15
221.94	1753.06
222.16	1697.77
222.38	1824.74
222.60	1789.92
222.82	1689.57
223.03	1837.03
223.25	1671.14
223.47	1744.87
223.69	1773.54
223.91	1738.73
224.13	1644.52
224.35	1654.76
224.57	1732.58
224.78	1791.97
225.00	1738.73
225.22	1730.53
225.44	1687.53
225.66	1783.78
225.88	1695.72
226.10	1765.35
226.32	1656.81
226.53	1806.31
226.75	1652.71
226.97	1630.18
227.19	1685.48
227.41	1636.33
227.63	1701.86
227.85	1640.42
228.06	1777.64
228.28	1773.54
228.50	1726.44
228.72	1617.90
228.94	1757.16
229.16	1636.33
229.37	1675.24
229.59	1681.38
229.81	1777.64
230.03	1693.67
230.25	1619.94
230.47	1695.72
230.69	1650.66
230.90	1800.16
231.12	1665.00
231.34	1785.83
231.56	1794.02
231.78	1665.00
232.00	1558.50
232.21	1656.81
232.43	1708.01
232.65	1662.95
232.87	1730.53
233.09	1673.19
233.30	1722.34
233.52	1753.06
233.74	1732.58
233.96	1665.00
234.18	1716.20
234.40	1734.63
234.61	1839.08
234.83	1619.94
235.05	1630.18
235.27	1863.65
235.49	1720.29
235.70	1720.29
235.92	1787.88
236.14	1755.11
236.36	1865.70
236.58	1685.48
236.79	1722.34
237.01	1658.85
237.23	1755.11
237.45	1832.93
237.67	1626.09
237.88	1720.29
238.10	1777.64
238.32	1656.81
238.54	1746.92
238.76	1650.66
238.97	1697.77
239.19	1708.01
239.41	1777.64
239.63	1705.96
239.85	1746.92
240.06	1685.48
240.28	1697.77
240.50	1771.49
240.72	1714.15
240.93	1683.43
241.15	1773.54
241.37	1736.68
241.59	1767.40
241.81	1720.29
242.02	1726.44
242.24	1765.35
242.46	1791.97
242.68	1697.77
242.89	1695.72
243.11	1755.11
243.33	1738.73
243.55	1705.96
243.76	1779.68
243.98	1585.13
244.20	1669.09
244.42	1734.63
244.64	1755.11
244.85	1730.53
245.07	1683.43
245.29	1773.54
245.51	1779.68
245.72	1744.87
245.94	1732.58
246.16	1679.33
246.38	1787.88
246.59	1708.01
246.81	1685.48
247.03	1718.25
247.24	1585.13
247.46	1660.90
247.68	1724.39
247.90	1718.25
248.11	1687.53
248.33	1705.96
248.55	1695.72
248.77	1693.67
248.98	1738.73
249.20	1755.11
249.42	1767.40
249.64	1767.40
249.85	1722.34
250.07	1677.29
250.29	1771.49
250.50	1671.14
250.72	1593.32
250.94	1650.66
251.16	1837.03
251.37	1791.97
251.59	1791.97
251.81	1779.68
252.02	1787.88
252.24	1656.81
252.46	1802.21
252.68	1732.58
252.89	1607.66
253.11	1599.46
253.33	1794.02
253.54	1777.64
253.76	1716.20
253.98	1746.92
254.20	1669.09
254.41	1613.80
254.63	1679.33
254.85	1632.23
255.06	1699.81
255.28	1732.58
255.50	1689.57
255.71	1695.72
255.93	1626.09
256.15	1751.01
256.36	1759.21
256.58	1699.81
256.80	1714.15
257.02	1640.42
257.23	1693.67
257.45	1724.39
257.67	1705.96
257.88	1615.85
258.10	1720.29
258.32	1736.68
258.53	1718.25
258.75	1759.21
258.97	1685.48
259.18	1779.68
259.40	1773.54
259.62	1798.12
259.83	1814.50
260.05	1755.11
260.27	2062.30
260.48	1763.30
260.70	1542.12
260.92	1654.76
261.13	1777.64
261.35	1656.81
261.57	1685.48
261.78	1660.90
262.00	1691.62
262.22	1779.68
262.43	1691.62
262.65	1722.34
262.86	1685.48
263.08	1867.75
263.30	1771.49
263.51	1574.89
263.73	1710.05
263.95	1808.36
264.16	1710.05
264.38	1710.05
264.60	1837.03
264.81	1671.14
265.03	1798.12
265.25	1751.01
265.46	1681.38
265.68	1771.49
265.89	1806.31
266.11	1648.61
266.33	1751.01
266.54	1777.64
266.76	1701.86
266.98	1716.20
267.19	1726.44
267.41	1693.67
267.62	1671.14
267.84	1660.90
268.06	1708.01
268.27	1650.66
268.49	1746.92
268.70	1779.68
268.92	1665.00
269.14	1619.94
269.35	1669.09
269.57	1783.78
269.79	1759.21
270.00	1679.33
270.22	1814.50
270.43	1648.61
270.65	1601.51
270.87	1724.39
271.08	1710.05
271.30	1699.81
271.51	1746.92
271.73	1683.43
271.95	1789.92
272.16	1787.88
272.38	1751.01
272.59	1691.62
272.81	1722.34
273.02	1726.44
273.24	1691.62
273.46	1751.01
273.67	1578.98
273.89	1605.61
274.10	1673.19
274.32	1726.44
274.54	1708.01
274.75	1814.50
274.97	1726.44
275.18	1728.49
275.40	1794.02
275.61	1734.63
275.83	1757.16
276.05	1701.86
276.26	1675.24
276.48	1693.67
276.69	1683.43
276.91	1665.00
277.12	1837.03
277.34	1851.36
277.55	1800.16
277.77	1798.12
277.99	1720.29
278.20	1613.80
278.42	1677.29
278.63	1695.72
278.85	1679.33
279.06	1607.66
279.28	1703.91
279.49	1714.15
279.71	1718.25
279.93	1695.72
280.14	1689.57
280.36	1683.43
280.57	1740.77
280.79	1746.92
281.00	1660.90
281.22	1687.53
281.43	1851.36
281.65	1658.85
281.86	1697.77
282.08	1781.73
282.29	1753.06
282.51	1640.42
282.73	1634.28
282.94	1554.41
283.16	1769.44
283.37	1791.97
283.59	1722.34
283.80	1732.58
284.02	1648.61
284.23	1714.15
284.45	1662.95
284.66	1556.46
284.88	1693.67
285.09	1781.73
285.31	1759.21
285.52	1810.40
285.74	1533.93
285.95	1769.44
286.17	1699.81
286.38	1738.73
286.60	1722.34
286.81	1624.04
287.03	1726.44
287.24	1697.77
287.46	1738.73
287.67	1638.38
287.89	1828.84
288.10	1683.43
288.32	1683.43
288.53	1843.17
288.75	1722.34
288.96	1779.68
289.18	1677.29
289.39	1773.54
289.61	1751.01
289.82	1867.75
290.04	1771.49
290.25	1552.36
290.47	1775.59
290.68	1726.44
290.90	1722.34
291.11	1578.98
291.33	1783.78
291.54	1632.23
291.76	1708.01
291.97	1734.63
292.18	1744.87
292.40	1703.91
292.61	1765.35
292.83	1824.74
293.04	1804.26
293.26	1738.73
293.47	1681.38
293.69	1656.81
293.90	1699.81
294.12	1722.34
294.33	1802.21
294.55	1681.38
294.76	1796.07
294.97	1853.41
295.19	1796.07
295.40	1701.86
295.62	1757.16
295.83	1779.68
296.05	1609.70
296.26	1802.21
296.48	1716.20
296.69	1730.53
296.90	1775.59
297.12	1744.87
297.33	1720.29
297.55	1697.77
297.76	1820.64
297.98	1800.16
298.19	1730.53
298.41	1724.39
298.62	1632.23
298.83	1828.84
299.05	1771.49
299.26	1753.06
299.48	1714.15
299.69	1738.73
299.90	1714.15
300.12	1646.57
300.33	1742.82
300.55	1667.05
300.76	1695.72
300.98	1595.37
301.19	1779.68
301.40	1718.25
301.62	1718.25
301.83	1773.54
302.05	1787.88
302.26	1757.16
302.47	1759.21
302.69	1705.96
302.90	1753.06
303.12	1572.84
303.33	1714.15
303.54	1843.17
303.76	1724.39
303.97	1773.54
304.19	1828.84
304.40	1710.05
304.61	1730.53
304.83	1753.06
305.04	1818.60
305.26	1689.57
305.47	1673.19
305.68	1716.20
305.90	1656.81
306.11	1789.92
306.33	1730.53
306.54	1689.57
306.75	1714.15
306.97	1624.04
307.18	1642.47
307.39	1685.48
307.61	1783.78
307.82	1703.91
308.04	1748.97
308.25	1677.29
308.46	1816.55
308.68	1699.81
308.89	1624.04
309.10	1759.21
309.32	1767.40
309.53	1771.49
309.74	1703.91
309.96	1646.57
310.17	1849.32
310.39	1671.14
310.60	1730.53
310.81	1634.28
311.03	1644.52
311.24	1761.25
311.45	1751.01
311.67	1886.18
311.88	1757.16
312.09	1656.81
312.31	1681.38
312.52	1744.87
312.73	1667.05
312.95	1652.71
313.16	1708.01
313.37	1685.48
313.59	1689.57
313.80	1712.10
314.01	1869.80
314.23	1714.15
314.44	1683.43
314.65	1593.32
314.87	1650.66
315.08	1724.39
315.29	1648.61
315.51	1656.81
315.72	1705.96
315.93	1861.60
316.15	1789.92
316.36	1708.01
316.57	1722.34
316.79	1730.53
317.00	1732.58
317.21	1771.49
317.43	1632.23
317.64	1736.68
317.85	1640.42
318.07	1689.57
318.28	1677.29
318.49	1837.03
318.70	1910.75
318.92	1828.84
319.13	1877.99
319.34	1896.42
319.56	1777.64
319.77	1886.18
319.98	1796.07
320.20	1767.40
320.41	1765.35
320.62	1753.06
320.83	1683.43
321.05	1859.56
321.26	1798.12
321.47	1746.92
321.69	1812.45
321.90	1650.66
322.11	1642.47
322.32	1751.01
322.54	1865.70
322.75	1650.66
322.96	1863.65
323.18	1738.73
323.39	1634.28
323.60	1669.09
323.81	1695.72
324.03	1689.57
324.24	1671.14
324.45	1746.92
324.66	1701.86
324.88	1722.34
325.09	1789.92
325.30	1703.91
325.52	1722.34
325.73	1794.02
325.94	1677.29
326.15	1677.29
326.37	1763.30
326.58	1808.36
326.79	1822.69
327.00	1677.29
327.22	1681.38
327.43	1710.05
327.64	1595.37
327.85	1714.15
328.07	1691.62
328.28	1837.03
328.49	1671.14
328.70	1632.23
328.92	1607.66
329.13	1708.01
329.34	1779.68
329.55	1804.26
329.76	1826.79
329.98	1693.67
330.19	1853.41
330.40	1767.40
330.61	1722.34
330.83	1794.02
331.04	1726.44
331.25	1763.30
331.46	1662.95
331.68	1638.38
331.89	1783.78
332.10	1701.86
332.31	1626.09
332.52	1732.58
332.74	1800.16
332.95	1679.33
333.16	1658.85
333.37	1794.02
333.58	1716.20
333.80	1785.83
334.01	1611.75
334.22	1705.96
334.43	1675.24
334.64	1814.50
334.86	1697.77
335.07	1574.89
335.28	1730.53
335.49	1597.42
335.70	1714.15
335.92	1716.20
336.13	1863.65
336.34	1748.97
336.55	1783.78
336.76	1697.77
336.98	1603.56
337.19	1667.05
337.40	1806.31
337.61	1841.12
337.82	1636.33
338.04	1761.25
338.25	1634.28
338.46	1730.53
338.67	1656.81
338.88	1624.04
339.09	1603.56
339.31	1751.01
339.52	1701.86
339.73	1660.90
339.94	1757.16
340.15	1779.68
340.36	1689.57
340.58	1718.25
340.79	1605.61
341.00	1834.98
341.21	1617.90
341.42	1882.08
341.63	1632.23
341.85	1796.07
342.06	1712.10
342.27	1697.77
342.48	1765.35
342.69	1654.76
342.90	1773.54
343.12	1767.40
343.33	1695.72
343.54	1763.30
343.75	1791.97
343.96	1691.62
344.17	1656.81
344.38	1701.86
344.60	1679.33
344.81	1710.05
345.02	1693.67
345.23	1697.77
345.44	1755.11
345.65	1775.59
345.86	1724.39
346.07	1708.01
346.29	1681.38
346.50	1714.15
346.71	1656.81
346.92	1841.12
347.13	1787.88
347.34	1767.40
347.55	1675.24
347.76	1765.35
347.98	1613.80
348.19	1755.11
348.40	1777.64
348.61	1681.38
348.82	1802.21
349.03	1736.68
349.24	1656.81
349.45	1806.31
349.66	1607.66
349.88	1628.14
350.09	1718.25
350.30	1740.77
350.51	1816.55
350.72	1646.57
350.93	1796.07
351.14	1718.25
351.35	1839.08
351.56	1726.44
351.77	1730.53
351.99	1716.20
352.20	1810.40
352.41	1757.16
352.62	1603.56
352.83	1708.01
353.04	1691.62
353.25	1720.29
353.46	1728.49
353.67	1804.26
353.88	1689.57
354.09	1755.11
354.30	1712.10
354.52	1710.05
354.73	1726.44
354.94	1591.27
355.15	1699.81
355.36	1816.55
355.57	1697.77
355.78	1746.92
355.99	1728.49
356.20	1665.00
356.41	1812.45
356.62	1669.09
356.83	1775.59
357.04	1744.87
357.25	1652.71
357.46	1710.05
357.68	1626.09
357.89	1628.14
358.10	1802.21
358.31	1677.29
358.52	1665.00
358.73	1660.90
358.94	1689.57
359.15	1665.00
359.36	1794.02
359.57	1767.40
359.78	1654.76
359.99	1665.00
360.20	1630.18
360.41	1734.63
360.62	1755.11
360.83	1736.68
361.04	1683.43
361.25	1718.25
361.46	1726.44
361.67	1800.16
361.88	1773.54
362.09	1761.25
362.30	1761.25
362.51	1699.81
362.72	1853.41
362.93	1796.07
363.14	1759.21
363.35	1660.90
363.56	1681.38
363.78	1804.26
363.99	1769.44
364.20	1660.90
364.41	1679.33
364.62	1865.70
364.83	1736.68
365.04	1710.05
365.25	1751.01
365.46	1837.03
365.67	1720.29
365.88	1642.47
366.09	1695.72
366.30	1691.62
366.51	1712.10
366.72	1658.85
366.93	1755.11
367.14	1740.77
367.35	1779.68
367.56	1665.00
367.77	1783.78
367.98	1757.16
368.18	1708.01
368.39	1730.53
368.60	1660.90
368.81	1806.31
369.02	1730.53
369.23	1691.62
369.44	1574.89
369.65	1748.97
369.86	1671.14
370.07	1751.01
370.28	1695.72
370.49	1802.21
370.70	1675.24
370.91	1662.95
371.12	1677.29
371.33	1740.77
371.54	1669.09
371.75	1771.49
371.96	1550.31
372.17	1681.38
372.38	1697.77
372.59	1771.49
372.80	1722.34
373.01	1671.14
373.22	1714.15
373.43	1742.82
373.64	1710.05
373.85	1853.41
374.06	1839.08
374.26	1834.98
374.47	1722.34
374.68	1812.45
374.89	1761.25
375.10	1685.48
375.31	1748.97
375.52	1658.85
375.73	1779.68
375.94	1679.33
376.15	1705.96
376.36	1695.72
376.57	1646.57
376.78	1679.33
376.99	1689.57
377.20	1767.40
377.40	1667.05
377.61	1900.52
377.82	1669.09
378.03	1785.83
378.24	1779.68
378.45	1708.01
378.66	1755.11
378.87	1656.81
379.08	1648.61
379.29	1611.75
379.50	1767.40
379.71	1765.35
379.91	1724.39
380.12	1701.86
380.33	1771.49
380.54	1689.57
380.75	1751.01
380.96	1722.34
381.17	1775.59
381.38	1773.54
381.59	1726.44
381.80	1757.16
382.00	1783.78
382.21	1703.91
382.42	1828.84
382.63	1914.85
382.84	1751.01
383.05	1791.97
383.26	1808.36
383.47	1798.12
383.68	1759.21
383.88	1683.43
384.09	1726.44
384.30	1845.22
384.51	1806.31
384.72	1630.18
384.93	1632.23
385.14	1693.67
385.35	1851.36
385.55	1660.90
385.76	1830.88
385.97	1722.34
386.18	1597.42
386.39	1679.33
386.60	1669.09
386.81	1720.29
387.02	1669.09
387.22	1638.38
387.43	1759.21
387.64	1787.88
387.85	1869.80
388.06	2201.57
388.27	4323.26
388.48	6647.71
388.68	7935.88
388.89	9482.10
389.10	9752.43
389.31	8511.36
389.52	7522.19
389.73	6594.46
389.93	6254.50
390.14	5695.40
390.35	5031.86
390.56	4517.82
390.77	3772.36
390.98	2936.79
391.18	2492.38
391.39	2176.99
391.60	1791.97
391.81	1767.40
392.02	1693.67
392.23	1837.03
392.43	1734.63
392.64	1826.79
392.85	1728.49
393.06	1804.26
393.27	1736.68
393.47	1783.78
393.68	1703.91
393.89	1720.29
394.10	1775.59
394.31	1695.72
394.52	1714.15
394.72	1634.28
394.93	1800.16
395.14	1624.04
395.35	1650.66
395.56	1683.43
395.76	1839.08
395.97	1820.64
396.18	1849.32
396.39	1861.60
396.60	1976.29
396.80	1939.43
397.01	1871.84
397.22	1791.97
397.43	1843.17
397.64	1714.15
397.84	1812.45
398.05	1875.94
398.26	1718.25
398.47	1824.74
398.67	1775.59
398.88	1779.68
399.09	1757.16
399.30	1761.25
399.51	1789.92
399.71	1685.48
399.92	1744.87
400.13	1789.92
400.34	1656.81
400.54	1679.33
400.75	1705.96
400.96	1705.96
401.17	1849.32
401.37	1773.54
401.58	1730.53
401.79	1779.68
402.00	1855.46
402.21	2021.35
402.41	1935.33
402.62	1957.86
402.83	1939.43
403.04	1943.52
403.24	2056.16
403.45	1910.75
403.66	1882.08
403.87	1841.12
404.07	1873.89
404.28	1976.29
404.49	1894.37
404.70	1834.98
404.90	1765.35
405.11	1800.16
405.32	1818.60
405.52	1673.19
405.73	1785.83
405.94	1728.49
406.15	1771.49
406.35	1777.64
406.56	1834.98
406.77	1703.91
406.98	1726.44
407.18	1693.67
407.39	1714.15
407.60	1660.90
407.80	1773.54
408.01	1652.71
408.22	1816.55
408.43	1738.73
408.63	1787.88
408.84	1798.12
409.05	1806.31
409.25	1705.96
409.46	1708.01
409.67	1648.61
409.88	1638.38
410.08	1726.44
410.29	1757.16
410.50	1787.88
410.70	1722.34
410.91	1687.53
411.12	1769.44
411.32	1740.77
411.53	1720.29
411.74	1777.64
411.95	1814.50
412.15	1742.82
412.36	1867.75
412.57	1748.97
412.77	1755.11
412.98	1796.07
413.19	1689.57
413.39	1806.31
413.60	1708.01
413.81	1800.16
414.01	1691.62
414.22	1748.97
414.43	1699.81
414.63	1794.02
414.84	1822.69
415.05	1804.26
415.25	1632.23
415.46	1787.88
415.67	1691.62
415.87	1726.44
416.08	1753.06
416.29	1681.38
416.49	1734.63
416.70	1673.19
416.91	1701.86
417.11	1679.33
417.32	1714.15
417.53	1802.21
417.73	1685.48
417.94	1703.91
418.15	1748.97
418.35	1669.09
418.56	1654.76
418.77	1847.27
418.97	1679.33
419.18	1763.30
419.38	1603.56
419.59	1683.43
419.80	1804.26
420.00	1621.99
420.21	1695.72
420.42	1818.60
420.62	1789.92
420.83	1603.56
421.04	1724.39
421.24	1712.10
421.45	1730.53
421.65	1769.44
421.86	1732.58
422.07	1740.77
422.27	1748.97
422.48	1728.49
422.69	1730.53
422.89	1765.35
423.10	1658.85
423.30	1732.58
423.51	1703.91
423.72	1796.07
423.92	1761.25
424.13	1697.77
424.33	1726.44
424.54	1810.40
424.75	1697.77
424.95	1781.73
425.16	1699.81
425.36	1716.20
425.57	1871.84
425.78	1705.96
425.98	1761.25
426.19	1697.77
426.39	1673.19
426.60	1660.90
426.81	1853.41
427.01	1640.42
427.22	1638.38
427.42	1597.42
427.63	1716.20
427.83	1791.97
428.04	1834.98
428.25	1796.07
428.45	1787.88
428.66	1779.68
428.86	1763.30
429.07	1687.53
429.28	1714.15
429.48	1689.57
429.69	1708.01
429.89	1701.86
430.10	1681.38
430.30	1755.11
430.51	1673.19
430.71	1728.49
430.92	1685.48
431.13	1624.04
431.33	1697.77
431.54	1777.64
431.74	1896.42
431.95	1746.92
432.15	1708.01
432.36	1646.57
432.56	1755.11
432.77	1861.60
432.98	1812.45
433.18	1730.53
433.39	1703.91
433.59	1742.82
433.80	1820.64
434.00	1906.66
434.21	1669.09
434.41	1650.66
434.62	1943.52
434.82	1613.80
435.03	1648.61
435.23	1761.25
435.44	1619.94
435.64	1736.68
435.85	1726.44
436.06	1767.40
436.26	1765.35
436.47	1681.38
436.67	1675.24
436.88	1699.81
437.08	1738.73
437.29	1841.12
437.49	1732.58
437.70	1722.34
437.90	1691.62
438.11	1845.22
438.31	1877.99
438.52	1869.80
438.72	1843.17
438.93	1920.99
439.13	1834.98
439.34	1957.86
439.54	1734.63
439.75	1759.21
439.95	1826.79
440.16	1732.58
440.36	1728.49
440.57	1716.20
440.77	1791.97
440.98	1740.77
441.18	1798.12
441.39	1703.91
441.59	1691.62
441.80	1812.45
442.00	1724.39
442.21	1806.31
442.41	1683.43
442.62	1757.16
442.82	1734.63
443.02	1798.12
443.23	1777.64
443.43	1740.77
443.64	1808.36
443.84	1677.29
444.05	1798.12
444.25	1771.49
444.46	1769.44
444.66	1751.01
444.87	1806.31
445.07	1691.62
445.28	1759.21
445.48	1785.83
445.69	1810.40
445.89	1857.51
446.09	1738.73
446.30	2062.30
446.50	2713.56
446.71	3641.29
446.91	4382.65
447.12	4739.00
447.32	4908.98
447.53	4323.26
447.73	3866.56
447.93	3573.71
448.14	3272.65
448.34	3178.45
448.55	2959.31
448.75	2842.58
448.96	2707.41
449.16	2367.45
449.36	2203.61
449.57	1974.24
449.77	1916.90
449.98	1810.40
450.18	1759.21
450.39	1847.27
450.59	1806.31
450.79	1777.64
451.00	1718.25
451.20	1892.32
451.41	1697.77
451.61	1796.07
451.81	1773.54
452.02	1689.57
452.22	1730.53
452.43	1785.83
452.63	1675.24
