SpectraSuite Data File
++++++++++++++++++++++++++++++++++++
Date: Mon Jun 06 12:12:57 CEST 2016
User: root
Dark Spectrum Present: No
Reference Spectrum Present: No
Number of Sampled Component Spectra: 1
Spectrometers: USB4C02835
Integration Time (usec): 100000 (USB4C02835)
Spectra Averaged: 1 (USB4C02835)
Boxcar Smoothing: 0 (USB4C02835)
Correct for Electrical Dark: No (USB4C02835)
Strobe/Lamp Enabled: No (USB4C02835)
Correct for Detector Non-linearity: No (USB4C02835)
Correct for Stray Light: No (USB4C02835)
Number of Pixels in Processed Spectrum: 3648
>>>>>Begin Processed Spectral Data<<<<<
177.47	1464.30
177.69	1464.30
177.91	1464.30
178.13	1460.20
178.36	1486.83
178.58	1656.81
178.80	1609.70
179.02	1617.90
179.24	1560.55
179.46	1669.09
179.68	1751.01
179.90	1687.53
180.13	1703.91
180.35	1710.05
180.57	1699.81
180.79	1718.25
181.01	1697.77
181.23	1689.57
181.45	1755.11
181.67	1728.49
181.90	1724.39
182.12	1632.23
182.34	1648.61
182.56	1748.97
182.78	1710.05
183.00	1687.53
183.22	1716.20
183.44	1611.75
183.66	1828.84
183.89	1808.36
184.11	1640.42
184.33	1710.05
184.55	1705.96
184.77	1785.83
184.99	1699.81
185.21	1732.58
185.43	1845.22
185.65	1642.47
185.87	1722.34
186.10	1796.07
186.32	1820.64
186.54	1699.81
186.76	1722.34
186.98	1703.91
187.20	1712.10
187.42	1669.09
187.64	1765.35
187.86	1730.53
188.08	1753.06
188.30	1675.24
188.52	1679.33
188.75	1789.92
188.97	1742.82
189.19	1669.09
189.41	1693.67
189.63	1712.10
189.85	1671.14
190.07	1624.04
190.29	1556.46
190.51	1697.77
190.73	1671.14
190.95	1710.05
191.17	1699.81
191.39	1554.41
191.61	1708.01
191.84	1669.09
192.06	1675.24
192.28	1550.31
192.50	1890.28
192.72	1734.63
192.94	1691.62
193.16	1726.44
193.38	1738.73
193.60	1687.53
193.82	1648.61
194.04	1771.49
194.26	1738.73
194.48	1683.43
194.70	1667.05
194.92	1648.61
195.14	1738.73
195.36	1605.61
195.58	1667.05
195.80	1689.57
196.02	1619.94
196.24	1697.77
196.46	1718.25
196.69	1626.09
196.91	1806.31
197.13	1638.38
197.35	1751.01
197.57	1802.21
197.79	1701.86
198.01	1662.95
198.23	1701.86
198.45	1685.48
198.67	1677.29
198.89	1693.67
199.11	1710.05
199.33	1708.01
199.55	1566.70
199.77	1665.00
199.99	1783.78
200.21	1714.15
200.43	1722.34
200.65	1667.05
200.87	1609.70
201.09	1748.97
201.31	1658.85
201.53	1753.06
201.75	1673.19
201.97	1691.62
202.19	1759.21
202.41	1820.64
202.63	1832.93
202.85	1705.96
203.07	1685.48
203.29	1675.24
203.51	1605.61
203.73	1693.67
203.95	1855.46
204.17	1724.39
204.39	1744.87
204.61	1650.66
204.83	1675.24
205.05	1679.33
205.27	1712.10
205.49	1796.07
205.71	1695.72
205.93	1652.71
206.15	1638.38
206.37	1652.71
206.59	1675.24
206.81	1677.29
207.03	1675.24
207.25	1617.90
207.47	1748.97
207.69	1611.75
207.91	1771.49
208.13	1691.62
208.34	1708.01
208.56	1595.37
208.78	1656.81
209.00	1689.57
209.22	1681.38
209.44	1634.28
209.66	1691.62
209.88	1640.42
210.10	1767.40
210.32	1658.85
210.54	1748.97
210.76	1742.82
210.98	1751.01
211.20	1542.12
211.42	1699.81
211.64	1714.15
211.86	1748.97
212.08	1675.24
212.30	1712.10
212.52	1703.91
212.74	1689.57
212.96	1658.85
213.17	1732.58
213.39	1718.25
213.61	1771.49
213.83	1828.84
214.05	1652.71
214.27	1728.49
214.49	1683.43
214.71	1630.18
214.93	1703.91
215.15	1730.53
215.37	1730.53
215.59	1662.95
215.81	1800.16
216.03	1708.01
216.24	1701.86
216.46	1683.43
216.68	1703.91
216.90	1693.67
217.12	1730.53
217.34	1691.62
217.56	1759.21
217.78	1822.69
218.00	1714.15
218.22	1679.33
218.44	1740.77
218.66	1685.48
218.87	1769.44
219.09	1626.09
219.31	1689.57
219.53	1650.66
219.75	1691.62
219.97	1751.01
220.19	1714.15
220.41	1679.33
220.63	1787.88
220.85	1697.77
221.06	1652.71
221.28	1744.87
221.50	1769.44
221.72	1695.72
221.94	1669.09
222.16	1705.96
222.38	1726.44
222.60	1722.34
222.82	1628.14
223.03	1701.86
223.25	1730.53
223.47	1716.20
223.69	1701.86
223.91	1605.61
224.13	1632.23
224.35	1689.57
224.57	1753.06
224.78	1665.00
225.00	1650.66
225.22	1652.71
225.44	1777.64
225.66	1705.96
225.88	1640.42
226.10	1732.58
226.32	1687.53
226.53	1773.54
226.75	1730.53
226.97	1621.99
227.19	1658.85
227.41	1617.90
227.63	1677.29
227.85	1597.42
228.06	1798.12
228.28	1658.85
228.50	1759.21
228.72	1628.14
228.94	1685.48
229.16	1656.81
229.37	1650.66
229.59	1632.23
229.81	1685.48
230.03	1669.09
230.25	1615.85
230.47	1705.96
230.69	1587.18
230.90	1683.43
231.12	1665.00
231.34	1740.77
231.56	1757.16
231.78	1603.56
232.00	1697.77
232.21	1748.97
232.43	1648.61
232.65	1648.61
232.87	1689.57
233.09	1636.33
233.30	1591.27
233.52	1755.11
233.74	1769.44
233.96	1734.63
234.18	1701.86
234.40	1652.71
234.61	1886.18
234.83	1679.33
235.05	1648.61
235.27	1837.03
235.49	1751.01
235.70	1785.83
235.92	1736.68
236.14	1683.43
236.36	1773.54
236.58	1630.18
236.79	1638.38
237.01	1685.48
237.23	1685.48
237.45	1763.30
237.67	1636.33
237.88	1626.09
238.10	1791.97
238.32	1574.89
238.54	1640.42
238.76	1724.39
238.97	1705.96
239.19	1572.84
239.41	1742.82
239.63	1761.25
239.85	1613.80
240.06	1703.91
240.28	1736.68
240.50	1734.63
240.72	1742.82
240.93	1681.38
241.15	1738.73
241.37	1701.86
241.59	1699.81
241.81	1656.81
242.02	1667.05
242.24	1724.39
242.46	1673.19
242.68	1648.61
242.89	1728.49
243.11	1703.91
243.33	1742.82
243.55	1710.05
243.76	1673.19
243.98	1673.19
244.20	1722.34
244.42	1753.06
244.64	1665.00
244.85	1632.23
245.07	1615.85
245.29	1740.77
245.51	1697.77
245.72	1691.62
245.94	1794.02
246.16	1648.61
246.38	1738.73
246.59	1705.96
246.81	1650.66
247.03	1722.34
247.24	1605.61
247.46	1722.34
247.68	1636.33
247.90	1583.08
248.11	1679.33
248.33	1769.44
248.55	1677.29
248.77	1705.96
248.98	1763.30
249.20	1759.21
249.42	1673.19
249.64	1712.10
249.85	1722.34
250.07	1658.85
250.29	1683.43
250.50	1705.96
250.72	1632.23
250.94	1742.82
251.16	1740.77
251.37	1798.12
251.59	1667.05
251.81	1665.00
252.02	1798.12
252.24	1677.29
252.46	1759.21
252.68	1673.19
252.89	1593.32
253.11	1630.18
253.33	1837.03
253.54	1771.49
253.76	1640.42
253.98	1656.81
254.20	1744.87
254.41	1632.23
254.63	1691.62
254.85	1621.99
255.06	1708.01
255.28	1699.81
255.50	1683.43
255.71	1703.91
255.93	1626.09
256.15	1685.48
256.36	1699.81
256.58	1628.14
256.80	1714.15
257.02	1654.76
257.23	1677.29
257.45	1673.19
257.67	1718.25
257.88	1662.95
258.10	1734.63
258.32	1695.72
258.53	1662.95
258.75	1720.29
258.97	1636.33
259.18	1660.90
259.40	1699.81
259.62	1798.12
259.83	1726.44
260.05	1730.53
260.27	2060.26
260.48	1716.20
260.70	1665.00
260.92	1699.81
261.13	1642.47
261.35	1699.81
261.57	1665.00
261.78	1599.46
262.00	1607.66
262.22	1705.96
262.43	1603.56
262.65	1705.96
262.86	1677.29
263.08	1755.11
263.30	1705.96
263.51	1570.79
263.73	1609.70
263.95	1810.40
264.16	1689.57
264.38	1632.23
264.60	1730.53
264.81	1671.14
265.03	1751.01
265.25	1787.88
265.46	1615.85
265.68	1779.68
265.89	1691.62
266.11	1611.75
266.33	1724.39
266.54	1820.64
266.76	1681.38
266.98	1730.53
267.19	1781.73
267.41	1689.57
267.62	1708.01
267.84	1640.42
268.06	1693.67
268.27	1718.25
268.49	1667.05
268.70	1705.96
268.92	1652.71
269.14	1640.42
269.35	1689.57
269.57	1636.33
269.79	1689.57
270.00	1607.66
270.22	1724.39
270.43	1636.33
270.65	1566.70
270.87	1708.01
271.08	1724.39
271.30	1789.92
271.51	1652.71
271.73	1779.68
271.95	1818.60
272.16	1761.25
272.38	1697.77
272.59	1595.37
272.81	1669.09
273.02	1687.53
273.24	1738.73
273.46	1708.01
273.67	1650.66
273.89	1636.33
274.10	1607.66
274.32	1757.16
274.54	1671.14
274.75	1679.33
274.97	1714.15
275.18	1724.39
275.40	1773.54
275.61	1671.14
275.83	1638.38
276.05	1619.94
276.26	1716.20
276.48	1728.49
276.69	1662.95
276.91	1607.66
277.12	1728.49
277.34	1812.45
277.55	1763.30
277.77	1708.01
277.99	1660.90
278.20	1683.43
278.42	1603.56
278.63	1658.85
278.85	1628.14
279.06	1656.81
279.28	1787.88
279.49	1763.30
279.71	1708.01
279.93	1683.43
280.14	1644.52
280.36	1728.49
280.57	1763.30
280.79	1746.92
281.00	1564.65
281.22	1642.47
281.43	1742.82
281.65	1632.23
281.86	1619.94
282.08	1687.53
282.29	1798.12
282.51	1656.81
282.73	1656.81
282.94	1556.46
283.16	1626.09
283.37	1757.16
283.59	1753.06
283.80	1708.01
284.02	1619.94
284.23	1753.06
284.45	1710.05
284.66	1652.71
284.88	1597.42
285.09	1669.09
285.31	1736.68
285.52	1742.82
285.74	1630.18
285.95	1656.81
286.17	1687.53
286.38	1665.00
286.60	1658.85
286.81	1646.57
287.03	1660.90
287.24	1673.19
287.46	1732.58
287.67	1673.19
287.89	1892.32
288.10	1671.14
288.32	1685.48
288.53	1699.81
288.75	1718.25
288.96	1748.97
289.18	1632.23
289.39	1689.57
289.61	1816.55
289.82	1800.16
290.04	1738.73
290.25	1665.00
290.47	1712.10
290.68	1648.61
290.90	1753.06
291.11	1583.08
291.33	1738.73
291.54	1650.66
291.76	1687.53
291.97	1708.01
292.18	1728.49
292.40	1644.52
292.61	1681.38
292.83	1796.07
293.04	1757.16
293.26	1767.40
293.47	1673.19
293.69	1591.27
293.90	1689.57
294.12	1785.83
294.33	1691.62
294.55	1685.48
294.76	1736.68
294.97	1789.92
295.19	1769.44
295.40	1675.24
295.62	1710.05
295.83	1736.68
296.05	1665.00
296.26	1755.11
296.48	1652.71
296.69	1640.42
296.90	1701.86
297.12	1701.86
297.33	1732.58
297.55	1677.29
297.76	1714.15
297.98	1703.91
298.19	1654.76
298.41	1673.19
298.62	1619.94
298.83	1744.87
299.05	1640.42
299.26	1636.33
299.48	1640.42
299.69	1755.11
299.90	1720.29
300.12	1744.87
300.33	1699.81
300.55	1722.34
300.76	1708.01
300.98	1681.38
301.19	1615.85
301.40	1640.42
301.62	1691.62
301.83	1685.48
302.05	1732.58
302.26	1658.85
302.47	1695.72
302.69	1677.29
302.90	1660.90
303.12	1644.52
303.33	1665.00
303.54	1718.25
303.76	1626.09
303.97	1738.73
304.19	1820.64
304.40	1599.46
304.61	1718.25
304.83	1847.27
305.04	1763.30
305.26	1667.05
305.47	1673.19
305.68	1699.81
305.90	1652.71
306.11	1705.96
306.33	1712.10
306.54	1648.61
306.75	1597.42
306.97	1597.42
307.18	1611.75
307.39	1581.03
307.61	1738.73
307.82	1675.24
308.04	1703.91
308.25	1710.05
308.46	1740.77
308.68	1648.61
308.89	1710.05
309.10	1740.77
309.32	1718.25
309.53	1798.12
309.74	1724.39
309.96	1648.61
310.17	1757.16
310.39	1738.73
310.60	1705.96
310.81	1714.15
311.03	1626.09
311.24	1763.30
311.45	1718.25
311.67	1818.60
311.88	1748.97
312.09	1681.38
312.31	1650.66
312.52	1710.05
312.73	1724.39
312.95	1638.38
313.16	1648.61
313.37	1718.25
313.59	1710.05
313.80	1712.10
314.01	1894.37
314.23	1646.57
314.44	1744.87
314.65	1660.90
314.87	1638.38
315.08	1714.15
315.29	1658.85
315.51	1716.20
315.72	1640.42
315.93	1785.83
316.15	1654.76
316.36	1730.53
316.57	1634.28
316.79	1789.92
317.00	1740.77
317.21	1687.53
317.43	1656.81
317.64	1646.57
317.85	1617.90
318.07	1751.01
318.28	1697.77
318.49	1720.29
318.70	1877.99
318.92	1759.21
319.13	1816.55
319.34	1841.12
319.56	1779.68
319.77	1783.78
319.98	1791.97
320.20	1742.82
320.41	1755.11
320.62	1691.62
320.83	1718.25
321.05	1855.46
321.26	1800.16
321.47	1685.48
321.69	1771.49
321.90	1591.27
322.11	1656.81
322.32	1699.81
322.54	1685.48
322.75	1615.85
322.96	1830.88
323.18	1578.98
323.39	1605.61
323.60	1683.43
323.81	1703.91
324.03	1644.52
324.24	1757.16
324.45	1712.10
324.66	1665.00
324.88	1720.29
325.09	1730.53
325.30	1671.14
325.52	1609.70
325.73	1705.96
325.94	1595.37
326.15	1650.66
326.37	1601.51
326.58	1722.34
326.79	1779.68
327.00	1619.94
327.22	1742.82
327.43	1624.04
327.64	1652.71
327.85	1728.49
328.07	1667.05
328.28	1728.49
328.49	1673.19
328.70	1671.14
328.92	1705.96
329.13	1689.57
329.34	1683.43
329.55	1710.05
329.76	1742.82
329.98	1691.62
330.19	1685.48
330.40	1769.44
330.61	1693.67
330.83	1765.35
331.04	1701.86
331.25	1652.71
331.46	1667.05
331.68	1677.29
331.89	1763.30
332.10	1746.92
332.31	1646.57
332.52	1716.20
332.74	1789.92
332.95	1576.94
333.16	1665.00
333.37	1742.82
333.58	1720.29
333.80	1632.23
334.01	1560.55
334.22	1681.38
334.43	1697.77
334.64	1673.19
334.86	1611.75
335.07	1662.95
335.28	1738.73
335.49	1624.04
335.70	1787.88
335.92	1722.34
336.13	1771.49
336.34	1767.40
336.55	1708.01
336.76	1658.85
336.98	1554.41
337.19	1720.29
337.40	1824.74
337.61	1843.17
337.82	1607.66
338.04	1736.68
338.25	1593.32
338.46	1640.42
338.67	1636.33
338.88	1699.81
339.09	1611.75
339.31	1656.81
339.52	1544.17
339.73	1630.18
339.94	1644.52
340.15	1771.49
340.36	1644.52
340.58	1673.19
340.79	1673.19
341.00	1675.24
341.21	1554.41
341.42	1751.01
341.63	1755.11
341.85	1673.19
342.06	1705.96
342.27	1644.52
342.48	1757.16
342.69	1572.84
342.90	1675.24
343.12	1689.57
343.33	1697.77
343.54	1705.96
343.75	1771.49
343.96	1615.85
344.17	1636.33
344.38	1703.91
344.60	1669.09
344.81	1658.85
345.02	1685.48
345.23	1742.82
345.44	1855.46
345.65	1746.92
345.86	1677.29
346.07	1699.81
346.29	1701.86
346.50	1730.53
346.71	1734.63
346.92	1748.97
347.13	1767.40
347.34	1755.11
347.55	1699.81
347.76	1718.25
347.98	1632.23
348.19	1656.81
348.40	1732.58
348.61	1753.06
348.82	1763.30
349.03	1675.24
349.24	1656.81
349.45	1832.93
349.66	1665.00
349.88	1662.95
350.09	1665.00
350.30	1665.00
350.51	1789.92
350.72	1681.38
350.93	1761.25
351.14	1665.00
351.35	1708.01
351.56	1650.66
351.77	1685.48
351.99	1738.73
352.20	1826.79
352.41	1755.11
352.62	1624.04
352.83	1720.29
353.04	1644.52
353.25	1595.37
353.46	1748.97
353.67	1742.82
353.88	1607.66
354.09	1757.16
354.30	1675.24
354.52	1746.92
354.73	1626.09
354.94	1673.19
355.15	1787.88
355.36	1755.11
355.57	1648.61
355.78	1767.40
355.99	1624.04
356.20	1744.87
356.41	1691.62
356.62	1656.81
356.83	1759.21
357.04	1777.64
357.25	1558.50
357.46	1660.90
357.68	1609.70
357.89	1585.13
358.10	1669.09
358.31	1636.33
358.52	1685.48
358.73	1617.90
358.94	1644.52
359.15	1607.66
359.36	1730.53
359.57	1636.33
359.78	1665.00
359.99	1693.67
360.20	1677.29
360.41	1662.95
360.62	1683.43
360.83	1697.77
361.04	1683.43
361.25	1708.01
361.46	1716.20
361.67	1712.10
361.88	1675.24
362.09	1703.91
362.30	1681.38
362.51	1693.67
362.72	1716.20
362.93	1695.72
363.14	1783.78
363.35	1650.66
363.56	1636.33
363.78	1759.21
363.99	1765.35
364.20	1671.14
364.41	1734.63
364.62	1880.04
364.83	1675.24
365.04	1742.82
365.25	1710.05
365.46	1822.69
365.67	1626.09
365.88	1650.66
366.09	1673.19
366.30	1677.29
366.51	1753.06
366.72	1626.09
366.93	1708.01
367.14	1726.44
367.35	1820.64
367.56	1679.33
367.77	1783.78
367.98	1730.53
368.18	1730.53
368.39	1714.15
368.60	1626.09
368.81	1800.16
369.02	1628.14
369.23	1648.61
369.44	1560.55
369.65	1648.61
369.86	1740.77
370.07	1748.97
370.28	1634.28
370.49	1705.96
370.70	1708.01
370.91	1626.09
371.12	1628.14
371.33	1720.29
371.54	1683.43
371.75	1753.06
371.96	1576.94
372.17	1642.47
372.38	1681.38
372.59	1705.96
372.80	1642.47
373.01	1617.90
373.22	1751.01
373.43	1656.81
373.64	1658.85
373.85	1701.86
374.06	1746.92
374.26	1710.05
374.47	1687.53
374.68	1767.40
374.89	1720.29
375.10	1662.95
375.31	1722.34
375.52	1724.39
375.73	1697.77
375.94	1665.00
376.15	1781.73
376.36	1632.23
376.57	1669.09
376.78	1742.82
376.99	1673.19
377.20	1767.40
377.40	1644.52
377.61	1839.08
377.82	1656.81
378.03	1720.29
378.24	1699.81
378.45	1759.21
378.66	1679.33
378.87	1615.85
379.08	1548.26
379.29	1703.91
379.50	1742.82
379.71	1662.95
379.91	1695.72
380.12	1583.08
380.33	1710.05
380.54	1763.30
380.75	1652.71
380.96	1687.53
381.17	1751.01
381.38	1705.96
381.59	1822.69
381.80	1671.14
382.00	1802.21
382.21	1724.39
382.42	1689.57
382.63	1789.92
382.84	1767.40
383.05	1789.92
383.26	1757.16
383.47	1728.49
383.68	1755.11
383.88	1632.23
384.09	1744.87
384.30	1720.29
384.51	1767.40
384.72	1591.27
384.93	1595.37
385.14	1751.01
385.35	1740.77
385.55	1638.38
385.76	1779.68
385.97	1691.62
386.18	1648.61
386.39	1720.29
386.60	1634.28
386.81	1703.91
387.02	1677.29
387.22	1720.29
387.43	1837.03
387.64	1769.44
387.85	1834.98
388.06	2176.99
388.27	4265.92
388.48	6829.98
388.68	8308.61
388.89	9676.65
389.10	10057.57
389.31	8650.62
389.52	7557.00
389.73	6856.60
389.93	6274.98
390.14	5728.17
390.35	5111.73
390.56	4388.80
390.77	3856.33
390.98	3041.23
391.18	2451.42
391.39	2052.06
391.60	1814.50
391.81	1777.64
392.02	1644.52
392.23	1800.16
392.43	1730.53
392.64	1779.68
392.85	1722.34
393.06	1794.02
393.27	1679.33
393.47	1662.95
393.68	1697.77
393.89	1671.14
394.10	1748.97
394.31	1595.37
394.52	1693.67
394.72	1605.61
394.93	1804.26
395.14	1652.71
395.35	1777.64
395.56	1638.38
395.76	1722.34
395.97	1753.06
396.18	1820.64
396.39	1814.50
396.60	2035.68
396.80	1857.51
397.01	1845.22
397.22	1845.22
397.43	1818.60
397.64	1710.05
397.84	1853.41
398.05	1789.92
398.26	1673.19
398.47	1746.92
398.67	1798.12
398.88	1730.53
399.09	1691.62
399.30	1642.47
399.51	1748.97
399.71	1701.86
399.92	1619.94
400.13	1660.90
400.34	1708.01
400.54	1689.57
400.75	1808.36
400.96	1638.38
401.17	1830.88
401.37	1679.33
401.58	1730.53
401.79	1677.29
402.00	1759.21
402.21	1972.19
402.41	1918.95
402.62	2037.73
402.83	1931.23
403.04	2033.63
403.24	2082.78
403.45	1810.40
403.66	1882.08
403.87	1818.60
404.07	1822.69
404.28	1845.22
404.49	1873.89
404.70	1701.86
404.90	1738.73
405.11	1718.25
405.32	1689.57
405.52	1679.33
405.73	1691.62
405.94	1654.76
406.15	1648.61
406.35	1724.39
406.56	1691.62
406.77	1658.85
406.98	1744.87
407.18	1687.53
407.39	1732.58
407.60	1724.39
407.80	1671.14
408.01	1607.66
408.22	1796.07
408.43	1665.00
408.63	1839.08
408.84	1669.09
409.05	1818.60
409.25	1667.05
409.46	1691.62
409.67	1675.24
409.88	1621.99
410.08	1738.73
410.29	1699.81
410.50	1742.82
410.70	1746.92
410.91	1619.94
411.12	1724.39
411.32	1705.96
411.53	1705.96
411.74	1753.06
411.95	1728.49
412.15	1755.11
412.36	1742.82
412.57	1763.30
412.77	1826.79
412.98	1755.11
413.19	1736.68
413.39	1722.34
413.60	1687.53
413.81	1796.07
414.01	1656.81
414.22	1693.67
414.43	1746.92
414.63	1619.94
414.84	1675.24
415.05	1724.39
415.25	1591.27
415.46	1740.77
415.67	1654.76
415.87	1677.29
416.08	1658.85
416.29	1677.29
416.49	1730.53
416.70	1697.77
416.91	1677.29
417.11	1652.71
417.32	1746.92
417.53	1673.19
417.73	1783.78
417.94	1685.48
418.15	1705.96
418.35	1720.29
418.56	1710.05
418.77	1877.99
418.97	1638.38
419.18	1667.05
419.38	1587.18
419.59	1644.52
419.80	1755.11
420.00	1669.09
420.21	1685.48
420.42	1746.92
420.62	1677.29
420.83	1732.58
421.04	1615.85
421.24	1716.20
421.45	1728.49
421.65	1722.34
421.86	1626.09
422.07	1716.20
422.27	1687.53
422.48	1673.19
422.69	1710.05
422.89	1679.33
423.10	1746.92
423.30	1665.00
423.51	1777.64
423.72	1734.63
423.92	1738.73
424.13	1699.81
424.33	1646.57
424.54	1675.24
424.75	1738.73
424.95	1773.54
425.16	1687.53
425.36	1695.72
425.57	1746.92
425.78	1742.82
425.98	1773.54
426.19	1640.42
426.39	1648.61
426.60	1693.67
426.81	1732.58
427.01	1746.92
427.22	1689.57
427.42	1593.32
427.63	1632.23
427.83	1767.40
428.04	1796.07
428.25	1834.98
428.45	1726.44
428.66	1781.73
428.86	1730.53
429.07	1695.72
429.28	1609.70
429.48	1681.38
429.69	1642.47
429.89	1693.67
430.10	1550.31
430.30	1697.77
430.51	1726.44
430.71	1568.74
430.92	1740.77
431.13	1626.09
431.33	1681.38
431.54	1638.38
431.74	1822.69
431.95	1839.08
432.15	1597.42
432.36	1708.01
432.56	1724.39
432.77	1757.16
432.98	1820.64
433.18	1730.53
433.39	1689.57
433.59	1693.67
433.80	1767.40
434.00	1804.26
434.21	1677.29
434.41	1654.76
434.62	1830.88
434.82	1570.79
435.03	1685.48
435.23	1685.48
435.44	1617.90
435.64	1628.14
435.85	1701.86
436.06	1697.77
436.26	1734.63
436.47	1718.25
436.67	1665.00
436.88	1718.25
437.08	1740.77
437.29	1812.45
437.49	1675.24
437.70	1853.41
437.90	1701.86
438.11	1845.22
438.31	1744.87
438.52	1808.36
438.72	1839.08
438.93	1812.45
439.13	1824.74
439.34	1814.50
439.54	1695.72
439.75	1734.63
439.95	1804.26
440.16	1667.05
440.36	1751.01
440.57	1826.79
440.77	1726.44
440.98	1681.38
441.18	1736.68
441.39	1679.33
441.59	1718.25
441.80	1845.22
442.00	1771.49
442.21	1773.54
442.41	1640.42
442.62	1820.64
442.82	1634.28
443.02	1755.11
443.23	1632.23
443.43	1660.90
443.64	1783.78
443.84	1640.42
444.05	1845.22
444.25	1673.19
444.46	1716.20
444.66	1693.67
444.87	1800.16
445.07	1552.36
445.28	1650.66
445.48	1724.39
445.69	1740.77
445.89	1822.69
446.09	1789.92
446.30	2019.30
446.50	2711.51
446.71	3803.08
446.91	4184.00
447.12	4706.23
447.32	4691.90
447.53	4366.27
447.73	3891.14
447.93	3536.84
448.14	3272.65
448.34	3180.50
448.55	2893.78
448.75	2850.77
448.96	2623.45
449.16	2373.60
449.36	2226.14
449.57	2054.11
449.77	1865.70
449.98	1777.64
450.18	1839.08
450.39	1767.40
450.59	1746.92
450.79	1705.96
451.00	1767.40
451.20	1771.49
451.41	1730.53
451.61	1798.12
451.81	1687.53
452.02	1738.73
452.22	1730.53
452.43	1701.86
452.63	1650.66
