SpectraSuite Data File
++++++++++++++++++++++++++++++++++++
Date: Mon Jun 06 12:16:37 CEST 2016
User: root
Dark Spectrum Present: No
Reference Spectrum Present: No
Number of Sampled Component Spectra: 1
Spectrometers: USB4C02835
Integration Time (usec): 100000 (USB4C02835)
Spectra Averaged: 1 (USB4C02835)
Boxcar Smoothing: 0 (USB4C02835)
Correct for Electrical Dark: No (USB4C02835)
Strobe/Lamp Enabled: No (USB4C02835)
Correct for Detector Non-linearity: No (USB4C02835)
Correct for Stray Light: No (USB4C02835)
Number of Pixels in Processed Spectrum: 3648
>>>>>Begin Processed Spectral Data<<<<<
177.47	1417.19
177.69	1417.19
177.91	1417.19
178.13	1486.83
178.36	1484.78
178.58	1685.48
178.80	1695.72
179.02	1642.47
179.24	1548.26
179.46	1703.91
179.68	1714.15
179.90	1701.86
180.13	1652.71
180.35	1615.85
180.57	1624.04
180.79	1767.40
181.01	1642.47
181.23	1757.16
181.45	1800.16
181.67	1685.48
181.90	1679.33
182.12	1621.99
182.34	1665.00
182.56	1789.92
182.78	1697.77
183.00	1679.33
183.22	1601.51
183.44	1599.46
183.66	1914.85
183.89	1697.77
184.11	1738.73
184.33	1796.07
184.55	1781.73
184.77	1675.24
184.99	1714.15
185.21	1615.85
185.43	1802.21
185.65	1642.47
185.87	1705.96
186.10	1685.48
186.32	1771.49
186.54	1640.42
186.76	1652.71
186.98	1701.86
187.20	1699.81
187.42	1630.18
187.64	1734.63
187.86	1742.82
188.08	1759.21
188.30	1679.33
188.52	1697.77
188.75	1771.49
188.97	1736.68
189.19	1593.32
189.41	1716.20
189.63	1722.34
189.85	1716.20
190.07	1665.00
190.29	1609.70
190.51	1748.97
190.73	1603.56
190.95	1751.01
191.17	1742.82
191.39	1589.22
191.61	1726.44
191.84	1724.39
192.06	1712.10
192.28	1693.67
192.50	1832.93
192.72	1710.05
192.94	1640.42
193.16	1759.21
193.38	1632.23
193.60	1642.47
193.82	1677.29
194.04	1771.49
194.26	1689.57
194.48	1689.57
194.70	1722.34
194.92	1675.24
195.14	1724.39
195.36	1570.79
195.58	1710.05
195.80	1681.38
196.02	1699.81
196.24	1644.52
196.46	1779.68
196.69	1667.05
196.91	1769.44
197.13	1673.19
197.35	1646.57
197.57	1775.59
197.79	1757.16
198.01	1724.39
198.23	1738.73
198.45	1742.82
198.67	1626.09
198.89	1748.97
199.11	1681.38
199.33	1613.80
199.55	1621.99
199.77	1714.15
199.99	1767.40
200.21	1644.52
200.43	1601.51
200.65	1630.18
200.87	1607.66
201.09	1728.49
201.31	1597.42
201.53	1726.44
201.75	1705.96
201.97	1619.94
202.19	1648.61
202.41	1689.57
202.63	1746.92
202.85	1716.20
203.07	1673.19
203.29	1726.44
203.51	1734.63
203.73	1693.67
203.95	1847.27
204.17	1660.90
204.39	1699.81
204.61	1697.77
204.83	1626.09
205.05	1757.16
205.27	1777.64
205.49	1900.52
205.71	1662.95
205.93	1636.33
206.15	1669.09
206.37	1638.38
206.59	1775.59
206.81	1576.94
207.03	1605.61
207.25	1652.71
207.47	1722.34
207.69	1677.29
207.91	1791.97
208.13	1681.38
208.34	1689.57
208.56	1671.14
208.78	1716.20
209.00	1660.90
209.22	1662.95
209.44	1699.81
209.66	1703.91
209.88	1718.25
210.10	1697.77
210.32	1701.86
210.54	1787.88
210.76	1640.42
210.98	1771.49
211.20	1552.36
211.42	1691.62
211.64	1742.82
211.86	1695.72
212.08	1794.02
212.30	1667.05
212.52	1705.96
212.74	1730.53
212.96	1753.06
213.17	1773.54
213.39	1753.06
213.61	1802.21
213.83	1691.62
214.05	1619.94
214.27	1722.34
214.49	1660.90
214.71	1624.04
214.93	1748.97
215.15	1732.58
215.37	1720.29
215.59	1658.85
215.81	1701.86
216.03	1759.21
216.24	1667.05
216.46	1650.66
216.68	1597.42
216.90	1794.02
217.12	1761.25
217.34	1714.15
217.56	1714.15
217.78	1689.57
218.00	1681.38
218.22	1689.57
218.44	1712.10
218.66	1716.20
218.87	1789.92
219.09	1669.09
219.31	1673.19
219.53	1765.35
219.75	1624.04
219.97	1603.56
220.19	1652.71
220.41	1656.81
220.63	1751.01
220.85	1738.73
221.06	1621.99
221.28	1763.30
221.50	1740.77
221.72	1681.38
221.94	1697.77
222.16	1644.52
222.38	1748.97
222.60	1753.06
222.82	1691.62
223.03	1718.25
223.25	1665.00
223.47	1714.15
223.69	1800.16
223.91	1718.25
224.13	1640.42
224.35	1646.57
224.57	1787.88
224.78	1734.63
225.00	1658.85
225.22	1730.53
225.44	1697.77
225.66	1763.30
225.88	1689.57
226.10	1734.63
226.32	1636.33
226.53	1785.83
226.75	1626.09
226.97	1644.52
227.19	1724.39
227.41	1726.44
227.63	1658.85
227.85	1662.95
228.06	1773.54
228.28	1726.44
228.50	1730.53
228.72	1611.75
228.94	1697.77
229.16	1667.05
229.37	1632.23
229.59	1693.67
229.81	1751.01
230.03	1607.66
230.25	1574.89
230.47	1705.96
230.69	1566.70
230.90	1708.01
231.12	1662.95
231.34	1685.48
231.56	1730.53
231.78	1699.81
232.00	1667.05
232.21	1697.77
232.43	1667.05
232.65	1624.04
232.87	1757.16
233.09	1648.61
233.30	1654.76
233.52	1660.90
233.74	1695.72
233.96	1677.29
234.18	1736.68
234.40	1716.20
234.61	1781.73
234.83	1681.38
235.05	1634.28
235.27	1761.25
235.49	1740.77
235.70	1703.91
235.92	1724.39
236.14	1716.20
236.36	1759.21
236.58	1607.66
236.79	1710.05
237.01	1705.96
237.23	1609.70
237.45	1804.26
237.67	1763.30
237.88	1736.68
238.10	1785.83
238.32	1675.24
238.54	1644.52
238.76	1636.33
238.97	1632.23
239.19	1654.76
239.41	1740.77
239.63	1726.44
239.85	1669.09
240.06	1658.85
240.28	1665.00
240.50	1757.16
240.72	1665.00
240.93	1673.19
241.15	1816.55
241.37	1628.14
241.59	1710.05
241.81	1640.42
242.02	1624.04
242.24	1675.24
242.46	1767.40
242.68	1636.33
242.89	1736.68
243.11	1763.30
243.33	1660.90
243.55	1656.81
243.76	1769.44
243.98	1662.95
244.20	1705.96
244.42	1746.92
244.64	1742.82
244.85	1679.33
245.07	1570.79
245.29	1767.40
245.51	1734.63
245.72	1675.24
245.94	1732.58
246.16	1693.67
246.38	1681.38
246.59	1722.34
246.81	1630.18
247.03	1679.33
247.24	1642.47
247.46	1617.90
247.68	1697.77
247.90	1662.95
248.11	1662.95
248.33	1720.29
248.55	1650.66
248.77	1679.33
248.98	1718.25
249.20	1761.25
249.42	1720.29
249.64	1675.24
249.85	1640.42
250.07	1587.18
250.29	1716.20
250.50	1746.92
250.72	1593.32
250.94	1712.10
251.16	1822.69
251.37	1689.57
251.59	1722.34
251.81	1730.53
252.02	1769.44
252.24	1642.47
252.46	1716.20
252.68	1636.33
252.89	1685.48
253.11	1605.61
253.33	1791.97
253.54	1775.59
253.76	1617.90
253.98	1665.00
254.20	1675.24
254.41	1662.95
254.63	1681.38
254.85	1705.96
255.06	1726.44
255.28	1710.05
255.50	1751.01
255.71	1628.14
255.93	1628.14
256.15	1619.94
256.36	1667.05
256.58	1626.09
256.80	1746.92
257.02	1705.96
257.23	1667.05
257.45	1746.92
257.67	1701.86
257.88	1646.57
258.10	1757.16
258.32	1640.42
258.53	1730.53
258.75	1746.92
258.97	1656.81
259.18	1632.23
259.40	1789.92
259.62	1751.01
259.83	1794.02
260.05	1789.92
260.27	2045.92
260.48	1759.21
260.70	1656.81
260.92	1695.72
261.13	1673.19
261.35	1693.67
261.57	1701.86
261.78	1595.37
262.00	1677.29
262.22	1660.90
262.43	1687.53
262.65	1671.14
262.86	1689.57
263.08	1771.49
263.30	1759.21
263.51	1634.28
263.73	1683.43
263.95	1673.19
264.16	1632.23
264.38	1669.09
264.60	1685.48
264.81	1619.94
265.03	1669.09
265.25	1642.47
265.46	1705.96
265.68	1759.21
265.89	1720.29
266.11	1572.84
266.33	1757.16
266.54	1734.63
266.76	1701.86
266.98	1732.58
267.19	1824.74
267.41	1726.44
267.62	1636.33
267.84	1521.64
268.06	1734.63
268.27	1726.44
268.49	1697.77
268.70	1726.44
268.92	1705.96
269.14	1581.03
269.35	1632.23
269.57	1683.43
269.79	1705.96
270.00	1673.19
270.22	1728.49
270.43	1624.04
270.65	1599.46
270.87	1669.09
271.08	1628.14
271.30	1759.21
271.51	1755.11
271.73	1681.38
271.95	1738.73
272.16	1724.39
272.38	1714.15
272.59	1658.85
272.81	1708.01
273.02	1724.39
273.24	1734.63
273.46	1800.16
273.67	1699.81
273.89	1605.61
274.10	1718.25
274.32	1736.68
274.54	1716.20
274.75	1740.77
274.97	1669.09
275.18	1787.88
275.40	1730.53
275.61	1730.53
275.83	1755.11
276.05	1699.81
276.26	1722.34
276.48	1734.63
276.69	1714.15
276.91	1708.01
277.12	1781.73
277.34	1767.40
277.55	1722.34
277.77	1619.94
277.99	1757.16
278.20	1642.47
278.42	1640.42
278.63	1673.19
278.85	1677.29
279.06	1730.53
279.28	1724.39
279.49	1720.29
279.71	1712.10
279.93	1705.96
280.14	1683.43
280.36	1646.57
280.57	1746.92
280.79	1685.48
281.00	1658.85
281.22	1683.43
281.43	1759.21
281.65	1576.94
281.86	1578.98
282.08	1734.63
282.29	1804.26
282.51	1581.03
282.73	1638.38
282.94	1576.94
283.16	1775.59
283.37	1730.53
283.59	1734.63
283.80	1703.91
284.02	1642.47
284.23	1781.73
284.45	1687.53
284.66	1685.48
284.88	1660.90
285.09	1703.91
285.31	1697.77
285.52	1755.11
285.74	1593.32
285.95	1730.53
286.17	1701.86
286.38	1773.54
286.60	1679.33
286.81	1654.76
287.03	1705.96
287.24	1736.68
287.46	1714.15
287.67	1730.53
287.89	1791.97
288.10	1738.73
288.32	1722.34
288.53	1746.92
288.75	1673.19
288.96	1744.87
289.18	1646.57
289.39	1714.15
289.61	1763.30
289.82	1789.92
290.04	1816.55
290.25	1621.99
290.47	1679.33
290.68	1699.81
290.90	1753.06
291.11	1591.27
291.33	1834.98
291.54	1617.90
291.76	1654.76
291.97	1724.39
292.18	1724.39
292.40	1675.24
292.61	1693.67
292.83	1853.41
293.04	1763.30
293.26	1734.63
293.47	1705.96
293.69	1621.99
293.90	1693.67
294.12	1828.84
294.33	1691.62
294.55	1662.95
294.76	1742.82
294.97	1761.25
295.19	1742.82
295.40	1679.33
295.62	1734.63
295.83	1720.29
296.05	1615.85
296.26	1718.25
296.48	1693.67
296.69	1669.09
296.90	1624.04
297.12	1705.96
297.33	1773.54
297.55	1675.24
297.76	1744.87
297.98	1751.01
298.19	1703.91
298.41	1681.38
298.62	1708.01
298.83	1789.92
299.05	1701.86
299.26	1621.99
299.48	1650.66
299.69	1710.05
299.90	1746.92
300.12	1660.90
300.33	1656.81
300.55	1654.76
300.76	1714.15
300.98	1652.71
301.19	1705.96
301.40	1703.91
301.62	1607.66
301.83	1673.19
302.05	1728.49
302.26	1710.05
302.47	1779.68
302.69	1601.51
302.90	1730.53
303.12	1572.84
303.33	1722.34
303.54	1810.40
303.76	1675.24
303.97	1724.39
304.19	1771.49
304.40	1611.75
304.61	1675.24
304.83	1822.69
305.04	1787.88
305.26	1710.05
305.47	1712.10
305.68	1675.24
305.90	1656.81
306.11	1683.43
306.33	1726.44
306.54	1673.19
306.75	1697.77
306.97	1644.52
307.18	1574.89
307.39	1669.09
307.61	1697.77
307.82	1716.20
308.04	1701.86
308.25	1644.52
308.46	1736.68
308.68	1689.57
308.89	1722.34
309.10	1783.78
309.32	1691.62
309.53	1771.49
309.74	1667.05
309.96	1597.42
310.17	1759.21
310.39	1638.38
310.60	1673.19
310.81	1642.47
311.03	1609.70
311.24	1660.90
311.45	1693.67
311.67	1701.86
311.88	1710.05
312.09	1720.29
312.31	1634.28
312.52	1658.85
312.73	1673.19
312.95	1630.18
313.16	1640.42
313.37	1779.68
313.59	1693.67
313.80	1775.59
314.01	1834.98
314.23	1626.09
314.44	1695.72
314.65	1654.76
314.87	1705.96
315.08	1656.81
315.29	1660.90
315.51	1708.01
315.72	1619.94
315.93	1781.73
316.15	1796.07
316.36	1669.09
316.57	1781.73
316.79	1765.35
317.00	1705.96
317.21	1720.29
317.43	1677.29
317.64	1634.28
317.85	1636.33
318.07	1617.90
318.28	1660.90
318.49	1771.49
318.70	1902.56
318.92	1779.68
319.13	1820.64
319.34	1818.60
319.56	1783.78
319.77	1781.73
319.98	1783.78
320.20	1732.58
320.41	1748.97
320.62	1675.24
320.83	1742.82
321.05	1796.07
321.26	1804.26
321.47	1748.97
321.69	1849.32
321.90	1673.19
322.11	1642.47
322.32	1769.44
322.54	1798.12
322.75	1738.73
322.96	1767.40
323.18	1599.46
323.39	1638.38
323.60	1654.76
323.81	1722.34
324.03	1669.09
324.24	1691.62
324.45	1601.51
324.66	1699.81
324.88	1724.39
325.09	1791.97
325.30	1636.33
325.52	1687.53
325.73	1671.14
325.94	1652.71
326.15	1617.90
326.37	1673.19
326.58	1714.15
326.79	1839.08
327.00	1601.51
327.22	1718.25
327.43	1767.40
327.64	1710.05
327.85	1724.39
328.07	1732.58
328.28	1798.12
328.49	1634.28
328.70	1665.00
328.92	1708.01
329.13	1599.46
329.34	1732.58
329.55	1765.35
329.76	1716.20
329.98	1703.91
330.19	1732.58
330.40	1748.97
330.61	1683.43
330.83	1751.01
331.04	1617.90
331.25	1716.20
331.46	1665.00
331.68	1619.94
331.89	1728.49
332.10	1656.81
332.31	1665.00
332.52	1712.10
332.74	1724.39
332.95	1683.43
333.16	1699.81
333.37	1693.67
333.58	1644.52
333.80	1697.77
334.01	1587.18
334.22	1619.94
334.43	1632.23
334.64	1671.14
334.86	1648.61
335.07	1630.18
335.28	1724.39
335.49	1611.75
335.70	1710.05
335.92	1746.92
336.13	1869.80
336.34	1669.09
336.55	1658.85
336.76	1685.48
336.98	1621.99
337.19	1703.91
337.40	1783.78
337.61	1841.12
337.82	1691.62
338.04	1759.21
338.25	1624.04
338.46	1658.85
338.67	1714.15
338.88	1677.29
339.09	1705.96
339.31	1652.71
339.52	1613.80
339.73	1568.74
339.94	1726.44
340.15	1730.53
340.36	1736.68
340.58	1701.86
340.79	1665.00
341.00	1736.68
341.21	1607.66
341.42	1785.83
341.63	1626.09
341.85	1705.96
342.06	1642.47
342.27	1673.19
342.48	1720.29
342.69	1656.81
342.90	1669.09
343.12	1769.44
343.33	1650.66
343.54	1753.06
343.75	1716.20
343.96	1681.38
344.17	1697.77
344.38	1720.29
344.60	1660.90
344.81	1619.94
345.02	1648.61
345.23	1804.26
345.44	1736.68
345.65	1742.82
345.86	1699.81
346.07	1712.10
346.29	1648.61
346.50	1689.57
346.71	1656.81
346.92	1714.15
347.13	1857.51
347.34	1697.77
347.55	1781.73
347.76	1755.11
347.98	1609.70
348.19	1708.01
348.40	1740.77
348.61	1667.05
348.82	1798.12
349.03	1744.87
349.24	1683.43
349.45	1828.84
349.66	1624.04
349.88	1593.32
350.09	1677.29
350.30	1705.96
350.51	1691.62
350.72	1695.72
350.93	1671.14
351.14	1626.09
351.35	1658.85
351.56	1769.44
351.77	1693.67
351.99	1687.53
352.20	1816.55
352.41	1800.16
352.62	1634.28
352.83	1699.81
353.04	1736.68
353.25	1634.28
353.46	1757.16
353.67	1677.29
353.88	1574.89
354.09	1693.67
354.30	1730.53
354.52	1646.57
354.73	1658.85
354.94	1583.08
355.15	1611.75
355.36	1824.74
355.57	1656.81
355.78	1679.33
355.99	1644.52
356.20	1654.76
356.41	1691.62
356.62	1701.86
356.83	1689.57
357.04	1734.63
357.25	1583.08
357.46	1624.04
357.68	1583.08
357.89	1613.80
358.10	1656.81
358.31	1697.77
358.52	1705.96
358.73	1595.37
358.94	1718.25
359.15	1722.34
359.36	1665.00
359.57	1660.90
359.78	1689.57
359.99	1673.19
360.20	1650.66
360.41	1746.92
360.62	1648.61
360.83	1726.44
361.04	1789.92
361.25	1665.00
361.46	1783.78
361.67	1826.79
361.88	1724.39
362.09	1691.62
362.30	1730.53
362.51	1654.76
362.72	1650.66
362.93	1761.25
363.14	1765.35
363.35	1677.29
363.56	1656.81
363.78	1761.25
363.99	1765.35
364.20	1718.25
364.41	1759.21
364.62	1820.64
364.83	1691.62
365.04	1736.68
365.25	1695.72
365.46	1808.36
365.67	1685.48
365.88	1650.66
366.09	1615.85
366.30	1658.85
366.51	1634.28
366.72	1638.38
366.93	1646.57
367.14	1718.25
367.35	1708.01
367.56	1769.44
367.77	1777.64
367.98	1732.58
368.18	1765.35
368.39	1781.73
368.60	1615.85
368.81	1730.53
369.02	1683.43
369.23	1687.53
369.44	1662.95
369.65	1628.14
369.86	1708.01
370.07	1767.40
370.28	1652.71
370.49	1783.78
370.70	1685.48
370.91	1675.24
371.12	1611.75
371.33	1771.49
371.54	1665.00
371.75	1820.64
371.96	1609.70
372.17	1667.05
372.38	1712.10
372.59	1769.44
372.80	1699.81
373.01	1687.53
373.22	1732.58
373.43	1697.77
373.64	1650.66
373.85	1693.67
374.06	1755.11
374.26	1755.11
374.47	1705.96
374.68	1742.82
374.89	1703.91
375.10	1642.47
375.31	1712.10
375.52	1658.85
375.73	1708.01
375.94	1660.90
376.15	1744.87
376.36	1640.42
376.57	1615.85
376.78	1658.85
376.99	1806.31
377.20	1791.97
377.40	1763.30
377.61	1806.31
377.82	1642.47
378.03	1738.73
378.24	1804.26
378.45	1638.38
378.66	1689.57
378.87	1560.55
379.08	1593.32
379.29	1705.96
379.50	1755.11
379.71	1705.96
379.91	1796.07
380.12	1716.20
380.33	1689.57
380.54	1703.91
380.75	1677.29
380.96	1710.05
381.17	1685.48
381.38	1675.24
381.59	1703.91
381.80	1718.25
382.00	1812.45
382.21	1796.07
382.42	1791.97
382.63	1857.51
382.84	1738.73
383.05	1759.21
383.26	1794.02
383.47	1665.00
383.68	1769.44
383.88	1742.82
384.09	1724.39
384.30	1845.22
384.51	1687.53
384.72	1687.53
384.93	1630.18
385.14	1687.53
385.35	1671.14
385.55	1652.71
385.76	1761.25
385.97	1726.44
386.18	1603.56
386.39	1624.04
386.60	1665.00
386.81	1720.29
387.02	1652.71
387.22	1648.61
387.43	1693.67
387.64	1761.25
387.85	1886.18
388.06	2158.56
388.27	4286.40
388.48	6817.69
388.68	8411.01
388.89	9654.12
389.10	9875.31
389.31	8820.60
389.52	7714.70
389.73	6719.39
389.93	6309.79
390.14	5990.31
390.35	5269.42
390.56	4548.54
390.77	3827.65
390.98	3037.14
391.18	2543.58
391.39	2136.03
391.60	1865.70
391.81	1826.79
392.02	1701.86
392.23	1861.60
392.43	1732.58
392.64	1818.60
392.85	1703.91
393.06	1755.11
393.27	1660.90
393.47	1636.33
393.68	1648.61
393.89	1615.85
394.10	1726.44
394.31	1701.86
394.52	1703.91
394.72	1679.33
394.93	1732.58
395.14	1675.24
395.35	1724.39
395.56	1671.14
395.76	1693.67
395.97	1759.21
396.18	1796.07
396.39	1877.99
396.60	2021.35
396.80	1865.70
397.01	1742.82
397.22	1767.40
397.43	1849.32
397.64	1652.71
397.84	1761.25
398.05	1777.64
398.26	1638.38
398.47	1806.31
398.67	1751.01
398.88	1724.39
399.09	1708.01
399.30	1677.29
399.51	1765.35
399.71	1654.76
399.92	1724.39
400.13	1732.58
400.34	1814.50
400.54	1669.09
400.75	1763.30
400.96	1757.16
401.17	1830.88
401.37	1757.16
401.58	1669.09
401.79	1658.85
402.00	1779.68
402.21	1966.05
402.41	1972.19
402.62	1998.82
402.83	2015.20
403.04	1957.86
403.24	2054.11
403.45	1888.23
403.66	1824.74
403.87	1849.32
404.07	1914.85
404.28	1867.75
404.49	1863.65
404.70	1714.15
404.90	1757.16
405.11	1689.57
405.32	1736.68
405.52	1628.14
405.73	1619.94
405.94	1644.52
406.15	1658.85
406.35	1673.19
406.56	1804.26
406.77	1697.77
406.98	1730.53
407.18	1656.81
407.39	1755.11
407.60	1685.48
407.80	1734.63
408.01	1638.38
408.22	1689.57
408.43	1665.00
408.63	1728.49
408.84	1726.44
409.05	1769.44
409.25	1613.80
409.46	1599.46
409.67	1724.39
409.88	1648.61
410.08	1699.81
410.29	1693.67
410.50	1718.25
410.70	1712.10
410.91	1705.96
411.12	1687.53
411.32	1746.92
411.53	1716.20
411.74	1816.55
411.95	1796.07
412.15	1800.16
412.36	1748.97
412.57	1634.28
412.77	1804.26
412.98	1708.01
413.19	1636.33
413.39	1689.57
413.60	1720.29
413.81	1877.99
414.01	1697.77
414.22	1724.39
414.43	1746.92
414.63	1656.81
414.84	1812.45
415.05	1744.87
415.25	1591.27
415.46	1710.05
415.67	1673.19
415.87	1779.68
416.08	1753.06
416.29	1624.04
416.49	1748.97
416.70	1642.47
416.91	1658.85
417.11	1640.42
417.32	1693.67
417.53	1697.77
417.73	1722.34
417.94	1724.39
418.15	1658.85
418.35	1685.48
418.56	1691.62
418.77	1810.40
418.97	1671.14
419.18	1607.66
419.38	1572.84
419.59	1654.76
419.80	1759.21
420.00	1708.01
420.21	1742.82
420.42	1740.77
420.62	1648.61
420.83	1705.96
421.04	1603.56
421.24	1660.90
421.45	1828.84
421.65	1722.34
421.86	1628.14
422.07	1695.72
422.27	1771.49
422.48	1722.34
422.69	1648.61
422.89	1687.53
423.10	1703.91
423.30	1591.27
423.51	1718.25
423.72	1755.11
423.92	1763.30
424.13	1593.32
424.33	1751.01
424.54	1728.49
424.75	1619.94
424.95	1800.16
425.16	1673.19
425.36	1685.48
425.57	1814.50
425.78	1814.50
425.98	1708.01
426.19	1685.48
426.39	1699.81
426.60	1728.49
426.81	1804.26
427.01	1773.54
427.22	1605.61
427.42	1589.22
427.63	1636.33
427.83	1710.05
428.04	1826.79
428.25	1773.54
428.45	1757.16
428.66	1728.49
428.86	1673.19
429.07	1679.33
429.28	1697.77
429.48	1675.24
429.69	1605.61
429.89	1724.39
430.10	1613.80
430.30	1746.92
430.51	1736.68
430.71	1640.42
430.92	1716.20
431.13	1701.86
431.33	1787.88
431.54	1771.49
431.74	1818.60
431.95	1853.41
432.15	1734.63
432.36	1748.97
432.56	1746.92
432.77	1779.68
432.98	1837.03
433.18	1736.68
433.39	1673.19
433.59	1683.43
433.80	1828.84
434.00	1789.92
434.21	1714.15
434.41	1648.61
434.62	1808.36
434.82	1570.79
435.03	1660.90
435.23	1699.81
435.44	1581.03
435.64	1734.63
435.85	1755.11
436.06	1771.49
436.26	1730.53
436.47	1689.57
436.67	1665.00
436.88	1656.81
437.08	1712.10
437.29	1708.01
437.49	1679.33
437.70	1712.10
437.90	1757.16
438.11	1794.02
438.31	1755.11
438.52	1841.12
438.72	1865.70
438.93	1935.33
439.13	1810.40
439.34	1779.68
439.54	1837.03
439.75	1806.31
439.95	1753.06
440.16	1650.66
440.36	1742.82
440.57	1718.25
440.77	1781.73
440.98	1716.20
441.18	1755.11
441.39	1699.81
441.59	1708.01
441.80	1841.12
442.00	1769.44
442.21	1730.53
442.41	1691.62
442.62	1746.92
442.82	1683.43
443.02	1652.71
443.23	1767.40
443.43	1650.66
443.64	1865.70
443.84	1748.97
444.05	1820.64
444.25	1726.44
444.46	1683.43
444.66	1720.29
444.87	1822.69
445.07	1611.75
445.28	1738.73
445.48	1781.73
445.69	1763.30
445.89	1820.64
446.09	1728.49
446.30	2004.96
446.50	2666.46
446.71	3747.78
446.91	4333.50
447.12	4726.71
447.32	4827.06
447.53	4208.58
447.73	3934.15
447.93	3483.59
448.14	3362.76
448.34	3231.69
448.55	2834.39
448.75	2820.05
448.96	2770.90
449.16	2410.46
449.36	2355.16
449.57	2031.58
449.77	1933.28
449.98	1789.92
450.18	1804.26
450.39	1767.40
450.59	1761.25
450.79	1714.15
451.00	1687.53
451.20	1734.63
451.41	1779.68
451.61	1742.82
451.81	1755.11
452.02	1710.05
452.22	1718.25
452.43	1730.53
452.63	1681.38
