SpectraSuite Data File
++++++++++++++++++++++++++++++++++++
Date: Mon Jun 06 13:24:17 CEST 2016
User: root
Dark Spectrum Present: No
Reference Spectrum Present: No
Number of Sampled Component Spectra: 1
Spectrometers: USB4C02835
Integration Time (usec): 100000 (USB4C02835)
Spectra Averaged: 1 (USB4C02835)
Boxcar Smoothing: 0 (USB4C02835)
Correct for Electrical Dark: No (USB4C02835)
Strobe/Lamp Enabled: No (USB4C02835)
Correct for Detector Non-linearity: No (USB4C02835)
Correct for Stray Light: No (USB4C02835)
Number of Pixels in Processed Spectrum: 3648
>>>>>Begin Processed Spectral Data<<<<<
177.47	1495.02
177.69	1495.02
177.91	1495.02
178.13	1452.01
178.36	1435.63
178.58	1693.67
178.80	1802.21
179.02	1634.28
179.24	1703.91
179.46	1669.09
179.68	1681.38
179.90	1667.05
180.13	1714.15
180.35	1636.33
180.57	1658.85
180.79	1679.33
181.01	1648.61
181.23	1701.86
181.45	1716.20
181.67	1708.01
181.90	1753.06
182.12	1642.47
182.34	1626.09
182.56	1695.72
182.78	1751.01
183.00	1607.66
183.22	1656.81
183.44	1632.23
183.66	1818.60
183.89	1785.83
184.11	1736.68
184.33	1705.96
184.55	1755.11
184.77	1791.97
184.99	1703.91
185.21	1656.81
185.43	1822.69
185.65	1660.90
185.87	1626.09
186.10	1781.73
186.32	1853.41
186.54	1714.15
186.76	1656.81
186.98	1785.83
187.20	1705.96
187.42	1626.09
187.64	1722.34
187.86	1708.01
188.08	1716.20
188.30	1630.18
188.52	1699.81
188.75	1718.25
188.97	1834.98
189.19	1699.81
189.41	1779.68
189.63	1775.59
189.85	1716.20
190.07	1632.23
190.29	1624.04
190.51	1658.85
190.73	1656.81
190.95	1800.16
191.17	1689.57
191.39	1687.53
191.61	1667.05
191.84	1673.19
192.06	1669.09
192.28	1632.23
192.50	1853.41
192.72	1685.48
192.94	1650.66
193.16	1769.44
193.38	1703.91
193.60	1628.14
193.82	1681.38
194.04	1767.40
194.26	1765.35
194.48	1714.15
194.70	1648.61
194.92	1669.09
195.14	1734.63
195.36	1628.14
195.58	1693.67
195.80	1681.38
196.02	1656.81
196.24	1691.62
196.46	1730.53
196.69	1679.33
196.91	1834.98
197.13	1597.42
197.35	1673.19
197.57	1832.93
197.79	1779.68
198.01	1708.01
198.23	1640.42
198.45	1699.81
198.67	1583.08
198.89	1644.52
199.11	1718.25
199.33	1605.61
199.55	1546.22
199.77	1703.91
199.99	1734.63
200.21	1687.53
200.43	1675.24
200.65	1595.37
200.87	1546.22
201.09	1677.29
201.31	1656.81
201.53	1708.01
201.75	1671.14
201.97	1722.34
202.19	1761.25
202.41	1714.15
202.63	1763.30
202.85	1679.33
203.07	1748.97
203.29	1591.27
203.51	1617.90
203.73	1665.00
203.95	1880.04
204.17	1730.53
204.39	1677.29
204.61	1708.01
204.83	1642.47
205.05	1759.21
205.27	1751.01
205.49	1773.54
205.71	1746.92
205.93	1667.05
206.15	1617.90
206.37	1669.09
206.59	1701.86
206.81	1624.04
207.03	1720.29
207.25	1634.28
207.47	1691.62
207.69	1679.33
207.91	1830.88
208.13	1714.15
208.34	1673.19
208.56	1644.52
208.78	1779.68
209.00	1660.90
209.22	1591.27
209.44	1609.70
209.66	1615.85
209.88	1730.53
210.10	1681.38
210.32	1642.47
210.54	1751.01
210.76	1724.39
210.98	1730.53
211.20	1583.08
211.42	1583.08
211.64	1771.49
211.86	1665.00
212.08	1708.01
212.30	1769.44
212.52	1650.66
212.74	1697.77
212.96	1755.11
213.17	1755.11
213.39	1785.83
213.61	1806.31
213.83	1759.21
214.05	1642.47
214.27	1744.87
214.49	1656.81
214.71	1644.52
214.93	1718.25
215.15	1734.63
215.37	1755.11
215.59	1669.09
215.81	1763.30
216.03	1726.44
216.24	1662.95
216.46	1646.57
216.68	1607.66
216.90	1740.77
217.12	1667.05
217.34	1656.81
217.56	1720.29
217.78	1779.68
218.00	1634.28
218.22	1703.91
218.44	1732.58
218.66	1728.49
218.87	1783.78
219.09	1648.61
219.31	1710.05
219.53	1665.00
219.75	1693.67
219.97	1660.90
220.19	1716.20
220.41	1697.77
220.63	1708.01
220.85	1789.92
221.06	1697.77
221.28	1677.29
221.50	1767.40
221.72	1730.53
221.94	1689.57
222.16	1697.77
222.38	1699.81
222.60	1826.79
222.82	1634.28
223.03	1665.00
223.25	1736.68
223.47	1761.25
223.69	1785.83
223.91	1691.62
224.13	1744.87
224.35	1634.28
224.57	1695.72
224.78	1718.25
225.00	1656.81
225.22	1677.29
225.44	1617.90
225.66	1656.81
225.88	1728.49
226.10	1777.64
226.32	1640.42
226.53	1820.64
226.75	1705.96
226.97	1703.91
227.19	1673.19
227.41	1677.29
227.63	1742.82
227.85	1632.23
228.06	1691.62
228.28	1742.82
228.50	1769.44
228.72	1679.33
228.94	1650.66
229.16	1587.18
229.37	1656.81
229.59	1720.29
229.81	1779.68
230.03	1716.20
230.25	1642.47
230.47	1662.95
230.69	1535.98
230.90	1740.77
231.12	1595.37
231.34	1679.33
231.56	1759.21
231.78	1648.61
232.00	1718.25
232.21	1691.62
232.43	1738.73
232.65	1572.84
232.87	1671.14
233.09	1677.29
233.30	1632.23
233.52	1734.63
233.74	1603.56
233.96	1656.81
234.18	1728.49
234.40	1716.20
234.61	1853.41
234.83	1595.37
235.05	1677.29
235.27	1822.69
235.49	1767.40
235.70	1669.09
235.92	1775.59
236.14	1751.01
236.36	1826.79
236.58	1556.46
236.79	1826.79
237.01	1671.14
237.23	1724.39
237.45	1865.70
237.67	1699.81
237.88	1630.18
238.10	1834.98
238.32	1687.53
238.54	1669.09
238.76	1701.86
238.97	1691.62
239.19	1595.37
239.41	1730.53
239.63	1742.82
239.85	1701.86
240.06	1662.95
240.28	1699.81
240.50	1730.53
240.72	1681.38
240.93	1699.81
241.15	1695.72
241.37	1601.51
241.59	1798.12
241.81	1667.05
242.02	1742.82
242.24	1691.62
242.46	1744.87
242.68	1638.38
242.89	1771.49
243.11	1734.63
243.33	1685.48
243.55	1703.91
243.76	1691.62
243.98	1611.75
244.20	1628.14
244.42	1710.05
244.64	1691.62
244.85	1687.53
245.07	1648.61
245.29	1771.49
245.51	1660.90
245.72	1671.14
245.94	1771.49
246.16	1624.04
246.38	1742.82
246.59	1712.10
246.81	1689.57
247.03	1652.71
247.24	1603.56
247.46	1685.48
247.68	1675.24
247.90	1640.42
248.11	1683.43
248.33	1728.49
248.55	1701.86
248.77	1730.53
248.98	1773.54
249.20	1779.68
249.42	1712.10
249.64	1689.57
249.85	1689.57
250.07	1734.63
250.29	1781.73
250.50	1808.36
250.72	1716.20
250.94	1736.68
251.16	1804.26
251.37	1783.78
251.59	1808.36
251.81	1751.01
252.02	1779.68
252.24	1681.38
252.46	1763.30
252.68	1601.51
252.89	1648.61
253.11	1591.27
253.33	1722.34
253.54	1832.93
253.76	1583.08
253.98	1685.48
254.20	1667.05
254.41	1634.28
254.63	1718.25
254.85	1632.23
255.06	1658.85
255.28	1681.38
255.50	1652.71
255.71	1621.99
255.93	1617.90
256.15	1689.57
256.36	1742.82
256.58	1687.53
256.80	1685.48
257.02	1685.48
257.23	1703.91
257.45	1703.91
257.67	1802.21
257.88	1640.42
258.10	1673.19
258.32	1779.68
258.53	1605.61
258.75	1775.59
258.97	1728.49
259.18	1693.67
259.40	1689.57
259.62	1726.44
259.83	1732.58
260.05	1742.82
260.27	1931.23
260.48	1746.92
260.70	1636.33
260.92	1677.29
261.13	1701.86
261.35	1730.53
261.57	1708.01
261.78	1634.28
262.00	1656.81
262.22	1714.15
262.43	1697.77
262.65	1662.95
262.86	1773.54
263.08	1832.93
263.30	1665.00
263.51	1662.95
263.73	1656.81
263.95	1845.22
264.16	1544.17
264.38	1644.52
264.60	1640.42
264.81	1660.90
265.03	1730.53
265.25	1710.05
265.46	1615.85
265.68	1738.73
265.89	1759.21
266.11	1542.12
266.33	1796.07
266.54	1771.49
266.76	1730.53
266.98	1755.11
267.19	1777.64
267.41	1742.82
267.62	1767.40
267.84	1642.47
268.06	1679.33
268.27	1677.29
268.49	1714.15
268.70	1732.58
268.92	1632.23
269.14	1648.61
269.35	1591.27
269.57	1656.81
269.79	1828.84
270.00	1718.25
270.22	1816.55
270.43	1632.23
270.65	1601.51
270.87	1673.19
271.08	1808.36
271.30	1779.68
271.51	1685.48
271.73	1748.97
271.95	1753.06
272.16	1703.91
272.38	1724.39
272.59	1714.15
272.81	1744.87
273.02	1742.82
273.24	1703.91
273.46	1767.40
273.67	1656.81
273.89	1587.18
274.10	1658.85
274.32	1763.30
274.54	1628.14
274.75	1695.72
274.97	1619.94
275.18	1714.15
275.40	1665.00
275.61	1656.81
275.83	1695.72
276.05	1574.89
276.26	1683.43
276.48	1822.69
276.69	1638.38
276.91	1705.96
277.12	1751.01
277.34	1736.68
277.55	1687.53
277.77	1695.72
277.99	1687.53
278.20	1687.53
278.42	1679.33
278.63	1726.44
278.85	1685.48
279.06	1632.23
279.28	1755.11
279.49	1751.01
279.71	1806.31
279.93	1685.48
280.14	1697.77
280.36	1662.95
280.57	1744.87
280.79	1691.62
281.00	1699.81
281.22	1607.66
281.43	1814.50
281.65	1554.41
281.86	1665.00
282.08	1714.15
282.29	1763.30
282.51	1697.77
282.73	1599.46
282.94	1578.98
283.16	1734.63
283.37	1804.26
283.59	1703.91
283.80	1687.53
284.02	1638.38
284.23	1746.92
284.45	1687.53
284.66	1669.09
284.88	1589.22
285.09	1761.25
285.31	1744.87
285.52	1810.40
285.74	1679.33
285.95	1734.63
286.17	1738.73
286.38	1716.20
286.60	1624.04
286.81	1601.51
287.03	1720.29
287.24	1609.70
287.46	1693.67
287.67	1658.85
287.89	1789.92
288.10	1673.19
288.32	1689.57
288.53	1761.25
288.75	1718.25
288.96	1769.44
289.18	1607.66
289.39	1746.92
289.61	1769.44
289.82	1802.21
290.04	1812.45
290.25	1650.66
290.47	1728.49
290.68	1591.27
290.90	1732.58
291.11	1656.81
291.33	1779.68
291.54	1658.85
291.76	1669.09
291.97	1699.81
292.18	1742.82
292.40	1697.77
292.61	1746.92
292.83	1796.07
293.04	1777.64
293.26	1718.25
293.47	1632.23
293.69	1687.53
293.90	1626.09
294.12	1712.10
294.33	1724.39
294.55	1753.06
294.76	1742.82
294.97	1755.11
295.19	1847.27
295.40	1634.28
295.62	1730.53
295.83	1732.58
296.05	1691.62
296.26	1763.30
296.48	1669.09
296.69	1609.70
296.90	1665.00
297.12	1701.86
297.33	1763.30
297.55	1695.72
297.76	1726.44
297.98	1675.24
298.19	1705.96
298.41	1730.53
298.62	1630.18
298.83	1759.21
299.05	1736.68
299.26	1689.57
299.48	1751.01
299.69	1775.59
299.90	1701.86
300.12	1624.04
300.33	1757.16
300.55	1642.47
300.76	1705.96
300.98	1671.14
301.19	1757.16
301.40	1730.53
301.62	1652.71
301.83	1740.77
302.05	1705.96
302.26	1759.21
302.47	1761.25
302.69	1617.90
302.90	1673.19
303.12	1593.32
303.33	1767.40
303.54	1775.59
303.76	1685.48
303.97	1718.25
304.19	1705.96
304.40	1581.03
304.61	1734.63
304.83	1851.36
305.04	1687.53
305.26	1703.91
305.47	1650.66
305.68	1722.34
305.90	1601.51
306.11	1820.64
306.33	1640.42
306.54	1634.28
306.75	1699.81
306.97	1626.09
307.18	1738.73
307.39	1665.00
307.61	1767.40
307.82	1640.42
308.04	1681.38
308.25	1587.18
308.46	1671.14
308.68	1660.90
308.89	1677.29
309.10	1718.25
309.32	1646.57
309.53	1699.81
309.74	1748.97
309.96	1646.57
310.17	1798.12
310.39	1738.73
310.60	1763.30
310.81	1662.95
311.03	1624.04
311.24	1740.77
311.45	1791.97
311.67	1812.45
311.88	1662.95
312.09	1712.10
312.31	1607.66
312.52	1677.29
312.73	1665.00
312.95	1636.33
313.16	1705.96
313.37	1769.44
313.59	1736.68
313.80	1730.53
314.01	1767.40
314.23	1708.01
314.44	1708.01
314.65	1624.04
314.87	1646.57
315.08	1660.90
315.29	1660.90
315.51	1658.85
315.72	1632.23
315.93	1753.06
316.15	1779.68
316.36	1687.53
316.57	1757.16
316.79	1759.21
317.00	1677.29
317.21	1808.36
317.43	1794.02
317.64	1660.90
317.85	1644.52
318.07	1718.25
318.28	1730.53
318.49	1804.26
318.70	1875.94
318.92	1847.27
319.13	1822.69
319.34	1843.17
319.56	1812.45
319.77	1753.06
319.98	1824.74
320.20	1787.88
320.41	1746.92
320.62	1773.54
320.83	1597.42
321.05	1812.45
321.26	1652.71
321.47	1714.15
321.69	1794.02
321.90	1611.75
322.11	1669.09
322.32	1693.67
322.54	1820.64
322.75	1652.71
322.96	1841.12
323.18	1533.93
323.39	1636.33
323.60	1634.28
323.81	1701.86
324.03	1705.96
324.24	1667.05
324.45	1646.57
324.66	1691.62
324.88	1718.25
325.09	1798.12
325.30	1708.01
325.52	1658.85
325.73	1673.19
325.94	1685.48
326.15	1615.85
326.37	1695.72
326.58	1697.77
326.79	1830.88
327.00	1677.29
327.22	1718.25
327.43	1738.73
327.64	1648.61
327.85	1638.38
328.07	1673.19
328.28	1839.08
328.49	1720.29
328.70	1695.72
328.92	1665.00
329.13	1738.73
329.34	1644.52
329.55	1828.84
329.76	1736.68
329.98	1740.77
330.19	1732.58
330.40	1753.06
330.61	1624.04
330.83	1718.25
331.04	1730.53
331.25	1773.54
331.46	1763.30
331.68	1599.46
331.89	1763.30
332.10	1742.82
332.31	1660.90
332.52	1701.86
332.74	1746.92
332.95	1650.66
333.16	1691.62
333.37	1738.73
333.58	1755.11
333.80	1744.87
334.01	1716.20
334.22	1701.86
334.43	1675.24
334.64	1609.70
334.86	1611.75
335.07	1648.61
335.28	1722.34
335.49	1701.86
335.70	1734.63
335.92	1757.16
336.13	1841.12
336.34	1751.01
336.55	1656.81
336.76	1714.15
336.98	1495.02
337.19	1552.36
337.40	1783.78
337.61	1816.55
337.82	1642.47
338.04	1671.14
338.25	1615.85
338.46	1613.80
338.67	1714.15
338.88	1712.10
339.09	1640.42
339.31	1691.62
339.52	1675.24
339.73	1738.73
339.94	1751.01
340.15	1761.25
340.36	1640.42
340.58	1671.14
340.79	1718.25
341.00	1748.97
341.21	1607.66
341.42	1828.84
341.63	1681.38
341.85	1812.45
342.06	1730.53
342.27	1617.90
342.48	1808.36
342.69	1638.38
342.90	1626.09
343.12	1767.40
343.33	1730.53
343.54	1734.63
343.75	1734.63
343.96	1675.24
344.17	1632.23
344.38	1667.05
344.60	1583.08
344.81	1665.00
345.02	1677.29
345.23	1763.30
345.44	1781.73
345.65	1634.28
345.86	1763.30
346.07	1630.18
346.29	1705.96
346.50	1736.68
346.71	1742.82
346.92	1708.01
347.13	1837.03
347.34	1662.95
347.55	1724.39
347.76	1738.73
347.98	1652.71
348.19	1677.29
348.40	1742.82
348.61	1701.86
348.82	1796.07
349.03	1716.20
349.24	1656.81
349.45	1798.12
349.66	1665.00
349.88	1675.24
350.09	1658.85
350.30	1783.78
350.51	1781.73
350.72	1636.33
350.93	1703.91
351.14	1613.80
351.35	1746.92
351.56	1685.48
351.77	1685.48
351.99	1730.53
352.20	1763.30
352.41	1734.63
352.62	1607.66
352.83	1671.14
353.04	1652.71
353.25	1613.80
353.46	1787.88
353.67	1759.21
353.88	1603.56
354.09	1734.63
354.30	1730.53
354.52	1736.68
354.73	1665.00
354.94	1705.96
355.15	1701.86
355.36	1796.07
355.57	1628.14
355.78	1722.34
355.99	1656.81
356.20	1755.11
356.41	1787.88
356.62	1748.97
356.83	1699.81
357.04	1701.86
357.25	1585.13
357.46	1701.86
357.68	1585.13
357.89	1640.42
358.10	1695.72
358.31	1781.73
358.52	1751.01
358.73	1617.90
358.94	1669.09
359.15	1695.72
359.36	1720.29
359.57	1681.38
359.78	1705.96
359.99	1740.77
360.20	1656.81
360.41	1652.71
360.62	1697.77
360.83	1701.86
361.04	1740.77
361.25	1732.58
361.46	1744.87
361.67	1748.97
361.88	1798.12
362.09	1763.30
362.30	1673.19
362.51	1630.18
362.72	1632.23
362.93	1744.87
363.14	1710.05
363.35	1691.62
363.56	1652.71
363.78	1753.06
363.99	1673.19
364.20	1681.38
364.41	1699.81
364.62	1789.92
364.83	1691.62
365.04	1751.01
365.25	1740.77
365.46	1732.58
365.67	1640.42
365.88	1630.18
366.09	1738.73
366.30	1675.24
366.51	1708.01
366.72	1683.43
366.93	1646.57
367.14	1597.42
367.35	1783.78
367.56	1728.49
367.77	1734.63
367.98	1679.33
368.18	1685.48
368.39	1744.87
368.60	1644.52
368.81	1724.39
369.02	1658.85
369.23	1619.94
369.44	1636.33
369.65	1660.90
369.86	1740.77
370.07	1714.15
370.28	1587.18
370.49	1691.62
370.70	1724.39
370.91	1646.57
371.12	1626.09
371.33	1718.25
371.54	1656.81
371.75	1775.59
371.96	1581.03
372.17	1667.05
372.38	1705.96
372.59	1662.95
372.80	1605.61
373.01	1705.96
373.22	1689.57
373.43	1687.53
373.64	1642.47
373.85	1730.53
374.06	1812.45
374.26	1785.83
374.47	1681.38
374.68	1777.64
374.89	1650.66
375.10	1738.73
375.31	1773.54
375.52	1734.63
375.73	1744.87
375.94	1677.29
376.15	1798.12
376.36	1542.12
376.57	1652.71
376.78	1683.43
376.99	1689.57
377.20	1783.78
377.40	1771.49
377.61	1877.99
377.82	1566.70
378.03	1791.97
378.24	1714.15
378.45	1736.68
378.66	1705.96
378.87	1585.13
379.08	1621.99
379.29	1599.46
379.50	1765.35
379.71	1683.43
379.91	1691.62
380.12	1697.77
380.33	1748.97
380.54	1673.19
380.75	1708.01
380.96	1669.09
381.17	1738.73
381.38	1742.82
381.59	1716.20
381.80	1732.58
382.00	1855.46
382.21	1665.00
382.42	1828.84
382.63	1869.80
382.84	1763.30
383.05	1810.40
383.26	1820.64
383.47	1681.38
383.68	1767.40
383.88	1785.83
384.09	1705.96
384.30	1796.07
384.51	1751.01
384.72	1589.22
384.93	1714.15
385.14	1654.76
385.35	1736.68
385.55	1607.66
385.76	1787.88
385.97	1755.11
386.18	1656.81
386.39	1638.38
386.60	1693.67
386.81	1695.72
387.02	1652.71
387.22	1605.61
387.43	1802.21
387.64	1841.12
387.85	1906.66
388.06	2193.37
388.27	4327.36
388.48	6895.51
388.68	8460.16
388.89	9916.26
389.10	9963.37
389.31	8640.38
389.52	7661.45
389.73	6885.27
389.93	6358.94
390.14	5988.26
390.35	5199.79
390.56	4581.31
390.77	3811.27
390.98	3008.47
391.18	2486.23
391.39	2111.46
391.60	1890.28
391.81	1873.89
392.02	1746.92
392.23	1822.69
392.43	1779.68
392.64	1742.82
392.85	1724.39
393.06	1755.11
393.27	1607.66
393.47	1677.29
393.68	1689.57
393.89	1691.62
394.10	1722.34
394.31	1646.57
394.52	1640.42
394.72	1677.29
394.93	1720.29
395.14	1636.33
395.35	1718.25
395.56	1642.47
395.76	1751.01
395.97	1820.64
396.18	1834.98
396.39	1880.04
396.60	2052.06
396.80	1824.74
397.01	1765.35
397.22	1841.12
397.43	1916.90
397.64	1695.72
397.84	1796.07
398.05	1865.70
398.26	1794.02
398.47	1816.55
398.67	1830.88
398.88	1720.29
399.09	1791.97
399.30	1636.33
399.51	1669.09
399.71	1621.99
399.92	1689.57
400.13	1769.44
400.34	1781.73
400.54	1677.29
400.75	1806.31
400.96	1751.01
401.17	1800.16
401.37	1708.01
401.58	1716.20
401.79	1703.91
402.00	1871.84
402.21	1949.67
402.41	1994.72
402.62	2033.63
402.83	2019.30
403.04	2025.44
403.24	2004.96
403.45	1865.70
403.66	1927.14
403.87	1875.94
404.07	1929.19
404.28	1877.99
404.49	1775.59
404.70	1771.49
404.90	1820.64
405.11	1730.53
405.32	1730.53
405.52	1748.97
405.73	1699.81
405.94	1654.76
406.15	1697.77
406.35	1851.36
406.56	1785.83
406.77	1705.96
406.98	1722.34
407.18	1656.81
407.39	1806.31
407.60	1697.77
407.80	1665.00
408.01	1722.34
408.22	1660.90
408.43	1617.90
408.63	1740.77
408.84	1746.92
409.05	1755.11
409.25	1671.14
409.46	1705.96
409.67	1730.53
409.88	1658.85
410.08	1642.47
410.29	1732.58
410.50	1728.49
410.70	1705.96
410.91	1603.56
411.12	1740.77
411.32	1650.66
411.53	1724.39
411.74	1763.30
411.95	1851.36
412.15	1716.20
412.36	1798.12
412.57	1779.68
412.77	1828.84
412.98	1669.09
413.19	1742.82
413.39	1828.84
413.60	1763.30
413.81	1841.12
414.01	1624.04
414.22	1730.53
414.43	1732.58
414.63	1722.34
414.84	1773.54
415.05	1683.43
415.25	1611.75
415.46	1775.59
415.67	1673.19
415.87	1669.09
416.08	1701.86
416.29	1708.01
416.49	1787.88
416.70	1691.62
416.91	1667.05
417.11	1640.42
417.32	1697.77
417.53	1722.34
417.73	1759.21
417.94	1611.75
418.15	1689.57
418.35	1703.91
418.56	1640.42
418.77	1830.88
418.97	1689.57
419.18	1652.71
419.38	1615.85
419.59	1789.92
419.80	1771.49
420.00	1685.48
420.21	1708.01
420.42	1791.97
420.62	1781.73
420.83	1630.18
421.04	1667.05
421.24	1701.86
421.45	1779.68
421.65	1738.73
421.86	1742.82
422.07	1832.93
422.27	1722.34
422.48	1734.63
422.69	1644.52
422.89	1564.65
423.10	1722.34
423.30	1644.52
423.51	1689.57
423.72	1744.87
423.92	1761.25
424.13	1609.70
424.33	1716.20
424.54	1763.30
424.75	1753.06
424.95	1740.77
425.16	1783.78
425.36	1742.82
425.57	1755.11
425.78	1703.91
425.98	1740.77
426.19	1767.40
426.39	1673.19
426.60	1730.53
426.81	1771.49
427.01	1748.97
427.22	1648.61
427.42	1519.59
427.63	1636.33
427.83	1710.05
428.04	1810.40
428.25	1822.69
428.45	1755.11
428.66	1736.68
428.86	1712.10
429.07	1609.70
429.28	1673.19
429.48	1748.97
429.69	1644.52
429.89	1693.67
430.10	1597.42
430.30	1748.97
430.51	1734.63
430.71	1679.33
430.92	1730.53
431.13	1648.61
431.33	1695.72
431.54	1789.92
431.74	1775.59
431.95	1824.74
432.15	1648.61
432.36	1701.86
432.56	1718.25
432.77	1761.25
432.98	1763.30
433.18	1771.49
433.39	1703.91
433.59	1654.76
433.80	1779.68
434.00	1853.41
434.21	1705.96
434.41	1615.85
434.62	1802.21
434.82	1722.34
435.03	1654.76
435.23	1798.12
435.44	1673.19
435.64	1695.72
435.85	1710.05
436.06	1761.25
436.26	1767.40
436.47	1777.64
436.67	1646.57
436.88	1693.67
437.08	1763.30
437.29	1761.25
437.49	1695.72
437.70	1744.87
437.90	1691.62
438.11	1843.17
438.31	1761.25
438.52	1812.45
438.72	1798.12
438.93	1871.84
439.13	1769.44
439.34	1877.99
439.54	1810.40
439.75	1791.97
439.95	1753.06
440.16	1669.09
440.36	1746.92
440.57	1779.68
440.77	1699.81
440.98	1730.53
441.18	1701.86
441.39	1736.68
441.59	1671.14
441.80	1839.08
442.00	1730.53
442.21	1783.78
442.41	1636.33
442.62	1822.69
442.82	1654.76
443.02	1671.14
443.23	1746.92
443.43	1773.54
443.64	1820.64
443.84	1621.99
444.05	1771.49
444.25	1796.07
444.46	1732.58
444.66	1730.53
444.87	1763.30
445.07	1628.14
445.28	1708.01
445.48	1785.83
445.69	1755.11
445.89	1886.18
446.09	1658.85
446.30	2019.30
446.50	2686.94
446.71	3733.45
446.91	4194.24
447.12	4812.73
447.32	4798.39
447.53	4411.32
447.73	3852.23
447.93	3629.00
448.14	3373.00
448.34	3166.16
448.55	3039.19
448.75	2848.72
448.96	2740.18
449.16	2379.74
449.36	2254.81
449.57	2043.87
449.77	1906.66
449.98	1712.10
450.18	1877.99
450.39	1812.45
450.59	1765.35
450.79	1794.02
451.00	1675.24
451.20	1740.77
451.41	1722.34
451.61	1708.01
451.81	1753.06
452.02	1710.05
452.22	1658.85
452.43	1791.97
452.63	1714.15
