SpectraSuite Data File
++++++++++++++++++++++++++++++++++++
Date: Mon Jun 06 17:15:37 CEST 2016
User: root
Dark Spectrum Present: No
Reference Spectrum Present: No
Number of Sampled Component Spectra: 1
Spectrometers: USB4C02835
Integration Time (usec): 100000 (USB4C02835)
Spectra Averaged: 1 (USB4C02835)
Boxcar Smoothing: 0 (USB4C02835)
Correct for Electrical Dark: No (USB4C02835)
Strobe/Lamp Enabled: No (USB4C02835)
Correct for Detector Non-linearity: No (USB4C02835)
Correct for Stray Light: No (USB4C02835)
Number of Pixels in Processed Spectrum: 3648
>>>>>Begin Processed Spectral Data<<<<<
177.47	1468.39
177.69	1468.39
177.91	1468.39
178.13	1488.87
178.36	1499.11
178.58	1665.00
178.80	1712.10
179.02	1681.38
179.24	1570.79
179.46	1636.33
179.68	1806.31
179.90	1736.68
180.13	1738.73
180.35	1699.81
180.57	1681.38
180.79	1751.01
181.01	1699.81
181.23	1796.07
181.45	1869.80
181.67	1675.24
181.90	1728.49
182.12	1638.38
182.34	1642.47
182.56	1761.25
182.78	1693.67
183.00	1746.92
183.22	1724.39
183.44	1572.84
183.66	1834.98
183.89	1736.68
184.11	1718.25
184.33	1697.77
184.55	1869.80
184.77	1720.29
184.99	1705.96
185.21	1693.67
185.43	1900.52
185.65	1654.76
185.87	1697.77
186.10	1890.28
186.32	1830.88
186.54	1761.25
186.76	1771.49
186.98	1804.26
187.20	1695.72
187.42	1658.85
187.64	1714.15
187.86	1765.35
188.08	1759.21
188.30	1767.40
188.52	1656.81
188.75	1812.45
188.97	1837.03
189.19	1734.63
189.41	1726.44
189.63	1779.68
189.85	1673.19
190.07	1654.76
190.29	1619.94
190.51	1699.81
190.73	1656.81
190.95	1814.50
191.17	1732.58
191.39	1630.18
191.61	1669.09
191.84	1671.14
192.06	1761.25
192.28	1634.28
192.50	1869.80
192.72	1648.61
192.94	1695.72
193.16	1832.93
193.38	1705.96
193.60	1607.66
193.82	1675.24
194.04	1804.26
194.26	1724.39
194.48	1726.44
194.70	1740.77
194.92	1730.53
195.14	1783.78
195.36	1628.14
195.58	1734.63
195.80	1697.77
196.02	1701.86
196.24	1726.44
196.46	1714.15
196.69	1710.05
196.91	1820.64
197.13	1769.44
197.35	1607.66
197.57	1753.06
197.79	1701.86
198.01	1771.49
198.23	1751.01
198.45	1740.77
198.67	1701.86
198.89	1740.77
199.11	1693.67
199.33	1693.67
199.55	1605.61
199.77	1730.53
199.99	1763.30
200.21	1714.15
200.43	1763.30
200.65	1677.29
200.87	1617.90
201.09	1685.48
201.31	1636.33
201.53	1697.77
201.75	1730.53
201.97	1695.72
202.19	1701.86
202.41	1773.54
202.63	1832.93
202.85	1751.01
203.07	1740.77
203.29	1654.76
203.51	1720.29
203.73	1624.04
203.95	1904.61
204.17	1767.40
204.39	1806.31
204.61	1748.97
204.83	1695.72
205.05	1732.58
205.27	1771.49
205.49	1843.17
205.71	1705.96
205.93	1601.51
206.15	1658.85
206.37	1751.01
206.59	1742.82
206.81	1699.81
207.03	1654.76
207.25	1587.18
207.47	1773.54
207.69	1730.53
207.91	1800.16
208.13	1759.21
208.34	1699.81
208.56	1724.39
208.78	1742.82
209.00	1697.77
209.22	1673.19
209.44	1742.82
209.66	1744.87
209.88	1757.16
210.10	1726.44
210.32	1693.67
210.54	1789.92
210.76	1722.34
210.98	1732.58
211.20	1613.80
211.42	1705.96
211.64	1708.01
211.86	1775.59
212.08	1791.97
212.30	1722.34
212.52	1679.33
212.74	1779.68
212.96	1722.34
213.17	1798.12
213.39	1767.40
213.61	1775.59
213.83	1716.20
214.05	1656.81
214.27	1777.64
214.49	1646.57
214.71	1716.20
214.93	1763.30
215.15	1757.16
215.37	1738.73
215.59	1734.63
215.81	1724.39
216.03	1742.82
216.24	1759.21
216.46	1660.90
216.68	1705.96
216.90	1689.57
217.12	1755.11
217.34	1765.35
217.56	1734.63
217.78	1732.58
218.00	1769.44
218.22	1736.68
218.44	1691.62
218.66	1644.52
218.87	1816.55
219.09	1617.90
219.31	1763.30
219.53	1730.53
219.75	1642.47
219.97	1691.62
220.19	1722.34
220.41	1605.61
220.63	1789.92
220.85	1794.02
221.06	1650.66
221.28	1787.88
221.50	1722.34
221.72	1783.78
221.94	1689.57
222.16	1673.19
222.38	1773.54
222.60	1837.03
222.82	1615.85
223.03	1779.68
223.25	1595.37
223.47	1671.14
223.69	1814.50
223.91	1740.77
224.13	1667.05
224.35	1644.52
224.57	1767.40
224.78	1734.63
225.00	1656.81
225.22	1757.16
225.44	1691.62
225.66	1738.73
225.88	1697.77
226.10	1753.06
226.32	1705.96
226.53	1736.68
226.75	1689.57
226.97	1677.29
227.19	1683.43
227.41	1675.24
227.63	1703.91
227.85	1595.37
228.06	1689.57
228.28	1703.91
228.50	1751.01
228.72	1738.73
228.94	1757.16
229.16	1585.13
229.37	1675.24
229.59	1650.66
229.81	1781.73
230.03	1742.82
230.25	1693.67
230.47	1671.14
230.69	1613.80
230.90	1771.49
231.12	1671.14
231.34	1726.44
231.56	1695.72
231.78	1697.77
232.00	1767.40
232.21	1654.76
232.43	1759.21
232.65	1632.23
232.87	1679.33
233.09	1710.05
233.30	1705.96
233.52	1757.16
233.74	1687.53
233.96	1726.44
234.18	1779.68
234.40	1726.44
234.61	1798.12
234.83	1609.70
235.05	1626.09
235.27	1845.22
235.49	1763.30
235.70	1654.76
235.92	1794.02
236.14	1777.64
236.36	1816.55
236.58	1646.57
236.79	1802.21
237.01	1693.67
237.23	1673.19
237.45	1759.21
237.67	1642.47
237.88	1734.63
238.10	1738.73
238.32	1681.38
238.54	1730.53
238.76	1654.76
238.97	1687.53
239.19	1656.81
239.41	1802.21
239.63	1781.73
239.85	1710.05
240.06	1671.14
240.28	1665.00
240.50	1779.68
240.72	1771.49
240.93	1691.62
241.15	1800.16
241.37	1755.11
241.59	1796.07
241.81	1710.05
242.02	1642.47
242.24	1775.59
242.46	1748.97
242.68	1607.66
242.89	1695.72
243.11	1712.10
243.33	1746.92
243.55	1718.25
243.76	1783.78
243.98	1603.56
244.20	1728.49
244.42	1720.29
244.64	1699.81
244.85	1669.09
245.07	1621.99
245.29	1705.96
245.51	1730.53
245.72	1673.19
245.94	1771.49
246.16	1781.73
246.38	1746.92
246.59	1763.30
246.81	1693.67
247.03	1734.63
247.24	1650.66
247.46	1710.05
247.68	1691.62
247.90	1587.18
248.11	1718.25
248.33	1781.73
248.55	1667.05
248.77	1720.29
248.98	1832.93
249.20	1822.69
249.42	1712.10
249.64	1779.68
249.85	1765.35
250.07	1781.73
250.29	1779.68
250.50	1751.01
250.72	1619.94
250.94	1710.05
251.16	1834.98
251.37	1769.44
251.59	1759.21
251.81	1716.20
252.02	1826.79
252.24	1658.85
252.46	1783.78
252.68	1671.14
252.89	1652.71
253.11	1626.09
253.33	1818.60
253.54	1710.05
253.76	1708.01
253.98	1673.19
254.20	1656.81
254.41	1626.09
254.63	1699.81
254.85	1636.33
255.06	1761.25
255.28	1662.95
255.50	1644.52
255.71	1673.19
255.93	1642.47
256.15	1714.15
256.36	1703.91
256.58	1630.18
256.80	1769.44
257.02	1714.15
257.23	1732.58
257.45	1730.53
257.67	1748.97
257.88	1667.05
258.10	1695.72
258.32	1759.21
258.53	1812.45
258.75	1822.69
258.97	1667.05
259.18	1718.25
259.40	1693.67
259.62	1843.17
259.83	1804.26
260.05	1757.16
260.27	2043.87
260.48	1736.68
260.70	1722.34
260.92	1761.25
261.13	1738.73
261.35	1714.15
261.57	1697.77
261.78	1656.81
262.00	1738.73
262.22	1777.64
262.43	1712.10
262.65	1726.44
262.86	1744.87
263.08	1839.08
263.30	1722.34
263.51	1656.81
263.73	1705.96
263.95	1783.78
264.16	1660.90
264.38	1607.66
264.60	1722.34
264.81	1656.81
265.03	1699.81
265.25	1621.99
265.46	1701.86
265.68	1779.68
265.89	1738.73
266.11	1660.90
266.33	1710.05
266.54	1742.82
266.76	1748.97
266.98	1742.82
267.19	1746.92
267.41	1777.64
267.62	1689.57
267.84	1621.99
268.06	1718.25
268.27	1728.49
268.49	1830.88
268.70	1759.21
268.92	1755.11
269.14	1701.86
269.35	1656.81
269.57	1683.43
269.79	1742.82
270.00	1726.44
270.22	1808.36
270.43	1722.34
270.65	1671.14
270.87	1673.19
271.08	1716.20
271.30	1742.82
271.51	1746.92
271.73	1781.73
271.95	1812.45
272.16	1693.67
272.38	1796.07
272.59	1685.48
272.81	1748.97
273.02	1785.83
273.24	1722.34
273.46	1777.64
273.67	1591.27
273.89	1660.90
274.10	1726.44
274.32	1765.35
274.54	1789.92
274.75	1751.01
274.97	1673.19
275.18	1693.67
275.40	1732.58
275.61	1746.92
275.83	1695.72
276.05	1669.09
276.26	1742.82
276.48	1718.25
276.69	1720.29
276.91	1669.09
277.12	1820.64
277.34	1824.74
277.55	1759.21
277.77	1755.11
277.99	1687.53
278.20	1648.61
278.42	1621.99
278.63	1650.66
278.85	1675.24
279.06	1669.09
279.28	1765.35
279.49	1718.25
279.71	1798.12
279.93	1796.07
280.14	1757.16
280.36	1679.33
280.57	1808.36
280.79	1734.63
281.00	1716.20
281.22	1673.19
281.43	1830.88
281.65	1634.28
281.86	1656.81
282.08	1771.49
282.29	1765.35
282.51	1630.18
282.73	1638.38
282.94	1628.14
283.16	1691.62
283.37	1789.92
283.59	1732.58
283.80	1738.73
284.02	1662.95
284.23	1781.73
284.45	1699.81
284.66	1712.10
284.88	1703.91
285.09	1785.83
285.31	1796.07
285.52	1703.91
285.74	1621.99
285.95	1748.97
286.17	1796.07
286.38	1673.19
286.60	1689.57
286.81	1613.80
287.03	1632.23
287.24	1705.96
287.46	1740.77
287.67	1761.25
287.89	1863.65
288.10	1650.66
288.32	1746.92
288.53	1757.16
288.75	1753.06
288.96	1730.53
289.18	1710.05
289.39	1701.86
289.61	1726.44
289.82	1832.93
290.04	1781.73
290.25	1683.43
290.47	1677.29
290.68	1740.77
290.90	1769.44
291.11	1624.04
291.33	1781.73
291.54	1665.00
291.76	1615.85
291.97	1732.58
292.18	1744.87
292.40	1693.67
292.61	1675.24
292.83	1804.26
293.04	1744.87
293.26	1773.54
293.47	1746.92
293.69	1685.48
293.90	1695.72
294.12	1808.36
294.33	1667.05
294.55	1710.05
294.76	1695.72
294.97	1748.97
295.19	1910.75
295.40	1675.24
295.62	1748.97
295.83	1677.29
296.05	1673.19
296.26	1769.44
296.48	1601.51
296.69	1699.81
296.90	1753.06
297.12	1763.30
297.33	1777.64
297.55	1685.48
297.76	1730.53
297.98	1730.53
298.19	1601.51
298.41	1658.85
298.62	1689.57
298.83	1806.31
299.05	1740.77
299.26	1679.33
299.48	1734.63
299.69	1748.97
299.90	1773.54
300.12	1691.62
300.33	1789.92
300.55	1681.38
300.76	1746.92
300.98	1648.61
301.19	1718.25
301.40	1656.81
301.62	1720.29
301.83	1705.96
302.05	1679.33
302.26	1677.29
302.47	1693.67
302.69	1652.71
302.90	1720.29
303.12	1687.53
303.33	1705.96
303.54	1810.40
303.76	1732.58
303.97	1744.87
304.19	1755.11
304.40	1628.14
304.61	1769.44
304.83	1822.69
305.04	1773.54
305.26	1787.88
305.47	1632.23
305.68	1701.86
305.90	1701.86
306.11	1779.68
306.33	1636.33
306.54	1685.48
306.75	1628.14
306.97	1652.71
307.18	1638.38
307.39	1761.25
307.61	1691.62
307.82	1736.68
308.04	1798.12
308.25	1705.96
308.46	1787.88
308.68	1779.68
308.89	1724.39
309.10	1757.16
309.32	1826.79
309.53	1689.57
309.74	1755.11
309.96	1681.38
310.17	1767.40
310.39	1734.63
310.60	1759.21
310.81	1794.02
311.03	1705.96
311.24	1695.72
311.45	1734.63
311.67	1908.71
311.88	1783.78
312.09	1654.76
312.31	1720.29
312.52	1669.09
312.73	1615.85
312.95	1667.05
313.16	1675.24
313.37	1810.40
313.59	1722.34
313.80	1777.64
314.01	1787.88
314.23	1710.05
314.44	1691.62
314.65	1660.90
314.87	1634.28
315.08	1701.86
315.29	1710.05
315.51	1751.01
315.72	1576.94
315.93	1810.40
316.15	1742.82
316.36	1689.57
316.57	1685.48
316.79	1738.73
317.00	1777.64
317.21	1767.40
317.43	1619.94
317.64	1714.15
317.85	1712.10
318.07	1654.76
318.28	1708.01
318.49	1832.93
318.70	1843.17
318.92	1800.16
319.13	1849.32
319.34	1837.03
319.56	1798.12
319.77	1806.31
319.98	1808.36
320.20	1845.22
320.41	1777.64
320.62	1765.35
320.83	1619.94
321.05	1832.93
321.26	1697.77
321.47	1724.39
321.69	1746.92
321.90	1640.42
322.11	1705.96
322.32	1843.17
322.54	1824.74
322.75	1703.91
322.96	1796.07
323.18	1660.90
323.39	1624.04
323.60	1654.76
323.81	1759.21
324.03	1644.52
324.24	1693.67
324.45	1660.90
324.66	1714.15
324.88	1740.77
325.09	1832.93
325.30	1642.47
325.52	1679.33
325.73	1753.06
325.94	1578.98
326.15	1673.19
326.37	1665.00
326.58	1673.19
326.79	1791.97
327.00	1652.71
327.22	1783.78
327.43	1652.71
327.64	1699.81
327.85	1669.09
328.07	1710.05
328.28	1820.64
328.49	1665.00
328.70	1732.58
328.92	1738.73
329.13	1730.53
329.34	1740.77
329.55	1775.59
329.76	1755.11
329.98	1667.05
330.19	1845.22
330.40	1734.63
330.61	1703.91
330.83	1783.78
331.04	1697.77
331.25	1808.36
331.46	1683.43
331.68	1679.33
331.89	1789.92
332.10	1769.44
332.31	1632.23
332.52	1738.73
332.74	1771.49
332.95	1634.28
333.16	1699.81
333.37	1800.16
333.58	1646.57
333.80	1714.15
334.01	1691.62
334.22	1650.66
334.43	1693.67
334.64	1724.39
334.86	1658.85
335.07	1691.62
335.28	1847.27
335.49	1619.94
335.70	1769.44
335.92	1736.68
336.13	1837.03
336.34	1744.87
336.55	1773.54
336.76	1742.82
336.98	1613.80
337.19	1755.11
337.40	1757.16
337.61	1918.95
337.82	1652.71
338.04	1742.82
338.25	1685.48
338.46	1732.58
338.67	1777.64
338.88	1677.29
339.09	1568.74
339.31	1634.28
339.52	1634.28
339.73	1681.38
339.94	1712.10
340.15	1777.64
340.36	1685.48
340.58	1695.72
340.79	1630.18
341.00	1802.21
341.21	1636.33
341.42	1888.23
341.63	1712.10
341.85	1712.10
342.06	1744.87
342.27	1693.67
342.48	1714.15
342.69	1705.96
342.90	1722.34
343.12	1771.49
343.33	1714.15
343.54	1763.30
343.75	1773.54
343.96	1720.29
344.17	1658.85
344.38	1683.43
344.60	1734.63
344.81	1660.90
345.02	1712.10
345.23	1828.84
345.44	1806.31
345.65	1746.92
345.86	1785.83
346.07	1693.67
346.29	1744.87
346.50	1789.92
346.71	1804.26
346.92	1826.79
347.13	1804.26
347.34	1746.92
347.55	1701.86
347.76	1730.53
347.98	1638.38
348.19	1716.20
348.40	1703.91
348.61	1726.44
348.82	1771.49
349.03	1785.83
349.24	1658.85
349.45	1781.73
349.66	1568.74
349.88	1765.35
350.09	1660.90
350.30	1767.40
350.51	1763.30
350.72	1673.19
350.93	1755.11
351.14	1677.29
351.35	1699.81
351.56	1695.72
351.77	1718.25
351.99	1703.91
352.20	1796.07
352.41	1746.92
352.62	1677.29
352.83	1675.24
353.04	1708.01
353.25	1794.02
353.46	1806.31
353.67	1730.53
353.88	1658.85
354.09	1759.21
354.30	1736.68
354.52	1767.40
354.73	1779.68
354.94	1691.62
355.15	1718.25
355.36	1830.88
355.57	1648.61
355.78	1753.06
355.99	1658.85
356.20	1804.26
356.41	1787.88
356.62	1716.20
356.83	1665.00
357.04	1773.54
357.25	1675.24
357.46	1667.05
357.68	1667.05
357.89	1619.94
358.10	1716.20
358.31	1710.05
358.52	1701.86
358.73	1705.96
358.94	1677.29
359.15	1767.40
359.36	1812.45
359.57	1675.24
359.78	1732.58
359.99	1662.95
360.20	1665.00
360.41	1632.23
360.62	1767.40
360.83	1751.01
361.04	1701.86
361.25	1705.96
361.46	1822.69
361.67	1744.87
361.88	1740.77
362.09	1642.47
362.30	1779.68
362.51	1628.14
362.72	1757.16
362.93	1740.77
363.14	1710.05
363.35	1791.97
363.56	1638.38
363.78	1710.05
363.99	1759.21
364.20	1669.09
364.41	1761.25
364.62	1787.88
364.83	1746.92
365.04	1695.72
365.25	1591.27
365.46	1794.02
365.67	1703.91
365.88	1640.42
366.09	1673.19
366.30	1691.62
366.51	1710.05
366.72	1542.12
366.93	1720.29
367.14	1656.81
367.35	1814.50
367.56	1742.82
367.77	1828.84
367.98	1644.52
368.18	1783.78
368.39	1785.83
368.60	1667.05
368.81	1779.68
369.02	1787.88
369.23	1708.01
369.44	1607.66
369.65	1632.23
369.86	1746.92
370.07	1753.06
370.28	1687.53
370.49	1744.87
370.70	1751.01
370.91	1650.66
371.12	1599.46
371.33	1759.21
371.54	1658.85
371.75	1781.73
371.96	1648.61
372.17	1658.85
372.38	1685.48
372.59	1763.30
372.80	1744.87
373.01	1746.92
373.22	1734.63
373.43	1673.19
373.64	1665.00
373.85	1804.26
374.06	1773.54
374.26	1755.11
374.47	1710.05
374.68	1857.51
374.89	1695.72
375.10	1691.62
375.31	1748.97
375.52	1740.77
375.73	1738.73
375.94	1685.48
376.15	1806.31
376.36	1732.58
376.57	1675.24
376.78	1712.10
376.99	1822.69
377.20	1740.77
377.40	1751.01
377.61	1767.40
377.82	1658.85
378.03	1849.32
378.24	1708.01
378.45	1708.01
378.66	1744.87
378.87	1617.90
379.08	1634.28
379.29	1705.96
379.50	1820.64
379.71	1693.67
379.91	1755.11
380.12	1740.77
380.33	1748.97
380.54	1720.29
380.75	1689.57
380.96	1736.68
381.17	1777.64
381.38	1761.25
381.59	1673.19
381.80	1767.40
382.00	1945.57
382.21	1693.67
382.42	1873.89
382.63	1873.89
382.84	1759.21
383.05	1824.74
383.26	1832.93
383.47	1740.77
383.68	1785.83
383.88	1726.44
384.09	1794.02
384.30	1884.13
384.51	1697.77
384.72	1708.01
384.93	1665.00
385.14	1669.09
385.35	1695.72
385.55	1642.47
385.76	1787.88
385.97	1703.91
386.18	1648.61
386.39	1699.81
386.60	1787.88
386.81	1755.11
387.02	1624.04
387.22	1673.19
387.43	1691.62
387.64	1800.16
387.85	1910.75
388.06	2244.57
388.27	4237.25
388.48	6696.86
388.68	8288.13
388.89	9660.27
389.10	9840.49
389.31	8689.53
389.52	7442.32
389.73	6813.59
389.93	6174.63
390.14	6016.93
390.35	5189.55
390.56	4569.02
390.77	3780.55
390.98	3090.38
391.18	2537.43
391.39	2142.18
391.60	1900.52
391.81	1742.82
392.02	1730.53
392.23	1843.17
392.43	1779.68
392.64	1853.41
392.85	1787.88
393.06	1763.30
393.27	1642.47
393.47	1722.34
393.68	1783.78
393.89	1673.19
394.10	1730.53
394.31	1714.15
394.52	1632.23
394.72	1740.77
394.93	1785.83
395.14	1695.72
395.35	1759.21
395.56	1695.72
395.76	1779.68
395.97	1746.92
396.18	1851.36
396.39	1816.55
396.60	2058.21
396.80	1923.04
397.01	1912.80
397.22	1880.04
397.43	1820.64
397.64	1669.09
397.84	1804.26
398.05	1845.22
398.26	1740.77
398.47	1853.41
398.67	1828.84
398.88	1742.82
399.09	1791.97
399.30	1689.57
399.51	1728.49
399.71	1675.24
399.92	1712.10
400.13	1708.01
400.34	1740.77
400.54	1738.73
400.75	1777.64
400.96	1716.20
401.17	1828.84
401.37	1679.33
401.58	1660.90
401.79	1759.21
402.00	1920.99
402.21	2002.91
402.41	2025.44
402.62	2007.01
402.83	1984.48
403.04	2002.91
403.24	2062.30
403.45	1857.51
403.66	2007.01
403.87	1918.95
404.07	1890.28
404.28	1867.75
404.49	1847.27
404.70	1800.16
404.90	1755.11
405.11	1818.60
405.32	1779.68
405.52	1718.25
405.73	1695.72
405.94	1689.57
406.15	1763.30
406.35	1779.68
406.56	1800.16
406.77	1699.81
406.98	1812.45
407.18	1615.85
407.39	1767.40
407.60	1714.15
407.80	1648.61
408.01	1753.06
408.22	1767.40
408.43	1681.38
408.63	1804.26
408.84	1785.83
409.05	1787.88
409.25	1730.53
409.46	1675.24
409.67	1648.61
409.88	1699.81
410.08	1744.87
410.29	1632.23
410.50	1834.98
410.70	1724.39
410.91	1681.38
411.12	1810.40
411.32	1685.48
411.53	1665.00
411.74	1845.22
411.95	1757.16
412.15	1800.16
412.36	1816.55
412.57	1775.59
412.77	1716.20
412.98	1636.33
413.19	1710.05
413.39	1726.44
413.60	1759.21
413.81	1873.89
414.01	1658.85
414.22	1814.50
414.43	1761.25
414.63	1748.97
414.84	1781.73
415.05	1775.59
415.25	1650.66
415.46	1773.54
415.67	1667.05
415.87	1705.96
416.08	1724.39
416.29	1716.20
416.49	1765.35
416.70	1755.11
416.91	1667.05
417.11	1660.90
417.32	1763.30
417.53	1746.92
417.73	1804.26
417.94	1683.43
418.15	1722.34
418.35	1667.05
418.56	1693.67
418.77	1857.51
418.97	1755.11
419.18	1689.57
419.38	1621.99
419.59	1736.68
419.80	1810.40
420.00	1693.67
420.21	1724.39
420.42	1855.46
420.62	1730.53
420.83	1685.48
421.04	1667.05
421.24	1665.00
421.45	1751.01
421.65	1789.92
421.86	1716.20
422.07	1771.49
422.27	1800.16
422.48	1761.25
422.69	1701.86
422.89	1699.81
423.10	1748.97
423.30	1673.19
423.51	1665.00
423.72	1628.14
423.92	1777.64
424.13	1624.04
424.33	1765.35
424.54	1783.78
424.75	1755.11
424.95	1794.02
425.16	1769.44
425.36	1642.47
425.57	1708.01
425.78	1738.73
425.98	1787.88
426.19	1730.53
426.39	1728.49
426.60	1720.29
426.81	1910.75
427.01	1699.81
427.22	1708.01
427.42	1589.22
427.63	1716.20
427.83	1732.58
428.04	1886.18
428.25	1765.35
428.45	1845.22
428.66	1744.87
428.86	1718.25
429.07	1834.98
429.28	1708.01
429.48	1675.24
429.69	1693.67
429.89	1722.34
430.10	1669.09
430.30	1751.01
430.51	1777.64
430.71	1730.53
430.92	1667.05
431.13	1630.18
431.33	1755.11
431.54	1746.92
431.74	1843.17
431.95	1818.60
432.15	1681.38
432.36	1724.39
432.56	1791.97
432.77	1812.45
432.98	1802.21
433.18	1738.73
433.39	1722.34
433.59	1746.92
433.80	1740.77
434.00	1918.95
434.21	1693.67
434.41	1701.86
434.62	1853.41
434.82	1671.14
435.03	1648.61
435.23	1765.35
435.44	1634.28
435.64	1763.30
435.85	1710.05
436.06	1708.01
436.26	1798.12
436.47	1685.48
436.67	1683.43
436.88	1779.68
437.08	1734.63
437.29	1796.07
437.49	1744.87
437.70	1722.34
437.90	1730.53
438.11	1869.80
438.31	1724.39
438.52	1945.57
438.72	1812.45
438.93	1816.55
439.13	1787.88
439.34	1861.60
439.54	1730.53
439.75	1888.23
439.95	1787.88
440.16	1730.53
440.36	1810.40
440.57	1771.49
440.77	1765.35
440.98	1716.20
441.18	1810.40
441.39	1712.10
441.59	1636.33
441.80	1871.84
442.00	1726.44
442.21	1875.94
442.41	1658.85
442.62	1812.45
442.82	1720.29
443.02	1730.53
443.23	1736.68
443.43	1677.29
443.64	1824.74
443.84	1671.14
444.05	1832.93
444.25	1695.72
444.46	1673.19
444.66	1808.36
444.87	1746.92
445.07	1673.19
445.28	1742.82
445.48	1882.08
445.69	1841.12
445.89	1886.18
446.09	1773.54
446.30	2004.96
446.50	2572.25
446.71	3606.47
446.91	4294.59
447.12	4677.56
447.32	4990.90
447.53	4171.71
447.73	3930.05
447.93	3579.85
448.14	3370.96
448.34	3155.92
448.55	2879.44
448.75	2871.25
448.96	2742.23
449.16	2504.67
449.36	2287.58
449.57	2047.97
449.77	1871.84
449.98	1806.31
450.18	1794.02
450.39	1871.84
450.59	1718.25
450.79	1708.01
451.00	1746.92
451.20	1791.97
451.41	1716.20
451.61	1814.50
451.81	1699.81
452.02	1644.52
452.22	1802.21
452.43	1634.28
452.63	1730.53
