SpectraSuite Data File
++++++++++++++++++++++++++++++++++++
Date: Mon Jun 06 15:02:57 CEST 2016
User: root
Dark Spectrum Present: No
Reference Spectrum Present: No
Number of Sampled Component Spectra: 1
Spectrometers: USB4C02835
Integration Time (usec): 100000 (USB4C02835)
Spectra Averaged: 1 (USB4C02835)
Boxcar Smoothing: 0 (USB4C02835)
Correct for Electrical Dark: No (USB4C02835)
Strobe/Lamp Enabled: No (USB4C02835)
Correct for Detector Non-linearity: No (USB4C02835)
Correct for Stray Light: No (USB4C02835)
Number of Pixels in Processed Spectrum: 3648
>>>>>Begin Processed Spectral Data<<<<<
177.47	1462.25
177.69	1462.25
177.91	1462.25
178.13	1476.59
178.36	1507.30
178.58	1703.91
178.80	1703.91
179.02	1632.23
179.24	1646.57
179.46	1644.52
179.68	1730.53
179.90	1710.05
180.13	1718.25
180.35	1673.19
180.57	1650.66
180.79	1716.20
181.01	1705.96
181.23	1712.10
181.45	1755.11
181.67	1726.44
181.90	1728.49
182.12	1669.09
182.34	1640.42
182.56	1748.97
182.78	1679.33
183.00	1648.61
183.22	1734.63
183.44	1574.89
183.66	1839.08
183.89	1789.92
184.11	1687.53
184.33	1746.92
184.55	1755.11
184.77	1673.19
184.99	1685.48
185.21	1751.01
185.43	1863.65
185.65	1589.22
185.87	1632.23
186.10	1886.18
186.32	1843.17
186.54	1714.15
186.76	1740.77
186.98	1734.63
187.20	1689.57
187.42	1693.67
187.64	1740.77
187.86	1703.91
188.08	1761.25
188.30	1662.95
188.52	1667.05
188.75	1775.59
188.97	1812.45
189.19	1740.77
189.41	1671.14
189.63	1738.73
189.85	1669.09
190.07	1630.18
190.29	1628.14
190.51	1781.73
190.73	1679.33
190.95	1761.25
191.17	1667.05
191.39	1546.22
191.61	1669.09
191.84	1665.00
192.06	1681.38
192.28	1656.81
192.50	1855.46
192.72	1705.96
192.94	1740.77
193.16	1759.21
193.38	1712.10
193.60	1636.33
193.82	1673.19
194.04	1697.77
194.26	1705.96
194.48	1703.91
194.70	1646.57
194.92	1673.19
195.14	1759.21
195.36	1681.38
195.58	1699.81
195.80	1738.73
196.02	1718.25
196.24	1720.29
196.46	1697.77
196.69	1683.43
196.91	1875.94
197.13	1632.23
197.35	1671.14
197.57	1767.40
197.79	1751.01
198.01	1679.33
198.23	1679.33
198.45	1662.95
198.67	1656.81
198.89	1658.85
199.11	1689.57
199.33	1740.77
199.55	1568.74
199.77	1667.05
199.99	1779.68
200.21	1632.23
200.43	1665.00
200.65	1665.00
200.87	1640.42
201.09	1730.53
201.31	1687.53
201.53	1662.95
201.75	1757.16
201.97	1724.39
202.19	1685.48
202.41	1734.63
202.63	1832.93
202.85	1740.77
203.07	1742.82
203.29	1615.85
203.51	1687.53
203.73	1665.00
203.95	1880.04
204.17	1726.44
204.39	1753.06
204.61	1695.72
204.83	1681.38
205.05	1734.63
205.27	1708.01
205.49	1871.84
205.71	1738.73
205.93	1632.23
206.15	1611.75
206.37	1736.68
206.59	1675.24
206.81	1593.32
207.03	1605.61
207.25	1671.14
207.47	1738.73
207.69	1687.53
207.91	1812.45
208.13	1783.78
208.34	1722.34
208.56	1605.61
208.78	1734.63
209.00	1671.14
209.22	1683.43
209.44	1671.14
209.66	1726.44
209.88	1744.87
210.10	1675.24
210.32	1597.42
210.54	1662.95
210.76	1705.96
210.98	1742.82
211.20	1589.22
211.42	1748.97
211.64	1677.29
211.86	1665.00
212.08	1738.73
212.30	1753.06
212.52	1673.19
212.74	1724.39
212.96	1734.63
213.17	1714.15
213.39	1650.66
213.61	1759.21
213.83	1648.61
214.05	1636.33
214.27	1767.40
214.49	1681.38
214.71	1751.01
214.93	1775.59
215.15	1632.23
215.37	1775.59
215.59	1640.42
215.81	1693.67
216.03	1841.12
216.24	1691.62
216.46	1646.57
216.68	1650.66
216.90	1662.95
217.12	1769.44
217.34	1697.77
217.56	1699.81
217.78	1800.16
218.00	1748.97
218.22	1714.15
218.44	1683.43
218.66	1705.96
218.87	1771.49
219.09	1597.42
219.31	1781.73
219.53	1687.53
219.75	1693.67
219.97	1708.01
220.19	1732.58
220.41	1751.01
220.63	1685.48
220.85	1654.76
221.06	1751.01
221.28	1746.92
221.50	1695.72
221.72	1660.90
221.94	1724.39
222.16	1705.96
222.38	1804.26
222.60	1742.82
222.82	1705.96
223.03	1748.97
223.25	1624.04
223.47	1740.77
223.69	1771.49
223.91	1673.19
224.13	1617.90
224.35	1662.95
224.57	1740.77
224.78	1763.30
225.00	1695.72
225.22	1673.19
225.44	1708.01
225.66	1726.44
225.88	1621.99
226.10	1830.88
226.32	1644.52
226.53	1783.78
226.75	1722.34
226.97	1732.58
227.19	1710.05
227.41	1710.05
227.63	1662.95
227.85	1656.81
228.06	1740.77
228.28	1705.96
228.50	1738.73
228.72	1701.86
228.94	1753.06
229.16	1656.81
229.37	1648.61
229.59	1628.14
229.81	1837.03
230.03	1658.85
230.25	1632.23
230.47	1671.14
230.69	1628.14
230.90	1656.81
231.12	1630.18
231.34	1738.73
231.56	1718.25
231.78	1673.19
232.00	1658.85
232.21	1685.48
232.43	1697.77
232.65	1640.42
232.87	1718.25
233.09	1667.05
233.30	1697.77
233.52	1675.24
233.74	1665.00
233.96	1693.67
234.18	1677.29
234.40	1644.52
234.61	1847.27
234.83	1630.18
235.05	1648.61
235.27	1867.75
235.49	1789.92
235.70	1691.62
235.92	1834.98
236.14	1744.87
236.36	1746.92
236.58	1583.08
236.79	1761.25
237.01	1705.96
237.23	1767.40
237.45	1779.68
237.67	1689.57
237.88	1806.31
238.10	1845.22
238.32	1693.67
238.54	1683.43
238.76	1697.77
238.97	1718.25
239.19	1691.62
239.41	1701.86
239.63	1675.24
239.85	1636.33
240.06	1615.85
240.28	1716.20
240.50	1771.49
240.72	1736.68
240.93	1658.85
241.15	1740.77
241.37	1662.95
241.59	1761.25
241.81	1679.33
242.02	1712.10
242.24	1710.05
242.46	1730.53
242.68	1679.33
242.89	1695.72
243.11	1751.01
243.33	1640.42
243.55	1669.09
243.76	1787.88
243.98	1687.53
244.20	1650.66
244.42	1669.09
244.64	1681.38
244.85	1652.71
245.07	1648.61
245.29	1791.97
245.51	1728.49
245.72	1730.53
245.94	1791.97
246.16	1765.35
246.38	1683.43
246.59	1615.85
246.81	1699.81
247.03	1693.67
247.24	1603.56
247.46	1621.99
247.68	1740.77
247.90	1667.05
248.11	1628.14
248.33	1710.05
248.55	1726.44
248.77	1718.25
248.98	1710.05
249.20	1869.80
249.42	1748.97
249.64	1693.67
249.85	1720.29
250.07	1607.66
250.29	1714.15
250.50	1761.25
250.72	1611.75
250.94	1701.86
251.16	1849.32
251.37	1779.68
251.59	1656.81
251.81	1693.67
252.02	1751.01
252.24	1718.25
252.46	1820.64
252.68	1630.18
252.89	1640.42
253.11	1656.81
253.33	1775.59
253.54	1820.64
253.76	1599.46
253.98	1685.48
254.20	1673.19
254.41	1599.46
254.63	1669.09
254.85	1644.52
255.06	1693.67
255.28	1742.82
255.50	1689.57
255.71	1667.05
255.93	1712.10
256.15	1691.62
256.36	1718.25
256.58	1667.05
256.80	1783.78
257.02	1712.10
257.23	1660.90
257.45	1687.53
257.67	1755.11
257.88	1679.33
258.10	1740.77
258.32	1759.21
258.53	1701.86
258.75	1775.59
258.97	1722.34
259.18	1697.77
259.40	1687.53
259.62	1771.49
259.83	1728.49
260.05	1755.11
260.27	1996.77
260.48	1820.64
260.70	1677.29
260.92	1687.53
261.13	1720.29
261.35	1687.53
261.57	1755.11
261.78	1685.48
262.00	1640.42
262.22	1675.24
262.43	1685.48
262.65	1679.33
262.86	1755.11
263.08	1871.84
263.30	1755.11
263.51	1691.62
263.73	1628.14
263.95	1738.73
264.16	1638.38
264.38	1669.09
264.60	1716.20
264.81	1697.77
265.03	1744.87
265.25	1794.02
265.46	1714.15
265.68	1763.30
265.89	1730.53
266.11	1558.50
266.33	1746.92
266.54	1744.87
266.76	1710.05
266.98	1693.67
267.19	1722.34
267.41	1808.36
267.62	1732.58
267.84	1642.47
268.06	1689.57
268.27	1646.57
268.49	1730.53
268.70	1851.36
268.92	1673.19
269.14	1677.29
269.35	1701.86
269.57	1673.19
269.79	1761.25
270.00	1732.58
270.22	1806.31
270.43	1652.71
270.65	1613.80
270.87	1730.53
271.08	1726.44
271.30	1820.64
271.51	1718.25
271.73	1800.16
271.95	1701.86
272.16	1697.77
272.38	1712.10
272.59	1726.44
272.81	1718.25
273.02	1726.44
273.24	1716.20
273.46	1763.30
273.67	1562.60
273.89	1669.09
274.10	1671.14
274.32	1791.97
274.54	1722.34
274.75	1660.90
274.97	1708.01
275.18	1736.68
275.40	1710.05
275.61	1728.49
275.83	1705.96
276.05	1628.14
276.26	1667.05
276.48	1773.54
276.69	1671.14
276.91	1636.33
277.12	1880.04
277.34	1757.16
277.55	1804.26
277.77	1726.44
277.99	1591.27
278.20	1628.14
278.42	1636.33
278.63	1648.61
278.85	1726.44
279.06	1701.86
279.28	1757.16
279.49	1714.15
279.71	1742.82
279.93	1701.86
280.14	1724.39
280.36	1693.67
280.57	1796.07
280.79	1716.20
281.00	1681.38
281.22	1675.24
281.43	1802.21
281.65	1564.65
281.86	1665.00
282.08	1755.11
282.29	1757.16
282.51	1613.80
282.73	1695.72
282.94	1634.28
283.16	1732.58
283.37	1785.83
283.59	1640.42
283.80	1742.82
284.02	1642.47
284.23	1730.53
284.45	1710.05
284.66	1624.04
284.88	1728.49
285.09	1699.81
285.31	1720.29
285.52	1636.33
285.74	1615.85
285.95	1654.76
286.17	1689.57
286.38	1781.73
286.60	1689.57
286.81	1710.05
287.03	1744.87
287.24	1710.05
287.46	1681.38
287.67	1652.71
287.89	1869.80
288.10	1615.85
288.32	1656.81
288.53	1746.92
288.75	1724.39
288.96	1771.49
289.18	1679.33
289.39	1699.81
289.61	1830.88
289.82	1832.93
290.04	1800.16
290.25	1599.46
290.47	1630.18
290.68	1630.18
290.90	1787.88
291.11	1673.19
291.33	1718.25
291.54	1667.05
291.76	1730.53
291.97	1705.96
292.18	1722.34
292.40	1667.05
292.61	1613.80
292.83	1806.31
293.04	1751.01
293.26	1716.20
293.47	1677.29
293.69	1683.43
293.90	1783.78
294.12	1822.69
294.33	1708.01
294.55	1660.90
294.76	1728.49
294.97	1890.28
295.19	1886.18
295.40	1601.51
295.62	1726.44
295.83	1789.92
296.05	1626.09
296.26	1755.11
296.48	1740.77
296.69	1656.81
296.90	1665.00
297.12	1740.77
297.33	1830.88
297.55	1751.01
297.76	1716.20
297.98	1718.25
298.19	1716.20
298.41	1730.53
298.62	1693.67
298.83	1722.34
299.05	1681.38
299.26	1742.82
299.48	1722.34
299.69	1744.87
299.90	1767.40
300.12	1744.87
300.33	1718.25
300.55	1777.64
300.76	1773.54
300.98	1677.29
301.19	1726.44
301.40	1742.82
301.62	1708.01
301.83	1699.81
302.05	1656.81
302.26	1761.25
302.47	1755.11
302.69	1660.90
302.90	1736.68
303.12	1556.46
303.33	1779.68
303.54	1800.16
303.76	1665.00
303.97	1798.12
304.19	1718.25
304.40	1679.33
304.61	1730.53
304.83	1794.02
305.04	1716.20
305.26	1689.57
305.47	1701.86
305.68	1697.77
305.90	1640.42
306.11	1742.82
306.33	1691.62
306.54	1691.62
306.75	1710.05
306.97	1626.09
307.18	1601.51
307.39	1693.67
307.61	1697.77
307.82	1794.02
308.04	1662.95
308.25	1636.33
308.46	1767.40
308.68	1685.48
308.89	1656.81
309.10	1755.11
309.32	1798.12
309.53	1652.71
309.74	1669.09
309.96	1716.20
310.17	1763.30
310.39	1736.68
310.60	1773.54
310.81	1742.82
311.03	1640.42
311.24	1755.11
311.45	1695.72
311.67	1875.94
311.88	1697.77
312.09	1617.90
312.31	1669.09
312.52	1628.14
312.73	1708.01
312.95	1576.94
313.16	1593.32
313.37	1769.44
313.59	1781.73
313.80	1730.53
314.01	1736.68
314.23	1646.57
314.44	1693.67
314.65	1705.96
314.87	1662.95
315.08	1736.68
315.29	1626.09
315.51	1689.57
315.72	1632.23
315.93	1757.16
316.15	1791.97
316.36	1677.29
316.57	1708.01
316.79	1753.06
317.00	1603.56
317.21	1757.16
317.43	1650.66
317.64	1757.16
317.85	1665.00
318.07	1662.95
318.28	1751.01
318.49	1806.31
318.70	1906.66
318.92	1830.88
319.13	1863.65
319.34	1785.83
319.56	1806.31
319.77	1769.44
319.98	1839.08
320.20	1785.83
320.41	1683.43
320.62	1656.81
320.83	1642.47
321.05	1808.36
321.26	1691.62
321.47	1730.53
321.69	1765.35
321.90	1730.53
322.11	1691.62
322.32	1712.10
322.54	1746.92
322.75	1613.80
322.96	1871.84
323.18	1497.07
323.39	1626.09
323.60	1669.09
323.81	1869.80
324.03	1712.10
324.24	1679.33
324.45	1722.34
324.66	1638.38
324.88	1660.90
325.09	1783.78
325.30	1630.18
325.52	1669.09
325.73	1736.68
325.94	1652.71
326.15	1621.99
326.37	1640.42
326.58	1775.59
326.79	1759.21
327.00	1630.18
327.22	1683.43
327.43	1677.29
327.64	1701.86
327.85	1687.53
328.07	1763.30
328.28	1857.51
328.49	1755.11
328.70	1693.67
328.92	1675.24
329.13	1677.29
329.34	1626.09
329.55	1810.40
329.76	1763.30
329.98	1687.53
330.19	1746.92
330.40	1765.35
330.61	1681.38
330.83	1695.72
331.04	1642.47
331.25	1619.94
331.46	1732.58
331.68	1583.08
331.89	1726.44
332.10	1714.15
332.31	1568.74
332.52	1685.48
332.74	1771.49
332.95	1644.52
333.16	1757.16
333.37	1800.16
333.58	1624.04
333.80	1636.33
334.01	1638.38
334.22	1761.25
334.43	1703.91
334.64	1646.57
334.86	1552.36
335.07	1667.05
335.28	1751.01
335.49	1644.52
335.70	1763.30
335.92	1800.16
336.13	1820.64
336.34	1751.01
336.55	1667.05
336.76	1751.01
336.98	1517.54
337.19	1726.44
337.40	1814.50
337.61	1837.03
337.82	1730.53
338.04	1740.77
338.25	1624.04
338.46	1648.61
338.67	1724.39
338.88	1675.24
339.09	1722.34
339.31	1656.81
339.52	1671.14
339.73	1650.66
339.94	1660.90
340.15	1773.54
340.36	1673.19
340.58	1800.16
340.79	1626.09
341.00	1757.16
341.21	1591.27
341.42	1810.40
341.63	1777.64
341.85	1761.25
342.06	1753.06
342.27	1660.90
342.48	1773.54
342.69	1591.27
342.90	1734.63
343.12	1693.67
343.33	1728.49
343.54	1781.73
343.75	1708.01
343.96	1669.09
344.17	1667.05
344.38	1648.61
344.60	1619.94
344.81	1601.51
345.02	1673.19
345.23	1730.53
345.44	1822.69
345.65	1736.68
345.86	1767.40
346.07	1652.71
346.29	1693.67
346.50	1626.09
346.71	1683.43
346.92	1865.70
347.13	1814.50
347.34	1646.57
347.55	1755.11
347.76	1732.58
347.98	1632.23
348.19	1677.29
348.40	1728.49
348.61	1691.62
348.82	1763.30
349.03	1675.24
349.24	1652.71
349.45	1880.04
349.66	1591.27
349.88	1671.14
350.09	1665.00
350.30	1742.82
350.51	1779.68
350.72	1691.62
350.93	1757.16
351.14	1630.18
351.35	1724.39
351.56	1740.77
351.77	1681.38
351.99	1765.35
352.20	1826.79
352.41	1751.01
352.62	1570.79
352.83	1695.72
353.04	1669.09
353.25	1757.16
353.46	1771.49
353.67	1724.39
353.88	1632.23
354.09	1726.44
354.30	1726.44
354.52	1675.24
354.73	1748.97
354.94	1695.72
355.15	1718.25
355.36	1771.49
355.57	1689.57
355.78	1740.77
355.99	1673.19
356.20	1662.95
356.41	1746.92
356.62	1708.01
356.83	1771.49
357.04	1777.64
357.25	1568.74
357.46	1658.85
357.68	1662.95
357.89	1654.76
358.10	1730.53
358.31	1724.39
358.52	1695.72
358.73	1673.19
358.94	1667.05
359.15	1683.43
359.36	1828.84
359.57	1628.14
359.78	1695.72
359.99	1712.10
360.20	1603.56
360.41	1726.44
360.62	1755.11
360.83	1697.77
361.04	1722.34
361.25	1742.82
361.46	1789.92
361.67	1781.73
361.88	1716.20
362.09	1726.44
362.30	1869.80
362.51	1671.14
362.72	1634.28
362.93	1759.21
363.14	1726.44
363.35	1716.20
363.56	1703.91
363.78	1748.97
363.99	1765.35
364.20	1685.48
364.41	1708.01
364.62	1763.30
364.83	1751.01
365.04	1654.76
365.25	1689.57
365.46	1783.78
365.67	1650.66
365.88	1685.48
366.09	1669.09
366.30	1662.95
366.51	1753.06
366.72	1681.38
366.93	1669.09
367.14	1753.06
367.35	1779.68
367.56	1748.97
367.77	1767.40
367.98	1697.77
368.18	1773.54
368.39	1693.67
368.60	1632.23
368.81	1677.29
369.02	1691.62
369.23	1761.25
369.44	1634.28
369.65	1677.29
369.86	1648.61
370.07	1781.73
370.28	1568.74
370.49	1746.92
370.70	1740.77
370.91	1611.75
371.12	1609.70
371.33	1724.39
371.54	1679.33
371.75	1775.59
371.96	1607.66
372.17	1738.73
372.38	1724.39
372.59	1822.69
372.80	1693.67
373.01	1646.57
373.22	1740.77
373.43	1691.62
373.64	1726.44
373.85	1746.92
374.06	1802.21
374.26	1740.77
374.47	1761.25
374.68	1777.64
374.89	1718.25
375.10	1669.09
375.31	1759.21
375.52	1726.44
375.73	1734.63
375.94	1669.09
376.15	1861.60
376.36	1619.94
376.57	1660.90
376.78	1687.53
376.99	1675.24
377.20	1710.05
377.40	1638.38
377.61	1830.88
377.82	1658.85
378.03	1816.55
378.24	1730.53
378.45	1775.59
378.66	1710.05
378.87	1613.80
379.08	1531.88
379.29	1677.29
379.50	1789.92
379.71	1650.66
379.91	1736.68
380.12	1679.33
380.33	1757.16
380.54	1757.16
380.75	1662.95
380.96	1751.01
381.17	1804.26
381.38	1708.01
381.59	1693.67
381.80	1771.49
382.00	1857.51
382.21	1742.82
382.42	1810.40
382.63	1871.84
382.84	1738.73
383.05	1736.68
383.26	1828.84
383.47	1630.18
383.68	1843.17
383.88	1763.30
384.09	1695.72
384.30	1812.45
384.51	1728.49
384.72	1673.19
384.93	1585.13
385.14	1681.38
385.35	1734.63
385.55	1697.77
385.76	1675.24
385.97	1687.53
386.18	1665.00
386.39	1701.86
386.60	1734.63
386.81	1705.96
387.02	1656.81
387.22	1644.52
387.43	1783.78
387.64	1822.69
387.85	1880.04
388.06	2203.61
388.27	4239.30
388.48	6639.51
388.68	8071.04
388.89	9308.02
389.10	9574.25
389.31	8353.66
389.52	7307.15
389.73	6549.40
389.93	6031.27
390.14	5601.19
390.35	5162.93
390.56	4507.58
390.77	3682.25
390.98	3016.66
391.18	2486.23
391.39	2101.22
391.60	1875.94
391.81	1800.16
392.02	1714.15
392.23	1818.60
392.43	1677.29
392.64	1763.30
392.85	1726.44
393.06	1816.55
393.27	1740.77
393.47	1677.29
393.68	1683.43
393.89	1613.80
394.10	1722.34
394.31	1718.25
394.52	1644.52
394.72	1759.21
394.93	1757.16
395.14	1662.95
395.35	1794.02
395.56	1638.38
395.76	1728.49
395.97	1789.92
396.18	1818.60
396.39	1894.37
396.60	1982.43
396.80	1877.99
397.01	1841.12
397.22	1861.60
397.43	1830.88
397.64	1705.96
397.84	1806.31
398.05	1791.97
398.26	1802.21
398.47	1857.51
398.67	1769.44
398.88	1796.07
399.09	1779.68
399.30	1699.81
399.51	1767.40
399.71	1693.67
399.92	1714.15
400.13	1791.97
400.34	1667.05
400.54	1748.97
400.75	1769.44
400.96	1722.34
401.17	1757.16
401.37	1765.35
401.58	1693.67
401.79	1685.48
402.00	1877.99
402.21	1910.75
402.41	1945.57
402.62	1974.24
402.83	2033.63
403.04	1957.86
403.24	2047.97
403.45	1851.36
403.66	1818.60
403.87	1861.60
404.07	1927.14
404.28	1875.94
404.49	1859.56
404.70	1781.73
404.90	1794.02
405.11	1712.10
405.32	1796.07
405.52	1718.25
405.73	1708.01
405.94	1591.27
406.15	1708.01
406.35	1810.40
406.56	1736.68
406.77	1734.63
406.98	1740.77
407.18	1638.38
407.39	1800.16
407.60	1673.19
407.80	1640.42
408.01	1681.38
408.22	1724.39
408.43	1671.14
408.63	1765.35
408.84	1753.06
409.05	1771.49
409.25	1642.47
409.46	1660.90
409.67	1708.01
409.88	1681.38
410.08	1755.11
410.29	1718.25
410.50	1746.92
410.70	1716.20
410.91	1732.58
411.12	1753.06
411.32	1665.00
411.53	1671.14
411.74	1759.21
411.95	1837.03
412.15	1767.40
412.36	1822.69
412.57	1693.67
412.77	1849.32
412.98	1716.20
413.19	1730.53
413.39	1789.92
413.60	1703.91
413.81	1771.49
414.01	1654.76
414.22	1656.81
414.43	1751.01
414.63	1701.86
414.84	1697.77
415.05	1779.68
415.25	1650.66
415.46	1730.53
415.67	1675.24
415.87	1681.38
416.08	1732.58
416.29	1722.34
416.49	1746.92
416.70	1632.23
416.91	1701.86
417.11	1714.15
417.32	1710.05
417.53	1769.44
417.73	1773.54
417.94	1714.15
418.15	1699.81
418.35	1714.15
418.56	1697.77
418.77	1794.02
418.97	1720.29
419.18	1681.38
419.38	1576.94
419.59	1683.43
419.80	1789.92
420.00	1712.10
420.21	1740.77
420.42	1736.68
420.62	1736.68
420.83	1734.63
421.04	1697.77
421.24	1689.57
421.45	1763.30
421.65	1708.01
421.86	1708.01
422.07	1763.30
422.27	1712.10
422.48	1751.01
422.69	1611.75
422.89	1689.57
423.10	1632.23
423.30	1712.10
423.51	1671.14
423.72	1652.71
423.92	1699.81
424.13	1683.43
424.33	1783.78
424.54	1798.12
424.75	1724.39
424.95	1796.07
425.16	1746.92
425.36	1662.95
425.57	1781.73
425.78	1742.82
425.98	1757.16
426.19	1671.14
426.39	1609.70
426.60	1775.59
426.81	1839.08
427.01	1693.67
427.22	1632.23
427.42	1607.66
427.63	1699.81
427.83	1771.49
428.04	1873.89
428.25	1775.59
428.45	1787.88
428.66	1787.88
428.86	1759.21
429.07	1775.59
429.28	1716.20
429.48	1697.77
429.69	1714.15
429.89	1658.85
430.10	1630.18
430.30	1757.16
430.51	1763.30
430.71	1683.43
430.92	1675.24
431.13	1714.15
431.33	1708.01
431.54	1712.10
431.74	1773.54
431.95	1804.26
432.15	1640.42
432.36	1703.91
432.56	1730.53
432.77	1841.12
432.98	1771.49
433.18	1691.62
433.39	1673.19
433.59	1701.86
433.80	1886.18
434.00	1794.02
434.21	1679.33
434.41	1665.00
434.62	1898.47
434.82	1697.77
435.03	1681.38
435.23	1753.06
435.44	1636.33
435.64	1681.38
435.85	1708.01
436.06	1759.21
436.26	1773.54
436.47	1755.11
436.67	1632.23
436.88	1718.25
437.08	1757.16
437.29	1755.11
437.49	1738.73
437.70	1734.63
437.90	1761.25
438.11	1830.88
438.31	1722.34
438.52	1861.60
438.72	1984.48
438.93	1839.08
439.13	1720.29
439.34	1880.04
439.54	1763.30
439.75	1736.68
439.95	1908.71
440.16	1742.82
440.36	1714.15
440.57	1740.77
440.77	1744.87
440.98	1730.53
441.18	1755.11
441.39	1669.09
441.59	1685.48
441.80	1849.32
442.00	1748.97
442.21	1851.36
442.41	1685.48
442.62	1740.77
442.82	1640.42
443.02	1718.25
443.23	1726.44
443.43	1679.33
443.64	1820.64
443.84	1665.00
444.05	1822.69
444.25	1714.15
444.46	1673.19
444.66	1705.96
444.87	1828.84
445.07	1634.28
445.28	1708.01
445.48	1824.74
445.69	1767.40
445.89	1914.85
446.09	1800.16
446.30	1998.82
446.50	2533.34
446.71	3571.66
446.91	4296.64
447.12	4679.61
447.32	4751.29
447.53	4134.85
447.73	3868.61
447.93	3477.45
448.14	3280.85
448.34	3203.02
448.55	2848.72
448.75	2775.00
448.96	2705.37
449.16	2471.90
449.36	2224.09
449.57	2039.78
449.77	1906.66
449.98	1802.21
450.18	1800.16
450.39	1845.22
450.59	1744.87
450.79	1748.97
451.00	1755.11
451.20	1804.26
451.41	1679.33
451.61	1708.01
451.81	1697.77
452.02	1671.14
452.22	1722.34
452.43	1658.85
452.63	1673.19
