SpectraSuite Data File
++++++++++++++++++++++++++++++++++++
Date: Mon Jun 06 17:36:57 CEST 2016
User: root
Dark Spectrum Present: No
Reference Spectrum Present: No
Number of Sampled Component Spectra: 1
Spectrometers: USB4C02835
Integration Time (usec): 100000 (USB4C02835)
Spectra Averaged: 1 (USB4C02835)
Boxcar Smoothing: 0 (USB4C02835)
Correct for Electrical Dark: No (USB4C02835)
Strobe/Lamp Enabled: No (USB4C02835)
Correct for Detector Non-linearity: No (USB4C02835)
Correct for Stray Light: No (USB4C02835)
Number of Pixels in Processed Spectrum: 3648
>>>>>Begin Processed Spectral Data<<<<<
177.47	1486.83
177.69	1486.83
177.91	1486.83
178.13	1466.35
178.36	1452.01
178.58	1722.34
178.80	1748.97
179.02	1628.14
179.24	1667.05
179.46	1687.53
179.68	1761.25
179.90	1677.29
180.13	1746.92
180.35	1621.99
180.57	1751.01
180.79	1726.44
181.01	1718.25
181.23	1791.97
181.45	1744.87
181.67	1730.53
181.90	1738.73
182.12	1720.29
182.34	1656.81
182.56	1775.59
182.78	1716.20
183.00	1712.10
183.22	1753.06
183.44	1644.52
183.66	1880.04
183.89	1763.30
184.11	1669.09
184.33	1699.81
184.55	1783.78
184.77	1714.15
184.99	1722.34
185.21	1656.81
185.43	1875.94
185.65	1699.81
185.87	1705.96
186.10	1875.94
186.32	1841.12
186.54	1673.19
186.76	1714.15
186.98	1783.78
187.20	1734.63
187.42	1744.87
187.64	1667.05
187.86	1746.92
188.08	1730.53
188.30	1669.09
188.52	1718.25
188.75	1837.03
188.97	1804.26
189.19	1730.53
189.41	1718.25
189.63	1730.53
189.85	1619.94
190.07	1662.95
190.29	1603.56
190.51	1703.91
190.73	1644.52
190.95	1785.83
191.17	1746.92
191.39	1644.52
191.61	1673.19
191.84	1701.86
192.06	1697.77
192.28	1630.18
192.50	1898.47
192.72	1742.82
192.94	1755.11
193.16	1753.06
193.38	1730.53
193.60	1689.57
193.82	1800.16
194.04	1796.07
194.26	1767.40
194.48	1816.55
194.70	1697.77
194.92	1644.52
195.14	1791.97
195.36	1753.06
195.58	1701.86
195.80	1658.85
196.02	1677.29
196.24	1734.63
196.46	1710.05
196.69	1640.42
196.91	1869.80
197.13	1718.25
197.35	1718.25
197.57	1888.23
197.79	1732.58
198.01	1693.67
198.23	1728.49
198.45	1695.72
198.67	1556.46
198.89	1740.77
199.11	1738.73
199.33	1724.39
199.55	1675.24
199.77	1681.38
199.99	1767.40
200.21	1705.96
200.43	1755.11
200.65	1671.14
200.87	1570.79
201.09	1761.25
201.31	1740.77
201.53	1748.97
201.75	1691.62
201.97	1730.53
202.19	1701.86
202.41	1755.11
202.63	1775.59
202.85	1734.63
203.07	1787.88
203.29	1683.43
203.51	1626.09
203.73	1628.14
203.95	1867.75
204.17	1802.21
204.39	1771.49
204.61	1660.90
204.83	1689.57
205.05	1736.68
205.27	1724.39
205.49	1918.95
205.71	1722.34
205.93	1648.61
206.15	1640.42
206.37	1708.01
206.59	1738.73
206.81	1591.27
207.03	1595.37
207.25	1673.19
207.47	1777.64
207.69	1824.74
207.91	1812.45
208.13	1757.16
208.34	1667.05
208.56	1660.90
208.78	1685.48
209.00	1732.58
209.22	1714.15
209.44	1716.20
209.66	1665.00
209.88	1701.86
210.10	1708.01
210.32	1769.44
210.54	1767.40
210.76	1683.43
210.98	1751.01
211.20	1517.54
211.42	1740.77
211.64	1753.06
211.86	1722.34
212.08	1779.68
212.30	1675.24
212.52	1724.39
212.74	1738.73
212.96	1697.77
213.17	1781.73
213.39	1755.11
213.61	1839.08
213.83	1761.25
214.05	1593.32
214.27	1761.25
214.49	1638.38
214.71	1650.66
214.93	1746.92
215.15	1773.54
215.37	1773.54
215.59	1626.09
215.81	1746.92
216.03	1847.27
216.24	1605.61
216.46	1697.77
216.68	1726.44
216.90	1767.40
217.12	1787.88
217.34	1773.54
217.56	1744.87
217.78	1712.10
218.00	1767.40
218.22	1714.15
218.44	1769.44
218.66	1734.63
218.87	1888.23
219.09	1732.58
219.31	1798.12
219.53	1730.53
219.75	1685.48
219.97	1703.91
220.19	1826.79
220.41	1714.15
220.63	1804.26
220.85	1757.16
221.06	1732.58
221.28	1759.21
221.50	1736.68
221.72	1689.57
221.94	1679.33
222.16	1789.92
222.38	1738.73
222.60	1742.82
222.82	1691.62
223.03	1867.75
223.25	1667.05
223.47	1736.68
223.69	1808.36
223.91	1718.25
224.13	1652.71
224.35	1740.77
224.57	1832.93
224.78	1777.64
225.00	1609.70
225.22	1736.68
225.44	1615.85
225.66	1832.93
225.88	1726.44
226.10	1789.92
226.32	1751.01
226.53	1908.71
226.75	1656.81
226.97	1744.87
227.19	1748.97
227.41	1671.14
227.63	1691.62
227.85	1626.09
228.06	1761.25
228.28	1681.38
228.50	1804.26
228.72	1640.42
228.94	1660.90
229.16	1703.91
229.37	1730.53
229.59	1763.30
229.81	1730.53
230.03	1673.19
230.25	1671.14
230.47	1677.29
230.69	1587.18
230.90	1822.69
231.12	1703.91
231.34	1708.01
231.56	1730.53
231.78	1652.71
232.00	1755.11
232.21	1705.96
232.43	1708.01
232.65	1708.01
232.87	1710.05
233.09	1656.81
233.30	1695.72
233.52	1742.82
233.74	1724.39
233.96	1662.95
234.18	1738.73
234.40	1753.06
234.61	1869.80
234.83	1703.91
235.05	1628.14
235.27	1812.45
235.49	1882.08
235.70	1685.48
235.92	1753.06
236.14	1761.25
236.36	1877.99
236.58	1695.72
236.79	1771.49
237.01	1746.92
237.23	1720.29
237.45	1789.92
237.67	1652.71
237.88	1681.38
238.10	1779.68
238.32	1673.19
238.54	1689.57
238.76	1718.25
238.97	1615.85
239.19	1650.66
239.41	1767.40
239.63	1865.70
239.85	1730.53
240.06	1716.20
240.28	1662.95
240.50	1744.87
240.72	1724.39
240.93	1652.71
241.15	1763.30
241.37	1689.57
241.59	1853.41
241.81	1710.05
242.02	1738.73
242.24	1744.87
242.46	1744.87
242.68	1609.70
242.89	1742.82
243.11	1748.97
243.33	1687.53
243.55	1783.78
243.76	1753.06
243.98	1699.81
244.20	1662.95
244.42	1728.49
244.64	1791.97
244.85	1689.57
245.07	1697.77
245.29	1783.78
245.51	1691.62
245.72	1710.05
245.94	1834.98
246.16	1777.64
246.38	1785.83
246.59	1699.81
246.81	1773.54
247.03	1720.29
247.24	1656.81
247.46	1619.94
247.68	1710.05
247.90	1710.05
248.11	1658.85
248.33	1722.34
248.55	1648.61
248.77	1710.05
248.98	1771.49
249.20	1802.21
249.42	1654.76
249.64	1691.62
249.85	1728.49
250.07	1681.38
250.29	1726.44
250.50	1755.11
250.72	1683.43
250.94	1800.16
251.16	1814.50
251.37	1802.21
251.59	1734.63
251.81	1755.11
252.02	1785.83
252.24	1710.05
252.46	1746.92
252.68	1599.46
252.89	1726.44
253.11	1638.38
253.33	1820.64
253.54	1757.16
253.76	1630.18
253.98	1644.52
254.20	1685.48
254.41	1638.38
254.63	1710.05
254.85	1703.91
255.06	1718.25
255.28	1705.96
255.50	1734.63
255.71	1679.33
255.93	1650.66
256.15	1767.40
256.36	1667.05
256.58	1703.91
256.80	1818.60
257.02	1755.11
257.23	1726.44
257.45	1693.67
257.67	1777.64
257.88	1669.09
258.10	1742.82
258.32	1759.21
258.53	1695.72
258.75	1794.02
258.97	1748.97
259.18	1697.77
259.40	1681.38
259.62	1824.74
259.83	1800.16
260.05	1830.88
260.27	2029.54
260.48	1796.07
260.70	1683.43
260.92	1665.00
261.13	1726.44
261.35	1703.91
261.57	1728.49
261.78	1683.43
262.00	1697.77
262.22	1742.82
262.43	1648.61
262.65	1658.85
262.86	1656.81
263.08	1787.88
263.30	1681.38
263.51	1527.78
263.73	1701.86
263.95	1787.88
264.16	1697.77
264.38	1648.61
264.60	1849.32
264.81	1691.62
265.03	1765.35
265.25	1812.45
265.46	1712.10
265.68	1773.54
265.89	1802.21
266.11	1636.33
266.33	1748.97
266.54	1771.49
266.76	1738.73
266.98	1757.16
267.19	1828.84
267.41	1802.21
267.62	1714.15
267.84	1660.90
268.06	1718.25
268.27	1779.68
268.49	1800.16
268.70	1794.02
268.92	1656.81
269.14	1697.77
269.35	1617.90
269.57	1675.24
269.79	1730.53
270.00	1691.62
270.22	1875.94
270.43	1621.99
270.65	1609.70
270.87	1718.25
271.08	1748.97
271.30	1777.64
271.51	1689.57
271.73	1775.59
271.95	1771.49
272.16	1757.16
272.38	1732.58
272.59	1685.48
272.81	1689.57
273.02	1744.87
273.24	1886.18
273.46	1746.92
273.67	1669.09
273.89	1646.57
274.10	1626.09
274.32	1777.64
274.54	1687.53
274.75	1691.62
274.97	1703.91
275.18	1779.68
275.40	1708.01
275.61	1738.73
275.83	1710.05
276.05	1646.57
276.26	1677.29
276.48	1761.25
276.69	1660.90
276.91	1628.14
277.12	1769.44
277.34	1742.82
277.55	1796.07
277.77	1724.39
277.99	1658.85
278.20	1687.53
278.42	1691.62
278.63	1683.43
278.85	1746.92
279.06	1673.19
279.28	1775.59
279.49	1824.74
279.71	1701.86
279.93	1746.92
280.14	1765.35
280.36	1718.25
280.57	1759.21
280.79	1783.78
281.00	1683.43
281.22	1689.57
281.43	1806.31
281.65	1578.98
281.86	1662.95
282.08	1785.83
282.29	1800.16
282.51	1689.57
282.73	1681.38
282.94	1644.52
283.16	1681.38
283.37	1796.07
283.59	1775.59
283.80	1687.53
284.02	1673.19
284.23	1808.36
284.45	1740.77
284.66	1665.00
284.88	1744.87
285.09	1714.15
285.31	1775.59
285.52	1736.68
285.74	1615.85
285.95	1808.36
286.17	1730.53
286.38	1755.11
286.60	1650.66
286.81	1689.57
287.03	1791.97
287.24	1775.59
287.46	1701.86
287.67	1720.29
287.89	1865.70
288.10	1765.35
288.32	1708.01
288.53	1861.60
288.75	1720.29
288.96	1703.91
289.18	1646.57
289.39	1742.82
289.61	1794.02
289.82	1884.13
290.04	1712.10
290.25	1621.99
290.47	1656.81
290.68	1685.48
290.90	1775.59
291.11	1642.47
291.33	1769.44
291.54	1628.14
291.76	1656.81
291.97	1781.73
292.18	1767.40
292.40	1759.21
292.61	1613.80
292.83	1802.21
293.04	1736.68
293.26	1742.82
293.47	1765.35
293.69	1667.05
293.90	1716.20
294.12	1800.16
294.33	1705.96
294.55	1687.53
294.76	1789.92
294.97	1757.16
295.19	1867.75
295.40	1691.62
295.62	1724.39
295.83	1822.69
296.05	1699.81
296.26	1816.55
296.48	1710.05
296.69	1767.40
296.90	1660.90
297.12	1763.30
297.33	1769.44
297.55	1722.34
297.76	1742.82
297.98	1818.60
298.19	1765.35
298.41	1648.61
298.62	1675.24
298.83	1777.64
299.05	1738.73
299.26	1646.57
299.48	1607.66
299.69	1816.55
299.90	1753.06
300.12	1667.05
300.33	1693.67
300.55	1755.11
300.76	1796.07
300.98	1699.81
301.19	1816.55
301.40	1738.73
301.62	1683.43
301.83	1849.32
302.05	1634.28
302.26	1736.68
302.47	1757.16
302.69	1724.39
302.90	1691.62
303.12	1595.37
303.33	1716.20
303.54	1882.08
303.76	1644.52
303.97	1734.63
304.19	1724.39
304.40	1677.29
304.61	1775.59
304.83	1837.03
305.04	1796.07
305.26	1730.53
305.47	1726.44
305.68	1695.72
305.90	1681.38
306.11	1798.12
306.33	1632.23
306.54	1665.00
306.75	1681.38
306.97	1632.23
307.18	1646.57
307.39	1705.96
307.61	1841.12
307.82	1691.62
308.04	1757.16
308.25	1697.77
308.46	1753.06
308.68	1751.01
308.89	1804.26
309.10	1832.93
309.32	1687.53
309.53	1722.34
309.74	1775.59
309.96	1638.38
310.17	1691.62
310.39	1708.01
310.60	1744.87
310.81	1722.34
311.03	1628.14
311.24	1779.68
311.45	1683.43
311.67	1789.92
311.88	1785.83
312.09	1724.39
312.31	1660.90
312.52	1613.80
312.73	1783.78
312.95	1591.27
313.16	1761.25
313.37	1742.82
313.59	1724.39
313.80	1736.68
314.01	1751.01
314.23	1634.28
314.44	1738.73
314.65	1609.70
314.87	1656.81
315.08	1650.66
315.29	1722.34
315.51	1630.18
315.72	1648.61
315.93	1824.74
316.15	1789.92
316.36	1673.19
316.57	1667.05
316.79	1746.92
317.00	1576.94
317.21	1746.92
317.43	1621.99
317.64	1705.96
317.85	1669.09
318.07	1705.96
318.28	1771.49
318.49	1880.04
318.70	1959.91
318.92	1806.31
319.13	1769.44
319.34	1923.04
319.56	1822.69
319.77	1808.36
319.98	1808.36
320.20	1759.21
320.41	1732.58
320.62	1763.30
320.83	1738.73
321.05	1839.08
321.26	1759.21
321.47	1665.00
321.69	1783.78
321.90	1720.29
322.11	1685.48
322.32	1761.25
322.54	1814.50
322.75	1697.77
322.96	1896.42
323.18	1615.85
323.39	1626.09
323.60	1665.00
323.81	1746.92
324.03	1791.97
324.24	1732.58
324.45	1748.97
324.66	1687.53
324.88	1734.63
325.09	1804.26
325.30	1708.01
325.52	1718.25
325.73	1732.58
325.94	1589.22
326.15	1656.81
326.37	1720.29
326.58	1802.21
326.79	1814.50
327.00	1605.61
327.22	1705.96
327.43	1648.61
327.64	1650.66
327.85	1716.20
328.07	1751.01
328.28	1738.73
328.49	1746.92
328.70	1763.30
328.92	1652.71
329.13	1736.68
329.34	1777.64
329.55	1781.73
329.76	1773.54
329.98	1679.33
330.19	1765.35
330.40	1769.44
330.61	1726.44
330.83	1753.06
331.04	1683.43
331.25	1669.09
331.46	1710.05
331.68	1675.24
331.89	1720.29
332.10	1751.01
332.31	1660.90
332.52	1734.63
332.74	1787.88
332.95	1701.86
333.16	1652.71
333.37	1839.08
333.58	1757.16
333.80	1695.72
334.01	1636.33
334.22	1738.73
334.43	1732.58
334.64	1783.78
334.86	1734.63
335.07	1716.20
335.28	1804.26
335.49	1628.14
335.70	1693.67
335.92	1824.74
336.13	1720.29
336.34	1701.86
336.55	1726.44
336.76	1738.73
336.98	1552.36
337.19	1695.72
337.40	1763.30
337.61	1918.95
337.82	1648.61
338.04	1722.34
338.25	1626.09
338.46	1644.52
338.67	1720.29
338.88	1630.18
339.09	1652.71
339.31	1742.82
339.52	1648.61
339.73	1650.66
339.94	1728.49
340.15	1787.88
340.36	1685.48
340.58	1677.29
340.79	1736.68
341.00	1730.53
341.21	1683.43
341.42	1882.08
341.63	1677.29
341.85	1761.25
342.06	1755.11
342.27	1730.53
342.48	1697.77
342.69	1673.19
342.90	1738.73
343.12	1775.59
343.33	1705.96
343.54	1720.29
343.75	1791.97
343.96	1771.49
344.17	1673.19
344.38	1656.81
344.60	1697.77
344.81	1660.90
345.02	1763.30
345.23	1832.93
345.44	1843.17
345.65	1763.30
345.86	1734.63
346.07	1652.71
346.29	1654.76
346.50	1775.59
346.71	1759.21
346.92	1716.20
347.13	1740.77
347.34	1609.70
347.55	1714.15
347.76	1746.92
347.98	1632.23
348.19	1753.06
348.40	1779.68
348.61	1734.63
348.82	1722.34
349.03	1722.34
349.24	1693.67
349.45	1822.69
349.66	1601.51
349.88	1679.33
350.09	1689.57
350.30	1746.92
350.51	1757.16
350.72	1751.01
350.93	1710.05
351.14	1710.05
351.35	1767.40
351.56	1800.16
351.77	1714.15
351.99	1734.63
352.20	1810.40
352.41	1734.63
352.62	1613.80
352.83	1673.19
353.04	1693.67
353.25	1689.57
353.46	1855.46
353.67	1834.98
353.88	1564.65
354.09	1716.20
354.30	1744.87
354.52	1830.88
354.73	1681.38
354.94	1722.34
355.15	1742.82
355.36	1757.16
355.57	1714.15
355.78	1720.29
355.99	1767.40
356.20	1763.30
356.41	1761.25
356.62	1794.02
356.83	1736.68
357.04	1855.46
357.25	1640.42
357.46	1740.77
357.68	1648.61
357.89	1636.33
358.10	1785.83
358.31	1703.91
358.52	1712.10
358.73	1636.33
358.94	1673.19
359.15	1724.39
359.36	1775.59
359.57	1695.72
359.78	1705.96
359.99	1763.30
360.20	1665.00
360.41	1722.34
360.62	1767.40
360.83	1773.54
361.04	1816.55
361.25	1775.59
361.46	1828.84
361.67	1730.53
361.88	1777.64
362.09	1767.40
362.30	1685.48
362.51	1619.94
362.72	1746.92
362.93	1863.65
363.14	1822.69
363.35	1779.68
363.56	1660.90
363.78	1845.22
363.99	1689.57
364.20	1689.57
364.41	1718.25
364.62	1843.17
364.83	1660.90
365.04	1767.40
365.25	1677.29
365.46	1820.64
365.67	1636.33
365.88	1619.94
366.09	1730.53
366.30	1714.15
366.51	1689.57
366.72	1673.19
366.93	1687.53
367.14	1798.12
367.35	1765.35
367.56	1720.29
367.77	1818.60
367.98	1732.58
368.18	1740.77
368.39	1783.78
368.60	1681.38
368.81	1783.78
369.02	1742.82
369.23	1710.05
369.44	1681.38
369.65	1742.82
369.86	1769.44
370.07	1787.88
370.28	1648.61
370.49	1798.12
370.70	1757.16
370.91	1671.14
371.12	1681.38
371.33	1777.64
371.54	1730.53
371.75	1765.35
371.96	1578.98
372.17	1710.05
372.38	1765.35
372.59	1818.60
372.80	1660.90
373.01	1650.66
373.22	1818.60
373.43	1685.48
373.64	1681.38
373.85	1724.39
374.06	1812.45
374.26	1828.84
374.47	1699.81
374.68	1822.69
374.89	1746.92
375.10	1757.16
375.31	1744.87
375.52	1677.29
375.73	1693.67
375.94	1673.19
376.15	1781.73
376.36	1671.14
376.57	1689.57
376.78	1701.86
376.99	1681.38
377.20	1789.92
377.40	1677.29
377.61	1736.68
377.82	1712.10
378.03	1773.54
378.24	1699.81
378.45	1720.29
378.66	1757.16
378.87	1648.61
379.08	1628.14
379.29	1708.01
379.50	1796.07
379.71	1632.23
379.91	1800.16
380.12	1744.87
380.33	1726.44
380.54	1742.82
380.75	1718.25
380.96	1687.53
381.17	1751.01
381.38	1734.63
381.59	1773.54
381.80	1740.77
382.00	1849.32
382.21	1734.63
382.42	1802.21
382.63	1886.18
382.84	1755.11
383.05	1744.87
383.26	1886.18
383.47	1800.16
383.68	1824.74
383.88	1767.40
384.09	1630.18
384.30	1853.41
384.51	1753.06
384.72	1660.90
384.93	1701.86
385.14	1697.77
385.35	1773.54
385.55	1636.33
385.76	1771.49
385.97	1695.72
386.18	1591.27
386.39	1687.53
386.60	1695.72
386.81	1685.48
387.02	1701.86
387.22	1689.57
387.43	1775.59
387.64	1738.73
387.85	1869.80
388.06	2172.89
388.27	4284.35
388.48	6643.61
388.68	8359.81
388.89	9635.69
389.10	9781.10
389.31	8673.15
389.52	7606.16
389.73	6842.26
389.93	6342.56
390.14	5990.31
390.35	5244.85
390.56	4685.75
390.77	3731.40
390.98	3008.47
391.18	2535.39
391.39	2179.04
391.60	1796.07
391.81	1861.60
392.02	1722.34
392.23	1818.60
392.43	1748.97
392.64	1800.16
392.85	1787.88
393.06	1863.65
393.27	1691.62
393.47	1710.05
393.68	1794.02
393.89	1630.18
394.10	1802.21
394.31	1724.39
394.52	1714.15
394.72	1757.16
394.93	1765.35
395.14	1638.38
395.35	1787.88
395.56	1734.63
395.76	1787.88
395.97	1798.12
396.18	1888.23
396.39	1820.64
396.60	1980.39
396.80	1918.95
397.01	1908.71
397.22	1863.65
397.43	1955.81
397.64	1763.30
397.84	1882.08
398.05	1925.09
398.26	1738.73
398.47	1732.58
398.67	1802.21
398.88	1726.44
399.09	1695.72
399.30	1656.81
399.51	1810.40
399.71	1634.28
399.92	1783.78
400.13	1771.49
400.34	1732.58
400.54	1775.59
400.75	1849.32
400.96	1714.15
401.17	1771.49
401.37	1671.14
401.58	1779.68
401.79	1726.44
402.00	1841.12
402.21	1953.76
402.41	1927.14
402.62	2009.06
402.83	2013.15
403.04	2064.35
403.24	2058.21
403.45	1923.04
403.66	1933.28
403.87	1974.24
404.07	1978.34
404.28	1871.84
404.49	1902.56
404.70	1730.53
404.90	1728.49
405.11	1720.29
405.32	1759.21
405.52	1693.67
405.73	1677.29
405.94	1654.76
406.15	1718.25
406.35	1841.12
406.56	1808.36
406.77	1767.40
406.98	1755.11
407.18	1751.01
407.39	1773.54
407.60	1734.63
407.80	1703.91
408.01	1708.01
408.22	1724.39
408.43	1665.00
408.63	1732.58
408.84	1693.67
409.05	1861.60
409.25	1656.81
409.46	1689.57
409.67	1638.38
409.88	1712.10
410.08	1744.87
410.29	1683.43
410.50	1695.72
410.70	1730.53
410.91	1675.24
411.12	1726.44
411.32	1791.97
411.53	1632.23
411.74	1832.93
411.95	1798.12
412.15	1738.73
412.36	1736.68
412.57	1791.97
412.77	1791.97
412.98	1746.92
413.19	1740.77
413.39	1804.26
413.60	1714.15
413.81	1845.22
414.01	1746.92
414.22	1759.21
414.43	1710.05
414.63	1703.91
414.84	1769.44
415.05	1767.40
415.25	1607.66
415.46	1822.69
415.67	1705.96
415.87	1722.34
416.08	1691.62
416.29	1689.57
416.49	1691.62
416.70	1800.16
416.91	1724.39
417.11	1740.77
417.32	1789.92
417.53	1714.15
417.73	1718.25
417.94	1701.86
418.15	1763.30
418.35	1820.64
418.56	1638.38
418.77	1904.61
418.97	1703.91
419.18	1734.63
419.38	1533.93
419.59	1738.73
419.80	1802.21
420.00	1738.73
420.21	1779.68
420.42	1783.78
420.62	1779.68
420.83	1677.29
421.04	1724.39
421.24	1714.15
421.45	1796.07
421.65	1775.59
421.86	1685.48
422.07	1781.73
422.27	1732.58
422.48	1695.72
422.69	1763.30
422.89	1689.57
423.10	1658.85
423.30	1699.81
423.51	1744.87
423.72	1705.96
423.92	1728.49
424.13	1621.99
424.33	1726.44
424.54	1751.01
424.75	1746.92
424.95	1740.77
425.16	1759.21
425.36	1746.92
425.57	1761.25
425.78	1712.10
425.98	1779.68
426.19	1718.25
426.39	1695.72
426.60	1740.77
426.81	1822.69
427.01	1726.44
427.22	1730.53
427.42	1705.96
427.63	1648.61
427.83	1716.20
428.04	1886.18
428.25	1845.22
428.45	1822.69
428.66	1789.92
428.86	1650.66
429.07	1724.39
429.28	1720.29
429.48	1708.01
429.69	1705.96
429.89	1773.54
430.10	1658.85
430.30	1753.06
430.51	1773.54
430.71	1701.86
430.92	1703.91
431.13	1693.67
431.33	1740.77
431.54	1746.92
431.74	1808.36
431.95	1853.41
432.15	1654.76
432.36	1673.19
432.56	1814.50
432.77	1882.08
432.98	1832.93
433.18	1728.49
433.39	1726.44
433.59	1720.29
433.80	1789.92
434.00	1847.27
434.21	1650.66
434.41	1738.73
434.62	1871.84
434.82	1640.42
435.03	1755.11
435.23	1759.21
435.44	1615.85
435.64	1652.71
435.85	1697.77
436.06	1742.82
436.26	1753.06
436.47	1730.53
436.67	1648.61
436.88	1662.95
437.08	1730.53
437.29	1847.27
437.49	1779.68
437.70	1816.55
437.90	1796.07
438.11	1890.28
438.31	1767.40
438.52	1802.21
438.72	1845.22
438.93	1886.18
439.13	1837.03
439.34	1773.54
439.54	1818.60
439.75	1779.68
439.95	1767.40
440.16	1722.34
440.36	1744.87
440.57	1757.16
440.77	1832.93
440.98	1722.34
441.18	1724.39
441.39	1734.63
441.59	1691.62
441.80	1900.52
442.00	1765.35
442.21	1769.44
442.41	1718.25
442.62	1837.03
442.82	1708.01
443.02	1761.25
443.23	1800.16
443.43	1714.15
443.64	1857.51
443.84	1662.95
444.05	1855.46
444.25	1845.22
444.46	1714.15
444.66	1681.38
444.87	1861.60
445.07	1619.94
445.28	1730.53
445.48	1853.41
445.69	1796.07
445.89	1855.46
446.09	1755.11
446.30	2041.82
446.50	2703.32
446.71	3735.50
446.91	4202.43
447.12	4693.94
447.32	4806.58
447.53	4337.60
447.73	3952.58
447.93	3555.27
448.14	3246.03
448.34	3289.04
448.55	2899.92
448.75	2875.35
448.96	2701.27
449.16	2441.18
449.36	2213.85
449.57	2138.08
449.77	1937.38
449.98	1787.88
450.18	1791.97
450.39	1947.62
450.59	1814.50
450.79	1769.44
451.00	1724.39
451.20	1886.18
451.41	1632.23
451.61	1791.97
451.81	1753.06
452.02	1742.82
452.22	1695.72
452.43	1767.40
452.63	1683.43
