SpectraSuite Data File
++++++++++++++++++++++++++++++++++++
Date: Mon Jun 06 15:36:37 CEST 2016
User: root
Dark Spectrum Present: No
Reference Spectrum Present: No
Number of Sampled Component Spectra: 1
Spectrometers: USB4C02835
Integration Time (usec): 100000 (USB4C02835)
Spectra Averaged: 1 (USB4C02835)
Boxcar Smoothing: 0 (USB4C02835)
Correct for Electrical Dark: No (USB4C02835)
Strobe/Lamp Enabled: No (USB4C02835)
Correct for Detector Non-linearity: No (USB4C02835)
Correct for Stray Light: No (USB4C02835)
Number of Pixels in Processed Spectrum: 3648
>>>>>Begin Processed Spectral Data<<<<<
177.47	1509.35
177.69	1509.35
177.91	1509.35
178.13	1484.78
178.36	1550.31
178.58	1681.38
178.80	1841.12
179.02	1607.66
179.24	1701.86
179.46	1736.68
179.68	1779.68
179.90	1675.24
180.13	1787.88
180.35	1656.81
180.57	1667.05
180.79	1748.97
181.01	1720.29
181.23	1759.21
181.45	1763.30
181.67	1746.92
181.90	1779.68
182.12	1708.01
182.34	1652.71
182.56	1751.01
182.78	1673.19
183.00	1734.63
183.22	1728.49
183.44	1673.19
183.66	1834.98
183.89	1761.25
184.11	1755.11
184.33	1775.59
184.55	1734.63
184.77	1667.05
184.99	1716.20
185.21	1689.57
185.43	1861.60
185.65	1701.86
185.87	1748.97
186.10	1779.68
186.32	1830.88
186.54	1689.57
186.76	1808.36
186.98	1751.01
187.20	1732.58
187.42	1683.43
187.64	1724.39
187.86	1669.09
188.08	1744.87
188.30	1613.80
188.52	1624.04
188.75	1740.77
188.97	1794.02
189.19	1630.18
189.41	1740.77
189.63	1742.82
189.85	1740.77
190.07	1691.62
190.29	1679.33
190.51	1736.68
190.73	1683.43
190.95	1738.73
191.17	1708.01
191.39	1701.86
191.61	1746.92
191.84	1646.57
192.06	1714.15
192.28	1689.57
192.50	1830.88
192.72	1732.58
192.94	1705.96
193.16	1855.46
193.38	1730.53
193.60	1677.29
193.82	1658.85
194.04	1775.59
194.26	1736.68
194.48	1605.61
194.70	1714.15
194.92	1648.61
195.14	1710.05
195.36	1671.14
195.58	1720.29
195.80	1687.53
196.02	1581.03
196.24	1736.68
196.46	1757.16
196.69	1689.57
196.91	1820.64
197.13	1779.68
197.35	1593.32
197.57	1841.12
197.79	1794.02
198.01	1751.01
198.23	1714.15
198.45	1789.92
198.67	1716.20
198.89	1689.57
199.11	1734.63
199.33	1800.16
199.55	1624.04
199.77	1683.43
199.99	1675.24
200.21	1693.67
200.43	1695.72
200.65	1669.09
200.87	1589.22
201.09	1656.81
201.31	1714.15
201.53	1771.49
201.75	1730.53
201.97	1714.15
202.19	1699.81
202.41	1744.87
202.63	1859.56
202.85	1722.34
203.07	1802.21
203.29	1689.57
203.51	1695.72
203.73	1681.38
203.95	1857.51
204.17	1751.01
204.39	1763.30
204.61	1658.85
204.83	1691.62
205.05	1742.82
205.27	1755.11
205.49	1888.23
205.71	1740.77
205.93	1665.00
206.15	1689.57
206.37	1675.24
206.59	1673.19
206.81	1566.70
207.03	1738.73
207.25	1675.24
207.47	1789.92
207.69	1714.15
207.91	1775.59
208.13	1804.26
208.34	1642.47
208.56	1665.00
208.78	1720.29
209.00	1644.52
209.22	1593.32
209.44	1673.19
209.66	1738.73
209.88	1705.96
210.10	1677.29
210.32	1763.30
210.54	1777.64
210.76	1646.57
210.98	1814.50
211.20	1562.60
211.42	1675.24
211.64	1796.07
211.86	1738.73
212.08	1738.73
212.30	1755.11
212.52	1607.66
212.74	1699.81
212.96	1703.91
213.17	1775.59
213.39	1826.79
213.61	1781.73
213.83	1726.44
214.05	1712.10
214.27	1757.16
214.49	1669.09
214.71	1681.38
214.93	1734.63
215.15	1710.05
215.37	1689.57
215.59	1683.43
215.81	1781.73
216.03	1734.63
216.24	1697.77
216.46	1746.92
216.68	1665.00
216.90	1730.53
217.12	1761.25
217.34	1744.87
217.56	1703.91
217.78	1791.97
218.00	1691.62
218.22	1738.73
218.44	1724.39
218.66	1769.44
218.87	1791.97
219.09	1648.61
219.31	1744.87
219.53	1712.10
219.75	1687.53
219.97	1679.33
220.19	1812.45
220.41	1640.42
220.63	1857.51
220.85	1720.29
221.06	1671.14
221.28	1710.05
221.50	1718.25
221.72	1716.20
221.94	1730.53
222.16	1718.25
222.38	1734.63
222.60	1687.53
222.82	1703.91
223.03	1736.68
223.25	1607.66
223.47	1658.85
223.69	1775.59
223.91	1783.78
224.13	1728.49
224.35	1761.25
224.57	1728.49
224.78	1746.92
225.00	1701.86
225.22	1591.27
225.44	1746.92
225.66	1705.96
225.88	1701.86
226.10	1816.55
226.32	1703.91
226.53	1783.78
226.75	1787.88
226.97	1652.71
227.19	1660.90
227.41	1652.71
227.63	1646.57
227.85	1619.94
228.06	1736.68
228.28	1671.14
228.50	1753.06
228.72	1636.33
228.94	1671.14
229.16	1644.52
229.37	1648.61
229.59	1683.43
229.81	1806.31
230.03	1699.81
230.25	1589.22
230.47	1558.50
230.69	1648.61
230.90	1691.62
231.12	1699.81
231.34	1769.44
231.56	1763.30
231.78	1699.81
232.00	1753.06
232.21	1679.33
232.43	1691.62
232.65	1542.12
232.87	1781.73
233.09	1699.81
233.30	1724.39
233.52	1869.80
233.74	1726.44
233.96	1748.97
234.18	1738.73
234.40	1693.67
234.61	1767.40
234.83	1626.09
235.05	1628.14
235.27	1843.17
235.49	1806.31
235.70	1742.82
235.92	1728.49
236.14	1658.85
236.36	1845.22
236.58	1667.05
236.79	1779.68
237.01	1732.58
237.23	1669.09
237.45	1789.92
237.67	1658.85
237.88	1767.40
238.10	1798.12
238.32	1642.47
238.54	1697.77
238.76	1697.77
238.97	1681.38
239.19	1644.52
239.41	1757.16
239.63	1748.97
239.85	1685.48
240.06	1757.16
240.28	1675.24
240.50	1753.06
240.72	1654.76
240.93	1679.33
241.15	1816.55
241.37	1701.86
241.59	1714.15
241.81	1689.57
242.02	1603.56
242.24	1712.10
242.46	1755.11
242.68	1712.10
242.89	1710.05
243.11	1675.24
243.33	1716.20
243.55	1716.20
243.76	1814.50
243.98	1689.57
244.20	1697.77
244.42	1722.34
244.64	1767.40
244.85	1738.73
245.07	1611.75
245.29	1687.53
245.51	1626.09
245.72	1740.77
245.94	1775.59
246.16	1746.92
246.38	1761.25
246.59	1642.47
246.81	1730.53
247.03	1662.95
247.24	1615.85
247.46	1685.48
247.68	1714.15
247.90	1671.14
248.11	1753.06
248.33	1775.59
248.55	1681.38
248.77	1681.38
248.98	1771.49
249.20	1818.60
249.42	1693.67
249.64	1748.97
249.85	1681.38
250.07	1728.49
250.29	1837.03
250.50	1759.21
250.72	1609.70
250.94	1740.77
251.16	1869.80
251.37	1789.92
251.59	1783.78
251.81	1714.15
252.02	1724.39
252.24	1691.62
252.46	1746.92
252.68	1669.09
252.89	1679.33
253.11	1527.78
253.33	1779.68
253.54	1757.16
253.76	1687.53
253.98	1701.86
254.20	1695.72
254.41	1669.09
254.63	1742.82
254.85	1640.42
255.06	1726.44
255.28	1728.49
255.50	1660.90
255.71	1632.23
255.93	1630.18
256.15	1761.25
256.36	1789.92
256.58	1683.43
256.80	1751.01
257.02	1673.19
257.23	1755.11
257.45	1728.49
257.67	1845.22
257.88	1679.33
258.10	1722.34
258.32	1640.42
258.53	1728.49
258.75	1798.12
258.97	1683.43
259.18	1748.97
259.40	1724.39
259.62	1849.32
259.83	1808.36
260.05	1753.06
260.27	1970.15
260.48	1802.21
260.70	1693.67
260.92	1685.48
261.13	1714.15
261.35	1712.10
261.57	1794.02
261.78	1591.27
262.00	1634.28
262.22	1712.10
262.43	1609.70
262.65	1683.43
262.86	1773.54
263.08	1869.80
263.30	1769.44
263.51	1654.76
263.73	1648.61
263.95	1804.26
264.16	1697.77
264.38	1621.99
264.60	1759.21
264.81	1751.01
265.03	1728.49
265.25	1730.53
265.46	1708.01
265.68	1828.84
265.89	1718.25
266.11	1607.66
266.33	1810.40
266.54	1834.98
266.76	1767.40
266.98	1804.26
267.19	1763.30
267.41	1779.68
267.62	1650.66
267.84	1587.18
268.06	1808.36
268.27	1705.96
268.49	1751.01
268.70	1738.73
268.92	1701.86
269.14	1619.94
269.35	1611.75
269.57	1736.68
269.79	1763.30
270.00	1738.73
270.22	1794.02
270.43	1640.42
270.65	1587.18
270.87	1734.63
271.08	1689.57
271.30	1755.11
271.51	1671.14
271.73	1779.68
271.95	1771.49
272.16	1687.53
272.38	1658.85
272.59	1677.29
272.81	1783.78
273.02	1759.21
273.24	1746.92
273.46	1701.86
273.67	1648.61
273.89	1652.71
274.10	1742.82
274.32	1669.09
274.54	1667.05
274.75	1724.39
274.97	1728.49
275.18	1744.87
275.40	1691.62
275.61	1658.85
275.83	1689.57
276.05	1587.18
276.26	1730.53
276.48	1796.07
276.69	1726.44
276.91	1769.44
277.12	1767.40
277.34	1787.88
277.55	1689.57
277.77	1742.82
277.99	1695.72
278.20	1595.37
278.42	1638.38
278.63	1642.47
278.85	1681.38
279.06	1697.77
279.28	1730.53
279.49	1736.68
279.71	1730.53
279.93	1730.53
280.14	1703.91
280.36	1660.90
280.57	1728.49
280.79	1650.66
281.00	1673.19
281.22	1726.44
281.43	1779.68
281.65	1658.85
281.86	1738.73
282.08	1726.44
282.29	1802.21
282.51	1638.38
282.73	1593.32
282.94	1656.81
283.16	1656.81
283.37	1789.92
283.59	1687.53
283.80	1818.60
284.02	1710.05
284.23	1718.25
284.45	1736.68
284.66	1667.05
284.88	1632.23
285.09	1705.96
285.31	1681.38
285.52	1802.21
285.74	1621.99
285.95	1841.12
286.17	1804.26
286.38	1794.02
286.60	1640.42
286.81	1697.77
287.03	1804.26
287.24	1693.67
287.46	1708.01
287.67	1746.92
287.89	1775.59
288.10	1677.29
288.32	1744.87
288.53	1812.45
288.75	1681.38
288.96	1771.49
289.18	1662.95
289.39	1687.53
289.61	1738.73
289.82	1832.93
290.04	1796.07
290.25	1656.81
290.47	1787.88
290.68	1712.10
290.90	1757.16
291.11	1585.13
291.33	1724.39
291.54	1714.15
291.76	1630.18
291.97	1718.25
292.18	1718.25
292.40	1628.14
292.61	1665.00
292.83	1875.94
293.04	1675.24
293.26	1660.90
293.47	1695.72
293.69	1624.04
293.90	1701.86
294.12	1820.64
294.33	1656.81
294.55	1734.63
294.76	1765.35
294.97	1736.68
295.19	1820.64
295.40	1708.01
295.62	1740.77
295.83	1791.97
296.05	1718.25
296.26	1830.88
296.48	1695.72
296.69	1771.49
296.90	1636.33
297.12	1796.07
297.33	1843.17
297.55	1726.44
297.76	1822.69
297.98	1759.21
298.19	1726.44
298.41	1648.61
298.62	1712.10
298.83	1800.16
299.05	1734.63
299.26	1693.67
299.48	1644.52
299.69	1734.63
299.90	1671.14
300.12	1591.27
300.33	1744.87
300.55	1710.05
300.76	1710.05
300.98	1703.91
301.19	1728.49
301.40	1724.39
301.62	1718.25
301.83	1689.57
302.05	1658.85
302.26	1746.92
302.47	1791.97
302.69	1624.04
302.90	1755.11
303.12	1558.50
303.33	1814.50
303.54	1820.64
303.76	1619.94
303.97	1740.77
304.19	1816.55
304.40	1673.19
304.61	1804.26
304.83	1789.92
305.04	1832.93
305.26	1685.48
305.47	1679.33
305.68	1775.59
305.90	1591.27
306.11	1677.29
306.33	1738.73
306.54	1665.00
306.75	1714.15
306.97	1677.29
307.18	1605.61
307.39	1673.19
307.61	1816.55
307.82	1732.58
308.04	1779.68
308.25	1673.19
308.46	1720.29
308.68	1695.72
308.89	1714.15
309.10	1789.92
309.32	1773.54
309.53	1697.77
309.74	1794.02
309.96	1640.42
310.17	1755.11
310.39	1636.33
310.60	1824.74
310.81	1740.77
311.03	1568.74
311.24	1734.63
311.45	1716.20
311.67	1832.93
311.88	1714.15
312.09	1697.77
312.31	1738.73
312.52	1718.25
312.73	1759.21
312.95	1621.99
313.16	1681.38
313.37	1779.68
313.59	1761.25
313.80	1712.10
314.01	1832.93
314.23	1699.81
314.44	1720.29
314.65	1685.48
314.87	1699.81
315.08	1732.58
315.29	1665.00
315.51	1642.47
315.72	1691.62
315.93	1767.40
316.15	1812.45
316.36	1691.62
316.57	1697.77
316.79	1814.50
317.00	1665.00
317.21	1740.77
317.43	1716.20
317.64	1665.00
317.85	1599.46
318.07	1632.23
318.28	1660.90
318.49	1759.21
318.70	1968.10
318.92	1837.03
319.13	1810.40
319.34	1853.41
319.56	1789.92
319.77	1826.79
319.98	1798.12
320.20	1849.32
320.41	1730.53
320.62	1796.07
320.83	1695.72
321.05	1837.03
321.26	1728.49
321.47	1650.66
321.69	1736.68
321.90	1597.42
322.11	1681.38
322.32	1712.10
322.54	1773.54
322.75	1621.99
322.96	1837.03
323.18	1634.28
323.39	1609.70
323.60	1705.96
323.81	1673.19
324.03	1628.14
324.24	1701.86
324.45	1685.48
324.66	1619.94
324.88	1785.83
325.09	1718.25
325.30	1689.57
325.52	1699.81
325.73	1757.16
325.94	1632.23
326.15	1570.79
326.37	1699.81
326.58	1730.53
326.79	1794.02
327.00	1621.99
327.22	1720.29
327.43	1703.91
327.64	1701.86
327.85	1820.64
328.07	1763.30
328.28	1816.55
328.49	1738.73
328.70	1667.05
328.92	1656.81
329.13	1632.23
329.34	1773.54
329.55	1794.02
329.76	1701.86
329.98	1701.86
330.19	1816.55
330.40	1736.68
330.61	1837.03
330.83	1796.07
331.04	1701.86
331.25	1712.10
331.46	1720.29
331.68	1667.05
331.89	1779.68
332.10	1718.25
332.31	1724.39
332.52	1660.90
332.74	1783.78
332.95	1714.15
333.16	1703.91
333.37	1703.91
333.58	1681.38
333.80	1785.83
334.01	1621.99
334.22	1730.53
334.43	1722.34
334.64	1705.96
334.86	1665.00
335.07	1716.20
335.28	1757.16
335.49	1685.48
335.70	1744.87
335.92	1812.45
336.13	1869.80
336.34	1730.53
336.55	1738.73
336.76	1746.92
336.98	1578.98
337.19	1687.53
337.40	1824.74
337.61	1949.67
337.82	1722.34
338.04	1714.15
338.25	1603.56
338.46	1734.63
338.67	1648.61
338.88	1632.23
339.09	1693.67
339.31	1630.18
339.52	1646.57
339.73	1574.89
339.94	1714.15
340.15	1775.59
340.36	1724.39
340.58	1720.29
340.79	1615.85
341.00	1751.01
341.21	1654.76
341.42	1796.07
341.63	1673.19
341.85	1773.54
342.06	1759.21
342.27	1699.81
342.48	1722.34
342.69	1624.04
342.90	1746.92
343.12	1787.88
343.33	1781.73
343.54	1804.26
343.75	1738.73
343.96	1789.92
344.17	1669.09
344.38	1710.05
344.60	1662.95
344.81	1634.28
345.02	1710.05
345.23	1777.64
345.44	1736.68
345.65	1734.63
345.86	1746.92
346.07	1697.77
346.29	1675.24
346.50	1736.68
346.71	1744.87
346.92	1789.92
347.13	1814.50
347.34	1640.42
347.55	1794.02
347.76	1734.63
347.98	1658.85
348.19	1644.52
348.40	1841.12
348.61	1720.29
348.82	1812.45
349.03	1759.21
349.24	1699.81
349.45	1882.08
349.66	1656.81
349.88	1742.82
350.09	1708.01
350.30	1802.21
350.51	1744.87
350.72	1800.16
350.93	1730.53
351.14	1662.95
351.35	1767.40
351.56	1769.44
351.77	1697.77
351.99	1697.77
352.20	1875.94
352.41	1781.73
352.62	1546.22
352.83	1662.95
353.04	1677.29
353.25	1718.25
353.46	1767.40
353.67	1734.63
353.88	1679.33
354.09	1685.48
354.30	1652.71
354.52	1714.15
354.73	1777.64
354.94	1665.00
355.15	1712.10
355.36	1783.78
355.57	1730.53
355.78	1716.20
355.99	1640.42
356.20	1671.14
356.41	1771.49
356.62	1751.01
356.83	1748.97
357.04	1796.07
357.25	1662.95
357.46	1740.77
357.68	1589.22
357.89	1652.71
358.10	1644.52
358.31	1761.25
358.52	1771.49
358.73	1753.06
358.94	1720.29
359.15	1769.44
359.36	1791.97
359.57	1718.25
359.78	1665.00
359.99	1810.40
360.20	1665.00
360.41	1611.75
360.62	1783.78
360.83	1691.62
361.04	1712.10
361.25	1687.53
361.46	1798.12
361.67	1699.81
361.88	1728.49
362.09	1847.27
362.30	1714.15
362.51	1675.24
362.72	1791.97
362.93	1724.39
363.14	1742.82
363.35	1683.43
363.56	1628.14
363.78	1681.38
363.99	1816.55
364.20	1646.57
364.41	1636.33
364.62	1826.79
364.83	1697.77
365.04	1726.44
365.25	1738.73
365.46	1849.32
365.67	1738.73
365.88	1650.66
366.09	1669.09
366.30	1689.57
366.51	1775.59
366.72	1638.38
366.93	1669.09
367.14	1746.92
367.35	1785.83
367.56	1753.06
367.77	1798.12
367.98	1779.68
368.18	1789.92
368.39	1726.44
368.60	1673.19
368.81	1820.64
369.02	1779.68
369.23	1722.34
369.44	1619.94
369.65	1656.81
369.86	1712.10
370.07	1753.06
370.28	1673.19
370.49	1767.40
370.70	1714.15
370.91	1640.42
371.12	1703.91
371.33	1771.49
371.54	1669.09
371.75	1806.31
371.96	1615.85
372.17	1685.48
372.38	1796.07
372.59	1697.77
372.80	1703.91
373.01	1669.09
373.22	1765.35
373.43	1691.62
373.64	1685.48
373.85	1740.77
374.06	1820.64
374.26	1804.26
374.47	1804.26
374.68	1718.25
374.89	1714.15
375.10	1665.00
375.31	1753.06
375.52	1714.15
375.73	1687.53
375.94	1634.28
376.15	1789.92
376.36	1781.73
376.57	1693.67
376.78	1705.96
376.99	1687.53
377.20	1785.83
377.40	1695.72
377.61	1810.40
377.82	1667.05
378.03	1751.01
378.24	1748.97
378.45	1740.77
378.66	1794.02
378.87	1689.57
379.08	1681.38
379.29	1693.67
379.50	1705.96
379.71	1658.85
379.91	1722.34
380.12	1658.85
380.33	1751.01
380.54	1671.14
380.75	1744.87
380.96	1665.00
381.17	1718.25
381.38	1644.52
381.59	1730.53
381.80	1773.54
382.00	1841.12
382.21	1748.97
382.42	1830.88
382.63	1867.75
382.84	1765.35
383.05	1742.82
383.26	1902.56
383.47	1736.68
383.68	1738.73
383.88	1794.02
384.09	1765.35
384.30	1888.23
384.51	1665.00
384.72	1742.82
384.93	1607.66
385.14	1703.91
385.35	1791.97
385.55	1687.53
385.76	1837.03
385.97	1701.86
386.18	1724.39
386.39	1724.39
386.60	1701.86
386.81	1685.48
387.02	1687.53
387.22	1718.25
387.43	1748.97
387.64	1877.99
387.85	1957.86
388.06	2062.30
388.27	4151.23
388.48	6694.81
388.68	8083.33
388.89	9486.19
389.10	9412.46
389.31	8486.78
389.52	7495.57
389.73	6805.40
389.93	6137.76
390.14	5752.74
390.35	5066.67
390.56	4511.68
390.77	3782.60
390.98	2922.45
391.18	2473.95
391.39	2131.94
391.60	1855.46
391.81	1853.41
392.02	1740.77
392.23	1830.88
392.43	1798.12
392.64	1783.78
392.85	1646.57
393.06	1814.50
393.27	1783.78
393.47	1708.01
393.68	1722.34
393.89	1658.85
394.10	1783.78
394.31	1718.25
394.52	1691.62
394.72	1650.66
394.93	1857.51
395.14	1658.85
395.35	1818.60
395.56	1718.25
395.76	1701.86
395.97	1791.97
396.18	1869.80
396.39	1861.60
396.60	2019.30
396.80	1992.67
397.01	1912.80
397.22	1871.84
397.43	1873.89
397.64	1708.01
397.84	1765.35
398.05	1830.88
398.26	1767.40
398.47	1714.15
398.67	1886.18
398.88	1806.31
399.09	1738.73
399.30	1689.57
399.51	1845.22
399.71	1685.48
399.92	1738.73
400.13	1769.44
400.34	1705.96
400.54	1695.72
400.75	1845.22
400.96	1783.78
401.17	1892.32
401.37	1820.64
401.58	1767.40
401.79	1703.91
402.00	1896.42
402.21	2021.35
402.41	1970.15
402.62	2041.82
402.83	1996.77
403.04	1951.71
403.24	2043.87
403.45	1904.61
403.66	1892.32
403.87	1910.75
404.07	1947.62
404.28	1888.23
404.49	1890.28
404.70	1808.36
404.90	1826.79
405.11	1742.82
405.32	1738.73
405.52	1742.82
405.73	1759.21
405.94	1712.10
406.15	1728.49
406.35	1736.68
406.56	1812.45
406.77	1724.39
406.98	1769.44
407.18	1722.34
407.39	1777.64
407.60	1669.09
407.80	1730.53
408.01	1609.70
408.22	1722.34
408.43	1656.81
408.63	1796.07
408.84	1818.60
409.05	1748.97
409.25	1632.23
409.46	1667.05
409.67	1697.77
409.88	1638.38
410.08	1806.31
410.29	1656.81
410.50	1787.88
410.70	1730.53
410.91	1632.23
411.12	1705.96
411.32	1791.97
411.53	1650.66
411.74	1834.98
411.95	1820.64
412.15	1828.84
412.36	1841.12
412.57	1718.25
412.77	1791.97
412.98	1759.21
413.19	1671.14
413.39	1748.97
413.60	1771.49
413.81	1849.32
414.01	1669.09
414.22	1720.29
414.43	1695.72
414.63	1744.87
414.84	1736.68
415.05	1771.49
415.25	1632.23
415.46	1820.64
415.67	1669.09
415.87	1734.63
416.08	1757.16
416.29	1716.20
416.49	1712.10
416.70	1677.29
416.91	1761.25
417.11	1656.81
417.32	1730.53
417.53	1832.93
417.73	1683.43
417.94	1669.09
418.15	1695.72
418.35	1667.05
418.56	1751.01
418.77	1830.88
418.97	1693.67
419.18	1691.62
419.38	1626.09
419.59	1720.29
419.80	1804.26
420.00	1724.39
420.21	1767.40
420.42	1779.68
420.62	1757.16
420.83	1648.61
421.04	1708.01
421.24	1718.25
421.45	1771.49
421.65	1742.82
421.86	1773.54
422.07	1783.78
422.27	1775.59
422.48	1671.14
422.69	1699.81
422.89	1634.28
423.10	1705.96
423.30	1671.14
423.51	1671.14
423.72	1722.34
423.92	1794.02
424.13	1638.38
424.33	1703.91
424.54	1722.34
424.75	1687.53
424.95	1806.31
425.16	1695.72
425.36	1734.63
425.57	1767.40
425.78	1705.96
425.98	1767.40
426.19	1703.91
426.39	1607.66
426.60	1736.68
426.81	1839.08
427.01	1720.29
427.22	1654.76
427.42	1644.52
427.63	1617.90
427.83	1806.31
428.04	1785.83
428.25	1785.83
428.45	1816.55
428.66	1804.26
428.86	1738.73
429.07	1703.91
429.28	1714.15
429.48	1759.21
429.69	1728.49
429.89	1738.73
430.10	1632.23
430.30	1753.06
430.51	1820.64
430.71	1660.90
430.92	1699.81
431.13	1636.33
431.33	1730.53
431.54	1671.14
431.74	1800.16
431.95	1834.98
432.15	1665.00
432.36	1660.90
432.56	1748.97
432.77	1769.44
432.98	1806.31
433.18	1724.39
433.39	1746.92
433.59	1681.38
433.80	1800.16
434.00	1839.08
434.21	1689.57
434.41	1597.42
434.62	1900.52
434.82	1675.24
435.03	1679.33
435.23	1769.44
435.44	1574.89
435.64	1783.78
435.85	1783.78
436.06	1804.26
436.26	1726.44
436.47	1703.91
436.67	1703.91
436.88	1755.11
437.08	1787.88
437.29	1861.60
437.49	1736.68
437.70	1740.77
437.90	1714.15
438.11	1918.95
438.31	1818.60
438.52	1828.84
438.72	1914.85
438.93	1900.52
439.13	1738.73
439.34	1789.92
439.54	1716.20
439.75	1732.58
439.95	1851.36
440.16	1710.05
440.36	1832.93
440.57	1783.78
440.77	1710.05
440.98	1744.87
441.18	1728.49
441.39	1685.48
441.59	1703.91
441.80	1906.66
442.00	1730.53
442.21	1925.09
442.41	1679.33
442.62	1734.63
442.82	1673.19
443.02	1712.10
443.23	1722.34
443.43	1732.58
443.64	1828.84
443.84	1673.19
444.05	1843.17
444.25	1826.79
444.46	1724.39
444.66	1730.53
444.87	1865.70
445.07	1681.38
445.28	1746.92
445.48	1826.79
445.69	1800.16
445.89	1847.27
446.09	1691.62
446.30	2025.44
446.50	2731.99
446.71	3684.30
446.91	4282.30
447.12	4612.03
447.32	4753.34
447.53	4302.78
447.73	3885.00
447.93	3405.77
448.14	3172.30
448.34	3209.17
448.55	2920.40
448.75	2858.96
448.96	2631.64
449.16	2402.27
449.36	2385.88
449.57	2002.91
449.77	1947.62
449.98	1791.97
450.18	1755.11
450.39	1822.69
450.59	1804.26
450.79	1742.82
451.00	1759.21
451.20	1787.88
451.41	1726.44
451.61	1740.77
451.81	1714.15
452.02	1738.73
452.22	1724.39
452.43	1701.86
452.63	1703.91
