SpectraSuite Data File
++++++++++++++++++++++++++++++++++++
Date: Mon Jun 06 13:37:17 CEST 2016
User: root
Dark Spectrum Present: No
Reference Spectrum Present: No
Number of Sampled Component Spectra: 1
Spectrometers: USB4C02835
Integration Time (usec): 100000 (USB4C02835)
Spectra Averaged: 1 (USB4C02835)
Boxcar Smoothing: 0 (USB4C02835)
Correct for Electrical Dark: No (USB4C02835)
Strobe/Lamp Enabled: No (USB4C02835)
Correct for Detector Non-linearity: No (USB4C02835)
Correct for Stray Light: No (USB4C02835)
Number of Pixels in Processed Spectrum: 3648
>>>>>Begin Processed Spectral Data<<<<<
177.47	1476.59
177.69	1476.59
177.91	1476.59
178.13	1505.26
178.36	1517.54
178.58	1742.82
178.80	1669.09
179.02	1628.14
179.24	1685.48
179.46	1732.58
179.68	1671.14
179.90	1726.44
180.13	1738.73
180.35	1671.14
180.57	1695.72
180.79	1744.87
181.01	1656.81
181.23	1710.05
181.45	1771.49
181.67	1671.14
181.90	1722.34
182.12	1691.62
182.34	1658.85
182.56	1722.34
182.78	1718.25
183.00	1681.38
183.22	1705.96
183.44	1591.27
183.66	1826.79
183.89	1828.84
184.11	1681.38
184.33	1751.01
184.55	1818.60
184.77	1744.87
184.99	1746.92
185.21	1669.09
185.43	1839.08
185.65	1701.86
185.87	1718.25
186.10	1697.77
186.32	1763.30
186.54	1691.62
186.76	1708.01
186.98	1738.73
187.20	1730.53
187.42	1697.77
187.64	1648.61
187.86	1673.19
188.08	1716.20
188.30	1701.86
188.52	1693.67
188.75	1677.29
188.97	1787.88
189.19	1687.53
189.41	1652.71
189.63	1697.77
189.85	1644.52
190.07	1640.42
190.29	1679.33
190.51	1689.57
190.73	1587.18
190.95	1775.59
191.17	1669.09
191.39	1607.66
191.61	1712.10
191.84	1652.71
192.06	1738.73
192.28	1611.75
192.50	1882.08
192.72	1742.82
192.94	1683.43
193.16	1794.02
193.38	1763.30
193.60	1644.52
193.82	1574.89
194.04	1746.92
194.26	1675.24
194.48	1710.05
194.70	1589.22
194.92	1665.00
195.14	1746.92
195.36	1660.90
195.58	1712.10
195.80	1730.53
196.02	1726.44
196.24	1646.57
196.46	1624.04
196.69	1611.75
196.91	1781.73
197.13	1701.86
197.35	1689.57
197.57	1718.25
197.79	1746.92
198.01	1699.81
198.23	1695.72
198.45	1710.05
198.67	1605.61
198.89	1740.77
199.11	1755.11
199.33	1636.33
199.55	1521.64
199.77	1691.62
199.99	1744.87
200.21	1724.39
200.43	1656.81
200.65	1632.23
200.87	1634.28
201.09	1673.19
201.31	1646.57
201.53	1722.34
201.75	1691.62
201.97	1693.67
202.19	1720.29
202.41	1761.25
202.63	1820.64
202.85	1734.63
203.07	1730.53
203.29	1722.34
203.51	1619.94
203.73	1605.61
203.95	1818.60
204.17	1724.39
204.39	1691.62
204.61	1710.05
204.83	1669.09
205.05	1767.40
205.27	1759.21
205.49	1898.47
205.71	1703.91
205.93	1621.99
206.15	1626.09
206.37	1605.61
206.59	1703.91
206.81	1636.33
207.03	1581.03
207.25	1687.53
207.47	1720.29
207.69	1724.39
207.91	1777.64
208.13	1753.06
208.34	1712.10
208.56	1609.70
208.78	1669.09
209.00	1693.67
209.22	1720.29
209.44	1685.48
209.66	1626.09
209.88	1689.57
210.10	1701.86
210.32	1681.38
210.54	1775.59
210.76	1621.99
210.98	1738.73
211.20	1607.66
211.42	1603.56
211.64	1742.82
211.86	1671.14
212.08	1755.11
212.30	1798.12
212.52	1669.09
212.74	1697.77
212.96	1712.10
213.17	1701.86
213.39	1765.35
213.61	1744.87
213.83	1576.94
214.05	1640.42
214.27	1724.39
214.49	1572.84
214.71	1662.95
214.93	1718.25
215.15	1763.30
215.37	1740.77
215.59	1630.18
215.81	1701.86
216.03	1710.05
216.24	1697.77
216.46	1677.29
216.68	1595.37
216.90	1716.20
217.12	1791.97
217.34	1714.15
217.56	1730.53
217.78	1791.97
218.00	1734.63
218.22	1763.30
218.44	1695.72
218.66	1619.94
218.87	1794.02
219.09	1662.95
219.31	1740.77
219.53	1738.73
219.75	1675.24
219.97	1712.10
220.19	1705.96
220.41	1724.39
220.63	1730.53
220.85	1689.57
221.06	1662.95
221.28	1724.39
221.50	1796.07
221.72	1644.52
221.94	1705.96
222.16	1714.15
222.38	1773.54
222.60	1726.44
222.82	1693.67
223.03	1654.76
223.25	1638.38
223.47	1695.72
223.69	1728.49
223.91	1742.82
224.13	1675.24
224.35	1716.20
224.57	1757.16
224.78	1761.25
225.00	1628.14
225.22	1697.77
225.44	1683.43
225.66	1685.48
225.88	1671.14
226.10	1812.45
226.32	1771.49
226.53	1753.06
226.75	1665.00
226.97	1724.39
227.19	1755.11
227.41	1617.90
227.63	1626.09
227.85	1652.71
228.06	1712.10
228.28	1681.38
228.50	1740.77
228.72	1667.05
228.94	1638.38
229.16	1611.75
229.37	1656.81
229.59	1601.51
229.81	1722.34
230.03	1607.66
230.25	1648.61
230.47	1613.80
230.69	1697.77
230.90	1710.05
231.12	1642.47
231.34	1656.81
231.56	1716.20
231.78	1624.04
232.00	1673.19
232.21	1681.38
232.43	1648.61
232.65	1636.33
232.87	1734.63
233.09	1683.43
233.30	1644.52
233.52	1703.91
233.74	1724.39
233.96	1730.53
234.18	1714.15
234.40	1738.73
234.61	1806.31
234.83	1691.62
235.05	1746.92
235.27	1810.40
235.49	1783.78
235.70	1705.96
235.92	1736.68
236.14	1794.02
236.36	1839.08
236.58	1650.66
236.79	1742.82
237.01	1681.38
237.23	1683.43
237.45	1787.88
237.67	1718.25
237.88	1683.43
238.10	1716.20
238.32	1626.09
238.54	1705.96
238.76	1632.23
238.97	1673.19
239.19	1701.86
239.41	1675.24
239.63	1828.84
239.85	1646.57
240.06	1705.96
240.28	1648.61
240.50	1705.96
240.72	1662.95
240.93	1697.77
241.15	1742.82
241.37	1615.85
241.59	1791.97
241.81	1652.71
242.02	1644.52
242.24	1701.86
242.46	1720.29
242.68	1712.10
242.89	1718.25
243.11	1783.78
243.33	1736.68
243.55	1732.58
243.76	1763.30
243.98	1624.04
244.20	1656.81
244.42	1691.62
244.64	1732.58
244.85	1617.90
245.07	1650.66
245.29	1693.67
245.51	1775.59
245.72	1755.11
245.94	1703.91
246.16	1695.72
246.38	1738.73
246.59	1665.00
246.81	1648.61
247.03	1759.21
247.24	1617.90
247.46	1716.20
247.68	1638.38
247.90	1685.48
248.11	1720.29
248.33	1736.68
248.55	1642.47
248.77	1761.25
248.98	1720.29
249.20	1802.21
249.42	1650.66
249.64	1744.87
249.85	1710.05
250.07	1665.00
250.29	1794.02
250.50	1732.58
250.72	1591.27
250.94	1669.09
251.16	1847.27
251.37	1755.11
251.59	1624.04
251.81	1738.73
252.02	1724.39
252.24	1693.67
252.46	1748.97
252.68	1683.43
252.89	1636.33
253.11	1572.84
253.33	1777.64
253.54	1814.50
253.76	1640.42
253.98	1611.75
254.20	1728.49
254.41	1585.13
254.63	1685.48
254.85	1679.33
255.06	1761.25
255.28	1650.66
255.50	1689.57
255.71	1628.14
255.93	1671.14
256.15	1677.29
256.36	1693.67
256.58	1658.85
256.80	1650.66
257.02	1605.61
257.23	1677.29
257.45	1744.87
257.67	1714.15
257.88	1736.68
258.10	1759.21
258.32	1710.05
258.53	1746.92
258.75	1753.06
258.97	1648.61
259.18	1720.29
259.40	1648.61
259.62	1753.06
259.83	1740.77
260.05	1689.57
260.27	1964.00
260.48	1775.59
260.70	1648.61
260.92	1656.81
261.13	1757.16
261.35	1669.09
261.57	1740.77
261.78	1607.66
262.00	1693.67
262.22	1705.96
262.43	1681.38
262.65	1650.66
262.86	1667.05
263.08	1771.49
263.30	1789.92
263.51	1652.71
263.73	1591.27
263.95	1771.49
264.16	1740.77
264.38	1617.90
264.60	1710.05
264.81	1718.25
265.03	1722.34
265.25	1687.53
265.46	1740.77
265.68	1736.68
265.89	1753.06
266.11	1599.46
266.33	1767.40
266.54	1638.38
266.76	1722.34
266.98	1679.33
267.19	1742.82
267.41	1773.54
267.62	1665.00
267.84	1640.42
268.06	1708.01
268.27	1669.09
268.49	1695.72
268.70	1763.30
268.92	1615.85
269.14	1673.19
269.35	1626.09
269.57	1701.86
269.79	1736.68
270.00	1724.39
270.22	1796.07
270.43	1636.33
270.65	1574.89
270.87	1755.11
271.08	1712.10
271.30	1683.43
271.51	1722.34
271.73	1697.77
271.95	1767.40
272.16	1693.67
272.38	1744.87
272.59	1667.05
272.81	1746.92
273.02	1765.35
273.24	1775.59
273.46	1658.85
273.67	1665.00
273.89	1687.53
274.10	1667.05
274.32	1712.10
274.54	1718.25
274.75	1783.78
274.97	1671.14
275.18	1683.43
275.40	1787.88
275.61	1677.29
275.83	1685.48
276.05	1714.15
276.26	1699.81
276.48	1685.48
276.69	1628.14
276.91	1677.29
277.12	1800.16
277.34	1708.01
277.55	1771.49
277.77	1722.34
277.99	1697.77
278.20	1652.71
278.42	1621.99
278.63	1642.47
278.85	1630.18
279.06	1630.18
279.28	1789.92
279.49	1748.97
279.71	1705.96
279.93	1630.18
280.14	1722.34
280.36	1714.15
280.57	1847.27
280.79	1785.83
281.00	1632.23
281.22	1654.76
281.43	1740.77
281.65	1546.22
281.86	1656.81
282.08	1748.97
282.29	1789.92
282.51	1603.56
282.73	1681.38
282.94	1642.47
283.16	1708.01
283.37	1849.32
283.59	1683.43
283.80	1720.29
284.02	1671.14
284.23	1648.61
284.45	1699.81
284.66	1646.57
284.88	1730.53
285.09	1677.29
285.31	1726.44
285.52	1710.05
285.74	1570.79
285.95	1689.57
286.17	1718.25
286.38	1822.69
286.60	1665.00
286.81	1658.85
287.03	1699.81
287.24	1722.34
287.46	1753.06
287.67	1656.81
287.89	1769.44
288.10	1654.76
288.32	1740.77
288.53	1722.34
288.75	1757.16
288.96	1855.46
289.18	1693.67
289.39	1675.24
289.61	1779.68
289.82	1755.11
290.04	1820.64
290.25	1605.61
290.47	1708.01
290.68	1728.49
290.90	1744.87
291.11	1632.23
291.33	1808.36
291.54	1587.18
291.76	1654.76
291.97	1677.29
292.18	1757.16
292.40	1697.77
292.61	1712.10
292.83	1822.69
293.04	1665.00
293.26	1689.57
293.47	1675.24
293.69	1701.86
293.90	1630.18
294.12	1869.80
294.33	1742.82
294.55	1630.18
294.76	1826.79
294.97	1781.73
295.19	1843.17
295.40	1724.39
295.62	1658.85
295.83	1734.63
296.05	1617.90
296.26	1794.02
296.48	1619.94
296.69	1744.87
296.90	1710.05
297.12	1720.29
297.33	1751.01
297.55	1697.77
297.76	1773.54
297.98	1775.59
298.19	1644.52
298.41	1697.77
298.62	1677.29
298.83	1755.11
299.05	1712.10
299.26	1751.01
299.48	1609.70
299.69	1681.38
299.90	1724.39
300.12	1693.67
300.33	1722.34
300.55	1712.10
300.76	1687.53
300.98	1650.66
301.19	1701.86
301.40	1767.40
301.62	1665.00
301.83	1777.64
302.05	1621.99
302.26	1646.57
302.47	1730.53
302.69	1603.56
302.90	1675.24
303.12	1615.85
303.33	1724.39
303.54	1802.21
303.76	1615.85
303.97	1687.53
304.19	1834.98
304.40	1671.14
304.61	1763.30
304.83	1806.31
305.04	1761.25
305.26	1710.05
305.47	1665.00
305.68	1742.82
305.90	1570.79
306.11	1755.11
306.33	1658.85
306.54	1632.23
306.75	1624.04
306.97	1587.18
307.18	1689.57
307.39	1720.29
307.61	1814.50
307.82	1714.15
308.04	1753.06
308.25	1689.57
308.46	1662.95
308.68	1665.00
308.89	1742.82
309.10	1755.11
309.32	1626.09
309.53	1671.14
309.74	1667.05
309.96	1720.29
310.17	1738.73
310.39	1626.09
310.60	1742.82
310.81	1648.61
311.03	1609.70
311.24	1748.97
311.45	1718.25
311.67	1773.54
311.88	1728.49
312.09	1689.57
312.31	1730.53
312.52	1753.06
312.73	1689.57
312.95	1648.61
313.16	1617.90
313.37	1753.06
313.59	1732.58
313.80	1810.40
314.01	1714.15
314.23	1650.66
314.44	1714.15
314.65	1667.05
314.87	1708.01
315.08	1687.53
315.29	1677.29
315.51	1621.99
315.72	1578.98
315.93	1800.16
316.15	1740.77
316.36	1654.76
316.57	1785.83
316.79	1660.90
317.00	1689.57
317.21	1642.47
317.43	1687.53
317.64	1755.11
317.85	1628.14
318.07	1710.05
318.28	1744.87
318.49	1796.07
318.70	1957.86
318.92	1748.97
319.13	1855.46
319.34	1828.84
319.56	1767.40
319.77	1781.73
319.98	1816.55
320.20	1783.78
320.41	1734.63
320.62	1820.64
320.83	1611.75
321.05	1775.59
321.26	1783.78
321.47	1636.33
321.69	1740.77
321.90	1589.22
322.11	1669.09
322.32	1654.76
322.54	1804.26
322.75	1636.33
322.96	1877.99
323.18	1615.85
323.39	1599.46
323.60	1642.47
323.81	1767.40
324.03	1648.61
324.24	1671.14
324.45	1736.68
324.66	1697.77
324.88	1779.68
325.09	1847.27
325.30	1695.72
325.52	1720.29
325.73	1728.49
325.94	1697.77
326.15	1628.14
326.37	1740.77
326.58	1638.38
326.79	1767.40
327.00	1675.24
327.22	1732.58
327.43	1628.14
327.64	1605.61
327.85	1839.08
328.07	1769.44
328.28	1789.92
328.49	1640.42
328.70	1652.71
328.92	1660.90
329.13	1726.44
329.34	1703.91
329.55	1849.32
329.76	1791.97
329.98	1703.91
330.19	1736.68
330.40	1689.57
330.61	1753.06
330.83	1726.44
331.04	1705.96
331.25	1675.24
331.46	1720.29
331.68	1601.51
331.89	1738.73
332.10	1673.19
332.31	1630.18
332.52	1615.85
332.74	1748.97
332.95	1644.52
333.16	1732.58
333.37	1763.30
333.58	1712.10
333.80	1761.25
334.01	1583.08
334.22	1669.09
334.43	1638.38
334.64	1665.00
334.86	1576.94
335.07	1648.61
335.28	1757.16
335.49	1673.19
335.70	1701.86
335.92	1742.82
336.13	1771.49
336.34	1761.25
336.55	1724.39
336.76	1710.05
336.98	1656.81
337.19	1710.05
337.40	1859.56
337.61	1781.73
337.82	1628.14
338.04	1757.16
338.25	1566.70
338.46	1665.00
338.67	1761.25
338.88	1634.28
339.09	1591.27
339.31	1665.00
339.52	1669.09
339.73	1669.09
339.94	1665.00
340.15	1779.68
340.36	1679.33
340.58	1705.96
340.79	1671.14
341.00	1677.29
341.21	1656.81
341.42	1730.53
341.63	1679.33
341.85	1734.63
342.06	1751.01
342.27	1710.05
342.48	1708.01
342.69	1648.61
342.90	1738.73
343.12	1701.86
343.33	1638.38
343.54	1671.14
343.75	1738.73
343.96	1703.91
344.17	1589.22
344.38	1656.81
344.60	1642.47
344.81	1708.01
345.02	1671.14
345.23	1783.78
345.44	1822.69
345.65	1691.62
345.86	1699.81
346.07	1640.42
346.29	1677.29
346.50	1800.16
346.71	1746.92
346.92	1761.25
347.13	1785.83
347.34	1685.48
347.55	1689.57
347.76	1685.48
347.98	1695.72
348.19	1570.79
348.40	1738.73
348.61	1658.85
348.82	1800.16
349.03	1691.62
349.24	1648.61
349.45	1740.77
349.66	1605.61
349.88	1708.01
350.09	1693.67
350.30	1757.16
350.51	1824.74
350.72	1716.20
350.93	1712.10
351.14	1703.91
351.35	1761.25
351.56	1691.62
351.77	1671.14
351.99	1755.11
352.20	1816.55
352.41	1742.82
352.62	1609.70
352.83	1667.05
353.04	1728.49
353.25	1732.58
353.46	1742.82
353.67	1720.29
353.88	1607.66
354.09	1730.53
354.30	1691.62
354.52	1787.88
354.73	1724.39
354.94	1660.90
355.15	1751.01
355.36	1769.44
355.57	1726.44
355.78	1720.29
355.99	1710.05
356.20	1691.62
356.41	1677.29
356.62	1722.34
356.83	1648.61
357.04	1755.11
357.25	1656.81
357.46	1689.57
357.68	1601.51
357.89	1632.23
358.10	1783.78
358.31	1697.77
358.52	1697.77
358.73	1593.32
358.94	1597.42
359.15	1603.56
359.36	1777.64
359.57	1695.72
359.78	1699.81
359.99	1804.26
360.20	1699.81
360.41	1775.59
360.62	1730.53
360.83	1671.14
361.04	1710.05
361.25	1656.81
361.46	1808.36
361.67	1753.06
361.88	1744.87
362.09	1802.21
362.30	1708.01
362.51	1621.99
362.72	1728.49
362.93	1763.30
363.14	1673.19
363.35	1658.85
363.56	1626.09
363.78	1775.59
363.99	1779.68
364.20	1685.48
364.41	1669.09
364.62	1763.30
364.83	1763.30
365.04	1671.14
365.25	1685.48
365.46	1746.92
365.67	1658.85
365.88	1669.09
366.09	1720.29
366.30	1679.33
366.51	1687.53
366.72	1632.23
366.93	1705.96
367.14	1671.14
367.35	1779.68
367.56	1658.85
367.77	1683.43
367.98	1808.36
368.18	1675.24
368.39	1742.82
368.60	1695.72
368.81	1701.86
369.02	1611.75
369.23	1736.68
369.44	1607.66
369.65	1705.96
369.86	1771.49
370.07	1765.35
370.28	1673.19
370.49	1685.48
370.70	1705.96
370.91	1574.89
371.12	1564.65
371.33	1757.16
371.54	1662.95
371.75	1789.92
371.96	1624.04
372.17	1763.30
372.38	1722.34
372.59	1755.11
372.80	1632.23
373.01	1695.72
373.22	1667.05
373.43	1722.34
373.64	1669.09
373.85	1734.63
374.06	1798.12
374.26	1783.78
374.47	1683.43
374.68	1697.77
374.89	1691.62
375.10	1712.10
375.31	1726.44
375.52	1730.53
375.73	1724.39
375.94	1671.14
376.15	1800.16
376.36	1652.71
376.57	1691.62
376.78	1662.95
376.99	1814.50
377.20	1781.73
377.40	1703.91
377.61	1806.31
377.82	1628.14
378.03	1755.11
378.24	1714.15
378.45	1648.61
378.66	1691.62
378.87	1689.57
379.08	1619.94
379.29	1722.34
379.50	1828.84
379.71	1703.91
379.91	1724.39
380.12	1679.33
380.33	1708.01
380.54	1656.81
380.75	1638.38
380.96	1687.53
381.17	1769.44
381.38	1650.66
381.59	1755.11
381.80	1640.42
382.00	1839.08
382.21	1691.62
382.42	1802.21
382.63	1832.93
382.84	1787.88
383.05	1744.87
383.26	1812.45
383.47	1738.73
383.68	1777.64
383.88	1742.82
384.09	1679.33
384.30	1714.15
384.51	1738.73
384.72	1665.00
384.93	1630.18
385.14	1683.43
385.35	1773.54
385.55	1646.57
385.76	1753.06
385.97	1746.92
386.18	1632.23
386.39	1703.91
386.60	1675.24
386.81	1712.10
387.02	1738.73
387.22	1722.34
387.43	1837.03
387.64	1777.64
387.85	1929.19
388.06	2244.57
388.27	4294.59
388.48	6907.80
388.68	8234.88
388.89	9682.80
389.10	9906.02
389.31	8490.88
389.52	7536.52
389.73	6719.39
389.93	6309.79
390.14	5863.33
390.35	5148.59
390.56	4585.40
390.77	3815.37
390.98	3024.85
391.18	2557.91
391.39	2105.31
391.60	1875.94
391.81	1837.03
392.02	1687.53
392.23	1914.85
392.43	1775.59
392.64	1761.25
392.85	1730.53
393.06	1798.12
393.27	1751.01
393.47	1648.61
393.68	1701.86
393.89	1720.29
394.10	1734.63
394.31	1703.91
394.52	1689.57
394.72	1650.66
394.93	1779.68
395.14	1685.48
395.35	1712.10
395.56	1634.28
395.76	1705.96
395.97	1775.59
396.18	1834.98
396.39	1820.64
396.60	2035.68
396.80	1910.75
397.01	1837.03
397.22	1810.40
397.43	1861.60
397.64	1761.25
397.84	1761.25
398.05	1834.98
398.26	1779.68
398.47	1775.59
398.67	1828.84
398.88	1679.33
399.09	1753.06
399.30	1652.71
399.51	1736.68
399.71	1650.66
399.92	1687.53
400.13	1796.07
400.34	1648.61
400.54	1703.91
400.75	1828.84
400.96	1726.44
401.17	1839.08
401.37	1697.77
401.58	1697.77
401.79	1744.87
402.00	1810.40
402.21	1984.48
402.41	2033.63
402.62	1988.58
402.83	1957.86
403.04	2004.96
403.24	2058.21
403.45	1861.60
403.66	1939.43
403.87	1851.36
404.07	1890.28
404.28	1908.71
404.49	1914.85
404.70	1837.03
404.90	1738.73
405.11	1763.30
405.32	1755.11
405.52	1701.86
405.73	1677.29
405.94	1634.28
406.15	1660.90
406.35	1736.68
406.56	1775.59
406.77	1746.92
406.98	1697.77
407.18	1687.53
407.39	1837.03
407.60	1728.49
407.80	1720.29
408.01	1681.38
408.22	1683.43
408.43	1638.38
408.63	1689.57
408.84	1724.39
409.05	1771.49
409.25	1753.06
409.46	1708.01
409.67	1613.80
409.88	1714.15
410.08	1722.34
410.29	1673.19
410.50	1753.06
410.70	1730.53
410.91	1654.76
411.12	1722.34
411.32	1701.86
411.53	1751.01
411.74	1806.31
411.95	1751.01
412.15	1699.81
412.36	1820.64
412.57	1775.59
412.77	1730.53
412.98	1617.90
413.19	1708.01
413.39	1718.25
413.60	1796.07
413.81	1798.12
414.01	1617.90
414.22	1662.95
414.43	1755.11
414.63	1763.30
414.84	1804.26
415.05	1632.23
415.25	1632.23
415.46	1734.63
415.67	1677.29
415.87	1687.53
416.08	1757.16
416.29	1669.09
416.49	1681.38
416.70	1652.71
416.91	1675.24
417.11	1726.44
417.32	1716.20
417.53	1761.25
417.73	1755.11
417.94	1615.85
418.15	1650.66
418.35	1650.66
418.56	1636.33
418.77	1828.84
418.97	1734.63
419.18	1742.82
419.38	1497.07
419.59	1675.24
419.80	1722.34
420.00	1665.00
420.21	1732.58
420.42	1783.78
420.62	1742.82
420.83	1671.14
421.04	1708.01
421.24	1599.46
421.45	1689.57
421.65	1808.36
421.86	1636.33
422.07	1720.29
422.27	1742.82
422.48	1673.19
422.69	1626.09
422.89	1714.15
423.10	1714.15
423.30	1632.23
423.51	1746.92
423.72	1673.19
423.92	1740.77
424.13	1683.43
424.33	1757.16
424.54	1824.74
424.75	1716.20
424.95	1687.53
425.16	1681.38
425.36	1710.05
425.57	1824.74
425.78	1681.38
425.98	1787.88
426.19	1697.77
426.39	1636.33
426.60	1716.20
426.81	1765.35
427.01	1701.86
427.22	1667.05
427.42	1574.89
427.63	1705.96
427.83	1818.60
428.04	1773.54
428.25	1859.56
428.45	1775.59
428.66	1755.11
428.86	1787.88
429.07	1683.43
429.28	1775.59
429.48	1685.48
429.69	1624.04
429.89	1746.92
430.10	1656.81
430.30	1757.16
430.51	1740.77
430.71	1669.09
430.92	1732.58
431.13	1656.81
431.33	1757.16
431.54	1701.86
431.74	1726.44
431.95	1820.64
432.15	1675.24
432.36	1644.52
432.56	1751.01
432.77	1808.36
432.98	1787.88
433.18	1726.44
433.39	1665.00
433.59	1687.53
433.80	1808.36
434.00	1843.17
434.21	1671.14
434.41	1683.43
434.62	1810.40
434.82	1683.43
435.03	1644.52
435.23	1767.40
435.44	1538.02
435.64	1728.49
435.85	1673.19
436.06	1679.33
436.26	1742.82
436.47	1710.05
436.67	1675.24
436.88	1656.81
437.08	1787.88
437.29	1822.69
437.49	1736.68
437.70	1751.01
437.90	1691.62
438.11	1826.79
438.31	1808.36
438.52	1867.75
438.72	1914.85
438.93	1824.74
439.13	1763.30
439.34	1865.70
439.54	1753.06
439.75	1771.49
439.95	1773.54
440.16	1724.39
440.36	1742.82
440.57	1710.05
440.77	1708.01
440.98	1675.24
441.18	1806.31
441.39	1703.91
441.59	1675.24
441.80	1730.53
442.00	1748.97
442.21	1816.55
442.41	1685.48
442.62	1802.21
442.82	1708.01
443.02	1759.21
443.23	1681.38
443.43	1708.01
443.64	1808.36
443.84	1675.24
444.05	1796.07
444.25	1814.50
444.46	1753.06
444.66	1732.58
444.87	1796.07
445.07	1576.94
445.28	1708.01
445.48	1705.96
445.69	1755.11
445.89	1863.65
446.09	1718.25
446.30	1910.75
446.50	2664.41
446.71	3794.89
446.91	4245.44
447.12	4634.55
447.32	4806.58
447.53	4329.41
447.73	3770.31
447.93	3467.21
448.14	3311.57
448.34	3184.59
448.55	2832.34
448.75	2848.72
448.96	2656.22
449.16	2447.32
449.36	2346.97
449.57	2002.91
449.77	1906.66
449.98	1773.54
450.18	1691.62
450.39	1834.98
450.59	1773.54
450.79	1767.40
451.00	1687.53
451.20	1808.36
451.41	1732.58
451.61	1759.21
451.81	1720.29
452.02	1742.82
452.22	1751.01
452.43	1679.33
452.63	1687.53
