SpectraSuite Data File
++++++++++++++++++++++++++++++++++++
Date: Mon Jun 06 17:00:17 CEST 2016
User: root
Dark Spectrum Present: No
Reference Spectrum Present: No
Number of Sampled Component Spectra: 1
Spectrometers: USB4C02835
Integration Time (usec): 100000 (USB4C02835)
Spectra Averaged: 1 (USB4C02835)
Boxcar Smoothing: 0 (USB4C02835)
Correct for Electrical Dark: No (USB4C02835)
Strobe/Lamp Enabled: No (USB4C02835)
Correct for Detector Non-linearity: No (USB4C02835)
Correct for Stray Light: No (USB4C02835)
Number of Pixels in Processed Spectrum: 3648
>>>>>Begin Processed Spectral Data<<<<<
177.47	1402.86
177.69	1402.86
177.91	1402.86
178.13	1445.87
178.36	1507.30
178.58	1636.33
178.80	1816.55
179.02	1568.74
179.24	1679.33
179.46	1710.05
179.68	1812.45
179.90	1677.29
180.13	1724.39
180.35	1656.81
180.57	1699.81
180.79	1802.21
181.01	1669.09
181.23	1669.09
181.45	1783.78
181.67	1787.88
181.90	1685.48
182.12	1624.04
182.34	1699.81
182.56	1689.57
182.78	1708.01
183.00	1679.33
183.22	1710.05
183.44	1548.26
183.66	1771.49
183.89	1755.11
184.11	1738.73
184.33	1714.15
184.55	1816.55
184.77	1808.36
184.99	1703.91
185.21	1746.92
185.43	1708.01
185.65	1677.29
185.87	1667.05
186.10	1812.45
186.32	1910.75
186.54	1677.29
186.76	1732.58
186.98	1779.68
187.20	1708.01
187.42	1687.53
187.64	1708.01
187.86	1656.81
188.08	1736.68
188.30	1689.57
188.52	1685.48
188.75	1841.12
188.97	1757.16
189.19	1671.14
189.41	1705.96
189.63	1753.06
189.85	1675.24
190.07	1669.09
190.29	1660.90
190.51	1783.78
190.73	1615.85
190.95	1800.16
191.17	1730.53
191.39	1597.42
191.61	1662.95
191.84	1712.10
192.06	1738.73
192.28	1630.18
192.50	1898.47
192.72	1693.67
192.94	1773.54
193.16	1689.57
193.38	1654.76
193.60	1677.29
193.82	1648.61
194.04	1787.88
194.26	1714.15
194.48	1679.33
194.70	1736.68
194.92	1646.57
195.14	1732.58
195.36	1695.72
195.58	1791.97
195.80	1710.05
196.02	1599.46
196.24	1687.53
196.46	1738.73
196.69	1685.48
196.91	1814.50
197.13	1640.42
197.35	1695.72
197.57	1779.68
197.79	1746.92
198.01	1714.15
198.23	1800.16
198.45	1599.46
198.67	1718.25
198.89	1714.15
199.11	1685.48
199.33	1654.76
199.55	1665.00
199.77	1642.47
199.99	1804.26
200.21	1705.96
200.43	1736.68
200.65	1595.37
200.87	1619.94
201.09	1640.42
201.31	1716.20
201.53	1769.44
201.75	1783.78
201.97	1761.25
202.19	1683.43
202.41	1800.16
202.63	1869.80
202.85	1757.16
203.07	1679.33
203.29	1646.57
203.51	1656.81
203.73	1611.75
203.95	1853.41
204.17	1714.15
204.39	1773.54
204.61	1761.25
204.83	1726.44
205.05	1665.00
205.27	1746.92
205.49	1824.74
205.71	1669.09
205.93	1642.47
206.15	1599.46
206.37	1746.92
206.59	1673.19
206.81	1720.29
207.03	1679.33
207.25	1724.39
207.47	1748.97
207.69	1712.10
207.91	1771.49
208.13	1748.97
208.34	1669.09
208.56	1701.86
208.78	1779.68
209.00	1693.67
209.22	1660.90
209.44	1710.05
209.66	1683.43
209.88	1683.43
210.10	1681.38
210.32	1660.90
210.54	1796.07
210.76	1673.19
210.98	1771.49
211.20	1585.13
211.42	1714.15
211.64	1771.49
211.86	1708.01
212.08	1759.21
212.30	1742.82
212.52	1761.25
212.74	1679.33
212.96	1771.49
213.17	1703.91
213.39	1705.96
213.61	1861.60
213.83	1675.24
214.05	1656.81
214.27	1705.96
214.49	1675.24
214.71	1671.14
214.93	1767.40
215.15	1724.39
215.37	1697.77
215.59	1683.43
215.81	1787.88
216.03	1775.59
216.24	1634.28
216.46	1642.47
216.68	1794.02
216.90	1724.39
217.12	1775.59
217.34	1671.14
217.56	1742.82
217.78	1775.59
218.00	1726.44
218.22	1728.49
218.44	1761.25
218.66	1669.09
218.87	1814.50
219.09	1636.33
219.31	1746.92
219.53	1718.25
219.75	1677.29
219.97	1775.59
220.19	1746.92
220.41	1734.63
220.63	1877.99
220.85	1761.25
221.06	1757.16
221.28	1779.68
221.50	1740.77
221.72	1669.09
221.94	1701.86
222.16	1724.39
222.38	1775.59
222.60	1691.62
222.82	1724.39
223.03	1861.60
223.25	1673.19
223.47	1677.29
223.69	1810.40
223.91	1726.44
224.13	1730.53
224.35	1681.38
224.57	1787.88
224.78	1695.72
225.00	1589.22
225.22	1650.66
225.44	1652.71
225.66	1656.81
225.88	1691.62
226.10	1781.73
226.32	1748.97
226.53	1820.64
226.75	1718.25
226.97	1740.77
227.19	1726.44
227.41	1693.67
227.63	1642.47
227.85	1665.00
228.06	1673.19
228.28	1718.25
228.50	1785.83
228.72	1654.76
228.94	1673.19
229.16	1568.74
229.37	1662.95
229.59	1673.19
229.81	1757.16
230.03	1656.81
230.25	1730.53
230.47	1644.52
230.69	1644.52
230.90	1785.83
231.12	1693.67
231.34	1789.92
231.56	1755.11
231.78	1689.57
232.00	1724.39
232.21	1693.67
232.43	1738.73
232.65	1640.42
232.87	1763.30
233.09	1634.28
233.30	1652.71
233.52	1742.82
233.74	1642.47
233.96	1656.81
234.18	1730.53
234.40	1652.71
234.61	1855.46
234.83	1640.42
235.05	1681.38
235.27	1896.42
235.49	1781.73
235.70	1716.20
235.92	1767.40
236.14	1787.88
236.36	1841.12
236.58	1746.92
236.79	1800.16
237.01	1683.43
237.23	1726.44
237.45	1828.84
237.67	1621.99
237.88	1677.29
238.10	1728.49
238.32	1601.51
238.54	1695.72
238.76	1650.66
238.97	1703.91
239.19	1695.72
239.41	1787.88
239.63	1769.44
239.85	1691.62
240.06	1677.29
240.28	1650.66
240.50	1697.77
240.72	1726.44
240.93	1693.67
241.15	1730.53
241.37	1646.57
241.59	1759.21
241.81	1697.77
242.02	1730.53
242.24	1746.92
242.46	1716.20
242.68	1703.91
242.89	1763.30
243.11	1859.56
243.33	1714.15
243.55	1740.77
243.76	1775.59
243.98	1687.53
244.20	1740.77
244.42	1619.94
244.64	1644.52
244.85	1669.09
245.07	1624.04
245.29	1652.71
245.51	1744.87
245.72	1726.44
245.94	1767.40
246.16	1689.57
246.38	1714.15
246.59	1652.71
246.81	1611.75
247.03	1669.09
247.24	1607.66
247.46	1683.43
247.68	1710.05
247.90	1716.20
248.11	1708.01
248.33	1689.57
248.55	1738.73
248.77	1705.96
248.98	1875.94
249.20	1796.07
249.42	1769.44
249.64	1738.73
249.85	1742.82
250.07	1701.86
250.29	1816.55
250.50	1675.24
250.72	1624.04
250.94	1677.29
251.16	1814.50
251.37	1765.35
251.59	1705.96
251.81	1744.87
252.02	1759.21
252.24	1730.53
252.46	1736.68
252.68	1652.71
252.89	1656.81
253.11	1613.80
253.33	1873.89
253.54	1777.64
253.76	1578.98
253.98	1636.33
254.20	1646.57
254.41	1660.90
254.63	1675.24
254.85	1705.96
255.06	1742.82
255.28	1699.81
255.50	1685.48
255.71	1701.86
255.93	1630.18
256.15	1701.86
256.36	1755.11
256.58	1658.85
256.80	1722.34
257.02	1638.38
257.23	1722.34
257.45	1687.53
257.67	1667.05
257.88	1736.68
258.10	1718.25
258.32	1691.62
258.53	1728.49
258.75	1740.77
258.97	1667.05
259.18	1742.82
259.40	1785.83
259.62	1787.88
259.83	1779.68
260.05	1732.58
260.27	1978.34
260.48	1693.67
260.70	1634.28
260.92	1656.81
261.13	1681.38
261.35	1730.53
261.57	1716.20
261.78	1675.24
262.00	1646.57
262.22	1796.07
262.43	1662.95
262.65	1705.96
262.86	1689.57
263.08	1834.98
263.30	1789.92
263.51	1638.38
263.73	1574.89
263.95	1859.56
264.16	1656.81
264.38	1699.81
264.60	1705.96
264.81	1673.19
265.03	1767.40
265.25	1748.97
265.46	1761.25
265.68	1845.22
265.89	1722.34
266.11	1644.52
266.33	1783.78
266.54	1814.50
266.76	1740.77
266.98	1837.03
267.19	1773.54
267.41	1701.86
267.62	1751.01
267.84	1607.66
268.06	1763.30
268.27	1683.43
268.49	1787.88
268.70	1730.53
268.92	1722.34
269.14	1640.42
269.35	1619.94
269.57	1751.01
269.79	1755.11
270.00	1738.73
270.22	1845.22
270.43	1726.44
270.65	1581.03
270.87	1726.44
271.08	1773.54
271.30	1732.58
271.51	1628.14
271.73	1632.23
271.95	1810.40
272.16	1732.58
272.38	1705.96
272.59	1714.15
272.81	1738.73
273.02	1718.25
273.24	1734.63
273.46	1804.26
273.67	1660.90
273.89	1677.29
274.10	1673.19
274.32	1791.97
274.54	1658.85
274.75	1810.40
274.97	1560.55
275.18	1787.88
275.40	1726.44
275.61	1621.99
275.83	1765.35
276.05	1695.72
276.26	1728.49
276.48	1746.92
276.69	1644.52
276.91	1630.18
277.12	1720.29
277.34	1767.40
277.55	1863.65
277.77	1710.05
277.99	1621.99
278.20	1658.85
278.42	1738.73
278.63	1583.08
278.85	1703.91
279.06	1642.47
279.28	1753.06
279.49	1740.77
279.71	1787.88
279.93	1722.34
280.14	1755.11
280.36	1640.42
280.57	1736.68
280.79	1748.97
281.00	1638.38
281.22	1652.71
281.43	1718.25
281.65	1624.04
281.86	1562.60
282.08	1722.34
282.29	1757.16
282.51	1585.13
282.73	1634.28
282.94	1556.46
283.16	1736.68
283.37	1763.30
283.59	1705.96
283.80	1710.05
284.02	1714.15
284.23	1619.94
284.45	1718.25
284.66	1685.48
284.88	1740.77
285.09	1693.67
285.31	1757.16
285.52	1761.25
285.74	1615.85
285.95	1736.68
286.17	1703.91
286.38	1763.30
286.60	1685.48
286.81	1648.61
287.03	1693.67
287.24	1681.38
287.46	1757.16
287.67	1781.73
287.89	1789.92
288.10	1722.34
288.32	1785.83
288.53	1806.31
288.75	1738.73
288.96	1673.19
289.18	1744.87
289.39	1703.91
289.61	1761.25
289.82	1791.97
290.04	1761.25
290.25	1654.76
290.47	1699.81
290.68	1685.48
290.90	1791.97
291.11	1710.05
291.33	1765.35
291.54	1665.00
291.76	1681.38
291.97	1763.30
292.18	1714.15
292.40	1716.20
292.61	1658.85
292.83	1886.18
293.04	1681.38
293.26	1824.74
293.47	1675.24
293.69	1607.66
293.90	1673.19
294.12	1820.64
294.33	1716.20
294.55	1681.38
294.76	1775.59
294.97	1755.11
295.19	1796.07
295.40	1626.09
295.62	1710.05
295.83	1763.30
296.05	1605.61
296.26	1767.40
296.48	1644.52
296.69	1761.25
296.90	1691.62
297.12	1742.82
297.33	1781.73
297.55	1701.86
297.76	1730.53
297.98	1714.15
298.19	1671.14
298.41	1744.87
298.62	1681.38
298.83	1812.45
299.05	1742.82
299.26	1669.09
299.48	1681.38
299.69	1765.35
299.90	1697.77
300.12	1638.38
300.33	1738.73
300.55	1669.09
300.76	1767.40
300.98	1591.27
301.19	1746.92
301.40	1667.05
301.62	1710.05
301.83	1691.62
302.05	1738.73
302.26	1740.77
302.47	1746.92
302.69	1669.09
302.90	1642.47
303.12	1650.66
303.33	1734.63
303.54	1767.40
303.76	1669.09
303.97	1716.20
304.19	1787.88
304.40	1710.05
304.61	1753.06
304.83	1798.12
305.04	1718.25
305.26	1789.92
305.47	1642.47
305.68	1658.85
305.90	1673.19
306.11	1726.44
306.33	1716.20
306.54	1683.43
306.75	1665.00
306.97	1589.22
307.18	1693.67
307.39	1599.46
307.61	1804.26
307.82	1697.77
308.04	1746.92
308.25	1621.99
308.46	1699.81
308.68	1724.39
308.89	1667.05
309.10	1798.12
309.32	1720.29
309.53	1710.05
309.74	1738.73
309.96	1644.52
310.17	1705.96
310.39	1617.90
310.60	1769.44
310.81	1673.19
311.03	1656.81
311.24	1724.39
311.45	1689.57
311.67	1865.70
311.88	1728.49
312.09	1630.18
312.31	1689.57
312.52	1699.81
312.73	1722.34
312.95	1712.10
313.16	1656.81
313.37	1804.26
313.59	1701.86
313.80	1738.73
314.01	1806.31
314.23	1816.55
314.44	1656.81
314.65	1644.52
314.87	1624.04
315.08	1705.96
315.29	1677.29
315.51	1660.90
315.72	1687.53
315.93	1736.68
316.15	1746.92
316.36	1740.77
316.57	1689.57
316.79	1806.31
317.00	1679.33
317.21	1699.81
317.43	1710.05
317.64	1687.53
317.85	1683.43
318.07	1665.00
318.28	1685.48
318.49	1742.82
318.70	2033.63
318.92	1787.88
319.13	1791.97
319.34	1826.79
319.56	1777.64
319.77	1761.25
319.98	1773.54
320.20	1781.73
320.41	1789.92
320.62	1761.25
320.83	1716.20
321.05	1855.46
321.26	1732.58
321.47	1689.57
321.69	1816.55
321.90	1654.76
322.11	1705.96
322.32	1642.47
322.54	1773.54
322.75	1693.67
322.96	1830.88
323.18	1634.28
323.39	1646.57
323.60	1673.19
323.81	1804.26
324.03	1720.29
324.24	1710.05
324.45	1693.67
324.66	1701.86
324.88	1804.26
325.09	1794.02
325.30	1681.38
325.52	1773.54
325.73	1744.87
325.94	1705.96
326.15	1619.94
326.37	1667.05
326.58	1832.93
326.79	1789.92
327.00	1677.29
327.22	1708.01
327.43	1665.00
327.64	1660.90
327.85	1767.40
328.07	1714.15
328.28	1757.16
328.49	1697.77
328.70	1636.33
328.92	1734.63
329.13	1705.96
329.34	1679.33
329.55	1787.88
329.76	1794.02
329.98	1665.00
330.19	1789.92
330.40	1720.29
330.61	1755.11
330.83	1791.97
331.04	1662.95
331.25	1669.09
331.46	1677.29
331.68	1662.95
331.89	1796.07
332.10	1728.49
332.31	1656.81
332.52	1665.00
332.74	1812.45
332.95	1669.09
333.16	1753.06
333.37	1802.21
333.58	1638.38
333.80	1767.40
334.01	1708.01
334.22	1748.97
334.43	1669.09
334.64	1716.20
334.86	1646.57
335.07	1632.23
335.28	1777.64
335.49	1656.81
335.70	1769.44
335.92	1687.53
336.13	1845.22
336.34	1722.34
336.55	1640.42
336.76	1722.34
336.98	1566.70
337.19	1681.38
337.40	1871.84
337.61	1884.13
337.82	1705.96
338.04	1759.21
338.25	1640.42
338.46	1734.63
338.67	1669.09
338.88	1619.94
339.09	1591.27
339.31	1753.06
339.52	1665.00
339.73	1619.94
339.94	1742.82
340.15	1771.49
340.36	1638.38
340.58	1791.97
340.79	1691.62
341.00	1705.96
341.21	1722.34
341.42	1759.21
341.63	1734.63
341.85	1767.40
342.06	1681.38
342.27	1691.62
342.48	1771.49
342.69	1636.33
342.90	1738.73
343.12	1724.39
343.33	1648.61
343.54	1724.39
343.75	1789.92
343.96	1708.01
344.17	1708.01
344.38	1777.64
344.60	1615.85
344.81	1703.91
345.02	1687.53
345.23	1658.85
345.44	1783.78
345.65	1697.77
345.86	1777.64
346.07	1746.92
346.29	1656.81
346.50	1767.40
346.71	1710.05
346.92	1769.44
347.13	1841.12
347.34	1632.23
347.55	1697.77
347.76	1611.75
347.98	1654.76
348.19	1640.42
348.40	1812.45
348.61	1617.90
348.82	1791.97
349.03	1853.41
349.24	1656.81
349.45	1828.84
349.66	1566.70
349.88	1705.96
350.09	1716.20
350.30	1886.18
350.51	1669.09
350.72	1763.30
350.93	1771.49
351.14	1712.10
351.35	1722.34
351.56	1675.24
351.77	1699.81
351.99	1679.33
352.20	1841.12
352.41	1724.39
352.62	1615.85
352.83	1701.86
353.04	1736.68
353.25	1671.14
353.46	1751.01
353.67	1816.55
353.88	1585.13
354.09	1701.86
354.30	1714.15
354.52	1748.97
354.73	1740.77
354.94	1742.82
355.15	1654.76
355.36	1771.49
355.57	1748.97
355.78	1796.07
355.99	1724.39
356.20	1736.68
356.41	1781.73
356.62	1710.05
356.83	1724.39
357.04	1720.29
357.25	1599.46
357.46	1613.80
357.68	1615.85
357.89	1648.61
358.10	1685.48
358.31	1730.53
358.52	1724.39
358.73	1667.05
358.94	1665.00
359.15	1615.85
359.36	1716.20
359.57	1740.77
359.78	1708.01
359.99	1849.32
360.20	1656.81
360.41	1691.62
360.62	1816.55
360.83	1781.73
361.04	1742.82
361.25	1804.26
361.46	1779.68
361.67	1738.73
361.88	1769.44
362.09	1783.78
362.30	1726.44
362.51	1679.33
362.72	1722.34
362.93	1669.09
363.14	1724.39
363.35	1734.63
363.56	1656.81
363.78	1814.50
363.99	1703.91
364.20	1681.38
364.41	1689.57
364.62	1859.56
364.83	1753.06
365.04	1681.38
365.25	1720.29
365.46	1785.83
365.67	1667.05
365.88	1634.28
366.09	1626.09
366.30	1652.71
366.51	1667.05
366.72	1658.85
366.93	1699.81
367.14	1740.77
367.35	1783.78
367.56	1636.33
367.77	1822.69
367.98	1710.05
368.18	1718.25
368.39	1736.68
368.60	1601.51
368.81	1730.53
369.02	1714.15
369.23	1658.85
369.44	1603.56
369.65	1665.00
369.86	1718.25
370.07	1789.92
370.28	1712.10
370.49	1783.78
370.70	1779.68
370.91	1646.57
371.12	1669.09
371.33	1834.98
371.54	1763.30
371.75	1740.77
371.96	1595.37
372.17	1710.05
372.38	1708.01
372.59	1755.11
372.80	1677.29
373.01	1722.34
373.22	1681.38
373.43	1710.05
373.64	1642.47
373.85	1794.02
374.06	1820.64
374.26	1828.84
374.47	1746.92
374.68	1734.63
374.89	1667.05
375.10	1687.53
375.31	1718.25
375.52	1771.49
375.73	1677.29
375.94	1634.28
376.15	1755.11
376.36	1689.57
376.57	1632.23
376.78	1689.57
376.99	1646.57
377.20	1767.40
377.40	1714.15
377.61	1873.89
377.82	1621.99
378.03	1816.55
378.24	1677.29
378.45	1740.77
378.66	1751.01
378.87	1613.80
379.08	1626.09
379.29	1759.21
379.50	1853.41
379.71	1716.20
379.91	1748.97
380.12	1689.57
380.33	1677.29
380.54	1658.85
380.75	1718.25
380.96	1665.00
381.17	1753.06
381.38	1789.92
381.59	1746.92
381.80	1705.96
382.00	1822.69
382.21	1759.21
382.42	1818.60
382.63	1914.85
382.84	1800.16
383.05	1787.88
383.26	1757.16
383.47	1687.53
383.68	1763.30
383.88	1816.55
384.09	1763.30
384.30	1783.78
384.51	1861.60
384.72	1765.35
384.93	1671.14
385.14	1665.00
385.35	1783.78
385.55	1665.00
385.76	1718.25
385.97	1789.92
386.18	1603.56
386.39	1585.13
386.60	1763.30
386.81	1665.00
387.02	1679.33
387.22	1644.52
387.43	1810.40
387.64	1832.93
387.85	1906.66
388.06	2226.14
388.27	4274.11
388.48	6893.46
388.68	8214.40
388.89	9756.52
389.10	9865.07
389.31	8701.82
389.52	7585.68
389.73	6762.39
389.93	6219.68
390.14	5930.92
390.35	5308.34
390.56	4605.88
390.77	3852.23
390.98	3043.28
391.18	2492.38
391.39	2111.46
391.60	1933.28
391.81	1855.46
392.02	1689.57
392.23	1871.84
392.43	1746.92
392.64	1832.93
392.85	1718.25
393.06	1828.84
393.27	1773.54
393.47	1681.38
393.68	1693.67
393.89	1624.04
394.10	1740.77
394.31	1730.53
394.52	1624.04
394.72	1644.52
394.93	1787.88
395.14	1617.90
395.35	1748.97
395.56	1703.91
395.76	1767.40
395.97	1763.30
396.18	1779.68
396.39	1863.65
396.60	2035.68
396.80	1855.46
397.01	1834.98
397.22	1841.12
397.43	1904.61
397.64	1740.77
397.84	1798.12
398.05	1837.03
398.26	1720.29
398.47	1828.84
398.67	1830.88
398.88	1748.97
399.09	1689.57
399.30	1742.82
399.51	1804.26
399.71	1644.52
399.92	1755.11
400.13	1771.49
400.34	1636.33
400.54	1720.29
400.75	1783.78
400.96	1660.90
401.17	1812.45
401.37	1775.59
401.58	1703.91
401.79	1683.43
402.00	1863.65
402.21	1982.43
402.41	2017.25
402.62	2107.36
402.83	2041.82
403.04	1984.48
403.24	2121.70
403.45	1800.16
403.66	1990.63
403.87	1869.80
404.07	1851.36
404.28	1953.76
404.49	1873.89
404.70	1769.44
404.90	1771.49
405.11	1763.30
405.32	1765.35
405.52	1583.08
405.73	1724.39
405.94	1662.95
406.15	1703.91
406.35	1712.10
406.56	1796.07
406.77	1753.06
406.98	1705.96
407.18	1703.91
407.39	1828.84
407.60	1671.14
407.80	1789.92
408.01	1681.38
408.22	1742.82
408.43	1681.38
408.63	1742.82
408.84	1681.38
409.05	1789.92
409.25	1726.44
409.46	1697.77
409.67	1681.38
409.88	1742.82
410.08	1742.82
410.29	1781.73
410.50	1769.44
410.70	1785.83
410.91	1597.42
411.12	1757.16
411.32	1775.59
411.53	1613.80
411.74	1826.79
411.95	1789.92
412.15	1726.44
412.36	1730.53
412.57	1757.16
412.77	1884.13
412.98	1742.82
413.19	1683.43
413.39	1722.34
413.60	1789.92
413.81	1822.69
414.01	1665.00
414.22	1683.43
414.43	1800.16
414.63	1712.10
414.84	1771.49
415.05	1705.96
415.25	1669.09
415.46	1738.73
415.67	1705.96
415.87	1781.73
416.08	1705.96
416.29	1732.58
416.49	1720.29
416.70	1679.33
416.91	1656.81
417.11	1687.53
417.32	1789.92
417.53	1826.79
417.73	1796.07
417.94	1728.49
418.15	1724.39
418.35	1708.01
418.56	1732.58
418.77	1824.74
418.97	1642.47
419.18	1617.90
419.38	1603.56
419.59	1683.43
419.80	1763.30
420.00	1642.47
420.21	1779.68
420.42	1738.73
420.62	1744.87
420.83	1628.14
421.04	1677.29
421.24	1736.68
421.45	1765.35
421.65	1794.02
421.86	1628.14
422.07	1722.34
422.27	1775.59
422.48	1710.05
422.69	1675.24
422.89	1652.71
423.10	1716.20
423.30	1736.68
423.51	1693.67
423.72	1736.68
423.92	1794.02
424.13	1617.90
424.33	1753.06
424.54	1769.44
424.75	1748.97
424.95	1869.80
425.16	1765.35
425.36	1720.29
425.57	1728.49
425.78	1767.40
425.98	1824.74
426.19	1783.78
426.39	1605.61
426.60	1703.91
426.81	1779.68
427.01	1769.44
427.22	1708.01
427.42	1671.14
427.63	1624.04
427.83	1689.57
428.04	1732.58
428.25	1806.31
428.45	1718.25
428.66	1783.78
428.86	1751.01
429.07	1632.23
429.28	1693.67
429.48	1681.38
429.69	1751.01
429.89	1824.74
430.10	1615.85
430.30	1751.01
430.51	1769.44
430.71	1701.86
430.92	1673.19
431.13	1652.71
431.33	1808.36
431.54	1767.40
431.74	1806.31
431.95	1779.68
432.15	1726.44
432.36	1705.96
432.56	1800.16
432.77	1798.12
432.98	1755.11
433.18	1763.30
433.39	1718.25
433.59	1685.48
433.80	1855.46
434.00	1867.75
434.21	1726.44
434.41	1611.75
434.62	1845.22
434.82	1681.38
435.03	1675.24
435.23	1720.29
435.44	1591.27
435.64	1757.16
435.85	1703.91
436.06	1810.40
436.26	1804.26
436.47	1662.95
436.67	1630.18
436.88	1787.88
437.08	1783.78
437.29	1832.93
437.49	1785.83
437.70	1814.50
437.90	1808.36
438.11	1808.36
438.31	1794.02
438.52	1769.44
438.72	1837.03
438.93	1941.47
439.13	1777.64
439.34	1800.16
439.54	1779.68
439.75	1761.25
439.95	1886.18
440.16	1693.67
440.36	1665.00
440.57	1753.06
440.77	1763.30
440.98	1716.20
441.18	1751.01
441.39	1703.91
441.59	1626.09
441.80	1869.80
442.00	1757.16
442.21	1824.74
442.41	1718.25
442.62	1869.80
442.82	1787.88
443.02	1732.58
443.23	1728.49
443.43	1716.20
443.64	1818.60
443.84	1683.43
444.05	1873.89
444.25	1785.83
444.46	1763.30
444.66	1738.73
444.87	1808.36
445.07	1732.58
445.28	1695.72
445.48	1812.45
445.69	1781.73
445.89	1857.51
446.09	1710.05
446.30	2015.20
446.50	2701.27
446.71	3815.37
446.91	4249.54
447.12	4769.72
447.32	4863.93
447.53	4562.87
447.73	3831.75
447.93	3598.28
448.14	3332.05
448.34	3231.69
448.55	2942.93
448.75	2893.78
448.96	2697.17
449.16	2377.69
449.36	2215.90
449.57	2017.25
449.77	1951.71
449.98	1726.44
450.18	1769.44
450.39	1857.51
450.59	1804.26
450.79	1736.68
451.00	1736.68
451.20	1767.40
451.41	1791.97
451.61	1781.73
451.81	1683.43
452.02	1705.96
452.22	1703.91
452.43	1773.54
452.63	1746.92
