SpectraSuite Data File
++++++++++++++++++++++++++++++++++++
Date: Mon Jun 06 12:12:37 CEST 2016
User: root
Dark Spectrum Present: No
Reference Spectrum Present: No
Number of Sampled Component Spectra: 1
Spectrometers: USB4C02835
Integration Time (usec): 100000 (USB4C02835)
Spectra Averaged: 1 (USB4C02835)
Boxcar Smoothing: 0 (USB4C02835)
Correct for Electrical Dark: No (USB4C02835)
Strobe/Lamp Enabled: No (USB4C02835)
Correct for Detector Non-linearity: No (USB4C02835)
Correct for Stray Light: No (USB4C02835)
Number of Pixels in Processed Spectrum: 3648
>>>>>Begin Processed Spectral Data<<<<<
177.47	1482.73
177.69	1482.73
177.91	1482.73
178.13	1419.24
178.36	1456.11
178.58	1636.33
178.80	1699.81
179.02	1697.77
179.24	1601.51
179.46	1656.81
179.68	1834.98
179.90	1667.05
180.13	1730.53
180.35	1634.28
180.57	1675.24
180.79	1679.33
181.01	1640.42
181.23	1714.15
181.45	1730.53
181.67	1685.48
181.90	1775.59
182.12	1648.61
182.34	1558.50
182.56	1669.09
182.78	1740.77
183.00	1681.38
183.22	1703.91
183.44	1601.51
183.66	1834.98
183.89	1802.21
184.11	1638.38
184.33	1718.25
184.55	1826.79
184.77	1703.91
184.99	1697.77
185.21	1628.14
185.43	1777.64
185.65	1593.32
185.87	1632.23
186.10	1849.32
186.32	1888.23
186.54	1751.01
186.76	1789.92
186.98	1748.97
187.20	1689.57
187.42	1615.85
187.64	1699.81
187.86	1746.92
188.08	1665.00
188.30	1703.91
188.52	1720.29
188.75	1748.97
188.97	1804.26
189.19	1634.28
189.41	1753.06
189.63	1736.68
189.85	1615.85
190.07	1535.98
190.29	1650.66
190.51	1736.68
190.73	1564.65
190.95	1740.77
191.17	1660.90
191.39	1630.18
191.61	1642.47
191.84	1677.29
192.06	1732.58
192.28	1667.05
192.50	1802.21
192.72	1751.01
192.94	1642.47
193.16	1730.53
193.38	1742.82
193.60	1642.47
193.82	1675.24
194.04	1765.35
194.26	1720.29
194.48	1718.25
194.70	1656.81
194.92	1656.81
195.14	1722.34
195.36	1652.71
195.58	1685.48
195.80	1667.05
196.02	1638.38
196.24	1638.38
196.46	1675.24
196.69	1656.81
196.91	1808.36
197.13	1648.61
197.35	1538.02
197.57	1761.25
197.79	1636.33
198.01	1789.92
198.23	1724.39
198.45	1671.14
198.67	1665.00
198.89	1683.43
199.11	1765.35
199.33	1638.38
199.55	1552.36
199.77	1742.82
199.99	1744.87
200.21	1566.70
200.43	1669.09
200.65	1658.85
200.87	1601.51
201.09	1691.62
201.31	1660.90
201.53	1660.90
201.75	1742.82
201.97	1646.57
202.19	1734.63
202.41	1681.38
202.63	1826.79
202.85	1746.92
203.07	1759.21
203.29	1693.67
203.51	1621.99
203.73	1591.27
203.95	1853.41
204.17	1695.72
204.39	1695.72
204.61	1687.53
204.83	1689.57
205.05	1695.72
205.27	1724.39
205.49	1787.88
205.71	1660.90
205.93	1650.66
206.15	1648.61
206.37	1722.34
206.59	1658.85
206.81	1662.95
207.03	1638.38
207.25	1667.05
207.47	1642.47
207.69	1687.53
207.91	1722.34
208.13	1800.16
208.34	1662.95
208.56	1576.94
208.78	1769.44
209.00	1640.42
209.22	1701.86
209.44	1669.09
209.66	1679.33
209.88	1656.81
210.10	1669.09
210.32	1619.94
210.54	1691.62
210.76	1689.57
210.98	1746.92
211.20	1591.27
211.42	1656.81
211.64	1820.64
211.86	1697.77
212.08	1746.92
212.30	1671.14
212.52	1732.58
212.74	1699.81
212.96	1673.19
213.17	1650.66
213.39	1652.71
213.61	1724.39
213.83	1701.86
214.05	1599.46
214.27	1810.40
214.49	1644.52
214.71	1691.62
214.93	1767.40
215.15	1705.96
215.37	1730.53
215.59	1599.46
215.81	1712.10
216.03	1738.73
216.24	1796.07
216.46	1621.99
216.68	1771.49
216.90	1757.16
217.12	1708.01
217.34	1617.90
217.56	1744.87
217.78	1767.40
218.00	1710.05
218.22	1701.86
218.44	1697.77
218.66	1732.58
218.87	1722.34
219.09	1718.25
219.31	1671.14
219.53	1742.82
219.75	1619.94
219.97	1648.61
220.19	1757.16
220.41	1675.24
220.63	1748.97
220.85	1621.99
221.06	1607.66
221.28	1738.73
221.50	1734.63
221.72	1679.33
221.94	1685.48
222.16	1730.53
222.38	1683.43
222.60	1697.77
222.82	1740.77
223.03	1701.86
223.25	1566.70
223.47	1746.92
223.69	1789.92
223.91	1724.39
224.13	1667.05
224.35	1660.90
224.57	1718.25
224.78	1636.33
225.00	1671.14
225.22	1644.52
225.44	1681.38
225.66	1675.24
225.88	1712.10
226.10	1763.30
226.32	1697.77
226.53	1828.84
226.75	1648.61
226.97	1677.29
227.19	1660.90
227.41	1765.35
227.63	1730.53
227.85	1591.27
228.06	1734.63
228.28	1585.13
228.50	1716.20
228.72	1632.23
228.94	1640.42
229.16	1603.56
229.37	1656.81
229.59	1615.85
229.81	1734.63
230.03	1724.39
230.25	1619.94
230.47	1556.46
230.69	1619.94
230.90	1753.06
231.12	1636.33
231.34	1689.57
231.56	1703.91
231.78	1638.38
232.00	1705.96
232.21	1638.38
232.43	1687.53
232.65	1599.46
232.87	1720.29
233.09	1646.57
233.30	1597.42
233.52	1697.77
233.74	1660.90
233.96	1665.00
234.18	1648.61
234.40	1687.53
234.61	1800.16
234.83	1728.49
235.05	1568.74
235.27	1777.64
235.49	1773.54
235.70	1689.57
235.92	1767.40
236.14	1771.49
236.36	1832.93
236.58	1703.91
236.79	1722.34
237.01	1656.81
237.23	1654.76
237.45	1822.69
237.67	1607.66
237.88	1667.05
238.10	1738.73
238.32	1642.47
238.54	1626.09
238.76	1710.05
238.97	1644.52
239.19	1683.43
239.41	1669.09
239.63	1765.35
239.85	1669.09
240.06	1697.77
240.28	1689.57
240.50	1701.86
240.72	1714.15
240.93	1726.44
241.15	1806.31
241.37	1665.00
241.59	1738.73
241.81	1671.14
242.02	1728.49
242.24	1751.01
242.46	1738.73
242.68	1673.19
242.89	1742.82
243.11	1726.44
243.33	1656.81
243.55	1734.63
243.76	1751.01
243.98	1722.34
244.20	1728.49
244.42	1646.57
244.64	1689.57
244.85	1669.09
245.07	1701.86
245.29	1722.34
245.51	1751.01
245.72	1705.96
245.94	1783.78
246.16	1718.25
246.38	1701.86
246.59	1636.33
246.81	1701.86
247.03	1669.09
247.24	1574.89
247.46	1650.66
247.68	1621.99
247.90	1703.91
248.11	1714.15
248.33	1683.43
248.55	1665.00
248.77	1640.42
248.98	1777.64
249.20	1839.08
249.42	1761.25
249.64	1650.66
249.85	1615.85
250.07	1574.89
250.29	1773.54
250.50	1765.35
250.72	1634.28
250.94	1673.19
251.16	1798.12
251.37	1763.30
251.59	1730.53
251.81	1734.63
252.02	1740.77
252.24	1619.94
252.46	1767.40
252.68	1677.29
252.89	1632.23
253.11	1646.57
253.33	1859.56
253.54	1701.86
253.76	1574.89
253.98	1656.81
254.20	1689.57
254.41	1599.46
254.63	1746.92
254.85	1587.18
255.06	1630.18
255.28	1685.48
255.50	1697.77
255.71	1605.61
255.93	1626.09
256.15	1660.90
256.36	1718.25
256.58	1697.77
256.80	1673.19
257.02	1710.05
257.23	1658.85
257.45	1650.66
257.67	1681.38
257.88	1648.61
258.10	1634.28
258.32	1689.57
258.53	1595.37
258.75	1689.57
258.97	1669.09
259.18	1746.92
259.40	1742.82
259.62	1714.15
259.83	1738.73
260.05	1718.25
260.27	1957.86
260.48	1730.53
260.70	1675.24
260.92	1767.40
261.13	1685.48
261.35	1761.25
261.57	1818.60
261.78	1640.42
262.00	1718.25
262.22	1730.53
262.43	1619.94
262.65	1699.81
262.86	1685.48
263.08	1808.36
263.30	1738.73
263.51	1615.85
263.73	1673.19
263.95	1820.64
264.16	1560.55
264.38	1644.52
264.60	1732.58
264.81	1601.51
265.03	1679.33
265.25	1699.81
265.46	1693.67
265.68	1775.59
265.89	1755.11
266.11	1632.23
266.33	1740.77
266.54	1693.67
266.76	1722.34
266.98	1728.49
267.19	1767.40
267.41	1718.25
267.62	1724.39
267.84	1617.90
268.06	1738.73
268.27	1722.34
268.49	1775.59
268.70	1771.49
268.92	1691.62
269.14	1669.09
269.35	1640.42
269.57	1691.62
269.79	1708.01
270.00	1669.09
270.22	1810.40
270.43	1626.09
270.65	1519.59
270.87	1724.39
271.08	1712.10
271.30	1796.07
271.51	1669.09
271.73	1728.49
271.95	1812.45
272.16	1708.01
272.38	1734.63
272.59	1660.90
272.81	1673.19
273.02	1775.59
273.24	1720.29
273.46	1703.91
273.67	1687.53
273.89	1615.85
274.10	1681.38
274.32	1886.18
274.54	1662.95
274.75	1671.14
274.97	1681.38
275.18	1710.05
275.40	1765.35
275.61	1628.14
275.83	1644.52
276.05	1730.53
276.26	1669.09
276.48	1671.14
276.69	1628.14
276.91	1652.71
277.12	1751.01
277.34	1806.31
277.55	1708.01
277.77	1687.53
277.99	1687.53
278.20	1679.33
278.42	1742.82
278.63	1722.34
278.85	1736.68
279.06	1605.61
279.28	1708.01
279.49	1697.77
279.71	1744.87
279.93	1669.09
280.14	1722.34
280.36	1718.25
280.57	1767.40
280.79	1656.81
281.00	1677.29
281.22	1667.05
281.43	1742.82
281.65	1642.47
281.86	1574.89
282.08	1734.63
282.29	1851.36
282.51	1673.19
282.73	1658.85
282.94	1662.95
283.16	1658.85
283.37	1757.16
283.59	1738.73
283.80	1705.96
284.02	1667.05
284.23	1662.95
284.45	1744.87
284.66	1634.28
284.88	1677.29
285.09	1716.20
285.31	1693.67
285.52	1675.24
285.74	1550.31
285.95	1699.81
286.17	1640.42
286.38	1728.49
286.60	1681.38
286.81	1677.29
287.03	1650.66
287.24	1714.15
287.46	1677.29
287.67	1667.05
287.89	1798.12
288.10	1634.28
288.32	1669.09
288.53	1781.73
288.75	1642.47
288.96	1732.58
289.18	1613.80
289.39	1677.29
289.61	1806.31
289.82	1781.73
290.04	1746.92
290.25	1601.51
290.47	1658.85
290.68	1693.67
290.90	1757.16
291.11	1619.94
291.33	1718.25
291.54	1634.28
291.76	1634.28
291.97	1740.77
292.18	1761.25
292.40	1722.34
292.61	1687.53
292.83	1859.56
293.04	1679.33
293.26	1665.00
293.47	1662.95
293.69	1691.62
293.90	1669.09
294.12	1732.58
294.33	1703.91
294.55	1685.48
294.76	1798.12
294.97	1851.36
295.19	1816.55
295.40	1634.28
295.62	1685.48
295.83	1724.39
296.05	1701.86
296.26	1791.97
296.48	1646.57
296.69	1648.61
296.90	1683.43
297.12	1703.91
297.33	1732.58
297.55	1748.97
297.76	1693.67
297.98	1716.20
298.19	1673.19
298.41	1621.99
298.62	1597.42
298.83	1755.11
299.05	1763.30
299.26	1644.52
299.48	1673.19
299.69	1742.82
299.90	1753.06
300.12	1611.75
300.33	1693.67
300.55	1669.09
300.76	1681.38
300.98	1595.37
301.19	1787.88
301.40	1681.38
301.62	1710.05
301.83	1730.53
302.05	1669.09
302.26	1753.06
302.47	1703.91
302.69	1583.08
302.90	1705.96
303.12	1603.56
303.33	1804.26
303.54	1746.92
303.76	1654.76
303.97	1693.67
304.19	1773.54
304.40	1642.47
304.61	1751.01
304.83	1767.40
305.04	1732.58
305.26	1662.95
305.47	1673.19
305.68	1708.01
305.90	1656.81
306.11	1677.29
306.33	1693.67
306.54	1677.29
306.75	1708.01
306.97	1570.79
307.18	1665.00
307.39	1724.39
307.61	1765.35
307.82	1667.05
308.04	1734.63
308.25	1695.72
308.46	1589.22
308.68	1736.68
308.89	1705.96
309.10	1722.34
309.32	1673.19
309.53	1697.77
309.74	1722.34
309.96	1658.85
310.17	1763.30
310.39	1656.81
310.60	1751.01
310.81	1689.57
311.03	1601.51
311.24	1734.63
311.45	1685.48
311.67	1798.12
311.88	1759.21
312.09	1714.15
312.31	1650.66
312.52	1673.19
312.73	1683.43
312.95	1613.80
313.16	1673.19
313.37	1765.35
313.59	1757.16
313.80	1783.78
314.01	1798.12
314.23	1654.76
314.44	1677.29
314.65	1734.63
314.87	1710.05
315.08	1712.10
315.29	1705.96
315.51	1546.22
315.72	1689.57
315.93	1730.53
316.15	1738.73
316.36	1634.28
316.57	1746.92
316.79	1683.43
317.00	1783.78
317.21	1714.15
317.43	1599.46
317.64	1697.77
317.85	1652.71
318.07	1632.23
318.28	1658.85
318.49	1800.16
318.70	1912.80
318.92	1771.49
319.13	1763.30
319.34	1826.79
319.56	1763.30
319.77	1710.05
319.98	1738.73
320.20	1796.07
320.41	1751.01
320.62	1802.21
320.83	1628.14
321.05	1867.75
321.26	1759.21
321.47	1683.43
321.69	1746.92
321.90	1605.61
322.11	1734.63
322.32	1742.82
322.54	1732.58
322.75	1656.81
322.96	1806.31
323.18	1615.85
323.39	1566.70
323.60	1626.09
323.81	1757.16
324.03	1759.21
324.24	1726.44
324.45	1632.23
324.66	1691.62
324.88	1695.72
325.09	1712.10
325.30	1734.63
325.52	1681.38
325.73	1603.56
325.94	1652.71
326.15	1636.33
326.37	1652.71
326.58	1787.88
326.79	1830.88
327.00	1617.90
327.22	1673.19
327.43	1609.70
327.64	1605.61
327.85	1687.53
328.07	1734.63
328.28	1843.17
328.49	1667.05
328.70	1722.34
328.92	1660.90
329.13	1726.44
329.34	1816.55
329.55	1796.07
329.76	1681.38
329.98	1724.39
330.19	1755.11
330.40	1689.57
330.61	1671.14
330.83	1808.36
331.04	1626.09
331.25	1691.62
331.46	1642.47
331.68	1652.71
331.89	1730.53
332.10	1685.48
332.31	1642.47
332.52	1591.27
332.74	1714.15
332.95	1540.07
333.16	1640.42
333.37	1691.62
333.58	1697.77
333.80	1791.97
334.01	1626.09
334.22	1597.42
334.43	1687.53
334.64	1605.61
334.86	1685.48
335.07	1673.19
335.28	1779.68
335.49	1611.75
335.70	1746.92
335.92	1759.21
336.13	1814.50
336.34	1767.40
336.55	1689.57
336.76	1697.77
336.98	1558.50
337.19	1710.05
337.40	1800.16
337.61	1828.84
337.82	1648.61
338.04	1787.88
338.25	1599.46
338.46	1710.05
338.67	1632.23
338.88	1562.60
339.09	1648.61
339.31	1722.34
339.52	1591.27
339.73	1617.90
339.94	1685.48
340.15	1771.49
340.36	1679.33
340.58	1656.81
340.79	1671.14
341.00	1716.20
341.21	1591.27
341.42	1800.16
341.63	1658.85
341.85	1767.40
342.06	1679.33
342.27	1658.85
342.48	1693.67
342.69	1665.00
342.90	1646.57
343.12	1732.58
343.33	1669.09
343.54	1783.78
343.75	1777.64
343.96	1751.01
344.17	1675.24
344.38	1658.85
344.60	1624.04
344.81	1624.04
345.02	1669.09
345.23	1742.82
345.44	1781.73
345.65	1730.53
345.86	1646.57
346.07	1730.53
346.29	1716.20
346.50	1685.48
346.71	1691.62
346.92	1718.25
347.13	1861.60
347.34	1658.85
347.55	1626.09
347.76	1730.53
347.98	1609.70
348.19	1591.27
348.40	1808.36
348.61	1703.91
348.82	1757.16
349.03	1800.16
349.24	1642.47
349.45	1808.36
349.66	1587.18
349.88	1746.92
350.09	1720.29
350.30	1759.21
350.51	1787.88
350.72	1712.10
350.93	1691.62
351.14	1708.01
351.35	1705.96
351.56	1687.53
351.77	1742.82
351.99	1714.15
352.20	1826.79
352.41	1748.97
352.62	1521.64
352.83	1681.38
353.04	1636.33
353.25	1662.95
353.46	1763.30
353.67	1746.92
353.88	1554.41
354.09	1708.01
354.30	1755.11
354.52	1722.34
354.73	1656.81
354.94	1691.62
355.15	1646.57
355.36	1728.49
355.57	1710.05
355.78	1744.87
355.99	1619.94
356.20	1630.18
356.41	1826.79
356.62	1642.47
356.83	1669.09
357.04	1722.34
357.25	1585.13
357.46	1695.72
357.68	1642.47
357.89	1673.19
358.10	1746.92
358.31	1646.57
358.52	1673.19
358.73	1591.27
358.94	1621.99
359.15	1665.00
359.36	1730.53
359.57	1716.20
359.78	1673.19
359.99	1755.11
360.20	1660.90
360.41	1738.73
360.62	1773.54
360.83	1738.73
361.04	1699.81
361.25	1765.35
361.46	1763.30
361.67	1689.57
361.88	1691.62
362.09	1716.20
362.30	1708.01
362.51	1724.39
362.72	1652.71
362.93	1757.16
363.14	1740.77
363.35	1718.25
363.56	1595.37
363.78	1693.67
363.99	1751.01
364.20	1603.56
364.41	1761.25
364.62	1773.54
364.83	1703.91
365.04	1595.37
365.25	1722.34
365.46	1882.08
365.67	1712.10
365.88	1630.18
366.09	1701.86
366.30	1630.18
366.51	1734.63
366.72	1605.61
366.93	1574.89
367.14	1677.29
367.35	1814.50
367.56	1675.24
367.77	1771.49
367.98	1685.48
368.18	1681.38
368.39	1744.87
368.60	1644.52
368.81	1683.43
369.02	1654.76
369.23	1695.72
369.44	1572.84
369.65	1689.57
369.86	1699.81
370.07	1683.43
370.28	1673.19
370.49	1644.52
370.70	1658.85
370.91	1656.81
371.12	1611.75
371.33	1798.12
371.54	1591.27
371.75	1746.92
371.96	1632.23
372.17	1605.61
372.38	1685.48
372.59	1691.62
372.80	1677.29
373.01	1660.90
373.22	1734.63
373.43	1697.77
373.64	1632.23
373.85	1765.35
374.06	1814.50
374.26	1751.01
374.47	1667.05
374.68	1775.59
374.89	1658.85
375.10	1658.85
375.31	1681.38
375.52	1718.25
375.73	1656.81
375.94	1656.81
376.15	1861.60
376.36	1648.61
376.57	1648.61
376.78	1691.62
376.99	1689.57
377.20	1708.01
377.40	1673.19
377.61	1789.92
377.82	1607.66
378.03	1740.77
378.24	1699.81
378.45	1644.52
378.66	1693.67
378.87	1624.04
379.08	1634.28
379.29	1646.57
379.50	1693.67
379.71	1732.58
379.91	1697.77
380.12	1730.53
380.33	1667.05
380.54	1720.29
380.75	1716.20
380.96	1722.34
381.17	1710.05
381.38	1695.72
381.59	1783.78
381.80	1673.19
382.00	1820.64
382.21	1779.68
382.42	1716.20
382.63	1787.88
382.84	1742.82
383.05	1767.40
383.26	1806.31
383.47	1718.25
383.68	1757.16
383.88	1722.34
384.09	1734.63
384.30	1789.92
384.51	1665.00
384.72	1619.94
384.93	1632.23
385.14	1703.91
385.35	1761.25
385.55	1626.09
385.76	1724.39
385.97	1728.49
386.18	1581.03
386.39	1710.05
386.60	1650.66
386.81	1685.48
387.02	1638.38
387.22	1701.86
387.43	1744.87
387.64	1742.82
387.85	1834.98
388.06	2189.28
388.27	4392.89
388.48	6735.77
388.68	8376.19
388.89	9719.66
389.10	9910.12
389.31	8669.05
389.52	7647.12
389.73	6756.25
389.93	6115.23
390.14	5877.67
390.35	5285.81
390.56	4782.01
390.77	3870.66
390.98	3096.53
391.18	2488.28
391.39	2117.60
391.60	1861.60
391.81	1814.50
392.02	1767.40
392.23	1832.93
392.43	1679.33
392.64	1834.98
392.85	1708.01
393.06	1755.11
393.27	1638.38
393.47	1603.56
393.68	1724.39
393.89	1646.57
394.10	1734.63
394.31	1744.87
394.52	1621.99
394.72	1695.72
394.93	1730.53
395.14	1650.66
395.35	1734.63
395.56	1669.09
395.76	1699.81
395.97	1742.82
396.18	1865.70
396.39	1843.17
396.60	2009.06
396.80	1869.80
397.01	1779.68
397.22	1816.55
397.43	1818.60
397.64	1734.63
397.84	1814.50
398.05	1918.95
398.26	1677.29
398.47	1777.64
398.67	1816.55
398.88	1701.86
399.09	1679.33
399.30	1632.23
399.51	1740.77
399.71	1599.46
399.92	1671.14
400.13	1697.77
400.34	1652.71
400.54	1662.95
400.75	1761.25
400.96	1695.72
401.17	1791.97
401.37	1705.96
401.58	1716.20
401.79	1626.09
402.00	1798.12
402.21	2002.91
402.41	1867.75
402.62	1998.82
402.83	2062.30
403.04	1982.43
403.24	2054.11
403.45	1869.80
403.66	1937.38
403.87	1828.84
404.07	1906.66
404.28	1804.26
404.49	1861.60
404.70	1671.14
404.90	1816.55
405.11	1730.53
405.32	1775.59
405.52	1681.38
405.73	1624.04
405.94	1636.33
406.15	1619.94
406.35	1673.19
406.56	1730.53
406.77	1775.59
406.98	1775.59
407.18	1626.09
407.39	1794.02
407.60	1689.57
407.80	1703.91
408.01	1804.26
408.22	1732.58
408.43	1693.67
408.63	1712.10
408.84	1779.68
409.05	1732.58
409.25	1697.77
409.46	1650.66
409.67	1746.92
409.88	1718.25
410.08	1751.01
410.29	1650.66
410.50	1734.63
410.70	1732.58
410.91	1716.20
411.12	1712.10
411.32	1626.09
411.53	1673.19
411.74	1767.40
411.95	1828.84
412.15	1742.82
412.36	1742.82
412.57	1689.57
412.77	1744.87
412.98	1671.14
413.19	1701.86
413.39	1753.06
413.60	1748.97
413.81	1767.40
414.01	1619.94
414.22	1736.68
414.43	1740.77
414.63	1662.95
414.84	1779.68
415.05	1748.97
415.25	1685.48
415.46	1748.97
415.67	1697.77
415.87	1751.01
416.08	1748.97
416.29	1673.19
416.49	1658.85
416.70	1677.29
416.91	1689.57
417.11	1708.01
417.32	1740.77
417.53	1714.15
417.73	1755.11
417.94	1691.62
418.15	1705.96
418.35	1710.05
418.56	1667.05
418.77	1726.44
418.97	1652.71
419.18	1636.33
419.38	1562.60
419.59	1708.01
419.80	1742.82
420.00	1701.86
420.21	1673.19
420.42	1830.88
420.62	1765.35
420.83	1689.57
421.04	1738.73
421.24	1697.77
421.45	1714.15
421.65	1738.73
421.86	1681.38
422.07	1720.29
422.27	1732.58
422.48	1660.90
422.69	1632.23
422.89	1677.29
423.10	1757.16
423.30	1716.20
423.51	1761.25
423.72	1738.73
423.92	1691.62
424.13	1624.04
424.33	1650.66
424.54	1720.29
424.75	1705.96
424.95	1757.16
425.16	1685.48
425.36	1693.67
425.57	1763.30
425.78	1681.38
425.98	1746.92
426.19	1685.48
426.39	1636.33
426.60	1675.24
426.81	1822.69
427.01	1724.39
427.22	1646.57
427.42	1552.36
427.63	1632.23
427.83	1765.35
428.04	1775.59
428.25	1814.50
428.45	1738.73
428.66	1802.21
428.86	1718.25
429.07	1689.57
429.28	1763.30
429.48	1708.01
429.69	1626.09
429.89	1734.63
430.10	1552.36
430.30	1742.82
430.51	1767.40
430.71	1597.42
430.92	1689.57
431.13	1638.38
431.33	1703.91
431.54	1673.19
431.74	1710.05
431.95	1810.40
432.15	1591.27
432.36	1730.53
432.56	1669.09
432.77	1822.69
432.98	1804.26
433.18	1724.39
433.39	1685.48
433.59	1644.52
433.80	1802.21
434.00	1832.93
434.21	1665.00
434.41	1665.00
434.62	1886.18
434.82	1591.27
435.03	1671.14
435.23	1689.57
435.44	1554.41
435.64	1710.05
435.85	1748.97
436.06	1757.16
436.26	1771.49
436.47	1640.42
436.67	1665.00
436.88	1746.92
437.08	1722.34
437.29	1857.51
437.49	1787.88
437.70	1779.68
437.90	1716.20
438.11	1865.70
438.31	1798.12
438.52	1902.56
438.72	1839.08
438.93	1894.37
439.13	1837.03
439.34	1787.88
439.54	1730.53
439.75	1732.58
439.95	1751.01
440.16	1718.25
440.36	1730.53
440.57	1703.91
440.77	1722.34
440.98	1746.92
441.18	1806.31
441.39	1712.10
441.59	1728.49
441.80	1863.65
442.00	1681.38
442.21	1841.12
442.41	1646.57
442.62	1695.72
442.82	1701.86
443.02	1716.20
443.23	1736.68
443.43	1738.73
443.64	1798.12
443.84	1624.04
444.05	1775.59
444.25	1789.92
444.46	1734.63
444.66	1759.21
444.87	1808.36
445.07	1640.42
445.28	1720.29
445.48	1755.11
445.69	1724.39
445.89	1890.28
446.09	1748.97
446.30	2023.39
446.50	2662.36
446.71	3774.41
446.91	4394.94
447.12	4704.18
447.32	4925.36
447.53	4288.45
447.73	3796.93
447.93	3479.50
448.14	3362.76
448.34	3364.81
448.55	2947.03
448.75	2838.48
448.96	2625.50
449.16	2426.84
449.36	2199.52
449.57	2043.87
449.77	1912.80
449.98	1820.64
450.18	1757.16
450.39	1740.77
450.59	1742.82
450.79	1734.63
451.00	1701.86
451.20	1742.82
451.41	1710.05
451.61	1718.25
451.81	1718.25
452.02	1695.72
452.22	1697.77
452.43	1763.30
452.63	1724.39
