SpectraSuite Data File
++++++++++++++++++++++++++++++++++++
Date: Mon Jun 06 14:39:57 CEST 2016
User: root
Dark Spectrum Present: No
Reference Spectrum Present: No
Number of Sampled Component Spectra: 1
Spectrometers: USB4C02835
Integration Time (usec): 100000 (USB4C02835)
Spectra Averaged: 1 (USB4C02835)
Boxcar Smoothing: 0 (USB4C02835)
Correct for Electrical Dark: No (USB4C02835)
Strobe/Lamp Enabled: No (USB4C02835)
Correct for Detector Non-linearity: No (USB4C02835)
Correct for Stray Light: No (USB4C02835)
Number of Pixels in Processed Spectrum: 3648
>>>>>Begin Processed Spectral Data<<<<<
177.47	1478.63
177.69	1478.63
177.91	1478.63
178.13	1384.43
178.36	1396.71
178.58	1658.85
178.80	1701.86
179.02	1667.05
179.24	1609.70
179.46	1716.20
179.68	1730.53
179.90	1685.48
180.13	1720.29
180.35	1652.71
180.57	1771.49
180.79	1732.58
181.01	1687.53
181.23	1847.27
181.45	1765.35
181.67	1695.72
181.90	1689.57
182.12	1628.14
182.34	1619.94
182.56	1775.59
182.78	1714.15
183.00	1724.39
183.22	1724.39
183.44	1613.80
183.66	1873.89
183.89	1751.01
184.11	1730.53
184.33	1730.53
184.55	1724.39
184.77	1699.81
184.99	1736.68
185.21	1675.24
185.43	1783.78
185.65	1697.77
185.87	1691.62
186.10	1841.12
186.32	1783.78
186.54	1779.68
186.76	1699.81
186.98	1736.68
187.20	1701.86
187.42	1767.40
187.64	1705.96
187.86	1646.57
188.08	1705.96
188.30	1679.33
188.52	1697.77
188.75	1824.74
188.97	1685.48
189.19	1607.66
189.41	1611.75
189.63	1734.63
189.85	1695.72
190.07	1574.89
190.29	1572.84
190.51	1693.67
190.73	1595.37
190.95	1755.11
191.17	1708.01
191.39	1646.57
191.61	1671.14
191.84	1646.57
192.06	1724.39
192.28	1621.99
192.50	1837.03
192.72	1742.82
192.94	1746.92
193.16	1736.68
193.38	1773.54
193.60	1671.14
193.82	1677.29
194.04	1728.49
194.26	1701.86
194.48	1710.05
194.70	1675.24
194.92	1718.25
195.14	1671.14
195.36	1705.96
195.58	1685.48
195.80	1757.16
196.02	1656.81
196.24	1660.90
196.46	1730.53
196.69	1697.77
196.91	1837.03
197.13	1736.68
197.35	1689.57
197.57	1796.07
197.79	1679.33
198.01	1630.18
198.23	1804.26
198.45	1714.15
198.67	1574.89
198.89	1660.90
199.11	1720.29
199.33	1677.29
199.55	1587.18
199.77	1734.63
199.99	1748.97
200.21	1716.20
200.43	1722.34
200.65	1638.38
200.87	1527.78
201.09	1740.77
201.31	1648.61
201.53	1689.57
201.75	1675.24
201.97	1720.29
202.19	1722.34
202.41	1716.20
202.63	1761.25
202.85	1703.91
203.07	1703.91
203.29	1722.34
203.51	1609.70
203.73	1705.96
203.95	1857.51
204.17	1775.59
204.39	1787.88
204.61	1644.52
204.83	1628.14
205.05	1710.05
205.27	1834.98
205.49	1753.06
205.71	1693.67
205.93	1677.29
206.15	1746.92
206.37	1665.00
206.59	1673.19
206.81	1683.43
207.03	1691.62
207.25	1654.76
207.47	1732.58
207.69	1705.96
207.91	1796.07
208.13	1810.40
208.34	1644.52
208.56	1630.18
208.78	1669.09
209.00	1632.23
209.22	1685.48
209.44	1667.05
209.66	1644.52
209.88	1722.34
210.10	1673.19
210.32	1681.38
210.54	1710.05
210.76	1665.00
210.98	1828.84
211.20	1593.32
211.42	1726.44
211.64	1781.73
211.86	1671.14
212.08	1677.29
212.30	1732.58
212.52	1726.44
212.74	1697.77
212.96	1650.66
213.17	1681.38
213.39	1695.72
213.61	1843.17
213.83	1658.85
214.05	1695.72
214.27	1779.68
214.49	1636.33
214.71	1658.85
214.93	1773.54
215.15	1783.78
215.37	1753.06
215.59	1648.61
215.81	1722.34
216.03	1802.21
216.24	1751.01
216.46	1644.52
216.68	1751.01
216.90	1812.45
217.12	1755.11
217.34	1751.01
217.56	1693.67
217.78	1773.54
218.00	1724.39
218.22	1730.53
218.44	1732.58
218.66	1740.77
218.87	1808.36
219.09	1632.23
219.31	1671.14
219.53	1671.14
219.75	1675.24
219.97	1634.28
220.19	1773.54
220.41	1708.01
220.63	1746.92
220.85	1767.40
221.06	1722.34
221.28	1789.92
221.50	1720.29
221.72	1613.80
221.94	1720.29
222.16	1689.57
222.38	1722.34
222.60	1724.39
222.82	1705.96
223.03	1679.33
223.25	1640.42
223.47	1712.10
223.69	1822.69
223.91	1689.57
224.13	1675.24
224.35	1695.72
224.57	1714.15
224.78	1691.62
225.00	1648.61
225.22	1695.72
225.44	1695.72
225.66	1759.21
225.88	1701.86
226.10	1767.40
226.32	1765.35
226.53	1732.58
226.75	1632.23
226.97	1697.77
227.19	1675.24
227.41	1718.25
227.63	1677.29
227.85	1640.42
228.06	1746.92
228.28	1703.91
228.50	1726.44
228.72	1611.75
228.94	1708.01
229.16	1628.14
229.37	1671.14
229.59	1626.09
229.81	1693.67
230.03	1601.51
230.25	1662.95
230.47	1673.19
230.69	1658.85
230.90	1771.49
231.12	1660.90
231.34	1687.53
231.56	1759.21
231.78	1650.66
232.00	1689.57
232.21	1771.49
232.43	1726.44
232.65	1589.22
232.87	1734.63
233.09	1703.91
233.30	1644.52
233.52	1693.67
233.74	1705.96
233.96	1681.38
234.18	1738.73
234.40	1734.63
234.61	1798.12
234.83	1658.85
235.05	1619.94
235.27	1771.49
235.49	1779.68
235.70	1751.01
235.92	1769.44
236.14	1685.48
236.36	1802.21
236.58	1613.80
236.79	1794.02
237.01	1714.15
237.23	1732.58
237.45	1751.01
237.67	1705.96
237.88	1687.53
238.10	1810.40
238.32	1693.67
238.54	1648.61
238.76	1697.77
238.97	1671.14
239.19	1654.76
239.41	1757.16
239.63	1738.73
239.85	1665.00
240.06	1667.05
240.28	1689.57
240.50	1732.58
240.72	1691.62
240.93	1652.71
241.15	1861.60
241.37	1697.77
241.59	1796.07
241.81	1697.77
242.02	1658.85
242.24	1681.38
242.46	1738.73
242.68	1705.96
242.89	1783.78
243.11	1726.44
243.33	1695.72
243.55	1716.20
243.76	1732.58
243.98	1732.58
244.20	1599.46
244.42	1751.01
244.64	1810.40
244.85	1658.85
245.07	1669.09
245.29	1703.91
245.51	1693.67
245.72	1675.24
245.94	1724.39
246.16	1755.11
246.38	1716.20
246.59	1613.80
246.81	1632.23
247.03	1748.97
247.24	1665.00
247.46	1658.85
247.68	1779.68
247.90	1685.48
248.11	1650.66
248.33	1806.31
248.55	1638.38
248.77	1763.30
248.98	1708.01
249.20	1812.45
249.42	1656.81
249.64	1740.77
249.85	1718.25
250.07	1587.18
250.29	1697.77
250.50	1679.33
250.72	1615.85
250.94	1765.35
251.16	1849.32
251.37	1751.01
251.59	1714.15
251.81	1783.78
252.02	1816.55
252.24	1605.61
252.46	1767.40
252.68	1695.72
252.89	1689.57
253.11	1693.67
253.33	1830.88
253.54	1734.63
253.76	1607.66
253.98	1619.94
254.20	1650.66
254.41	1636.33
254.63	1714.15
254.85	1654.76
255.06	1720.29
255.28	1701.86
255.50	1705.96
255.71	1648.61
255.93	1595.37
256.15	1671.14
256.36	1734.63
256.58	1718.25
256.80	1685.48
257.02	1718.25
257.23	1738.73
257.45	1720.29
257.67	1689.57
257.88	1667.05
258.10	1769.44
258.32	1675.24
258.53	1673.19
258.75	1865.70
258.97	1726.44
259.18	1691.62
259.40	1697.77
259.62	1710.05
259.83	1773.54
260.05	1820.64
260.27	1943.52
260.48	1720.29
260.70	1687.53
260.92	1728.49
261.13	1740.77
261.35	1783.78
261.57	1693.67
261.78	1632.23
262.00	1566.70
262.22	1742.82
262.43	1634.28
262.65	1710.05
262.86	1710.05
263.08	1888.23
263.30	1755.11
263.51	1570.79
263.73	1718.25
263.95	1732.58
264.16	1642.47
264.38	1683.43
264.60	1701.86
264.81	1628.14
265.03	1746.92
265.25	1759.21
265.46	1691.62
265.68	1736.68
265.89	1708.01
266.11	1570.79
266.33	1714.15
266.54	1822.69
266.76	1783.78
266.98	1718.25
267.19	1763.30
267.41	1712.10
267.62	1681.38
267.84	1605.61
268.06	1769.44
268.27	1699.81
268.49	1796.07
268.70	1697.77
268.92	1734.63
269.14	1656.81
269.35	1667.05
269.57	1744.87
269.79	1822.69
270.00	1703.91
270.22	1714.15
270.43	1681.38
270.65	1615.85
270.87	1712.10
271.08	1726.44
271.30	1767.40
271.51	1714.15
271.73	1710.05
271.95	1785.83
272.16	1656.81
272.38	1722.34
272.59	1669.09
272.81	1675.24
273.02	1759.21
273.24	1785.83
273.46	1699.81
273.67	1587.18
273.89	1634.28
274.10	1681.38
274.32	1773.54
274.54	1783.78
274.75	1746.92
274.97	1689.57
275.18	1783.78
275.40	1669.09
275.61	1650.66
275.83	1734.63
276.05	1597.42
276.26	1681.38
276.48	1705.96
276.69	1642.47
276.91	1722.34
277.12	1771.49
277.34	1814.50
277.55	1769.44
277.77	1669.09
277.99	1712.10
278.20	1681.38
278.42	1654.76
278.63	1607.66
278.85	1626.09
279.06	1599.46
279.28	1765.35
279.49	1710.05
279.71	1648.61
279.93	1699.81
280.14	1621.99
280.36	1681.38
280.57	1724.39
280.79	1748.97
281.00	1669.09
281.22	1628.14
281.43	1701.86
281.65	1619.94
281.86	1656.81
282.08	1738.73
282.29	1830.88
282.51	1630.18
282.73	1560.55
282.94	1595.37
283.16	1691.62
283.37	1861.60
283.59	1673.19
283.80	1757.16
284.02	1677.29
284.23	1755.11
284.45	1710.05
284.66	1669.09
284.88	1710.05
285.09	1714.15
285.31	1679.33
285.52	1763.30
285.74	1621.99
285.95	1755.11
286.17	1765.35
286.38	1800.16
286.60	1669.09
286.81	1646.57
287.03	1673.19
287.24	1671.14
287.46	1769.44
287.67	1699.81
287.89	1806.31
288.10	1662.95
288.32	1730.53
288.53	1777.64
288.75	1665.00
288.96	1800.16
289.18	1722.34
289.39	1720.29
289.61	1708.01
289.82	1869.80
290.04	1755.11
290.25	1591.27
290.47	1630.18
290.68	1763.30
290.90	1755.11
291.11	1583.08
291.33	1763.30
291.54	1722.34
291.76	1642.47
291.97	1689.57
292.18	1716.20
292.40	1638.38
292.61	1738.73
292.83	1812.45
293.04	1755.11
293.26	1708.01
293.47	1628.14
293.69	1677.29
293.90	1718.25
294.12	1687.53
294.33	1769.44
294.55	1730.53
294.76	1812.45
294.97	1820.64
295.19	1902.56
295.40	1697.77
295.62	1755.11
295.83	1804.26
296.05	1611.75
296.26	1826.79
296.48	1705.96
296.69	1757.16
296.90	1716.20
297.12	1697.77
297.33	1798.12
297.55	1728.49
297.76	1705.96
297.98	1753.06
298.19	1675.24
298.41	1699.81
298.62	1718.25
298.83	1755.11
299.05	1724.39
299.26	1681.38
299.48	1669.09
299.69	1742.82
299.90	1673.19
300.12	1636.33
300.33	1730.53
300.55	1738.73
300.76	1718.25
300.98	1607.66
301.19	1759.21
301.40	1677.29
301.62	1720.29
301.83	1718.25
302.05	1724.39
302.26	1703.91
302.47	1681.38
302.69	1716.20
302.90	1703.91
303.12	1634.28
303.33	1712.10
303.54	1779.68
303.76	1640.42
303.97	1654.76
304.19	1740.77
304.40	1640.42
304.61	1714.15
304.83	1771.49
305.04	1777.64
305.26	1691.62
305.47	1687.53
305.68	1724.39
305.90	1589.22
306.11	1685.48
306.33	1695.72
306.54	1712.10
306.75	1593.32
306.97	1695.72
307.18	1679.33
307.39	1716.20
307.61	1746.92
307.82	1652.71
308.04	1802.21
308.25	1675.24
308.46	1705.96
308.68	1687.53
308.89	1744.87
309.10	1787.88
309.32	1767.40
309.53	1746.92
309.74	1601.51
309.96	1646.57
310.17	1794.02
310.39	1736.68
310.60	1650.66
310.81	1652.71
311.03	1613.80
311.24	1720.29
311.45	1771.49
311.67	1787.88
311.88	1687.53
312.09	1667.05
312.31	1679.33
312.52	1621.99
312.73	1718.25
312.95	1658.85
313.16	1677.29
313.37	1787.88
313.59	1714.15
313.80	1687.53
314.01	1740.77
314.23	1630.18
314.44	1662.95
314.65	1630.18
314.87	1705.96
315.08	1734.63
315.29	1642.47
315.51	1701.86
315.72	1681.38
315.93	1728.49
316.15	1794.02
316.36	1595.37
316.57	1673.19
316.79	1677.29
317.00	1705.96
317.21	1714.15
317.43	1667.05
317.64	1738.73
317.85	1724.39
318.07	1630.18
318.28	1773.54
318.49	1810.40
318.70	1851.36
318.92	1808.36
319.13	1824.74
319.34	1867.75
319.56	1759.21
319.77	1789.92
319.98	1761.25
320.20	1751.01
320.41	1800.16
320.62	1740.77
320.83	1632.23
321.05	1822.69
321.26	1812.45
321.47	1673.19
321.69	1716.20
321.90	1621.99
322.11	1656.81
322.32	1699.81
322.54	1865.70
322.75	1705.96
322.96	1810.40
323.18	1642.47
323.39	1603.56
323.60	1599.46
323.81	1679.33
324.03	1701.86
324.24	1677.29
324.45	1726.44
324.66	1564.65
324.88	1755.11
325.09	1826.79
325.30	1648.61
325.52	1742.82
325.73	1761.25
325.94	1656.81
326.15	1587.18
326.37	1656.81
326.58	1763.30
326.79	1845.22
327.00	1642.47
327.22	1802.21
327.43	1648.61
327.64	1615.85
327.85	1650.66
328.07	1634.28
328.28	1812.45
328.49	1617.90
328.70	1665.00
328.92	1701.86
329.13	1779.68
329.34	1728.49
329.55	1757.16
329.76	1732.58
329.98	1691.62
330.19	1763.30
330.40	1662.95
330.61	1738.73
330.83	1677.29
331.04	1611.75
331.25	1730.53
331.46	1736.68
331.68	1687.53
331.89	1693.67
332.10	1708.01
332.31	1599.46
332.52	1626.09
332.74	1738.73
332.95	1673.19
333.16	1634.28
333.37	1714.15
333.58	1619.94
333.80	1757.16
334.01	1640.42
334.22	1628.14
334.43	1640.42
334.64	1671.14
334.86	1648.61
335.07	1665.00
335.28	1699.81
335.49	1669.09
335.70	1675.24
335.92	1658.85
336.13	1787.88
336.34	1685.48
336.55	1708.01
336.76	1730.53
336.98	1658.85
337.19	1630.18
337.40	1787.88
337.61	1769.44
337.82	1642.47
338.04	1759.21
338.25	1621.99
338.46	1699.81
338.67	1730.53
338.88	1652.71
339.09	1644.52
339.31	1697.77
339.52	1548.26
339.73	1677.29
339.94	1744.87
340.15	1732.58
340.36	1660.90
340.58	1691.62
340.79	1619.94
341.00	1689.57
341.21	1679.33
341.42	1837.03
341.63	1744.87
341.85	1695.72
342.06	1710.05
342.27	1732.58
342.48	1728.49
342.69	1552.36
342.90	1722.34
343.12	1781.73
343.33	1708.01
343.54	1656.81
343.75	1812.45
343.96	1720.29
344.17	1681.38
344.38	1675.24
344.60	1656.81
344.81	1644.52
345.02	1683.43
345.23	1771.49
345.44	1755.11
345.65	1716.20
345.86	1648.61
346.07	1675.24
346.29	1640.42
346.50	1726.44
346.71	1732.58
346.92	1761.25
347.13	1798.12
347.34	1718.25
347.55	1689.57
347.76	1742.82
347.98	1603.56
348.19	1746.92
348.40	1701.86
348.61	1615.85
348.82	1746.92
349.03	1705.96
349.24	1722.34
349.45	1880.04
349.66	1585.13
349.88	1685.48
350.09	1634.28
350.30	1802.21
350.51	1800.16
350.72	1689.57
350.93	1734.63
351.14	1787.88
351.35	1701.86
351.56	1662.95
351.77	1621.99
351.99	1695.72
352.20	1742.82
352.41	1775.59
352.62	1599.46
352.83	1695.72
353.04	1708.01
353.25	1691.62
353.46	1753.06
353.67	1791.97
353.88	1585.13
354.09	1658.85
354.30	1665.00
354.52	1761.25
354.73	1710.05
354.94	1654.76
355.15	1714.15
355.36	1779.68
355.57	1675.24
355.78	1761.25
355.99	1656.81
356.20	1708.01
356.41	1769.44
356.62	1691.62
356.83	1587.18
357.04	1843.17
357.25	1572.84
357.46	1669.09
357.68	1673.19
357.89	1732.58
358.10	1691.62
358.31	1701.86
358.52	1738.73
358.73	1681.38
358.94	1669.09
359.15	1656.81
359.36	1791.97
359.57	1716.20
359.78	1673.19
359.99	1753.06
360.20	1669.09
360.41	1791.97
360.62	1785.83
360.83	1757.16
361.04	1695.72
361.25	1734.63
361.46	1794.02
361.67	1681.38
361.88	1771.49
362.09	1734.63
362.30	1765.35
362.51	1667.05
362.72	1771.49
362.93	1779.68
363.14	1779.68
363.35	1757.16
363.56	1589.22
363.78	1734.63
363.99	1767.40
364.20	1665.00
364.41	1734.63
364.62	1753.06
364.83	1746.92
365.04	1652.71
365.25	1732.58
365.46	1808.36
365.67	1714.15
365.88	1671.14
366.09	1701.86
366.30	1693.67
366.51	1757.16
366.72	1609.70
366.93	1724.39
367.14	1722.34
367.35	1837.03
367.56	1689.57
367.77	1779.68
367.98	1701.86
368.18	1681.38
368.39	1716.20
368.60	1648.61
368.81	1755.11
369.02	1689.57
369.23	1673.19
369.44	1597.42
369.65	1671.14
369.86	1726.44
370.07	1716.20
370.28	1597.42
370.49	1734.63
370.70	1773.54
370.91	1636.33
371.12	1626.09
371.33	1781.73
371.54	1691.62
371.75	1867.75
371.96	1599.46
372.17	1708.01
372.38	1767.40
372.59	1708.01
372.80	1652.71
373.01	1703.91
373.22	1722.34
373.43	1789.92
373.64	1669.09
373.85	1734.63
374.06	1777.64
374.26	1775.59
374.47	1703.91
374.68	1734.63
374.89	1665.00
375.10	1695.72
375.31	1718.25
375.52	1691.62
375.73	1689.57
375.94	1689.57
376.15	1753.06
376.36	1640.42
376.57	1587.18
376.78	1683.43
376.99	1742.82
377.20	1705.96
377.40	1765.35
377.61	1800.16
377.82	1638.38
378.03	1773.54
378.24	1738.73
378.45	1789.92
378.66	1695.72
378.87	1650.66
379.08	1617.90
379.29	1705.96
379.50	1814.50
379.71	1728.49
379.91	1712.10
380.12	1697.77
380.33	1685.48
380.54	1605.61
380.75	1662.95
380.96	1650.66
381.17	1722.34
381.38	1748.97
381.59	1845.22
381.80	1695.72
382.00	1847.27
382.21	1777.64
382.42	1806.31
382.63	1810.40
382.84	1804.26
383.05	1662.95
383.26	1820.64
383.47	1691.62
383.68	1773.54
383.88	1705.96
384.09	1748.97
384.30	1814.50
384.51	1767.40
384.72	1693.67
384.93	1617.90
385.14	1699.81
385.35	1755.11
385.55	1615.85
385.76	1726.44
385.97	1669.09
386.18	1634.28
386.39	1662.95
386.60	1724.39
386.81	1687.53
387.02	1636.33
387.22	1652.71
387.43	1769.44
387.64	1755.11
387.85	1884.13
388.06	2205.66
388.27	4349.89
388.48	6823.83
388.68	8222.59
388.89	9777.00
389.10	9957.22
389.31	8599.42
389.52	7794.57
389.73	6815.64
389.93	6264.74
390.14	5996.45
390.35	5269.42
390.56	4673.46
390.77	3817.41
390.98	3012.56
391.18	2570.20
391.39	2129.89
391.60	1877.99
391.81	1896.42
392.02	1675.24
392.23	1824.74
392.43	1748.97
392.64	1804.26
392.85	1665.00
393.06	1791.97
393.27	1746.92
393.47	1656.81
393.68	1691.62
393.89	1753.06
394.10	1714.15
394.31	1744.87
394.52	1673.19
394.72	1689.57
394.93	1837.03
395.14	1636.33
395.35	1716.20
395.56	1601.51
395.76	1710.05
395.97	1789.92
396.18	1843.17
396.39	1806.31
396.60	2041.82
396.80	1882.08
397.01	1814.50
397.22	1818.60
397.43	1814.50
397.64	1748.97
397.84	1806.31
398.05	1898.47
398.26	1751.01
398.47	1755.11
398.67	1843.17
398.88	1773.54
399.09	1732.58
399.30	1669.09
399.51	1759.21
399.71	1660.90
399.92	1681.38
400.13	1740.77
400.34	1744.87
400.54	1718.25
400.75	1757.16
400.96	1751.01
401.17	1798.12
401.37	1738.73
401.58	1738.73
401.79	1665.00
402.00	1818.60
402.21	2062.30
402.41	2011.11
402.62	1925.09
402.83	2095.07
403.04	2033.63
403.24	2045.92
403.45	1800.16
403.66	1925.09
403.87	1941.47
404.07	1918.95
404.28	1904.61
404.49	1867.75
404.70	1667.05
404.90	1834.98
405.11	1755.11
405.32	1724.39
405.52	1667.05
405.73	1640.42
405.94	1654.76
406.15	1677.29
406.35	1738.73
406.56	1767.40
406.77	1703.91
406.98	1728.49
407.18	1671.14
407.39	1732.58
407.60	1662.95
407.80	1818.60
408.01	1638.38
408.22	1736.68
408.43	1720.29
408.63	1691.62
408.84	1734.63
409.05	1732.58
409.25	1597.42
409.46	1621.99
409.67	1654.76
409.88	1710.05
410.08	1718.25
410.29	1689.57
410.50	1724.39
410.70	1703.91
410.91	1732.58
411.12	1675.24
411.32	1662.95
411.53	1607.66
411.74	1837.03
411.95	1740.77
412.15	1787.88
412.36	1744.87
412.57	1720.29
412.77	1775.59
412.98	1738.73
413.19	1726.44
413.39	1779.68
413.60	1730.53
413.81	1830.88
414.01	1648.61
414.22	1740.77
414.43	1832.93
414.63	1648.61
414.84	1732.58
415.05	1679.33
415.25	1656.81
415.46	1767.40
415.67	1642.47
415.87	1681.38
416.08	1683.43
416.29	1693.67
416.49	1763.30
416.70	1603.56
416.91	1669.09
417.11	1660.90
417.32	1683.43
417.53	1763.30
417.73	1738.73
417.94	1658.85
418.15	1648.61
418.35	1687.53
418.56	1740.77
418.77	1742.82
418.97	1683.43
419.18	1697.77
419.38	1525.74
419.59	1632.23
419.80	1839.08
420.00	1665.00
420.21	1744.87
420.42	1767.40
420.62	1646.57
420.83	1744.87
421.04	1656.81
421.24	1636.33
421.45	1716.20
421.65	1800.16
421.86	1681.38
422.07	1753.06
422.27	1755.11
422.48	1718.25
422.69	1652.71
422.89	1746.92
423.10	1667.05
423.30	1652.71
423.51	1722.34
423.72	1708.01
423.92	1812.45
424.13	1636.33
424.33	1730.53
424.54	1679.33
424.75	1701.86
424.95	1767.40
425.16	1716.20
425.36	1638.38
425.57	1841.12
425.78	1759.21
425.98	1763.30
426.19	1693.67
426.39	1632.23
426.60	1705.96
426.81	1783.78
427.01	1718.25
427.22	1646.57
427.42	1605.61
427.63	1705.96
427.83	1767.40
428.04	1818.60
428.25	1800.16
428.45	1820.64
428.66	1746.92
428.86	1650.66
429.07	1689.57
429.28	1689.57
429.48	1638.38
429.69	1652.71
429.89	1693.67
430.10	1624.04
430.30	1695.72
430.51	1660.90
430.71	1624.04
430.92	1738.73
431.13	1652.71
431.33	1703.91
431.54	1773.54
431.74	1761.25
431.95	1855.46
432.15	1617.90
432.36	1691.62
432.56	1771.49
432.77	1859.56
432.98	1775.59
433.18	1710.05
433.39	1744.87
433.59	1652.71
433.80	1789.92
434.00	1834.98
434.21	1634.28
434.41	1591.27
434.62	1841.12
434.82	1605.61
435.03	1675.24
435.23	1730.53
435.44	1636.33
435.64	1683.43
435.85	1671.14
436.06	1847.27
436.26	1785.83
436.47	1654.76
436.67	1656.81
436.88	1636.33
437.08	1712.10
437.29	1804.26
437.49	1755.11
437.70	1767.40
437.90	1699.81
438.11	1800.16
438.31	1822.69
438.52	1890.28
438.72	1820.64
438.93	1892.32
439.13	1794.02
439.34	1777.64
439.54	1703.91
439.75	1773.54
439.95	1771.49
440.16	1697.77
440.36	1781.73
440.57	1761.25
440.77	1824.74
440.98	1783.78
441.18	1755.11
441.39	1720.29
441.59	1660.90
441.80	1877.99
442.00	1744.87
442.21	1877.99
442.41	1595.37
442.62	1646.57
442.82	1701.86
443.02	1693.67
443.23	1794.02
443.43	1746.92
443.64	1755.11
443.84	1683.43
444.05	1757.16
444.25	1697.77
444.46	1697.77
444.66	1791.97
444.87	1787.88
445.07	1677.29
445.28	1759.21
445.48	1800.16
445.69	1820.64
445.89	1871.84
446.09	1654.76
446.30	2031.58
446.50	2660.31
446.71	3794.89
446.91	4499.39
447.12	4790.20
447.32	4870.07
447.53	4362.17
447.73	3893.19
447.93	3459.02
448.14	3370.96
448.34	3338.19
448.55	2861.01
448.75	2809.81
448.96	2719.70
449.16	2484.19
449.36	2332.64
449.57	1964.00
449.77	1888.23
449.98	1742.82
450.18	1779.68
450.39	1906.66
450.59	1769.44
450.79	1763.30
451.00	1703.91
451.20	1781.73
451.41	1724.39
451.61	1734.63
451.81	1687.53
452.02	1726.44
452.22	1658.85
452.43	1705.96
452.63	1783.78
