SpectraSuite Data File
++++++++++++++++++++++++++++++++++++
Date: Mon Jun 06 16:00:57 CEST 2016
User: root
Dark Spectrum Present: No
Reference Spectrum Present: No
Number of Sampled Component Spectra: 1
Spectrometers: USB4C02835
Integration Time (usec): 100000 (USB4C02835)
Spectra Averaged: 1 (USB4C02835)
Boxcar Smoothing: 0 (USB4C02835)
Correct for Electrical Dark: No (USB4C02835)
Strobe/Lamp Enabled: No (USB4C02835)
Correct for Detector Non-linearity: No (USB4C02835)
Correct for Stray Light: No (USB4C02835)
Number of Pixels in Processed Spectrum: 3648
>>>>>Begin Processed Spectral Data<<<<<
177.47	1429.48
177.69	1429.48
177.91	1429.48
178.13	1464.30
178.36	1466.35
178.58	1621.99
178.80	1763.30
179.02	1628.14
179.24	1703.91
179.46	1712.10
179.68	1732.58
179.90	1740.77
180.13	1736.68
180.35	1613.80
180.57	1714.15
180.79	1755.11
181.01	1697.77
181.23	1802.21
181.45	1757.16
181.67	1710.05
181.90	1683.43
182.12	1697.77
182.34	1667.05
182.56	1722.34
182.78	1763.30
183.00	1730.53
183.22	1681.38
183.44	1628.14
183.66	1853.41
183.89	1824.74
184.11	1652.71
184.33	1718.25
184.55	1755.11
184.77	1771.49
184.99	1767.40
185.21	1710.05
185.43	1810.40
185.65	1695.72
185.87	1642.47
186.10	1849.32
186.32	1918.95
186.54	1714.15
186.76	1722.34
186.98	1734.63
187.20	1738.73
187.42	1699.81
187.64	1755.11
187.86	1697.77
188.08	1738.73
188.30	1718.25
188.52	1738.73
188.75	1781.73
188.97	1763.30
189.19	1689.57
189.41	1740.77
189.63	1781.73
189.85	1599.46
190.07	1593.32
190.29	1621.99
190.51	1665.00
190.73	1708.01
190.95	1828.84
191.17	1601.51
191.39	1581.03
191.61	1701.86
191.84	1691.62
192.06	1689.57
192.28	1621.99
192.50	1937.38
192.72	1687.53
192.94	1681.38
193.16	1791.97
193.38	1644.52
193.60	1576.94
193.82	1732.58
194.04	1757.16
194.26	1695.72
194.48	1769.44
194.70	1642.47
194.92	1587.18
195.14	1794.02
195.36	1720.29
195.58	1757.16
195.80	1742.82
196.02	1665.00
196.24	1787.88
196.46	1712.10
196.69	1701.86
196.91	1818.60
197.13	1730.53
197.35	1632.23
197.57	1845.22
197.79	1738.73
198.01	1685.48
198.23	1777.64
198.45	1767.40
198.67	1695.72
198.89	1708.01
199.11	1683.43
199.33	1681.38
199.55	1611.75
199.77	1681.38
199.99	1740.77
200.21	1675.24
200.43	1685.48
200.65	1701.86
200.87	1652.71
201.09	1777.64
201.31	1708.01
201.53	1720.29
201.75	1695.72
201.97	1687.53
202.19	1699.81
202.41	1738.73
202.63	1839.08
202.85	1720.29
203.07	1681.38
203.29	1656.81
203.51	1691.62
203.73	1617.90
203.95	1892.32
204.17	1732.58
204.39	1693.67
204.61	1695.72
204.83	1665.00
205.05	1761.25
205.27	1802.21
205.49	1826.79
205.71	1660.90
205.93	1634.28
206.15	1685.48
206.37	1757.16
206.59	1728.49
206.81	1615.85
207.03	1660.90
207.25	1628.14
207.47	1791.97
207.69	1636.33
207.91	1744.87
208.13	1781.73
208.34	1667.05
208.56	1611.75
208.78	1701.86
209.00	1710.05
209.22	1691.62
209.44	1701.86
209.66	1669.09
209.88	1687.53
210.10	1703.91
210.32	1599.46
210.54	1800.16
210.76	1660.90
210.98	1818.60
211.20	1648.61
211.42	1695.72
211.64	1753.06
211.86	1722.34
212.08	1730.53
212.30	1779.68
212.52	1771.49
212.74	1849.32
212.96	1708.01
213.17	1699.81
213.39	1810.40
213.61	1759.21
213.83	1748.97
214.05	1697.77
214.27	1779.68
214.49	1710.05
214.71	1609.70
214.93	1761.25
215.15	1710.05
215.37	1751.01
215.59	1667.05
215.81	1695.72
216.03	1849.32
216.24	1722.34
216.46	1667.05
216.68	1673.19
216.90	1724.39
217.12	1742.82
217.34	1730.53
217.56	1693.67
217.78	1779.68
218.00	1742.82
218.22	1671.14
218.44	1697.77
218.66	1726.44
218.87	1794.02
219.09	1714.15
219.31	1765.35
219.53	1761.25
219.75	1708.01
219.97	1691.62
220.19	1689.57
220.41	1703.91
220.63	1781.73
220.85	1730.53
221.06	1757.16
221.28	1767.40
221.50	1767.40
221.72	1675.24
221.94	1744.87
222.16	1738.73
222.38	1777.64
222.60	1783.78
222.82	1660.90
223.03	1769.44
223.25	1658.85
223.47	1724.39
223.69	1869.80
223.91	1738.73
224.13	1746.92
224.35	1726.44
224.57	1794.02
224.78	1746.92
225.00	1607.66
225.22	1751.01
225.44	1660.90
225.66	1800.16
225.88	1595.37
226.10	1755.11
226.32	1775.59
226.53	1839.08
226.75	1665.00
226.97	1767.40
227.19	1742.82
227.41	1648.61
227.63	1742.82
227.85	1603.56
228.06	1662.95
228.28	1763.30
228.50	1781.73
228.72	1640.42
228.94	1708.01
229.16	1613.80
229.37	1642.47
229.59	1671.14
229.81	1751.01
230.03	1724.39
230.25	1589.22
230.47	1683.43
230.69	1652.71
230.90	1742.82
231.12	1703.91
231.34	1671.14
231.56	1763.30
231.78	1691.62
232.00	1740.77
232.21	1712.10
232.43	1720.29
232.65	1621.99
232.87	1779.68
233.09	1624.04
233.30	1710.05
233.52	1800.16
233.74	1695.72
233.96	1703.91
234.18	1697.77
234.40	1714.15
234.61	1896.42
234.83	1613.80
235.05	1624.04
235.27	1863.65
235.49	1775.59
235.70	1744.87
235.92	1839.08
236.14	1738.73
236.36	1873.89
236.58	1648.61
236.79	1679.33
237.01	1697.77
237.23	1796.07
237.45	1753.06
237.67	1648.61
237.88	1789.92
238.10	1773.54
238.32	1712.10
238.54	1658.85
238.76	1773.54
238.97	1665.00
239.19	1708.01
239.41	1703.91
239.63	1794.02
239.85	1679.33
240.06	1767.40
240.28	1705.96
240.50	1691.62
240.72	1753.06
240.93	1775.59
241.15	1789.92
241.37	1667.05
241.59	1759.21
241.81	1687.53
242.02	1734.63
242.24	1677.29
242.46	1789.92
242.68	1613.80
242.89	1697.77
243.11	1730.53
243.33	1705.96
243.55	1761.25
243.76	1767.40
243.98	1736.68
244.20	1705.96
244.42	1775.59
244.64	1732.58
244.85	1685.48
245.07	1665.00
245.29	1806.31
245.51	1742.82
245.72	1734.63
245.94	1730.53
246.16	1794.02
246.38	1781.73
246.59	1597.42
246.81	1656.81
247.03	1703.91
247.24	1609.70
247.46	1630.18
247.68	1665.00
247.90	1628.14
248.11	1671.14
248.33	1810.40
248.55	1724.39
248.77	1642.47
248.98	1828.84
249.20	1849.32
249.42	1712.10
249.64	1695.72
249.85	1640.42
250.07	1679.33
250.29	1787.88
250.50	1791.97
250.72	1675.24
250.94	1726.44
251.16	1806.31
251.37	1763.30
251.59	1644.52
251.81	1734.63
252.02	1820.64
252.24	1738.73
252.46	1785.83
252.68	1683.43
252.89	1708.01
253.11	1658.85
253.33	1783.78
253.54	1746.92
253.76	1662.95
253.98	1773.54
254.20	1632.23
254.41	1662.95
254.63	1689.57
254.85	1636.33
255.06	1689.57
255.28	1638.38
255.50	1589.22
255.71	1699.81
255.93	1628.14
256.15	1689.57
256.36	1796.07
256.58	1658.85
256.80	1732.58
257.02	1742.82
257.23	1744.87
257.45	1751.01
257.67	1746.92
257.88	1695.72
258.10	1800.16
258.32	1748.97
258.53	1662.95
258.75	1787.88
258.97	1660.90
259.18	1773.54
259.40	1753.06
259.62	1771.49
259.83	1769.44
260.05	1644.52
260.27	1964.00
260.48	1720.29
260.70	1650.66
260.92	1658.85
261.13	1718.25
261.35	1665.00
261.57	1705.96
261.78	1574.89
262.00	1656.81
262.22	1753.06
262.43	1683.43
262.65	1728.49
262.86	1730.53
263.08	1853.41
263.30	1830.88
263.51	1656.81
263.73	1695.72
263.95	1800.16
264.16	1630.18
264.38	1687.53
264.60	1746.92
264.81	1753.06
265.03	1748.97
265.25	1806.31
265.46	1681.38
265.68	1753.06
265.89	1861.60
266.11	1695.72
266.33	1763.30
266.54	1742.82
266.76	1771.49
266.98	1771.49
267.19	1902.56
267.41	1802.21
267.62	1722.34
267.84	1667.05
268.06	1681.38
268.27	1673.19
268.49	1861.60
268.70	1740.77
268.92	1650.66
269.14	1615.85
269.35	1665.00
269.57	1699.81
269.79	1687.53
270.00	1697.77
270.22	1755.11
270.43	1626.09
270.65	1591.27
270.87	1693.67
271.08	1738.73
271.30	1771.49
271.51	1708.01
271.73	1785.83
271.95	1808.36
272.16	1728.49
272.38	1755.11
272.59	1708.01
272.81	1763.30
273.02	1697.77
273.24	1757.16
273.46	1765.35
273.67	1775.59
273.89	1687.53
274.10	1675.24
274.32	1753.06
274.54	1685.48
274.75	1699.81
274.97	1609.70
275.18	1744.87
275.40	1695.72
275.61	1722.34
275.83	1642.47
276.05	1693.67
276.26	1740.77
276.48	1759.21
276.69	1703.91
276.91	1757.16
277.12	1783.78
277.34	1814.50
277.55	1830.88
277.77	1648.61
277.99	1705.96
278.20	1701.86
278.42	1701.86
278.63	1767.40
278.85	1710.05
279.06	1634.28
279.28	1726.44
279.49	1779.68
279.71	1800.16
279.93	1728.49
280.14	1640.42
280.36	1687.53
280.57	1728.49
280.79	1800.16
281.00	1726.44
281.22	1681.38
281.43	1814.50
281.65	1648.61
281.86	1671.14
282.08	1730.53
282.29	1820.64
282.51	1609.70
282.73	1642.47
282.94	1671.14
283.16	1751.01
283.37	1738.73
283.59	1751.01
283.80	1671.14
284.02	1683.43
284.23	1744.87
284.45	1718.25
284.66	1677.29
284.88	1632.23
285.09	1753.06
285.31	1751.01
285.52	1718.25
285.74	1636.33
285.95	1744.87
286.17	1650.66
286.38	1734.63
286.60	1708.01
286.81	1675.24
287.03	1656.81
287.24	1681.38
287.46	1767.40
287.67	1710.05
287.89	1871.84
288.10	1730.53
288.32	1730.53
288.53	1820.64
288.75	1738.73
288.96	1734.63
289.18	1687.53
289.39	1673.19
289.61	1708.01
289.82	1763.30
290.04	1810.40
290.25	1710.05
290.47	1677.29
290.68	1730.53
290.90	1708.01
291.11	1632.23
291.33	1755.11
291.54	1583.08
291.76	1642.47
291.97	1787.88
292.18	1748.97
292.40	1607.66
292.61	1673.19
292.83	1794.02
293.04	1732.58
293.26	1699.81
293.47	1675.24
293.69	1710.05
293.90	1705.96
294.12	1806.31
294.33	1703.91
294.55	1744.87
294.76	1675.24
294.97	1753.06
295.19	1914.85
295.40	1742.82
295.62	1748.97
295.83	1746.92
296.05	1652.71
296.26	1822.69
296.48	1734.63
296.69	1705.96
296.90	1656.81
297.12	1748.97
297.33	1779.68
297.55	1630.18
297.76	1728.49
297.98	1779.68
298.19	1804.26
298.41	1693.67
298.62	1697.77
298.83	1777.64
299.05	1732.58
299.26	1679.33
299.48	1701.86
299.69	1753.06
299.90	1779.68
300.12	1574.89
300.33	1732.58
300.55	1712.10
300.76	1718.25
300.98	1671.14
301.19	1695.72
301.40	1689.57
301.62	1697.77
301.83	1753.06
302.05	1640.42
302.26	1753.06
302.47	1751.01
302.69	1681.38
302.90	1675.24
303.12	1599.46
303.33	1753.06
303.54	1828.84
303.76	1662.95
303.97	1746.92
304.19	1832.93
304.40	1714.15
304.61	1816.55
304.83	1779.68
305.04	1632.23
305.26	1726.44
305.47	1673.19
305.68	1722.34
305.90	1638.38
306.11	1794.02
306.33	1644.52
306.54	1753.06
306.75	1628.14
306.97	1607.66
307.18	1716.20
307.39	1701.86
307.61	1738.73
307.82	1656.81
308.04	1714.15
308.25	1693.67
308.46	1744.87
308.68	1665.00
308.89	1652.71
309.10	1763.30
309.32	1685.48
309.53	1734.63
309.74	1769.44
309.96	1656.81
310.17	1779.68
310.39	1656.81
310.60	1779.68
310.81	1665.00
311.03	1562.60
311.24	1740.77
311.45	1615.85
311.67	1779.68
311.88	1669.09
312.09	1765.35
312.31	1617.90
312.52	1744.87
312.73	1662.95
312.95	1615.85
313.16	1589.22
313.37	1812.45
313.59	1791.97
313.80	1765.35
314.01	1740.77
314.23	1691.62
314.44	1701.86
314.65	1646.57
314.87	1634.28
315.08	1697.77
315.29	1595.37
315.51	1617.90
315.72	1701.86
315.93	1767.40
316.15	1785.83
316.36	1662.95
316.57	1730.53
316.79	1781.73
317.00	1695.72
317.21	1757.16
317.43	1613.80
317.64	1687.53
317.85	1691.62
318.07	1656.81
318.28	1751.01
318.49	1804.26
318.70	1906.66
318.92	1781.73
319.13	1810.40
319.34	1867.75
319.56	1783.78
319.77	1802.21
319.98	1794.02
320.20	1800.16
320.41	1755.11
320.62	1775.59
320.83	1714.15
321.05	1837.03
321.26	1720.29
321.47	1714.15
321.69	1767.40
321.90	1689.57
322.11	1701.86
322.32	1703.91
322.54	1753.06
322.75	1693.67
322.96	1855.46
323.18	1617.90
323.39	1626.09
323.60	1720.29
323.81	1708.01
324.03	1748.97
324.24	1794.02
324.45	1701.86
324.66	1759.21
324.88	1769.44
325.09	1853.41
325.30	1722.34
325.52	1759.21
325.73	1695.72
325.94	1628.14
326.15	1636.33
326.37	1679.33
326.58	1755.11
326.79	1814.50
327.00	1679.33
327.22	1753.06
327.43	1648.61
327.64	1650.66
327.85	1759.21
328.07	1703.91
328.28	1722.34
328.49	1667.05
328.70	1671.14
328.92	1738.73
329.13	1665.00
329.34	1720.29
329.55	1816.55
329.76	1781.73
329.98	1767.40
330.19	1775.59
330.40	1757.16
330.61	1755.11
330.83	1742.82
331.04	1654.76
331.25	1771.49
331.46	1681.38
331.68	1585.13
331.89	1785.83
332.10	1703.91
332.31	1667.05
332.52	1783.78
332.74	1804.26
332.95	1613.80
333.16	1673.19
333.37	1710.05
333.58	1689.57
333.80	1681.38
334.01	1595.37
334.22	1632.23
334.43	1626.09
334.64	1662.95
334.86	1660.90
335.07	1667.05
335.28	1824.74
335.49	1685.48
335.70	1744.87
335.92	1898.47
336.13	1834.98
336.34	1736.68
336.55	1777.64
336.76	1705.96
336.98	1581.03
337.19	1697.77
337.40	1855.46
337.61	1826.79
337.82	1730.53
338.04	1726.44
338.25	1621.99
338.46	1742.82
338.67	1667.05
338.88	1681.38
339.09	1660.90
339.31	1605.61
339.52	1613.80
339.73	1644.52
339.94	1738.73
340.15	1638.38
340.36	1755.11
340.58	1675.24
340.79	1689.57
341.00	1681.38
341.21	1638.38
341.42	1789.92
341.63	1699.81
341.85	1703.91
342.06	1726.44
342.27	1650.66
342.48	1693.67
342.69	1679.33
342.90	1697.77
343.12	1771.49
343.33	1667.05
343.54	1730.53
343.75	1796.07
343.96	1732.58
344.17	1628.14
344.38	1742.82
344.60	1562.60
344.81	1685.48
345.02	1617.90
345.23	1775.59
345.44	1765.35
345.65	1769.44
345.86	1730.53
346.07	1673.19
346.29	1669.09
346.50	1816.55
346.71	1763.30
346.92	1818.60
347.13	1843.17
347.34	1724.39
347.55	1785.83
347.76	1705.96
347.98	1640.42
348.19	1722.34
348.40	1773.54
348.61	1748.97
348.82	1796.07
349.03	1699.81
349.24	1718.25
349.45	1728.49
349.66	1624.04
349.88	1705.96
350.09	1683.43
350.30	1830.88
350.51	1757.16
350.72	1671.14
350.93	1708.01
351.14	1708.01
351.35	1726.44
351.56	1665.00
351.77	1757.16
351.99	1787.88
352.20	1771.49
352.41	1779.68
352.62	1681.38
352.83	1744.87
353.04	1722.34
353.25	1679.33
353.46	1843.17
353.67	1841.12
353.88	1646.57
354.09	1755.11
354.30	1607.66
354.52	1730.53
354.73	1689.57
354.94	1689.57
355.15	1736.68
355.36	1849.32
355.57	1742.82
355.78	1738.73
355.99	1615.85
356.20	1669.09
356.41	1708.01
356.62	1685.48
356.83	1785.83
357.04	1785.83
357.25	1648.61
357.46	1687.53
357.68	1656.81
357.89	1689.57
358.10	1806.31
358.31	1726.44
358.52	1773.54
358.73	1574.89
358.94	1675.24
359.15	1693.67
359.36	1763.30
359.57	1658.85
359.78	1828.84
359.99	1716.20
360.20	1650.66
360.41	1728.49
360.62	1722.34
360.83	1724.39
361.04	1712.10
361.25	1714.15
361.46	1775.59
361.67	1720.29
361.88	1796.07
362.09	1787.88
362.30	1730.53
362.51	1759.21
362.72	1718.25
362.93	1746.92
363.14	1763.30
363.35	1693.67
363.56	1617.90
363.78	1767.40
363.99	1787.88
364.20	1718.25
364.41	1763.30
364.62	1775.59
364.83	1705.96
365.04	1685.48
365.25	1730.53
365.46	1843.17
365.67	1689.57
365.88	1681.38
366.09	1738.73
366.30	1662.95
366.51	1728.49
366.72	1669.09
366.93	1705.96
367.14	1761.25
367.35	1812.45
367.56	1683.43
367.77	1738.73
367.98	1669.09
368.18	1718.25
368.39	1681.38
368.60	1640.42
368.81	1726.44
369.02	1708.01
369.23	1710.05
369.44	1640.42
369.65	1705.96
369.86	1714.15
370.07	1767.40
370.28	1669.09
370.49	1787.88
370.70	1673.19
370.91	1720.29
371.12	1626.09
371.33	1814.50
371.54	1673.19
371.75	1804.26
371.96	1562.60
372.17	1722.34
372.38	1699.81
372.59	1796.07
372.80	1722.34
373.01	1660.90
373.22	1703.91
373.43	1728.49
373.64	1738.73
373.85	1761.25
374.06	1853.41
374.26	1767.40
374.47	1708.01
374.68	1775.59
374.89	1714.15
375.10	1746.92
375.31	1699.81
375.52	1714.15
375.73	1665.00
375.94	1730.53
376.15	1748.97
376.36	1683.43
376.57	1693.67
376.78	1681.38
376.99	1742.82
377.20	1759.21
377.40	1681.38
377.61	1804.26
377.82	1595.37
378.03	1796.07
378.24	1802.21
378.45	1736.68
378.66	1738.73
378.87	1642.47
379.08	1712.10
379.29	1630.18
379.50	1736.68
379.71	1701.86
379.91	1740.77
380.12	1773.54
380.33	1736.68
380.54	1718.25
380.75	1675.24
380.96	1611.75
381.17	1845.22
381.38	1685.48
381.59	1703.91
381.80	1773.54
382.00	1906.66
382.21	1726.44
382.42	1871.84
382.63	1837.03
382.84	1679.33
383.05	1814.50
383.26	1851.36
383.47	1769.44
383.68	1791.97
383.88	1755.11
384.09	1708.01
384.30	1685.48
384.51	1722.34
384.72	1769.44
384.93	1585.13
385.14	1669.09
385.35	1708.01
385.55	1665.00
385.76	1759.21
385.97	1785.83
386.18	1669.09
386.39	1701.86
386.60	1667.05
386.81	1677.29
387.02	1636.33
387.22	1687.53
387.43	1687.53
387.64	1777.64
387.85	1927.14
388.06	2224.09
388.27	4274.11
388.48	6682.52
388.68	8095.62
388.89	9508.72
389.10	9647.98
389.31	8640.38
389.52	7526.29
389.73	6659.99
389.93	6186.91
390.14	5793.70
390.35	5140.40
390.56	4523.96
390.77	3872.71
390.98	3086.29
391.18	2525.15
391.39	2168.80
391.60	1951.71
391.81	1871.84
392.02	1699.81
392.23	1773.54
392.43	1714.15
392.64	1832.93
392.85	1753.06
393.06	1773.54
393.27	1740.77
393.47	1632.23
393.68	1763.30
393.89	1710.05
394.10	1781.73
394.31	1660.90
394.52	1656.81
394.72	1701.86
394.93	1824.74
395.14	1675.24
395.35	1724.39
395.56	1673.19
395.76	1828.84
395.97	1857.51
396.18	1855.46
396.39	1847.27
396.60	2007.01
396.80	1937.38
397.01	1863.65
397.22	1814.50
397.43	1865.70
397.64	1703.91
397.84	1800.16
398.05	1871.84
398.26	1679.33
398.47	1781.73
398.67	1845.22
398.88	1767.40
399.09	1816.55
399.30	1738.73
399.51	1834.98
399.71	1679.33
399.92	1720.29
400.13	1669.09
400.34	1753.06
400.54	1687.53
400.75	1859.56
400.96	1751.01
401.17	1837.03
401.37	1791.97
401.58	1654.76
401.79	1785.83
402.00	1849.32
402.21	1957.86
402.41	2037.73
402.62	1935.33
402.83	1929.19
403.04	1976.29
403.24	2095.07
403.45	1818.60
403.66	2019.30
403.87	1814.50
404.07	1906.66
404.28	1892.32
404.49	1861.60
404.70	1814.50
404.90	1812.45
405.11	1753.06
405.32	1757.16
405.52	1662.95
405.73	1640.42
405.94	1642.47
406.15	1677.29
406.35	1730.53
406.56	1685.48
406.77	1744.87
406.98	1716.20
407.18	1638.38
407.39	1830.88
407.60	1679.33
407.80	1730.53
408.01	1671.14
408.22	1773.54
408.43	1658.85
408.63	1757.16
408.84	1800.16
409.05	1822.69
409.25	1636.33
409.46	1701.86
409.67	1691.62
409.88	1751.01
410.08	1779.68
410.29	1789.92
410.50	1716.20
410.70	1763.30
410.91	1660.90
411.12	1726.44
411.32	1722.34
411.53	1703.91
411.74	1818.60
411.95	1865.70
412.15	1763.30
412.36	1720.29
412.57	1679.33
412.77	1820.64
412.98	1769.44
413.19	1648.61
413.39	1804.26
413.60	1755.11
413.81	1869.80
414.01	1595.37
414.22	1734.63
414.43	1837.03
414.63	1658.85
414.84	1828.84
415.05	1757.16
415.25	1593.32
415.46	1828.84
415.67	1736.68
415.87	1722.34
416.08	1765.35
416.29	1660.90
416.49	1730.53
416.70	1726.44
416.91	1697.77
417.11	1765.35
417.32	1765.35
417.53	1783.78
417.73	1687.53
417.94	1621.99
418.15	1802.21
418.35	1738.73
418.56	1736.68
418.77	1890.28
418.97	1769.44
419.18	1724.39
419.38	1554.41
419.59	1724.39
419.80	1748.97
420.00	1687.53
420.21	1720.29
420.42	1832.93
420.62	1746.92
420.83	1665.00
421.04	1710.05
421.24	1718.25
421.45	1791.97
421.65	1779.68
421.86	1685.48
422.07	1744.87
422.27	1738.73
422.48	1677.29
422.69	1708.01
422.89	1718.25
423.10	1742.82
423.30	1662.95
423.51	1744.87
423.72	1722.34
423.92	1720.29
424.13	1677.29
424.33	1693.67
424.54	1730.53
424.75	1722.34
424.95	1822.69
425.16	1751.01
425.36	1675.24
425.57	1759.21
425.78	1845.22
425.98	1730.53
426.19	1736.68
426.39	1662.95
426.60	1773.54
426.81	1814.50
427.01	1726.44
427.22	1646.57
427.42	1642.47
427.63	1665.00
427.83	1775.59
428.04	1810.40
428.25	1759.21
428.45	1812.45
428.66	1822.69
428.86	1671.14
429.07	1740.77
429.28	1810.40
429.48	1642.47
429.69	1652.71
429.89	1761.25
430.10	1679.33
430.30	1683.43
430.51	1742.82
430.71	1603.56
430.92	1773.54
431.13	1679.33
431.33	1742.82
431.54	1710.05
431.74	1871.84
431.95	1804.26
432.15	1665.00
432.36	1718.25
432.56	1812.45
432.77	1814.50
432.98	1808.36
433.18	1789.92
433.39	1652.71
433.59	1673.19
433.80	1777.64
434.00	1767.40
434.21	1642.47
434.41	1714.15
434.62	1888.23
434.82	1689.57
435.03	1701.86
435.23	1773.54
435.44	1558.50
435.64	1818.60
435.85	1769.44
436.06	1724.39
436.26	1834.98
436.47	1755.11
436.67	1699.81
436.88	1701.86
437.08	1820.64
437.29	1812.45
437.49	1755.11
437.70	1798.12
437.90	1724.39
438.11	1802.21
438.31	1732.58
438.52	1839.08
438.72	1863.65
438.93	1923.04
439.13	1849.32
439.34	1871.84
439.54	1703.91
439.75	1834.98
439.95	1808.36
440.16	1843.17
440.36	1767.40
440.57	1787.88
440.77	1712.10
440.98	1775.59
441.18	1783.78
441.39	1693.67
441.59	1689.57
441.80	1882.08
442.00	1705.96
442.21	1832.93
442.41	1613.80
442.62	1746.92
442.82	1662.95
443.02	1705.96
443.23	1714.15
443.43	1779.68
443.64	1871.84
443.84	1701.86
444.05	1775.59
444.25	1728.49
444.46	1742.82
444.66	1802.21
444.87	1755.11
445.07	1654.76
445.28	1716.20
445.48	1841.12
445.69	1720.29
445.89	1847.27
446.09	1800.16
446.30	2072.54
446.50	2721.75
446.71	3684.30
446.91	4341.69
447.12	4646.84
447.32	4825.01
447.53	4239.30
447.73	3876.80
447.93	3411.92
448.14	3280.85
448.34	3215.31
448.55	2938.84
448.75	2885.59
448.96	2664.41
449.16	2435.03
449.36	2336.73
449.57	2056.16
449.77	1824.74
449.98	1834.98
450.18	1820.64
450.39	1849.32
450.59	1765.35
450.79	1746.92
451.00	1746.92
451.20	1771.49
451.41	1679.33
451.61	1759.21
451.81	1746.92
452.02	1755.11
452.22	1740.77
452.43	1673.19
452.63	1724.39
