SpectraSuite Data File
++++++++++++++++++++++++++++++++++++
Date: Mon Jun 06 16:31:17 CEST 2016
User: root
Dark Spectrum Present: No
Reference Spectrum Present: No
Number of Sampled Component Spectra: 1
Spectrometers: USB4C02835
Integration Time (usec): 100000 (USB4C02835)
Spectra Averaged: 1 (USB4C02835)
Boxcar Smoothing: 0 (USB4C02835)
Correct for Electrical Dark: No (USB4C02835)
Strobe/Lamp Enabled: No (USB4C02835)
Correct for Detector Non-linearity: No (USB4C02835)
Correct for Stray Light: No (USB4C02835)
Number of Pixels in Processed Spectrum: 3648
>>>>>Begin Processed Spectral Data<<<<<
177.47	1546.22
177.69	1546.22
177.91	1546.22
178.13	1374.19
178.36	1468.39
178.58	1695.72
178.80	1724.39
179.02	1710.05
179.24	1669.09
179.46	1724.39
179.68	1771.49
179.90	1699.81
180.13	1681.38
180.35	1650.66
180.57	1744.87
180.79	1753.06
181.01	1703.91
181.23	1732.58
181.45	1814.50
181.67	1742.82
181.90	1720.29
182.12	1697.77
182.34	1681.38
182.56	1785.83
182.78	1732.58
183.00	1658.85
183.22	1740.77
183.44	1640.42
183.66	1871.84
183.89	1746.92
184.11	1718.25
184.33	1718.25
184.55	1718.25
184.77	1718.25
184.99	1621.99
185.21	1683.43
185.43	1785.83
185.65	1652.71
185.87	1648.61
186.10	1818.60
186.32	1849.32
186.54	1679.33
186.76	1726.44
186.98	1787.88
187.20	1662.95
187.42	1695.72
187.64	1697.77
187.86	1761.25
188.08	1738.73
188.30	1681.38
188.52	1705.96
188.75	1714.15
188.97	1834.98
189.19	1728.49
189.41	1687.53
189.63	1662.95
189.85	1732.58
190.07	1687.53
190.29	1671.14
190.51	1763.30
190.73	1628.14
190.95	1800.16
191.17	1726.44
191.39	1548.26
191.61	1638.38
191.84	1673.19
192.06	1798.12
192.28	1585.13
192.50	1933.28
192.72	1734.63
192.94	1660.90
193.16	1740.77
193.38	1722.34
193.60	1677.29
193.82	1771.49
194.04	1726.44
194.26	1693.67
194.48	1728.49
194.70	1640.42
194.92	1757.16
195.14	1705.96
195.36	1724.39
195.58	1830.88
195.80	1634.28
196.02	1646.57
196.24	1685.48
196.46	1730.53
196.69	1638.38
196.91	1896.42
197.13	1730.53
197.35	1730.53
197.57	1834.98
197.79	1744.87
198.01	1673.19
198.23	1751.01
198.45	1746.92
198.67	1642.47
198.89	1740.77
199.11	1699.81
199.33	1722.34
199.55	1630.18
199.77	1714.15
199.99	1794.02
200.21	1615.85
200.43	1751.01
200.65	1650.66
200.87	1546.22
201.09	1728.49
201.31	1703.91
201.53	1755.11
201.75	1673.19
201.97	1724.39
202.19	1738.73
202.41	1726.44
202.63	1824.74
202.85	1685.48
203.07	1751.01
203.29	1677.29
203.51	1703.91
203.73	1646.57
203.95	1945.57
204.17	1718.25
204.39	1677.29
204.61	1646.57
204.83	1601.51
205.05	1675.24
205.27	1818.60
205.49	1839.08
205.71	1763.30
205.93	1695.72
206.15	1675.24
206.37	1703.91
206.59	1693.67
206.81	1652.71
207.03	1603.56
207.25	1675.24
207.47	1810.40
207.69	1744.87
207.91	1798.12
208.13	1775.59
208.34	1603.56
208.56	1740.77
208.78	1740.77
209.00	1636.33
209.22	1712.10
209.44	1728.49
209.66	1687.53
209.88	1681.38
210.10	1746.92
210.32	1712.10
210.54	1724.39
210.76	1656.81
210.98	1722.34
211.20	1619.94
211.42	1697.77
211.64	1851.36
211.86	1695.72
212.08	1851.36
212.30	1675.24
212.52	1705.96
212.74	1761.25
212.96	1787.88
213.17	1767.40
213.39	1826.79
213.61	1763.30
213.83	1773.54
214.05	1638.38
214.27	1779.68
214.49	1687.53
214.71	1712.10
214.93	1851.36
215.15	1662.95
215.37	1804.26
215.59	1695.72
215.81	1751.01
216.03	1708.01
216.24	1714.15
216.46	1677.29
216.68	1746.92
216.90	1808.36
217.12	1691.62
217.34	1755.11
217.56	1728.49
217.78	1708.01
218.00	1779.68
218.22	1746.92
218.44	1648.61
218.66	1755.11
218.87	1781.73
219.09	1660.90
219.31	1689.57
219.53	1689.57
219.75	1660.90
219.97	1681.38
220.19	1695.72
220.41	1689.57
220.63	1771.49
220.85	1787.88
221.06	1734.63
221.28	1708.01
221.50	1751.01
221.72	1777.64
221.94	1738.73
222.16	1638.38
222.38	1740.77
222.60	1755.11
222.82	1705.96
223.03	1763.30
223.25	1640.42
223.47	1808.36
223.69	1765.35
223.91	1740.77
224.13	1765.35
224.35	1652.71
224.57	1734.63
224.78	1716.20
225.00	1673.19
225.22	1708.01
225.44	1789.92
225.66	1744.87
225.88	1669.09
226.10	1806.31
226.32	1742.82
226.53	1798.12
226.75	1732.58
226.97	1689.57
227.19	1705.96
227.41	1628.14
227.63	1671.14
227.85	1693.67
228.06	1693.67
228.28	1734.63
228.50	1753.06
228.72	1689.57
228.94	1683.43
229.16	1673.19
229.37	1650.66
229.59	1658.85
229.81	1773.54
230.03	1648.61
230.25	1638.38
230.47	1648.61
230.69	1660.90
230.90	1665.00
231.12	1669.09
231.34	1734.63
231.56	1662.95
231.78	1642.47
232.00	1687.53
232.21	1687.53
232.43	1652.71
232.65	1617.90
232.87	1714.15
233.09	1679.33
233.30	1716.20
233.52	1824.74
233.74	1794.02
233.96	1748.97
234.18	1755.11
234.40	1689.57
234.61	1804.26
234.83	1562.60
235.05	1630.18
235.27	1847.27
235.49	1869.80
235.70	1658.85
235.92	1796.07
236.14	1718.25
236.36	1882.08
236.58	1576.94
236.79	1701.86
237.01	1658.85
237.23	1724.39
237.45	1892.32
237.67	1697.77
237.88	1726.44
238.10	1804.26
238.32	1765.35
238.54	1787.88
238.76	1710.05
238.97	1630.18
239.19	1650.66
239.41	1695.72
239.63	1777.64
239.85	1617.90
240.06	1724.39
240.28	1638.38
240.50	1812.45
240.72	1679.33
240.93	1703.91
241.15	1763.30
241.37	1734.63
241.59	1705.96
241.81	1691.62
242.02	1720.29
242.24	1724.39
242.46	1755.11
242.68	1613.80
242.89	1689.57
243.11	1794.02
243.33	1685.48
243.55	1748.97
243.76	1699.81
243.98	1656.81
244.20	1673.19
244.42	1660.90
244.64	1726.44
244.85	1697.77
245.07	1654.76
245.29	1759.21
245.51	1671.14
245.72	1736.68
245.94	1685.48
246.16	1724.39
246.38	1673.19
246.59	1685.48
246.81	1605.61
247.03	1718.25
247.24	1626.09
247.46	1660.90
247.68	1714.15
247.90	1693.67
248.11	1681.38
248.33	1769.44
248.55	1748.97
248.77	1757.16
248.98	1785.83
249.20	1751.01
249.42	1695.72
249.64	1736.68
249.85	1669.09
250.07	1705.96
250.29	1689.57
250.50	1730.53
250.72	1648.61
250.94	1691.62
251.16	1787.88
251.37	1757.16
251.59	1681.38
251.81	1658.85
252.02	1828.84
252.24	1681.38
252.46	1892.32
252.68	1763.30
252.89	1769.44
253.11	1667.05
253.33	1832.93
253.54	1791.97
253.76	1689.57
253.98	1744.87
254.20	1722.34
254.41	1677.29
254.63	1736.68
254.85	1628.14
255.06	1634.28
255.28	1687.53
255.50	1607.66
255.71	1699.81
255.93	1640.42
256.15	1730.53
256.36	1716.20
256.58	1652.71
256.80	1730.53
257.02	1685.48
257.23	1699.81
257.45	1705.96
257.67	1742.82
257.88	1640.42
258.10	1681.38
258.32	1714.15
258.53	1716.20
258.75	1763.30
258.97	1644.52
259.18	1781.73
259.40	1722.34
259.62	1863.65
259.83	1828.84
260.05	1724.39
260.27	2013.15
260.48	1671.14
260.70	1640.42
260.92	1730.53
261.13	1767.40
261.35	1722.34
261.57	1748.97
261.78	1634.28
262.00	1656.81
262.22	1632.23
262.43	1697.77
262.65	1642.47
262.86	1767.40
263.08	1806.31
263.30	1748.97
263.51	1589.22
263.73	1648.61
263.95	1767.40
264.16	1628.14
264.38	1708.01
264.60	1716.20
264.81	1738.73
265.03	1779.68
265.25	1755.11
265.46	1738.73
265.68	1814.50
265.89	1781.73
266.11	1597.42
266.33	1781.73
266.54	1814.50
266.76	1689.57
266.98	1773.54
267.19	1763.30
267.41	1724.39
267.62	1703.91
267.84	1583.08
268.06	1755.11
268.27	1726.44
268.49	1773.54
268.70	1744.87
268.92	1624.04
269.14	1658.85
269.35	1605.61
269.57	1683.43
269.79	1755.11
270.00	1646.57
270.22	1806.31
270.43	1660.90
270.65	1605.61
270.87	1730.53
271.08	1775.59
271.30	1705.96
271.51	1775.59
271.73	1724.39
271.95	1863.65
272.16	1736.68
272.38	1724.39
272.59	1679.33
272.81	1748.97
273.02	1722.34
273.24	1681.38
273.46	1716.20
273.67	1621.99
273.89	1658.85
274.10	1703.91
274.32	1787.88
274.54	1755.11
274.75	1746.92
274.97	1697.77
275.18	1791.97
275.40	1746.92
275.61	1611.75
275.83	1742.82
276.05	1632.23
276.26	1763.30
276.48	1783.78
276.69	1710.05
276.91	1658.85
277.12	1740.77
277.34	1718.25
277.55	1779.68
277.77	1683.43
277.99	1732.58
278.20	1634.28
278.42	1617.90
278.63	1654.76
278.85	1685.48
279.06	1685.48
279.28	1785.83
279.49	1789.92
279.71	1734.63
279.93	1781.73
280.14	1714.15
280.36	1603.56
280.57	1732.58
280.79	1767.40
281.00	1669.09
281.22	1574.89
281.43	1765.35
281.65	1605.61
281.86	1609.70
282.08	1705.96
282.29	1867.75
282.51	1564.65
282.73	1681.38
282.94	1581.03
283.16	1673.19
283.37	1820.64
283.59	1673.19
283.80	1791.97
284.02	1710.05
284.23	1628.14
284.45	1662.95
284.66	1667.05
284.88	1675.24
285.09	1730.53
285.31	1701.86
285.52	1695.72
285.74	1634.28
285.95	1732.58
286.17	1640.42
286.38	1775.59
286.60	1662.95
286.81	1656.81
287.03	1673.19
287.24	1761.25
287.46	1689.57
287.67	1738.73
287.89	1873.89
288.10	1710.05
288.32	1728.49
288.53	1791.97
288.75	1773.54
288.96	1787.88
289.18	1652.71
289.39	1746.92
289.61	1771.49
289.82	1812.45
290.04	1814.50
290.25	1619.94
290.47	1738.73
290.68	1619.94
290.90	1783.78
291.11	1642.47
291.33	1755.11
291.54	1665.00
291.76	1656.81
291.97	1658.85
292.18	1763.30
292.40	1712.10
292.61	1705.96
292.83	1869.80
293.04	1818.60
293.26	1701.86
293.47	1697.77
293.69	1703.91
293.90	1669.09
294.12	1832.93
294.33	1732.58
294.55	1708.01
294.76	1812.45
294.97	1783.78
295.19	1873.89
295.40	1751.01
295.62	1714.15
295.83	1814.50
296.05	1615.85
296.26	1794.02
296.48	1763.30
296.69	1734.63
296.90	1648.61
297.12	1671.14
297.33	1708.01
297.55	1755.11
297.76	1751.01
297.98	1761.25
298.19	1683.43
298.41	1665.00
298.62	1624.04
298.83	1837.03
299.05	1689.57
299.26	1656.81
299.48	1697.77
299.69	1740.77
299.90	1697.77
300.12	1654.76
300.33	1755.11
300.55	1800.16
300.76	1816.55
300.98	1652.71
301.19	1748.97
301.40	1677.29
301.62	1624.04
301.83	1730.53
302.05	1718.25
302.26	1703.91
302.47	1763.30
302.69	1714.15
302.90	1693.67
303.12	1593.32
303.33	1763.30
303.54	1785.83
303.76	1695.72
303.97	1759.21
304.19	1880.04
304.40	1665.00
304.61	1724.39
304.83	1859.56
305.04	1785.83
305.26	1763.30
305.47	1621.99
305.68	1699.81
305.90	1679.33
306.11	1759.21
306.33	1681.38
306.54	1656.81
306.75	1642.47
306.97	1650.66
307.18	1654.76
307.39	1652.71
307.61	1742.82
307.82	1730.53
308.04	1722.34
308.25	1687.53
308.46	1796.07
308.68	1761.25
308.89	1658.85
309.10	1771.49
309.32	1734.63
309.53	1755.11
309.74	1703.91
309.96	1691.62
310.17	1742.82
310.39	1708.01
310.60	1806.31
310.81	1773.54
311.03	1605.61
311.24	1761.25
311.45	1705.96
311.67	1832.93
311.88	1783.78
312.09	1660.90
312.31	1691.62
312.52	1742.82
312.73	1697.77
312.95	1636.33
313.16	1652.71
313.37	1710.05
313.59	1761.25
313.80	1687.53
314.01	1853.41
314.23	1697.77
314.44	1628.14
314.65	1652.71
314.87	1617.90
315.08	1681.38
315.29	1726.44
315.51	1603.56
315.72	1615.85
315.93	1755.11
316.15	1808.36
316.36	1708.01
316.57	1669.09
316.79	1779.68
317.00	1652.71
317.21	1771.49
317.43	1603.56
317.64	1714.15
317.85	1652.71
318.07	1712.10
318.28	1718.25
318.49	1847.27
318.70	1886.18
318.92	1736.68
319.13	1830.88
319.34	1742.82
319.56	1763.30
319.77	1722.34
319.98	1755.11
320.20	1806.31
320.41	1703.91
320.62	1787.88
320.83	1708.01
321.05	1865.70
321.26	1658.85
321.47	1822.69
321.69	1716.20
321.90	1632.23
322.11	1687.53
322.32	1726.44
322.54	1763.30
322.75	1636.33
322.96	1748.97
323.18	1630.18
323.39	1605.61
323.60	1636.33
323.81	1781.73
324.03	1748.97
324.24	1716.20
324.45	1705.96
324.66	1658.85
324.88	1777.64
325.09	1814.50
325.30	1708.01
325.52	1751.01
325.73	1775.59
325.94	1732.58
326.15	1628.14
326.37	1726.44
326.58	1810.40
326.79	1714.15
327.00	1658.85
327.22	1773.54
327.43	1695.72
327.64	1673.19
327.85	1650.66
328.07	1759.21
328.28	1861.60
328.49	1665.00
328.70	1742.82
328.92	1669.09
329.13	1720.29
329.34	1773.54
329.55	1875.94
329.76	1757.16
329.98	1699.81
330.19	1767.40
330.40	1730.53
330.61	1771.49
330.83	1675.24
331.04	1628.14
331.25	1656.81
331.46	1634.28
331.68	1714.15
331.89	1777.64
332.10	1738.73
332.31	1621.99
332.52	1703.91
332.74	1744.87
332.95	1648.61
333.16	1732.58
333.37	1771.49
333.58	1679.33
333.80	1710.05
334.01	1628.14
334.22	1708.01
334.43	1691.62
334.64	1677.29
334.86	1716.20
335.07	1609.70
335.28	1759.21
335.49	1652.71
335.70	1845.22
335.92	1640.42
336.13	1908.71
336.34	1765.35
336.55	1714.15
336.76	1746.92
336.98	1667.05
337.19	1703.91
337.40	1777.64
337.61	1871.84
337.82	1695.72
338.04	1734.63
338.25	1593.32
338.46	1677.29
338.67	1757.16
338.88	1621.99
339.09	1658.85
339.31	1740.77
339.52	1658.85
339.73	1656.81
339.94	1767.40
340.15	1742.82
340.36	1660.90
340.58	1687.53
340.79	1636.33
341.00	1746.92
341.21	1624.04
341.42	1779.68
341.63	1685.48
341.85	1806.31
342.06	1703.91
342.27	1714.15
342.48	1763.30
342.69	1607.66
342.90	1703.91
343.12	1714.15
343.33	1742.82
343.54	1787.88
343.75	1761.25
343.96	1748.97
344.17	1714.15
344.38	1718.25
344.60	1626.09
344.81	1638.38
345.02	1650.66
345.23	1810.40
345.44	1865.70
345.65	1730.53
345.86	1746.92
346.07	1716.20
346.29	1738.73
346.50	1673.19
346.71	1734.63
346.92	1716.20
347.13	1877.99
347.34	1748.97
347.55	1740.77
347.76	1736.68
347.98	1632.23
348.19	1705.96
348.40	1847.27
348.61	1730.53
348.82	1753.06
349.03	1714.15
349.24	1642.47
349.45	1853.41
349.66	1632.23
349.88	1746.92
350.09	1730.53
350.30	1767.40
350.51	1771.49
350.72	1759.21
350.93	1710.05
351.14	1685.48
351.35	1761.25
351.56	1771.49
351.77	1648.61
351.99	1679.33
352.20	1812.45
352.41	1812.45
352.62	1564.65
352.83	1697.77
353.04	1716.20
353.25	1740.77
353.46	1789.92
353.67	1806.31
353.88	1624.04
354.09	1679.33
354.30	1781.73
354.52	1857.51
354.73	1615.85
354.94	1683.43
355.15	1718.25
355.36	1820.64
355.57	1693.67
355.78	1736.68
355.99	1667.05
356.20	1648.61
356.41	1669.09
356.62	1779.68
356.83	1652.71
357.04	1724.39
357.25	1583.08
357.46	1640.42
357.68	1642.47
357.89	1665.00
358.10	1712.10
358.31	1710.05
358.52	1730.53
358.73	1697.77
358.94	1595.37
359.15	1687.53
359.36	1687.53
359.57	1761.25
359.78	1701.86
359.99	1789.92
360.20	1535.98
360.41	1714.15
360.62	1685.48
360.83	1677.29
361.04	1751.01
361.25	1740.77
361.46	1810.40
361.67	1716.20
361.88	1718.25
362.09	1779.68
362.30	1757.16
362.51	1667.05
362.72	1718.25
362.93	1767.40
363.14	1769.44
363.35	1689.57
363.56	1693.67
363.78	1781.73
363.99	1777.64
364.20	1671.14
364.41	1701.86
364.62	1818.60
364.83	1800.16
365.04	1767.40
365.25	1783.78
365.46	1820.64
365.67	1615.85
365.88	1638.38
366.09	1703.91
366.30	1671.14
366.51	1796.07
366.72	1628.14
366.93	1636.33
367.14	1669.09
367.35	1828.84
367.56	1677.29
367.77	1849.32
367.98	1675.24
368.18	1648.61
368.39	1691.62
368.60	1615.85
368.81	1691.62
369.02	1751.01
369.23	1724.39
369.44	1615.85
369.65	1701.86
369.86	1710.05
370.07	1818.60
370.28	1681.38
370.49	1724.39
370.70	1798.12
370.91	1665.00
371.12	1638.38
371.33	1736.68
371.54	1665.00
371.75	1859.56
371.96	1609.70
372.17	1730.53
372.38	1693.67
372.59	1771.49
372.80	1640.42
373.01	1716.20
373.22	1755.11
373.43	1763.30
373.64	1628.14
373.85	1839.08
374.06	1765.35
374.26	1779.68
374.47	1720.29
374.68	1816.55
374.89	1669.09
375.10	1665.00
375.31	1785.83
375.52	1773.54
375.73	1761.25
375.94	1617.90
376.15	1761.25
376.36	1724.39
376.57	1710.05
376.78	1673.19
376.99	1724.39
377.20	1812.45
377.40	1683.43
377.61	1832.93
377.82	1613.80
378.03	1744.87
378.24	1763.30
378.45	1679.33
378.66	1689.57
378.87	1615.85
379.08	1644.52
379.29	1671.14
379.50	1751.01
379.71	1728.49
379.91	1785.83
380.12	1683.43
380.33	1779.68
380.54	1632.23
380.75	1689.57
380.96	1685.48
381.17	1736.68
381.38	1685.48
381.59	1787.88
381.80	1720.29
382.00	1796.07
382.21	1796.07
382.42	1839.08
382.63	1837.03
382.84	1763.30
383.05	1779.68
383.26	1828.84
383.47	1757.16
383.68	1705.96
383.88	1796.07
384.09	1714.15
384.30	1734.63
384.51	1767.40
384.72	1656.81
384.93	1658.85
385.14	1710.05
385.35	1804.26
385.55	1695.72
385.76	1765.35
385.97	1669.09
386.18	1683.43
386.39	1642.47
386.60	1695.72
386.81	1722.34
387.02	1720.29
387.22	1617.90
387.43	1734.63
387.64	1837.03
387.85	1888.23
388.06	2195.42
388.27	4300.73
388.48	6733.72
388.68	8214.40
388.89	9471.86
389.10	9598.83
389.31	8456.06
389.52	7456.65
389.73	6700.95
389.93	6199.20
390.14	5642.15
390.35	5091.25
390.56	4429.76
390.77	3712.97
390.98	3092.43
391.18	2500.57
391.39	2111.46
391.60	1886.18
391.81	1783.78
392.02	1710.05
392.23	1880.04
392.43	1736.68
392.64	1845.22
392.85	1755.11
393.06	1914.85
393.27	1712.10
393.47	1691.62
393.68	1693.67
393.89	1712.10
394.10	1804.26
394.31	1699.81
394.52	1671.14
394.72	1687.53
394.93	1804.26
395.14	1662.95
395.35	1740.77
395.56	1648.61
395.76	1787.88
395.97	1808.36
396.18	1877.99
396.39	1816.55
396.60	1968.10
396.80	1914.85
397.01	1751.01
397.22	1912.80
397.43	1855.46
397.64	1726.44
397.84	1859.56
398.05	1880.04
398.26	1757.16
398.47	1783.78
398.67	1746.92
398.88	1787.88
399.09	1779.68
399.30	1775.59
399.51	1708.01
399.71	1724.39
399.92	1763.30
400.13	1730.53
400.34	1753.06
400.54	1689.57
400.75	1808.36
400.96	1771.49
401.17	1812.45
401.37	1765.35
401.58	1746.92
401.79	1683.43
402.00	1953.76
402.21	2007.01
402.41	1927.14
402.62	1974.24
402.83	2082.78
403.04	2021.35
403.24	2082.78
403.45	1857.51
403.66	1861.60
403.87	1841.12
404.07	1832.93
404.28	1943.52
404.49	1880.04
404.70	1767.40
404.90	1802.21
405.11	1699.81
405.32	1771.49
405.52	1619.94
405.73	1691.62
405.94	1675.24
406.15	1646.57
406.35	1734.63
406.56	1781.73
406.77	1761.25
406.98	1798.12
407.18	1638.38
407.39	1828.84
407.60	1722.34
407.80	1730.53
408.01	1712.10
408.22	1718.25
408.43	1679.33
408.63	1796.07
408.84	1720.29
409.05	1791.97
409.25	1660.90
409.46	1710.05
409.67	1652.71
409.88	1646.57
410.08	1695.72
410.29	1722.34
410.50	1757.16
410.70	1765.35
410.91	1697.77
411.12	1691.62
411.32	1755.11
411.53	1718.25
411.74	1775.59
411.95	1791.97
412.15	1822.69
412.36	1802.21
412.57	1789.92
412.77	1812.45
412.98	1722.34
413.19	1714.15
413.39	1789.92
413.60	1757.16
413.81	1755.11
414.01	1652.71
414.22	1765.35
414.43	1726.44
414.63	1675.24
414.84	1787.88
415.05	1755.11
415.25	1685.48
415.46	1781.73
415.67	1683.43
415.87	1785.83
416.08	1751.01
416.29	1771.49
416.49	1759.21
416.70	1730.53
416.91	1710.05
417.11	1751.01
417.32	1728.49
417.53	1796.07
417.73	1679.33
417.94	1691.62
418.15	1742.82
418.35	1703.91
418.56	1714.15
418.77	1863.65
418.97	1773.54
419.18	1665.00
419.38	1626.09
419.59	1718.25
419.80	1759.21
420.00	1726.44
420.21	1722.34
420.42	1781.73
420.62	1722.34
420.83	1710.05
421.04	1701.86
421.24	1595.37
421.45	1751.01
421.65	1783.78
421.86	1669.09
422.07	1718.25
422.27	1748.97
422.48	1648.61
422.69	1673.19
422.89	1705.96
423.10	1714.15
423.30	1599.46
423.51	1828.84
423.72	1748.97
423.92	1775.59
424.13	1648.61
424.33	1798.12
424.54	1724.39
424.75	1736.68
424.95	1771.49
425.16	1777.64
425.36	1701.86
425.57	1775.59
425.78	1675.24
425.98	1771.49
426.19	1701.86
426.39	1734.63
426.60	1671.14
426.81	1765.35
427.01	1740.77
427.22	1689.57
427.42	1613.80
427.63	1640.42
427.83	1794.02
428.04	1804.26
428.25	1849.32
428.45	1841.12
428.66	1740.77
428.86	1662.95
429.07	1683.43
429.28	1716.20
429.48	1665.00
429.69	1763.30
429.89	1722.34
430.10	1652.71
430.30	1722.34
430.51	1771.49
430.71	1648.61
430.92	1703.91
431.13	1716.20
431.33	1794.02
431.54	1703.91
431.74	1818.60
431.95	1791.97
432.15	1640.42
432.36	1691.62
432.56	1755.11
432.77	1822.69
432.98	1861.60
433.18	1613.80
433.39	1673.19
433.59	1751.01
433.80	1734.63
434.00	1900.52
434.21	1677.29
434.41	1714.15
434.62	1871.84
434.82	1654.76
435.03	1671.14
435.23	1740.77
435.44	1626.09
435.64	1710.05
435.85	1746.92
436.06	1796.07
436.26	1777.64
436.47	1722.34
436.67	1689.57
436.88	1699.81
437.08	1751.01
437.29	1794.02
437.49	1783.78
437.70	1816.55
437.90	1621.99
438.11	1904.61
438.31	1742.82
438.52	1902.56
438.72	1832.93
438.93	1890.28
439.13	1806.31
439.34	1828.84
439.54	1742.82
439.75	1834.98
439.95	1757.16
440.16	1732.58
440.36	1773.54
440.57	1736.68
440.77	1751.01
440.98	1755.11
441.18	1802.21
441.39	1712.10
441.59	1708.01
441.80	1826.79
442.00	1777.64
442.21	1789.92
442.41	1669.09
442.62	1759.21
442.82	1681.38
443.02	1714.15
443.23	1718.25
443.43	1765.35
443.64	1828.84
443.84	1671.14
444.05	1845.22
444.25	1736.68
444.46	1714.15
444.66	1675.24
444.87	1785.83
445.07	1685.48
445.28	1769.44
445.48	1810.40
445.69	1802.21
445.89	1816.55
446.09	1861.60
446.30	2000.87
446.50	2707.41
446.71	3723.21
446.91	4304.83
447.12	4695.99
447.32	4806.58
447.53	4333.50
447.73	3772.36
447.93	3493.83
448.14	3305.42
448.34	3241.93
448.55	2938.84
448.75	2836.44
448.96	2576.34
449.16	2396.12
449.36	2224.09
449.57	2070.50
449.77	1908.71
449.98	1794.02
450.18	1894.37
450.39	1785.83
450.59	1787.88
450.79	1763.30
451.00	1693.67
451.20	1855.46
451.41	1740.77
451.61	1800.16
451.81	1697.77
452.02	1667.05
452.22	1771.49
452.43	1724.39
452.63	1763.30
