SpectraSuite Data File
++++++++++++++++++++++++++++++++++++
Date: Mon Jun 06 14:52:17 CEST 2016
User: root
Dark Spectrum Present: No
Reference Spectrum Present: No
Number of Sampled Component Spectra: 1
Spectrometers: USB4C02835
Integration Time (usec): 100000 (USB4C02835)
Spectra Averaged: 1 (USB4C02835)
Boxcar Smoothing: 0 (USB4C02835)
Correct for Electrical Dark: No (USB4C02835)
Strobe/Lamp Enabled: No (USB4C02835)
Correct for Detector Non-linearity: No (USB4C02835)
Correct for Stray Light: No (USB4C02835)
Number of Pixels in Processed Spectrum: 3648
>>>>>Begin Processed Spectral Data<<<<<
177.47	1503.21
177.69	1503.21
177.91	1503.21
178.13	1462.25
178.36	1488.87
178.58	1662.95
178.80	1697.77
179.02	1589.22
179.24	1712.10
179.46	1775.59
179.68	1787.88
179.90	1738.73
180.13	1658.85
180.35	1634.28
180.57	1632.23
180.79	1748.97
181.01	1691.62
181.23	1660.90
181.45	1759.21
181.67	1740.77
181.90	1761.25
182.12	1650.66
182.34	1558.50
182.56	1710.05
182.78	1720.29
183.00	1628.14
183.22	1705.96
183.44	1578.98
183.66	1855.46
183.89	1785.83
184.11	1658.85
184.33	1714.15
184.55	1783.78
184.77	1751.01
184.99	1724.39
185.21	1714.15
185.43	1789.92
185.65	1683.43
185.87	1714.15
186.10	1765.35
186.32	1824.74
186.54	1714.15
186.76	1708.01
186.98	1658.85
187.20	1712.10
187.42	1667.05
187.64	1683.43
187.86	1665.00
188.08	1773.54
188.30	1691.62
188.52	1665.00
188.75	1738.73
188.97	1746.92
189.19	1662.95
189.41	1679.33
189.63	1673.19
189.85	1718.25
190.07	1638.38
190.29	1662.95
190.51	1703.91
190.73	1617.90
190.95	1708.01
191.17	1697.77
191.39	1603.56
191.61	1744.87
191.84	1656.81
192.06	1714.15
192.28	1601.51
192.50	1781.73
192.72	1728.49
192.94	1697.77
193.16	1703.91
193.38	1650.66
193.60	1591.27
193.82	1724.39
194.04	1624.04
194.26	1732.58
194.48	1763.30
194.70	1667.05
194.92	1615.85
195.14	1742.82
195.36	1669.09
195.58	1722.34
195.80	1689.57
196.02	1628.14
196.24	1699.81
196.46	1705.96
196.69	1648.61
196.91	1812.45
197.13	1656.81
197.35	1677.29
197.57	1781.73
197.79	1669.09
198.01	1699.81
198.23	1699.81
198.45	1695.72
198.67	1691.62
198.89	1708.01
199.11	1742.82
199.33	1763.30
199.55	1640.42
199.77	1654.76
199.99	1791.97
200.21	1724.39
200.43	1714.15
200.65	1675.24
200.87	1585.13
201.09	1734.63
201.31	1689.57
201.53	1746.92
201.75	1740.77
201.97	1701.86
202.19	1718.25
202.41	1722.34
202.63	1845.22
202.85	1742.82
203.07	1771.49
203.29	1695.72
203.51	1617.90
203.73	1611.75
203.95	1857.51
204.17	1738.73
204.39	1748.97
204.61	1687.53
204.83	1632.23
205.05	1730.53
205.27	1728.49
205.49	1826.79
205.71	1710.05
205.93	1624.04
206.15	1667.05
206.37	1693.67
206.59	1675.24
206.81	1646.57
207.03	1619.94
207.25	1728.49
207.47	1746.92
207.69	1644.52
207.91	1748.97
208.13	1834.98
208.34	1689.57
208.56	1617.90
208.78	1675.24
209.00	1708.01
209.22	1617.90
209.44	1701.86
209.66	1726.44
209.88	1644.52
210.10	1718.25
210.32	1701.86
210.54	1718.25
210.76	1701.86
210.98	1669.09
211.20	1609.70
211.42	1718.25
211.64	1732.58
211.86	1718.25
212.08	1675.24
212.30	1773.54
212.52	1695.72
212.74	1705.96
212.96	1773.54
213.17	1697.77
213.39	1787.88
213.61	1740.77
213.83	1726.44
214.05	1583.08
214.27	1740.77
214.49	1689.57
214.71	1693.67
214.93	1746.92
215.15	1685.48
215.37	1746.92
215.59	1603.56
215.81	1705.96
216.03	1726.44
216.24	1644.52
216.46	1673.19
216.68	1718.25
216.90	1759.21
217.12	1673.19
217.34	1640.42
217.56	1675.24
217.78	1744.87
218.00	1697.77
218.22	1679.33
218.44	1748.97
218.66	1691.62
218.87	1773.54
219.09	1615.85
219.31	1708.01
219.53	1718.25
219.75	1734.63
219.97	1714.15
220.19	1716.20
220.41	1744.87
220.63	1834.98
220.85	1779.68
221.06	1671.14
221.28	1755.11
221.50	1742.82
221.72	1783.78
221.94	1675.24
222.16	1718.25
222.38	1773.54
222.60	1722.34
222.82	1654.76
223.03	1755.11
223.25	1665.00
223.47	1775.59
223.69	1791.97
223.91	1722.34
224.13	1701.86
224.35	1705.96
224.57	1771.49
224.78	1732.58
225.00	1591.27
225.22	1652.71
225.44	1648.61
225.66	1722.34
225.88	1697.77
226.10	1818.60
226.32	1644.52
226.53	1777.64
226.75	1710.05
226.97	1701.86
227.19	1671.14
227.41	1669.09
227.63	1662.95
227.85	1599.46
228.06	1718.25
228.28	1732.58
228.50	1691.62
228.72	1697.77
228.94	1640.42
229.16	1548.26
229.37	1628.14
229.59	1644.52
229.81	1824.74
230.03	1710.05
230.25	1615.85
230.47	1679.33
230.69	1677.29
230.90	1748.97
231.12	1662.95
231.34	1691.62
231.56	1697.77
231.78	1628.14
232.00	1673.19
232.21	1691.62
232.43	1759.21
232.65	1505.26
232.87	1669.09
233.09	1599.46
233.30	1671.14
233.52	1710.05
233.74	1693.67
233.96	1685.48
234.18	1714.15
234.40	1642.47
234.61	1804.26
234.83	1568.74
235.05	1681.38
235.27	1841.12
235.49	1820.64
235.70	1642.47
235.92	1789.92
236.14	1683.43
236.36	1732.58
236.58	1654.76
236.79	1736.68
237.01	1734.63
237.23	1611.75
237.45	1746.92
237.67	1605.61
237.88	1771.49
238.10	1859.56
238.32	1634.28
238.54	1599.46
238.76	1679.33
238.97	1677.29
239.19	1644.52
239.41	1763.30
239.63	1751.01
239.85	1771.49
240.06	1728.49
240.28	1724.39
240.50	1761.25
240.72	1722.34
240.93	1689.57
241.15	1689.57
241.37	1724.39
241.59	1767.40
241.81	1665.00
242.02	1640.42
242.24	1644.52
242.46	1714.15
242.68	1705.96
242.89	1642.47
243.11	1695.72
243.33	1722.34
243.55	1736.68
243.76	1648.61
243.98	1640.42
244.20	1665.00
244.42	1710.05
244.64	1648.61
244.85	1665.00
245.07	1671.14
245.29	1734.63
245.51	1751.01
245.72	1652.71
245.94	1744.87
246.16	1718.25
246.38	1714.15
246.59	1621.99
246.81	1660.90
247.03	1673.19
247.24	1591.27
247.46	1648.61
247.68	1685.48
247.90	1722.34
248.11	1701.86
248.33	1757.16
248.55	1683.43
248.77	1767.40
248.98	1662.95
249.20	1767.40
249.42	1742.82
249.64	1740.77
249.85	1705.96
250.07	1738.73
250.29	1769.44
250.50	1798.12
250.72	1646.57
250.94	1691.62
251.16	1798.12
251.37	1681.38
251.59	1705.96
251.81	1720.29
252.02	1814.50
252.24	1705.96
252.46	1816.55
252.68	1636.33
252.89	1660.90
253.11	1593.32
253.33	1767.40
253.54	1775.59
253.76	1601.51
253.98	1708.01
254.20	1710.05
254.41	1650.66
254.63	1617.90
254.85	1656.81
255.06	1628.14
255.28	1712.10
255.50	1675.24
255.71	1751.01
255.93	1621.99
256.15	1701.86
256.36	1802.21
256.58	1718.25
256.80	1691.62
257.02	1648.61
257.23	1722.34
257.45	1697.77
257.67	1697.77
257.88	1703.91
258.10	1615.85
258.32	1742.82
258.53	1738.73
258.75	1841.12
258.97	1679.33
259.18	1722.34
259.40	1705.96
259.62	1802.21
259.83	1798.12
260.05	1701.86
260.27	1984.48
260.48	1810.40
260.70	1533.93
260.92	1656.81
261.13	1699.81
261.35	1730.53
261.57	1701.86
261.78	1640.42
262.00	1695.72
262.22	1708.01
262.43	1605.61
262.65	1646.57
262.86	1667.05
263.08	1837.03
263.30	1742.82
263.51	1595.37
263.73	1591.27
263.95	1767.40
264.16	1585.13
264.38	1583.08
264.60	1648.61
264.81	1759.21
265.03	1804.26
265.25	1746.92
265.46	1722.34
265.68	1730.53
265.89	1753.06
266.11	1511.40
266.33	1728.49
266.54	1830.88
266.76	1718.25
266.98	1726.44
267.19	1828.84
267.41	1820.64
267.62	1718.25
267.84	1630.18
268.06	1718.25
268.27	1681.38
268.49	1744.87
268.70	1753.06
268.92	1654.76
269.14	1689.57
269.35	1599.46
269.57	1662.95
269.79	1718.25
270.00	1568.74
270.22	1806.31
270.43	1605.61
270.65	1665.00
270.87	1667.05
271.08	1669.09
271.30	1781.73
271.51	1748.97
271.73	1736.68
271.95	1736.68
272.16	1716.20
272.38	1773.54
272.59	1705.96
272.81	1751.01
273.02	1718.25
273.24	1673.19
273.46	1730.53
273.67	1624.04
273.89	1578.98
274.10	1619.94
274.32	1708.01
274.54	1705.96
274.75	1689.57
274.97	1726.44
275.18	1777.64
275.40	1691.62
275.61	1734.63
275.83	1677.29
276.05	1654.76
276.26	1710.05
276.48	1730.53
276.69	1710.05
276.91	1660.90
277.12	1669.09
277.34	1767.40
277.55	1722.34
277.77	1681.38
277.99	1693.67
278.20	1597.42
278.42	1685.48
278.63	1650.66
278.85	1658.85
279.06	1617.90
279.28	1693.67
279.49	1759.21
279.71	1779.68
279.93	1722.34
280.14	1728.49
280.36	1648.61
280.57	1742.82
280.79	1751.01
281.00	1679.33
281.22	1626.09
281.43	1777.64
281.65	1603.56
281.86	1646.57
282.08	1712.10
282.29	1810.40
282.51	1621.99
282.73	1576.94
282.94	1650.66
283.16	1693.67
283.37	1779.68
283.59	1656.81
283.80	1759.21
284.02	1679.33
284.23	1779.68
284.45	1642.47
284.66	1640.42
284.88	1648.61
285.09	1748.97
285.31	1738.73
285.52	1744.87
285.74	1583.08
285.95	1757.16
286.17	1695.72
286.38	1753.06
286.60	1699.81
286.81	1701.86
287.03	1669.09
287.24	1720.29
287.46	1742.82
287.67	1701.86
287.89	1806.31
288.10	1597.42
288.32	1734.63
288.53	1740.77
288.75	1714.15
288.96	1773.54
289.18	1730.53
289.39	1681.38
289.61	1759.21
289.82	1771.49
290.04	1777.64
290.25	1699.81
290.47	1658.85
290.68	1720.29
290.90	1767.40
291.11	1558.50
291.33	1691.62
291.54	1652.71
291.76	1755.11
291.97	1689.57
292.18	1640.42
292.40	1648.61
292.61	1691.62
292.83	1843.17
293.04	1738.73
293.26	1785.83
293.47	1730.53
293.69	1644.52
293.90	1660.90
294.12	1806.31
294.33	1705.96
294.55	1708.01
294.76	1802.21
294.97	1781.73
295.19	1787.88
295.40	1718.25
295.62	1673.19
295.83	1712.10
296.05	1611.75
296.26	1742.82
296.48	1712.10
296.69	1767.40
296.90	1681.38
297.12	1738.73
297.33	1677.29
297.55	1785.83
297.76	1779.68
297.98	1710.05
298.19	1746.92
298.41	1642.47
298.62	1656.81
298.83	1839.08
299.05	1765.35
299.26	1630.18
299.48	1699.81
299.69	1732.58
299.90	1720.29
300.12	1693.67
300.33	1693.67
300.55	1710.05
300.76	1730.53
300.98	1626.09
301.19	1673.19
301.40	1665.00
301.62	1716.20
301.83	1763.30
302.05	1619.94
302.26	1685.48
302.47	1726.44
302.69	1595.37
302.90	1693.67
303.12	1662.95
303.33	1734.63
303.54	1845.22
303.76	1619.94
303.97	1718.25
304.19	1839.08
304.40	1605.61
304.61	1660.90
304.83	1902.56
305.04	1744.87
305.26	1667.05
305.47	1697.77
305.68	1648.61
305.90	1691.62
306.11	1708.01
306.33	1665.00
306.54	1636.33
306.75	1738.73
306.97	1607.66
307.18	1644.52
307.39	1646.57
307.61	1810.40
307.82	1673.19
308.04	1744.87
308.25	1701.86
308.46	1740.77
308.68	1751.01
308.89	1759.21
309.10	1728.49
309.32	1773.54
309.53	1697.77
309.74	1677.29
309.96	1730.53
310.17	1812.45
310.39	1712.10
310.60	1751.01
310.81	1714.15
311.03	1662.95
311.24	1755.11
311.45	1703.91
311.67	1834.98
311.88	1671.14
312.09	1675.24
312.31	1755.11
312.52	1705.96
312.73	1673.19
312.95	1595.37
313.16	1705.96
313.37	1652.71
313.59	1730.53
313.80	1738.73
314.01	1755.11
314.23	1691.62
314.44	1677.29
314.65	1646.57
314.87	1673.19
315.08	1671.14
315.29	1677.29
315.51	1724.39
315.72	1673.19
315.93	1759.21
316.15	1751.01
316.36	1695.72
316.57	1693.67
316.79	1761.25
317.00	1648.61
317.21	1716.20
317.43	1648.61
317.64	1695.72
317.85	1681.38
318.07	1714.15
318.28	1740.77
318.49	1865.70
318.70	1904.61
318.92	1869.80
319.13	1916.90
319.34	1894.37
319.56	1740.77
319.77	1794.02
319.98	1779.68
320.20	1751.01
320.41	1783.78
320.62	1710.05
320.83	1603.56
321.05	1839.08
321.26	1718.25
321.47	1619.94
321.69	1746.92
321.90	1601.51
322.11	1665.00
322.32	1703.91
322.54	1796.07
322.75	1621.99
322.96	1843.17
323.18	1710.05
323.39	1601.51
323.60	1658.85
323.81	1665.00
324.03	1675.24
324.24	1660.90
324.45	1710.05
324.66	1755.11
324.88	1740.77
325.09	1814.50
325.30	1699.81
325.52	1783.78
325.73	1689.57
325.94	1581.03
326.15	1634.28
326.37	1591.27
326.58	1722.34
326.79	1787.88
327.00	1720.29
327.22	1699.81
327.43	1712.10
327.64	1658.85
327.85	1724.39
328.07	1744.87
328.28	1820.64
328.49	1697.77
328.70	1708.01
328.92	1644.52
329.13	1744.87
329.34	1669.09
329.55	1816.55
329.76	1738.73
329.98	1654.76
330.19	1828.84
330.40	1654.76
330.61	1720.29
330.83	1742.82
331.04	1660.90
331.25	1703.91
331.46	1728.49
331.68	1603.56
331.89	1841.12
332.10	1744.87
332.31	1611.75
332.52	1654.76
332.74	1716.20
332.95	1603.56
333.16	1748.97
333.37	1837.03
333.58	1714.15
333.80	1669.09
334.01	1615.85
334.22	1693.67
334.43	1578.98
334.64	1621.99
334.86	1621.99
335.07	1628.14
335.28	1728.49
335.49	1644.52
335.70	1755.11
335.92	1794.02
336.13	1906.66
336.34	1757.16
336.55	1791.97
336.76	1611.75
336.98	1595.37
337.19	1720.29
337.40	1710.05
337.61	1914.85
337.82	1648.61
338.04	1761.25
338.25	1591.27
338.46	1730.53
338.67	1714.15
338.88	1697.77
339.09	1660.90
339.31	1759.21
339.52	1683.43
339.73	1609.70
339.94	1744.87
340.15	1724.39
340.36	1624.04
340.58	1665.00
340.79	1576.94
341.00	1814.50
341.21	1689.57
341.42	1798.12
341.63	1705.96
341.85	1759.21
342.06	1726.44
342.27	1697.77
342.48	1753.06
342.69	1681.38
342.90	1650.66
343.12	1675.24
343.33	1679.33
343.54	1755.11
343.75	1777.64
343.96	1732.58
344.17	1603.56
344.38	1794.02
344.60	1677.29
344.81	1626.09
345.02	1695.72
345.23	1779.68
345.44	1775.59
345.65	1726.44
345.86	1710.05
346.07	1636.33
346.29	1681.38
346.50	1769.44
346.71	1673.19
346.92	1791.97
347.13	1830.88
347.34	1708.01
347.55	1703.91
347.76	1656.81
347.98	1615.85
348.19	1697.77
348.40	1824.74
348.61	1658.85
348.82	1789.92
349.03	1771.49
349.24	1673.19
349.45	1734.63
349.66	1591.27
349.88	1746.92
350.09	1654.76
350.30	1765.35
350.51	1738.73
350.72	1714.15
350.93	1673.19
351.14	1615.85
351.35	1675.24
351.56	1687.53
351.77	1728.49
351.99	1671.14
352.20	1804.26
352.41	1763.30
352.62	1597.42
352.83	1726.44
353.04	1742.82
353.25	1710.05
353.46	1701.86
353.67	1746.92
353.88	1640.42
354.09	1773.54
354.30	1724.39
354.52	1751.01
354.73	1624.04
354.94	1624.04
355.15	1669.09
355.36	1771.49
355.57	1665.00
355.78	1722.34
355.99	1705.96
356.20	1693.67
356.41	1710.05
356.62	1732.58
356.83	1732.58
357.04	1791.97
357.25	1593.32
357.46	1732.58
357.68	1609.70
357.89	1732.58
358.10	1710.05
358.31	1632.23
358.52	1652.71
358.73	1654.76
358.94	1607.66
359.15	1673.19
359.36	1734.63
359.57	1658.85
359.78	1740.77
359.99	1732.58
360.20	1685.48
360.41	1716.20
360.62	1724.39
360.83	1687.53
361.04	1716.20
361.25	1757.16
361.46	1746.92
361.67	1757.16
361.88	1736.68
362.09	1687.53
362.30	1701.86
362.51	1583.08
362.72	1693.67
362.93	1771.49
363.14	1687.53
363.35	1714.15
363.56	1701.86
363.78	1734.63
363.99	1787.88
364.20	1624.04
364.41	1746.92
364.62	1894.37
364.83	1740.77
365.04	1710.05
365.25	1734.63
365.46	1796.07
365.67	1724.39
365.88	1611.75
366.09	1775.59
366.30	1597.42
366.51	1689.57
366.72	1619.94
366.93	1761.25
367.14	1628.14
367.35	1800.16
367.56	1695.72
367.77	1757.16
367.98	1710.05
368.18	1794.02
368.39	1701.86
368.60	1648.61
368.81	1730.53
369.02	1753.06
369.23	1701.86
369.44	1583.08
369.65	1701.86
369.86	1769.44
370.07	1755.11
370.28	1638.38
370.49	1699.81
370.70	1755.11
370.91	1691.62
371.12	1644.52
371.33	1818.60
371.54	1624.04
371.75	1861.60
371.96	1572.84
372.17	1665.00
372.38	1757.16
372.59	1775.59
372.80	1685.48
373.01	1691.62
373.22	1738.73
373.43	1697.77
373.64	1619.94
373.85	1720.29
374.06	1824.74
374.26	1685.48
374.47	1654.76
374.68	1748.97
374.89	1675.24
375.10	1673.19
375.31	1751.01
375.52	1705.96
375.73	1724.39
375.94	1638.38
376.15	1724.39
376.36	1642.47
376.57	1687.53
376.78	1693.67
376.99	1654.76
377.20	1796.07
377.40	1619.94
377.61	1847.27
377.82	1593.32
378.03	1771.49
378.24	1638.38
378.45	1716.20
378.66	1691.62
378.87	1607.66
379.08	1697.77
379.29	1642.47
379.50	1730.53
379.71	1730.53
379.91	1794.02
380.12	1708.01
380.33	1767.40
380.54	1665.00
380.75	1656.81
380.96	1691.62
381.17	1748.97
381.38	1714.15
381.59	1689.57
381.80	1701.86
382.00	1853.41
382.21	1775.59
382.42	1740.77
382.63	1855.46
382.84	1779.68
383.05	1789.92
383.26	1804.26
383.47	1722.34
383.68	1720.29
383.88	1705.96
384.09	1705.96
384.30	1806.31
384.51	1718.25
384.72	1683.43
384.93	1673.19
385.14	1656.81
385.35	1767.40
385.55	1632.23
385.76	1716.20
385.97	1724.39
386.18	1630.18
386.39	1671.14
386.60	1634.28
386.81	1599.46
387.02	1605.61
387.22	1722.34
387.43	1667.05
387.64	1791.97
387.85	1890.28
388.06	2181.09
388.27	4337.60
388.48	6893.46
388.68	8251.27
388.89	9715.56
389.10	9928.55
389.31	8712.06
389.52	7735.18
389.73	6754.20
389.93	6326.18
390.14	5998.50
390.35	5171.12
390.56	4632.51
390.77	3796.93
390.98	3057.62
391.18	2543.58
391.39	2076.64
391.60	1888.23
391.81	1808.36
392.02	1742.82
392.23	1802.21
392.43	1712.10
392.64	1804.26
392.85	1699.81
393.06	1806.31
393.27	1697.77
393.47	1697.77
393.68	1712.10
393.89	1703.91
394.10	1785.83
394.31	1644.52
394.52	1669.09
394.72	1681.38
394.93	1796.07
395.14	1720.29
395.35	1728.49
395.56	1652.71
395.76	1732.58
395.97	1765.35
396.18	1804.26
396.39	1837.03
396.60	1914.85
396.80	1916.90
397.01	1839.08
397.22	1845.22
397.43	1882.08
397.64	1726.44
397.84	1832.93
398.05	1951.71
398.26	1744.87
398.47	1753.06
398.67	1761.25
398.88	1734.63
399.09	1751.01
399.30	1687.53
399.51	1767.40
399.71	1746.92
399.92	1730.53
400.13	1763.30
400.34	1654.76
400.54	1710.05
400.75	1832.93
400.96	1687.53
401.17	1863.65
401.37	1734.63
401.58	1804.26
401.79	1765.35
402.00	1863.65
402.21	1988.58
402.41	1882.08
402.62	1984.48
402.83	2084.83
403.04	1931.23
403.24	2097.12
403.45	1808.36
403.66	1886.18
403.87	1882.08
404.07	1916.90
404.28	1837.03
404.49	1918.95
404.70	1746.92
404.90	1775.59
405.11	1712.10
405.32	1785.83
405.52	1708.01
405.73	1685.48
405.94	1738.73
406.15	1695.72
406.35	1794.02
406.56	1751.01
406.77	1730.53
406.98	1730.53
407.18	1654.76
407.39	1939.43
407.60	1734.63
407.80	1710.05
408.01	1720.29
408.22	1818.60
408.43	1660.90
408.63	1804.26
408.84	1775.59
409.05	1787.88
409.25	1632.23
409.46	1689.57
409.67	1662.95
409.88	1658.85
410.08	1665.00
410.29	1630.18
410.50	1734.63
410.70	1685.48
410.91	1705.96
411.12	1683.43
411.32	1679.33
411.53	1734.63
411.74	1802.21
411.95	1781.73
412.15	1669.09
412.36	1736.68
412.57	1710.05
412.77	1769.44
412.98	1734.63
413.19	1646.57
413.39	1763.30
413.60	1740.77
413.81	1800.16
414.01	1585.13
414.22	1755.11
414.43	1781.73
414.63	1642.47
414.84	1781.73
415.05	1794.02
415.25	1611.75
415.46	1738.73
415.67	1773.54
415.87	1728.49
416.08	1685.48
416.29	1675.24
416.49	1748.97
416.70	1648.61
416.91	1675.24
417.11	1693.67
417.32	1763.30
417.53	1759.21
417.73	1794.02
417.94	1701.86
418.15	1755.11
418.35	1722.34
418.56	1683.43
418.77	1796.07
418.97	1679.33
419.18	1669.09
419.38	1562.60
419.59	1669.09
419.80	1808.36
420.00	1648.61
420.21	1671.14
420.42	1746.92
420.62	1705.96
420.83	1746.92
421.04	1685.48
421.24	1689.57
421.45	1761.25
421.65	1607.66
421.86	1708.01
422.07	1779.68
422.27	1673.19
422.48	1791.97
422.69	1665.00
422.89	1683.43
423.10	1703.91
423.30	1710.05
423.51	1677.29
423.72	1787.88
423.92	1720.29
424.13	1642.47
424.33	1738.73
424.54	1738.73
424.75	1660.90
424.95	1798.12
425.16	1769.44
425.36	1689.57
425.57	1738.73
425.78	1796.07
425.98	1779.68
426.19	1685.48
426.39	1691.62
426.60	1658.85
426.81	1830.88
427.01	1779.68
427.22	1626.09
427.42	1576.94
427.63	1697.77
427.83	1740.77
428.04	1765.35
428.25	1759.21
428.45	1818.60
428.66	1818.60
428.86	1693.67
429.07	1712.10
429.28	1695.72
429.48	1695.72
429.69	1705.96
429.89	1681.38
430.10	1642.47
430.30	1746.92
430.51	1738.73
430.71	1617.90
430.92	1705.96
431.13	1634.28
431.33	1775.59
431.54	1718.25
431.74	1757.16
431.95	1802.21
432.15	1665.00
432.36	1746.92
432.56	1767.40
432.77	1802.21
432.98	1804.26
433.18	1701.86
433.39	1656.81
433.59	1679.33
433.80	1828.84
434.00	1880.04
434.21	1751.01
434.41	1587.18
434.62	1855.46
434.82	1609.70
435.03	1705.96
435.23	1751.01
435.44	1587.18
435.64	1738.73
435.85	1759.21
436.06	1767.40
436.26	1738.73
436.47	1742.82
436.67	1617.90
436.88	1685.48
437.08	1759.21
437.29	1736.68
437.49	1771.49
437.70	1751.01
437.90	1697.77
438.11	1931.23
438.31	1810.40
438.52	1906.66
438.72	1845.22
438.93	1888.23
439.13	1787.88
439.34	1843.17
439.54	1718.25
439.75	1716.20
439.95	1798.12
440.16	1648.61
440.36	1771.49
440.57	1783.78
440.77	1761.25
440.98	1689.57
441.18	1724.39
441.39	1683.43
441.59	1640.42
441.80	1849.32
442.00	1742.82
442.21	1796.07
442.41	1652.71
442.62	1726.44
442.82	1726.44
443.02	1699.81
443.23	1728.49
443.43	1679.33
443.64	1773.54
443.84	1658.85
444.05	1857.51
444.25	1740.77
444.46	1728.49
444.66	1728.49
444.87	1861.60
445.07	1599.46
445.28	1701.86
445.48	1843.17
445.69	1763.30
445.89	1925.09
446.09	1722.34
446.30	2060.26
446.50	2723.80
446.71	3762.12
446.91	4413.37
447.12	4745.14
447.32	4861.88
447.53	4325.31
447.73	4014.02
447.93	3547.08
448.14	3258.32
448.34	3190.74
448.55	2895.83
448.75	2844.63
448.96	2754.52
449.16	2404.32
449.36	2328.54
449.57	2023.39
449.77	1920.99
449.98	1794.02
450.18	1765.35
450.39	1853.41
450.59	1781.73
450.79	1744.87
451.00	1658.85
451.20	1779.68
451.41	1705.96
451.61	1783.78
451.81	1695.72
452.02	1738.73
452.22	1710.05
452.43	1736.68
452.63	1693.67
