SpectraSuite Data File
++++++++++++++++++++++++++++++++++++
Date: Mon Jun 06 13:33:37 CEST 2016
User: root
Dark Spectrum Present: No
Reference Spectrum Present: No
Number of Sampled Component Spectra: 1
Spectrometers: USB4C02835
Integration Time (usec): 100000 (USB4C02835)
Spectra Averaged: 1 (USB4C02835)
Boxcar Smoothing: 0 (USB4C02835)
Correct for Electrical Dark: No (USB4C02835)
Strobe/Lamp Enabled: No (USB4C02835)
Correct for Detector Non-linearity: No (USB4C02835)
Correct for Stray Light: No (USB4C02835)
Number of Pixels in Processed Spectrum: 3648
>>>>>Begin Processed Spectral Data<<<<<
177.47	1470.44
177.69	1470.44
177.91	1470.44
178.13	1439.72
178.36	1476.59
178.58	1624.04
178.80	1710.05
179.02	1552.36
179.24	1650.66
179.46	1638.38
179.68	1765.35
179.90	1693.67
180.13	1658.85
180.35	1730.53
180.57	1675.24
180.79	1769.44
181.01	1683.43
181.23	1779.68
181.45	1736.68
181.67	1753.06
181.90	1734.63
182.12	1724.39
182.34	1583.08
182.56	1787.88
182.78	1701.86
183.00	1683.43
183.22	1710.05
183.44	1613.80
183.66	1773.54
183.89	1722.34
184.11	1800.16
184.33	1767.40
184.55	1822.69
184.77	1697.77
184.99	1726.44
185.21	1658.85
185.43	1828.84
185.65	1646.57
185.87	1726.44
186.10	1779.68
186.32	1834.98
186.54	1802.21
186.76	1705.96
186.98	1765.35
187.20	1658.85
187.42	1685.48
187.64	1722.34
187.86	1701.86
188.08	1665.00
188.30	1677.29
188.52	1691.62
188.75	1738.73
188.97	1691.62
189.19	1689.57
189.41	1699.81
189.63	1660.90
189.85	1634.28
190.07	1572.84
190.29	1619.94
190.51	1705.96
190.73	1650.66
190.95	1783.78
191.17	1724.39
191.39	1626.09
191.61	1648.61
191.84	1705.96
192.06	1714.15
192.28	1624.04
192.50	1832.93
192.72	1814.50
192.94	1724.39
193.16	1691.62
193.38	1755.11
193.60	1687.53
193.82	1685.48
194.04	1806.31
194.26	1697.77
194.48	1626.09
194.70	1644.52
194.92	1705.96
195.14	1691.62
195.36	1632.23
195.58	1755.11
195.80	1716.20
196.02	1638.38
196.24	1718.25
196.46	1748.97
196.69	1673.19
196.91	1802.21
197.13	1669.09
197.35	1621.99
197.57	1814.50
197.79	1726.44
198.01	1679.33
198.23	1650.66
198.45	1701.86
198.67	1665.00
198.89	1699.81
199.11	1724.39
199.33	1730.53
199.55	1527.78
199.77	1667.05
199.99	1720.29
200.21	1585.13
200.43	1708.01
200.65	1605.61
200.87	1611.75
201.09	1722.34
201.31	1691.62
201.53	1814.50
201.75	1714.15
201.97	1722.34
202.19	1701.86
202.41	1687.53
202.63	1798.12
202.85	1640.42
203.07	1718.25
203.29	1724.39
203.51	1656.81
203.73	1611.75
203.95	1951.71
204.17	1636.33
204.39	1685.48
204.61	1708.01
204.83	1611.75
205.05	1775.59
205.27	1796.07
205.49	1730.53
205.71	1722.34
205.93	1652.71
206.15	1683.43
206.37	1718.25
206.59	1724.39
206.81	1656.81
207.03	1683.43
207.25	1677.29
207.47	1646.57
207.69	1683.43
207.91	1791.97
208.13	1818.60
208.34	1624.04
208.56	1617.90
208.78	1753.06
209.00	1611.75
209.22	1613.80
209.44	1695.72
209.66	1691.62
209.88	1697.77
210.10	1624.04
210.32	1767.40
210.54	1810.40
210.76	1722.34
210.98	1802.21
211.20	1640.42
211.42	1701.86
211.64	1779.68
211.86	1667.05
212.08	1703.91
212.30	1695.72
212.52	1744.87
212.74	1716.20
212.96	1701.86
213.17	1716.20
213.39	1767.40
213.61	1710.05
213.83	1656.81
214.05	1638.38
214.27	1771.49
214.49	1667.05
214.71	1689.57
214.93	1828.84
215.15	1742.82
215.37	1681.38
215.59	1669.09
215.81	1757.16
216.03	1816.55
216.24	1740.77
216.46	1701.86
216.68	1638.38
216.90	1712.10
217.12	1773.54
217.34	1683.43
217.56	1765.35
217.78	1730.53
218.00	1632.23
218.22	1716.20
218.44	1755.11
218.66	1769.44
218.87	1804.26
219.09	1683.43
219.31	1703.91
219.53	1697.77
219.75	1685.48
219.97	1705.96
220.19	1710.05
220.41	1640.42
220.63	1769.44
220.85	1613.80
221.06	1701.86
221.28	1800.16
221.50	1722.34
221.72	1693.67
221.94	1710.05
222.16	1701.86
222.38	1714.15
222.60	1728.49
222.82	1718.25
223.03	1761.25
223.25	1667.05
223.47	1693.67
223.69	1822.69
223.91	1693.67
224.13	1753.06
224.35	1660.90
224.57	1720.29
224.78	1734.63
225.00	1669.09
225.22	1671.14
225.44	1662.95
225.66	1748.97
225.88	1667.05
226.10	1736.68
226.32	1769.44
226.53	1730.53
226.75	1648.61
226.97	1718.25
227.19	1708.01
227.41	1570.79
227.63	1613.80
227.85	1683.43
228.06	1642.47
228.28	1687.53
228.50	1777.64
228.72	1644.52
228.94	1662.95
229.16	1636.33
229.37	1677.29
229.59	1644.52
229.81	1787.88
230.03	1652.71
230.25	1697.77
230.47	1644.52
230.69	1595.37
230.90	1734.63
231.12	1673.19
231.34	1763.30
231.56	1718.25
231.78	1675.24
232.00	1697.77
232.21	1742.82
232.43	1726.44
232.65	1583.08
232.87	1781.73
233.09	1714.15
233.30	1636.33
233.52	1724.39
233.74	1665.00
233.96	1753.06
234.18	1705.96
234.40	1685.48
234.61	1808.36
234.83	1640.42
235.05	1599.46
235.27	1746.92
235.49	1753.06
235.70	1636.33
235.92	1751.01
236.14	1624.04
236.36	1861.60
236.58	1689.57
236.79	1751.01
237.01	1726.44
237.23	1665.00
237.45	1785.83
237.67	1611.75
237.88	1722.34
238.10	1699.81
238.32	1691.62
238.54	1710.05
238.76	1667.05
238.97	1714.15
239.19	1683.43
239.41	1738.73
239.63	1767.40
239.85	1611.75
240.06	1722.34
240.28	1722.34
240.50	1830.88
240.72	1718.25
240.93	1703.91
241.15	1812.45
241.37	1712.10
241.59	1746.92
241.81	1703.91
242.02	1683.43
242.24	1701.86
242.46	1798.12
242.68	1671.14
242.89	1705.96
243.11	1738.73
243.33	1673.19
243.55	1636.33
243.76	1710.05
243.98	1638.38
244.20	1695.72
244.42	1763.30
244.64	1701.86
244.85	1634.28
245.07	1726.44
245.29	1722.34
245.51	1644.52
245.72	1669.09
245.94	1742.82
246.16	1699.81
246.38	1654.76
246.59	1613.80
246.81	1642.47
247.03	1667.05
247.24	1562.60
247.46	1634.28
247.68	1730.53
247.90	1658.85
248.11	1587.18
248.33	1675.24
248.55	1673.19
248.77	1642.47
248.98	1730.53
249.20	1820.64
249.42	1650.66
249.64	1675.24
249.85	1595.37
250.07	1652.71
250.29	1742.82
250.50	1730.53
250.72	1626.09
250.94	1718.25
251.16	1794.02
251.37	1738.73
251.59	1669.09
251.81	1738.73
252.02	1771.49
252.24	1730.53
252.46	1755.11
252.68	1621.99
252.89	1642.47
253.11	1599.46
253.33	1857.51
253.54	1755.11
253.76	1566.70
253.98	1705.96
254.20	1693.67
254.41	1677.29
254.63	1658.85
254.85	1646.57
255.06	1705.96
255.28	1714.15
255.50	1662.95
255.71	1660.90
255.93	1609.70
256.15	1683.43
256.36	1746.92
256.58	1748.97
256.80	1697.77
257.02	1654.76
257.23	1683.43
257.45	1656.81
257.67	1712.10
257.88	1683.43
258.10	1714.15
258.32	1728.49
258.53	1730.53
258.75	1773.54
258.97	1687.53
259.18	1695.72
259.40	1779.68
259.62	1771.49
259.83	1751.01
260.05	1716.20
260.27	1951.71
260.48	1710.05
260.70	1628.14
260.92	1748.97
261.13	1708.01
261.35	1726.44
261.57	1751.01
261.78	1658.85
262.00	1689.57
262.22	1771.49
262.43	1624.04
262.65	1685.48
262.86	1689.57
263.08	1755.11
263.30	1718.25
263.51	1599.46
263.73	1673.19
263.95	1722.34
264.16	1642.47
264.38	1652.71
264.60	1757.16
264.81	1669.09
265.03	1667.05
265.25	1667.05
265.46	1665.00
265.68	1767.40
265.89	1642.47
266.11	1632.23
266.33	1798.12
266.54	1812.45
266.76	1804.26
266.98	1689.57
267.19	1705.96
267.41	1755.11
267.62	1640.42
267.84	1624.04
268.06	1685.48
268.27	1724.39
268.49	1691.62
268.70	1748.97
268.92	1708.01
269.14	1642.47
269.35	1708.01
269.57	1728.49
269.79	1718.25
270.00	1687.53
270.22	1714.15
270.43	1673.19
270.65	1599.46
270.87	1662.95
271.08	1675.24
271.30	1773.54
271.51	1728.49
271.73	1708.01
271.95	1699.81
272.16	1685.48
272.38	1710.05
272.59	1583.08
272.81	1730.53
273.02	1656.81
273.24	1767.40
273.46	1748.97
273.67	1585.13
273.89	1658.85
274.10	1665.00
274.32	1769.44
274.54	1685.48
274.75	1757.16
274.97	1628.14
275.18	1759.21
275.40	1748.97
275.61	1677.29
275.83	1673.19
276.05	1607.66
276.26	1701.86
276.48	1738.73
276.69	1654.76
276.91	1693.67
277.12	1722.34
277.34	1783.78
277.55	1697.77
277.77	1689.57
277.99	1636.33
278.20	1613.80
278.42	1634.28
278.63	1667.05
278.85	1667.05
279.06	1648.61
279.28	1753.06
279.49	1691.62
279.71	1724.39
279.93	1742.82
280.14	1656.81
280.36	1701.86
280.57	1759.21
280.79	1734.63
281.00	1699.81
281.22	1710.05
281.43	1708.01
281.65	1542.12
281.86	1611.75
282.08	1740.77
282.29	1763.30
282.51	1595.37
282.73	1656.81
282.94	1589.22
283.16	1685.48
283.37	1779.68
283.59	1636.33
283.80	1648.61
284.02	1626.09
284.23	1771.49
284.45	1703.91
284.66	1665.00
284.88	1607.66
285.09	1730.53
285.31	1722.34
285.52	1669.09
285.74	1677.29
285.95	1789.92
286.17	1683.43
286.38	1691.62
286.60	1644.52
286.81	1605.61
287.03	1632.23
287.24	1677.29
287.46	1730.53
287.67	1716.20
287.89	1759.21
288.10	1658.85
288.32	1693.67
288.53	1779.68
288.75	1736.68
288.96	1724.39
289.18	1638.38
289.39	1732.58
289.61	1730.53
289.82	1800.16
290.04	1832.93
290.25	1611.75
290.47	1687.53
290.68	1667.05
290.90	1765.35
291.11	1574.89
291.33	1736.68
291.54	1699.81
291.76	1652.71
291.97	1576.94
292.18	1685.48
292.40	1667.05
292.61	1632.23
292.83	1796.07
293.04	1746.92
293.26	1630.18
293.47	1705.96
293.69	1677.29
293.90	1667.05
294.12	1681.38
294.33	1626.09
294.55	1712.10
294.76	1665.00
294.97	1722.34
295.19	1775.59
295.40	1662.95
295.62	1708.01
295.83	1722.34
296.05	1716.20
296.26	1695.72
296.48	1624.04
296.69	1658.85
296.90	1669.09
297.12	1714.15
297.33	1779.68
297.55	1697.77
297.76	1738.73
297.98	1783.78
298.19	1681.38
298.41	1724.39
298.62	1679.33
298.83	1804.26
299.05	1701.86
299.26	1658.85
299.48	1736.68
299.69	1791.97
299.90	1681.38
300.12	1685.48
300.33	1798.12
300.55	1734.63
300.76	1806.31
300.98	1697.77
301.19	1646.57
301.40	1705.96
301.62	1642.47
301.83	1720.29
302.05	1716.20
302.26	1642.47
302.47	1705.96
302.69	1632.23
302.90	1673.19
303.12	1570.79
303.33	1652.71
303.54	1859.56
303.76	1667.05
303.97	1751.01
304.19	1650.66
304.40	1585.13
304.61	1728.49
304.83	1798.12
305.04	1834.98
305.26	1687.53
305.47	1642.47
305.68	1781.73
305.90	1626.09
306.11	1763.30
306.33	1617.90
306.54	1652.71
306.75	1685.48
306.97	1624.04
307.18	1576.94
307.39	1689.57
307.61	1757.16
307.82	1708.01
308.04	1632.23
308.25	1658.85
308.46	1744.87
308.68	1802.21
308.89	1732.58
309.10	1695.72
309.32	1716.20
309.53	1761.25
309.74	1697.77
309.96	1689.57
310.17	1738.73
310.39	1683.43
310.60	1791.97
310.81	1759.21
311.03	1574.89
311.24	1695.72
311.45	1798.12
311.67	1777.64
311.88	1689.57
312.09	1712.10
312.31	1656.81
312.52	1732.58
312.73	1677.29
312.95	1632.23
313.16	1624.04
313.37	1734.63
313.59	1789.92
313.80	1710.05
314.01	1798.12
314.23	1628.14
314.44	1615.85
314.65	1669.09
314.87	1621.99
315.08	1650.66
315.29	1695.72
315.51	1646.57
315.72	1552.36
315.93	1800.16
316.15	1753.06
316.36	1681.38
316.57	1751.01
316.79	1697.77
317.00	1628.14
317.21	1673.19
317.43	1626.09
317.64	1679.33
317.85	1658.85
318.07	1681.38
318.28	1708.01
318.49	1834.98
318.70	1972.19
318.92	1791.97
319.13	1804.26
319.34	1855.46
319.56	1740.77
319.77	1763.30
319.98	1794.02
320.20	1681.38
320.41	1722.34
320.62	1796.07
320.83	1619.94
321.05	1853.41
321.26	1624.04
321.47	1648.61
321.69	1763.30
321.90	1654.76
322.11	1654.76
322.32	1736.68
322.54	1708.01
322.75	1634.28
322.96	1845.22
323.18	1605.61
323.39	1617.90
323.60	1689.57
323.81	1783.78
324.03	1693.67
324.24	1712.10
324.45	1656.81
324.66	1671.14
324.88	1755.11
325.09	1818.60
325.30	1705.96
325.52	1748.97
325.73	1691.62
325.94	1558.50
326.15	1576.94
326.37	1597.42
326.58	1712.10
326.79	1843.17
327.00	1669.09
327.22	1734.63
327.43	1691.62
327.64	1632.23
327.85	1660.90
328.07	1763.30
328.28	1851.36
328.49	1722.34
328.70	1726.44
328.92	1734.63
329.13	1642.47
329.34	1787.88
329.55	1802.21
329.76	1691.62
329.98	1662.95
330.19	1748.97
330.40	1708.01
330.61	1689.57
330.83	1689.57
331.04	1636.33
331.25	1683.43
331.46	1714.15
331.68	1628.14
331.89	1742.82
332.10	1697.77
332.31	1656.81
332.52	1718.25
332.74	1726.44
332.95	1671.14
333.16	1681.38
333.37	1771.49
333.58	1656.81
333.80	1654.76
334.01	1634.28
334.22	1671.14
334.43	1642.47
334.64	1691.62
334.86	1589.22
335.07	1693.67
335.28	1695.72
335.49	1650.66
335.70	1662.95
335.92	1697.77
336.13	1818.60
336.34	1740.77
336.55	1746.92
336.76	1669.09
336.98	1595.37
337.19	1638.38
337.40	1757.16
337.61	1744.87
337.82	1701.86
338.04	1716.20
338.25	1638.38
338.46	1675.24
338.67	1660.90
338.88	1611.75
339.09	1619.94
339.31	1667.05
339.52	1617.90
339.73	1578.98
339.94	1648.61
340.15	1738.73
340.36	1652.71
340.58	1710.05
340.79	1619.94
341.00	1744.87
341.21	1679.33
341.42	1748.97
341.63	1652.71
341.85	1757.16
342.06	1728.49
342.27	1660.90
342.48	1810.40
342.69	1595.37
342.90	1673.19
343.12	1773.54
343.33	1695.72
343.54	1777.64
343.75	1757.16
343.96	1685.48
344.17	1679.33
344.38	1685.48
344.60	1630.18
344.81	1640.42
345.02	1740.77
345.23	1738.73
345.44	1761.25
345.65	1744.87
345.86	1785.83
346.07	1746.92
346.29	1642.47
346.50	1691.62
346.71	1701.86
346.92	1841.12
347.13	1730.53
347.34	1683.43
347.55	1716.20
347.76	1705.96
347.98	1617.90
348.19	1685.48
348.40	1730.53
348.61	1617.90
348.82	1798.12
349.03	1726.44
349.24	1724.39
349.45	1814.50
349.66	1636.33
349.88	1748.97
350.09	1685.48
350.30	1767.40
350.51	1812.45
350.72	1740.77
350.93	1757.16
351.14	1732.58
351.35	1732.58
351.56	1646.57
351.77	1685.48
351.99	1693.67
352.20	1753.06
352.41	1734.63
352.62	1546.22
352.83	1746.92
353.04	1742.82
353.25	1652.71
353.46	1812.45
353.67	1759.21
353.88	1570.79
354.09	1720.29
354.30	1640.42
354.52	1691.62
354.73	1685.48
354.94	1662.95
355.15	1720.29
355.36	1855.46
355.57	1644.52
355.78	1767.40
355.99	1609.70
356.20	1646.57
356.41	1726.44
356.62	1650.66
356.83	1751.01
357.04	1705.96
357.25	1589.22
357.46	1742.82
357.68	1652.71
357.89	1615.85
358.10	1681.38
358.31	1673.19
358.52	1722.34
358.73	1615.85
358.94	1695.72
359.15	1677.29
359.36	1779.68
359.57	1748.97
359.78	1650.66
359.99	1740.77
360.20	1685.48
360.41	1699.81
360.62	1701.86
360.83	1656.81
361.04	1718.25
361.25	1669.09
361.46	1800.16
361.67	1763.30
361.88	1656.81
362.09	1808.36
362.30	1759.21
362.51	1654.76
362.72	1705.96
362.93	1783.78
363.14	1742.82
363.35	1783.78
363.56	1662.95
363.78	1787.88
363.99	1787.88
364.20	1648.61
364.41	1746.92
364.62	1779.68
364.83	1773.54
365.04	1648.61
365.25	1744.87
365.46	1773.54
365.67	1591.27
365.88	1636.33
366.09	1722.34
366.30	1705.96
366.51	1746.92
366.72	1665.00
366.93	1638.38
367.14	1691.62
367.35	1726.44
367.56	1703.91
367.77	1871.84
367.98	1665.00
368.18	1730.53
368.39	1757.16
368.60	1630.18
368.81	1734.63
369.02	1718.25
369.23	1665.00
369.44	1648.61
369.65	1681.38
369.86	1726.44
370.07	1785.83
370.28	1632.23
370.49	1775.59
370.70	1740.77
370.91	1601.51
371.12	1558.50
371.33	1712.10
371.54	1716.20
371.75	1693.67
371.96	1597.42
372.17	1712.10
372.38	1755.11
372.59	1693.67
372.80	1703.91
373.01	1642.47
373.22	1804.26
373.43	1697.77
373.64	1667.05
373.85	1736.68
374.06	1834.98
374.26	1785.83
374.47	1710.05
374.68	1769.44
374.89	1648.61
375.10	1730.53
375.31	1740.77
375.52	1630.18
375.73	1718.25
375.94	1685.48
376.15	1761.25
376.36	1669.09
376.57	1738.73
376.78	1728.49
376.99	1757.16
377.20	1759.21
377.40	1652.71
377.61	1771.49
377.82	1656.81
378.03	1703.91
378.24	1712.10
378.45	1667.05
378.66	1738.73
378.87	1630.18
379.08	1617.90
379.29	1712.10
379.50	1755.11
379.71	1724.39
379.91	1722.34
380.12	1675.24
380.33	1757.16
380.54	1634.28
380.75	1708.01
380.96	1755.11
381.17	1806.31
381.38	1759.21
381.59	1689.57
381.80	1714.15
382.00	1802.21
382.21	1765.35
382.42	1812.45
382.63	1834.98
382.84	1785.83
383.05	1751.01
383.26	1808.36
383.47	1796.07
383.68	1714.15
383.88	1761.25
384.09	1787.88
384.30	1841.12
384.51	1728.49
384.72	1669.09
384.93	1630.18
385.14	1685.48
385.35	1699.81
385.55	1650.66
385.76	1730.53
385.97	1732.58
386.18	1621.99
386.39	1681.38
386.60	1722.34
386.81	1673.19
387.02	1628.14
387.22	1708.01
387.43	1742.82
387.64	1798.12
387.85	1855.46
388.06	2199.52
388.27	4292.54
388.48	6856.60
388.68	8130.44
388.89	9664.36
389.10	9881.45
389.31	8421.25
389.52	7450.51
389.73	6807.45
389.93	6158.24
390.14	5851.05
390.35	5222.32
390.56	4460.48
390.77	3758.02
390.98	3020.75
391.18	2596.82
391.39	2088.93
391.60	1826.79
391.81	1806.31
392.02	1722.34
392.23	1882.08
392.43	1701.86
392.64	1798.12
392.85	1759.21
393.06	1771.49
393.27	1718.25
393.47	1638.38
393.68	1724.39
393.89	1693.67
394.10	1779.68
394.31	1621.99
394.52	1560.55
394.72	1640.42
394.93	1796.07
395.14	1656.81
395.35	1771.49
395.56	1730.53
395.76	1769.44
395.97	1845.22
396.18	1853.41
396.39	1865.70
396.60	2019.30
396.80	1822.69
397.01	1861.60
397.22	1787.88
397.43	1759.21
397.64	1714.15
397.84	1742.82
398.05	1865.70
398.26	1720.29
398.47	1759.21
398.67	1773.54
398.88	1718.25
399.09	1755.11
399.30	1681.38
399.51	1751.01
399.71	1585.13
399.92	1683.43
400.13	1671.14
400.34	1701.86
400.54	1687.53
400.75	1748.97
400.96	1644.52
401.17	1673.19
401.37	1662.95
401.58	1730.53
401.79	1728.49
402.00	1855.46
402.21	1980.39
402.41	1898.47
402.62	1929.19
402.83	1986.53
403.04	1959.91
403.24	2156.51
403.45	1882.08
403.66	1818.60
403.87	1869.80
404.07	1859.56
404.28	1880.04
404.49	1900.52
404.70	1732.58
404.90	1755.11
405.11	1773.54
405.32	1658.85
405.52	1734.63
405.73	1619.94
405.94	1630.18
406.15	1708.01
406.35	1708.01
406.56	1724.39
406.77	1753.06
406.98	1738.73
407.18	1591.27
407.39	1695.72
407.60	1654.76
407.80	1716.20
408.01	1742.82
408.22	1765.35
408.43	1665.00
408.63	1689.57
408.84	1804.26
409.05	1720.29
409.25	1693.67
409.46	1624.04
409.67	1722.34
409.88	1687.53
410.08	1708.01
410.29	1689.57
410.50	1789.92
410.70	1701.86
410.91	1751.01
411.12	1697.77
411.32	1701.86
411.53	1716.20
411.74	1751.01
411.95	1820.64
412.15	1730.53
412.36	1759.21
412.57	1771.49
412.77	1834.98
412.98	1775.59
413.19	1703.91
413.39	1673.19
413.60	1693.67
413.81	1814.50
414.01	1656.81
414.22	1716.20
414.43	1722.34
414.63	1632.23
414.84	1726.44
415.05	1800.16
415.25	1642.47
415.46	1744.87
415.67	1681.38
415.87	1718.25
416.08	1636.33
416.29	1656.81
416.49	1732.58
416.70	1683.43
416.91	1689.57
417.11	1656.81
417.32	1730.53
417.53	1769.44
417.73	1697.77
417.94	1740.77
418.15	1667.05
418.35	1730.53
418.56	1697.77
418.77	1818.60
418.97	1697.77
419.18	1751.01
419.38	1642.47
419.59	1687.53
419.80	1771.49
420.00	1652.71
420.21	1699.81
420.42	1730.53
420.62	1787.88
420.83	1581.03
421.04	1671.14
421.24	1619.94
421.45	1724.39
421.65	1826.79
421.86	1738.73
422.07	1824.74
422.27	1722.34
422.48	1689.57
422.69	1669.09
422.89	1679.33
423.10	1710.05
423.30	1667.05
423.51	1642.47
423.72	1767.40
423.92	1732.58
424.13	1662.95
424.33	1665.00
424.54	1734.63
424.75	1730.53
424.95	1753.06
425.16	1771.49
425.36	1642.47
425.57	1718.25
425.78	1802.21
425.98	1665.00
426.19	1708.01
426.39	1673.19
426.60	1667.05
426.81	1757.16
427.01	1728.49
427.22	1601.51
427.42	1640.42
427.63	1656.81
427.83	1714.15
428.04	1773.54
428.25	1808.36
428.45	1800.16
428.66	1771.49
428.86	1716.20
429.07	1669.09
429.28	1716.20
429.48	1748.97
429.69	1669.09
429.89	1648.61
430.10	1656.81
430.30	1804.26
430.51	1771.49
430.71	1658.85
430.92	1724.39
431.13	1640.42
431.33	1769.44
431.54	1660.90
431.74	1802.21
431.95	1791.97
432.15	1609.70
432.36	1718.25
432.56	1615.85
432.77	1771.49
432.98	1775.59
433.18	1751.01
433.39	1728.49
433.59	1632.23
433.80	1806.31
434.00	1755.11
434.21	1746.92
434.41	1660.90
434.62	1830.88
434.82	1662.95
435.03	1667.05
435.23	1775.59
435.44	1656.81
435.64	1738.73
435.85	1718.25
436.06	1763.30
436.26	1738.73
436.47	1767.40
436.67	1568.74
436.88	1796.07
437.08	1722.34
437.29	1744.87
437.49	1746.92
437.70	1712.10
437.90	1646.57
438.11	1789.92
438.31	1814.50
438.52	1875.94
438.72	1851.36
438.93	1941.47
439.13	1720.29
439.34	1869.80
439.54	1740.77
439.75	1767.40
439.95	1806.31
440.16	1656.81
440.36	1746.92
440.57	1746.92
440.77	1773.54
440.98	1742.82
441.18	1738.73
441.39	1640.42
441.59	1673.19
441.80	1869.80
442.00	1730.53
442.21	1855.46
442.41	1613.80
442.62	1755.11
442.82	1648.61
443.02	1798.12
443.23	1718.25
443.43	1660.90
443.64	1828.84
443.84	1730.53
444.05	1755.11
444.25	1726.44
444.46	1787.88
444.66	1710.05
444.87	1798.12
445.07	1648.61
445.28	1748.97
445.48	1781.73
445.69	1783.78
445.89	1920.99
446.09	1787.88
446.30	1992.67
446.50	2631.64
446.71	3610.57
446.91	4315.07
447.12	4708.28
447.32	4820.92
447.53	4339.65
447.73	3905.48
447.93	3383.24
448.14	3282.89
448.34	3235.79
448.55	2895.83
448.75	2838.48
448.96	2648.02
449.16	2379.74
449.36	2338.78
449.57	1984.48
449.77	1906.66
449.98	1744.87
450.18	1839.08
450.39	1800.16
450.59	1771.49
450.79	1753.06
451.00	1742.82
451.20	1736.68
451.41	1658.85
451.61	1722.34
451.81	1718.25
452.02	1660.90
452.22	1691.62
452.43	1646.57
452.63	1769.44
