SpectraSuite Data File
++++++++++++++++++++++++++++++++++++
Date: Mon Jun 06 13:49:17 CEST 2016
User: root
Dark Spectrum Present: No
Reference Spectrum Present: No
Number of Sampled Component Spectra: 1
Spectrometers: USB4C02835
Integration Time (usec): 100000 (USB4C02835)
Spectra Averaged: 1 (USB4C02835)
Boxcar Smoothing: 0 (USB4C02835)
Correct for Electrical Dark: No (USB4C02835)
Strobe/Lamp Enabled: No (USB4C02835)
Correct for Detector Non-linearity: No (USB4C02835)
Correct for Stray Light: No (USB4C02835)
Number of Pixels in Processed Spectrum: 3648
>>>>>Begin Processed Spectral Data<<<<<
177.47	1495.02
177.69	1495.02
177.91	1495.02
178.13	1488.87
178.36	1445.87
178.58	1656.81
178.80	1712.10
179.02	1540.07
179.24	1667.05
179.46	1732.58
179.68	1757.16
179.90	1683.43
180.13	1728.49
180.35	1667.05
180.57	1701.86
180.79	1742.82
181.01	1681.38
181.23	1708.01
181.45	1734.63
181.67	1712.10
181.90	1765.35
182.12	1697.77
182.34	1638.38
182.56	1746.92
182.78	1724.39
183.00	1734.63
183.22	1720.29
183.44	1644.52
183.66	1837.03
183.89	1720.29
184.11	1718.25
184.33	1669.09
184.55	1755.11
184.77	1703.91
184.99	1683.43
185.21	1716.20
185.43	1861.60
185.65	1718.25
185.87	1730.53
186.10	1808.36
186.32	1812.45
186.54	1794.02
186.76	1714.15
186.98	1785.83
187.20	1724.39
187.42	1679.33
187.64	1736.68
187.86	1703.91
188.08	1800.16
188.30	1636.33
188.52	1736.68
188.75	1736.68
188.97	1812.45
189.19	1726.44
189.41	1669.09
189.63	1695.72
189.85	1658.85
190.07	1703.91
190.29	1665.00
190.51	1751.01
190.73	1617.90
190.95	1806.31
191.17	1736.68
191.39	1587.18
191.61	1675.24
191.84	1648.61
192.06	1771.49
192.28	1662.95
192.50	1904.61
192.72	1710.05
192.94	1656.81
193.16	1740.77
193.38	1738.73
193.60	1662.95
193.82	1673.19
194.04	1722.34
194.26	1693.67
194.48	1785.83
194.70	1675.24
194.92	1671.14
195.14	1736.68
195.36	1671.14
195.58	1644.52
195.80	1697.77
196.02	1667.05
196.24	1701.86
196.46	1695.72
196.69	1673.19
196.91	1816.55
197.13	1708.01
197.35	1648.61
197.57	1740.77
197.79	1728.49
198.01	1683.43
198.23	1701.86
198.45	1712.10
198.67	1671.14
198.89	1658.85
199.11	1658.85
199.33	1683.43
199.55	1632.23
199.77	1679.33
199.99	1839.08
200.21	1644.52
200.43	1757.16
200.65	1583.08
200.87	1621.99
201.09	1648.61
201.31	1708.01
201.53	1757.16
201.75	1763.30
201.97	1708.01
202.19	1722.34
202.41	1714.15
202.63	1804.26
202.85	1712.10
203.07	1730.53
203.29	1687.53
203.51	1712.10
203.73	1634.28
203.95	1853.41
204.17	1665.00
204.39	1685.48
204.61	1708.01
204.83	1673.19
205.05	1765.35
205.27	1765.35
205.49	1771.49
205.71	1742.82
205.93	1634.28
206.15	1638.38
206.37	1761.25
206.59	1755.11
206.81	1626.09
207.03	1679.33
207.25	1660.90
207.47	1714.15
207.69	1652.71
207.91	1798.12
208.13	1773.54
208.34	1648.61
208.56	1607.66
208.78	1722.34
209.00	1691.62
209.22	1640.42
209.44	1611.75
209.66	1691.62
209.88	1665.00
210.10	1648.61
210.32	1753.06
210.54	1771.49
210.76	1675.24
210.98	1837.03
211.20	1650.66
211.42	1619.94
211.64	1699.81
211.86	1708.01
212.08	1683.43
212.30	1648.61
212.52	1703.91
212.74	1660.90
212.96	1742.82
213.17	1705.96
213.39	1697.77
213.61	1820.64
213.83	1656.81
214.05	1574.89
214.27	1714.15
214.49	1628.14
214.71	1611.75
214.93	1800.16
215.15	1746.92
215.37	1789.92
215.59	1583.08
215.81	1736.68
216.03	1687.53
216.24	1701.86
216.46	1656.81
216.68	1720.29
216.90	1755.11
217.12	1773.54
217.34	1652.71
217.56	1779.68
217.78	1800.16
218.00	1732.58
218.22	1691.62
218.44	1665.00
218.66	1619.94
218.87	1798.12
219.09	1695.72
219.31	1808.36
219.53	1785.83
219.75	1626.09
219.97	1683.43
220.19	1738.73
220.41	1812.45
220.63	1771.49
220.85	1644.52
221.06	1644.52
221.28	1734.63
221.50	1802.21
221.72	1683.43
221.94	1708.01
222.16	1671.14
222.38	1796.07
222.60	1720.29
222.82	1710.05
223.03	1726.44
223.25	1609.70
223.47	1693.67
223.69	1806.31
223.91	1734.63
224.13	1753.06
224.35	1730.53
224.57	1757.16
224.78	1769.44
225.00	1628.14
225.22	1722.34
225.44	1695.72
225.66	1742.82
225.88	1607.66
226.10	1845.22
226.32	1773.54
226.53	1689.57
226.75	1640.42
226.97	1701.86
227.19	1697.77
227.41	1613.80
227.63	1626.09
227.85	1662.95
228.06	1685.48
228.28	1755.11
228.50	1781.73
228.72	1632.23
228.94	1703.91
229.16	1593.32
229.37	1566.70
229.59	1615.85
229.81	1798.12
230.03	1673.19
230.25	1619.94
230.47	1662.95
230.69	1585.13
230.90	1740.77
231.12	1642.47
231.34	1716.20
231.56	1798.12
231.78	1681.38
232.00	1685.48
232.21	1722.34
232.43	1632.23
232.65	1650.66
232.87	1732.58
233.09	1605.61
233.30	1701.86
233.52	1736.68
233.74	1652.71
233.96	1718.25
234.18	1740.77
234.40	1671.14
234.61	1845.22
234.83	1624.04
235.05	1589.22
235.27	1806.31
235.49	1796.07
235.70	1689.57
235.92	1771.49
236.14	1751.01
236.36	1882.08
236.58	1693.67
236.79	1714.15
237.01	1728.49
237.23	1701.86
237.45	1794.02
237.67	1667.05
237.88	1689.57
238.10	1808.36
238.32	1689.57
238.54	1718.25
238.76	1714.15
238.97	1615.85
239.19	1681.38
239.41	1695.72
239.63	1705.96
239.85	1640.42
240.06	1693.67
240.28	1695.72
240.50	1740.77
240.72	1701.86
240.93	1656.81
241.15	1806.31
241.37	1689.57
241.59	1728.49
241.81	1656.81
242.02	1724.39
242.24	1712.10
242.46	1746.92
242.68	1681.38
242.89	1726.44
243.11	1734.63
243.33	1660.90
243.55	1687.53
243.76	1705.96
243.98	1687.53
244.20	1755.11
244.42	1740.77
244.64	1683.43
244.85	1636.33
245.07	1689.57
245.29	1757.16
245.51	1763.30
245.72	1712.10
245.94	1693.67
246.16	1701.86
246.38	1734.63
246.59	1681.38
246.81	1673.19
247.03	1640.42
247.24	1644.52
247.46	1648.61
247.68	1689.57
247.90	1644.52
248.11	1656.81
248.33	1763.30
248.55	1658.85
248.77	1742.82
248.98	1742.82
249.20	1755.11
249.42	1748.97
249.64	1806.31
249.85	1720.29
250.07	1665.00
250.29	1679.33
250.50	1802.21
250.72	1619.94
250.94	1687.53
251.16	1773.54
251.37	1759.21
251.59	1734.63
251.81	1763.30
252.02	1808.36
252.24	1693.67
252.46	1761.25
252.68	1621.99
252.89	1673.19
253.11	1656.81
253.33	1804.26
253.54	1837.03
253.76	1652.71
253.98	1710.05
254.20	1570.79
254.41	1636.33
254.63	1705.96
254.85	1638.38
255.06	1701.86
255.28	1763.30
255.50	1650.66
255.71	1675.24
255.93	1673.19
256.15	1613.80
256.36	1681.38
256.58	1632.23
256.80	1710.05
257.02	1695.72
257.23	1658.85
257.45	1734.63
257.67	1755.11
257.88	1667.05
258.10	1689.57
258.32	1708.01
258.53	1630.18
258.75	1789.92
258.97	1681.38
259.18	1728.49
259.40	1720.29
259.62	1828.84
259.83	1783.78
260.05	1740.77
260.27	1992.67
260.48	1701.86
260.70	1646.57
260.92	1730.53
261.13	1751.01
261.35	1703.91
261.57	1712.10
261.78	1626.09
262.00	1607.66
262.22	1751.01
262.43	1617.90
262.65	1734.63
262.86	1724.39
263.08	1863.65
263.30	1660.90
263.51	1652.71
263.73	1611.75
263.95	1787.88
264.16	1644.52
264.38	1679.33
264.60	1675.24
264.81	1683.43
265.03	1710.05
265.25	1689.57
265.46	1642.47
265.68	1783.78
265.89	1683.43
266.11	1613.80
266.33	1667.05
266.54	1757.16
266.76	1697.77
266.98	1736.68
267.19	1679.33
267.41	1638.38
267.62	1714.15
267.84	1636.33
268.06	1685.48
268.27	1632.23
268.49	1746.92
268.70	1796.07
268.92	1773.54
269.14	1642.47
269.35	1667.05
269.57	1669.09
269.79	1701.86
270.00	1783.78
270.22	1787.88
270.43	1691.62
270.65	1568.74
270.87	1685.48
271.08	1791.97
271.30	1810.40
271.51	1683.43
271.73	1742.82
271.95	1794.02
272.16	1736.68
272.38	1724.39
272.59	1667.05
272.81	1658.85
273.02	1716.20
273.24	1746.92
273.46	1796.07
273.67	1624.04
273.89	1697.77
274.10	1648.61
274.32	1732.58
274.54	1724.39
274.75	1714.15
274.97	1609.70
275.18	1767.40
275.40	1722.34
275.61	1777.64
275.83	1646.57
276.05	1679.33
276.26	1712.10
276.48	1730.53
276.69	1652.71
276.91	1724.39
277.12	1785.83
277.34	1718.25
277.55	1759.21
277.77	1597.42
277.99	1662.95
278.20	1669.09
278.42	1656.81
278.63	1671.14
278.85	1628.14
279.06	1671.14
279.28	1755.11
279.49	1699.81
279.71	1804.26
279.93	1683.43
280.14	1724.39
280.36	1636.33
280.57	1810.40
280.79	1742.82
281.00	1685.48
281.22	1699.81
281.43	1742.82
281.65	1511.40
281.86	1673.19
282.08	1736.68
282.29	1804.26
282.51	1634.28
282.73	1585.13
282.94	1654.76
283.16	1773.54
283.37	1839.08
283.59	1751.01
283.80	1665.00
284.02	1667.05
284.23	1665.00
284.45	1716.20
284.66	1662.95
284.88	1662.95
285.09	1751.01
285.31	1783.78
285.52	1654.76
285.74	1724.39
285.95	1751.01
286.17	1734.63
286.38	1744.87
286.60	1634.28
286.81	1638.38
287.03	1714.15
287.24	1654.76
287.46	1718.25
287.67	1722.34
287.89	1837.03
288.10	1646.57
288.32	1634.28
288.53	1834.98
288.75	1703.91
288.96	1710.05
289.18	1632.23
289.39	1726.44
289.61	1771.49
289.82	1886.18
290.04	1791.97
290.25	1648.61
290.47	1636.33
290.68	1695.72
290.90	1712.10
291.11	1658.85
291.33	1767.40
291.54	1609.70
291.76	1607.66
291.97	1701.86
292.18	1765.35
292.40	1667.05
292.61	1693.67
292.83	1812.45
293.04	1802.21
293.26	1697.77
293.47	1804.26
293.69	1566.70
293.90	1822.69
294.12	1775.59
294.33	1677.29
294.55	1757.16
294.76	1787.88
294.97	1755.11
295.19	1804.26
295.40	1708.01
295.62	1724.39
295.83	1738.73
296.05	1714.15
296.26	1789.92
296.48	1675.24
296.69	1742.82
296.90	1730.53
297.12	1738.73
297.33	1722.34
297.55	1736.68
297.76	1703.91
297.98	1783.78
298.19	1761.25
298.41	1693.67
298.62	1615.85
298.83	1826.79
299.05	1718.25
299.26	1624.04
299.48	1722.34
299.69	1759.21
299.90	1697.77
300.12	1679.33
300.33	1738.73
300.55	1763.30
300.76	1775.59
300.98	1603.56
301.19	1675.24
301.40	1615.85
301.62	1685.48
301.83	1658.85
302.05	1642.47
302.26	1724.39
302.47	1699.81
302.69	1650.66
302.90	1728.49
303.12	1607.66
303.33	1712.10
303.54	1794.02
303.76	1665.00
303.97	1675.24
304.19	1767.40
304.40	1673.19
304.61	1736.68
304.83	1812.45
305.04	1763.30
305.26	1712.10
305.47	1705.96
305.68	1685.48
305.90	1609.70
306.11	1683.43
306.33	1626.09
306.54	1615.85
306.75	1769.44
306.97	1619.94
307.18	1667.05
307.39	1693.67
307.61	1728.49
307.82	1701.86
308.04	1759.21
308.25	1671.14
308.46	1751.01
308.68	1693.67
308.89	1710.05
309.10	1810.40
309.32	1767.40
309.53	1742.82
309.74	1699.81
309.96	1662.95
310.17	1755.11
310.39	1613.80
310.60	1738.73
310.81	1730.53
311.03	1648.61
311.24	1730.53
311.45	1673.19
311.67	1818.60
311.88	1759.21
312.09	1697.77
312.31	1665.00
312.52	1673.19
312.73	1654.76
312.95	1654.76
313.16	1599.46
313.37	1796.07
313.59	1716.20
313.80	1712.10
314.01	1812.45
314.23	1671.14
314.44	1648.61
314.65	1665.00
314.87	1640.42
315.08	1652.71
315.29	1734.63
315.51	1693.67
315.72	1646.57
315.93	1816.55
316.15	1705.96
316.36	1632.23
316.57	1683.43
316.79	1773.54
317.00	1599.46
317.21	1775.59
317.43	1734.63
317.64	1685.48
317.85	1665.00
318.07	1667.05
318.28	1640.42
318.49	1796.07
318.70	1910.75
318.92	1806.31
319.13	1826.79
319.34	1814.50
319.56	1742.82
319.77	1853.41
319.98	1832.93
320.20	1773.54
320.41	1763.30
320.62	1693.67
320.83	1660.90
321.05	1812.45
321.26	1769.44
321.47	1644.52
321.69	1761.25
321.90	1624.04
322.11	1638.38
322.32	1687.53
322.54	1791.97
322.75	1675.24
322.96	1853.41
323.18	1677.29
323.39	1640.42
323.60	1660.90
323.81	1755.11
324.03	1658.85
324.24	1658.85
324.45	1656.81
324.66	1671.14
324.88	1775.59
325.09	1773.54
325.30	1742.82
325.52	1751.01
325.73	1751.01
325.94	1658.85
326.15	1603.56
326.37	1697.77
326.58	1695.72
326.79	1832.93
327.00	1675.24
327.22	1695.72
327.43	1665.00
327.64	1578.98
327.85	1779.68
328.07	1728.49
328.28	1796.07
328.49	1632.23
328.70	1628.14
328.92	1765.35
329.13	1691.62
329.34	1730.53
329.55	1800.16
329.76	1800.16
329.98	1574.89
330.19	1757.16
330.40	1742.82
330.61	1767.40
330.83	1781.73
331.04	1638.38
331.25	1697.77
331.46	1624.04
331.68	1628.14
331.89	1708.01
332.10	1677.29
332.31	1601.51
332.52	1652.71
332.74	1718.25
332.95	1695.72
333.16	1669.09
333.37	1742.82
333.58	1650.66
333.80	1726.44
334.01	1691.62
334.22	1736.68
334.43	1665.00
334.64	1724.39
334.86	1699.81
335.07	1757.16
335.28	1771.49
335.49	1570.79
335.70	1689.57
335.92	1781.73
336.13	1851.36
336.34	1679.33
336.55	1687.53
336.76	1626.09
336.98	1556.46
337.19	1726.44
337.40	1785.83
337.61	1890.28
337.82	1763.30
338.04	1736.68
338.25	1626.09
338.46	1714.15
338.67	1683.43
338.88	1708.01
339.09	1673.19
339.31	1685.48
339.52	1640.42
339.73	1763.30
339.94	1634.28
340.15	1796.07
340.36	1662.95
340.58	1632.23
340.79	1654.76
341.00	1757.16
341.21	1595.37
341.42	1794.02
341.63	1695.72
341.85	1753.06
342.06	1783.78
342.27	1636.33
342.48	1777.64
342.69	1581.03
342.90	1746.92
343.12	1759.21
343.33	1699.81
343.54	1779.68
343.75	1716.20
343.96	1691.62
344.17	1607.66
344.38	1681.38
344.60	1701.86
344.81	1669.09
345.02	1701.86
345.23	1755.11
345.44	1755.11
345.65	1759.21
345.86	1763.30
346.07	1624.04
346.29	1708.01
346.50	1644.52
346.71	1742.82
346.92	1718.25
347.13	1863.65
347.34	1697.77
347.55	1697.77
347.76	1728.49
347.98	1640.42
348.19	1660.90
348.40	1826.79
348.61	1720.29
348.82	1802.21
349.03	1802.21
349.24	1578.98
349.45	1771.49
349.66	1585.13
349.88	1667.05
350.09	1724.39
350.30	1798.12
350.51	1769.44
350.72	1734.63
350.93	1710.05
351.14	1652.71
351.35	1705.96
351.56	1730.53
351.77	1726.44
351.99	1755.11
352.20	1796.07
352.41	1761.25
352.62	1611.75
352.83	1806.31
353.04	1812.45
353.25	1685.48
353.46	1771.49
353.67	1781.73
353.88	1609.70
354.09	1685.48
354.30	1732.58
354.52	1683.43
354.73	1673.19
354.94	1718.25
355.15	1775.59
355.36	1785.83
355.57	1726.44
355.78	1800.16
355.99	1656.81
356.20	1662.95
356.41	1847.27
356.62	1744.87
356.83	1728.49
357.04	1755.11
357.25	1681.38
357.46	1658.85
357.68	1613.80
357.89	1667.05
358.10	1683.43
358.31	1572.84
358.52	1628.14
358.73	1677.29
358.94	1689.57
359.15	1693.67
359.36	1767.40
359.57	1740.77
359.78	1697.77
359.99	1730.53
360.20	1656.81
360.41	1716.20
360.62	1705.96
360.83	1761.25
361.04	1675.24
361.25	1687.53
361.46	1816.55
361.67	1742.82
361.88	1751.01
362.09	1728.49
362.30	1708.01
362.51	1671.14
362.72	1648.61
362.93	1712.10
363.14	1718.25
363.35	1740.77
363.56	1675.24
363.78	1693.67
363.99	1742.82
364.20	1630.18
364.41	1728.49
364.62	1914.85
364.83	1650.66
365.04	1644.52
365.25	1613.80
365.46	1812.45
365.67	1665.00
365.88	1689.57
366.09	1632.23
366.30	1734.63
366.51	1689.57
366.72	1626.09
366.93	1665.00
367.14	1736.68
367.35	1794.02
367.56	1732.58
367.77	1828.84
367.98	1640.42
368.18	1705.96
368.39	1765.35
368.60	1667.05
368.81	1714.15
369.02	1718.25
369.23	1703.91
369.44	1624.04
369.65	1634.28
369.86	1710.05
370.07	1796.07
370.28	1615.85
370.49	1744.87
370.70	1677.29
370.91	1648.61
371.12	1665.00
371.33	1800.16
371.54	1720.29
371.75	1769.44
371.96	1597.42
372.17	1685.48
372.38	1701.86
372.59	1718.25
372.80	1665.00
373.01	1656.81
373.22	1724.39
373.43	1771.49
373.64	1660.90
373.85	1781.73
374.06	1853.41
374.26	1767.40
374.47	1775.59
374.68	1832.93
374.89	1755.11
375.10	1685.48
375.31	1779.68
375.52	1615.85
375.73	1693.67
375.94	1660.90
376.15	1847.27
376.36	1595.37
376.57	1662.95
376.78	1681.38
376.99	1757.16
377.20	1734.63
377.40	1708.01
377.61	1789.92
377.82	1640.42
378.03	1773.54
378.24	1675.24
378.45	1701.86
378.66	1628.14
378.87	1665.00
379.08	1642.47
379.29	1708.01
379.50	1855.46
379.71	1601.51
379.91	1818.60
380.12	1603.56
380.33	1720.29
380.54	1742.82
380.75	1681.38
380.96	1771.49
381.17	1787.88
381.38	1730.53
381.59	1722.34
381.80	1703.91
382.00	1882.08
382.21	1722.34
382.42	1808.36
382.63	1814.50
382.84	1773.54
383.05	1765.35
383.26	1791.97
383.47	1736.68
383.68	1763.30
383.88	1728.49
384.09	1626.09
384.30	1847.27
384.51	1767.40
384.72	1636.33
384.93	1644.52
385.14	1746.92
385.35	1779.68
385.55	1542.12
385.76	1761.25
385.97	1734.63
386.18	1636.33
386.39	1636.33
386.60	1751.01
386.81	1705.96
387.02	1648.61
387.22	1638.38
387.43	1800.16
387.64	1818.60
387.85	1849.32
388.06	2222.05
388.27	4147.14
388.48	6846.36
388.68	8257.41
388.89	9600.88
389.10	9842.54
389.31	8677.24
389.52	7821.19
389.73	6705.05
389.93	6272.93
390.14	5771.18
390.35	5146.55
390.56	4581.31
390.77	3766.21
390.98	2994.13
391.18	2437.08
391.39	2060.26
391.60	1920.99
391.81	1761.25
392.02	1734.63
392.23	1941.47
392.43	1791.97
392.64	1701.86
392.85	1757.16
393.06	1816.55
393.27	1761.25
393.47	1636.33
393.68	1730.53
393.89	1779.68
394.10	1796.07
394.31	1705.96
394.52	1640.42
394.72	1615.85
394.93	1771.49
395.14	1597.42
395.35	1691.62
395.56	1681.38
395.76	1734.63
395.97	1853.41
396.18	1861.60
396.39	1773.54
396.60	2062.30
396.80	1941.47
397.01	1837.03
397.22	1826.79
397.43	1849.32
397.64	1779.68
397.84	1738.73
398.05	1931.23
398.26	1730.53
398.47	1794.02
398.67	1677.29
398.88	1763.30
399.09	1685.48
399.30	1693.67
399.51	1742.82
399.71	1671.14
399.92	1773.54
400.13	1744.87
400.34	1718.25
400.54	1712.10
400.75	1824.74
400.96	1724.39
401.17	1822.69
401.37	1775.59
401.58	1714.15
401.79	1730.53
402.00	1837.03
402.21	2002.91
402.41	1943.52
402.62	2029.54
402.83	2154.46
403.04	1972.19
403.24	2144.22
403.45	1802.21
403.66	1849.32
403.87	1834.98
404.07	1849.32
404.28	1925.09
404.49	1890.28
404.70	1791.97
404.90	1781.73
405.11	1763.30
405.32	1783.78
405.52	1669.09
405.73	1656.81
405.94	1701.86
406.15	1685.48
406.35	1746.92
406.56	1705.96
406.77	1714.15
406.98	1800.16
407.18	1609.70
407.39	1757.16
407.60	1613.80
407.80	1837.03
408.01	1714.15
408.22	1724.39
408.43	1640.42
408.63	1755.11
408.84	1728.49
409.05	1748.97
409.25	1665.00
409.46	1644.52
409.67	1712.10
409.88	1675.24
410.08	1685.48
410.29	1695.72
410.50	1742.82
410.70	1751.01
410.91	1626.09
411.12	1765.35
411.32	1611.75
411.53	1775.59
411.74	1816.55
411.95	1808.36
412.15	1728.49
412.36	1748.97
412.57	1796.07
412.77	1861.60
412.98	1832.93
413.19	1658.85
413.39	1710.05
413.60	1794.02
413.81	1855.46
414.01	1742.82
414.22	1812.45
414.43	1742.82
414.63	1689.57
414.84	1732.58
415.05	1687.53
415.25	1599.46
415.46	1783.78
415.67	1640.42
415.87	1798.12
416.08	1724.39
416.29	1724.39
416.49	1787.88
416.70	1638.38
416.91	1710.05
417.11	1660.90
417.32	1769.44
417.53	1705.96
417.73	1791.97
417.94	1593.32
418.15	1720.29
418.35	1703.91
418.56	1718.25
418.77	1867.75
418.97	1695.72
419.18	1648.61
419.38	1570.79
419.59	1667.05
419.80	1828.84
420.00	1669.09
420.21	1761.25
420.42	1695.72
420.62	1687.53
420.83	1658.85
421.04	1714.15
421.24	1669.09
421.45	1699.81
421.65	1728.49
421.86	1804.26
422.07	1761.25
422.27	1703.91
422.48	1740.77
422.69	1673.19
422.89	1693.67
423.10	1763.30
423.30	1658.85
423.51	1710.05
423.72	1755.11
423.92	1732.58
424.13	1628.14
424.33	1705.96
424.54	1771.49
424.75	1673.19
424.95	1701.86
425.16	1720.29
425.36	1781.73
425.57	1736.68
425.78	1734.63
425.98	1753.06
426.19	1714.15
426.39	1714.15
426.60	1767.40
426.81	1826.79
427.01	1734.63
427.22	1624.04
427.42	1658.85
427.63	1695.72
427.83	1771.49
428.04	1757.16
428.25	1847.27
428.45	1689.57
428.66	1767.40
428.86	1689.57
429.07	1683.43
429.28	1763.30
429.48	1677.29
429.69	1630.18
429.89	1710.05
430.10	1671.14
430.30	1703.91
430.51	1783.78
430.71	1673.19
430.92	1673.19
431.13	1718.25
431.33	1773.54
431.54	1742.82
431.74	1841.12
431.95	1808.36
432.15	1681.38
432.36	1736.68
432.56	1689.57
432.77	1855.46
432.98	1841.12
433.18	1751.01
433.39	1671.14
433.59	1679.33
433.80	1779.68
434.00	1873.89
434.21	1615.85
434.41	1636.33
434.62	1771.49
434.82	1642.47
435.03	1714.15
435.23	1695.72
435.44	1599.46
435.64	1791.97
435.85	1773.54
436.06	1734.63
436.26	1796.07
436.47	1691.62
436.67	1650.66
436.88	1679.33
437.08	1746.92
437.29	1736.68
437.49	1724.39
437.70	1789.92
437.90	1744.87
438.11	1890.28
438.31	1658.85
438.52	1806.31
438.72	1769.44
438.93	2007.01
439.13	1714.15
439.34	1810.40
439.54	1779.68
439.75	1789.92
439.95	1796.07
440.16	1679.33
440.36	1812.45
440.57	1796.07
440.77	1714.15
440.98	1812.45
441.18	1746.92
441.39	1685.48
441.59	1636.33
441.80	1849.32
442.00	1697.77
442.21	1757.16
442.41	1712.10
442.62	1826.79
442.82	1667.05
443.02	1751.01
443.23	1718.25
443.43	1685.48
443.64	1755.11
443.84	1736.68
444.05	1828.84
444.25	1705.96
444.46	1720.29
444.66	1744.87
444.87	1816.55
445.07	1679.33
445.28	1751.01
445.48	1867.75
445.69	1744.87
445.89	1898.47
446.09	1757.16
446.30	2082.78
446.50	2678.74
446.71	3696.58
446.91	4335.55
447.12	4829.11
447.32	4943.80
447.53	4384.70
447.73	3860.42
447.93	3620.81
448.14	3278.80
448.34	3246.03
448.55	3004.37
448.75	2807.77
448.96	2717.65
449.16	2412.51
449.36	2199.52
449.57	2033.63
449.77	1906.66
449.98	1806.31
450.18	1753.06
450.39	1877.99
450.59	1789.92
450.79	1738.73
451.00	1677.29
451.20	1775.59
451.41	1720.29
451.61	1828.84
451.81	1771.49
452.02	1710.05
452.22	1718.25
452.43	1693.67
452.63	1693.67
