SpectraSuite Data File
++++++++++++++++++++++++++++++++++++
Date: Mon Jun 06 12:25:57 CEST 2016
User: root
Dark Spectrum Present: No
Reference Spectrum Present: No
Number of Sampled Component Spectra: 1
Spectrometers: USB4C02835
Integration Time (usec): 100000 (USB4C02835)
Spectra Averaged: 1 (USB4C02835)
Boxcar Smoothing: 0 (USB4C02835)
Correct for Electrical Dark: No (USB4C02835)
Strobe/Lamp Enabled: No (USB4C02835)
Correct for Detector Non-linearity: No (USB4C02835)
Correct for Stray Light: No (USB4C02835)
Number of Pixels in Processed Spectrum: 3648
>>>>>Begin Processed Spectral Data<<<<<
177.47	1460.20
177.69	1460.20
177.91	1460.20
178.13	1468.39
178.36	1492.97
178.58	1624.04
178.80	1697.77
179.02	1699.81
179.24	1607.66
179.46	1619.94
179.68	1730.53
179.90	1755.11
180.13	1708.01
180.35	1669.09
180.57	1699.81
180.79	1701.86
181.01	1667.05
181.23	1636.33
181.45	1728.49
181.67	1699.81
181.90	1785.83
182.12	1650.66
182.34	1660.90
182.56	1755.11
182.78	1701.86
183.00	1683.43
183.22	1683.43
183.44	1628.14
183.66	1806.31
183.89	1714.15
184.11	1771.49
184.33	1718.25
184.55	1806.31
184.77	1624.04
184.99	1656.81
185.21	1599.46
185.43	1834.98
185.65	1695.72
185.87	1705.96
186.10	1787.88
186.32	1841.12
186.54	1740.77
186.76	1757.16
186.98	1726.44
187.20	1634.28
187.42	1705.96
187.64	1658.85
187.86	1681.38
188.08	1757.16
188.30	1669.09
188.52	1779.68
188.75	1816.55
188.97	1708.01
189.19	1710.05
189.41	1746.92
189.63	1742.82
189.85	1601.51
190.07	1660.90
190.29	1509.35
190.51	1654.76
190.73	1585.13
190.95	1701.86
191.17	1726.44
191.39	1624.04
191.61	1636.33
191.84	1654.76
192.06	1712.10
192.28	1548.26
192.50	1861.60
192.72	1757.16
192.94	1691.62
193.16	1724.39
193.38	1710.05
193.60	1626.09
193.82	1656.81
194.04	1787.88
194.26	1683.43
194.48	1712.10
194.70	1693.67
194.92	1652.71
195.14	1697.77
195.36	1613.80
195.58	1716.20
195.80	1728.49
196.02	1628.14
196.24	1763.30
196.46	1705.96
196.69	1703.91
196.91	1839.08
197.13	1621.99
197.35	1689.57
197.57	1775.59
197.79	1669.09
198.01	1675.24
198.23	1703.91
198.45	1697.77
198.67	1656.81
198.89	1738.73
199.11	1638.38
199.33	1607.66
199.55	1632.23
199.77	1730.53
199.99	1742.82
200.21	1673.19
200.43	1695.72
200.65	1656.81
200.87	1626.09
201.09	1634.28
201.31	1701.86
201.53	1757.16
201.75	1708.01
201.97	1685.48
202.19	1730.53
202.41	1677.29
202.63	1779.68
202.85	1736.68
203.07	1703.91
203.29	1656.81
203.51	1662.95
203.73	1681.38
203.95	1834.98
204.17	1726.44
204.39	1730.53
204.61	1753.06
204.83	1675.24
205.05	1734.63
205.27	1740.77
205.49	1798.12
205.71	1728.49
205.93	1646.57
206.15	1593.32
206.37	1695.72
206.59	1675.24
206.81	1628.14
207.03	1644.52
207.25	1644.52
207.47	1732.58
207.69	1630.18
207.91	1755.11
208.13	1757.16
208.34	1681.38
208.56	1658.85
208.78	1660.90
209.00	1632.23
209.22	1640.42
209.44	1662.95
209.66	1640.42
209.88	1646.57
210.10	1716.20
210.32	1630.18
210.54	1789.92
210.76	1718.25
210.98	1777.64
211.20	1595.37
211.42	1624.04
211.64	1763.30
211.86	1617.90
212.08	1703.91
212.30	1773.54
212.52	1642.47
212.74	1716.20
212.96	1648.61
213.17	1697.77
213.39	1781.73
213.61	1734.63
213.83	1685.48
214.05	1683.43
214.27	1710.05
214.49	1650.66
214.71	1665.00
214.93	1748.97
215.15	1660.90
215.37	1640.42
215.59	1619.94
215.81	1771.49
216.03	1755.11
216.24	1679.33
216.46	1617.90
216.68	1697.77
216.90	1697.77
217.12	1632.23
217.34	1708.01
217.56	1712.10
217.78	1753.06
218.00	1757.16
218.22	1716.20
218.44	1710.05
218.66	1695.72
218.87	1708.01
219.09	1740.77
219.31	1771.49
219.53	1683.43
219.75	1683.43
219.97	1667.05
220.19	1763.30
220.41	1660.90
220.63	1757.16
220.85	1751.01
221.06	1677.29
221.28	1767.40
221.50	1691.62
221.72	1671.14
221.94	1718.25
222.16	1708.01
222.38	1841.12
222.60	1708.01
222.82	1683.43
223.03	1873.89
223.25	1642.47
223.47	1710.05
223.69	1789.92
223.91	1703.91
224.13	1705.96
224.35	1626.09
224.57	1748.97
224.78	1699.81
225.00	1681.38
225.22	1683.43
225.44	1697.77
225.66	1751.01
225.88	1607.66
226.10	1714.15
226.32	1685.48
226.53	1765.35
226.75	1652.71
226.97	1720.29
227.19	1640.42
227.41	1710.05
227.63	1646.57
227.85	1624.04
228.06	1730.53
228.28	1689.57
228.50	1730.53
228.72	1609.70
228.94	1699.81
229.16	1601.51
229.37	1589.22
229.59	1640.42
229.81	1726.44
230.03	1669.09
230.25	1570.79
230.47	1583.08
230.69	1591.27
230.90	1832.93
231.12	1554.41
231.34	1658.85
231.56	1806.31
231.78	1624.04
232.00	1665.00
232.21	1671.14
232.43	1767.40
232.65	1527.78
232.87	1652.71
233.09	1619.94
233.30	1638.38
233.52	1757.16
233.74	1710.05
233.96	1634.28
234.18	1738.73
234.40	1652.71
234.61	1806.31
234.83	1630.18
235.05	1548.26
235.27	1865.70
235.49	1738.73
235.70	1708.01
235.92	1726.44
236.14	1748.97
236.36	1810.40
236.58	1658.85
236.79	1699.81
237.01	1644.52
237.23	1746.92
237.45	1834.98
237.67	1742.82
237.88	1705.96
238.10	1810.40
238.32	1650.66
238.54	1673.19
238.76	1671.14
238.97	1667.05
239.19	1677.29
239.41	1738.73
239.63	1808.36
239.85	1662.95
240.06	1654.76
240.28	1628.14
240.50	1757.16
240.72	1691.62
240.93	1697.77
241.15	1775.59
241.37	1673.19
241.59	1759.21
241.81	1736.68
242.02	1701.86
242.24	1679.33
242.46	1718.25
242.68	1619.94
242.89	1691.62
243.11	1660.90
243.33	1722.34
243.55	1726.44
243.76	1699.81
243.98	1652.71
244.20	1660.90
244.42	1658.85
244.64	1732.58
244.85	1669.09
245.07	1554.41
245.29	1714.15
245.51	1722.34
245.72	1724.39
245.94	1714.15
246.16	1769.44
246.38	1806.31
246.59	1767.40
246.81	1699.81
247.03	1671.14
247.24	1595.37
247.46	1757.16
247.68	1708.01
247.90	1683.43
248.11	1677.29
248.33	1779.68
248.55	1636.33
248.77	1730.53
248.98	1775.59
249.20	1730.53
249.42	1705.96
249.64	1689.57
249.85	1652.71
250.07	1669.09
250.29	1777.64
250.50	1714.15
250.72	1613.80
250.94	1689.57
251.16	1828.84
251.37	1785.83
251.59	1771.49
251.81	1714.15
252.02	1812.45
252.24	1644.52
252.46	1742.82
252.68	1636.33
252.89	1630.18
253.11	1595.37
253.33	1800.16
253.54	1804.26
253.76	1654.76
253.98	1665.00
254.20	1654.76
254.41	1654.76
254.63	1675.24
254.85	1578.98
255.06	1644.52
255.28	1742.82
255.50	1718.25
255.71	1605.61
255.93	1591.27
256.15	1708.01
256.36	1687.53
256.58	1650.66
256.80	1748.97
257.02	1638.38
257.23	1699.81
257.45	1628.14
257.67	1734.63
257.88	1603.56
258.10	1816.55
258.32	1730.53
258.53	1734.63
258.75	1775.59
258.97	1621.99
259.18	1705.96
259.40	1660.90
259.62	1738.73
259.83	1816.55
260.05	1724.39
260.27	1953.76
260.48	1660.90
260.70	1589.22
260.92	1716.20
261.13	1697.77
261.35	1619.94
261.57	1722.34
261.78	1583.08
262.00	1708.01
262.22	1734.63
262.43	1593.32
262.65	1591.27
262.86	1751.01
263.08	1771.49
263.30	1697.77
263.51	1628.14
263.73	1685.48
263.95	1804.26
264.16	1730.53
264.38	1644.52
264.60	1665.00
264.81	1724.39
265.03	1757.16
265.25	1816.55
265.46	1722.34
265.68	1773.54
265.89	1683.43
266.11	1583.08
266.33	1794.02
266.54	1785.83
266.76	1738.73
266.98	1687.53
267.19	1779.68
267.41	1718.25
267.62	1660.90
267.84	1601.51
268.06	1746.92
268.27	1673.19
268.49	1714.15
268.70	1748.97
268.92	1802.21
269.14	1589.22
269.35	1599.46
269.57	1638.38
269.79	1734.63
270.00	1642.47
270.22	1767.40
270.43	1671.14
270.65	1597.42
270.87	1730.53
271.08	1714.15
271.30	1816.55
271.51	1722.34
271.73	1712.10
271.95	1703.91
272.16	1640.42
272.38	1665.00
272.59	1679.33
272.81	1746.92
273.02	1665.00
273.24	1832.93
273.46	1724.39
273.67	1720.29
273.89	1660.90
274.10	1615.85
274.32	1708.01
274.54	1693.67
274.75	1673.19
274.97	1607.66
275.18	1785.83
275.40	1773.54
275.61	1763.30
275.83	1675.24
276.05	1669.09
276.26	1693.67
276.48	1667.05
276.69	1677.29
276.91	1693.67
277.12	1798.12
277.34	1773.54
277.55	1783.78
277.77	1701.86
277.99	1673.19
278.20	1591.27
278.42	1718.25
278.63	1564.65
278.85	1642.47
279.06	1673.19
279.28	1736.68
279.49	1693.67
279.71	1789.92
279.93	1634.28
280.14	1673.19
280.36	1632.23
280.57	1658.85
280.79	1683.43
281.00	1607.66
281.22	1621.99
281.43	1769.44
281.65	1609.70
281.86	1550.31
282.08	1705.96
282.29	1714.15
282.51	1546.22
282.73	1634.28
282.94	1593.32
283.16	1642.47
283.37	1765.35
283.59	1742.82
283.80	1720.29
284.02	1634.28
284.23	1769.44
284.45	1724.39
284.66	1701.86
284.88	1619.94
285.09	1761.25
285.31	1705.96
285.52	1714.15
285.74	1599.46
285.95	1742.82
286.17	1697.77
286.38	1742.82
286.60	1656.81
286.81	1656.81
287.03	1656.81
287.24	1669.09
287.46	1769.44
287.67	1658.85
287.89	1812.45
288.10	1710.05
288.32	1722.34
288.53	1787.88
288.75	1722.34
288.96	1687.53
289.18	1679.33
289.39	1685.48
289.61	1720.29
289.82	1832.93
290.04	1798.12
290.25	1621.99
290.47	1730.53
290.68	1683.43
290.90	1736.68
291.11	1605.61
291.33	1673.19
291.54	1683.43
291.76	1689.57
291.97	1679.33
292.18	1732.58
292.40	1624.04
292.61	1658.85
292.83	1814.50
293.04	1652.71
293.26	1777.64
293.47	1669.09
293.69	1660.90
293.90	1677.29
294.12	1771.49
294.33	1705.96
294.55	1728.49
294.76	1798.12
294.97	1763.30
295.19	1722.34
295.40	1703.91
295.62	1632.23
295.83	1761.25
296.05	1687.53
296.26	1736.68
296.48	1728.49
296.69	1712.10
296.90	1615.85
297.12	1662.95
297.33	1800.16
297.55	1746.92
297.76	1742.82
297.98	1732.58
298.19	1705.96
298.41	1716.20
298.62	1624.04
298.83	1753.06
299.05	1738.73
299.26	1621.99
299.48	1652.71
299.69	1695.72
299.90	1681.38
300.12	1683.43
300.33	1722.34
300.55	1689.57
300.76	1736.68
300.98	1699.81
301.19	1769.44
301.40	1689.57
301.62	1703.91
301.83	1642.47
302.05	1677.29
302.26	1662.95
302.47	1693.67
302.69	1634.28
302.90	1681.38
303.12	1607.66
303.33	1746.92
303.54	1771.49
303.76	1683.43
303.97	1734.63
304.19	1705.96
304.40	1572.84
304.61	1759.21
304.83	1806.31
305.04	1767.40
305.26	1736.68
305.47	1529.83
305.68	1708.01
305.90	1644.52
306.11	1693.67
306.33	1640.42
306.54	1714.15
306.75	1675.24
306.97	1646.57
307.18	1683.43
307.39	1630.18
307.61	1798.12
307.82	1660.90
308.04	1714.15
308.25	1658.85
308.46	1667.05
308.68	1658.85
308.89	1718.25
309.10	1802.21
309.32	1789.92
309.53	1636.33
309.74	1687.53
309.96	1751.01
310.17	1748.97
310.39	1689.57
310.60	1658.85
310.81	1775.59
311.03	1691.62
311.24	1791.97
311.45	1695.72
311.67	1837.03
311.88	1718.25
312.09	1669.09
312.31	1720.29
312.52	1652.71
312.73	1691.62
312.95	1603.56
313.16	1646.57
313.37	1865.70
313.59	1671.14
313.80	1738.73
314.01	1837.03
314.23	1673.19
314.44	1675.24
314.65	1648.61
314.87	1679.33
315.08	1791.97
315.29	1685.48
315.51	1638.38
315.72	1685.48
315.93	1718.25
316.15	1783.78
316.36	1662.95
316.57	1730.53
316.79	1740.77
317.00	1722.34
317.21	1722.34
317.43	1697.77
317.64	1689.57
317.85	1585.13
318.07	1667.05
318.28	1675.24
318.49	1763.30
318.70	1955.81
318.92	1812.45
319.13	1861.60
319.34	1822.69
319.56	1822.69
319.77	1787.88
319.98	1880.04
320.20	1796.07
320.41	1685.48
320.62	1804.26
320.83	1679.33
321.05	1759.21
321.26	1720.29
321.47	1673.19
321.69	1744.87
321.90	1609.70
322.11	1675.24
322.32	1730.53
322.54	1759.21
322.75	1632.23
322.96	1847.27
323.18	1703.91
323.39	1628.14
323.60	1671.14
323.81	1783.78
324.03	1626.09
324.24	1648.61
324.45	1658.85
324.66	1626.09
324.88	1773.54
325.09	1703.91
325.30	1685.48
325.52	1748.97
325.73	1726.44
325.94	1705.96
326.15	1597.42
326.37	1613.80
326.58	1800.16
326.79	1708.01
327.00	1576.94
327.22	1669.09
327.43	1736.68
327.64	1617.90
327.85	1697.77
328.07	1714.15
328.28	1740.77
328.49	1675.24
328.70	1685.48
328.92	1689.57
329.13	1636.33
329.34	1730.53
329.55	1787.88
329.76	1755.11
329.98	1667.05
330.19	1736.68
330.40	1712.10
330.61	1732.58
330.83	1671.14
331.04	1583.08
331.25	1763.30
331.46	1701.86
331.68	1669.09
331.89	1693.67
332.10	1617.90
332.31	1644.52
332.52	1621.99
332.74	1808.36
332.95	1626.09
333.16	1697.77
333.37	1693.67
333.58	1701.86
333.80	1683.43
334.01	1648.61
334.22	1671.14
334.43	1591.27
334.64	1652.71
334.86	1564.65
335.07	1687.53
335.28	1822.69
335.49	1595.37
335.70	1673.19
335.92	1806.31
336.13	1777.64
336.34	1720.29
336.55	1675.24
336.76	1757.16
336.98	1581.03
337.19	1656.81
337.40	1796.07
337.61	1847.27
337.82	1763.30
338.04	1806.31
338.25	1550.31
338.46	1755.11
338.67	1681.38
338.88	1632.23
339.09	1632.23
339.31	1673.19
339.52	1624.04
339.73	1574.89
339.94	1642.47
340.15	1755.11
340.36	1597.42
340.58	1703.91
340.79	1607.66
341.00	1697.77
341.21	1634.28
341.42	1796.07
341.63	1624.04
341.85	1738.73
342.06	1697.77
342.27	1732.58
342.48	1703.91
342.69	1621.99
342.90	1708.01
343.12	1710.05
343.33	1681.38
343.54	1695.72
343.75	1804.26
343.96	1724.39
344.17	1699.81
344.38	1710.05
344.60	1605.61
344.81	1630.18
345.02	1648.61
345.23	1695.72
345.44	1742.82
345.65	1765.35
345.86	1757.16
346.07	1652.71
346.29	1644.52
346.50	1679.33
346.71	1714.15
346.92	1736.68
347.13	1775.59
347.34	1654.76
347.55	1693.67
347.76	1757.16
347.98	1611.75
348.19	1660.90
348.40	1738.73
348.61	1701.86
348.82	1800.16
349.03	1751.01
349.24	1675.24
349.45	1806.31
349.66	1601.51
349.88	1689.57
350.09	1679.33
350.30	1730.53
350.51	1781.73
350.72	1646.57
350.93	1720.29
351.14	1689.57
351.35	1796.07
351.56	1644.52
351.77	1636.33
351.99	1730.53
352.20	1724.39
352.41	1736.68
352.62	1544.17
352.83	1613.80
353.04	1658.85
353.25	1703.91
353.46	1677.29
353.67	1837.03
353.88	1628.14
354.09	1703.91
354.30	1656.81
354.52	1710.05
354.73	1691.62
354.94	1705.96
355.15	1724.39
355.36	1769.44
355.57	1669.09
355.78	1714.15
355.99	1636.33
356.20	1638.38
356.41	1804.26
356.62	1687.53
356.83	1695.72
357.04	1769.44
357.25	1619.94
357.46	1648.61
357.68	1589.22
357.89	1601.51
358.10	1736.68
358.31	1746.92
358.52	1701.86
358.73	1615.85
358.94	1673.19
359.15	1671.14
359.36	1710.05
359.57	1699.81
359.78	1691.62
359.99	1757.16
360.20	1652.71
360.41	1691.62
360.62	1742.82
360.83	1695.72
361.04	1705.96
361.25	1710.05
361.46	1759.21
361.67	1781.73
361.88	1769.44
362.09	1761.25
362.30	1669.09
362.51	1626.09
362.72	1771.49
362.93	1861.60
363.14	1773.54
363.35	1644.52
363.56	1619.94
363.78	1769.44
363.99	1748.97
364.20	1632.23
364.41	1712.10
364.62	1781.73
364.83	1705.96
365.04	1685.48
365.25	1722.34
365.46	1841.12
365.67	1683.43
365.88	1626.09
366.09	1665.00
366.30	1675.24
366.51	1679.33
366.72	1613.80
366.93	1714.15
367.14	1675.24
367.35	1757.16
367.56	1724.39
367.77	1769.44
367.98	1710.05
368.18	1714.15
368.39	1746.92
368.60	1624.04
368.81	1751.01
369.02	1753.06
369.23	1771.49
369.44	1613.80
369.65	1642.47
369.86	1748.97
370.07	1740.77
370.28	1726.44
370.49	1636.33
370.70	1685.48
370.91	1654.76
371.12	1572.84
371.33	1738.73
371.54	1699.81
371.75	1783.78
371.96	1613.80
372.17	1691.62
372.38	1742.82
372.59	1751.01
372.80	1691.62
373.01	1683.43
373.22	1718.25
373.43	1714.15
373.64	1642.47
373.85	1681.38
374.06	1779.68
374.26	1665.00
374.47	1785.83
374.68	1734.63
374.89	1681.38
375.10	1665.00
375.31	1783.78
375.52	1628.14
375.73	1726.44
375.94	1662.95
376.15	1812.45
376.36	1591.27
376.57	1673.19
376.78	1697.77
376.99	1796.07
377.20	1744.87
377.40	1640.42
377.61	1767.40
377.82	1619.94
378.03	1841.12
378.24	1626.09
378.45	1667.05
378.66	1714.15
378.87	1681.38
379.08	1617.90
379.29	1710.05
379.50	1732.58
379.71	1746.92
379.91	1730.53
380.12	1630.18
380.33	1671.14
380.54	1724.39
380.75	1673.19
380.96	1687.53
381.17	1791.97
381.38	1665.00
381.59	1738.73
381.80	1691.62
382.00	1865.70
382.21	1691.62
382.42	1822.69
382.63	1812.45
382.84	1818.60
383.05	1708.01
383.26	1759.21
383.47	1740.77
383.68	1781.73
383.88	1658.85
384.09	1652.71
384.30	1771.49
384.51	1783.78
384.72	1693.67
384.93	1572.84
385.14	1783.78
385.35	1742.82
385.55	1679.33
385.76	1806.31
385.97	1697.77
386.18	1628.14
386.39	1693.67
386.60	1671.14
386.81	1734.63
387.02	1685.48
387.22	1621.99
387.43	1804.26
387.64	1658.85
387.85	1826.79
388.06	2162.66
388.27	4302.78
388.48	6825.88
388.68	8042.37
388.89	9564.01
389.10	9879.40
389.31	8601.47
389.52	7593.87
389.73	6653.85
389.93	6162.34
390.14	5695.40
390.35	5236.66
390.56	4595.64
390.77	3825.61
390.98	2942.93
391.18	2516.95
391.39	2084.83
391.60	1853.41
391.81	1869.80
392.02	1718.25
392.23	1800.16
392.43	1779.68
392.64	1701.86
392.85	1628.14
393.06	1865.70
393.27	1710.05
393.47	1687.53
393.68	1677.29
393.89	1662.95
394.10	1714.15
394.31	1697.77
394.52	1683.43
394.72	1722.34
394.93	1775.59
395.14	1677.29
395.35	1689.57
395.56	1646.57
395.76	1691.62
395.97	1746.92
396.18	1834.98
396.39	1834.98
396.60	1953.76
396.80	1861.60
397.01	1861.60
397.22	1892.32
397.43	1820.64
397.64	1753.06
397.84	1716.20
398.05	1857.51
398.26	1779.68
398.47	1671.14
398.67	1773.54
398.88	1714.15
399.09	1730.53
399.30	1683.43
399.51	1730.53
399.71	1681.38
399.92	1626.09
400.13	1734.63
400.34	1689.57
400.54	1691.62
400.75	1722.34
400.96	1710.05
401.17	1773.54
401.37	1683.43
401.58	1667.05
401.79	1728.49
402.00	1873.89
402.21	1951.71
402.41	1943.52
402.62	1937.38
402.83	1961.95
403.04	1877.99
403.24	2056.16
403.45	1785.83
403.66	1920.99
403.87	1796.07
404.07	1947.62
404.28	1945.57
404.49	1892.32
404.70	1777.64
404.90	1744.87
405.11	1701.86
405.32	1656.81
405.52	1636.33
405.73	1689.57
405.94	1566.70
406.15	1685.48
406.35	1783.78
406.56	1689.57
406.77	1695.72
406.98	1667.05
407.18	1648.61
407.39	1822.69
407.60	1740.77
407.80	1673.19
408.01	1658.85
408.22	1834.98
408.43	1710.05
408.63	1779.68
408.84	1714.15
409.05	1703.91
409.25	1599.46
409.46	1691.62
409.67	1665.00
409.88	1677.29
410.08	1693.67
410.29	1646.57
410.50	1718.25
410.70	1691.62
410.91	1609.70
411.12	1746.92
411.32	1665.00
411.53	1660.90
411.74	1837.03
411.95	1669.09
412.15	1746.92
412.36	1697.77
412.57	1851.36
412.77	1736.68
412.98	1695.72
413.19	1746.92
413.39	1695.72
413.60	1724.39
413.81	1755.11
414.01	1644.52
414.22	1740.77
414.43	1728.49
414.63	1675.24
414.84	1701.86
415.05	1658.85
415.25	1667.05
415.46	1759.21
415.67	1730.53
415.87	1656.81
416.08	1673.19
416.29	1593.32
416.49	1699.81
416.70	1658.85
416.91	1640.42
417.11	1658.85
417.32	1767.40
417.53	1755.11
417.73	1722.34
417.94	1726.44
418.15	1742.82
418.35	1640.42
418.56	1685.48
418.77	1816.55
418.97	1755.11
419.18	1714.15
419.38	1591.27
419.59	1775.59
419.80	1746.92
420.00	1660.90
420.21	1759.21
420.42	1787.88
420.62	1716.20
420.83	1665.00
421.04	1630.18
421.24	1730.53
421.45	1791.97
421.65	1671.14
421.86	1699.81
422.07	1716.20
422.27	1728.49
422.48	1734.63
422.69	1718.25
422.89	1658.85
423.10	1697.77
423.30	1673.19
423.51	1705.96
423.72	1697.77
423.92	1695.72
424.13	1628.14
424.33	1677.29
424.54	1781.73
424.75	1681.38
424.95	1796.07
425.16	1791.97
425.36	1660.90
425.57	1691.62
425.78	1757.16
425.98	1791.97
426.19	1632.23
426.39	1628.14
426.60	1605.61
426.81	1775.59
427.01	1685.48
427.22	1665.00
427.42	1636.33
427.63	1699.81
427.83	1785.83
428.04	1724.39
428.25	1708.01
428.45	1740.77
428.66	1693.67
428.86	1658.85
429.07	1708.01
429.28	1683.43
429.48	1646.57
429.69	1691.62
429.89	1652.71
430.10	1687.53
430.30	1746.92
430.51	1716.20
430.71	1667.05
430.92	1648.61
431.13	1710.05
431.33	1619.94
431.54	1667.05
431.74	1767.40
431.95	1824.74
432.15	1603.56
432.36	1734.63
432.56	1718.25
432.77	1816.55
432.98	1824.74
433.18	1691.62
433.39	1667.05
433.59	1697.77
433.80	1783.78
434.00	1830.88
434.21	1699.81
434.41	1660.90
434.62	1804.26
434.82	1648.61
435.03	1703.91
435.23	1693.67
435.44	1591.27
435.64	1779.68
435.85	1748.97
436.06	1740.77
436.26	1726.44
436.47	1724.39
436.67	1710.05
436.88	1656.81
437.08	1757.16
437.29	1769.44
437.49	1626.09
437.70	1757.16
437.90	1736.68
438.11	1808.36
438.31	1746.92
438.52	1941.47
438.72	1875.94
438.93	1939.43
439.13	1710.05
439.34	1798.12
439.54	1800.16
439.75	1816.55
439.95	1728.49
440.16	1759.21
440.36	1710.05
440.57	1802.21
440.77	1753.06
440.98	1744.87
441.18	1714.15
441.39	1759.21
441.59	1652.71
441.80	1808.36
442.00	1722.34
442.21	1808.36
442.41	1669.09
442.62	1689.57
442.82	1732.58
443.02	1658.85
443.23	1687.53
443.43	1673.19
443.64	1751.01
443.84	1656.81
444.05	1742.82
444.25	1724.39
444.46	1671.14
444.66	1726.44
444.87	1853.41
445.07	1679.33
445.28	1710.05
445.48	1775.59
445.69	1759.21
445.89	1794.02
446.09	1689.57
446.30	2052.06
446.50	2654.17
446.71	3708.87
446.91	4329.41
447.12	4655.03
447.32	4693.94
447.53	4204.48
447.73	3774.41
447.93	3571.66
448.14	3229.65
448.34	3067.86
448.55	2924.50
448.75	2791.38
448.96	2664.41
449.16	2400.22
449.36	2222.05
449.57	2058.21
449.77	1912.80
449.98	1775.59
450.18	1722.34
450.39	1857.51
450.59	1787.88
450.79	1738.73
451.00	1724.39
451.20	1853.41
451.41	1689.57
451.61	1697.77
451.81	1716.20
452.02	1689.57
452.22	1710.05
452.43	1656.81
452.63	1658.85
