SpectraSuite Data File
++++++++++++++++++++++++++++++++++++
Date: Mon Jun 06 14:44:17 CEST 2016
User: root
Dark Spectrum Present: No
Reference Spectrum Present: No
Number of Sampled Component Spectra: 1
Spectrometers: USB4C02835
Integration Time (usec): 100000 (USB4C02835)
Spectra Averaged: 1 (USB4C02835)
Boxcar Smoothing: 0 (USB4C02835)
Correct for Electrical Dark: No (USB4C02835)
Strobe/Lamp Enabled: No (USB4C02835)
Correct for Detector Non-linearity: No (USB4C02835)
Correct for Stray Light: No (USB4C02835)
Number of Pixels in Processed Spectrum: 3648
>>>>>Begin Processed Spectral Data<<<<<
177.47	1492.97
177.69	1492.97
177.91	1492.97
178.13	1468.39
178.36	1429.48
178.58	1644.52
178.80	1748.97
179.02	1613.80
179.24	1660.90
179.46	1691.62
179.68	1703.91
179.90	1660.90
180.13	1685.48
180.35	1630.18
180.57	1626.09
180.79	1761.25
181.01	1714.15
181.23	1748.97
181.45	1734.63
181.67	1705.96
181.90	1759.21
182.12	1673.19
182.34	1652.71
182.56	1667.05
182.78	1697.77
183.00	1695.72
183.22	1726.44
183.44	1621.99
183.66	1839.08
183.89	1785.83
184.11	1800.16
184.33	1787.88
184.55	1667.05
184.77	1667.05
184.99	1726.44
185.21	1697.77
185.43	1837.03
185.65	1660.90
185.87	1724.39
186.10	1798.12
186.32	1808.36
186.54	1832.93
186.76	1720.29
186.98	1796.07
187.20	1701.86
187.42	1634.28
187.64	1703.91
187.86	1734.63
188.08	1757.16
188.30	1710.05
188.52	1703.91
188.75	1755.11
188.97	1798.12
189.19	1650.66
189.41	1708.01
189.63	1730.53
189.85	1626.09
190.07	1644.52
190.29	1642.47
190.51	1728.49
190.73	1609.70
190.95	1794.02
191.17	1726.44
191.39	1599.46
191.61	1712.10
191.84	1677.29
192.06	1746.92
192.28	1636.33
192.50	1800.16
192.72	1748.97
192.94	1740.77
193.16	1691.62
193.38	1697.77
193.60	1720.29
193.82	1724.39
194.04	1683.43
194.26	1693.67
194.48	1714.15
194.70	1648.61
194.92	1576.94
195.14	1714.15
195.36	1712.10
195.58	1699.81
195.80	1716.20
196.02	1718.25
196.24	1683.43
196.46	1718.25
196.69	1728.49
196.91	1871.84
197.13	1693.67
197.35	1601.51
197.57	1771.49
197.79	1726.44
198.01	1716.20
198.23	1718.25
198.45	1787.88
198.67	1669.09
198.89	1556.46
199.11	1738.73
199.33	1699.81
199.55	1587.18
199.77	1634.28
199.99	1771.49
200.21	1720.29
200.43	1652.71
200.65	1566.70
200.87	1503.21
201.09	1656.81
201.31	1724.39
201.53	1773.54
201.75	1728.49
201.97	1724.39
202.19	1716.20
202.41	1746.92
202.63	1783.78
202.85	1730.53
203.07	1669.09
203.29	1660.90
203.51	1611.75
203.73	1542.12
203.95	1886.18
204.17	1615.85
204.39	1634.28
204.61	1738.73
204.83	1626.09
205.05	1769.44
205.27	1785.83
205.49	1748.97
205.71	1701.86
205.93	1630.18
206.15	1718.25
206.37	1615.85
206.59	1689.57
206.81	1671.14
207.03	1685.48
207.25	1599.46
207.47	1761.25
207.69	1738.73
207.91	1767.40
208.13	1773.54
208.34	1710.05
208.56	1591.27
208.78	1734.63
209.00	1671.14
209.22	1714.15
209.44	1673.19
209.66	1677.29
209.88	1701.86
210.10	1718.25
210.32	1656.81
210.54	1785.83
210.76	1710.05
210.98	1683.43
211.20	1574.89
211.42	1689.57
211.64	1732.58
211.86	1701.86
212.08	1783.78
212.30	1720.29
212.52	1630.18
212.74	1703.91
212.96	1720.29
213.17	1777.64
213.39	1736.68
213.61	1757.16
213.83	1697.77
214.05	1632.23
214.27	1746.92
214.49	1697.77
214.71	1656.81
214.93	1783.78
215.15	1632.23
215.37	1751.01
215.59	1587.18
215.81	1697.77
216.03	1769.44
216.24	1708.01
216.46	1677.29
216.68	1685.48
216.90	1695.72
217.12	1781.73
217.34	1656.81
217.56	1714.15
217.78	1718.25
218.00	1726.44
218.22	1665.00
218.44	1720.29
218.66	1697.77
218.87	1789.92
219.09	1724.39
219.31	1740.77
219.53	1701.86
219.75	1613.80
219.97	1703.91
220.19	1662.95
220.41	1681.38
220.63	1742.82
220.85	1826.79
221.06	1652.71
221.28	1738.73
221.50	1691.62
221.72	1652.71
221.94	1730.53
222.16	1746.92
222.38	1722.34
222.60	1720.29
222.82	1634.28
223.03	1695.72
223.25	1656.81
223.47	1818.60
223.69	1812.45
223.91	1646.57
224.13	1701.86
224.35	1677.29
224.57	1757.16
224.78	1705.96
225.00	1665.00
225.22	1753.06
225.44	1685.48
225.66	1742.82
225.88	1789.92
226.10	1751.01
226.32	1718.25
226.53	1796.07
226.75	1683.43
226.97	1685.48
227.19	1734.63
227.41	1650.66
227.63	1658.85
227.85	1644.52
228.06	1708.01
228.28	1767.40
228.50	1705.96
228.72	1636.33
228.94	1685.48
229.16	1724.39
229.37	1689.57
229.59	1691.62
229.81	1810.40
230.03	1705.96
230.25	1656.81
230.47	1648.61
230.69	1658.85
230.90	1708.01
231.12	1703.91
231.34	1796.07
231.56	1716.20
231.78	1634.28
232.00	1767.40
232.21	1681.38
232.43	1636.33
232.65	1652.71
232.87	1667.05
233.09	1679.33
233.30	1699.81
233.52	1656.81
233.74	1757.16
233.96	1693.67
234.18	1722.34
234.40	1621.99
234.61	1798.12
234.83	1685.48
235.05	1644.52
235.27	1837.03
235.49	1806.31
235.70	1720.29
235.92	1779.68
236.14	1726.44
236.36	1837.03
236.58	1638.38
236.79	1714.15
237.01	1712.10
237.23	1722.34
237.45	1779.68
237.67	1599.46
237.88	1746.92
238.10	1769.44
238.32	1665.00
238.54	1656.81
238.76	1691.62
238.97	1683.43
239.19	1648.61
239.41	1699.81
239.63	1724.39
239.85	1701.86
240.06	1669.09
240.28	1644.52
240.50	1804.26
240.72	1734.63
240.93	1673.19
241.15	1755.11
241.37	1683.43
241.59	1708.01
241.81	1636.33
242.02	1673.19
242.24	1748.97
242.46	1724.39
242.68	1662.95
242.89	1761.25
243.11	1699.81
243.33	1705.96
243.55	1718.25
243.76	1796.07
243.98	1665.00
244.20	1699.81
244.42	1705.96
244.64	1701.86
244.85	1689.57
245.07	1630.18
245.29	1781.73
245.51	1759.21
245.72	1691.62
245.94	1740.77
246.16	1720.29
246.38	1779.68
246.59	1624.04
246.81	1665.00
247.03	1720.29
247.24	1560.55
247.46	1650.66
247.68	1626.09
247.90	1687.53
248.11	1669.09
248.33	1740.77
248.55	1677.29
248.77	1638.38
248.98	1796.07
249.20	1783.78
249.42	1767.40
249.64	1765.35
249.85	1703.91
250.07	1617.90
250.29	1705.96
250.50	1689.57
250.72	1624.04
250.94	1751.01
251.16	1746.92
251.37	1736.68
251.59	1740.77
251.81	1724.39
252.02	1726.44
252.24	1683.43
252.46	1837.03
252.68	1667.05
252.89	1685.48
253.11	1630.18
253.33	1851.36
253.54	1759.21
253.76	1648.61
253.98	1662.95
254.20	1738.73
254.41	1673.19
254.63	1693.67
254.85	1652.71
255.06	1648.61
255.28	1695.72
255.50	1710.05
255.71	1621.99
255.93	1607.66
256.15	1681.38
256.36	1746.92
256.58	1746.92
256.80	1728.49
257.02	1705.96
257.23	1699.81
257.45	1759.21
257.67	1771.49
257.88	1595.37
258.10	1714.15
258.32	1665.00
258.53	1712.10
258.75	1787.88
258.97	1703.91
259.18	1703.91
259.40	1648.61
259.62	1837.03
259.83	1798.12
260.05	1689.57
260.27	1988.58
260.48	1779.68
260.70	1691.62
260.92	1732.58
261.13	1660.90
261.35	1677.29
261.57	1634.28
261.78	1660.90
262.00	1628.14
262.22	1726.44
262.43	1689.57
262.65	1630.18
262.86	1665.00
263.08	1804.26
263.30	1714.15
263.51	1624.04
263.73	1689.57
263.95	1781.73
264.16	1697.77
264.38	1665.00
264.60	1669.09
264.81	1683.43
265.03	1769.44
265.25	1804.26
265.46	1701.86
265.68	1755.11
265.89	1779.68
266.11	1626.09
266.33	1705.96
266.54	1722.34
266.76	1683.43
266.98	1693.67
267.19	1808.36
267.41	1708.01
267.62	1658.85
267.84	1603.56
268.06	1734.63
268.27	1712.10
268.49	1763.30
268.70	1796.07
268.92	1765.35
269.14	1667.05
269.35	1624.04
269.57	1695.72
269.79	1765.35
270.00	1615.85
270.22	1832.93
270.43	1603.56
270.65	1599.46
270.87	1728.49
271.08	1720.29
271.30	1744.87
271.51	1730.53
271.73	1710.05
271.95	1705.96
272.16	1652.71
272.38	1726.44
272.59	1650.66
272.81	1771.49
273.02	1742.82
273.24	1718.25
273.46	1804.26
273.67	1646.57
273.89	1628.14
274.10	1630.18
274.32	1738.73
274.54	1703.91
274.75	1691.62
274.97	1621.99
275.18	1767.40
275.40	1738.73
275.61	1671.14
275.83	1630.18
276.05	1638.38
276.26	1671.14
276.48	1744.87
276.69	1644.52
276.91	1595.37
277.12	1683.43
277.34	1777.64
277.55	1722.34
277.77	1650.66
277.99	1697.77
278.20	1638.38
278.42	1628.14
278.63	1624.04
278.85	1609.70
279.06	1611.75
279.28	1769.44
279.49	1732.58
279.71	1765.35
279.93	1699.81
280.14	1720.29
280.36	1705.96
280.57	1769.44
280.79	1730.53
281.00	1593.32
281.22	1599.46
281.43	1751.01
281.65	1607.66
281.86	1654.76
282.08	1804.26
282.29	1839.08
282.51	1599.46
282.73	1599.46
282.94	1630.18
283.16	1693.67
283.37	1802.21
283.59	1687.53
283.80	1718.25
284.02	1730.53
284.23	1695.72
284.45	1642.47
284.66	1675.24
284.88	1636.33
285.09	1689.57
285.31	1765.35
285.52	1671.14
285.74	1605.61
285.95	1624.04
286.17	1746.92
286.38	1738.73
286.60	1689.57
286.81	1658.85
287.03	1726.44
287.24	1644.52
287.46	1718.25
287.67	1650.66
287.89	1732.58
288.10	1777.64
288.32	1757.16
288.53	1773.54
288.75	1683.43
288.96	1765.35
289.18	1632.23
289.39	1640.42
289.61	1771.49
289.82	1890.28
290.04	1777.64
290.25	1607.66
290.47	1693.67
290.68	1550.31
290.90	1726.44
291.11	1607.66
291.33	1722.34
291.54	1632.23
291.76	1642.47
291.97	1693.67
292.18	1708.01
292.40	1632.23
292.61	1665.00
292.83	1877.99
293.04	1730.53
293.26	1734.63
293.47	1703.91
293.69	1636.33
293.90	1701.86
294.12	1751.01
294.33	1699.81
294.55	1759.21
294.76	1755.11
294.97	1759.21
295.19	1796.07
295.40	1703.91
295.62	1773.54
295.83	1683.43
296.05	1599.46
296.26	1763.30
296.48	1738.73
296.69	1656.81
296.90	1710.05
297.12	1687.53
297.33	1755.11
297.55	1714.15
297.76	1724.39
297.98	1734.63
298.19	1695.72
298.41	1687.53
298.62	1652.71
298.83	1685.48
299.05	1685.48
299.26	1624.04
299.48	1658.85
299.69	1718.25
299.90	1732.58
300.12	1667.05
300.33	1724.39
300.55	1685.48
300.76	1687.53
300.98	1611.75
301.19	1722.34
301.40	1730.53
301.62	1632.23
301.83	1724.39
302.05	1714.15
302.26	1742.82
302.47	1746.92
302.69	1714.15
302.90	1697.77
303.12	1564.65
303.33	1699.81
303.54	1775.59
303.76	1763.30
303.97	1701.86
304.19	1822.69
304.40	1640.42
304.61	1732.58
304.83	1869.80
305.04	1742.82
305.26	1728.49
305.47	1636.33
305.68	1667.05
305.90	1634.28
306.11	1808.36
306.33	1671.14
306.54	1677.29
306.75	1699.81
306.97	1576.94
307.18	1671.14
307.39	1798.12
307.61	1705.96
307.82	1685.48
308.04	1689.57
308.25	1652.71
308.46	1626.09
308.68	1669.09
308.89	1667.05
309.10	1791.97
309.32	1767.40
309.53	1753.06
309.74	1705.96
309.96	1701.86
310.17	1732.58
310.39	1626.09
310.60	1720.29
310.81	1626.09
311.03	1667.05
311.24	1685.48
311.45	1703.91
311.67	1804.26
311.88	1699.81
312.09	1681.38
312.31	1683.43
312.52	1638.38
312.73	1730.53
312.95	1605.61
313.16	1722.34
313.37	1734.63
313.59	1722.34
313.80	1685.48
314.01	1791.97
314.23	1667.05
314.44	1607.66
314.65	1718.25
314.87	1681.38
315.08	1593.32
315.29	1687.53
315.51	1656.81
315.72	1667.05
315.93	1755.11
316.15	1701.86
316.36	1654.76
316.57	1710.05
316.79	1732.58
317.00	1761.25
317.21	1693.67
317.43	1697.77
317.64	1699.81
317.85	1705.96
318.07	1691.62
318.28	1730.53
318.49	1787.88
318.70	1943.52
318.92	1882.08
319.13	1849.32
319.34	1824.74
319.56	1746.92
319.77	1732.58
319.98	1757.16
320.20	1798.12
320.41	1644.52
320.62	1712.10
320.83	1699.81
321.05	1857.51
321.26	1763.30
321.47	1624.04
321.69	1744.87
321.90	1648.61
322.11	1759.21
322.32	1751.01
322.54	1755.11
322.75	1665.00
322.96	1863.65
323.18	1665.00
323.39	1626.09
323.60	1673.19
323.81	1791.97
324.03	1597.42
324.24	1601.51
324.45	1685.48
324.66	1685.48
324.88	1755.11
325.09	1765.35
325.30	1769.44
325.52	1769.44
325.73	1769.44
325.94	1695.72
326.15	1619.94
326.37	1628.14
326.58	1724.39
326.79	1859.56
327.00	1726.44
327.22	1761.25
327.43	1673.19
327.64	1648.61
327.85	1759.21
328.07	1753.06
328.28	1802.21
328.49	1658.85
328.70	1677.29
328.92	1695.72
329.13	1736.68
329.34	1753.06
329.55	1845.22
329.76	1722.34
329.98	1720.29
330.19	1796.07
330.40	1744.87
330.61	1640.42
330.83	1708.01
331.04	1642.47
331.25	1728.49
331.46	1705.96
331.68	1595.37
331.89	1681.38
332.10	1630.18
332.31	1640.42
332.52	1736.68
332.74	1734.63
332.95	1621.99
333.16	1695.72
333.37	1708.01
333.58	1691.62
333.80	1798.12
334.01	1638.38
334.22	1714.15
334.43	1703.91
334.64	1736.68
334.86	1632.23
335.07	1662.95
335.28	1812.45
335.49	1613.80
335.70	1728.49
335.92	1730.53
336.13	1814.50
336.34	1728.49
336.55	1718.25
336.76	1746.92
336.98	1630.18
337.19	1687.53
337.40	1730.53
337.61	1779.68
337.82	1665.00
338.04	1759.21
338.25	1658.85
338.46	1640.42
338.67	1699.81
338.88	1695.72
339.09	1648.61
339.31	1656.81
339.52	1714.15
339.73	1687.53
339.94	1665.00
340.15	1804.26
340.36	1660.90
340.58	1652.71
340.79	1630.18
341.00	1771.49
341.21	1691.62
341.42	1816.55
341.63	1710.05
341.85	1789.92
342.06	1753.06
342.27	1611.75
342.48	1716.20
342.69	1646.57
342.90	1638.38
343.12	1744.87
343.33	1714.15
343.54	1740.77
343.75	1722.34
343.96	1683.43
344.17	1665.00
344.38	1716.20
344.60	1640.42
344.81	1642.47
345.02	1619.94
345.23	1730.53
345.44	1736.68
345.65	1789.92
345.86	1738.73
346.07	1720.29
346.29	1642.47
346.50	1689.57
346.71	1757.16
346.92	1810.40
347.13	1828.84
347.34	1695.72
347.55	1726.44
347.76	1724.39
347.98	1638.38
348.19	1646.57
348.40	1789.92
348.61	1728.49
348.82	1869.80
349.03	1796.07
349.24	1681.38
349.45	1820.64
349.66	1595.37
349.88	1691.62
350.09	1615.85
350.30	1720.29
350.51	1791.97
350.72	1724.39
350.93	1720.29
351.14	1738.73
351.35	1677.29
351.56	1665.00
351.77	1703.91
351.99	1742.82
352.20	1736.68
352.41	1742.82
352.62	1640.42
352.83	1669.09
353.04	1658.85
353.25	1658.85
353.46	1765.35
353.67	1695.72
353.88	1617.90
354.09	1681.38
354.30	1708.01
354.52	1763.30
354.73	1716.20
354.94	1587.18
355.15	1705.96
355.36	1775.59
355.57	1681.38
355.78	1740.77
355.99	1630.18
356.20	1679.33
356.41	1800.16
356.62	1683.43
356.83	1662.95
357.04	1773.54
357.25	1560.55
357.46	1691.62
357.68	1617.90
357.89	1705.96
358.10	1697.77
358.31	1724.39
358.52	1701.86
358.73	1665.00
358.94	1640.42
359.15	1677.29
359.36	1742.82
359.57	1687.53
359.78	1689.57
359.99	1726.44
360.20	1617.90
360.41	1652.71
360.62	1699.81
360.83	1746.92
361.04	1757.16
361.25	1718.25
361.46	1755.11
361.67	1671.14
361.88	1689.57
362.09	1763.30
362.30	1736.68
362.51	1642.47
362.72	1724.39
362.93	1751.01
363.14	1726.44
363.35	1677.29
363.56	1677.29
363.78	1744.87
363.99	1771.49
364.20	1697.77
364.41	1734.63
364.62	1755.11
364.83	1722.34
365.04	1681.38
365.25	1722.34
365.46	1779.68
365.67	1681.38
365.88	1583.08
366.09	1730.53
366.30	1703.91
366.51	1683.43
366.72	1738.73
366.93	1681.38
367.14	1710.05
367.35	1845.22
367.56	1699.81
367.77	1740.77
367.98	1665.00
368.18	1757.16
368.39	1689.57
368.60	1611.75
368.81	1658.85
369.02	1683.43
369.23	1673.19
369.44	1632.23
369.65	1634.28
369.86	1705.96
370.07	1662.95
370.28	1568.74
370.49	1662.95
370.70	1718.25
370.91	1546.22
371.12	1665.00
371.33	1763.30
371.54	1691.62
371.75	1763.30
371.96	1595.37
372.17	1710.05
372.38	1667.05
372.59	1722.34
372.80	1689.57
373.01	1669.09
373.22	1681.38
373.43	1724.39
373.64	1560.55
373.85	1853.41
374.06	1853.41
374.26	1781.73
374.47	1691.62
374.68	1765.35
374.89	1665.00
375.10	1669.09
375.31	1763.30
375.52	1720.29
375.73	1751.01
375.94	1665.00
376.15	1732.58
376.36	1685.48
376.57	1632.23
376.78	1691.62
376.99	1769.44
377.20	1728.49
377.40	1640.42
377.61	1767.40
377.82	1634.28
378.03	1806.31
378.24	1765.35
378.45	1636.33
378.66	1720.29
378.87	1617.90
379.08	1699.81
379.29	1607.66
379.50	1806.31
379.71	1726.44
379.91	1771.49
380.12	1683.43
380.33	1699.81
380.54	1722.34
380.75	1632.23
380.96	1617.90
381.17	1751.01
381.38	1722.34
381.59	1775.59
381.80	1710.05
382.00	1845.22
382.21	1691.62
382.42	1798.12
382.63	1851.36
382.84	1791.97
383.05	1777.64
383.26	1742.82
383.47	1718.25
383.68	1683.43
383.88	1677.29
384.09	1763.30
384.30	1839.08
384.51	1726.44
384.72	1660.90
384.93	1621.99
385.14	1763.30
385.35	1767.40
385.55	1638.38
385.76	1751.01
385.97	1705.96
386.18	1648.61
386.39	1685.48
386.60	1677.29
386.81	1683.43
387.02	1740.77
387.22	1597.42
387.43	1814.50
387.64	1810.40
387.85	1865.70
388.06	2308.06
388.27	4353.98
388.48	6911.89
388.68	8331.14
388.89	9717.61
389.10	9801.58
389.31	8540.03
389.52	7634.83
389.73	6741.91
389.93	6371.23
390.14	5842.85
390.35	5332.91
390.56	4523.96
390.77	3827.65
390.98	3069.91
391.18	2543.58
391.39	2125.79
391.60	1855.46
391.81	1822.69
392.02	1691.62
392.23	1865.70
392.43	1685.48
392.64	1779.68
392.85	1759.21
393.06	1808.36
393.27	1712.10
393.47	1640.42
393.68	1656.81
393.89	1673.19
394.10	1777.64
394.31	1677.29
394.52	1603.56
394.72	1705.96
394.93	1777.64
395.14	1697.77
395.35	1775.59
395.56	1642.47
395.76	1720.29
395.97	1828.84
396.18	1851.36
396.39	1806.31
396.60	2031.58
396.80	1902.56
397.01	1853.41
397.22	1882.08
397.43	1853.41
397.64	1728.49
397.84	1736.68
398.05	1873.89
398.26	1714.15
398.47	1765.35
398.67	1824.74
398.88	1748.97
399.09	1693.67
399.30	1621.99
399.51	1783.78
399.71	1720.29
399.92	1679.33
400.13	1720.29
400.34	1662.95
400.54	1697.77
400.75	1796.07
400.96	1720.29
401.17	1822.69
401.37	1779.68
401.58	1701.86
401.79	1734.63
402.00	1873.89
402.21	2047.97
402.41	1898.47
402.62	2007.01
402.83	1959.91
403.04	2017.25
403.24	2099.17
403.45	1843.17
403.66	1857.51
403.87	1857.51
404.07	1894.37
404.28	1877.99
404.49	1841.12
404.70	1791.97
404.90	1726.44
405.11	1681.38
405.32	1783.78
405.52	1695.72
405.73	1712.10
405.94	1632.23
406.15	1646.57
406.35	1746.92
406.56	1740.77
406.77	1708.01
406.98	1740.77
407.18	1665.00
407.39	1822.69
407.60	1734.63
407.80	1714.15
408.01	1751.01
408.22	1701.86
408.43	1710.05
408.63	1769.44
408.84	1699.81
409.05	1712.10
409.25	1669.09
409.46	1628.14
409.67	1656.81
409.88	1683.43
410.08	1763.30
410.29	1730.53
410.50	1705.96
410.70	1714.15
410.91	1742.82
411.12	1738.73
411.32	1617.90
411.53	1656.81
411.74	1798.12
411.95	1800.16
412.15	1728.49
412.36	1738.73
412.57	1748.97
412.77	1738.73
412.98	1724.39
413.19	1675.24
413.39	1808.36
413.60	1746.92
413.81	1757.16
414.01	1611.75
414.22	1724.39
414.43	1714.15
414.63	1726.44
414.84	1814.50
415.05	1685.48
415.25	1626.09
415.46	1744.87
415.67	1697.77
415.87	1773.54
416.08	1744.87
416.29	1671.14
416.49	1693.67
416.70	1689.57
416.91	1611.75
417.11	1650.66
417.32	1705.96
417.53	1775.59
417.73	1712.10
417.94	1658.85
418.15	1681.38
418.35	1708.01
418.56	1724.39
418.77	1828.84
418.97	1662.95
419.18	1710.05
419.38	1578.98
419.59	1677.29
419.80	1767.40
420.00	1748.97
420.21	1728.49
420.42	1763.30
420.62	1765.35
420.83	1689.57
421.04	1572.84
421.24	1658.85
421.45	1791.97
421.65	1779.68
421.86	1691.62
422.07	1716.20
422.27	1648.61
422.48	1734.63
422.69	1615.85
422.89	1644.52
423.10	1705.96
423.30	1619.94
423.51	1718.25
423.72	1695.72
423.92	1658.85
424.13	1632.23
424.33	1732.58
424.54	1751.01
424.75	1798.12
424.95	1824.74
425.16	1767.40
425.36	1691.62
425.57	1652.71
425.78	1726.44
425.98	1796.07
426.19	1667.05
426.39	1658.85
426.60	1736.68
426.81	1724.39
427.01	1728.49
427.22	1632.23
427.42	1640.42
427.63	1599.46
427.83	1740.77
428.04	1818.60
428.25	1826.79
428.45	1732.58
428.66	1765.35
428.86	1728.49
429.07	1667.05
429.28	1665.00
429.48	1757.16
429.69	1761.25
429.89	1673.19
430.10	1720.29
430.30	1722.34
430.51	1726.44
430.71	1726.44
430.92	1738.73
431.13	1681.38
431.33	1783.78
431.54	1771.49
431.74	1816.55
431.95	1824.74
432.15	1697.77
432.36	1683.43
432.56	1718.25
432.77	1859.56
432.98	1773.54
433.18	1701.86
433.39	1675.24
433.59	1742.82
433.80	1757.16
434.00	1822.69
434.21	1658.85
434.41	1714.15
434.62	1789.92
434.82	1644.52
435.03	1613.80
435.23	1660.90
435.44	1603.56
435.64	1699.81
435.85	1748.97
436.06	1755.11
436.26	1681.38
436.47	1673.19
436.67	1662.95
436.88	1642.47
437.08	1767.40
437.29	1740.77
437.49	1703.91
437.70	1705.96
437.90	1681.38
438.11	1857.51
438.31	1794.02
438.52	1853.41
438.72	1853.41
438.93	1896.42
439.13	1753.06
439.34	1773.54
439.54	1722.34
439.75	1769.44
439.95	1810.40
440.16	1667.05
440.36	1722.34
440.57	1787.88
440.77	1810.40
440.98	1751.01
441.18	1802.21
441.39	1771.49
441.59	1718.25
441.80	1894.37
442.00	1783.78
442.21	1796.07
442.41	1681.38
442.62	1822.69
442.82	1738.73
443.02	1699.81
443.23	1765.35
443.43	1714.15
443.64	1794.02
443.84	1695.72
444.05	1671.14
444.25	1808.36
444.46	1660.90
444.66	1718.25
444.87	1845.22
445.07	1621.99
445.28	1671.14
445.48	1791.97
445.69	1751.01
445.89	1865.70
446.09	1742.82
446.30	2050.02
446.50	2705.37
446.71	3719.11
446.91	4315.07
447.12	4710.33
447.32	4849.59
447.53	4243.39
447.73	3870.66
447.93	3590.09
448.14	3323.85
448.34	3262.41
448.55	2893.78
448.75	2762.71
448.96	2680.79
449.16	2494.43
449.36	2248.67
449.57	2037.73
449.77	1949.67
449.98	1814.50
450.18	1849.32
450.39	1804.26
450.59	1742.82
450.79	1714.15
451.00	1689.57
451.20	1798.12
451.41	1722.34
451.61	1771.49
451.81	1662.95
452.02	1699.81
452.22	1845.22
452.43	1710.05
452.63	1630.18
