SpectraSuite Data File
++++++++++++++++++++++++++++++++++++
Date: Mon Jun 06 13:51:37 CEST 2016
User: root
Dark Spectrum Present: No
Reference Spectrum Present: No
Number of Sampled Component Spectra: 1
Spectrometers: USB4C02835
Integration Time (usec): 100000 (USB4C02835)
Spectra Averaged: 1 (USB4C02835)
Boxcar Smoothing: 0 (USB4C02835)
Correct for Electrical Dark: No (USB4C02835)
Strobe/Lamp Enabled: No (USB4C02835)
Correct for Detector Non-linearity: No (USB4C02835)
Correct for Stray Light: No (USB4C02835)
Number of Pixels in Processed Spectrum: 3648
>>>>>Begin Processed Spectral Data<<<<<
177.47	1507.30
177.69	1507.30
177.91	1507.30
178.13	1398.76
178.36	1447.91
178.58	1667.05
178.80	1687.53
179.02	1656.81
179.24	1636.33
179.46	1677.29
179.68	1746.92
179.90	1697.77
180.13	1734.63
180.35	1632.23
180.57	1708.01
180.79	1822.69
181.01	1683.43
181.23	1800.16
181.45	1708.01
181.67	1681.38
181.90	1720.29
182.12	1603.56
182.34	1628.14
182.56	1810.40
182.78	1783.78
183.00	1673.19
183.22	1751.01
183.44	1720.29
183.66	1863.65
183.89	1800.16
184.11	1681.38
184.33	1787.88
184.55	1705.96
184.77	1816.55
184.99	1644.52
185.21	1693.67
185.43	1839.08
185.65	1662.95
185.87	1728.49
186.10	1783.78
186.32	1839.08
186.54	1736.68
186.76	1767.40
186.98	1699.81
187.20	1642.47
187.42	1687.53
187.64	1685.48
187.86	1693.67
188.08	1724.39
188.30	1779.68
188.52	1773.54
188.75	1753.06
188.97	1718.25
189.19	1691.62
189.41	1660.90
189.63	1726.44
189.85	1662.95
190.07	1619.94
190.29	1720.29
190.51	1720.29
190.73	1630.18
190.95	1740.77
191.17	1787.88
191.39	1595.37
191.61	1673.19
191.84	1724.39
192.06	1656.81
192.28	1578.98
192.50	1828.84
192.72	1703.91
192.94	1781.73
193.16	1677.29
193.38	1785.83
193.60	1613.80
193.82	1630.18
194.04	1787.88
194.26	1691.62
194.48	1697.77
194.70	1658.85
194.92	1673.19
195.14	1716.20
195.36	1607.66
195.58	1703.91
195.80	1689.57
196.02	1632.23
196.24	1660.90
196.46	1734.63
196.69	1712.10
196.91	1826.79
197.13	1644.52
197.35	1601.51
197.57	1875.94
197.79	1728.49
198.01	1746.92
198.23	1763.30
198.45	1755.11
198.67	1656.81
198.89	1665.00
199.11	1726.44
199.33	1615.85
199.55	1556.46
199.77	1714.15
199.99	1757.16
200.21	1665.00
200.43	1656.81
200.65	1648.61
200.87	1566.70
201.09	1681.38
201.31	1705.96
201.53	1724.39
201.75	1789.92
201.97	1687.53
202.19	1656.81
202.41	1695.72
202.63	1804.26
202.85	1740.77
203.07	1755.11
203.29	1660.90
203.51	1740.77
203.73	1599.46
203.95	1794.02
204.17	1757.16
204.39	1710.05
204.61	1695.72
204.83	1814.50
205.05	1720.29
205.27	1773.54
205.49	1777.64
205.71	1658.85
205.93	1572.84
206.15	1652.71
206.37	1697.77
206.59	1689.57
206.81	1654.76
207.03	1697.77
207.25	1638.38
207.47	1755.11
207.69	1607.66
207.91	1757.16
208.13	1734.63
208.34	1730.53
208.56	1689.57
208.78	1732.58
209.00	1615.85
209.22	1662.95
209.44	1726.44
209.66	1667.05
209.88	1669.09
210.10	1677.29
210.32	1736.68
210.54	1726.44
210.76	1687.53
210.98	1757.16
211.20	1550.31
211.42	1673.19
211.64	1738.73
211.86	1699.81
212.08	1714.15
212.30	1712.10
212.52	1656.81
212.74	1699.81
212.96	1687.53
213.17	1691.62
213.39	1771.49
213.61	1771.49
213.83	1755.11
214.05	1624.04
214.27	1806.31
214.49	1658.85
214.71	1665.00
214.93	1789.92
215.15	1660.90
215.37	1701.86
215.59	1621.99
215.81	1695.72
216.03	1763.30
216.24	1712.10
216.46	1613.80
216.68	1699.81
216.90	1777.64
217.12	1767.40
217.34	1669.09
217.56	1769.44
217.78	1740.77
218.00	1693.67
218.22	1648.61
218.44	1734.63
218.66	1693.67
218.87	1765.35
219.09	1636.33
219.31	1714.15
219.53	1626.09
219.75	1771.49
219.97	1665.00
220.19	1701.86
220.41	1714.15
220.63	1800.16
220.85	1759.21
221.06	1626.09
221.28	1832.93
221.50	1730.53
221.72	1693.67
221.94	1660.90
222.16	1691.62
222.38	1759.21
222.60	1693.67
222.82	1611.75
223.03	1765.35
223.25	1658.85
223.47	1804.26
223.69	1816.55
223.91	1718.25
224.13	1703.91
224.35	1759.21
224.57	1683.43
224.78	1744.87
225.00	1624.04
225.22	1632.23
225.44	1693.67
225.66	1742.82
225.88	1667.05
226.10	1765.35
226.32	1656.81
226.53	1755.11
226.75	1716.20
226.97	1628.14
227.19	1726.44
227.41	1685.48
227.63	1667.05
227.85	1626.09
228.06	1703.91
228.28	1720.29
228.50	1785.83
228.72	1583.08
228.94	1656.81
229.16	1636.33
229.37	1650.66
229.59	1603.56
229.81	1712.10
230.03	1624.04
230.25	1644.52
230.47	1613.80
230.69	1675.24
230.90	1755.11
231.12	1658.85
231.34	1693.67
231.56	1726.44
231.78	1675.24
232.00	1685.48
232.21	1720.29
232.43	1636.33
232.65	1669.09
232.87	1722.34
233.09	1652.71
233.30	1662.95
233.52	1720.29
233.74	1665.00
233.96	1742.82
234.18	1771.49
234.40	1699.81
234.61	1837.03
234.83	1597.42
235.05	1634.28
235.27	1804.26
235.49	1738.73
235.70	1691.62
235.92	1771.49
236.14	1718.25
236.36	1791.97
236.58	1640.42
236.79	1755.11
237.01	1654.76
237.23	1665.00
237.45	1816.55
237.67	1624.04
237.88	1705.96
238.10	1814.50
238.32	1716.20
238.54	1636.33
238.76	1753.06
238.97	1632.23
239.19	1701.86
239.41	1802.21
239.63	1708.01
239.85	1636.33
240.06	1712.10
240.28	1677.29
240.50	1734.63
240.72	1697.77
240.93	1667.05
241.15	1732.58
241.37	1630.18
241.59	1775.59
241.81	1671.14
242.02	1642.47
242.24	1673.19
242.46	1740.77
242.68	1697.77
242.89	1759.21
243.11	1742.82
243.33	1648.61
243.55	1734.63
243.76	1753.06
243.98	1685.48
244.20	1728.49
244.42	1708.01
244.64	1736.68
244.85	1654.76
245.07	1675.24
245.29	1726.44
245.51	1658.85
245.72	1683.43
245.94	1683.43
246.16	1662.95
246.38	1808.36
246.59	1722.34
246.81	1712.10
247.03	1636.33
247.24	1669.09
247.46	1652.71
247.68	1650.66
247.90	1691.62
248.11	1662.95
248.33	1742.82
248.55	1689.57
248.77	1708.01
248.98	1794.02
249.20	1818.60
249.42	1718.25
249.64	1742.82
249.85	1718.25
250.07	1615.85
250.29	1761.25
250.50	1693.67
250.72	1640.42
250.94	1730.53
251.16	1787.88
251.37	1665.00
251.59	1765.35
251.81	1646.57
252.02	1787.88
252.24	1656.81
252.46	1722.34
252.68	1634.28
252.89	1640.42
253.11	1632.23
253.33	1765.35
253.54	1716.20
253.76	1687.53
253.98	1720.29
254.20	1689.57
254.41	1624.04
254.63	1683.43
254.85	1636.33
255.06	1744.87
255.28	1679.33
255.50	1642.47
255.71	1660.90
255.93	1703.91
256.15	1693.67
256.36	1828.84
256.58	1681.38
256.80	1673.19
257.02	1734.63
257.23	1650.66
257.45	1730.53
257.67	1763.30
257.88	1732.58
258.10	1667.05
258.32	1730.53
258.53	1753.06
258.75	1742.82
258.97	1697.77
259.18	1740.77
259.40	1683.43
259.62	1865.70
259.83	1720.29
260.05	1794.02
260.27	1976.29
260.48	1789.92
260.70	1685.48
260.92	1689.57
261.13	1667.05
261.35	1705.96
261.57	1716.20
261.78	1626.09
262.00	1681.38
262.22	1710.05
262.43	1716.20
262.65	1718.25
262.86	1701.86
263.08	1927.14
263.30	1787.88
263.51	1593.32
263.73	1601.51
263.95	1775.59
264.16	1701.86
264.38	1656.81
264.60	1732.58
264.81	1642.47
265.03	1740.77
265.25	1720.29
265.46	1660.90
265.68	1755.11
265.89	1816.55
266.11	1644.52
266.33	1722.34
266.54	1748.97
266.76	1681.38
266.98	1705.96
267.19	1839.08
267.41	1685.48
267.62	1679.33
267.84	1644.52
268.06	1722.34
268.27	1724.39
268.49	1730.53
268.70	1738.73
268.92	1691.62
269.14	1671.14
269.35	1658.85
269.57	1646.57
269.79	1720.29
270.00	1669.09
270.22	1832.93
270.43	1687.53
270.65	1615.85
270.87	1738.73
271.08	1816.55
271.30	1757.16
271.51	1656.81
271.73	1755.11
271.95	1763.30
272.16	1660.90
272.38	1652.71
272.59	1675.24
272.81	1759.21
273.02	1636.33
273.24	1767.40
273.46	1746.92
273.67	1667.05
273.89	1689.57
274.10	1699.81
274.32	1697.77
274.54	1710.05
274.75	1673.19
274.97	1644.52
275.18	1695.72
275.40	1738.73
275.61	1697.77
275.83	1742.82
276.05	1699.81
276.26	1710.05
276.48	1740.77
276.69	1656.81
276.91	1671.14
277.12	1771.49
277.34	1746.92
277.55	1722.34
277.77	1677.29
277.99	1685.48
278.20	1669.09
278.42	1675.24
278.63	1656.81
278.85	1626.09
279.06	1583.08
279.28	1726.44
279.49	1716.20
279.71	1798.12
279.93	1726.44
280.14	1685.48
280.36	1648.61
280.57	1746.92
280.79	1695.72
281.00	1615.85
281.22	1642.47
281.43	1761.25
281.65	1658.85
281.86	1679.33
282.08	1726.44
282.29	1791.97
282.51	1693.67
282.73	1691.62
282.94	1517.54
283.16	1716.20
283.37	1767.40
283.59	1665.00
283.80	1742.82
284.02	1724.39
284.23	1718.25
284.45	1660.90
284.66	1607.66
284.88	1603.56
285.09	1667.05
285.31	1718.25
285.52	1642.47
285.74	1615.85
285.95	1722.34
286.17	1773.54
286.38	1783.78
286.60	1691.62
286.81	1691.62
287.03	1595.37
287.24	1638.38
287.46	1703.91
287.67	1667.05
287.89	1791.97
288.10	1628.14
288.32	1761.25
288.53	1767.40
288.75	1681.38
288.96	1734.63
289.18	1740.77
289.39	1775.59
289.61	1744.87
289.82	1767.40
290.04	1787.88
290.25	1669.09
290.47	1722.34
290.68	1648.61
290.90	1822.69
291.11	1648.61
291.33	1742.82
291.54	1634.28
291.76	1701.86
291.97	1769.44
292.18	1773.54
292.40	1646.57
292.61	1697.77
292.83	1783.78
293.04	1714.15
293.26	1734.63
293.47	1628.14
293.69	1658.85
293.90	1679.33
294.12	1753.06
294.33	1705.96
294.55	1681.38
294.76	1779.68
294.97	1753.06
295.19	1832.93
295.40	1626.09
295.62	1619.94
295.83	1791.97
296.05	1632.23
296.26	1753.06
296.48	1626.09
296.69	1650.66
296.90	1726.44
297.12	1632.23
297.33	1710.05
297.55	1703.91
297.76	1714.15
297.98	1734.63
298.19	1751.01
298.41	1738.73
298.62	1652.71
298.83	1888.23
299.05	1699.81
299.26	1630.18
299.48	1673.19
299.69	1708.01
299.90	1697.77
300.12	1601.51
300.33	1730.53
300.55	1656.81
300.76	1775.59
300.98	1619.94
301.19	1724.39
301.40	1669.09
301.62	1667.05
301.83	1765.35
302.05	1728.49
302.26	1669.09
302.47	1693.67
302.69	1669.09
302.90	1726.44
303.12	1605.61
303.33	1755.11
303.54	1810.40
303.76	1681.38
303.97	1726.44
304.19	1787.88
304.40	1603.56
304.61	1714.15
304.83	1822.69
305.04	1746.92
305.26	1720.29
305.47	1634.28
305.68	1734.63
305.90	1632.23
306.11	1738.73
306.33	1705.96
306.54	1662.95
306.75	1640.42
306.97	1621.99
307.18	1689.57
307.39	1675.24
307.61	1806.31
307.82	1669.09
308.04	1734.63
308.25	1654.76
308.46	1755.11
308.68	1652.71
308.89	1724.39
309.10	1740.77
309.32	1669.09
309.53	1693.67
309.74	1681.38
309.96	1624.04
310.17	1755.11
310.39	1648.61
310.60	1691.62
310.81	1718.25
311.03	1660.90
311.24	1665.00
311.45	1722.34
311.67	1787.88
311.88	1724.39
312.09	1687.53
312.31	1615.85
312.52	1677.29
312.73	1589.22
312.95	1679.33
313.16	1677.29
313.37	1757.16
313.59	1695.72
313.80	1669.09
314.01	1773.54
314.23	1599.46
314.44	1677.29
314.65	1660.90
314.87	1599.46
315.08	1640.42
315.29	1691.62
315.51	1665.00
315.72	1619.94
315.93	1755.11
316.15	1736.68
316.36	1677.29
316.57	1712.10
316.79	1746.92
317.00	1665.00
317.21	1683.43
317.43	1675.24
317.64	1753.06
317.85	1697.77
318.07	1638.38
318.28	1761.25
318.49	1824.74
318.70	1816.55
318.92	1785.83
319.13	1771.49
319.34	1855.46
319.56	1781.73
319.77	1812.45
319.98	1718.25
320.20	1779.68
320.41	1689.57
320.62	1734.63
320.83	1722.34
321.05	1875.94
321.26	1769.44
321.47	1710.05
321.69	1802.21
321.90	1679.33
322.11	1681.38
322.32	1662.95
322.54	1804.26
322.75	1679.33
322.96	1810.40
323.18	1699.81
323.39	1658.85
323.60	1656.81
323.81	1742.82
324.03	1726.44
324.24	1685.48
324.45	1648.61
324.66	1656.81
324.88	1630.18
325.09	1857.51
325.30	1687.53
325.52	1718.25
325.73	1751.01
325.94	1650.66
326.15	1626.09
326.37	1722.34
326.58	1789.92
326.79	1787.88
327.00	1611.75
327.22	1728.49
327.43	1708.01
327.64	1611.75
327.85	1644.52
328.07	1730.53
328.28	1777.64
328.49	1611.75
328.70	1695.72
328.92	1665.00
329.13	1730.53
329.34	1701.86
329.55	1816.55
329.76	1728.49
329.98	1624.04
330.19	1783.78
330.40	1810.40
330.61	1685.48
330.83	1705.96
331.04	1634.28
331.25	1718.25
331.46	1685.48
331.68	1646.57
331.89	1697.77
332.10	1683.43
332.31	1615.85
332.52	1669.09
332.74	1703.91
332.95	1607.66
333.16	1677.29
333.37	1705.96
333.58	1619.94
333.80	1673.19
334.01	1662.95
334.22	1693.67
334.43	1574.89
334.64	1646.57
334.86	1611.75
335.07	1718.25
335.28	1736.68
335.49	1621.99
335.70	1751.01
335.92	1738.73
336.13	1734.63
336.34	1753.06
336.55	1710.05
336.76	1628.14
336.98	1601.51
337.19	1720.29
337.40	1767.40
337.61	1787.88
337.82	1634.28
338.04	1708.01
338.25	1607.66
338.46	1703.91
338.67	1603.56
338.88	1738.73
339.09	1609.70
339.31	1685.48
339.52	1609.70
339.73	1640.42
339.94	1697.77
340.15	1751.01
340.36	1636.33
340.58	1718.25
340.79	1626.09
341.00	1730.53
341.21	1599.46
341.42	1851.36
341.63	1738.73
341.85	1791.97
342.06	1730.53
342.27	1660.90
342.48	1769.44
342.69	1632.23
342.90	1800.16
343.12	1728.49
343.33	1650.66
343.54	1755.11
343.75	1746.92
343.96	1740.77
344.17	1581.03
344.38	1695.72
344.60	1660.90
344.81	1679.33
345.02	1689.57
345.23	1785.83
345.44	1771.49
345.65	1761.25
345.86	1738.73
346.07	1720.29
346.29	1665.00
346.50	1730.53
346.71	1687.53
346.92	1755.11
347.13	1800.16
347.34	1636.33
347.55	1689.57
347.76	1660.90
347.98	1619.94
348.19	1685.48
348.40	1744.87
348.61	1581.03
348.82	1742.82
349.03	1755.11
349.24	1595.37
349.45	1832.93
349.66	1642.47
349.88	1624.04
350.09	1671.14
350.30	1816.55
350.51	1748.97
350.72	1693.67
350.93	1728.49
351.14	1748.97
351.35	1724.39
351.56	1695.72
351.77	1796.07
351.99	1744.87
352.20	1816.55
352.41	1789.92
352.62	1585.13
352.83	1703.91
353.04	1720.29
353.25	1714.15
353.46	1791.97
353.67	1722.34
353.88	1572.84
354.09	1722.34
354.30	1646.57
354.52	1730.53
354.73	1742.82
354.94	1734.63
355.15	1722.34
355.36	1781.73
355.57	1652.71
355.78	1724.39
355.99	1705.96
356.20	1701.86
356.41	1761.25
356.62	1771.49
356.83	1722.34
357.04	1746.92
357.25	1609.70
357.46	1703.91
357.68	1646.57
357.89	1691.62
358.10	1699.81
358.31	1751.01
358.52	1671.14
358.73	1673.19
358.94	1679.33
359.15	1654.76
359.36	1732.58
359.57	1714.15
359.78	1708.01
359.99	1699.81
360.20	1665.00
360.41	1718.25
360.62	1726.44
360.83	1705.96
361.04	1712.10
361.25	1646.57
361.46	1806.31
361.67	1677.29
361.88	1757.16
362.09	1808.36
362.30	1751.01
362.51	1705.96
362.72	1693.67
362.93	1818.60
363.14	1843.17
363.35	1742.82
363.56	1646.57
363.78	1794.02
363.99	1783.78
364.20	1658.85
364.41	1755.11
364.62	1824.74
364.83	1693.67
365.04	1724.39
365.25	1679.33
365.46	1865.70
365.67	1679.33
365.88	1644.52
366.09	1624.04
366.30	1720.29
366.51	1775.59
366.72	1675.24
366.93	1685.48
367.14	1705.96
367.35	1779.68
367.56	1746.92
367.77	1798.12
367.98	1681.38
368.18	1769.44
368.39	1724.39
368.60	1708.01
368.81	1716.20
369.02	1701.86
369.23	1740.77
369.44	1671.14
369.65	1685.48
369.86	1722.34
370.07	1714.15
370.28	1560.55
370.49	1744.87
370.70	1697.77
370.91	1675.24
371.12	1603.56
371.33	1714.15
371.54	1695.72
371.75	1820.64
371.96	1603.56
372.17	1716.20
372.38	1757.16
372.59	1705.96
372.80	1726.44
373.01	1740.77
373.22	1665.00
373.43	1714.15
373.64	1640.42
373.85	1802.21
374.06	1708.01
374.26	1785.83
374.47	1654.76
374.68	1730.53
374.89	1757.16
375.10	1708.01
375.31	1822.69
375.52	1701.86
375.73	1683.43
375.94	1658.85
376.15	1746.92
376.36	1644.52
376.57	1714.15
376.78	1765.35
376.99	1705.96
377.20	1751.01
377.40	1742.82
377.61	1814.50
377.82	1652.71
378.03	1812.45
378.24	1677.29
378.45	1671.14
378.66	1787.88
378.87	1550.31
379.08	1603.56
379.29	1712.10
379.50	1841.12
379.71	1708.01
379.91	1732.58
380.12	1648.61
380.33	1705.96
380.54	1705.96
380.75	1732.58
380.96	1626.09
381.17	1802.21
381.38	1742.82
381.59	1763.30
381.80	1740.77
382.00	1892.32
382.21	1734.63
382.42	1777.64
382.63	1861.60
382.84	1765.35
383.05	1859.56
383.26	1802.21
383.47	1669.09
383.68	1777.64
383.88	1699.81
384.09	1652.71
384.30	1816.55
384.51	1744.87
384.72	1638.38
384.93	1605.61
385.14	1658.85
385.35	1804.26
385.55	1667.05
385.76	1800.16
385.97	1771.49
386.18	1603.56
386.39	1695.72
386.60	1742.82
386.81	1689.57
387.02	1693.67
387.22	1621.99
387.43	1746.92
387.64	1773.54
387.85	1871.84
388.06	2242.53
388.27	4278.21
388.48	6784.92
388.68	8337.28
388.89	9564.01
389.10	9785.19
389.31	8525.69
389.52	7489.42
389.73	6584.22
389.93	6375.33
390.14	5896.10
390.35	5160.88
390.56	4548.54
390.77	3794.89
390.98	3043.28
391.18	2512.86
391.39	2158.56
391.60	1794.02
391.81	1841.12
392.02	1722.34
392.23	1873.89
392.43	1759.21
392.64	1734.63
392.85	1673.19
393.06	1826.79
393.27	1773.54
393.47	1714.15
393.68	1757.16
393.89	1660.90
394.10	1828.84
394.31	1755.11
394.52	1689.57
394.72	1720.29
394.93	1796.07
395.14	1712.10
395.35	1726.44
395.56	1603.56
395.76	1722.34
395.97	1759.21
396.18	1865.70
396.39	1865.70
396.60	2074.59
396.80	1849.32
397.01	1816.55
397.22	1820.64
397.43	1800.16
397.64	1732.58
397.84	1775.59
398.05	1902.56
398.26	1814.50
398.47	1779.68
398.67	1722.34
398.88	1701.86
399.09	1730.53
399.30	1755.11
399.51	1794.02
399.71	1652.71
399.92	1675.24
400.13	1718.25
400.34	1677.29
400.54	1712.10
400.75	1816.55
400.96	1714.15
401.17	1839.08
401.37	1722.34
401.58	1724.39
401.79	1710.05
402.00	1910.75
402.21	2035.68
402.41	1976.29
402.62	1982.43
402.83	2025.44
403.04	1910.75
403.24	2123.74
403.45	1886.18
403.66	1837.03
403.87	1857.51
404.07	1865.70
404.28	1957.86
404.49	1837.03
404.70	1761.25
404.90	1832.93
405.11	1701.86
405.32	1755.11
405.52	1638.38
405.73	1718.25
405.94	1619.94
406.15	1656.81
406.35	1734.63
406.56	1746.92
406.77	1724.39
406.98	1746.92
407.18	1662.95
407.39	1818.60
407.60	1681.38
407.80	1640.42
408.01	1656.81
408.22	1757.16
408.43	1609.70
408.63	1789.92
408.84	1753.06
409.05	1669.09
409.25	1650.66
409.46	1685.48
409.67	1583.08
409.88	1658.85
410.08	1689.57
410.29	1662.95
410.50	1716.20
410.70	1710.05
410.91	1609.70
411.12	1746.92
411.32	1675.24
411.53	1640.42
411.74	1781.73
411.95	1820.64
412.15	1740.77
412.36	1767.40
412.57	1763.30
412.77	1818.60
412.98	1820.64
413.19	1701.86
413.39	1724.39
413.60	1816.55
413.81	1804.26
414.01	1683.43
414.22	1757.16
414.43	1738.73
414.63	1658.85
414.84	1761.25
415.05	1730.53
415.25	1685.48
415.46	1783.78
415.67	1673.19
415.87	1703.91
416.08	1691.62
416.29	1656.81
416.49	1714.15
416.70	1722.34
416.91	1708.01
417.11	1693.67
417.32	1726.44
417.53	1748.97
417.73	1724.39
417.94	1689.57
418.15	1773.54
418.35	1669.09
418.56	1710.05
418.77	1802.21
418.97	1656.81
419.18	1656.81
419.38	1583.08
419.59	1755.11
419.80	1687.53
420.00	1615.85
420.21	1742.82
420.42	1767.40
420.62	1714.15
420.83	1683.43
421.04	1679.33
421.24	1685.48
421.45	1736.68
421.65	1755.11
421.86	1642.47
422.07	1839.08
422.27	1755.11
422.48	1689.57
422.69	1589.22
422.89	1738.73
423.10	1705.96
423.30	1558.50
423.51	1654.76
423.72	1708.01
423.92	1738.73
424.13	1624.04
424.33	1710.05
424.54	1689.57
424.75	1724.39
424.95	1808.36
425.16	1697.77
425.36	1710.05
425.57	1697.77
425.78	1724.39
425.98	1771.49
426.19	1679.33
426.39	1626.09
426.60	1628.14
426.81	1804.26
427.01	1683.43
427.22	1595.37
427.42	1603.56
427.63	1628.14
427.83	1787.88
428.04	1732.58
428.25	1800.16
428.45	1802.21
428.66	1804.26
428.86	1732.58
429.07	1697.77
429.28	1689.57
429.48	1669.09
429.69	1699.81
429.89	1699.81
430.10	1626.09
430.30	1697.77
430.51	1708.01
430.71	1662.95
430.92	1744.87
431.13	1732.58
431.33	1765.35
431.54	1710.05
431.74	1773.54
431.95	1785.83
432.15	1658.85
432.36	1740.77
432.56	1783.78
432.77	1892.32
432.98	1796.07
433.18	1708.01
433.39	1744.87
433.59	1638.38
433.80	1732.58
434.00	1830.88
434.21	1693.67
434.41	1671.14
434.62	1814.50
434.82	1673.19
435.03	1648.61
435.23	1761.25
435.44	1691.62
435.64	1722.34
435.85	1714.15
436.06	1818.60
436.26	1751.01
436.47	1677.29
436.67	1705.96
436.88	1689.57
437.08	1748.97
437.29	1816.55
437.49	1722.34
437.70	1705.96
437.90	1779.68
438.11	1808.36
438.31	1828.84
438.52	1847.27
438.72	1904.61
438.93	1826.79
439.13	1722.34
439.34	1738.73
439.54	1789.92
439.75	1814.50
439.95	1808.36
440.16	1654.76
440.36	1798.12
440.57	1734.63
440.77	1732.58
440.98	1712.10
441.18	1720.29
441.39	1671.14
441.59	1634.28
441.80	1865.70
442.00	1783.78
442.21	1798.12
442.41	1675.24
442.62	1732.58
442.82	1675.24
443.02	1796.07
443.23	1771.49
443.43	1613.80
443.64	1804.26
443.84	1708.01
444.05	1832.93
444.25	1714.15
444.46	1644.52
444.66	1773.54
444.87	1714.15
445.07	1705.96
445.28	1705.96
445.48	1804.26
445.69	1763.30
445.89	1898.47
446.09	1763.30
446.30	2004.96
446.50	2639.83
446.71	3733.45
446.91	4313.02
447.12	4855.73
447.32	4761.53
447.53	4296.64
447.73	3721.16
447.93	3485.64
448.14	3143.63
448.34	3164.11
448.55	2871.25
448.75	2967.51
448.96	2731.99
449.16	2482.14
449.36	2246.62
449.57	2103.26
449.77	1925.09
449.98	1800.16
450.18	1789.92
450.39	1869.80
450.59	1779.68
450.79	1761.25
451.00	1660.90
451.20	1814.50
451.41	1781.73
451.61	1730.53
451.81	1718.25
452.02	1712.10
452.22	1677.29
452.43	1744.87
452.63	1748.97
