SpectraSuite Data File
++++++++++++++++++++++++++++++++++++
Date: Mon Jun 06 12:40:37 CEST 2016
User: root
Dark Spectrum Present: No
Reference Spectrum Present: No
Number of Sampled Component Spectra: 1
Spectrometers: USB4C02835
Integration Time (usec): 100000 (USB4C02835)
Spectra Averaged: 1 (USB4C02835)
Boxcar Smoothing: 0 (USB4C02835)
Correct for Electrical Dark: No (USB4C02835)
Strobe/Lamp Enabled: No (USB4C02835)
Correct for Detector Non-linearity: No (USB4C02835)
Correct for Stray Light: No (USB4C02835)
Number of Pixels in Processed Spectrum: 3648
>>>>>Begin Processed Spectral Data<<<<<
177.47	1492.97
177.69	1492.97
177.91	1492.97
178.13	1478.63
178.36	1464.30
178.58	1576.94
178.80	1660.90
179.02	1615.85
179.24	1624.04
179.46	1660.90
179.68	1748.97
179.90	1628.14
180.13	1769.44
180.35	1632.23
180.57	1662.95
180.79	1710.05
181.01	1699.81
181.23	1845.22
181.45	1777.64
181.67	1712.10
181.90	1779.68
182.12	1638.38
182.34	1636.33
182.56	1708.01
182.78	1722.34
183.00	1716.20
183.22	1683.43
183.44	1583.08
183.66	1820.64
183.89	1791.97
184.11	1693.67
184.33	1630.18
184.55	1730.53
184.77	1716.20
184.99	1746.92
185.21	1746.92
185.43	1798.12
185.65	1658.85
185.87	1740.77
186.10	1814.50
186.32	1882.08
186.54	1791.97
186.76	1701.86
186.98	1732.58
187.20	1701.86
187.42	1652.71
187.64	1697.77
187.86	1751.01
188.08	1718.25
188.30	1677.29
188.52	1693.67
188.75	1798.12
188.97	1789.92
189.19	1644.52
189.41	1701.86
189.63	1718.25
189.85	1693.67
190.07	1609.70
190.29	1652.71
190.51	1714.15
190.73	1632.23
190.95	1759.21
191.17	1669.09
191.39	1667.05
191.61	1685.48
191.84	1638.38
192.06	1693.67
192.28	1585.13
192.50	1820.64
192.72	1773.54
192.94	1736.68
193.16	1810.40
193.38	1675.24
193.60	1689.57
193.82	1646.57
194.04	1763.30
194.26	1675.24
194.48	1683.43
194.70	1779.68
194.92	1683.43
195.14	1705.96
195.36	1665.00
195.58	1740.77
195.80	1691.62
196.02	1679.33
196.24	1615.85
196.46	1665.00
196.69	1665.00
196.91	1818.60
197.13	1675.24
197.35	1648.61
197.57	1808.36
197.79	1687.53
198.01	1681.38
198.23	1742.82
198.45	1648.61
198.67	1701.86
198.89	1687.53
199.11	1773.54
199.33	1658.85
199.55	1644.52
199.77	1662.95
199.99	1701.86
200.21	1769.44
200.43	1757.16
200.65	1613.80
200.87	1613.80
201.09	1673.19
201.31	1697.77
201.53	1748.97
201.75	1800.16
201.97	1759.21
202.19	1718.25
202.41	1728.49
202.63	1873.89
202.85	1701.86
203.07	1646.57
203.29	1708.01
203.51	1621.99
203.73	1621.99
203.95	1828.84
204.17	1669.09
204.39	1720.29
204.61	1722.34
204.83	1611.75
205.05	1699.81
205.27	1742.82
205.49	1791.97
205.71	1744.87
205.93	1656.81
206.15	1658.85
206.37	1710.05
206.59	1681.38
206.81	1660.90
207.03	1638.38
207.25	1667.05
207.47	1767.40
207.69	1744.87
207.91	1775.59
208.13	1832.93
208.34	1740.77
208.56	1619.94
208.78	1644.52
209.00	1644.52
209.22	1708.01
209.44	1736.68
209.66	1652.71
209.88	1644.52
210.10	1669.09
210.32	1703.91
210.54	1783.78
210.76	1689.57
210.98	1736.68
211.20	1597.42
211.42	1667.05
211.64	1773.54
211.86	1738.73
212.08	1726.44
212.30	1693.67
212.52	1681.38
212.74	1718.25
212.96	1699.81
213.17	1701.86
213.39	1722.34
213.61	1769.44
213.83	1732.58
214.05	1658.85
214.27	1746.92
214.49	1634.28
214.71	1650.66
214.93	1804.26
215.15	1687.53
215.37	1751.01
215.59	1621.99
215.81	1767.40
216.03	1781.73
216.24	1736.68
216.46	1689.57
216.68	1677.29
216.90	1763.30
217.12	1728.49
217.34	1665.00
217.56	1699.81
217.78	1708.01
218.00	1701.86
218.22	1730.53
218.44	1673.19
218.66	1646.57
218.87	1845.22
219.09	1697.77
219.31	1662.95
219.53	1662.95
219.75	1656.81
219.97	1681.38
220.19	1697.77
220.41	1695.72
220.63	1832.93
220.85	1718.25
221.06	1632.23
221.28	1763.30
221.50	1748.97
221.72	1724.39
221.94	1699.81
222.16	1673.19
222.38	1703.91
222.60	1677.29
222.82	1671.14
223.03	1744.87
223.25	1630.18
223.47	1753.06
223.69	1767.40
223.91	1677.29
224.13	1675.24
224.35	1646.57
224.57	1732.58
224.78	1636.33
225.00	1656.81
225.22	1730.53
225.44	1642.47
225.66	1726.44
225.88	1673.19
226.10	1794.02
226.32	1681.38
226.53	1748.97
226.75	1624.04
226.97	1658.85
227.19	1714.15
227.41	1681.38
227.63	1667.05
227.85	1566.70
228.06	1771.49
228.28	1734.63
228.50	1724.39
228.72	1640.42
228.94	1687.53
229.16	1609.70
229.37	1708.01
229.59	1724.39
229.81	1798.12
230.03	1685.48
230.25	1601.51
230.47	1576.94
230.69	1640.42
230.90	1691.62
231.12	1751.01
231.34	1703.91
231.56	1796.07
231.78	1705.96
232.00	1710.05
232.21	1728.49
232.43	1658.85
232.65	1605.61
232.87	1738.73
233.09	1642.47
233.30	1593.32
233.52	1781.73
233.74	1677.29
233.96	1634.28
234.18	1689.57
234.40	1748.97
234.61	1738.73
234.83	1621.99
235.05	1626.09
235.27	1875.94
235.49	1693.67
235.70	1636.33
235.92	1753.06
236.14	1740.77
236.36	1830.88
236.58	1656.81
236.79	1757.16
237.01	1701.86
237.23	1773.54
237.45	1779.68
237.67	1665.00
237.88	1720.29
238.10	1787.88
238.32	1669.09
238.54	1716.20
238.76	1677.29
238.97	1558.50
239.19	1650.66
239.41	1787.88
239.63	1783.78
239.85	1732.58
240.06	1708.01
240.28	1724.39
240.50	1787.88
240.72	1691.62
240.93	1753.06
241.15	1714.15
241.37	1648.61
241.59	1701.86
241.81	1734.63
242.02	1732.58
242.24	1738.73
242.46	1804.26
242.68	1626.09
242.89	1669.09
243.11	1746.92
243.33	1718.25
243.55	1736.68
243.76	1722.34
243.98	1640.42
244.20	1710.05
244.42	1718.25
244.64	1703.91
244.85	1640.42
245.07	1665.00
245.29	1724.39
245.51	1626.09
245.72	1705.96
245.94	1775.59
246.16	1685.48
246.38	1767.40
246.59	1599.46
246.81	1632.23
247.03	1722.34
247.24	1613.80
247.46	1718.25
247.68	1732.58
247.90	1728.49
248.11	1658.85
248.33	1710.05
248.55	1724.39
248.77	1689.57
248.98	1712.10
249.20	1722.34
249.42	1708.01
249.64	1740.77
249.85	1677.29
250.07	1609.70
250.29	1689.57
250.50	1763.30
250.72	1656.81
250.94	1742.82
251.16	1863.65
251.37	1769.44
251.59	1755.11
251.81	1712.10
252.02	1716.20
252.24	1644.52
252.46	1812.45
252.68	1701.86
252.89	1677.29
253.11	1605.61
253.33	1834.98
253.54	1783.78
253.76	1599.46
253.98	1658.85
254.20	1763.30
254.41	1691.62
254.63	1603.56
254.85	1595.37
255.06	1646.57
255.28	1689.57
255.50	1699.81
255.71	1671.14
255.93	1646.57
256.15	1689.57
256.36	1705.96
256.58	1697.77
256.80	1724.39
257.02	1710.05
257.23	1677.29
257.45	1697.77
257.67	1710.05
257.88	1624.04
258.10	1732.58
258.32	1613.80
258.53	1617.90
258.75	1806.31
258.97	1671.14
259.18	1736.68
259.40	1738.73
259.62	1822.69
259.83	1652.71
260.05	1683.43
260.27	1923.04
260.48	1751.01
260.70	1642.47
260.92	1628.14
261.13	1671.14
261.35	1740.77
261.57	1832.93
261.78	1656.81
262.00	1693.67
262.22	1781.73
262.43	1642.47
262.65	1660.90
262.86	1679.33
263.08	1701.86
263.30	1691.62
263.51	1581.03
263.73	1632.23
263.95	1773.54
264.16	1593.32
264.38	1601.51
264.60	1728.49
264.81	1722.34
265.03	1730.53
265.25	1812.45
265.46	1624.04
265.68	1740.77
265.89	1734.63
266.11	1599.46
266.33	1763.30
266.54	1755.11
266.76	1699.81
266.98	1701.86
267.19	1834.98
267.41	1687.53
267.62	1732.58
267.84	1738.73
268.06	1673.19
268.27	1679.33
268.49	1716.20
268.70	1714.15
268.92	1691.62
269.14	1640.42
269.35	1689.57
269.57	1665.00
269.79	1796.07
270.00	1607.66
270.22	1841.12
270.43	1681.38
270.65	1597.42
270.87	1708.01
271.08	1701.86
271.30	1693.67
271.51	1734.63
271.73	1695.72
271.95	1757.16
272.16	1714.15
272.38	1746.92
272.59	1671.14
272.81	1712.10
273.02	1769.44
273.24	1771.49
273.46	1724.39
273.67	1642.47
273.89	1578.98
274.10	1613.80
274.32	1771.49
274.54	1693.67
274.75	1671.14
274.97	1632.23
275.18	1746.92
275.40	1773.54
275.61	1748.97
275.83	1695.72
276.05	1650.66
276.26	1720.29
276.48	1701.86
276.69	1701.86
276.91	1601.51
277.12	1820.64
277.34	1820.64
277.55	1787.88
277.77	1628.14
277.99	1726.44
278.20	1660.90
278.42	1656.81
278.63	1632.23
278.85	1716.20
279.06	1572.84
279.28	1720.29
279.49	1718.25
279.71	1685.48
279.93	1689.57
280.14	1634.28
280.36	1632.23
280.57	1777.64
280.79	1648.61
281.00	1726.44
281.22	1621.99
281.43	1820.64
281.65	1558.50
281.86	1656.81
282.08	1738.73
282.29	1818.60
282.51	1738.73
282.73	1646.57
282.94	1556.46
283.16	1699.81
283.37	1802.21
283.59	1748.97
283.80	1632.23
284.02	1697.77
284.23	1710.05
284.45	1714.15
284.66	1634.28
284.88	1574.89
285.09	1697.77
285.31	1742.82
285.52	1738.73
285.74	1669.09
285.95	1699.81
286.17	1613.80
286.38	1738.73
286.60	1695.72
286.81	1742.82
287.03	1710.05
287.24	1667.05
287.46	1736.68
287.67	1669.09
287.89	1910.75
288.10	1691.62
288.32	1632.23
288.53	1775.59
288.75	1718.25
288.96	1730.53
289.18	1755.11
289.39	1687.53
289.61	1767.40
289.82	1794.02
290.04	1748.97
290.25	1599.46
290.47	1722.34
290.68	1601.51
290.90	1755.11
291.11	1632.23
291.33	1820.64
291.54	1593.32
291.76	1613.80
291.97	1665.00
292.18	1796.07
292.40	1671.14
292.61	1626.09
292.83	1818.60
293.04	1773.54
293.26	1722.34
293.47	1665.00
293.69	1726.44
293.90	1656.81
294.12	1730.53
294.33	1708.01
294.55	1714.15
294.76	1728.49
294.97	1820.64
295.19	1810.40
295.40	1660.90
295.62	1724.39
295.83	1767.40
296.05	1599.46
296.26	1775.59
296.48	1679.33
296.69	1712.10
296.90	1740.77
297.12	1759.21
297.33	1779.68
297.55	1656.81
297.76	1757.16
297.98	1738.73
298.19	1708.01
298.41	1726.44
298.62	1656.81
298.83	1738.73
299.05	1624.04
299.26	1589.22
299.48	1630.18
299.69	1746.92
299.90	1689.57
300.12	1626.09
300.33	1841.12
300.55	1679.33
300.76	1853.41
300.98	1611.75
301.19	1787.88
301.40	1703.91
301.62	1658.85
301.83	1705.96
302.05	1703.91
302.26	1658.85
302.47	1701.86
302.69	1642.47
302.90	1720.29
303.12	1621.99
303.33	1791.97
303.54	1789.92
303.76	1705.96
303.97	1685.48
304.19	1798.12
304.40	1624.04
304.61	1732.58
304.83	1857.51
305.04	1671.14
305.26	1777.64
305.47	1660.90
305.68	1726.44
305.90	1585.13
306.11	1705.96
306.33	1689.57
306.54	1660.90
306.75	1677.29
306.97	1601.51
307.18	1671.14
307.39	1669.09
307.61	1781.73
307.82	1679.33
308.04	1701.86
308.25	1685.48
308.46	1796.07
308.68	1695.72
308.89	1691.62
309.10	1728.49
309.32	1701.86
309.53	1652.71
309.74	1759.21
309.96	1705.96
310.17	1710.05
310.39	1660.90
310.60	1705.96
310.81	1660.90
311.03	1693.67
311.24	1695.72
311.45	1656.81
311.67	1785.83
311.88	1703.91
312.09	1740.77
312.31	1675.24
312.52	1669.09
312.73	1687.53
312.95	1585.13
313.16	1617.90
313.37	1675.24
313.59	1726.44
313.80	1665.00
314.01	1853.41
314.23	1671.14
314.44	1685.48
314.65	1632.23
314.87	1679.33
315.08	1800.16
315.29	1640.42
315.51	1646.57
315.72	1665.00
315.93	1826.79
316.15	1806.31
316.36	1677.29
316.57	1669.09
316.79	1712.10
317.00	1652.71
317.21	1714.15
317.43	1734.63
317.64	1658.85
317.85	1724.39
318.07	1726.44
318.28	1726.44
318.49	1822.69
318.70	1943.52
318.92	1804.26
319.13	1742.82
319.34	1781.73
319.56	1861.60
319.77	1796.07
319.98	1781.73
320.20	1759.21
320.41	1732.58
320.62	1662.95
320.83	1705.96
321.05	1794.02
321.26	1785.83
321.47	1759.21
321.69	1781.73
321.90	1566.70
322.11	1673.19
322.32	1642.47
322.54	1826.79
322.75	1634.28
322.96	1759.21
323.18	1644.52
323.39	1634.28
323.60	1583.08
323.81	1806.31
324.03	1660.90
324.24	1765.35
324.45	1789.92
324.66	1697.77
324.88	1732.58
325.09	1759.21
325.30	1679.33
325.52	1697.77
325.73	1771.49
325.94	1583.08
326.15	1613.80
326.37	1708.01
326.58	1755.11
326.79	1771.49
327.00	1636.33
327.22	1685.48
327.43	1656.81
327.64	1652.71
327.85	1703.91
328.07	1728.49
328.28	1732.58
328.49	1771.49
328.70	1710.05
328.92	1705.96
329.13	1691.62
329.34	1714.15
329.55	1710.05
329.76	1738.73
329.98	1701.86
330.19	1779.68
330.40	1744.87
330.61	1703.91
330.83	1640.42
331.04	1665.00
331.25	1710.05
331.46	1652.71
331.68	1632.23
331.89	1685.48
332.10	1691.62
332.31	1685.48
332.52	1695.72
332.74	1730.53
332.95	1613.80
333.16	1699.81
333.37	1728.49
333.58	1626.09
333.80	1777.64
334.01	1595.37
334.22	1673.19
334.43	1697.77
334.64	1720.29
334.86	1695.72
335.07	1681.38
335.28	1771.49
335.49	1656.81
335.70	1777.64
335.92	1824.74
336.13	1920.99
336.34	1710.05
336.55	1769.44
336.76	1724.39
336.98	1607.66
337.19	1732.58
337.40	1791.97
337.61	1880.04
337.82	1679.33
338.04	1693.67
338.25	1621.99
338.46	1705.96
338.67	1597.42
338.88	1628.14
339.09	1648.61
339.31	1679.33
339.52	1689.57
339.73	1599.46
339.94	1695.72
340.15	1808.36
340.36	1669.09
340.58	1708.01
340.79	1615.85
341.00	1759.21
341.21	1591.27
341.42	1777.64
341.63	1673.19
341.85	1800.16
342.06	1679.33
342.27	1687.53
342.48	1732.58
342.69	1576.94
342.90	1744.87
343.12	1763.30
343.33	1701.86
343.54	1746.92
343.75	1714.15
343.96	1662.95
344.17	1675.24
344.38	1675.24
344.60	1712.10
344.81	1658.85
345.02	1662.95
345.23	1755.11
345.44	1822.69
345.65	1722.34
345.86	1693.67
346.07	1730.53
346.29	1628.14
346.50	1761.25
346.71	1689.57
346.92	1726.44
347.13	1763.30
347.34	1689.57
347.55	1771.49
347.76	1798.12
347.98	1603.56
348.19	1714.15
348.40	1781.73
348.61	1681.38
348.82	1757.16
349.03	1677.29
349.24	1611.75
349.45	1769.44
349.66	1630.18
349.88	1722.34
350.09	1634.28
350.30	1787.88
350.51	1708.01
350.72	1755.11
350.93	1705.96
351.14	1671.14
351.35	1667.05
351.56	1679.33
351.77	1683.43
351.99	1757.16
352.20	1726.44
352.41	1734.63
352.62	1591.27
352.83	1751.01
353.04	1685.48
353.25	1660.90
353.46	1832.93
353.67	1650.66
353.88	1626.09
354.09	1662.95
354.30	1681.38
354.52	1822.69
354.73	1671.14
354.94	1687.53
355.15	1662.95
355.36	1820.64
355.57	1601.51
355.78	1669.09
355.99	1654.76
356.20	1611.75
356.41	1802.21
356.62	1746.92
356.83	1695.72
357.04	1796.07
357.25	1613.80
357.46	1640.42
357.68	1636.33
357.89	1665.00
358.10	1722.34
358.31	1703.91
358.52	1708.01
358.73	1701.86
358.94	1710.05
359.15	1699.81
359.36	1722.34
359.57	1662.95
359.78	1693.67
359.99	1701.86
360.20	1621.99
360.41	1677.29
360.62	1744.87
360.83	1714.15
361.04	1789.92
361.25	1798.12
361.46	1798.12
361.67	1724.39
361.88	1763.30
362.09	1759.21
362.30	1669.09
362.51	1732.58
362.72	1794.02
362.93	1777.64
363.14	1757.16
363.35	1681.38
363.56	1638.38
363.78	1720.29
363.99	1771.49
364.20	1654.76
364.41	1730.53
364.62	1812.45
364.83	1673.19
365.04	1687.53
365.25	1699.81
365.46	1789.92
365.67	1607.66
365.88	1624.04
366.09	1665.00
366.30	1730.53
366.51	1748.97
366.72	1607.66
366.93	1687.53
367.14	1746.92
367.35	1845.22
367.56	1781.73
367.77	1755.11
367.98	1714.15
368.18	1648.61
368.39	1720.29
368.60	1685.48
368.81	1718.25
369.02	1665.00
369.23	1710.05
369.44	1634.28
369.65	1781.73
369.86	1683.43
370.07	1761.25
370.28	1689.57
370.49	1742.82
370.70	1720.29
370.91	1632.23
371.12	1572.84
371.33	1748.97
371.54	1640.42
371.75	1753.06
371.96	1566.70
372.17	1755.11
372.38	1669.09
372.59	1716.20
372.80	1644.52
373.01	1671.14
373.22	1648.61
373.43	1705.96
373.64	1640.42
373.85	1798.12
374.06	1787.88
374.26	1779.68
374.47	1695.72
374.68	1783.78
374.89	1708.01
375.10	1689.57
375.31	1806.31
375.52	1691.62
375.73	1697.77
375.94	1679.33
376.15	1742.82
376.36	1640.42
376.57	1650.66
376.78	1656.81
376.99	1777.64
377.20	1783.78
377.40	1656.81
377.61	1869.80
377.82	1677.29
378.03	1791.97
378.24	1726.44
378.45	1644.52
378.66	1679.33
378.87	1607.66
379.08	1605.61
379.29	1705.96
379.50	1783.78
379.71	1691.62
379.91	1755.11
380.12	1669.09
380.33	1703.91
380.54	1681.38
380.75	1673.19
380.96	1667.05
381.17	1740.77
381.38	1718.25
381.59	1746.92
381.80	1699.81
382.00	1837.03
382.21	1658.85
382.42	1800.16
382.63	1851.36
382.84	1789.92
383.05	1703.91
383.26	1787.88
383.47	1718.25
383.68	1755.11
383.88	1746.92
384.09	1740.77
384.30	1781.73
384.51	1732.58
384.72	1675.24
384.93	1546.22
385.14	1697.77
385.35	1824.74
385.55	1748.97
385.76	1781.73
385.97	1693.67
386.18	1636.33
386.39	1736.68
386.60	1726.44
386.81	1665.00
387.02	1677.29
387.22	1705.96
387.43	1718.25
387.64	1824.74
387.85	1869.80
388.06	2226.14
388.27	4321.21
388.48	6789.02
388.68	8511.36
388.89	9721.71
389.10	10018.66
389.31	8662.91
389.52	7636.88
389.73	6887.32
389.93	6127.52
390.14	5879.72
390.35	5164.98
390.56	4507.58
390.77	3780.55
390.98	3063.76
391.18	2541.53
391.39	2105.31
391.60	1834.98
391.81	1794.02
392.02	1632.23
392.23	1923.04
392.43	1726.44
392.64	1759.21
392.85	1710.05
393.06	1798.12
393.27	1724.39
393.47	1703.91
393.68	1685.48
393.89	1609.70
394.10	1746.92
394.31	1681.38
394.52	1650.66
394.72	1665.00
394.93	1746.92
395.14	1665.00
395.35	1742.82
395.56	1714.15
395.76	1712.10
395.97	1751.01
396.18	1767.40
396.39	1806.31
396.60	1959.91
396.80	1828.84
397.01	1822.69
397.22	1841.12
397.43	1759.21
397.64	1759.21
397.84	1787.88
398.05	1824.74
398.26	1662.95
398.47	1773.54
398.67	1738.73
398.88	1708.01
399.09	1785.83
399.30	1720.29
399.51	1675.24
399.71	1736.68
399.92	1722.34
400.13	1703.91
400.34	1671.14
400.54	1679.33
400.75	1818.60
400.96	1640.42
401.17	1873.89
401.37	1683.43
401.58	1683.43
401.79	1662.95
402.00	1796.07
402.21	1920.99
402.41	2045.92
402.62	1972.19
402.83	2066.40
403.04	1996.77
403.24	2050.02
403.45	1888.23
403.66	1851.36
403.87	1853.41
404.07	1871.84
404.28	1845.22
404.49	1820.64
404.70	1814.50
404.90	1779.68
405.11	1755.11
405.32	1742.82
405.52	1636.33
405.73	1656.81
405.94	1658.85
406.15	1691.62
406.35	1732.58
406.56	1689.57
406.77	1695.72
406.98	1708.01
407.18	1726.44
407.39	1761.25
407.60	1777.64
407.80	1759.21
408.01	1634.28
408.22	1769.44
408.43	1685.48
408.63	1689.57
408.84	1742.82
409.05	1705.96
409.25	1691.62
409.46	1705.96
409.67	1691.62
409.88	1636.33
410.08	1757.16
410.29	1667.05
410.50	1802.21
410.70	1738.73
410.91	1658.85
411.12	1718.25
411.32	1648.61
411.53	1712.10
411.74	1796.07
411.95	1736.68
412.15	1701.86
412.36	1779.68
412.57	1681.38
412.77	1775.59
412.98	1740.77
413.19	1697.77
413.39	1712.10
413.60	1800.16
413.81	1837.03
414.01	1658.85
414.22	1718.25
414.43	1716.20
414.63	1695.72
414.84	1722.34
415.05	1650.66
415.25	1632.23
415.46	1761.25
415.67	1669.09
415.87	1740.77
416.08	1667.05
416.29	1722.34
416.49	1697.77
416.70	1662.95
416.91	1732.58
417.11	1667.05
417.32	1732.58
417.53	1804.26
417.73	1798.12
417.94	1794.02
418.15	1716.20
418.35	1695.72
418.56	1624.04
418.77	1871.84
418.97	1640.42
419.18	1687.53
419.38	1632.23
419.59	1632.23
419.80	1796.07
420.00	1679.33
420.21	1791.97
420.42	1791.97
420.62	1710.05
420.83	1724.39
421.04	1697.77
421.24	1716.20
421.45	1847.27
421.65	1783.78
421.86	1650.66
422.07	1671.14
422.27	1714.15
422.48	1677.29
422.69	1665.00
422.89	1685.48
423.10	1710.05
423.30	1660.90
423.51	1724.39
423.72	1660.90
423.92	1742.82
424.13	1572.84
424.33	1703.91
424.54	1787.88
424.75	1705.96
424.95	1834.98
425.16	1753.06
425.36	1734.63
425.57	1757.16
425.78	1720.29
425.98	1798.12
426.19	1730.53
426.39	1775.59
426.60	1730.53
426.81	1771.49
427.01	1673.19
427.22	1642.47
427.42	1605.61
427.63	1589.22
427.83	1744.87
428.04	1873.89
428.25	1808.36
428.45	1746.92
428.66	1736.68
428.86	1677.29
429.07	1669.09
429.28	1681.38
429.48	1617.90
429.69	1673.19
429.89	1683.43
430.10	1650.66
430.30	1777.64
430.51	1687.53
430.71	1605.61
430.92	1726.44
431.13	1667.05
431.33	1771.49
431.54	1730.53
431.74	1796.07
431.95	1816.55
432.15	1662.95
432.36	1683.43
432.56	1724.39
432.77	1822.69
432.98	1843.17
433.18	1783.78
433.39	1708.01
433.59	1673.19
433.80	1826.79
434.00	1832.93
434.21	1701.86
434.41	1609.70
434.62	1845.22
434.82	1687.53
435.03	1662.95
435.23	1753.06
435.44	1550.31
435.64	1695.72
435.85	1730.53
436.06	1789.92
436.26	1773.54
436.47	1689.57
436.67	1701.86
436.88	1689.57
437.08	1724.39
437.29	1800.16
437.49	1791.97
437.70	1705.96
437.90	1685.48
438.11	1804.26
438.31	1744.87
438.52	1892.32
438.72	1863.65
438.93	1925.09
439.13	1779.68
439.34	1796.07
439.54	1712.10
439.75	1751.01
439.95	1787.88
440.16	1732.58
440.36	1767.40
440.57	1802.21
440.77	1726.44
440.98	1734.63
441.18	1734.63
441.39	1673.19
441.59	1603.56
441.80	1806.31
442.00	1681.38
442.21	1767.40
442.41	1740.77
442.62	1759.21
442.82	1613.80
443.02	1718.25
443.23	1738.73
443.43	1705.96
443.64	1849.32
443.84	1689.57
444.05	1791.97
444.25	1746.92
444.46	1724.39
444.66	1665.00
444.87	1822.69
445.07	1644.52
445.28	1753.06
445.48	1859.56
445.69	1726.44
445.89	1855.46
446.09	1791.97
446.30	2062.30
446.50	2748.37
446.71	3770.31
446.91	4278.21
447.12	4698.04
447.32	5011.38
447.53	4356.03
447.73	3870.66
447.93	3545.03
448.14	3377.10
448.34	3268.56
448.55	3004.37
448.75	2873.30
448.96	2643.93
449.16	2344.92
449.36	2273.25
449.57	2045.92
449.77	1826.79
449.98	1820.64
450.18	1783.78
450.39	1802.21
450.59	1759.21
450.79	1699.81
451.00	1701.86
451.20	1800.16
451.41	1667.05
451.61	1789.92
451.81	1718.25
452.02	1671.14
452.22	1665.00
452.43	1689.57
452.63	1701.86
