SpectraSuite Data File
++++++++++++++++++++++++++++++++++++
Date: Mon Jun 06 13:30:37 CEST 2016
User: root
Dark Spectrum Present: No
Reference Spectrum Present: No
Number of Sampled Component Spectra: 1
Spectrometers: USB4C02835
Integration Time (usec): 100000 (USB4C02835)
Spectra Averaged: 1 (USB4C02835)
Boxcar Smoothing: 0 (USB4C02835)
Correct for Electrical Dark: No (USB4C02835)
Strobe/Lamp Enabled: No (USB4C02835)
Correct for Detector Non-linearity: No (USB4C02835)
Correct for Stray Light: No (USB4C02835)
Number of Pixels in Processed Spectrum: 3648
>>>>>Begin Processed Spectral Data<<<<<
177.47	1421.29
177.69	1421.29
177.91	1421.29
178.13	1454.06
178.36	1478.63
178.58	1634.28
178.80	1677.29
179.02	1607.66
179.24	1658.85
179.46	1703.91
179.68	1726.44
179.90	1757.16
180.13	1628.14
180.35	1597.42
180.57	1687.53
180.79	1767.40
181.01	1712.10
181.23	1656.81
181.45	1820.64
181.67	1660.90
181.90	1710.05
182.12	1652.71
182.34	1626.09
182.56	1769.44
182.78	1734.63
183.00	1728.49
183.22	1703.91
183.44	1613.80
183.66	1910.75
183.89	1763.30
184.11	1693.67
184.33	1740.77
184.55	1718.25
184.77	1683.43
184.99	1779.68
185.21	1624.04
185.43	1818.60
185.65	1652.71
185.87	1654.76
186.10	1865.70
186.32	1869.80
186.54	1691.62
186.76	1705.96
186.98	1794.02
187.20	1742.82
187.42	1667.05
187.64	1671.14
187.86	1810.40
188.08	1765.35
188.30	1679.33
188.52	1705.96
188.75	1748.97
188.97	1763.30
189.19	1640.42
189.41	1695.72
189.63	1705.96
189.85	1714.15
190.07	1628.14
190.29	1583.08
190.51	1771.49
190.73	1636.33
190.95	1808.36
191.17	1636.33
191.39	1564.65
191.61	1724.39
191.84	1746.92
192.06	1783.78
192.28	1650.66
192.50	1867.75
192.72	1712.10
192.94	1632.23
193.16	1796.07
193.38	1681.38
193.60	1687.53
193.82	1732.58
194.04	1740.77
194.26	1732.58
194.48	1699.81
194.70	1671.14
194.92	1693.67
195.14	1744.87
195.36	1718.25
195.58	1681.38
195.80	1712.10
196.02	1677.29
196.24	1671.14
196.46	1755.11
196.69	1708.01
196.91	1781.73
197.13	1662.95
197.35	1595.37
197.57	1746.92
197.79	1716.20
198.01	1607.66
198.23	1734.63
198.45	1714.15
198.67	1630.18
198.89	1722.34
199.11	1740.77
199.33	1669.09
199.55	1583.08
199.77	1701.86
199.99	1701.86
200.21	1665.00
200.43	1763.30
200.65	1667.05
200.87	1554.41
201.09	1710.05
201.31	1603.56
201.53	1771.49
201.75	1724.39
201.97	1699.81
202.19	1695.72
202.41	1767.40
202.63	1832.93
202.85	1746.92
203.07	1775.59
203.29	1658.85
203.51	1687.53
203.73	1652.71
203.95	1906.66
204.17	1728.49
204.39	1714.15
204.61	1658.85
204.83	1630.18
205.05	1748.97
205.27	1746.92
205.49	1744.87
205.71	1785.83
205.93	1576.94
206.15	1677.29
206.37	1685.48
206.59	1693.67
206.81	1615.85
207.03	1607.66
207.25	1609.70
207.47	1675.24
207.69	1724.39
207.91	1810.40
208.13	1767.40
208.34	1617.90
208.56	1757.16
208.78	1683.43
209.00	1681.38
209.22	1693.67
209.44	1744.87
209.66	1648.61
209.88	1722.34
210.10	1605.61
210.32	1591.27
210.54	1763.30
210.76	1628.14
210.98	1773.54
211.20	1587.18
211.42	1716.20
211.64	1761.25
211.86	1744.87
212.08	1753.06
212.30	1714.15
212.52	1660.90
212.74	1652.71
212.96	1785.83
213.17	1738.73
213.39	1738.73
213.61	1830.88
213.83	1640.42
214.05	1689.57
214.27	1800.16
214.49	1662.95
214.71	1640.42
214.93	1798.12
215.15	1744.87
215.37	1751.01
215.59	1533.93
215.81	1769.44
216.03	1714.15
216.24	1665.00
216.46	1732.58
216.68	1716.20
216.90	1679.33
217.12	1851.36
217.34	1746.92
217.56	1730.53
217.78	1773.54
218.00	1826.79
218.22	1636.33
218.44	1753.06
218.66	1757.16
218.87	1757.16
219.09	1720.29
219.31	1730.53
219.53	1724.39
219.75	1605.61
219.97	1677.29
220.19	1738.73
220.41	1708.01
220.63	1722.34
220.85	1660.90
221.06	1583.08
221.28	1759.21
221.50	1642.47
221.72	1724.39
221.94	1697.77
222.16	1689.57
222.38	1742.82
222.60	1763.30
222.82	1773.54
223.03	1720.29
223.25	1587.18
223.47	1710.05
223.69	1794.02
223.91	1771.49
224.13	1757.16
224.35	1640.42
224.57	1753.06
224.78	1658.85
225.00	1667.05
225.22	1595.37
225.44	1724.39
225.66	1701.86
225.88	1626.09
226.10	1722.34
226.32	1673.19
226.53	1849.32
226.75	1597.42
226.97	1697.77
227.19	1738.73
227.41	1705.96
227.63	1650.66
227.85	1632.23
228.06	1701.86
228.28	1781.73
228.50	1755.11
228.72	1662.95
228.94	1679.33
229.16	1613.80
229.37	1679.33
229.59	1665.00
229.81	1771.49
230.03	1648.61
230.25	1564.65
230.47	1652.71
230.69	1619.94
230.90	1763.30
231.12	1642.47
231.34	1638.38
231.56	1755.11
231.78	1644.52
232.00	1650.66
232.21	1722.34
232.43	1617.90
232.65	1581.03
232.87	1703.91
233.09	1656.81
233.30	1740.77
233.52	1714.15
233.74	1699.81
233.96	1714.15
234.18	1689.57
234.40	1634.28
234.61	1855.46
234.83	1648.61
235.05	1548.26
235.27	1841.12
235.49	1775.59
235.70	1714.15
235.92	1755.11
236.14	1613.80
236.36	1796.07
236.58	1650.66
236.79	1742.82
237.01	1714.15
237.23	1652.71
237.45	1771.49
237.67	1644.52
237.88	1740.77
238.10	1789.92
238.32	1574.89
238.54	1619.94
238.76	1669.09
238.97	1642.47
239.19	1662.95
239.41	1742.82
239.63	1687.53
239.85	1640.42
240.06	1685.48
240.28	1652.71
240.50	1806.31
240.72	1755.11
240.93	1626.09
241.15	1740.77
241.37	1718.25
241.59	1710.05
241.81	1710.05
242.02	1705.96
242.24	1722.34
242.46	1701.86
242.68	1630.18
242.89	1783.78
243.11	1718.25
243.33	1714.15
243.55	1705.96
243.76	1714.15
243.98	1626.09
244.20	1738.73
244.42	1621.99
244.64	1699.81
244.85	1632.23
245.07	1677.29
245.29	1744.87
245.51	1593.32
245.72	1779.68
245.94	1851.36
246.16	1648.61
246.38	1705.96
246.59	1726.44
246.81	1652.71
247.03	1658.85
247.24	1615.85
247.46	1681.38
247.68	1691.62
247.90	1759.21
248.11	1691.62
248.33	1708.01
248.55	1738.73
248.77	1724.39
248.98	1742.82
249.20	1806.31
249.42	1611.75
249.64	1748.97
249.85	1730.53
250.07	1658.85
250.29	1714.15
250.50	1761.25
250.72	1705.96
250.94	1660.90
251.16	1771.49
251.37	1818.60
251.59	1765.35
251.81	1732.58
252.02	1748.97
252.24	1654.76
252.46	1720.29
252.68	1673.19
252.89	1656.81
253.11	1650.66
253.33	1726.44
253.54	1757.16
253.76	1626.09
253.98	1587.18
254.20	1665.00
254.41	1726.44
254.63	1679.33
254.85	1644.52
255.06	1703.91
255.28	1771.49
255.50	1677.29
255.71	1626.09
255.93	1636.33
256.15	1636.33
256.36	1726.44
256.58	1662.95
256.80	1710.05
257.02	1673.19
257.23	1636.33
257.45	1669.09
257.67	1785.83
257.88	1660.90
258.10	1699.81
258.32	1648.61
258.53	1771.49
258.75	1816.55
258.97	1722.34
259.18	1685.48
259.40	1665.00
259.62	1824.74
259.83	1761.25
260.05	1660.90
260.27	2004.96
260.48	1783.78
260.70	1609.70
260.92	1650.66
261.13	1628.14
261.35	1726.44
261.57	1732.58
261.78	1697.77
262.00	1705.96
262.22	1710.05
262.43	1607.66
262.65	1630.18
262.86	1699.81
263.08	1814.50
263.30	1714.15
263.51	1599.46
263.73	1689.57
263.95	1882.08
264.16	1656.81
264.38	1640.42
264.60	1716.20
264.81	1708.01
265.03	1753.06
265.25	1671.14
265.46	1746.92
265.68	1834.98
265.89	1710.05
266.11	1617.90
266.33	1820.64
266.54	1738.73
266.76	1732.58
266.98	1710.05
267.19	1767.40
267.41	1789.92
267.62	1683.43
267.84	1644.52
268.06	1779.68
268.27	1701.86
268.49	1767.40
268.70	1798.12
268.92	1751.01
269.14	1665.00
269.35	1613.80
269.57	1697.77
269.79	1691.62
270.00	1675.24
270.22	1802.21
270.43	1669.09
270.65	1701.86
270.87	1624.04
271.08	1732.58
271.30	1742.82
271.51	1757.16
271.73	1724.39
271.95	1771.49
272.16	1753.06
272.38	1724.39
272.59	1632.23
272.81	1841.12
273.02	1736.68
273.24	1710.05
273.46	1742.82
273.67	1697.77
273.89	1607.66
274.10	1642.47
274.32	1683.43
274.54	1761.25
274.75	1720.29
274.97	1638.38
275.18	1761.25
275.40	1705.96
275.61	1759.21
275.83	1771.49
276.05	1691.62
276.26	1691.62
276.48	1759.21
276.69	1650.66
276.91	1685.48
277.12	1720.29
277.34	1755.11
277.55	1761.25
277.77	1662.95
277.99	1671.14
278.20	1626.09
278.42	1611.75
278.63	1642.47
278.85	1681.38
279.06	1640.42
279.28	1687.53
279.49	1738.73
279.71	1738.73
279.93	1738.73
280.14	1665.00
280.36	1679.33
280.57	1789.92
280.79	1732.58
281.00	1648.61
281.22	1681.38
281.43	1789.92
281.65	1572.84
281.86	1617.90
282.08	1736.68
282.29	1787.88
282.51	1656.81
282.73	1687.53
282.94	1646.57
283.16	1732.58
283.37	1789.92
283.59	1652.71
283.80	1714.15
284.02	1703.91
284.23	1785.83
284.45	1658.85
284.66	1695.72
284.88	1589.22
285.09	1763.30
285.31	1771.49
285.52	1753.06
285.74	1648.61
285.95	1691.62
286.17	1665.00
286.38	1820.64
286.60	1636.33
286.81	1677.29
287.03	1705.96
287.24	1671.14
287.46	1697.77
287.67	1755.11
287.89	1810.40
288.10	1679.33
288.32	1722.34
288.53	1822.69
288.75	1722.34
288.96	1710.05
289.18	1742.82
289.39	1632.23
289.61	1761.25
289.82	1791.97
290.04	1761.25
290.25	1613.80
290.47	1714.15
290.68	1685.48
290.90	1658.85
291.11	1667.05
291.33	1687.53
291.54	1609.70
291.76	1705.96
291.97	1744.87
292.18	1611.75
292.40	1681.38
292.61	1603.56
292.83	1808.36
293.04	1665.00
293.26	1753.06
293.47	1652.71
293.69	1632.23
293.90	1699.81
294.12	1781.73
294.33	1724.39
294.55	1654.76
294.76	1796.07
294.97	1701.86
295.19	1837.03
295.40	1642.47
295.62	1736.68
295.83	1759.21
296.05	1632.23
296.26	1789.92
296.48	1613.80
296.69	1726.44
296.90	1656.81
297.12	1726.44
297.33	1714.15
297.55	1714.15
297.76	1734.63
297.98	1710.05
298.19	1714.15
298.41	1705.96
298.62	1658.85
298.83	1701.86
299.05	1734.63
299.26	1656.81
299.48	1683.43
299.69	1751.01
299.90	1712.10
300.12	1640.42
300.33	1720.29
300.55	1640.42
300.76	1736.68
300.98	1665.00
301.19	1796.07
301.40	1619.94
301.62	1738.73
301.83	1728.49
302.05	1669.09
302.26	1748.97
302.47	1691.62
302.69	1724.39
302.90	1699.81
303.12	1636.33
303.33	1746.92
303.54	1820.64
303.76	1740.77
303.97	1771.49
304.19	1708.01
304.40	1673.19
304.61	1677.29
304.83	1820.64
305.04	1732.58
305.26	1849.32
305.47	1665.00
305.68	1722.34
305.90	1511.40
306.11	1734.63
306.33	1691.62
306.54	1658.85
306.75	1626.09
306.97	1609.70
307.18	1722.34
307.39	1726.44
307.61	1714.15
307.82	1634.28
308.04	1746.92
308.25	1656.81
308.46	1779.68
308.68	1695.72
308.89	1794.02
309.10	1708.01
309.32	1714.15
309.53	1644.52
309.74	1710.05
309.96	1654.76
310.17	1769.44
310.39	1800.16
310.60	1763.30
310.81	1599.46
311.03	1601.51
311.24	1691.62
311.45	1654.76
311.67	1828.84
311.88	1691.62
312.09	1722.34
312.31	1740.77
312.52	1716.20
312.73	1632.23
312.95	1628.14
313.16	1701.86
313.37	1824.74
313.59	1693.67
313.80	1748.97
314.01	1798.12
314.23	1650.66
314.44	1646.57
314.65	1654.76
314.87	1660.90
315.08	1734.63
315.29	1626.09
315.51	1624.04
315.72	1617.90
315.93	1798.12
316.15	1777.64
316.36	1724.39
316.57	1675.24
316.79	1714.15
317.00	1691.62
317.21	1701.86
317.43	1650.66
317.64	1683.43
317.85	1613.80
318.07	1691.62
318.28	1771.49
318.49	1773.54
318.70	1914.85
318.92	1869.80
319.13	1902.56
319.34	1855.46
319.56	1863.65
319.77	1822.69
319.98	1736.68
320.20	1800.16
320.41	1734.63
320.62	1759.21
320.83	1662.95
321.05	1855.46
321.26	1783.78
321.47	1708.01
321.69	1779.68
321.90	1720.29
322.11	1689.57
322.32	1697.77
322.54	1730.53
322.75	1648.61
322.96	1781.73
323.18	1662.95
323.39	1585.13
323.60	1656.81
323.81	1785.83
324.03	1681.38
324.24	1656.81
324.45	1718.25
324.66	1693.67
324.88	1800.16
325.09	1705.96
325.30	1734.63
325.52	1699.81
325.73	1730.53
325.94	1675.24
326.15	1654.76
326.37	1685.48
326.58	1791.97
326.79	1734.63
327.00	1648.61
327.22	1683.43
327.43	1656.81
327.64	1642.47
327.85	1701.86
328.07	1636.33
328.28	1794.02
328.49	1695.72
328.70	1703.91
328.92	1642.47
329.13	1753.06
329.34	1685.48
329.55	1816.55
329.76	1812.45
329.98	1728.49
330.19	1775.59
330.40	1773.54
330.61	1681.38
330.83	1748.97
331.04	1652.71
331.25	1644.52
331.46	1683.43
331.68	1632.23
331.89	1699.81
332.10	1757.16
332.31	1632.23
332.52	1728.49
332.74	1726.44
332.95	1603.56
333.16	1650.66
333.37	1738.73
333.58	1695.72
333.80	1636.33
334.01	1644.52
334.22	1646.57
334.43	1662.95
334.64	1677.29
334.86	1542.12
335.07	1609.70
335.28	1765.35
335.49	1611.75
335.70	1689.57
335.92	1779.68
336.13	1759.21
336.34	1699.81
336.55	1736.68
336.76	1789.92
336.98	1611.75
337.19	1695.72
337.40	1796.07
337.61	1845.22
337.82	1624.04
338.04	1703.91
338.25	1630.18
338.46	1708.01
338.67	1701.86
338.88	1642.47
339.09	1630.18
339.31	1628.14
339.52	1630.18
339.73	1585.13
339.94	1724.39
340.15	1787.88
340.36	1730.53
340.58	1609.70
340.79	1691.62
341.00	1720.29
341.21	1599.46
341.42	1726.44
341.63	1669.09
341.85	1765.35
342.06	1658.85
342.27	1695.72
342.48	1814.50
342.69	1593.32
342.90	1722.34
343.12	1726.44
343.33	1718.25
343.54	1751.01
343.75	1679.33
343.96	1755.11
344.17	1640.42
344.38	1763.30
344.60	1667.05
344.81	1662.95
345.02	1642.47
345.23	1720.29
345.44	1697.77
345.65	1742.82
345.86	1738.73
346.07	1748.97
346.29	1644.52
346.50	1683.43
346.71	1671.14
346.92	1748.97
347.13	1861.60
347.34	1746.92
347.55	1697.77
347.76	1755.11
347.98	1624.04
348.19	1617.90
348.40	1703.91
348.61	1609.70
348.82	1796.07
349.03	1806.31
349.24	1619.94
349.45	1763.30
349.66	1605.61
349.88	1695.72
350.09	1667.05
350.30	1783.78
350.51	1814.50
350.72	1765.35
350.93	1705.96
351.14	1595.37
351.35	1693.67
351.56	1722.34
351.77	1744.87
351.99	1748.97
352.20	1757.16
352.41	1800.16
352.62	1607.66
352.83	1673.19
353.04	1722.34
353.25	1681.38
353.46	1806.31
353.67	1740.77
353.88	1624.04
354.09	1691.62
354.30	1722.34
354.52	1720.29
354.73	1736.68
354.94	1634.28
355.15	1748.97
355.36	1812.45
355.57	1689.57
355.78	1796.07
355.99	1673.19
356.20	1689.57
356.41	1763.30
356.62	1699.81
356.83	1753.06
357.04	1794.02
357.25	1599.46
357.46	1624.04
357.68	1613.80
357.89	1665.00
358.10	1617.90
358.31	1710.05
358.52	1667.05
358.73	1634.28
358.94	1615.85
359.15	1662.95
359.36	1720.29
359.57	1683.43
359.78	1712.10
359.99	1701.86
360.20	1624.04
360.41	1710.05
360.62	1787.88
360.83	1761.25
361.04	1740.77
361.25	1701.86
361.46	1798.12
361.67	1716.20
361.88	1722.34
362.09	1763.30
362.30	1722.34
362.51	1701.86
362.72	1697.77
362.93	1773.54
363.14	1755.11
363.35	1751.01
363.56	1626.09
363.78	1742.82
363.99	1724.39
364.20	1640.42
364.41	1708.01
364.62	1810.40
364.83	1740.77
365.04	1697.77
365.25	1656.81
365.46	1841.12
365.67	1601.51
365.88	1632.23
366.09	1708.01
366.30	1650.66
366.51	1708.01
366.72	1693.67
366.93	1693.67
367.14	1665.00
367.35	1705.96
367.56	1716.20
367.77	1726.44
367.98	1632.23
368.18	1730.53
368.39	1722.34
368.60	1687.53
368.81	1732.58
369.02	1697.77
369.23	1665.00
369.44	1689.57
369.65	1642.47
369.86	1626.09
370.07	1708.01
370.28	1570.79
370.49	1789.92
370.70	1722.34
370.91	1626.09
371.12	1656.81
371.33	1660.90
371.54	1660.90
371.75	1789.92
371.96	1542.12
372.17	1658.85
372.38	1583.08
372.59	1736.68
372.80	1665.00
373.01	1687.53
373.22	1669.09
373.43	1724.39
373.64	1632.23
373.85	1742.82
374.06	1789.92
374.26	1804.26
374.47	1722.34
374.68	1783.78
374.89	1648.61
375.10	1634.28
375.31	1740.77
375.52	1710.05
375.73	1699.81
375.94	1650.66
376.15	1796.07
376.36	1746.92
376.57	1693.67
376.78	1652.71
376.99	1718.25
377.20	1773.54
377.40	1613.80
377.61	1787.88
377.82	1621.99
378.03	1759.21
378.24	1755.11
378.45	1626.09
378.66	1781.73
378.87	1638.38
379.08	1607.66
379.29	1722.34
379.50	1732.58
379.71	1626.09
379.91	1722.34
380.12	1695.72
380.33	1689.57
380.54	1679.33
380.75	1693.67
380.96	1628.14
381.17	1751.01
381.38	1724.39
381.59	1691.62
381.80	1642.47
382.00	1849.32
382.21	1691.62
382.42	1765.35
382.63	1849.32
382.84	1699.81
383.05	1746.92
383.26	1757.16
383.47	1787.88
383.68	1771.49
383.88	1740.77
384.09	1716.20
384.30	1822.69
384.51	1705.96
384.72	1548.26
384.93	1632.23
385.14	1617.90
385.35	1796.07
385.55	1656.81
385.76	1787.88
385.97	1689.57
386.18	1615.85
386.39	1675.24
386.60	1665.00
386.81	1644.52
387.02	1658.85
387.22	1640.42
387.43	1777.64
387.64	1775.59
387.85	1923.04
388.06	2205.66
388.27	4245.44
388.48	6698.91
388.68	7976.84
388.89	9445.23
389.10	9643.88
389.31	8650.62
389.52	7395.22
389.73	6678.43
389.93	6072.23
390.14	5762.98
390.35	5124.02
390.56	4585.40
390.77	3792.84
390.98	2938.84
391.18	2435.03
391.39	2107.36
391.60	1830.88
391.81	1832.93
392.02	1656.81
392.23	1779.68
392.43	1718.25
392.64	1742.82
392.85	1714.15
393.06	1730.53
393.27	1720.29
393.47	1714.15
393.68	1708.01
393.89	1763.30
394.10	1714.15
394.31	1699.81
394.52	1607.66
394.72	1683.43
394.93	1814.50
395.14	1566.70
395.35	1720.29
395.56	1644.52
395.76	1685.48
395.97	1787.88
396.18	1822.69
396.39	1800.16
396.60	2070.50
396.80	1886.18
397.01	1761.25
397.22	1830.88
397.43	1832.93
397.64	1640.42
397.84	1849.32
398.05	1804.26
398.26	1705.96
398.47	1732.58
398.67	1804.26
398.88	1763.30
399.09	1685.48
399.30	1687.53
399.51	1839.08
399.71	1681.38
399.92	1689.57
400.13	1671.14
400.34	1789.92
400.54	1679.33
400.75	1794.02
400.96	1683.43
401.17	1742.82
401.37	1697.77
401.58	1656.81
401.79	1722.34
402.00	1824.74
402.21	1947.62
402.41	1976.29
402.62	2013.15
402.83	2017.25
403.04	1959.91
403.24	2033.63
403.45	1851.36
403.66	1918.95
403.87	1857.51
404.07	1845.22
404.28	1980.39
404.49	1871.84
404.70	1812.45
404.90	1783.78
405.11	1775.59
405.32	1753.06
405.52	1714.15
405.73	1685.48
405.94	1591.27
406.15	1699.81
406.35	1755.11
406.56	1757.16
406.77	1730.53
406.98	1773.54
407.18	1609.70
407.39	1796.07
407.60	1734.63
407.80	1759.21
408.01	1632.23
408.22	1697.77
408.43	1644.52
408.63	1689.57
408.84	1658.85
409.05	1722.34
409.25	1708.01
409.46	1691.62
409.67	1716.20
409.88	1626.09
410.08	1683.43
410.29	1724.39
410.50	1767.40
410.70	1746.92
410.91	1621.99
411.12	1697.77
411.32	1726.44
411.53	1665.00
411.74	1755.11
411.95	1812.45
412.15	1718.25
412.36	1718.25
412.57	1742.82
412.77	1773.54
412.98	1753.06
413.19	1730.53
413.39	1699.81
413.60	1783.78
413.81	1771.49
414.01	1626.09
414.22	1757.16
414.43	1755.11
414.63	1658.85
414.84	1771.49
415.05	1728.49
415.25	1665.00
415.46	1665.00
415.67	1724.39
415.87	1755.11
416.08	1677.29
416.29	1683.43
416.49	1775.59
416.70	1632.23
416.91	1708.01
417.11	1712.10
417.32	1765.35
417.53	1759.21
417.73	1667.05
417.94	1736.68
418.15	1697.77
418.35	1718.25
418.56	1677.29
418.77	1783.78
418.97	1771.49
419.18	1685.48
419.38	1626.09
419.59	1662.95
419.80	1751.01
420.00	1667.05
420.21	1722.34
420.42	1728.49
420.62	1712.10
420.83	1669.09
421.04	1757.16
421.24	1675.24
421.45	1802.21
421.65	1685.48
421.86	1738.73
422.07	1718.25
422.27	1730.53
422.48	1728.49
422.69	1703.91
422.89	1744.87
423.10	1689.57
423.30	1624.04
423.51	1708.01
423.72	1746.92
423.92	1677.29
424.13	1671.14
424.33	1691.62
424.54	1748.97
424.75	1734.63
424.95	1873.89
425.16	1712.10
425.36	1652.71
425.57	1697.77
425.78	1759.21
425.98	1771.49
426.19	1685.48
426.39	1644.52
426.60	1748.97
426.81	1791.97
427.01	1695.72
427.22	1599.46
427.42	1634.28
427.63	1640.42
427.83	1728.49
428.04	1751.01
428.25	1859.56
428.45	1796.07
428.66	1755.11
428.86	1646.57
429.07	1726.44
429.28	1675.24
429.48	1730.53
429.69	1689.57
429.89	1712.10
430.10	1621.99
430.30	1699.81
430.51	1757.16
430.71	1697.77
430.92	1732.58
431.13	1714.15
431.33	1781.73
431.54	1775.59
431.74	1802.21
431.95	1837.03
432.15	1724.39
432.36	1763.30
432.56	1716.20
432.77	1794.02
432.98	1882.08
433.18	1773.54
433.39	1748.97
433.59	1599.46
433.80	1757.16
434.00	1841.12
434.21	1634.28
434.41	1658.85
434.62	1861.60
434.82	1673.19
435.03	1693.67
435.23	1742.82
435.44	1683.43
435.64	1734.63
435.85	1703.91
436.06	1691.62
436.26	1730.53
436.47	1669.09
436.67	1685.48
436.88	1738.73
437.08	1687.53
437.29	1787.88
437.49	1710.05
437.70	1755.11
437.90	1777.64
438.11	1861.60
438.31	1757.16
438.52	1839.08
438.72	1824.74
438.93	1898.47
439.13	1857.51
439.34	1820.64
439.54	1710.05
439.75	1736.68
439.95	1773.54
440.16	1679.33
440.36	1722.34
440.57	1705.96
440.77	1710.05
440.98	1681.38
441.18	1730.53
441.39	1736.68
441.59	1640.42
441.80	1787.88
442.00	1687.53
442.21	1785.83
442.41	1624.04
442.62	1742.82
442.82	1703.91
443.02	1761.25
443.23	1830.88
443.43	1705.96
443.64	1726.44
443.84	1669.09
444.05	1839.08
444.25	1710.05
444.46	1597.42
444.66	1775.59
444.87	1718.25
445.07	1746.92
445.28	1775.59
445.48	1775.59
445.69	1736.68
445.89	1810.40
446.09	1791.97
446.30	2017.25
446.50	2648.02
446.71	3590.09
446.91	4083.65
447.12	4540.35
447.32	4802.49
447.53	4245.44
447.73	3862.47
447.93	3413.96
448.14	3196.88
448.34	3190.74
448.55	2965.46
448.75	2916.31
448.96	2602.97
449.16	2351.07
449.36	2193.37
449.57	2062.30
449.77	1888.23
449.98	1779.68
450.18	1732.58
450.39	1748.97
450.59	1779.68
450.79	1695.72
451.00	1736.68
451.20	1796.07
451.41	1740.77
451.61	1730.53
451.81	1755.11
452.02	1748.97
452.22	1722.34
452.43	1701.86
452.63	1652.71
