SpectraSuite Data File
++++++++++++++++++++++++++++++++++++
Date: Mon Jun 06 15:58:37 CEST 2016
User: root
Dark Spectrum Present: No
Reference Spectrum Present: No
Number of Sampled Component Spectra: 1
Spectrometers: USB4C02835
Integration Time (usec): 100000 (USB4C02835)
Spectra Averaged: 1 (USB4C02835)
Boxcar Smoothing: 0 (USB4C02835)
Correct for Electrical Dark: No (USB4C02835)
Strobe/Lamp Enabled: No (USB4C02835)
Correct for Detector Non-linearity: No (USB4C02835)
Correct for Stray Light: No (USB4C02835)
Number of Pixels in Processed Spectrum: 3648
>>>>>Begin Processed Spectral Data<<<<<
177.47	1460.20
177.69	1460.20
177.91	1460.20
178.13	1400.81
178.36	1472.49
178.58	1677.29
178.80	1746.92
179.02	1683.43
179.24	1621.99
179.46	1783.78
179.68	1751.01
179.90	1689.57
180.13	1753.06
180.35	1689.57
180.57	1662.95
180.79	1742.82
181.01	1673.19
181.23	1767.40
181.45	1849.32
181.67	1755.11
181.90	1775.59
182.12	1648.61
182.34	1617.90
182.56	1753.06
182.78	1724.39
183.00	1728.49
183.22	1742.82
183.44	1636.33
183.66	1912.80
183.89	1851.36
184.11	1753.06
184.33	1726.44
184.55	1751.01
184.77	1726.44
184.99	1791.97
185.21	1710.05
185.43	1863.65
185.65	1658.85
185.87	1755.11
186.10	1886.18
186.32	1896.42
186.54	1665.00
186.76	1718.25
186.98	1777.64
187.20	1683.43
187.42	1662.95
187.64	1642.47
187.86	1777.64
188.08	1755.11
188.30	1695.72
188.52	1742.82
188.75	1742.82
188.97	1783.78
189.19	1732.58
189.41	1724.39
189.63	1804.26
189.85	1708.01
190.07	1605.61
190.29	1761.25
190.51	1705.96
190.73	1578.98
190.95	1730.53
191.17	1714.15
191.39	1675.24
191.61	1681.38
191.84	1701.86
192.06	1714.15
192.28	1624.04
192.50	1937.38
192.72	1738.73
192.94	1632.23
193.16	1683.43
193.38	1693.67
193.60	1693.67
193.82	1757.16
194.04	1732.58
194.26	1722.34
194.48	1705.96
194.70	1689.57
194.92	1708.01
195.14	1652.71
195.36	1736.68
195.58	1748.97
195.80	1701.86
196.02	1665.00
196.24	1699.81
196.46	1736.68
196.69	1646.57
196.91	1918.95
197.13	1701.86
197.35	1583.08
197.57	1773.54
197.79	1755.11
198.01	1746.92
198.23	1769.44
198.45	1771.49
198.67	1710.05
198.89	1685.48
199.11	1701.86
199.33	1669.09
199.55	1607.66
199.77	1730.53
199.99	1800.16
200.21	1638.38
200.43	1783.78
200.65	1628.14
200.87	1574.89
201.09	1689.57
201.31	1755.11
201.53	1736.68
201.75	1677.29
201.97	1669.09
202.19	1714.15
202.41	1736.68
202.63	1890.28
202.85	1771.49
203.07	1710.05
203.29	1658.85
203.51	1673.19
203.73	1708.01
203.95	1877.99
204.17	1771.49
204.39	1714.15
204.61	1689.57
204.83	1726.44
205.05	1697.77
205.27	1656.81
205.49	1802.21
205.71	1765.35
205.93	1677.29
206.15	1609.70
206.37	1834.98
206.59	1701.86
206.81	1755.11
207.03	1615.85
207.25	1652.71
207.47	1734.63
207.69	1687.53
207.91	1779.68
208.13	1820.64
208.34	1720.29
208.56	1673.19
208.78	1753.06
209.00	1693.67
209.22	1683.43
209.44	1691.62
209.66	1718.25
209.88	1699.81
210.10	1673.19
210.32	1691.62
210.54	1755.11
210.76	1693.67
210.98	1714.15
211.20	1636.33
211.42	1738.73
211.64	1734.63
211.86	1714.15
212.08	1736.68
212.30	1722.34
212.52	1751.01
212.74	1699.81
212.96	1787.88
213.17	1691.62
213.39	1736.68
213.61	1755.11
213.83	1746.92
214.05	1615.85
214.27	1767.40
214.49	1716.20
214.71	1679.33
214.93	1755.11
215.15	1787.88
215.37	1796.07
215.59	1710.05
215.81	1781.73
216.03	1777.64
216.24	1687.53
216.46	1785.83
216.68	1765.35
216.90	1794.02
217.12	1765.35
217.34	1697.77
217.56	1746.92
217.78	1746.92
218.00	1755.11
218.22	1785.83
218.44	1744.87
218.66	1732.58
218.87	1791.97
219.09	1652.71
219.31	1748.97
219.53	1673.19
219.75	1701.86
219.97	1673.19
220.19	1798.12
220.41	1718.25
220.63	1695.72
220.85	1671.14
221.06	1726.44
221.28	1769.44
221.50	1757.16
221.72	1656.81
221.94	1751.01
222.16	1685.48
222.38	1708.01
222.60	1726.44
222.82	1718.25
223.03	1763.30
223.25	1574.89
223.47	1787.88
223.69	1837.03
223.91	1781.73
224.13	1748.97
224.35	1687.53
224.57	1779.68
224.78	1730.53
225.00	1695.72
225.22	1718.25
225.44	1748.97
225.66	1724.39
225.88	1716.20
226.10	1757.16
226.32	1732.58
226.53	1748.97
226.75	1624.04
226.97	1685.48
227.19	1689.57
227.41	1642.47
227.63	1689.57
227.85	1636.33
228.06	1621.99
228.28	1701.86
228.50	1742.82
228.72	1665.00
228.94	1675.24
229.16	1615.85
229.37	1685.48
229.59	1669.09
229.81	1738.73
230.03	1679.33
230.25	1667.05
230.47	1609.70
230.69	1650.66
230.90	1767.40
231.12	1722.34
231.34	1685.48
231.56	1748.97
231.78	1695.72
232.00	1845.22
232.21	1744.87
232.43	1691.62
232.65	1650.66
232.87	1777.64
233.09	1691.62
233.30	1650.66
233.52	1728.49
233.74	1730.53
233.96	1642.47
234.18	1822.69
234.40	1736.68
234.61	1841.12
234.83	1640.42
235.05	1644.52
235.27	1843.17
235.49	1751.01
235.70	1714.15
235.92	1716.20
236.14	1757.16
236.36	1808.36
236.58	1677.29
236.79	1828.84
237.01	1724.39
237.23	1705.96
237.45	1845.22
237.67	1716.20
237.88	1691.62
238.10	1806.31
238.32	1619.94
238.54	1736.68
238.76	1677.29
238.97	1705.96
239.19	1761.25
239.41	1708.01
239.63	1882.08
239.85	1669.09
240.06	1681.38
240.28	1671.14
240.50	1763.30
240.72	1705.96
240.93	1603.56
241.15	1763.30
241.37	1738.73
241.59	1765.35
241.81	1769.44
242.02	1679.33
242.24	1755.11
242.46	1763.30
242.68	1609.70
242.89	1806.31
243.11	1761.25
243.33	1718.25
243.55	1744.87
243.76	1679.33
243.98	1681.38
244.20	1708.01
244.42	1689.57
244.64	1710.05
244.85	1591.27
245.07	1665.00
245.29	1775.59
245.51	1734.63
245.72	1724.39
245.94	1740.77
246.16	1662.95
246.38	1746.92
246.59	1683.43
246.81	1699.81
247.03	1753.06
247.24	1619.94
247.46	1705.96
247.68	1710.05
247.90	1697.77
248.11	1734.63
248.33	1781.73
248.55	1677.29
248.77	1705.96
248.98	1726.44
249.20	1808.36
249.42	1714.15
249.64	1787.88
249.85	1699.81
250.07	1650.66
250.29	1699.81
250.50	1736.68
250.72	1640.42
250.94	1751.01
251.16	1886.18
251.37	1814.50
251.59	1802.21
251.81	1732.58
252.02	1810.40
252.24	1705.96
252.46	1806.31
252.68	1650.66
252.89	1705.96
253.11	1593.32
253.33	1740.77
253.54	1822.69
253.76	1687.53
253.98	1626.09
254.20	1781.73
254.41	1667.05
254.63	1667.05
254.85	1628.14
255.06	1701.86
255.28	1687.53
255.50	1665.00
255.71	1636.33
255.93	1566.70
256.15	1720.29
256.36	1740.77
256.58	1660.90
256.80	1740.77
257.02	1755.11
257.23	1671.14
257.45	1734.63
257.67	1685.48
257.88	1685.48
258.10	1736.68
258.32	1720.29
258.53	1781.73
258.75	1804.26
258.97	1671.14
259.18	1693.67
259.40	1789.92
259.62	1824.74
259.83	1816.55
260.05	1785.83
260.27	1984.48
260.48	1771.49
260.70	1673.19
260.92	1783.78
261.13	1761.25
261.35	1771.49
261.57	1796.07
261.78	1624.04
262.00	1681.38
262.22	1794.02
262.43	1636.33
262.65	1720.29
262.86	1779.68
263.08	1820.64
263.30	1695.72
263.51	1630.18
263.73	1673.19
263.95	1744.87
264.16	1683.43
264.38	1601.51
264.60	1675.24
264.81	1703.91
265.03	1781.73
265.25	1822.69
265.46	1687.53
265.68	1828.84
265.89	1734.63
266.11	1656.81
266.33	1748.97
266.54	1759.21
266.76	1761.25
266.98	1697.77
267.19	1808.36
267.41	1718.25
267.62	1724.39
267.84	1619.94
268.06	1732.58
268.27	1697.77
268.49	1822.69
268.70	1691.62
268.92	1783.78
269.14	1685.48
269.35	1640.42
269.57	1624.04
269.79	1710.05
270.00	1613.80
270.22	1783.78
270.43	1744.87
270.65	1566.70
270.87	1720.29
271.08	1724.39
271.30	1738.73
271.51	1718.25
271.73	1748.97
271.95	1857.51
272.16	1761.25
272.38	1673.19
272.59	1710.05
272.81	1691.62
273.02	1753.06
273.24	1726.44
273.46	1689.57
273.67	1677.29
273.89	1652.71
274.10	1695.72
274.32	1796.07
274.54	1710.05
274.75	1671.14
274.97	1716.20
275.18	1767.40
275.40	1777.64
275.61	1662.95
275.83	1746.92
276.05	1656.81
276.26	1728.49
276.48	1683.43
276.69	1654.76
276.91	1632.23
277.12	1730.53
277.34	1730.53
277.55	1761.25
277.77	1748.97
277.99	1701.86
278.20	1648.61
278.42	1587.18
278.63	1656.81
278.85	1607.66
279.06	1705.96
279.28	1783.78
279.49	1714.15
279.71	1794.02
279.93	1783.78
280.14	1712.10
280.36	1718.25
280.57	1693.67
280.79	1767.40
281.00	1679.33
281.22	1722.34
281.43	1757.16
281.65	1609.70
281.86	1632.23
282.08	1812.45
282.29	1796.07
282.51	1597.42
282.73	1683.43
282.94	1589.22
283.16	1763.30
283.37	1816.55
283.59	1693.67
283.80	1751.01
284.02	1767.40
284.23	1779.68
284.45	1660.90
284.66	1677.29
284.88	1636.33
285.09	1800.16
285.31	1736.68
285.52	1556.46
285.74	1632.23
285.95	1753.06
286.17	1650.66
286.38	1742.82
286.60	1701.86
286.81	1714.15
287.03	1759.21
287.24	1785.83
287.46	1693.67
287.67	1757.16
287.89	1880.04
288.10	1763.30
288.32	1771.49
288.53	1794.02
288.75	1783.78
288.96	1734.63
289.18	1669.09
289.39	1708.01
289.61	1775.59
289.82	1822.69
290.04	1867.75
290.25	1638.38
290.47	1703.91
290.68	1705.96
290.90	1820.64
291.11	1628.14
291.33	1742.82
291.54	1638.38
291.76	1677.29
291.97	1757.16
292.18	1730.53
292.40	1697.77
292.61	1708.01
292.83	1814.50
293.04	1787.88
293.26	1746.92
293.47	1787.88
293.69	1648.61
293.90	1744.87
294.12	1712.10
294.33	1687.53
294.55	1624.04
294.76	1787.88
294.97	1773.54
295.19	1820.64
295.40	1636.33
295.62	1802.21
295.83	1736.68
296.05	1660.90
296.26	1791.97
296.48	1710.05
296.69	1656.81
296.90	1701.86
297.12	1769.44
297.33	1796.07
297.55	1732.58
297.76	1732.58
297.98	1779.68
298.19	1738.73
298.41	1708.01
298.62	1646.57
298.83	1787.88
299.05	1730.53
299.26	1695.72
299.48	1718.25
299.69	1787.88
299.90	1697.77
300.12	1662.95
300.33	1734.63
300.55	1726.44
300.76	1771.49
300.98	1626.09
301.19	1751.01
301.40	1677.29
301.62	1673.19
301.83	1761.25
302.05	1761.25
302.26	1755.11
302.47	1816.55
302.69	1697.77
302.90	1716.20
303.12	1626.09
303.33	1789.92
303.54	1726.44
303.76	1695.72
303.97	1730.53
304.19	1859.56
304.40	1636.33
304.61	1767.40
304.83	1834.98
305.04	1720.29
305.26	1710.05
305.47	1628.14
305.68	1710.05
305.90	1621.99
306.11	1800.16
306.33	1689.57
306.54	1679.33
306.75	1755.11
306.97	1644.52
307.18	1662.95
307.39	1673.19
307.61	1734.63
307.82	1660.90
308.04	1720.29
308.25	1619.94
308.46	1771.49
308.68	1738.73
308.89	1757.16
309.10	1736.68
309.32	1740.77
309.53	1710.05
309.74	1736.68
309.96	1716.20
310.17	1761.25
310.39	1671.14
310.60	1728.49
310.81	1634.28
311.03	1626.09
311.24	1728.49
311.45	1806.31
311.67	1843.17
311.88	1689.57
312.09	1720.29
312.31	1687.53
312.52	1667.05
312.73	1705.96
312.95	1587.18
313.16	1681.38
313.37	1757.16
313.59	1652.71
313.80	1755.11
314.01	1779.68
314.23	1681.38
314.44	1683.43
314.65	1640.42
314.87	1710.05
315.08	1644.52
315.29	1722.34
315.51	1642.47
315.72	1703.91
315.93	1820.64
316.15	1726.44
316.36	1789.92
316.57	1751.01
316.79	1818.60
317.00	1724.39
317.21	1642.47
317.43	1716.20
317.64	1710.05
317.85	1619.94
318.07	1697.77
318.28	1806.31
318.49	1787.88
318.70	1920.99
318.92	1841.12
319.13	1804.26
319.34	1783.78
319.56	1839.08
319.77	1804.26
319.98	1830.88
320.20	1810.40
320.41	1736.68
320.62	1767.40
320.83	1615.85
321.05	1834.98
321.26	1722.34
321.47	1746.92
321.69	1837.03
321.90	1640.42
322.11	1689.57
322.32	1763.30
322.54	1794.02
322.75	1695.72
322.96	1873.89
323.18	1679.33
323.39	1609.70
323.60	1669.09
323.81	1787.88
324.03	1734.63
324.24	1660.90
324.45	1699.81
324.66	1677.29
324.88	1791.97
325.09	1798.12
325.30	1671.14
325.52	1621.99
325.73	1767.40
325.94	1656.81
326.15	1650.66
326.37	1712.10
326.58	1732.58
326.79	1873.89
327.00	1611.75
327.22	1732.58
327.43	1746.92
327.64	1615.85
327.85	1740.77
328.07	1669.09
328.28	1791.97
328.49	1757.16
328.70	1828.84
328.92	1746.92
329.13	1785.83
329.34	1832.93
329.55	1757.16
329.76	1777.64
329.98	1683.43
330.19	1775.59
330.40	1746.92
330.61	1697.77
330.83	1689.57
331.04	1626.09
331.25	1689.57
331.46	1646.57
331.68	1660.90
331.89	1746.92
332.10	1720.29
332.31	1662.95
332.52	1697.77
332.74	1783.78
332.95	1642.47
333.16	1759.21
333.37	1744.87
333.58	1718.25
333.80	1796.07
334.01	1632.23
334.22	1689.57
334.43	1687.53
334.64	1656.81
334.86	1722.34
335.07	1720.29
335.28	1732.58
335.49	1595.37
335.70	1728.49
335.92	1796.07
336.13	1837.03
336.34	1753.06
336.55	1691.62
336.76	1720.29
336.98	1624.04
337.19	1738.73
337.40	1863.65
337.61	1859.56
337.82	1619.94
338.04	1781.73
338.25	1630.18
338.46	1607.66
338.67	1693.67
338.88	1671.14
339.09	1763.30
339.31	1701.86
339.52	1714.15
339.73	1660.90
339.94	1724.39
340.15	1763.30
340.36	1656.81
340.58	1714.15
340.79	1611.75
341.00	1746.92
341.21	1644.52
341.42	1857.51
341.63	1755.11
341.85	1769.44
342.06	1722.34
342.27	1640.42
342.48	1744.87
342.69	1630.18
342.90	1767.40
343.12	1740.77
343.33	1589.22
343.54	1679.33
343.75	1830.88
343.96	1652.71
344.17	1673.19
344.38	1667.05
344.60	1665.00
344.81	1644.52
345.02	1656.81
345.23	1777.64
345.44	1912.80
345.65	1820.64
345.86	1726.44
346.07	1630.18
346.29	1646.57
346.50	1746.92
346.71	1724.39
346.92	1742.82
347.13	1875.94
347.34	1679.33
347.55	1656.81
347.76	1720.29
347.98	1675.24
348.19	1697.77
348.40	1808.36
348.61	1724.39
348.82	1789.92
349.03	1783.78
349.24	1624.04
349.45	1787.88
349.66	1626.09
349.88	1673.19
350.09	1681.38
350.30	1734.63
350.51	1847.27
350.72	1738.73
350.93	1718.25
351.14	1695.72
351.35	1775.59
351.56	1669.09
351.77	1714.15
351.99	1687.53
352.20	1818.60
352.41	1800.16
352.62	1607.66
352.83	1685.48
353.04	1722.34
353.25	1687.53
353.46	1810.40
353.67	1820.64
353.88	1634.28
354.09	1648.61
354.30	1734.63
354.52	1732.58
354.73	1716.20
354.94	1738.73
355.15	1601.51
355.36	1802.21
355.57	1761.25
355.78	1650.66
355.99	1671.14
356.20	1755.11
356.41	1787.88
356.62	1699.81
356.83	1675.24
357.04	1837.03
357.25	1564.65
357.46	1726.44
357.68	1626.09
357.89	1658.85
358.10	1714.15
358.31	1730.53
358.52	1691.62
358.73	1603.56
358.94	1712.10
359.15	1628.14
359.36	1748.97
359.57	1689.57
359.78	1673.19
359.99	1701.86
360.20	1615.85
360.41	1693.67
360.62	1665.00
360.83	1794.02
361.04	1734.63
361.25	1771.49
361.46	1781.73
361.67	1712.10
361.88	1695.72
362.09	1785.83
362.30	1691.62
362.51	1720.29
362.72	1705.96
362.93	1818.60
363.14	1753.06
363.35	1730.53
363.56	1681.38
363.78	1695.72
363.99	1714.15
364.20	1705.96
364.41	1644.52
364.62	1832.93
364.83	1687.53
365.04	1718.25
365.25	1748.97
365.46	1798.12
365.67	1652.71
365.88	1673.19
366.09	1689.57
366.30	1724.39
366.51	1746.92
366.72	1683.43
366.93	1763.30
367.14	1763.30
367.35	1693.67
367.56	1697.77
367.77	1771.49
367.98	1683.43
368.18	1755.11
368.39	1755.11
368.60	1650.66
368.81	1837.03
369.02	1703.91
369.23	1730.53
369.44	1648.61
369.65	1638.38
369.86	1693.67
370.07	1712.10
370.28	1671.14
370.49	1677.29
370.70	1763.30
370.91	1609.70
371.12	1597.42
371.33	1757.16
371.54	1695.72
371.75	1849.32
371.96	1660.90
372.17	1753.06
372.38	1744.87
372.59	1771.49
372.80	1685.48
373.01	1710.05
373.22	1681.38
373.43	1660.90
373.64	1722.34
373.85	1794.02
374.06	1826.79
374.26	1765.35
374.47	1736.68
374.68	1755.11
374.89	1757.16
375.10	1662.95
375.31	1722.34
375.52	1740.77
375.73	1740.77
375.94	1615.85
376.15	1787.88
376.36	1689.57
376.57	1738.73
376.78	1738.73
376.99	1724.39
377.20	1806.31
377.40	1736.68
377.61	1722.34
377.82	1665.00
378.03	1820.64
378.24	1687.53
378.45	1685.48
378.66	1708.01
378.87	1630.18
379.08	1644.52
379.29	1689.57
379.50	1869.80
379.71	1683.43
379.91	1753.06
380.12	1650.66
380.33	1779.68
380.54	1712.10
380.75	1703.91
380.96	1708.01
381.17	1695.72
381.38	1728.49
381.59	1683.43
381.80	1726.44
382.00	1912.80
382.21	1751.01
382.42	1849.32
382.63	1845.22
382.84	1728.49
383.05	1802.21
383.26	1791.97
383.47	1726.44
383.68	1728.49
383.88	1808.36
384.09	1783.78
384.30	1734.63
384.51	1759.21
384.72	1669.09
384.93	1699.81
385.14	1685.48
385.35	1775.59
385.55	1695.72
385.76	1796.07
385.97	1730.53
386.18	1650.66
386.39	1728.49
386.60	1599.46
386.81	1667.05
387.02	1640.42
387.22	1591.27
387.43	1759.21
387.64	1880.04
387.85	1839.08
388.06	2260.96
388.27	4286.40
388.48	6735.77
388.68	8091.52
388.89	9488.24
389.10	9631.60
389.31	8404.86
389.52	7520.14
389.73	6655.90
389.93	6184.87
390.14	5754.79
390.35	5126.07
390.56	4456.38
390.77	3721.16
390.98	2965.46
391.18	2445.27
391.39	2150.37
391.60	1843.17
391.81	1857.51
392.02	1710.05
392.23	1875.94
392.43	1650.66
392.64	1855.46
392.85	1689.57
393.06	1787.88
393.27	1722.34
393.47	1695.72
393.68	1761.25
393.89	1693.67
394.10	1732.58
394.31	1710.05
394.52	1667.05
394.72	1642.47
394.93	1810.40
395.14	1695.72
395.35	1732.58
395.56	1691.62
395.76	1628.14
395.97	1896.42
396.18	1845.22
396.39	1892.32
396.60	2025.44
396.80	1802.21
397.01	1910.75
397.22	1908.71
397.43	1828.84
397.64	1757.16
397.84	1740.77
398.05	1853.41
398.26	1800.16
398.47	1853.41
398.67	1789.92
398.88	1681.38
399.09	1720.29
399.30	1689.57
399.51	1742.82
399.71	1667.05
399.92	1705.96
400.13	1820.64
400.34	1687.53
400.54	1701.86
400.75	1761.25
400.96	1734.63
401.17	1828.84
401.37	1732.58
401.58	1708.01
401.79	1738.73
402.00	1869.80
402.21	2000.87
402.41	1982.43
402.62	2056.16
402.83	2054.11
403.04	1992.67
403.24	2117.60
403.45	1931.23
403.66	1865.70
403.87	1877.99
404.07	1910.75
404.28	1945.57
404.49	1929.19
404.70	1716.20
404.90	1724.39
405.11	1804.26
405.32	1738.73
405.52	1703.91
405.73	1652.71
405.94	1777.64
406.15	1738.73
406.35	1734.63
406.56	1767.40
406.77	1800.16
406.98	1705.96
407.18	1665.00
407.39	1763.30
407.60	1773.54
407.80	1626.09
408.01	1679.33
408.22	1763.30
408.43	1718.25
408.63	1763.30
408.84	1720.29
409.05	1773.54
409.25	1683.43
409.46	1660.90
409.67	1744.87
409.88	1703.91
410.08	1767.40
410.29	1748.97
410.50	1611.75
410.70	1675.24
410.91	1662.95
411.12	1757.16
411.32	1695.72
411.53	1714.15
411.74	1789.92
411.95	1775.59
412.15	1779.68
412.36	1742.82
412.57	1755.11
412.77	1800.16
412.98	1757.16
413.19	1685.48
413.39	1775.59
413.60	1759.21
413.81	1849.32
414.01	1587.18
414.22	1734.63
414.43	1753.06
414.63	1669.09
414.84	1812.45
415.05	1665.00
415.25	1652.71
415.46	1736.68
415.67	1669.09
415.87	1695.72
416.08	1675.24
416.29	1734.63
416.49	1761.25
416.70	1738.73
416.91	1708.01
417.11	1691.62
417.32	1755.11
417.53	1712.10
417.73	1841.12
417.94	1753.06
418.15	1683.43
418.35	1716.20
418.56	1718.25
418.77	1892.32
418.97	1685.48
419.18	1710.05
419.38	1609.70
419.59	1677.29
419.80	1769.44
420.00	1665.00
420.21	1767.40
420.42	1824.74
420.62	1767.40
420.83	1652.71
421.04	1681.38
421.24	1712.10
421.45	1779.68
421.65	1701.86
421.86	1695.72
422.07	1757.16
422.27	1710.05
422.48	1710.05
422.69	1716.20
422.89	1718.25
423.10	1708.01
423.30	1601.51
423.51	1787.88
423.72	1787.88
423.92	1718.25
424.13	1693.67
424.33	1773.54
424.54	1783.78
424.75	1734.63
424.95	1777.64
425.16	1751.01
425.36	1624.04
425.57	1773.54
425.78	1783.78
425.98	1759.21
426.19	1669.09
426.39	1589.22
426.60	1716.20
426.81	1787.88
427.01	1726.44
427.22	1693.67
427.42	1621.99
427.63	1662.95
427.83	1826.79
428.04	1822.69
428.25	1789.92
428.45	1834.98
428.66	1785.83
428.86	1671.14
429.07	1667.05
429.28	1759.21
429.48	1787.88
429.69	1662.95
429.89	1728.49
430.10	1652.71
430.30	1771.49
430.51	1804.26
430.71	1783.78
430.92	1691.62
431.13	1728.49
431.33	1742.82
431.54	1689.57
431.74	1773.54
431.95	1867.75
432.15	1583.08
432.36	1646.57
432.56	1753.06
432.77	1771.49
432.98	1763.30
433.18	1701.86
433.39	1724.39
433.59	1738.73
433.80	1800.16
434.00	1916.90
434.21	1738.73
434.41	1693.67
434.62	1849.32
434.82	1652.71
435.03	1656.81
435.23	1736.68
435.44	1652.71
435.64	1732.58
435.85	1755.11
436.06	1726.44
436.26	1834.98
436.47	1724.39
436.67	1630.18
436.88	1742.82
437.08	1720.29
437.29	1775.59
437.49	1710.05
437.70	1777.64
437.90	1748.97
438.11	1802.21
438.31	1779.68
438.52	1824.74
438.72	1910.75
438.93	1959.91
439.13	1785.83
439.34	1853.41
439.54	1757.16
439.75	1861.60
439.95	1832.93
440.16	1730.53
440.36	1761.25
440.57	1789.92
440.77	1828.84
440.98	1683.43
441.18	1722.34
441.39	1730.53
441.59	1650.66
441.80	1898.47
442.00	1744.87
442.21	1896.42
442.41	1640.42
442.62	1832.93
442.82	1789.92
443.02	1730.53
443.23	1769.44
443.43	1796.07
443.64	1785.83
443.84	1644.52
444.05	1882.08
444.25	1769.44
444.46	1742.82
444.66	1722.34
444.87	1843.17
445.07	1730.53
445.28	1753.06
445.48	1806.31
445.69	1779.68
445.89	1894.37
446.09	1812.45
446.30	1988.58
446.50	2664.41
446.71	3655.62
446.91	4327.36
447.12	4794.29
447.32	4796.34
447.53	4306.88
447.73	3901.38
447.93	3436.49
448.14	3315.66
448.34	3237.84
448.55	2861.01
448.75	2891.73
448.96	2607.06
449.16	2449.37
449.36	2222.05
449.57	2060.26
449.77	1892.32
449.98	1794.02
450.18	1873.89
450.39	1812.45
450.59	1751.01
450.79	1783.78
451.00	1755.11
451.20	1873.89
451.41	1740.77
451.61	1785.83
451.81	1765.35
452.02	1605.61
452.22	1705.96
452.43	1740.77
452.63	1656.81
