SpectraSuite Data File
++++++++++++++++++++++++++++++++++++
Date: Mon Jun 06 13:04:57 CEST 2016
User: root
Dark Spectrum Present: No
Reference Spectrum Present: No
Number of Sampled Component Spectra: 1
Spectrometers: USB4C02835
Integration Time (usec): 100000 (USB4C02835)
Spectra Averaged: 1 (USB4C02835)
Boxcar Smoothing: 0 (USB4C02835)
Correct for Electrical Dark: No (USB4C02835)
Strobe/Lamp Enabled: No (USB4C02835)
Correct for Detector Non-linearity: No (USB4C02835)
Correct for Stray Light: No (USB4C02835)
Number of Pixels in Processed Spectrum: 3648
>>>>>Begin Processed Spectral Data<<<<<
177.47	1480.68
177.69	1480.68
177.91	1480.68
178.13	1497.07
178.36	1488.87
178.58	1669.09
178.80	1703.91
179.02	1624.04
179.24	1730.53
179.46	1642.47
179.68	1734.63
179.90	1738.73
180.13	1693.67
180.35	1589.22
180.57	1742.82
180.79	1703.91
181.01	1722.34
181.23	1689.57
181.45	1744.87
181.67	1671.14
181.90	1714.15
182.12	1695.72
182.34	1599.46
182.56	1681.38
182.78	1693.67
183.00	1724.39
183.22	1671.14
183.44	1626.09
183.66	1781.73
183.89	1748.97
184.11	1730.53
184.33	1722.34
184.55	1769.44
184.77	1730.53
184.99	1683.43
185.21	1697.77
185.43	1841.12
185.65	1667.05
185.87	1798.12
186.10	1849.32
186.32	1863.65
186.54	1798.12
186.76	1781.73
186.98	1675.24
187.20	1722.34
187.42	1675.24
187.64	1697.77
187.86	1751.01
188.08	1722.34
188.30	1658.85
188.52	1689.57
188.75	1816.55
188.97	1794.02
189.19	1761.25
189.41	1644.52
189.63	1667.05
189.85	1660.90
190.07	1646.57
190.29	1611.75
190.51	1658.85
190.73	1593.32
190.95	1746.92
191.17	1683.43
191.39	1615.85
191.61	1662.95
191.84	1722.34
192.06	1796.07
192.28	1669.09
192.50	1886.18
192.72	1744.87
192.94	1722.34
193.16	1732.58
193.38	1724.39
193.60	1591.27
193.82	1716.20
194.04	1732.58
194.26	1740.77
194.48	1611.75
194.70	1710.05
194.92	1669.09
195.14	1746.92
195.36	1687.53
195.58	1701.86
195.80	1693.67
196.02	1634.28
196.24	1665.00
196.46	1687.53
196.69	1667.05
196.91	1902.56
197.13	1652.71
197.35	1689.57
197.57	1730.53
197.79	1810.40
198.01	1697.77
198.23	1710.05
198.45	1697.77
198.67	1619.94
198.89	1705.96
199.11	1675.24
199.33	1621.99
199.55	1558.50
199.77	1710.05
199.99	1751.01
200.21	1646.57
200.43	1705.96
200.65	1634.28
200.87	1554.41
201.09	1763.30
201.31	1734.63
201.53	1777.64
201.75	1798.12
201.97	1662.95
202.19	1759.21
202.41	1662.95
202.63	1773.54
202.85	1753.06
203.07	1730.53
203.29	1640.42
203.51	1630.18
203.73	1650.66
203.95	1832.93
204.17	1611.75
204.39	1812.45
204.61	1705.96
204.83	1681.38
205.05	1753.06
205.27	1720.29
205.49	1826.79
205.71	1581.03
205.93	1671.14
206.15	1736.68
206.37	1658.85
206.59	1654.76
206.81	1691.62
207.03	1609.70
207.25	1630.18
207.47	1763.30
207.69	1691.62
207.91	1869.80
208.13	1757.16
208.34	1695.72
208.56	1638.38
208.78	1691.62
209.00	1617.90
209.22	1660.90
209.44	1710.05
209.66	1617.90
209.88	1716.20
210.10	1624.04
210.32	1685.48
210.54	1718.25
210.76	1691.62
210.98	1673.19
211.20	1617.90
211.42	1738.73
211.64	1763.30
211.86	1734.63
212.08	1665.00
212.30	1759.21
212.52	1652.71
212.74	1791.97
212.96	1681.38
213.17	1703.91
213.39	1697.77
213.61	1785.83
213.83	1794.02
214.05	1611.75
214.27	1744.87
214.49	1669.09
214.71	1679.33
214.93	1763.30
215.15	1648.61
215.37	1767.40
215.59	1648.61
215.81	1841.12
216.03	1779.68
216.24	1732.58
216.46	1658.85
216.68	1724.39
216.90	1789.92
217.12	1781.73
217.34	1654.76
217.56	1755.11
217.78	1779.68
218.00	1677.29
218.22	1738.73
218.44	1705.96
218.66	1675.24
218.87	1861.60
219.09	1669.09
219.31	1708.01
219.53	1640.42
219.75	1703.91
219.97	1705.96
220.19	1710.05
220.41	1615.85
220.63	1738.73
220.85	1777.64
221.06	1673.19
221.28	1763.30
221.50	1683.43
221.72	1662.95
221.94	1656.81
222.16	1675.24
222.38	1757.16
222.60	1734.63
222.82	1665.00
223.03	1765.35
223.25	1607.66
223.47	1744.87
223.69	1722.34
223.91	1789.92
224.13	1710.05
224.35	1648.61
224.57	1759.21
224.78	1757.16
225.00	1599.46
225.22	1646.57
225.44	1716.20
225.66	1701.86
225.88	1673.19
226.10	1783.78
226.32	1767.40
226.53	1818.60
226.75	1669.09
226.97	1681.38
227.19	1746.92
227.41	1679.33
227.63	1650.66
227.85	1630.18
228.06	1675.24
228.28	1681.38
228.50	1771.49
228.72	1658.85
228.94	1652.71
229.16	1591.27
229.37	1632.23
229.59	1695.72
229.81	1689.57
230.03	1564.65
230.25	1669.09
230.47	1656.81
230.69	1624.04
230.90	1810.40
231.12	1607.66
231.34	1681.38
231.56	1775.59
231.78	1593.32
232.00	1728.49
232.21	1699.81
232.43	1658.85
232.65	1603.56
232.87	1722.34
233.09	1615.85
233.30	1689.57
233.52	1701.86
233.74	1611.75
233.96	1619.94
234.18	1722.34
234.40	1742.82
234.61	1869.80
234.83	1638.38
235.05	1617.90
235.27	1775.59
235.49	1742.82
235.70	1746.92
235.92	1726.44
236.14	1705.96
236.36	1826.79
236.58	1617.90
236.79	1714.15
237.01	1701.86
237.23	1724.39
237.45	1851.36
237.67	1673.19
237.88	1665.00
238.10	1791.97
238.32	1617.90
238.54	1708.01
238.76	1742.82
238.97	1595.37
239.19	1640.42
239.41	1746.92
239.63	1773.54
239.85	1687.53
240.06	1689.57
240.28	1671.14
240.50	1787.88
240.72	1708.01
240.93	1681.38
241.15	1796.07
241.37	1662.95
241.59	1751.01
241.81	1617.90
242.02	1746.92
242.24	1689.57
242.46	1734.63
242.68	1583.08
242.89	1740.77
243.11	1736.68
243.33	1681.38
243.55	1779.68
243.76	1675.24
243.98	1673.19
244.20	1648.61
244.42	1667.05
244.64	1636.33
244.85	1701.86
245.07	1591.27
245.29	1777.64
245.51	1691.62
245.72	1742.82
245.94	1816.55
246.16	1648.61
246.38	1765.35
246.59	1705.96
246.81	1632.23
247.03	1662.95
247.24	1544.17
247.46	1650.66
247.68	1691.62
247.90	1710.05
248.11	1697.77
248.33	1751.01
248.55	1634.28
248.77	1740.77
248.98	1771.49
249.20	1779.68
249.42	1665.00
249.64	1740.77
249.85	1648.61
250.07	1642.47
250.29	1714.15
250.50	1751.01
250.72	1652.71
250.94	1773.54
251.16	1812.45
251.37	1806.31
251.59	1701.86
251.81	1736.68
252.02	1787.88
252.24	1656.81
252.46	1771.49
252.68	1658.85
252.89	1689.57
253.11	1599.46
253.33	1890.28
253.54	1808.36
253.76	1619.94
253.98	1681.38
254.20	1691.62
254.41	1640.42
254.63	1665.00
254.85	1665.00
255.06	1730.53
255.28	1615.85
255.50	1697.77
255.71	1632.23
255.93	1632.23
256.15	1648.61
256.36	1681.38
256.58	1669.09
256.80	1755.11
257.02	1744.87
257.23	1652.71
257.45	1720.29
257.67	1748.97
257.88	1605.61
258.10	1716.20
258.32	1685.48
258.53	1685.48
258.75	1705.96
258.97	1619.94
259.18	1685.48
259.40	1689.57
259.62	1785.83
259.83	1773.54
260.05	1708.01
260.27	2009.06
260.48	1734.63
260.70	1634.28
260.92	1712.10
261.13	1660.90
261.35	1683.43
261.57	1710.05
261.78	1597.42
262.00	1665.00
262.22	1708.01
262.43	1691.62
262.65	1751.01
262.86	1683.43
263.08	1849.32
263.30	1755.11
263.51	1619.94
263.73	1746.92
263.95	1779.68
264.16	1617.90
264.38	1689.57
264.60	1714.15
264.81	1667.05
265.03	1753.06
265.25	1693.67
265.46	1699.81
265.68	1783.78
265.89	1757.16
266.11	1572.84
266.33	1787.88
266.54	1730.53
266.76	1736.68
266.98	1753.06
267.19	1736.68
267.41	1837.03
267.62	1726.44
267.84	1566.70
268.06	1767.40
268.27	1705.96
268.49	1849.32
268.70	1779.68
268.92	1642.47
269.14	1568.74
269.35	1648.61
269.57	1681.38
269.79	1734.63
270.00	1669.09
270.22	1789.92
270.43	1636.33
270.65	1568.74
270.87	1751.01
271.08	1746.92
271.30	1722.34
271.51	1673.19
271.73	1841.12
271.95	1820.64
272.16	1687.53
272.38	1730.53
272.59	1640.42
272.81	1687.53
273.02	1665.00
273.24	1732.58
273.46	1740.77
273.67	1691.62
273.89	1644.52
274.10	1771.49
274.32	1714.15
274.54	1603.56
274.75	1718.25
274.97	1624.04
275.18	1654.76
275.40	1675.24
275.61	1746.92
275.83	1771.49
276.05	1611.75
276.26	1716.20
276.48	1710.05
276.69	1624.04
276.91	1638.38
277.12	1796.07
277.34	1755.11
277.55	1787.88
277.77	1746.92
277.99	1720.29
278.20	1662.95
278.42	1656.81
278.63	1644.52
278.85	1615.85
279.06	1693.67
279.28	1705.96
279.49	1722.34
279.71	1789.92
279.93	1681.38
280.14	1791.97
280.36	1714.15
280.57	1798.12
280.79	1744.87
281.00	1689.57
281.22	1681.38
281.43	1718.25
281.65	1624.04
281.86	1675.24
282.08	1697.77
282.29	1880.04
282.51	1519.59
282.73	1724.39
282.94	1640.42
283.16	1798.12
283.37	1791.97
283.59	1791.97
283.80	1722.34
284.02	1636.33
284.23	1669.09
284.45	1652.71
284.66	1689.57
284.88	1708.01
285.09	1689.57
285.31	1691.62
285.52	1777.64
285.74	1640.42
285.95	1660.90
286.17	1753.06
286.38	1712.10
286.60	1650.66
286.81	1654.76
287.03	1732.58
287.24	1671.14
287.46	1628.14
287.67	1683.43
287.89	1806.31
288.10	1703.91
288.32	1703.91
288.53	1761.25
288.75	1710.05
288.96	1669.09
289.18	1691.62
289.39	1691.62
289.61	1716.20
289.82	1761.25
290.04	1753.06
290.25	1585.13
290.47	1691.62
290.68	1630.18
290.90	1720.29
291.11	1720.29
291.33	1712.10
291.54	1693.67
291.76	1677.29
291.97	1628.14
292.18	1757.16
292.40	1652.71
292.61	1650.66
292.83	1839.08
293.04	1697.77
293.26	1673.19
293.47	1693.67
293.69	1671.14
293.90	1714.15
294.12	1839.08
294.33	1726.44
294.55	1705.96
294.76	1734.63
294.97	1757.16
295.19	1839.08
295.40	1652.71
295.62	1763.30
295.83	1732.58
296.05	1693.67
296.26	1808.36
296.48	1583.08
296.69	1712.10
296.90	1683.43
297.12	1730.53
297.33	1753.06
297.55	1734.63
297.76	1730.53
297.98	1757.16
298.19	1716.20
298.41	1693.67
298.62	1652.71
298.83	1746.92
299.05	1720.29
299.26	1660.90
299.48	1656.81
299.69	1695.72
299.90	1710.05
300.12	1697.77
300.33	1742.82
300.55	1759.21
300.76	1685.48
300.98	1648.61
301.19	1742.82
301.40	1640.42
301.62	1675.24
301.83	1742.82
302.05	1740.77
302.26	1759.21
302.47	1679.33
302.69	1615.85
302.90	1640.42
303.12	1601.51
303.33	1685.48
303.54	1806.31
303.76	1644.52
303.97	1697.77
304.19	1781.73
304.40	1630.18
304.61	1738.73
304.83	1806.31
305.04	1748.97
305.26	1708.01
305.47	1597.42
305.68	1638.38
305.90	1677.29
306.11	1705.96
306.33	1748.97
306.54	1593.32
306.75	1611.75
306.97	1619.94
307.18	1689.57
307.39	1701.86
307.61	1734.63
307.82	1716.20
308.04	1712.10
308.25	1665.00
308.46	1730.53
308.68	1677.29
308.89	1744.87
309.10	1753.06
309.32	1734.63
309.53	1673.19
309.74	1777.64
309.96	1701.86
310.17	1794.02
310.39	1644.52
310.60	1708.01
310.81	1732.58
311.03	1675.24
311.24	1689.57
311.45	1701.86
311.67	1832.93
311.88	1763.30
312.09	1652.71
312.31	1667.05
312.52	1693.67
312.73	1726.44
312.95	1673.19
313.16	1710.05
313.37	1855.46
313.59	1742.82
313.80	1718.25
314.01	1759.21
314.23	1648.61
314.44	1621.99
314.65	1603.56
314.87	1605.61
315.08	1617.90
315.29	1703.91
315.51	1660.90
315.72	1587.18
315.93	1839.08
316.15	1796.07
316.36	1681.38
316.57	1654.76
316.79	1708.01
317.00	1701.86
317.21	1710.05
317.43	1685.48
317.64	1673.19
317.85	1677.29
318.07	1611.75
318.28	1705.96
318.49	1886.18
318.70	1871.84
318.92	1824.74
319.13	1843.17
319.34	1824.74
319.56	1775.59
319.77	1853.41
319.98	1816.55
320.20	1777.64
320.41	1703.91
320.62	1753.06
320.83	1718.25
321.05	1826.79
321.26	1667.05
321.47	1697.77
321.69	1769.44
321.90	1617.90
322.11	1697.77
322.32	1726.44
322.54	1777.64
322.75	1634.28
322.96	1839.08
323.18	1605.61
323.39	1609.70
323.60	1697.77
323.81	1703.91
324.03	1675.24
324.24	1726.44
324.45	1691.62
324.66	1621.99
324.88	1767.40
325.09	1781.73
325.30	1732.58
325.52	1699.81
325.73	1689.57
325.94	1693.67
326.15	1660.90
326.37	1689.57
326.58	1724.39
326.79	1824.74
327.00	1665.00
327.22	1665.00
327.43	1722.34
327.64	1656.81
327.85	1673.19
328.07	1624.04
328.28	1837.03
328.49	1654.76
328.70	1628.14
328.92	1703.91
329.13	1693.67
329.34	1761.25
329.55	1789.92
329.76	1691.62
329.98	1640.42
330.19	1763.30
330.40	1802.21
330.61	1742.82
330.83	1730.53
331.04	1705.96
331.25	1753.06
331.46	1613.80
331.68	1673.19
331.89	1783.78
332.10	1685.48
332.31	1677.29
332.52	1728.49
332.74	1769.44
332.95	1611.75
333.16	1716.20
333.37	1755.11
333.58	1656.81
333.80	1712.10
334.01	1603.56
334.22	1722.34
334.43	1634.28
334.64	1636.33
334.86	1607.66
335.07	1632.23
335.28	1708.01
335.49	1636.33
335.70	1673.19
335.92	1755.11
336.13	1800.16
336.34	1710.05
336.55	1691.62
336.76	1759.21
336.98	1617.90
337.19	1746.92
337.40	1806.31
337.61	1888.23
337.82	1691.62
338.04	1771.49
338.25	1613.80
338.46	1658.85
338.67	1746.92
338.88	1585.13
339.09	1734.63
339.31	1675.24
339.52	1662.95
339.73	1683.43
339.94	1689.57
340.15	1767.40
340.36	1679.33
340.58	1669.09
340.79	1646.57
341.00	1757.16
341.21	1624.04
341.42	1806.31
341.63	1716.20
341.85	1773.54
342.06	1640.42
342.27	1677.29
342.48	1751.01
342.69	1591.27
342.90	1699.81
343.12	1671.14
343.33	1624.04
343.54	1679.33
343.75	1738.73
343.96	1652.71
344.17	1611.75
344.38	1687.53
344.60	1638.38
344.81	1677.29
345.02	1701.86
345.23	1714.15
345.44	1781.73
345.65	1708.01
345.86	1689.57
346.07	1703.91
346.29	1759.21
346.50	1726.44
346.71	1714.15
346.92	1841.12
347.13	1861.60
347.34	1687.53
347.55	1724.39
347.76	1730.53
347.98	1644.52
348.19	1669.09
348.40	1789.92
348.61	1650.66
348.82	1718.25
349.03	1734.63
349.24	1679.33
349.45	1800.16
349.66	1572.84
349.88	1742.82
350.09	1617.90
350.30	1734.63
350.51	1810.40
350.72	1689.57
350.93	1765.35
351.14	1671.14
351.35	1685.48
351.56	1708.01
351.77	1685.48
351.99	1732.58
352.20	1839.08
352.41	1777.64
352.62	1546.22
352.83	1642.47
353.04	1675.24
353.25	1740.77
353.46	1718.25
353.67	1728.49
353.88	1538.02
354.09	1689.57
354.30	1703.91
354.52	1759.21
354.73	1681.38
354.94	1722.34
355.15	1748.97
355.36	1736.68
355.57	1648.61
355.78	1748.97
355.99	1652.71
356.20	1687.53
356.41	1820.64
356.62	1755.11
356.83	1736.68
357.04	1814.50
357.25	1583.08
357.46	1656.81
357.68	1609.70
357.89	1701.86
358.10	1675.24
358.31	1662.95
358.52	1757.16
358.73	1626.09
358.94	1640.42
359.15	1695.72
359.36	1697.77
359.57	1738.73
359.78	1681.38
359.99	1667.05
360.20	1640.42
360.41	1605.61
360.62	1722.34
360.83	1757.16
361.04	1699.81
361.25	1650.66
361.46	1755.11
361.67	1722.34
361.88	1708.01
362.09	1746.92
362.30	1714.15
362.51	1724.39
362.72	1677.29
362.93	1759.21
363.14	1777.64
363.35	1757.16
363.56	1662.95
363.78	1779.68
363.99	1718.25
364.20	1589.22
364.41	1730.53
364.62	1800.16
364.83	1660.90
365.04	1677.29
365.25	1689.57
365.46	1789.92
365.67	1683.43
365.88	1697.77
366.09	1642.47
366.30	1718.25
366.51	1771.49
366.72	1634.28
366.93	1675.24
367.14	1681.38
367.35	1753.06
367.56	1701.86
367.77	1767.40
367.98	1744.87
368.18	1746.92
368.39	1683.43
368.60	1644.52
368.81	1726.44
369.02	1732.58
369.23	1642.47
369.44	1681.38
369.65	1675.24
369.86	1730.53
370.07	1824.74
370.28	1619.94
370.49	1701.86
370.70	1667.05
370.91	1677.29
371.12	1624.04
371.33	1796.07
371.54	1619.94
371.75	1820.64
371.96	1593.32
372.17	1716.20
372.38	1654.76
372.59	1669.09
372.80	1595.37
373.01	1683.43
373.22	1662.95
373.43	1789.92
373.64	1583.08
373.85	1759.21
374.06	1724.39
374.26	1681.38
374.47	1746.92
374.68	1800.16
374.89	1681.38
375.10	1599.46
375.31	1732.58
375.52	1718.25
375.73	1693.67
375.94	1626.09
376.15	1789.92
376.36	1679.33
376.57	1681.38
376.78	1683.43
376.99	1691.62
377.20	1736.68
377.40	1576.94
377.61	1765.35
377.82	1607.66
378.03	1800.16
378.24	1820.64
378.45	1685.48
378.66	1644.52
378.87	1648.61
379.08	1691.62
379.29	1734.63
379.50	1806.31
379.71	1665.00
379.91	1777.64
380.12	1683.43
380.33	1779.68
380.54	1634.28
380.75	1726.44
380.96	1753.06
381.17	1732.58
381.38	1677.29
381.59	1794.02
381.80	1767.40
382.00	1810.40
382.21	1701.86
382.42	1847.27
382.63	1832.93
382.84	1736.68
383.05	1726.44
383.26	1810.40
383.47	1677.29
383.68	1761.25
383.88	1683.43
384.09	1771.49
384.30	1759.21
384.51	1769.44
384.72	1613.80
384.93	1662.95
385.14	1665.00
385.35	1759.21
385.55	1642.47
385.76	1714.15
385.97	1722.34
386.18	1691.62
386.39	1660.90
386.60	1736.68
386.81	1691.62
387.02	1771.49
387.22	1714.15
387.43	1800.16
387.64	1779.68
387.85	1888.23
388.06	2193.37
388.27	4188.10
388.48	6844.31
388.68	8241.03
388.89	9318.26
389.10	9670.51
389.31	8505.21
389.52	7374.74
389.73	6641.56
389.93	6158.24
390.14	5803.94
390.35	5363.63
390.56	4679.61
390.77	3737.54
390.98	3041.23
391.18	2494.43
391.39	2054.11
391.60	1890.28
391.81	1779.68
392.02	1710.05
392.23	1773.54
392.43	1751.01
392.64	1787.88
392.85	1665.00
393.06	1779.68
393.27	1730.53
393.47	1683.43
393.68	1732.58
393.89	1695.72
394.10	1763.30
394.31	1630.18
394.52	1701.86
394.72	1681.38
394.93	1791.97
395.14	1708.01
395.35	1796.07
395.56	1734.63
395.76	1767.40
395.97	1812.45
396.18	1791.97
396.39	1912.80
396.60	1966.05
396.80	1824.74
397.01	1804.26
397.22	1714.15
397.43	1781.73
397.64	1796.07
397.84	1834.98
398.05	1865.70
398.26	1714.15
398.47	1753.06
398.67	1794.02
398.88	1748.97
399.09	1759.21
399.30	1624.04
399.51	1738.73
399.71	1716.20
399.92	1695.72
400.13	1683.43
400.34	1648.61
400.54	1628.14
400.75	1705.96
400.96	1712.10
401.17	1787.88
401.37	1779.68
401.58	1679.33
401.79	1755.11
402.00	1865.70
402.21	1974.24
402.41	1964.00
402.62	2039.78
402.83	1988.58
403.04	1949.67
403.24	2080.74
403.45	1845.22
403.66	1867.75
403.87	1886.18
404.07	1902.56
404.28	1859.56
404.49	1798.12
404.70	1703.91
404.90	1726.44
405.11	1701.86
405.32	1689.57
405.52	1611.75
405.73	1708.01
405.94	1630.18
406.15	1626.09
406.35	1716.20
406.56	1830.88
406.77	1734.63
406.98	1736.68
407.18	1687.53
407.39	1798.12
407.60	1671.14
407.80	1718.25
408.01	1673.19
408.22	1744.87
408.43	1652.71
408.63	1765.35
408.84	1759.21
409.05	1771.49
409.25	1642.47
409.46	1599.46
409.67	1722.34
409.88	1671.14
410.08	1701.86
410.29	1673.19
410.50	1804.26
410.70	1785.83
410.91	1730.53
411.12	1695.72
411.32	1714.15
411.53	1683.43
411.74	1785.83
411.95	1798.12
412.15	1726.44
412.36	1771.49
412.57	1689.57
412.77	1781.73
412.98	1662.95
413.19	1738.73
413.39	1699.81
413.60	1701.86
413.81	1777.64
414.01	1677.29
414.22	1785.83
414.43	1703.91
414.63	1777.64
414.84	1751.01
415.05	1744.87
415.25	1669.09
415.46	1757.16
415.67	1708.01
415.87	1724.39
416.08	1734.63
416.29	1656.81
416.49	1794.02
416.70	1675.24
416.91	1673.19
417.11	1660.90
417.32	1748.97
417.53	1773.54
417.73	1718.25
417.94	1714.15
418.15	1708.01
418.35	1683.43
418.56	1781.73
418.77	1824.74
418.97	1652.71
419.18	1716.20
419.38	1454.06
419.59	1673.19
419.80	1849.32
420.00	1679.33
420.21	1644.52
420.42	1714.15
420.62	1710.05
420.83	1603.56
421.04	1687.53
421.24	1697.77
421.45	1705.96
421.65	1669.09
421.86	1667.05
422.07	1759.21
422.27	1746.92
422.48	1683.43
422.69	1751.01
422.89	1656.81
423.10	1730.53
423.30	1681.38
423.51	1695.72
423.72	1673.19
423.92	1724.39
424.13	1570.79
424.33	1769.44
424.54	1718.25
424.75	1689.57
424.95	1824.74
425.16	1681.38
425.36	1640.42
425.57	1722.34
425.78	1802.21
425.98	1794.02
426.19	1689.57
426.39	1624.04
426.60	1708.01
426.81	1771.49
427.01	1650.66
427.22	1624.04
427.42	1628.14
427.63	1583.08
427.83	1779.68
428.04	1828.84
428.25	1753.06
428.45	1775.59
428.66	1816.55
428.86	1779.68
429.07	1753.06
429.28	1720.29
429.48	1748.97
429.69	1624.04
429.89	1781.73
430.10	1662.95
430.30	1656.81
430.51	1736.68
430.71	1689.57
430.92	1800.16
431.13	1601.51
431.33	1699.81
431.54	1751.01
431.74	1847.27
431.95	1705.96
432.15	1646.57
432.36	1800.16
432.56	1804.26
432.77	1826.79
432.98	1759.21
433.18	1710.05
433.39	1675.24
433.59	1689.57
433.80	1875.94
434.00	1880.04
434.21	1679.33
434.41	1673.19
434.62	1834.98
434.82	1636.33
435.03	1681.38
435.23	1710.05
435.44	1595.37
435.64	1714.15
435.85	1736.68
436.06	1800.16
436.26	1746.92
436.47	1751.01
436.67	1714.15
436.88	1675.24
437.08	1705.96
437.29	1847.27
437.49	1736.68
437.70	1730.53
437.90	1681.38
438.11	1890.28
438.31	1816.55
438.52	1861.60
438.72	1845.22
438.93	1877.99
439.13	1724.39
439.34	1779.68
439.54	1775.59
439.75	1808.36
439.95	1705.96
440.16	1738.73
440.36	1753.06
440.57	1728.49
440.77	1642.47
440.98	1746.92
441.18	1802.21
441.39	1607.66
441.59	1628.14
441.80	1814.50
442.00	1716.20
442.21	1779.68
442.41	1632.23
442.62	1748.97
442.82	1656.81
443.02	1699.81
443.23	1722.34
443.43	1708.01
443.64	1800.16
443.84	1671.14
444.05	1861.60
444.25	1728.49
444.46	1751.01
444.66	1732.58
444.87	1787.88
445.07	1697.77
445.28	1728.49
445.48	1769.44
445.69	1802.21
445.89	1910.75
446.09	1794.02
446.30	2056.16
446.50	2598.87
446.71	3794.89
446.91	4313.02
447.12	4605.88
447.32	4769.72
447.53	4317.12
447.73	3807.17
447.93	3483.59
448.14	3311.57
448.34	3110.86
448.55	2897.88
448.75	2914.26
448.96	2648.02
449.16	2410.46
449.36	2236.38
449.57	2060.26
449.77	1927.14
449.98	1763.30
450.18	1869.80
450.39	1832.93
450.59	1732.58
450.79	1697.77
451.00	1695.72
451.20	1820.64
451.41	1730.53
451.61	1753.06
451.81	1740.77
452.02	1662.95
452.22	1757.16
452.43	1679.33
452.63	1671.14
