SpectraSuite Data File
++++++++++++++++++++++++++++++++++++
Date: Mon Jun 06 17:01:17 CEST 2016
User: root
Dark Spectrum Present: No
Reference Spectrum Present: No
Number of Sampled Component Spectra: 1
Spectrometers: USB4C02835
Integration Time (usec): 100000 (USB4C02835)
Spectra Averaged: 1 (USB4C02835)
Boxcar Smoothing: 0 (USB4C02835)
Correct for Electrical Dark: No (USB4C02835)
Strobe/Lamp Enabled: No (USB4C02835)
Correct for Detector Non-linearity: No (USB4C02835)
Correct for Stray Light: No (USB4C02835)
Number of Pixels in Processed Spectrum: 3648
>>>>>Begin Processed Spectral Data<<<<<
177.47	1443.82
177.69	1443.82
177.91	1443.82
178.13	1411.05
178.36	1443.82
178.58	1591.27
178.80	1767.40
179.02	1695.72
179.24	1624.04
179.46	1679.33
179.68	1765.35
179.90	1742.82
180.13	1677.29
180.35	1673.19
180.57	1763.30
180.79	1742.82
181.01	1685.48
181.23	1742.82
181.45	1783.78
181.67	1744.87
181.90	1712.10
182.12	1699.81
182.34	1603.56
182.56	1759.21
182.78	1673.19
183.00	1689.57
183.22	1789.92
183.44	1591.27
183.66	1873.89
183.89	1794.02
184.11	1736.68
184.33	1765.35
184.55	1785.83
184.77	1740.77
184.99	1683.43
185.21	1665.00
185.43	1822.69
185.65	1714.15
185.87	1777.64
186.10	1820.64
186.32	1888.23
186.54	1796.07
186.76	1632.23
186.98	1853.41
187.20	1665.00
187.42	1726.44
187.64	1722.34
187.86	1718.25
188.08	1728.49
188.30	1630.18
188.52	1638.38
188.75	1755.11
188.97	1853.41
189.19	1701.86
189.41	1781.73
189.63	1783.78
189.85	1722.34
190.07	1638.38
190.29	1699.81
190.51	1759.21
190.73	1646.57
190.95	1726.44
191.17	1718.25
191.39	1572.84
191.61	1732.58
191.84	1734.63
192.06	1832.93
192.28	1562.60
192.50	1884.13
192.72	1726.44
192.94	1759.21
193.16	1787.88
193.38	1732.58
193.60	1601.51
193.82	1726.44
194.04	1769.44
194.26	1753.06
194.48	1740.77
194.70	1591.27
194.92	1710.05
195.14	1828.84
195.36	1740.77
195.58	1757.16
195.80	1683.43
196.02	1660.90
196.24	1701.86
196.46	1712.10
196.69	1703.91
196.91	1787.88
197.13	1683.43
197.35	1687.53
197.57	1775.59
197.79	1806.31
198.01	1777.64
198.23	1746.92
198.45	1726.44
198.67	1617.90
198.89	1665.00
199.11	1746.92
199.33	1687.53
199.55	1581.03
199.77	1640.42
199.99	1761.25
200.21	1636.33
200.43	1689.57
200.65	1685.48
200.87	1679.33
201.09	1753.06
201.31	1626.09
201.53	1755.11
201.75	1824.74
201.97	1796.07
202.19	1720.29
202.41	1783.78
202.63	1824.74
202.85	1753.06
203.07	1783.78
203.29	1693.67
203.51	1609.70
203.73	1615.85
203.95	1918.95
204.17	1734.63
204.39	1679.33
204.61	1675.24
204.83	1722.34
205.05	1828.84
205.27	1802.21
205.49	1791.97
205.71	1708.01
205.93	1642.47
206.15	1689.57
206.37	1675.24
206.59	1701.86
206.81	1632.23
207.03	1677.29
207.25	1624.04
207.47	1705.96
207.69	1679.33
207.91	1798.12
208.13	1763.30
208.34	1665.00
208.56	1767.40
208.78	1763.30
209.00	1619.94
209.22	1699.81
209.44	1722.34
209.66	1734.63
209.88	1701.86
210.10	1736.68
210.32	1683.43
210.54	1826.79
210.76	1634.28
210.98	1753.06
211.20	1609.70
211.42	1701.86
211.64	1736.68
211.86	1636.33
212.08	1720.29
212.30	1748.97
212.52	1687.53
212.74	1693.67
212.96	1708.01
213.17	1787.88
213.39	1734.63
213.61	1712.10
213.83	1718.25
214.05	1550.31
214.27	1736.68
214.49	1556.46
214.71	1683.43
214.93	1732.58
215.15	1708.01
215.37	1826.79
215.59	1615.85
215.81	1730.53
216.03	1748.97
216.24	1818.60
216.46	1693.67
216.68	1740.77
216.90	1759.21
217.12	1730.53
217.34	1730.53
217.56	1753.06
217.78	1781.73
218.00	1744.87
218.22	1736.68
218.44	1689.57
218.66	1718.25
218.87	1783.78
219.09	1669.09
219.31	1738.73
219.53	1679.33
219.75	1658.85
219.97	1748.97
220.19	1763.30
220.41	1699.81
220.63	1855.46
220.85	1742.82
221.06	1720.29
221.28	1724.39
221.50	1775.59
221.72	1703.91
221.94	1740.77
222.16	1671.14
222.38	1632.23
222.60	1757.16
222.82	1720.29
223.03	1716.20
223.25	1628.14
223.47	1810.40
223.69	1775.59
223.91	1687.53
224.13	1738.73
224.35	1677.29
224.57	1724.39
224.78	1761.25
225.00	1652.71
225.22	1728.49
225.44	1665.00
225.66	1777.64
225.88	1708.01
226.10	1730.53
226.32	1753.06
226.53	1722.34
226.75	1646.57
226.97	1660.90
227.19	1789.92
227.41	1693.67
227.63	1683.43
227.85	1609.70
228.06	1761.25
228.28	1796.07
228.50	1785.83
228.72	1644.52
228.94	1681.38
229.16	1646.57
229.37	1615.85
229.59	1613.80
229.81	1796.07
230.03	1689.57
230.25	1632.23
230.47	1630.18
230.69	1685.48
230.90	1769.44
231.12	1753.06
231.34	1697.77
231.56	1761.25
231.78	1681.38
232.00	1683.43
232.21	1671.14
232.43	1662.95
232.65	1613.80
232.87	1724.39
233.09	1710.05
233.30	1646.57
233.52	1777.64
233.74	1675.24
233.96	1628.14
234.18	1744.87
234.40	1708.01
234.61	1818.60
234.83	1683.43
235.05	1665.00
235.27	1822.69
235.49	1742.82
235.70	1740.77
235.92	1832.93
236.14	1736.68
236.36	1828.84
236.58	1660.90
236.79	1839.08
237.01	1695.72
237.23	1701.86
237.45	1746.92
237.67	1701.86
237.88	1740.77
238.10	1773.54
238.32	1597.42
238.54	1712.10
238.76	1734.63
238.97	1708.01
239.19	1640.42
239.41	1761.25
239.63	1822.69
239.85	1689.57
240.06	1695.72
240.28	1630.18
240.50	1742.82
240.72	1716.20
240.93	1689.57
241.15	1798.12
241.37	1687.53
241.59	1746.92
241.81	1665.00
242.02	1734.63
242.24	1746.92
242.46	1730.53
242.68	1638.38
242.89	1683.43
243.11	1802.21
243.33	1724.39
243.55	1718.25
243.76	1796.07
243.98	1675.24
244.20	1734.63
244.42	1630.18
244.64	1771.49
244.85	1675.24
245.07	1634.28
245.29	1732.58
245.51	1712.10
245.72	1712.10
245.94	1845.22
246.16	1665.00
246.38	1689.57
246.59	1611.75
246.81	1656.81
247.03	1697.77
247.24	1599.46
247.46	1693.67
247.68	1728.49
247.90	1738.73
248.11	1740.77
248.33	1732.58
248.55	1660.90
248.77	1734.63
248.98	1775.59
249.20	1824.74
249.42	1679.33
249.64	1699.81
249.85	1769.44
250.07	1710.05
250.29	1753.06
250.50	1732.58
250.72	1652.71
250.94	1722.34
251.16	1763.30
251.37	1773.54
251.59	1753.06
251.81	1771.49
252.02	1753.06
252.24	1662.95
252.46	1755.11
252.68	1646.57
252.89	1634.28
253.11	1587.18
253.33	1896.42
253.54	1794.02
253.76	1617.90
253.98	1626.09
254.20	1617.90
254.41	1621.99
254.63	1681.38
254.85	1642.47
255.06	1667.05
255.28	1712.10
255.50	1771.49
255.71	1658.85
255.93	1642.47
256.15	1695.72
256.36	1697.77
256.58	1632.23
256.80	1738.73
257.02	1744.87
257.23	1708.01
257.45	1724.39
257.67	1732.58
257.88	1630.18
258.10	1783.78
258.32	1718.25
258.53	1677.29
258.75	1791.97
258.97	1591.27
259.18	1652.71
259.40	1687.53
259.62	1828.84
259.83	1849.32
260.05	1818.60
260.27	2033.63
260.48	1748.97
260.70	1658.85
260.92	1617.90
261.13	1710.05
261.35	1728.49
261.57	1626.09
261.78	1619.94
262.00	1683.43
262.22	1708.01
262.43	1642.47
262.65	1662.95
262.86	1644.52
263.08	1806.31
263.30	1683.43
263.51	1628.14
263.73	1710.05
263.95	1722.34
264.16	1628.14
264.38	1722.34
264.60	1712.10
264.81	1724.39
265.03	1787.88
265.25	1759.21
265.46	1693.67
265.68	1701.86
265.89	1755.11
266.11	1607.66
266.33	1642.47
266.54	1787.88
266.76	1800.16
266.98	1791.97
267.19	1767.40
267.41	1615.85
267.62	1761.25
267.84	1599.46
268.06	1771.49
268.27	1640.42
268.49	1730.53
268.70	1779.68
268.92	1757.16
269.14	1748.97
269.35	1550.31
269.57	1738.73
269.79	1748.97
270.00	1667.05
270.22	1765.35
270.43	1607.66
270.65	1611.75
270.87	1710.05
271.08	1658.85
271.30	1738.73
271.51	1730.53
271.73	1771.49
271.95	1748.97
272.16	1640.42
272.38	1669.09
272.59	1650.66
272.81	1738.73
273.02	1708.01
273.24	1718.25
273.46	1808.36
273.67	1660.90
273.89	1714.15
274.10	1710.05
274.32	1802.21
274.54	1695.72
274.75	1763.30
274.97	1681.38
275.18	1691.62
275.40	1775.59
275.61	1753.06
275.83	1662.95
276.05	1681.38
276.26	1722.34
276.48	1724.39
276.69	1644.52
276.91	1693.67
277.12	1820.64
277.34	1804.26
277.55	1777.64
277.77	1740.77
277.99	1730.53
278.20	1628.14
278.42	1665.00
278.63	1667.05
278.85	1730.53
279.06	1644.52
279.28	1779.68
279.49	1806.31
279.71	1816.55
279.93	1751.01
280.14	1740.77
280.36	1656.81
280.57	1751.01
280.79	1744.87
281.00	1615.85
281.22	1636.33
281.43	1716.20
281.65	1632.23
281.86	1650.66
282.08	1689.57
282.29	1796.07
282.51	1585.13
282.73	1607.66
282.94	1613.80
283.16	1751.01
283.37	1771.49
283.59	1669.09
283.80	1773.54
284.02	1705.96
284.23	1763.30
284.45	1599.46
284.66	1673.19
284.88	1689.57
285.09	1720.29
285.31	1839.08
285.52	1642.47
285.74	1650.66
285.95	1810.40
286.17	1726.44
286.38	1802.21
286.60	1599.46
286.81	1763.30
287.03	1714.15
287.24	1642.47
287.46	1767.40
287.67	1722.34
287.89	1808.36
288.10	1722.34
288.32	1724.39
288.53	1767.40
288.75	1730.53
288.96	1681.38
289.18	1699.81
289.39	1667.05
289.61	1769.44
289.82	1791.97
290.04	1822.69
290.25	1669.09
290.47	1648.61
290.68	1708.01
290.90	1863.65
291.11	1654.76
291.33	1789.92
291.54	1601.51
291.76	1736.68
291.97	1693.67
292.18	1689.57
292.40	1642.47
292.61	1681.38
292.83	1771.49
293.04	1732.58
293.26	1767.40
293.47	1697.77
293.69	1603.56
293.90	1724.39
294.12	1773.54
294.33	1708.01
294.55	1718.25
294.76	1732.58
294.97	1769.44
295.19	1847.27
295.40	1648.61
295.62	1699.81
295.83	1751.01
296.05	1673.19
296.26	1773.54
296.48	1718.25
296.69	1769.44
296.90	1699.81
297.12	1839.08
297.33	1789.92
297.55	1730.53
297.76	1705.96
297.98	1796.07
298.19	1720.29
298.41	1613.80
298.62	1699.81
298.83	1728.49
299.05	1718.25
299.26	1685.48
299.48	1697.77
299.69	1724.39
299.90	1705.96
300.12	1705.96
300.33	1660.90
300.55	1730.53
300.76	1738.73
300.98	1615.85
301.19	1775.59
301.40	1644.52
301.62	1619.94
301.83	1777.64
302.05	1691.62
302.26	1650.66
302.47	1712.10
302.69	1712.10
302.90	1771.49
303.12	1619.94
303.33	1673.19
303.54	1718.25
303.76	1662.95
303.97	1753.06
304.19	1769.44
304.40	1701.86
304.61	1718.25
304.83	1800.16
305.04	1761.25
305.26	1726.44
305.47	1714.15
305.68	1681.38
305.90	1644.52
306.11	1773.54
306.33	1691.62
306.54	1730.53
306.75	1609.70
306.97	1644.52
307.18	1650.66
307.39	1675.24
307.61	1759.21
307.82	1701.86
308.04	1757.16
308.25	1691.62
308.46	1751.01
308.68	1716.20
308.89	1736.68
309.10	1773.54
309.32	1753.06
309.53	1662.95
309.74	1808.36
309.96	1755.11
310.17	1755.11
310.39	1679.33
310.60	1789.92
310.81	1773.54
311.03	1695.72
311.24	1779.68
311.45	1665.00
311.67	1826.79
311.88	1765.35
312.09	1697.77
312.31	1689.57
312.52	1701.86
312.73	1720.29
312.95	1587.18
313.16	1703.91
313.37	1718.25
313.59	1742.82
313.80	1751.01
314.01	1718.25
314.23	1687.53
314.44	1697.77
314.65	1619.94
314.87	1630.18
315.08	1726.44
315.29	1671.14
315.51	1656.81
315.72	1646.57
315.93	1794.02
316.15	1783.78
316.36	1701.86
316.57	1740.77
316.79	1726.44
317.00	1691.62
317.21	1695.72
317.43	1708.01
317.64	1722.34
317.85	1669.09
318.07	1703.91
318.28	1738.73
318.49	1814.50
318.70	1923.04
318.92	1859.56
319.13	1812.45
319.34	1877.99
319.56	1742.82
319.77	1843.17
319.98	1814.50
320.20	1802.21
320.41	1775.59
320.62	1783.78
320.83	1746.92
321.05	1855.46
321.26	1748.97
321.47	1652.71
321.69	1779.68
321.90	1642.47
322.11	1710.05
322.32	1742.82
322.54	1722.34
322.75	1679.33
322.96	1820.64
323.18	1677.29
323.39	1595.37
323.60	1779.68
323.81	1863.65
324.03	1675.24
324.24	1703.91
324.45	1687.53
324.66	1726.44
324.88	1808.36
325.09	1822.69
325.30	1712.10
325.52	1738.73
325.73	1796.07
325.94	1568.74
326.15	1609.70
326.37	1615.85
326.58	1775.59
326.79	1822.69
327.00	1718.25
327.22	1724.39
327.43	1697.77
327.64	1703.91
327.85	1808.36
328.07	1757.16
328.28	1755.11
328.49	1738.73
328.70	1755.11
328.92	1697.77
329.13	1667.05
329.34	1806.31
329.55	1828.84
329.76	1732.58
329.98	1720.29
330.19	1714.15
330.40	1771.49
330.61	1701.86
330.83	1734.63
331.04	1687.53
331.25	1683.43
331.46	1675.24
331.68	1681.38
331.89	1783.78
332.10	1640.42
332.31	1685.48
332.52	1685.48
332.74	1814.50
332.95	1648.61
333.16	1675.24
333.37	1775.59
333.58	1710.05
333.80	1785.83
334.01	1632.23
334.22	1714.15
334.43	1677.29
334.64	1665.00
334.86	1632.23
335.07	1650.66
335.28	1849.32
335.49	1640.42
335.70	1720.29
335.92	1806.31
336.13	1810.40
336.34	1714.15
336.55	1798.12
336.76	1796.07
336.98	1626.09
337.19	1761.25
337.40	1779.68
337.61	1796.07
337.82	1665.00
338.04	1769.44
338.25	1685.48
338.46	1757.16
338.67	1765.35
338.88	1634.28
339.09	1701.86
339.31	1724.39
339.52	1693.67
339.73	1683.43
339.94	1759.21
340.15	1769.44
340.36	1617.90
340.58	1689.57
340.79	1605.61
341.00	1781.73
341.21	1515.50
341.42	1814.50
341.63	1656.81
341.85	1742.82
342.06	1746.92
342.27	1710.05
342.48	1755.11
342.69	1691.62
342.90	1705.96
343.12	1834.98
343.33	1714.15
343.54	1804.26
343.75	1757.16
343.96	1746.92
344.17	1679.33
344.38	1646.57
344.60	1585.13
344.81	1562.60
345.02	1683.43
345.23	1820.64
345.44	1730.53
345.65	1738.73
345.86	1677.29
346.07	1738.73
346.29	1660.90
346.50	1812.45
346.71	1791.97
346.92	1839.08
347.13	1873.89
347.34	1654.76
347.55	1654.76
347.76	1730.53
347.98	1652.71
348.19	1730.53
348.40	1820.64
348.61	1697.77
348.82	1789.92
349.03	1767.40
349.24	1685.48
349.45	1742.82
349.66	1693.67
349.88	1675.24
350.09	1607.66
350.30	1695.72
350.51	1849.32
350.72	1701.86
350.93	1671.14
351.14	1705.96
351.35	1779.68
351.56	1716.20
351.77	1701.86
351.99	1703.91
352.20	1814.50
352.41	1808.36
352.62	1591.27
352.83	1738.73
353.04	1699.81
353.25	1738.73
353.46	1824.74
353.67	1773.54
353.88	1689.57
354.09	1697.77
354.30	1718.25
354.52	1744.87
354.73	1697.77
354.94	1685.48
355.15	1722.34
355.36	1832.93
355.57	1675.24
355.78	1800.16
355.99	1683.43
356.20	1759.21
356.41	1839.08
356.62	1689.57
356.83	1673.19
357.04	1845.22
357.25	1611.75
357.46	1609.70
357.68	1621.99
357.89	1669.09
358.10	1771.49
358.31	1722.34
358.52	1705.96
358.73	1628.14
358.94	1660.90
359.15	1718.25
359.36	1761.25
359.57	1691.62
359.78	1677.29
359.99	1740.77
360.20	1677.29
360.41	1712.10
360.62	1705.96
360.83	1724.39
361.04	1773.54
361.25	1681.38
361.46	1771.49
361.67	1755.11
361.88	1740.77
362.09	1818.60
362.30	1781.73
362.51	1746.92
362.72	1679.33
362.93	1802.21
363.14	1783.78
363.35	1701.86
363.56	1677.29
363.78	1771.49
363.99	1837.03
364.20	1648.61
364.41	1730.53
364.62	1824.74
364.83	1705.96
365.04	1671.14
365.25	1714.15
365.46	1949.67
365.67	1695.72
365.88	1648.61
366.09	1677.29
366.30	1615.85
366.51	1703.91
366.72	1728.49
366.93	1714.15
367.14	1716.20
367.35	1779.68
367.56	1681.38
367.77	1716.20
367.98	1740.77
368.18	1771.49
368.39	1726.44
368.60	1654.76
368.81	1714.15
369.02	1712.10
369.23	1736.68
369.44	1646.57
369.65	1691.62
369.86	1712.10
370.07	1726.44
370.28	1710.05
370.49	1763.30
370.70	1810.40
370.91	1603.56
371.12	1644.52
371.33	1787.88
371.54	1703.91
371.75	1808.36
371.96	1556.46
372.17	1748.97
372.38	1705.96
372.59	1771.49
372.80	1693.67
373.01	1722.34
373.22	1720.29
373.43	1673.19
373.64	1599.46
373.85	1769.44
374.06	1816.55
374.26	1734.63
374.47	1787.88
374.68	1820.64
374.89	1722.34
375.10	1652.71
375.31	1804.26
375.52	1705.96
375.73	1794.02
375.94	1662.95
376.15	1871.84
376.36	1703.91
376.57	1685.48
376.78	1710.05
376.99	1789.92
377.20	1789.92
377.40	1712.10
377.61	1837.03
377.82	1617.90
378.03	1826.79
378.24	1673.19
378.45	1710.05
378.66	1728.49
378.87	1679.33
379.08	1630.18
379.29	1718.25
379.50	1755.11
379.71	1697.77
379.91	1796.07
380.12	1697.77
380.33	1722.34
380.54	1703.91
380.75	1751.01
380.96	1597.42
381.17	1734.63
381.38	1773.54
381.59	1701.86
381.80	1662.95
382.00	1886.18
382.21	1773.54
382.42	1884.13
382.63	1888.23
382.84	1767.40
383.05	1808.36
383.26	1761.25
383.47	1769.44
383.68	1701.86
383.88	1800.16
384.09	1828.84
384.30	1828.84
384.51	1708.01
384.72	1642.47
384.93	1660.90
385.14	1687.53
385.35	1669.09
385.55	1652.71
385.76	1757.16
385.97	1697.77
386.18	1646.57
386.39	1665.00
386.60	1691.62
386.81	1742.82
387.02	1681.38
387.22	1730.53
387.43	1742.82
387.64	1849.32
387.85	1951.71
388.06	2123.74
388.27	4130.75
388.48	6799.26
388.68	8001.41
388.89	9355.12
389.10	9592.69
389.31	8411.01
389.52	7464.85
389.73	6475.68
389.93	6211.49
390.14	5797.80
390.35	5093.30
390.56	4517.82
390.77	3835.85
390.98	3020.75
391.18	2490.33
391.39	2254.81
391.60	1869.80
391.81	1849.32
392.02	1710.05
392.23	1814.50
392.43	1705.96
392.64	1740.77
392.85	1724.39
393.06	1896.42
393.27	1785.83
393.47	1675.24
393.68	1644.52
393.89	1708.01
394.10	1808.36
394.31	1677.29
394.52	1693.67
394.72	1697.77
394.93	1757.16
395.14	1673.19
395.35	1755.11
395.56	1697.77
395.76	1703.91
395.97	1761.25
396.18	1820.64
396.39	1824.74
396.60	2103.26
396.80	1910.75
397.01	1820.64
397.22	1826.79
397.43	1888.23
397.64	1687.53
397.84	1845.22
398.05	1884.13
398.26	1714.15
398.47	1703.91
398.67	1730.53
398.88	1718.25
399.09	1808.36
399.30	1683.43
399.51	1722.34
399.71	1675.24
399.92	1738.73
400.13	1753.06
400.34	1767.40
400.54	1630.18
400.75	1818.60
400.96	1691.62
401.17	1873.89
401.37	1724.39
401.58	1642.47
401.79	1748.97
402.00	1898.47
402.21	2033.63
402.41	1925.09
402.62	1990.63
402.83	2009.06
403.04	2011.11
403.24	2072.54
403.45	1937.38
403.66	1998.82
403.87	1906.66
404.07	1906.66
404.28	1945.57
404.49	1853.41
404.70	1789.92
404.90	1740.77
405.11	1810.40
405.32	1738.73
405.52	1679.33
405.73	1728.49
405.94	1673.19
406.15	1759.21
406.35	1669.09
406.56	1814.50
406.77	1738.73
406.98	1753.06
407.18	1691.62
407.39	1816.55
407.60	1748.97
407.80	1728.49
408.01	1695.72
408.22	1738.73
408.43	1689.57
408.63	1736.68
408.84	1755.11
409.05	1771.49
409.25	1642.47
409.46	1650.66
409.67	1675.24
409.88	1732.58
410.08	1679.33
410.29	1716.20
410.50	1781.73
410.70	1720.29
410.91	1652.71
411.12	1775.59
411.32	1687.53
411.53	1669.09
411.74	1832.93
411.95	1748.97
412.15	1894.37
412.36	1779.68
412.57	1777.64
412.77	1861.60
412.98	1716.20
413.19	1705.96
413.39	1748.97
413.60	1714.15
413.81	1798.12
414.01	1595.37
414.22	1734.63
414.43	1789.92
414.63	1679.33
414.84	1759.21
415.05	1730.53
415.25	1712.10
415.46	1812.45
415.67	1751.01
415.87	1691.62
416.08	1763.30
416.29	1693.67
416.49	1724.39
416.70	1761.25
416.91	1640.42
417.11	1718.25
417.32	1718.25
417.53	1759.21
417.73	1714.15
417.94	1673.19
418.15	1740.77
418.35	1763.30
418.56	1779.68
418.77	1820.64
418.97	1775.59
419.18	1695.72
419.38	1685.48
419.59	1679.33
419.80	1824.74
420.00	1740.77
420.21	1693.67
420.42	1783.78
420.62	1755.11
420.83	1646.57
421.04	1669.09
421.24	1687.53
421.45	1777.64
421.65	1746.92
421.86	1785.83
422.07	1804.26
422.27	1753.06
422.48	1765.35
422.69	1656.81
422.89	1728.49
423.10	1630.18
423.30	1636.33
423.51	1699.81
423.72	1720.29
423.92	1724.39
424.13	1671.14
424.33	1751.01
424.54	1753.06
424.75	1806.31
424.95	1808.36
425.16	1787.88
425.36	1675.24
425.57	1773.54
425.78	1691.62
425.98	1685.48
426.19	1722.34
426.39	1681.38
426.60	1759.21
426.81	1802.21
427.01	1675.24
427.22	1669.09
427.42	1583.08
427.63	1656.81
427.83	1781.73
428.04	1841.12
428.25	1789.92
428.45	1740.77
428.66	1771.49
428.86	1665.00
429.07	1726.44
429.28	1726.44
429.48	1751.01
429.69	1609.70
429.89	1683.43
430.10	1699.81
430.30	1751.01
430.51	1789.92
430.71	1703.91
430.92	1705.96
431.13	1673.19
431.33	1751.01
431.54	1738.73
431.74	1865.70
431.95	1716.20
432.15	1689.57
432.36	1738.73
432.56	1773.54
432.77	1779.68
432.98	1802.21
433.18	1697.77
433.39	1681.38
433.59	1726.44
433.80	1812.45
434.00	1828.84
434.21	1703.91
434.41	1699.81
434.62	1796.07
434.82	1611.75
435.03	1595.37
435.23	1746.92
435.44	1576.94
435.64	1748.97
435.85	1765.35
436.06	1839.08
436.26	1806.31
436.47	1695.72
436.67	1683.43
436.88	1730.53
437.08	1779.68
437.29	1771.49
437.49	1791.97
437.70	1763.30
437.90	1742.82
438.11	1859.56
438.31	1757.16
438.52	1830.88
438.72	1802.21
438.93	1937.38
439.13	1765.35
439.34	1863.65
439.54	1740.77
439.75	1783.78
439.95	1716.20
440.16	1726.44
440.36	1710.05
440.57	1730.53
440.77	1789.92
440.98	1849.32
441.18	1773.54
441.39	1609.70
441.59	1734.63
441.80	1873.89
442.00	1714.15
442.21	1757.16
442.41	1673.19
442.62	1791.97
442.82	1662.95
443.02	1755.11
443.23	1744.87
443.43	1742.82
443.64	1845.22
443.84	1667.05
444.05	1808.36
444.25	1689.57
444.46	1789.92
444.66	1695.72
444.87	1863.65
445.07	1665.00
445.28	1673.19
445.48	1822.69
445.69	1730.53
445.89	1857.51
446.09	1806.31
446.30	2050.02
446.50	2645.98
446.71	3723.21
446.91	4290.49
447.12	4728.76
447.32	4771.77
447.53	4335.55
447.73	3829.70
447.93	3590.09
448.14	3323.85
448.34	3319.76
448.55	2914.26
448.75	2797.53
448.96	2660.31
449.16	2375.64
449.36	2351.07
449.57	2156.51
449.77	1929.19
449.98	1845.22
450.18	1771.49
450.39	1787.88
450.59	1726.44
450.79	1712.10
451.00	1685.48
451.20	1785.83
451.41	1738.73
451.61	1730.53
451.81	1757.16
452.02	1650.66
452.22	1730.53
452.43	1724.39
452.63	1714.15
