SpectraSuite Data File
++++++++++++++++++++++++++++++++++++
Date: Mon Jun 06 13:28:57 CEST 2016
User: root
Dark Spectrum Present: No
Reference Spectrum Present: No
Number of Sampled Component Spectra: 1
Spectrometers: USB4C02835
Integration Time (usec): 100000 (USB4C02835)
Spectra Averaged: 1 (USB4C02835)
Boxcar Smoothing: 0 (USB4C02835)
Correct for Electrical Dark: No (USB4C02835)
Strobe/Lamp Enabled: No (USB4C02835)
Correct for Detector Non-linearity: No (USB4C02835)
Correct for Stray Light: No (USB4C02835)
Number of Pixels in Processed Spectrum: 3648
>>>>>Begin Processed Spectral Data<<<<<
177.47	1429.48
177.69	1429.48
177.91	1429.48
178.13	1413.10
178.36	1413.10
178.58	1699.81
178.80	1796.07
179.02	1574.89
179.24	1638.38
179.46	1675.24
179.68	1732.58
179.90	1720.29
180.13	1658.85
180.35	1605.61
180.57	1687.53
180.79	1716.20
181.01	1652.71
181.23	1734.63
181.45	1796.07
181.67	1665.00
181.90	1755.11
182.12	1716.20
182.34	1640.42
182.56	1712.10
182.78	1738.73
183.00	1673.19
183.22	1712.10
183.44	1646.57
183.66	1728.49
183.89	1800.16
184.11	1775.59
184.33	1736.68
184.55	1736.68
184.77	1644.52
184.99	1712.10
185.21	1734.63
185.43	1832.93
185.65	1665.00
185.87	1718.25
186.10	1779.68
186.32	1841.12
186.54	1636.33
186.76	1683.43
186.98	1689.57
187.20	1779.68
187.42	1650.66
187.64	1654.76
187.86	1697.77
188.08	1773.54
188.30	1693.67
188.52	1648.61
188.75	1800.16
188.97	1832.93
189.19	1632.23
189.41	1769.44
189.63	1728.49
189.85	1734.63
190.07	1628.14
190.29	1607.66
190.51	1765.35
190.73	1642.47
190.95	1794.02
191.17	1689.57
191.39	1574.89
191.61	1683.43
191.84	1734.63
192.06	1673.19
192.28	1628.14
192.50	1847.27
192.72	1693.67
192.94	1710.05
193.16	1636.33
193.38	1662.95
193.60	1656.81
193.82	1728.49
194.04	1769.44
194.26	1742.82
194.48	1716.20
194.70	1669.09
194.92	1693.67
195.14	1785.83
195.36	1607.66
195.58	1638.38
195.80	1671.14
196.02	1693.67
196.24	1751.01
196.46	1705.96
196.69	1703.91
196.91	1800.16
197.13	1730.53
197.35	1705.96
197.57	1783.78
197.79	1779.68
198.01	1755.11
198.23	1634.28
198.45	1796.07
198.67	1681.38
198.89	1611.75
199.11	1798.12
199.33	1615.85
199.55	1691.62
199.77	1710.05
199.99	1761.25
200.21	1667.05
200.43	1714.15
200.65	1615.85
200.87	1587.18
201.09	1609.70
201.31	1632.23
201.53	1691.62
201.75	1714.15
201.97	1728.49
202.19	1710.05
202.41	1787.88
202.63	1781.73
202.85	1665.00
203.07	1738.73
203.29	1722.34
203.51	1701.86
203.73	1654.76
203.95	1898.47
204.17	1691.62
204.39	1669.09
204.61	1712.10
204.83	1675.24
205.05	1658.85
205.27	1771.49
205.49	1814.50
205.71	1699.81
205.93	1646.57
206.15	1615.85
206.37	1720.29
206.59	1671.14
206.81	1628.14
207.03	1632.23
207.25	1671.14
207.47	1808.36
207.69	1708.01
207.91	1806.31
208.13	1736.68
208.34	1662.95
208.56	1591.27
208.78	1820.64
209.00	1673.19
209.22	1626.09
209.44	1726.44
209.66	1650.66
209.88	1734.63
210.10	1779.68
210.32	1681.38
210.54	1757.16
210.76	1699.81
210.98	1732.58
211.20	1626.09
211.42	1697.77
211.64	1728.49
211.86	1693.67
212.08	1646.57
212.30	1722.34
212.52	1753.06
212.74	1726.44
212.96	1689.57
213.17	1714.15
213.39	1701.86
213.61	1722.34
213.83	1703.91
214.05	1621.99
214.27	1712.10
214.49	1646.57
214.71	1650.66
214.93	1734.63
215.15	1722.34
215.37	1771.49
215.59	1648.61
215.81	1767.40
216.03	1775.59
216.24	1712.10
216.46	1738.73
216.68	1740.77
216.90	1701.86
217.12	1716.20
217.34	1732.58
217.56	1691.62
217.78	1781.73
218.00	1738.73
218.22	1759.21
218.44	1789.92
218.66	1636.33
218.87	1761.25
219.09	1615.85
219.31	1699.81
219.53	1701.86
219.75	1738.73
219.97	1740.77
220.19	1710.05
220.41	1660.90
220.63	1753.06
220.85	1712.10
221.06	1699.81
221.28	1689.57
221.50	1683.43
221.72	1701.86
221.94	1748.97
222.16	1624.04
222.38	1751.01
222.60	1714.15
222.82	1617.90
223.03	1771.49
223.25	1552.36
223.47	1665.00
223.69	1787.88
223.91	1701.86
224.13	1681.38
224.35	1695.72
224.57	1718.25
224.78	1687.53
225.00	1578.98
225.22	1624.04
225.44	1771.49
225.66	1695.72
225.88	1669.09
226.10	1724.39
226.32	1687.53
226.53	1785.83
226.75	1671.14
226.97	1654.76
227.19	1650.66
227.41	1689.57
227.63	1671.14
227.85	1638.38
228.06	1724.39
228.28	1724.39
228.50	1773.54
228.72	1669.09
228.94	1699.81
229.16	1671.14
229.37	1619.94
229.59	1705.96
229.81	1759.21
230.03	1642.47
230.25	1681.38
230.47	1624.04
230.69	1593.32
230.90	1791.97
231.12	1693.67
231.34	1765.35
231.56	1806.31
231.78	1593.32
232.00	1644.52
232.21	1650.66
232.43	1720.29
232.65	1546.22
232.87	1755.11
233.09	1679.33
233.30	1656.81
233.52	1742.82
233.74	1726.44
233.96	1683.43
234.18	1724.39
234.40	1699.81
234.61	1812.45
234.83	1669.09
235.05	1683.43
235.27	1849.32
235.49	1722.34
235.70	1699.81
235.92	1816.55
236.14	1710.05
236.36	1800.16
236.58	1636.33
236.79	1681.38
237.01	1763.30
237.23	1720.29
237.45	1830.88
237.67	1691.62
237.88	1751.01
238.10	1832.93
238.32	1628.14
238.54	1665.00
238.76	1746.92
238.97	1681.38
239.19	1679.33
239.41	1693.67
239.63	1734.63
239.85	1685.48
240.06	1642.47
240.28	1595.37
240.50	1722.34
240.72	1697.77
240.93	1634.28
241.15	1736.68
241.37	1734.63
241.59	1851.36
241.81	1695.72
242.02	1665.00
242.24	1728.49
242.46	1841.12
242.68	1615.85
242.89	1736.68
243.11	1679.33
243.33	1624.04
243.55	1748.97
243.76	1769.44
243.98	1640.42
244.20	1708.01
244.42	1615.85
244.64	1705.96
244.85	1691.62
245.07	1693.67
245.29	1789.92
245.51	1726.44
245.72	1669.09
245.94	1744.87
246.16	1628.14
246.38	1822.69
246.59	1658.85
246.81	1662.95
247.03	1701.86
247.24	1640.42
247.46	1648.61
247.68	1724.39
247.90	1658.85
248.11	1648.61
248.33	1767.40
248.55	1660.90
248.77	1675.24
248.98	1714.15
249.20	1718.25
249.42	1708.01
249.64	1773.54
249.85	1732.58
250.07	1691.62
250.29	1681.38
250.50	1695.72
250.72	1572.84
250.94	1693.67
251.16	1841.12
251.37	1748.97
251.59	1755.11
251.81	1683.43
252.02	1753.06
252.24	1638.38
252.46	1779.68
252.68	1665.00
252.89	1589.22
253.11	1644.52
253.33	1794.02
253.54	1789.92
253.76	1634.28
253.98	1656.81
254.20	1703.91
254.41	1576.94
254.63	1654.76
254.85	1695.72
255.06	1710.05
255.28	1689.57
255.50	1705.96
255.71	1650.66
255.93	1617.90
256.15	1634.28
256.36	1740.77
256.58	1626.09
256.80	1730.53
257.02	1691.62
257.23	1677.29
257.45	1685.48
257.67	1755.11
257.88	1652.71
258.10	1669.09
258.32	1705.96
258.53	1738.73
258.75	1783.78
258.97	1662.95
259.18	1658.85
259.40	1699.81
259.62	1802.21
259.83	1779.68
260.05	1699.81
260.27	1912.80
260.48	1779.68
260.70	1611.75
260.92	1634.28
261.13	1703.91
261.35	1714.15
261.57	1699.81
261.78	1570.79
262.00	1671.14
262.22	1767.40
262.43	1708.01
262.65	1628.14
262.86	1628.14
263.08	1816.55
263.30	1671.14
263.51	1542.12
263.73	1685.48
263.95	1810.40
264.16	1640.42
264.38	1648.61
264.60	1730.53
264.81	1671.14
265.03	1718.25
265.25	1751.01
265.46	1726.44
265.68	1726.44
265.89	1736.68
266.11	1652.71
266.33	1675.24
266.54	1693.67
266.76	1746.92
266.98	1767.40
267.19	1767.40
267.41	1691.62
267.62	1703.91
267.84	1687.53
268.06	1740.77
268.27	1757.16
268.49	1738.73
268.70	1773.54
268.92	1699.81
269.14	1603.56
269.35	1621.99
269.57	1734.63
269.79	1701.86
270.00	1683.43
270.22	1781.73
270.43	1591.27
270.65	1632.23
270.87	1648.61
271.08	1755.11
271.30	1673.19
271.51	1671.14
271.73	1767.40
271.95	1763.30
272.16	1642.47
272.38	1751.01
272.59	1691.62
272.81	1714.15
273.02	1710.05
273.24	1658.85
273.46	1718.25
273.67	1665.00
273.89	1624.04
274.10	1675.24
274.32	1722.34
274.54	1738.73
274.75	1777.64
274.97	1642.47
275.18	1728.49
275.40	1701.86
275.61	1695.72
275.83	1705.96
276.05	1613.80
276.26	1699.81
276.48	1779.68
276.69	1699.81
276.91	1632.23
277.12	1789.92
277.34	1705.96
277.55	1779.68
277.77	1679.33
277.99	1669.09
278.20	1685.48
278.42	1656.81
278.63	1699.81
278.85	1695.72
279.06	1605.61
279.28	1695.72
279.49	1689.57
279.71	1798.12
279.93	1632.23
280.14	1683.43
280.36	1595.37
280.57	1755.11
280.79	1794.02
281.00	1714.15
281.22	1648.61
281.43	1746.92
281.65	1572.84
281.86	1628.14
282.08	1738.73
282.29	1724.39
282.51	1669.09
282.73	1687.53
282.94	1640.42
283.16	1718.25
283.37	1769.44
283.59	1783.78
283.80	1636.33
284.02	1701.86
284.23	1736.68
284.45	1650.66
284.66	1615.85
284.88	1695.72
285.09	1720.29
285.31	1736.68
285.52	1802.21
285.74	1533.93
285.95	1765.35
286.17	1708.01
286.38	1740.77
286.60	1615.85
286.81	1615.85
287.03	1675.24
287.24	1681.38
287.46	1744.87
287.67	1660.90
287.89	1843.17
288.10	1730.53
288.32	1673.19
288.53	1675.24
288.75	1720.29
288.96	1769.44
289.18	1648.61
289.39	1617.90
289.61	1751.01
289.82	1759.21
290.04	1804.26
290.25	1669.09
290.47	1634.28
290.68	1691.62
290.90	1701.86
291.11	1681.38
291.33	1771.49
291.54	1646.57
291.76	1787.88
291.97	1689.57
292.18	1679.33
292.40	1646.57
292.61	1736.68
292.83	1771.49
293.04	1681.38
293.26	1763.30
293.47	1708.01
293.69	1656.81
293.90	1720.29
294.12	1687.53
294.33	1646.57
294.55	1662.95
294.76	1759.21
294.97	1761.25
295.19	1849.32
295.40	1656.81
295.62	1675.24
295.83	1644.52
296.05	1648.61
296.26	1757.16
296.48	1658.85
296.69	1621.99
296.90	1699.81
297.12	1757.16
297.33	1724.39
297.55	1681.38
297.76	1665.00
297.98	1826.79
298.19	1708.01
298.41	1742.82
298.62	1675.24
298.83	1785.83
299.05	1742.82
299.26	1667.05
299.48	1683.43
299.69	1728.49
299.90	1720.29
300.12	1644.52
300.33	1732.58
300.55	1714.15
300.76	1757.16
300.98	1619.94
301.19	1689.57
301.40	1738.73
301.62	1665.00
301.83	1685.48
302.05	1677.29
302.26	1685.48
302.47	1683.43
302.69	1654.76
302.90	1740.77
303.12	1587.18
303.33	1710.05
303.54	1841.12
303.76	1671.14
303.97	1705.96
304.19	1705.96
304.40	1656.81
304.61	1703.91
304.83	1779.68
305.04	1767.40
305.26	1769.44
305.47	1656.81
305.68	1746.92
305.90	1648.61
306.11	1755.11
306.33	1673.19
306.54	1714.15
306.75	1665.00
306.97	1589.22
307.18	1691.62
307.39	1650.66
307.61	1675.24
307.82	1695.72
308.04	1683.43
308.25	1646.57
308.46	1658.85
308.68	1767.40
308.89	1701.86
309.10	1763.30
309.32	1677.29
309.53	1691.62
309.74	1763.30
309.96	1679.33
310.17	1763.30
310.39	1642.47
310.60	1689.57
310.81	1712.10
311.03	1560.55
311.24	1695.72
311.45	1753.06
311.67	1773.54
311.88	1693.67
312.09	1665.00
312.31	1781.73
312.52	1691.62
312.73	1646.57
312.95	1578.98
313.16	1665.00
313.37	1738.73
313.59	1728.49
313.80	1767.40
314.01	1810.40
314.23	1761.25
314.44	1638.38
314.65	1681.38
314.87	1689.57
315.08	1652.71
315.29	1683.43
315.51	1644.52
315.72	1640.42
315.93	1826.79
316.15	1734.63
316.36	1648.61
316.57	1658.85
316.79	1697.77
317.00	1732.58
317.21	1798.12
317.43	1673.19
317.64	1587.18
317.85	1748.97
318.07	1656.81
318.28	1771.49
318.49	1771.49
318.70	1947.62
318.92	1779.68
319.13	1761.25
319.34	1873.89
319.56	1771.49
319.77	1748.97
319.98	1806.31
320.20	1783.78
320.41	1761.25
320.62	1796.07
320.83	1607.66
321.05	1824.74
321.26	1726.44
321.47	1667.05
321.69	1710.05
321.90	1638.38
322.11	1656.81
322.32	1787.88
322.54	1785.83
322.75	1662.95
322.96	1867.75
323.18	1597.42
323.39	1626.09
323.60	1607.66
323.81	1757.16
324.03	1673.19
324.24	1685.48
324.45	1726.44
324.66	1669.09
324.88	1779.68
325.09	1746.92
325.30	1640.42
325.52	1722.34
325.73	1703.91
325.94	1603.56
326.15	1628.14
326.37	1638.38
326.58	1791.97
326.79	1722.34
327.00	1689.57
327.22	1656.81
327.43	1662.95
327.64	1658.85
327.85	1646.57
328.07	1677.29
328.28	1779.68
328.49	1769.44
328.70	1714.15
328.92	1740.77
329.13	1718.25
329.34	1708.01
329.55	1816.55
329.76	1777.64
329.98	1697.77
330.19	1865.70
330.40	1759.21
330.61	1687.53
330.83	1791.97
331.04	1636.33
331.25	1648.61
331.46	1656.81
331.68	1632.23
331.89	1804.26
332.10	1638.38
332.31	1556.46
332.52	1699.81
332.74	1738.73
332.95	1642.47
333.16	1640.42
333.37	1699.81
333.58	1685.48
333.80	1771.49
334.01	1630.18
334.22	1642.47
334.43	1660.90
334.64	1648.61
334.86	1587.18
335.07	1658.85
335.28	1834.98
335.49	1529.83
335.70	1820.64
335.92	1771.49
336.13	1888.23
336.34	1701.86
336.55	1689.57
336.76	1683.43
336.98	1619.94
337.19	1605.61
337.40	1845.22
337.61	1832.93
337.82	1638.38
338.04	1734.63
338.25	1654.76
338.46	1650.66
338.67	1691.62
338.88	1617.90
339.09	1636.33
339.31	1695.72
339.52	1624.04
339.73	1597.42
339.94	1796.07
340.15	1703.91
340.36	1697.77
340.58	1703.91
340.79	1677.29
341.00	1724.39
341.21	1615.85
341.42	1775.59
341.63	1681.38
341.85	1730.53
342.06	1697.77
342.27	1642.47
342.48	1701.86
342.69	1636.33
342.90	1728.49
343.12	1716.20
343.33	1628.14
343.54	1689.57
343.75	1777.64
343.96	1644.52
344.17	1699.81
344.38	1701.86
344.60	1658.85
344.81	1648.61
345.02	1744.87
345.23	1787.88
345.44	1781.73
345.65	1736.68
345.86	1812.45
346.07	1630.18
346.29	1689.57
346.50	1705.96
346.71	1798.12
346.92	1753.06
347.13	1744.87
347.34	1646.57
347.55	1656.81
347.76	1681.38
347.98	1595.37
348.19	1683.43
348.40	1814.50
348.61	1759.21
348.82	1730.53
349.03	1642.47
349.24	1677.29
349.45	1779.68
349.66	1638.38
349.88	1765.35
350.09	1640.42
350.30	1857.51
350.51	1785.83
350.72	1767.40
350.93	1677.29
351.14	1673.19
351.35	1724.39
351.56	1724.39
351.77	1673.19
351.99	1685.48
352.20	1861.60
352.41	1765.35
352.62	1589.22
352.83	1755.11
353.04	1656.81
353.25	1662.95
353.46	1791.97
353.67	1748.97
353.88	1574.89
354.09	1732.58
354.30	1644.52
354.52	1675.24
354.73	1640.42
354.94	1701.86
355.15	1732.58
355.36	1771.49
355.57	1669.09
355.78	1656.81
355.99	1685.48
356.20	1644.52
356.41	1746.92
356.62	1708.01
356.83	1740.77
357.04	1744.87
357.25	1685.48
357.46	1628.14
357.68	1626.09
357.89	1628.14
358.10	1757.16
358.31	1732.58
358.52	1621.99
358.73	1597.42
358.94	1644.52
359.15	1642.47
359.36	1658.85
359.57	1720.29
359.78	1626.09
359.99	1734.63
360.20	1603.56
360.41	1728.49
360.62	1712.10
360.83	1720.29
361.04	1722.34
361.25	1728.49
361.46	1798.12
361.67	1716.20
361.88	1703.91
362.09	1718.25
362.30	1744.87
362.51	1708.01
362.72	1675.24
362.93	1771.49
363.14	1757.16
363.35	1710.05
363.56	1654.76
363.78	1783.78
363.99	1724.39
364.20	1708.01
364.41	1693.67
364.62	1759.21
364.83	1697.77
365.04	1746.92
365.25	1648.61
365.46	1820.64
365.67	1650.66
365.88	1609.70
366.09	1689.57
366.30	1644.52
366.51	1761.25
366.72	1644.52
366.93	1697.77
367.14	1791.97
367.35	1779.68
367.56	1689.57
367.77	1783.78
367.98	1726.44
368.18	1708.01
368.39	1710.05
368.60	1658.85
368.81	1742.82
369.02	1640.42
369.23	1695.72
369.44	1578.98
369.65	1654.76
369.86	1708.01
370.07	1738.73
370.28	1646.57
370.49	1806.31
370.70	1712.10
370.91	1632.23
371.12	1632.23
371.33	1759.21
371.54	1636.33
371.75	1822.69
371.96	1558.50
372.17	1716.20
372.38	1662.95
372.59	1714.15
372.80	1722.34
373.01	1691.62
373.22	1759.21
373.43	1701.86
373.64	1658.85
373.85	1783.78
374.06	1847.27
374.26	1730.53
374.47	1689.57
374.68	1736.68
374.89	1710.05
375.10	1634.28
375.31	1769.44
375.52	1724.39
375.73	1665.00
375.94	1638.38
376.15	1791.97
376.36	1636.33
376.57	1591.27
376.78	1710.05
376.99	1685.48
377.20	1699.81
377.40	1634.28
377.61	1767.40
377.82	1677.29
378.03	1724.39
378.24	1697.77
378.45	1712.10
378.66	1722.34
378.87	1628.14
379.08	1609.70
379.29	1671.14
379.50	1814.50
379.71	1669.09
379.91	1777.64
380.12	1673.19
380.33	1687.53
380.54	1630.18
380.75	1642.47
380.96	1724.39
381.17	1775.59
381.38	1740.77
381.59	1708.01
381.80	1771.49
382.00	1875.94
382.21	1710.05
382.42	1738.73
382.63	1802.21
382.84	1685.48
383.05	1769.44
383.26	1720.29
383.47	1734.63
383.68	1814.50
383.88	1744.87
384.09	1730.53
384.30	1806.31
384.51	1736.68
384.72	1658.85
384.93	1644.52
385.14	1693.67
385.35	1730.53
385.55	1583.08
385.76	1785.83
385.97	1720.29
386.18	1665.00
386.39	1683.43
386.60	1628.14
386.81	1636.33
387.02	1660.90
387.22	1683.43
387.43	1744.87
387.64	1740.77
387.85	1923.04
388.06	2242.53
388.27	4179.90
388.48	6676.38
388.68	8212.35
388.89	9654.12
389.10	9912.17
389.31	8474.49
389.52	7473.04
389.73	6713.24
389.93	6178.72
390.14	5963.68
390.35	5074.87
390.56	4628.41
390.77	3751.88
390.98	2981.84
391.18	2443.23
391.39	2133.98
391.60	1814.50
391.81	1787.88
392.02	1757.16
392.23	1800.16
392.43	1742.82
392.64	1779.68
392.85	1630.18
393.06	1837.03
393.27	1710.05
393.47	1673.19
393.68	1615.85
393.89	1757.16
394.10	1777.64
394.31	1669.09
394.52	1695.72
394.72	1615.85
394.93	1789.92
395.14	1648.61
395.35	1738.73
395.56	1624.04
395.76	1722.34
395.97	1779.68
396.18	1796.07
396.39	1853.41
396.60	2025.44
396.80	1882.08
397.01	1787.88
397.22	1701.86
397.43	1865.70
397.64	1675.24
397.84	1808.36
398.05	1888.23
398.26	1740.77
398.47	1812.45
398.67	1742.82
398.88	1724.39
399.09	1705.96
399.30	1708.01
399.51	1740.77
399.71	1730.53
399.92	1656.81
400.13	1705.96
400.34	1710.05
400.54	1660.90
400.75	1757.16
400.96	1767.40
401.17	1851.36
401.37	1787.88
401.58	1685.48
401.79	1769.44
402.00	1855.46
402.21	1996.77
402.41	1886.18
402.62	1857.51
402.83	2041.82
403.04	2072.54
403.24	2035.68
403.45	1791.97
403.66	1947.62
403.87	1865.70
404.07	1886.18
404.28	1806.31
404.49	1906.66
404.70	1808.36
404.90	1712.10
405.11	1759.21
405.32	1802.21
405.52	1705.96
405.73	1746.92
405.94	1617.90
406.15	1689.57
406.35	1642.47
406.56	1808.36
406.77	1632.23
406.98	1718.25
407.18	1669.09
407.39	1824.74
407.60	1646.57
407.80	1785.83
408.01	1683.43
408.22	1697.77
408.43	1638.38
408.63	1691.62
408.84	1732.58
409.05	1656.81
409.25	1576.94
409.46	1640.42
409.67	1675.24
409.88	1689.57
410.08	1779.68
410.29	1636.33
410.50	1771.49
410.70	1673.19
410.91	1660.90
411.12	1718.25
411.32	1708.01
411.53	1677.29
411.74	1742.82
411.95	1820.64
412.15	1685.48
412.36	1755.11
412.57	1658.85
412.77	1865.70
412.98	1708.01
413.19	1662.95
413.39	1781.73
413.60	1691.62
413.81	1802.21
414.01	1619.94
414.22	1720.29
414.43	1775.59
414.63	1703.91
414.84	1759.21
415.05	1695.72
415.25	1607.66
415.46	1759.21
415.67	1638.38
415.87	1718.25
416.08	1693.67
416.29	1736.68
416.49	1738.73
416.70	1687.53
416.91	1658.85
417.11	1634.28
417.32	1705.96
417.53	1763.30
417.73	1722.34
417.94	1705.96
418.15	1746.92
418.35	1773.54
418.56	1742.82
418.77	1820.64
418.97	1632.23
419.18	1755.11
419.38	1554.41
419.59	1683.43
419.80	1820.64
420.00	1689.57
420.21	1660.90
420.42	1730.53
420.62	1722.34
420.83	1708.01
421.04	1685.48
421.24	1667.05
421.45	1757.16
421.65	1742.82
421.86	1691.62
422.07	1712.10
422.27	1660.90
422.48	1671.14
422.69	1714.15
422.89	1626.09
423.10	1724.39
423.30	1683.43
423.51	1619.94
423.72	1714.15
423.92	1732.58
424.13	1619.94
424.33	1806.31
424.54	1765.35
424.75	1718.25
424.95	1777.64
425.16	1699.81
425.36	1638.38
425.57	1722.34
425.78	1748.97
425.98	1759.21
426.19	1626.09
426.39	1642.47
426.60	1738.73
426.81	1787.88
427.01	1732.58
427.22	1665.00
427.42	1599.46
427.63	1697.77
427.83	1687.53
428.04	1781.73
428.25	1814.50
428.45	1753.06
428.66	1628.14
428.86	1675.24
429.07	1697.77
429.28	1667.05
429.48	1665.00
429.69	1673.19
429.89	1755.11
430.10	1585.13
430.30	1644.52
430.51	1748.97
430.71	1658.85
430.92	1624.04
431.13	1687.53
431.33	1677.29
431.54	1789.92
431.74	1834.98
431.95	1769.44
432.15	1652.71
432.36	1681.38
432.56	1783.78
432.77	1746.92
432.98	1822.69
433.18	1636.33
433.39	1734.63
433.59	1638.38
433.80	1804.26
434.00	1867.75
434.21	1685.48
434.41	1656.81
434.62	1861.60
434.82	1648.61
435.03	1640.42
435.23	1712.10
435.44	1673.19
435.64	1708.01
435.85	1746.92
436.06	1753.06
436.26	1748.97
436.47	1714.15
436.67	1726.44
436.88	1703.91
437.08	1746.92
437.29	1763.30
437.49	1732.58
437.70	1751.01
437.90	1687.53
438.11	1837.03
438.31	1863.65
438.52	1834.98
438.72	1759.21
438.93	1908.71
439.13	1775.59
439.34	1826.79
439.54	1753.06
439.75	1755.11
439.95	1828.84
440.16	1656.81
440.36	1720.29
440.57	1744.87
440.77	1699.81
440.98	1759.21
441.18	1677.29
441.39	1769.44
441.59	1771.49
441.80	1796.07
442.00	1648.61
442.21	1802.21
442.41	1648.61
442.62	1726.44
442.82	1695.72
443.02	1714.15
443.23	1644.52
443.43	1673.19
443.64	1777.64
443.84	1720.29
444.05	1755.11
444.25	1722.34
444.46	1722.34
444.66	1703.91
444.87	1820.64
445.07	1621.99
445.28	1742.82
445.48	1765.35
445.69	1796.07
445.89	1875.94
446.09	1779.68
446.30	2023.39
446.50	2643.93
446.71	3864.52
446.91	4310.97
447.12	4749.24
447.32	4675.51
447.53	4290.49
447.73	3766.21
447.93	3518.41
448.14	3315.66
448.34	3231.69
448.55	2910.16
448.75	2947.03
448.96	2674.65
449.16	2437.08
449.36	2232.29
449.57	2095.07
449.77	1861.60
449.98	1787.88
450.18	1697.77
450.39	1812.45
450.59	1757.16
450.79	1810.40
451.00	1695.72
451.20	1781.73
451.41	1748.97
451.61	1769.44
451.81	1675.24
452.02	1687.53
452.22	1783.78
452.43	1642.47
452.63	1675.24
