SpectraSuite Data File
++++++++++++++++++++++++++++++++++++
Date: Mon Jun 06 16:10:37 CEST 2016
User: root
Dark Spectrum Present: No
Reference Spectrum Present: No
Number of Sampled Component Spectra: 1
Spectrometers: USB4C02835
Integration Time (usec): 100000 (USB4C02835)
Spectra Averaged: 1 (USB4C02835)
Boxcar Smoothing: 0 (USB4C02835)
Correct for Electrical Dark: No (USB4C02835)
Strobe/Lamp Enabled: No (USB4C02835)
Correct for Detector Non-linearity: No (USB4C02835)
Correct for Stray Light: No (USB4C02835)
Number of Pixels in Processed Spectrum: 3648
>>>>>Begin Processed Spectral Data<<<<<
177.47	1452.01
177.69	1452.01
177.91	1452.01
178.13	1456.11
178.36	1478.63
178.58	1730.53
178.80	1683.43
179.02	1601.51
179.24	1638.38
179.46	1644.52
179.68	1767.40
179.90	1665.00
180.13	1740.77
180.35	1697.77
180.57	1681.38
180.79	1740.77
181.01	1689.57
181.23	1804.26
181.45	1791.97
181.67	1808.36
181.90	1794.02
182.12	1726.44
182.34	1652.71
182.56	1763.30
182.78	1689.57
183.00	1632.23
183.22	1751.01
183.44	1605.61
183.66	1929.19
183.89	1787.88
184.11	1732.58
184.33	1757.16
184.55	1726.44
184.77	1744.87
184.99	1679.33
185.21	1755.11
185.43	1900.52
185.65	1728.49
185.87	1748.97
186.10	1869.80
186.32	1837.03
186.54	1718.25
186.76	1759.21
186.98	1689.57
187.20	1656.81
187.42	1701.86
187.64	1712.10
187.86	1677.29
188.08	1751.01
188.30	1640.42
188.52	1665.00
188.75	1675.24
188.97	1761.25
189.19	1722.34
189.41	1628.14
189.63	1763.30
189.85	1646.57
190.07	1697.77
190.29	1583.08
190.51	1744.87
190.73	1628.14
190.95	1804.26
191.17	1667.05
191.39	1597.42
191.61	1724.39
191.84	1779.68
192.06	1718.25
192.28	1619.94
192.50	1912.80
192.72	1751.01
192.94	1669.09
193.16	1779.68
193.38	1634.28
193.60	1660.90
193.82	1730.53
194.04	1826.79
194.26	1765.35
194.48	1730.53
194.70	1665.00
194.92	1681.38
195.14	1779.68
195.36	1687.53
195.58	1695.72
195.80	1660.90
196.02	1619.94
196.24	1714.15
196.46	1777.64
196.69	1638.38
196.91	1832.93
197.13	1744.87
197.35	1621.99
197.57	1789.92
197.79	1763.30
198.01	1796.07
198.23	1734.63
198.45	1685.48
198.67	1675.24
198.89	1724.39
199.11	1722.34
199.33	1677.29
199.55	1609.70
199.77	1636.33
199.99	1837.03
200.21	1742.82
200.43	1779.68
200.65	1662.95
200.87	1626.09
201.09	1667.05
201.31	1695.72
201.53	1652.71
201.75	1773.54
201.97	1703.91
202.19	1744.87
202.41	1810.40
202.63	1804.26
202.85	1751.01
203.07	1681.38
203.29	1738.73
203.51	1679.33
203.73	1658.85
203.95	1837.03
204.17	1724.39
204.39	1746.92
204.61	1742.82
204.83	1736.68
205.05	1816.55
205.27	1796.07
205.49	1841.12
205.71	1757.16
205.93	1654.76
206.15	1724.39
206.37	1746.92
206.59	1654.76
206.81	1652.71
207.03	1634.28
207.25	1693.67
207.47	1734.63
207.69	1667.05
207.91	1757.16
208.13	1722.34
208.34	1669.09
208.56	1681.38
208.78	1710.05
209.00	1673.19
209.22	1640.42
209.44	1779.68
209.66	1689.57
209.88	1728.49
210.10	1681.38
210.32	1671.14
210.54	1783.78
210.76	1662.95
210.98	1781.73
211.20	1607.66
211.42	1732.58
211.64	1740.77
211.86	1771.49
212.08	1783.78
212.30	1742.82
212.52	1605.61
212.74	1708.01
212.96	1775.59
213.17	1798.12
213.39	1765.35
213.61	1779.68
213.83	1816.55
214.05	1650.66
214.27	1779.68
214.49	1716.20
214.71	1687.53
214.93	1714.15
215.15	1677.29
215.37	1703.91
215.59	1630.18
215.81	1742.82
216.03	1763.30
216.24	1677.29
216.46	1753.06
216.68	1730.53
216.90	1769.44
217.12	1722.34
217.34	1726.44
217.56	1732.58
217.78	1804.26
218.00	1718.25
218.22	1740.77
218.44	1699.81
218.66	1755.11
218.87	1804.26
219.09	1685.48
219.31	1759.21
219.53	1736.68
219.75	1652.71
219.97	1681.38
220.19	1773.54
220.41	1746.92
220.63	1796.07
220.85	1728.49
221.06	1665.00
221.28	1798.12
221.50	1712.10
221.72	1714.15
221.94	1740.77
222.16	1730.53
222.38	1757.16
222.60	1744.87
222.82	1626.09
223.03	1677.29
223.25	1730.53
223.47	1703.91
223.69	1808.36
223.91	1742.82
224.13	1705.96
224.35	1697.77
224.57	1781.73
224.78	1656.81
225.00	1634.28
225.22	1738.73
225.44	1763.30
225.66	1802.21
225.88	1646.57
226.10	1767.40
226.32	1755.11
226.53	1714.15
226.75	1705.96
226.97	1730.53
227.19	1710.05
227.41	1613.80
227.63	1660.90
227.85	1650.66
228.06	1710.05
228.28	1687.53
228.50	1791.97
228.72	1681.38
228.94	1685.48
229.16	1644.52
229.37	1695.72
229.59	1687.53
229.81	1734.63
230.03	1679.33
230.25	1656.81
230.47	1630.18
230.69	1613.80
230.90	1716.20
231.12	1652.71
231.34	1759.21
231.56	1728.49
231.78	1593.32
232.00	1724.39
232.21	1701.86
232.43	1576.94
232.65	1556.46
232.87	1718.25
233.09	1640.42
233.30	1611.75
233.52	1757.16
233.74	1701.86
233.96	1744.87
234.18	1746.92
234.40	1757.16
234.61	1822.69
234.83	1634.28
235.05	1683.43
235.27	1861.60
235.49	1837.03
235.70	1673.19
235.92	1830.88
236.14	1789.92
236.36	1832.93
236.58	1681.38
236.79	1794.02
237.01	1701.86
237.23	1695.72
237.45	1853.41
237.67	1621.99
237.88	1691.62
238.10	1816.55
238.32	1658.85
238.54	1720.29
238.76	1767.40
238.97	1626.09
239.19	1667.05
239.41	1746.92
239.63	1730.53
239.85	1662.95
240.06	1705.96
240.28	1673.19
240.50	1779.68
240.72	1701.86
240.93	1671.14
241.15	1830.88
241.37	1742.82
241.59	1771.49
241.81	1677.29
242.02	1626.09
242.24	1751.01
242.46	1662.95
242.68	1716.20
242.89	1765.35
243.11	1771.49
243.33	1746.92
243.55	1732.58
243.76	1697.77
243.98	1712.10
244.20	1673.19
244.42	1716.20
244.64	1718.25
244.85	1646.57
245.07	1656.81
245.29	1724.39
245.51	1736.68
245.72	1677.29
245.94	1765.35
246.16	1773.54
246.38	1656.81
246.59	1642.47
246.81	1804.26
247.03	1689.57
247.24	1693.67
247.46	1675.24
247.68	1746.92
247.90	1693.67
248.11	1693.67
248.33	1759.21
248.55	1718.25
248.77	1777.64
248.98	1781.73
249.20	1785.83
249.42	1681.38
249.64	1699.81
249.85	1812.45
250.07	1724.39
250.29	1765.35
250.50	1742.82
250.72	1599.46
250.94	1769.44
251.16	1845.22
251.37	1789.92
251.59	1791.97
251.81	1748.97
252.02	1701.86
252.24	1669.09
252.46	1763.30
252.68	1667.05
252.89	1671.14
253.11	1624.04
253.33	1857.51
253.54	1771.49
253.76	1628.14
253.98	1691.62
254.20	1681.38
254.41	1685.48
254.63	1755.11
254.85	1685.48
255.06	1675.24
255.28	1773.54
255.50	1732.58
255.71	1642.47
255.93	1615.85
256.15	1681.38
256.36	1714.15
256.58	1677.29
256.80	1738.73
257.02	1708.01
257.23	1665.00
257.45	1736.68
257.67	1859.56
257.88	1689.57
258.10	1728.49
258.32	1777.64
258.53	1724.39
258.75	1855.46
258.97	1624.04
259.18	1703.91
259.40	1794.02
259.62	1785.83
259.83	1828.84
260.05	1738.73
260.27	1974.24
260.48	1810.40
260.70	1675.24
260.92	1667.05
261.13	1703.91
261.35	1742.82
261.57	1814.50
261.78	1626.09
262.00	1665.00
262.22	1771.49
262.43	1675.24
262.65	1736.68
262.86	1748.97
263.08	1828.84
263.30	1722.34
263.51	1638.38
263.73	1708.01
263.95	1826.79
264.16	1644.52
264.38	1746.92
264.60	1695.72
264.81	1753.06
265.03	1814.50
265.25	1798.12
265.46	1701.86
265.68	1769.44
265.89	1755.11
266.11	1671.14
266.33	1773.54
266.54	1746.92
266.76	1796.07
266.98	1746.92
267.19	1761.25
267.41	1652.71
267.62	1732.58
267.84	1626.09
268.06	1730.53
268.27	1708.01
268.49	1761.25
268.70	1830.88
268.92	1755.11
269.14	1677.29
269.35	1642.47
269.57	1730.53
269.79	1820.64
270.00	1701.86
270.22	1822.69
270.43	1681.38
270.65	1662.95
270.87	1791.97
271.08	1740.77
271.30	1763.30
271.51	1781.73
271.73	1753.06
271.95	1837.03
272.16	1697.77
272.38	1748.97
272.59	1673.19
272.81	1822.69
273.02	1718.25
273.24	1740.77
273.46	1779.68
273.67	1619.94
273.89	1626.09
274.10	1675.24
274.32	1808.36
274.54	1742.82
274.75	1734.63
274.97	1683.43
275.18	1744.87
275.40	1708.01
275.61	1710.05
275.83	1673.19
276.05	1730.53
276.26	1640.42
276.48	1732.58
276.69	1718.25
276.91	1708.01
277.12	1761.25
277.34	1767.40
277.55	1722.34
277.77	1705.96
277.99	1716.20
278.20	1607.66
278.42	1695.72
278.63	1632.23
278.85	1673.19
279.06	1660.90
279.28	1757.16
279.49	1806.31
279.71	1742.82
279.93	1736.68
280.14	1691.62
280.36	1615.85
280.57	1697.77
280.79	1757.16
281.00	1730.53
281.22	1736.68
281.43	1853.41
281.65	1566.70
281.86	1619.94
282.08	1742.82
282.29	1798.12
282.51	1640.42
282.73	1638.38
282.94	1654.76
283.16	1771.49
283.37	1798.12
283.59	1775.59
283.80	1720.29
284.02	1730.53
284.23	1787.88
284.45	1701.86
284.66	1710.05
284.88	1626.09
285.09	1757.16
285.31	1757.16
285.52	1695.72
285.74	1650.66
285.95	1732.58
286.17	1755.11
286.38	1859.56
286.60	1628.14
286.81	1693.67
287.03	1748.97
287.24	1626.09
287.46	1738.73
287.67	1783.78
287.89	1775.59
288.10	1746.92
288.32	1691.62
288.53	1705.96
288.75	1771.49
288.96	1796.07
289.18	1712.10
289.39	1671.14
289.61	1794.02
289.82	1804.26
290.04	1777.64
290.25	1624.04
290.47	1781.73
290.68	1773.54
290.90	1834.98
291.11	1673.19
291.33	1806.31
291.54	1624.04
291.76	1695.72
291.97	1665.00
292.18	1738.73
292.40	1642.47
292.61	1767.40
292.83	1783.78
293.04	1777.64
293.26	1808.36
293.47	1699.81
293.69	1669.09
293.90	1718.25
294.12	1738.73
294.33	1773.54
294.55	1615.85
294.76	1804.26
294.97	1771.49
295.19	1843.17
295.40	1685.48
295.62	1728.49
295.83	1759.21
296.05	1605.61
296.26	1789.92
296.48	1619.94
296.69	1665.00
296.90	1736.68
297.12	1806.31
297.33	1738.73
297.55	1746.92
297.76	1714.15
297.98	1736.68
298.19	1726.44
298.41	1753.06
298.62	1615.85
298.83	1751.01
299.05	1697.77
299.26	1683.43
299.48	1681.38
299.69	1773.54
299.90	1726.44
300.12	1634.28
300.33	1738.73
300.55	1691.62
300.76	1726.44
300.98	1642.47
301.19	1798.12
301.40	1708.01
301.62	1720.29
301.83	1703.91
302.05	1751.01
302.26	1701.86
302.47	1751.01
302.69	1695.72
302.90	1644.52
303.12	1589.22
303.33	1689.57
303.54	1884.13
303.76	1679.33
303.97	1732.58
304.19	1746.92
304.40	1648.61
304.61	1742.82
304.83	1865.70
305.04	1720.29
305.26	1675.24
305.47	1576.94
305.68	1773.54
305.90	1605.61
306.11	1820.64
306.33	1648.61
306.54	1734.63
306.75	1662.95
306.97	1603.56
307.18	1667.05
307.39	1675.24
307.61	1787.88
307.82	1644.52
308.04	1738.73
308.25	1665.00
308.46	1701.86
308.68	1730.53
308.89	1710.05
309.10	1779.68
309.32	1714.15
309.53	1734.63
309.74	1699.81
309.96	1695.72
310.17	1775.59
310.39	1689.57
310.60	1718.25
310.81	1771.49
311.03	1640.42
311.24	1769.44
311.45	1714.15
311.67	1824.74
311.88	1724.39
312.09	1683.43
312.31	1611.75
312.52	1785.83
312.73	1693.67
312.95	1642.47
313.16	1665.00
313.37	1783.78
313.59	1732.58
313.80	1763.30
314.01	1810.40
314.23	1726.44
314.44	1691.62
314.65	1644.52
314.87	1759.21
315.08	1644.52
315.29	1732.58
315.51	1669.09
315.72	1665.00
315.93	1839.08
316.15	1789.92
316.36	1578.98
316.57	1736.68
316.79	1742.82
317.00	1777.64
317.21	1757.16
317.43	1687.53
317.64	1650.66
317.85	1718.25
318.07	1699.81
318.28	1714.15
318.49	1888.23
318.70	1918.95
318.92	1810.40
319.13	1794.02
319.34	1920.99
319.56	1785.83
319.77	1767.40
319.98	1806.31
320.20	1810.40
320.41	1785.83
320.62	1746.92
320.83	1746.92
321.05	1746.92
321.26	1740.77
321.47	1753.06
321.69	1812.45
321.90	1660.90
322.11	1621.99
322.32	1656.81
322.54	1863.65
322.75	1742.82
322.96	1806.31
323.18	1652.71
323.39	1607.66
323.60	1595.37
323.81	1822.69
324.03	1691.62
324.24	1695.72
324.45	1746.92
324.66	1671.14
324.88	1814.50
325.09	1855.46
325.30	1753.06
325.52	1718.25
325.73	1751.01
325.94	1675.24
326.15	1628.14
326.37	1685.48
326.58	1695.72
326.79	1818.60
327.00	1665.00
327.22	1708.01
327.43	1667.05
327.64	1634.28
327.85	1716.20
328.07	1738.73
328.28	1781.73
328.49	1708.01
328.70	1714.15
328.92	1769.44
329.13	1703.91
329.34	1708.01
329.55	1841.12
329.76	1771.49
329.98	1746.92
330.19	1789.92
330.40	1683.43
330.61	1730.53
330.83	1732.58
331.04	1755.11
331.25	1718.25
331.46	1740.77
331.68	1560.55
331.89	1791.97
332.10	1763.30
332.31	1665.00
332.52	1636.33
332.74	1814.50
332.95	1724.39
333.16	1724.39
333.37	1757.16
333.58	1681.38
333.80	1763.30
334.01	1667.05
334.22	1714.15
334.43	1640.42
334.64	1660.90
334.86	1611.75
335.07	1681.38
335.28	1877.99
335.49	1609.70
335.70	1681.38
335.92	1771.49
336.13	1791.97
336.34	1775.59
336.55	1746.92
336.76	1701.86
336.98	1597.42
337.19	1703.91
337.40	1802.21
337.61	1867.75
337.82	1685.48
338.04	1757.16
338.25	1667.05
338.46	1755.11
338.67	1738.73
338.88	1660.90
339.09	1677.29
339.31	1714.15
339.52	1662.95
339.73	1603.56
339.94	1740.77
340.15	1689.57
340.36	1667.05
340.58	1724.39
340.79	1642.47
341.00	1726.44
341.21	1695.72
341.42	1890.28
341.63	1724.39
341.85	1775.59
342.06	1732.58
342.27	1650.66
342.48	1716.20
342.69	1673.19
342.90	1716.20
343.12	1742.82
343.33	1628.14
343.54	1742.82
343.75	1781.73
343.96	1755.11
344.17	1626.09
344.38	1738.73
344.60	1640.42
344.81	1603.56
345.02	1648.61
345.23	1820.64
345.44	1773.54
345.65	1726.44
345.86	1728.49
346.07	1660.90
346.29	1665.00
346.50	1722.34
346.71	1699.81
346.92	1812.45
347.13	1884.13
347.34	1714.15
347.55	1695.72
347.76	1759.21
347.98	1667.05
348.19	1705.96
348.40	1773.54
348.61	1732.58
348.82	1697.77
349.03	1740.77
349.24	1720.29
349.45	1746.92
349.66	1624.04
349.88	1740.77
350.09	1671.14
350.30	1693.67
350.51	1853.41
350.72	1767.40
350.93	1732.58
351.14	1677.29
351.35	1724.39
351.56	1654.76
351.77	1613.80
351.99	1714.15
352.20	1832.93
352.41	1800.16
352.62	1587.18
352.83	1687.53
353.04	1724.39
353.25	1665.00
353.46	1726.44
353.67	1765.35
353.88	1652.71
354.09	1656.81
354.30	1765.35
354.52	1802.21
354.73	1687.53
354.94	1660.90
355.15	1714.15
355.36	1703.91
355.57	1656.81
355.78	1701.86
355.99	1759.21
356.20	1675.24
356.41	1726.44
356.62	1777.64
356.83	1722.34
357.04	1849.32
357.25	1605.61
357.46	1669.09
357.68	1583.08
357.89	1683.43
358.10	1742.82
358.31	1708.01
358.52	1730.53
358.73	1667.05
358.94	1615.85
359.15	1660.90
359.36	1785.83
359.57	1718.25
359.78	1755.11
359.99	1687.53
360.20	1669.09
360.41	1710.05
360.62	1818.60
360.83	1708.01
361.04	1724.39
361.25	1746.92
361.46	1724.39
361.67	1789.92
361.88	1769.44
362.09	1812.45
362.30	1828.84
362.51	1642.47
362.72	1710.05
362.93	1712.10
363.14	1773.54
363.35	1761.25
363.56	1644.52
363.78	1787.88
363.99	1742.82
364.20	1587.18
364.41	1736.68
364.62	1839.08
364.83	1759.21
365.04	1740.77
365.25	1726.44
365.46	1785.83
365.67	1701.86
365.88	1636.33
366.09	1753.06
366.30	1722.34
366.51	1681.38
366.72	1691.62
366.93	1660.90
367.14	1691.62
367.35	1816.55
367.56	1705.96
367.77	1794.02
367.98	1710.05
368.18	1757.16
368.39	1697.77
368.60	1624.04
368.81	1726.44
369.02	1763.30
369.23	1677.29
369.44	1570.79
369.65	1693.67
369.86	1687.53
370.07	1767.40
370.28	1662.95
370.49	1703.91
370.70	1738.73
370.91	1748.97
371.12	1689.57
371.33	1740.77
371.54	1691.62
371.75	1777.64
371.96	1587.18
372.17	1650.66
372.38	1662.95
372.59	1751.01
372.80	1722.34
373.01	1689.57
373.22	1732.58
373.43	1710.05
373.64	1572.84
373.85	1777.64
374.06	1834.98
374.26	1781.73
374.47	1683.43
374.68	1822.69
374.89	1769.44
375.10	1613.80
375.31	1777.64
375.52	1738.73
375.73	1689.57
375.94	1685.48
376.15	1740.77
376.36	1724.39
376.57	1681.38
376.78	1767.40
376.99	1746.92
377.20	1740.77
377.40	1753.06
377.61	1861.60
377.82	1644.52
378.03	1757.16
378.24	1693.67
378.45	1718.25
378.66	1691.62
378.87	1619.94
379.08	1654.76
379.29	1791.97
379.50	1769.44
379.71	1683.43
379.91	1765.35
380.12	1687.53
380.33	1601.51
380.54	1777.64
380.75	1697.77
380.96	1646.57
381.17	1789.92
381.38	1742.82
381.59	1816.55
381.80	1779.68
382.00	1882.08
382.21	1738.73
382.42	1871.84
382.63	1871.84
382.84	1765.35
383.05	1789.92
383.26	1861.60
383.47	1613.80
383.68	1710.05
383.88	1738.73
384.09	1769.44
384.30	1820.64
384.51	1800.16
384.72	1718.25
384.93	1607.66
385.14	1677.29
385.35	1714.15
385.55	1603.56
385.76	1759.21
385.97	1693.67
386.18	1585.13
386.39	1671.14
386.60	1757.16
386.81	1689.57
387.02	1691.62
387.22	1724.39
387.43	1695.72
387.64	1796.07
387.85	1904.61
388.06	2127.84
388.27	4097.99
388.48	6840.22
388.68	8032.13
388.89	9508.72
389.10	9742.19
389.31	8630.14
389.52	7542.67
389.73	6713.24
389.93	6219.68
390.14	5826.47
390.35	5281.71
390.56	4495.29
390.77	3803.08
390.98	3088.34
391.18	2523.10
391.39	2123.74
391.60	1869.80
391.81	1894.37
392.02	1804.26
392.23	1808.36
392.43	1714.15
392.64	1867.75
392.85	1794.02
393.06	1847.27
393.27	1710.05
393.47	1705.96
393.68	1730.53
393.89	1662.95
394.10	1783.78
394.31	1681.38
394.52	1593.32
394.72	1652.71
394.93	1851.36
395.14	1722.34
395.35	1738.73
395.56	1689.57
395.76	1718.25
395.97	1837.03
396.18	1767.40
396.39	1794.02
396.60	2080.74
396.80	1923.04
397.01	1855.46
397.22	1761.25
397.43	1849.32
397.64	1724.39
397.84	1843.17
398.05	1867.75
398.26	1802.21
398.47	1791.97
398.67	1779.68
398.88	1716.20
399.09	1781.73
399.30	1693.67
399.51	1734.63
399.71	1642.47
399.92	1732.58
400.13	1705.96
400.34	1677.29
400.54	1734.63
400.75	1826.79
400.96	1693.67
401.17	1890.28
401.37	1769.44
401.58	1716.20
401.79	1783.78
402.00	1857.51
402.21	1945.57
402.41	2009.06
402.62	2007.01
402.83	2056.16
403.04	1966.05
403.24	2029.54
403.45	1826.79
403.66	1943.52
403.87	1841.12
404.07	1892.32
404.28	1826.79
404.49	1826.79
404.70	1751.01
404.90	1759.21
405.11	1767.40
405.32	1783.78
405.52	1691.62
405.73	1652.71
405.94	1726.44
406.15	1751.01
406.35	1726.44
406.56	1753.06
406.77	1759.21
406.98	1742.82
407.18	1640.42
407.39	1861.60
407.60	1726.44
407.80	1755.11
408.01	1730.53
408.22	1744.87
408.43	1705.96
408.63	1687.53
408.84	1751.01
409.05	1660.90
409.25	1695.72
409.46	1679.33
409.67	1630.18
409.88	1673.19
410.08	1753.06
410.29	1763.30
410.50	1777.64
410.70	1728.49
410.91	1640.42
411.12	1714.15
411.32	1650.66
411.53	1732.58
411.74	1789.92
411.95	1742.82
412.15	1849.32
412.36	1841.12
412.57	1796.07
412.77	1834.98
412.98	1730.53
413.19	1746.92
413.39	1714.15
413.60	1800.16
413.81	1798.12
414.01	1699.81
414.22	1755.11
414.43	1789.92
414.63	1732.58
414.84	1789.92
415.05	1767.40
415.25	1667.05
415.46	1828.84
415.67	1662.95
415.87	1816.55
416.08	1765.35
416.29	1681.38
416.49	1726.44
416.70	1710.05
416.91	1640.42
417.11	1736.68
417.32	1783.78
417.53	1755.11
417.73	1718.25
417.94	1730.53
418.15	1763.30
418.35	1804.26
418.56	1626.09
418.77	1802.21
418.97	1693.67
419.18	1681.38
419.38	1562.60
419.59	1656.81
419.80	1791.97
420.00	1742.82
420.21	1726.44
420.42	1761.25
420.62	1732.58
420.83	1689.57
421.04	1673.19
421.24	1695.72
421.45	1730.53
421.65	1773.54
421.86	1675.24
422.07	1761.25
422.27	1689.57
422.48	1736.68
422.69	1669.09
422.89	1632.23
423.10	1714.15
423.30	1667.05
423.51	1777.64
423.72	1716.20
423.92	1716.20
424.13	1554.41
424.33	1665.00
424.54	1681.38
424.75	1728.49
424.95	1812.45
425.16	1761.25
425.36	1746.92
425.57	1744.87
425.78	1748.97
425.98	1722.34
426.19	1662.95
426.39	1712.10
426.60	1699.81
426.81	1769.44
427.01	1714.15
427.22	1697.77
427.42	1609.70
427.63	1691.62
427.83	1716.20
428.04	1832.93
428.25	1746.92
428.45	1800.16
428.66	1761.25
428.86	1714.15
429.07	1734.63
429.28	1767.40
429.48	1726.44
429.69	1675.24
429.89	1658.85
430.10	1628.14
430.30	1742.82
430.51	1751.01
430.71	1695.72
430.92	1679.33
431.13	1687.53
431.33	1812.45
431.54	1728.49
431.74	1888.23
431.95	1882.08
432.15	1646.57
432.36	1751.01
432.56	1830.88
432.77	1834.98
432.98	1859.56
433.18	1748.97
433.39	1658.85
433.59	1730.53
433.80	1761.25
434.00	1859.56
434.21	1699.81
434.41	1765.35
434.62	1886.18
434.82	1695.72
435.03	1675.24
435.23	1736.68
435.44	1630.18
435.64	1695.72
435.85	1734.63
436.06	1712.10
436.26	1732.58
436.47	1697.77
436.67	1687.53
436.88	1724.39
437.08	1775.59
437.29	1765.35
437.49	1708.01
437.70	1789.92
437.90	1699.81
438.11	1791.97
438.31	1837.03
438.52	1898.47
438.72	1867.75
438.93	1861.60
439.13	1810.40
439.34	1806.31
439.54	1781.73
439.75	1841.12
439.95	1839.08
440.16	1779.68
440.36	1710.05
440.57	1757.16
440.77	1783.78
440.98	1822.69
441.18	1765.35
441.39	1703.91
441.59	1591.27
441.80	1875.94
442.00	1693.67
442.21	1869.80
442.41	1589.22
442.62	1740.77
442.82	1693.67
443.02	1714.15
443.23	1742.82
443.43	1662.95
443.64	1763.30
443.84	1640.42
444.05	1900.52
444.25	1742.82
444.46	1724.39
444.66	1681.38
444.87	1755.11
445.07	1642.47
445.28	1777.64
445.48	1804.26
445.69	1802.21
445.89	1914.85
446.09	1755.11
446.30	2025.44
446.50	2648.02
446.71	3659.72
446.91	4278.21
447.12	4853.69
447.32	4710.33
447.53	4276.16
447.73	3885.00
447.93	3495.88
448.14	3385.29
448.34	3254.22
448.55	2848.72
448.75	2775.00
448.96	2688.98
449.16	2422.75
449.36	2252.77
449.57	1927.14
449.77	1920.99
449.98	1818.60
450.18	1861.60
450.39	1755.11
450.59	1812.45
450.79	1748.97
451.00	1769.44
451.20	1789.92
451.41	1738.73
451.61	1671.14
451.81	1753.06
452.02	1658.85
452.22	1810.40
452.43	1722.34
452.63	1732.58
