SpectraSuite Data File
++++++++++++++++++++++++++++++++++++
Date: Mon Jun 06 14:22:37 CEST 2016
User: root
Dark Spectrum Present: No
Reference Spectrum Present: No
Number of Sampled Component Spectra: 1
Spectrometers: USB4C02835
Integration Time (usec): 100000 (USB4C02835)
Spectra Averaged: 1 (USB4C02835)
Boxcar Smoothing: 0 (USB4C02835)
Correct for Electrical Dark: No (USB4C02835)
Strobe/Lamp Enabled: No (USB4C02835)
Correct for Detector Non-linearity: No (USB4C02835)
Correct for Stray Light: No (USB4C02835)
Number of Pixels in Processed Spectrum: 3648
>>>>>Begin Processed Spectral Data<<<<<
177.47	1458.15
177.69	1458.15
177.91	1458.15
178.13	1519.59
178.36	1421.29
178.58	1632.23
178.80	1697.77
179.02	1675.24
179.24	1669.09
179.46	1726.44
179.68	1746.92
179.90	1658.85
180.13	1669.09
180.35	1677.29
180.57	1665.00
180.79	1746.92
181.01	1681.38
181.23	1718.25
181.45	1757.16
181.67	1757.16
181.90	1759.21
182.12	1714.15
182.34	1578.98
182.56	1800.16
182.78	1708.01
183.00	1697.77
183.22	1765.35
183.44	1585.13
183.66	1802.21
183.89	1777.64
184.11	1644.52
184.33	1667.05
184.55	1820.64
184.77	1728.49
184.99	1693.67
185.21	1607.66
185.43	1800.16
185.65	1650.66
185.87	1755.11
186.10	1820.64
186.32	1834.98
186.54	1736.68
186.76	1777.64
186.98	1763.30
187.20	1744.87
187.42	1669.09
187.64	1644.52
187.86	1757.16
188.08	1691.62
188.30	1673.19
188.52	1658.85
188.75	1800.16
188.97	1808.36
189.19	1638.38
189.41	1730.53
189.63	1728.49
189.85	1708.01
190.07	1595.37
190.29	1591.27
190.51	1685.48
190.73	1640.42
190.95	1810.40
191.17	1697.77
191.39	1605.61
191.61	1654.76
191.84	1771.49
192.06	1740.77
192.28	1665.00
192.50	1812.45
192.72	1646.57
192.94	1753.06
193.16	1746.92
193.38	1808.36
193.60	1673.19
193.82	1642.47
194.04	1708.01
194.26	1689.57
194.48	1632.23
194.70	1660.90
194.92	1669.09
195.14	1744.87
195.36	1730.53
195.58	1695.72
195.80	1689.57
196.02	1671.14
196.24	1644.52
196.46	1751.01
196.69	1722.34
196.91	1896.42
197.13	1734.63
197.35	1650.66
197.57	1837.03
197.79	1703.91
198.01	1699.81
198.23	1820.64
198.45	1687.53
198.67	1640.42
198.89	1636.33
199.11	1757.16
199.33	1662.95
199.55	1640.42
199.77	1626.09
199.99	1740.77
200.21	1722.34
200.43	1705.96
200.65	1650.66
200.87	1591.27
201.09	1736.68
201.31	1615.85
201.53	1748.97
201.75	1693.67
201.97	1691.62
202.19	1724.39
202.41	1701.86
202.63	1744.87
202.85	1720.29
203.07	1732.58
203.29	1693.67
203.51	1611.75
203.73	1665.00
203.95	1943.52
204.17	1710.05
204.39	1751.01
204.61	1675.24
204.83	1626.09
205.05	1759.21
205.27	1718.25
205.49	1843.17
205.71	1673.19
205.93	1640.42
206.15	1665.00
206.37	1695.72
206.59	1705.96
206.81	1560.55
207.03	1677.29
207.25	1644.52
207.47	1740.77
207.69	1744.87
207.91	1771.49
208.13	1769.44
208.34	1665.00
208.56	1654.76
208.78	1648.61
209.00	1675.24
209.22	1714.15
209.44	1667.05
209.66	1617.90
209.88	1738.73
210.10	1701.86
210.32	1687.53
210.54	1783.78
210.76	1699.81
210.98	1724.39
211.20	1595.37
211.42	1726.44
211.64	1761.25
211.86	1777.64
212.08	1738.73
212.30	1783.78
212.52	1708.01
212.74	1671.14
212.96	1695.72
213.17	1732.58
213.39	1720.29
213.61	1734.63
213.83	1708.01
214.05	1630.18
214.27	1687.53
214.49	1648.61
214.71	1675.24
214.93	1718.25
215.15	1726.44
215.37	1748.97
215.59	1613.80
215.81	1787.88
216.03	1744.87
216.24	1730.53
216.46	1728.49
216.68	1718.25
216.90	1751.01
217.12	1769.44
217.34	1699.81
217.56	1710.05
217.78	1699.81
218.00	1775.59
218.22	1714.15
218.44	1705.96
218.66	1679.33
218.87	1837.03
219.09	1701.86
219.31	1742.82
219.53	1701.86
219.75	1703.91
219.97	1685.48
220.19	1677.29
220.41	1656.81
220.63	1714.15
220.85	1691.62
221.06	1748.97
221.28	1726.44
221.50	1722.34
221.72	1660.90
221.94	1712.10
222.16	1712.10
222.38	1742.82
222.60	1691.62
222.82	1714.15
223.03	1796.07
223.25	1617.90
223.47	1771.49
223.69	1824.74
223.91	1710.05
224.13	1656.81
224.35	1673.19
224.57	1703.91
224.78	1781.73
225.00	1703.91
225.22	1685.48
225.44	1687.53
225.66	1751.01
225.88	1705.96
226.10	1806.31
226.32	1773.54
226.53	1767.40
226.75	1630.18
226.97	1660.90
227.19	1701.86
227.41	1621.99
227.63	1689.57
227.85	1665.00
228.06	1730.53
228.28	1748.97
228.50	1771.49
228.72	1673.19
228.94	1640.42
229.16	1673.19
229.37	1621.99
229.59	1683.43
229.81	1771.49
230.03	1665.00
230.25	1568.74
230.47	1646.57
230.69	1665.00
230.90	1787.88
231.12	1732.58
231.34	1648.61
231.56	1820.64
231.78	1714.15
232.00	1611.75
232.21	1730.53
232.43	1738.73
232.65	1601.51
232.87	1769.44
233.09	1660.90
233.30	1681.38
233.52	1789.92
233.74	1685.48
233.96	1675.24
234.18	1734.63
234.40	1640.42
234.61	1841.12
234.83	1621.99
235.05	1572.84
235.27	1832.93
235.49	1802.21
235.70	1679.33
235.92	1730.53
236.14	1753.06
236.36	1847.27
236.58	1689.57
236.79	1769.44
237.01	1712.10
237.23	1683.43
237.45	1812.45
237.67	1642.47
237.88	1751.01
238.10	1794.02
238.32	1669.09
238.54	1708.01
238.76	1742.82
238.97	1740.77
239.19	1601.51
239.41	1798.12
239.63	1824.74
239.85	1658.85
240.06	1773.54
240.28	1665.00
240.50	1724.39
240.72	1720.29
240.93	1687.53
241.15	1763.30
241.37	1736.68
241.59	1732.58
241.81	1683.43
242.02	1755.11
242.24	1748.97
242.46	1699.81
242.68	1712.10
242.89	1685.48
243.11	1685.48
243.33	1751.01
243.55	1738.73
243.76	1699.81
243.98	1621.99
244.20	1705.96
244.42	1722.34
244.64	1669.09
244.85	1578.98
245.07	1667.05
245.29	1685.48
245.51	1779.68
245.72	1699.81
245.94	1759.21
246.16	1705.96
246.38	1730.53
246.59	1621.99
246.81	1646.57
247.03	1728.49
247.24	1658.85
247.46	1650.66
247.68	1685.48
247.90	1613.80
248.11	1679.33
248.33	1783.78
248.55	1697.77
248.77	1751.01
248.98	1679.33
249.20	1839.08
249.42	1730.53
249.64	1742.82
249.85	1605.61
250.07	1722.34
250.29	1759.21
250.50	1767.40
250.72	1605.61
250.94	1660.90
251.16	1771.49
251.37	1779.68
251.59	1759.21
251.81	1699.81
252.02	1738.73
252.24	1742.82
252.46	1812.45
252.68	1611.75
252.89	1699.81
253.11	1583.08
253.33	1779.68
253.54	1798.12
253.76	1636.33
253.98	1718.25
254.20	1697.77
254.41	1583.08
254.63	1685.48
254.85	1660.90
255.06	1673.19
255.28	1720.29
255.50	1712.10
255.71	1662.95
255.93	1671.14
256.15	1599.46
256.36	1730.53
256.58	1656.81
256.80	1703.91
257.02	1710.05
257.23	1691.62
257.45	1660.90
257.67	1738.73
257.88	1658.85
258.10	1746.92
258.32	1673.19
258.53	1753.06
258.75	1765.35
258.97	1730.53
259.18	1732.58
259.40	1683.43
259.62	1759.21
259.83	1781.73
260.05	1787.88
260.27	1961.95
260.48	1767.40
260.70	1658.85
260.92	1705.96
261.13	1716.20
261.35	1640.42
261.57	1751.01
261.78	1640.42
262.00	1701.86
262.22	1656.81
262.43	1718.25
262.65	1593.32
262.86	1740.77
263.08	1802.21
263.30	1718.25
263.51	1597.42
263.73	1619.94
263.95	1761.25
264.16	1671.14
264.38	1626.09
264.60	1730.53
264.81	1718.25
265.03	1767.40
265.25	1646.57
265.46	1611.75
265.68	1751.01
265.89	1738.73
266.11	1632.23
266.33	1732.58
266.54	1708.01
266.76	1755.11
266.98	1654.76
267.19	1802.21
267.41	1757.16
267.62	1730.53
267.84	1638.38
268.06	1691.62
268.27	1658.85
268.49	1761.25
268.70	1798.12
268.92	1679.33
269.14	1605.61
269.35	1640.42
269.57	1730.53
269.79	1771.49
270.00	1679.33
270.22	1759.21
270.43	1710.05
270.65	1552.36
270.87	1744.87
271.08	1814.50
271.30	1681.38
271.51	1714.15
271.73	1701.86
271.95	1804.26
272.16	1673.19
272.38	1716.20
272.59	1613.80
272.81	1710.05
273.02	1810.40
273.24	1697.77
273.46	1689.57
273.67	1656.81
273.89	1685.48
274.10	1648.61
274.32	1701.86
274.54	1722.34
274.75	1763.30
274.97	1722.34
275.18	1728.49
275.40	1701.86
275.61	1673.19
275.83	1683.43
276.05	1617.90
276.26	1732.58
276.48	1724.39
276.69	1667.05
276.91	1703.91
277.12	1781.73
277.34	1734.63
277.55	1763.30
277.77	1716.20
277.99	1687.53
278.20	1658.85
278.42	1566.70
278.63	1660.90
278.85	1718.25
279.06	1640.42
279.28	1808.36
279.49	1714.15
279.71	1673.19
279.93	1755.11
280.14	1708.01
280.36	1638.38
280.57	1703.91
280.79	1673.19
281.00	1640.42
281.22	1591.27
281.43	1824.74
281.65	1599.46
281.86	1701.86
282.08	1710.05
282.29	1808.36
282.51	1595.37
282.73	1644.52
282.94	1624.04
283.16	1669.09
283.37	1830.88
283.59	1697.77
283.80	1761.25
284.02	1654.76
284.23	1695.72
284.45	1634.28
284.66	1617.90
284.88	1697.77
285.09	1722.34
285.31	1757.16
285.52	1722.34
285.74	1626.09
285.95	1740.77
286.17	1644.52
286.38	1820.64
286.60	1701.86
286.81	1757.16
287.03	1695.72
287.24	1662.95
287.46	1714.15
287.67	1701.86
287.89	1871.84
288.10	1681.38
288.32	1748.97
288.53	1787.88
288.75	1638.38
288.96	1728.49
289.18	1642.47
289.39	1730.53
289.61	1695.72
289.82	1896.42
290.04	1798.12
290.25	1566.70
290.47	1734.63
290.68	1630.18
290.90	1802.21
291.11	1658.85
291.33	1775.59
291.54	1595.37
291.76	1648.61
291.97	1658.85
292.18	1763.30
292.40	1656.81
292.61	1685.48
292.83	1818.60
293.04	1777.64
293.26	1665.00
293.47	1648.61
293.69	1634.28
293.90	1732.58
294.12	1810.40
294.33	1730.53
294.55	1671.14
294.76	1783.78
294.97	1771.49
295.19	1843.17
295.40	1632.23
295.62	1718.25
295.83	1714.15
296.05	1621.99
296.26	1744.87
296.48	1669.09
296.69	1673.19
296.90	1617.90
297.12	1787.88
297.33	1773.54
297.55	1720.29
297.76	1740.77
297.98	1742.82
298.19	1667.05
298.41	1738.73
298.62	1599.46
298.83	1826.79
299.05	1685.48
299.26	1644.52
299.48	1740.77
299.69	1734.63
299.90	1644.52
300.12	1652.71
300.33	1761.25
300.55	1685.48
300.76	1755.11
300.98	1705.96
301.19	1771.49
301.40	1695.72
301.62	1724.39
301.83	1718.25
302.05	1658.85
302.26	1710.05
302.47	1665.00
302.69	1634.28
302.90	1665.00
303.12	1533.93
303.33	1691.62
303.54	1855.46
303.76	1630.18
303.97	1658.85
304.19	1779.68
304.40	1642.47
304.61	1777.64
304.83	1794.02
305.04	1771.49
305.26	1761.25
305.47	1648.61
305.68	1667.05
305.90	1630.18
306.11	1734.63
306.33	1652.71
306.54	1693.67
306.75	1636.33
306.97	1632.23
307.18	1693.67
307.39	1626.09
307.61	1746.92
307.82	1685.48
308.04	1730.53
308.25	1675.24
308.46	1824.74
308.68	1720.29
308.89	1742.82
309.10	1691.62
309.32	1742.82
309.53	1714.15
309.74	1673.19
309.96	1665.00
310.17	1798.12
310.39	1662.95
310.60	1701.86
310.81	1738.73
311.03	1671.14
311.24	1765.35
311.45	1769.44
311.67	1828.84
311.88	1662.95
312.09	1632.23
312.31	1667.05
312.52	1701.86
312.73	1671.14
312.95	1617.90
313.16	1650.66
313.37	1757.16
313.59	1681.38
313.80	1695.72
314.01	1830.88
314.23	1628.14
314.44	1660.90
314.65	1636.33
314.87	1740.77
315.08	1708.01
315.29	1722.34
315.51	1673.19
315.72	1556.46
315.93	1794.02
316.15	1742.82
316.36	1703.91
316.57	1697.77
316.79	1746.92
317.00	1697.77
317.21	1765.35
317.43	1621.99
317.64	1773.54
317.85	1640.42
318.07	1644.52
318.28	1677.29
318.49	1791.97
318.70	1937.38
318.92	1826.79
319.13	1847.27
319.34	1767.40
319.56	1783.78
319.77	1763.30
319.98	1851.36
320.20	1816.55
320.41	1789.92
320.62	1757.16
320.83	1689.57
321.05	1820.64
321.26	1791.97
321.47	1724.39
321.69	1732.58
321.90	1630.18
322.11	1640.42
322.32	1669.09
322.54	1828.84
322.75	1712.10
322.96	1710.05
323.18	1644.52
323.39	1611.75
323.60	1759.21
323.81	1701.86
324.03	1681.38
324.24	1705.96
324.45	1710.05
324.66	1708.01
324.88	1757.16
325.09	1769.44
325.30	1671.14
325.52	1720.29
325.73	1748.97
325.94	1708.01
326.15	1669.09
326.37	1656.81
326.58	1710.05
326.79	1746.92
327.00	1673.19
327.22	1738.73
327.43	1703.91
327.64	1607.66
327.85	1716.20
328.07	1681.38
328.28	1816.55
328.49	1691.62
328.70	1687.53
328.92	1748.97
329.13	1615.85
329.34	1683.43
329.55	1734.63
329.76	1839.08
329.98	1642.47
330.19	1763.30
330.40	1763.30
330.61	1683.43
330.83	1730.53
331.04	1675.24
331.25	1724.39
331.46	1683.43
331.68	1691.62
331.89	1767.40
332.10	1712.10
332.31	1656.81
332.52	1726.44
332.74	1798.12
332.95	1640.42
333.16	1660.90
333.37	1681.38
333.58	1648.61
333.80	1701.86
334.01	1560.55
334.22	1728.49
334.43	1658.85
334.64	1697.77
334.86	1658.85
335.07	1619.94
335.28	1818.60
335.49	1621.99
335.70	1769.44
335.92	1847.27
336.13	1847.27
336.34	1710.05
336.55	1775.59
336.76	1734.63
336.98	1611.75
337.19	1701.86
337.40	1837.03
337.61	1818.60
337.82	1681.38
338.04	1734.63
338.25	1656.81
338.46	1654.76
338.67	1712.10
338.88	1658.85
339.09	1667.05
339.31	1683.43
339.52	1615.85
339.73	1640.42
339.94	1705.96
340.15	1724.39
340.36	1665.00
340.58	1726.44
340.79	1665.00
341.00	1794.02
341.21	1681.38
341.42	1785.83
341.63	1648.61
341.85	1769.44
342.06	1699.81
342.27	1683.43
342.48	1771.49
342.69	1665.00
342.90	1710.05
343.12	1712.10
343.33	1742.82
343.54	1779.68
343.75	1830.88
343.96	1638.38
344.17	1681.38
344.38	1718.25
344.60	1675.24
344.81	1695.72
345.02	1691.62
345.23	1796.07
345.44	1865.70
345.65	1665.00
345.86	1722.34
346.07	1699.81
346.29	1708.01
346.50	1693.67
346.71	1751.01
346.92	1757.16
347.13	1787.88
347.34	1705.96
347.55	1796.07
347.76	1783.78
347.98	1589.22
348.19	1652.71
348.40	1777.64
348.61	1718.25
348.82	1779.68
349.03	1665.00
349.24	1619.94
349.45	1771.49
349.66	1554.41
349.88	1714.15
350.09	1722.34
350.30	1769.44
350.51	1798.12
350.72	1652.71
350.93	1722.34
351.14	1736.68
351.35	1736.68
351.56	1687.53
351.77	1703.91
351.99	1755.11
352.20	1773.54
352.41	1787.88
352.62	1601.51
352.83	1751.01
353.04	1675.24
353.25	1683.43
353.46	1740.77
353.67	1765.35
353.88	1560.55
354.09	1714.15
354.30	1695.72
354.52	1738.73
354.73	1718.25
354.94	1628.14
355.15	1665.00
355.36	1857.51
355.57	1740.77
355.78	1695.72
355.99	1650.66
356.20	1695.72
356.41	1753.06
356.62	1775.59
356.83	1738.73
357.04	1748.97
357.25	1544.17
357.46	1679.33
357.68	1626.09
357.89	1677.29
358.10	1703.91
358.31	1728.49
358.52	1695.72
358.73	1587.18
358.94	1697.77
359.15	1677.29
359.36	1841.12
359.57	1695.72
359.78	1718.25
359.99	1753.06
360.20	1689.57
360.41	1648.61
360.62	1689.57
360.83	1705.96
361.04	1679.33
361.25	1654.76
361.46	1810.40
361.67	1677.29
361.88	1789.92
362.09	1712.10
362.30	1765.35
362.51	1660.90
362.72	1681.38
362.93	1785.83
363.14	1767.40
363.35	1732.58
363.56	1660.90
363.78	1757.16
363.99	1722.34
364.20	1720.29
364.41	1732.58
364.62	1865.70
364.83	1685.48
365.04	1695.72
365.25	1685.48
365.46	1785.83
365.67	1665.00
365.88	1683.43
366.09	1632.23
366.30	1654.76
366.51	1665.00
366.72	1734.63
366.93	1677.29
367.14	1699.81
367.35	1695.72
367.56	1644.52
367.77	1808.36
367.98	1689.57
368.18	1705.96
368.39	1726.44
368.60	1617.90
368.81	1703.91
369.02	1671.14
369.23	1708.01
369.44	1542.12
369.65	1679.33
369.86	1757.16
370.07	1753.06
370.28	1638.38
370.49	1671.14
370.70	1746.92
370.91	1636.33
371.12	1699.81
371.33	1753.06
371.54	1697.77
371.75	1785.83
371.96	1726.44
372.17	1673.19
372.38	1746.92
372.59	1785.83
372.80	1708.01
373.01	1691.62
373.22	1695.72
373.43	1652.71
373.64	1589.22
373.85	1761.25
374.06	1828.84
374.26	1734.63
374.47	1740.77
374.68	1755.11
374.89	1708.01
375.10	1689.57
375.31	1810.40
375.52	1765.35
375.73	1742.82
375.94	1601.51
376.15	1796.07
376.36	1673.19
376.57	1705.96
376.78	1667.05
376.99	1691.62
377.20	1820.64
377.40	1695.72
377.61	1859.56
377.82	1658.85
378.03	1818.60
378.24	1740.77
378.45	1732.58
378.66	1751.01
378.87	1599.46
379.08	1609.70
379.29	1638.38
379.50	1771.49
379.71	1765.35
379.91	1746.92
380.12	1652.71
380.33	1703.91
380.54	1753.06
380.75	1679.33
380.96	1687.53
381.17	1814.50
381.38	1755.11
381.59	1771.49
381.80	1656.81
382.00	1877.99
382.21	1728.49
382.42	1787.88
382.63	1843.17
382.84	1712.10
383.05	1798.12
383.26	1798.12
383.47	1714.15
383.68	1773.54
383.88	1720.29
384.09	1681.38
384.30	1826.79
384.51	1755.11
384.72	1669.09
384.93	1691.62
385.14	1714.15
385.35	1771.49
385.55	1550.31
385.76	1742.82
385.97	1744.87
386.18	1697.77
386.39	1712.10
386.60	1665.00
386.81	1673.19
387.02	1675.24
387.22	1677.29
387.43	1789.92
387.64	1822.69
387.85	1822.69
388.06	2131.94
388.27	4286.40
388.48	7026.58
388.68	8468.35
388.89	9576.30
389.10	9715.56
389.31	8533.89
389.52	7698.31
389.73	6883.22
389.93	6416.29
390.14	5846.95
390.35	5222.32
390.56	4478.91
390.77	3794.89
390.98	3123.15
391.18	2541.53
391.39	2115.55
391.60	1857.51
391.81	1761.25
392.02	1728.49
392.23	1882.08
392.43	1736.68
392.64	1787.88
392.85	1681.38
393.06	1791.97
393.27	1687.53
393.47	1697.77
393.68	1769.44
393.89	1669.09
394.10	1703.91
394.31	1634.28
394.52	1642.47
394.72	1714.15
394.93	1851.36
395.14	1695.72
395.35	1755.11
395.56	1642.47
395.76	1740.77
395.97	1837.03
396.18	1845.22
396.39	1841.12
396.60	2000.87
396.80	1832.93
397.01	1806.31
397.22	1845.22
397.43	1882.08
397.64	1796.07
397.84	1832.93
398.05	1824.74
398.26	1710.05
398.47	1759.21
398.67	1734.63
398.88	1626.09
399.09	1773.54
399.30	1718.25
399.51	1705.96
399.71	1689.57
399.92	1669.09
400.13	1734.63
400.34	1673.19
400.54	1677.29
400.75	1851.36
400.96	1714.15
401.17	1802.21
401.37	1740.77
401.58	1695.72
401.79	1726.44
402.00	1910.75
402.21	2066.40
402.41	1945.57
402.62	1990.63
402.83	1959.91
403.04	2025.44
403.24	2033.63
403.45	1853.41
403.66	1857.51
403.87	1902.56
404.07	1888.23
404.28	1859.56
404.49	1804.26
404.70	1796.07
404.90	1765.35
405.11	1734.63
405.32	1708.01
405.52	1675.24
405.73	1703.91
405.94	1693.67
406.15	1673.19
406.35	1814.50
406.56	1705.96
406.77	1675.24
406.98	1736.68
407.18	1677.29
407.39	1755.11
407.60	1630.18
407.80	1714.15
408.01	1679.33
408.22	1714.15
408.43	1695.72
408.63	1699.81
408.84	1728.49
409.05	1722.34
409.25	1632.23
409.46	1693.67
409.67	1697.77
409.88	1669.09
410.08	1779.68
410.29	1671.14
410.50	1759.21
410.70	1826.79
410.91	1609.70
411.12	1732.58
411.32	1787.88
411.53	1642.47
411.74	1753.06
411.95	1736.68
412.15	1718.25
412.36	1777.64
412.57	1677.29
412.77	1812.45
412.98	1742.82
413.19	1728.49
413.39	1789.92
413.60	1800.16
413.81	1759.21
414.01	1652.71
414.22	1724.39
414.43	1665.00
414.63	1687.53
414.84	1757.16
415.05	1738.73
415.25	1685.48
415.46	1738.73
415.67	1738.73
415.87	1705.96
416.08	1728.49
416.29	1691.62
416.49	1720.29
416.70	1603.56
416.91	1732.58
417.11	1748.97
417.32	1740.77
417.53	1701.86
417.73	1701.86
417.94	1685.48
418.15	1669.09
418.35	1720.29
418.56	1685.48
418.77	1892.32
418.97	1671.14
419.18	1693.67
419.38	1529.83
419.59	1665.00
419.80	1810.40
420.00	1724.39
420.21	1681.38
420.42	1847.27
420.62	1734.63
420.83	1679.33
421.04	1703.91
421.24	1683.43
421.45	1710.05
421.65	1693.67
421.86	1705.96
422.07	1677.29
422.27	1710.05
422.48	1738.73
422.69	1656.81
422.89	1677.29
423.10	1689.57
423.30	1644.52
423.51	1693.67
423.72	1718.25
423.92	1808.36
424.13	1628.14
424.33	1718.25
424.54	1783.78
424.75	1769.44
424.95	1794.02
425.16	1746.92
425.36	1701.86
425.57	1746.92
425.78	1689.57
425.98	1798.12
426.19	1740.77
426.39	1593.32
426.60	1718.25
426.81	1767.40
427.01	1691.62
427.22	1611.75
427.42	1648.61
427.63	1660.90
427.83	1759.21
428.04	1771.49
428.25	1787.88
428.45	1781.73
428.66	1785.83
428.86	1785.83
429.07	1650.66
429.28	1712.10
429.48	1734.63
429.69	1621.99
429.89	1716.20
430.10	1687.53
430.30	1777.64
430.51	1746.92
430.71	1753.06
430.92	1716.20
431.13	1640.42
431.33	1777.64
431.54	1722.34
431.74	1810.40
431.95	1865.70
432.15	1701.86
432.36	1763.30
432.56	1800.16
432.77	1796.07
432.98	1798.12
433.18	1755.11
433.39	1648.61
433.59	1716.20
433.80	1814.50
434.00	1945.57
434.21	1720.29
434.41	1765.35
434.62	1791.97
434.82	1665.00
435.03	1636.33
435.23	1669.09
435.44	1626.09
435.64	1701.86
435.85	1761.25
436.06	1794.02
436.26	1705.96
436.47	1662.95
436.67	1730.53
436.88	1785.83
437.08	1746.92
437.29	1853.41
437.49	1660.90
437.70	1767.40
437.90	1695.72
438.11	1822.69
438.31	1787.88
438.52	1826.79
438.72	1789.92
438.93	1869.80
439.13	1802.21
439.34	1826.79
439.54	1783.78
439.75	1761.25
439.95	1798.12
440.16	1718.25
440.36	1722.34
440.57	1726.44
440.77	1775.59
440.98	1669.09
441.18	1738.73
441.39	1718.25
441.59	1718.25
441.80	1810.40
442.00	1757.16
442.21	1820.64
442.41	1722.34
442.62	1779.68
442.82	1660.90
443.02	1804.26
443.23	1761.25
443.43	1763.30
443.64	1902.56
443.84	1632.23
444.05	1804.26
444.25	1722.34
444.46	1679.33
444.66	1722.34
444.87	1822.69
445.07	1591.27
445.28	1779.68
445.48	1830.88
445.69	1705.96
445.89	1843.17
446.09	1771.49
446.30	2070.50
446.50	2727.89
446.71	3782.60
446.91	4401.08
447.12	4808.63
447.32	4806.58
447.53	4235.20
447.73	3876.80
447.93	3645.38
448.14	3291.09
448.34	3274.70
448.55	2914.26
448.75	2883.54
448.96	2670.55
449.16	2508.76
449.36	2275.29
449.57	2150.37
449.77	1906.66
449.98	1722.34
450.18	1822.69
450.39	1845.22
450.59	1789.92
450.79	1691.62
451.00	1683.43
451.20	1738.73
451.41	1763.30
451.61	1730.53
451.81	1763.30
452.02	1685.48
452.22	1697.77
452.43	1665.00
452.63	1669.09
