SpectraSuite Data File
++++++++++++++++++++++++++++++++++++
Date: Mon Jun 06 16:02:37 CEST 2016
User: root
Dark Spectrum Present: No
Reference Spectrum Present: No
Number of Sampled Component Spectra: 1
Spectrometers: USB4C02835
Integration Time (usec): 100000 (USB4C02835)
Spectra Averaged: 1 (USB4C02835)
Boxcar Smoothing: 0 (USB4C02835)
Correct for Electrical Dark: No (USB4C02835)
Strobe/Lamp Enabled: No (USB4C02835)
Correct for Detector Non-linearity: No (USB4C02835)
Correct for Stray Light: No (USB4C02835)
Number of Pixels in Processed Spectrum: 3648
>>>>>Begin Processed Spectral Data<<<<<
177.47	1517.54
177.69	1517.54
177.91	1517.54
178.13	1468.39
178.36	1482.73
178.58	1648.61
178.80	1693.67
179.02	1673.19
179.24	1693.67
179.46	1728.49
179.68	1724.39
179.90	1703.91
180.13	1757.16
180.35	1691.62
180.57	1648.61
180.79	1771.49
181.01	1701.86
181.23	1791.97
181.45	1740.77
181.67	1763.30
181.90	1769.44
182.12	1642.47
182.34	1673.19
182.56	1708.01
182.78	1751.01
183.00	1669.09
183.22	1740.77
183.44	1556.46
183.66	1839.08
183.89	1736.68
184.11	1775.59
184.33	1779.68
184.55	1710.05
184.77	1777.64
184.99	1736.68
185.21	1673.19
185.43	1789.92
185.65	1714.15
185.87	1701.86
186.10	1830.88
186.32	1783.78
186.54	1673.19
186.76	1699.81
186.98	1804.26
187.20	1683.43
187.42	1640.42
187.64	1755.11
187.86	1767.40
188.08	1714.15
188.30	1601.51
188.52	1740.77
188.75	1755.11
188.97	1781.73
189.19	1677.29
189.41	1685.48
189.63	1769.44
189.85	1581.03
190.07	1642.47
190.29	1763.30
190.51	1656.81
190.73	1628.14
190.95	1818.60
191.17	1736.68
191.39	1632.23
191.61	1667.05
191.84	1630.18
192.06	1820.64
192.28	1593.32
192.50	1843.17
192.72	1683.43
192.94	1765.35
193.16	1839.08
193.38	1705.96
193.60	1626.09
193.82	1716.20
194.04	1734.63
194.26	1710.05
194.48	1779.68
194.70	1695.72
194.92	1714.15
195.14	1708.01
195.36	1695.72
195.58	1732.58
195.80	1693.67
196.02	1597.42
196.24	1685.48
196.46	1724.39
196.69	1724.39
196.91	1859.56
197.13	1730.53
197.35	1742.82
197.57	1810.40
197.79	1771.49
198.01	1775.59
198.23	1796.07
198.45	1763.30
198.67	1667.05
198.89	1710.05
199.11	1732.58
199.33	1677.29
199.55	1607.66
199.77	1730.53
199.99	1800.16
200.21	1697.77
200.43	1734.63
200.65	1718.25
200.87	1617.90
201.09	1732.58
201.31	1730.53
201.53	1755.11
201.75	1763.30
201.97	1712.10
202.19	1697.77
202.41	1726.44
202.63	1802.21
202.85	1742.82
203.07	1753.06
203.29	1744.87
203.51	1656.81
203.73	1777.64
203.95	1783.78
204.17	1718.25
204.39	1660.90
204.61	1736.68
204.83	1679.33
205.05	1767.40
205.27	1710.05
205.49	1806.31
205.71	1710.05
205.93	1595.37
206.15	1744.87
206.37	1716.20
206.59	1746.92
206.81	1636.33
207.03	1611.75
207.25	1624.04
207.47	1753.06
207.69	1746.92
207.91	1783.78
208.13	1812.45
208.34	1695.72
208.56	1615.85
208.78	1751.01
209.00	1687.53
209.22	1699.81
209.44	1708.01
209.66	1691.62
209.88	1650.66
210.10	1705.96
210.32	1617.90
210.54	1798.12
210.76	1646.57
210.98	1720.29
211.20	1607.66
211.42	1720.29
211.64	1820.64
211.86	1691.62
212.08	1748.97
212.30	1738.73
212.52	1732.58
212.74	1761.25
212.96	1607.66
213.17	1699.81
213.39	1734.63
213.61	1775.59
213.83	1771.49
214.05	1583.08
214.27	1742.82
214.49	1628.14
214.71	1611.75
214.93	1726.44
215.15	1724.39
215.37	1802.21
215.59	1624.04
215.81	1806.31
216.03	1818.60
216.24	1673.19
216.46	1716.20
216.68	1724.39
216.90	1759.21
217.12	1724.39
217.34	1730.53
217.56	1734.63
217.78	1816.55
218.00	1740.77
218.22	1677.29
218.44	1677.29
218.66	1740.77
218.87	1814.50
219.09	1652.71
219.31	1751.01
219.53	1693.67
219.75	1714.15
219.97	1693.67
220.19	1781.73
220.41	1714.15
220.63	1761.25
220.85	1738.73
221.06	1669.09
221.28	1767.40
221.50	1771.49
221.72	1693.67
221.94	1740.77
222.16	1785.83
222.38	1748.97
222.60	1834.98
222.82	1714.15
223.03	1734.63
223.25	1656.81
223.47	1779.68
223.69	1826.79
223.91	1712.10
224.13	1695.72
224.35	1740.77
224.57	1820.64
224.78	1796.07
225.00	1691.62
225.22	1650.66
225.44	1771.49
225.66	1730.53
225.88	1673.19
226.10	1763.30
226.32	1665.00
226.53	1798.12
226.75	1708.01
226.97	1716.20
227.19	1697.77
227.41	1732.58
227.63	1689.57
227.85	1718.25
228.06	1708.01
228.28	1714.15
228.50	1753.06
228.72	1546.22
228.94	1710.05
229.16	1665.00
229.37	1636.33
229.59	1714.15
229.81	1814.50
230.03	1644.52
230.25	1728.49
230.47	1601.51
230.69	1675.24
230.90	1757.16
231.12	1605.61
231.34	1710.05
231.56	1755.11
231.78	1619.94
232.00	1738.73
232.21	1656.81
232.43	1683.43
232.65	1640.42
232.87	1716.20
233.09	1712.10
233.30	1628.14
233.52	1748.97
233.74	1773.54
233.96	1634.28
234.18	1744.87
234.40	1638.38
234.61	1804.26
234.83	1665.00
235.05	1585.13
235.27	1828.84
235.49	1828.84
235.70	1697.77
235.92	1798.12
236.14	1771.49
236.36	1787.88
236.58	1583.08
236.79	1726.44
237.01	1705.96
237.23	1689.57
237.45	1777.64
237.67	1716.20
237.88	1675.24
238.10	1871.84
238.32	1685.48
238.54	1691.62
238.76	1656.81
238.97	1712.10
239.19	1673.19
239.41	1767.40
239.63	1734.63
239.85	1744.87
240.06	1671.14
240.28	1679.33
240.50	1787.88
240.72	1744.87
240.93	1644.52
241.15	1724.39
241.37	1773.54
241.59	1855.46
241.81	1697.77
242.02	1662.95
242.24	1734.63
242.46	1685.48
242.68	1726.44
242.89	1705.96
243.11	1759.21
243.33	1740.77
243.55	1720.29
243.76	1777.64
243.98	1677.29
244.20	1714.15
244.42	1644.52
244.64	1748.97
244.85	1648.61
245.07	1714.15
245.29	1767.40
245.51	1730.53
245.72	1730.53
245.94	1687.53
246.16	1669.09
246.38	1732.58
246.59	1679.33
246.81	1632.23
247.03	1695.72
247.24	1609.70
247.46	1654.76
247.68	1740.77
247.90	1722.34
248.11	1703.91
248.33	1755.11
248.55	1740.77
248.77	1689.57
248.98	1759.21
249.20	1771.49
249.42	1701.86
249.64	1734.63
249.85	1724.39
250.07	1615.85
250.29	1712.10
250.50	1675.24
250.72	1673.19
250.94	1724.39
251.16	1863.65
251.37	1794.02
251.59	1759.21
251.81	1773.54
252.02	1794.02
252.24	1683.43
252.46	1771.49
252.68	1658.85
252.89	1722.34
253.11	1630.18
253.33	1861.60
253.54	1804.26
253.76	1689.57
253.98	1695.72
254.20	1718.25
254.41	1630.18
254.63	1748.97
254.85	1646.57
255.06	1748.97
255.28	1775.59
255.50	1710.05
255.71	1701.86
255.93	1644.52
256.15	1685.48
256.36	1804.26
256.58	1654.76
256.80	1681.38
257.02	1695.72
257.23	1701.86
257.45	1724.39
257.67	1834.98
257.88	1691.62
258.10	1714.15
258.32	1693.67
258.53	1718.25
258.75	1824.74
258.97	1744.87
259.18	1773.54
259.40	1716.20
259.62	1810.40
259.83	1830.88
260.05	1742.82
260.27	1996.77
260.48	1769.44
260.70	1656.81
260.92	1697.77
261.13	1695.72
261.35	1689.57
261.57	1724.39
261.78	1695.72
262.00	1716.20
262.22	1673.19
262.43	1730.53
262.65	1677.29
262.86	1689.57
263.08	1890.28
263.30	1748.97
263.51	1632.23
263.73	1628.14
263.95	1875.94
264.16	1794.02
264.38	1673.19
264.60	1697.77
264.81	1705.96
265.03	1697.77
265.25	1877.99
265.46	1767.40
265.68	1794.02
265.89	1720.29
266.11	1587.18
266.33	1755.11
266.54	1738.73
266.76	1734.63
266.98	1777.64
267.19	1769.44
267.41	1777.64
267.62	1681.38
267.84	1697.77
268.06	1757.16
268.27	1755.11
268.49	1804.26
268.70	1724.39
268.92	1765.35
269.14	1714.15
269.35	1601.51
269.57	1714.15
269.79	1789.92
270.00	1701.86
270.22	1802.21
270.43	1665.00
270.65	1607.66
270.87	1732.58
271.08	1714.15
271.30	1699.81
271.51	1689.57
271.73	1763.30
271.95	1769.44
272.16	1671.14
272.38	1738.73
272.59	1697.77
272.81	1730.53
273.02	1742.82
273.24	1812.45
273.46	1730.53
273.67	1708.01
273.89	1634.28
274.10	1671.14
274.32	1877.99
274.54	1751.01
274.75	1689.57
274.97	1697.77
275.18	1785.83
275.40	1746.92
275.61	1687.53
275.83	1755.11
276.05	1689.57
276.26	1789.92
276.48	1738.73
276.69	1697.77
276.91	1697.77
277.12	1787.88
277.34	1787.88
277.55	1798.12
277.77	1771.49
277.99	1720.29
278.20	1671.14
278.42	1705.96
278.63	1654.76
278.85	1626.09
279.06	1652.71
279.28	1751.01
279.49	1804.26
279.71	1769.44
279.93	1761.25
280.14	1722.34
280.36	1648.61
280.57	1839.08
280.79	1763.30
281.00	1687.53
281.22	1677.29
281.43	1834.98
281.65	1644.52
281.86	1716.20
282.08	1720.29
282.29	1865.70
282.51	1693.67
282.73	1619.94
282.94	1597.42
283.16	1710.05
283.37	1740.77
283.59	1757.16
283.80	1791.97
284.02	1714.15
284.23	1736.68
284.45	1656.81
284.66	1662.95
284.88	1787.88
285.09	1667.05
285.31	1718.25
285.52	1718.25
285.74	1652.71
285.95	1802.21
286.17	1726.44
286.38	1787.88
286.60	1695.72
286.81	1617.90
287.03	1665.00
287.24	1724.39
287.46	1748.97
287.67	1691.62
287.89	1808.36
288.10	1763.30
288.32	1775.59
288.53	1806.31
288.75	1734.63
288.96	1699.81
289.18	1601.51
289.39	1771.49
289.61	1732.58
289.82	1814.50
290.04	1779.68
290.25	1667.05
290.47	1708.01
290.68	1710.05
290.90	1656.81
291.11	1671.14
291.33	1748.97
291.54	1587.18
291.76	1634.28
291.97	1695.72
292.18	1744.87
292.40	1658.85
292.61	1720.29
292.83	1851.36
293.04	1802.21
293.26	1798.12
293.47	1718.25
293.69	1636.33
293.90	1677.29
294.12	1826.79
294.33	1728.49
294.55	1714.15
294.76	1748.97
294.97	1779.68
295.19	1834.98
295.40	1697.77
295.62	1722.34
295.83	1787.88
296.05	1677.29
296.26	1791.97
296.48	1775.59
296.69	1720.29
296.90	1673.19
297.12	1691.62
297.33	1775.59
297.55	1785.83
297.76	1779.68
297.98	1734.63
298.19	1791.97
298.41	1796.07
298.62	1634.28
298.83	1804.26
299.05	1720.29
299.26	1708.01
299.48	1660.90
299.69	1693.67
299.90	1726.44
300.12	1617.90
300.33	1755.11
300.55	1679.33
300.76	1765.35
300.98	1656.81
301.19	1839.08
301.40	1708.01
301.62	1730.53
301.83	1722.34
302.05	1755.11
302.26	1656.81
302.47	1738.73
302.69	1603.56
302.90	1767.40
303.12	1644.52
303.33	1751.01
303.54	1785.83
303.76	1730.53
303.97	1734.63
304.19	1767.40
304.40	1660.90
304.61	1765.35
304.83	1824.74
305.04	1783.78
305.26	1746.92
305.47	1662.95
305.68	1742.82
305.90	1697.77
306.11	1714.15
306.33	1665.00
306.54	1703.91
306.75	1640.42
306.97	1603.56
307.18	1632.23
307.39	1669.09
307.61	1820.64
307.82	1689.57
308.04	1787.88
308.25	1638.38
308.46	1720.29
308.68	1691.62
308.89	1689.57
309.10	1843.17
309.32	1701.86
309.53	1730.53
309.74	1708.01
309.96	1710.05
310.17	1755.11
310.39	1701.86
310.60	1746.92
310.81	1753.06
311.03	1701.86
311.24	1712.10
311.45	1736.68
311.67	1773.54
311.88	1748.97
312.09	1673.19
312.31	1601.51
312.52	1722.34
312.73	1742.82
312.95	1665.00
313.16	1703.91
313.37	1789.92
313.59	1804.26
313.80	1726.44
314.01	1851.36
314.23	1746.92
314.44	1738.73
314.65	1632.23
314.87	1621.99
315.08	1673.19
315.29	1693.67
315.51	1695.72
315.72	1638.38
315.93	1810.40
316.15	1705.96
316.36	1665.00
316.57	1697.77
316.79	1726.44
317.00	1703.91
317.21	1769.44
317.43	1689.57
317.64	1734.63
317.85	1632.23
318.07	1644.52
318.28	1734.63
318.49	1859.56
318.70	1914.85
318.92	1822.69
319.13	1783.78
319.34	1886.18
319.56	1697.77
319.77	1855.46
319.98	1806.31
320.20	1812.45
320.41	1777.64
320.62	1785.83
320.83	1714.15
321.05	1837.03
321.26	1712.10
321.47	1841.12
321.69	1720.29
321.90	1687.53
322.11	1736.68
322.32	1689.57
322.54	1843.17
322.75	1724.39
322.96	1871.84
323.18	1658.85
323.39	1583.08
323.60	1607.66
323.81	1748.97
324.03	1630.18
324.24	1665.00
324.45	1748.97
324.66	1691.62
324.88	1822.69
325.09	1783.78
325.30	1748.97
325.52	1667.05
325.73	1777.64
325.94	1669.09
326.15	1626.09
326.37	1738.73
326.58	1738.73
326.79	1841.12
327.00	1677.29
327.22	1722.34
327.43	1656.81
327.64	1777.64
327.85	1736.68
328.07	1769.44
328.28	1818.60
328.49	1705.96
328.70	1683.43
328.92	1716.20
329.13	1685.48
329.34	1697.77
329.55	1796.07
329.76	1724.39
329.98	1695.72
330.19	1804.26
330.40	1814.50
330.61	1640.42
330.83	1765.35
331.04	1640.42
331.25	1728.49
331.46	1669.09
331.68	1671.14
331.89	1755.11
332.10	1730.53
332.31	1624.04
332.52	1697.77
332.74	1912.80
332.95	1683.43
333.16	1652.71
333.37	1703.91
333.58	1742.82
333.80	1714.15
334.01	1617.90
334.22	1587.18
334.43	1652.71
334.64	1679.33
334.86	1673.19
335.07	1701.86
335.28	1763.30
335.49	1611.75
335.70	1705.96
335.92	1728.49
336.13	1939.43
336.34	1740.77
336.55	1681.38
336.76	1720.29
336.98	1591.27
337.19	1716.20
337.40	1789.92
337.61	1843.17
337.82	1683.43
338.04	1628.14
338.25	1681.38
338.46	1667.05
338.67	1634.28
338.88	1718.25
339.09	1656.81
339.31	1763.30
339.52	1603.56
339.73	1658.85
339.94	1722.34
340.15	1822.69
340.36	1673.19
340.58	1716.20
340.79	1677.29
341.00	1724.39
341.21	1691.62
341.42	1783.78
341.63	1730.53
341.85	1765.35
342.06	1693.67
342.27	1677.29
342.48	1757.16
342.69	1615.85
342.90	1669.09
343.12	1751.01
343.33	1693.67
343.54	1771.49
343.75	1806.31
343.96	1624.04
344.17	1609.70
344.38	1738.73
344.60	1656.81
344.81	1613.80
345.02	1732.58
345.23	1759.21
345.44	1759.21
345.65	1710.05
345.86	1703.91
346.07	1714.15
346.29	1660.90
346.50	1691.62
346.71	1689.57
346.92	1761.25
347.13	1839.08
347.34	1791.97
347.55	1701.86
347.76	1718.25
347.98	1771.49
348.19	1617.90
348.40	1796.07
348.61	1695.72
348.82	1738.73
349.03	1755.11
349.24	1630.18
349.45	1794.02
349.66	1597.42
349.88	1671.14
350.09	1652.71
350.30	1779.68
350.51	1722.34
350.72	1716.20
350.93	1701.86
351.14	1652.71
351.35	1816.55
351.56	1693.67
351.77	1810.40
351.99	1683.43
352.20	1812.45
352.41	1812.45
352.62	1605.61
352.83	1699.81
353.04	1689.57
353.25	1718.25
353.46	1789.92
353.67	1708.01
353.88	1593.32
354.09	1685.48
354.30	1769.44
354.52	1781.73
354.73	1751.01
354.94	1693.67
355.15	1710.05
355.36	1857.51
355.57	1634.28
355.78	1787.88
355.99	1652.71
356.20	1689.57
356.41	1830.88
356.62	1675.24
356.83	1726.44
357.04	1841.12
357.25	1624.04
357.46	1660.90
357.68	1628.14
357.89	1687.53
358.10	1728.49
358.31	1671.14
358.52	1734.63
358.73	1689.57
358.94	1714.15
359.15	1679.33
359.36	1753.06
359.57	1759.21
359.78	1673.19
359.99	1693.67
360.20	1667.05
360.41	1665.00
360.62	1765.35
360.83	1742.82
361.04	1779.68
361.25	1677.29
361.46	1806.31
361.67	1742.82
361.88	1736.68
362.09	1765.35
362.30	1746.92
362.51	1763.30
362.72	1714.15
362.93	1744.87
363.14	1771.49
363.35	1640.42
363.56	1679.33
363.78	1738.73
363.99	1769.44
364.20	1667.05
364.41	1744.87
364.62	1865.70
364.83	1712.10
365.04	1757.16
365.25	1710.05
365.46	1898.47
365.67	1656.81
365.88	1615.85
366.09	1652.71
366.30	1583.08
366.51	1767.40
366.72	1716.20
366.93	1697.77
367.14	1757.16
367.35	1783.78
367.56	1697.77
367.77	1863.65
367.98	1730.53
368.18	1759.21
368.39	1787.88
368.60	1665.00
368.81	1757.16
369.02	1726.44
369.23	1794.02
369.44	1634.28
369.65	1662.95
369.86	1638.38
370.07	1775.59
370.28	1658.85
370.49	1744.87
370.70	1730.53
370.91	1656.81
371.12	1646.57
371.33	1744.87
371.54	1665.00
371.75	1781.73
371.96	1568.74
372.17	1693.67
372.38	1718.25
372.59	1779.68
372.80	1673.19
373.01	1683.43
373.22	1697.77
373.43	1689.57
373.64	1681.38
373.85	1767.40
374.06	1781.73
374.26	1814.50
374.47	1669.09
374.68	1816.55
374.89	1669.09
375.10	1650.66
375.31	1742.82
375.52	1738.73
375.73	1701.86
375.94	1718.25
376.15	1777.64
376.36	1691.62
376.57	1673.19
376.78	1656.81
376.99	1722.34
377.20	1708.01
377.40	1648.61
377.61	1873.89
377.82	1652.71
378.03	1837.03
378.24	1695.72
378.45	1687.53
378.66	1583.08
378.87	1552.36
379.08	1673.19
379.29	1718.25
379.50	1775.59
379.71	1687.53
379.91	1761.25
380.12	1679.33
380.33	1730.53
380.54	1724.39
380.75	1662.95
380.96	1656.81
381.17	1701.86
381.38	1761.25
381.59	1783.78
381.80	1757.16
382.00	1861.60
382.21	1771.49
382.42	1853.41
382.63	1900.52
382.84	1808.36
383.05	1830.88
383.26	1828.84
383.47	1785.83
383.68	1783.78
383.88	1798.12
384.09	1689.57
384.30	1794.02
384.51	1734.63
384.72	1656.81
384.93	1636.33
385.14	1669.09
385.35	1826.79
385.55	1607.66
385.76	1841.12
385.97	1740.77
386.18	1710.05
386.39	1675.24
386.60	1730.53
386.81	1726.44
387.02	1683.43
387.22	1607.66
387.43	1740.77
387.64	1804.26
387.85	1814.50
388.06	2238.43
388.27	4265.92
388.48	6659.99
388.68	8007.56
388.89	9508.72
389.10	9535.34
389.31	8433.54
389.52	7239.57
389.73	6684.57
389.93	6156.19
390.14	5879.72
390.35	5126.07
390.56	4503.48
390.77	3739.59
390.98	2985.94
391.18	2441.18
391.39	2164.70
391.60	1845.22
391.81	1839.08
392.02	1701.86
392.23	1796.07
392.43	1806.31
392.64	1804.26
392.85	1740.77
393.06	1847.27
393.27	1697.77
393.47	1716.20
393.68	1757.16
393.89	1701.86
394.10	1798.12
394.31	1751.01
394.52	1636.33
394.72	1699.81
394.93	1769.44
395.14	1607.66
395.35	1789.92
395.56	1701.86
395.76	1726.44
395.97	1802.21
396.18	1837.03
396.39	1832.93
396.60	2066.40
396.80	1865.70
397.01	1830.88
397.22	1865.70
397.43	1853.41
397.64	1742.82
397.84	1767.40
398.05	1845.22
398.26	1722.34
398.47	1763.30
398.67	1843.17
398.88	1757.16
399.09	1834.98
399.30	1705.96
399.51	1716.20
399.71	1726.44
399.92	1765.35
400.13	1742.82
400.34	1564.65
400.54	1677.29
400.75	1757.16
400.96	1720.29
401.17	1755.11
401.37	1734.63
401.58	1665.00
401.79	1742.82
402.00	1959.91
402.21	2029.54
402.41	1980.39
402.62	2004.96
402.83	2043.87
403.04	1982.43
403.24	2105.31
403.45	1841.12
403.66	1966.05
403.87	1898.47
404.07	1912.80
404.28	1865.70
404.49	1826.79
404.70	1855.46
404.90	1767.40
405.11	1736.68
405.32	1755.11
405.52	1648.61
405.73	1667.05
405.94	1722.34
406.15	1673.19
406.35	1777.64
406.56	1845.22
406.77	1720.29
406.98	1759.21
407.18	1660.90
407.39	1785.83
407.60	1693.67
407.80	1742.82
408.01	1665.00
408.22	1781.73
408.43	1667.05
408.63	1732.58
408.84	1689.57
409.05	1746.92
409.25	1681.38
409.46	1708.01
409.67	1714.15
409.88	1705.96
410.08	1761.25
410.29	1734.63
410.50	1748.97
410.70	1763.30
410.91	1722.34
411.12	1763.30
411.32	1746.92
411.53	1808.36
411.74	1787.88
411.95	1730.53
412.15	1806.31
412.36	1693.67
412.57	1716.20
412.77	1806.31
412.98	1742.82
413.19	1757.16
413.39	1785.83
413.60	1763.30
413.81	1783.78
414.01	1621.99
414.22	1816.55
414.43	1730.53
414.63	1712.10
414.84	1710.05
415.05	1716.20
415.25	1652.71
415.46	1738.73
415.67	1656.81
415.87	1679.33
416.08	1712.10
416.29	1693.67
416.49	1697.77
416.70	1710.05
416.91	1665.00
417.11	1673.19
417.32	1785.83
417.53	1769.44
417.73	1693.67
417.94	1753.06
418.15	1691.62
418.35	1687.53
418.56	1710.05
418.77	1865.70
418.97	1757.16
419.18	1695.72
419.38	1587.18
419.59	1703.91
419.80	1779.68
420.00	1720.29
420.21	1744.87
420.42	1787.88
420.62	1724.39
420.83	1679.33
421.04	1724.39
421.24	1693.67
421.45	1765.35
421.65	1761.25
421.86	1705.96
422.07	1712.10
422.27	1677.29
422.48	1746.92
422.69	1691.62
422.89	1705.96
423.10	1683.43
423.30	1646.57
423.51	1779.68
423.72	1708.01
423.92	1791.97
424.13	1638.38
424.33	1652.71
424.54	1738.73
424.75	1695.72
424.95	1816.55
425.16	1742.82
425.36	1689.57
425.57	1763.30
425.78	1773.54
425.98	1773.54
426.19	1681.38
426.39	1757.16
426.60	1697.77
426.81	1730.53
427.01	1708.01
427.22	1636.33
427.42	1705.96
427.63	1646.57
427.83	1755.11
428.04	1757.16
428.25	1789.92
428.45	1765.35
428.66	1687.53
428.86	1710.05
429.07	1697.77
429.28	1765.35
429.48	1691.62
429.69	1771.49
429.89	1718.25
430.10	1660.90
430.30	1722.34
430.51	1822.69
430.71	1693.67
430.92	1703.91
431.13	1697.77
431.33	1773.54
431.54	1730.53
431.74	1824.74
431.95	1861.60
432.15	1697.77
432.36	1714.15
432.56	1832.93
432.77	1775.59
432.98	1818.60
433.18	1742.82
433.39	1767.40
433.59	1701.86
433.80	1816.55
434.00	1890.28
434.21	1705.96
434.41	1685.48
434.62	1900.52
434.82	1681.38
435.03	1687.53
435.23	1796.07
435.44	1658.85
435.64	1742.82
435.85	1732.58
436.06	1738.73
436.26	1798.12
436.47	1738.73
436.67	1621.99
436.88	1708.01
437.08	1746.92
437.29	1777.64
437.49	1757.16
437.70	1796.07
437.90	1779.68
438.11	1837.03
438.31	1730.53
438.52	1802.21
438.72	1851.36
438.93	1939.43
439.13	1773.54
439.34	1871.84
439.54	1763.30
439.75	1861.60
439.95	1773.54
440.16	1708.01
440.36	1812.45
440.57	1841.12
440.77	1746.92
440.98	1808.36
441.18	1722.34
441.39	1746.92
441.59	1742.82
441.80	1834.98
442.00	1820.64
442.21	1771.49
442.41	1740.77
442.62	1722.34
442.82	1654.76
443.02	1728.49
443.23	1755.11
443.43	1714.15
443.64	1824.74
443.84	1685.48
444.05	1843.17
444.25	1703.91
444.46	1708.01
444.66	1714.15
444.87	1851.36
445.07	1710.05
445.28	1650.66
445.48	1759.21
445.69	1806.31
445.89	1871.84
446.09	1724.39
446.30	2090.98
446.50	2656.22
446.71	3620.81
446.91	4409.28
447.12	4601.79
447.32	4816.82
447.53	4241.34
447.73	3817.41
447.93	3583.95
448.14	3338.19
448.34	3104.72
448.55	2877.40
448.75	2877.40
448.96	2740.18
449.16	2437.08
449.36	2312.16
449.57	2138.08
449.77	1953.76
449.98	1742.82
450.18	1783.78
450.39	1830.88
450.59	1849.32
450.79	1773.54
451.00	1734.63
451.20	1804.26
451.41	1765.35
451.61	1746.92
451.81	1769.44
452.02	1673.19
452.22	1748.97
452.43	1671.14
452.63	1734.63
