SpectraSuite Data File
++++++++++++++++++++++++++++++++++++
Date: Wed Feb 24 19:33:53 CET 2016
User: Kirk
Dark Spectrum Present: No
Reference Spectrum Present: No
Number of Sampled Component Spectra: 1
Spectrometers: USB4C02835
Integration Time (usec): 30000 (USB4C02835)
Spectra Averaged: 1 (USB4C02835)
Boxcar Smoothing: 0 (USB4C02835)
Correct for Electrical Dark: No (USB4C02835)
Strobe/Lamp Enabled: No (USB4C02835)
Correct for Detector Non-linearity: No (USB4C02835)
Correct for Stray Light: No (USB4C02835)
Number of Pixels in Processed Spectrum: 3648
>>>>>Begin Processed Spectral Data<<<<<
176.70	1208.30
176.92	1208.30
177.15	1208.30
177.37	1302.51
177.59	1189.87
177.81	1216.49
178.03	1259.50
178.25	1247.21
178.48	1300.46
178.70	1232.88
178.92	1282.03
179.14	1286.12
179.36	1179.63
179.58	1241.07
179.81	1298.41
180.03	1279.98
180.25	1286.12
180.47	1232.88
180.69	1290.22
180.91	1304.56
181.13	1318.89
181.36	1290.22
181.58	1241.07
181.80	1310.70
182.02	1241.07
182.24	1255.40
182.46	1277.93
182.69	1236.97
182.91	1333.23
183.13	1333.23
183.35	1255.40
183.57	1263.60
183.79	1267.69
184.01	1265.64
184.24	1249.26
184.46	1236.97
184.68	1232.88
184.90	1234.93
185.12	1241.07
185.34	1261.55
185.56	1277.93
185.78	1236.97
186.01	1265.64
186.23	1312.75
186.45	1259.50
186.67	1253.36
186.89	1298.41
187.11	1267.69
187.33	1290.22
187.55	1243.12
187.78	1196.01
188.00	1325.04
188.22	1286.12
188.44	1187.82
188.66	1220.59
188.88	1294.32
189.10	1325.04
189.32	1271.79
189.54	1249.26
189.77	1271.79
189.99	1253.36
190.21	1335.28
190.43	1288.17
190.65	1167.34
190.87	1300.46
191.09	1259.50
191.31	1361.90
191.53	1284.08
191.75	1243.12
191.98	1286.12
192.20	1300.46
192.42	1271.79
192.64	1265.64
192.86	1236.97
193.08	1273.84
193.30	1275.88
193.52	1312.75
193.74	1222.64
193.96	1284.08
194.18	1267.69
194.40	1191.92
194.63	1292.27
194.85	1316.84
195.07	1222.64
195.29	1232.88
195.51	1210.35
195.73	1306.60
195.95	1232.88
196.17	1368.04
196.39	1234.93
196.61	1198.06
196.83	1265.64
197.05	1202.16
197.27	1277.93
197.49	1296.36
197.72	1277.93
197.94	1300.46
198.16	1232.88
198.38	1265.64
198.60	1308.65
198.82	1322.99
199.04	1288.17
199.26	1277.93
199.48	1318.89
199.70	1200.11
199.92	1341.42
200.14	1234.93
200.36	1300.46
200.58	1187.82
200.80	1331.18
201.02	1302.51
201.24	1228.78
201.46	1269.74
201.68	1292.27
201.90	1241.07
202.12	1265.64
202.34	1271.79
202.57	1263.60
202.79	1183.73
203.01	1261.55
203.23	1273.84
203.45	1251.31
203.67	1230.83
203.89	1232.88
204.11	1296.36
204.33	1273.84
204.55	1306.60
204.77	1277.93
204.99	1294.32
205.21	1298.41
205.43	1261.55
205.65	1339.37
205.87	1296.36
206.09	1232.88
206.31	1206.25
206.53	1269.74
206.75	1222.64
206.97	1224.69
207.19	1284.08
207.41	1308.65
207.63	1216.49
207.85	1259.50
208.07	1218.54
208.29	1294.32
208.51	1331.18
208.73	1282.03
208.95	1239.02
209.17	1304.56
209.39	1269.74
209.61	1294.32
209.83	1343.47
210.05	1200.11
210.27	1247.21
210.49	1341.42
210.71	1282.03
210.93	1275.88
211.15	1263.60
211.37	1241.07
211.59	1265.64
211.81	1320.94
212.03	1298.41
212.25	1296.36
212.47	1273.84
212.69	1202.16
212.91	1308.65
213.13	1234.93
213.35	1185.77
213.57	1322.99
213.79	1243.12
214.01	1212.40
214.22	1269.74
214.44	1325.04
214.66	1273.84
214.88	1261.55
215.10	1312.75
215.32	1214.45
215.54	1265.64
215.76	1210.35
215.98	1271.79
216.20	1239.02
216.42	1294.32
216.64	1331.18
216.86	1279.98
217.08	1335.28
217.30	1302.51
217.52	1335.28
217.74	1279.98
217.96	1327.08
218.18	1265.64
218.40	1191.92
218.62	1292.27
218.83	1208.30
219.05	1249.26
219.27	1243.12
219.49	1282.03
219.71	1245.16
219.93	1284.08
220.15	1267.69
220.37	1312.75
220.59	1343.47
220.81	1296.36
221.03	1273.84
221.25	1331.18
221.47	1245.16
221.69	1310.70
221.90	1277.93
222.12	1236.97
222.34	1277.93
222.56	1261.55
222.78	1306.60
223.00	1294.32
223.22	1265.64
223.44	1347.56
223.66	1288.17
223.88	1277.93
224.10	1249.26
224.32	1212.40
224.53	1247.21
224.75	1292.27
224.97	1271.79
225.19	1273.84
225.41	1261.55
225.63	1284.08
225.85	1347.56
226.07	1202.16
226.29	1273.84
226.51	1277.93
226.72	1224.69
226.94	1302.51
227.16	1230.83
227.38	1216.49
227.60	1251.31
227.82	1241.07
228.04	1325.04
228.26	1294.32
228.48	1302.51
228.69	1216.49
228.91	1226.73
229.13	1300.46
229.35	1273.84
229.57	1251.31
229.79	1318.89
230.01	1265.64
230.23	1279.98
230.44	1339.37
230.66	1277.93
230.88	1241.07
231.10	1230.83
231.32	1251.31
231.54	1331.18
231.76	1273.84
231.98	1234.93
232.19	1312.75
232.41	1234.93
232.63	1308.65
232.85	1351.66
233.07	1277.93
233.29	1204.21
233.51	1239.02
233.72	1249.26
233.94	1292.27
234.16	1212.40
234.38	1261.55
234.60	1261.55
234.82	1269.74
235.03	1183.73
235.25	1300.46
235.47	1265.64
235.69	1298.41
235.91	1304.56
236.13	1370.09
236.35	1318.89
236.56	1177.58
236.78	1271.79
237.00	1331.18
237.22	1273.84
237.44	1304.56
237.65	1284.08
237.87	1308.65
238.09	1275.88
238.31	1275.88
238.53	1206.25
238.75	1265.64
238.96	1234.93
239.18	1253.36
239.40	1253.36
239.62	1273.84
239.84	1286.12
240.06	1300.46
240.27	1275.88
240.49	1318.89
240.71	1275.88
240.93	1261.55
241.15	1257.45
241.36	1302.51
241.58	1277.93
241.80	1302.51
242.02	1302.51
242.24	1253.36
242.45	1306.60
242.67	1282.03
242.89	1273.84
243.11	1306.60
243.33	1224.69
243.54	1337.32
243.76	1275.88
243.98	1247.21
244.20	1214.45
244.42	1257.45
244.63	1296.36
244.85	1253.36
245.07	1316.84
245.29	1292.27
245.51	1193.97
245.72	1275.88
245.94	1173.49
246.16	1296.36
246.38	1282.03
246.59	1372.14
246.81	1310.70
247.03	1306.60
247.25	1308.65
247.47	1263.60
247.68	1271.79
247.90	1288.17
248.12	1173.49
248.34	1249.26
248.55	1327.08
248.77	1257.45
248.99	1382.38
249.21	1275.88
249.42	1245.16
249.64	1325.04
249.86	1284.08
250.08	1296.36
250.29	1290.22
250.51	1271.79
250.73	1347.56
250.95	1277.93
251.16	1302.51
251.38	1263.60
251.60	1216.49
251.82	1322.99
252.03	1265.64
252.25	1296.36
252.47	1333.23
252.69	1357.80
252.90	1239.02
253.12	1243.12
253.34	1226.73
253.56	1298.41
253.77	1263.60
253.99	1253.36
254.21	1204.21
254.43	1300.46
254.64	1310.70
254.86	1214.45
255.08	1372.14
255.29	1302.51
255.51	1239.02
255.73	1300.46
255.95	1257.45
256.16	1286.12
256.38	1216.49
256.60	1298.41
256.81	1239.02
257.03	1257.45
257.25	1341.42
257.47	1275.88
257.68	1228.78
257.90	1271.79
258.12	1267.69
258.33	1243.12
258.55	1277.93
258.77	1265.64
258.99	1294.32
259.20	1241.07
259.42	1277.93
259.64	1378.28
259.85	1255.40
260.07	1239.02
260.29	1187.82
260.50	1265.64
260.72	1269.74
260.94	1288.17
261.16	1277.93
261.37	1284.08
261.59	1222.64
261.81	1345.52
262.02	1298.41
262.24	1218.54
262.46	1232.88
262.67	1310.70
262.89	1239.02
263.11	1222.64
263.32	1263.60
263.54	1191.92
263.76	1290.22
263.97	1361.90
264.19	1236.97
264.41	1292.27
264.62	1349.61
264.84	1284.08
265.06	1288.17
265.27	1251.31
265.49	1286.12
265.71	1322.99
265.92	1196.01
266.14	1267.69
266.36	1279.98
266.57	1273.84
266.79	1210.35
267.01	1277.93
267.22	1185.77
267.44	1255.40
267.66	1216.49
267.87	1286.12
268.09	1378.28
268.31	1282.03
268.52	1267.69
268.74	1247.21
268.95	1273.84
269.17	1351.66
269.39	1279.98
269.60	1288.17
269.82	1230.83
270.04	1282.03
270.25	1314.80
270.47	1255.40
270.69	1241.07
270.90	1261.55
271.12	1259.50
271.33	1271.79
271.55	1257.45
271.77	1304.56
271.98	1300.46
272.20	1222.64
272.42	1294.32
272.63	1271.79
272.85	1318.89
273.06	1292.27
273.28	1277.93
273.50	1294.32
273.71	1241.07
273.93	1234.93
274.14	1302.51
274.36	1329.13
274.58	1253.36
274.79	1282.03
275.01	1286.12
275.23	1241.07
275.44	1263.60
275.66	1316.84
275.87	1279.98
276.09	1267.69
276.31	1310.70
276.52	1345.52
276.74	1267.69
276.95	1222.64
277.17	1292.27
277.39	1296.36
277.60	1306.60
277.82	1290.22
278.03	1279.98
278.25	1234.93
278.46	1298.41
278.68	1245.16
278.90	1331.18
279.11	1165.29
279.33	1230.83
279.54	1304.56
279.76	1275.88
279.98	1257.45
280.19	1335.28
280.41	1359.85
280.62	1247.21
280.84	1261.55
281.05	1320.94
281.27	1294.32
281.48	1300.46
281.70	1230.83
281.92	1189.87
282.13	1259.50
282.35	1259.50
282.56	1296.36
282.78	1265.64
282.99	1288.17
283.21	1290.22
283.43	1349.61
283.64	1267.69
283.86	1273.84
284.07	1339.37
284.29	1255.40
284.50	1298.41
284.72	1234.93
284.93	1263.60
285.15	1239.02
285.36	1236.97
285.58	1271.79
285.80	1316.84
286.01	1234.93
286.23	1230.83
286.44	1282.03
286.66	1210.35
286.87	1218.54
287.09	1247.21
287.30	1286.12
287.52	1193.97
287.73	1267.69
287.95	1241.07
288.16	1282.03
288.38	1284.08
288.59	1232.88
288.81	1290.22
289.02	1290.22
289.24	1251.31
289.46	1265.64
289.67	1302.51
289.89	1294.32
290.10	1218.54
290.32	1251.31
290.53	1320.94
290.75	1236.97
290.96	1269.74
291.18	1251.31
291.39	1322.99
291.61	1294.32
291.82	1271.79
292.04	1224.69
292.25	1239.02
292.47	1251.31
292.68	1279.98
292.90	1218.54
293.11	1298.41
293.33	1255.40
293.54	1247.21
293.76	1271.79
293.97	1220.59
294.19	1306.60
294.40	1271.79
294.62	1314.80
294.83	1306.60
295.05	1239.02
295.26	1255.40
295.47	1224.69
295.69	1247.21
295.90	1247.21
296.12	1322.99
296.33	1263.60
296.55	1284.08
296.76	1224.69
296.98	1200.11
297.19	1263.60
297.41	1345.52
297.62	1368.04
297.84	1282.03
298.05	1294.32
298.27	1241.07
298.48	1247.21
298.70	1247.21
298.91	1249.26
299.12	1286.12
299.34	1300.46
299.55	1259.50
299.77	1191.92
299.98	1257.45
300.20	1277.93
300.41	1282.03
300.63	1333.23
300.84	1312.75
301.05	1269.74
301.27	1198.06
301.48	1253.36
301.70	1271.79
301.91	1208.30
302.13	1263.60
302.34	1284.08
302.56	1206.25
302.77	1247.21
302.98	1275.88
303.20	1392.62
303.41	1292.27
303.63	1353.71
303.84	1224.69
304.06	1257.45
304.27	1216.49
304.48	1288.17
304.70	1286.12
304.91	1214.45
305.13	1286.12
305.34	1253.36
305.56	1284.08
305.77	1261.55
305.98	1220.59
306.20	1277.93
306.41	1265.64
306.63	1257.45
306.84	1302.51
307.05	1230.83
307.27	1212.40
307.48	1247.21
307.70	1355.76
307.91	1327.08
308.12	1282.03
308.34	1259.50
308.55	1335.28
308.77	1282.03
308.98	1296.36
309.19	1279.98
309.41	1273.84
309.62	1337.32
309.84	1320.94
310.05	1255.40
310.26	1265.64
310.48	1249.26
310.69	1245.16
310.91	1224.69
311.12	1316.84
311.33	1273.84
311.55	1257.45
311.76	1243.12
311.97	1345.52
312.19	1318.89
312.40	1202.16
312.62	1273.84
312.83	1226.73
313.04	1271.79
313.26	1269.74
313.47	1286.12
313.68	1267.69
313.90	1306.60
314.11	1267.69
314.32	1236.97
314.54	1245.16
314.75	1228.78
314.97	1196.01
315.18	1257.45
315.39	1251.31
315.61	1241.07
315.82	1271.79
316.03	1222.64
316.25	1325.04
316.46	1253.36
316.67	1251.31
316.89	1265.64
317.10	1257.45
317.31	1282.03
317.53	1398.76
317.74	1507.30
317.95	1562.60
318.17	1601.51
318.38	1640.42
318.59	1609.70
318.81	1527.78
319.02	1503.21
319.23	1435.63
319.45	1429.48
319.66	1392.62
319.87	1429.48
320.09	1302.51
320.30	1355.76
320.51	1347.56
320.73	1343.47
320.94	1222.64
321.15	1275.88
321.37	1210.35
321.58	1302.51
321.79	1294.32
322.01	1284.08
322.22	1271.79
322.43	1282.03
322.65	1267.69
322.86	1253.36
323.07	1261.55
323.28	1314.80
323.50	1251.31
323.71	1247.21
323.92	1286.12
324.14	1347.56
324.35	1271.79
324.56	1277.93
324.78	1316.84
324.99	1245.16
325.20	1292.27
325.41	1224.69
325.63	1226.73
325.84	1261.55
326.05	1241.07
326.27	1296.36
326.48	1271.79
326.69	1267.69
326.90	1290.22
327.12	1292.27
327.33	1271.79
327.54	1368.04
327.76	1329.13
327.97	1325.04
328.18	1331.18
328.39	1265.64
328.61	1269.74
328.82	1263.60
329.03	1341.42
329.24	1343.47
329.46	1310.70
329.67	1320.94
329.88	1249.26
330.10	1314.80
330.31	1245.16
330.52	1255.40
330.73	1234.93
330.95	1308.65
331.16	1296.36
331.37	1271.79
331.58	1294.32
331.80	1306.60
332.01	1216.49
332.22	1284.08
332.43	1255.40
332.65	1267.69
332.86	1327.08
333.07	1247.21
333.28	1308.65
333.50	1292.27
333.71	1218.54
333.92	1282.03
334.13	1232.88
334.34	1232.88
334.56	1243.12
334.77	1277.93
334.98	1232.88
335.19	1320.94
335.41	1257.45
335.62	1271.79
335.83	1351.66
336.04	1300.46
336.26	1263.60
336.47	1282.03
336.68	1300.46
336.89	1316.84
337.10	1327.08
337.32	1265.64
337.53	1206.25
337.74	1273.84
337.95	1288.17
338.16	1247.21
338.38	1173.49
338.59	1263.60
338.80	1249.26
339.01	1255.40
339.23	1306.60
339.44	1306.60
339.65	1337.32
339.86	1300.46
340.07	1290.22
340.29	1255.40
340.50	1251.31
340.71	1232.88
340.92	1296.36
341.13	1214.45
341.34	1282.03
341.56	1320.94
341.77	1318.89
341.98	1257.45
342.19	1247.21
342.40	1351.66
342.62	1259.50
342.83	1226.73
343.04	1257.45
343.25	1273.84
343.46	1259.50
343.67	1198.06
343.89	1310.70
344.10	1288.17
344.31	1271.79
344.52	1325.04
344.73	1316.84
344.94	1298.41
345.16	1335.28
345.37	1255.40
345.58	1320.94
345.79	1247.21
346.00	1275.88
346.21	1322.99
346.43	1288.17
346.64	1282.03
346.85	1310.70
347.06	1230.83
347.27	1236.97
347.48	1150.96
347.70	1282.03
347.91	1253.36
348.12	1294.32
348.33	1298.41
348.54	1294.32
348.75	1222.64
348.96	1339.37
349.18	1245.16
349.39	1218.54
349.60	1251.31
349.81	1363.95
350.02	1247.21
350.23	1284.08
350.44	1298.41
350.65	1298.41
350.87	1318.89
351.08	1333.23
351.29	1275.88
351.50	1327.08
351.71	1294.32
351.92	1245.16
352.13	1316.84
352.34	1339.37
352.56	1296.36
352.77	1239.02
352.98	1333.23
353.19	1271.79
353.40	1265.64
353.61	1253.36
353.82	1312.75
354.03	1304.56
354.24	1247.21
354.46	1243.12
354.67	1249.26
354.88	1263.60
355.09	1300.46
355.30	1255.40
355.51	1255.40
355.72	1216.49
355.93	1277.93
356.14	1298.41
356.35	1230.83
356.57	1337.32
356.78	1236.97
356.99	1210.35
357.20	1308.65
357.41	1241.07
357.62	1292.27
357.83	1386.47
358.04	1279.98
358.25	1245.16
358.46	1288.17
358.67	1214.45
358.88	1288.17
359.09	1300.46
359.31	1284.08
359.52	1232.88
359.73	1286.12
359.94	1236.97
360.15	1271.79
360.36	1343.47
360.57	1312.75
360.78	1286.12
360.99	1292.27
361.20	1374.19
361.41	1378.28
361.62	1263.60
361.83	1325.04
362.04	1277.93
362.25	1286.12
362.46	1361.90
362.68	1263.60
362.89	1329.13
363.10	1363.95
363.31	1259.50
363.52	1294.32
363.73	1284.08
363.94	1292.27
364.15	1351.66
364.36	1245.16
364.57	1290.22
364.78	1273.84
364.99	1282.03
365.20	1234.93
365.41	1302.51
365.62	1329.13
365.83	1239.02
366.04	1228.78
366.25	1239.02
366.46	1304.56
366.67	1316.84
366.88	1288.17
367.09	1329.13
367.30	1243.12
367.51	1251.31
367.72	1265.64
367.93	1335.28
368.14	1288.17
368.35	1263.60
368.56	1277.93
368.77	1290.22
368.98	1206.25
369.19	1310.70
369.40	1320.94
369.61	1337.32
369.82	1310.70
370.03	1355.76
370.24	1286.12
370.45	1318.89
370.66	1247.21
370.87	1251.31
371.08	1327.08
371.29	1351.66
371.50	1214.45
371.71	1314.80
371.92	1298.41
372.13	1292.27
372.34	1263.60
372.55	1290.22
372.76	1249.26
372.97	1220.59
373.18	1271.79
373.39	1269.74
373.60	1292.27
373.81	1337.32
374.02	1220.59
374.23	1236.97
374.44	1310.70
374.65	1292.27
374.86	1273.84
375.07	1271.79
375.28	1212.40
375.49	1230.83
375.70	1333.23
375.91	1288.17
376.12	1265.64
376.33	1304.56
376.54	1234.93
376.75	1261.55
376.96	1286.12
377.17	1294.32
377.38	1335.28
377.59	1331.18
377.79	1243.12
378.00	1277.93
378.21	1325.04
378.42	1222.64
378.63	1204.21
378.84	1249.26
379.05	1214.45
379.26	1314.80
379.47	1259.50
379.68	1349.61
379.89	1257.45
380.10	1288.17
380.31	1308.65
380.52	1368.04
380.73	1339.37
380.94	1343.47
381.14	1335.28
381.35	1386.47
381.56	1454.06
381.77	1327.08
381.98	1406.95
382.19	1343.47
382.40	1359.85
382.61	1312.75
382.82	1366.00
383.03	1300.46
383.24	1265.64
383.45	1284.08
383.65	1345.52
383.86	1296.36
384.07	1376.24
384.28	1220.59
384.49	1327.08
384.70	1300.46
384.91	1363.95
385.12	1337.32
385.33	1251.31
385.54	1308.65
385.75	1341.42
385.95	1396.71
386.16	1284.08
386.37	1320.94
386.58	1263.60
386.79	1329.13
387.00	1396.71
387.21	1439.72
387.42	1785.83
387.63	3600.33
387.83	9006.97
388.04	13393.72
388.25	16596.74
388.46	17932.01
388.67	17155.83
388.88	12531.52
389.09	10489.70
389.30	8943.48
389.50	8382.34
389.71	7249.81
389.92	6567.84
390.13	5332.91
390.34	4181.95
390.55	3078.10
390.76	2072.54
390.96	1710.05
391.17	1472.49
391.38	1351.66
391.59	1347.56
391.80	1363.95
392.01	1316.84
392.22	1265.64
392.42	1327.08
392.63	1286.12
392.84	1251.31
393.05	1318.89
393.26	1290.22
393.47	1318.89
393.68	1304.56
393.88	1320.94
394.09	1267.69
394.30	1302.51
394.51	1304.56
394.72	1179.63
394.93	1343.47
395.13	1245.16
395.34	1406.95
395.55	1509.35
395.76	1591.27
395.97	1597.42
396.18	1720.29
396.38	1564.65
396.59	1490.92
396.80	1476.59
397.01	1447.91
397.22	1376.24
397.42	1384.43
397.63	1431.53
397.84	1294.32
398.05	1327.08
398.26	1333.23
398.47	1234.93
398.67	1220.59
398.88	1200.11
399.09	1224.69
399.30	1187.82
399.51	1265.64
399.71	1322.99
399.92	1288.17
400.13	1267.69
400.34	1337.32
400.55	1318.89
400.75	1325.04
400.96	1257.45
401.17	1294.32
401.38	1404.91
401.59	1603.56
401.79	1705.96
402.00	1884.13
402.21	1970.15
402.42	1847.27
402.62	1832.93
402.83	1695.72
403.04	1619.94
403.25	1554.41
403.46	1546.22
403.66	1501.16
403.87	1501.16
404.08	1402.86
404.29	1357.80
404.49	1308.65
404.70	1316.84
404.91	1263.60
405.12	1265.64
405.32	1259.50
405.53	1236.97
405.74	1290.22
405.95	1243.12
406.16	1257.45
406.36	1249.26
406.57	1339.37
406.78	1257.45
406.99	1249.26
407.19	1269.74
407.40	1310.70
407.61	1241.07
407.82	1325.04
408.02	1271.79
408.23	1290.22
408.44	1275.88
408.64	1261.55
408.85	1247.21
409.06	1257.45
409.27	1212.40
409.47	1294.32
409.68	1263.60
409.89	1282.03
410.10	1294.32
410.30	1206.25
410.51	1290.22
410.72	1290.22
410.93	1243.12
411.13	1411.05
411.34	1355.76
411.55	1456.11
411.75	1380.33
411.96	1372.14
412.17	1353.71
412.38	1314.80
412.58	1339.37
412.79	1355.76
413.00	1316.84
413.20	1331.18
413.41	1347.56
413.62	1347.56
413.83	1261.55
414.03	1339.37
414.24	1325.04
414.45	1372.14
414.65	1304.56
414.86	1318.89
415.07	1247.21
415.27	1189.87
415.48	1331.18
415.69	1351.66
415.89	1300.46
416.10	1279.98
416.31	1298.41
416.52	1239.02
416.72	1308.65
416.93	1345.52
417.14	1316.84
417.34	1241.07
417.55	1314.80
417.76	1302.51
417.96	1325.04
418.17	1269.74
418.38	1259.50
418.58	1241.07
418.79	1269.74
419.00	1216.49
419.20	1218.54
419.41	1290.22
419.62	1314.80
419.82	1255.40
420.03	1269.74
420.24	1302.51
420.44	1265.64
420.65	1282.03
420.86	1298.41
421.06	1224.69
421.27	1284.08
421.48	1232.88
421.68	1298.41
421.89	1273.84
422.10	1263.60
422.30	1222.64
422.51	1251.31
422.71	1277.93
422.92	1249.26
423.13	1302.51
423.33	1333.23
423.54	1284.08
423.75	1300.46
423.95	1265.64
424.16	1304.56
424.37	1279.98
424.57	1294.32
424.78	1279.98
424.98	1253.36
425.19	1345.52
425.40	1263.60
425.60	1259.50
425.81	1267.69
426.02	1288.17
426.22	1259.50
426.43	1290.22
426.63	1267.69
426.84	1239.02
427.05	1282.03
427.25	1304.56
427.46	1275.88
427.66	1347.56
427.87	1302.51
428.08	1273.84
428.28	1253.36
428.49	1327.08
428.69	1284.08
428.90	1282.03
429.11	1310.70
429.31	1241.07
429.52	1273.84
429.72	1230.83
429.93	1261.55
430.14	1357.80
430.34	1208.30
430.55	1275.88
430.75	1308.65
430.96	1241.07
431.17	1316.84
431.37	1304.56
431.58	1296.36
431.78	1302.51
431.99	1279.98
432.19	1322.99
432.40	1224.69
432.61	1228.78
432.81	1296.36
433.02	1304.56
433.22	1277.93
433.43	1347.56
433.63	1302.51
433.84	1261.55
434.05	1298.41
434.25	1329.13
434.46	1286.12
434.66	1304.56
434.87	1310.70
435.07	1255.40
435.28	1282.03
435.49	1310.70
435.69	1308.65
435.90	1329.13
436.10	1198.06
436.31	1306.60
436.51	1308.65
436.72	1329.13
436.92	1220.59
437.13	1314.80
437.33	1306.60
437.54	1318.89
437.75	1351.66
437.95	1437.67
438.16	1550.31
438.36	1470.44
438.57	1517.54
438.77	1515.50
438.98	1521.64
439.18	1370.09
439.39	1396.71
439.59	1282.03
439.80	1368.04
440.00	1363.95
440.21	1333.23
440.41	1236.97
440.62	1286.12
440.82	1263.60
441.03	1253.36
441.23	1222.64
441.44	1343.47
441.64	1232.88
441.85	1290.22
442.05	1288.17
442.26	1304.56
442.46	1265.64
442.67	1296.36
442.87	1392.62
443.08	1353.71
443.28	1366.00
443.49	1380.33
443.69	1300.46
443.90	1259.50
444.10	1339.37
444.31	1300.46
444.51	1259.50
444.72	1255.40
444.92	1325.04
445.13	1312.75
445.33	1376.24
445.54	1351.66
445.74	1396.71
445.95	1898.47
446.15	3366.86
446.36	4913.08
446.56	5898.15
446.77	6727.58
446.97	6506.40
447.18	5253.04
447.38	4282.30
447.59	3622.86
447.79	3321.81
448.00	3149.78
448.20	2981.84
448.40	2717.65
448.61	2369.50
448.81	2117.60
449.02	1759.21
449.22	1460.20
449.43	1439.72
449.63	1314.80
449.84	1302.51
450.04	1318.89
450.25	1294.32
450.45	1282.03
450.65	1286.12
450.86	1312.75
451.06	1257.45
451.27	1302.51
451.47	1263.60
451.68	1253.36
451.88	1314.80
452.08	1226.73
452.29	1320.94
