SpectraSuite Data File
++++++++++++++++++++++++++++++++++++
Date: Thu May 05 12:34:58 CEST 2016
User: root
Dark Spectrum Present: No
Reference Spectrum Present: No
Number of Sampled Component Spectra: 1
Spectrometers: USB4C02835
Integration Time (usec): 100000 (USB4C02835)
Spectra Averaged: 1 (USB4C02835)
Boxcar Smoothing: 0 (USB4C02835)
Correct for Electrical Dark: No (USB4C02835)
Strobe/Lamp Enabled: No (USB4C02835)
Correct for Detector Non-linearity: No (USB4C02835)
Correct for Stray Light: No (USB4C02835)
Number of Pixels in Processed Spectrum: 3648
>>>>>Begin Processed Spectral Data<<<<<
177.47	1746.92
177.69	1746.92
177.91	1746.92
178.13	1712.10
178.36	1781.73
178.58	2062.30
178.80	2215.90
179.02	2080.74
179.24	2090.98
179.46	2072.54
179.68	2238.43
179.90	2148.32
180.13	2170.85
180.35	2093.02
180.57	2064.35
180.79	2330.59
181.01	2179.04
181.23	2170.85
181.45	2211.81
181.67	2242.53
181.90	2187.23
182.12	2076.64
182.34	2007.01
182.56	2220.00
182.78	2297.82
183.00	2160.61
183.22	2103.26
183.44	2031.58
183.66	2387.93
183.89	2234.33
184.11	2103.26
184.33	2191.33
184.55	2285.53
184.77	2121.70
184.99	2193.37
185.21	2183.13
185.43	2375.64
185.65	2160.61
185.87	2115.55
186.10	2420.70
186.32	2428.89
186.54	2217.95
186.76	2213.85
186.98	2281.44
187.20	2244.57
187.42	2117.60
187.64	2107.36
187.86	2199.52
188.08	2310.11
188.30	2037.73
188.52	2074.59
188.75	2383.84
188.97	2291.68
189.19	2052.06
189.41	2119.65
189.63	2269.15
189.85	2166.75
190.07	2068.45
190.29	2013.15
190.51	2191.33
190.73	2105.31
190.95	2279.39
191.17	2113.50
191.39	2050.02
191.61	2158.56
191.84	2176.99
192.06	2299.87
192.28	2068.45
192.50	2555.86
192.72	2158.56
192.94	2152.42
193.16	2291.68
193.38	2232.29
193.60	2037.73
193.82	2150.37
194.04	2287.58
194.26	2213.85
194.48	2146.27
194.70	2129.89
194.92	2138.08
195.14	2260.96
195.36	2142.18
195.58	2193.37
195.80	2166.75
196.02	2144.22
196.24	2097.12
196.46	2187.23
196.69	2072.54
196.91	2414.56
197.13	2133.98
197.35	2168.80
197.57	2291.68
197.79	2258.91
198.01	2195.42
198.23	2156.51
198.45	2199.52
198.67	2205.66
198.89	2021.35
199.11	2197.47
199.33	2064.35
199.55	2043.87
199.77	2109.41
199.99	2193.37
200.21	2072.54
200.43	2248.67
200.65	2029.54
200.87	1992.67
201.09	2181.09
201.31	2154.46
201.53	2172.89
201.75	2209.76
201.97	2209.76
202.19	2234.33
202.41	2095.07
202.63	2306.01
202.85	2187.23
203.07	2220.00
203.29	2129.89
203.51	2082.78
203.73	2133.98
203.95	2490.33
204.17	2154.46
204.39	2162.66
204.61	2105.31
204.83	2160.61
205.05	2209.76
205.27	2240.48
205.49	2482.14
205.71	2203.61
205.93	2019.30
206.15	2107.36
206.37	2260.96
206.59	2230.24
206.81	2072.54
207.03	2074.59
207.25	2074.59
207.47	2299.87
207.69	2082.78
207.91	2301.92
208.13	2357.21
208.34	2166.75
208.56	2072.54
208.78	2222.05
209.00	2129.89
209.22	2158.56
209.44	2136.03
209.66	2103.26
209.88	2185.18
210.10	2183.13
210.32	2170.85
210.54	2181.09
210.76	2213.85
210.98	2293.72
211.20	2004.96
211.42	2166.75
211.64	2248.67
211.86	2187.23
212.08	2136.03
212.30	2095.07
212.52	2121.70
212.74	2258.91
212.96	2215.90
213.17	2248.67
213.39	2287.58
213.61	2340.83
213.83	2121.70
214.05	2133.98
214.27	2240.48
214.49	2150.37
214.71	2123.74
214.93	2187.23
215.15	2197.47
215.37	2232.29
215.59	2076.64
215.81	2170.85
216.03	2306.01
216.24	2174.94
216.46	2084.83
216.68	2136.03
216.90	2285.53
217.12	2312.16
217.34	2021.35
217.56	2297.82
217.78	2344.92
218.00	2269.15
218.22	2168.80
218.44	2205.66
218.66	2197.47
218.87	2383.84
219.09	2150.37
219.31	2152.42
219.53	2232.29
219.75	2148.32
219.97	2197.47
220.19	2211.81
220.41	2152.42
220.63	2299.87
220.85	2127.84
221.06	2138.08
221.28	2308.06
221.50	2242.53
221.72	2105.31
221.94	2121.70
222.16	2205.66
222.38	2344.92
222.60	2072.54
222.82	2107.36
223.03	2287.58
223.25	2115.55
223.47	2093.02
223.69	2293.72
223.91	2277.34
224.13	2217.95
224.35	2162.66
224.57	2203.61
224.78	2240.48
225.00	2117.60
225.22	2144.22
225.44	2140.13
225.66	2340.83
225.88	2113.50
226.10	2187.23
226.32	2187.23
226.53	2336.73
226.75	2230.24
226.97	2222.05
227.19	2097.12
227.41	2138.08
227.63	2156.51
227.85	2023.39
228.06	2154.46
228.28	2176.99
228.50	2271.20
228.72	2064.35
228.94	2119.65
229.16	2023.39
229.37	2084.83
229.59	2070.50
229.81	2187.23
230.03	2105.31
230.25	2101.22
230.47	2011.11
230.69	2031.58
230.90	2269.15
231.12	2082.78
231.34	2191.33
231.56	2252.77
231.78	2095.07
232.00	2168.80
232.21	2222.05
232.43	2125.79
232.65	1937.38
232.87	2226.14
233.09	2045.92
233.30	2064.35
233.52	2357.21
233.74	2189.28
233.96	2117.60
234.18	2236.38
234.40	2191.33
234.61	2418.65
234.83	2007.01
235.05	2113.50
235.27	2430.94
235.49	2252.77
235.70	2113.50
235.92	2254.81
236.14	2150.37
236.36	2412.51
236.58	2047.97
236.79	2201.57
237.01	2168.80
237.23	2093.02
237.45	2306.01
237.67	2170.85
237.88	2213.85
238.10	2389.98
238.32	2078.69
238.54	2144.22
238.76	2154.46
238.97	2121.70
239.19	2072.54
239.41	2295.77
239.63	2344.92
239.85	2158.56
240.06	2125.79
240.28	2045.92
240.50	2269.15
240.72	2230.24
240.93	2099.17
241.15	2236.38
241.37	2238.43
241.59	2289.63
241.81	2203.61
242.02	2156.51
242.24	2244.57
242.46	2234.33
242.68	2058.21
242.89	2111.46
243.11	2226.14
243.33	2224.09
243.55	2228.19
243.76	2088.93
243.98	2179.04
244.20	2172.89
244.42	2162.66
244.64	2082.78
244.85	2045.92
245.07	2111.46
245.29	2185.18
245.51	2131.94
245.72	2217.95
245.94	2326.49
246.16	2181.09
246.38	2150.37
246.59	2201.57
246.81	2127.84
247.03	2029.54
247.24	2015.20
247.46	2201.57
247.68	2273.25
247.90	2082.78
248.11	2154.46
248.33	2301.92
248.55	2133.98
248.77	2236.38
248.98	2209.76
249.20	2367.45
249.42	2252.77
249.64	2179.04
249.85	2152.42
250.07	2154.46
250.29	2308.06
250.50	2133.98
250.72	1970.15
250.94	2258.91
251.16	2428.89
251.37	2129.89
251.59	2207.71
251.81	2207.71
252.02	2279.39
252.24	2072.54
252.46	2209.76
252.68	2105.31
252.89	2179.04
253.11	2054.11
253.33	2303.96
253.54	2326.49
253.76	2088.93
253.98	2170.85
254.20	2103.26
254.41	2125.79
254.63	2127.84
254.85	2035.68
255.06	2140.13
255.28	2197.47
255.50	2187.23
255.71	2080.74
255.93	1949.67
256.15	2183.13
256.36	2260.96
256.58	2086.88
256.80	2054.11
257.02	2076.64
257.23	2207.71
257.45	2156.51
257.67	2234.33
257.88	2095.07
258.10	2250.72
258.32	2105.31
258.53	2113.50
258.75	2357.21
258.97	2146.27
259.18	2035.68
259.40	2203.61
259.62	2369.50
259.83	2291.68
260.05	2119.65
260.27	2557.91
260.48	2285.53
260.70	2090.98
260.92	2127.84
261.13	2131.94
261.35	2252.77
261.57	2246.62
261.78	2066.40
262.00	2136.03
262.22	2187.23
262.43	2121.70
262.65	2148.32
262.86	2174.94
263.08	2422.75
263.30	2095.07
263.51	2004.96
263.73	2060.26
263.95	2510.81
264.16	2228.19
264.38	2101.22
264.60	2113.50
264.81	2287.58
265.03	2301.92
265.25	2240.48
265.46	2162.66
265.68	2338.78
265.89	2195.42
266.11	2029.54
266.33	2142.18
266.54	2324.44
266.76	2183.13
266.98	2189.28
267.19	2195.42
267.41	2334.68
267.62	2183.13
267.84	1972.19
268.06	2232.29
268.27	2224.09
268.49	2279.39
268.70	2195.42
268.92	2101.22
269.14	2097.12
269.35	2099.17
269.57	2146.27
269.79	2144.22
270.00	2078.69
270.22	2426.84
270.43	2002.91
270.65	2023.39
270.87	2164.70
271.08	2238.43
271.30	2189.28
271.51	2195.42
271.73	2220.00
271.95	2336.73
272.16	2152.42
272.38	2166.75
272.59	2166.75
272.81	2230.24
273.02	2146.27
273.24	2170.85
273.46	2349.02
273.67	2062.30
273.89	2072.54
274.10	2179.04
274.32	2203.61
274.54	2220.00
274.75	2238.43
274.97	2164.70
275.18	2306.01
275.40	2281.44
275.61	2179.04
275.83	2129.89
276.05	2072.54
276.26	2195.42
276.48	2203.61
276.69	2199.52
276.91	2148.32
277.12	2297.82
277.34	2160.61
277.55	2193.37
277.77	2230.24
277.99	2199.52
278.20	2146.27
278.42	2127.84
278.63	2123.74
278.85	2127.84
279.06	2095.07
279.28	2220.00
279.49	2277.34
279.71	2230.24
279.93	2197.47
280.14	2127.84
280.36	2152.42
280.57	2228.19
280.79	2308.06
281.00	2133.98
281.22	2146.27
281.43	2285.53
281.65	1937.38
281.86	2095.07
282.08	2269.15
282.29	2283.49
282.51	2088.93
282.73	2047.97
282.94	2043.87
283.16	2242.53
283.37	2349.02
283.59	2242.53
283.80	2230.24
284.02	2179.04
284.23	2211.81
284.45	2193.37
284.66	2195.42
284.88	2113.50
285.09	2170.85
285.31	2265.05
285.52	2244.57
285.74	2035.68
285.95	2220.00
286.17	2201.57
286.38	2283.49
286.60	2095.07
286.81	2125.79
287.03	2199.52
287.24	2183.13
287.46	2246.62
287.67	2154.46
287.89	2346.97
288.10	2267.10
288.32	2160.61
288.53	2301.92
288.75	2203.61
288.96	2215.90
289.18	2052.06
289.39	2146.27
289.61	2228.19
289.82	2367.45
290.04	2365.40
290.25	2078.69
290.47	2123.74
290.68	2215.90
290.90	2306.01
291.11	2056.16
291.33	2236.38
291.54	2158.56
291.76	2164.70
291.97	2199.52
292.18	2228.19
292.40	2162.66
292.61	2146.27
292.83	2435.03
293.04	2244.57
293.26	2215.90
293.47	2166.75
293.69	2086.88
293.90	2166.75
294.12	2324.44
294.33	2166.75
294.55	2162.66
294.76	2224.09
294.97	2260.96
295.19	2398.17
295.40	2156.51
295.62	2199.52
295.83	2322.40
296.05	2088.93
296.26	2308.06
296.48	2111.46
296.69	2207.71
296.90	2152.42
297.12	2226.14
297.33	2295.77
297.55	2158.56
297.76	2195.42
297.98	2277.34
298.19	2183.13
298.41	2179.04
298.62	2152.42
298.83	2365.40
299.05	2189.28
299.26	2162.66
299.48	2056.16
299.69	2289.63
299.90	2138.08
300.12	2168.80
300.33	2252.77
300.55	2248.67
300.76	2215.90
300.98	2052.06
301.19	2236.38
301.40	2146.27
301.62	2117.60
301.83	2138.08
302.05	2158.56
302.26	2179.04
302.47	2195.42
302.69	2142.18
302.90	2193.37
303.12	1978.34
303.33	2267.10
303.54	2439.13
303.76	2148.32
303.97	2201.57
304.19	2338.78
304.40	2082.78
304.61	2224.09
304.83	2359.26
305.04	2285.53
305.26	2258.91
305.47	2164.70
305.68	2195.42
305.90	2076.64
306.11	2289.63
306.33	2185.18
306.54	2140.13
306.75	2162.66
306.97	2047.97
307.18	2125.79
307.39	2211.81
307.61	2277.34
307.82	2113.50
308.04	2265.05
308.25	2066.40
308.46	2256.86
308.68	2203.61
308.89	2209.76
309.10	2244.57
309.32	2119.65
309.53	2127.84
309.74	2295.77
309.96	2195.42
310.17	2256.86
310.39	2129.89
310.60	2234.33
310.81	2170.85
311.03	2041.82
311.24	2273.25
311.45	2187.23
311.67	2377.69
311.88	2170.85
312.09	2150.37
312.31	2158.56
312.52	2176.99
312.73	2068.45
312.95	2123.74
313.16	2109.41
313.37	2293.72
313.59	2215.90
313.80	2248.67
314.01	2330.59
314.23	2131.94
314.44	2166.75
314.65	2113.50
314.87	2160.61
315.08	2174.94
315.29	2101.22
315.51	2136.03
315.72	2138.08
315.93	2306.01
316.15	2199.52
316.36	2236.38
316.57	2209.76
316.79	2283.49
317.00	2176.99
317.21	2217.95
317.43	2097.12
317.64	2201.57
317.85	2029.54
318.07	2185.18
318.28	2170.85
318.49	2291.68
318.70	2506.71
318.92	2346.97
319.13	2430.94
319.34	2424.80
319.56	2361.31
319.77	2351.07
319.98	2338.78
320.20	2424.80
320.41	2279.39
320.62	2320.35
320.83	2099.17
321.05	2439.13
321.26	2217.95
321.47	2193.37
321.69	2254.81
321.90	2113.50
322.11	2176.99
322.32	2285.53
322.54	2291.68
322.75	2158.56
322.96	2426.84
323.18	2054.11
323.39	2037.73
323.60	2047.97
323.81	2293.72
324.03	2136.03
324.24	2172.89
324.45	2201.57
324.66	2113.50
324.88	2279.39
325.09	2359.26
325.30	2150.37
325.52	2170.85
325.73	2121.70
325.94	2172.89
326.15	2031.58
326.37	2150.37
326.58	2318.30
326.79	2293.72
327.00	2084.83
327.22	2162.66
327.43	2172.89
327.64	2129.89
327.85	2160.61
328.07	2105.31
328.28	2373.60
328.49	2119.65
328.70	2191.33
328.92	2136.03
329.13	2217.95
329.34	2201.57
329.55	2367.45
329.76	2297.82
329.98	2211.81
330.19	2332.64
330.40	2209.76
330.61	2187.23
330.83	2293.72
331.04	2078.69
331.25	2189.28
331.46	2144.22
331.68	2136.03
331.89	2322.40
332.10	2176.99
332.31	2062.30
332.52	2189.28
332.74	2289.63
332.95	2027.49
333.16	2111.46
333.37	2316.25
333.58	2140.13
333.80	2220.00
334.01	2004.96
334.22	2207.71
334.43	2148.32
334.64	2123.74
334.86	2133.98
335.07	2066.40
335.28	2318.30
335.49	2035.68
335.70	2187.23
335.92	2291.68
336.13	2346.97
336.34	2220.00
336.55	2209.76
336.76	2238.43
336.98	2023.39
337.19	2129.89
337.40	2318.30
337.61	2449.37
337.82	2152.42
338.04	2195.42
338.25	2009.06
338.46	2226.14
338.67	2179.04
338.88	2105.31
339.09	2129.89
339.31	2133.98
339.52	2064.35
339.73	2101.22
339.94	2195.42
340.15	2172.89
340.36	2072.54
340.58	2154.46
340.79	2207.71
341.00	2265.05
341.21	2066.40
341.42	2301.92
341.63	2123.74
341.85	2185.18
342.06	2164.70
342.27	2150.37
342.48	2187.23
342.69	2082.78
342.90	2213.85
343.12	2248.67
343.33	2250.72
343.54	2306.01
343.75	2336.73
343.96	2125.79
344.17	2064.35
344.38	2183.13
344.60	2138.08
344.81	2078.69
345.02	2136.03
345.23	2316.25
345.44	2451.42
345.65	2224.09
345.86	2236.38
346.07	2193.37
346.29	2244.57
346.50	2203.61
346.71	2224.09
346.92	2285.53
347.13	2326.49
347.34	2179.04
347.55	2174.94
347.76	2240.48
347.98	2144.22
348.19	2113.50
348.40	2324.44
348.61	2111.46
348.82	2371.55
349.03	2267.10
349.24	2142.18
349.45	2316.25
349.66	2045.92
349.88	2183.13
350.09	2099.17
350.30	2355.16
350.51	2283.49
350.72	2248.67
350.93	2226.14
351.14	2154.46
351.35	2279.39
351.56	2226.14
351.77	2215.90
351.99	2195.42
352.20	2346.97
352.41	2230.24
352.62	2004.96
352.83	2138.08
353.04	2199.52
353.25	2152.42
353.46	2248.67
353.67	2336.73
353.88	1935.33
354.09	2142.18
354.30	2115.55
354.52	2252.77
354.73	2193.37
354.94	2183.13
355.15	2207.71
355.36	2299.87
355.57	2097.12
355.78	2181.09
355.99	2166.75
356.20	2164.70
356.41	2287.58
356.62	2203.61
356.83	2176.99
357.04	2383.84
357.25	2027.49
357.46	2150.37
357.68	2031.58
357.89	2027.49
358.10	2074.59
358.31	2156.51
358.52	2248.67
358.73	2103.26
358.94	2050.02
359.15	2164.70
359.36	2183.13
359.57	2246.62
359.78	2166.75
359.99	2344.92
360.20	2101.22
360.41	2138.08
360.62	2234.33
360.83	2176.99
361.04	2183.13
361.25	2306.01
361.46	2445.27
361.67	2301.92
361.88	2232.29
362.09	2293.72
362.30	2246.62
362.51	2136.03
362.72	2113.50
362.93	2240.48
363.14	2242.53
363.35	2195.42
363.56	2088.93
363.78	2283.49
363.99	2252.77
364.20	2072.54
364.41	2230.24
364.62	2402.27
364.83	2168.80
365.04	2162.66
365.25	2193.37
365.46	2422.75
365.67	2183.13
365.88	2217.95
366.09	2162.66
366.30	2121.70
366.51	2265.05
366.72	2043.87
366.93	2201.57
367.14	2220.00
367.35	2246.62
367.56	2154.46
367.77	2279.39
367.98	2220.00
368.18	2254.81
368.39	2203.61
368.60	2107.36
368.81	2215.90
369.02	2287.58
369.23	2211.81
369.44	2072.54
369.65	2138.08
369.86	2287.58
370.07	2228.19
370.28	2080.74
370.49	2291.68
370.70	2187.23
370.91	2074.59
371.12	2062.30
371.33	2295.77
371.54	2146.27
371.75	2361.31
371.96	1980.39
372.17	2283.49
372.38	2195.42
372.59	2127.84
372.80	2117.60
373.01	2113.50
373.22	2125.79
373.43	2197.47
373.64	2052.06
373.85	2269.15
374.06	2299.87
374.26	2209.76
374.47	2211.81
374.68	2320.35
374.89	2144.22
375.10	2080.74
375.31	2215.90
375.52	2133.98
375.73	2183.13
375.94	2080.74
376.15	2306.01
376.36	2082.78
376.57	2168.80
376.78	2209.76
376.99	2164.70
377.20	2363.36
377.40	2146.27
377.61	2295.77
377.82	2121.70
378.03	2385.88
378.24	2267.10
378.45	2080.74
378.66	2168.80
378.87	2050.02
379.08	2086.88
379.29	2088.93
379.50	2340.83
379.71	2187.23
379.91	2209.76
380.12	2136.03
380.33	2191.33
380.54	2228.19
380.75	2099.17
380.96	2154.46
381.17	2332.64
381.38	2199.52
381.59	2224.09
381.80	2117.60
382.00	2318.30
382.21	2201.57
382.42	2371.55
382.63	2469.85
382.84	2213.85
383.05	2222.05
383.26	2297.82
383.47	2181.09
383.68	2162.66
383.88	2238.43
384.09	2203.61
384.30	2394.08
384.51	2215.90
384.72	2158.56
384.93	2086.88
385.14	2310.11
385.35	2285.53
385.55	2080.74
385.76	2334.68
385.97	2211.81
386.18	2082.78
386.39	2103.26
386.60	2093.02
386.81	2129.89
387.02	2125.79
387.22	2117.60
387.43	2256.86
387.64	2228.19
387.85	2365.40
388.06	2457.56
388.27	4016.07
388.48	8445.82
388.68	12242.76
388.89	14669.60
389.10	15853.33
389.31	14561.06
389.52	11554.64
389.73	9953.13
389.93	8908.66
390.14	8255.36
390.35	7331.73
390.56	6813.59
390.77	5515.18
390.98	4200.38
391.18	3315.66
391.39	2797.53
391.60	2377.69
391.81	2375.64
392.02	2113.50
392.23	2506.71
392.43	2164.70
392.64	2277.34
392.85	2220.00
393.06	2326.49
393.27	2183.13
393.47	2154.46
393.68	2138.08
393.89	2146.27
394.10	2285.53
394.31	2119.65
394.52	2158.56
394.72	2228.19
394.93	2318.30
395.14	2105.31
395.35	2240.48
395.56	2097.12
395.76	2293.72
395.97	2215.90
396.18	2326.49
396.39	2416.60
396.60	2674.65
396.80	2473.95
397.01	2318.30
397.22	2400.22
397.43	2385.88
397.64	2207.71
397.84	2306.01
398.05	2406.36
398.26	2269.15
398.47	2312.16
398.67	2332.64
398.88	2197.47
399.09	2293.72
399.30	2203.61
399.51	2314.20
399.71	2113.50
399.92	2199.52
400.13	2203.61
400.34	2207.71
400.54	2172.89
400.75	2351.07
400.96	2238.43
401.17	2398.17
401.37	2297.82
401.58	2269.15
401.79	2162.66
402.00	2365.40
402.21	2662.36
402.41	2465.75
402.62	2588.63
402.83	2615.26
403.04	2736.09
403.24	2791.38
403.45	2338.78
403.66	2482.14
403.87	2424.80
404.07	2553.82
404.28	2441.18
404.49	2523.10
404.70	2258.91
404.90	2371.55
405.11	2244.57
405.32	2256.86
405.52	2105.31
405.73	2183.13
405.94	2086.88
406.15	2181.09
406.35	2353.12
406.56	2242.53
406.77	2246.62
406.98	2193.37
407.18	2060.26
407.39	2209.76
407.60	2226.14
407.80	2279.39
408.01	2189.28
408.22	2248.67
408.43	2125.79
408.63	2228.19
408.84	2340.83
409.05	2285.53
409.25	2107.36
409.46	2107.36
409.67	2144.22
409.88	2084.83
410.08	2185.18
410.29	2082.78
410.50	2275.29
410.70	2172.89
410.91	2144.22
411.12	2146.27
411.32	2207.71
411.53	2148.32
411.74	2277.34
411.95	2326.49
412.15	2240.48
412.36	2338.78
412.57	2310.11
412.77	2318.30
412.98	2185.18
413.19	2129.89
413.39	2211.81
413.60	2197.47
413.81	2324.44
414.01	2166.75
414.22	2244.57
414.43	2322.40
414.63	2232.29
414.84	2303.96
415.05	2150.37
415.25	2093.02
415.46	2191.33
415.67	2136.03
415.87	2285.53
416.08	2234.33
416.29	2195.42
416.49	2265.05
416.70	2148.32
416.91	2238.43
417.11	2146.27
417.32	2310.11
417.53	2269.15
417.73	2269.15
417.94	2250.72
418.15	2228.19
418.35	2260.96
418.56	2191.33
418.77	2394.08
418.97	2131.94
419.18	2193.37
419.38	1986.53
419.59	2234.33
419.80	2285.53
420.00	2160.61
420.21	2240.48
420.42	2359.26
420.62	2252.77
420.83	2093.02
421.04	2176.99
421.24	2148.32
421.45	2322.40
421.65	2265.05
421.86	2088.93
422.07	2301.92
422.27	2303.96
422.48	2215.90
422.69	2105.31
422.89	2146.27
423.10	2181.09
423.30	2086.88
423.51	2273.25
423.72	2246.62
423.92	2222.05
424.13	2043.87
424.33	2183.13
424.54	2181.09
424.75	2230.24
424.95	2375.64
425.16	2129.89
425.36	2146.27
425.57	2236.38
425.78	2215.90
425.98	2277.34
426.19	2193.37
426.39	2127.84
426.60	2144.22
426.81	2312.16
427.01	2281.44
427.22	2090.98
427.42	2086.88
427.63	2080.74
427.83	2359.26
428.04	2322.40
428.25	2303.96
428.45	2332.64
428.66	2377.69
428.86	2277.34
429.07	2193.37
429.28	2142.18
429.48	2238.43
429.69	2123.74
429.89	2285.53
430.10	2029.54
430.30	2308.06
430.51	2254.81
430.71	2213.85
430.92	2136.03
431.13	2176.99
431.33	2252.77
431.54	2154.46
431.74	2303.96
431.95	2424.80
432.15	2052.06
432.36	2166.75
432.56	2226.14
432.77	2473.95
432.98	2314.20
433.18	2195.42
433.39	2215.90
433.59	2238.43
433.80	2389.98
434.00	2359.26
434.21	2144.22
434.41	2156.51
434.62	2367.45
434.82	2201.57
435.03	2133.98
435.23	2271.20
435.44	2084.83
435.64	2170.85
435.85	2160.61
436.06	2232.29
436.26	2295.77
436.47	2189.28
436.67	2080.74
436.88	2238.43
437.08	2318.30
437.29	2250.72
437.49	2222.05
437.70	2332.64
437.90	2199.52
438.11	2349.02
438.31	2277.34
438.52	2318.30
438.72	2400.22
438.93	2488.28
439.13	2299.87
439.34	2422.75
439.54	2201.57
439.75	2283.49
439.95	2312.16
440.16	2162.66
440.36	2195.42
440.57	2228.19
440.77	2213.85
440.98	2119.65
441.18	2246.62
441.39	2207.71
441.59	2179.04
441.80	2387.93
442.00	2252.77
442.21	2314.20
442.41	2150.37
442.62	2236.38
442.82	2158.56
443.02	2187.23
443.23	2275.29
443.43	2170.85
443.64	2359.26
443.84	2140.13
444.05	2297.82
444.25	2211.81
444.46	2158.56
444.66	2181.09
444.87	2312.16
445.07	2078.69
445.28	2176.99
445.48	2363.36
445.69	2351.07
445.89	2471.90
446.09	2197.47
446.30	2496.47
446.50	2736.09
446.71	4308.93
446.91	5556.14
447.12	6303.65
447.32	6846.36
447.53	6277.02
447.73	5320.62
447.93	4497.34
448.14	4179.90
448.34	4083.65
448.55	3559.37
448.75	3545.03
448.96	3422.16
449.16	3053.52
449.36	2809.81
449.57	2545.63
449.77	2349.02
449.98	2277.34
450.18	2349.02
450.39	2279.39
450.59	2297.82
450.79	2232.29
451.00	2228.19
451.20	2332.64
451.41	2152.42
451.61	2205.66
451.81	2183.13
452.02	2103.26
452.22	2199.52
452.43	2162.66
452.63	2088.93
