SpectraSuite Data File
++++++++++++++++++++++++++++++++++++
Date: Thu May 05 12:35:00 CEST 2016
User: root
Dark Spectrum Present: No
Reference Spectrum Present: No
Number of Sampled Component Spectra: 1
Spectrometers: USB4C02835
Integration Time (usec): 100000 (USB4C02835)
Spectra Averaged: 1 (USB4C02835)
Boxcar Smoothing: 0 (USB4C02835)
Correct for Electrical Dark: No (USB4C02835)
Strobe/Lamp Enabled: No (USB4C02835)
Correct for Detector Non-linearity: No (USB4C02835)
Correct for Stray Light: No (USB4C02835)
Number of Pixels in Processed Spectrum: 3648
>>>>>Begin Processed Spectral Data<<<<<
177.47	1765.35
177.69	1765.35
177.91	1765.35
178.13	1697.77
178.36	1728.49
178.58	2070.50
178.80	2238.43
179.02	2058.21
179.24	2125.79
179.46	2047.97
179.68	2172.89
179.90	2093.02
180.13	2260.96
180.35	2052.06
180.57	2156.51
180.79	2236.38
181.01	2258.91
181.23	2170.85
181.45	2256.86
181.67	2232.29
181.90	2244.57
182.12	2090.98
182.34	2099.17
182.56	2244.57
182.78	2269.15
183.00	2127.84
183.22	2125.79
183.44	2074.59
183.66	2408.41
183.89	2234.33
184.11	2068.45
184.33	2308.06
184.55	2342.88
184.77	2156.51
184.99	2097.12
185.21	2154.46
185.43	2383.84
185.65	2156.51
185.87	2154.46
186.10	2383.84
186.32	2406.36
186.54	2176.99
186.76	2189.28
186.98	2383.84
187.20	2222.05
187.42	2103.26
187.64	2127.84
187.86	2222.05
188.08	2373.60
188.30	2103.26
188.52	2160.61
188.75	2244.57
188.97	2402.27
189.19	2138.08
189.41	2082.78
189.63	2213.85
189.85	2146.27
190.07	2064.35
190.29	2039.78
190.51	2285.53
190.73	2072.54
190.95	2217.95
191.17	2142.18
191.39	2047.97
191.61	2189.28
191.84	2035.68
192.06	2183.13
192.28	2115.55
192.50	2465.75
192.72	2203.61
192.94	2215.90
193.16	2232.29
193.38	2150.37
193.60	2086.88
193.82	2158.56
194.04	2324.44
194.26	2207.71
194.48	2172.89
194.70	2097.12
194.92	2181.09
195.14	2263.01
195.36	2131.94
195.58	2170.85
195.80	2146.27
196.02	2131.94
196.24	2064.35
196.46	2133.98
196.69	2101.22
196.91	2445.27
197.13	2127.84
197.35	2084.83
197.57	2418.65
197.79	2265.05
198.01	2146.27
198.23	2162.66
198.45	2267.10
198.67	2111.46
198.89	1988.58
199.11	2170.85
199.33	2082.78
199.55	1961.95
199.77	2154.46
199.99	2226.14
200.21	2156.51
200.43	2121.70
200.65	2072.54
200.87	1970.15
201.09	2179.04
201.31	2113.50
201.53	2234.33
201.75	2164.70
201.97	2183.13
202.19	2189.28
202.41	2211.81
202.63	2324.44
202.85	2267.10
203.07	2273.25
203.29	2164.70
203.51	2027.49
203.73	2097.12
203.95	2545.63
204.17	2179.04
204.39	2238.43
204.61	2166.75
204.83	2119.65
205.05	2193.37
205.27	2220.00
205.49	2449.37
205.71	2287.58
205.93	2039.78
206.15	2023.39
206.37	2156.51
206.59	2250.72
206.81	2031.58
207.03	2009.06
207.25	2070.50
207.47	2193.37
207.69	2121.70
207.91	2291.68
208.13	2396.12
208.34	2105.31
208.56	2043.87
208.78	2101.22
209.00	2162.66
209.22	2093.02
209.44	2140.13
209.66	2086.88
209.88	2166.75
210.10	2084.83
210.32	2160.61
210.54	2207.71
210.76	2187.23
210.98	2310.11
211.20	1953.76
211.42	2203.61
211.64	2367.45
211.86	2205.66
212.08	2154.46
212.30	2166.75
212.52	2111.46
212.74	2220.00
212.96	2183.13
213.17	2113.50
213.39	2226.14
213.61	2361.31
213.83	2172.89
214.05	2181.09
214.27	2316.25
214.49	2072.54
214.71	2080.74
214.93	2277.34
215.15	2158.56
215.37	2263.01
215.59	2064.35
215.81	2090.98
216.03	2373.60
216.24	2174.94
216.46	2168.80
216.68	2179.04
216.90	2308.06
217.12	2365.40
217.34	2133.98
217.56	2232.29
217.78	2269.15
218.00	2291.68
218.22	2154.46
218.44	2181.09
218.66	2209.76
218.87	2420.70
219.09	2119.65
219.31	2131.94
219.53	2265.05
219.75	2082.78
219.97	2115.55
220.19	2113.50
220.41	2197.47
220.63	2385.88
220.85	2146.27
221.06	2107.36
221.28	2306.01
221.50	2193.37
221.72	2174.94
221.94	2111.46
222.16	2168.80
222.38	2277.34
222.60	2170.85
222.82	2117.60
223.03	2193.37
223.25	2070.50
223.47	2138.08
223.69	2224.09
223.91	2250.72
224.13	2215.90
224.35	2062.30
224.57	2260.96
224.78	2203.61
225.00	2111.46
225.22	2170.85
225.44	2185.18
225.66	2283.49
225.88	2150.37
226.10	2133.98
226.32	2115.55
226.53	2336.73
226.75	2138.08
226.97	2136.03
227.19	2076.64
227.41	2152.42
227.63	2078.69
227.85	1998.82
228.06	2158.56
228.28	2207.71
228.50	2211.81
228.72	2074.59
228.94	2115.55
229.16	2078.69
229.37	2070.50
229.59	2007.01
229.81	2220.00
230.03	2119.65
230.25	2035.68
230.47	2064.35
230.69	2039.78
230.90	2303.96
231.12	2193.37
231.34	2228.19
231.56	2146.27
231.78	2103.26
232.00	2203.61
232.21	2121.70
232.43	2142.18
232.65	1998.82
232.87	2172.89
233.09	2101.22
233.30	2138.08
233.52	2260.96
233.74	2306.01
233.96	2174.94
234.18	2197.47
234.40	2146.27
234.61	2377.69
234.83	2072.54
235.05	2140.13
235.27	2514.91
235.49	2396.12
235.70	2138.08
235.92	2226.14
236.14	2279.39
236.36	2402.27
236.58	2070.50
236.79	2230.24
237.01	2197.47
237.23	2162.66
237.45	2357.21
237.67	2125.79
237.88	2252.77
238.10	2387.93
238.32	2015.20
238.54	2154.46
238.76	2179.04
238.97	2103.26
239.19	2070.50
239.41	2191.33
239.63	2314.20
239.85	2146.27
240.06	2138.08
240.28	2090.98
240.50	2252.77
240.72	2111.46
240.93	2111.46
241.15	2238.43
241.37	2131.94
241.59	2377.69
241.81	2127.84
242.02	2168.80
242.24	2215.90
242.46	2252.77
242.68	2068.45
242.89	2187.23
243.11	2314.20
243.33	2201.57
243.55	2150.37
243.76	2119.65
243.98	2150.37
244.20	2185.18
244.42	2150.37
244.64	2113.50
244.85	2056.16
245.07	2176.99
245.29	2179.04
245.51	2160.61
245.72	2244.57
245.94	2316.25
246.16	2164.70
246.38	2183.13
246.59	2146.27
246.81	2101.22
247.03	2080.74
247.24	1970.15
247.46	2133.98
247.68	2220.00
247.90	2056.16
248.11	2164.70
248.33	2228.19
248.55	2168.80
248.77	2203.61
248.98	2187.23
249.20	2281.44
249.42	2207.71
249.64	2220.00
249.85	2099.17
250.07	2240.48
250.29	2201.57
250.50	2156.51
250.72	2166.75
250.94	2310.11
251.16	2392.03
251.37	2123.74
251.59	2215.90
251.81	2246.62
252.02	2289.63
252.24	2084.83
252.46	2193.37
252.68	2095.07
252.89	2197.47
253.11	2023.39
253.33	2228.19
253.54	2365.40
253.76	2058.21
253.98	2043.87
254.20	2086.88
254.41	2086.88
254.63	2197.47
254.85	2111.46
255.06	2224.09
255.28	2195.42
255.50	2119.65
255.71	2027.49
255.93	2121.70
256.15	2179.04
256.36	2240.48
256.58	2154.46
256.80	2119.65
257.02	2197.47
257.23	2160.61
257.45	2101.22
257.67	2148.32
257.88	2152.42
258.10	2312.16
258.32	2154.46
258.53	2250.72
258.75	2389.98
258.97	2160.61
259.18	2111.46
259.40	2099.17
259.62	2338.78
259.83	2285.53
260.05	2162.66
260.27	2557.91
260.48	2357.21
260.70	2039.78
260.92	2103.26
261.13	2131.94
261.35	2232.29
261.57	2224.09
261.78	2062.30
262.00	2056.16
262.22	2211.81
262.43	2101.22
262.65	2138.08
262.86	2183.13
263.08	2392.03
263.30	2187.23
263.51	1998.82
263.73	1996.77
263.95	2287.58
264.16	2105.31
264.38	2088.93
264.60	2162.66
264.81	2269.15
265.03	2228.19
265.25	2303.96
265.46	2105.31
265.68	2326.49
265.89	2179.04
266.11	2064.35
266.33	2154.46
266.54	2324.44
266.76	2236.38
266.98	2228.19
267.19	2252.77
267.41	2273.25
267.62	2238.43
267.84	1945.57
268.06	2189.28
268.27	2275.29
268.49	2383.84
268.70	2248.67
268.92	2097.12
269.14	2172.89
269.35	2031.58
269.57	2166.75
269.79	2195.42
270.00	2113.50
270.22	2365.40
270.43	2072.54
270.65	1943.52
270.87	2236.38
271.08	2269.15
271.30	2269.15
271.51	2105.31
271.73	2273.25
271.95	2265.05
272.16	2072.54
272.38	2183.13
272.59	2088.93
272.81	2242.53
273.02	2189.28
273.24	2144.22
273.46	2275.29
273.67	2117.60
273.89	2076.64
274.10	2097.12
274.32	2353.12
274.54	2242.53
274.75	2183.13
274.97	2035.68
275.18	2283.49
275.40	2267.10
275.61	2154.46
275.83	2181.09
276.05	2080.74
276.26	2195.42
276.48	2193.37
276.69	2158.56
276.91	2150.37
277.12	2318.30
277.34	2312.16
277.55	2236.38
277.77	2240.48
277.99	2140.13
278.20	2105.31
278.42	2007.01
278.63	2119.65
278.85	2152.42
279.06	2160.61
279.28	2211.81
279.49	2185.18
279.71	2209.76
279.93	2168.80
280.14	2217.95
280.36	2029.54
280.57	2271.20
280.79	2244.57
281.00	2088.93
281.22	2146.27
281.43	2283.49
281.65	1947.62
281.86	2109.41
282.08	2222.05
282.29	2392.03
282.51	2086.88
282.73	2060.26
282.94	2072.54
283.16	2330.59
283.37	2273.25
283.59	2170.85
283.80	2234.33
284.02	2201.57
284.23	2238.43
284.45	2170.85
284.66	2129.89
284.88	2119.65
285.09	2195.42
285.31	2230.24
285.52	2211.81
285.74	2109.41
285.95	2232.29
286.17	2144.22
286.38	2303.96
286.60	2201.57
286.81	2138.08
287.03	2140.13
287.24	2170.85
287.46	2248.67
287.67	2144.22
287.89	2340.83
288.10	2183.13
288.32	2146.27
288.53	2306.01
288.75	2170.85
288.96	2236.38
289.18	2211.81
289.39	2152.42
289.61	2181.09
289.82	2394.08
290.04	2299.87
290.25	2097.12
290.47	2109.41
290.68	2166.75
290.90	2242.53
291.11	2050.02
291.33	2244.57
291.54	2127.84
291.76	2027.49
291.97	2162.66
292.18	2193.37
292.40	2136.03
292.61	2166.75
292.83	2394.08
293.04	2265.05
293.26	2234.33
293.47	2213.85
293.69	2140.13
293.90	2232.29
294.12	2277.34
294.33	2185.18
294.55	2144.22
294.76	2287.58
294.97	2322.40
295.19	2400.22
295.40	2166.75
295.62	2248.67
295.83	2291.68
296.05	2160.61
296.26	2199.52
296.48	2113.50
296.69	2154.46
296.90	2179.04
297.12	2224.09
297.33	2297.82
297.55	2232.29
297.76	2293.72
297.98	2281.44
298.19	2183.13
298.41	2201.57
298.62	2117.60
298.83	2220.00
299.05	2254.81
299.26	2211.81
299.48	2123.74
299.69	2195.42
299.90	2197.47
300.12	2056.16
300.33	2269.15
300.55	2263.01
300.76	2205.66
300.98	2131.94
301.19	2277.34
301.40	2127.84
301.62	2136.03
301.83	2187.23
302.05	2215.90
302.26	2121.70
302.47	2166.75
302.69	2027.49
302.90	2220.00
303.12	2017.25
303.33	2213.85
303.54	2377.69
303.76	2181.09
303.97	2133.98
304.19	2349.02
304.40	2099.17
304.61	2236.38
304.83	2324.44
305.04	2273.25
305.26	2279.39
305.47	2213.85
305.68	2146.27
305.90	2076.64
306.11	2263.01
306.33	2195.42
306.54	2154.46
306.75	2086.88
306.97	2103.26
307.18	2064.35
307.39	2193.37
307.61	2273.25
307.82	2234.33
308.04	2236.38
308.25	2152.42
308.46	2197.47
308.68	2172.89
308.89	2240.48
309.10	2240.48
309.32	2172.89
309.53	2236.38
309.74	2220.00
309.96	2129.89
310.17	2256.86
310.39	2086.88
310.60	2248.67
310.81	2183.13
311.03	2146.27
311.24	2209.76
311.45	2080.74
311.67	2342.88
311.88	2191.33
312.09	2191.33
312.31	2191.33
312.52	2164.70
312.73	2156.51
312.95	2062.30
313.16	2101.22
313.37	2271.20
313.59	2224.09
313.80	2316.25
314.01	2260.96
314.23	2174.94
314.44	2140.13
314.65	2111.46
314.87	2097.12
315.08	2138.08
315.29	2154.46
315.51	2060.26
315.72	2033.63
315.93	2289.63
316.15	2236.38
316.36	2097.12
316.57	2232.29
316.79	2238.43
317.00	2142.18
317.21	2240.48
317.43	2058.21
317.64	2133.98
317.85	2158.56
318.07	2162.66
318.28	2222.05
318.49	2371.55
318.70	2420.70
318.92	2414.56
319.13	2447.32
319.34	2451.42
319.56	2285.53
319.77	2400.22
319.98	2346.97
320.20	2342.88
320.41	2269.15
320.62	2291.68
320.83	2211.81
321.05	2414.56
321.26	2244.57
321.47	2213.85
321.69	2201.57
321.90	2052.06
322.11	2125.79
322.32	2250.72
322.54	2387.93
322.75	2090.98
322.96	2471.90
323.18	2088.93
323.39	2050.02
323.60	2152.42
323.81	2203.61
324.03	2154.46
324.24	2263.01
324.45	2252.77
324.66	2187.23
324.88	2328.54
325.09	2365.40
325.30	2170.85
325.52	2211.81
325.73	2234.33
325.94	2179.04
326.15	2119.65
326.37	2166.75
326.58	2373.60
326.79	2306.01
327.00	2111.46
327.22	2203.61
327.43	2119.65
327.64	2095.07
327.85	2271.20
328.07	2162.66
328.28	2357.21
328.49	2117.60
328.70	2162.66
328.92	2179.04
329.13	2119.65
329.34	2215.90
329.55	2269.15
329.76	2213.85
329.98	2187.23
330.19	2326.49
330.40	2211.81
330.61	2246.62
330.83	2299.87
331.04	2166.75
331.25	2185.18
331.46	2217.95
331.68	2064.35
331.89	2283.49
332.10	2160.61
332.31	2117.60
332.52	2203.61
332.74	2234.33
332.95	1925.09
333.16	2246.62
333.37	2166.75
333.58	2076.64
333.80	2209.76
334.01	2015.20
334.22	2205.66
334.43	2088.93
334.64	2103.26
334.86	2097.12
335.07	2121.70
335.28	2363.36
335.49	2060.26
335.70	2250.72
335.92	2228.19
336.13	2369.50
336.34	2205.66
336.55	2209.76
336.76	2228.19
336.98	1990.63
337.19	2215.90
337.40	2263.01
337.61	2439.13
337.82	2129.89
338.04	2238.43
338.25	2056.16
338.46	2144.22
338.67	2133.98
338.88	2080.74
339.09	2070.50
339.31	2084.83
339.52	2105.31
339.73	2070.50
339.94	2185.18
340.15	2209.76
340.36	2179.04
340.58	2220.00
340.79	2031.58
341.00	2248.67
341.21	2086.88
341.42	2283.49
341.63	2142.18
341.85	2213.85
342.06	2172.89
342.27	2154.46
342.48	2285.53
342.69	2080.74
342.90	2209.76
343.12	2353.12
343.33	2131.94
343.54	2238.43
343.75	2367.45
343.96	2086.88
344.17	2146.27
344.38	2119.65
344.60	2025.44
344.81	2031.58
345.02	2215.90
345.23	2224.09
345.44	2367.45
345.65	2248.67
345.86	2183.13
346.07	2201.57
346.29	2084.83
346.50	2187.23
346.71	2277.34
346.92	2314.20
347.13	2465.75
347.34	2172.89
347.55	2168.80
347.76	2234.33
347.98	1994.72
348.19	2138.08
348.40	2285.53
348.61	2148.32
348.82	2359.26
349.03	2172.89
349.24	2117.60
349.45	2457.56
349.66	1974.24
349.88	2119.65
350.09	2060.26
350.30	2353.12
350.51	2238.43
350.72	2207.71
350.93	2252.77
351.14	2090.98
351.35	2174.94
351.56	2113.50
351.77	2226.14
351.99	2205.66
352.20	2310.11
352.41	2195.42
352.62	2047.97
352.83	2142.18
353.04	2217.95
353.25	2152.42
353.46	2234.33
353.67	2328.54
353.88	1986.53
354.09	2209.76
354.30	2150.37
354.52	2236.38
354.73	2150.37
354.94	2140.13
355.15	2189.28
355.36	2363.36
355.57	2150.37
355.78	2287.58
355.99	2131.94
356.20	2211.81
356.41	2301.92
356.62	2211.81
356.83	2226.14
357.04	2365.40
357.25	2131.94
357.46	2166.75
357.68	2056.16
357.89	2080.74
358.10	2224.09
358.31	2179.04
358.52	2187.23
358.73	2121.70
358.94	2078.69
359.15	2136.03
359.36	2287.58
359.57	2183.13
359.78	2127.84
359.99	2250.72
360.20	2146.27
360.41	2174.94
360.62	2308.06
360.83	2136.03
361.04	2226.14
361.25	2195.42
361.46	2396.12
361.67	2260.96
361.88	2242.53
362.09	2326.49
362.30	2260.96
362.51	2142.18
362.72	2195.42
362.93	2193.37
363.14	2285.53
363.35	2146.27
363.56	2097.12
363.78	2299.87
363.99	2277.34
364.20	2097.12
364.41	2170.85
364.62	2445.27
364.83	2269.15
365.04	2226.14
365.25	2187.23
365.46	2357.21
365.67	2095.07
365.88	2189.28
366.09	2158.56
366.30	2191.33
366.51	2260.96
366.72	2146.27
366.93	2191.33
367.14	2160.61
367.35	2310.11
367.56	2195.42
367.77	2203.61
367.98	2154.46
368.18	2207.71
368.39	2279.39
368.60	2072.54
368.81	2256.86
369.02	2201.57
369.23	2150.37
369.44	2029.54
369.65	2146.27
369.86	2271.20
370.07	2318.30
370.28	2111.46
370.49	2269.15
370.70	2281.44
370.91	2111.46
371.12	2023.39
371.33	2320.35
371.54	2154.46
371.75	2289.63
371.96	1978.34
372.17	2246.62
372.38	2162.66
372.59	2260.96
372.80	2138.08
373.01	2187.23
373.22	2203.61
373.43	2226.14
373.64	2176.99
373.85	2367.45
374.06	2359.26
374.26	2242.53
374.47	2269.15
374.68	2330.59
374.89	2303.96
375.10	2201.57
375.31	2316.25
375.52	2119.65
375.73	2095.07
375.94	2080.74
376.15	2275.29
376.36	2136.03
376.57	2154.46
376.78	2056.16
376.99	2267.10
377.20	2363.36
377.40	2162.66
377.61	2392.03
377.82	2191.33
378.03	2316.25
378.24	2201.57
378.45	2131.94
378.66	2191.33
378.87	2015.20
379.08	2013.15
379.29	2129.89
379.50	2330.59
379.71	2224.09
379.91	2285.53
380.12	2146.27
380.33	2176.99
380.54	2273.25
380.75	2287.58
380.96	2172.89
381.17	2217.95
381.38	2195.42
381.59	2258.91
381.80	2162.66
382.00	2306.01
382.21	2260.96
382.42	2455.51
382.63	2414.56
382.84	2301.92
383.05	2379.74
383.26	2340.83
383.47	2220.00
383.68	2232.29
383.88	2332.64
384.09	2226.14
384.30	2377.69
384.51	2211.81
384.72	2162.66
384.93	2093.02
385.14	2201.57
385.35	2314.20
385.55	2101.22
385.76	2308.06
385.97	2082.78
386.18	2127.84
386.39	2107.36
386.60	2170.85
386.81	2101.22
387.02	2088.93
387.22	2078.69
387.43	2281.44
387.64	2308.06
387.85	2332.64
388.06	2398.17
388.27	4122.56
388.48	8740.73
388.68	12431.17
388.89	14677.79
389.10	16174.86
389.31	14659.36
389.52	11708.24
389.73	10174.31
389.93	9152.37
390.14	8394.62
390.35	7495.57
390.56	6723.48
390.77	5488.56
390.98	4083.65
391.18	3284.94
391.39	2645.98
391.60	2310.11
391.81	2314.20
392.02	2158.56
392.23	2387.93
392.43	2244.57
392.64	2363.36
392.85	2191.33
393.06	2310.11
393.27	2244.57
393.47	2109.41
393.68	2195.42
393.89	2187.23
394.10	2316.25
394.31	2162.66
394.52	2111.46
394.72	2152.42
394.93	2314.20
395.14	2086.88
395.35	2269.15
395.56	2183.13
395.76	2197.47
395.97	2201.57
396.18	2369.50
396.39	2428.89
396.60	2691.03
396.80	2443.23
397.01	2357.21
397.22	2346.97
397.43	2428.89
397.64	2136.03
397.84	2258.91
398.05	2359.26
398.26	2213.85
398.47	2301.92
398.67	2283.49
398.88	2232.29
399.09	2310.11
399.30	2136.03
399.51	2342.88
399.71	2068.45
399.92	2269.15
400.13	2213.85
400.34	2117.60
400.54	2248.67
400.75	2349.02
400.96	2242.53
401.17	2430.94
401.37	2316.25
401.58	2174.94
401.79	2187.23
402.00	2416.60
402.21	2580.44
402.41	2488.28
402.62	2539.48
402.83	2709.46
403.04	2731.99
403.24	2762.71
403.45	2375.64
403.66	2506.71
403.87	2473.95
404.07	2459.61
404.28	2506.71
404.49	2367.45
404.70	2338.78
404.90	2322.40
405.11	2201.57
405.32	2299.87
405.52	2172.89
405.73	2168.80
405.94	2109.41
406.15	2166.75
406.35	2271.20
406.56	2285.53
406.77	2260.96
406.98	2232.29
407.18	2168.80
407.39	2410.46
407.60	2195.42
407.80	2232.29
408.01	2152.42
408.22	2232.29
408.43	2070.50
408.63	2146.27
408.84	2293.72
409.05	2332.64
409.25	2121.70
409.46	2129.89
409.67	2105.31
409.88	2111.46
410.08	2201.57
410.29	2115.55
410.50	2244.57
410.70	2271.20
410.91	2144.22
411.12	2254.81
411.32	2156.51
411.53	2154.46
411.74	2306.01
411.95	2277.34
412.15	2297.82
412.36	2342.88
412.57	2320.35
412.77	2389.98
412.98	2228.19
413.19	2246.62
413.39	2250.72
413.60	2260.96
413.81	2338.78
414.01	2136.03
414.22	2234.33
414.43	2244.57
414.63	2211.81
414.84	2400.22
415.05	2146.27
415.25	2136.03
415.46	2316.25
415.67	2162.66
415.87	2248.67
416.08	2138.08
416.29	2064.35
416.49	2351.07
416.70	2113.50
416.91	2101.22
417.11	2224.09
417.32	2236.38
417.53	2258.91
417.73	2213.85
417.94	2287.58
418.15	2250.72
418.35	2232.29
418.56	2232.29
418.77	2357.21
418.97	2269.15
419.18	2148.32
419.38	2062.30
419.59	2207.71
419.80	2359.26
420.00	2152.42
420.21	2277.34
420.42	2338.78
420.62	2318.30
420.83	2039.78
421.04	2168.80
421.24	2154.46
421.45	2265.05
421.65	2232.29
421.86	2191.33
422.07	2244.57
422.27	2199.52
422.48	2215.90
422.69	2123.74
422.89	2187.23
423.10	2154.46
423.30	2115.55
423.51	2269.15
423.72	2207.71
423.92	2346.97
424.13	2097.12
424.33	2185.18
424.54	2330.59
424.75	2191.33
424.95	2293.72
425.16	2242.53
425.36	2189.28
425.57	2244.57
425.78	2260.96
425.98	2252.77
426.19	2158.56
426.39	2136.03
426.60	2215.90
426.81	2279.39
427.01	2254.81
427.22	2131.94
427.42	2002.91
427.63	2146.27
427.83	2318.30
428.04	2396.12
428.25	2306.01
428.45	2326.49
428.66	2314.20
428.86	2209.76
429.07	2195.42
429.28	2242.53
429.48	2170.85
429.69	2222.05
429.89	2209.76
430.10	2002.91
430.30	2217.95
430.51	2275.29
430.71	2113.50
430.92	2176.99
431.13	2133.98
431.33	2285.53
431.54	2129.89
431.74	2260.96
431.95	2349.02
432.15	2127.84
432.36	2172.89
432.56	2283.49
432.77	2373.60
432.98	2365.40
433.18	2211.81
433.39	2203.61
433.59	2187.23
433.80	2430.94
434.00	2490.33
434.21	2119.65
434.41	2140.13
434.62	2379.74
434.82	2166.75
435.03	2136.03
435.23	2301.92
435.44	2002.91
435.64	2170.85
435.85	2228.19
436.06	2258.91
436.26	2308.06
436.47	2179.04
436.67	2174.94
436.88	2273.25
437.08	2363.36
437.29	2269.15
437.49	2232.29
437.70	2338.78
437.90	2209.76
438.11	2379.74
438.31	2324.44
438.52	2455.51
438.72	2424.80
438.93	2506.71
439.13	2320.35
439.34	2439.13
439.54	2256.86
439.75	2324.44
439.95	2340.83
440.16	2174.94
440.36	2215.90
440.57	2211.81
440.77	2256.86
440.98	2260.96
441.18	2260.96
441.39	2201.57
441.59	2052.06
441.80	2416.60
442.00	2238.43
442.21	2373.60
442.41	2103.26
442.62	2381.79
442.82	2029.54
443.02	2203.61
443.23	2236.38
443.43	2187.23
443.64	2428.89
443.84	2041.82
444.05	2357.21
444.25	2226.14
444.46	2215.90
444.66	2203.61
444.87	2385.88
445.07	2058.21
445.28	2222.05
445.48	2406.36
445.69	2211.81
445.89	2455.51
446.09	2277.34
446.30	2439.13
446.50	2807.77
446.71	4448.19
446.91	5672.87
447.12	6541.21
447.32	6774.68
447.53	6272.93
447.73	5113.78
447.93	4554.68
448.14	4218.82
448.34	4030.40
448.55	3545.03
448.75	3588.04
448.96	3358.67
449.16	3059.67
449.36	2873.30
449.57	2430.94
449.77	2361.31
449.98	2191.33
450.18	2318.30
450.39	2228.19
450.59	2236.38
450.79	2303.96
451.00	2121.70
451.20	2275.29
451.41	2215.90
451.61	2285.53
451.81	2207.71
452.02	2176.99
452.22	2154.46
452.43	2176.99
