SpectraSuite Data File
++++++++++++++++++++++++++++++++++++
Date: Thu May 05 12:35:03 CEST 2016
User: root
Dark Spectrum Present: No
Reference Spectrum Present: No
Number of Sampled Component Spectra: 1
Spectrometers: USB4C02835
Integration Time (usec): 100000 (USB4C02835)
Spectra Averaged: 1 (USB4C02835)
Boxcar Smoothing: 0 (USB4C02835)
Correct for Electrical Dark: No (USB4C02835)
Strobe/Lamp Enabled: No (USB4C02835)
Correct for Detector Non-linearity: No (USB4C02835)
Correct for Stray Light: No (USB4C02835)
Number of Pixels in Processed Spectrum: 3648
>>>>>Begin Processed Spectral Data<<<<<
177.47	1736.68
177.69	1736.68
177.91	1736.68
178.13	1767.40
178.36	1773.54
178.58	2056.16
178.80	2211.81
179.02	2019.30
179.24	2105.31
179.46	2142.18
179.68	2179.04
179.90	2211.81
180.13	2224.09
180.35	2066.40
180.57	2054.11
180.79	2226.14
181.01	2209.76
181.23	2236.38
181.45	2256.86
181.67	2230.24
181.90	2254.81
182.12	2179.04
182.34	2045.92
182.56	2269.15
182.78	2205.66
183.00	2168.80
183.22	2127.84
183.44	2047.97
183.66	2381.79
183.89	2197.47
184.11	2158.56
184.33	2258.91
184.55	2340.83
184.77	2119.65
184.99	2179.04
185.21	2193.37
185.43	2398.17
185.65	2105.31
185.87	2123.74
186.10	2375.64
186.32	2430.94
186.54	2140.13
186.76	2195.42
186.98	2283.49
187.20	2142.18
187.42	2144.22
187.64	2125.79
187.86	2242.53
188.08	2314.20
188.30	2099.17
188.52	2133.98
188.75	2256.86
188.97	2334.68
189.19	2084.83
189.41	2060.26
189.63	2183.13
189.85	2228.19
190.07	2060.26
190.29	1984.48
190.51	2170.85
190.73	2113.50
190.95	2191.33
191.17	2144.22
191.39	2064.35
191.61	2176.99
191.84	2064.35
192.06	2152.42
192.28	2050.02
192.50	2465.75
192.72	2265.05
192.94	2119.65
193.16	2306.01
193.38	2217.95
193.60	2148.32
193.82	2146.27
194.04	2338.78
194.26	2197.47
194.48	2172.89
194.70	2127.84
194.92	2101.22
195.14	2263.01
195.36	2068.45
195.58	2217.95
195.80	2166.75
196.02	2154.46
196.24	2105.31
196.46	2162.66
196.69	2220.00
196.91	2521.05
197.13	2060.26
197.35	2084.83
197.57	2418.65
197.79	2277.34
198.01	2080.74
198.23	2133.98
198.45	2220.00
198.67	2082.78
198.89	2064.35
199.11	2230.24
199.33	2244.57
199.55	2015.20
199.77	2146.27
199.99	2271.20
200.21	2129.89
200.43	2258.91
200.65	2072.54
200.87	1994.72
201.09	2203.61
201.31	2187.23
201.53	2146.27
201.75	2187.23
201.97	2191.33
202.19	2174.94
202.41	2189.28
202.63	2308.06
202.85	2254.81
203.07	2248.67
203.29	2058.21
203.51	2050.02
203.73	2146.27
203.95	2496.47
204.17	2105.31
204.39	2185.18
204.61	2181.09
204.83	2187.23
205.05	2230.24
205.27	2101.22
205.49	2406.36
205.71	2129.89
205.93	2021.35
206.15	2064.35
206.37	2230.24
206.59	2170.85
206.81	2064.35
207.03	2088.93
207.25	2058.21
207.47	2242.53
207.69	2187.23
207.91	2217.95
208.13	2387.93
208.34	2148.32
208.56	2017.25
208.78	2095.07
209.00	2117.60
209.22	2078.69
209.44	2203.61
209.66	2099.17
209.88	2256.86
210.10	2129.89
210.32	2062.30
210.54	2166.75
210.76	2160.61
210.98	2293.72
211.20	2060.26
211.42	2217.95
211.64	2389.98
211.86	2230.24
212.08	2207.71
212.30	2176.99
212.52	2146.27
212.74	2252.77
212.96	2144.22
213.17	2220.00
213.39	2295.77
213.61	2299.87
213.83	2121.70
214.05	2144.22
214.27	2285.53
214.49	2105.31
214.71	2072.54
214.93	2160.61
215.15	2211.81
215.37	2252.77
215.59	1970.15
215.81	2166.75
216.03	2385.88
216.24	2209.76
216.46	2162.66
216.68	2150.37
216.90	2306.01
217.12	2291.68
217.34	2111.46
217.56	2176.99
217.78	2322.40
218.00	2236.38
218.22	2176.99
218.44	2148.32
218.66	2260.96
218.87	2322.40
219.09	2072.54
219.31	2152.42
219.53	2215.90
219.75	2140.13
219.97	2099.17
220.19	2146.27
220.41	2121.70
220.63	2326.49
220.85	2187.23
221.06	2152.42
221.28	2320.35
221.50	2222.05
221.72	2187.23
221.94	2138.08
222.16	2234.33
222.38	2338.78
222.60	2146.27
222.82	2129.89
223.03	2301.92
223.25	1990.63
223.47	2199.52
223.69	2236.38
223.91	2293.72
224.13	2203.61
224.35	2072.54
224.57	2224.09
224.78	2244.57
225.00	2047.97
225.22	2187.23
225.44	2117.60
225.66	2334.68
225.88	2205.66
226.10	2220.00
226.32	2129.89
226.53	2383.84
226.75	2127.84
226.97	2150.37
227.19	2117.60
227.41	2060.26
227.63	2070.50
227.85	1964.00
228.06	2121.70
228.28	2248.67
228.50	2312.16
228.72	2062.30
228.94	2209.76
229.16	2068.45
229.37	2121.70
229.59	2148.32
229.81	2234.33
230.03	2070.50
230.25	2076.64
230.47	2031.58
230.69	2064.35
230.90	2265.05
231.12	2066.40
231.34	2195.42
231.56	2199.52
231.78	2078.69
232.00	2166.75
232.21	2115.55
232.43	2066.40
232.65	1955.81
232.87	2258.91
233.09	2045.92
233.30	2035.68
233.52	2303.96
233.74	2170.85
233.96	2185.18
234.18	2287.58
234.40	2162.66
234.61	2422.75
234.83	2095.07
235.05	2031.58
235.27	2424.80
235.49	2338.78
235.70	2142.18
235.92	2256.86
236.14	2283.49
236.36	2463.71
236.58	2015.20
236.79	2072.54
237.01	2095.07
237.23	2152.42
237.45	2234.33
237.67	2154.46
237.88	2187.23
238.10	2418.65
238.32	2074.59
238.54	2158.56
238.76	2201.57
238.97	2107.36
239.19	2127.84
239.41	2265.05
239.63	2293.72
239.85	2101.22
240.06	2156.51
240.28	2152.42
240.50	2238.43
240.72	2205.66
240.93	2101.22
241.15	2199.52
241.37	2185.18
241.59	2383.84
241.81	2121.70
242.02	2099.17
242.24	2244.57
242.46	2275.29
242.68	2088.93
242.89	2136.03
243.11	2318.30
243.33	2162.66
243.55	2185.18
243.76	2150.37
243.98	2162.66
244.20	2205.66
244.42	2152.42
244.64	2113.50
244.85	2097.12
245.07	2066.40
245.29	2215.90
245.51	2133.98
245.72	2220.00
245.94	2301.92
246.16	2125.79
246.38	2181.09
246.59	2111.46
246.81	2160.61
247.03	2023.39
247.24	2019.30
247.46	2095.07
247.68	2224.09
247.90	2090.98
248.11	2162.66
248.33	2320.35
248.55	2236.38
248.77	2176.99
248.98	2193.37
249.20	2367.45
249.42	2199.52
249.64	2217.95
249.85	2119.65
250.07	2047.97
250.29	2269.15
250.50	2205.66
250.72	2002.91
250.94	2185.18
251.16	2349.02
251.37	2179.04
251.59	2269.15
251.81	2299.87
252.02	2377.69
252.24	2086.88
252.46	2174.94
252.68	2156.51
252.89	2099.17
253.11	2031.58
253.33	2224.09
253.54	2260.96
253.76	2080.74
253.98	2103.26
254.20	2138.08
254.41	2054.11
254.63	2148.32
254.85	2052.06
255.06	2103.26
255.28	2242.53
255.50	2174.94
255.71	2105.31
255.93	1978.34
256.15	2179.04
256.36	2220.00
256.58	2031.58
256.80	2220.00
257.02	2146.27
257.23	2162.66
257.45	2133.98
257.67	2203.61
257.88	2183.13
258.10	2256.86
258.32	2131.94
258.53	2193.37
258.75	2340.83
258.97	2133.98
259.18	2074.59
259.40	2199.52
259.62	2385.88
259.83	2373.60
260.05	2203.61
260.27	2564.06
260.48	2291.68
260.70	2144.22
260.92	2072.54
261.13	2129.89
261.35	2187.23
261.57	2260.96
261.78	2066.40
262.00	2080.74
262.22	2228.19
262.43	2031.58
262.65	2138.08
262.86	2156.51
263.08	2383.84
263.30	2205.66
263.51	1996.77
263.73	2119.65
263.95	2340.83
264.16	2162.66
264.38	2023.39
264.60	2125.79
264.81	2199.52
265.03	2297.82
265.25	2236.38
265.46	2084.83
265.68	2244.57
265.89	2260.96
266.11	2029.54
266.33	2113.50
266.54	2250.72
266.76	2185.18
266.98	2224.09
267.19	2236.38
267.41	2336.73
267.62	2215.90
267.84	2136.03
268.06	2334.68
268.27	2232.29
268.49	2334.68
268.70	2095.07
268.92	2099.17
269.14	2138.08
269.35	2062.30
269.57	2133.98
269.79	2179.04
270.00	2033.63
270.22	2324.44
270.43	2097.12
270.65	2023.39
270.87	2246.62
271.08	2250.72
271.30	2228.19
271.51	2125.79
271.73	2351.07
271.95	2371.55
272.16	2113.50
272.38	2109.41
272.59	2129.89
272.81	2265.05
273.02	2199.52
273.24	2234.33
273.46	2260.96
273.67	2131.94
273.89	1974.24
274.10	2070.50
274.32	2310.11
274.54	2205.66
274.75	2166.75
274.97	2187.23
275.18	2373.60
275.40	2283.49
275.61	2150.37
275.83	2121.70
276.05	2088.93
276.26	2195.42
276.48	2199.52
276.69	2148.32
276.91	2170.85
277.12	2285.53
277.34	2244.57
277.55	2269.15
277.77	2246.62
277.99	2170.85
278.20	2062.30
278.42	2031.58
278.63	2131.94
278.85	2088.93
279.06	2076.64
279.28	2217.95
279.49	2306.01
279.71	2318.30
279.93	2244.57
280.14	2176.99
280.36	2158.56
280.57	2285.53
280.79	2220.00
281.00	2109.41
281.22	2226.14
281.43	2361.31
281.65	2031.58
281.86	2052.06
282.08	2199.52
282.29	2387.93
282.51	2023.39
282.73	2093.02
282.94	2144.22
283.16	2316.25
283.37	2306.01
283.59	2183.13
283.80	2179.04
284.02	2138.08
284.23	2234.33
284.45	2129.89
284.66	2052.06
284.88	2070.50
285.09	2209.76
285.31	2263.01
285.52	2297.82
285.74	2050.02
285.95	2244.57
286.17	2195.42
286.38	2293.72
286.60	2113.50
286.81	2105.31
287.03	2179.04
287.24	2164.70
287.46	2150.37
287.67	2207.71
287.89	2353.12
288.10	2195.42
288.32	2191.33
288.53	2340.83
288.75	2156.51
288.96	2275.29
289.18	2172.89
289.39	2185.18
289.61	2240.48
289.82	2326.49
290.04	2359.26
290.25	2039.78
290.47	2168.80
290.68	2201.57
290.90	2263.01
291.11	2052.06
291.33	2191.33
291.54	2101.22
291.76	2078.69
291.97	2215.90
292.18	2199.52
292.40	2236.38
292.61	2111.46
292.83	2381.79
293.04	2176.99
293.26	2254.81
293.47	2101.22
293.69	2111.46
293.90	2228.19
294.12	2357.21
294.33	2176.99
294.55	2131.94
294.76	2322.40
294.97	2293.72
295.19	2418.65
295.40	2176.99
295.62	2152.42
295.83	2252.77
296.05	2099.17
296.26	2351.07
296.48	2129.89
296.69	2166.75
296.90	2195.42
297.12	2181.09
297.33	2279.39
297.55	2217.95
297.76	2295.77
297.98	2342.88
298.19	2185.18
298.41	2179.04
298.62	2156.51
298.83	2293.72
299.05	2158.56
299.26	2174.94
299.48	2113.50
299.69	2185.18
299.90	2193.37
300.12	2133.98
300.33	2265.05
300.55	2191.33
300.76	2244.57
300.98	2195.42
301.19	2252.77
301.40	2131.94
301.62	2228.19
301.83	2172.89
302.05	2230.24
302.26	2201.57
302.47	2154.46
302.69	2097.12
302.90	2146.27
303.12	1988.58
303.33	2322.40
303.54	2353.12
303.76	2183.13
303.97	2189.28
304.19	2344.92
304.40	2052.06
304.61	2252.77
304.83	2256.86
305.04	2279.39
305.26	2205.66
305.47	2220.00
305.68	2150.37
305.90	2068.45
306.11	2271.20
306.33	2109.41
306.54	2068.45
306.75	2136.03
306.97	2086.88
307.18	2109.41
307.39	2099.17
307.61	2220.00
307.82	2226.14
308.04	2232.29
308.25	2072.54
308.46	2172.89
308.68	2228.19
308.89	2217.95
309.10	2297.82
309.32	2187.23
309.53	2191.33
309.74	2254.81
309.96	2201.57
310.17	2306.01
310.39	2039.78
310.60	2287.58
310.81	2113.50
311.03	2086.88
311.24	2283.49
311.45	2146.27
311.67	2355.16
311.88	2213.85
312.09	2152.42
312.31	2105.31
312.52	2144.22
312.73	2119.65
312.95	2088.93
313.16	2117.60
313.37	2240.48
313.59	2275.29
313.80	2220.00
314.01	2414.56
314.23	2050.02
314.44	2103.26
314.65	2058.21
314.87	2078.69
315.08	2127.84
315.29	2146.27
315.51	2109.41
315.72	2045.92
315.93	2263.01
316.15	2224.09
316.36	2179.04
316.57	2236.38
316.79	2138.08
317.00	2250.72
317.21	2220.00
317.43	2115.55
317.64	2195.42
317.85	2119.65
318.07	2086.88
318.28	2154.46
318.49	2389.98
318.70	2519.00
318.92	2408.41
319.13	2432.99
319.34	2420.70
319.56	2308.06
319.77	2387.93
319.98	2308.06
320.20	2326.49
320.41	2310.11
320.62	2293.72
320.83	2093.02
321.05	2306.01
321.26	2185.18
321.47	2152.42
321.69	2342.88
321.90	2095.07
322.11	2113.50
322.32	2211.81
322.54	2285.53
322.75	2187.23
322.96	2412.51
323.18	2050.02
323.39	2074.59
323.60	2152.42
323.81	2234.33
324.03	2185.18
324.24	2246.62
324.45	2142.18
324.66	2244.57
324.88	2318.30
325.09	2314.20
325.30	2197.47
325.52	2162.66
325.73	2195.42
325.94	2133.98
326.15	2086.88
326.37	2097.12
326.58	2248.67
326.79	2332.64
327.00	2109.41
327.22	2187.23
327.43	2176.99
327.64	2160.61
327.85	2217.95
328.07	2179.04
328.28	2387.93
328.49	2220.00
328.70	2146.27
328.92	2123.74
329.13	2174.94
329.34	2209.76
329.55	2346.97
329.76	2308.06
329.98	2136.03
330.19	2326.49
330.40	2269.15
330.61	2222.05
330.83	2328.54
331.04	2113.50
331.25	2207.71
331.46	2174.94
331.68	2113.50
331.89	2248.67
332.10	2125.79
332.31	2121.70
332.52	2236.38
332.74	2252.77
332.95	2060.26
333.16	2191.33
333.37	2301.92
333.58	2095.07
333.80	2131.94
334.01	2109.41
334.22	2150.37
334.43	2160.61
334.64	2170.85
334.86	2072.54
335.07	2095.07
335.28	2308.06
335.49	2111.46
335.70	2226.14
335.92	2389.98
336.13	2488.28
336.34	2193.37
336.55	2164.70
336.76	2236.38
336.98	2064.35
337.19	2172.89
337.40	2277.34
337.61	2439.13
337.82	2265.05
338.04	2263.01
338.25	2084.83
338.46	2246.62
338.67	2176.99
338.88	2107.36
339.09	2142.18
339.31	2197.47
339.52	2123.74
339.73	2066.40
339.94	2240.48
340.15	2299.87
340.36	2148.32
340.58	2234.33
340.79	2086.88
341.00	2248.67
341.21	2140.13
341.42	2332.64
341.63	2224.09
341.85	2236.38
342.06	2234.33
342.27	2154.46
342.48	2183.13
342.69	2039.78
342.90	2269.15
343.12	2326.49
343.33	2058.21
343.54	2258.91
343.75	2275.29
343.96	2222.05
344.17	2133.98
344.38	2170.85
344.60	1998.82
344.81	2138.08
345.02	2207.71
345.23	2201.57
345.44	2432.99
345.65	2160.61
345.86	2158.56
346.07	2154.46
346.29	2136.03
346.50	2162.66
346.71	2248.67
346.92	2351.07
347.13	2414.56
347.34	2101.22
347.55	2140.13
347.76	2201.57
347.98	2107.36
348.19	2117.60
348.40	2195.42
348.61	2183.13
348.82	2375.64
349.03	2242.53
349.24	2056.16
349.45	2437.08
349.66	1986.53
349.88	2211.81
350.09	2136.03
350.30	2359.26
350.51	2260.96
350.72	2252.77
350.93	2217.95
351.14	2195.42
351.35	2170.85
351.56	2211.81
351.77	2191.33
351.99	2228.19
352.20	2303.96
352.41	2248.67
352.62	2090.98
352.83	2170.85
353.04	2197.47
353.25	2080.74
353.46	2230.24
353.67	2357.21
353.88	2023.39
354.09	2146.27
354.30	2215.90
354.52	2287.58
354.73	2201.57
354.94	2197.47
355.15	2162.66
355.36	2351.07
355.57	2146.27
355.78	2195.42
355.99	2170.85
356.20	2193.37
356.41	2285.53
356.62	2250.72
356.83	2127.84
357.04	2367.45
357.25	2043.87
357.46	2179.04
357.68	2052.06
357.89	2113.50
358.10	2195.42
358.31	2111.46
358.52	2138.08
358.73	2129.89
358.94	2144.22
359.15	2195.42
359.36	2275.29
359.57	2146.27
359.78	2164.70
359.99	2234.33
360.20	2039.78
360.41	2234.33
360.62	2228.19
360.83	2121.70
361.04	2201.57
361.25	2191.33
361.46	2383.84
361.67	2316.25
361.88	2226.14
362.09	2285.53
362.30	2263.01
362.51	2170.85
362.72	2248.67
362.93	2260.96
363.14	2256.86
363.35	2162.66
363.56	2111.46
363.78	2332.64
363.99	2281.44
364.20	2113.50
364.41	2295.77
364.62	2342.88
364.83	2260.96
365.04	2136.03
365.25	2183.13
365.46	2336.73
365.67	2152.42
365.88	2236.38
366.09	2109.41
366.30	2152.42
366.51	2258.91
366.72	2047.97
366.93	2150.37
367.14	2195.42
367.35	2379.74
367.56	2230.24
367.77	2244.57
367.98	2133.98
368.18	2195.42
368.39	2242.53
368.60	2140.13
368.81	2201.57
369.02	2174.94
369.23	2152.42
369.44	2039.78
369.65	2176.99
369.86	2238.43
370.07	2232.29
370.28	2068.45
370.49	2279.39
370.70	2234.33
370.91	2146.27
371.12	2054.11
371.33	2340.83
371.54	2205.66
371.75	2228.19
371.96	2029.54
372.17	2240.48
372.38	2213.85
372.59	2271.20
372.80	2140.13
373.01	2152.42
373.22	2263.01
373.43	2226.14
373.64	2068.45
373.85	2330.59
374.06	2330.59
374.26	2310.11
374.47	2203.61
374.68	2271.20
374.89	2244.57
375.10	2129.89
375.31	2269.15
375.52	2236.38
375.73	2174.94
375.94	2050.02
376.15	2295.77
376.36	2105.31
376.57	2168.80
376.78	2232.29
376.99	2154.46
377.20	2310.11
377.40	2121.70
377.61	2318.30
377.82	2097.12
378.03	2349.02
378.24	2314.20
378.45	2179.04
378.66	2217.95
378.87	2078.69
379.08	2062.30
379.29	2133.98
379.50	2197.47
379.71	2140.13
379.91	2215.90
380.12	2220.00
380.33	2133.98
380.54	2176.99
380.75	2170.85
380.96	2168.80
381.17	2287.58
381.38	2236.38
381.59	2267.10
381.80	2183.13
382.00	2381.79
382.21	2277.34
382.42	2389.98
382.63	2437.08
382.84	2191.33
383.05	2314.20
383.26	2402.27
383.47	2211.81
383.68	2279.39
383.88	2281.44
384.09	2222.05
384.30	2252.77
384.51	2193.37
384.72	2207.71
384.93	2103.26
385.14	2166.75
385.35	2330.59
385.55	2015.20
385.76	2254.81
385.97	2168.80
386.18	2029.54
386.39	2142.18
386.60	2187.23
386.81	2172.89
387.02	2088.93
387.22	2105.31
387.43	2351.07
387.64	2263.01
387.85	2342.88
388.06	2455.51
388.27	4186.05
388.48	8599.42
388.68	12406.59
388.89	14819.10
389.10	15834.89
389.31	14714.66
389.52	11427.67
389.73	10098.53
389.93	8912.76
390.14	8163.20
390.35	7446.41
390.56	6674.33
390.77	5322.67
390.98	4218.82
391.18	3358.67
391.39	2725.85
391.60	2404.32
391.81	2363.36
392.02	2240.48
392.23	2363.36
392.43	2295.77
392.64	2408.41
392.85	2113.50
393.06	2318.30
393.27	2234.33
393.47	2164.70
393.68	2230.24
393.89	2152.42
394.10	2441.18
394.31	2193.37
394.52	2142.18
394.72	2111.46
394.93	2416.60
395.14	2154.46
395.35	2226.14
395.56	2095.07
395.76	2207.71
395.97	2162.66
396.18	2258.91
396.39	2381.79
396.60	2746.33
396.80	2496.47
397.01	2320.35
397.22	2387.93
397.43	2322.40
397.64	2224.09
397.84	2336.73
398.05	2428.89
398.26	2252.77
398.47	2344.92
398.67	2301.92
398.88	2174.94
399.09	2346.97
399.30	2095.07
399.51	2217.95
399.71	2095.07
399.92	2244.57
400.13	2154.46
400.34	2125.79
400.54	2250.72
400.75	2299.87
400.96	2248.67
401.17	2381.79
401.37	2234.33
401.58	2265.05
401.79	2189.28
402.00	2314.20
402.21	2545.63
402.41	2613.21
402.62	2537.43
402.83	2643.93
403.04	2641.88
403.24	2750.42
403.45	2361.31
403.66	2412.51
403.87	2455.51
404.07	2449.37
404.28	2467.80
404.49	2439.13
404.70	2263.01
404.90	2277.34
405.11	2176.99
405.32	2248.67
405.52	2226.14
405.73	2150.37
405.94	2070.50
406.15	2125.79
406.35	2228.19
406.56	2281.44
406.77	2244.57
406.98	2187.23
407.18	2111.46
407.39	2340.83
407.60	2156.51
407.80	2176.99
408.01	2207.71
408.22	2189.28
408.43	2138.08
408.63	2230.24
408.84	2318.30
409.05	2330.59
409.25	2152.42
409.46	2113.50
409.67	2152.42
409.88	2158.56
410.08	2217.95
410.29	2146.27
410.50	2238.43
410.70	2203.61
410.91	2113.50
411.12	2166.75
411.32	2121.70
411.53	2162.66
411.74	2291.68
411.95	2301.92
412.15	2318.30
412.36	2377.69
412.57	2293.72
412.77	2342.88
412.98	2209.76
413.19	2199.52
413.39	2260.96
413.60	2320.35
413.81	2320.35
414.01	2144.22
414.22	2238.43
414.43	2265.05
414.63	2316.25
414.84	2297.82
415.05	2179.04
415.25	2064.35
415.46	2254.81
415.67	2105.31
415.87	2199.52
416.08	2170.85
416.29	2113.50
416.49	2260.96
416.70	2189.28
416.91	2088.93
417.11	2168.80
417.32	2267.10
417.53	2244.57
417.73	2246.62
417.94	2199.52
418.15	2228.19
418.35	2193.37
418.56	2234.33
418.77	2402.27
418.97	2160.61
419.18	2150.37
419.38	2064.35
419.59	2185.18
419.80	2287.58
420.00	2164.70
420.21	2189.28
420.42	2265.05
420.62	2240.48
420.83	2043.87
421.04	2215.90
421.24	2224.09
421.45	2252.77
421.65	2185.18
421.86	2131.94
422.07	2349.02
422.27	2230.24
422.48	2220.00
422.69	2082.78
422.89	2119.65
423.10	2230.24
423.30	2093.02
423.51	2160.61
423.72	2201.57
423.92	2250.72
424.13	2109.41
424.33	2258.91
424.54	2277.34
424.75	2252.77
424.95	2342.88
425.16	2275.29
425.36	2127.84
425.57	2285.53
425.78	2310.11
425.98	2211.81
426.19	2183.13
426.39	2064.35
426.60	2187.23
426.81	2267.10
427.01	2209.76
427.22	2082.78
427.42	2033.63
427.63	2062.30
427.83	2299.87
428.04	2346.97
428.25	2279.39
428.45	2299.87
428.66	2400.22
428.86	2131.94
429.07	2176.99
429.28	2203.61
429.48	2209.76
429.69	2109.41
429.89	2242.53
430.10	2056.16
430.30	2256.86
430.51	2332.64
430.71	2195.42
430.92	2162.66
431.13	2179.04
431.33	2275.29
431.54	2234.33
431.74	2318.30
431.95	2432.99
432.15	2131.94
432.36	2170.85
432.56	2215.90
432.77	2332.64
432.98	2289.63
433.18	2236.38
433.39	2170.85
433.59	2201.57
433.80	2322.40
434.00	2383.84
434.21	2207.71
434.41	2078.69
434.62	2392.03
434.82	2125.79
435.03	2062.30
435.23	2146.27
435.44	2111.46
435.64	2230.24
435.85	2220.00
436.06	2209.76
436.26	2277.34
436.47	2193.37
436.67	2207.71
436.88	2187.23
437.08	2279.39
437.29	2346.97
437.49	2170.85
437.70	2359.26
437.90	2209.76
438.11	2398.17
438.31	2336.73
438.52	2371.55
438.72	2338.78
438.93	2512.86
439.13	2334.68
439.34	2367.45
439.54	2211.81
439.75	2326.49
439.95	2236.38
440.16	2111.46
440.36	2275.29
440.57	2293.72
440.77	2248.67
440.98	2195.42
441.18	2224.09
441.39	2162.66
441.59	2074.59
441.80	2369.50
442.00	2191.33
442.21	2359.26
442.41	2115.55
442.62	2263.01
442.82	2103.26
443.02	2179.04
443.23	2205.66
443.43	2215.90
443.64	2396.12
443.84	2146.27
444.05	2402.27
444.25	2244.57
444.46	2277.34
444.66	2236.38
444.87	2375.64
445.07	2058.21
445.28	2199.52
445.48	2232.29
445.69	2275.29
445.89	2471.90
446.09	2326.49
446.30	2473.95
446.50	2801.62
446.71	4396.99
446.91	5679.02
447.12	6434.72
447.32	6680.47
447.53	6324.13
447.73	5142.45
447.93	4577.21
448.14	4200.38
448.34	3995.59
448.55	3502.03
448.75	3583.95
448.96	3426.25
449.16	2957.27
449.36	2768.85
449.57	2527.19
449.77	2351.07
449.98	2240.48
450.18	2273.25
450.39	2301.92
450.59	2265.05
450.79	2158.56
451.00	2131.94
451.20	2248.67
451.41	2152.42
451.61	2256.86
451.81	2228.19
452.02	2170.85
452.22	2164.70
452.43	2123.74
