SpectraSuite Data File
++++++++++++++++++++++++++++++++++++
Date: Thu May 05 12:34:56 CEST 2016
User: root
Dark Spectrum Present: No
Reference Spectrum Present: No
Number of Sampled Component Spectra: 1
Spectrometers: USB4C02835
Integration Time (usec): 100000 (USB4C02835)
Spectra Averaged: 1 (USB4C02835)
Boxcar Smoothing: 0 (USB4C02835)
Correct for Electrical Dark: No (USB4C02835)
Strobe/Lamp Enabled: No (USB4C02835)
Correct for Detector Non-linearity: No (USB4C02835)
Correct for Stray Light: No (USB4C02835)
Number of Pixels in Processed Spectrum: 3648
>>>>>Begin Processed Spectral Data<<<<<
177.47	1771.49
177.69	1771.49
177.91	1771.49
178.13	1775.59
178.36	1734.63
178.58	2056.16
178.80	2195.42
179.02	2062.30
179.24	2088.93
179.46	2105.31
179.68	2199.52
179.90	2248.67
180.13	2277.34
180.35	2062.30
180.57	2127.84
180.79	2334.68
181.01	2176.99
181.23	2244.57
181.45	2185.18
181.67	2197.47
181.90	2265.05
182.12	2133.98
182.34	2033.63
182.56	2340.83
182.78	2314.20
183.00	2078.69
183.22	2113.50
183.44	1980.39
183.66	2461.66
183.89	2187.23
184.11	2144.22
184.33	2248.67
184.55	2392.03
184.77	2203.61
184.99	2191.33
185.21	2133.98
185.43	2459.61
185.65	2074.59
185.87	2117.60
186.10	2379.74
186.32	2398.17
186.54	2258.91
186.76	2236.38
186.98	2306.01
187.20	2205.66
187.42	2158.56
187.64	2113.50
187.86	2250.72
188.08	2254.81
188.30	2072.54
188.52	2125.79
188.75	2260.96
188.97	2322.40
189.19	2062.30
189.41	2097.12
189.63	2166.75
189.85	2150.37
190.07	2041.82
190.29	2023.39
190.51	2205.66
190.73	2080.74
190.95	2185.18
191.17	2156.51
191.39	2056.16
191.61	2195.42
191.84	2113.50
192.06	2166.75
192.28	2021.35
192.50	2445.27
192.72	2191.33
192.94	2162.66
193.16	2326.49
193.38	2283.49
193.60	2109.41
193.82	2142.18
194.04	2291.68
194.26	2224.09
194.48	2084.83
194.70	2174.94
194.92	2164.70
195.14	2236.38
195.36	2203.61
195.58	2138.08
195.80	2115.55
196.02	2086.88
196.24	2076.64
196.46	2158.56
196.69	2162.66
196.91	2381.79
197.13	2093.02
197.35	2105.31
197.57	2351.07
197.79	2244.57
198.01	2213.85
198.23	2164.70
198.45	2209.76
198.67	2076.64
198.89	2021.35
199.11	2185.18
199.33	2097.12
199.55	1968.10
199.77	2029.54
199.99	2211.81
200.21	2138.08
200.43	2197.47
200.65	1996.77
200.87	1961.95
201.09	2142.18
201.31	2158.56
201.53	2197.47
201.75	2236.38
201.97	2187.23
202.19	2195.42
202.41	2142.18
202.63	2318.30
202.85	2267.10
203.07	2207.71
203.29	2076.64
203.51	2052.06
203.73	2103.26
203.95	2449.37
204.17	2152.42
204.39	2197.47
204.61	2193.37
204.83	2187.23
205.05	2187.23
205.27	2185.18
205.49	2365.40
205.71	2228.19
205.93	2039.78
206.15	2105.31
206.37	2195.42
206.59	2228.19
206.81	2029.54
207.03	2072.54
207.25	2072.54
207.47	2211.81
207.69	2140.13
207.91	2295.77
208.13	2293.72
208.34	2131.94
208.56	2056.16
208.78	2215.90
209.00	2142.18
209.22	2242.53
209.44	2064.35
209.66	2064.35
209.88	2281.44
210.10	2174.94
210.32	2144.22
210.54	2209.76
210.76	2252.77
210.98	2279.39
211.20	1990.63
211.42	2168.80
211.64	2322.40
211.86	2240.48
212.08	2217.95
212.30	2148.32
212.52	2072.54
212.74	2166.75
212.96	2133.98
213.17	2228.19
213.39	2258.91
213.61	2389.98
213.83	2160.61
214.05	2099.17
214.27	2283.49
214.49	2078.69
214.71	2129.89
214.93	2236.38
215.15	2166.75
215.37	2265.05
215.59	2109.41
215.81	2129.89
216.03	2289.63
216.24	2199.52
216.46	2140.13
216.68	2215.90
216.90	2238.43
217.12	2269.15
217.34	2115.55
217.56	2176.99
217.78	2314.20
218.00	2215.90
218.22	2150.37
218.44	2199.52
218.66	2189.28
218.87	2449.37
219.09	2138.08
219.31	2121.70
219.53	2209.76
219.75	2129.89
219.97	2146.27
220.19	2179.04
220.41	2189.28
220.63	2246.62
220.85	2140.13
221.06	2101.22
221.28	2228.19
221.50	2252.77
221.72	2113.50
221.94	2025.44
222.16	2203.61
222.38	2269.15
222.60	2129.89
222.82	2187.23
223.03	2185.18
223.25	2125.79
223.47	2154.46
223.69	2324.44
223.91	2273.25
224.13	2189.28
224.35	2107.36
224.57	2181.09
224.78	2211.81
225.00	2045.92
225.22	2136.03
225.44	2115.55
225.66	2322.40
225.88	2129.89
226.10	2256.86
226.32	2291.68
226.53	2273.25
226.75	2140.13
226.97	2142.18
227.19	2133.98
227.41	2146.27
227.63	2179.04
227.85	2039.78
228.06	2181.09
228.28	2197.47
228.50	2234.33
228.72	2023.39
228.94	2111.46
229.16	2070.50
229.37	2093.02
229.59	2062.30
229.81	2295.77
230.03	2199.52
230.25	2045.92
230.47	2093.02
230.69	2080.74
230.90	2244.57
231.12	2099.17
231.34	2191.33
231.56	2220.00
231.78	2078.69
232.00	2140.13
232.21	2162.66
232.43	2097.12
232.65	1996.77
232.87	2203.61
233.09	2107.36
233.30	2168.80
233.52	2340.83
233.74	2191.33
233.96	2093.02
234.18	2144.22
234.40	2123.74
234.61	2424.80
234.83	2004.96
235.05	2023.39
235.27	2392.03
235.49	2258.91
235.70	2103.26
235.92	2226.14
236.14	2291.68
236.36	2375.64
236.58	2146.27
236.79	2260.96
237.01	2211.81
237.23	2129.89
237.45	2303.96
237.67	2070.50
237.88	2209.76
238.10	2359.26
238.32	2023.39
238.54	2170.85
238.76	2203.61
238.97	2084.83
239.19	2146.27
239.41	2279.39
239.63	2250.72
239.85	2199.52
240.06	2136.03
240.28	2154.46
240.50	2201.57
240.72	2199.52
240.93	2123.74
241.15	2197.47
241.37	2183.13
241.59	2299.87
241.81	2203.61
242.02	2193.37
242.24	2248.67
242.46	2289.63
242.68	1990.63
242.89	2144.22
243.11	2209.76
243.33	2203.61
243.55	2189.28
243.76	2176.99
243.98	2103.26
244.20	2162.66
244.42	2076.64
244.64	2076.64
244.85	2043.87
245.07	2103.26
245.29	2252.77
245.51	2101.22
245.72	2160.61
245.94	2283.49
246.16	2115.55
246.38	2269.15
246.59	2160.61
246.81	2197.47
247.03	2123.74
247.24	1994.72
247.46	2138.08
247.68	2125.79
247.90	2080.74
248.11	2097.12
248.33	2326.49
248.55	2154.46
248.77	2267.10
248.98	2244.57
249.20	2322.40
249.42	2275.29
249.64	2179.04
249.85	2099.17
250.07	2095.07
250.29	2226.14
250.50	2191.33
250.72	2056.16
250.94	2191.33
251.16	2387.93
251.37	2209.76
251.59	2191.33
251.81	2220.00
252.02	2277.34
252.24	2097.12
252.46	2258.91
252.68	2107.36
252.89	2158.56
253.11	1945.57
253.33	2277.34
253.54	2310.11
253.76	2101.22
253.98	2058.21
254.20	2054.11
254.41	2027.49
254.63	2170.85
254.85	2019.30
255.06	2099.17
255.28	2260.96
255.50	2138.08
255.71	2056.16
255.93	2017.25
256.15	2107.36
256.36	2295.77
256.58	2093.02
256.80	2228.19
257.02	2191.33
257.23	2121.70
257.45	2070.50
257.67	2183.13
257.88	2150.37
258.10	2228.19
258.32	2080.74
258.53	2191.33
258.75	2342.88
258.97	2187.23
259.18	2146.27
259.40	2113.50
259.62	2379.74
259.83	2396.12
260.05	2189.28
260.27	2506.71
260.48	2332.64
260.70	2095.07
260.92	2136.03
261.13	2160.61
261.35	2226.14
261.57	2250.72
261.78	2007.01
262.00	2070.50
262.22	2297.82
262.43	2111.46
262.65	2064.35
262.86	2183.13
263.08	2424.80
263.30	2187.23
263.51	2025.44
263.73	2039.78
263.95	2383.84
264.16	2115.55
264.38	1974.24
264.60	2162.66
264.81	2256.86
265.03	2201.57
265.25	2314.20
265.46	2117.60
265.68	2289.63
265.89	2121.70
266.11	1961.95
266.33	2187.23
266.54	2273.25
266.76	2248.67
266.98	2191.33
267.19	2320.35
267.41	2246.62
267.62	2213.85
267.84	1992.67
268.06	2197.47
268.27	2205.66
268.49	2340.83
268.70	2273.25
268.92	2127.84
269.14	2062.30
269.35	2095.07
269.57	2136.03
269.79	2203.61
270.00	2162.66
270.22	2338.78
270.43	2064.35
270.65	1966.05
270.87	2277.34
271.08	2301.92
271.30	2150.37
271.51	2113.50
271.73	2244.57
271.95	2289.63
272.16	2084.83
272.38	2160.61
272.59	2195.42
272.81	2269.15
273.02	2070.50
273.24	2138.08
273.46	2320.35
273.67	2125.79
273.89	2070.50
274.10	2064.35
274.32	2312.16
274.54	2193.37
274.75	2213.85
274.97	2101.22
275.18	2248.67
275.40	2217.95
275.61	2162.66
275.83	2238.43
276.05	2125.79
276.26	2166.75
276.48	2136.03
276.69	2127.84
276.91	2174.94
277.12	2277.34
277.34	2248.67
277.55	2281.44
277.77	2185.18
277.99	2199.52
278.20	2099.17
278.42	2076.64
278.63	2111.46
278.85	2156.51
279.06	2121.70
279.28	2201.57
279.49	2342.88
279.71	2256.86
279.93	2191.33
280.14	2185.18
280.36	2101.22
280.57	2230.24
280.79	2209.76
281.00	2150.37
281.22	2088.93
281.43	2277.34
281.65	1990.63
281.86	2074.59
282.08	2324.44
282.29	2344.92
282.51	2105.31
282.73	2070.50
282.94	2050.02
283.16	2277.34
283.37	2297.82
283.59	2258.91
283.80	2291.68
284.02	2138.08
284.23	2193.37
284.45	2119.65
284.66	2193.37
284.88	2170.85
285.09	2183.13
285.31	2256.86
285.52	2179.04
285.74	2015.20
285.95	2277.34
286.17	2209.76
286.38	2353.12
286.60	2160.61
286.81	2136.03
287.03	2195.42
287.24	2230.24
287.46	2326.49
287.67	2232.29
287.89	2281.44
288.10	2150.37
288.32	2260.96
288.53	2414.56
288.75	2248.67
288.96	2277.34
289.18	2127.84
289.39	2185.18
289.61	2314.20
289.82	2291.68
290.04	2359.26
290.25	2101.22
290.47	2269.15
290.68	2168.80
290.90	2326.49
291.11	2037.73
291.33	2281.44
291.54	2064.35
291.76	2103.26
291.97	2220.00
292.18	2226.14
292.40	2121.70
292.61	2133.98
292.83	2383.84
293.04	2142.18
293.26	2248.67
293.47	2179.04
293.69	2097.12
293.90	2117.60
294.12	2234.33
294.33	2248.67
294.55	2252.77
294.76	2256.86
294.97	2314.20
295.19	2418.65
295.40	2086.88
295.62	2207.71
295.83	2258.91
296.05	2152.42
296.26	2295.77
296.48	2160.61
296.69	2172.89
296.90	2238.43
297.12	2179.04
297.33	2250.72
297.55	2283.49
297.76	2344.92
297.98	2312.16
298.19	2254.81
298.41	2215.90
298.62	2103.26
298.83	2258.91
299.05	2183.13
299.26	2195.42
299.48	2138.08
299.69	2146.27
299.90	2220.00
300.12	2113.50
300.33	2185.18
300.55	2156.51
300.76	2199.52
300.98	2086.88
301.19	2205.66
301.40	2138.08
301.62	2136.03
301.83	2183.13
302.05	2197.47
302.26	2187.23
302.47	2232.29
302.69	2133.98
302.90	2203.61
303.12	1972.19
303.33	2306.01
303.54	2316.25
303.76	2166.75
303.97	2187.23
304.19	2342.88
304.40	2064.35
304.61	2213.85
304.83	2332.64
305.04	2256.86
305.26	2224.09
305.47	2209.76
305.68	2142.18
305.90	2101.22
306.11	2336.73
306.33	2248.67
306.54	2156.51
306.75	2107.36
306.97	2033.63
307.18	2086.88
307.39	2115.55
307.61	2222.05
307.82	2146.27
308.04	2295.77
308.25	2095.07
308.46	2230.24
308.68	2215.90
308.89	2195.42
309.10	2365.40
309.32	2267.10
309.53	2168.80
309.74	2125.79
309.96	2160.61
310.17	2277.34
310.39	2121.70
310.60	2295.77
310.81	2185.18
311.03	2015.20
311.24	2236.38
311.45	2162.66
311.67	2295.77
311.88	2201.57
312.09	2138.08
312.31	2195.42
312.52	2181.09
312.73	2117.60
312.95	2136.03
313.16	2162.66
313.37	2256.86
313.59	2242.53
313.80	2220.00
314.01	2367.45
314.23	2170.85
314.44	2119.65
314.65	2097.12
314.87	2070.50
315.08	2097.12
315.29	2166.75
315.51	2072.54
315.72	2088.93
315.93	2269.15
316.15	2191.33
316.36	2133.98
316.57	2222.05
316.79	2187.23
317.00	2138.08
317.21	2267.10
317.43	2176.99
317.64	2193.37
317.85	2080.74
318.07	2101.22
318.28	2156.51
318.49	2291.68
318.70	2533.34
318.92	2449.37
319.13	2400.22
319.34	2426.84
319.56	2250.72
319.77	2318.30
319.98	2373.60
320.20	2312.16
320.41	2215.90
320.62	2287.58
320.83	2156.51
321.05	2383.84
321.26	2246.62
321.47	2293.72
321.69	2195.42
321.90	1990.63
322.11	2154.46
322.32	2170.85
322.54	2334.68
322.75	2146.27
322.96	2508.76
323.18	2037.73
323.39	1988.58
323.60	2101.22
323.81	2250.72
324.03	2127.84
324.24	2187.23
324.45	2146.27
324.66	2150.37
324.88	2316.25
325.09	2377.69
325.30	2129.89
325.52	2138.08
325.73	2213.85
325.94	2113.50
326.15	2072.54
326.37	2093.02
326.58	2234.33
326.79	2287.58
327.00	2119.65
327.22	2140.13
327.43	2220.00
327.64	2076.64
327.85	2248.67
328.07	2265.05
328.28	2410.46
328.49	2166.75
328.70	2084.83
328.92	2248.67
329.13	2170.85
329.34	2242.53
329.55	2287.58
329.76	2228.19
329.98	2228.19
330.19	2293.72
330.40	2207.71
330.61	2215.90
330.83	2293.72
331.04	2088.93
331.25	2166.75
331.46	2152.42
331.68	2119.65
331.89	2293.72
332.10	2207.71
332.31	2070.50
332.52	2160.61
332.74	2297.82
332.95	2025.44
333.16	2113.50
333.37	2207.71
333.58	2078.69
333.80	2207.71
334.01	2019.30
334.22	2144.22
334.43	2111.46
334.64	2160.61
334.86	2113.50
335.07	2117.60
335.28	2361.31
335.49	2090.98
335.70	2181.09
335.92	2334.68
336.13	2398.17
336.34	2273.25
336.55	2195.42
336.76	2267.10
336.98	2031.58
337.19	2211.81
337.40	2289.63
337.61	2377.69
337.82	2062.30
338.04	2342.88
338.25	2105.31
338.46	2103.26
338.67	2154.46
338.88	2035.68
339.09	2121.70
339.31	2213.85
339.52	2074.59
339.73	2140.13
339.94	2244.57
340.15	2287.58
340.36	2052.06
340.58	2162.66
340.79	2084.83
341.00	2314.20
341.21	2105.31
341.42	2369.50
341.63	2168.80
341.85	2191.33
342.06	2088.93
342.27	2068.45
342.48	2258.91
342.69	2015.20
342.90	2248.67
343.12	2252.77
343.33	2164.70
343.54	2277.34
343.75	2297.82
343.96	2162.66
344.17	2076.64
344.38	2052.06
344.60	2133.98
344.81	2066.40
345.02	2138.08
345.23	2283.49
345.44	2412.51
345.65	2260.96
345.86	2201.57
346.07	2195.42
346.29	2146.27
346.50	2293.72
346.71	2193.37
346.92	2346.97
347.13	2449.37
347.34	2248.67
347.55	2183.13
347.76	2195.42
347.98	2103.26
348.19	2117.60
348.40	2353.12
348.61	2195.42
348.82	2353.12
349.03	2263.01
349.24	2099.17
349.45	2338.78
349.66	2031.58
349.88	2131.94
350.09	2133.98
350.30	2387.93
350.51	2303.96
350.72	2138.08
350.93	2232.29
351.14	2211.81
351.35	2156.51
351.56	2203.61
351.77	2226.14
351.99	2191.33
352.20	2275.29
352.41	2351.07
352.62	2107.36
352.83	2234.33
353.04	2097.12
353.25	2052.06
353.46	2250.72
353.67	2289.63
353.88	2025.44
354.09	2176.99
354.30	2164.70
354.52	2242.53
354.73	2207.71
354.94	2144.22
355.15	2275.29
355.36	2308.06
355.57	2150.37
355.78	2191.33
355.99	2101.22
356.20	2166.75
356.41	2328.54
356.62	2220.00
356.83	2162.66
357.04	2287.58
357.25	2019.30
357.46	2144.22
357.68	2123.74
357.89	2107.36
358.10	2152.42
358.31	2168.80
358.52	2150.37
358.73	2047.97
358.94	2027.49
359.15	2133.98
359.36	2166.75
359.57	2248.67
359.78	2144.22
359.99	2176.99
360.20	2156.51
360.41	2191.33
360.62	2238.43
360.83	2271.20
361.04	2150.37
361.25	2236.38
361.46	2318.30
361.67	2252.77
361.88	2140.13
362.09	2316.25
362.30	2172.89
362.51	2133.98
362.72	2250.72
362.93	2265.05
363.14	2201.57
363.35	2119.65
363.56	2152.42
363.78	2263.01
363.99	2330.59
364.20	2101.22
364.41	2217.95
364.62	2445.27
364.83	2152.42
365.04	2127.84
365.25	2107.36
365.46	2392.03
365.67	2242.53
365.88	2099.17
366.09	2174.94
366.30	2107.36
366.51	2166.75
366.72	2080.74
366.93	2156.51
367.14	2162.66
367.35	2357.21
367.56	2168.80
367.77	2269.15
367.98	2226.14
368.18	2234.33
368.39	2283.49
368.60	2023.39
368.81	2279.39
369.02	2168.80
369.23	2142.18
369.44	2064.35
369.65	2129.89
369.86	2258.91
370.07	2279.39
370.28	2080.74
370.49	2273.25
370.70	2291.68
370.91	2127.84
371.12	2082.78
371.33	2303.96
371.54	2193.37
371.75	2293.72
371.96	2007.01
372.17	2310.11
372.38	2160.61
372.59	2168.80
372.80	2121.70
373.01	2240.48
373.22	2310.11
373.43	2166.75
373.64	2093.02
373.85	2367.45
374.06	2332.64
374.26	2246.62
374.47	2197.47
374.68	2299.87
374.89	2236.38
375.10	2111.46
375.31	2285.53
375.52	2170.85
375.73	2170.85
375.94	2070.50
376.15	2351.07
376.36	2086.88
376.57	2043.87
376.78	2193.37
376.99	2232.29
377.20	2232.29
377.40	2168.80
377.61	2385.88
377.82	2150.37
378.03	2342.88
378.24	2220.00
378.45	2230.24
378.66	2183.13
378.87	2056.16
379.08	2064.35
379.29	2179.04
379.50	2310.11
379.71	2197.47
379.91	2220.00
380.12	2123.74
380.33	2150.37
380.54	2220.00
380.75	2150.37
380.96	2150.37
381.17	2281.44
381.38	2209.76
381.59	2289.63
381.80	2154.46
382.00	2385.88
382.21	2265.05
382.42	2318.30
382.63	2449.37
382.84	2267.10
383.05	2351.07
383.26	2355.16
383.47	2199.52
383.68	2256.86
383.88	2265.05
384.09	2207.71
384.30	2359.26
384.51	2195.42
384.72	2148.32
384.93	2031.58
385.14	2205.66
385.35	2260.96
385.55	2095.07
385.76	2310.11
385.97	2248.67
386.18	2088.93
386.39	2080.74
386.60	2176.99
386.81	2117.60
387.02	2170.85
387.22	2090.98
387.43	2328.54
387.64	2269.15
387.85	2326.49
388.06	2469.85
388.27	3979.20
388.48	8669.05
388.68	12173.13
388.89	14688.03
389.10	15818.51
389.31	14761.76
389.52	11566.93
389.73	10059.62
389.93	8943.48
390.14	8222.59
390.35	7382.93
390.56	6504.35
390.77	5480.36
390.98	4091.84
391.18	3309.52
391.39	2848.72
391.60	2297.82
391.81	2328.54
392.02	2164.70
392.23	2379.74
392.43	2256.86
392.64	2281.44
392.85	2187.23
393.06	2340.83
393.27	2156.51
393.47	2082.78
393.68	2187.23
393.89	2203.61
394.10	2367.45
394.31	2170.85
394.52	2185.18
394.72	2170.85
394.93	2332.64
395.14	2187.23
395.35	2308.06
395.56	2097.12
395.76	2152.42
395.97	2322.40
396.18	2285.53
396.39	2279.39
396.60	2584.54
396.80	2416.60
397.01	2297.82
397.22	2373.60
397.43	2387.93
397.64	2152.42
397.84	2328.54
398.05	2416.60
398.26	2256.86
398.47	2310.11
398.67	2263.01
398.88	2230.24
399.09	2228.19
399.30	2162.66
399.51	2310.11
399.71	2150.37
399.92	2117.60
400.13	2189.28
400.34	2287.58
400.54	2275.29
400.75	2375.64
400.96	2250.72
401.17	2365.40
401.37	2209.76
401.58	2084.83
401.79	2148.32
402.00	2387.93
402.21	2674.65
402.41	2449.37
402.62	2564.06
402.83	2719.70
403.04	2627.54
403.24	2729.94
403.45	2457.56
403.66	2562.01
403.87	2359.26
404.07	2551.77
404.28	2473.95
404.49	2496.47
404.70	2291.68
404.90	2306.01
405.11	2283.49
405.32	2299.87
405.52	2162.66
405.73	2088.93
405.94	2136.03
406.15	2176.99
406.35	2248.67
406.56	2281.44
406.77	2211.81
406.98	2183.13
407.18	2168.80
407.39	2334.68
407.60	2088.93
407.80	2265.05
408.01	2115.55
408.22	2250.72
408.43	2220.00
408.63	2189.28
408.84	2324.44
409.05	2275.29
409.25	2023.39
409.46	2127.84
409.67	2140.13
409.88	2220.00
410.08	2170.85
410.29	2179.04
410.50	2174.94
410.70	2250.72
410.91	2103.26
411.12	2310.11
411.32	2144.22
411.53	2093.02
411.74	2248.67
411.95	2279.39
412.15	2250.72
412.36	2346.97
412.57	2295.77
412.77	2351.07
412.98	2312.16
413.19	2209.76
413.39	2291.68
413.60	2252.77
413.81	2426.84
414.01	2113.50
414.22	2248.67
414.43	2181.09
414.63	2179.04
414.84	2185.18
415.05	2240.48
415.25	2095.07
415.46	2277.34
415.67	2183.13
415.87	2267.10
416.08	2131.94
416.29	2050.02
416.49	2271.20
416.70	2146.27
416.91	2113.50
417.11	2199.52
417.32	2344.92
417.53	2246.62
417.73	2281.44
417.94	2101.22
418.15	2240.48
418.35	2174.94
418.56	2195.42
418.77	2439.13
418.97	2197.47
419.18	2187.23
419.38	1984.48
419.59	2152.42
419.80	2258.91
420.00	2164.70
420.21	2240.48
420.42	2277.34
420.62	2232.29
420.83	2154.46
421.04	2193.37
421.24	2140.13
421.45	2267.10
421.65	2246.62
421.86	2176.99
422.07	2252.77
422.27	2203.61
422.48	2187.23
422.69	2066.40
422.89	2154.46
423.10	2185.18
423.30	2144.22
423.51	2179.04
423.72	2203.61
423.92	2346.97
424.13	2080.74
424.33	2277.34
424.54	2344.92
424.75	2263.01
424.95	2326.49
425.16	2236.38
425.36	2232.29
425.57	2322.40
425.78	2220.00
425.98	2281.44
426.19	2185.18
426.39	2170.85
426.60	2230.24
426.81	2332.64
427.01	2224.09
427.22	2133.98
427.42	2070.50
427.63	2084.83
427.83	2320.35
428.04	2389.98
428.25	2187.23
428.45	2283.49
428.66	2312.16
428.86	2209.76
429.07	2199.52
429.28	2160.61
429.48	2156.51
429.69	2133.98
429.89	2215.90
430.10	2078.69
430.30	2277.34
430.51	2322.40
430.71	2039.78
430.92	2138.08
431.13	2166.75
431.33	2164.70
431.54	2222.05
431.74	2394.08
431.95	2424.80
432.15	2164.70
432.36	2197.47
432.56	2191.33
432.77	2381.79
432.98	2349.02
433.18	2301.92
433.39	2228.19
433.59	2228.19
433.80	2359.26
434.00	2484.19
434.21	2158.56
434.41	2138.08
434.62	2441.18
434.82	2066.40
435.03	2162.66
435.23	2197.47
435.44	2037.73
435.64	2220.00
435.85	2285.53
436.06	2342.88
436.26	2242.53
436.47	2103.26
436.67	2054.11
436.88	2150.37
437.08	2275.29
437.29	2301.92
437.49	2191.33
437.70	2324.44
437.90	2236.38
438.11	2422.75
438.31	2295.77
438.52	2375.64
438.72	2439.13
438.93	2545.63
439.13	2406.36
439.34	2418.65
439.54	2232.29
439.75	2273.25
439.95	2287.58
440.16	2199.52
440.36	2240.48
440.57	2279.39
440.77	2209.76
440.98	2228.19
441.18	2271.20
441.39	2115.55
441.59	2144.22
441.80	2435.03
442.00	2170.85
442.21	2314.20
442.41	2021.35
442.62	2303.96
442.82	2103.26
443.02	2279.39
443.23	2248.67
443.43	2195.42
443.64	2285.53
443.84	2131.94
444.05	2365.40
444.25	2213.85
444.46	2154.46
444.66	2226.14
444.87	2295.77
445.07	2138.08
445.28	2211.81
445.48	2371.55
445.69	2314.20
445.89	2486.23
446.09	2310.11
446.30	2514.91
446.50	2818.00
446.71	4505.53
446.91	5533.61
447.12	6477.73
447.32	6715.29
447.53	6360.99
447.73	5164.98
447.93	4560.83
448.14	4245.44
448.34	3950.53
448.55	3626.95
448.75	3538.89
448.96	3340.24
449.16	3088.34
449.36	2854.87
449.57	2484.19
449.77	2342.88
449.98	2138.08
450.18	2283.49
450.39	2377.69
450.59	2330.59
450.79	2224.09
451.00	2150.37
451.20	2258.91
451.41	2105.31
451.61	2240.48
451.81	2121.70
452.02	2142.18
452.22	2146.27
452.43	2144.22
