SpectraSuite Data File
++++++++++++++++++++++++++++++++++++
Date: Thu May 05 12:34:57 CEST 2016
User: root
Dark Spectrum Present: No
Reference Spectrum Present: No
Number of Sampled Component Spectra: 1
Spectrometers: USB4C02835
Integration Time (usec): 100000 (USB4C02835)
Spectra Averaged: 1 (USB4C02835)
Boxcar Smoothing: 0 (USB4C02835)
Correct for Electrical Dark: No (USB4C02835)
Strobe/Lamp Enabled: No (USB4C02835)
Correct for Detector Non-linearity: No (USB4C02835)
Correct for Stray Light: No (USB4C02835)
Number of Pixels in Processed Spectrum: 3648
>>>>>Begin Processed Spectral Data<<<<<
177.47	1755.11
177.69	1755.11
177.91	1755.11
178.13	1841.12
178.36	1677.29
178.58	2113.50
178.80	2242.53
179.02	2097.12
179.24	2111.46
179.46	2109.41
179.68	2232.29
179.90	2160.61
180.13	2211.81
180.35	1994.72
180.57	2133.98
180.79	2297.82
181.01	2244.57
181.23	2183.13
181.45	2224.09
181.67	2203.61
181.90	2279.39
182.12	2113.50
182.34	2039.78
182.56	2226.14
182.78	2308.06
183.00	2154.46
183.22	2209.76
183.44	2062.30
183.66	2435.03
183.89	2265.05
184.11	2136.03
184.33	2265.05
184.55	2310.11
184.77	2164.70
184.99	2066.40
185.21	2170.85
185.43	2379.74
185.65	2121.70
185.87	2105.31
186.10	2365.40
186.32	2447.32
186.54	2136.03
186.76	2168.80
186.98	2303.96
187.20	2205.66
187.42	2047.97
187.64	2146.27
187.86	2318.30
188.08	2234.33
188.30	2129.89
188.52	2127.84
188.75	2332.64
188.97	2310.11
189.19	2039.78
189.41	2050.02
189.63	2244.57
189.85	2107.36
190.07	2025.44
190.29	1986.53
190.51	2258.91
190.73	2093.02
190.95	2166.75
191.17	2138.08
191.39	2101.22
191.61	2144.22
191.84	2074.59
192.06	2166.75
192.28	2103.26
192.50	2506.71
192.72	2162.66
192.94	2189.28
193.16	2226.14
193.38	2162.66
193.60	2062.30
193.82	2174.94
194.04	2283.49
194.26	2187.23
194.48	2136.03
194.70	2078.69
194.92	2166.75
195.14	2267.10
195.36	2056.16
195.58	2123.74
195.80	2138.08
196.02	2019.30
196.24	2101.22
196.46	2152.42
196.69	2101.22
196.91	2439.13
197.13	2113.50
197.35	2154.46
197.57	2318.30
197.79	2244.57
198.01	2170.85
198.23	2199.52
198.45	2224.09
198.67	2162.66
198.89	2056.16
199.11	2113.50
199.33	2078.69
199.55	2017.25
199.77	2062.30
199.99	2289.63
200.21	2240.48
200.43	2174.94
200.65	2023.39
200.87	1953.76
201.09	2185.18
201.31	2170.85
201.53	2260.96
201.75	2197.47
201.97	2185.18
202.19	2170.85
202.41	2242.53
202.63	2252.77
202.85	2193.37
203.07	2244.57
203.29	2172.89
203.51	2027.49
203.73	2037.73
203.95	2486.23
204.17	2136.03
204.39	2166.75
204.61	2228.19
204.83	2146.27
205.05	2236.38
205.27	2217.95
205.49	2330.59
205.71	2176.99
205.93	2064.35
206.15	2043.87
206.37	2193.37
206.59	2146.27
206.81	2033.63
207.03	2045.92
207.25	2115.55
207.47	2281.44
207.69	2117.60
207.91	2297.82
208.13	2277.34
208.34	2144.22
208.56	2039.78
208.78	2099.17
209.00	2166.75
209.22	2119.65
209.44	2154.46
209.66	2084.83
209.88	2158.56
210.10	2148.32
210.32	2103.26
210.54	2215.90
210.76	2185.18
210.98	2338.78
211.20	2017.25
211.42	2166.75
211.64	2316.25
211.86	2160.61
212.08	2138.08
212.30	2256.86
212.52	2148.32
212.74	2189.28
212.96	2119.65
213.17	2174.94
213.39	2258.91
213.61	2250.72
213.83	2199.52
214.05	2205.66
214.27	2336.73
214.49	2176.99
214.71	2107.36
214.93	2230.24
215.15	2185.18
215.37	2336.73
215.59	2109.41
215.81	2222.05
216.03	2260.96
216.24	2181.09
216.46	2154.46
216.68	2265.05
216.90	2220.00
217.12	2338.78
217.34	2170.85
217.56	2220.00
217.78	2340.83
218.00	2301.92
218.22	2187.23
218.44	2176.99
218.66	2142.18
218.87	2346.97
219.09	2105.31
219.31	2168.80
219.53	2250.72
219.75	2203.61
219.97	2123.74
220.19	2170.85
220.41	2131.94
220.63	2271.20
220.85	2136.03
221.06	2076.64
221.28	2344.92
221.50	2301.92
221.72	2181.09
221.94	2146.27
222.16	2232.29
222.38	2297.82
222.60	2148.32
222.82	2140.13
223.03	2197.47
223.25	2056.16
223.47	2187.23
223.69	2285.53
223.91	2220.00
224.13	2234.33
224.35	2072.54
224.57	2224.09
224.78	2248.67
225.00	2111.46
225.22	2148.32
225.44	2107.36
225.66	2234.33
225.88	2142.18
226.10	2211.81
226.32	2152.42
226.53	2303.96
226.75	2193.37
226.97	2129.89
227.19	2080.74
227.41	2045.92
227.63	2115.55
227.85	2050.02
228.06	2138.08
228.28	2138.08
228.50	2379.74
228.72	2062.30
228.94	2140.13
229.16	2097.12
229.37	2080.74
229.59	2086.88
229.81	2275.29
230.03	2109.41
230.25	2084.83
230.47	2105.31
230.69	2082.78
230.90	2308.06
231.12	2144.22
231.34	2127.84
231.56	2226.14
231.78	2086.88
232.00	2265.05
232.21	2119.65
232.43	2109.41
232.65	2013.15
232.87	2273.25
233.09	2121.70
233.30	2162.66
233.52	2301.92
233.74	2183.13
233.96	2215.90
234.18	2152.42
234.40	2111.46
234.61	2430.94
234.83	1974.24
235.05	2000.87
235.27	2373.60
235.49	2334.68
235.70	2113.50
235.92	2228.19
236.14	2207.71
236.36	2375.64
236.58	1972.19
236.79	2203.61
237.01	2183.13
237.23	2201.57
237.45	2357.21
237.67	2103.26
237.88	2174.94
238.10	2316.25
238.32	2056.16
238.54	2052.06
238.76	2217.95
238.97	2023.39
239.19	2064.35
239.41	2244.57
239.63	2277.34
239.85	2125.79
240.06	2111.46
240.28	2101.22
240.50	2248.67
240.72	2230.24
240.93	2103.26
241.15	2226.14
241.37	2240.48
241.59	2332.64
241.81	2154.46
242.02	2154.46
242.24	2240.48
242.46	2269.15
242.68	2070.50
242.89	2123.74
243.11	2228.19
243.33	2203.61
243.55	2113.50
243.76	2152.42
243.98	2113.50
244.20	2136.03
244.42	2093.02
244.64	2164.70
244.85	2117.60
245.07	2037.73
245.29	2189.28
245.51	2154.46
245.72	2310.11
245.94	2256.86
246.16	2133.98
246.38	2174.94
246.59	2187.23
246.81	2101.22
247.03	2138.08
247.24	2013.15
247.46	2170.85
247.68	2148.32
247.90	2129.89
248.11	2095.07
248.33	2287.58
248.55	2191.33
248.77	2103.26
248.98	2140.13
249.20	2332.64
249.42	2213.85
249.64	2199.52
249.85	2119.65
250.07	2170.85
250.29	2273.25
250.50	2148.32
250.72	2113.50
250.94	2250.72
251.16	2318.30
251.37	2146.27
251.59	2211.81
251.81	2138.08
252.02	2338.78
252.24	2119.65
252.46	2308.06
252.68	2160.61
252.89	2115.55
253.11	2029.54
253.33	2213.85
253.54	2273.25
253.76	2058.21
253.98	2152.42
254.20	2041.82
254.41	2011.11
254.63	2179.04
254.85	2004.96
255.06	2244.57
255.28	2240.48
255.50	2115.55
255.71	2113.50
255.93	2076.64
256.15	2136.03
256.36	2244.57
256.58	2119.65
256.80	2144.22
257.02	2123.74
257.23	2117.60
257.45	2138.08
257.67	2154.46
257.88	2125.79
258.10	2220.00
258.32	2203.61
258.53	2146.27
258.75	2283.49
258.97	2129.89
259.18	2133.98
259.40	2131.94
259.62	2301.92
259.83	2301.92
260.05	2115.55
260.27	2572.25
260.48	2277.34
260.70	2144.22
260.92	2146.27
261.13	2127.84
261.35	2170.85
261.57	2258.91
261.78	2013.15
262.00	2125.79
262.22	2166.75
262.43	2136.03
262.65	2088.93
262.86	2158.56
263.08	2469.85
263.30	2248.67
263.51	2056.16
263.73	2115.55
263.95	2287.58
264.16	2056.16
264.38	2056.16
264.60	2154.46
264.81	2215.90
265.03	2324.44
265.25	2217.95
265.46	2109.41
265.68	2338.78
265.89	2260.96
266.11	2062.30
266.33	2170.85
266.54	2312.16
266.76	2238.43
266.98	2168.80
267.19	2301.92
267.41	2252.77
267.62	2199.52
267.84	2064.35
268.06	2215.90
268.27	2240.48
268.49	2273.25
268.70	2224.09
268.92	2140.13
269.14	2107.36
269.35	2068.45
269.57	2103.26
269.79	2150.37
270.00	2113.50
270.22	2365.40
270.43	2103.26
270.65	1964.00
270.87	2244.57
271.08	2285.53
271.30	2220.00
271.51	2156.51
271.73	2226.14
271.95	2240.48
272.16	2131.94
272.38	2199.52
272.59	2138.08
272.81	2230.24
273.02	2111.46
273.24	2121.70
273.46	2338.78
273.67	2123.74
273.89	2078.69
274.10	2076.64
274.32	2338.78
274.54	2187.23
274.75	2226.14
274.97	2105.31
275.18	2283.49
275.40	2320.35
275.61	2201.57
275.83	2226.14
276.05	2064.35
276.26	2189.28
276.48	2154.46
276.69	2097.12
276.91	2097.12
277.12	2359.26
277.34	2226.14
277.55	2252.77
277.77	2211.81
277.99	2166.75
278.20	2082.78
278.42	2027.49
278.63	2152.42
278.85	2097.12
279.06	2007.01
279.28	2220.00
279.49	2236.38
279.71	2318.30
279.93	2252.77
280.14	2131.94
280.36	2220.00
280.57	2254.81
280.79	2244.57
281.00	2060.26
281.22	2105.31
281.43	2244.57
281.65	1947.62
281.86	2158.56
282.08	2160.61
282.29	2340.83
282.51	2111.46
282.73	2035.68
282.94	2027.49
283.16	2260.96
283.37	2293.72
283.59	2115.55
283.80	2195.42
284.02	2174.94
284.23	2199.52
284.45	2119.65
284.66	2078.69
284.88	2154.46
285.09	2230.24
285.31	2228.19
285.52	2244.57
285.74	2066.40
285.95	2211.81
286.17	2185.18
286.38	2306.01
286.60	2140.13
286.81	2052.06
287.03	2211.81
287.24	2152.42
287.46	2293.72
287.67	2195.42
287.89	2308.06
288.10	2193.37
288.32	2211.81
288.53	2308.06
288.75	2179.04
288.96	2279.39
289.18	2166.75
289.39	2162.66
289.61	2224.09
289.82	2443.23
290.04	2283.49
290.25	2082.78
290.47	2197.47
290.68	2201.57
290.90	2322.40
291.11	2047.97
291.33	2242.53
291.54	2170.85
291.76	2158.56
291.97	2166.75
292.18	2093.02
292.40	2068.45
292.61	2078.69
292.83	2359.26
293.04	2152.42
293.26	2238.43
293.47	2193.37
293.69	2121.70
293.90	2172.89
294.12	2283.49
294.33	2187.23
294.55	2162.66
294.76	2312.16
294.97	2283.49
295.19	2383.84
295.40	2179.04
295.62	2211.81
295.83	2215.90
296.05	2121.70
296.26	2316.25
296.48	2076.64
296.69	2211.81
296.90	2170.85
297.12	2260.96
297.33	2357.21
297.55	2224.09
297.76	2168.80
297.98	2242.53
298.19	2179.04
298.41	2187.23
298.62	2095.07
298.83	2297.82
299.05	2242.53
299.26	2144.22
299.48	2093.02
299.69	2162.66
299.90	2179.04
300.12	2136.03
300.33	2222.05
300.55	2250.72
300.76	2148.32
300.98	2084.83
301.19	2299.87
301.40	2133.98
301.62	2117.60
301.83	2308.06
302.05	2199.52
302.26	2152.42
302.47	2125.79
302.69	2064.35
302.90	2211.81
303.12	1953.76
303.33	2250.72
303.54	2430.94
303.76	2090.98
303.97	2174.94
304.19	2365.40
304.40	2144.22
304.61	2199.52
304.83	2297.82
305.04	2263.01
305.26	2279.39
305.47	2211.81
305.68	2136.03
305.90	2078.69
306.11	2273.25
306.33	2144.22
306.54	2113.50
306.75	2181.09
306.97	2045.92
307.18	2148.32
307.39	2193.37
307.61	2220.00
307.82	2107.36
308.04	2328.54
308.25	2138.08
308.46	2234.33
308.68	2152.42
308.89	2242.53
309.10	2291.68
309.32	2228.19
309.53	2197.47
309.74	2297.82
309.96	2187.23
310.17	2291.68
310.39	2121.70
310.60	2162.66
310.81	2152.42
311.03	2105.31
311.24	2267.10
311.45	2228.19
311.67	2316.25
311.88	2172.89
312.09	2113.50
312.31	2131.94
312.52	2136.03
312.73	2213.85
312.95	2054.11
313.16	2127.84
313.37	2291.68
313.59	2246.62
313.80	2320.35
314.01	2322.40
314.23	2133.98
314.44	2080.74
314.65	2113.50
314.87	2111.46
315.08	2129.89
315.29	2117.60
315.51	2107.36
315.72	2086.88
315.93	2408.41
316.15	2179.04
316.36	2183.13
316.57	2158.56
316.79	2168.80
317.00	2086.88
317.21	2226.14
317.43	2148.32
317.64	2222.05
317.85	2179.04
318.07	2093.02
318.28	2142.18
318.49	2355.16
318.70	2535.39
318.92	2424.80
319.13	2457.56
319.34	2506.71
319.56	2238.43
319.77	2361.31
319.98	2371.55
320.20	2242.53
320.41	2318.30
320.62	2269.15
320.83	2121.70
321.05	2385.88
321.26	2158.56
321.47	2146.27
321.69	2293.72
321.90	2101.22
322.11	2084.83
322.32	2205.66
322.54	2361.31
322.75	2115.55
322.96	2439.13
323.18	2054.11
323.39	2011.11
323.60	2084.83
323.81	2199.52
324.03	2127.84
324.24	2093.02
324.45	2191.33
324.66	2152.42
324.88	2224.09
325.09	2310.11
325.30	2174.94
325.52	2189.28
325.73	2236.38
325.94	2072.54
326.15	2047.97
326.37	2056.16
326.58	2258.91
326.79	2254.81
327.00	2084.83
327.22	2193.37
327.43	2164.70
327.64	2176.99
327.85	2250.72
328.07	2172.89
328.28	2293.72
328.49	2150.37
328.70	2174.94
328.92	2215.90
329.13	2185.18
329.34	2201.57
329.55	2310.11
329.76	2289.63
329.98	2162.66
330.19	2361.31
330.40	2201.57
330.61	2244.57
330.83	2242.53
331.04	2113.50
331.25	2138.08
331.46	2150.37
331.68	2117.60
331.89	2271.20
332.10	2172.89
332.31	2007.01
332.52	2166.75
332.74	2318.30
332.95	2125.79
333.16	2187.23
333.37	2285.53
333.58	2119.65
333.80	2179.04
334.01	2004.96
334.22	2176.99
334.43	2099.17
334.64	2086.88
334.86	2121.70
335.07	2113.50
335.28	2396.12
335.49	2031.58
335.70	2215.90
335.92	2285.53
336.13	2422.75
336.34	2185.18
336.55	2117.60
336.76	2191.33
336.98	1978.34
337.19	2144.22
337.40	2301.92
337.61	2461.66
337.82	2150.37
338.04	2234.33
338.25	2070.50
338.46	2113.50
338.67	2099.17
338.88	2127.84
339.09	2080.74
339.31	2047.97
339.52	2088.93
339.73	2080.74
339.94	2209.76
340.15	2291.68
340.36	2189.28
340.58	2162.66
340.79	2140.13
341.00	2342.88
341.21	2054.11
341.42	2383.84
341.63	2088.93
341.85	2244.57
342.06	2263.01
342.27	2070.50
342.48	2226.14
342.69	1957.86
342.90	2260.96
343.12	2326.49
343.33	2176.99
343.54	2242.53
343.75	2277.34
343.96	2197.47
344.17	2119.65
344.38	2230.24
344.60	2117.60
344.81	2105.31
345.02	2209.76
345.23	2371.55
345.44	2488.28
345.65	2310.11
345.86	2244.57
346.07	2232.29
346.29	2121.70
346.50	2263.01
346.71	2172.89
346.92	2359.26
347.13	2496.47
347.34	2113.50
347.55	2146.27
347.76	2211.81
347.98	2082.78
348.19	2152.42
348.40	2346.97
348.61	2099.17
348.82	2367.45
349.03	2193.37
349.24	2138.08
349.45	2445.27
349.66	2009.06
349.88	2127.84
350.09	2136.03
350.30	2289.63
350.51	2314.20
350.72	2174.94
350.93	2244.57
351.14	2154.46
351.35	2209.76
351.56	2123.74
351.77	2185.18
351.99	2236.38
352.20	2383.84
352.41	2318.30
352.62	2058.21
352.83	2138.08
353.04	2224.09
353.25	2199.52
353.46	2179.04
353.67	2301.92
353.88	1986.53
354.09	2260.96
354.30	2232.29
354.52	2267.10
354.73	2187.23
354.94	2123.74
355.15	2160.61
355.36	2396.12
355.57	2144.22
355.78	2211.81
355.99	2199.52
356.20	2209.76
356.41	2287.58
356.62	2240.48
356.83	2148.32
357.04	2332.64
357.25	2027.49
357.46	2129.89
357.68	2062.30
357.89	2097.12
358.10	2197.47
358.31	2154.46
358.52	2146.27
358.73	2123.74
358.94	2113.50
359.15	2095.07
359.36	2193.37
359.57	2154.46
359.78	2166.75
359.99	2277.34
360.20	2138.08
360.41	2172.89
360.62	2260.96
360.83	2203.61
361.04	2228.19
361.25	2162.66
361.46	2326.49
361.67	2252.77
361.88	2185.18
362.09	2242.53
362.30	2281.44
362.51	2109.41
362.72	2209.76
362.93	2260.96
363.14	2312.16
363.35	2150.37
363.56	2140.13
363.78	2283.49
363.99	2293.72
364.20	2164.70
364.41	2199.52
364.62	2439.13
364.83	2244.57
365.04	2146.27
365.25	2207.71
365.46	2394.08
365.67	2138.08
365.88	2201.57
366.09	2150.37
366.30	2105.31
366.51	2267.10
366.72	2127.84
366.93	2119.65
367.14	2170.85
367.35	2441.18
367.56	2242.53
367.77	2191.33
367.98	2138.08
368.18	2269.15
368.39	2254.81
368.60	2072.54
368.81	2236.38
369.02	2260.96
369.23	2179.04
369.44	2072.54
369.65	2084.83
369.86	2168.80
370.07	2236.38
370.28	2097.12
370.49	2230.24
370.70	2195.42
370.91	2133.98
371.12	2076.64
371.33	2310.11
371.54	2123.74
371.75	2418.65
371.96	1925.09
372.17	2201.57
372.38	2158.56
372.59	2195.42
372.80	2115.55
373.01	2129.89
373.22	2267.10
373.43	2203.61
373.64	2060.26
373.85	2349.02
374.06	2330.59
374.26	2217.95
374.47	2166.75
374.68	2334.68
374.89	2191.33
375.10	2146.27
375.31	2217.95
375.52	2142.18
375.73	2213.85
375.94	2119.65
376.15	2367.45
376.36	2174.94
376.57	2150.37
376.78	2136.03
376.99	2158.56
377.20	2351.07
377.40	2140.13
377.61	2291.68
377.82	2121.70
378.03	2320.35
378.24	2287.58
378.45	2125.79
378.66	2183.13
378.87	2039.78
379.08	2086.88
379.29	2078.69
379.50	2342.88
379.71	2199.52
379.91	2277.34
380.12	2113.50
380.33	2138.08
380.54	2230.24
380.75	2168.80
380.96	2140.13
381.17	2273.25
381.38	2150.37
381.59	2349.02
381.80	2287.58
382.00	2367.45
382.21	2250.72
382.42	2531.29
382.63	2426.84
382.84	2217.95
383.05	2236.38
383.26	2326.49
383.47	2203.61
383.68	2269.15
383.88	2226.14
384.09	2191.33
384.30	2283.49
384.51	2318.30
384.72	2105.31
384.93	2144.22
385.14	2232.29
385.35	2326.49
385.55	2064.35
385.76	2404.32
385.97	2209.76
386.18	2105.31
386.39	2107.36
386.60	2193.37
386.81	2174.94
387.02	2068.45
387.22	2072.54
387.43	2275.29
387.64	2285.53
387.85	2404.32
388.06	2441.18
388.27	4188.10
388.48	8490.88
388.68	12273.48
388.89	14843.68
389.10	15740.69
389.31	14757.66
389.52	11407.19
389.73	10084.20
389.93	8998.77
390.14	8185.73
390.35	7526.29
390.56	6543.26
390.77	5390.25
390.98	4118.47
391.18	3303.37
391.39	2711.51
391.60	2394.08
391.81	2359.26
392.02	2271.20
392.23	2375.64
392.43	2316.25
392.64	2363.36
392.85	2203.61
393.06	2383.84
393.27	2240.48
393.47	2162.66
393.68	2183.13
393.89	2242.53
394.10	2320.35
394.31	2209.76
394.52	2109.41
394.72	2191.33
394.93	2242.53
395.14	2179.04
395.35	2283.49
395.56	2140.13
395.76	2193.37
395.97	2207.71
396.18	2351.07
396.39	2310.11
396.60	2611.16
396.80	2414.56
397.01	2424.80
397.22	2414.56
397.43	2279.39
397.64	2152.42
397.84	2297.82
398.05	2449.37
398.26	2285.53
398.47	2293.72
398.67	2322.40
398.88	2228.19
399.09	2275.29
399.30	2156.51
399.51	2213.85
399.71	2179.04
399.92	2154.46
400.13	2158.56
400.34	2158.56
400.54	2156.51
400.75	2293.72
400.96	2293.72
401.17	2346.97
401.37	2226.14
401.58	2191.33
401.79	2187.23
402.00	2404.32
402.21	2605.02
402.41	2541.53
402.62	2551.77
402.83	2643.93
403.04	2609.11
403.24	2725.85
403.45	2359.26
403.66	2463.71
403.87	2379.74
404.07	2512.86
404.28	2523.10
404.49	2375.64
404.70	2314.20
404.90	2314.20
405.11	2240.48
405.32	2289.63
405.52	2103.26
405.73	2193.37
405.94	2007.01
406.15	2191.33
406.35	2404.32
406.56	2176.99
406.77	2301.92
406.98	2222.05
407.18	2121.70
407.39	2430.94
407.60	2179.04
407.80	2179.04
408.01	2232.29
408.22	2260.96
408.43	2160.61
408.63	2260.96
408.84	2334.68
409.05	2318.30
409.25	2201.57
409.46	2172.89
409.67	2162.66
409.88	2154.46
410.08	2174.94
410.29	2176.99
410.50	2291.68
410.70	2232.29
410.91	2138.08
411.12	2199.52
411.32	2211.81
411.53	2109.41
411.74	2265.05
411.95	2256.86
412.15	2217.95
412.36	2310.11
412.57	2267.10
412.77	2408.41
412.98	2230.24
413.19	2232.29
413.39	2201.57
413.60	2256.86
413.81	2351.07
414.01	2093.02
414.22	2248.67
414.43	2246.62
414.63	2152.42
414.84	2342.88
415.05	2232.29
415.25	1996.77
415.46	2230.24
415.67	2183.13
415.87	2220.00
416.08	2176.99
416.29	2201.57
416.49	2189.28
416.70	2131.94
416.91	2199.52
417.11	2129.89
417.32	2273.25
417.53	2324.44
417.73	2248.67
417.94	2205.66
418.15	2256.86
418.35	2170.85
418.56	2242.53
418.77	2435.03
418.97	2275.29
419.18	2220.00
419.38	2056.16
419.59	2142.18
419.80	2336.73
420.00	2203.61
420.21	2215.90
420.42	2318.30
420.62	2154.46
420.83	2136.03
421.04	2172.89
421.24	2283.49
421.45	2322.40
421.65	2228.19
421.86	2189.28
422.07	2355.16
422.27	2263.01
422.48	2158.56
422.69	2095.07
422.89	2170.85
423.10	2172.89
423.30	2066.40
423.51	2220.00
423.72	2252.77
423.92	2236.38
424.13	2047.97
424.33	2207.71
424.54	2271.20
424.75	2205.66
424.95	2432.99
425.16	2203.61
425.36	2142.18
425.57	2297.82
425.78	2224.09
425.98	2310.11
426.19	2236.38
426.39	2129.89
426.60	2232.29
426.81	2287.58
427.01	2203.61
427.22	2152.42
427.42	2076.64
427.63	2133.98
427.83	2320.35
428.04	2396.12
428.25	2265.05
428.45	2277.34
428.66	2258.91
428.86	2230.24
429.07	2185.18
429.28	2189.28
429.48	2267.10
429.69	2058.21
429.89	2205.66
430.10	2099.17
430.30	2207.71
430.51	2244.57
430.71	2136.03
430.92	2260.96
431.13	2088.93
431.33	2291.68
431.54	2197.47
431.74	2310.11
431.95	2392.03
432.15	2113.50
432.36	2269.15
432.56	2246.62
432.77	2383.84
432.98	2330.59
433.18	2197.47
433.39	2101.22
433.59	2174.94
433.80	2381.79
434.00	2359.26
434.21	2168.80
434.41	2201.57
434.62	2426.84
434.82	2056.16
435.03	2136.03
435.23	2222.05
435.44	2043.87
435.64	2213.85
435.85	2240.48
436.06	2277.34
436.26	2179.04
436.47	2240.48
436.67	2115.55
436.88	2174.94
437.08	2365.40
437.29	2371.55
437.49	2191.33
437.70	2318.30
437.90	2174.94
438.11	2338.78
438.31	2232.29
438.52	2334.68
438.72	2369.50
438.93	2514.91
439.13	2320.35
439.34	2338.78
439.54	2152.42
439.75	2326.49
439.95	2363.36
440.16	2207.71
440.36	2220.00
440.57	2217.95
440.77	2185.18
440.98	2207.71
441.18	2283.49
441.39	2211.81
441.59	2125.79
441.80	2355.16
442.00	2183.13
442.21	2281.44
442.41	2144.22
442.62	2363.36
442.82	2136.03
443.02	2236.38
443.23	2215.90
443.43	2166.75
443.64	2355.16
443.84	2258.91
444.05	2381.79
444.25	2314.20
444.46	2140.13
444.66	2129.89
444.87	2342.88
445.07	2025.44
445.28	2176.99
445.48	2334.68
445.69	2267.10
445.89	2426.84
446.09	2250.72
446.30	2553.82
446.50	2766.81
446.71	4358.08
446.91	5656.49
447.12	6365.09
447.32	6862.74
447.53	6258.59
447.73	5115.83
447.93	4636.60
448.14	4292.54
448.34	4081.60
448.55	3676.10
448.75	3557.32
448.96	3473.36
449.16	3006.42
449.36	2807.77
449.57	2514.91
449.77	2340.83
449.98	2226.14
450.18	2250.72
450.39	2318.30
450.59	2281.44
450.79	2279.39
451.00	2234.33
451.20	2322.40
451.41	2252.77
451.61	2287.58
451.81	2146.27
452.02	2244.57
452.22	2187.23
452.43	2189.28
