SpectraSuite Data File
++++++++++++++++++++++++++++++++++++
Date: Thu May 05 12:35:04 CEST 2016
User: root
Dark Spectrum Present: No
Reference Spectrum Present: No
Number of Sampled Component Spectra: 1
Spectrometers: USB4C02835
Integration Time (usec): 100000 (USB4C02835)
Spectra Averaged: 1 (USB4C02835)
Boxcar Smoothing: 0 (USB4C02835)
Correct for Electrical Dark: No (USB4C02835)
Strobe/Lamp Enabled: No (USB4C02835)
Correct for Detector Non-linearity: No (USB4C02835)
Correct for Stray Light: No (USB4C02835)
Number of Pixels in Processed Spectrum: 3648
>>>>>Begin Processed Spectral Data<<<<<
177.47	1777.64
177.69	1777.64
177.91	1777.64
178.13	1722.34
178.36	1794.02
178.58	2088.93
178.80	2283.49
179.02	2064.35
179.24	2193.37
179.46	2207.71
179.68	2199.52
179.90	2162.66
180.13	2265.05
180.35	2043.87
180.57	2047.97
180.79	2164.70
181.01	2166.75
181.23	2183.13
181.45	2193.37
181.67	2244.57
181.90	2279.39
182.12	2111.46
182.34	1953.76
182.56	2234.33
182.78	2224.09
183.00	2109.41
183.22	2195.42
183.44	2004.96
183.66	2404.32
183.89	2240.48
184.11	2121.70
184.33	2242.53
184.55	2232.29
184.77	2181.09
184.99	2136.03
185.21	2168.80
185.43	2351.07
185.65	2064.35
185.87	2043.87
186.10	2432.99
186.32	2377.69
186.54	2232.29
186.76	2228.19
186.98	2291.68
187.20	2189.28
187.42	2117.60
187.64	2170.85
187.86	2156.51
188.08	2363.36
188.30	2113.50
188.52	2113.50
188.75	2363.36
188.97	2289.63
189.19	2117.60
189.41	2181.09
189.63	2285.53
189.85	2078.69
190.07	2007.01
190.29	2023.39
190.51	2224.09
190.73	2019.30
190.95	2275.29
191.17	2074.59
191.39	2062.30
191.61	2154.46
191.84	2129.89
192.06	2181.09
192.28	2039.78
192.50	2420.70
192.72	2191.33
192.94	2105.31
193.16	2324.44
193.38	2283.49
193.60	2047.97
193.82	2172.89
194.04	2265.05
194.26	2187.23
194.48	2113.50
194.70	2021.35
194.92	2215.90
195.14	2258.91
195.36	2082.78
195.58	2148.32
195.80	2103.26
196.02	2109.41
196.24	2129.89
196.46	2199.52
196.69	2203.61
196.91	2494.43
197.13	2162.66
197.35	2123.74
197.57	2336.73
197.79	2217.95
198.01	2185.18
198.23	2107.36
198.45	2236.38
198.67	2080.74
198.89	2023.39
199.11	2224.09
199.33	2144.22
199.55	2002.91
199.77	2168.80
199.99	2260.96
200.21	2150.37
200.43	2273.25
200.65	2093.02
200.87	1998.82
201.09	2162.66
201.31	2133.98
201.53	2185.18
201.75	2144.22
201.97	2207.71
202.19	2158.56
202.41	2258.91
202.63	2330.59
202.85	2203.61
203.07	2115.55
203.29	2144.22
203.51	2084.83
203.73	2115.55
203.95	2408.41
204.17	2176.99
204.39	2076.64
204.61	2220.00
204.83	2170.85
205.05	2179.04
205.27	2160.61
205.49	2490.33
205.71	2252.77
205.93	2029.54
206.15	2117.60
206.37	2209.76
206.59	2176.99
206.81	2009.06
207.03	2047.97
207.25	2129.89
207.47	2308.06
207.69	2136.03
207.91	2310.11
208.13	2367.45
208.34	2220.00
208.56	2056.16
208.78	2170.85
209.00	2285.53
209.22	2199.52
209.44	2119.65
209.66	2113.50
209.88	2254.81
210.10	2195.42
210.32	2140.13
210.54	2217.95
210.76	2166.75
210.98	2265.05
211.20	2007.01
211.42	2201.57
211.64	2303.96
211.86	2252.77
212.08	2176.99
212.30	2250.72
212.52	2236.38
212.74	2283.49
212.96	2129.89
213.17	2162.66
213.39	2265.05
213.61	2361.31
213.83	2205.66
214.05	2111.46
214.27	2297.82
214.49	2066.40
214.71	2111.46
214.93	2277.34
215.15	2207.71
215.37	2293.72
215.59	1996.77
215.81	2205.66
216.03	2252.77
216.24	2203.61
216.46	2140.13
216.68	2215.90
216.90	2283.49
217.12	2299.87
217.34	2136.03
217.56	2199.52
217.78	2344.92
218.00	2191.33
218.22	2121.70
218.44	2144.22
218.66	2238.43
218.87	2340.83
219.09	2097.12
219.31	2148.32
219.53	2287.58
219.75	2133.98
219.97	2107.36
220.19	2142.18
220.41	2185.18
220.63	2377.69
220.85	2127.84
221.06	2097.12
221.28	2318.30
221.50	2260.96
221.72	2117.60
221.94	2146.27
222.16	2293.72
222.38	2291.68
222.60	2154.46
222.82	2160.61
223.03	2183.13
223.25	2111.46
223.47	2162.66
223.69	2326.49
223.91	2238.43
224.13	2260.96
224.35	2029.54
224.57	2232.29
224.78	2240.48
225.00	2056.16
225.22	2164.70
225.44	2056.16
225.66	2176.99
225.88	2185.18
226.10	2238.43
226.32	2179.04
226.53	2367.45
226.75	2174.94
226.97	2193.37
227.19	2133.98
227.41	2154.46
227.63	2154.46
227.85	2011.11
228.06	2197.47
228.28	2209.76
228.50	2203.61
228.72	2080.74
228.94	2080.74
229.16	2072.54
229.37	2109.41
229.59	2084.83
229.81	2289.63
230.03	2095.07
230.25	1943.52
230.47	2045.92
230.69	2107.36
230.90	2297.82
231.12	2060.26
231.34	2138.08
231.56	2279.39
231.78	2095.07
232.00	2244.57
232.21	2170.85
232.43	2150.37
232.65	2080.74
232.87	2260.96
233.09	2070.50
233.30	2068.45
233.52	2269.15
233.74	2228.19
233.96	2142.18
234.18	2170.85
234.40	2230.24
234.61	2359.26
234.83	2002.91
235.05	2025.44
235.27	2439.13
235.49	2334.68
235.70	2068.45
235.92	2176.99
236.14	2258.91
236.36	2346.97
236.58	1941.47
236.79	2236.38
237.01	2185.18
237.23	2160.61
237.45	2308.06
237.67	2047.97
237.88	2242.53
238.10	2318.30
238.32	2062.30
238.54	2115.55
238.76	2168.80
238.97	2097.12
239.19	2072.54
239.41	2203.61
239.63	2314.20
239.85	2138.08
240.06	2176.99
240.28	2074.59
240.50	2205.66
240.72	2215.90
240.93	2193.37
241.15	2318.30
241.37	2158.56
241.59	2318.30
241.81	2217.95
242.02	2133.98
242.24	2158.56
242.46	2263.01
242.68	2045.92
242.89	2099.17
243.11	2228.19
243.33	2113.50
243.55	2093.02
243.76	2172.89
243.98	2105.31
244.20	2158.56
244.42	2224.09
244.64	2127.84
244.85	2119.65
245.07	2086.88
245.29	2158.56
245.51	2160.61
245.72	2168.80
245.94	2320.35
246.16	2101.22
246.38	2154.46
246.59	2199.52
246.81	2183.13
247.03	2136.03
247.24	2072.54
247.46	2146.27
247.68	2160.61
247.90	2109.41
248.11	2070.50
248.33	2265.05
248.55	2164.70
248.77	2142.18
248.98	2217.95
249.20	2295.77
249.42	2179.04
249.64	2193.37
249.85	2144.22
250.07	2187.23
250.29	2256.86
250.50	2240.48
250.72	2056.16
250.94	2256.86
251.16	2289.63
251.37	2136.03
251.59	2224.09
251.81	2287.58
252.02	2316.25
252.24	2103.26
252.46	2260.96
252.68	2031.58
252.89	2129.89
253.11	2088.93
253.33	2224.09
253.54	2334.68
253.76	2086.88
253.98	2131.94
254.20	2160.61
254.41	2131.94
254.63	2166.75
254.85	1982.43
255.06	2154.46
255.28	2209.76
255.50	2168.80
255.71	2082.78
255.93	2045.92
256.15	2140.13
256.36	2183.13
256.58	2045.92
256.80	2103.26
257.02	2191.33
257.23	2138.08
257.45	2207.71
257.67	2213.85
257.88	2086.88
258.10	2215.90
258.32	2111.46
258.53	2113.50
258.75	2371.55
258.97	2138.08
259.18	2170.85
259.40	2162.66
259.62	2338.78
259.83	2336.73
260.05	2205.66
260.27	2555.86
260.48	2246.62
260.70	2035.68
260.92	2056.16
261.13	2166.75
261.35	2203.61
261.57	2306.01
261.78	2027.49
262.00	2086.88
262.22	2271.20
262.43	2162.66
262.65	2144.22
262.86	2191.33
263.08	2441.18
263.30	2236.38
263.51	2004.96
263.73	2062.30
263.95	2338.78
264.16	2105.31
264.38	2144.22
264.60	2179.04
264.81	2228.19
265.03	2269.15
265.25	2236.38
265.46	2129.89
265.68	2306.01
265.89	2318.30
266.11	2027.49
266.33	2176.99
266.54	2277.34
266.76	2242.53
266.98	2170.85
267.19	2260.96
267.41	2318.30
267.62	2211.81
267.84	1986.53
268.06	2185.18
268.27	2199.52
268.49	2303.96
268.70	2215.90
268.92	2170.85
269.14	2144.22
269.35	1994.72
269.57	2138.08
269.79	2220.00
270.00	2101.22
270.22	2285.53
270.43	2113.50
270.65	1929.19
270.87	2179.04
271.08	2271.20
271.30	2269.15
271.51	2095.07
271.73	2316.25
271.95	2248.67
272.16	2113.50
272.38	2176.99
272.59	2201.57
272.81	2287.58
273.02	2170.85
273.24	2125.79
273.46	2318.30
273.67	2093.02
273.89	2023.39
274.10	2084.83
274.32	2332.64
274.54	2207.71
274.75	2252.77
274.97	2189.28
275.18	2236.38
275.40	2209.76
275.61	2160.61
275.83	2240.48
276.05	2031.58
276.26	2224.09
276.48	2144.22
276.69	2088.93
276.91	2179.04
277.12	2285.53
277.34	2263.01
277.55	2283.49
277.77	2242.53
277.99	2187.23
278.20	2076.64
278.42	2066.40
278.63	2203.61
278.85	2191.33
279.06	2176.99
279.28	2230.24
279.49	2226.14
279.71	2246.62
279.93	2185.18
280.14	2168.80
280.36	2097.12
280.57	2222.05
280.79	2254.81
281.00	2125.79
281.22	2195.42
281.43	2254.81
281.65	2027.49
281.86	2105.31
282.08	2244.57
282.29	2430.94
282.51	2045.92
282.73	2138.08
282.94	2011.11
283.16	2289.63
283.37	2320.35
283.59	2080.74
283.80	2193.37
284.02	2213.85
284.23	2195.42
284.45	2166.75
284.66	2109.41
284.88	2156.51
285.09	2232.29
285.31	2250.72
285.52	2265.05
285.74	2082.78
285.95	2299.87
286.17	2187.23
286.38	2320.35
286.60	2138.08
286.81	2078.69
287.03	2107.36
287.24	2176.99
287.46	2226.14
287.67	2215.90
287.89	2396.12
288.10	2203.61
288.32	2156.51
288.53	2285.53
288.75	2150.37
288.96	2260.96
289.18	2097.12
289.39	2166.75
289.61	2209.76
289.82	2377.69
290.04	2310.11
290.25	2045.92
290.47	2162.66
290.68	2187.23
290.90	2312.16
291.11	1990.63
291.33	2226.14
291.54	2113.50
291.76	2168.80
291.97	2203.61
292.18	2191.33
292.40	2226.14
292.61	2138.08
292.83	2363.36
293.04	2201.57
293.26	2189.28
293.47	2095.07
293.69	2084.83
293.90	2195.42
294.12	2242.53
294.33	2168.80
294.55	2125.79
294.76	2215.90
294.97	2389.98
295.19	2363.36
295.40	2097.12
295.62	2230.24
295.83	2236.38
296.05	2119.65
296.26	2265.05
296.48	2144.22
296.69	2146.27
296.90	2203.61
297.12	2197.47
297.33	2240.48
297.55	2220.00
297.76	2220.00
297.98	2263.01
298.19	2162.66
298.41	2240.48
298.62	2168.80
298.83	2367.45
299.05	2217.95
299.26	2158.56
299.48	2088.93
299.69	2209.76
299.90	2176.99
300.12	2090.98
300.33	2248.67
300.55	2138.08
300.76	2277.34
300.98	2078.69
301.19	2220.00
301.40	2172.89
301.62	2131.94
301.83	2275.29
302.05	2068.45
302.26	2242.53
302.47	2150.37
302.69	2101.22
302.90	2133.98
303.12	1970.15
303.33	2258.91
303.54	2400.22
303.76	2078.69
303.97	2183.13
304.19	2277.34
304.40	2056.16
304.61	2248.67
304.83	2336.73
305.04	2324.44
305.26	2205.66
305.47	2144.22
305.68	2213.85
305.90	2127.84
306.11	2277.34
306.33	2150.37
306.54	2060.26
306.75	2074.59
306.97	2080.74
307.18	2140.13
307.39	2127.84
307.61	2220.00
307.82	2152.42
308.04	2310.11
308.25	2111.46
308.46	2140.13
308.68	2252.77
308.89	2217.95
309.10	2256.86
309.32	2201.57
309.53	2170.85
309.74	2222.05
309.96	2164.70
310.17	2244.57
310.39	2156.51
310.60	2213.85
310.81	2271.20
311.03	2066.40
311.24	2301.92
311.45	2185.18
311.67	2293.72
311.88	2172.89
312.09	2150.37
312.31	2183.13
312.52	2117.60
312.73	2101.22
312.95	2095.07
313.16	2093.02
313.37	2297.82
313.59	2293.72
313.80	2267.10
314.01	2389.98
314.23	2101.22
314.44	2138.08
314.65	2078.69
314.87	2195.42
315.08	2127.84
315.29	2127.84
315.51	2189.28
315.72	2105.31
315.93	2265.05
316.15	2242.53
316.36	2078.69
316.57	2244.57
316.79	2213.85
317.00	2078.69
317.21	2236.38
317.43	2117.60
317.64	2160.61
317.85	2140.13
318.07	2138.08
318.28	2215.90
318.49	2326.49
318.70	2488.28
318.92	2363.36
319.13	2398.17
319.34	2430.94
319.56	2187.23
319.77	2367.45
319.98	2400.22
320.20	2260.96
320.41	2228.19
320.62	2263.01
320.83	2133.98
321.05	2416.60
321.26	2217.95
321.47	2199.52
321.69	2226.14
321.90	2058.21
322.11	2125.79
322.32	2183.13
322.54	2310.11
322.75	2136.03
322.96	2428.89
323.18	2076.64
323.39	2033.63
323.60	2095.07
323.81	2234.33
324.03	2189.28
324.24	2168.80
324.45	2191.33
324.66	2191.33
324.88	2340.83
325.09	2326.49
325.30	2131.94
325.52	2179.04
325.73	2179.04
325.94	2183.13
326.15	2111.46
326.37	2056.16
326.58	2332.64
326.79	2312.16
327.00	2117.60
327.22	2129.89
327.43	2129.89
327.64	2050.02
327.85	2277.34
328.07	2244.57
328.28	2422.75
328.49	2133.98
328.70	2056.16
328.92	2197.47
329.13	2226.14
329.34	2224.09
329.55	2363.36
329.76	2269.15
329.98	2201.57
330.19	2295.77
330.40	2263.01
330.61	2283.49
330.83	2201.57
331.04	2140.13
331.25	2224.09
331.46	2058.21
331.68	2125.79
331.89	2365.40
332.10	2158.56
332.31	2101.22
332.52	2215.90
332.74	2291.68
332.95	2064.35
333.16	2160.61
333.37	2287.58
333.58	2176.99
333.80	2238.43
334.01	2064.35
334.22	2088.93
334.43	2179.04
334.64	2117.60
334.86	2080.74
335.07	2185.18
335.28	2377.69
335.49	2080.74
335.70	2129.89
335.92	2281.44
336.13	2404.32
336.34	2236.38
336.55	2244.57
336.76	2232.29
336.98	2093.02
337.19	2158.56
337.40	2297.82
337.61	2449.37
337.82	2097.12
338.04	2199.52
338.25	2054.11
338.46	2187.23
338.67	2156.51
338.88	2080.74
339.09	2078.69
339.31	2211.81
339.52	2041.82
339.73	2090.98
339.94	2217.95
340.15	2242.53
340.36	2123.74
340.58	2095.07
340.79	2125.79
341.00	2314.20
341.21	2086.88
341.42	2408.41
341.63	2199.52
341.85	2289.63
342.06	2267.10
342.27	2101.22
342.48	2267.10
342.69	2140.13
342.90	2316.25
343.12	2217.95
343.33	2152.42
343.54	2361.31
343.75	2312.16
343.96	2176.99
344.17	2115.55
344.38	2193.37
344.60	2138.08
344.81	2129.89
345.02	2154.46
345.23	2297.82
345.44	2457.56
345.65	2199.52
345.86	2226.14
346.07	2201.57
346.29	2093.02
346.50	2195.42
346.71	2131.94
346.92	2342.88
347.13	2424.80
347.34	2097.12
347.55	2133.98
347.76	2222.05
347.98	2088.93
348.19	2197.47
348.40	2250.72
348.61	2201.57
348.82	2367.45
349.03	2267.10
349.24	2146.27
349.45	2373.60
349.66	2023.39
349.88	2170.85
350.09	2054.11
350.30	2318.30
350.51	2316.25
350.72	2160.61
350.93	2215.90
351.14	2160.61
351.35	2207.71
351.56	2170.85
351.77	2195.42
351.99	2256.86
352.20	2279.39
352.41	2326.49
352.62	2041.82
352.83	2164.70
353.04	2105.31
353.25	2213.85
353.46	2260.96
353.67	2308.06
353.88	2080.74
354.09	2244.57
354.30	2217.95
354.52	2308.06
354.73	2174.94
354.94	2179.04
355.15	2203.61
355.36	2328.54
355.57	2107.36
355.78	2193.37
355.99	2131.94
356.20	2162.66
356.41	2344.92
356.62	2207.71
356.83	2215.90
357.04	2291.68
357.25	2156.51
357.46	2191.33
357.68	2088.93
357.89	2119.65
358.10	2250.72
358.31	2183.13
358.52	2160.61
358.73	2103.26
358.94	2076.64
359.15	2121.70
359.36	2273.25
359.57	2162.66
359.78	2174.94
359.99	2232.29
360.20	2088.93
360.41	2179.04
360.62	2260.96
360.83	2129.89
361.04	2207.71
361.25	2244.57
361.46	2336.73
361.67	2205.66
361.88	2121.70
362.09	2308.06
362.30	2205.66
362.51	2111.46
362.72	2199.52
362.93	2244.57
363.14	2232.29
363.35	2176.99
363.56	2160.61
363.78	2295.77
363.99	2310.11
364.20	2193.37
364.41	2199.52
364.62	2338.78
364.83	2269.15
365.04	2146.27
365.25	2228.19
365.46	2441.18
365.67	2097.12
365.88	2215.90
366.09	2144.22
366.30	2129.89
366.51	2156.51
366.72	2144.22
366.93	2121.70
367.14	2197.47
367.35	2244.57
367.56	2162.66
367.77	2285.53
367.98	2222.05
368.18	2277.34
368.39	2211.81
368.60	2084.83
368.81	2224.09
369.02	2222.05
369.23	2224.09
369.44	2060.26
369.65	2095.07
369.86	2246.62
370.07	2217.95
370.28	2150.37
370.49	2295.77
370.70	2263.01
370.91	2140.13
371.12	2064.35
371.33	2340.83
371.54	2103.26
371.75	2308.06
371.96	2015.20
372.17	2160.61
372.38	2144.22
372.59	2207.71
372.80	2156.51
373.01	2195.42
373.22	2254.81
373.43	2123.74
373.64	2150.37
373.85	2308.06
374.06	2340.83
374.26	2310.11
374.47	2269.15
374.68	2361.31
374.89	2256.86
375.10	2142.18
375.31	2271.20
375.52	2213.85
375.73	2226.14
375.94	2168.80
376.15	2336.73
376.36	2187.23
376.57	2138.08
376.78	2226.14
376.99	2236.38
377.20	2318.30
377.40	2222.05
377.61	2330.59
377.82	1994.72
378.03	2351.07
378.24	2199.52
378.45	2150.37
378.66	2201.57
378.87	2064.35
379.08	1998.82
379.29	2144.22
379.50	2217.95
379.71	2232.29
379.91	2240.48
380.12	2170.85
380.33	2246.62
380.54	2236.38
380.75	2181.09
380.96	2148.32
381.17	2228.19
381.38	2160.61
381.59	2183.13
381.80	2193.37
382.00	2369.50
382.21	2185.18
382.42	2377.69
382.63	2420.70
382.84	2224.09
383.05	2242.53
383.26	2416.60
383.47	2187.23
383.68	2269.15
383.88	2324.44
384.09	2236.38
384.30	2357.21
384.51	2179.04
384.72	2148.32
384.93	2168.80
385.14	2174.94
385.35	2314.20
385.55	2129.89
385.76	2322.40
385.97	2138.08
386.18	2060.26
386.39	2127.84
386.60	2140.13
386.81	2170.85
387.02	2074.59
387.22	2080.74
387.43	2322.40
387.64	2258.91
387.85	2334.68
388.06	2543.58
388.27	4104.13
388.48	8521.60
388.68	12287.81
388.89	14810.91
389.10	15988.49
389.31	14901.02
389.52	11583.31
389.73	9928.55
389.93	8951.67
390.14	8400.77
390.35	7630.73
390.56	6627.23
390.77	5619.63
390.98	4190.14
391.18	3215.31
391.39	2727.89
391.60	2381.79
391.81	2324.44
392.02	2187.23
392.23	2504.67
392.43	2277.34
392.64	2371.55
392.85	2181.09
393.06	2367.45
393.27	2232.29
393.47	2060.26
393.68	2250.72
393.89	2234.33
394.10	2361.31
394.31	2172.89
394.52	2070.50
394.72	2101.22
394.93	2301.92
395.14	2115.55
395.35	2271.20
395.56	2103.26
395.76	2234.33
395.97	2285.53
396.18	2332.64
396.39	2379.74
396.60	2617.30
396.80	2502.62
397.01	2330.59
397.22	2392.03
397.43	2400.22
397.64	2187.23
397.84	2275.29
398.05	2455.51
398.26	2146.27
398.47	2306.01
398.67	2367.45
398.88	2142.18
399.09	2303.96
399.30	2117.60
399.51	2226.14
399.71	2144.22
399.92	2236.38
400.13	2199.52
400.34	2170.85
400.54	2236.38
400.75	2404.32
400.96	2191.33
401.17	2365.40
401.37	2248.67
401.58	2203.61
401.79	2146.27
402.00	2297.82
402.21	2568.15
402.41	2580.44
402.62	2602.97
402.83	2717.65
403.04	2623.45
403.24	2826.20
403.45	2359.26
403.66	2441.18
403.87	2392.03
404.07	2457.56
404.28	2400.22
404.49	2387.93
404.70	2273.25
404.90	2285.53
405.11	2162.66
405.32	2281.44
405.52	2127.84
405.73	2103.26
405.94	2068.45
406.15	2179.04
406.35	2269.15
406.56	2220.00
406.77	2205.66
406.98	2230.24
407.18	2172.89
407.39	2344.92
407.60	2242.53
407.80	2244.57
408.01	2113.50
408.22	2299.87
408.43	2136.03
408.63	2183.13
408.84	2285.53
409.05	2316.25
409.25	2113.50
409.46	2066.40
409.67	2195.42
409.88	2033.63
410.08	2127.84
410.29	2156.51
410.50	2217.95
410.70	2236.38
410.91	2068.45
411.12	2193.37
411.32	2269.15
411.53	2138.08
411.74	2291.68
411.95	2328.54
412.15	2265.05
412.36	2351.07
412.57	2306.01
412.77	2295.77
412.98	2240.48
413.19	2176.99
413.39	2242.53
413.60	2224.09
413.81	2361.31
414.01	2086.88
414.22	2291.68
414.43	2250.72
414.63	2203.61
414.84	2306.01
415.05	2252.77
415.25	2025.44
415.46	2254.81
415.67	2187.23
415.87	2220.00
416.08	2201.57
416.29	2176.99
416.49	2256.86
416.70	2181.09
416.91	2195.42
417.11	2269.15
417.32	2371.55
417.53	2267.10
417.73	2220.00
417.94	2246.62
418.15	2170.85
418.35	2215.90
418.56	2166.75
418.77	2365.40
418.97	2138.08
419.18	2183.13
419.38	2029.54
419.59	2166.75
419.80	2342.88
420.00	2174.94
420.21	2197.47
420.42	2306.01
420.62	2197.47
420.83	2093.02
421.04	2160.61
421.24	2148.32
421.45	2232.29
421.65	2166.75
421.86	2142.18
422.07	2285.53
422.27	2269.15
422.48	2226.14
422.69	2080.74
422.89	2226.14
423.10	2195.42
423.30	2035.68
423.51	2226.14
423.72	2187.23
423.92	2254.81
424.13	2107.36
424.33	2254.81
424.54	2299.87
424.75	2195.42
424.95	2375.64
425.16	2232.29
425.36	2248.67
425.57	2256.86
425.78	2258.91
425.98	2252.77
426.19	2086.88
426.39	2103.26
426.60	2281.44
426.81	2379.74
427.01	2176.99
427.22	2064.35
427.42	2033.63
427.63	2138.08
427.83	2291.68
428.04	2328.54
428.25	2303.96
428.45	2299.87
428.66	2316.25
428.86	2220.00
429.07	2154.46
429.28	2162.66
429.48	2146.27
429.69	2142.18
429.89	2234.33
430.10	2107.36
430.30	2306.01
430.51	2318.30
430.71	2054.11
430.92	2176.99
431.13	2150.37
431.33	2269.15
431.54	2283.49
431.74	2299.87
431.95	2494.43
432.15	2035.68
432.36	2211.81
432.56	2256.86
432.77	2371.55
432.98	2459.61
433.18	2238.43
433.39	2166.75
433.59	2133.98
433.80	2306.01
434.00	2424.80
434.21	2148.32
434.41	2146.27
434.62	2367.45
434.82	2117.60
435.03	2031.58
435.23	2236.38
435.44	2080.74
435.64	2164.70
435.85	2166.75
436.06	2242.53
436.26	2240.48
436.47	2154.46
436.67	2138.08
436.88	2162.66
437.08	2322.40
437.29	2322.40
437.49	2275.29
437.70	2303.96
437.90	2213.85
438.11	2349.02
438.31	2254.81
438.52	2432.99
438.72	2432.99
438.93	2408.41
439.13	2279.39
439.34	2387.93
439.54	2250.72
439.75	2260.96
439.95	2310.11
440.16	2236.38
440.36	2273.25
440.57	2160.61
440.77	2271.20
440.98	2203.61
441.18	2215.90
441.39	2156.51
441.59	2129.89
441.80	2406.36
442.00	2250.72
442.21	2344.92
442.41	2144.22
442.62	2291.68
442.82	2236.38
443.02	2170.85
443.23	2213.85
443.43	2195.42
443.64	2418.65
443.84	2164.70
444.05	2328.54
444.25	2228.19
444.46	2242.53
444.66	2193.37
444.87	2301.92
445.07	2041.82
445.28	2197.47
445.48	2306.01
445.69	2291.68
445.89	2383.84
446.09	2185.18
446.30	2531.29
446.50	2850.77
446.71	4431.80
446.91	5601.19
447.12	6387.61
447.32	6809.50
447.53	6223.78
447.73	5210.03
447.93	4579.26
448.14	4255.68
448.34	4104.13
448.55	3563.47
448.75	3514.31
448.96	3340.24
449.16	3055.57
449.36	2897.88
449.57	2500.57
449.77	2326.49
449.98	2193.37
450.18	2254.81
450.39	2351.07
450.59	2197.47
450.79	2045.92
451.00	2195.42
451.20	2316.25
451.41	2211.81
451.61	2252.77
451.81	2224.09
452.02	2148.32
452.22	2232.29
452.43	2179.04
452.63	2150.37
