SpectraSuite Data File
++++++++++++++++++++++++++++++++++++
Date: Thu May 05 12:35:15 CEST 2016
User: root
Dark Spectrum Present: No
Reference Spectrum Present: No
Number of Sampled Component Spectra: 1
Spectrometers: USB4C02835
Integration Time (usec): 100000 (USB4C02835)
Spectra Averaged: 1 (USB4C02835)
Boxcar Smoothing: 0 (USB4C02835)
Correct for Electrical Dark: No (USB4C02835)
Strobe/Lamp Enabled: No (USB4C02835)
Correct for Detector Non-linearity: No (USB4C02835)
Correct for Stray Light: No (USB4C02835)
Number of Pixels in Processed Spectrum: 3648
>>>>>Begin Processed Spectral Data<<<<<
177.47	1802.21
177.69	1802.21
177.91	1802.21
178.13	1708.01
178.36	1687.53
178.58	2109.41
178.80	2199.52
179.02	2103.26
179.24	2179.04
179.46	2060.26
179.68	2183.13
179.90	2142.18
180.13	2174.94
180.35	2002.91
180.57	2142.18
180.79	2209.76
181.01	2181.09
181.23	2133.98
181.45	2256.86
181.67	2181.09
181.90	2254.81
182.12	2156.51
182.34	1933.28
182.56	2254.81
182.78	2191.33
183.00	2074.59
183.22	2105.31
183.44	1961.95
183.66	2465.75
183.89	2283.49
184.11	2158.56
184.33	2326.49
184.55	2361.31
184.77	2144.22
184.99	2172.89
185.21	2166.75
185.43	2437.08
185.65	2123.74
185.87	2105.31
186.10	2320.35
186.32	2332.64
186.54	2197.47
186.76	2142.18
186.98	2322.40
187.20	2158.56
187.42	2142.18
187.64	2156.51
187.86	2226.14
188.08	2324.44
188.30	2097.12
188.52	2154.46
188.75	2324.44
188.97	2275.29
189.19	2103.26
189.41	2115.55
189.63	2291.68
189.85	2129.89
190.07	2101.22
190.29	2045.92
190.51	2232.29
190.73	2062.30
190.95	2291.68
191.17	2111.46
191.39	2047.97
191.61	2201.57
191.84	2113.50
192.06	2195.42
192.28	2113.50
192.50	2490.33
192.72	2258.91
192.94	2090.98
193.16	2342.88
193.38	2281.44
193.60	2015.20
193.82	2181.09
194.04	2260.96
194.26	2224.09
194.48	2121.70
194.70	2068.45
194.92	2111.46
195.14	2254.81
195.36	2080.74
195.58	2142.18
195.80	2185.18
196.02	2121.70
196.24	2088.93
196.46	2133.98
196.69	2119.65
196.91	2373.60
197.13	2007.01
197.35	2170.85
197.57	2385.88
197.79	2299.87
198.01	2220.00
198.23	2164.70
198.45	2283.49
198.67	2064.35
198.89	2066.40
199.11	2127.84
199.33	2168.80
199.55	1980.39
199.77	2107.36
199.99	2244.57
200.21	2179.04
200.43	2220.00
200.65	2109.41
200.87	1982.43
201.09	2217.95
201.31	2164.70
201.53	2138.08
201.75	2215.90
201.97	2181.09
202.19	2230.24
202.41	2228.19
202.63	2240.48
202.85	2242.53
203.07	2209.76
203.29	2146.27
203.51	2064.35
203.73	2129.89
203.95	2471.90
204.17	2156.51
204.39	2203.61
204.61	2230.24
204.83	2093.02
205.05	2193.37
205.27	2185.18
205.49	2406.36
205.71	2265.05
205.93	2076.64
206.15	2072.54
206.37	2189.28
206.59	2164.70
206.81	2041.82
207.03	2123.74
207.25	2179.04
207.47	2207.71
207.69	2215.90
207.91	2342.88
208.13	2308.06
208.34	2086.88
208.56	2095.07
208.78	2138.08
209.00	2133.98
209.22	2127.84
209.44	2146.27
209.66	2095.07
209.88	2154.46
210.10	2105.31
210.32	2095.07
210.54	2207.71
210.76	2187.23
210.98	2250.72
211.20	2035.68
211.42	2176.99
211.64	2289.63
211.86	2203.61
212.08	2172.89
212.30	2119.65
212.52	2127.84
212.74	2291.68
212.96	2158.56
213.17	2154.46
213.39	2205.66
213.61	2316.25
213.83	2123.74
214.05	2234.33
214.27	2377.69
214.49	2117.60
214.71	2070.50
214.93	2238.43
215.15	2228.19
215.37	2285.53
215.59	2004.96
215.81	2299.87
216.03	2342.88
216.24	2154.46
216.46	2084.83
216.68	2144.22
216.90	2316.25
217.12	2363.36
217.34	2039.78
217.56	2117.60
217.78	2342.88
218.00	2215.90
218.22	2242.53
218.44	2119.65
218.66	2236.38
218.87	2346.97
219.09	2068.45
219.31	2217.95
219.53	2240.48
219.75	2150.37
219.97	2074.59
220.19	2101.22
220.41	2195.42
220.63	2357.21
220.85	2154.46
221.06	2199.52
221.28	2344.92
221.50	2303.96
221.72	2103.26
221.94	2066.40
222.16	2166.75
222.38	2238.43
222.60	2164.70
222.82	2111.46
223.03	2234.33
223.25	2076.64
223.47	2213.85
223.69	2308.06
223.91	2267.10
224.13	2228.19
224.35	2070.50
224.57	2217.95
224.78	2299.87
225.00	2088.93
225.22	2172.89
225.44	2174.94
225.66	2238.43
225.88	2105.31
226.10	2152.42
226.32	2131.94
226.53	2291.68
226.75	2172.89
226.97	2172.89
227.19	2103.26
227.41	2127.84
227.63	2138.08
227.85	2031.58
228.06	2181.09
228.28	2181.09
228.50	2250.72
228.72	2070.50
228.94	2129.89
229.16	2064.35
229.37	2129.89
229.59	2129.89
229.81	2279.39
230.03	2140.13
230.25	2047.97
230.47	2025.44
230.69	2119.65
230.90	2301.92
231.12	2148.32
231.34	2230.24
231.56	2215.90
231.78	2015.20
232.00	2199.52
232.21	2129.89
232.43	2138.08
232.65	1966.05
232.87	2258.91
233.09	2105.31
233.30	2142.18
233.52	2232.29
233.74	2217.95
233.96	2138.08
234.18	2111.46
234.40	2183.13
234.61	2439.13
234.83	1947.62
235.05	2111.46
235.27	2416.60
235.49	2369.50
235.70	2154.46
235.92	2209.76
236.14	2193.37
236.36	2500.57
236.58	2013.15
236.79	2162.66
237.01	2193.37
237.23	2211.81
237.45	2310.11
237.67	2144.22
237.88	2279.39
238.10	2363.36
238.32	2125.79
238.54	2093.02
238.76	2170.85
238.97	2154.46
239.19	1984.48
239.41	2215.90
239.63	2301.92
239.85	2197.47
240.06	2201.57
240.28	2101.22
240.50	2297.82
240.72	2176.99
240.93	2086.88
241.15	2168.80
241.37	2230.24
241.59	2377.69
241.81	2111.46
242.02	2078.69
242.24	2248.67
242.46	2289.63
242.68	2105.31
242.89	2176.99
243.11	2256.86
243.33	2183.13
243.55	2166.75
243.76	2136.03
243.98	2095.07
244.20	2174.94
244.42	2185.18
244.64	2146.27
244.85	2064.35
245.07	2207.71
245.29	2152.42
245.51	2105.31
245.72	2289.63
245.94	2265.05
246.16	2138.08
246.38	2220.00
246.59	2127.84
246.81	2121.70
247.03	2070.50
247.24	2058.21
247.46	2076.64
247.68	2199.52
247.90	2064.35
248.11	2097.12
248.33	2258.91
248.55	2179.04
248.77	2166.75
248.98	2217.95
249.20	2326.49
249.42	2189.28
249.64	2136.03
249.85	2099.17
250.07	2154.46
250.29	2258.91
250.50	2228.19
250.72	2031.58
250.94	2224.09
251.16	2375.64
251.37	2213.85
251.59	2265.05
251.81	2220.00
252.02	2312.16
252.24	2136.03
252.46	2115.55
252.68	2166.75
252.89	2150.37
253.11	2023.39
253.33	2224.09
253.54	2373.60
253.76	2115.55
253.98	2095.07
254.20	2152.42
254.41	2082.78
254.63	2187.23
254.85	2068.45
255.06	2181.09
255.28	2267.10
255.50	2242.53
255.71	2121.70
255.93	2021.35
256.15	2144.22
256.36	2209.76
256.58	2052.06
256.80	2207.71
257.02	2217.95
257.23	2127.84
257.45	2095.07
257.67	2236.38
257.88	2181.09
258.10	2217.95
258.32	2101.22
258.53	2119.65
258.75	2283.49
258.97	2164.70
259.18	2117.60
259.40	2117.60
259.62	2400.22
259.83	2334.68
260.05	2078.69
260.27	2537.43
260.48	2236.38
260.70	2138.08
260.92	2111.46
261.13	2168.80
261.35	2224.09
261.57	2332.64
261.78	2000.87
262.00	2060.26
262.22	2246.62
262.43	2072.54
262.65	2160.61
262.86	2172.89
263.08	2402.27
263.30	2258.91
263.51	2056.16
263.73	2125.79
263.95	2306.01
264.16	2078.69
264.38	2054.11
264.60	2179.04
264.81	2240.48
265.03	2289.63
265.25	2322.40
265.46	2086.88
265.68	2314.20
265.89	2269.15
266.11	2080.74
266.33	2162.66
266.54	2263.01
266.76	2334.68
266.98	2232.29
267.19	2183.13
267.41	2291.68
267.62	2191.33
267.84	1990.63
268.06	2131.94
268.27	2152.42
268.49	2306.01
268.70	2201.57
268.92	2172.89
269.14	2101.22
269.35	2054.11
269.57	2068.45
269.79	2111.46
270.00	2119.65
270.22	2361.31
270.43	2072.54
270.65	1998.82
270.87	2248.67
271.08	2252.77
271.30	2215.90
271.51	2090.98
271.73	2283.49
271.95	2299.87
272.16	2109.41
272.38	2201.57
272.59	2144.22
272.81	2260.96
273.02	2117.60
273.24	2181.09
273.46	2297.82
273.67	2121.70
273.89	2084.83
274.10	2127.84
274.32	2342.88
274.54	2209.76
274.75	2162.66
274.97	2099.17
275.18	2236.38
275.40	2269.15
275.61	2129.89
275.83	2205.66
276.05	2086.88
276.26	2220.00
276.48	2172.89
276.69	2107.36
276.91	2095.07
277.12	2310.11
277.34	2209.76
277.55	2312.16
277.77	2197.47
277.99	2121.70
278.20	2146.27
278.42	2111.46
278.63	2136.03
278.85	2133.98
279.06	2068.45
279.28	2215.90
279.49	2228.19
279.71	2258.91
279.93	2127.84
280.14	2172.89
280.36	2215.90
280.57	2275.29
280.79	2226.14
281.00	2109.41
281.22	2168.80
281.43	2303.96
281.65	2023.39
281.86	2097.12
282.08	2174.94
282.29	2408.41
282.51	2023.39
282.73	2133.98
282.94	2097.12
283.16	2293.72
283.37	2293.72
283.59	2113.50
283.80	2250.72
284.02	2185.18
284.23	2281.44
284.45	2160.61
284.66	2105.31
284.88	2113.50
285.09	2197.47
285.31	2207.71
285.52	2238.43
285.74	2127.84
285.95	2226.14
286.17	2199.52
286.38	2285.53
286.60	2146.27
286.81	2195.42
287.03	2082.78
287.24	2117.60
287.46	2230.24
287.67	2179.04
287.89	2334.68
288.10	2121.70
288.32	2242.53
288.53	2308.06
288.75	2215.90
288.96	2230.24
289.18	2129.89
289.39	2199.52
289.61	2254.81
289.82	2408.41
290.04	2361.31
290.25	2168.80
290.47	2195.42
290.68	2195.42
290.90	2258.91
291.11	2052.06
291.33	2295.77
291.54	2105.31
291.76	2136.03
291.97	2181.09
292.18	2174.94
292.40	2138.08
292.61	2133.98
292.83	2306.01
293.04	2248.67
293.26	2273.25
293.47	2123.74
293.69	2039.78
293.90	2133.98
294.12	2230.24
294.33	2215.90
294.55	2164.70
294.76	2197.47
294.97	2308.06
295.19	2355.16
295.40	2084.83
295.62	2263.01
295.83	2295.77
296.05	2176.99
296.26	2256.86
296.48	2162.66
296.69	2224.09
296.90	2107.36
297.12	2193.37
297.33	2242.53
297.55	2172.89
297.76	2283.49
297.98	2273.25
298.19	2150.37
298.41	2205.66
298.62	2047.97
298.83	2318.30
299.05	2199.52
299.26	2201.57
299.48	2043.87
299.69	2263.01
299.90	2133.98
300.12	2136.03
300.33	2195.42
300.55	2220.00
300.76	2244.57
300.98	2084.83
301.19	2303.96
301.40	2144.22
301.62	2199.52
301.83	2269.15
302.05	2234.33
302.26	2181.09
302.47	2168.80
302.69	2086.88
302.90	2195.42
303.12	1996.77
303.33	2260.96
303.54	2363.36
303.76	2160.61
303.97	2209.76
304.19	2306.01
304.40	2144.22
304.61	2252.77
304.83	2299.87
305.04	2234.33
305.26	2236.38
305.47	2222.05
305.68	2207.71
305.90	2088.93
306.11	2228.19
306.33	2217.95
306.54	2107.36
306.75	2170.85
306.97	2054.11
307.18	2099.17
307.39	2103.26
307.61	2236.38
307.82	2146.27
308.04	2195.42
308.25	2056.16
308.46	2209.76
308.68	2201.57
308.89	2199.52
309.10	2238.43
309.32	2127.84
309.53	2224.09
309.74	2236.38
309.96	2111.46
310.17	2308.06
310.39	2144.22
310.60	2183.13
310.81	2189.28
311.03	2058.21
311.24	2248.67
311.45	2176.99
311.67	2338.78
311.88	2170.85
312.09	2125.79
312.31	2123.74
312.52	2129.89
312.73	2115.55
312.95	2154.46
313.16	2090.98
313.37	2232.29
313.59	2226.14
313.80	2269.15
314.01	2336.73
314.23	2179.04
314.44	2144.22
314.65	2127.84
314.87	2072.54
315.08	2152.42
315.29	2193.37
315.51	2025.44
315.72	2039.78
315.93	2394.08
316.15	2244.57
316.36	2168.80
316.57	2260.96
316.79	2289.63
317.00	2160.61
317.21	2291.68
317.43	2107.36
317.64	2220.00
317.85	2117.60
318.07	2146.27
318.28	2121.70
318.49	2324.44
318.70	2545.63
318.92	2338.78
319.13	2398.17
319.34	2377.69
319.56	2334.68
319.77	2375.64
319.98	2334.68
320.20	2363.36
320.41	2293.72
320.62	2273.25
320.83	2074.59
321.05	2326.49
321.26	2170.85
321.47	2203.61
321.69	2256.86
321.90	1964.00
322.11	2111.46
322.32	2193.37
322.54	2351.07
322.75	2142.18
322.96	2559.96
323.18	2115.55
323.39	2033.63
323.60	2086.88
323.81	2256.86
324.03	2144.22
324.24	2258.91
324.45	2125.79
324.66	2164.70
324.88	2338.78
325.09	2271.20
325.30	2160.61
325.52	2174.94
325.73	2260.96
325.94	2064.35
326.15	2009.06
326.37	2095.07
326.58	2293.72
326.79	2336.73
327.00	2088.93
327.22	2162.66
327.43	2193.37
327.64	2066.40
327.85	2256.86
328.07	2244.57
328.28	2375.64
328.49	2211.81
328.70	2119.65
328.92	2158.56
329.13	2201.57
329.34	2256.86
329.55	2318.30
329.76	2244.57
329.98	2154.46
330.19	2318.30
330.40	2232.29
330.61	2273.25
330.83	2234.33
331.04	2084.83
331.25	2250.72
331.46	2213.85
331.68	2056.16
331.89	2269.15
332.10	2271.20
332.31	2041.82
332.52	2258.91
332.74	2324.44
332.95	2064.35
333.16	2168.80
333.37	2217.95
333.58	2191.33
333.80	2170.85
334.01	1984.48
334.22	2172.89
334.43	2172.89
334.64	2080.74
334.86	2082.78
335.07	2138.08
335.28	2342.88
335.49	1974.24
335.70	2234.33
335.92	2344.92
336.13	2385.88
336.34	2269.15
336.55	2172.89
336.76	2203.61
336.98	2064.35
337.19	2238.43
337.40	2326.49
337.61	2389.98
337.82	2213.85
338.04	2230.24
338.25	1976.29
338.46	2172.89
338.67	2179.04
338.88	2101.22
339.09	2095.07
339.31	2164.70
339.52	2121.70
339.73	2043.87
339.94	2195.42
340.15	2234.33
340.36	2191.33
340.58	2232.29
340.79	2117.60
341.00	2228.19
341.21	2084.83
341.42	2236.38
341.63	2234.33
341.85	2220.00
342.06	2203.61
342.27	2086.88
342.48	2310.11
342.69	2084.83
342.90	2269.15
343.12	2238.43
343.33	2119.65
343.54	2211.81
343.75	2353.12
343.96	2209.76
344.17	2133.98
344.38	2203.61
344.60	2121.70
344.81	2047.97
345.02	2179.04
345.23	2185.18
345.44	2426.84
345.65	2220.00
345.86	2207.71
346.07	2160.61
346.29	2148.32
346.50	2222.05
346.71	2254.81
346.92	2273.25
347.13	2482.14
347.34	2174.94
347.55	2142.18
347.76	2217.95
347.98	2050.02
348.19	2172.89
348.40	2308.06
348.61	2201.57
348.82	2273.25
349.03	2281.44
349.24	2107.36
349.45	2400.22
349.66	2062.30
349.88	2166.75
350.09	2162.66
350.30	2375.64
350.51	2342.88
350.72	2203.61
350.93	2228.19
351.14	2160.61
351.35	2215.90
351.56	2115.55
351.77	2215.90
351.99	2297.82
352.20	2355.16
352.41	2217.95
352.62	2086.88
352.83	2144.22
353.04	2246.62
353.25	2103.26
353.46	2283.49
353.67	2285.53
353.88	2039.78
354.09	2172.89
354.30	2154.46
354.52	2250.72
354.73	2236.38
354.94	2170.85
355.15	2199.52
355.36	2328.54
355.57	2195.42
355.78	2181.09
355.99	2129.89
356.20	2154.46
356.41	2248.67
356.62	2285.53
356.83	2154.46
357.04	2355.16
357.25	2066.40
357.46	2152.42
357.68	2080.74
357.89	2105.31
358.10	2215.90
358.31	2166.75
358.52	2170.85
358.73	2074.59
358.94	2115.55
359.15	2150.37
359.36	2260.96
359.57	2197.47
359.78	2215.90
359.99	2211.81
360.20	2056.16
360.41	2160.61
360.62	2244.57
360.83	2234.33
361.04	2193.37
361.25	2205.66
361.46	2303.96
361.67	2236.38
361.88	2240.48
362.09	2363.36
362.30	2279.39
362.51	2105.31
362.72	2193.37
362.93	2258.91
363.14	2193.37
363.35	2203.61
363.56	2095.07
363.78	2285.53
363.99	2271.20
364.20	2095.07
364.41	2205.66
364.62	2367.45
364.83	2252.77
365.04	2138.08
365.25	2228.19
365.46	2369.50
365.67	2088.93
365.88	2277.34
366.09	2168.80
366.30	2185.18
366.51	2170.85
366.72	2088.93
366.93	2105.31
367.14	2193.37
367.35	2314.20
367.56	2131.94
367.77	2269.15
367.98	2172.89
368.18	2285.53
368.39	2187.23
368.60	2084.83
368.81	2220.00
369.02	2217.95
369.23	2146.27
369.44	2060.26
369.65	2230.24
369.86	2222.05
370.07	2228.19
370.28	2117.60
370.49	2240.48
370.70	2203.61
370.91	2109.41
371.12	2138.08
371.33	2340.83
371.54	2138.08
371.75	2297.82
371.96	2031.58
372.17	2129.89
372.38	2314.20
372.59	2170.85
372.80	2211.81
373.01	2176.99
373.22	2176.99
373.43	2224.09
373.64	2052.06
373.85	2252.77
374.06	2297.82
374.26	2306.01
374.47	2287.58
374.68	2224.09
374.89	2185.18
375.10	2127.84
375.31	2256.86
375.52	2154.46
375.73	2226.14
375.94	2062.30
376.15	2252.77
376.36	2148.32
376.57	2086.88
376.78	2205.66
376.99	2174.94
377.20	2322.40
377.40	2166.75
377.61	2342.88
377.82	2056.16
378.03	2301.92
378.24	2172.89
378.45	2121.70
378.66	2226.14
378.87	2045.92
379.08	2080.74
379.29	2160.61
379.50	2181.09
379.71	2154.46
379.91	2254.81
380.12	2230.24
380.33	2183.13
380.54	2203.61
380.75	2183.13
380.96	2170.85
381.17	2275.29
381.38	2191.33
381.59	2297.82
381.80	2191.33
382.00	2359.26
382.21	2289.63
382.42	2404.32
382.63	2453.47
382.84	2191.33
383.05	2244.57
383.26	2357.21
383.47	2152.42
383.68	2236.38
383.88	2355.16
384.09	2201.57
384.30	2316.25
384.51	2244.57
384.72	2187.23
384.93	2080.74
385.14	2211.81
385.35	2346.97
385.55	2045.92
385.76	2402.27
385.97	2160.61
386.18	2076.64
386.39	2146.27
386.60	2179.04
386.81	2234.33
387.02	2131.94
387.22	2095.07
387.43	2293.72
387.64	2232.29
387.85	2371.55
388.06	2475.99
388.27	3950.53
388.48	8609.66
388.68	12330.82
388.89	14577.44
389.10	15738.64
389.31	14552.87
389.52	11360.08
389.73	9664.36
389.93	8826.75
390.14	8150.92
390.35	7241.62
390.56	6602.65
390.77	5365.68
390.98	4186.05
391.18	3233.74
391.39	2815.96
391.60	2361.31
391.81	2381.79
392.02	2162.66
392.23	2392.03
392.43	2283.49
392.64	2357.21
392.85	2238.43
393.06	2398.17
393.27	2224.09
393.47	2129.89
393.68	2156.51
393.89	2103.26
394.10	2312.16
394.31	2127.84
394.52	2107.36
394.72	2113.50
394.93	2277.34
395.14	2154.46
395.35	2220.00
395.56	2113.50
395.76	2129.89
395.97	2285.53
396.18	2408.41
396.39	2373.60
396.60	2688.98
396.80	2404.32
397.01	2396.12
397.22	2322.40
397.43	2371.55
397.64	2158.56
397.84	2281.44
398.05	2461.66
398.26	2181.09
398.47	2306.01
398.67	2303.96
398.88	2144.22
399.09	2293.72
399.30	2164.70
399.51	2205.66
399.71	2119.65
399.92	2258.91
400.13	2181.09
400.34	2176.99
400.54	2156.51
400.75	2334.68
400.96	2240.48
401.17	2439.13
401.37	2289.63
401.58	2199.52
401.79	2201.57
402.00	2365.40
402.21	2602.97
402.41	2545.63
402.62	2580.44
402.83	2592.73
403.04	2688.98
403.24	2686.94
403.45	2308.06
403.66	2404.32
403.87	2430.94
404.07	2480.09
404.28	2480.09
404.49	2451.42
404.70	2353.12
404.90	2308.06
405.11	2265.05
405.32	2213.85
405.52	2119.65
405.73	2166.75
405.94	2088.93
406.15	2164.70
406.35	2234.33
406.56	2318.30
406.77	2277.34
406.98	2209.76
407.18	2146.27
407.39	2424.80
407.60	2209.76
407.80	2287.58
408.01	2127.84
408.22	2306.01
408.43	2172.89
408.63	2172.89
408.84	2240.48
409.05	2312.16
409.25	2187.23
409.46	2166.75
409.67	2082.78
409.88	2111.46
410.08	2181.09
410.29	2103.26
410.50	2242.53
410.70	2310.11
410.91	2080.74
411.12	2211.81
411.32	2191.33
411.53	2136.03
411.74	2234.33
411.95	2279.39
412.15	2283.49
412.36	2271.20
412.57	2334.68
412.77	2353.12
412.98	2201.57
413.19	2271.20
413.39	2314.20
413.60	2250.72
413.81	2428.89
414.01	2246.62
414.22	2213.85
414.43	2285.53
414.63	2195.42
414.84	2258.91
415.05	2236.38
415.25	2082.78
415.46	2248.67
415.67	2095.07
415.87	2168.80
416.08	2222.05
416.29	2176.99
416.49	2299.87
416.70	2207.71
416.91	2150.37
417.11	2125.79
417.32	2297.82
417.53	2283.49
417.73	2320.35
417.94	2142.18
418.15	2195.42
418.35	2256.86
418.56	2176.99
418.77	2461.66
418.97	2236.38
419.18	2222.05
419.38	2002.91
419.59	2168.80
419.80	2320.35
420.00	2072.54
420.21	2148.32
420.42	2346.97
420.62	2242.53
420.83	2152.42
421.04	2187.23
421.24	2185.18
421.45	2342.88
421.65	2232.29
421.86	2127.84
422.07	2242.53
422.27	2127.84
422.48	2205.66
422.69	2185.18
422.89	2174.94
423.10	2170.85
423.30	2086.88
423.51	2232.29
423.72	2199.52
423.92	2310.11
424.13	2041.82
424.33	2187.23
424.54	2281.44
424.75	2209.76
424.95	2387.93
425.16	2197.47
425.36	2160.61
425.57	2260.96
425.78	2289.63
425.98	2234.33
426.19	2170.85
426.39	2117.60
426.60	2293.72
426.81	2326.49
427.01	2252.77
427.22	2172.89
427.42	2072.54
427.63	2148.32
427.83	2236.38
428.04	2361.31
428.25	2301.92
428.45	2211.81
428.66	2334.68
428.86	2191.33
429.07	2220.00
429.28	2191.33
429.48	2174.94
429.69	2121.70
429.89	2220.00
430.10	2078.69
430.30	2224.09
430.51	2379.74
430.71	2093.02
430.92	2211.81
431.13	2195.42
431.33	2248.67
431.54	2160.61
431.74	2361.31
431.95	2432.99
432.15	2265.05
432.36	2220.00
432.56	2244.57
432.77	2392.03
432.98	2351.07
433.18	2209.76
433.39	2203.61
433.59	2138.08
433.80	2381.79
434.00	2383.84
434.21	2156.51
434.41	2148.32
434.62	2412.51
434.82	2129.89
435.03	2203.61
435.23	2254.81
435.44	1986.53
435.64	2121.70
435.85	2201.57
436.06	2332.64
436.26	2330.59
436.47	2183.13
436.67	2181.09
436.88	2213.85
437.08	2306.01
437.29	2326.49
437.49	2238.43
437.70	2291.68
437.90	2228.19
438.11	2365.40
438.31	2291.68
438.52	2441.18
438.72	2381.79
438.93	2480.09
439.13	2316.25
439.34	2410.46
439.54	2217.95
439.75	2336.73
439.95	2244.57
440.16	2179.04
440.36	2228.19
440.57	2252.77
440.77	2193.37
440.98	2226.14
441.18	2256.86
441.39	2105.31
441.59	2097.12
441.80	2381.79
442.00	2162.66
442.21	2359.26
442.41	2086.88
442.62	2310.11
442.82	2154.46
443.02	2115.55
443.23	2244.57
443.43	2172.89
443.64	2308.06
443.84	2168.80
444.05	2336.73
444.25	2189.28
444.46	2154.46
444.66	2170.85
444.87	2355.16
445.07	2033.63
445.28	2224.09
445.48	2340.83
445.69	2293.72
445.89	2422.75
446.09	2209.76
446.30	2535.39
446.50	2813.91
446.71	4454.33
446.91	5541.80
447.12	6580.12
447.32	6946.71
447.53	6295.46
447.73	5179.31
447.93	4464.57
448.14	4147.14
448.34	4114.37
448.55	3659.72
448.75	3604.42
448.96	3342.28
449.16	3035.09
449.36	2883.54
449.57	2519.00
449.77	2359.26
449.98	2170.85
450.18	2359.26
450.39	2234.33
450.59	2263.01
450.79	2191.33
451.00	2226.14
451.20	2271.20
451.41	2170.85
451.61	2228.19
451.81	2248.67
452.02	2193.37
452.22	2142.18
452.43	2133.98
452.63	2176.99
