SpectraSuite Data File
++++++++++++++++++++++++++++++++++++
Date: Thu May 05 12:35:07 CEST 2016
User: root
Dark Spectrum Present: No
Reference Spectrum Present: No
Number of Sampled Component Spectra: 1
Spectrometers: USB4C02835
Integration Time (usec): 100000 (USB4C02835)
Spectra Averaged: 1 (USB4C02835)
Boxcar Smoothing: 0 (USB4C02835)
Correct for Electrical Dark: No (USB4C02835)
Strobe/Lamp Enabled: No (USB4C02835)
Correct for Detector Non-linearity: No (USB4C02835)
Correct for Stray Light: No (USB4C02835)
Number of Pixels in Processed Spectrum: 3648
>>>>>Begin Processed Spectral Data<<<<<
177.47	1814.50
177.69	1814.50
177.91	1814.50
178.13	1693.67
178.36	1753.06
178.58	2064.35
178.80	2183.13
179.02	2084.83
179.24	2029.54
179.46	2127.84
179.68	2174.94
179.90	2176.99
180.13	2117.60
180.35	1966.05
180.57	2060.26
180.79	2308.06
181.01	2174.94
181.23	2260.96
181.45	2238.43
181.67	2248.67
181.90	2209.76
182.12	2127.84
182.34	2047.97
182.56	2250.72
182.78	2203.61
183.00	2103.26
183.22	2129.89
183.44	2060.26
183.66	2482.14
183.89	2283.49
184.11	2179.04
184.33	2295.77
184.55	2254.81
184.77	2105.31
184.99	2166.75
185.21	2158.56
185.43	2392.03
185.65	2101.22
185.87	2121.70
186.10	2408.41
186.32	2422.75
186.54	2195.42
186.76	2238.43
186.98	2289.63
187.20	2142.18
187.42	2119.65
187.64	2144.22
187.86	2146.27
188.08	2265.05
188.30	2123.74
188.52	2142.18
188.75	2332.64
188.97	2295.77
189.19	2068.45
189.41	2072.54
189.63	2220.00
189.85	2103.26
190.07	2035.68
190.29	1994.72
190.51	2226.14
190.73	2131.94
190.95	2109.41
191.17	2154.46
191.39	2115.55
191.61	2189.28
191.84	2158.56
192.06	2240.48
192.28	2072.54
192.50	2408.41
192.72	2142.18
192.94	2121.70
193.16	2338.78
193.38	2277.34
193.60	2064.35
193.82	2086.88
194.04	2351.07
194.26	2222.05
194.48	2072.54
194.70	2035.68
194.92	2066.40
195.14	2244.57
195.36	2088.93
195.58	2123.74
195.80	2205.66
196.02	2168.80
196.24	2127.84
196.46	2209.76
196.69	2140.13
196.91	2453.47
197.13	2148.32
197.35	2150.37
197.57	2324.44
197.79	2328.54
198.01	2125.79
198.23	2146.27
198.45	2273.25
198.67	2074.59
198.89	2080.74
199.11	2258.91
199.33	2097.12
199.55	2031.58
199.77	2146.27
199.99	2228.19
200.21	2195.42
200.43	2176.99
200.65	1992.67
200.87	2025.44
201.09	2129.89
201.31	2166.75
201.53	2154.46
201.75	2170.85
201.97	2265.05
202.19	2131.94
202.41	2113.50
202.63	2283.49
202.85	2263.01
203.07	2222.05
203.29	2105.31
203.51	2052.06
203.73	2179.04
203.95	2445.27
204.17	2236.38
204.39	2156.51
204.61	2181.09
204.83	2154.46
205.05	2205.66
205.27	2162.66
205.49	2428.89
205.71	2181.09
205.93	2076.64
206.15	2105.31
206.37	2170.85
206.59	2191.33
206.81	2123.74
207.03	2093.02
207.25	2138.08
207.47	2246.62
207.69	2115.55
207.91	2318.30
208.13	2301.92
208.34	2162.66
208.56	2090.98
208.78	2127.84
209.00	2136.03
209.22	2105.31
209.44	2099.17
209.66	2099.17
209.88	2154.46
210.10	2107.36
210.32	2125.79
210.54	2207.71
210.76	2209.76
210.98	2267.10
211.20	2031.58
211.42	2220.00
211.64	2293.72
211.86	2244.57
212.08	2105.31
212.30	2097.12
212.52	2195.42
212.74	2211.81
212.96	2174.94
213.17	2203.61
213.39	2240.48
213.61	2330.59
213.83	2195.42
214.05	2199.52
214.27	2289.63
214.49	2064.35
214.71	2105.31
214.93	2211.81
215.15	2220.00
215.37	2265.05
215.59	2047.97
215.81	2195.42
216.03	2269.15
216.24	2170.85
216.46	2146.27
216.68	2232.29
216.90	2299.87
217.12	2291.68
217.34	2066.40
217.56	2185.18
217.78	2357.21
218.00	2238.43
218.22	2195.42
218.44	2181.09
218.66	2275.29
218.87	2349.02
219.09	2140.13
219.31	2265.05
219.53	2220.00
219.75	2125.79
219.97	2062.30
220.19	2176.99
220.41	2207.71
220.63	2334.68
220.85	2246.62
221.06	2101.22
221.28	2299.87
221.50	2279.39
221.72	2133.98
221.94	2105.31
222.16	2193.37
222.38	2344.92
222.60	2156.51
222.82	2125.79
223.03	2349.02
223.25	2097.12
223.47	2201.57
223.69	2246.62
223.91	2213.85
224.13	2176.99
224.35	2074.59
224.57	2244.57
224.78	2260.96
225.00	2080.74
225.22	2170.85
225.44	2068.45
225.66	2238.43
225.88	2160.61
226.10	2209.76
226.32	2060.26
226.53	2316.25
226.75	2084.83
226.97	2099.17
227.19	2129.89
227.41	2144.22
227.63	2080.74
227.85	2015.20
228.06	2138.08
228.28	2228.19
228.50	2254.81
228.72	2015.20
228.94	2080.74
229.16	2039.78
229.37	2080.74
229.59	2072.54
229.81	2168.80
230.03	2156.51
230.25	2062.30
230.47	2029.54
230.69	2017.25
230.90	2230.24
231.12	2125.79
231.34	2176.99
231.56	2191.33
231.78	2088.93
232.00	2199.52
232.21	2240.48
232.43	2138.08
232.65	1992.67
232.87	2277.34
233.09	2111.46
233.30	2152.42
233.52	2320.35
233.74	2121.70
233.96	2095.07
234.18	2164.70
234.40	2193.37
234.61	2306.01
234.83	2035.68
235.05	2033.63
235.27	2387.93
235.49	2293.72
235.70	2086.88
235.92	2230.24
236.14	2250.72
236.36	2410.46
236.58	2047.97
236.79	2193.37
237.01	2222.05
237.23	2176.99
237.45	2318.30
237.67	2119.65
237.88	2203.61
238.10	2430.94
238.32	2099.17
238.54	2113.50
238.76	2170.85
238.97	2154.46
239.19	2047.97
239.41	2164.70
239.63	2289.63
239.85	2144.22
240.06	2164.70
240.28	2090.98
240.50	2289.63
240.72	2191.33
240.93	2090.98
241.15	2174.94
241.37	2131.94
241.59	2289.63
241.81	2172.89
242.02	2113.50
242.24	2220.00
242.46	2267.10
242.68	2047.97
242.89	2144.22
243.11	2285.53
243.33	2215.90
243.55	2146.27
243.76	2150.37
243.98	2113.50
244.20	2207.71
244.42	2131.94
244.64	2172.89
244.85	2080.74
245.07	2084.83
245.29	2234.33
245.51	2105.31
245.72	2170.85
245.94	2258.91
246.16	2146.27
246.38	2154.46
246.59	2093.02
246.81	2136.03
247.03	2109.41
247.24	2050.02
247.46	2176.99
247.68	2197.47
247.90	2047.97
248.11	2113.50
248.33	2228.19
248.55	2240.48
248.77	2176.99
248.98	2166.75
249.20	2342.88
249.42	2273.25
249.64	2197.47
249.85	2197.47
250.07	2191.33
250.29	2283.49
250.50	2201.57
250.72	2002.91
250.94	2226.14
251.16	2453.47
251.37	2220.00
251.59	2162.66
251.81	2228.19
252.02	2404.32
252.24	2097.12
252.46	2222.05
252.68	2056.16
252.89	2074.59
253.11	1986.53
253.33	2330.59
253.54	2349.02
253.76	2107.36
253.98	2154.46
254.20	2070.50
254.41	2101.22
254.63	2197.47
254.85	2086.88
255.06	2146.27
255.28	2260.96
255.50	2111.46
255.71	2088.93
255.93	2035.68
256.15	2152.42
256.36	2277.34
256.58	2095.07
256.80	2111.46
257.02	2136.03
257.23	2066.40
257.45	2179.04
257.67	2217.95
257.88	2168.80
258.10	2199.52
258.32	2127.84
258.53	2224.09
258.75	2312.16
258.97	2140.13
259.18	2131.94
259.40	2035.68
259.62	2316.25
259.83	2326.49
260.05	2195.42
260.27	2621.40
260.48	2265.05
260.70	2062.30
260.92	2170.85
261.13	2203.61
261.35	2170.85
261.57	2242.53
261.78	2064.35
262.00	1982.43
262.22	2195.42
262.43	2170.85
262.65	2105.31
262.86	2070.50
263.08	2490.33
263.30	2166.75
263.51	1970.15
263.73	2142.18
263.95	2338.78
264.16	2060.26
264.38	2043.87
264.60	2187.23
264.81	2224.09
265.03	2271.20
265.25	2271.20
265.46	2062.30
265.68	2359.26
265.89	2238.43
266.11	2029.54
266.33	2166.75
266.54	2316.25
266.76	2183.13
266.98	2197.47
267.19	2164.70
267.41	2351.07
267.62	2197.47
267.84	1990.63
268.06	2166.75
268.27	2207.71
268.49	2324.44
268.70	2260.96
268.92	2179.04
269.14	2172.89
269.35	2113.50
269.57	2185.18
269.79	2230.24
270.00	2176.99
270.22	2334.68
270.43	2101.22
270.65	2113.50
270.87	2222.05
271.08	2291.68
271.30	2129.89
271.51	2127.84
271.73	2238.43
271.95	2312.16
272.16	2146.27
272.38	2242.53
272.59	2146.27
272.81	2179.04
273.02	2125.79
273.24	2234.33
273.46	2365.40
273.67	2121.70
273.89	2113.50
274.10	2111.46
274.32	2248.67
274.54	2232.29
274.75	2146.27
274.97	2156.51
275.18	2346.97
275.40	2201.57
275.61	2142.18
275.83	2217.95
276.05	2103.26
276.26	2172.89
276.48	2228.19
276.69	2144.22
276.91	2115.55
277.12	2269.15
277.34	2179.04
277.55	2240.48
277.77	2252.77
277.99	2131.94
278.20	2074.59
278.42	2013.15
278.63	2129.89
278.85	2101.22
279.06	2064.35
279.28	2242.53
279.49	2295.77
279.71	2224.09
279.93	2131.94
280.14	2136.03
280.36	2146.27
280.57	2267.10
280.79	2267.10
281.00	2056.16
281.22	2111.46
281.43	2349.02
281.65	1996.77
281.86	2109.41
282.08	2187.23
282.29	2349.02
282.51	2070.50
282.73	2043.87
282.94	2076.64
283.16	2258.91
283.37	2263.01
283.59	2205.66
283.80	2295.77
284.02	2291.68
284.23	2117.60
284.45	2183.13
284.66	2123.74
284.88	2101.22
285.09	2160.61
285.31	2246.62
285.52	2256.86
285.74	2080.74
285.95	2306.01
286.17	2207.71
286.38	2271.20
286.60	2043.87
286.81	2117.60
287.03	2172.89
287.24	2142.18
287.46	2283.49
287.67	2125.79
287.89	2359.26
288.10	2144.22
288.32	2150.37
288.53	2338.78
288.75	2158.56
288.96	2250.72
289.18	2052.06
289.39	2179.04
289.61	2179.04
289.82	2306.01
290.04	2447.32
290.25	2080.74
290.47	2183.13
290.68	2215.90
290.90	2254.81
291.11	2041.82
291.33	2254.81
291.54	2047.97
291.76	2129.89
291.97	2220.00
292.18	2211.81
292.40	2121.70
292.61	2162.66
292.83	2408.41
293.04	2269.15
293.26	2260.96
293.47	2097.12
293.69	2129.89
293.90	2220.00
294.12	2334.68
294.33	2183.13
294.55	2191.33
294.76	2240.48
294.97	2301.92
295.19	2375.64
295.40	2164.70
295.62	2224.09
295.83	2244.57
296.05	2166.75
296.26	2301.92
296.48	2090.98
296.69	2142.18
296.90	2160.61
297.12	2244.57
297.33	2263.01
297.55	2183.13
297.76	2230.24
297.98	2308.06
298.19	2193.37
298.41	2209.76
298.62	2037.73
298.83	2269.15
299.05	2316.25
299.26	2166.75
299.48	2152.42
299.69	2232.29
299.90	2131.94
300.12	2113.50
300.33	2183.13
300.55	2226.14
300.76	2283.49
300.98	2062.30
301.19	2246.62
301.40	2148.32
301.62	2093.02
301.83	2260.96
302.05	2236.38
302.26	2232.29
302.47	2213.85
302.69	2084.83
302.90	2181.09
303.12	1998.82
303.33	2170.85
303.54	2428.89
303.76	2113.50
303.97	2187.23
304.19	2334.68
304.40	2047.97
304.61	2295.77
304.83	2289.63
305.04	2293.72
305.26	2297.82
305.47	2146.27
305.68	2158.56
305.90	2144.22
306.11	2326.49
306.33	2121.70
306.54	2129.89
306.75	2084.83
306.97	2056.16
307.18	2082.78
307.39	2160.61
307.61	2322.40
307.82	2234.33
308.04	2246.62
308.25	2142.18
308.46	2265.05
308.68	2176.99
308.89	2111.46
309.10	2281.44
309.32	2181.09
309.53	2170.85
309.74	2240.48
309.96	2168.80
310.17	2308.06
310.39	2170.85
310.60	2191.33
310.81	2197.47
311.03	2025.44
311.24	2269.15
311.45	2283.49
311.67	2318.30
311.88	2123.74
312.09	2170.85
312.31	2144.22
312.52	2226.14
312.73	2197.47
312.95	2031.58
313.16	2133.98
313.37	2215.90
313.59	2195.42
313.80	2289.63
314.01	2306.01
314.23	2129.89
314.44	2088.93
314.65	2111.46
314.87	2164.70
315.08	2187.23
315.29	2191.33
315.51	2121.70
315.72	2011.11
315.93	2260.96
316.15	2154.46
316.36	2113.50
316.57	2220.00
316.79	2152.42
317.00	2150.37
317.21	2168.80
317.43	2119.65
317.64	2252.77
317.85	2074.59
318.07	2113.50
318.28	2207.71
318.49	2359.26
318.70	2443.23
318.92	2377.69
319.13	2424.80
319.34	2361.31
319.56	2314.20
319.77	2308.06
319.98	2297.82
320.20	2342.88
320.41	2250.72
320.62	2332.64
320.83	2121.70
321.05	2314.20
321.26	2205.66
321.47	2228.19
321.69	2306.01
321.90	2066.40
322.11	2113.50
322.32	2267.10
322.54	2254.81
322.75	2127.84
322.96	2504.67
323.18	2097.12
323.39	2035.68
323.60	2068.45
323.81	2215.90
324.03	2095.07
324.24	2224.09
324.45	2168.80
324.66	2232.29
324.88	2291.68
325.09	2373.60
325.30	2166.75
325.52	2154.46
325.73	2283.49
325.94	2088.93
326.15	1996.77
326.37	2123.74
326.58	2228.19
326.79	2379.74
327.00	2070.50
327.22	2207.71
327.43	2113.50
327.64	2174.94
327.85	2248.67
328.07	2275.29
328.28	2383.84
328.49	2138.08
328.70	2228.19
328.92	2176.99
329.13	2166.75
329.34	2236.38
329.55	2406.36
329.76	2246.62
329.98	2187.23
330.19	2254.81
330.40	2203.61
330.61	2236.38
330.83	2310.11
331.04	2119.65
331.25	2252.77
331.46	2131.94
331.68	2050.02
331.89	2224.09
332.10	2121.70
332.31	2115.55
332.52	2193.37
332.74	2260.96
332.95	2080.74
333.16	2160.61
333.37	2211.81
333.58	2129.89
333.80	2172.89
334.01	2033.63
334.22	2140.13
334.43	2176.99
334.64	2152.42
334.86	2007.01
335.07	2070.50
335.28	2340.83
335.49	2068.45
335.70	2215.90
335.92	2252.77
336.13	2357.21
336.34	2220.00
336.55	2146.27
336.76	2248.67
336.98	2027.49
337.19	2191.33
337.40	2314.20
337.61	2432.99
337.82	2215.90
338.04	2308.06
338.25	2105.31
338.46	2277.34
338.67	2201.57
338.88	2103.26
339.09	2043.87
339.31	2129.89
339.52	2142.18
339.73	2023.39
339.94	2224.09
340.15	2193.37
340.36	2125.79
340.58	2228.19
340.79	2103.26
341.00	2265.05
341.21	2097.12
341.42	2435.03
341.63	2138.08
341.85	2252.77
342.06	2154.46
342.27	2074.59
342.48	2213.85
342.69	2099.17
342.90	2320.35
343.12	2322.40
343.33	2066.40
343.54	2252.77
343.75	2312.16
343.96	2121.70
344.17	2154.46
344.38	2179.04
344.60	2146.27
344.81	2123.74
345.02	2183.13
345.23	2410.46
345.44	2461.66
345.65	2152.42
345.86	2203.61
346.07	2263.01
346.29	2121.70
346.50	2322.40
346.71	2252.77
346.92	2281.44
347.13	2457.56
347.34	2207.71
347.55	2082.78
347.76	2203.61
347.98	1990.63
348.19	2146.27
348.40	2244.57
348.61	2179.04
348.82	2273.25
349.03	2269.15
349.24	2111.46
349.45	2324.44
349.66	2002.91
349.88	2211.81
350.09	2117.60
350.30	2340.83
350.51	2308.06
350.72	2244.57
350.93	2183.13
351.14	2095.07
351.35	2273.25
351.56	2164.70
351.77	2174.94
351.99	2252.77
352.20	2353.12
352.41	2207.71
352.62	2052.06
352.83	2215.90
353.04	2174.94
353.25	2174.94
353.46	2244.57
353.67	2258.91
353.88	2035.68
354.09	2160.61
354.30	2179.04
354.52	2271.20
354.73	2224.09
354.94	2117.60
355.15	2150.37
355.36	2389.98
355.57	2256.86
355.78	2179.04
355.99	2097.12
356.20	2097.12
356.41	2359.26
356.62	2291.68
356.83	2207.71
357.04	2338.78
357.25	2019.30
357.46	2162.66
357.68	2000.87
357.89	2113.50
358.10	2199.52
358.31	2234.33
358.52	2181.09
358.73	2080.74
358.94	2056.16
359.15	2156.51
359.36	2224.09
359.57	2125.79
359.78	2189.28
359.99	2234.33
360.20	2129.89
360.41	2236.38
360.62	2232.29
360.83	2240.48
361.04	2211.81
361.25	2246.62
361.46	2297.82
361.67	2248.67
361.88	2226.14
362.09	2332.64
362.30	2236.38
362.51	2158.56
362.72	2226.14
362.93	2263.01
363.14	2234.33
363.35	2199.52
363.56	2117.60
363.78	2373.60
363.99	2275.29
364.20	2146.27
364.41	2246.62
364.62	2396.12
364.83	2203.61
365.04	2207.71
365.25	2136.03
365.46	2383.84
365.67	2129.89
365.88	2164.70
366.09	2181.09
366.30	2097.12
366.51	2179.04
366.72	2088.93
366.93	2236.38
367.14	2228.19
367.35	2308.06
367.56	2125.79
367.77	2316.25
367.98	2236.38
368.18	2299.87
368.39	2242.53
368.60	2039.78
368.81	2299.87
369.02	2211.81
369.23	2195.42
369.44	2021.35
369.65	2125.79
369.86	2248.67
370.07	2254.81
370.28	2111.46
370.49	2238.43
370.70	2205.66
370.91	2097.12
371.12	2086.88
371.33	2344.92
371.54	2131.94
371.75	2301.92
371.96	2041.82
372.17	2176.99
372.38	2138.08
372.59	2234.33
372.80	2086.88
373.01	2181.09
373.22	2267.10
373.43	2207.71
373.64	2072.54
373.85	2369.50
374.06	2361.31
374.26	2193.37
374.47	2248.67
374.68	2359.26
374.89	2193.37
375.10	2146.27
375.31	2238.43
375.52	2228.19
375.73	2187.23
375.94	2060.26
376.15	2383.84
376.36	2142.18
376.57	2052.06
376.78	2179.04
376.99	2183.13
377.20	2277.34
377.40	2158.56
377.61	2351.07
377.82	2105.31
378.03	2318.30
378.24	2267.10
378.45	2222.05
378.66	2183.13
378.87	2097.12
379.08	2041.82
379.29	2174.94
379.50	2308.06
379.71	2183.13
379.91	2213.85
380.12	2187.23
380.33	2213.85
380.54	2179.04
380.75	2162.66
380.96	2125.79
381.17	2228.19
381.38	2176.99
381.59	2265.05
381.80	2252.77
382.00	2355.16
382.21	2242.53
382.42	2394.08
382.63	2457.56
382.84	2308.06
383.05	2314.20
383.26	2478.04
383.47	2254.81
383.68	2176.99
383.88	2238.43
384.09	2224.09
384.30	2385.88
384.51	2285.53
384.72	2125.79
384.93	2041.82
385.14	2256.86
385.35	2316.25
385.55	2056.16
385.76	2328.54
385.97	2176.99
386.18	2072.54
386.39	2074.59
386.60	2201.57
386.81	2158.56
387.02	2185.18
387.22	2072.54
387.43	2263.01
387.64	2349.02
387.85	2412.51
388.06	2420.70
388.27	4011.97
388.48	8785.79
388.68	12324.68
388.89	14747.42
389.10	16078.60
389.31	14925.60
389.52	11460.43
389.73	9858.92
389.93	8994.68
390.14	8292.23
390.35	7366.54
390.56	6563.74
390.77	5492.65
390.98	4218.82
391.18	3274.70
391.39	2756.57
391.60	2330.59
391.81	2334.68
392.02	2238.43
392.23	2465.75
392.43	2303.96
392.64	2277.34
392.85	2201.57
393.06	2359.26
393.27	2281.44
393.47	2080.74
393.68	2199.52
393.89	2256.86
394.10	2334.68
394.31	2160.61
394.52	2152.42
394.72	2168.80
394.93	2375.64
395.14	2080.74
395.35	2258.91
395.56	2129.89
395.76	2205.66
395.97	2293.72
396.18	2277.34
396.39	2275.29
396.60	2738.13
396.80	2424.80
397.01	2500.57
397.22	2258.91
397.43	2402.27
397.64	2090.98
397.84	2209.76
398.05	2535.39
398.26	2164.70
398.47	2359.26
398.67	2297.82
398.88	2158.56
399.09	2220.00
399.30	2127.84
399.51	2217.95
399.71	2109.41
399.92	2240.48
400.13	2205.66
400.34	2144.22
400.54	2209.76
400.75	2402.27
400.96	2224.09
401.17	2310.11
401.37	2267.10
401.58	2267.10
401.79	2203.61
402.00	2289.63
402.21	2684.89
402.41	2523.10
402.62	2621.40
402.83	2621.40
403.04	2660.31
403.24	2779.09
403.45	2387.93
403.66	2457.56
403.87	2365.40
404.07	2498.52
404.28	2492.38
404.49	2500.57
404.70	2291.68
404.90	2336.73
405.11	2226.14
405.32	2211.81
405.52	2179.04
405.73	2103.26
405.94	2129.89
406.15	2195.42
406.35	2238.43
406.56	2269.15
406.77	2209.76
406.98	2263.01
407.18	2150.37
407.39	2322.40
407.60	2140.13
407.80	2195.42
408.01	2162.66
408.22	2228.19
408.43	2127.84
408.63	2207.71
408.84	2238.43
409.05	2291.68
409.25	2158.56
409.46	2121.70
409.67	2154.46
409.88	2142.18
410.08	2201.57
410.29	2103.26
410.50	2244.57
410.70	2260.96
410.91	2152.42
411.12	2199.52
411.32	2162.66
411.53	2095.07
411.74	2240.48
411.95	2283.49
412.15	2301.92
412.36	2310.11
412.57	2289.63
412.77	2336.73
412.98	2215.90
413.19	2164.70
413.39	2242.53
413.60	2199.52
413.81	2295.77
414.01	2129.89
414.22	2234.33
414.43	2312.16
414.63	2277.34
414.84	2283.49
415.05	2258.91
415.25	1982.43
415.46	2281.44
415.67	2176.99
415.87	2244.57
416.08	2224.09
416.29	2199.52
416.49	2267.10
416.70	2127.84
416.91	2166.75
417.11	2224.09
417.32	2316.25
417.53	2291.68
417.73	2228.19
417.94	2209.76
418.15	2275.29
418.35	2156.51
418.56	2201.57
418.77	2363.36
418.97	2187.23
419.18	2209.76
419.38	2019.30
419.59	2205.66
419.80	2363.36
420.00	2156.51
420.21	2183.13
420.42	2308.06
420.62	2107.36
420.83	2097.12
421.04	2158.56
421.24	2215.90
421.45	2281.44
421.65	2344.92
421.86	2166.75
422.07	2246.62
422.27	2316.25
422.48	2174.94
422.69	2136.03
422.89	2215.90
423.10	2211.81
423.30	2027.49
423.51	2244.57
423.72	2287.58
423.92	2301.92
424.13	2052.06
424.33	2197.47
424.54	2336.73
424.75	2224.09
424.95	2281.44
425.16	2273.25
425.36	2211.81
425.57	2299.87
425.78	2287.58
425.98	2217.95
426.19	2148.32
426.39	2099.17
426.60	2193.37
426.81	2338.78
427.01	2121.70
427.22	2097.12
427.42	2035.68
427.63	2142.18
427.83	2252.77
428.04	2269.15
428.25	2303.96
428.45	2236.38
428.66	2310.11
428.86	2121.70
429.07	2154.46
429.28	2172.89
429.48	2133.98
429.69	2090.98
429.89	2156.51
430.10	2111.46
430.30	2248.67
430.51	2293.72
430.71	2138.08
430.92	2195.42
431.13	2127.84
431.33	2287.58
431.54	2222.05
431.74	2324.44
431.95	2381.79
432.15	2050.02
432.36	2185.18
432.56	2281.44
432.77	2322.40
432.98	2428.89
433.18	2250.72
433.39	2250.72
433.59	2191.33
433.80	2420.70
434.00	2373.60
434.21	2183.13
434.41	2131.94
434.62	2420.70
434.82	2113.50
435.03	2072.54
435.23	2267.10
435.44	2021.35
435.64	2156.51
435.85	2281.44
436.06	2332.64
436.26	2289.63
436.47	2125.79
436.67	2176.99
436.88	2195.42
437.08	2281.44
437.29	2389.98
437.49	2211.81
437.70	2326.49
437.90	2279.39
438.11	2312.16
438.31	2281.44
438.52	2428.89
438.72	2396.12
438.93	2488.28
439.13	2316.25
439.34	2306.01
439.54	2185.18
439.75	2310.11
439.95	2277.34
440.16	2113.50
440.36	2220.00
440.57	2248.67
440.77	2170.85
440.98	2283.49
441.18	2353.12
441.39	2156.51
441.59	2162.66
441.80	2406.36
442.00	2185.18
442.21	2308.06
442.41	2093.02
442.62	2344.92
442.82	2146.27
443.02	2209.76
443.23	2199.52
443.43	2144.22
443.64	2373.60
443.84	2115.55
444.05	2342.88
444.25	2213.85
444.46	2166.75
444.66	2191.33
444.87	2271.20
445.07	2093.02
445.28	2160.61
445.48	2283.49
445.69	2240.48
445.89	2514.91
446.09	2281.44
446.30	2475.99
446.50	2779.09
446.71	4446.14
446.91	5529.52
447.12	6551.45
447.32	6760.34
447.53	6309.79
447.73	5242.80
447.93	4532.15
448.14	4261.82
448.34	4181.95
448.55	3504.07
448.75	3581.90
448.96	3446.73
449.16	3000.27
449.36	2846.68
449.57	2498.52
449.77	2383.84
449.98	2217.95
450.18	2342.88
450.39	2279.39
450.59	2260.96
450.79	2226.14
451.00	2133.98
451.20	2283.49
451.41	2217.95
451.61	2240.48
451.81	2164.70
452.02	2140.13
452.22	2236.38
452.43	2174.94
452.63	2158.56
