SpectraSuite Data File
++++++++++++++++++++++++++++++++++++
Date: Thu May 05 12:35:13 CEST 2016
User: root
Dark Spectrum Present: No
Reference Spectrum Present: No
Number of Sampled Component Spectra: 1
Spectrometers: USB4C02835
Integration Time (usec): 100000 (USB4C02835)
Spectra Averaged: 1 (USB4C02835)
Boxcar Smoothing: 0 (USB4C02835)
Correct for Electrical Dark: No (USB4C02835)
Strobe/Lamp Enabled: No (USB4C02835)
Correct for Detector Non-linearity: No (USB4C02835)
Correct for Stray Light: No (USB4C02835)
Number of Pixels in Processed Spectrum: 3648
>>>>>Begin Processed Spectral Data<<<<<
177.47	1722.34
177.69	1722.34
177.91	1722.34
178.13	1785.83
178.36	1734.63
178.58	2090.98
178.80	2260.96
179.02	2105.31
179.24	2066.40
179.46	2054.11
179.68	2168.80
179.90	2201.57
180.13	2217.95
180.35	2086.88
180.57	2140.13
180.79	2269.15
181.01	2154.46
181.23	2207.71
181.45	2217.95
181.67	2238.43
181.90	2314.20
182.12	2103.26
182.34	1982.43
182.56	2279.39
182.78	2228.19
183.00	2111.46
183.22	2146.27
183.44	2043.87
183.66	2402.27
183.89	2258.91
184.11	2107.36
184.33	2211.81
184.55	2324.44
184.77	2211.81
184.99	2121.70
185.21	2179.04
185.43	2469.85
185.65	2099.17
185.87	2086.88
186.10	2363.36
186.32	2519.00
186.54	2168.80
186.76	2197.47
186.98	2265.05
187.20	2195.42
187.42	2201.57
187.64	2162.66
187.86	2324.44
188.08	2320.35
188.30	2060.26
188.52	2158.56
188.75	2320.35
188.97	2355.16
189.19	2078.69
189.41	2097.12
189.63	2293.72
189.85	2232.29
190.07	2070.50
190.29	1961.95
190.51	2258.91
190.73	2129.89
190.95	2199.52
191.17	2115.55
191.39	2136.03
191.61	2203.61
191.84	2113.50
192.06	2162.66
192.28	2090.98
192.50	2441.18
192.72	2220.00
192.94	2154.46
193.16	2248.67
193.38	2217.95
193.60	2086.88
193.82	2189.28
194.04	2232.29
194.26	2267.10
194.48	2144.22
194.70	2133.98
194.92	2138.08
195.14	2281.44
195.36	2138.08
195.58	2199.52
195.80	2181.09
196.02	2082.78
196.24	2064.35
196.46	2232.29
196.69	2113.50
196.91	2469.85
197.13	2138.08
197.35	2113.50
197.57	2349.02
197.79	2285.53
198.01	2105.31
198.23	2205.66
198.45	2203.61
198.67	2123.74
198.89	2076.64
199.11	2121.70
199.33	2127.84
199.55	2029.54
199.77	2119.65
199.99	2183.13
200.21	2138.08
200.43	2236.38
200.65	2099.17
200.87	2064.35
201.09	2220.00
201.31	2162.66
201.53	2121.70
201.75	2148.32
201.97	2220.00
202.19	2138.08
202.41	2142.18
202.63	2301.92
202.85	2226.14
203.07	2224.09
203.29	2133.98
203.51	1982.43
203.73	2144.22
203.95	2432.99
204.17	2160.61
204.39	2248.67
204.61	2277.34
204.83	2121.70
205.05	2179.04
205.27	2162.66
205.49	2439.13
205.71	2226.14
205.93	2031.58
206.15	2101.22
206.37	2232.29
206.59	2209.76
206.81	2037.73
207.03	2062.30
207.25	2056.16
207.47	2248.67
207.69	2127.84
207.91	2297.82
208.13	2365.40
208.34	2093.02
208.56	2086.88
208.78	2146.27
209.00	2176.99
209.22	2168.80
209.44	2088.93
209.66	2084.83
209.88	2281.44
210.10	2203.61
210.32	2144.22
210.54	2189.28
210.76	2131.94
210.98	2248.67
211.20	1990.63
211.42	2211.81
211.64	2342.88
211.86	2168.80
212.08	2183.13
212.30	2146.27
212.52	2174.94
212.74	2191.33
212.96	2244.57
213.17	2174.94
213.39	2254.81
213.61	2355.16
213.83	2203.61
214.05	2138.08
214.27	2342.88
214.49	2064.35
214.71	2074.59
214.93	2244.57
215.15	2152.42
215.37	2320.35
215.59	2062.30
215.81	2211.81
216.03	2314.20
216.24	2187.23
216.46	2090.98
216.68	2172.89
216.90	2240.48
217.12	2293.72
217.34	2064.35
217.56	2142.18
217.78	2252.77
218.00	2277.34
218.22	2160.61
218.44	2138.08
218.66	2195.42
218.87	2367.45
219.09	2099.17
219.31	2156.51
219.53	2224.09
219.75	2183.13
219.97	2185.18
220.19	2217.95
220.41	2187.23
220.63	2367.45
220.85	2217.95
221.06	2047.97
221.28	2334.68
221.50	2297.82
221.72	2146.27
221.94	2093.02
222.16	2166.75
222.38	2326.49
222.60	2195.42
222.82	2129.89
223.03	2224.09
223.25	2103.26
223.47	2127.84
223.69	2353.12
223.91	2220.00
224.13	2185.18
224.35	2138.08
224.57	2191.33
224.78	2234.33
225.00	2097.12
225.22	2176.99
225.44	2152.42
225.66	2236.38
225.88	2193.37
226.10	2242.53
226.32	2111.46
226.53	2408.41
226.75	2179.04
226.97	2183.13
227.19	2111.46
227.41	2064.35
227.63	2193.37
227.85	2013.15
228.06	2088.93
228.28	2127.84
228.50	2260.96
228.72	2088.93
228.94	2176.99
229.16	2111.46
229.37	2111.46
229.59	2138.08
229.81	2183.13
230.03	2099.17
230.25	2115.55
230.47	1949.67
230.69	1982.43
230.90	2285.53
231.12	2082.78
231.34	2158.56
231.56	2228.19
231.78	2185.18
232.00	2136.03
232.21	2142.18
232.43	2090.98
232.65	2047.97
232.87	2226.14
233.09	2047.97
233.30	2123.74
233.52	2277.34
233.74	2195.42
233.96	2050.02
234.18	2170.85
234.40	2144.22
234.61	2420.70
234.83	2047.97
235.05	1994.72
235.27	2377.69
235.49	2324.44
235.70	2084.83
235.92	2203.61
236.14	2234.33
236.36	2473.95
236.58	2097.12
236.79	2158.56
237.01	2189.28
237.23	2170.85
237.45	2318.30
237.67	2078.69
237.88	2228.19
238.10	2361.31
238.32	2047.97
238.54	2158.56
238.76	2172.89
238.97	2185.18
239.19	2013.15
239.41	2156.51
239.63	2260.96
239.85	2131.94
240.06	2097.12
240.28	2101.22
240.50	2297.82
240.72	2183.13
240.93	2140.13
241.15	2240.48
241.37	2203.61
241.59	2308.06
241.81	2056.16
242.02	2142.18
242.24	2199.52
242.46	2275.29
242.68	2021.35
242.89	2164.70
243.11	2267.10
243.33	2189.28
243.55	2187.23
243.76	2162.66
243.98	2111.46
244.20	2228.19
244.42	2088.93
244.64	2113.50
244.85	1986.53
245.07	2119.65
245.29	2209.76
245.51	2129.89
245.72	2252.77
245.94	2314.20
246.16	2123.74
246.38	2154.46
246.59	2113.50
246.81	2215.90
247.03	2107.36
247.24	2039.78
247.46	2117.60
247.68	2258.91
247.90	2115.55
248.11	2088.93
248.33	2269.15
248.55	2144.22
248.77	2179.04
248.98	2211.81
249.20	2228.19
249.42	2228.19
249.64	2164.70
249.85	2105.31
250.07	2193.37
250.29	2199.52
250.50	2203.61
250.72	2031.58
250.94	2170.85
251.16	2363.36
251.37	2220.00
251.59	2258.91
251.81	2217.95
252.02	2383.84
252.24	2111.46
252.46	2236.38
252.68	2156.51
252.89	2138.08
253.11	2054.11
253.33	2301.92
253.54	2373.60
253.76	2115.55
253.98	2160.61
254.20	2113.50
254.41	2131.94
254.63	2136.03
254.85	2062.30
255.06	2117.60
255.28	2193.37
255.50	2162.66
255.71	2123.74
255.93	1998.82
256.15	2127.84
256.36	2222.05
256.58	2086.88
256.80	2222.05
257.02	2152.42
257.23	2172.89
257.45	2152.42
257.67	2281.44
257.88	2107.36
258.10	2293.72
258.32	2201.57
258.53	2142.18
258.75	2287.58
258.97	2121.70
259.18	2064.35
259.40	2133.98
259.62	2328.54
259.83	2285.53
260.05	2166.75
260.27	2545.63
260.48	2353.12
260.70	2115.55
260.92	2170.85
261.13	2117.60
261.35	2213.85
261.57	2283.49
261.78	2007.01
262.00	2072.54
262.22	2250.72
262.43	2027.49
262.65	2097.12
262.86	2123.74
263.08	2475.99
263.30	2209.76
263.51	1966.05
263.73	2131.94
263.95	2361.31
264.16	2103.26
264.38	2080.74
264.60	2158.56
264.81	2144.22
265.03	2211.81
265.25	2277.34
265.46	2107.36
265.68	2279.39
265.89	2279.39
266.11	2021.35
266.33	2215.90
266.54	2326.49
266.76	2189.28
266.98	2133.98
267.19	2293.72
267.41	2256.86
267.62	2146.27
267.84	2080.74
268.06	2236.38
268.27	2220.00
268.49	2271.20
268.70	2158.56
268.92	2185.18
269.14	2090.98
269.35	2076.64
269.57	2168.80
269.79	2203.61
270.00	2129.89
270.22	2330.59
270.43	2047.97
270.65	2015.20
270.87	2299.87
271.08	2197.47
271.30	2174.94
271.51	2162.66
271.73	2258.91
271.95	2342.88
272.16	2105.31
272.38	2146.27
272.59	2211.81
272.81	2236.38
273.02	2097.12
273.24	2142.18
273.46	2271.20
273.67	2052.06
273.89	2086.88
274.10	2060.26
274.32	2222.05
274.54	2277.34
274.75	2174.94
274.97	2123.74
275.18	2244.57
275.40	2183.13
275.61	2181.09
275.83	2199.52
276.05	2066.40
276.26	2203.61
276.48	2111.46
276.69	2131.94
276.91	2127.84
277.12	2316.25
277.34	2207.71
277.55	2248.67
277.77	2310.11
277.99	2123.74
278.20	2086.88
278.42	2047.97
278.63	2158.56
278.85	2109.41
279.06	2027.49
279.28	2250.72
279.49	2326.49
279.71	2283.49
279.93	2162.66
280.14	2256.86
280.36	2150.37
280.57	2301.92
280.79	2211.81
281.00	2158.56
281.22	2236.38
281.43	2293.72
281.65	2072.54
281.86	2146.27
282.08	2203.61
282.29	2322.40
282.51	2031.58
282.73	2174.94
282.94	1986.53
283.16	2248.67
283.37	2318.30
283.59	2183.13
283.80	2228.19
284.02	2160.61
284.23	2238.43
284.45	2123.74
284.66	2133.98
284.88	2113.50
285.09	2127.84
285.31	2228.19
285.52	2254.81
285.74	2090.98
285.95	2265.05
286.17	2115.55
286.38	2256.86
286.60	2170.85
286.81	2152.42
287.03	2129.89
287.24	2142.18
287.46	2271.20
287.67	2260.96
287.89	2381.79
288.10	2172.89
288.32	2215.90
288.53	2303.96
288.75	2187.23
288.96	2195.42
289.18	2138.08
289.39	2170.85
289.61	2285.53
289.82	2398.17
290.04	2324.44
290.25	2105.31
290.47	2168.80
290.68	2179.04
290.90	2248.67
291.11	2023.39
291.33	2209.76
291.54	2117.60
291.76	2150.37
291.97	2260.96
292.18	2164.70
292.40	2170.85
292.61	2133.98
292.83	2359.26
293.04	2240.48
293.26	2252.77
293.47	2191.33
293.69	2138.08
293.90	2179.04
294.12	2334.68
294.33	2238.43
294.55	2160.61
294.76	2273.25
294.97	2310.11
295.19	2416.60
295.40	2113.50
295.62	2203.61
295.83	2277.34
296.05	2115.55
296.26	2349.02
296.48	2121.70
296.69	2150.37
296.90	2166.75
297.12	2152.42
297.33	2326.49
297.55	2250.72
297.76	2205.66
297.98	2254.81
298.19	2213.85
298.41	2240.48
298.62	2066.40
298.83	2197.47
299.05	2088.93
299.26	2158.56
299.48	2138.08
299.69	2273.25
299.90	2193.37
300.12	2125.79
300.33	2267.10
300.55	2197.47
300.76	2228.19
300.98	2037.73
301.19	2324.44
301.40	2187.23
301.62	2146.27
301.83	2238.43
302.05	2220.00
302.26	2121.70
302.47	2187.23
302.69	2103.26
302.90	2193.37
303.12	2043.87
303.33	2336.73
303.54	2320.35
303.76	2191.33
303.97	2220.00
304.19	2279.39
304.40	2121.70
304.61	2238.43
304.83	2324.44
305.04	2277.34
305.26	2201.57
305.47	2185.18
305.68	2222.05
305.90	2039.78
306.11	2326.49
306.33	2220.00
306.54	2123.74
306.75	2144.22
306.97	2072.54
307.18	2150.37
307.39	2207.71
307.61	2250.72
307.82	2064.35
308.04	2248.67
308.25	2097.12
308.46	2252.77
308.68	2211.81
308.89	2234.33
309.10	2273.25
309.32	2248.67
309.53	2207.71
309.74	2230.24
309.96	2099.17
310.17	2318.30
310.39	2115.55
310.60	2215.90
310.81	2256.86
311.03	2043.87
311.24	2310.11
311.45	2195.42
311.67	2363.36
311.88	2078.69
312.09	2160.61
312.31	2117.60
312.52	2250.72
312.73	2162.66
312.95	2086.88
313.16	2123.74
313.37	2320.35
313.59	2224.09
313.80	2312.16
314.01	2244.57
314.23	2093.02
314.44	2170.85
314.65	2080.74
314.87	2136.03
315.08	2133.98
315.29	2068.45
315.51	2168.80
315.72	2041.82
315.93	2293.72
316.15	2267.10
316.36	2140.13
316.57	2131.94
316.79	2244.57
317.00	2172.89
317.21	2183.13
317.43	2187.23
317.64	2154.46
317.85	2164.70
318.07	2021.35
318.28	2228.19
318.49	2416.60
318.70	2490.33
318.92	2422.75
319.13	2346.97
319.34	2334.68
319.56	2318.30
319.77	2359.26
319.98	2408.41
320.20	2326.49
320.41	2334.68
320.62	2211.81
320.83	2084.83
321.05	2375.64
321.26	2195.42
321.47	2240.48
321.69	2217.95
321.90	2121.70
322.11	2045.92
322.32	2211.81
322.54	2310.11
322.75	2146.27
322.96	2490.33
323.18	2070.50
323.39	2000.87
323.60	2090.98
323.81	2236.38
324.03	2152.42
324.24	2183.13
324.45	2269.15
324.66	2103.26
324.88	2334.68
325.09	2283.49
325.30	2129.89
325.52	2183.13
325.73	2250.72
325.94	2090.98
326.15	2019.30
326.37	2111.46
326.58	2220.00
326.79	2244.57
327.00	2138.08
327.22	2185.18
327.43	2103.26
327.64	2002.91
327.85	2248.67
328.07	2205.66
328.28	2346.97
328.49	2174.94
328.70	2138.08
328.92	2140.13
329.13	2256.86
329.34	2183.13
329.55	2367.45
329.76	2238.43
329.98	2181.09
330.19	2318.30
330.40	2273.25
330.61	2209.76
330.83	2252.77
331.04	2179.04
331.25	2226.14
331.46	2185.18
331.68	2084.83
331.89	2301.92
332.10	2160.61
332.31	2111.46
332.52	2193.37
332.74	2248.67
332.95	2052.06
333.16	2179.04
333.37	2258.91
333.58	2103.26
333.80	2224.09
334.01	2015.20
334.22	2148.32
334.43	2172.89
334.64	2138.08
334.86	2115.55
335.07	2142.18
335.28	2291.68
335.49	2119.65
335.70	2269.15
335.92	2324.44
336.13	2342.88
336.34	2342.88
336.55	2138.08
336.76	2195.42
336.98	2017.25
337.19	2097.12
337.40	2295.77
337.61	2420.70
337.82	2181.09
338.04	2217.95
338.25	2090.98
338.46	2166.75
338.67	2150.37
338.88	2070.50
339.09	2023.39
339.31	2179.04
339.52	2121.70
339.73	2133.98
339.94	2168.80
340.15	2279.39
340.36	2129.89
340.58	2203.61
340.79	2113.50
341.00	2252.77
341.21	2113.50
341.42	2277.34
341.63	2222.05
341.85	2217.95
342.06	2232.29
342.27	2168.80
342.48	2203.61
342.69	2078.69
342.90	2277.34
343.12	2244.57
343.33	2154.46
343.54	2342.88
343.75	2365.40
343.96	2170.85
344.17	2052.06
344.38	2236.38
344.60	2129.89
344.81	2105.31
345.02	2136.03
345.23	2250.72
345.44	2398.17
345.65	2283.49
345.86	2248.67
346.07	2176.99
346.29	2193.37
346.50	2181.09
346.71	2269.15
346.92	2351.07
347.13	2441.18
347.34	2197.47
347.55	2146.27
347.76	2203.61
347.98	2047.97
348.19	2179.04
348.40	2265.05
348.61	2185.18
348.82	2404.32
349.03	2256.86
349.24	2043.87
349.45	2371.55
349.66	2039.78
349.88	2142.18
350.09	2111.46
350.30	2193.37
350.51	2248.67
350.72	2291.68
350.93	2191.33
351.14	2101.22
351.35	2211.81
351.56	2275.29
351.77	2154.46
351.99	2179.04
352.20	2381.79
352.41	2265.05
352.62	2009.06
352.83	2269.15
353.04	2154.46
353.25	2138.08
353.46	2238.43
353.67	2281.44
353.88	2056.16
354.09	2224.09
354.30	2191.33
354.52	2170.85
354.73	2195.42
354.94	2107.36
355.15	2121.70
355.36	2349.02
355.57	2197.47
355.78	2193.37
355.99	2043.87
356.20	2138.08
356.41	2314.20
356.62	2191.33
356.83	2258.91
357.04	2293.72
357.25	2117.60
357.46	2119.65
357.68	2068.45
357.89	2103.26
358.10	2205.66
358.31	2103.26
358.52	2213.85
358.73	2060.26
358.94	2078.69
359.15	2209.76
359.36	2258.91
359.57	2121.70
359.78	2158.56
359.99	2213.85
360.20	2152.42
360.41	2172.89
360.62	2234.33
360.83	2232.29
361.04	2199.52
361.25	2271.20
361.46	2318.30
361.67	2211.81
361.88	2230.24
362.09	2256.86
362.30	2215.90
362.51	2195.42
362.72	2183.13
362.93	2244.57
363.14	2203.61
363.35	2211.81
363.56	2129.89
363.78	2293.72
363.99	2330.59
364.20	2176.99
364.41	2220.00
364.62	2441.18
364.83	2265.05
365.04	2185.18
365.25	2176.99
365.46	2392.03
365.67	2154.46
365.88	2185.18
366.09	2150.37
366.30	2109.41
366.51	2176.99
366.72	2015.20
366.93	2211.81
367.14	2291.68
367.35	2359.26
367.56	2185.18
367.77	2312.16
367.98	2168.80
368.18	2211.81
368.39	2228.19
368.60	2068.45
368.81	2310.11
369.02	2166.75
369.23	2166.75
369.44	2047.97
369.65	2195.42
369.86	2248.67
370.07	2318.30
370.28	2129.89
370.49	2269.15
370.70	2273.25
370.91	2117.60
371.12	2117.60
371.33	2267.10
371.54	2117.60
371.75	2318.30
371.96	1982.43
372.17	2260.96
372.38	2228.19
372.59	2263.01
372.80	2090.98
373.01	2189.28
373.22	2205.66
373.43	2205.66
373.64	2111.46
373.85	2316.25
374.06	2322.40
374.26	2199.52
374.47	2220.00
374.68	2310.11
374.89	2244.57
375.10	2193.37
375.31	2240.48
375.52	2213.85
375.73	2244.57
375.94	2144.22
376.15	2349.02
376.36	2179.04
376.57	2187.23
376.78	2131.94
376.99	2244.57
377.20	2342.88
377.40	2168.80
377.61	2357.21
377.82	2121.70
378.03	2330.59
378.24	2289.63
378.45	2248.67
378.66	2158.56
378.87	2064.35
379.08	2041.82
379.29	2084.83
379.50	2232.29
379.71	2201.57
379.91	2215.90
380.12	2187.23
380.33	2133.98
380.54	2211.81
380.75	2248.67
380.96	2168.80
381.17	2209.76
381.38	2103.26
381.59	2242.53
381.80	2226.14
382.00	2377.69
382.21	2371.55
382.42	2383.84
382.63	2387.93
382.84	2289.63
383.05	2320.35
383.26	2324.44
383.47	2230.24
383.68	2295.77
383.88	2244.57
384.09	2197.47
384.30	2369.50
384.51	2127.84
384.72	2109.41
384.93	2017.25
385.14	2250.72
385.35	2277.34
385.55	2080.74
385.76	2293.72
385.97	2254.81
386.18	2019.30
386.39	2176.99
386.60	2146.27
386.81	2154.46
387.02	2119.65
387.22	2154.46
387.43	2263.01
387.64	2228.19
387.85	2420.70
388.06	2373.60
388.27	4169.66
388.48	8658.81
388.68	12427.07
388.89	14575.39
389.10	15720.21
389.31	14618.40
389.52	11530.06
389.73	9836.39
389.93	8771.45
390.14	8206.21
390.35	7315.34
390.56	6444.96
390.77	5328.81
390.98	4116.42
391.18	3317.71
391.39	2719.70
391.60	2379.74
391.81	2349.02
392.02	2187.23
392.23	2430.94
392.43	2248.67
392.64	2289.63
392.85	2158.56
393.06	2338.78
393.27	2281.44
393.47	2056.16
393.68	2228.19
393.89	2152.42
394.10	2355.16
394.31	2070.50
394.52	2228.19
394.72	2095.07
394.93	2435.03
395.14	2047.97
395.35	2115.55
395.56	2097.12
395.76	2119.65
395.97	2224.09
396.18	2379.74
396.39	2379.74
396.60	2701.27
396.80	2490.33
397.01	2351.07
397.22	2437.08
397.43	2269.15
397.64	2133.98
397.84	2289.63
398.05	2408.41
398.26	2195.42
398.47	2265.05
398.67	2279.39
398.88	2232.29
399.09	2203.61
399.30	2187.23
399.51	2193.37
399.71	2156.51
399.92	2164.70
400.13	2299.87
400.34	2154.46
400.54	2209.76
400.75	2385.88
400.96	2250.72
401.17	2396.12
401.37	2258.91
401.58	2133.98
401.79	2162.66
402.00	2306.01
402.21	2643.93
402.41	2586.58
402.62	2519.00
402.83	2662.36
403.04	2625.50
403.24	2766.81
403.45	2301.92
403.66	2432.99
403.87	2385.88
404.07	2383.84
404.28	2439.13
404.49	2455.51
404.70	2322.40
404.90	2299.87
405.11	2244.57
405.32	2213.85
405.52	2168.80
405.73	2136.03
405.94	2082.78
406.15	2185.18
406.35	2260.96
406.56	2277.34
406.77	2187.23
406.98	2250.72
407.18	2211.81
407.39	2381.79
407.60	2148.32
407.80	2258.91
408.01	2129.89
408.22	2232.29
408.43	2138.08
408.63	2187.23
408.84	2234.33
409.05	2295.77
409.25	2119.65
409.46	2070.50
409.67	2146.27
409.88	2136.03
410.08	2293.72
410.29	2205.66
410.50	2269.15
410.70	2301.92
410.91	2054.11
411.12	2226.14
411.32	2246.62
411.53	2144.22
411.74	2256.86
411.95	2275.29
412.15	2215.90
412.36	2381.79
412.57	2228.19
412.77	2375.64
412.98	2181.09
413.19	2179.04
413.39	2287.58
413.60	2267.10
413.81	2367.45
414.01	2080.74
414.22	2217.95
414.43	2324.44
414.63	2176.99
414.84	2246.62
415.05	2244.57
415.25	2047.97
415.46	2258.91
415.67	2127.84
415.87	2226.14
416.08	2166.75
416.29	2170.85
416.49	2267.10
416.70	2138.08
416.91	2156.51
417.11	2258.91
417.32	2349.02
417.53	2201.57
417.73	2205.66
417.94	2193.37
418.15	2121.70
418.35	2172.89
418.56	2187.23
418.77	2432.99
418.97	2144.22
419.18	2230.24
419.38	1990.63
419.59	2226.14
419.80	2318.30
420.00	2111.46
420.21	2176.99
420.42	2306.01
420.62	2269.15
420.83	2133.98
421.04	2172.89
421.24	2187.23
421.45	2312.16
421.65	2189.28
421.86	2166.75
422.07	2236.38
422.27	2275.29
422.48	2211.81
422.69	2090.98
422.89	2232.29
423.10	2195.42
423.30	2068.45
423.51	2209.76
423.72	2355.16
423.92	2269.15
424.13	2084.83
424.33	2156.51
424.54	2324.44
424.75	2170.85
424.95	2363.36
425.16	2226.14
425.36	2189.28
425.57	2250.72
425.78	2240.48
425.98	2256.86
426.19	2146.27
426.39	2140.13
426.60	2250.72
426.81	2338.78
427.01	2199.52
427.22	2088.93
427.42	2107.36
427.63	2217.95
427.83	2285.53
428.04	2392.03
428.25	2275.29
428.45	2267.10
428.66	2357.21
428.86	2144.22
429.07	2121.70
429.28	2265.05
429.48	2269.15
429.69	2068.45
429.89	2234.33
430.10	2111.46
430.30	2263.01
430.51	2351.07
430.71	2086.88
430.92	2189.28
431.13	2179.04
431.33	2236.38
431.54	2162.66
431.74	2340.83
431.95	2365.40
432.15	2125.79
432.36	2136.03
432.56	2254.81
432.77	2359.26
432.98	2377.69
433.18	2248.67
433.39	2127.84
433.59	2203.61
433.80	2332.64
434.00	2412.51
434.21	2209.76
434.41	2166.75
434.62	2394.08
434.82	2086.88
435.03	2158.56
435.23	2179.04
435.44	2043.87
435.64	2166.75
435.85	2172.89
436.06	2306.01
436.26	2265.05
436.47	2185.18
436.67	2117.60
436.88	2164.70
437.08	2248.67
437.29	2299.87
437.49	2271.20
437.70	2287.58
437.90	2191.33
438.11	2371.55
438.31	2271.20
438.52	2400.22
438.72	2424.80
438.93	2424.80
439.13	2258.91
439.34	2355.16
439.54	2279.39
439.75	2357.21
439.95	2277.34
440.16	2269.15
440.36	2281.44
440.57	2174.94
440.77	2185.18
440.98	2260.96
441.18	2318.30
441.39	2226.14
441.59	2187.23
441.80	2385.88
442.00	2250.72
442.21	2383.84
442.41	2179.04
442.62	2310.11
442.82	2090.98
443.02	2160.61
443.23	2209.76
443.43	2154.46
443.64	2394.08
443.84	2142.18
444.05	2322.40
444.25	2162.66
444.46	2215.90
444.66	2250.72
444.87	2389.98
445.07	2064.35
445.28	2148.32
445.48	2217.95
445.69	2334.68
445.89	2435.03
446.09	2183.13
446.30	2457.56
446.50	2826.20
446.71	4427.71
446.91	5545.90
447.12	6518.68
447.32	6854.55
447.53	6326.18
447.73	5101.49
447.93	4601.79
448.14	4118.47
448.34	4009.92
448.55	3637.19
448.75	3540.94
448.96	3385.29
449.16	3043.28
449.36	2904.02
449.57	2527.19
449.77	2287.58
449.98	2207.71
450.18	2267.10
450.39	2318.30
450.59	2238.43
450.79	2281.44
451.00	2179.04
451.20	2244.57
451.41	2166.75
451.61	2324.44
451.81	2172.89
452.02	2185.18
452.22	2187.23
452.43	2129.89
452.63	2131.94
