SpectraSuite Data File
++++++++++++++++++++++++++++++++++++
Date: Thu May 05 12:35:10 CEST 2016
User: root
Dark Spectrum Present: No
Reference Spectrum Present: No
Number of Sampled Component Spectra: 1
Spectrometers: USB4C02835
Integration Time (usec): 100000 (USB4C02835)
Spectra Averaged: 1 (USB4C02835)
Boxcar Smoothing: 0 (USB4C02835)
Correct for Electrical Dark: No (USB4C02835)
Strobe/Lamp Enabled: No (USB4C02835)
Correct for Detector Non-linearity: No (USB4C02835)
Correct for Stray Light: No (USB4C02835)
Number of Pixels in Processed Spectrum: 3648
>>>>>Begin Processed Spectral Data<<<<<
177.47	1724.39
177.69	1724.39
177.91	1724.39
178.13	1732.58
178.36	1785.83
178.58	2062.30
178.80	2228.19
179.02	2054.11
179.24	2099.17
179.46	2136.03
179.68	2197.47
179.90	2195.42
180.13	2226.14
180.35	2009.06
180.57	2129.89
180.79	2236.38
181.01	2150.37
181.23	2140.13
181.45	2213.85
181.67	2211.81
181.90	2160.61
182.12	2105.31
182.34	2011.11
182.56	2318.30
182.78	2162.66
183.00	2154.46
183.22	2160.61
183.44	2007.01
183.66	2428.89
183.89	2187.23
184.11	2129.89
184.33	2230.24
184.55	2289.63
184.77	2136.03
184.99	2066.40
185.21	2142.18
185.43	2351.07
185.65	2113.50
185.87	2138.08
186.10	2467.80
186.32	2389.98
186.54	2226.14
186.76	2183.13
186.98	2299.87
187.20	2088.93
187.42	2068.45
187.64	2166.75
187.86	2181.09
188.08	2314.20
188.30	2045.92
188.52	2086.88
188.75	2310.11
188.97	2289.63
189.19	2095.07
189.41	2133.98
189.63	2238.43
189.85	2197.47
190.07	2011.11
190.29	1986.53
190.51	2146.27
190.73	2033.63
190.95	2209.76
191.17	2117.60
191.39	2045.92
191.61	2185.18
191.84	2179.04
192.06	2168.80
192.28	2148.32
192.50	2500.57
192.72	2158.56
192.94	2160.61
193.16	2275.29
193.38	2283.49
193.60	2043.87
193.82	2162.66
194.04	2242.53
194.26	2162.66
194.48	2176.99
194.70	2160.61
194.92	2164.70
195.14	2283.49
195.36	1998.82
195.58	2185.18
195.80	2228.19
196.02	2097.12
196.24	2095.07
196.46	2174.94
196.69	2080.74
196.91	2447.32
197.13	2217.95
197.35	2101.22
197.57	2293.72
197.79	2209.76
198.01	2222.05
198.23	2144.22
198.45	2269.15
198.67	2086.88
198.89	2060.26
199.11	2207.71
199.33	2099.17
199.55	2035.68
199.77	2125.79
199.99	2299.87
200.21	2174.94
200.43	2164.70
200.65	2045.92
200.87	2027.49
201.09	2191.33
201.31	2215.90
201.53	2236.38
201.75	2209.76
201.97	2185.18
202.19	2199.52
202.41	2215.90
202.63	2308.06
202.85	2332.64
203.07	2156.51
203.29	2209.76
203.51	2066.40
203.73	2217.95
203.95	2432.99
204.17	2142.18
204.39	2179.04
204.61	2150.37
204.83	2133.98
205.05	2230.24
205.27	2242.53
205.49	2389.98
205.71	2205.66
205.93	1964.00
206.15	2115.55
206.37	2170.85
206.59	2226.14
206.81	1982.43
207.03	2017.25
207.25	2080.74
207.47	2211.81
207.69	2168.80
207.91	2312.16
208.13	2306.01
208.34	2146.27
208.56	2170.85
208.78	2156.51
209.00	2148.32
209.22	2068.45
209.44	2103.26
209.66	2142.18
209.88	2242.53
210.10	2158.56
210.32	2142.18
210.54	2207.71
210.76	2170.85
210.98	2267.10
211.20	2002.91
211.42	2236.38
211.64	2277.34
211.86	2209.76
212.08	2170.85
212.30	2105.31
212.52	2224.09
212.74	2260.96
212.96	2136.03
213.17	2217.95
213.39	2291.68
213.61	2328.54
213.83	2144.22
214.05	2162.66
214.27	2383.84
214.49	2101.22
214.71	2041.82
214.93	2179.04
215.15	2201.57
215.37	2193.37
215.59	1988.58
215.81	2166.75
216.03	2293.72
216.24	2289.63
216.46	2045.92
216.68	2189.28
216.90	2293.72
217.12	2336.73
217.34	2058.21
217.56	2185.18
217.78	2291.68
218.00	2201.57
218.22	2234.33
218.44	2080.74
218.66	2226.14
218.87	2365.40
219.09	2072.54
219.31	2156.51
219.53	2310.11
219.75	2166.75
219.97	2146.27
220.19	2131.94
220.41	2191.33
220.63	2340.83
220.85	2052.06
221.06	2056.16
221.28	2346.97
221.50	2230.24
221.72	2136.03
221.94	2123.74
222.16	2201.57
222.38	2234.33
222.60	2156.51
222.82	2187.23
223.03	2320.35
223.25	2111.46
223.47	2187.23
223.69	2299.87
223.91	2191.33
224.13	2224.09
224.35	2099.17
224.57	2291.68
224.78	2195.42
225.00	2162.66
225.22	2099.17
225.44	2176.99
225.66	2199.52
225.88	2160.61
226.10	2185.18
226.32	2129.89
226.53	2365.40
226.75	2162.66
226.97	2109.41
227.19	2097.12
227.41	2158.56
227.63	2131.94
227.85	1998.82
228.06	2158.56
228.28	2252.77
228.50	2295.77
228.72	2009.06
228.94	2070.50
229.16	2011.11
229.37	2080.74
229.59	2050.02
229.81	2252.77
230.03	2172.89
230.25	2064.35
230.47	2047.97
230.69	2111.46
230.90	2209.76
231.12	2195.42
231.34	2138.08
231.56	2252.77
231.78	2066.40
232.00	2220.00
232.21	2187.23
232.43	2074.59
232.65	2015.20
232.87	2308.06
233.09	2125.79
233.30	2187.23
233.52	2285.53
233.74	2136.03
233.96	2109.41
234.18	2191.33
234.40	2211.81
234.61	2457.56
234.83	2070.50
235.05	2023.39
235.27	2463.71
235.49	2316.25
235.70	2150.37
235.92	2232.29
236.14	2236.38
236.36	2443.23
236.58	2004.96
236.79	2195.42
237.01	2211.81
237.23	2166.75
237.45	2310.11
237.67	2113.50
237.88	2203.61
238.10	2410.46
238.32	2013.15
238.54	2154.46
238.76	2181.09
238.97	2142.18
239.19	2064.35
239.41	2162.66
239.63	2246.62
239.85	2152.42
240.06	2050.02
240.28	2140.13
240.50	2340.83
240.72	2181.09
240.93	2127.84
241.15	2230.24
241.37	2158.56
241.59	2285.53
241.81	2105.31
242.02	2076.64
242.24	2217.95
242.46	2269.15
242.68	2080.74
242.89	2187.23
243.11	2258.91
243.33	2244.57
243.55	2133.98
243.76	2187.23
243.98	2099.17
244.20	2127.84
244.42	2105.31
244.64	2093.02
244.85	2045.92
245.07	2117.60
245.29	2131.94
245.51	2117.60
245.72	2267.10
245.94	2275.29
246.16	2170.85
246.38	2199.52
246.59	2125.79
246.81	2090.98
247.03	2078.69
247.24	2047.97
247.46	2152.42
247.68	2189.28
247.90	2144.22
248.11	2129.89
248.33	2308.06
248.55	2211.81
248.77	2170.85
248.98	2234.33
249.20	2306.01
249.42	2228.19
249.64	2152.42
249.85	2064.35
250.07	2097.12
250.29	2322.40
250.50	2166.75
250.72	2074.59
250.94	2201.57
251.16	2398.17
251.37	2160.61
251.59	2226.14
251.81	2236.38
252.02	2371.55
252.24	2099.17
252.46	2240.48
252.68	2125.79
252.89	2088.93
253.11	2025.44
253.33	2301.92
253.54	2369.50
253.76	2105.31
253.98	2105.31
254.20	2133.98
254.41	2113.50
254.63	2168.80
254.85	2058.21
255.06	2162.66
255.28	2183.13
255.50	2146.27
255.71	2080.74
255.93	2029.54
256.15	2168.80
256.36	2222.05
256.58	2086.88
256.80	2166.75
257.02	2093.02
257.23	2140.13
257.45	2146.27
257.67	2213.85
257.88	2215.90
258.10	2273.25
258.32	2088.93
258.53	2181.09
258.75	2308.06
258.97	2113.50
259.18	2056.16
259.40	2129.89
259.62	2332.64
259.83	2351.07
260.05	2140.13
260.27	2519.00
260.48	2277.34
260.70	2076.64
260.92	2084.83
261.13	2215.90
261.35	2232.29
261.57	2170.85
261.78	2021.35
262.00	2090.98
262.22	2240.48
262.43	2103.26
262.65	2125.79
262.86	2142.18
263.08	2420.70
263.30	2256.86
263.51	2025.44
263.73	2090.98
263.95	2326.49
264.16	2109.41
264.38	1988.58
264.60	2133.98
264.81	2220.00
265.03	2263.01
265.25	2252.77
265.46	2078.69
265.68	2306.01
265.89	2316.25
266.11	1996.77
266.33	2150.37
266.54	2250.72
266.76	2189.28
266.98	2150.37
267.19	2162.66
267.41	2215.90
267.62	2185.18
267.84	2045.92
268.06	2207.71
268.27	2203.61
268.49	2355.16
268.70	2150.37
268.92	2109.41
269.14	2162.66
269.35	2035.68
269.57	2199.52
269.79	2183.13
270.00	2154.46
270.22	2306.01
270.43	2025.44
270.65	2050.02
270.87	2189.28
271.08	2316.25
271.30	2168.80
271.51	2103.26
271.73	2265.05
271.95	2312.16
272.16	2144.22
272.38	2248.67
272.59	2144.22
272.81	2226.14
273.02	2127.84
273.24	2203.61
273.46	2312.16
273.67	2117.60
273.89	2052.06
274.10	2187.23
274.32	2299.87
274.54	2150.37
274.75	2195.42
274.97	2093.02
275.18	2252.77
275.40	2267.10
275.61	2181.09
275.83	2242.53
276.05	2080.74
276.26	2125.79
276.48	2185.18
276.69	2158.56
276.91	2144.22
277.12	2326.49
277.34	2285.53
277.55	2299.87
277.77	2187.23
277.99	2111.46
278.20	2105.31
278.42	2138.08
278.63	2136.03
278.85	2050.02
279.06	1957.86
279.28	2195.42
279.49	2353.12
279.71	2248.67
279.93	2176.99
280.14	2138.08
280.36	2113.50
280.57	2250.72
280.79	2142.18
281.00	2080.74
281.22	2176.99
281.43	2246.62
281.65	1941.47
281.86	2017.25
282.08	2199.52
282.29	2443.23
282.51	2088.93
282.73	2076.64
282.94	2080.74
283.16	2285.53
283.37	2263.01
283.59	2146.27
283.80	2308.06
284.02	2162.66
284.23	2187.23
284.45	2146.27
284.66	2039.78
284.88	2099.17
285.09	2195.42
285.31	2213.85
285.52	2220.00
285.74	2009.06
285.95	2226.14
286.17	2203.61
286.38	2340.83
286.60	2138.08
286.81	2142.18
287.03	2152.42
287.24	2244.57
287.46	2252.77
287.67	2170.85
287.89	2263.01
288.10	2189.28
288.32	2205.66
288.53	2297.82
288.75	2232.29
288.96	2226.14
289.18	2170.85
289.39	2138.08
289.61	2244.57
289.82	2342.88
290.04	2379.74
290.25	2146.27
290.47	2176.99
290.68	2152.42
290.90	2277.34
291.11	2070.50
291.33	2236.38
291.54	2109.41
291.76	2054.11
291.97	2236.38
292.18	2174.94
292.40	2172.89
292.61	2115.55
292.83	2408.41
293.04	2168.80
293.26	2269.15
293.47	2187.23
293.69	2111.46
293.90	2195.42
294.12	2277.34
294.33	2152.42
294.55	2097.12
294.76	2308.06
294.97	2369.50
295.19	2344.92
295.40	2201.57
295.62	2146.27
295.83	2236.38
296.05	2146.27
296.26	2326.49
296.48	2215.90
296.69	2140.13
296.90	2179.04
297.12	2252.77
297.33	2336.73
297.55	2146.27
297.76	2306.01
297.98	2250.72
298.19	2166.75
298.41	2121.70
298.62	2181.09
298.83	2265.05
299.05	2205.66
299.26	2162.66
299.48	2088.93
299.69	2224.09
299.90	2138.08
300.12	2150.37
300.33	2277.34
300.55	2193.37
300.76	2217.95
300.98	2113.50
301.19	2191.33
301.40	2131.94
301.62	2185.18
301.83	2158.56
302.05	2250.72
302.26	2156.51
302.47	2234.33
302.69	2054.11
302.90	2207.71
303.12	2004.96
303.33	2252.77
303.54	2387.93
303.76	2146.27
303.97	2228.19
304.19	2334.68
304.40	2086.88
304.61	2248.67
304.83	2387.93
305.04	2277.34
305.26	2195.42
305.47	2133.98
305.68	2179.04
305.90	1992.67
306.11	2248.67
306.33	2105.31
306.54	2172.89
306.75	2111.46
306.97	2113.50
307.18	2199.52
307.39	2031.58
307.61	2185.18
307.82	2215.90
308.04	2236.38
308.25	2148.32
308.46	2220.00
308.68	2136.03
308.89	2187.23
309.10	2289.63
309.32	2187.23
309.53	2236.38
309.74	2187.23
309.96	2056.16
310.17	2236.38
310.39	2158.56
310.60	2271.20
310.81	2080.74
311.03	2064.35
311.24	2265.05
311.45	2154.46
311.67	2359.26
311.88	2213.85
312.09	2109.41
312.31	2056.16
312.52	2183.13
312.73	2156.51
312.95	2095.07
313.16	2146.27
313.37	2273.25
313.59	2263.01
313.80	2187.23
314.01	2373.60
314.23	2164.70
314.44	2133.98
314.65	2090.98
314.87	2179.04
315.08	2201.57
315.29	2162.66
315.51	2113.50
315.72	2078.69
315.93	2295.77
316.15	2217.95
316.36	2205.66
316.57	2195.42
316.79	2260.96
317.00	2154.46
317.21	2215.90
317.43	2133.98
317.64	2211.81
317.85	2072.54
318.07	2129.89
318.28	2117.60
318.49	2328.54
318.70	2469.85
318.92	2355.16
319.13	2428.89
319.34	2385.88
319.56	2281.44
319.77	2291.68
319.98	2308.06
320.20	2295.77
320.41	2283.49
320.62	2273.25
320.83	2172.89
321.05	2375.64
321.26	2191.33
321.47	2207.71
321.69	2328.54
321.90	2119.65
322.11	2107.36
322.32	2187.23
322.54	2349.02
322.75	2095.07
322.96	2459.61
323.18	2029.54
323.39	2031.58
323.60	2111.46
323.81	2224.09
324.03	2093.02
324.24	2230.24
324.45	2211.81
324.66	2133.98
324.88	2314.20
325.09	2328.54
325.30	2160.61
325.52	2195.42
325.73	2232.29
325.94	2105.31
326.15	2031.58
326.37	2174.94
326.58	2242.53
326.79	2355.16
327.00	2236.38
327.22	2215.90
327.43	2187.23
327.64	2131.94
327.85	2148.32
328.07	2207.71
328.28	2291.68
328.49	2183.13
328.70	2142.18
328.92	2154.46
329.13	2236.38
329.34	2269.15
329.55	2334.68
329.76	2256.86
329.98	2115.55
330.19	2301.92
330.40	2220.00
330.61	2193.37
330.83	2299.87
331.04	2078.69
331.25	2236.38
331.46	2201.57
331.68	2060.26
331.89	2330.59
332.10	2162.66
332.31	2045.92
332.52	2164.70
332.74	2281.44
332.95	2002.91
333.16	2119.65
333.37	2220.00
333.58	2093.02
333.80	2136.03
334.01	2076.64
334.22	2224.09
334.43	2138.08
334.64	2117.60
334.86	2064.35
335.07	2072.54
335.28	2260.96
335.49	2105.31
335.70	2170.85
335.92	2312.16
336.13	2402.27
336.34	2199.52
336.55	2099.17
336.76	2260.96
336.98	2066.40
337.19	2187.23
337.40	2265.05
337.61	2414.56
337.82	2154.46
338.04	2232.29
338.25	2058.21
338.46	2197.47
338.67	2121.70
338.88	2113.50
339.09	2054.11
339.31	2131.94
339.52	2056.16
339.73	2070.50
339.94	2195.42
340.15	2195.42
340.36	2084.83
340.58	2183.13
340.79	2080.74
341.00	2209.76
341.21	2125.79
341.42	2371.55
341.63	2088.93
341.85	2316.25
342.06	2224.09
342.27	2095.07
342.48	2215.90
342.69	2050.02
342.90	2168.80
343.12	2320.35
343.33	2080.74
343.54	2359.26
343.75	2336.73
343.96	2172.89
344.17	2054.11
344.38	2260.96
344.60	2080.74
344.81	2150.37
345.02	2142.18
345.23	2306.01
345.44	2441.18
345.65	2236.38
345.86	2217.95
346.07	2209.76
346.29	2142.18
346.50	2197.47
346.71	2185.18
346.92	2349.02
347.13	2389.98
347.34	2207.71
347.55	2170.85
347.76	2215.90
347.98	2129.89
348.19	2119.65
348.40	2269.15
348.61	2109.41
348.82	2291.68
349.03	2275.29
349.24	2097.12
349.45	2308.06
349.66	1998.82
349.88	2146.27
350.09	2127.84
350.30	2355.16
350.51	2324.44
350.72	2158.56
350.93	2170.85
351.14	2172.89
351.35	2252.77
351.56	2170.85
351.77	2224.09
351.99	2072.54
352.20	2416.60
352.41	2230.24
352.62	2052.06
352.83	2226.14
353.04	2125.79
353.25	2131.94
353.46	2279.39
353.67	2318.30
353.88	2037.73
354.09	2254.81
354.30	2211.81
354.52	2242.53
354.73	2129.89
354.94	2170.85
355.15	2121.70
355.36	2291.68
355.57	2164.70
355.78	2193.37
355.99	2133.98
356.20	2162.66
356.41	2226.14
356.62	2297.82
356.83	2191.33
357.04	2310.11
357.25	1986.53
357.46	2109.41
357.68	2023.39
357.89	2099.17
358.10	2236.38
358.31	2281.44
358.52	2195.42
358.73	2041.82
358.94	2150.37
359.15	2101.22
359.36	2228.19
359.57	2273.25
359.78	2217.95
359.99	2215.90
360.20	2113.50
360.41	2189.28
360.62	2197.47
360.83	2234.33
361.04	2224.09
361.25	2285.53
361.46	2316.25
361.67	2224.09
361.88	2228.19
362.09	2285.53
362.30	2250.72
362.51	2113.50
362.72	2193.37
362.93	2303.96
363.14	2275.29
363.35	2244.57
363.56	2148.32
363.78	2258.91
363.99	2187.23
364.20	2217.95
364.41	2228.19
364.62	2334.68
364.83	2220.00
365.04	2170.85
365.25	2148.32
365.46	2310.11
365.67	2058.21
365.88	2244.57
366.09	2115.55
366.30	2181.09
366.51	2160.61
366.72	2138.08
366.93	2158.56
367.14	2222.05
367.35	2273.25
367.56	2133.98
367.77	2220.00
367.98	2205.66
368.18	2217.95
368.39	2226.14
368.60	2109.41
368.81	2185.18
369.02	2179.04
369.23	2170.85
369.44	2058.21
369.65	2101.22
369.86	2168.80
370.07	2236.38
370.28	2179.04
370.49	2250.72
370.70	2316.25
370.91	2084.83
371.12	2078.69
371.33	2359.26
371.54	2097.12
371.75	2301.92
371.96	1982.43
372.17	2191.33
372.38	2136.03
372.59	2263.01
372.80	2133.98
373.01	2201.57
373.22	2150.37
373.43	2176.99
373.64	2009.06
373.85	2392.03
374.06	2359.26
374.26	2273.25
374.47	2150.37
374.68	2316.25
374.89	2228.19
375.10	2220.00
375.31	2256.86
375.52	2238.43
375.73	2209.76
375.94	2039.78
376.15	2361.31
376.36	2170.85
376.57	2150.37
376.78	2136.03
376.99	2277.34
377.20	2328.54
377.40	2277.34
377.61	2414.56
377.82	2050.02
378.03	2260.96
378.24	2256.86
378.45	2189.28
378.66	2199.52
378.87	2066.40
379.08	2068.45
379.29	2101.22
379.50	2314.20
379.71	2213.85
379.91	2279.39
380.12	2269.15
380.33	2203.61
380.54	2254.81
380.75	2207.71
380.96	2117.60
381.17	2224.09
381.38	2148.32
381.59	2127.84
381.80	2220.00
382.00	2426.84
382.21	2258.91
382.42	2308.06
382.63	2412.51
382.84	2232.29
383.05	2363.36
383.26	2342.88
383.47	2293.72
383.68	2234.33
383.88	2224.09
384.09	2170.85
384.30	2285.53
384.51	2176.99
384.72	2181.09
384.93	2103.26
385.14	2179.04
385.35	2252.77
385.55	2047.97
385.76	2260.96
385.97	2179.04
386.18	2054.11
386.39	2181.09
386.60	2209.76
386.81	2187.23
387.02	2176.99
387.22	2160.61
387.43	2232.29
387.64	2308.06
387.85	2400.22
388.06	2422.75
388.27	4079.55
388.48	8757.11
388.68	12224.33
388.89	14931.74
389.10	15802.13
389.31	14567.20
389.52	11599.70
389.73	10069.86
389.93	9101.17
390.14	8304.51
390.35	7227.28
390.56	6698.91
390.77	5355.44
390.98	4179.90
391.18	3321.81
391.39	2680.79
391.60	2336.73
391.81	2310.11
392.02	2162.66
392.23	2500.57
392.43	2215.90
392.64	2324.44
392.85	2246.62
393.06	2392.03
393.27	2230.24
393.47	2170.85
393.68	2199.52
393.89	2131.94
394.10	2338.78
394.31	2170.85
394.52	2043.87
394.72	2097.12
394.93	2375.64
395.14	2109.41
395.35	2183.13
395.56	2039.78
395.76	2242.53
395.97	2283.49
396.18	2209.76
396.39	2308.06
396.60	2678.74
396.80	2490.33
397.01	2326.49
397.22	2459.61
397.43	2318.30
397.64	2240.48
397.84	2330.59
398.05	2441.18
398.26	2215.90
398.47	2234.33
398.67	2258.91
398.88	2170.85
399.09	2306.01
399.30	2115.55
399.51	2265.05
399.71	2113.50
399.92	2181.09
400.13	2217.95
400.34	2179.04
400.54	2234.33
400.75	2373.60
400.96	2234.33
401.17	2361.31
401.37	2267.10
401.58	2232.29
401.79	2154.46
402.00	2320.35
402.21	2590.68
402.41	2570.20
402.62	2600.92
402.83	2656.22
403.04	2648.02
403.24	2777.05
403.45	2367.45
403.66	2394.08
403.87	2412.51
404.07	2537.43
404.28	2508.76
404.49	2437.08
404.70	2295.77
404.90	2240.48
405.11	2201.57
405.32	2267.10
405.52	2131.94
405.73	2115.55
405.94	2138.08
406.15	2183.13
406.35	2279.39
406.56	2230.24
406.77	2215.90
406.98	2209.76
407.18	2113.50
407.39	2351.07
407.60	2244.57
407.80	2295.77
408.01	2166.75
408.22	2289.63
408.43	2121.70
408.63	2271.20
408.84	2244.57
409.05	2234.33
409.25	2103.26
409.46	2113.50
409.67	2205.66
409.88	2109.41
410.08	2238.43
410.29	2127.84
410.50	2297.82
410.70	2201.57
410.91	2133.98
411.12	2316.25
411.32	2209.76
411.53	2052.06
411.74	2277.34
411.95	2375.64
412.15	2324.44
412.36	2326.49
412.57	2279.39
412.77	2267.10
412.98	2189.28
413.19	2256.86
413.39	2279.39
413.60	2293.72
413.81	2330.59
414.01	2101.22
414.22	2250.72
414.43	2277.34
414.63	2193.37
414.84	2244.57
415.05	2185.18
415.25	2097.12
415.46	2275.29
415.67	2154.46
415.87	2220.00
416.08	2232.29
416.29	2185.18
416.49	2271.20
416.70	2172.89
416.91	2111.46
417.11	2224.09
417.32	2271.20
417.53	2209.76
417.73	2275.29
417.94	2168.80
418.15	2226.14
418.35	2203.61
418.56	2215.90
418.77	2482.14
418.97	2228.19
419.18	2170.85
419.38	1953.76
419.59	2220.00
419.80	2338.78
420.00	2117.60
420.21	2209.76
420.42	2342.88
420.62	2203.61
420.83	2150.37
421.04	2136.03
421.24	2146.27
421.45	2263.01
421.65	2234.33
421.86	2146.27
422.07	2344.92
422.27	2301.92
422.48	2166.75
422.69	2088.93
422.89	2213.85
423.10	2211.81
423.30	2056.16
423.51	2244.57
423.72	2217.95
423.92	2195.42
424.13	2017.25
424.33	2142.18
424.54	2244.57
424.75	2129.89
424.95	2332.64
425.16	2131.94
425.36	2179.04
425.57	2248.67
425.78	2295.77
425.98	2267.10
426.19	2097.12
426.39	2115.55
426.60	2213.85
426.81	2330.59
427.01	2240.48
427.22	2123.74
427.42	2056.16
427.63	2107.36
427.83	2310.11
428.04	2340.83
428.25	2303.96
428.45	2334.68
428.66	2285.53
428.86	2138.08
429.07	2121.70
429.28	2150.37
429.48	2125.79
429.69	2154.46
429.89	2258.91
430.10	2105.31
430.30	2250.72
430.51	2336.73
430.71	2152.42
430.92	2172.89
431.13	2093.02
431.33	2267.10
431.54	2168.80
431.74	2371.55
431.95	2340.83
432.15	2084.83
432.36	2179.04
432.56	2236.38
432.77	2359.26
432.98	2369.50
433.18	2193.37
433.39	2220.00
433.59	2250.72
433.80	2373.60
434.00	2398.17
434.21	2150.37
434.41	2131.94
434.62	2371.55
434.82	2105.31
435.03	2072.54
435.23	2191.33
435.44	2047.97
435.64	2195.42
435.85	2222.05
436.06	2273.25
436.26	2295.77
436.47	2185.18
436.67	2127.84
436.88	2213.85
437.08	2363.36
437.29	2252.77
437.49	2168.80
437.70	2392.03
437.90	2203.61
438.11	2340.83
438.31	2271.20
438.52	2285.53
438.72	2346.97
438.93	2383.84
439.13	2263.01
439.34	2463.71
439.54	2166.75
439.75	2258.91
439.95	2242.53
440.16	2121.70
440.36	2295.77
440.57	2244.57
440.77	2201.57
440.98	2201.57
441.18	2277.34
441.39	2142.18
441.59	2062.30
441.80	2396.12
442.00	2136.03
442.21	2195.42
442.41	2119.65
442.62	2258.91
442.82	2174.94
443.02	2095.07
443.23	2166.75
443.43	2138.08
443.64	2346.97
443.84	2056.16
444.05	2256.86
444.25	2232.29
444.46	2129.89
444.66	2220.00
444.87	2389.98
445.07	2127.84
445.28	2211.81
445.48	2293.72
445.69	2222.05
445.89	2488.28
446.09	2269.15
446.30	2566.10
446.50	2906.07
446.71	4407.23
446.91	5494.70
447.12	6406.05
447.32	6725.53
447.53	6317.98
447.73	5009.33
447.93	4569.02
448.14	4120.51
448.34	4026.31
448.55	3608.52
448.75	3559.37
448.96	3358.67
449.16	3030.99
449.36	2910.16
449.57	2416.60
449.77	2404.32
449.98	2209.76
450.18	2355.16
450.39	2252.77
450.59	2322.40
450.79	2195.42
451.00	2193.37
451.20	2291.68
451.41	2138.08
451.61	2197.47
451.81	2277.34
452.02	2088.93
452.22	2133.98
452.43	2189.28
