SpectraSuite Data File
++++++++++++++++++++++++++++++++++++
Date: Thu May 05 12:35:14 CEST 2016
User: root
Dark Spectrum Present: No
Reference Spectrum Present: No
Number of Sampled Component Spectra: 1
Spectrometers: USB4C02835
Integration Time (usec): 100000 (USB4C02835)
Spectra Averaged: 1 (USB4C02835)
Boxcar Smoothing: 0 (USB4C02835)
Correct for Electrical Dark: No (USB4C02835)
Strobe/Lamp Enabled: No (USB4C02835)
Correct for Detector Non-linearity: No (USB4C02835)
Correct for Stray Light: No (USB4C02835)
Number of Pixels in Processed Spectrum: 3648
>>>>>Begin Processed Spectral Data<<<<<
177.47	1849.32
177.69	1849.32
177.91	1849.32
178.13	1791.97
178.36	1753.06
178.58	2121.70
178.80	2265.05
179.02	2078.69
179.24	2113.50
179.46	2093.02
179.68	2127.84
179.90	2197.47
180.13	2148.32
180.35	2070.50
180.57	2056.16
180.79	2297.82
181.01	2099.17
181.23	2197.47
181.45	2211.81
181.67	2226.14
181.90	2226.14
182.12	2136.03
182.34	2007.01
182.56	2277.34
182.78	2199.52
183.00	2076.64
183.22	2154.46
183.44	2093.02
183.66	2426.84
183.89	2230.24
184.11	2150.37
184.33	2195.42
184.55	2260.96
184.77	2131.94
184.99	2088.93
185.21	2154.46
185.43	2494.43
185.65	2029.54
185.87	2084.83
186.10	2406.36
186.32	2314.20
186.54	2191.33
186.76	2183.13
186.98	2195.42
187.20	2222.05
187.42	2097.12
187.64	2146.27
187.86	2211.81
188.08	2318.30
188.30	2140.13
188.52	2117.60
188.75	2289.63
188.97	2398.17
189.19	2160.61
189.41	2144.22
189.63	2295.77
189.85	2162.66
190.07	2062.30
190.29	2007.01
190.51	2232.29
190.73	2117.60
190.95	2224.09
191.17	2031.58
191.39	2117.60
191.61	2207.71
191.84	2068.45
192.06	2164.70
192.28	2062.30
192.50	2478.04
192.72	2203.61
192.94	2166.75
193.16	2326.49
193.38	2252.77
193.60	2129.89
193.82	2183.13
194.04	2344.92
194.26	2242.53
194.48	2076.64
194.70	2107.36
194.92	2201.57
195.14	2234.33
195.36	2152.42
195.58	2201.57
195.80	2133.98
196.02	2144.22
196.24	2074.59
196.46	2088.93
196.69	2117.60
196.91	2451.42
197.13	2121.70
197.35	2109.41
197.57	2351.07
197.79	2240.48
198.01	2154.46
198.23	2162.66
198.45	2228.19
198.67	2052.06
198.89	2027.49
199.11	2123.74
199.33	2162.66
199.55	1984.48
199.77	2148.32
199.99	2228.19
200.21	2154.46
200.43	2144.22
200.65	2047.97
200.87	2027.49
201.09	2168.80
201.31	2185.18
201.53	2183.13
201.75	2209.76
201.97	2170.85
202.19	2248.67
202.41	2183.13
202.63	2220.00
202.85	2193.37
203.07	2148.32
203.29	2039.78
203.51	2031.58
203.73	2183.13
203.95	2482.14
204.17	2154.46
204.39	2140.13
204.61	2152.42
204.83	2117.60
205.05	2172.89
205.27	2195.42
205.49	2451.42
205.71	2181.09
205.93	2019.30
206.15	2107.36
206.37	2203.61
206.59	2176.99
206.81	2035.68
207.03	2093.02
207.25	2095.07
207.47	2269.15
207.69	2144.22
207.91	2226.14
208.13	2342.88
208.34	2154.46
208.56	2099.17
208.78	2170.85
209.00	2146.27
209.22	2105.31
209.44	2068.45
209.66	2033.63
209.88	2166.75
210.10	2162.66
210.32	2117.60
210.54	2271.20
210.76	2228.19
210.98	2291.68
211.20	1970.15
211.42	2222.05
211.64	2326.49
211.86	2176.99
212.08	2170.85
212.30	2140.13
212.52	2209.76
212.74	2222.05
212.96	2197.47
213.17	2176.99
213.39	2224.09
213.61	2263.01
213.83	2164.70
214.05	2150.37
214.27	2256.86
214.49	1998.82
214.71	2082.78
214.93	2279.39
215.15	2170.85
215.37	2252.77
215.59	2074.59
215.81	2183.13
216.03	2242.53
216.24	2148.32
216.46	2176.99
216.68	2105.31
216.90	2254.81
217.12	2265.05
217.34	2097.12
217.56	2197.47
217.78	2271.20
218.00	2185.18
218.22	2146.27
218.44	2162.66
218.66	2205.66
218.87	2365.40
219.09	2076.64
219.31	2172.89
219.53	2160.61
219.75	2138.08
219.97	2138.08
220.19	2162.66
220.41	2203.61
220.63	2457.56
220.85	2127.84
221.06	2131.94
221.28	2392.03
221.50	2263.01
221.72	2254.81
221.94	2088.93
222.16	2215.90
222.38	2277.34
222.60	2156.51
222.82	2117.60
223.03	2336.73
223.25	2054.11
223.47	2121.70
223.69	2295.77
223.91	2242.53
224.13	2232.29
224.35	2023.39
224.57	2217.95
224.78	2252.77
225.00	2068.45
225.22	2156.51
225.44	2152.42
225.66	2179.04
225.88	2144.22
226.10	2203.61
226.32	2168.80
226.53	2240.48
226.75	2117.60
226.97	2203.61
227.19	2099.17
227.41	2144.22
227.63	2199.52
227.85	1935.33
228.06	2136.03
228.28	2187.23
228.50	2201.57
228.72	2123.74
228.94	2045.92
229.16	2131.94
229.37	2105.31
229.59	2074.59
229.81	2199.52
230.03	2140.13
230.25	2090.98
230.47	2047.97
230.69	1992.67
230.90	2310.11
231.12	2119.65
231.34	2187.23
231.56	2176.99
231.78	2156.51
232.00	2201.57
232.21	2150.37
232.43	2170.85
232.65	2007.01
232.87	2297.82
233.09	2047.97
233.30	2095.07
233.52	2254.81
233.74	2185.18
233.96	2121.70
234.18	2193.37
234.40	2127.84
234.61	2422.75
234.83	2023.39
235.05	2025.44
235.27	2408.41
235.49	2285.53
235.70	2064.35
235.92	2265.05
236.14	2260.96
236.36	2478.04
236.58	2007.01
236.79	2119.65
237.01	2115.55
237.23	2172.89
237.45	2295.77
237.67	2056.16
237.88	2123.74
238.10	2381.79
238.32	2113.50
238.54	2086.88
238.76	2172.89
238.97	2084.83
239.19	2140.13
239.41	2211.81
239.63	2246.62
239.85	2099.17
240.06	2111.46
240.28	2072.54
240.50	2250.72
240.72	2195.42
240.93	2084.83
241.15	2203.61
241.37	2154.46
241.59	2359.26
241.81	2226.14
242.02	2187.23
242.24	2181.09
242.46	2238.43
242.68	2068.45
242.89	2142.18
243.11	2316.25
243.33	2236.38
243.55	2179.04
243.76	2166.75
243.98	2160.61
244.20	2093.02
244.42	2064.35
244.64	2125.79
244.85	2111.46
245.07	2066.40
245.29	2176.99
245.51	2176.99
245.72	2152.42
245.94	2342.88
246.16	2142.18
246.38	2160.61
246.59	2099.17
246.81	2082.78
247.03	2117.60
247.24	2058.21
247.46	2127.84
247.68	2236.38
247.90	2027.49
248.11	2082.78
248.33	2228.19
248.55	2224.09
248.77	2144.22
248.98	2201.57
249.20	2422.75
249.42	2127.84
249.64	2050.02
249.85	2144.22
250.07	2183.13
250.29	2287.58
250.50	2176.99
250.72	1982.43
250.94	2211.81
251.16	2428.89
251.37	2060.26
251.59	2193.37
251.81	2252.77
252.02	2273.25
252.24	2088.93
252.46	2236.38
252.68	2138.08
252.89	2156.51
253.11	1968.10
253.33	2254.81
253.54	2244.57
253.76	2023.39
253.98	2080.74
254.20	2152.42
254.41	2080.74
254.63	2199.52
254.85	2025.44
255.06	2187.23
255.28	2156.51
255.50	2093.02
255.71	2117.60
255.93	2039.78
256.15	2138.08
256.36	2220.00
256.58	2076.64
256.80	2162.66
257.02	2103.26
257.23	2093.02
257.45	2129.89
257.67	2213.85
257.88	2123.74
258.10	2226.14
258.32	2101.22
258.53	2217.95
258.75	2373.60
258.97	2131.94
259.18	2054.11
259.40	2156.51
259.62	2316.25
259.83	2281.44
260.05	2244.57
260.27	2541.53
260.48	2334.68
260.70	2019.30
260.92	2066.40
261.13	2174.94
261.35	2187.23
261.57	2230.24
261.78	2090.98
262.00	2068.45
262.22	2195.42
262.43	2181.09
262.65	2146.27
262.86	2146.27
263.08	2351.07
263.30	2217.95
263.51	2027.49
263.73	2072.54
263.95	2248.67
264.16	2138.08
264.38	2035.68
264.60	2076.64
264.81	2185.18
265.03	2234.33
265.25	2244.57
265.46	2119.65
265.68	2351.07
265.89	2293.72
266.11	2039.78
266.33	2146.27
266.54	2316.25
266.76	2199.52
266.98	2197.47
267.19	2263.01
267.41	2201.57
267.62	2187.23
267.84	2080.74
268.06	2111.46
268.27	2220.00
268.49	2265.05
268.70	2250.72
268.92	2107.36
269.14	2101.22
269.35	2121.70
269.57	2136.03
269.79	2123.74
270.00	2111.46
270.22	2336.73
270.43	2039.78
270.65	2039.78
270.87	2185.18
271.08	2217.95
271.30	2168.80
271.51	2144.22
271.73	2250.72
271.95	2332.64
272.16	2105.31
272.38	2236.38
272.59	2179.04
272.81	2144.22
273.02	2119.65
273.24	2127.84
273.46	2324.44
273.67	2084.83
273.89	2086.88
274.10	2121.70
274.32	2306.01
274.54	2168.80
274.75	2195.42
274.97	2142.18
275.18	2273.25
275.40	2228.19
275.61	2160.61
275.83	2172.89
276.05	2148.32
276.26	2207.71
276.48	2168.80
276.69	2125.79
276.91	2179.04
277.12	2248.67
277.34	2265.05
277.55	2258.91
277.77	2213.85
277.99	2138.08
278.20	2127.84
278.42	2068.45
278.63	2105.31
278.85	2103.26
279.06	2050.02
279.28	2146.27
279.49	2283.49
279.71	2242.53
279.93	2273.25
280.14	2162.66
280.36	2086.88
280.57	2275.29
280.79	2293.72
281.00	2064.35
281.22	2086.88
281.43	2353.12
281.65	1992.67
281.86	2125.79
282.08	2217.95
282.29	2383.84
282.51	2011.11
282.73	2058.21
282.94	2117.60
283.16	2232.29
283.37	2269.15
283.59	2140.13
283.80	2226.14
284.02	2160.61
284.23	2203.61
284.45	2109.41
284.66	2017.25
284.88	2160.61
285.09	2185.18
285.31	2203.61
285.52	2236.38
285.74	2031.58
285.95	2236.38
286.17	2197.47
286.38	2293.72
286.60	2211.81
286.81	2164.70
287.03	2121.70
287.24	2152.42
287.46	2287.58
287.67	2176.99
287.89	2342.88
288.10	2160.61
288.32	2246.62
288.53	2357.21
288.75	2234.33
288.96	2265.05
289.18	2158.56
289.39	2191.33
289.61	2242.53
289.82	2439.13
290.04	2404.32
290.25	2072.54
290.47	2224.09
290.68	2117.60
290.90	2283.49
291.11	2074.59
291.33	2246.62
291.54	2072.54
291.76	2095.07
291.97	2240.48
292.18	2215.90
292.40	2088.93
292.61	2066.40
292.83	2371.55
293.04	2207.71
293.26	2244.57
293.47	2181.09
293.69	2076.64
293.90	2060.26
294.12	2289.63
294.33	2277.34
294.55	2252.77
294.76	2232.29
294.97	2289.63
295.19	2461.66
295.40	2166.75
295.62	2215.90
295.83	2289.63
296.05	2174.94
296.26	2275.29
296.48	2119.65
296.69	2226.14
296.90	2152.42
297.12	2334.68
297.33	2269.15
297.55	2103.26
297.76	2263.01
297.98	2236.38
298.19	2156.51
298.41	2170.85
298.62	2207.71
298.83	2314.20
299.05	2250.72
299.26	2238.43
299.48	2146.27
299.69	2136.03
299.90	2199.52
300.12	2058.21
300.33	2181.09
300.55	2146.27
300.76	2252.77
300.98	2115.55
301.19	2213.85
301.40	2207.71
301.62	2162.66
301.83	2230.24
302.05	2152.42
302.26	2146.27
302.47	2166.75
302.69	2140.13
302.90	2199.52
303.12	2078.69
303.33	2248.67
303.54	2414.56
303.76	2172.89
303.97	2281.44
304.19	2326.49
304.40	2125.79
304.61	2271.20
304.83	2369.50
305.04	2220.00
305.26	2334.68
305.47	2123.74
305.68	2138.08
305.90	2031.58
306.11	2293.72
306.33	2127.84
306.54	2084.83
306.75	2121.70
306.97	2056.16
307.18	2062.30
307.39	2109.41
307.61	2232.29
307.82	2136.03
308.04	2260.96
308.25	2064.35
308.46	2199.52
308.68	2174.94
308.89	2197.47
309.10	2228.19
309.32	2201.57
309.53	2226.14
309.74	2203.61
309.96	2138.08
310.17	2238.43
310.39	2152.42
310.60	2234.33
310.81	2179.04
311.03	2090.98
311.24	2267.10
311.45	2101.22
311.67	2418.65
311.88	2265.05
312.09	2115.55
312.31	2070.50
312.52	2199.52
312.73	2193.37
312.95	2062.30
313.16	2101.22
313.37	2283.49
313.59	2166.75
313.80	2291.68
314.01	2353.12
314.23	2166.75
314.44	2080.74
314.65	2035.68
314.87	2099.17
315.08	2162.66
315.29	2174.94
315.51	2054.11
315.72	2109.41
315.93	2277.34
316.15	2220.00
316.36	2125.79
316.57	2193.37
316.79	2228.19
317.00	2183.13
317.21	2265.05
317.43	2113.50
317.64	2277.34
317.85	2113.50
318.07	2133.98
318.28	2191.33
318.49	2367.45
318.70	2449.37
318.92	2353.12
319.13	2418.65
319.34	2418.65
319.56	2256.86
319.77	2283.49
319.98	2353.12
320.20	2340.83
320.41	2193.37
320.62	2271.20
320.83	2084.83
321.05	2326.49
321.26	2287.58
321.47	2220.00
321.69	2324.44
321.90	2119.65
322.11	2117.60
322.32	2224.09
322.54	2389.98
322.75	2174.94
322.96	2467.80
323.18	2039.78
323.39	2027.49
323.60	2183.13
323.81	2201.57
324.03	2154.46
324.24	2271.20
324.45	2185.18
324.66	2191.33
324.88	2240.48
325.09	2338.78
325.30	2209.76
325.52	2140.13
325.73	2236.38
325.94	2174.94
326.15	2150.37
326.37	2054.11
326.58	2205.66
326.79	2314.20
327.00	2174.94
327.22	2154.46
327.43	2123.74
327.64	2070.50
327.85	2168.80
328.07	2209.76
328.28	2375.64
328.49	2195.42
328.70	2193.37
328.92	2127.84
329.13	2197.47
329.34	2242.53
329.55	2324.44
329.76	2265.05
329.98	2211.81
330.19	2324.44
330.40	2293.72
330.61	2269.15
330.83	2279.39
331.04	2203.61
331.25	2232.29
331.46	2127.84
331.68	2121.70
331.89	2267.10
332.10	2265.05
332.31	2088.93
332.52	2189.28
332.74	2310.11
332.95	2045.92
333.16	2166.75
333.37	2217.95
333.58	2037.73
333.80	2185.18
334.01	1943.52
334.22	2195.42
334.43	2084.83
334.64	2095.07
334.86	2086.88
335.07	2127.84
335.28	2340.83
335.49	1972.19
335.70	2287.58
335.92	2256.86
336.13	2310.11
336.34	2240.48
336.55	2224.09
336.76	2187.23
336.98	2058.21
337.19	2201.57
337.40	2330.59
337.61	2420.70
337.82	2127.84
338.04	2248.67
338.25	2076.64
338.46	2164.70
338.67	2078.69
338.88	2064.35
339.09	2027.49
339.31	2187.23
339.52	2090.98
339.73	2095.07
339.94	2125.79
340.15	2195.42
340.36	2125.79
340.58	2193.37
340.79	2084.83
341.00	2232.29
341.21	2097.12
341.42	2349.02
341.63	2232.29
341.85	2283.49
342.06	2166.75
342.27	2133.98
342.48	2222.05
342.69	2031.58
342.90	2285.53
343.12	2277.34
343.33	2088.93
343.54	2320.35
343.75	2318.30
343.96	2103.26
344.17	2093.02
344.38	2226.14
344.60	2142.18
344.81	2138.08
345.02	2170.85
345.23	2349.02
345.44	2484.19
345.65	2267.10
345.86	2232.29
346.07	2228.19
346.29	2105.31
346.50	2228.19
346.71	2316.25
346.92	2353.12
347.13	2424.80
347.34	2152.42
347.55	2080.74
347.76	2293.72
347.98	2123.74
348.19	2154.46
348.40	2334.68
348.61	2260.96
348.82	2373.60
349.03	2301.92
349.24	2078.69
349.45	2310.11
349.66	1982.43
349.88	2121.70
350.09	2138.08
350.30	2396.12
350.51	2344.92
350.72	2263.01
350.93	2275.29
351.14	2086.88
351.35	2179.04
351.56	2181.09
351.77	2166.75
351.99	2267.10
352.20	2385.88
352.41	2306.01
352.62	2074.59
352.83	2162.66
353.04	2183.13
353.25	2084.83
353.46	2162.66
353.67	2291.68
353.88	2045.92
354.09	2183.13
354.30	2160.61
354.52	2244.57
354.73	2193.37
354.94	2144.22
355.15	2189.28
355.36	2342.88
355.57	2183.13
355.78	2179.04
355.99	2113.50
356.20	2045.92
356.41	2258.91
356.62	2226.14
356.83	2209.76
357.04	2375.64
357.25	2064.35
357.46	2215.90
357.68	2021.35
357.89	2127.84
358.10	2179.04
358.31	2136.03
358.52	2191.33
358.73	2072.54
358.94	2144.22
359.15	2146.27
359.36	2244.57
359.57	2183.13
359.78	2156.51
359.99	2162.66
360.20	2054.11
360.41	2156.51
360.62	2215.90
360.83	2211.81
361.04	2211.81
361.25	2213.85
361.46	2244.57
361.67	2336.73
361.88	2205.66
362.09	2267.10
362.30	2162.66
362.51	2158.56
362.72	2152.42
362.93	2295.77
363.14	2246.62
363.35	2258.91
363.56	2113.50
363.78	2242.53
363.99	2297.82
364.20	2185.18
364.41	2179.04
364.62	2357.21
364.83	2312.16
365.04	2162.66
365.25	2193.37
365.46	2404.32
365.67	2123.74
365.88	2220.00
366.09	2125.79
366.30	2150.37
366.51	2191.33
366.72	2056.16
366.93	2156.51
367.14	2220.00
367.35	2326.49
367.56	2164.70
367.77	2279.39
367.98	2201.57
368.18	2273.25
368.39	2220.00
368.60	2119.65
368.81	2299.87
369.02	2226.14
369.23	2154.46
369.44	2029.54
369.65	2181.09
369.86	2230.24
370.07	2297.82
370.28	2043.87
370.49	2306.01
370.70	2246.62
370.91	2162.66
371.12	2039.78
371.33	2293.72
371.54	2105.31
371.75	2334.68
371.96	2007.01
372.17	2174.94
372.38	2217.95
372.59	2260.96
372.80	2144.22
373.01	2193.37
373.22	2244.57
373.43	2185.18
373.64	2150.37
373.85	2291.68
374.06	2408.41
374.26	2277.34
374.47	2189.28
374.68	2326.49
374.89	2242.53
375.10	2232.29
375.31	2267.10
375.52	2199.52
375.73	2197.47
375.94	2078.69
376.15	2269.15
376.36	2113.50
376.57	2183.13
376.78	2146.27
376.99	2090.98
377.20	2369.50
377.40	2183.13
377.61	2351.07
377.82	1986.53
378.03	2402.27
378.24	2289.63
378.45	2207.71
378.66	2234.33
378.87	2107.36
379.08	2023.39
379.29	2166.75
379.50	2295.77
379.71	2115.55
379.91	2217.95
380.12	2217.95
380.33	2267.10
380.54	2144.22
380.75	2234.33
380.96	2129.89
381.17	2271.20
381.38	2154.46
381.59	2248.67
381.80	2115.55
382.00	2420.70
382.21	2271.20
382.42	2369.50
382.63	2471.90
382.84	2226.14
383.05	2351.07
383.26	2371.55
383.47	2220.00
383.68	2193.37
383.88	2244.57
384.09	2176.99
384.30	2441.18
384.51	2314.20
384.72	2090.98
384.93	2047.97
385.14	2191.33
385.35	2248.67
385.55	2136.03
385.76	2351.07
385.97	2217.95
386.18	2103.26
386.39	2185.18
386.60	2256.86
386.81	2109.41
387.02	2160.61
387.22	2088.93
387.43	2248.67
387.64	2228.19
387.85	2316.25
388.06	2480.09
388.27	4018.11
388.48	8609.66
388.68	12531.52
388.89	14821.15
389.10	15623.95
389.31	14614.30
389.52	11390.80
389.73	9899.88
389.93	8955.77
390.14	8232.83
390.35	7346.06
390.56	6573.98
390.77	5552.04
390.98	4048.83
391.18	3282.89
391.39	2777.05
391.60	2355.16
391.81	2373.60
392.02	2115.55
392.23	2465.75
392.43	2232.29
392.64	2301.92
392.85	2256.86
393.06	2310.11
393.27	2172.89
393.47	2138.08
393.68	2244.57
393.89	2160.61
394.10	2301.92
394.31	2088.93
394.52	2105.31
394.72	2113.50
394.93	2361.31
395.14	2088.93
395.35	2263.01
395.56	2160.61
395.76	2183.13
395.97	2240.48
396.18	2324.44
396.39	2312.16
396.60	2615.26
396.80	2494.43
397.01	2412.51
397.22	2420.70
397.43	2385.88
397.64	2213.85
397.84	2256.86
398.05	2420.70
398.26	2203.61
398.47	2346.97
398.67	2301.92
398.88	2144.22
399.09	2297.82
399.30	2246.62
399.51	2195.42
399.71	2105.31
399.92	2160.61
400.13	2287.58
400.34	2170.85
400.54	2217.95
400.75	2377.69
400.96	2265.05
401.17	2355.16
401.37	2318.30
401.58	2181.09
401.79	2185.18
402.00	2285.53
402.21	2613.21
402.41	2502.62
402.62	2512.86
402.83	2613.21
403.04	2707.41
403.24	2795.48
403.45	2287.58
403.66	2441.18
403.87	2475.99
404.07	2385.88
404.28	2443.23
404.49	2498.52
404.70	2258.91
404.90	2250.72
405.11	2252.77
405.32	2260.96
405.52	2129.89
405.73	2144.22
405.94	2064.35
406.15	2199.52
406.35	2250.72
406.56	2336.73
406.77	2244.57
406.98	2256.86
407.18	2156.51
407.39	2334.68
407.60	2217.95
407.80	2199.52
408.01	2086.88
408.22	2258.91
408.43	2080.74
408.63	2236.38
408.84	2209.76
409.05	2232.29
409.25	2119.65
409.46	2076.64
409.67	2160.61
409.88	2211.81
410.08	2201.57
410.29	2217.95
410.50	2228.19
410.70	2191.33
410.91	2064.35
411.12	2242.53
411.32	2189.28
411.53	2144.22
411.74	2326.49
411.95	2299.87
412.15	2301.92
412.36	2318.30
412.57	2254.81
412.77	2344.92
412.98	2109.41
413.19	2267.10
413.39	2240.48
413.60	2179.04
413.81	2303.96
414.01	2203.61
414.22	2267.10
414.43	2316.25
414.63	2176.99
414.84	2297.82
415.05	2142.18
415.25	2050.02
415.46	2185.18
415.67	2183.13
415.87	2267.10
416.08	2148.32
416.29	2119.65
416.49	2306.01
416.70	2121.70
416.91	2144.22
417.11	2250.72
417.32	2332.64
417.53	2226.14
417.73	2291.68
417.94	2162.66
418.15	2250.72
418.35	2310.11
418.56	2113.50
418.77	2457.56
418.97	2279.39
419.18	2125.79
419.38	1964.00
419.59	2123.74
419.80	2402.27
420.00	2140.13
420.21	2213.85
420.42	2349.02
420.62	2250.72
420.83	2088.93
421.04	2211.81
421.24	2185.18
421.45	2211.81
421.65	2240.48
421.86	2138.08
422.07	2314.20
422.27	2220.00
422.48	2187.23
422.69	2072.54
422.89	2248.67
423.10	2109.41
423.30	2093.02
423.51	2191.33
423.72	2299.87
423.92	2318.30
424.13	2070.50
424.33	2285.53
424.54	2242.53
424.75	2220.00
424.95	2330.59
425.16	2295.77
425.36	2154.46
425.57	2303.96
425.78	2332.64
425.98	2215.90
426.19	2121.70
426.39	2072.54
426.60	2244.57
426.81	2346.97
427.01	2277.34
427.22	2117.60
427.42	2111.46
427.63	2123.74
427.83	2293.72
428.04	2379.74
428.25	2252.77
428.45	2281.44
428.66	2320.35
428.86	2154.46
429.07	2148.32
429.28	2131.94
429.48	2152.42
429.69	2078.69
429.89	2217.95
430.10	2121.70
430.30	2301.92
430.51	2332.64
430.71	2109.41
430.92	2133.98
431.13	2195.42
431.33	2226.14
431.54	2154.46
431.74	2291.68
431.95	2428.89
432.15	2113.50
432.36	2127.84
432.56	2301.92
432.77	2375.64
432.98	2334.68
433.18	2236.38
433.39	2142.18
433.59	2213.85
433.80	2402.27
434.00	2406.36
434.21	2088.93
434.41	2119.65
434.62	2443.23
434.82	2084.83
435.03	2084.83
435.23	2246.62
435.44	1998.82
435.64	2185.18
435.85	2205.66
436.06	2263.01
436.26	2271.20
436.47	2162.66
436.67	2158.56
436.88	2220.00
437.08	2287.58
437.29	2365.40
437.49	2222.05
437.70	2306.01
437.90	2109.41
438.11	2408.41
438.31	2293.72
438.52	2392.03
438.72	2439.13
438.93	2506.71
439.13	2283.49
439.34	2367.45
439.54	2267.10
439.75	2299.87
439.95	2295.77
440.16	2129.89
440.36	2203.61
440.57	2220.00
440.77	2269.15
440.98	2275.29
441.18	2326.49
441.39	2076.64
441.59	2099.17
441.80	2349.02
442.00	2232.29
442.21	2281.44
442.41	2093.02
442.62	2359.26
442.82	2138.08
443.02	2289.63
443.23	2273.25
443.43	2162.66
443.64	2424.80
443.84	2119.65
444.05	2334.68
444.25	2285.53
444.46	2211.81
444.66	2244.57
444.87	2379.74
445.07	2037.73
445.28	2140.13
445.48	2324.44
445.69	2301.92
445.89	2475.99
446.09	2203.61
446.30	2498.52
446.50	2791.38
446.71	4396.99
446.91	5435.31
447.12	6430.62
447.32	6840.22
447.53	6156.19
447.73	5091.25
447.93	4566.97
448.14	4341.69
448.34	4030.40
448.55	3637.19
448.75	3549.13
448.96	3465.16
449.16	3014.61
449.36	2861.01
449.57	2553.82
449.77	2312.16
449.98	2256.86
450.18	2340.83
450.39	2220.00
450.59	2297.82
450.79	2228.19
451.00	2176.99
451.20	2314.20
451.41	2185.18
451.61	2258.91
451.81	2129.89
452.02	2154.46
452.22	2154.46
452.43	2152.42
452.63	2146.27
