SpectraSuite Data File
++++++++++++++++++++++++++++++++++++
Date: Thu May 05 12:35:11 CEST 2016
User: root
Dark Spectrum Present: No
Reference Spectrum Present: No
Number of Sampled Component Spectra: 1
Spectrometers: USB4C02835
Integration Time (usec): 100000 (USB4C02835)
Spectra Averaged: 1 (USB4C02835)
Boxcar Smoothing: 0 (USB4C02835)
Correct for Electrical Dark: No (USB4C02835)
Strobe/Lamp Enabled: No (USB4C02835)
Correct for Detector Non-linearity: No (USB4C02835)
Correct for Stray Light: No (USB4C02835)
Number of Pixels in Processed Spectrum: 3648
>>>>>Begin Processed Spectral Data<<<<<
177.47	1794.02
177.69	1794.02
177.91	1794.02
178.13	1812.45
178.36	1777.64
178.58	2152.42
178.80	2232.29
179.02	2023.39
179.24	2117.60
179.46	2052.06
179.68	2248.67
179.90	2191.33
180.13	2160.61
180.35	2052.06
180.57	2146.27
180.79	2211.81
181.01	2228.19
181.23	2172.89
181.45	2172.89
181.67	2193.37
181.90	2252.77
182.12	2037.73
182.34	2035.68
182.56	2179.04
182.78	2250.72
183.00	2174.94
183.22	2162.66
183.44	2095.07
183.66	2398.17
183.89	2179.04
184.11	2277.34
184.33	2320.35
184.55	2246.62
184.77	2193.37
184.99	2187.23
185.21	2250.72
185.43	2422.75
185.65	2088.93
185.87	2144.22
186.10	2318.30
186.32	2334.68
186.54	2166.75
186.76	2234.33
186.98	2285.53
187.20	2086.88
187.42	2093.02
187.64	2111.46
187.86	2211.81
188.08	2246.62
188.30	2070.50
188.52	2166.75
188.75	2299.87
188.97	2265.05
189.19	2062.30
189.41	2119.65
189.63	2205.66
189.85	2101.22
190.07	2013.15
190.29	2027.49
190.51	2191.33
190.73	2146.27
190.95	2297.82
191.17	2099.17
191.39	2088.93
191.61	2144.22
191.84	2121.70
192.06	2217.95
192.28	2007.01
192.50	2449.37
192.72	2138.08
192.94	2211.81
193.16	2248.67
193.38	2258.91
193.60	2023.39
193.82	2148.32
194.04	2226.14
194.26	2242.53
194.48	2148.32
194.70	2142.18
194.92	2168.80
195.14	2240.48
195.36	2144.22
195.58	2140.13
195.80	2226.14
196.02	2176.99
196.24	2068.45
196.46	2191.33
196.69	2150.37
196.91	2508.76
197.13	2086.88
197.35	2138.08
197.57	2310.11
197.79	2207.71
198.01	2162.66
198.23	2183.13
198.45	2250.72
198.67	2162.66
198.89	2066.40
199.11	2150.37
199.33	2113.50
199.55	2013.15
199.77	2088.93
199.99	2201.57
200.21	2129.89
200.43	2179.04
200.65	2037.73
200.87	2004.96
201.09	2166.75
201.31	2168.80
201.53	2199.52
201.75	2146.27
201.97	2220.00
202.19	2244.57
202.41	2207.71
202.63	2279.39
202.85	2265.05
203.07	2260.96
203.29	2078.69
203.51	2080.74
203.73	2074.59
203.95	2418.65
204.17	2146.27
204.39	2205.66
204.61	2144.22
204.83	2168.80
205.05	2144.22
205.27	2179.04
205.49	2494.43
205.71	2166.75
205.93	2031.58
206.15	2093.02
206.37	2222.05
206.59	2158.56
206.81	2025.44
207.03	2113.50
207.25	2095.07
207.47	2269.15
207.69	2154.46
207.91	2236.38
208.13	2379.74
208.34	2064.35
208.56	2113.50
208.78	2174.94
209.00	2191.33
209.22	2140.13
209.44	2222.05
209.66	2070.50
209.88	2226.14
210.10	2111.46
210.32	2154.46
210.54	2211.81
210.76	2191.33
210.98	2367.45
211.20	1943.52
211.42	2234.33
211.64	2365.40
211.86	2228.19
212.08	2242.53
212.30	2129.89
212.52	2226.14
212.74	2228.19
212.96	2103.26
213.17	2234.33
213.39	2275.29
213.61	2377.69
213.83	2156.51
214.05	2199.52
214.27	2326.49
214.49	2058.21
214.71	2115.55
214.93	2176.99
215.15	2127.84
215.37	2361.31
215.59	1996.77
215.81	2220.00
216.03	2359.26
216.24	2172.89
216.46	2133.98
216.68	2146.27
216.90	2193.37
217.12	2291.68
217.34	2174.94
217.56	2252.77
217.78	2293.72
218.00	2187.23
218.22	2174.94
218.44	2197.47
218.66	2209.76
218.87	2392.03
219.09	2127.84
219.31	2191.33
219.53	2170.85
219.75	2101.22
219.97	2136.03
220.19	2211.81
220.41	2129.89
220.63	2328.54
220.85	2113.50
221.06	2095.07
221.28	2387.93
221.50	2224.09
221.72	2113.50
221.94	2133.98
222.16	2203.61
222.38	2297.82
222.60	2150.37
222.82	2224.09
223.03	2244.57
223.25	2019.30
223.47	2127.84
223.69	2263.01
223.91	2336.73
224.13	2199.52
224.35	2103.26
224.57	2201.57
224.78	2193.37
225.00	2123.74
225.22	2166.75
225.44	2127.84
225.66	2267.10
225.88	2203.61
226.10	2193.37
226.32	2217.95
226.53	2316.25
226.75	2152.42
226.97	2201.57
227.19	2062.30
227.41	2103.26
227.63	2160.61
227.85	2031.58
228.06	2172.89
228.28	2193.37
228.50	2201.57
228.72	2029.54
228.94	2127.84
229.16	1949.67
229.37	2105.31
229.59	2029.54
229.81	2273.25
230.03	2166.75
230.25	2056.16
230.47	2082.78
230.69	2017.25
230.90	2316.25
231.12	2033.63
231.34	2170.85
231.56	2226.14
231.78	2125.79
232.00	2187.23
232.21	2201.57
232.43	2129.89
232.65	1933.28
232.87	2279.39
233.09	2015.20
233.30	1994.72
233.52	2308.06
233.74	2277.34
233.96	2154.46
234.18	2113.50
234.40	2156.51
234.61	2404.32
234.83	2015.20
235.05	2052.06
235.27	2389.98
235.49	2279.39
235.70	2072.54
235.92	2228.19
236.14	2269.15
236.36	2349.02
236.58	2062.30
236.79	2179.04
237.01	2287.58
237.23	2158.56
237.45	2301.92
237.67	2121.70
237.88	2250.72
238.10	2486.23
238.32	2047.97
238.54	2052.06
238.76	2215.90
238.97	2148.32
239.19	2080.74
239.41	2217.95
239.63	2297.82
239.85	2166.75
240.06	2154.46
240.28	2058.21
240.50	2279.39
240.72	2142.18
240.93	2093.02
241.15	2226.14
241.37	2185.18
241.59	2318.30
241.81	2086.88
242.02	2025.44
242.24	2158.56
242.46	2269.15
242.68	2021.35
242.89	2156.51
243.11	2299.87
243.33	2150.37
243.55	2189.28
243.76	2199.52
243.98	2084.83
244.20	2101.22
244.42	2113.50
244.64	2154.46
244.85	2133.98
245.07	2162.66
245.29	2207.71
245.51	2119.65
245.72	2152.42
245.94	2314.20
246.16	2228.19
246.38	2258.91
246.59	2181.09
246.81	2097.12
247.03	2056.16
247.24	2023.39
247.46	2107.36
247.68	2176.99
247.90	2158.56
248.11	2064.35
248.33	2142.18
248.55	2156.51
248.77	2129.89
248.98	2181.09
249.20	2342.88
249.42	2254.81
249.64	2166.75
249.85	2109.41
250.07	2162.66
250.29	2301.92
250.50	2179.04
250.72	2027.49
250.94	2185.18
251.16	2355.16
251.37	2256.86
251.59	2176.99
251.81	2285.53
252.02	2326.49
252.24	2086.88
252.46	2187.23
252.68	2031.58
252.89	2213.85
253.11	2007.01
253.33	2328.54
253.54	2256.86
253.76	2148.32
253.98	2072.54
254.20	2150.37
254.41	2062.30
254.63	2195.42
254.85	2062.30
255.06	2129.89
255.28	2144.22
255.50	2162.66
255.71	2099.17
255.93	2015.20
256.15	2203.61
256.36	2236.38
256.58	2080.74
256.80	2129.89
257.02	2183.13
257.23	2164.70
257.45	2133.98
257.67	2170.85
257.88	2158.56
258.10	2254.81
258.32	2103.26
258.53	2158.56
258.75	2293.72
258.97	2183.13
259.18	2070.50
259.40	2152.42
259.62	2332.64
259.83	2383.84
260.05	2174.94
260.27	2607.06
260.48	2271.20
260.70	2052.06
260.92	2125.79
261.13	2156.51
261.35	2258.91
261.57	2254.81
261.78	2070.50
262.00	2111.46
262.22	2301.92
262.43	2109.41
262.65	2138.08
262.86	2103.26
263.08	2404.32
263.30	2187.23
263.51	1974.24
263.73	2093.02
263.95	2273.25
264.16	2103.26
264.38	2054.11
264.60	2082.78
264.81	2140.13
265.03	2334.68
265.25	2195.42
265.46	2146.27
265.68	2312.16
265.89	2263.01
266.11	2086.88
266.33	2105.31
266.54	2293.72
266.76	2297.82
266.98	2119.65
267.19	2250.72
267.41	2291.68
267.62	2142.18
267.84	2021.35
268.06	2117.60
268.27	2064.35
268.49	2322.40
268.70	2176.99
268.92	2144.22
269.14	2078.69
269.35	2111.46
269.57	2138.08
269.79	2238.43
270.00	2162.66
270.22	2260.96
270.43	2060.26
270.65	2007.01
270.87	2277.34
271.08	2179.04
271.30	2176.99
271.51	2127.84
271.73	2199.52
271.95	2285.53
272.16	2056.16
272.38	2195.42
272.59	2123.74
272.81	2275.29
273.02	2160.61
273.24	2174.94
273.46	2273.25
273.67	2078.69
273.89	2029.54
274.10	2113.50
274.32	2314.20
274.54	2226.14
274.75	2152.42
274.97	2129.89
275.18	2226.14
275.40	2232.29
275.61	2224.09
275.83	2107.36
276.05	2088.93
276.26	2199.52
276.48	2162.66
276.69	2084.83
276.91	2195.42
277.12	2324.44
277.34	2232.29
277.55	2228.19
277.77	2258.91
277.99	2160.61
278.20	2080.74
278.42	2121.70
278.63	2107.36
278.85	2035.68
279.06	2109.41
279.28	2244.57
279.49	2289.63
279.71	2265.05
279.93	2211.81
280.14	2164.70
280.36	2043.87
280.57	2299.87
280.79	2283.49
281.00	2084.83
281.22	2086.88
281.43	2275.29
281.65	1935.33
281.86	2050.02
282.08	2199.52
282.29	2439.13
282.51	2109.41
282.73	2129.89
282.94	2066.40
283.16	2291.68
283.37	2392.03
283.59	2140.13
283.80	2203.61
284.02	2244.57
284.23	2179.04
284.45	2152.42
284.66	2105.31
284.88	2129.89
285.09	2224.09
285.31	2232.29
285.52	2228.19
285.74	2002.91
285.95	2269.15
286.17	2240.48
286.38	2293.72
286.60	2131.94
286.81	2136.03
287.03	2189.28
287.24	2224.09
287.46	2230.24
287.67	2164.70
287.89	2387.93
288.10	2086.88
288.32	2179.04
288.53	2320.35
288.75	2133.98
288.96	2226.14
289.18	2138.08
289.39	2088.93
289.61	2252.77
289.82	2398.17
290.04	2412.51
290.25	2068.45
290.47	2213.85
290.68	2150.37
290.90	2308.06
291.11	2035.68
291.33	2248.67
291.54	2099.17
291.76	2170.85
291.97	2191.33
292.18	2203.61
292.40	2168.80
292.61	2129.89
292.83	2357.21
293.04	2154.46
293.26	2189.28
293.47	2236.38
293.69	2080.74
293.90	2209.76
294.12	2318.30
294.33	2244.57
294.55	2123.74
294.76	2289.63
294.97	2322.40
295.19	2394.08
295.40	2113.50
295.62	2191.33
295.83	2295.77
296.05	2121.70
296.26	2295.77
296.48	2088.93
296.69	2146.27
296.90	2250.72
297.12	2254.81
297.33	2301.92
297.55	2203.61
297.76	2215.90
297.98	2228.19
298.19	2144.22
298.41	2176.99
298.62	2158.56
298.83	2293.72
299.05	2207.71
299.26	2160.61
299.48	2115.55
299.69	2250.72
299.90	2191.33
300.12	2103.26
300.33	2238.43
300.55	2195.42
300.76	2234.33
300.98	2015.20
301.19	2197.47
301.40	2203.61
301.62	2136.03
301.83	2265.05
302.05	2129.89
302.26	2168.80
302.47	2222.05
302.69	2060.26
302.90	2224.09
303.12	1941.47
303.33	2226.14
303.54	2439.13
303.76	2179.04
303.97	2220.00
304.19	2260.96
304.40	2133.98
304.61	2250.72
304.83	2279.39
305.04	2293.72
305.26	2230.24
305.47	2066.40
305.68	2136.03
305.90	2017.25
306.11	2285.53
306.33	2093.02
306.54	2099.17
306.75	2080.74
306.97	2031.58
307.18	2152.42
307.39	2254.81
307.61	2201.57
307.82	2211.81
308.04	2228.19
308.25	2027.49
308.46	2088.93
308.68	2211.81
308.89	2136.03
309.10	2222.05
309.32	2187.23
309.53	2156.51
309.74	2269.15
309.96	2117.60
310.17	2224.09
310.39	2111.46
310.60	2217.95
310.81	2263.01
311.03	2095.07
311.24	2246.62
311.45	2166.75
311.67	2346.97
311.88	2242.53
312.09	2131.94
312.31	2097.12
312.52	2078.69
312.73	2146.27
312.95	2060.26
313.16	2074.59
313.37	2357.21
313.59	2256.86
313.80	2293.72
314.01	2359.26
314.23	2127.84
314.44	2138.08
314.65	2097.12
314.87	2062.30
315.08	2236.38
315.29	2189.28
315.51	2121.70
315.72	2070.50
315.93	2176.99
316.15	2248.67
316.36	2123.74
316.57	2205.66
316.79	2273.25
317.00	2193.37
317.21	2197.47
317.43	2119.65
317.64	2203.61
317.85	2103.26
318.07	2076.64
318.28	2273.25
318.49	2318.30
318.70	2432.99
318.92	2338.78
319.13	2373.60
319.34	2432.99
319.56	2301.92
319.77	2301.92
319.98	2383.84
320.20	2361.31
320.41	2326.49
320.62	2297.82
320.83	2133.98
321.05	2412.51
321.26	2201.57
321.47	2187.23
321.69	2326.49
321.90	2086.88
322.11	2176.99
322.32	2176.99
322.54	2375.64
322.75	2138.08
322.96	2430.94
323.18	2084.83
323.39	2043.87
323.60	2070.50
323.81	2263.01
324.03	2101.22
324.24	2189.28
324.45	2269.15
324.66	2183.13
324.88	2308.06
325.09	2342.88
325.30	2197.47
325.52	2166.75
325.73	2232.29
325.94	2144.22
326.15	1982.43
326.37	2099.17
326.58	2301.92
326.79	2330.59
327.00	2164.70
327.22	2179.04
327.43	2170.85
327.64	2185.18
327.85	2236.38
328.07	2226.14
328.28	2377.69
328.49	2103.26
328.70	2097.12
328.92	2164.70
329.13	2164.70
329.34	2170.85
329.55	2256.86
329.76	2306.01
329.98	2088.93
330.19	2256.86
330.40	2193.37
330.61	2185.18
330.83	2353.12
331.04	2101.22
331.25	2142.18
331.46	2127.84
331.68	2097.12
331.89	2349.02
332.10	2224.09
332.31	2115.55
332.52	2226.14
332.74	2275.29
332.95	2052.06
333.16	2217.95
333.37	2291.68
333.58	2146.27
333.80	2222.05
334.01	2109.41
334.22	2176.99
334.43	2201.57
334.64	2121.70
334.86	2111.46
335.07	2129.89
335.28	2318.30
335.49	1970.15
335.70	2236.38
335.92	2332.64
336.13	2426.84
336.34	2250.72
336.55	2090.98
336.76	2209.76
336.98	2023.39
337.19	2199.52
337.40	2234.33
337.61	2482.14
337.82	2054.11
338.04	2308.06
338.25	2027.49
338.46	2160.61
338.67	2107.36
338.88	2025.44
339.09	2058.21
339.31	2072.54
339.52	2086.88
339.73	2074.59
339.94	2170.85
340.15	2201.57
340.36	2166.75
340.58	2191.33
340.79	2113.50
341.00	2248.67
341.21	2090.98
341.42	2320.35
341.63	2187.23
341.85	2236.38
342.06	2172.89
342.27	2088.93
342.48	2209.76
342.69	2041.82
342.90	2228.19
343.12	2283.49
343.33	2166.75
343.54	2258.91
343.75	2306.01
343.96	2224.09
344.17	2129.89
344.38	2109.41
344.60	2076.64
344.81	2095.07
345.02	2101.22
345.23	2224.09
345.44	2426.84
345.65	2277.34
345.86	2240.48
346.07	2187.23
346.29	2176.99
346.50	2250.72
346.71	2293.72
346.92	2291.68
347.13	2392.03
347.34	2168.80
347.55	2199.52
347.76	2250.72
347.98	2109.41
348.19	2179.04
348.40	2297.82
348.61	2213.85
348.82	2248.67
349.03	2222.05
349.24	2080.74
349.45	2367.45
349.66	1959.91
349.88	2179.04
350.09	2131.94
350.30	2326.49
350.51	2275.29
350.72	2211.81
350.93	2242.53
351.14	2070.50
351.35	2136.03
351.56	2267.10
351.77	2105.31
351.99	2258.91
352.20	2318.30
352.41	2275.29
352.62	2000.87
352.83	2158.56
353.04	2240.48
353.25	2131.94
353.46	2203.61
353.67	2312.16
353.88	1966.05
354.09	2150.37
354.30	2174.94
354.52	2252.77
354.73	2217.95
354.94	2072.54
355.15	2232.29
355.36	2383.84
355.57	2170.85
355.78	2252.77
355.99	2160.61
356.20	2176.99
356.41	2324.44
356.62	2168.80
356.83	2144.22
357.04	2265.05
357.25	2068.45
357.46	2203.61
357.68	2086.88
357.89	1998.82
358.10	2138.08
358.31	2162.66
358.52	2164.70
358.73	2078.69
358.94	1996.77
359.15	2117.60
359.36	2303.96
359.57	2191.33
359.78	2162.66
359.99	2193.37
360.20	2047.97
360.41	2146.27
360.62	2236.38
360.83	2193.37
361.04	2242.53
361.25	2224.09
361.46	2392.03
361.67	2254.81
361.88	2162.66
362.09	2306.01
362.30	2238.43
362.51	2144.22
362.72	2179.04
362.93	2258.91
363.14	2211.81
363.35	2189.28
363.56	2127.84
363.78	2234.33
363.99	2295.77
364.20	2097.12
364.41	2248.67
364.62	2387.93
364.83	2215.90
365.04	2172.89
365.25	2172.89
365.46	2418.65
365.67	2121.70
365.88	2234.33
366.09	2176.99
366.30	2140.13
366.51	2224.09
366.72	2133.98
366.93	2195.42
367.14	2166.75
367.35	2299.87
367.56	2117.60
367.77	2342.88
367.98	2189.28
368.18	2207.71
368.39	2203.61
368.60	2054.11
368.81	2297.82
369.02	2199.52
369.23	2213.85
369.44	2037.73
369.65	2211.81
369.86	2220.00
370.07	2215.90
370.28	2117.60
370.49	2183.13
370.70	2273.25
370.91	2140.13
371.12	2101.22
371.33	2334.68
371.54	2062.30
371.75	2363.36
371.96	1949.67
372.17	2269.15
372.38	2162.66
372.59	2236.38
372.80	2185.18
373.01	2142.18
373.22	2265.05
373.43	2199.52
373.64	2074.59
373.85	2310.11
374.06	2359.26
374.26	2242.53
374.47	2189.28
374.68	2373.60
374.89	2172.89
375.10	2121.70
375.31	2224.09
375.52	2199.52
375.73	2195.42
375.94	2082.78
376.15	2260.96
376.36	2076.64
376.57	2103.26
376.78	2172.89
376.99	2152.42
377.20	2275.29
377.40	2119.65
377.61	2310.11
377.82	2090.98
378.03	2320.35
378.24	2238.43
378.45	2207.71
378.66	2248.67
378.87	2054.11
379.08	2050.02
379.29	2121.70
379.50	2353.12
379.71	2244.57
379.91	2244.57
380.12	2109.41
380.33	2195.42
380.54	2164.70
380.75	2129.89
380.96	2099.17
381.17	2238.43
381.38	2117.60
381.59	2299.87
381.80	2254.81
382.00	2389.98
382.21	2283.49
382.42	2432.99
382.63	2430.94
382.84	2230.24
383.05	2310.11
383.26	2387.93
383.47	2230.24
383.68	2236.38
383.88	2193.37
384.09	2152.42
384.30	2383.84
384.51	2240.48
384.72	2129.89
384.93	2111.46
385.14	2207.71
385.35	2256.86
385.55	2119.65
385.76	2367.45
385.97	2160.61
386.18	2039.78
386.39	2144.22
386.60	2185.18
386.81	2123.74
387.02	2103.26
387.22	2064.35
387.43	2303.96
387.64	2349.02
387.85	2301.92
388.06	2387.93
388.27	4165.57
388.48	8607.61
388.68	12232.52
388.89	14657.31
389.10	15896.33
389.31	14774.05
389.52	11452.24
389.73	9768.81
389.93	9017.21
390.14	8095.62
390.35	7423.89
390.56	6633.37
390.77	5275.57
390.98	4052.93
391.18	3305.42
391.39	2656.22
391.60	2379.74
391.81	2381.79
392.02	2179.04
392.23	2447.32
392.43	2310.11
392.64	2351.07
392.85	2197.47
393.06	2357.21
393.27	2133.98
393.47	2097.12
393.68	2164.70
393.89	2154.46
394.10	2301.92
394.31	2086.88
394.52	2113.50
394.72	2158.56
394.93	2342.88
395.14	2131.94
395.35	2189.28
395.56	2099.17
395.76	2156.51
395.97	2246.62
396.18	2349.02
396.39	2363.36
396.60	2666.46
396.80	2465.75
397.01	2383.84
397.22	2486.23
397.43	2361.31
397.64	2146.27
397.84	2252.77
398.05	2430.94
398.26	2170.85
398.47	2342.88
398.67	2297.82
398.88	2187.23
399.09	2297.82
399.30	2168.80
399.51	2230.24
399.71	2113.50
399.92	2176.99
400.13	2181.09
400.34	2174.94
400.54	2254.81
400.75	2406.36
400.96	2191.33
401.17	2338.78
401.37	2263.01
401.58	2154.46
401.79	2211.81
402.00	2318.30
402.21	2645.98
402.41	2506.71
402.62	2645.98
402.83	2615.26
403.04	2566.10
403.24	2818.00
403.45	2367.45
403.66	2465.75
403.87	2455.51
404.07	2510.81
404.28	2435.03
404.49	2465.75
404.70	2260.96
404.90	2312.16
405.11	2240.48
405.32	2281.44
405.52	2162.66
405.73	2150.37
405.94	2097.12
406.15	2097.12
406.35	2301.92
406.56	2228.19
406.77	2232.29
406.98	2170.85
407.18	2125.79
407.39	2334.68
407.60	2072.54
407.80	2207.71
408.01	2150.37
408.22	2252.77
408.43	2105.31
408.63	2158.56
408.84	2207.71
409.05	2256.86
409.25	2097.12
409.46	2097.12
409.67	2224.09
409.88	2115.55
410.08	2220.00
410.29	2105.31
410.50	2277.34
410.70	2209.76
410.91	2140.13
411.12	2158.56
411.32	2191.33
411.53	2127.84
411.74	2322.40
411.95	2324.44
412.15	2252.77
412.36	2299.87
412.57	2316.25
412.77	2353.12
412.98	2193.37
413.19	2154.46
413.39	2244.57
413.60	2246.62
413.81	2258.91
414.01	2103.26
414.22	2265.05
414.43	2279.39
414.63	2152.42
414.84	2363.36
415.05	2238.43
415.25	2070.50
415.46	2258.91
415.67	2086.88
415.87	2166.75
416.08	2197.47
416.29	2191.33
416.49	2306.01
416.70	2199.52
416.91	2191.33
417.11	2179.04
417.32	2328.54
417.53	2250.72
417.73	2260.96
417.94	2207.71
418.15	2248.67
418.35	2254.81
418.56	2148.32
418.77	2432.99
418.97	2248.67
419.18	2232.29
419.38	2015.20
419.59	2203.61
419.80	2283.49
420.00	2115.55
420.21	2191.33
420.42	2281.44
420.62	2230.24
420.83	2209.76
421.04	2121.70
421.24	2183.13
421.45	2308.06
421.65	2301.92
421.86	2170.85
422.07	2260.96
422.27	2222.05
422.48	2121.70
422.69	2097.12
422.89	2160.61
423.10	2127.84
423.30	2093.02
423.51	2195.42
423.72	2158.56
423.92	2252.77
424.13	2080.74
424.33	2119.65
424.54	2275.29
424.75	2197.47
424.95	2445.27
425.16	2277.34
425.36	2248.67
425.57	2363.36
425.78	2205.66
425.98	2240.48
426.19	2209.76
426.39	2148.32
426.60	2195.42
426.81	2242.53
427.01	2244.57
427.22	2129.89
427.42	2105.31
427.63	2133.98
427.83	2318.30
428.04	2359.26
428.25	2244.57
428.45	2269.15
428.66	2265.05
428.86	2191.33
429.07	2170.85
429.28	2154.46
429.48	2191.33
429.69	2140.13
429.89	2240.48
430.10	2060.26
430.30	2211.81
430.51	2230.24
430.71	2136.03
430.92	2140.13
431.13	2131.94
431.33	2283.49
431.54	2275.29
431.74	2297.82
431.95	2365.40
432.15	2119.65
432.36	2174.94
432.56	2242.53
432.77	2334.68
432.98	2412.51
433.18	2220.00
433.39	2166.75
433.59	2111.46
433.80	2359.26
434.00	2445.27
434.21	2160.61
434.41	2105.31
434.62	2478.04
434.82	2129.89
435.03	2070.50
435.23	2220.00
435.44	2107.36
435.64	2183.13
435.85	2220.00
436.06	2269.15
436.26	2271.20
436.47	2154.46
436.67	2076.64
436.88	2267.10
437.08	2279.39
437.29	2301.92
437.49	2226.14
437.70	2232.29
437.90	2183.13
438.11	2342.88
438.31	2236.38
438.52	2426.84
438.72	2355.16
438.93	2435.03
439.13	2287.58
439.34	2318.30
439.54	2242.53
439.75	2297.82
439.95	2334.68
440.16	2215.90
440.36	2205.66
440.57	2215.90
440.77	2201.57
440.98	2193.37
441.18	2312.16
441.39	2101.22
441.59	2029.54
441.80	2441.18
442.00	2162.66
442.21	2279.39
442.41	2064.35
442.62	2283.49
442.82	2131.94
443.02	2205.66
443.23	2252.77
443.43	2136.03
443.64	2396.12
443.84	2154.46
444.05	2285.53
444.25	2174.94
444.46	2238.43
444.66	2275.29
444.87	2469.85
445.07	2105.31
445.28	2191.33
445.48	2285.53
445.69	2213.85
445.89	2494.43
446.09	2207.71
446.30	2422.75
446.50	2793.43
446.71	4468.67
446.91	5550.00
447.12	6399.90
447.32	6627.23
447.53	6256.54
447.73	5089.20
447.93	4509.63
448.14	4181.95
448.34	4038.59
448.55	3528.65
448.75	3514.31
448.96	3295.18
449.16	3086.29
449.36	2846.68
449.57	2521.05
449.77	2338.78
449.98	2220.00
450.18	2332.64
450.39	2301.92
450.59	2336.73
450.79	2316.25
451.00	2105.31
451.20	2281.44
451.41	2232.29
451.61	2199.52
451.81	2105.31
452.02	2084.83
452.22	2117.60
452.43	2140.13
452.63	2176.99
