SpectraSuite Data File
++++++++++++++++++++++++++++++++++++
Date: Thu May 05 12:35:08 CEST 2016
User: root
Dark Spectrum Present: No
Reference Spectrum Present: No
Number of Sampled Component Spectra: 1
Spectrometers: USB4C02835
Integration Time (usec): 100000 (USB4C02835)
Spectra Averaged: 1 (USB4C02835)
Boxcar Smoothing: 0 (USB4C02835)
Correct for Electrical Dark: No (USB4C02835)
Strobe/Lamp Enabled: No (USB4C02835)
Correct for Detector Non-linearity: No (USB4C02835)
Correct for Stray Light: No (USB4C02835)
Number of Pixels in Processed Spectrum: 3648
>>>>>Begin Processed Spectral Data<<<<<
177.47	1751.01
177.69	1751.01
177.91	1751.01
178.13	1791.97
178.36	1730.53
178.58	2080.74
178.80	2166.75
179.02	2047.97
179.24	2039.78
179.46	2072.54
179.68	2228.19
179.90	2185.18
180.13	2222.05
180.35	2066.40
180.57	2105.31
180.79	2254.81
181.01	2170.85
181.23	2203.61
181.45	2185.18
181.67	2295.77
181.90	2240.48
182.12	2097.12
182.34	2011.11
182.56	2326.49
182.78	2252.77
183.00	2154.46
183.22	2117.60
183.44	2045.92
183.66	2473.95
183.89	2308.06
184.11	2107.36
184.33	2256.86
184.55	2338.78
184.77	2095.07
184.99	2123.74
185.21	2146.27
185.43	2465.75
185.65	2023.39
185.87	2123.74
186.10	2381.79
186.32	2461.66
186.54	2193.37
186.76	2205.66
186.98	2263.01
187.20	2211.81
187.42	2174.94
187.64	2158.56
187.86	2166.75
188.08	2273.25
188.30	2076.64
188.52	2224.09
188.75	2220.00
188.97	2246.62
189.19	2127.84
189.41	2131.94
189.63	2260.96
189.85	2103.26
190.07	1970.15
190.29	2066.40
190.51	2346.97
190.73	2004.96
190.95	2191.33
191.17	2150.37
191.39	2109.41
191.61	2146.27
191.84	2011.11
192.06	2205.66
192.28	1998.82
192.50	2572.25
192.72	2185.18
192.94	2121.70
193.16	2306.01
193.38	2238.43
193.60	2131.94
193.82	2086.88
194.04	2244.57
194.26	2271.20
194.48	2131.94
194.70	2056.16
194.92	2140.13
195.14	2260.96
195.36	2136.03
195.58	2238.43
195.80	2174.94
196.02	2158.56
196.24	2080.74
196.46	2203.61
196.69	2105.31
196.91	2396.12
197.13	2113.50
197.35	2119.65
197.57	2426.84
197.79	2197.47
198.01	2136.03
198.23	2215.90
198.45	2211.81
198.67	2146.27
198.89	2052.06
199.11	2176.99
199.33	2154.46
199.55	1945.57
199.77	2023.39
199.99	2217.95
200.21	2158.56
200.43	2273.25
200.65	1949.67
200.87	1980.39
201.09	2224.09
201.31	2236.38
201.53	2174.94
201.75	2113.50
201.97	2179.04
202.19	2146.27
202.41	2148.32
202.63	2242.53
202.85	2236.38
203.07	2275.29
203.29	2168.80
203.51	2127.84
203.73	2142.18
203.95	2519.00
204.17	2203.61
204.39	2158.56
204.61	2176.99
204.83	2138.08
205.05	2226.14
205.27	2217.95
205.49	2355.16
205.71	2158.56
205.93	1996.77
206.15	2054.11
206.37	2166.75
206.59	2246.62
206.81	2011.11
207.03	2062.30
207.25	2097.12
207.47	2258.91
207.69	2195.42
207.91	2230.24
208.13	2375.64
208.34	2138.08
208.56	2080.74
208.78	2133.98
209.00	2211.81
209.22	2138.08
209.44	2156.51
209.66	2105.31
209.88	2160.61
210.10	2113.50
210.32	2109.41
210.54	2189.28
210.76	2117.60
210.98	2242.53
211.20	1927.14
211.42	2199.52
211.64	2375.64
211.86	2291.68
212.08	2160.61
212.30	2123.74
212.52	2195.42
212.74	2217.95
212.96	2176.99
213.17	2154.46
213.39	2318.30
213.61	2295.77
213.83	2170.85
214.05	2152.42
214.27	2324.44
214.49	2119.65
214.71	2127.84
214.93	2240.48
215.15	2129.89
215.37	2256.86
215.59	2064.35
215.81	2138.08
216.03	2314.20
216.24	2238.43
216.46	2162.66
216.68	2176.99
216.90	2240.48
217.12	2281.44
217.34	2107.36
217.56	2205.66
217.78	2375.64
218.00	2176.99
218.22	2238.43
218.44	2207.71
218.66	2260.96
218.87	2357.21
219.09	2107.36
219.31	2217.95
219.53	2224.09
219.75	2195.42
219.97	2072.54
220.19	2158.56
220.41	2179.04
220.63	2287.58
220.85	2220.00
221.06	2140.13
221.28	2308.06
221.50	2293.72
221.72	2101.22
221.94	2004.96
222.16	2152.42
222.38	2324.44
222.60	2183.13
222.82	2136.03
223.03	2211.81
223.25	2109.41
223.47	2138.08
223.69	2220.00
223.91	2291.68
224.13	2121.70
224.35	2064.35
224.57	2263.01
224.78	2168.80
225.00	2119.65
225.22	2111.46
225.44	2125.79
225.66	2318.30
225.88	2195.42
226.10	2166.75
226.32	2207.71
226.53	2314.20
226.75	2150.37
226.97	2176.99
227.19	2093.02
227.41	2070.50
227.63	2129.89
227.85	1941.47
228.06	2066.40
228.28	2199.52
228.50	2318.30
228.72	2029.54
228.94	2101.22
229.16	1968.10
229.37	2056.16
229.59	2093.02
229.81	2228.19
230.03	2150.37
230.25	2101.22
230.47	2015.20
230.69	2095.07
230.90	2246.62
231.12	2093.02
231.34	2129.89
231.56	2246.62
231.78	2146.27
232.00	2144.22
232.21	2154.46
232.43	2129.89
232.65	1978.34
232.87	2084.83
233.09	2050.02
233.30	2004.96
233.52	2183.13
233.74	2215.90
233.96	2080.74
234.18	2105.31
234.40	2131.94
234.61	2408.41
234.83	2125.79
235.05	2031.58
235.27	2379.74
235.49	2316.25
235.70	2095.07
235.92	2183.13
236.14	2220.00
236.36	2453.47
236.58	1978.34
236.79	2138.08
237.01	2213.85
237.23	2193.37
237.45	2283.49
237.67	2117.60
237.88	2211.81
238.10	2430.94
238.32	2162.66
238.54	2084.83
238.76	2160.61
238.97	2088.93
239.19	2097.12
239.41	2199.52
239.63	2273.25
239.85	2146.27
240.06	2174.94
240.28	2047.97
240.50	2271.20
240.72	2191.33
240.93	2074.59
241.15	2197.47
241.37	2138.08
241.59	2310.11
241.81	2095.07
242.02	2133.98
242.24	2181.09
242.46	2230.24
242.68	2054.11
242.89	2070.50
243.11	2211.81
243.33	2179.04
243.55	2174.94
243.76	2176.99
243.98	2097.12
244.20	2138.08
244.42	2150.37
244.64	2133.98
244.85	2023.39
245.07	2127.84
245.29	2203.61
245.51	2082.78
245.72	2213.85
245.94	2316.25
246.16	2133.98
246.38	2160.61
246.59	2082.78
246.81	2154.46
247.03	2176.99
247.24	2043.87
247.46	2154.46
247.68	2191.33
247.90	2050.02
248.11	2086.88
248.33	2320.35
248.55	2203.61
248.77	2166.75
248.98	2162.66
249.20	2375.64
249.42	2306.01
249.64	2195.42
249.85	2109.41
250.07	2138.08
250.29	2215.90
250.50	2179.04
250.72	2000.87
250.94	2207.71
251.16	2441.18
251.37	2125.79
251.59	2160.61
251.81	2215.90
252.02	2256.86
252.24	2113.50
252.46	2168.80
252.68	2101.22
252.89	2152.42
253.11	2027.49
253.33	2281.44
253.54	2394.08
253.76	1970.15
253.98	2076.64
254.20	2119.65
254.41	2043.87
254.63	2211.81
254.85	2097.12
255.06	2158.56
255.28	2234.33
255.50	2185.18
255.71	2103.26
255.93	2002.91
256.15	2203.61
256.36	2226.14
256.58	2105.31
256.80	2156.51
257.02	2160.61
257.23	2185.18
257.45	2123.74
257.67	2193.37
257.88	2154.46
258.10	2199.52
258.32	2086.88
258.53	2199.52
258.75	2318.30
258.97	2213.85
259.18	2148.32
259.40	2150.37
259.62	2322.40
259.83	2324.44
260.05	2203.61
260.27	2584.54
260.48	2332.64
260.70	2050.02
260.92	2068.45
261.13	2070.50
261.35	2250.72
261.57	2179.04
261.78	2007.01
262.00	2074.59
262.22	2244.57
262.43	2093.02
262.65	2156.51
262.86	2154.46
263.08	2416.60
263.30	2168.80
263.51	2019.30
263.73	2078.69
263.95	2363.36
264.16	2117.60
264.38	2054.11
264.60	2183.13
264.81	2148.32
265.03	2344.92
265.25	2353.12
265.46	2146.27
265.68	2310.11
265.89	2224.09
266.11	1996.77
266.33	2113.50
266.54	2267.10
266.76	2162.66
266.98	2189.28
267.19	2279.39
267.41	2250.72
267.62	2138.08
267.84	2045.92
268.06	2166.75
268.27	2183.13
268.49	2267.10
268.70	2226.14
268.92	2209.76
269.14	2123.74
269.35	2074.59
269.57	2176.99
269.79	2191.33
270.00	2166.75
270.22	2349.02
270.43	2070.50
270.65	1961.95
270.87	2260.96
271.08	2119.65
271.30	2111.46
271.51	2121.70
271.73	2244.57
271.95	2244.57
272.16	2217.95
272.38	2209.76
272.59	2127.84
272.81	2334.68
273.02	2136.03
273.24	2109.41
273.46	2283.49
273.67	2076.64
273.89	2039.78
274.10	2093.02
274.32	2400.22
274.54	2207.71
274.75	2220.00
274.97	2185.18
275.18	2242.53
275.40	2250.72
275.61	2162.66
275.83	2203.61
276.05	2160.61
276.26	2211.81
276.48	2242.53
276.69	2176.99
276.91	2203.61
277.12	2328.54
277.34	2246.62
277.55	2234.33
277.77	2310.11
277.99	2207.71
278.20	2097.12
278.42	2045.92
278.63	2078.69
278.85	2152.42
279.06	2140.13
279.28	2172.89
279.49	2293.72
279.71	2306.01
279.93	2162.66
280.14	2240.48
280.36	2144.22
280.57	2373.60
280.79	2285.53
281.00	2074.59
281.22	2160.61
281.43	2308.06
281.65	1955.81
281.86	2076.64
282.08	2144.22
282.29	2394.08
282.51	2078.69
282.73	2152.42
282.94	2066.40
283.16	2275.29
283.37	2342.88
283.59	2156.51
283.80	2256.86
284.02	2228.19
284.23	2170.85
284.45	2166.75
284.66	2103.26
284.88	2097.12
285.09	2138.08
285.31	2201.57
285.52	2183.13
285.74	2045.92
285.95	2293.72
286.17	2201.57
286.38	2308.06
286.60	2142.18
286.81	2152.42
287.03	2136.03
287.24	2168.80
287.46	2209.76
287.67	2217.95
287.89	2326.49
288.10	2234.33
288.32	2244.57
288.53	2250.72
288.75	2138.08
288.96	2236.38
289.18	2207.71
289.39	2195.42
289.61	2189.28
289.82	2457.56
290.04	2351.07
290.25	2015.20
290.47	2197.47
290.68	2088.93
290.90	2322.40
291.11	2039.78
291.33	2271.20
291.54	2168.80
291.76	2093.02
291.97	2205.66
292.18	2256.86
292.40	2084.83
292.61	2166.75
292.83	2332.64
293.04	2213.85
293.26	2236.38
293.47	2246.62
293.69	2093.02
293.90	2107.36
294.12	2234.33
294.33	2242.53
294.55	2193.37
294.76	2209.76
294.97	2314.20
295.19	2420.70
295.40	2174.94
295.62	2170.85
295.83	2367.45
296.05	2101.22
296.26	2273.25
296.48	2123.74
296.69	2252.77
296.90	2162.66
297.12	2203.61
297.33	2258.91
297.55	2209.76
297.76	2207.71
297.98	2295.77
298.19	2166.75
298.41	2152.42
298.62	2142.18
298.83	2299.87
299.05	2230.24
299.26	2195.42
299.48	2007.01
299.69	2234.33
299.90	2176.99
300.12	2170.85
300.33	2226.14
300.55	2195.42
300.76	2271.20
300.98	2105.31
301.19	2287.58
301.40	2127.84
301.62	2168.80
301.83	2238.43
302.05	2162.66
302.26	2146.27
302.47	2183.13
302.69	2117.60
302.90	2226.14
303.12	1990.63
303.33	2277.34
303.54	2338.78
303.76	2185.18
303.97	2215.90
304.19	2285.53
304.40	2111.46
304.61	2283.49
304.83	2244.57
305.04	2269.15
305.26	2295.77
305.47	2187.23
305.68	2121.70
305.90	2136.03
306.11	2295.77
306.33	2105.31
306.54	2076.64
306.75	2185.18
306.97	2072.54
307.18	2133.98
307.39	2086.88
307.61	2226.14
307.82	2201.57
308.04	2211.81
308.25	2152.42
308.46	2224.09
308.68	2185.18
308.89	2197.47
309.10	2293.72
309.32	2181.09
309.53	2187.23
309.74	2222.05
309.96	2189.28
310.17	2230.24
310.39	2146.27
310.60	2326.49
310.81	2199.52
311.03	2072.54
311.24	2230.24
311.45	2230.24
311.67	2404.32
311.88	2211.81
312.09	2170.85
312.31	2226.14
312.52	2217.95
312.73	2111.46
312.95	2121.70
313.16	2101.22
313.37	2293.72
313.59	2293.72
313.80	2291.68
314.01	2414.56
314.23	2181.09
314.44	2103.26
314.65	2105.31
314.87	2093.02
315.08	2205.66
315.29	2095.07
315.51	2088.93
315.72	2117.60
315.93	2334.68
316.15	2121.70
316.36	2144.22
316.57	2289.63
316.79	2195.42
317.00	2138.08
317.21	2330.59
317.43	2125.79
317.64	2195.42
317.85	2189.28
318.07	2121.70
318.28	2183.13
318.49	2371.55
318.70	2482.14
318.92	2375.64
319.13	2387.93
319.34	2402.27
319.56	2322.40
319.77	2410.46
319.98	2349.02
320.20	2351.07
320.41	2306.01
320.62	2277.34
320.83	2136.03
321.05	2392.03
321.26	2258.91
321.47	2140.13
321.69	2340.83
321.90	2172.89
322.11	2199.52
322.32	2211.81
322.54	2361.31
322.75	2117.60
322.96	2437.08
323.18	2088.93
323.39	2080.74
323.60	2150.37
323.81	2224.09
324.03	2138.08
324.24	2119.65
324.45	2209.76
324.66	2090.98
324.88	2295.77
325.09	2322.40
325.30	2156.51
325.52	2224.09
325.73	2232.29
325.94	2093.02
326.15	2004.96
326.37	2252.77
326.58	2232.29
326.79	2332.64
327.00	2119.65
327.22	2236.38
327.43	2133.98
327.64	2013.15
327.85	2228.19
328.07	2146.27
328.28	2336.73
328.49	2148.32
328.70	2187.23
328.92	2140.13
329.13	2162.66
329.34	2310.11
329.55	2351.07
329.76	2326.49
329.98	2125.79
330.19	2361.31
330.40	2230.24
330.61	2179.04
330.83	2211.81
331.04	2070.50
331.25	2113.50
331.46	2181.09
331.68	2078.69
331.89	2291.68
332.10	2170.85
332.31	2078.69
332.52	2125.79
332.74	2326.49
332.95	2056.16
333.16	2113.50
333.37	2275.29
333.58	2150.37
333.80	2209.76
334.01	2054.11
334.22	2146.27
334.43	2097.12
334.64	2062.30
334.86	2082.78
335.07	2107.36
335.28	2297.82
335.49	2078.69
335.70	2209.76
335.92	2447.32
336.13	2398.17
336.34	2215.90
336.55	2275.29
336.76	2244.57
336.98	1959.91
337.19	2191.33
337.40	2308.06
337.61	2385.88
337.82	2248.67
338.04	2236.38
338.25	2017.25
338.46	2203.61
338.67	2187.23
338.88	2115.55
339.09	2156.51
339.31	2195.42
339.52	2070.50
339.73	2154.46
339.94	2217.95
340.15	2285.53
340.36	2156.51
340.58	2211.81
340.79	2148.32
341.00	2248.67
341.21	2189.28
341.42	2334.68
341.63	2068.45
341.85	2260.96
342.06	2277.34
342.27	2121.70
342.48	2244.57
342.69	2084.83
342.90	2244.57
343.12	2289.63
343.33	2078.69
343.54	2351.07
343.75	2330.59
343.96	2242.53
344.17	2166.75
344.38	2224.09
344.60	2070.50
344.81	2109.41
345.02	2095.07
345.23	2283.49
345.44	2486.23
345.65	2252.77
345.86	2174.94
346.07	2207.71
346.29	2222.05
346.50	2220.00
346.71	2269.15
346.92	2287.58
347.13	2299.87
347.34	2258.91
347.55	2260.96
347.76	2236.38
347.98	2086.88
348.19	2176.99
348.40	2338.78
348.61	2144.22
348.82	2408.41
349.03	2281.44
349.24	2082.78
349.45	2353.12
349.66	2027.49
349.88	2203.61
350.09	2060.26
350.30	2371.55
350.51	2375.64
350.72	2189.28
350.93	2224.09
351.14	2195.42
351.35	2242.53
351.56	2179.04
351.77	2162.66
351.99	2277.34
352.20	2381.79
352.41	2291.68
352.62	2127.84
352.83	2144.22
353.04	2195.42
353.25	2105.31
353.46	2250.72
353.67	2254.81
353.88	1980.39
354.09	2176.99
354.30	2144.22
354.52	2193.37
354.73	2187.23
354.94	2158.56
355.15	2260.96
355.36	2383.84
355.57	2105.31
355.78	2154.46
355.99	2060.26
356.20	2201.57
356.41	2263.01
356.62	2228.19
356.83	2244.57
357.04	2326.49
357.25	2007.01
357.46	2164.70
357.68	2043.87
357.89	2027.49
358.10	2138.08
358.31	2199.52
358.52	2244.57
358.73	2097.12
358.94	2064.35
359.15	2162.66
359.36	2287.58
359.57	2203.61
359.78	2146.27
359.99	2193.37
360.20	2060.26
360.41	2170.85
360.62	2295.77
360.83	2193.37
361.04	2236.38
361.25	2248.67
361.46	2271.20
361.67	2293.72
361.88	2250.72
362.09	2244.57
362.30	2254.81
362.51	2138.08
362.72	2199.52
362.93	2240.48
363.14	2258.91
363.35	2154.46
363.56	2093.02
363.78	2263.01
363.99	2236.38
364.20	2148.32
364.41	2170.85
364.62	2420.70
364.83	2234.33
365.04	2164.70
365.25	2179.04
365.46	2408.41
365.67	2050.02
365.88	2187.23
366.09	2158.56
366.30	2127.84
366.51	2254.81
366.72	2047.97
366.93	2242.53
367.14	2252.77
367.35	2250.72
367.56	2103.26
367.77	2320.35
367.98	2146.27
368.18	2248.67
368.39	2260.96
368.60	2150.37
368.81	2250.72
369.02	2316.25
369.23	2146.27
369.44	2062.30
369.65	2080.74
369.86	2203.61
370.07	2138.08
370.28	2109.41
370.49	2211.81
370.70	2260.96
370.91	2117.60
371.12	2078.69
371.33	2283.49
371.54	2123.74
371.75	2242.53
371.96	2025.44
372.17	2156.51
372.38	2215.90
372.59	2236.38
372.80	2162.66
373.01	2111.46
373.22	2244.57
373.43	2160.61
373.64	2099.17
373.85	2387.93
374.06	2392.03
374.26	2320.35
374.47	2195.42
374.68	2371.55
374.89	2281.44
375.10	2142.18
375.31	2256.86
375.52	2260.96
375.73	2183.13
375.94	2041.82
376.15	2318.30
376.36	2054.11
376.57	2090.98
376.78	2103.26
376.99	2179.04
377.20	2283.49
377.40	2117.60
377.61	2330.59
377.82	2097.12
378.03	2301.92
378.24	2267.10
378.45	2230.24
378.66	2140.13
378.87	2062.30
379.08	2097.12
379.29	2105.31
379.50	2328.54
379.71	2150.37
379.91	2250.72
380.12	2193.37
380.33	2150.37
380.54	2267.10
380.75	2199.52
380.96	2138.08
381.17	2209.76
381.38	2271.20
381.59	2195.42
381.80	2168.80
382.00	2334.68
382.21	2269.15
382.42	2355.16
382.63	2502.62
382.84	2248.67
383.05	2318.30
383.26	2355.16
383.47	2236.38
383.68	2224.09
383.88	2211.81
384.09	2189.28
384.30	2430.94
384.51	2207.71
384.72	2269.15
384.93	2082.78
385.14	2187.23
385.35	2285.53
385.55	2125.79
385.76	2293.72
385.97	2154.46
386.18	2041.82
386.39	2146.27
386.60	2084.83
386.81	2224.09
387.02	2097.12
387.22	2129.89
387.43	2310.11
387.64	2252.77
387.85	2514.91
388.06	2461.66
388.27	4196.29
388.48	8740.73
388.68	12216.13
388.89	14565.15
389.10	15744.78
389.31	14909.21
389.52	11460.43
389.73	9764.72
389.93	9029.49
390.14	8222.59
390.35	7382.93
390.56	6610.84
390.77	5289.90
390.98	4251.58
391.18	3250.13
391.39	2701.27
391.60	2301.92
391.81	2404.32
392.02	2168.80
392.23	2418.65
392.43	2213.85
392.64	2314.20
392.85	2203.61
393.06	2365.40
393.27	2252.77
393.47	2097.12
393.68	2138.08
393.89	2097.12
394.10	2301.92
394.31	2228.19
394.52	2187.23
394.72	2119.65
394.93	2306.01
395.14	2068.45
395.35	2242.53
395.56	2185.18
395.76	2267.10
395.97	2224.09
396.18	2295.77
396.39	2406.36
396.60	2762.71
396.80	2463.71
397.01	2359.26
397.22	2273.25
397.43	2414.56
397.64	2148.32
397.84	2349.02
398.05	2439.13
398.26	2078.69
398.47	2273.25
398.67	2357.21
398.88	2213.85
399.09	2318.30
399.30	2168.80
399.51	2207.71
399.71	2000.87
399.92	2220.00
400.13	2226.14
400.34	2174.94
400.54	2195.42
400.75	2336.73
400.96	2248.67
401.17	2373.60
401.37	2230.24
401.58	2187.23
401.79	2158.56
402.00	2263.01
402.21	2592.73
402.41	2519.00
402.62	2566.10
402.83	2713.56
403.04	2656.22
403.24	2850.77
403.45	2379.74
403.66	2432.99
403.87	2455.51
404.07	2406.36
404.28	2426.84
404.49	2439.13
404.70	2289.63
404.90	2297.82
405.11	2224.09
405.32	2285.53
405.52	2195.42
405.73	2189.28
405.94	2179.04
406.15	2162.66
406.35	2293.72
406.56	2291.68
406.77	2164.70
406.98	2166.75
407.18	2097.12
407.39	2396.12
407.60	2203.61
407.80	2158.56
408.01	2127.84
408.22	2244.57
408.43	2113.50
408.63	2222.05
408.84	2289.63
409.05	2328.54
409.25	2068.45
409.46	2115.55
409.67	2131.94
409.88	2168.80
410.08	2174.94
410.29	2142.18
410.50	2236.38
410.70	2295.77
410.91	2133.98
411.12	2201.57
411.32	2226.14
411.53	2062.30
411.74	2220.00
411.95	2299.87
412.15	2232.29
412.36	2318.30
412.57	2367.45
412.77	2373.60
412.98	2234.33
413.19	2185.18
413.39	2230.24
413.60	2211.81
413.81	2377.69
414.01	2093.02
414.22	2258.91
414.43	2240.48
414.63	2209.76
414.84	2351.07
415.05	2222.05
415.25	2117.60
415.46	2303.96
415.67	2211.81
415.87	2275.29
416.08	2222.05
416.29	2170.85
416.49	2301.92
416.70	2203.61
416.91	2080.74
417.11	2220.00
417.32	2297.82
417.53	2283.49
417.73	2316.25
417.94	2127.84
418.15	2228.19
418.35	2201.57
418.56	2238.43
418.77	2424.80
418.97	2183.13
419.18	2176.99
419.38	2004.96
419.59	2150.37
419.80	2461.66
420.00	2195.42
420.21	2179.04
420.42	2349.02
420.62	2236.38
420.83	2156.51
421.04	2103.26
421.24	2236.38
421.45	2297.82
421.65	2215.90
421.86	2172.89
422.07	2310.11
422.27	2236.38
422.48	2193.37
422.69	2064.35
422.89	2172.89
423.10	2168.80
423.30	2127.84
423.51	2160.61
423.72	2275.29
423.92	2287.58
424.13	2088.93
424.33	2154.46
424.54	2222.05
424.75	2232.29
424.95	2336.73
425.16	2136.03
425.36	2166.75
425.57	2334.68
425.78	2275.29
425.98	2285.53
426.19	2189.28
426.39	2138.08
426.60	2236.38
426.81	2371.55
427.01	2226.14
427.22	2195.42
427.42	2084.83
427.63	2101.22
427.83	2308.06
428.04	2342.88
428.25	2326.49
428.45	2246.62
428.66	2267.10
428.86	2179.04
429.07	2174.94
429.28	2156.51
429.48	2152.42
429.69	2043.87
429.89	2217.95
430.10	2078.69
430.30	2295.77
430.51	2310.11
430.71	2197.47
430.92	2103.26
431.13	2181.09
431.33	2248.67
431.54	2289.63
431.74	2365.40
431.95	2383.84
432.15	2101.22
432.36	2217.95
432.56	2256.86
432.77	2379.74
432.98	2346.97
433.18	2211.81
433.39	2166.75
433.59	2230.24
433.80	2373.60
434.00	2387.93
434.21	2191.33
434.41	2113.50
434.62	2478.04
434.82	2082.78
435.03	2168.80
435.23	2238.43
435.44	2107.36
435.64	2156.51
435.85	2228.19
436.06	2340.83
436.26	2320.35
436.47	2162.66
436.67	2133.98
436.88	2113.50
437.08	2318.30
437.29	2265.05
437.49	2252.77
437.70	2273.25
437.90	2168.80
438.11	2357.21
438.31	2277.34
438.52	2412.51
438.72	2373.60
438.93	2523.10
439.13	2297.82
439.34	2375.64
439.54	2269.15
439.75	2332.64
439.95	2275.29
440.16	2215.90
440.36	2242.53
440.57	2136.03
440.77	2146.27
440.98	2220.00
441.18	2258.91
441.39	2105.31
441.59	2127.84
441.80	2473.95
442.00	2162.66
442.21	2379.74
442.41	2037.73
442.62	2267.10
442.82	2097.12
443.02	2136.03
443.23	2230.24
443.43	2193.37
443.64	2297.82
443.84	2080.74
444.05	2334.68
444.25	2211.81
444.46	2154.46
444.66	2269.15
444.87	2297.82
445.07	2123.74
445.28	2150.37
445.48	2351.07
445.69	2236.38
445.89	2414.56
446.09	2238.43
446.30	2422.75
446.50	2818.00
446.71	4349.89
446.91	5562.28
447.12	6406.05
447.32	6676.38
447.53	6375.33
447.73	5113.78
447.93	4464.57
448.14	4214.72
448.34	4050.88
448.55	3655.62
448.75	3629.00
448.96	3450.83
449.16	2979.79
449.36	2789.33
449.57	2432.99
449.77	2342.88
449.98	2158.56
450.18	2267.10
450.39	2234.33
450.59	2308.06
450.79	2207.71
451.00	2107.36
451.20	2340.83
451.41	2211.81
451.61	2250.72
451.81	2195.42
452.02	2170.85
452.22	2119.65
452.43	2203.61
452.63	2267.10
