SpectraSuite Data File
++++++++++++++++++++++++++++++++++++
Date: Thu May 05 12:35:12 CEST 2016
User: root
Dark Spectrum Present: No
Reference Spectrum Present: No
Number of Sampled Component Spectra: 1
Spectrometers: USB4C02835
Integration Time (usec): 100000 (USB4C02835)
Spectra Averaged: 1 (USB4C02835)
Boxcar Smoothing: 0 (USB4C02835)
Correct for Electrical Dark: No (USB4C02835)
Strobe/Lamp Enabled: No (USB4C02835)
Correct for Detector Non-linearity: No (USB4C02835)
Correct for Stray Light: No (USB4C02835)
Number of Pixels in Processed Spectrum: 3648
>>>>>Begin Processed Spectral Data<<<<<
177.47	1800.16
177.69	1800.16
177.91	1800.16
178.13	1720.29
178.36	1800.16
178.58	2050.02
178.80	2230.24
179.02	2150.37
179.24	2080.74
179.46	2113.50
179.68	2246.62
179.90	2199.52
180.13	2170.85
180.35	2015.20
180.57	2136.03
180.79	2228.19
181.01	2152.42
181.23	2181.09
181.45	2205.66
181.67	2244.57
181.90	2236.38
182.12	2133.98
182.34	2050.02
182.56	2187.23
182.78	2195.42
183.00	2105.31
183.22	2146.27
183.44	2043.87
183.66	2461.66
183.89	2209.76
184.11	2121.70
184.33	2220.00
184.55	2381.79
184.77	2148.32
184.99	2109.41
185.21	2107.36
185.43	2381.79
185.65	2146.27
185.87	2105.31
186.10	2412.51
186.32	2406.36
186.54	2170.85
186.76	2211.81
186.98	2287.58
187.20	2228.19
187.42	2060.26
187.64	2131.94
187.86	2189.28
188.08	2232.29
188.30	2029.54
188.52	2179.04
188.75	2252.77
188.97	2392.03
189.19	2109.41
189.41	2172.89
189.63	2287.58
189.85	2150.37
190.07	1978.34
190.29	1988.58
190.51	2293.72
190.73	2123.74
190.95	2138.08
191.17	2103.26
191.39	2047.97
191.61	2250.72
191.84	2125.79
192.06	2203.61
192.28	2045.92
192.50	2488.28
192.72	2160.61
192.94	2133.98
193.16	2334.68
193.38	2224.09
193.60	2103.26
193.82	2076.64
194.04	2316.25
194.26	2187.23
194.48	2154.46
194.70	2013.15
194.92	2160.61
195.14	2207.71
195.36	2185.18
195.58	2103.26
195.80	2162.66
196.02	2101.22
196.24	2144.22
196.46	2181.09
196.69	2158.56
196.91	2449.37
197.13	2162.66
197.35	2088.93
197.57	2351.07
197.79	2197.47
198.01	2090.98
198.23	2162.66
198.45	2211.81
198.67	2035.68
198.89	2097.12
199.11	2148.32
199.33	2170.85
199.55	1947.62
199.77	2078.69
199.99	2197.47
200.21	2176.99
200.43	2260.96
200.65	2064.35
200.87	1959.91
201.09	2252.77
201.31	2195.42
201.53	2209.76
201.75	2183.13
201.97	2226.14
202.19	2217.95
202.41	2146.27
202.63	2285.53
202.85	2220.00
203.07	2189.28
203.29	2170.85
203.51	2043.87
203.73	2103.26
203.95	2523.10
204.17	2148.32
204.39	2115.55
204.61	2209.76
204.83	2117.60
205.05	2217.95
205.27	2172.89
205.49	2400.22
205.71	2162.66
205.93	2011.11
206.15	2062.30
206.37	2176.99
206.59	2226.14
206.81	1988.58
207.03	2088.93
207.25	2078.69
207.47	2269.15
207.69	2148.32
207.91	2279.39
208.13	2373.60
208.34	2158.56
208.56	2031.58
208.78	2201.57
209.00	2176.99
209.22	2111.46
209.44	2181.09
209.66	2093.02
209.88	2183.13
210.10	2195.42
210.32	2133.98
210.54	2287.58
210.76	2162.66
210.98	2232.29
211.20	2023.39
211.42	2226.14
211.64	2293.72
211.86	2174.94
212.08	2168.80
212.30	2150.37
212.52	2228.19
212.74	2252.77
212.96	2119.65
213.17	2179.04
213.39	2303.96
213.61	2308.06
213.83	2209.76
214.05	2224.09
214.27	2344.92
214.49	2080.74
214.71	2093.02
214.93	2244.57
215.15	2228.19
215.37	2228.19
215.59	2039.78
215.81	2129.89
216.03	2338.78
216.24	2267.10
216.46	2072.54
216.68	2154.46
216.90	2299.87
217.12	2396.12
217.34	2168.80
217.56	2131.94
217.78	2281.44
218.00	2297.82
218.22	2285.53
218.44	2203.61
218.66	2170.85
218.87	2271.20
219.09	2119.65
219.31	2185.18
219.53	2250.72
219.75	2140.13
219.97	2172.89
220.19	2088.93
220.41	2131.94
220.63	2308.06
220.85	2158.56
221.06	2105.31
221.28	2301.92
221.50	2195.42
221.72	2029.54
221.94	2080.74
222.16	2211.81
222.38	2244.57
222.60	2111.46
222.82	2189.28
223.03	2232.29
223.25	2062.30
223.47	2142.18
223.69	2367.45
223.91	2291.68
224.13	2187.23
224.35	2088.93
224.57	2248.67
224.78	2211.81
225.00	2062.30
225.22	2138.08
225.44	2099.17
225.66	2226.14
225.88	2232.29
226.10	2152.42
226.32	2154.46
226.53	2303.96
226.75	2133.98
226.97	2160.61
227.19	2150.37
227.41	2146.27
227.63	2084.83
227.85	1996.77
228.06	2133.98
228.28	2215.90
228.50	2232.29
228.72	2007.01
228.94	2107.36
229.16	2056.16
229.37	2105.31
229.59	2111.46
229.81	2205.66
230.03	2209.76
230.25	2127.84
230.47	2002.91
230.69	2111.46
230.90	2281.44
231.12	2152.42
231.34	2195.42
231.56	2273.25
231.78	2082.78
232.00	2228.19
232.21	2088.93
232.43	2074.59
232.65	1974.24
232.87	2170.85
233.09	1974.24
233.30	2076.64
233.52	2303.96
233.74	2150.37
233.96	2072.54
234.18	2158.56
234.40	2115.55
234.61	2408.41
234.83	2109.41
235.05	2056.16
235.27	2353.12
235.49	2279.39
235.70	2101.22
235.92	2234.33
236.14	2240.48
236.36	2435.03
236.58	2033.63
236.79	2193.37
237.01	2201.57
237.23	2258.91
237.45	2242.53
237.67	2152.42
237.88	2176.99
238.10	2336.73
238.32	2080.74
238.54	2138.08
238.76	2172.89
238.97	2150.37
239.19	2052.06
239.41	2285.53
239.63	2285.53
239.85	2119.65
240.06	2121.70
240.28	2123.74
240.50	2289.63
240.72	2172.89
240.93	2056.16
241.15	2142.18
241.37	2181.09
241.59	2332.64
241.81	2099.17
242.02	2086.88
242.24	2203.61
242.46	2199.52
242.68	2039.78
242.89	2164.70
243.11	2293.72
243.33	2217.95
243.55	2209.76
243.76	2199.52
243.98	2121.70
244.20	2228.19
244.42	2183.13
244.64	2127.84
244.85	2111.46
245.07	1996.77
245.29	2162.66
245.51	2099.17
245.72	2248.67
245.94	2301.92
246.16	2123.74
246.38	2242.53
246.59	2088.93
246.81	2140.13
247.03	2121.70
247.24	1914.85
247.46	2174.94
247.68	2217.95
247.90	2103.26
248.11	2154.46
248.33	2254.81
248.55	2209.76
248.77	2207.71
248.98	2133.98
249.20	2342.88
249.42	2152.42
249.64	2179.04
249.85	2150.37
250.07	2099.17
250.29	2213.85
250.50	2095.07
250.72	2084.83
250.94	2254.81
251.16	2367.45
251.37	2236.38
251.59	2252.77
251.81	2299.87
252.02	2340.83
252.24	2052.06
252.46	2228.19
252.68	2095.07
252.89	2142.18
253.11	2060.26
253.33	2269.15
253.54	2369.50
253.76	2080.74
253.98	2080.74
254.20	2185.18
254.41	2144.22
254.63	2162.66
254.85	2025.44
255.06	2084.83
255.28	2263.01
255.50	2170.85
255.71	2117.60
255.93	2084.83
256.15	2166.75
256.36	2289.63
256.58	2080.74
256.80	2181.09
257.02	2115.55
257.23	2185.18
257.45	2097.12
257.67	2193.37
257.88	2148.32
258.10	2273.25
258.32	2133.98
258.53	2244.57
258.75	2244.57
258.97	2072.54
259.18	2090.98
259.40	2088.93
259.62	2293.72
259.83	2371.55
260.05	2121.70
260.27	2578.39
260.48	2277.34
260.70	2109.41
260.92	2076.64
261.13	2187.23
261.35	2228.19
261.57	2236.38
261.78	1931.23
262.00	2109.41
262.22	2203.61
262.43	2162.66
262.65	2211.81
262.86	2170.85
263.08	2426.84
263.30	2136.03
263.51	1931.23
263.73	2111.46
263.95	2316.25
264.16	2258.91
264.38	2037.73
264.60	2164.70
264.81	2228.19
265.03	2263.01
265.25	2269.15
265.46	2162.66
265.68	2363.36
265.89	2291.68
266.11	2033.63
266.33	2105.31
266.54	2289.63
266.76	2306.01
266.98	2160.61
267.19	2242.53
267.41	2265.05
267.62	2213.85
267.84	2047.97
268.06	2162.66
268.27	2252.77
268.49	2351.07
268.70	2107.36
268.92	2136.03
269.14	2099.17
269.35	2152.42
269.57	2195.42
269.79	2185.18
270.00	2142.18
270.22	2342.88
270.43	2115.55
270.65	2047.97
270.87	2207.71
271.08	2244.57
271.30	2144.22
271.51	2213.85
271.73	2170.85
271.95	2252.77
272.16	2127.84
272.38	2242.53
272.59	2076.64
272.81	2187.23
273.02	2121.70
273.24	2129.89
273.46	2351.07
273.67	2099.17
273.89	2007.01
274.10	2093.02
274.32	2322.40
274.54	2154.46
274.75	2185.18
274.97	2115.55
275.18	2265.05
275.40	2201.57
275.61	2140.13
275.83	2170.85
276.05	2002.91
276.26	2133.98
276.48	2254.81
276.69	2179.04
276.91	2109.41
277.12	2367.45
277.34	2209.76
277.55	2232.29
277.77	2260.96
277.99	2162.66
278.20	2039.78
278.42	2062.30
278.63	2117.60
278.85	2129.89
279.06	2152.42
279.28	2252.77
279.49	2314.20
279.71	2267.10
279.93	2267.10
280.14	2138.08
280.36	2148.32
280.57	2297.82
280.79	2248.67
281.00	2101.22
281.22	2170.85
281.43	2283.49
281.65	2015.20
281.86	2088.93
282.08	2138.08
282.29	2392.03
282.51	1998.82
282.73	2066.40
282.94	2037.73
283.16	2285.53
283.37	2260.96
283.59	2197.47
283.80	2195.42
284.02	2187.23
284.23	2179.04
284.45	2074.59
284.66	2113.50
284.88	2170.85
285.09	2242.53
285.31	2197.47
285.52	2176.99
285.74	2080.74
285.95	2277.34
286.17	2111.46
286.38	2308.06
286.60	2088.93
286.81	2119.65
287.03	2164.70
287.24	2185.18
287.46	2242.53
287.67	2150.37
287.89	2318.30
288.10	2088.93
288.32	2201.57
288.53	2277.34
288.75	2197.47
288.96	2293.72
289.18	2109.41
289.39	2121.70
289.61	2230.24
289.82	2414.56
290.04	2375.64
290.25	2121.70
290.47	2160.61
290.68	2195.42
290.90	2293.72
291.11	2007.01
291.33	2289.63
291.54	2086.88
291.76	2043.87
291.97	2127.84
292.18	2250.72
292.40	2152.42
292.61	2211.81
292.83	2418.65
293.04	2271.20
293.26	2203.61
293.47	2076.64
293.69	2054.11
293.90	2154.46
294.12	2392.03
294.33	2123.74
294.55	2189.28
294.76	2244.57
294.97	2297.82
295.19	2330.59
295.40	2187.23
295.62	2176.99
295.83	2228.19
296.05	2129.89
296.26	2236.38
296.48	2109.41
296.69	2244.57
296.90	2232.29
297.12	2220.00
297.33	2340.83
297.55	2211.81
297.76	2277.34
297.98	2250.72
298.19	2215.90
298.41	2146.27
298.62	2074.59
298.83	2297.82
299.05	2160.61
299.26	2205.66
299.48	2168.80
299.69	2246.62
299.90	2162.66
300.12	2109.41
300.33	2238.43
300.55	2176.99
300.76	2306.01
300.98	2082.78
301.19	2162.66
301.40	2187.23
301.62	2113.50
301.83	2246.62
302.05	2121.70
302.26	2224.09
302.47	2107.36
302.69	2113.50
302.90	2179.04
303.12	1998.82
303.33	2240.48
303.54	2410.46
303.76	2119.65
303.97	2281.44
304.19	2260.96
304.40	2095.07
304.61	2179.04
304.83	2318.30
305.04	2306.01
305.26	2285.53
305.47	2123.74
305.68	2088.93
305.90	2045.92
306.11	2285.53
306.33	2185.18
306.54	2160.61
306.75	2080.74
306.97	2103.26
307.18	2154.46
307.39	2121.70
307.61	2193.37
307.82	2101.22
308.04	2133.98
308.25	2054.11
308.46	2086.88
308.68	2185.18
308.89	2209.76
309.10	2275.29
309.32	2213.85
309.53	2230.24
309.74	2150.37
309.96	2125.79
310.17	2289.63
310.39	2133.98
310.60	2187.23
310.81	2207.71
311.03	2117.60
311.24	2211.81
311.45	2244.57
311.67	2357.21
311.88	2160.61
312.09	2113.50
312.31	2142.18
312.52	2117.60
312.73	2121.70
312.95	2047.97
313.16	2154.46
313.37	2310.11
313.59	2246.62
313.80	2287.58
314.01	2273.25
314.23	2127.84
314.44	2129.89
314.65	2084.83
314.87	2136.03
315.08	2183.13
315.29	2136.03
315.51	2156.51
315.72	2117.60
315.93	2326.49
316.15	2187.23
316.36	2209.76
316.57	2248.67
316.79	2187.23
317.00	2103.26
317.21	2246.62
317.43	2113.50
317.64	2193.37
317.85	2123.74
318.07	2121.70
318.28	2211.81
318.49	2379.74
318.70	2441.18
318.92	2367.45
319.13	2336.73
319.34	2451.42
319.56	2269.15
319.77	2375.64
319.98	2316.25
320.20	2322.40
320.41	2310.11
320.62	2297.82
320.83	2121.70
321.05	2297.82
321.26	2285.53
321.47	2136.03
321.69	2330.59
321.90	2070.50
322.11	2109.41
322.32	2220.00
322.54	2342.88
322.75	2170.85
322.96	2523.10
323.18	2035.68
323.39	2039.78
323.60	2074.59
323.81	2244.57
324.03	2127.84
324.24	2248.67
324.45	2209.76
324.66	2039.78
324.88	2267.10
325.09	2306.01
325.30	2078.69
325.52	2224.09
325.73	2250.72
325.94	2023.39
326.15	1970.15
326.37	1996.77
326.58	2308.06
326.79	2332.64
327.00	2131.94
327.22	2140.13
327.43	2160.61
327.64	2107.36
327.85	2269.15
328.07	2187.23
328.28	2379.74
328.49	2136.03
328.70	2187.23
328.92	2084.83
329.13	2127.84
329.34	2191.33
329.55	2375.64
329.76	2265.05
329.98	2250.72
330.19	2299.87
330.40	2213.85
330.61	2240.48
330.83	2287.58
331.04	2133.98
331.25	2189.28
331.46	2226.14
331.68	2113.50
331.89	2281.44
332.10	2187.23
332.31	2095.07
332.52	2136.03
332.74	2242.53
332.95	2088.93
333.16	2150.37
333.37	2285.53
333.58	2152.42
333.80	2125.79
334.01	2045.92
334.22	2152.42
334.43	2136.03
334.64	2138.08
334.86	1970.15
335.07	2181.09
335.28	2359.26
335.49	2117.60
335.70	2123.74
335.92	2279.39
336.13	2375.64
336.34	2230.24
336.55	2176.99
336.76	2303.96
336.98	2052.06
337.19	2174.94
337.40	2289.63
337.61	2449.37
337.82	2260.96
338.04	2281.44
338.25	2101.22
338.46	2146.27
338.67	2199.52
338.88	2162.66
339.09	2035.68
339.31	2174.94
339.52	2111.46
339.73	2129.89
339.94	2160.61
340.15	2326.49
340.36	2131.94
340.58	2183.13
340.79	2117.60
341.00	2185.18
341.21	2117.60
341.42	2385.88
341.63	2156.51
341.85	2330.59
342.06	2303.96
342.27	2168.80
342.48	2332.64
342.69	2072.54
342.90	2220.00
343.12	2340.83
343.33	2107.36
343.54	2281.44
343.75	2324.44
343.96	2193.37
344.17	2076.64
344.38	2162.66
344.60	2062.30
344.81	2072.54
345.02	2158.56
345.23	2326.49
345.44	2400.22
345.65	2301.92
345.86	2217.95
346.07	2146.27
346.29	2144.22
346.50	2170.85
346.71	2250.72
346.92	2318.30
347.13	2453.47
347.34	2166.75
347.55	2181.09
347.76	2205.66
347.98	1996.77
348.19	2117.60
348.40	2232.29
348.61	2166.75
348.82	2308.06
349.03	2283.49
349.24	2074.59
349.45	2297.82
349.66	2050.02
349.88	2103.26
350.09	2093.02
350.30	2349.02
350.51	2303.96
350.72	2187.23
350.93	2136.03
351.14	2191.33
351.35	2246.62
351.56	2230.24
351.77	2162.66
351.99	2244.57
352.20	2377.69
352.41	2293.72
352.62	2021.35
352.83	2164.70
353.04	2236.38
353.25	2174.94
353.46	2277.34
353.67	2363.36
353.88	2043.87
354.09	2191.33
354.30	2148.32
354.52	2232.29
354.73	2217.95
354.94	2154.46
355.15	2121.70
355.36	2412.51
355.57	2154.46
355.78	2203.61
355.99	2119.65
356.20	2148.32
356.41	2263.01
356.62	2199.52
356.83	2236.38
357.04	2357.21
357.25	2017.25
357.46	2144.22
357.68	2045.92
357.89	2127.84
358.10	2207.71
358.31	2168.80
358.52	2172.89
358.73	2152.42
358.94	2158.56
359.15	2185.18
359.36	2232.29
359.57	2215.90
359.78	2144.22
359.99	2318.30
360.20	2009.06
360.41	2185.18
360.62	2199.52
360.83	2189.28
361.04	2238.43
361.25	2269.15
361.46	2375.64
361.67	2269.15
361.88	2183.13
362.09	2283.49
362.30	2209.76
362.51	2150.37
362.72	2154.46
362.93	2277.34
363.14	2254.81
363.35	2236.38
363.56	2129.89
363.78	2273.25
363.99	2301.92
364.20	2146.27
364.41	2217.95
364.62	2455.51
364.83	2170.85
365.04	2099.17
365.25	2119.65
365.46	2435.03
365.67	2234.33
365.88	2129.89
366.09	2099.17
366.30	2090.98
366.51	2189.28
366.72	2084.83
366.93	2047.97
367.14	2189.28
367.35	2320.35
367.56	2197.47
367.77	2293.72
367.98	2226.14
368.18	2265.05
368.39	2226.14
368.60	2068.45
368.81	2252.77
369.02	2213.85
369.23	2174.94
369.44	2082.78
369.65	2166.75
369.86	2236.38
370.07	2220.00
370.28	2125.79
370.49	2211.81
370.70	2242.53
370.91	2054.11
371.12	2047.97
371.33	2277.34
371.54	2207.71
371.75	2236.38
371.96	2035.68
372.17	2222.05
372.38	2240.48
372.59	2199.52
372.80	2166.75
373.01	2193.37
373.22	2179.04
373.43	2162.66
373.64	2007.01
373.85	2332.64
374.06	2353.12
374.26	2295.77
374.47	2160.61
374.68	2332.64
374.89	2195.42
375.10	2119.65
375.31	2340.83
375.52	2189.28
375.73	2217.95
375.94	2113.50
376.15	2293.72
376.36	2193.37
376.57	2123.74
376.78	2131.94
376.99	2176.99
377.20	2277.34
377.40	2101.22
377.61	2301.92
377.82	2080.74
378.03	2344.92
378.24	2263.01
378.45	2263.01
378.66	2215.90
378.87	2037.73
379.08	2119.65
379.29	2138.08
379.50	2301.92
379.71	2209.76
379.91	2273.25
380.12	2193.37
380.33	2160.61
380.54	2199.52
380.75	2142.18
380.96	2131.94
381.17	2301.92
381.38	2338.78
381.59	2166.75
381.80	2129.89
382.00	2361.31
382.21	2285.53
382.42	2367.45
382.63	2426.84
382.84	2271.20
383.05	2400.22
383.26	2441.18
383.47	2181.09
383.68	2260.96
383.88	2267.10
384.09	2248.67
384.30	2324.44
384.51	2232.29
384.72	2133.98
384.93	2109.41
385.14	2217.95
385.35	2252.77
385.55	2037.73
385.76	2324.44
385.97	2109.41
386.18	2019.30
386.39	2209.76
386.60	2176.99
386.81	2197.47
387.02	2125.79
387.22	2078.69
387.43	2244.57
387.64	2285.53
387.85	2398.17
388.06	2482.14
388.27	3995.59
388.48	8728.44
388.68	12633.92
388.89	14614.30
389.10	15800.08
389.31	14786.33
389.52	11704.14
389.73	10071.91
389.93	8849.27
390.14	8339.33
390.35	7434.13
390.56	6602.65
390.77	5328.81
390.98	4161.47
391.18	3229.65
391.39	2858.96
391.60	2398.17
391.81	2344.92
392.02	2205.66
392.23	2467.80
392.43	2269.15
392.64	2328.54
392.85	2269.15
393.06	2394.08
393.27	2166.75
393.47	2117.60
393.68	2107.36
393.89	2201.57
394.10	2328.54
394.31	2111.46
394.52	2105.31
394.72	2154.46
394.93	2291.68
395.14	2019.30
395.35	2176.99
395.56	2078.69
395.76	2174.94
395.97	2228.19
396.18	2349.02
396.39	2392.03
396.60	2676.70
396.80	2523.10
397.01	2371.55
397.22	2400.22
397.43	2377.69
397.64	2109.41
397.84	2248.67
398.05	2426.84
398.26	2269.15
398.47	2353.12
398.67	2287.58
398.88	2187.23
399.09	2320.35
399.30	2158.56
399.51	2258.91
399.71	2131.94
399.92	2125.79
400.13	2267.10
400.34	2176.99
400.54	2189.28
400.75	2351.07
400.96	2230.24
401.17	2371.55
401.37	2183.13
401.58	2215.90
401.79	2234.33
402.00	2330.59
402.21	2555.86
402.41	2527.19
402.62	2516.95
402.83	2686.94
403.04	2662.36
403.24	2752.47
403.45	2326.49
403.66	2428.89
403.87	2422.75
404.07	2500.57
404.28	2473.95
404.49	2439.13
404.70	2228.19
404.90	2273.25
405.11	2133.98
405.32	2306.01
405.52	2133.98
405.73	2111.46
405.94	2119.65
406.15	2144.22
406.35	2252.77
406.56	2330.59
406.77	2187.23
406.98	2256.86
407.18	2203.61
407.39	2308.06
407.60	2299.87
407.80	2254.81
408.01	2086.88
408.22	2166.75
408.43	2103.26
408.63	2254.81
408.84	2234.33
409.05	2310.11
409.25	2154.46
409.46	2086.88
409.67	2131.94
409.88	2152.42
410.08	2260.96
410.29	2217.95
410.50	2299.87
410.70	2252.77
410.91	2133.98
411.12	2207.71
411.32	2187.23
411.53	2093.02
411.74	2342.88
411.95	2377.69
412.15	2287.58
412.36	2322.40
412.57	2353.12
412.77	2322.40
412.98	2140.13
413.19	2199.52
413.39	2283.49
413.60	2195.42
413.81	2383.84
414.01	2138.08
414.22	2265.05
414.43	2285.53
414.63	2220.00
414.84	2357.21
415.05	2170.85
415.25	2013.15
415.46	2236.38
415.67	2090.98
415.87	2207.71
416.08	2176.99
416.29	2152.42
416.49	2205.66
416.70	2058.21
416.91	2144.22
417.11	2213.85
417.32	2330.59
417.53	2172.89
417.73	2269.15
417.94	2174.94
418.15	2250.72
418.35	2111.46
418.56	2172.89
418.77	2432.99
418.97	2193.37
419.18	2195.42
419.38	1994.72
419.59	2164.70
419.80	2338.78
420.00	2191.33
420.21	2174.94
420.42	2271.20
420.62	2252.77
420.83	2174.94
421.04	2150.37
421.24	2162.66
421.45	2269.15
421.65	2191.33
421.86	2037.73
422.07	2336.73
422.27	2267.10
422.48	2236.38
422.69	2111.46
422.89	2166.75
423.10	2101.22
423.30	2080.74
423.51	2152.42
423.72	2170.85
423.92	2246.62
424.13	2080.74
424.33	2191.33
424.54	2256.86
424.75	2220.00
424.95	2379.74
425.16	2205.66
425.36	2207.71
425.57	2275.29
425.78	2189.28
425.98	2285.53
426.19	2136.03
426.39	2119.65
426.60	2232.29
426.81	2314.20
427.01	2179.04
427.22	2172.89
427.42	2082.78
427.63	2031.58
427.83	2256.86
428.04	2394.08
428.25	2277.34
428.45	2275.29
428.66	2361.31
428.86	2224.09
429.07	2088.93
429.28	2195.42
429.48	2220.00
429.69	2146.27
429.89	2187.23
430.10	2090.98
430.30	2295.77
430.51	2359.26
430.71	2090.98
430.92	2183.13
431.13	2179.04
431.33	2179.04
431.54	2217.95
431.74	2287.58
431.95	2326.49
432.15	2097.12
432.36	2209.76
432.56	2232.29
432.77	2318.30
432.98	2318.30
433.18	2269.15
433.39	2129.89
433.59	2205.66
433.80	2326.49
434.00	2408.41
434.21	2172.89
434.41	2144.22
434.62	2346.97
434.82	2015.20
435.03	2144.22
435.23	2144.22
435.44	1939.43
435.64	2220.00
435.85	2203.61
436.06	2267.10
436.26	2265.05
436.47	2205.66
436.67	2125.79
436.88	2183.13
437.08	2330.59
437.29	2387.93
437.49	2213.85
437.70	2312.16
437.90	2158.56
438.11	2371.55
438.31	2269.15
438.52	2400.22
438.72	2342.88
438.93	2469.85
439.13	2289.63
439.34	2318.30
439.54	2228.19
439.75	2287.58
439.95	2205.66
440.16	2215.90
440.36	2269.15
440.57	2258.91
440.77	2283.49
440.98	2232.29
441.18	2232.29
441.39	2174.94
441.59	2097.12
441.80	2457.56
442.00	2191.33
442.21	2318.30
442.41	2033.63
442.62	2291.68
442.82	2078.69
443.02	2105.31
443.23	2230.24
443.43	2131.94
443.64	2369.50
443.84	2062.30
444.05	2338.78
444.25	2220.00
444.46	2160.61
444.66	2107.36
444.87	2418.65
445.07	2060.26
445.28	2187.23
445.48	2324.44
445.69	2252.77
445.89	2387.93
446.09	2224.09
446.30	2463.71
446.50	2789.33
446.71	4468.67
446.91	5617.58
447.12	6561.69
447.32	6868.89
447.53	6229.92
447.73	5183.41
447.93	4612.03
448.14	4190.14
448.34	4126.66
448.55	3661.77
448.75	3631.05
448.96	3272.65
449.16	3024.85
449.36	2834.39
449.57	2562.01
449.77	2322.40
449.98	2209.76
450.18	2242.53
450.39	2217.95
450.59	2242.53
450.79	2275.29
451.00	2158.56
451.20	2320.35
451.41	2215.90
451.61	2336.73
451.81	2217.95
452.02	2156.51
452.22	2162.66
452.43	2136.03
