SpectraSuite Data File
++++++++++++++++++++++++++++++++++++
Date: Thu May 05 12:35:06 CEST 2016
User: root
Dark Spectrum Present: No
Reference Spectrum Present: No
Number of Sampled Component Spectra: 1
Spectrometers: USB4C02835
Integration Time (usec): 100000 (USB4C02835)
Spectra Averaged: 1 (USB4C02835)
Boxcar Smoothing: 0 (USB4C02835)
Correct for Electrical Dark: No (USB4C02835)
Strobe/Lamp Enabled: No (USB4C02835)
Correct for Detector Non-linearity: No (USB4C02835)
Correct for Stray Light: No (USB4C02835)
Number of Pixels in Processed Spectrum: 3648
>>>>>Begin Processed Spectral Data<<<<<
177.47	1822.69
177.69	1822.69
177.91	1822.69
178.13	1802.21
178.36	1767.40
178.58	2064.35
178.80	2187.23
179.02	2021.35
179.24	2148.32
179.46	2101.22
179.68	2224.09
179.90	2162.66
180.13	2191.33
180.35	2047.97
180.57	2070.50
180.79	2277.34
181.01	2162.66
181.23	2152.42
181.45	2295.77
181.67	2185.18
181.90	2269.15
182.12	2125.79
182.34	2068.45
182.56	2318.30
182.78	2201.57
183.00	2148.32
183.22	2207.71
183.44	2039.78
183.66	2551.77
183.89	2176.99
184.11	2095.07
184.33	2234.33
184.55	2359.26
184.77	2133.98
184.99	2119.65
185.21	2166.75
185.43	2367.45
185.65	2129.89
185.87	2203.61
186.10	2383.84
186.32	2400.22
186.54	2121.70
186.76	2170.85
186.98	2310.11
187.20	2172.89
187.42	2138.08
187.64	2144.22
187.86	2213.85
188.08	2324.44
188.30	2131.94
188.52	2158.56
188.75	2351.07
188.97	2269.15
189.19	2056.16
189.41	2154.46
189.63	2252.77
189.85	2166.75
190.07	2004.96
190.29	2074.59
190.51	2252.77
190.73	2072.54
190.95	2281.44
191.17	2144.22
191.39	2056.16
191.61	2273.25
191.84	2142.18
192.06	2162.66
192.28	2007.01
192.50	2514.91
192.72	2140.13
192.94	2117.60
193.16	2289.63
193.38	2318.30
193.60	2072.54
193.82	2131.94
194.04	2279.39
194.26	2179.04
194.48	2144.22
194.70	2064.35
194.92	2136.03
195.14	2285.53
195.36	2070.50
195.58	2189.28
195.80	2244.57
196.02	2146.27
196.24	2090.98
196.46	2256.86
196.69	2158.56
196.91	2506.71
197.13	2162.66
197.35	2166.75
197.57	2336.73
197.79	2144.22
198.01	2203.61
198.23	2187.23
198.45	2166.75
198.67	2146.27
198.89	2043.87
199.11	2195.42
199.33	2121.70
199.55	2004.96
199.77	2125.79
199.99	2193.37
200.21	2201.57
200.43	2170.85
200.65	1970.15
200.87	2062.30
201.09	2125.79
201.31	2172.89
201.53	2138.08
201.75	2205.66
201.97	2299.87
202.19	2158.56
202.41	2170.85
202.63	2291.68
202.85	2269.15
203.07	2232.29
203.29	2119.65
203.51	2086.88
203.73	2111.46
203.95	2482.14
204.17	2172.89
204.39	2123.74
204.61	2144.22
204.83	2138.08
205.05	2267.10
205.27	2158.56
205.49	2424.80
205.71	2181.09
205.93	1974.24
206.15	1998.82
206.37	2115.55
206.59	2150.37
206.81	2140.13
207.03	2064.35
207.25	2109.41
207.47	2183.13
207.69	2123.74
207.91	2314.20
208.13	2334.68
208.34	2133.98
208.56	2144.22
208.78	2129.89
209.00	2146.27
209.22	2140.13
209.44	2170.85
209.66	2146.27
209.88	2179.04
210.10	2150.37
210.32	2121.70
210.54	2195.42
210.76	2236.38
210.98	2230.24
211.20	1986.53
211.42	2183.13
211.64	2254.81
211.86	2230.24
212.08	2119.65
212.30	2166.75
212.52	2201.57
212.74	2289.63
212.96	2121.70
213.17	2230.24
213.39	2250.72
213.61	2349.02
213.83	2211.81
214.05	2131.94
214.27	2217.95
214.49	2097.12
214.71	2103.26
214.93	2183.13
215.15	2222.05
215.37	2281.44
215.59	2007.01
215.81	2162.66
216.03	2349.02
216.24	2195.42
216.46	2138.08
216.68	2181.09
216.90	2281.44
217.12	2265.05
217.34	2099.17
217.56	2199.52
217.78	2297.82
218.00	2215.90
218.22	2162.66
218.44	2189.28
218.66	2164.70
218.87	2383.84
219.09	2125.79
219.31	2207.71
219.53	2211.81
219.75	2125.79
219.97	2160.61
220.19	2058.21
220.41	2193.37
220.63	2322.40
220.85	2195.42
221.06	2144.22
221.28	2369.50
221.50	2310.11
221.72	2183.13
221.94	2146.27
222.16	2273.25
222.38	2308.06
222.60	2199.52
222.82	2084.83
223.03	2283.49
223.25	2099.17
223.47	2174.94
223.69	2281.44
223.91	2291.68
224.13	2215.90
224.35	2125.79
224.57	2215.90
224.78	2226.14
225.00	2074.59
225.22	2111.46
225.44	2164.70
225.66	2281.44
225.88	2187.23
226.10	2160.61
226.32	2193.37
226.53	2242.53
226.75	2215.90
226.97	2174.94
227.19	2166.75
227.41	2236.38
227.63	2195.42
227.85	2029.54
228.06	2154.46
228.28	2146.27
228.50	2222.05
228.72	2088.93
228.94	2088.93
229.16	2004.96
229.37	2086.88
229.59	2097.12
229.81	2242.53
230.03	2185.18
230.25	2041.82
230.47	1992.67
230.69	2103.26
230.90	2299.87
231.12	2066.40
231.34	2129.89
231.56	2258.91
231.78	2078.69
232.00	2209.76
232.21	2205.66
232.43	2166.75
232.65	1992.67
232.87	2191.33
233.09	2101.22
233.30	2023.39
233.52	2240.48
233.74	2144.22
233.96	2136.03
234.18	2250.72
234.40	2265.05
234.61	2357.21
234.83	2043.87
235.05	2013.15
235.27	2437.08
235.49	2314.20
235.70	2109.41
235.92	2179.04
236.14	2271.20
236.36	2326.49
236.58	2076.64
236.79	2269.15
237.01	2121.70
237.23	2217.95
237.45	2310.11
237.67	2082.78
237.88	2213.85
238.10	2457.56
238.32	2054.11
238.54	2113.50
238.76	2201.57
238.97	2133.98
239.19	2101.22
239.41	2203.61
239.63	2301.92
239.85	2168.80
240.06	2121.70
240.28	2052.06
240.50	2277.34
240.72	2162.66
240.93	2064.35
241.15	2267.10
241.37	2232.29
241.59	2312.16
241.81	2144.22
242.02	2090.98
242.24	2185.18
242.46	2303.96
242.68	2060.26
242.89	2105.31
243.11	2326.49
243.33	2088.93
243.55	2154.46
243.76	2209.76
243.98	2127.84
244.20	2174.94
244.42	2129.89
244.64	2183.13
244.85	2093.02
245.07	2072.54
245.29	2213.85
245.51	2133.98
245.72	2252.77
245.94	2338.78
246.16	2140.13
246.38	2189.28
246.59	2078.69
246.81	2144.22
247.03	2166.75
247.24	2078.69
247.46	2174.94
247.68	2228.19
247.90	2088.93
248.11	2043.87
248.33	2234.33
248.55	2129.89
248.77	2158.56
248.98	2179.04
249.20	2381.79
249.42	2220.00
249.64	2121.70
249.85	2158.56
250.07	2080.74
250.29	2236.38
250.50	2211.81
250.72	2043.87
250.94	2207.71
251.16	2400.22
251.37	2150.37
251.59	2217.95
251.81	2213.85
252.02	2371.55
252.24	2082.78
252.46	2195.42
252.68	2117.60
252.89	2086.88
253.11	2011.11
253.33	2258.91
253.54	2394.08
253.76	2115.55
253.98	2197.47
254.20	2103.26
254.41	2123.74
254.63	2152.42
254.85	2052.06
255.06	2144.22
255.28	2215.90
255.50	2211.81
255.71	2152.42
255.93	2066.40
256.15	2144.22
256.36	2195.42
256.58	2080.74
256.80	2154.46
257.02	2142.18
257.23	2138.08
257.45	2115.55
257.67	2179.04
257.88	2197.47
258.10	2256.86
258.32	2164.70
258.53	2211.81
258.75	2385.88
258.97	2097.12
259.18	2078.69
259.40	2154.46
259.62	2359.26
259.83	2392.03
260.05	2283.49
260.27	2529.24
260.48	2258.91
260.70	2101.22
260.92	2080.74
261.13	2181.09
261.35	2195.42
261.57	2258.91
261.78	2086.88
262.00	2142.18
262.22	2185.18
262.43	2078.69
262.65	2127.84
262.86	2170.85
263.08	2435.03
263.30	2207.71
263.51	1980.39
263.73	2017.25
263.95	2291.68
264.16	2109.41
264.38	2080.74
264.60	2095.07
264.81	2189.28
265.03	2269.15
265.25	2283.49
265.46	2088.93
265.68	2355.16
265.89	2275.29
266.11	1945.57
266.33	2129.89
266.54	2228.19
266.76	2297.82
266.98	2193.37
267.19	2199.52
267.41	2277.34
267.62	2220.00
267.84	2097.12
268.06	2166.75
268.27	2230.24
268.49	2246.62
268.70	2203.61
268.92	2160.61
269.14	2095.07
269.35	2007.01
269.57	2170.85
269.79	2191.33
270.00	2166.75
270.22	2279.39
270.43	2076.64
270.65	1984.48
270.87	2217.95
271.08	2326.49
271.30	2136.03
271.51	2172.89
271.73	2258.91
271.95	2324.44
272.16	2097.12
272.38	2183.13
272.59	2172.89
272.81	2224.09
273.02	2086.88
273.24	2244.57
273.46	2306.01
273.67	2080.74
273.89	2082.78
274.10	2136.03
274.32	2295.77
274.54	2269.15
274.75	2258.91
274.97	2191.33
275.18	2197.47
275.40	2275.29
275.61	2183.13
275.83	2174.94
276.05	2136.03
276.26	2105.31
276.48	2168.80
276.69	2156.51
276.91	2187.23
277.12	2299.87
277.34	2224.09
277.55	2316.25
277.77	2207.71
277.99	2150.37
278.20	2131.94
278.42	2074.59
278.63	2156.51
278.85	2072.54
279.06	2041.82
279.28	2246.62
279.49	2316.25
279.71	2277.34
279.93	2158.56
280.14	2183.13
280.36	2150.37
280.57	2236.38
280.79	2244.57
281.00	2105.31
281.22	2136.03
281.43	2328.54
281.65	1994.72
281.86	2107.36
282.08	2256.86
282.29	2394.08
282.51	2123.74
282.73	2095.07
282.94	2029.54
283.16	2203.61
283.37	2342.88
283.59	2121.70
283.80	2224.09
284.02	2224.09
284.23	2203.61
284.45	2119.65
284.66	2056.16
284.88	2115.55
285.09	2125.79
285.31	2207.71
285.52	2242.53
285.74	1990.63
285.95	2306.01
286.17	2209.76
286.38	2260.96
286.60	2136.03
286.81	2138.08
287.03	2129.89
287.24	2152.42
287.46	2256.86
287.67	2174.94
287.89	2277.34
288.10	2158.56
288.32	2131.94
288.53	2263.01
288.75	2183.13
288.96	2217.95
289.18	2164.70
289.39	2113.50
289.61	2250.72
289.82	2441.18
290.04	2381.79
290.25	2082.78
290.47	2174.94
290.68	2144.22
290.90	2381.79
291.11	2052.06
291.33	2285.53
291.54	2068.45
291.76	2086.88
291.97	2246.62
292.18	2271.20
292.40	2146.27
292.61	2121.70
292.83	2373.60
293.04	2248.67
293.26	2172.89
293.47	2133.98
293.69	2004.96
293.90	2099.17
294.12	2310.11
294.33	2160.61
294.55	2185.18
294.76	2236.38
294.97	2277.34
295.19	2379.74
295.40	2220.00
295.62	2226.14
295.83	2359.26
296.05	2131.94
296.26	2293.72
296.48	2129.89
296.69	2142.18
296.90	2181.09
297.12	2211.81
297.33	2281.44
297.55	2117.60
297.76	2267.10
297.98	2193.37
298.19	2140.13
298.41	2146.27
298.62	2152.42
298.83	2297.82
299.05	2263.01
299.26	2138.08
299.48	2041.82
299.69	2312.16
299.90	2162.66
300.12	2142.18
300.33	2293.72
300.55	2211.81
300.76	2170.85
300.98	2117.60
301.19	2244.57
301.40	2162.66
301.62	2158.56
301.83	2285.53
302.05	2258.91
302.26	2170.85
302.47	2248.67
302.69	2109.41
302.90	2267.10
303.12	2043.87
303.33	2240.48
303.54	2357.21
303.76	2154.46
303.97	2209.76
304.19	2367.45
304.40	2095.07
304.61	2291.68
304.83	2369.50
305.04	2277.34
305.26	2351.07
305.47	2201.57
305.68	2183.13
305.90	2086.88
306.11	2295.77
306.33	2226.14
306.54	2113.50
306.75	2140.13
306.97	2121.70
307.18	2125.79
307.39	2136.03
307.61	2215.90
307.82	2211.81
308.04	2238.43
308.25	2121.70
308.46	2234.33
308.68	2168.80
308.89	2193.37
309.10	2265.05
309.32	2281.44
309.53	2213.85
309.74	2240.48
309.96	2174.94
310.17	2340.83
310.39	2195.42
310.60	2238.43
310.81	2215.90
311.03	2121.70
311.24	2232.29
311.45	2232.29
311.67	2365.40
311.88	2125.79
312.09	2105.31
312.31	2043.87
312.52	2176.99
312.73	2166.75
312.95	2035.68
313.16	2113.50
313.37	2367.45
313.59	2205.66
313.80	2303.96
314.01	2392.03
314.23	2158.56
314.44	2105.31
314.65	2146.27
314.87	2095.07
315.08	2129.89
315.29	2158.56
315.51	2068.45
315.72	2058.21
315.93	2308.06
316.15	2269.15
316.36	2220.00
316.57	2260.96
316.79	2207.71
317.00	2224.09
317.21	2234.33
317.43	2172.89
317.64	2193.37
317.85	2109.41
318.07	2209.76
318.28	2152.42
318.49	2344.92
318.70	2537.43
318.92	2371.55
319.13	2394.08
319.34	2330.59
319.56	2209.76
319.77	2342.88
319.98	2334.68
320.20	2355.16
320.41	2301.92
320.62	2285.53
320.83	2140.13
321.05	2365.40
321.26	2215.90
321.47	2191.33
321.69	2357.21
321.90	2174.94
322.11	2168.80
322.32	2301.92
322.54	2355.16
322.75	2136.03
322.96	2469.85
323.18	2052.06
323.39	2056.16
323.60	2086.88
323.81	2226.14
324.03	2127.84
324.24	2127.84
324.45	2242.53
324.66	2193.37
324.88	2293.72
325.09	2326.49
325.30	2121.70
325.52	2127.84
325.73	2234.33
325.94	2052.06
326.15	2047.97
326.37	2064.35
326.58	2236.38
326.79	2334.68
327.00	2080.74
327.22	2232.29
327.43	2133.98
327.64	2123.74
327.85	2246.62
328.07	2207.71
328.28	2332.64
328.49	2129.89
328.70	2140.13
328.92	2166.75
329.13	2154.46
329.34	2242.53
329.55	2404.32
329.76	2273.25
329.98	2189.28
330.19	2252.77
330.40	2205.66
330.61	2215.90
330.83	2301.92
331.04	2185.18
331.25	2236.38
331.46	2097.12
331.68	2035.68
331.89	2359.26
332.10	2217.95
332.31	2011.11
332.52	2220.00
332.74	2389.98
332.95	2043.87
333.16	2158.56
333.37	2209.76
333.58	2138.08
333.80	2248.67
334.01	2136.03
334.22	2174.94
334.43	2185.18
334.64	2117.60
334.86	2125.79
335.07	2144.22
335.28	2291.68
335.49	2064.35
335.70	2263.01
335.92	2334.68
336.13	2416.60
336.34	2236.38
336.55	2170.85
336.76	2230.24
336.98	2121.70
337.19	2136.03
337.40	2220.00
337.61	2383.84
337.82	2150.37
338.04	2238.43
338.25	2000.87
338.46	2183.13
338.67	2090.98
338.88	2109.41
339.09	2078.69
339.31	2111.46
339.52	2088.93
339.73	2054.11
339.94	2099.17
340.15	2357.21
340.36	2121.70
340.58	2140.13
340.79	2060.26
341.00	2162.66
341.21	2041.82
341.42	2342.88
341.63	2158.56
341.85	2277.34
342.06	2187.23
342.27	2117.60
342.48	2301.92
342.69	1982.43
342.90	2236.38
343.12	2279.39
343.33	2189.28
343.54	2344.92
343.75	2289.63
343.96	2179.04
344.17	2086.88
344.38	2152.42
344.60	2168.80
344.81	2144.22
345.02	2170.85
345.23	2263.01
345.44	2375.64
345.65	2234.33
345.86	2265.05
346.07	2174.94
346.29	2084.83
346.50	2224.09
346.71	2236.38
346.92	2277.34
347.13	2453.47
347.34	2109.41
347.55	2097.12
347.76	2168.80
347.98	2045.92
348.19	2275.29
348.40	2273.25
348.61	2201.57
348.82	2322.40
349.03	2232.29
349.24	2103.26
349.45	2439.13
349.66	1972.19
349.88	2220.00
350.09	2076.64
350.30	2306.01
350.51	2224.09
350.72	2269.15
350.93	2226.14
351.14	2138.08
351.35	2252.77
351.56	2154.46
351.77	2170.85
351.99	2310.11
352.20	2326.49
352.41	2306.01
352.62	2007.01
352.83	2215.90
353.04	2185.18
353.25	2154.46
353.46	2256.86
353.67	2293.72
353.88	2004.96
354.09	2138.08
354.30	2115.55
354.52	2248.67
354.73	2195.42
354.94	2183.13
355.15	2133.98
355.36	2324.44
355.57	2097.12
355.78	2179.04
355.99	2078.69
356.20	2133.98
356.41	2316.25
356.62	2217.95
356.83	2211.81
357.04	2353.12
357.25	2015.20
357.46	2179.04
357.68	2043.87
357.89	2099.17
358.10	2181.09
358.31	2258.91
358.52	2115.55
358.73	2068.45
358.94	2136.03
359.15	2129.89
359.36	2232.29
359.57	2215.90
359.78	2213.85
359.99	2285.53
360.20	2125.79
360.41	2129.89
360.62	2236.38
360.83	2217.95
361.04	2136.03
361.25	2142.18
361.46	2357.21
361.67	2306.01
361.88	2260.96
362.09	2326.49
362.30	2238.43
362.51	2113.50
362.72	2199.52
362.93	2301.92
363.14	2252.77
363.35	2090.98
363.56	2144.22
363.78	2346.97
363.99	2273.25
364.20	2103.26
364.41	2146.27
364.62	2389.98
364.83	2254.81
365.04	2152.42
365.25	2183.13
365.46	2351.07
365.67	2164.70
365.88	2230.24
366.09	2162.66
366.30	2148.32
366.51	2158.56
366.72	2062.30
366.93	2133.98
367.14	2197.47
367.35	2256.86
367.56	2201.57
367.77	2355.16
367.98	2170.85
368.18	2164.70
368.39	2244.57
368.60	2097.12
368.81	2326.49
369.02	2211.81
369.23	2279.39
369.44	2101.22
369.65	2174.94
369.86	2179.04
370.07	2277.34
370.28	2086.88
370.49	2293.72
370.70	2250.72
370.91	2156.51
371.12	2068.45
371.33	2377.69
371.54	2062.30
371.75	2283.49
371.96	1998.82
372.17	2224.09
372.38	2127.84
372.59	2246.62
372.80	2166.75
373.01	2211.81
373.22	2211.81
373.43	2156.51
373.64	2045.92
373.85	2357.21
374.06	2410.46
374.26	2285.53
374.47	2191.33
374.68	2365.40
374.89	2199.52
375.10	2185.18
375.31	2236.38
375.52	2179.04
375.73	2375.64
375.94	2136.03
376.15	2334.68
376.36	2121.70
376.57	2174.94
376.78	2183.13
376.99	2170.85
377.20	2281.44
377.40	2183.13
377.61	2428.89
377.82	2105.31
378.03	2387.93
378.24	2267.10
378.45	2170.85
378.66	2265.05
378.87	2103.26
379.08	2060.26
379.29	2158.56
379.50	2269.15
379.71	2142.18
379.91	2236.38
380.12	2179.04
380.33	2203.61
380.54	2199.52
380.75	2166.75
380.96	2133.98
381.17	2265.05
381.38	2189.28
381.59	2203.61
381.80	2189.28
382.00	2387.93
382.21	2316.25
382.42	2365.40
382.63	2465.75
382.84	2271.20
383.05	2277.34
383.26	2418.65
383.47	2244.57
383.68	2246.62
383.88	2310.11
384.09	2203.61
384.30	2295.77
384.51	2154.46
384.72	2121.70
384.93	2162.66
385.14	2191.33
385.35	2252.77
385.55	2105.31
385.76	2310.11
385.97	2148.32
386.18	2047.97
386.39	2129.89
386.60	2170.85
386.81	2179.04
387.02	2105.31
387.22	2076.64
387.43	2289.63
387.64	2260.96
387.85	2383.84
388.06	2422.75
388.27	4132.80
388.48	8535.93
388.68	12277.57
388.89	14737.18
389.10	15857.42
389.31	14298.92
389.52	11456.34
389.73	9883.50
389.93	9058.17
390.14	8224.64
390.35	7284.62
390.56	6598.56
390.77	5425.07
390.98	4259.78
391.18	3243.98
391.39	2748.37
391.60	2379.74
391.81	2398.17
392.02	2187.23
392.23	2422.75
392.43	2308.06
392.64	2244.57
392.85	2236.38
393.06	2332.64
393.27	2189.28
393.47	2041.82
393.68	2250.72
393.89	2185.18
394.10	2287.58
394.31	2179.04
394.52	2080.74
394.72	2133.98
394.93	2340.83
395.14	2093.02
395.35	2230.24
395.56	2176.99
395.76	2244.57
395.97	2318.30
396.18	2351.07
396.39	2252.77
396.60	2736.09
396.80	2506.71
397.01	2281.44
397.22	2322.40
397.43	2346.97
397.64	2250.72
397.84	2318.30
398.05	2359.26
398.26	2185.18
398.47	2289.63
398.67	2375.64
398.88	2191.33
399.09	2277.34
399.30	2201.57
399.51	2201.57
399.71	2107.36
399.92	2170.85
400.13	2236.38
400.34	2119.65
400.54	2215.90
400.75	2404.32
400.96	2203.61
401.17	2332.64
401.37	2287.58
401.58	2236.38
401.79	2248.67
402.00	2283.49
402.21	2527.19
402.41	2469.85
402.62	2609.11
402.83	2721.75
403.04	2645.98
403.24	2842.58
403.45	2383.84
403.66	2478.04
403.87	2494.43
404.07	2416.60
404.28	2445.27
404.49	2420.70
404.70	2265.05
404.90	2295.77
405.11	2211.81
405.32	2244.57
405.52	2138.08
405.73	2131.94
405.94	2146.27
406.15	2236.38
406.35	2240.48
406.56	2224.09
406.77	2228.19
406.98	2238.43
407.18	2148.32
407.39	2324.44
407.60	2248.67
407.80	2240.48
408.01	2119.65
408.22	2193.37
408.43	2148.32
408.63	2238.43
408.84	2232.29
409.05	2334.68
409.25	2166.75
409.46	2064.35
409.67	2293.72
409.88	2133.98
410.08	2211.81
410.29	2129.89
410.50	2228.19
410.70	2242.53
410.91	2146.27
411.12	2246.62
411.32	2150.37
411.53	2166.75
411.74	2342.88
411.95	2240.48
412.15	2357.21
412.36	2334.68
412.57	2285.53
412.77	2273.25
412.98	2209.76
413.19	2213.85
413.39	2256.86
413.60	2301.92
413.81	2396.12
414.01	2129.89
414.22	2197.47
414.43	2322.40
414.63	2086.88
414.84	2310.11
415.05	2183.13
415.25	2052.06
415.46	2242.53
415.67	2226.14
415.87	2189.28
416.08	2224.09
416.29	2193.37
416.49	2246.62
416.70	2125.79
416.91	2217.95
417.11	2154.46
417.32	2295.77
417.53	2295.77
417.73	2250.72
417.94	2211.81
418.15	2242.53
418.35	2127.84
418.56	2254.81
418.77	2453.47
418.97	2228.19
419.18	2113.50
419.38	1998.82
419.59	2224.09
419.80	2404.32
420.00	2101.22
420.21	2209.76
420.42	2322.40
420.62	2213.85
420.83	2064.35
421.04	2170.85
421.24	2185.18
421.45	2260.96
421.65	2201.57
421.86	2179.04
422.07	2301.92
422.27	2242.53
422.48	2156.51
422.69	2047.97
422.89	2158.56
423.10	2170.85
423.30	2064.35
423.51	2197.47
423.72	2318.30
423.92	2195.42
424.13	2070.50
424.33	2199.52
424.54	2273.25
424.75	2164.70
424.95	2389.98
425.16	2236.38
425.36	2121.70
425.57	2269.15
425.78	2197.47
425.98	2281.44
426.19	2142.18
426.39	2133.98
426.60	2236.38
426.81	2289.63
427.01	2209.76
427.22	2078.69
427.42	2113.50
427.63	2183.13
427.83	2328.54
428.04	2408.41
428.25	2269.15
428.45	2295.77
428.66	2269.15
428.86	2179.04
429.07	2144.22
429.28	2179.04
429.48	2119.65
429.69	2117.60
429.89	2187.23
430.10	2033.63
430.30	2308.06
430.51	2310.11
430.71	2209.76
430.92	2246.62
431.13	2166.75
431.33	2310.11
431.54	2226.14
431.74	2291.68
431.95	2455.51
432.15	2136.03
432.36	2211.81
432.56	2224.09
432.77	2418.65
432.98	2394.08
433.18	2236.38
433.39	2205.66
433.59	2205.66
433.80	2396.12
434.00	2426.84
434.21	2140.13
434.41	2084.83
434.62	2428.89
434.82	2088.93
435.03	2105.31
435.23	2236.38
435.44	2068.45
435.64	2213.85
435.85	2195.42
436.06	2318.30
436.26	2312.16
436.47	2148.32
436.67	2156.51
436.88	2220.00
437.08	2232.29
437.29	2365.40
437.49	2248.67
437.70	2258.91
437.90	2244.57
438.11	2316.25
438.31	2273.25
438.52	2318.30
438.72	2387.93
438.93	2410.46
439.13	2250.72
439.34	2396.12
439.54	2248.67
439.75	2260.96
439.95	2314.20
440.16	2113.50
440.36	2238.43
440.57	2279.39
440.77	2226.14
440.98	2211.81
441.18	2248.67
441.39	2123.74
441.59	2058.21
441.80	2336.73
442.00	2179.04
442.21	2299.87
442.41	2117.60
442.62	2310.11
442.82	2168.80
443.02	2226.14
443.23	2299.87
443.43	2189.28
443.64	2308.06
443.84	2166.75
444.05	2314.20
444.25	2267.10
444.46	2162.66
444.66	2242.53
444.87	2355.16
445.07	2007.01
445.28	2215.90
445.48	2326.49
445.69	2320.35
445.89	2457.56
446.09	2162.66
446.30	2514.91
446.50	2772.95
446.71	4374.46
446.91	5531.56
447.12	6471.58
447.32	6807.45
447.53	6258.59
447.73	5148.59
447.93	4517.82
448.14	4249.54
448.34	4061.12
448.55	3702.73
448.75	3596.23
448.96	3385.29
449.16	3022.80
449.36	2836.44
449.57	2570.20
449.77	2392.03
449.98	2215.90
450.18	2301.92
450.39	2316.25
450.59	2220.00
450.79	2199.52
451.00	2090.98
451.20	2285.53
451.41	2224.09
451.61	2226.14
451.81	2183.13
452.02	2162.66
452.22	2170.85
452.43	2183.13
452.63	2111.46
