SpectraSuite Data File
++++++++++++++++++++++++++++++++++++
Date: Thu May 05 12:35:20 CEST 2016
User: root
Dark Spectrum Present: No
Reference Spectrum Present: No
Number of Sampled Component Spectra: 1
Spectrometers: USB4C02835
Integration Time (usec): 100000 (USB4C02835)
Spectra Averaged: 1 (USB4C02835)
Boxcar Smoothing: 0 (USB4C02835)
Correct for Electrical Dark: No (USB4C02835)
Strobe/Lamp Enabled: No (USB4C02835)
Correct for Detector Non-linearity: No (USB4C02835)
Correct for Stray Light: No (USB4C02835)
Number of Pixels in Processed Spectrum: 3648
>>>>>Begin Processed Spectral Data<<<<<
177.47	1751.01
177.69	1751.01
177.91	1751.01
178.13	1755.11
178.36	1716.20
178.58	2103.26
178.80	2213.85
179.02	2064.35
179.24	2181.09
179.46	2088.93
179.68	2146.27
179.90	2160.61
180.13	2250.72
180.35	2076.64
180.57	2103.26
180.79	2260.96
181.01	2127.84
181.23	2146.27
181.45	2267.10
181.67	2209.76
181.90	2291.68
182.12	2113.50
182.34	2039.78
182.56	2267.10
182.78	2250.72
183.00	2119.65
183.22	2168.80
183.44	2029.54
183.66	2418.65
183.89	2238.43
184.11	2160.61
184.33	2265.05
184.55	2324.44
184.77	2131.94
184.99	2109.41
185.21	2166.75
185.43	2389.98
185.65	2136.03
185.87	2113.50
186.10	2418.65
186.32	2424.80
186.54	2170.85
186.76	2187.23
186.98	2215.90
187.20	2191.33
187.42	2072.54
187.64	2150.37
187.86	2224.09
188.08	2340.83
188.30	2068.45
188.52	2138.08
188.75	2326.49
188.97	2338.78
189.19	2111.46
189.41	2095.07
189.63	2260.96
189.85	2080.74
190.07	2103.26
190.29	2045.92
190.51	2205.66
190.73	2117.60
190.95	2240.48
191.17	2197.47
191.39	2064.35
191.61	2150.37
191.84	2125.79
192.06	2174.94
192.28	2056.16
192.50	2445.27
192.72	2164.70
192.94	2117.60
193.16	2281.44
193.38	2238.43
193.60	2125.79
193.82	2152.42
194.04	2310.11
194.26	2193.37
194.48	2129.89
194.70	2105.31
194.92	2209.76
195.14	2260.96
195.36	2125.79
195.58	2203.61
195.80	2117.60
196.02	2090.98
196.24	2105.31
196.46	2131.94
196.69	2146.27
196.91	2365.40
197.13	2054.11
197.35	2070.50
197.57	2330.59
197.79	2267.10
198.01	2121.70
198.23	2154.46
198.45	2191.33
198.67	2062.30
198.89	2054.11
199.11	2193.37
199.33	2197.47
199.55	1986.53
199.77	2099.17
199.99	2267.10
200.21	2121.70
200.43	2187.23
200.65	2078.69
200.87	2047.97
201.09	2121.70
201.31	2168.80
201.53	2203.61
201.75	2080.74
201.97	2234.33
202.19	2162.66
202.41	2193.37
202.63	2265.05
202.85	2281.44
203.07	2119.65
203.29	2011.11
203.51	1990.63
203.73	2086.88
203.95	2473.95
204.17	2209.76
204.39	2191.33
204.61	2187.23
204.83	2136.03
205.05	2203.61
205.27	2215.90
205.49	2463.71
205.71	2160.61
205.93	2101.22
206.15	2115.55
206.37	2162.66
206.59	2211.81
206.81	2070.50
207.03	2027.49
207.25	2150.37
207.47	2258.91
207.69	2056.16
207.91	2332.64
208.13	2250.72
208.34	2136.03
208.56	2023.39
208.78	2146.27
209.00	2138.08
209.22	2152.42
209.44	2144.22
209.66	2101.22
209.88	2230.24
210.10	2127.84
210.32	2160.61
210.54	2252.77
210.76	2146.27
210.98	2263.01
211.20	2019.30
211.42	2152.42
211.64	2310.11
211.86	2260.96
212.08	2197.47
212.30	2217.95
212.52	2191.33
212.74	2201.57
212.96	2164.70
213.17	2162.66
213.39	2197.47
213.61	2353.12
213.83	2168.80
214.05	2211.81
214.27	2285.53
214.49	2136.03
214.71	2150.37
214.93	2201.57
215.15	2267.10
215.37	2281.44
215.59	2004.96
215.81	2152.42
216.03	2342.88
216.24	2170.85
216.46	2129.89
216.68	2154.46
216.90	2260.96
217.12	2203.61
217.34	2148.32
217.56	2228.19
217.78	2349.02
218.00	2240.48
218.22	2121.70
218.44	2228.19
218.66	2250.72
218.87	2336.73
219.09	2144.22
219.31	2160.61
219.53	2181.09
219.75	2166.75
219.97	2105.31
220.19	2154.46
220.41	2187.23
220.63	2387.93
220.85	2125.79
221.06	2050.02
221.28	2277.34
221.50	2203.61
221.72	2103.26
221.94	2084.83
222.16	2277.34
222.38	2258.91
222.60	2162.66
222.82	2064.35
223.03	2291.68
223.25	2086.88
223.47	2252.77
223.69	2310.11
223.91	2267.10
224.13	2193.37
224.35	2070.50
224.57	2244.57
224.78	2185.18
225.00	2107.36
225.22	2127.84
225.44	2072.54
225.66	2293.72
225.88	2101.22
226.10	2156.51
226.32	2111.46
226.53	2306.01
226.75	2211.81
226.97	2144.22
227.19	2127.84
227.41	2121.70
227.63	2166.75
227.85	2039.78
228.06	2101.22
228.28	2224.09
228.50	2275.29
228.72	2007.01
228.94	2039.78
229.16	1998.82
229.37	2103.26
229.59	2129.89
229.81	2246.62
230.03	2267.10
230.25	2113.50
230.47	2064.35
230.69	2054.11
230.90	2256.86
231.12	2086.88
231.34	2228.19
231.56	2205.66
231.78	2146.27
232.00	2228.19
232.21	2172.89
232.43	2039.78
232.65	1990.63
232.87	2260.96
233.09	2031.58
233.30	2136.03
233.52	2275.29
233.74	2183.13
233.96	2185.18
234.18	2136.03
234.40	2154.46
234.61	2408.41
234.83	2011.11
235.05	2056.16
235.27	2369.50
235.49	2220.00
235.70	2095.07
235.92	2256.86
236.14	2289.63
236.36	2437.08
236.58	2035.68
236.79	2203.61
237.01	2144.22
237.23	2181.09
237.45	2297.82
237.67	2076.64
237.88	2256.86
238.10	2336.73
238.32	2111.46
238.54	2101.22
238.76	2111.46
238.97	2170.85
239.19	2074.59
239.41	2314.20
239.63	2351.07
239.85	2146.27
240.06	2109.41
240.28	2060.26
240.50	2285.53
240.72	2248.67
240.93	2142.18
241.15	2242.53
241.37	2152.42
241.59	2346.97
241.81	2029.54
242.02	2174.94
242.24	2207.71
242.46	2263.01
242.68	2023.39
242.89	2154.46
243.11	2297.82
243.33	2224.09
243.55	2197.47
243.76	2166.75
243.98	2129.89
244.20	2232.29
244.42	2090.98
244.64	2191.33
244.85	2056.16
245.07	2086.88
245.29	2121.70
245.51	2115.55
245.72	2193.37
245.94	2285.53
246.16	2248.67
246.38	2107.36
246.59	2123.74
246.81	2127.84
247.03	2082.78
247.24	1978.34
247.46	2224.09
247.68	2254.81
247.90	2117.60
248.11	2133.98
248.33	2306.01
248.55	2181.09
248.77	2203.61
248.98	2224.09
249.20	2326.49
249.42	2238.43
249.64	2142.18
249.85	2113.50
250.07	2072.54
250.29	2299.87
250.50	2195.42
250.72	2097.12
250.94	2129.89
251.16	2314.20
251.37	2158.56
251.59	2166.75
251.81	2242.53
252.02	2316.25
252.24	2056.16
252.46	2176.99
252.68	2138.08
252.89	2160.61
253.11	2007.01
253.33	2215.90
253.54	2351.07
253.76	2027.49
253.98	2105.31
254.20	2066.40
254.41	2029.54
254.63	2154.46
254.85	2093.02
255.06	2111.46
255.28	2314.20
255.50	2209.76
255.71	2201.57
255.93	2068.45
256.15	2301.92
256.36	2209.76
256.58	2080.74
256.80	2066.40
257.02	2211.81
257.23	2136.03
257.45	2168.80
257.67	2166.75
257.88	2043.87
258.10	2203.61
258.32	2160.61
258.53	2162.66
258.75	2338.78
258.97	2111.46
259.18	2088.93
259.40	2170.85
259.62	2406.36
259.83	2277.34
260.05	2162.66
260.27	2566.10
260.48	2351.07
260.70	2080.74
260.92	2095.07
261.13	2201.57
261.35	2176.99
261.57	2199.52
261.78	2004.96
262.00	2093.02
262.22	2244.57
262.43	2099.17
262.65	2146.27
262.86	2213.85
263.08	2463.71
263.30	2224.09
263.51	1982.43
263.73	2099.17
263.95	2306.01
264.16	2070.50
264.38	2097.12
264.60	2191.33
264.81	2220.00
265.03	2299.87
265.25	2297.82
265.46	2127.84
265.68	2394.08
265.89	2230.24
266.11	1978.34
266.33	2185.18
266.54	2291.68
266.76	2248.67
266.98	2209.76
267.19	2181.09
267.41	2303.96
267.62	2099.17
267.84	2002.91
268.06	2211.81
268.27	2121.70
268.49	2244.57
268.70	2195.42
268.92	2138.08
269.14	2062.30
269.35	1968.10
269.57	2176.99
269.79	2234.33
270.00	2133.98
270.22	2318.30
270.43	2140.13
270.65	2002.91
270.87	2156.51
271.08	2246.62
271.30	2146.27
271.51	2099.17
271.73	2242.53
271.95	2246.62
272.16	2123.74
272.38	2179.04
272.59	2119.65
272.81	2244.57
273.02	2095.07
273.24	2146.27
273.46	2306.01
273.67	2097.12
273.89	2043.87
274.10	2127.84
274.32	2340.83
274.54	2183.13
274.75	2152.42
274.97	2154.46
275.18	2342.88
275.40	2256.86
275.61	2129.89
275.83	2220.00
276.05	2109.41
276.26	2220.00
276.48	2166.75
276.69	2195.42
276.91	2170.85
277.12	2330.59
277.34	2168.80
277.55	2291.68
277.77	2258.91
277.99	2203.61
278.20	2088.93
278.42	2052.06
278.63	2093.02
278.85	2136.03
279.06	2004.96
279.28	2281.44
279.49	2285.53
279.71	2283.49
279.93	2252.77
280.14	2133.98
280.36	2109.41
280.57	2265.05
280.79	2275.29
281.00	2007.01
281.22	2203.61
281.43	2303.96
281.65	2025.44
281.86	2111.46
282.08	2193.37
282.29	2334.68
282.51	2056.16
282.73	2144.22
282.94	2037.73
283.16	2291.68
283.37	2258.91
283.59	2211.81
283.80	2258.91
284.02	2228.19
284.23	2203.61
284.45	2136.03
284.66	2090.98
284.88	2144.22
285.09	2156.51
285.31	2293.72
285.52	2250.72
285.74	2123.74
285.95	2250.72
286.17	2254.81
286.38	2285.53
286.60	2113.50
286.81	2138.08
287.03	2113.50
287.24	2158.56
287.46	2279.39
287.67	2179.04
287.89	2363.36
288.10	2199.52
288.32	2181.09
288.53	2334.68
288.75	2152.42
288.96	2269.15
289.18	2115.55
289.39	2195.42
289.61	2224.09
289.82	2400.22
290.04	2416.60
290.25	2074.59
290.47	2101.22
290.68	2179.04
290.90	2299.87
291.11	2080.74
291.33	2220.00
291.54	2179.04
291.76	2131.94
291.97	2195.42
292.18	2179.04
292.40	2140.13
292.61	2181.09
292.83	2402.27
293.04	2217.95
293.26	2228.19
293.47	2152.42
293.69	2080.74
293.90	2125.79
294.12	2250.72
294.33	2152.42
294.55	2201.57
294.76	2236.38
294.97	2404.32
295.19	2355.16
295.40	2131.94
295.62	2201.57
295.83	2285.53
296.05	2054.11
296.26	2230.24
296.48	2205.66
296.69	2207.71
296.90	2045.92
297.12	2299.87
297.33	2224.09
297.55	2211.81
297.76	2277.34
297.98	2193.37
298.19	2154.46
298.41	2211.81
298.62	2088.93
298.83	2316.25
299.05	2191.33
299.26	2146.27
299.48	2166.75
299.69	2222.05
299.90	2136.03
300.12	2162.66
300.33	2252.77
300.55	2236.38
300.76	2283.49
300.98	2123.74
301.19	2271.20
301.40	2154.46
301.62	2191.33
301.83	2226.14
302.05	2209.76
302.26	2144.22
302.47	2164.70
302.69	2076.64
302.90	2183.13
303.12	1920.99
303.33	2256.86
303.54	2398.17
303.76	2127.84
303.97	2207.71
304.19	2226.14
304.40	2121.70
304.61	2269.15
304.83	2351.07
305.04	2236.38
305.26	2258.91
305.47	2158.56
305.68	2195.42
305.90	2158.56
306.11	2277.34
306.33	2224.09
306.54	2119.65
306.75	2185.18
306.97	2090.98
307.18	2066.40
307.39	2086.88
307.61	2222.05
307.82	2179.04
308.04	2217.95
308.25	2097.12
308.46	2275.29
308.68	2123.74
308.89	2199.52
309.10	2254.81
309.32	2248.67
309.53	2213.85
309.74	2242.53
309.96	2133.98
310.17	2295.77
310.39	2154.46
310.60	2355.16
310.81	2189.28
311.03	2066.40
311.24	2228.19
311.45	2136.03
311.67	2269.15
311.88	2217.95
312.09	2138.08
312.31	2109.41
312.52	2152.42
312.73	2191.33
312.95	2043.87
313.16	2093.02
313.37	2359.26
313.59	2242.53
313.80	2324.44
314.01	2299.87
314.23	2160.61
314.44	2086.88
314.65	2154.46
314.87	2142.18
315.08	2162.66
315.29	2109.41
315.51	2129.89
315.72	2078.69
315.93	2351.07
316.15	2318.30
316.36	2179.04
316.57	2215.90
316.79	2273.25
317.00	2131.94
317.21	2236.38
317.43	2144.22
317.64	2201.57
317.85	2119.65
318.07	2148.32
318.28	2232.29
318.49	2260.96
318.70	2514.91
318.92	2482.14
319.13	2416.60
319.34	2398.17
319.56	2306.01
319.77	2324.44
319.98	2295.77
320.20	2299.87
320.41	2301.92
320.62	2308.06
320.83	2111.46
321.05	2353.12
321.26	2205.66
321.47	2260.96
321.69	2238.43
321.90	2060.26
322.11	2174.94
322.32	2224.09
322.54	2365.40
322.75	2127.84
322.96	2488.28
323.18	2021.35
323.39	2056.16
323.60	2158.56
323.81	2211.81
324.03	2164.70
324.24	2275.29
324.45	2215.90
324.66	2095.07
324.88	2314.20
325.09	2301.92
325.30	2181.09
325.52	2211.81
325.73	2158.56
325.94	2160.61
326.15	2076.64
326.37	2123.74
326.58	2340.83
326.79	2297.82
327.00	2142.18
327.22	2201.57
327.43	2140.13
327.64	2113.50
327.85	2244.57
328.07	2164.70
328.28	2328.54
328.49	2142.18
328.70	2115.55
328.92	2162.66
329.13	2176.99
329.34	2220.00
329.55	2318.30
329.76	2258.91
329.98	2244.57
330.19	2351.07
330.40	2236.38
330.61	2238.43
330.83	2252.77
331.04	2082.78
331.25	2201.57
331.46	2168.80
331.68	2181.09
331.89	2291.68
332.10	2164.70
332.31	2035.68
332.52	2154.46
332.74	2336.73
332.95	2045.92
333.16	2256.86
333.37	2312.16
333.58	2203.61
333.80	2209.76
334.01	2017.25
334.22	2197.47
334.43	2156.51
334.64	2189.28
334.86	2103.26
335.07	2080.74
335.28	2424.80
335.49	2136.03
335.70	2160.61
335.92	2340.83
336.13	2441.18
336.34	2201.57
336.55	2217.95
336.76	2277.34
336.98	2052.06
337.19	2232.29
337.40	2316.25
337.61	2394.08
337.82	2207.71
338.04	2275.29
338.25	2035.68
338.46	2236.38
338.67	2201.57
338.88	2041.82
339.09	2097.12
339.31	2127.84
339.52	2082.78
339.73	2068.45
339.94	2224.09
340.15	2267.10
340.36	2129.89
340.58	2179.04
340.79	2117.60
341.00	2281.44
341.21	2086.88
341.42	2299.87
341.63	2205.66
341.85	2277.34
342.06	2232.29
342.27	2129.89
342.48	2236.38
342.69	2052.06
342.90	2226.14
343.12	2236.38
343.33	2138.08
343.54	2213.85
343.75	2283.49
343.96	2164.70
344.17	2080.74
344.38	2189.28
344.60	2011.11
344.81	2043.87
345.02	2203.61
345.23	2248.67
345.44	2437.08
345.65	2228.19
345.86	2248.67
346.07	2199.52
346.29	2133.98
346.50	2209.76
346.71	2256.86
346.92	2301.92
347.13	2406.36
347.34	2197.47
347.55	2105.31
347.76	2195.42
347.98	2080.74
348.19	2119.65
348.40	2340.83
348.61	2170.85
348.82	2385.88
349.03	2297.82
349.24	2113.50
349.45	2349.02
349.66	2013.15
349.88	2148.32
350.09	2066.40
350.30	2318.30
350.51	2312.16
350.72	2187.23
350.93	2181.09
351.14	2109.41
351.35	2252.77
351.56	2187.23
351.77	2168.80
351.99	2250.72
352.20	2334.68
352.41	2344.92
352.62	1951.71
352.83	2183.13
353.04	2164.70
353.25	2133.98
353.46	2297.82
353.67	2283.49
353.88	2052.06
354.09	2121.70
354.30	2142.18
354.52	2248.67
354.73	2232.29
354.94	2045.92
355.15	2166.75
355.36	2406.36
355.57	2115.55
355.78	2205.66
355.99	2172.89
356.20	2142.18
356.41	2252.77
356.62	2246.62
356.83	2201.57
357.04	2340.83
357.25	1966.05
357.46	2064.35
357.68	2039.78
357.89	2095.07
358.10	2168.80
358.31	2154.46
358.52	2226.14
358.73	2095.07
358.94	2117.60
359.15	2084.83
359.36	2240.48
359.57	2154.46
359.78	2154.46
359.99	2314.20
360.20	2113.50
360.41	2119.65
360.62	2267.10
360.83	2148.32
361.04	2148.32
361.25	2152.42
361.46	2369.50
361.67	2312.16
361.88	2220.00
362.09	2263.01
362.30	2109.41
362.51	2199.52
362.72	2220.00
362.93	2242.53
363.14	2297.82
363.35	2230.24
363.56	2113.50
363.78	2244.57
363.99	2205.66
364.20	2060.26
364.41	2168.80
364.62	2389.98
364.83	2234.33
365.04	2226.14
365.25	2260.96
365.46	2445.27
365.67	2086.88
365.88	2152.42
366.09	2119.65
366.30	2125.79
366.51	2152.42
366.72	2158.56
366.93	2176.99
367.14	2183.13
367.35	2236.38
367.56	2199.52
367.77	2265.05
367.98	2195.42
368.18	2195.42
368.39	2226.14
368.60	2119.65
368.81	2238.43
369.02	2207.71
369.23	2195.42
369.44	2070.50
369.65	2150.37
369.86	2283.49
370.07	2244.57
370.28	2131.94
370.49	2289.63
370.70	2306.01
370.91	2166.75
371.12	2146.27
371.33	2283.49
371.54	2129.89
371.75	2318.30
371.96	1961.95
372.17	2170.85
372.38	2176.99
372.59	2242.53
372.80	2183.13
373.01	2217.95
373.22	2203.61
373.43	2136.03
373.64	2111.46
373.85	2226.14
374.06	2353.12
374.26	2275.29
374.47	2273.25
374.68	2328.54
374.89	2297.82
375.10	2224.09
375.31	2365.40
375.52	2156.51
375.73	2185.18
375.94	2052.06
376.15	2277.34
376.36	2199.52
376.57	2138.08
376.78	2142.18
376.99	2176.99
377.20	2293.72
377.40	2189.28
377.61	2324.44
377.82	2121.70
378.03	2320.35
378.24	2316.25
378.45	2224.09
378.66	2199.52
378.87	2007.01
379.08	1990.63
379.29	2111.46
379.50	2283.49
379.71	2222.05
379.91	2277.34
380.12	2074.59
380.33	2244.57
380.54	2220.00
380.75	2111.46
380.96	2119.65
381.17	2234.33
381.38	2179.04
381.59	2291.68
381.80	2203.61
382.00	2426.84
382.21	2211.81
382.42	2400.22
382.63	2484.19
382.84	2260.96
383.05	2332.64
383.26	2373.60
383.47	2222.05
383.68	2287.58
383.88	2277.34
384.09	2195.42
384.30	2490.33
384.51	2267.10
384.72	2201.57
384.93	2074.59
385.14	2166.75
385.35	2287.58
385.55	2023.39
385.76	2285.53
385.97	2174.94
386.18	2127.84
386.39	2207.71
386.60	2197.47
386.81	2183.13
387.02	2097.12
387.22	2066.40
387.43	2336.73
387.64	2195.42
387.85	2314.20
388.06	2379.74
388.27	4020.16
388.48	8681.34
388.68	12363.59
388.89	14835.49
389.10	15787.79
389.31	14720.80
389.52	11581.26
389.73	9822.06
389.93	9006.97
390.14	8339.33
390.35	7479.18
390.56	6688.67
390.77	5371.82
390.98	4020.16
391.18	3157.97
391.39	2793.43
391.60	2389.98
391.81	2349.02
392.02	2074.59
392.23	2512.86
392.43	2271.20
392.64	2383.84
392.85	2213.85
393.06	2410.46
393.27	2127.84
393.47	2090.98
393.68	2179.04
393.89	2226.14
394.10	2357.21
394.31	2125.79
394.52	2181.09
394.72	2117.60
394.93	2344.92
395.14	2007.01
395.35	2164.70
395.56	2172.89
395.76	2207.71
395.97	2209.76
396.18	2322.40
396.39	2389.98
396.60	2648.02
396.80	2383.84
397.01	2314.20
397.22	2469.85
397.43	2324.44
397.64	2189.28
397.84	2308.06
398.05	2418.65
398.26	2187.23
398.47	2240.48
398.67	2281.44
398.88	2226.14
399.09	2293.72
399.30	2168.80
399.51	2195.42
399.71	2138.08
399.92	2154.46
400.13	2226.14
400.34	2248.67
400.54	2160.61
400.75	2297.82
400.96	2310.11
401.17	2361.31
401.37	2215.90
401.58	2183.13
401.79	2111.46
402.00	2363.36
402.21	2553.82
402.41	2463.71
402.62	2645.98
402.83	2592.73
403.04	2650.07
403.24	2699.22
403.45	2394.08
403.66	2564.06
403.87	2400.22
404.07	2525.15
404.28	2439.13
404.49	2410.46
404.70	2308.06
404.90	2275.29
405.11	2191.33
405.32	2260.96
405.52	2107.36
405.73	2185.18
405.94	2125.79
406.15	2179.04
406.35	2361.31
406.56	2265.05
406.77	2269.15
406.98	2228.19
407.18	2183.13
407.39	2322.40
407.60	2176.99
407.80	2330.59
408.01	2162.66
408.22	2217.95
408.43	2056.16
408.63	2252.77
408.84	2285.53
409.05	2236.38
409.25	2179.04
409.46	2144.22
409.67	2193.37
409.88	2099.17
410.08	2232.29
410.29	2170.85
410.50	2256.86
410.70	2220.00
410.91	2068.45
411.12	2281.44
411.32	2220.00
411.53	2183.13
411.74	2365.40
411.95	2258.91
412.15	2297.82
412.36	2369.50
412.57	2287.58
412.77	2369.50
412.98	2220.00
413.19	2220.00
413.39	2203.61
413.60	2260.96
413.81	2375.64
414.01	2064.35
414.22	2193.37
414.43	2310.11
414.63	2246.62
414.84	2340.83
415.05	2166.75
415.25	2097.12
415.46	2267.10
415.67	2148.32
415.87	2238.43
416.08	2140.13
416.29	2113.50
416.49	2265.05
416.70	2166.75
416.91	2195.42
417.11	2260.96
417.32	2332.64
417.53	2287.58
417.73	2279.39
417.94	2162.66
418.15	2287.58
418.35	2150.37
418.56	2203.61
418.77	2490.33
418.97	2209.76
419.18	2187.23
419.38	2107.36
419.59	2166.75
419.80	2416.60
420.00	2158.56
420.21	2248.67
420.42	2324.44
420.62	2203.61
420.83	2136.03
421.04	2129.89
421.24	2174.94
421.45	2299.87
421.65	2246.62
421.86	2150.37
422.07	2308.06
422.27	2191.33
422.48	2193.37
422.69	2119.65
422.89	2293.72
423.10	2138.08
423.30	2109.41
423.51	2144.22
423.72	2230.24
423.92	2226.14
424.13	2113.50
424.33	2220.00
424.54	2263.01
424.75	2179.04
424.95	2392.03
425.16	2185.18
425.36	2097.12
425.57	2394.08
425.78	2267.10
425.98	2312.16
426.19	2234.33
426.39	2093.02
426.60	2260.96
426.81	2236.38
427.01	2265.05
427.22	2168.80
427.42	1998.82
427.63	2127.84
427.83	2252.77
428.04	2338.78
428.25	2299.87
428.45	2338.78
428.66	2250.72
428.86	2150.37
429.07	2211.81
429.28	2189.28
429.48	2140.13
429.69	2125.79
429.89	2179.04
430.10	2144.22
430.30	2301.92
430.51	2322.40
430.71	2133.98
430.92	2162.66
431.13	2133.98
431.33	2283.49
431.54	2195.42
431.74	2301.92
431.95	2324.44
432.15	2185.18
432.36	2191.33
432.56	2283.49
432.77	2359.26
432.98	2402.27
433.18	2273.25
433.39	2201.57
433.59	2203.61
433.80	2486.23
434.00	2318.30
434.21	2052.06
434.41	2076.64
434.62	2389.98
434.82	2164.70
435.03	2025.44
435.23	2228.19
435.44	2011.11
435.64	2181.09
435.85	2244.57
436.06	2230.24
436.26	2351.07
436.47	2158.56
436.67	2113.50
436.88	2209.76
437.08	2265.05
437.29	2306.01
437.49	2297.82
437.70	2299.87
437.90	2187.23
438.11	2334.68
438.31	2271.20
438.52	2359.26
438.72	2375.64
438.93	2559.96
439.13	2308.06
439.34	2340.83
439.54	2250.72
439.75	2375.64
439.95	2340.83
440.16	2183.13
440.36	2203.61
440.57	2222.05
440.77	2248.67
440.98	2248.67
441.18	2289.63
441.39	2185.18
441.59	2150.37
441.80	2426.84
442.00	2187.23
442.21	2330.59
442.41	2086.88
442.62	2281.44
442.82	2193.37
443.02	2228.19
443.23	2265.05
443.43	2248.67
443.64	2379.74
443.84	2111.46
444.05	2301.92
444.25	2228.19
444.46	2209.76
444.66	2234.33
444.87	2330.59
445.07	2088.93
445.28	2174.94
445.48	2346.97
445.69	2314.20
445.89	2441.18
446.09	2242.53
446.30	2531.29
446.50	2926.55
446.71	4388.80
446.91	5511.08
447.12	6336.42
447.32	6780.82
447.53	6352.80
447.73	5154.74
447.93	4536.25
448.14	4296.64
448.34	4073.41
448.55	3717.06
448.75	3512.27
448.96	3313.61
449.16	2994.13
449.36	2916.31
449.57	2580.44
449.77	2283.49
449.98	2211.81
450.18	2318.30
450.39	2338.78
450.59	2195.42
450.79	2252.77
451.00	2185.18
451.20	2254.81
451.41	2189.28
451.61	2197.47
451.81	2191.33
452.02	2267.10
452.22	2217.95
452.43	2187.23
452.63	2150.37
