SpectraSuite Data File
++++++++++++++++++++++++++++++++++++
Date: Thu May 05 12:35:21 CEST 2016
User: root
Dark Spectrum Present: No
Reference Spectrum Present: No
Number of Sampled Component Spectra: 1
Spectrometers: USB4C02835
Integration Time (usec): 100000 (USB4C02835)
Spectra Averaged: 1 (USB4C02835)
Boxcar Smoothing: 0 (USB4C02835)
Correct for Electrical Dark: No (USB4C02835)
Strobe/Lamp Enabled: No (USB4C02835)
Correct for Detector Non-linearity: No (USB4C02835)
Correct for Stray Light: No (USB4C02835)
Number of Pixels in Processed Spectrum: 3648
>>>>>Begin Processed Spectral Data<<<<<
177.47	1777.64
177.69	1777.64
177.91	1777.64
178.13	1697.77
178.36	1832.93
178.58	2121.70
178.80	2185.18
179.02	2078.69
179.24	2060.26
179.46	2060.26
179.68	2230.24
179.90	2183.13
180.13	2172.89
180.35	2099.17
180.57	2113.50
180.79	2230.24
181.01	2187.23
181.23	2181.09
181.45	2291.68
181.67	2181.09
181.90	2289.63
182.12	2068.45
182.34	1986.53
182.56	2291.68
182.78	2267.10
183.00	2123.74
183.22	2220.00
183.44	2052.06
183.66	2457.56
183.89	2234.33
184.11	2172.89
184.33	2228.19
184.55	2314.20
184.77	2193.37
184.99	2162.66
185.21	2109.41
185.43	2408.41
185.65	2109.41
185.87	2140.13
186.10	2428.89
186.32	2410.46
186.54	2203.61
186.76	2238.43
186.98	2189.28
187.20	2133.98
187.42	2142.18
187.64	2187.23
187.86	2181.09
188.08	2357.21
188.30	2064.35
188.52	2146.27
188.75	2318.30
188.97	2373.60
189.19	2150.37
189.41	2160.61
189.63	2324.44
189.85	2103.26
190.07	2027.49
190.29	2058.21
190.51	2275.29
190.73	2015.20
190.95	2236.38
191.17	2148.32
191.39	2045.92
191.61	2107.36
191.84	2146.27
192.06	2207.71
192.28	2088.93
192.50	2416.60
192.72	2168.80
192.94	2111.46
193.16	2297.82
193.38	2183.13
193.60	2095.07
193.82	2179.04
194.04	2267.10
194.26	2146.27
194.48	2138.08
194.70	2119.65
194.92	2097.12
195.14	2201.57
195.36	2074.59
195.58	2123.74
195.80	2162.66
196.02	2129.89
196.24	2082.78
196.46	2158.56
196.69	2084.83
196.91	2439.13
197.13	2101.22
197.35	2066.40
197.57	2318.30
197.79	2252.77
198.01	2160.61
198.23	2201.57
198.45	2234.33
198.67	2095.07
198.89	2105.31
199.11	2236.38
199.33	2113.50
199.55	1992.67
199.77	2080.74
199.99	2275.29
200.21	2152.42
200.43	2172.89
200.65	2080.74
200.87	2017.25
201.09	2211.81
201.31	2183.13
201.53	2230.24
201.75	2076.64
201.97	2170.85
202.19	2187.23
202.41	2232.29
202.63	2283.49
202.85	2269.15
203.07	2273.25
203.29	2052.06
203.51	2084.83
203.73	2152.42
203.95	2441.18
204.17	2127.84
204.39	2185.18
204.61	2084.83
204.83	2142.18
205.05	2176.99
205.27	2138.08
205.49	2318.30
205.71	2252.77
205.93	2047.97
206.15	2058.21
206.37	2150.37
206.59	2228.19
206.81	2072.54
207.03	2025.44
207.25	2070.50
207.47	2256.86
207.69	2205.66
207.91	2330.59
208.13	2351.07
208.34	2105.31
208.56	2111.46
208.78	2136.03
209.00	2150.37
209.22	2172.89
209.44	2187.23
209.66	2076.64
209.88	2199.52
210.10	2140.13
210.32	2150.37
210.54	2236.38
210.76	2193.37
210.98	2314.20
211.20	1966.05
211.42	2133.98
211.64	2260.96
211.86	2252.77
212.08	2185.18
212.30	2109.41
212.52	2103.26
212.74	2179.04
212.96	2115.55
213.17	2193.37
213.39	2242.53
213.61	2357.21
213.83	2215.90
214.05	2099.17
214.27	2308.06
214.49	2074.59
214.71	2127.84
214.93	2215.90
215.15	2174.94
215.37	2355.16
215.59	2082.78
215.81	2152.42
216.03	2258.91
216.24	2164.70
216.46	2121.70
216.68	2142.18
216.90	2320.35
217.12	2322.40
217.34	2133.98
217.56	2176.99
217.78	2289.63
218.00	2285.53
218.22	2226.14
218.44	2154.46
218.66	2211.81
218.87	2400.22
219.09	2115.55
219.31	2146.27
219.53	2217.95
219.75	2154.46
219.97	2146.27
220.19	2095.07
220.41	2152.42
220.63	2312.16
220.85	2181.09
221.06	2064.35
221.28	2297.82
221.50	2289.63
221.72	2078.69
221.94	2172.89
222.16	2234.33
222.38	2299.87
222.60	2125.79
222.82	2136.03
223.03	2285.53
223.25	2162.66
223.47	2146.27
223.69	2312.16
223.91	2273.25
224.13	2197.47
224.35	2109.41
224.57	2281.44
224.78	2293.72
225.00	2052.06
225.22	2187.23
225.44	2160.61
225.66	2328.54
225.88	2144.22
226.10	2252.77
226.32	2185.18
226.53	2273.25
226.75	2160.61
226.97	2174.94
227.19	2125.79
227.41	2117.60
227.63	2185.18
227.85	1998.82
228.06	2115.55
228.28	2236.38
228.50	2271.20
228.72	2070.50
228.94	2074.59
229.16	1931.23
229.37	2095.07
229.59	2039.78
229.81	2252.77
230.03	2166.75
230.25	2054.11
230.47	2070.50
230.69	2015.20
230.90	2244.57
231.12	2179.04
231.34	2133.98
231.56	2181.09
231.78	2064.35
232.00	2205.66
232.21	2209.76
232.43	2152.42
232.65	1990.63
232.87	2287.58
233.09	2074.59
233.30	2131.94
233.52	2260.96
233.74	2109.41
233.96	2058.21
234.18	2185.18
234.40	2179.04
234.61	2361.31
234.83	2072.54
235.05	1982.43
235.27	2416.60
235.49	2312.16
235.70	2170.85
235.92	2281.44
236.14	2238.43
236.36	2424.80
236.58	2045.92
236.79	2152.42
237.01	2164.70
237.23	2283.49
237.45	2340.83
237.67	2103.26
237.88	2260.96
238.10	2367.45
238.32	2060.26
238.54	2205.66
238.76	2236.38
238.97	2045.92
239.19	2074.59
239.41	2277.34
239.63	2285.53
239.85	2109.41
240.06	2127.84
240.28	2115.55
240.50	2269.15
240.72	2154.46
240.93	2076.64
241.15	2256.86
241.37	2289.63
241.59	2306.01
241.81	2127.84
242.02	2152.42
242.24	2185.18
242.46	2277.34
242.68	2060.26
242.89	2125.79
243.11	2254.81
243.33	2183.13
243.55	2107.36
243.76	2195.42
243.98	2138.08
244.20	2201.57
244.42	2170.85
244.64	2107.36
244.85	2025.44
245.07	2119.65
245.29	2193.37
245.51	2103.26
245.72	2240.48
245.94	2306.01
246.16	2162.66
246.38	2115.55
246.59	2099.17
246.81	2103.26
247.03	2097.12
247.24	2013.15
247.46	2115.55
247.68	2174.94
247.90	2123.74
248.11	2187.23
248.33	2224.09
248.55	2185.18
248.77	2260.96
248.98	2211.81
249.20	2263.01
249.42	2189.28
249.64	2152.42
249.85	2119.65
250.07	2127.84
250.29	2258.91
250.50	2185.18
250.72	2058.21
250.94	2265.05
251.16	2408.41
251.37	2179.04
251.59	2140.13
251.81	2205.66
252.02	2299.87
252.24	2150.37
252.46	2252.77
252.68	2103.26
252.89	2127.84
253.11	1996.77
253.33	2215.90
253.54	2383.84
253.76	2039.78
253.98	2086.88
254.20	2101.22
254.41	2113.50
254.63	2179.04
254.85	1984.48
255.06	2176.99
255.28	2191.33
255.50	2162.66
255.71	2090.98
255.93	2019.30
256.15	2164.70
256.36	2236.38
256.58	2099.17
256.80	2035.68
257.02	2146.27
257.23	2176.99
257.45	2119.65
257.67	2217.95
257.88	2138.08
258.10	2170.85
258.32	2166.75
258.53	2209.76
258.75	2342.88
258.97	2121.70
259.18	2230.24
259.40	2152.42
259.62	2396.12
259.83	2332.64
260.05	2228.19
260.27	2598.87
260.48	2226.14
260.70	2105.31
260.92	2115.55
261.13	2224.09
261.35	2287.58
261.57	2179.04
261.78	2101.22
262.00	2080.74
262.22	2283.49
262.43	2099.17
262.65	2146.27
262.86	2191.33
263.08	2342.88
263.30	2176.99
263.51	2015.20
263.73	2076.64
263.95	2326.49
264.16	2179.04
264.38	2060.26
264.60	2162.66
264.81	2203.61
265.03	2258.91
265.25	2293.72
265.46	2222.05
265.68	2254.81
265.89	2269.15
266.11	2019.30
266.33	2146.27
266.54	2355.16
266.76	2187.23
266.98	2185.18
267.19	2205.66
267.41	2320.35
267.62	2197.47
267.84	2027.49
268.06	2213.85
268.27	2252.77
268.49	2263.01
268.70	2133.98
268.92	2191.33
269.14	2144.22
269.35	2095.07
269.57	2119.65
269.79	2220.00
270.00	2150.37
270.22	2301.92
270.43	2097.12
270.65	2009.06
270.87	2220.00
271.08	2369.50
271.30	2224.09
271.51	2103.26
271.73	2238.43
271.95	2279.39
272.16	2097.12
272.38	2211.81
272.59	2162.66
272.81	2346.97
273.02	2133.98
273.24	2269.15
273.46	2273.25
273.67	2142.18
273.89	2084.83
274.10	2093.02
274.32	2293.72
274.54	2181.09
274.75	2211.81
274.97	2136.03
275.18	2207.71
275.40	2205.66
275.61	2193.37
275.83	2232.29
276.05	2039.78
276.26	2172.89
276.48	2203.61
276.69	2133.98
276.91	2170.85
277.12	2334.68
277.34	2267.10
277.55	2224.09
277.77	2267.10
277.99	2105.31
278.20	2133.98
278.42	2078.69
278.63	2158.56
278.85	2095.07
279.06	2062.30
279.28	2228.19
279.49	2277.34
279.71	2326.49
279.93	2232.29
280.14	2203.61
280.36	2125.79
280.57	2260.96
280.79	2242.53
281.00	2138.08
281.22	2127.84
281.43	2295.77
281.65	1990.63
281.86	2125.79
282.08	2226.14
282.29	2392.03
282.51	2033.63
282.73	2187.23
282.94	2056.16
283.16	2244.57
283.37	2349.02
283.59	2199.52
283.80	2236.38
284.02	2224.09
284.23	2185.18
284.45	2209.76
284.66	2052.06
284.88	2129.89
285.09	2269.15
285.31	2222.05
285.52	2299.87
285.74	2101.22
285.95	2277.34
286.17	2250.72
286.38	2297.82
286.60	2109.41
286.81	2064.35
287.03	2146.27
287.24	2179.04
287.46	2236.38
287.67	2181.09
287.89	2332.64
288.10	2154.46
288.32	2242.53
288.53	2359.26
288.75	2217.95
288.96	2246.62
289.18	2164.70
289.39	2105.31
289.61	2172.89
289.82	2387.93
290.04	2373.60
290.25	2115.55
290.47	2201.57
290.68	2185.18
290.90	2172.89
291.11	2103.26
291.33	2279.39
291.54	2105.31
291.76	2111.46
291.97	2205.66
292.18	2240.48
292.40	2191.33
292.61	2062.30
292.83	2375.64
293.04	2211.81
293.26	2234.33
293.47	2265.05
293.69	2195.42
293.90	2217.95
294.12	2293.72
294.33	2150.37
294.55	2138.08
294.76	2258.91
294.97	2277.34
295.19	2387.93
295.40	2086.88
295.62	2224.09
295.83	2314.20
296.05	2156.51
296.26	2260.96
296.48	2168.80
296.69	2138.08
296.90	2174.94
297.12	2285.53
297.33	2269.15
297.55	2205.66
297.76	2248.67
297.98	2299.87
298.19	2166.75
298.41	2146.27
298.62	2162.66
298.83	2365.40
299.05	2217.95
299.26	2150.37
299.48	2138.08
299.69	2195.42
299.90	2176.99
300.12	2150.37
300.33	2281.44
300.55	2213.85
300.76	2215.90
300.98	2127.84
301.19	2328.54
301.40	2203.61
301.62	2150.37
301.83	2269.15
302.05	2299.87
302.26	2168.80
302.47	2179.04
302.69	2099.17
302.90	2211.81
303.12	2011.11
303.33	2244.57
303.54	2420.70
303.76	2191.33
303.97	2224.09
304.19	2297.82
304.40	2090.98
304.61	2228.19
304.83	2299.87
305.04	2308.06
305.26	2279.39
305.47	2258.91
305.68	2265.05
305.90	2117.60
306.11	2301.92
306.33	2217.95
306.54	2131.94
306.75	2129.89
306.97	2035.68
307.18	2074.59
307.39	2093.02
307.61	2285.53
307.82	2164.70
308.04	2250.72
308.25	2078.69
308.46	2197.47
308.68	2228.19
308.89	2150.37
309.10	2256.86
309.32	2228.19
309.53	2142.18
309.74	2240.48
309.96	2207.71
310.17	2252.77
310.39	2088.93
310.60	2269.15
310.81	2162.66
311.03	2076.64
311.24	2228.19
311.45	2215.90
311.67	2381.79
311.88	2170.85
312.09	2166.75
312.31	2187.23
312.52	2160.61
312.73	2111.46
312.95	2117.60
313.16	2146.27
313.37	2306.01
313.59	2195.42
313.80	2404.32
314.01	2299.87
314.23	2129.89
314.44	2158.56
314.65	2125.79
314.87	2152.42
315.08	2129.89
315.29	2197.47
315.51	2086.88
315.72	2103.26
315.93	2271.20
316.15	2222.05
316.36	2129.89
316.57	2242.53
316.79	2248.67
317.00	2164.70
317.21	2168.80
317.43	2086.88
317.64	2170.85
317.85	2101.22
318.07	2095.07
318.28	2285.53
318.49	2318.30
318.70	2445.27
318.92	2293.72
319.13	2359.26
319.34	2465.75
319.56	2328.54
319.77	2361.31
319.98	2318.30
320.20	2312.16
320.41	2246.62
320.62	2365.40
320.83	2113.50
321.05	2400.22
321.26	2187.23
321.47	2232.29
321.69	2248.67
321.90	2111.46
322.11	2105.31
322.32	2193.37
322.54	2332.64
322.75	2191.33
322.96	2447.32
323.18	2088.93
323.39	2041.82
323.60	2056.16
323.81	2285.53
324.03	2068.45
324.24	2291.68
324.45	2226.14
324.66	2150.37
324.88	2357.21
325.09	2287.58
325.30	2107.36
325.52	2127.84
325.73	2289.63
325.94	2140.13
326.15	2099.17
326.37	2140.13
326.58	2267.10
326.79	2344.92
327.00	2129.89
327.22	2152.42
327.43	2103.26
327.64	2160.61
327.85	2222.05
328.07	2183.13
328.28	2400.22
328.49	2185.18
328.70	2105.31
328.92	2146.27
329.13	2172.89
329.34	2279.39
329.55	2314.20
329.76	2199.52
329.98	2158.56
330.19	2289.63
330.40	2215.90
330.61	2279.39
330.83	2246.62
331.04	2133.98
331.25	2170.85
331.46	2111.46
331.68	2107.36
331.89	2310.11
332.10	2252.77
332.31	2097.12
332.52	2107.36
332.74	2387.93
332.95	2088.93
333.16	2050.02
333.37	2209.76
333.58	2160.61
333.80	2193.37
334.01	1996.77
334.22	2133.98
334.43	2111.46
334.64	2150.37
334.86	2176.99
335.07	2181.09
335.28	2383.84
335.49	2084.83
335.70	2234.33
335.92	2301.92
336.13	2432.99
336.34	2220.00
336.55	2199.52
336.76	2232.29
336.98	2007.01
337.19	2109.41
337.40	2426.84
337.61	2344.92
337.82	2158.56
338.04	2174.94
338.25	2072.54
338.46	2154.46
338.67	2144.22
338.88	2025.44
339.09	1992.67
339.31	2154.46
339.52	2050.02
339.73	2056.16
339.94	2113.50
340.15	2285.53
340.36	2056.16
340.58	2215.90
340.79	2117.60
341.00	2281.44
341.21	2168.80
341.42	2330.59
341.63	2172.89
341.85	2308.06
342.06	2176.99
342.27	2113.50
342.48	2260.96
342.69	2080.74
342.90	2254.81
343.12	2291.68
343.33	2127.84
343.54	2289.63
343.75	2301.92
343.96	2168.80
344.17	2095.07
344.38	2183.13
344.60	2136.03
344.81	2103.26
345.02	2131.94
345.23	2342.88
345.44	2424.80
345.65	2295.77
345.86	2179.04
346.07	2191.33
346.29	2162.66
346.50	2228.19
346.71	2228.19
346.92	2295.77
347.13	2355.16
347.34	2168.80
347.55	2201.57
347.76	2248.67
347.98	2004.96
348.19	2158.56
348.40	2234.33
348.61	2203.61
348.82	2330.59
349.03	2248.67
349.24	2080.74
349.45	2369.50
349.66	2013.15
349.88	2146.27
350.09	2138.08
350.30	2324.44
350.51	2279.39
350.72	2187.23
350.93	2211.81
351.14	2127.84
351.35	2273.25
351.56	2154.46
351.77	2211.81
351.99	2232.29
352.20	2420.70
352.41	2295.77
352.62	2013.15
352.83	2152.42
353.04	2228.19
353.25	2179.04
353.46	2224.09
353.67	2258.91
353.88	1988.58
354.09	2156.51
354.30	2129.89
354.52	2291.68
354.73	2170.85
354.94	2103.26
355.15	2228.19
355.36	2365.40
355.57	2176.99
355.78	2258.91
355.99	2123.74
356.20	2158.56
356.41	2252.77
356.62	2215.90
356.83	2121.70
357.04	2295.77
357.25	2056.16
357.46	2105.31
357.68	2027.49
357.89	2150.37
358.10	2265.05
358.31	2246.62
358.52	2174.94
358.73	2062.30
358.94	2123.74
359.15	2174.94
359.36	2199.52
359.57	2215.90
359.78	2154.46
359.99	2252.77
360.20	2068.45
360.41	2136.03
360.62	2191.33
360.83	2152.42
361.04	2260.96
361.25	2205.66
361.46	2291.68
361.67	2297.82
361.88	2133.98
362.09	2277.34
362.30	2346.97
362.51	2111.46
362.72	2191.33
362.93	2351.07
363.14	2363.36
363.35	2207.71
363.56	2045.92
363.78	2234.33
363.99	2260.96
364.20	2101.22
364.41	2215.90
364.62	2400.22
364.83	2209.76
365.04	2179.04
365.25	2140.13
365.46	2418.65
365.67	2179.04
365.88	2193.37
366.09	2156.51
366.30	2097.12
366.51	2217.95
366.72	2105.31
366.93	2193.37
367.14	2179.04
367.35	2306.01
367.56	2168.80
367.77	2252.77
367.98	2222.05
368.18	2295.77
368.39	2209.76
368.60	2105.31
368.81	2256.86
369.02	2232.29
369.23	2174.94
369.44	2029.54
369.65	2144.22
369.86	2183.13
370.07	2287.58
370.28	2154.46
370.49	2269.15
370.70	2291.68
370.91	2154.46
371.12	2004.96
371.33	2281.44
371.54	2107.36
371.75	2414.56
371.96	2017.25
372.17	2162.66
372.38	2230.24
372.59	2226.14
372.80	2215.90
373.01	2117.60
373.22	2199.52
373.43	2203.61
373.64	2113.50
373.85	2392.03
374.06	2396.12
374.26	2332.64
374.47	2234.33
374.68	2318.30
374.89	2283.49
375.10	2164.70
375.31	2236.38
375.52	2170.85
375.73	2209.76
375.94	2074.59
376.15	2238.43
376.36	2211.81
376.57	2162.66
376.78	2179.04
376.99	2166.75
377.20	2256.86
377.40	2228.19
377.61	2349.02
377.82	2117.60
378.03	2328.54
378.24	2220.00
378.45	2220.00
378.66	2260.96
378.87	1974.24
379.08	2103.26
379.29	2113.50
379.50	2381.79
379.71	2111.46
379.91	2297.82
380.12	2160.61
380.33	2203.61
380.54	2244.57
380.75	2248.67
380.96	2162.66
381.17	2326.49
381.38	2187.23
381.59	2209.76
381.80	2084.83
382.00	2383.84
382.21	2236.38
382.42	2422.75
382.63	2420.70
382.84	2281.44
383.05	2308.06
383.26	2389.98
383.47	2238.43
383.68	2269.15
383.88	2201.57
384.09	2172.89
384.30	2394.08
384.51	2226.14
384.72	2111.46
384.93	2113.50
385.14	2187.23
385.35	2379.74
385.55	2095.07
385.76	2324.44
385.97	2162.66
386.18	2101.22
386.39	2150.37
386.60	2172.89
386.81	2197.47
387.02	2068.45
387.22	2148.32
387.43	2297.82
387.64	2248.67
387.85	2420.70
388.06	2451.42
388.27	3977.16
388.48	8503.17
388.68	12443.46
388.89	14538.53
389.10	15877.90
389.31	14511.91
389.52	11302.74
389.73	10061.67
389.93	9058.17
390.14	8187.78
390.35	7376.78
390.56	6647.71
390.77	5472.17
390.98	4218.82
391.18	3196.88
391.39	2715.61
391.60	2334.68
391.81	2422.75
392.02	2238.43
392.23	2416.60
392.43	2263.01
392.64	2342.88
392.85	2265.05
393.06	2322.40
393.27	2291.68
393.47	2095.07
393.68	2187.23
393.89	2160.61
394.10	2273.25
394.31	2166.75
394.52	2209.76
394.72	2127.84
394.93	2424.80
395.14	2162.66
395.35	2281.44
395.56	2076.64
395.76	2160.61
395.97	2187.23
396.18	2351.07
396.39	2346.97
396.60	2676.70
396.80	2418.65
397.01	2414.56
397.22	2383.84
397.43	2322.40
397.64	2220.00
397.84	2232.29
398.05	2435.03
398.26	2191.33
398.47	2326.49
398.67	2334.68
398.88	2211.81
399.09	2314.20
399.30	2148.32
399.51	2275.29
399.71	2101.22
399.92	2170.85
400.13	2324.44
400.34	2125.79
400.54	2205.66
400.75	2367.45
400.96	2250.72
401.17	2303.96
401.37	2344.92
401.58	2228.19
401.79	2195.42
402.00	2297.82
402.21	2576.34
402.41	2543.58
402.62	2586.58
402.83	2697.17
403.04	2572.25
403.24	2695.13
403.45	2359.26
403.66	2465.75
403.87	2402.27
404.07	2463.71
404.28	2473.95
404.49	2404.32
404.70	2269.15
404.90	2396.12
405.11	2287.58
405.32	2201.57
405.52	2066.40
405.73	2127.84
405.94	2150.37
406.15	2174.94
406.35	2250.72
406.56	2263.01
406.77	2193.37
406.98	2271.20
407.18	2170.85
407.39	2258.91
407.60	2195.42
407.80	2265.05
408.01	2133.98
408.22	2256.86
408.43	2138.08
408.63	2236.38
408.84	2275.29
409.05	2213.85
409.25	2148.32
409.46	2183.13
409.67	2144.22
409.88	2176.99
410.08	2258.91
410.29	2154.46
410.50	2248.67
410.70	2226.14
410.91	2179.04
411.12	2217.95
411.32	2220.00
411.53	2054.11
411.74	2367.45
411.95	2301.92
412.15	2256.86
412.36	2351.07
412.57	2318.30
412.77	2371.55
412.98	2269.15
413.19	2207.71
413.39	2310.11
413.60	2209.76
413.81	2299.87
414.01	2121.70
414.22	2203.61
414.43	2316.25
414.63	2203.61
414.84	2306.01
415.05	2234.33
415.25	2027.49
415.46	2195.42
415.67	2201.57
415.87	2260.96
416.08	2174.94
416.29	2113.50
416.49	2170.85
416.70	2189.28
416.91	2111.46
417.11	2240.48
417.32	2308.06
417.53	2220.00
417.73	2215.90
417.94	2220.00
418.15	2207.71
418.35	2176.99
418.56	2193.37
418.77	2471.90
418.97	2125.79
419.18	2138.08
419.38	1978.34
419.59	2166.75
419.80	2316.25
420.00	2095.07
420.21	2166.75
420.42	2260.96
420.62	2250.72
420.83	2138.08
421.04	2129.89
421.24	2181.09
421.45	2287.58
421.65	2207.71
421.86	2213.85
422.07	2244.57
422.27	2299.87
422.48	2230.24
422.69	2041.82
422.89	2203.61
423.10	2150.37
423.30	2101.22
423.51	2201.57
423.72	2215.90
423.92	2265.05
424.13	2160.61
424.33	2189.28
424.54	2254.81
424.75	2267.10
424.95	2293.72
425.16	2283.49
425.36	2123.74
425.57	2297.82
425.78	2224.09
425.98	2260.96
426.19	2138.08
426.39	2093.02
426.60	2252.77
426.81	2258.91
427.01	2195.42
427.22	2076.64
427.42	2056.16
427.63	2170.85
427.83	2285.53
428.04	2441.18
428.25	2301.92
428.45	2324.44
428.66	2287.58
428.86	2176.99
429.07	2228.19
429.28	2240.48
429.48	2156.51
429.69	2183.13
429.89	2238.43
430.10	2121.70
430.30	2220.00
430.51	2375.64
430.71	2172.89
430.92	2156.51
431.13	2166.75
431.33	2230.24
431.54	2215.90
431.74	2334.68
431.95	2461.66
432.15	2129.89
432.36	2269.15
432.56	2267.10
432.77	2334.68
432.98	2344.92
433.18	2244.57
433.39	2193.37
433.59	2217.95
433.80	2353.12
434.00	2373.60
434.21	2121.70
434.41	2111.46
434.62	2420.70
434.82	2070.50
435.03	2136.03
435.23	2222.05
435.44	2082.78
435.64	2123.74
435.85	2301.92
436.06	2252.77
436.26	2338.78
436.47	2164.70
436.67	2146.27
436.88	2217.95
437.08	2265.05
437.29	2285.53
437.49	2252.77
437.70	2303.96
437.90	2156.51
438.11	2363.36
438.31	2234.33
438.52	2432.99
438.72	2414.56
438.93	2457.56
439.13	2359.26
439.34	2357.21
439.54	2195.42
439.75	2281.44
439.95	2306.01
440.16	2154.46
440.36	2308.06
440.57	2217.95
440.77	2217.95
440.98	2236.38
441.18	2293.72
441.39	2146.27
441.59	2158.56
441.80	2383.84
442.00	2197.47
442.21	2265.05
442.41	2111.46
442.62	2344.92
442.82	2138.08
443.02	2113.50
443.23	2168.80
443.43	2236.38
443.64	2389.98
443.84	2125.79
444.05	2289.63
444.25	2209.76
444.46	2213.85
444.66	2172.89
444.87	2297.82
445.07	2101.22
445.28	2158.56
445.48	2351.07
445.69	2129.89
445.89	2475.99
446.09	2258.91
446.30	2519.00
446.50	2760.66
446.71	4466.62
446.91	5543.85
447.12	6393.76
447.32	6799.26
447.53	6340.51
447.73	5222.32
447.93	4480.96
448.14	4288.45
448.34	4075.46
448.55	3577.80
448.75	3588.04
448.96	3448.78
449.16	2983.89
449.36	2918.36
449.57	2555.86
449.77	2383.84
449.98	2230.24
450.18	2275.29
450.39	2287.58
450.59	2375.64
450.79	2267.10
451.00	2133.98
451.20	2281.44
451.41	2179.04
451.61	2314.20
451.81	2228.19
452.02	2138.08
452.22	2154.46
452.43	2187.23
