SpectraSuite Data File
++++++++++++++++++++++++++++++++++++
Date: Thu May 05 12:35:25 CEST 2016
User: root
Dark Spectrum Present: No
Reference Spectrum Present: No
Number of Sampled Component Spectra: 1
Spectrometers: USB4C02835
Integration Time (usec): 100000 (USB4C02835)
Spectra Averaged: 1 (USB4C02835)
Boxcar Smoothing: 0 (USB4C02835)
Correct for Electrical Dark: No (USB4C02835)
Strobe/Lamp Enabled: No (USB4C02835)
Correct for Detector Non-linearity: No (USB4C02835)
Correct for Stray Light: No (USB4C02835)
Number of Pixels in Processed Spectrum: 3648
>>>>>Begin Processed Spectral Data<<<<<
177.47	1761.25
177.69	1761.25
177.91	1761.25
178.13	1789.92
178.36	1785.83
178.58	2109.41
178.80	2240.48
179.02	2039.78
179.24	2140.13
179.46	2152.42
179.68	2215.90
179.90	2156.51
180.13	2252.77
180.35	2027.49
180.57	2138.08
180.79	2211.81
181.01	2199.52
181.23	2265.05
181.45	2260.96
181.67	2230.24
181.90	2191.33
182.12	2103.26
182.34	2029.54
182.56	2240.48
182.78	2220.00
183.00	2109.41
183.22	2142.18
183.44	1980.39
183.66	2430.94
183.89	2222.05
184.11	2176.99
184.33	2236.38
184.55	2242.53
184.77	2097.12
184.99	2121.70
185.21	2105.31
185.43	2428.89
185.65	2162.66
185.87	2113.50
186.10	2320.35
186.32	2303.96
186.54	2185.18
186.76	2138.08
186.98	2328.54
187.20	2176.99
187.42	2176.99
187.64	2150.37
187.86	2205.66
188.08	2203.61
188.30	2082.78
188.52	2113.50
188.75	2301.92
188.97	2404.32
189.19	2160.61
189.41	2127.84
189.63	2256.86
189.85	2103.26
190.07	2019.30
190.29	2023.39
190.51	2195.42
190.73	2033.63
190.95	2195.42
191.17	2181.09
191.39	2070.50
191.61	2164.70
191.84	2127.84
192.06	2179.04
192.28	2039.78
192.50	2439.13
192.72	2127.84
192.94	2213.85
193.16	2293.72
193.38	2158.56
193.60	2045.92
193.82	2277.34
194.04	2334.68
194.26	2263.01
194.48	2138.08
194.70	2047.97
194.92	2133.98
195.14	2281.44
195.36	2062.30
195.58	2125.79
195.80	2174.94
196.02	2179.04
196.24	2183.13
196.46	2238.43
196.69	2103.26
196.91	2414.56
197.13	2035.68
197.35	2176.99
197.57	2349.02
197.79	2269.15
198.01	2150.37
198.23	2275.29
198.45	2224.09
198.67	1986.53
198.89	2088.93
199.11	2144.22
199.33	2154.46
199.55	2015.20
199.77	2176.99
199.99	2240.48
200.21	2260.96
200.43	2236.38
200.65	2056.16
200.87	2017.25
201.09	2179.04
201.31	2191.33
201.53	2150.37
201.75	2146.27
201.97	2189.28
202.19	2193.37
202.41	2201.57
202.63	2291.68
202.85	2263.01
203.07	2193.37
203.29	2074.59
203.51	1984.48
203.73	2099.17
203.95	2424.80
204.17	2133.98
204.39	2127.84
204.61	2236.38
204.83	2086.88
205.05	2224.09
205.27	2193.37
205.49	2408.41
205.71	2158.56
205.93	2060.26
206.15	2072.54
206.37	2183.13
206.59	2199.52
206.81	1933.28
207.03	2058.21
207.25	2086.88
207.47	2193.37
207.69	2103.26
207.91	2351.07
208.13	2310.11
208.34	2109.41
208.56	2113.50
208.78	2203.61
209.00	2144.22
209.22	2080.74
209.44	2095.07
209.66	2013.15
209.88	2125.79
210.10	2129.89
210.32	2090.98
210.54	2322.40
210.76	2129.89
210.98	2267.10
211.20	1988.58
211.42	2187.23
211.64	2299.87
211.86	2222.05
212.08	2107.36
212.30	2162.66
212.52	2129.89
212.74	2226.14
212.96	2185.18
213.17	2146.27
213.39	2242.53
213.61	2295.77
213.83	2170.85
214.05	2166.75
214.27	2281.44
214.49	2070.50
214.71	2123.74
214.93	2220.00
215.15	2197.47
215.37	2289.63
215.59	2062.30
215.81	2133.98
216.03	2357.21
216.24	2168.80
216.46	2158.56
216.68	2148.32
216.90	2365.40
217.12	2213.85
217.34	2076.64
217.56	2197.47
217.78	2363.36
218.00	2263.01
218.22	2215.90
218.44	2127.84
218.66	2179.04
218.87	2408.41
219.09	2099.17
219.31	2207.71
219.53	2277.34
219.75	2205.66
219.97	2152.42
220.19	2211.81
220.41	2162.66
220.63	2402.27
220.85	2179.04
221.06	2123.74
221.28	2340.83
221.50	2279.39
221.72	2101.22
221.94	2072.54
222.16	2179.04
222.38	2330.59
222.60	2176.99
222.82	2191.33
223.03	2334.68
223.25	2082.78
223.47	2176.99
223.69	2275.29
223.91	2185.18
224.13	2142.18
224.35	2109.41
224.57	2242.53
224.78	2150.37
225.00	2103.26
225.22	2119.65
225.44	2181.09
225.66	2244.57
225.88	2142.18
226.10	2230.24
226.32	2209.76
226.53	2336.73
226.75	2127.84
226.97	2103.26
227.19	2138.08
227.41	2076.64
227.63	2209.76
227.85	1974.24
228.06	2183.13
228.28	2193.37
228.50	2244.57
228.72	1990.63
228.94	2142.18
229.16	2060.26
229.37	2084.83
229.59	2086.88
229.81	2314.20
230.03	2074.59
230.25	2023.39
230.47	2033.63
230.69	2093.02
230.90	2297.82
231.12	2187.23
231.34	2176.99
231.56	2199.52
231.78	2109.41
232.00	2228.19
232.21	2162.66
232.43	2117.60
232.65	1992.67
232.87	2168.80
233.09	2090.98
233.30	2078.69
233.52	2258.91
233.74	2193.37
233.96	2154.46
234.18	2195.42
234.40	2232.29
234.61	2375.64
234.83	2029.54
235.05	2047.97
235.27	2484.19
235.49	2318.30
235.70	2123.74
235.92	2193.37
236.14	2287.58
236.36	2449.37
236.58	2029.54
236.79	2207.71
237.01	2154.46
237.23	2179.04
237.45	2283.49
237.67	2119.65
237.88	2211.81
238.10	2328.54
238.32	2076.64
238.54	2072.54
238.76	2154.46
238.97	2170.85
239.19	2037.73
239.41	2244.57
239.63	2293.72
239.85	2062.30
240.06	2084.83
240.28	2119.65
240.50	2236.38
240.72	2281.44
240.93	2140.13
241.15	2228.19
241.37	2172.89
241.59	2260.96
241.81	2129.89
242.02	2076.64
242.24	2207.71
242.46	2287.58
242.68	2064.35
242.89	2168.80
243.11	2260.96
243.33	2170.85
243.55	2166.75
243.76	2181.09
243.98	2123.74
244.20	2199.52
244.42	2105.31
244.64	2148.32
244.85	2080.74
245.07	2101.22
245.29	2111.46
245.51	2168.80
245.72	2160.61
245.94	2344.92
246.16	2213.85
246.38	2103.26
246.59	2156.51
246.81	2095.07
247.03	2140.13
247.24	2002.91
247.46	2160.61
247.68	2273.25
247.90	2090.98
248.11	2060.26
248.33	2267.10
248.55	2230.24
248.77	2160.61
248.98	2215.90
249.20	2310.11
249.42	2189.28
249.64	2185.18
249.85	2125.79
250.07	2117.60
250.29	2285.53
250.50	2303.96
250.72	2086.88
250.94	2236.38
251.16	2387.93
251.37	2023.39
251.59	2176.99
251.81	2246.62
252.02	2367.45
252.24	2043.87
252.46	2185.18
252.68	2064.35
252.89	2189.28
253.11	1998.82
253.33	2295.77
253.54	2406.36
253.76	2045.92
253.98	2047.97
254.20	2103.26
254.41	2074.59
254.63	2174.94
254.85	2021.35
255.06	2093.02
255.28	2215.90
255.50	2093.02
255.71	2179.04
255.93	2015.20
256.15	2199.52
256.36	2242.53
256.58	2078.69
256.80	2179.04
257.02	2201.57
257.23	2113.50
257.45	2029.54
257.67	2150.37
257.88	2095.07
258.10	2269.15
258.32	2187.23
258.53	2146.27
258.75	2322.40
258.97	2183.13
259.18	2140.13
259.40	2043.87
259.62	2400.22
259.83	2330.59
260.05	2211.81
260.27	2576.34
260.48	2248.67
260.70	2025.44
260.92	2037.73
261.13	2131.94
261.35	2158.56
261.57	2203.61
261.78	1982.43
262.00	2113.50
262.22	2267.10
262.43	2115.55
262.65	2138.08
262.86	2072.54
263.08	2383.84
263.30	2238.43
263.51	2013.15
263.73	1994.72
263.95	2328.54
264.16	2033.63
264.38	2064.35
264.60	2101.22
264.81	2205.66
265.03	2287.58
265.25	2256.86
265.46	2150.37
265.68	2301.92
265.89	2273.25
266.11	1996.77
266.33	2193.37
266.54	2330.59
266.76	2209.76
266.98	2260.96
267.19	2242.53
267.41	2279.39
267.62	2187.23
267.84	1955.81
268.06	2246.62
268.27	2228.19
268.49	2301.92
268.70	2189.28
268.92	2103.26
269.14	2082.78
269.35	2056.16
269.57	2121.70
269.79	2240.48
270.00	2113.50
270.22	2297.82
270.43	2097.12
270.65	1964.00
270.87	2170.85
271.08	2230.24
271.30	2248.67
271.51	2217.95
271.73	2220.00
271.95	2387.93
272.16	2183.13
272.38	2197.47
272.59	2154.46
272.81	2211.81
273.02	2117.60
273.24	2185.18
273.46	2273.25
273.67	2172.89
273.89	2111.46
274.10	2136.03
274.32	2222.05
274.54	2232.29
274.75	2158.56
274.97	2117.60
275.18	2308.06
275.40	2250.72
275.61	2162.66
275.83	2211.81
276.05	2043.87
276.26	2228.19
276.48	2195.42
276.69	2103.26
276.91	2121.70
277.12	2330.59
277.34	2299.87
277.55	2314.20
277.77	2203.61
277.99	2183.13
278.20	2103.26
278.42	2066.40
278.63	2113.50
278.85	2142.18
279.06	2097.12
279.28	2160.61
279.49	2306.01
279.71	2189.28
279.93	2273.25
280.14	2076.64
280.36	2097.12
280.57	2263.01
280.79	2295.77
281.00	2105.31
281.22	2113.50
281.43	2252.77
281.65	1955.81
281.86	2156.51
282.08	2291.68
282.29	2359.26
282.51	2064.35
282.73	2152.42
282.94	1968.10
283.16	2195.42
283.37	2334.68
283.59	2115.55
283.80	2136.03
284.02	2246.62
284.23	2181.09
284.45	2138.08
284.66	2160.61
284.88	2154.46
285.09	2138.08
285.31	2174.94
285.52	2250.72
285.74	2050.02
285.95	2236.38
286.17	2170.85
286.38	2240.48
286.60	2154.46
286.81	2136.03
287.03	2080.74
287.24	2238.43
287.46	2283.49
287.67	2293.72
287.89	2363.36
288.10	2148.32
288.32	2189.28
288.53	2256.86
288.75	2260.96
288.96	2228.19
289.18	2191.33
289.39	2138.08
289.61	2144.22
289.82	2342.88
290.04	2353.12
290.25	2097.12
290.47	2121.70
290.68	2179.04
290.90	2297.82
291.11	2056.16
291.33	2252.77
291.54	2150.37
291.76	2170.85
291.97	2230.24
292.18	2215.90
292.40	2099.17
292.61	2084.83
292.83	2340.83
293.04	2211.81
293.26	2152.42
293.47	2291.68
293.69	2144.22
293.90	2162.66
294.12	2351.07
294.33	2250.72
294.55	2138.08
294.76	2236.38
294.97	2283.49
295.19	2402.27
295.40	2136.03
295.62	2176.99
295.83	2256.86
296.05	2131.94
296.26	2240.48
296.48	2086.88
296.69	2183.13
296.90	2234.33
297.12	2213.85
297.33	2203.61
297.55	2160.61
297.76	2242.53
297.98	2209.76
298.19	2205.66
298.41	2170.85
298.62	2093.02
298.83	2322.40
299.05	2166.75
299.26	2148.32
299.48	2097.12
299.69	2148.32
299.90	2213.85
300.12	2144.22
300.33	2242.53
300.55	2201.57
300.76	2148.32
300.98	2099.17
301.19	2168.80
301.40	2131.94
301.62	2166.75
301.83	2234.33
302.05	2197.47
302.26	2164.70
302.47	2185.18
302.69	2099.17
302.90	2215.90
303.12	2088.93
303.33	2236.38
303.54	2389.98
303.76	2232.29
303.97	2166.75
304.19	2301.92
304.40	2082.78
304.61	2211.81
304.83	2379.74
305.04	2254.81
305.26	2328.54
305.47	2127.84
305.68	2129.89
305.90	2111.46
306.11	2260.96
306.33	2299.87
306.54	2162.66
306.75	2093.02
306.97	2121.70
307.18	2056.16
307.39	2144.22
307.61	2193.37
307.82	2113.50
308.04	2234.33
308.25	2062.30
308.46	2203.61
308.68	2174.94
308.89	2179.04
309.10	2342.88
309.32	2164.70
309.53	2113.50
309.74	2238.43
309.96	2086.88
310.17	2201.57
310.39	2195.42
310.60	2234.33
310.81	2193.37
311.03	2066.40
311.24	2283.49
311.45	2201.57
311.67	2299.87
311.88	2166.75
312.09	2146.27
312.31	2144.22
312.52	2158.56
312.73	2150.37
312.95	2086.88
313.16	2062.30
313.37	2211.81
313.59	2236.38
313.80	2258.91
314.01	2340.83
314.23	2152.42
314.44	2144.22
314.65	2054.11
314.87	2080.74
315.08	2125.79
315.29	2162.66
315.51	2117.60
315.72	2058.21
315.93	2275.29
316.15	2240.48
316.36	2127.84
316.57	2244.57
316.79	2211.81
317.00	2187.23
317.21	2297.82
317.43	2191.33
317.64	2207.71
317.85	2099.17
318.07	2125.79
318.28	2193.37
318.49	2392.03
318.70	2455.51
318.92	2316.25
319.13	2432.99
319.34	2457.56
319.56	2244.57
319.77	2330.59
319.98	2406.36
320.20	2373.60
320.41	2289.63
320.62	2263.01
320.83	2115.55
321.05	2361.31
321.26	2213.85
321.47	2191.33
321.69	2301.92
321.90	2025.44
322.11	2166.75
322.32	2150.37
322.54	2324.44
322.75	2072.54
322.96	2475.99
323.18	2109.41
323.39	2027.49
323.60	2164.70
323.81	2222.05
324.03	2146.27
324.24	2265.05
324.45	2199.52
324.66	2150.37
324.88	2334.68
325.09	2320.35
325.30	2193.37
325.52	2211.81
325.73	2240.48
325.94	2068.45
326.15	1961.95
326.37	2074.59
326.58	2215.90
326.79	2289.63
327.00	2111.46
327.22	2226.14
327.43	2101.22
327.64	2095.07
327.85	2203.61
328.07	2193.37
328.28	2383.84
328.49	2150.37
328.70	2164.70
328.92	2215.90
329.13	2121.70
329.34	2260.96
329.55	2258.91
329.76	2297.82
329.98	2115.55
330.19	2322.40
330.40	2250.72
330.61	2224.09
330.83	2320.35
331.04	2125.79
331.25	2152.42
331.46	2203.61
331.68	2088.93
331.89	2369.50
332.10	2197.47
332.31	2058.21
332.52	2174.94
332.74	2326.49
332.95	2064.35
333.16	2199.52
333.37	2244.57
333.58	2113.50
333.80	2158.56
334.01	2033.63
334.22	2185.18
334.43	2084.83
334.64	2170.85
334.86	2068.45
335.07	2121.70
335.28	2410.46
335.49	2084.83
335.70	2222.05
335.92	2359.26
336.13	2428.89
336.34	2306.01
336.55	2242.53
336.76	2291.68
336.98	2068.45
337.19	2199.52
337.40	2279.39
337.61	2414.56
337.82	2146.27
338.04	2228.19
338.25	2025.44
338.46	2140.13
338.67	2213.85
338.88	2080.74
339.09	2078.69
339.31	2072.54
339.52	2136.03
339.73	2113.50
339.94	2195.42
340.15	2260.96
340.36	2168.80
340.58	2199.52
340.79	2109.41
341.00	2236.38
341.21	2060.26
341.42	2291.68
341.63	2117.60
341.85	2387.93
342.06	2154.46
342.27	2166.75
342.48	2250.72
342.69	2082.78
342.90	2252.77
343.12	2273.25
343.33	2088.93
343.54	2324.44
343.75	2379.74
343.96	2158.56
344.17	2078.69
344.38	2142.18
344.60	2140.13
344.81	2084.83
345.02	2164.70
345.23	2217.95
345.44	2449.37
345.65	2277.34
345.86	2240.48
346.07	2152.42
346.29	2191.33
346.50	2203.61
346.71	2273.25
346.92	2406.36
347.13	2400.22
347.34	2136.03
347.55	2121.70
347.76	2256.86
347.98	2097.12
348.19	2203.61
348.40	2263.01
348.61	2160.61
348.82	2318.30
349.03	2187.23
349.24	2103.26
349.45	2322.40
349.66	2047.97
349.88	2201.57
350.09	2107.36
350.30	2281.44
350.51	2342.88
350.72	2154.46
350.93	2250.72
351.14	2199.52
351.35	2109.41
351.56	2156.51
351.77	2197.47
351.99	2265.05
352.20	2328.54
352.41	2322.40
352.62	1994.72
352.83	2207.71
353.04	2197.47
353.25	2162.66
353.46	2203.61
353.67	2324.44
353.88	2000.87
354.09	2115.55
354.30	2158.56
354.52	2217.95
354.73	2209.76
354.94	2160.61
355.15	2185.18
355.36	2375.64
355.57	2138.08
355.78	2226.14
355.99	2146.27
356.20	2203.61
356.41	2283.49
356.62	2211.81
356.83	2074.59
357.04	2236.38
357.25	2043.87
357.46	2185.18
357.68	2019.30
357.89	2142.18
358.10	2174.94
358.31	2166.75
358.52	2123.74
358.73	2095.07
358.94	2088.93
359.15	2107.36
359.36	2166.75
359.57	2211.81
359.78	2215.90
359.99	2162.66
360.20	2146.27
360.41	2078.69
360.62	2242.53
360.83	2205.66
361.04	2179.04
361.25	2207.71
361.46	2367.45
361.67	2199.52
361.88	2285.53
362.09	2242.53
362.30	2263.01
362.51	2093.02
362.72	2220.00
362.93	2267.10
363.14	2248.67
363.35	2226.14
363.56	2101.22
363.78	2293.72
363.99	2238.43
364.20	2138.08
364.41	2193.37
364.62	2389.98
364.83	2246.62
365.04	2166.75
365.25	2199.52
365.46	2383.84
365.67	2152.42
365.88	2207.71
366.09	2078.69
366.30	2193.37
366.51	2113.50
366.72	2093.02
366.93	2189.28
367.14	2181.09
367.35	2301.92
367.56	2097.12
367.77	2299.87
367.98	2105.31
368.18	2277.34
368.39	2174.94
368.60	2113.50
368.81	2238.43
369.02	2160.61
369.23	2093.02
369.44	2076.64
369.65	2174.94
369.86	2207.71
370.07	2252.77
370.28	2201.57
370.49	2234.33
370.70	2236.38
370.91	2125.79
371.12	2090.98
371.33	2238.43
371.54	2099.17
371.75	2285.53
371.96	1961.95
372.17	2281.44
372.38	2203.61
372.59	2263.01
372.80	2119.65
373.01	2146.27
373.22	2111.46
373.43	2207.71
373.64	2052.06
373.85	2334.68
374.06	2353.12
374.26	2281.44
374.47	2246.62
374.68	2367.45
374.89	2260.96
375.10	2170.85
375.31	2265.05
375.52	2187.23
375.73	2222.05
375.94	2138.08
376.15	2277.34
376.36	2183.13
376.57	2150.37
376.78	2117.60
376.99	2158.56
377.20	2351.07
377.40	2084.83
377.61	2306.01
377.82	2072.54
378.03	2318.30
378.24	2201.57
378.45	2250.72
378.66	2187.23
378.87	2027.49
379.08	2019.30
379.29	2170.85
379.50	2314.20
379.71	2144.22
379.91	2314.20
380.12	2176.99
380.33	2199.52
380.54	2179.04
380.75	2156.51
380.96	2209.76
381.17	2203.61
381.38	2213.85
381.59	2285.53
381.80	2170.85
382.00	2387.93
382.21	2236.38
382.42	2314.20
382.63	2416.60
382.84	2265.05
383.05	2301.92
383.26	2314.20
383.47	2220.00
383.68	2310.11
383.88	2181.09
384.09	2203.61
384.30	2303.96
384.51	2271.20
384.72	2181.09
384.93	2099.17
385.14	2230.24
385.35	2267.10
385.55	2086.88
385.76	2365.40
385.97	2099.17
386.18	2125.79
386.39	2113.50
386.60	2103.26
386.81	2099.17
387.02	2097.12
387.22	2121.70
387.43	2340.83
387.64	2279.39
387.85	2367.45
388.06	2383.84
388.27	4124.61
388.48	8638.33
388.68	12488.51
388.89	14718.75
389.10	15908.62
389.31	14591.78
389.52	11401.04
389.73	9844.59
389.93	8906.62
390.14	8271.75
390.35	7235.47
390.56	6762.39
390.77	5390.25
390.98	4085.70
391.18	3379.15
391.39	2699.22
391.60	2332.64
391.81	2328.54
392.02	2152.42
392.23	2334.68
392.43	2234.33
392.64	2326.49
392.85	2246.62
393.06	2338.78
393.27	2236.38
393.47	2144.22
393.68	2267.10
393.89	2133.98
394.10	2349.02
394.31	2185.18
394.52	2174.94
394.72	2117.60
394.93	2320.35
395.14	2150.37
395.35	2220.00
395.56	2170.85
395.76	2158.56
395.97	2181.09
396.18	2320.35
396.39	2400.22
396.60	2703.32
396.80	2396.12
397.01	2383.84
397.22	2328.54
397.43	2392.03
397.64	2152.42
397.84	2291.68
398.05	2430.94
398.26	2285.53
398.47	2312.16
398.67	2263.01
398.88	2195.42
399.09	2269.15
399.30	2187.23
399.51	2201.57
399.71	2148.32
399.92	2207.71
400.13	2170.85
400.34	2117.60
400.54	2174.94
400.75	2322.40
400.96	2191.33
401.17	2318.30
401.37	2213.85
401.58	2140.13
401.79	2148.32
402.00	2342.88
402.21	2674.65
402.41	2553.82
402.62	2553.82
402.83	2674.65
403.04	2736.09
403.24	2789.33
403.45	2363.36
403.66	2514.91
403.87	2510.81
404.07	2457.56
404.28	2537.43
404.49	2480.09
404.70	2281.44
404.90	2361.31
405.11	2232.29
405.32	2224.09
405.52	2158.56
405.73	2191.33
405.94	2168.80
406.15	2238.43
406.35	2316.25
406.56	2220.00
406.77	2193.37
406.98	2205.66
407.18	2154.46
407.39	2320.35
407.60	2191.33
407.80	2281.44
408.01	2127.84
408.22	2244.57
408.43	2121.70
408.63	2203.61
408.84	2279.39
409.05	2230.24
409.25	2138.08
409.46	2088.93
409.67	2088.93
409.88	2146.27
410.08	2256.86
410.29	2154.46
410.50	2217.95
410.70	2230.24
410.91	2045.92
411.12	2248.67
411.32	2201.57
411.53	2138.08
411.74	2353.12
411.95	2301.92
412.15	2281.44
412.36	2299.87
412.57	2297.82
412.77	2426.84
412.98	2269.15
413.19	2217.95
413.39	2224.09
413.60	2215.90
413.81	2318.30
414.01	2088.93
414.22	2230.24
414.43	2293.72
414.63	2228.19
414.84	2260.96
415.05	2209.76
415.25	2086.88
415.46	2283.49
415.67	2152.42
415.87	2285.53
416.08	2129.89
416.29	2203.61
416.49	2267.10
416.70	2117.60
416.91	2187.23
417.11	2138.08
417.32	2193.37
417.53	2281.44
417.73	2207.71
417.94	2242.53
418.15	2197.47
418.35	2152.42
418.56	2195.42
418.77	2439.13
418.97	2164.70
419.18	2164.70
419.38	1966.05
419.59	2160.61
419.80	2281.44
420.00	2195.42
420.21	2303.96
420.42	2316.25
420.62	2191.33
420.83	2117.60
421.04	2154.46
421.24	2174.94
421.45	2281.44
421.65	2258.91
421.86	2142.18
422.07	2267.10
422.27	2203.61
422.48	2211.81
422.69	2127.84
422.89	2213.85
423.10	2232.29
423.30	2129.89
423.51	2232.29
423.72	2349.02
423.92	2269.15
424.13	2037.73
424.33	2179.04
424.54	2297.82
424.75	2217.95
424.95	2310.11
425.16	2254.81
425.36	2158.56
425.57	2361.31
425.78	2291.68
425.98	2199.52
426.19	2228.19
426.39	2086.88
426.60	2129.89
426.81	2340.83
427.01	2129.89
427.22	2179.04
427.42	2017.25
427.63	2162.66
427.83	2316.25
428.04	2389.98
428.25	2260.96
428.45	2246.62
428.66	2363.36
428.86	2160.61
429.07	2140.13
429.28	2193.37
429.48	2250.72
429.69	2121.70
429.89	2267.10
430.10	2142.18
430.30	2281.44
430.51	2291.68
430.71	2160.61
430.92	2131.94
431.13	2148.32
431.33	2256.86
431.54	2215.90
431.74	2414.56
431.95	2416.60
432.15	2140.13
432.36	2234.33
432.56	2172.89
432.77	2406.36
432.98	2344.92
433.18	2187.23
433.39	2158.56
433.59	2111.46
433.80	2357.21
434.00	2398.17
434.21	2162.66
434.41	2080.74
434.62	2420.70
434.82	2156.51
435.03	2183.13
435.23	2181.09
435.44	1998.82
435.64	2189.28
435.85	2250.72
436.06	2240.48
436.26	2340.83
436.47	2238.43
436.67	2138.08
436.88	2095.07
437.08	2428.89
437.29	2289.63
437.49	2269.15
437.70	2363.36
437.90	2232.29
438.11	2363.36
438.31	2267.10
438.52	2383.84
438.72	2373.60
438.93	2527.19
439.13	2267.10
439.34	2275.29
439.54	2242.53
439.75	2269.15
439.95	2385.88
440.16	2154.46
440.36	2340.83
440.57	2293.72
440.77	2277.34
440.98	2301.92
441.18	2326.49
441.39	2197.47
441.59	2056.16
441.80	2418.65
442.00	2226.14
442.21	2316.25
442.41	2066.40
442.62	2258.91
442.82	2193.37
443.02	2207.71
443.23	2215.90
443.43	2224.09
443.64	2312.16
443.84	2097.12
444.05	2269.15
444.25	2189.28
444.46	2195.42
444.66	2289.63
444.87	2346.97
445.07	2007.01
445.28	2131.94
445.48	2293.72
445.69	2285.53
445.89	2437.08
446.09	2191.33
446.30	2494.43
446.50	2766.81
446.71	4429.76
446.91	5595.05
447.12	6381.47
447.32	6789.02
447.53	6303.65
447.73	5193.65
447.93	4530.11
448.14	4278.21
448.34	3889.09
448.55	3637.19
448.75	3489.74
448.96	3418.06
449.16	3071.95
449.36	2908.12
449.57	2516.95
449.77	2306.01
449.98	2258.91
450.18	2234.33
450.39	2244.57
450.59	2224.09
450.79	2265.05
451.00	2183.13
451.20	2260.96
451.41	2228.19
451.61	2316.25
451.81	2236.38
452.02	2179.04
452.22	2207.71
452.43	2228.19
452.63	2097.12
