SpectraSuite Data File
++++++++++++++++++++++++++++++++++++
Date: Thu May 05 12:35:23 CEST 2016
User: root
Dark Spectrum Present: No
Reference Spectrum Present: No
Number of Sampled Component Spectra: 1
Spectrometers: USB4C02835
Integration Time (usec): 100000 (USB4C02835)
Spectra Averaged: 1 (USB4C02835)
Boxcar Smoothing: 0 (USB4C02835)
Correct for Electrical Dark: No (USB4C02835)
Strobe/Lamp Enabled: No (USB4C02835)
Correct for Detector Non-linearity: No (USB4C02835)
Correct for Stray Light: No (USB4C02835)
Number of Pixels in Processed Spectrum: 3648
>>>>>Begin Processed Spectral Data<<<<<
177.47	1781.73
177.69	1781.73
177.91	1781.73
178.13	1726.44
178.36	1732.58
178.58	2031.58
178.80	2226.14
179.02	2088.93
179.24	2082.78
179.46	2121.70
179.68	2195.42
179.90	2191.33
180.13	2170.85
180.35	2025.44
180.57	2160.61
180.79	2252.77
181.01	2148.32
181.23	2170.85
181.45	2226.14
181.67	2260.96
181.90	2170.85
182.12	2152.42
182.34	2056.16
182.56	2230.24
182.78	2217.95
183.00	2103.26
183.22	2097.12
183.44	2052.06
183.66	2422.75
183.89	2240.48
184.11	2136.03
184.33	2308.06
184.55	2316.25
184.77	2168.80
184.99	2082.78
185.21	2125.79
185.43	2432.99
185.65	2187.23
185.87	2183.13
186.10	2394.08
186.32	2392.03
186.54	2129.89
186.76	2207.71
186.98	2256.86
187.20	2185.18
187.42	2133.98
187.64	2115.55
187.86	2263.01
188.08	2340.83
188.30	2080.74
188.52	2136.03
188.75	2330.59
188.97	2265.05
189.19	2158.56
189.41	2217.95
189.63	2244.57
189.85	2166.75
190.07	2037.73
190.29	1992.67
190.51	2179.04
190.73	2076.64
190.95	2183.13
191.17	2101.22
191.39	2095.07
191.61	2142.18
191.84	2097.12
192.06	2183.13
192.28	2101.22
192.50	2494.43
192.72	2152.42
192.94	2121.70
193.16	2314.20
193.38	2224.09
193.60	2121.70
193.82	2185.18
194.04	2357.21
194.26	2267.10
194.48	2146.27
194.70	2082.78
194.92	2150.37
195.14	2256.86
195.36	2144.22
195.58	2197.47
195.80	2150.37
196.02	2062.30
196.24	2088.93
196.46	2185.18
196.69	2121.70
196.91	2437.08
197.13	2093.02
197.35	2148.32
197.57	2363.36
197.79	2220.00
198.01	2152.42
198.23	2150.37
198.45	2220.00
198.67	2043.87
198.89	2074.59
199.11	2213.85
199.33	2084.83
199.55	1992.67
199.77	2050.02
199.99	2174.94
200.21	2172.89
200.43	2220.00
200.65	2078.69
200.87	2017.25
201.09	2185.18
201.31	2123.74
201.53	2117.60
201.75	2189.28
201.97	2252.77
202.19	2133.98
202.41	2176.99
202.63	2308.06
202.85	2209.76
203.07	2181.09
203.29	2127.84
203.51	2009.06
203.73	2176.99
203.95	2455.51
204.17	2131.94
204.39	2164.70
204.61	2162.66
204.83	2144.22
205.05	2306.01
205.27	2148.32
205.49	2424.80
205.71	2217.95
205.93	2039.78
206.15	2084.83
206.37	2220.00
206.59	2160.61
206.81	2029.54
207.03	2056.16
207.25	2101.22
207.47	2242.53
207.69	2154.46
207.91	2359.26
208.13	2277.34
208.34	2220.00
208.56	2115.55
208.78	2148.32
209.00	2193.37
209.22	2056.16
209.44	2156.51
209.66	2045.92
209.88	2154.46
210.10	2187.23
210.32	2072.54
210.54	2226.14
210.76	2217.95
210.98	2234.33
211.20	2013.15
211.42	2150.37
211.64	2277.34
211.86	2152.42
212.08	2131.94
212.30	2209.76
212.52	2203.61
212.74	2172.89
212.96	2127.84
213.17	2148.32
213.39	2260.96
213.61	2449.37
213.83	2160.61
214.05	2213.85
214.27	2285.53
214.49	2113.50
214.71	2029.54
214.93	2185.18
215.15	2242.53
215.37	2353.12
215.59	2047.97
215.81	2197.47
216.03	2338.78
216.24	2230.24
216.46	2146.27
216.68	2230.24
216.90	2273.25
217.12	2238.43
217.34	2119.65
217.56	2189.28
217.78	2334.68
218.00	2244.57
218.22	2197.47
218.44	2217.95
218.66	2258.91
218.87	2334.68
219.09	2103.26
219.31	2160.61
219.53	2176.99
219.75	2162.66
219.97	2105.31
220.19	2084.83
220.41	2138.08
220.63	2346.97
220.85	2148.32
221.06	2131.94
221.28	2316.25
221.50	2295.77
221.72	2123.74
221.94	2129.89
222.16	2121.70
222.38	2226.14
222.60	2166.75
222.82	2136.03
223.03	2256.86
223.25	2031.58
223.47	2181.09
223.69	2273.25
223.91	2203.61
224.13	2230.24
224.35	2146.27
224.57	2267.10
224.78	2217.95
225.00	2084.83
225.22	2144.22
225.44	2146.27
225.66	2314.20
225.88	2238.43
226.10	2154.46
226.32	2170.85
226.53	2342.88
226.75	2154.46
226.97	2129.89
227.19	2068.45
227.41	2031.58
227.63	2144.22
227.85	2070.50
228.06	2129.89
228.28	2160.61
228.50	2201.57
228.72	2054.11
228.94	2142.18
229.16	2078.69
229.37	2054.11
229.59	2140.13
229.81	2215.90
230.03	2164.70
230.25	2129.89
230.47	2068.45
230.69	2054.11
230.90	2301.92
231.12	2152.42
231.34	2226.14
231.56	2230.24
231.78	2113.50
232.00	2217.95
232.21	2144.22
232.43	2138.08
232.65	2050.02
232.87	2187.23
233.09	2047.97
233.30	2080.74
233.52	2283.49
233.74	2213.85
233.96	2125.79
234.18	2131.94
234.40	2185.18
234.61	2402.27
234.83	2000.87
235.05	2109.41
235.27	2445.27
235.49	2312.16
235.70	2113.50
235.92	2230.24
236.14	2258.91
236.36	2486.23
236.58	2037.73
236.79	2203.61
237.01	2248.67
237.23	2154.46
237.45	2232.29
237.67	2127.84
237.88	2185.18
238.10	2439.13
238.32	2058.21
238.54	2146.27
238.76	2138.08
238.97	2111.46
239.19	2082.78
239.41	2220.00
239.63	2267.10
239.85	2201.57
240.06	2101.22
240.28	2127.84
240.50	2260.96
240.72	2152.42
240.93	2146.27
241.15	2254.81
241.37	2207.71
241.59	2310.11
241.81	2164.70
242.02	2066.40
242.24	2179.04
242.46	2297.82
242.68	2054.11
242.89	2138.08
243.11	2279.39
243.33	2125.79
243.55	2197.47
243.76	2170.85
243.98	2109.41
244.20	2267.10
244.42	2133.98
244.64	2179.04
244.85	2088.93
245.07	2078.69
245.29	2170.85
245.51	2154.46
245.72	2273.25
245.94	2324.44
246.16	2136.03
246.38	2207.71
246.59	2097.12
246.81	2160.61
247.03	2113.50
247.24	2037.73
247.46	2121.70
247.68	2166.75
247.90	2045.92
248.11	2101.22
248.33	2336.73
248.55	2183.13
248.77	2201.57
248.98	2187.23
249.20	2355.16
249.42	2170.85
249.64	2174.94
249.85	2185.18
250.07	2154.46
250.29	2254.81
250.50	2174.94
250.72	1984.48
250.94	2244.57
251.16	2355.16
251.37	2215.90
251.59	2193.37
251.81	2269.15
252.02	2324.44
252.24	2097.12
252.46	2236.38
252.68	2146.27
252.89	2201.57
253.11	2062.30
253.33	2295.77
253.54	2306.01
253.76	2103.26
253.98	2131.94
254.20	2142.18
254.41	2052.06
254.63	2144.22
254.85	2023.39
255.06	2185.18
255.28	2258.91
255.50	2187.23
255.71	2115.55
255.93	2050.02
256.15	2197.47
256.36	2279.39
256.58	2119.65
256.80	2150.37
257.02	2158.56
257.23	2160.61
257.45	2125.79
257.67	2138.08
257.88	2105.31
258.10	2248.67
258.32	2158.56
258.53	2154.46
258.75	2408.41
258.97	2060.26
259.18	2072.54
259.40	2035.68
259.62	2379.74
259.83	2346.97
260.05	2232.29
260.27	2619.35
260.48	2303.96
260.70	2072.54
260.92	2066.40
261.13	2144.22
261.35	2201.57
261.57	2275.29
261.78	1982.43
262.00	2066.40
262.22	2168.80
262.43	2168.80
262.65	2117.60
262.86	2115.55
263.08	2324.44
263.30	2183.13
263.51	1994.72
263.73	2133.98
263.95	2420.70
264.16	2111.46
264.38	2023.39
264.60	2058.21
264.81	2125.79
265.03	2351.07
265.25	2318.30
265.46	2111.46
265.68	2308.06
265.89	2246.62
266.11	2086.88
266.33	2152.42
266.54	2322.40
266.76	2170.85
266.98	2228.19
267.19	2312.16
267.41	2318.30
267.62	2136.03
267.84	2105.31
268.06	2174.94
268.27	2246.62
268.49	2383.84
268.70	2215.90
268.92	2144.22
269.14	2150.37
269.35	1986.53
269.57	2170.85
269.79	2267.10
270.00	2162.66
270.22	2351.07
270.43	2050.02
270.65	2019.30
270.87	2209.76
271.08	2260.96
271.30	2080.74
271.51	2068.45
271.73	2271.20
271.95	2351.07
272.16	2146.27
272.38	2160.61
272.59	2099.17
272.81	2230.24
273.02	2203.61
273.24	2144.22
273.46	2365.40
273.67	2131.94
273.89	2058.21
274.10	2047.97
274.32	2275.29
274.54	2187.23
274.75	2131.94
274.97	2125.79
275.18	2267.10
275.40	2260.96
275.61	2136.03
275.83	2138.08
276.05	2074.59
276.26	2080.74
276.48	2136.03
276.69	2093.02
276.91	2228.19
277.12	2283.49
277.34	2232.29
277.55	2265.05
277.77	2308.06
277.99	2170.85
278.20	2076.64
278.42	2035.68
278.63	2037.73
278.85	2111.46
279.06	2146.27
279.28	2328.54
279.49	2265.05
279.71	2271.20
279.93	2170.85
280.14	2127.84
280.36	2127.84
280.57	2326.49
280.79	2238.43
281.00	2140.13
281.22	2144.22
281.43	2199.52
281.65	2060.26
281.86	2119.65
282.08	2310.11
282.29	2389.98
282.51	2070.50
282.73	2121.70
282.94	1945.57
283.16	2240.48
283.37	2369.50
283.59	2131.94
283.80	2275.29
284.02	2205.66
284.23	2179.04
284.45	2111.46
284.66	2086.88
284.88	2150.37
285.09	2248.67
285.31	2271.20
285.52	2220.00
285.74	2146.27
285.95	2211.81
286.17	2228.19
286.38	2232.29
286.60	2203.61
286.81	2170.85
287.03	2162.66
287.24	2105.31
287.46	2328.54
287.67	2185.18
287.89	2297.82
288.10	2187.23
288.32	2205.66
288.53	2332.64
288.75	2189.28
288.96	2285.53
289.18	2138.08
289.39	2095.07
289.61	2195.42
289.82	2426.84
290.04	2328.54
290.25	2105.31
290.47	2189.28
290.68	2150.37
290.90	2320.35
291.11	2031.58
291.33	2351.07
291.54	2088.93
291.76	2129.89
291.97	2142.18
292.18	2195.42
292.40	2170.85
292.61	2031.58
292.83	2408.41
293.04	2193.37
293.26	2244.57
293.47	2205.66
293.69	2095.07
293.90	2213.85
294.12	2283.49
294.33	2203.61
294.55	2127.84
294.76	2277.34
294.97	2344.92
295.19	2461.66
295.40	2152.42
295.62	2183.13
295.83	2246.62
296.05	2138.08
296.26	2303.96
296.48	2154.46
296.69	2238.43
296.90	2158.56
297.12	2187.23
297.33	2344.92
297.55	2228.19
297.76	2281.44
297.98	2269.15
298.19	2220.00
298.41	2193.37
298.62	2136.03
298.83	2322.40
299.05	2234.33
299.26	2174.94
299.48	2152.42
299.69	2220.00
299.90	2168.80
300.12	2103.26
300.33	2303.96
300.55	2193.37
300.76	2181.09
300.98	2146.27
301.19	2207.71
301.40	2185.18
301.62	2246.62
301.83	2170.85
302.05	2150.37
302.26	2232.29
302.47	2097.12
302.69	2095.07
302.90	2187.23
303.12	2056.16
303.33	2168.80
303.54	2381.79
303.76	2146.27
303.97	2211.81
304.19	2312.16
304.40	2144.22
304.61	2260.96
304.83	2357.21
305.04	2185.18
305.26	2293.72
305.47	2158.56
305.68	2129.89
305.90	2127.84
306.11	2277.34
306.33	2160.61
306.54	2152.42
306.75	2060.26
306.97	2056.16
307.18	2113.50
307.39	2121.70
307.61	2160.61
307.82	2207.71
308.04	2203.61
308.25	2152.42
308.46	2301.92
308.68	2215.90
308.89	2209.76
309.10	2273.25
309.32	2213.85
309.53	2127.84
309.74	2275.29
309.96	2170.85
310.17	2318.30
310.39	2189.28
310.60	2283.49
310.81	2187.23
311.03	2064.35
311.24	2154.46
311.45	2179.04
311.67	2334.68
311.88	2176.99
312.09	2199.52
312.31	2101.22
312.52	2207.71
312.73	2107.36
312.95	2080.74
313.16	2215.90
313.37	2256.86
313.59	2197.47
313.80	2363.36
314.01	2301.92
314.23	2039.78
314.44	2060.26
314.65	2056.16
314.87	2086.88
315.08	2168.80
315.29	2127.84
315.51	2062.30
315.72	2047.97
315.93	2263.01
316.15	2267.10
316.36	2150.37
316.57	2271.20
316.79	2179.04
317.00	2047.97
317.21	2285.53
317.43	2068.45
317.64	2174.94
317.85	2095.07
318.07	2086.88
318.28	2166.75
318.49	2322.40
318.70	2437.08
318.92	2396.12
319.13	2451.42
319.34	2373.60
319.56	2279.39
319.77	2279.39
319.98	2406.36
320.20	2277.34
320.41	2226.14
320.62	2277.34
320.83	2109.41
321.05	2412.51
321.26	2183.13
321.47	2125.79
321.69	2338.78
321.90	2015.20
322.11	2144.22
322.32	2144.22
322.54	2312.16
322.75	2164.70
322.96	2488.28
323.18	1978.34
323.39	2013.15
323.60	1996.77
323.81	2306.01
324.03	2174.94
324.24	2181.09
324.45	2185.18
324.66	2179.04
324.88	2346.97
325.09	2248.67
325.30	2158.56
325.52	2123.74
325.73	2162.66
325.94	2084.83
326.15	2011.11
326.37	2088.93
326.58	2232.29
326.79	2365.40
327.00	2109.41
327.22	2195.42
327.43	2162.66
327.64	2029.54
327.85	2238.43
328.07	2242.53
328.28	2324.44
328.49	2158.56
328.70	2166.75
328.92	2244.57
329.13	2176.99
329.34	2209.76
329.55	2285.53
329.76	2203.61
329.98	2140.13
330.19	2211.81
330.40	2146.27
330.61	2187.23
330.83	2289.63
331.04	2119.65
331.25	2224.09
331.46	2123.74
331.68	2117.60
331.89	2295.77
332.10	2174.94
332.31	2095.07
332.52	2179.04
332.74	2324.44
332.95	2099.17
333.16	2179.04
333.37	2232.29
333.58	2125.79
333.80	2185.18
334.01	2000.87
334.22	2105.31
334.43	2209.76
334.64	2170.85
334.86	2109.41
335.07	2121.70
335.28	2338.78
335.49	2056.16
335.70	2174.94
335.92	2367.45
336.13	2396.12
336.34	2201.57
336.55	2166.75
336.76	2320.35
336.98	2009.06
337.19	2160.61
337.40	2269.15
337.61	2441.18
337.82	2103.26
338.04	2244.57
338.25	2045.92
338.46	2117.60
338.67	2176.99
338.88	2086.88
339.09	2027.49
339.31	2199.52
339.52	2109.41
339.73	2115.55
339.94	2154.46
340.15	2252.77
340.36	2162.66
340.58	2191.33
340.79	2037.73
341.00	2230.24
341.21	2017.25
341.42	2318.30
341.63	2113.50
341.85	2236.38
342.06	2195.42
342.27	2088.93
342.48	2269.15
342.69	2076.64
342.90	2256.86
343.12	2256.86
343.33	2138.08
343.54	2260.96
343.75	2392.03
343.96	2174.94
344.17	2066.40
344.38	2236.38
344.60	2140.13
344.81	2074.59
345.02	2138.08
345.23	2215.90
345.44	2422.75
345.65	2213.85
345.86	2203.61
346.07	2189.28
346.29	2121.70
346.50	2203.61
346.71	2293.72
346.92	2306.01
347.13	2363.36
347.34	2156.51
347.55	2125.79
347.76	2162.66
347.98	2007.01
348.19	2111.46
348.40	2334.68
348.61	2176.99
348.82	2387.93
349.03	2226.14
349.24	2066.40
349.45	2359.26
349.66	2111.46
349.88	2166.75
350.09	2080.74
350.30	2338.78
350.51	2326.49
350.72	2228.19
350.93	2195.42
351.14	2154.46
351.35	2346.97
351.56	2146.27
351.77	2172.89
351.99	2260.96
352.20	2369.50
352.41	2269.15
352.62	2047.97
352.83	2244.57
353.04	2166.75
353.25	2146.27
353.46	2185.18
353.67	2314.20
353.88	1949.67
354.09	2131.94
354.30	2189.28
354.52	2312.16
354.73	2209.76
354.94	2113.50
355.15	2179.04
355.36	2330.59
355.57	2158.56
355.78	2176.99
355.99	2138.08
356.20	2121.70
356.41	2242.53
356.62	2213.85
356.83	2168.80
357.04	2394.08
357.25	2111.46
357.46	2133.98
357.68	2097.12
357.89	2127.84
358.10	2140.13
358.31	2095.07
358.52	2150.37
358.73	2197.47
358.94	2166.75
359.15	2144.22
359.36	2164.70
359.57	2187.23
359.78	2183.13
359.99	2260.96
360.20	2047.97
360.41	2250.72
360.62	2279.39
360.83	2224.09
361.04	2185.18
361.25	2185.18
361.46	2324.44
361.67	2242.53
361.88	2267.10
362.09	2285.53
362.30	2199.52
362.51	2144.22
362.72	2127.84
362.93	2310.11
363.14	2301.92
363.35	2176.99
363.56	2160.61
363.78	2244.57
363.99	2250.72
364.20	2090.98
364.41	2244.57
364.62	2428.89
364.83	2181.09
365.04	2162.66
365.25	2211.81
365.46	2367.45
365.67	2131.94
365.88	2263.01
366.09	2174.94
366.30	2129.89
366.51	2148.32
366.72	2136.03
366.93	2215.90
367.14	2191.33
367.35	2287.58
367.56	2215.90
367.77	2248.67
367.98	2211.81
368.18	2240.48
368.39	2240.48
368.60	2211.81
368.81	2281.44
369.02	2258.91
369.23	2203.61
369.44	2082.78
369.65	2142.18
369.86	2283.49
370.07	2293.72
370.28	2133.98
370.49	2273.25
370.70	2263.01
370.91	2111.46
371.12	2099.17
371.33	2301.92
371.54	2125.79
371.75	2256.86
371.96	2023.39
372.17	2277.34
372.38	2129.89
372.59	2207.71
372.80	2121.70
373.01	2183.13
373.22	2217.95
373.43	2142.18
373.64	2052.06
373.85	2285.53
374.06	2402.27
374.26	2213.85
374.47	2252.77
374.68	2332.64
374.89	2240.48
375.10	2183.13
375.31	2265.05
375.52	2234.33
375.73	2246.62
375.94	2185.18
376.15	2353.12
376.36	2107.36
376.57	2160.61
376.78	2074.59
376.99	2154.46
377.20	2322.40
377.40	2140.13
377.61	2316.25
377.82	2062.30
378.03	2314.20
378.24	2312.16
378.45	2242.53
378.66	2154.46
378.87	2086.88
379.08	2064.35
379.29	2121.70
379.50	2293.72
379.71	2242.53
379.91	2289.63
380.12	2142.18
380.33	2260.96
380.54	2138.08
380.75	2230.24
380.96	2199.52
381.17	2281.44
381.38	2195.42
381.59	2217.95
381.80	2136.03
382.00	2408.41
382.21	2332.64
382.42	2357.21
382.63	2383.84
382.84	2240.48
383.05	2236.38
383.26	2410.46
383.47	2217.95
383.68	2185.18
383.88	2326.49
384.09	2209.76
384.30	2439.13
384.51	2209.76
384.72	2189.28
384.93	2064.35
385.14	2232.29
385.35	2308.06
385.55	2062.30
385.76	2322.40
385.97	2131.94
386.18	2105.31
386.39	2109.41
386.60	2109.41
386.81	2166.75
387.02	2166.75
387.22	2050.02
387.43	2297.82
387.64	2310.11
387.85	2414.56
388.06	2400.22
388.27	4128.70
388.48	8490.88
388.68	12214.09
388.89	14520.10
389.10	15660.82
389.31	14393.12
389.52	11241.30
389.73	9834.35
389.93	8888.18
390.14	8107.91
390.35	7368.59
390.56	6518.68
390.77	5347.25
390.98	3997.64
391.18	3215.31
391.39	2676.70
391.60	2322.40
391.81	2344.92
392.02	2107.36
392.23	2410.46
392.43	2269.15
392.64	2355.16
392.85	2172.89
393.06	2359.26
393.27	2176.99
393.47	2133.98
393.68	2205.66
393.89	2228.19
394.10	2281.44
394.31	2127.84
394.52	2150.37
394.72	2195.42
394.93	2334.68
395.14	2088.93
395.35	2236.38
395.56	2176.99
395.76	2213.85
395.97	2179.04
396.18	2301.92
396.39	2367.45
396.60	2633.69
396.80	2412.51
397.01	2340.83
397.22	2316.25
397.43	2357.21
397.64	2228.19
397.84	2277.34
398.05	2414.56
398.26	2299.87
398.47	2234.33
398.67	2349.02
398.88	2267.10
399.09	2254.81
399.30	2183.13
399.51	2228.19
399.71	2086.88
399.92	2242.53
400.13	2140.13
400.34	2174.94
400.54	2160.61
400.75	2299.87
400.96	2308.06
401.17	2394.08
401.37	2207.71
401.58	2160.61
401.79	2127.84
402.00	2269.15
402.21	2568.15
402.41	2551.77
402.62	2594.78
402.83	2650.07
403.04	2625.50
403.24	2750.42
403.45	2281.44
403.66	2465.75
403.87	2473.95
404.07	2467.80
404.28	2488.28
404.49	2432.99
404.70	2252.77
404.90	2346.97
405.11	2254.81
405.32	2269.15
405.52	2185.18
405.73	2072.54
405.94	2133.98
406.15	2172.89
406.35	2330.59
406.56	2334.68
406.77	2203.61
406.98	2226.14
407.18	2138.08
407.39	2357.21
407.60	2103.26
407.80	2258.91
408.01	2217.95
408.22	2189.28
408.43	2072.54
408.63	2211.81
408.84	2265.05
409.05	2291.68
409.25	2131.94
409.46	2162.66
409.67	2187.23
409.88	2176.99
410.08	2217.95
410.29	2119.65
410.50	2283.49
410.70	2246.62
410.91	2052.06
411.12	2179.04
411.32	2138.08
411.53	2093.02
411.74	2250.72
411.95	2250.72
412.15	2236.38
412.36	2394.08
412.57	2287.58
412.77	2389.98
412.98	2232.29
413.19	2179.04
413.39	2248.67
413.60	2203.61
413.81	2316.25
414.01	2142.18
414.22	2248.67
414.43	2357.21
414.63	2152.42
414.84	2301.92
415.05	2179.04
415.25	2105.31
415.46	2211.81
415.67	2136.03
415.87	2183.13
416.08	2203.61
416.29	2211.81
416.49	2242.53
416.70	2146.27
416.91	2123.74
417.11	2195.42
417.32	2209.76
417.53	2289.63
417.73	2154.46
417.94	2234.33
418.15	2228.19
418.35	2170.85
418.56	2170.85
418.77	2412.51
418.97	2254.81
419.18	2105.31
419.38	1986.53
419.59	2166.75
419.80	2340.83
420.00	2103.26
420.21	2191.33
420.42	2324.44
420.62	2193.37
420.83	2121.70
421.04	2168.80
421.24	2179.04
421.45	2265.05
421.65	2220.00
421.86	2164.70
422.07	2283.49
422.27	2213.85
422.48	2215.90
422.69	2070.50
422.89	2224.09
423.10	2148.32
423.30	2097.12
423.51	2211.81
423.72	2211.81
423.92	2340.83
424.13	2117.60
424.33	2244.57
424.54	2250.72
424.75	2215.90
424.95	2381.79
425.16	2146.27
425.36	2158.56
425.57	2389.98
425.78	2310.11
425.98	2230.24
426.19	2160.61
426.39	2066.40
426.60	2195.42
426.81	2295.77
427.01	2209.76
427.22	2086.88
427.42	2109.41
427.63	2078.69
427.83	2228.19
428.04	2357.21
428.25	2312.16
428.45	2285.53
428.66	2263.01
428.86	2113.50
429.07	2131.94
429.28	2252.77
429.48	2170.85
429.69	2148.32
429.89	2176.99
430.10	2140.13
430.30	2279.39
430.51	2318.30
430.71	2115.55
430.92	2207.71
431.13	2148.32
431.33	2260.96
431.54	2295.77
431.74	2328.54
431.95	2435.03
432.15	2168.80
432.36	2207.71
432.56	2269.15
432.77	2285.53
432.98	2432.99
433.18	2193.37
433.39	2127.84
433.59	2187.23
433.80	2404.32
434.00	2385.88
434.21	2129.89
434.41	2164.70
434.62	2508.76
434.82	2052.06
435.03	2043.87
435.23	2224.09
435.44	2097.12
435.64	2164.70
435.85	2277.34
436.06	2252.77
436.26	2242.53
436.47	2217.95
436.67	2107.36
436.88	2154.46
437.08	2306.01
437.29	2269.15
437.49	2185.18
437.70	2265.05
437.90	2179.04
438.11	2297.82
438.31	2222.05
438.52	2498.52
438.72	2373.60
438.93	2475.99
439.13	2349.02
439.34	2359.26
439.54	2228.19
439.75	2297.82
439.95	2342.88
440.16	2195.42
440.36	2289.63
440.57	2291.68
440.77	2244.57
440.98	2213.85
441.18	2308.06
441.39	2166.75
441.59	2033.63
441.80	2406.36
442.00	2179.04
442.21	2301.92
442.41	2113.50
442.62	2277.34
442.82	2189.28
443.02	2140.13
443.23	2240.48
443.43	2242.53
443.64	2387.93
443.84	2111.46
444.05	2326.49
444.25	2250.72
444.46	2152.42
444.66	2222.05
444.87	2336.73
445.07	2131.94
445.28	2215.90
445.48	2383.84
445.69	2326.49
445.89	2584.54
446.09	2176.99
446.30	2385.88
446.50	2865.11
446.71	4300.73
446.91	5550.00
447.12	6254.50
447.32	6643.61
447.53	6242.21
447.73	5230.51
447.93	4552.63
448.14	4206.53
448.34	4046.79
448.55	3637.19
448.75	3577.80
448.96	3313.61
449.16	3018.71
449.36	2875.35
449.57	2559.96
449.77	2340.83
449.98	2228.19
450.18	2301.92
450.39	2318.30
450.59	2275.29
450.79	2189.28
451.00	2105.31
451.20	2326.49
451.41	2162.66
451.61	2254.81
451.81	2172.89
452.02	2123.74
452.22	2144.22
452.43	2144.22
452.63	2144.22
