SpectraSuite Data File
++++++++++++++++++++++++++++++++++++
Date: Thu May 05 12:35:33 CEST 2016
User: root
Dark Spectrum Present: No
Reference Spectrum Present: No
Number of Sampled Component Spectra: 1
Spectrometers: USB4C02835
Integration Time (usec): 100000 (USB4C02835)
Spectra Averaged: 1 (USB4C02835)
Boxcar Smoothing: 0 (USB4C02835)
Correct for Electrical Dark: No (USB4C02835)
Strobe/Lamp Enabled: No (USB4C02835)
Correct for Detector Non-linearity: No (USB4C02835)
Correct for Stray Light: No (USB4C02835)
Number of Pixels in Processed Spectrum: 3648
>>>>>Begin Processed Spectral Data<<<<<
177.47	1802.21
177.69	1802.21
177.91	1802.21
178.13	1777.64
178.36	1769.44
178.58	2064.35
178.80	2162.66
179.02	2015.20
179.24	2072.54
179.46	2058.21
179.68	2170.85
179.90	2140.13
180.13	2211.81
180.35	2086.88
180.57	2138.08
180.79	2299.87
181.01	2101.22
181.23	2183.13
181.45	2244.57
181.67	2174.94
181.90	2240.48
182.12	2088.93
182.34	2009.06
182.56	2277.34
182.78	2203.61
183.00	2070.50
183.22	2183.13
183.44	1990.63
183.66	2424.80
183.89	2267.10
184.11	2144.22
184.33	2287.58
184.55	2361.31
184.77	2197.47
184.99	2119.65
185.21	2150.37
185.43	2508.76
185.65	2146.27
185.87	2136.03
186.10	2365.40
186.32	2381.79
186.54	2203.61
186.76	2170.85
186.98	2275.29
187.20	2250.72
187.42	2133.98
187.64	2090.98
187.86	2174.94
188.08	2267.10
188.30	2095.07
188.52	2121.70
188.75	2258.91
188.97	2265.05
189.19	2160.61
189.41	2066.40
189.63	2277.34
189.85	2144.22
190.07	2052.06
190.29	2047.97
190.51	2211.81
190.73	2056.16
190.95	2275.29
191.17	2183.13
191.39	2068.45
191.61	2226.14
191.84	2052.06
192.06	2232.29
192.28	2105.31
192.50	2486.23
192.72	2228.19
192.94	2195.42
193.16	2301.92
193.38	2179.04
193.60	2078.69
193.82	2152.42
194.04	2359.26
194.26	2220.00
194.48	2099.17
194.70	2074.59
194.92	2146.27
195.14	2236.38
195.36	2189.28
195.58	2117.60
195.80	2207.71
196.02	2133.98
196.24	2004.96
196.46	2205.66
196.69	2205.66
196.91	2492.38
197.13	2162.66
197.35	2193.37
197.57	2310.11
197.79	2250.72
198.01	2144.22
198.23	2097.12
198.45	2242.53
198.67	2138.08
198.89	2052.06
199.11	2215.90
199.33	2121.70
199.55	1974.24
199.77	2113.50
199.99	2228.19
200.21	2228.19
200.43	2156.51
200.65	2105.31
200.87	2060.26
201.09	2299.87
201.31	2105.31
201.53	2119.65
201.75	2197.47
201.97	2267.10
202.19	2183.13
202.41	2183.13
202.63	2314.20
202.85	2183.13
203.07	2271.20
203.29	2150.37
203.51	2109.41
203.73	2142.18
203.95	2424.80
204.17	2140.13
204.39	2217.95
204.61	2160.61
204.83	2168.80
205.05	2133.98
205.27	2144.22
205.49	2396.12
205.71	2205.66
205.93	2029.54
206.15	2080.74
206.37	2152.42
206.59	2146.27
206.81	1998.82
207.03	2086.88
207.25	2152.42
207.47	2220.00
207.69	2113.50
207.91	2318.30
208.13	2318.30
208.34	2109.41
208.56	2052.06
208.78	2150.37
209.00	2103.26
209.22	2150.37
209.44	2179.04
209.66	2062.30
209.88	2187.23
210.10	2148.32
210.32	2168.80
210.54	2342.88
210.76	2138.08
210.98	2244.57
211.20	2023.39
211.42	2133.98
211.64	2269.15
211.86	2267.10
212.08	2156.51
212.30	2058.21
212.52	2228.19
212.74	2201.57
212.96	2168.80
213.17	2189.28
213.39	2238.43
213.61	2359.26
213.83	2265.05
214.05	2170.85
214.27	2256.86
214.49	2084.83
214.71	2056.16
214.93	2209.76
215.15	2201.57
215.37	2252.77
215.59	1937.38
215.81	2187.23
216.03	2263.01
216.24	2156.51
216.46	2166.75
216.68	2150.37
216.90	2265.05
217.12	2314.20
217.34	2222.05
217.56	2162.66
217.78	2365.40
218.00	2203.61
218.22	2203.61
218.44	2203.61
218.66	2195.42
218.87	2385.88
219.09	2076.64
219.31	2170.85
219.53	2228.19
219.75	2133.98
219.97	2146.27
220.19	2240.48
220.41	2187.23
220.63	2349.02
220.85	2144.22
221.06	2058.21
221.28	2344.92
221.50	2248.67
221.72	2176.99
221.94	2150.37
222.16	2170.85
222.38	2277.34
222.60	2140.13
222.82	2154.46
223.03	2293.72
223.25	2115.55
223.47	2195.42
223.69	2342.88
223.91	2252.77
224.13	2244.57
224.35	1998.82
224.57	2285.53
224.78	2103.26
225.00	2117.60
225.22	2125.79
225.44	2127.84
225.66	2283.49
225.88	2142.18
226.10	2252.77
226.32	2187.23
226.53	2383.84
226.75	2127.84
226.97	2193.37
227.19	2185.18
227.41	2121.70
227.63	2138.08
227.85	1994.72
228.06	2146.27
228.28	2105.31
228.50	2389.98
228.72	2043.87
228.94	2125.79
229.16	2045.92
229.37	2080.74
229.59	2099.17
229.81	2230.24
230.03	2072.54
230.25	2133.98
230.47	2041.82
230.69	2109.41
230.90	2211.81
231.12	2105.31
231.34	2193.37
231.56	2179.04
231.78	2080.74
232.00	2242.53
232.21	2086.88
232.43	2109.41
232.65	1976.29
232.87	2275.29
233.09	2078.69
233.30	2105.31
233.52	2277.34
233.74	2189.28
233.96	2066.40
234.18	2170.85
234.40	2189.28
234.61	2355.16
234.83	2150.37
235.05	2066.40
235.27	2416.60
235.49	2297.82
235.70	2179.04
235.92	2260.96
236.14	2176.99
236.36	2439.13
236.58	2054.11
236.79	2164.70
237.01	2172.89
237.23	2142.18
237.45	2240.48
237.67	2158.56
237.88	2242.53
238.10	2353.12
238.32	2039.78
238.54	2136.03
238.76	2166.75
238.97	2150.37
239.19	2136.03
239.41	2197.47
239.63	2326.49
239.85	2095.07
240.06	2133.98
240.28	2121.70
240.50	2402.27
240.72	2136.03
240.93	2070.50
241.15	2289.63
241.37	2211.81
241.59	2357.21
241.81	2119.65
242.02	2158.56
242.24	2185.18
242.46	2301.92
242.68	1982.43
242.89	2199.52
243.11	2291.68
243.33	2220.00
243.55	2127.84
243.76	2166.75
243.98	2117.60
244.20	2191.33
244.42	2142.18
244.64	2136.03
244.85	2117.60
245.07	2146.27
245.29	2187.23
245.51	2113.50
245.72	2256.86
245.94	2232.29
246.16	2211.81
246.38	2199.52
246.59	2168.80
246.81	2146.27
247.03	2076.64
247.24	1984.48
247.46	2103.26
247.68	2215.90
247.90	2029.54
248.11	2062.30
248.33	2269.15
248.55	2179.04
248.77	2107.36
248.98	2236.38
249.20	2334.68
249.42	2228.19
249.64	2154.46
249.85	2150.37
250.07	2129.89
250.29	2328.54
250.50	2271.20
250.72	2035.68
250.94	2187.23
251.16	2351.07
251.37	2195.42
251.59	2185.18
251.81	2252.77
252.02	2392.03
252.24	2076.64
252.46	2193.37
252.68	2127.84
252.89	2170.85
253.11	1988.58
253.33	2275.29
253.54	2287.58
253.76	2031.58
253.98	2097.12
254.20	2183.13
254.41	2105.31
254.63	2158.56
254.85	2045.92
255.06	2158.56
255.28	2273.25
255.50	2291.68
255.71	2064.35
255.93	2039.78
256.15	2197.47
256.36	2211.81
256.58	2125.79
256.80	2146.27
257.02	2166.75
257.23	2179.04
257.45	2078.69
257.67	2246.62
257.88	2138.08
258.10	2224.09
258.32	2138.08
258.53	2123.74
258.75	2361.31
258.97	2136.03
259.18	2146.27
259.40	2146.27
259.62	2308.06
259.83	2258.91
260.05	2170.85
260.27	2566.10
260.48	2295.77
260.70	2140.13
260.92	2113.50
261.13	2187.23
261.35	2242.53
261.57	2234.33
261.78	2004.96
262.00	2093.02
262.22	2199.52
262.43	2115.55
262.65	2037.73
262.86	2136.03
263.08	2306.01
263.30	2222.05
263.51	1988.58
263.73	2129.89
263.95	2320.35
264.16	2172.89
264.38	2101.22
264.60	2133.98
264.81	2201.57
265.03	2291.68
265.25	2254.81
265.46	2174.94
265.68	2236.38
265.89	2285.53
266.11	2017.25
266.33	2146.27
266.54	2195.42
266.76	2183.13
266.98	2148.32
267.19	2256.86
267.41	2263.01
267.62	2220.00
267.84	2027.49
268.06	2211.81
268.27	2242.53
268.49	2195.42
268.70	2181.09
268.92	2117.60
269.14	2115.55
269.35	2017.25
269.57	2234.33
269.79	2224.09
270.00	2095.07
270.22	2373.60
270.43	2023.39
270.65	1988.58
270.87	2211.81
271.08	2269.15
271.30	2152.42
271.51	2052.06
271.73	2183.13
271.95	2381.79
272.16	2133.98
272.38	2164.70
272.59	2150.37
272.81	2265.05
273.02	2148.32
273.24	2103.26
273.46	2230.24
273.67	2133.98
273.89	2031.58
274.10	2097.12
274.32	2324.44
274.54	2172.89
274.75	2183.13
274.97	2133.98
275.18	2269.15
275.40	2246.62
275.61	2162.66
275.83	2244.57
276.05	2164.70
276.26	2181.09
276.48	2144.22
276.69	2129.89
276.91	2144.22
277.12	2349.02
277.34	2220.00
277.55	2295.77
277.77	2150.37
277.99	2117.60
278.20	2093.02
278.42	2035.68
278.63	2103.26
278.85	2226.14
279.06	2060.26
279.28	2267.10
279.49	2269.15
279.71	2232.29
279.93	2146.27
280.14	2187.23
280.36	2131.94
280.57	2271.20
280.79	2285.53
281.00	2064.35
281.22	2154.46
281.43	2318.30
281.65	1941.47
281.86	2062.30
282.08	2191.33
282.29	2371.55
282.51	2035.68
282.73	2121.70
282.94	2058.21
283.16	2295.77
283.37	2332.64
283.59	2154.46
283.80	2158.56
284.02	2150.37
284.23	2187.23
284.45	2179.04
284.66	2131.94
284.88	2131.94
285.09	2111.46
285.31	2187.23
285.52	2211.81
285.74	2013.15
285.95	2195.42
286.17	2213.85
286.38	2301.92
286.60	2131.94
286.81	2152.42
287.03	2066.40
287.24	2267.10
287.46	2269.15
287.67	2232.29
287.89	2371.55
288.10	2176.99
288.32	2213.85
288.53	2318.30
288.75	2185.18
288.96	2269.15
289.18	2121.70
289.39	2174.94
289.61	2199.52
289.82	2418.65
290.04	2428.89
290.25	2113.50
290.47	2150.37
290.68	2123.74
290.90	2242.53
291.11	2095.07
291.33	2234.33
291.54	2121.70
291.76	2086.88
291.97	2275.29
292.18	2154.46
292.40	2195.42
292.61	2138.08
292.83	2422.75
293.04	2252.77
293.26	2244.57
293.47	2230.24
293.69	2095.07
293.90	2224.09
294.12	2342.88
294.33	2220.00
294.55	2220.00
294.76	2283.49
294.97	2322.40
295.19	2406.36
295.40	2181.09
295.62	2183.13
295.83	2340.83
296.05	2144.22
296.26	2314.20
296.48	2117.60
296.69	2154.46
296.90	2174.94
297.12	2152.42
297.33	2260.96
297.55	2226.14
297.76	2306.01
297.98	2189.28
298.19	2166.75
298.41	2244.57
298.62	2113.50
298.83	2256.86
299.05	2220.00
299.26	2111.46
299.48	2084.83
299.69	2142.18
299.90	2193.37
300.12	2097.12
300.33	2297.82
300.55	2205.66
300.76	2207.71
300.98	2117.60
301.19	2215.90
301.40	2146.27
301.62	2123.74
301.83	2267.10
302.05	2205.66
302.26	2162.66
302.47	2166.75
302.69	2136.03
302.90	2201.57
303.12	1933.28
303.33	2203.61
303.54	2375.64
303.76	2185.18
303.97	2297.82
304.19	2306.01
304.40	2146.27
304.61	2191.33
304.83	2293.72
305.04	2232.29
305.26	2193.37
305.47	2176.99
305.68	2144.22
305.90	2058.21
306.11	2351.07
306.33	2185.18
306.54	2105.31
306.75	2072.54
306.97	2054.11
307.18	2086.88
307.39	2127.84
307.61	2211.81
307.82	2158.56
308.04	2310.11
308.25	2097.12
308.46	2181.09
308.68	2138.08
308.89	2201.57
309.10	2244.57
309.32	2205.66
309.53	2187.23
309.74	2252.77
309.96	2199.52
310.17	2240.48
310.39	2113.50
310.60	2242.53
310.81	2160.61
311.03	2097.12
311.24	2273.25
311.45	2228.19
311.67	2336.73
311.88	2113.50
312.09	2127.84
312.31	2222.05
312.52	2152.42
312.73	2162.66
312.95	2125.79
313.16	2115.55
313.37	2236.38
313.59	2166.75
313.80	2183.13
314.01	2316.25
314.23	2097.12
314.44	2133.98
314.65	2070.50
314.87	2072.54
315.08	2142.18
315.29	2195.42
315.51	2043.87
315.72	2050.02
315.93	2273.25
316.15	2191.33
316.36	2172.89
316.57	2203.61
316.79	2191.33
317.00	2101.22
317.21	2277.34
317.43	2119.65
317.64	2203.61
317.85	2121.70
318.07	2099.17
318.28	2201.57
318.49	2240.48
318.70	2406.36
318.92	2299.87
319.13	2287.58
319.34	2377.69
319.56	2295.77
319.77	2351.07
319.98	2349.02
320.20	2263.01
320.41	2269.15
320.62	2320.35
320.83	2189.28
321.05	2324.44
321.26	2183.13
321.47	2242.53
321.69	2260.96
321.90	2031.58
322.11	2123.74
322.32	2338.78
322.54	2310.11
322.75	2121.70
322.96	2459.61
323.18	1955.81
323.39	2076.64
323.60	2105.31
323.81	2250.72
324.03	2144.22
324.24	2205.66
324.45	2222.05
324.66	2136.03
324.88	2351.07
325.09	2377.69
325.30	2119.65
325.52	2187.23
325.73	2267.10
325.94	2103.26
326.15	2017.25
326.37	2068.45
326.58	2361.31
326.79	2365.40
327.00	2035.68
327.22	2146.27
327.43	2095.07
327.64	2142.18
327.85	2242.53
328.07	2181.09
328.28	2463.71
328.49	2207.71
328.70	2224.09
328.92	2133.98
329.13	2228.19
329.34	2234.33
329.55	2254.81
329.76	2246.62
329.98	2197.47
330.19	2314.20
330.40	2187.23
330.61	2150.37
330.83	2314.20
331.04	2095.07
331.25	2207.71
331.46	2105.31
331.68	2058.21
331.89	2242.53
332.10	2170.85
332.31	2127.84
332.52	2162.66
332.74	2279.39
332.95	2002.91
333.16	2115.55
333.37	2277.34
333.58	2111.46
333.80	2203.61
334.01	2088.93
334.22	2232.29
334.43	2129.89
334.64	2088.93
334.86	2033.63
335.07	2131.94
335.28	2363.36
335.49	2056.16
335.70	2258.91
335.92	2252.77
336.13	2389.98
336.34	2232.29
336.55	2174.94
336.76	2209.76
336.98	2041.82
337.19	2138.08
337.40	2303.96
337.61	2432.99
337.82	2144.22
338.04	2238.43
338.25	2101.22
338.46	2183.13
338.67	2236.38
338.88	2117.60
339.09	2095.07
339.31	2070.50
339.52	2052.06
339.73	2080.74
339.94	2211.81
340.15	2226.14
340.36	2109.41
340.58	2244.57
340.79	2187.23
341.00	2258.91
341.21	2138.08
341.42	2273.25
341.63	2093.02
341.85	2275.29
342.06	2228.19
342.27	2088.93
342.48	2205.66
342.69	1959.91
342.90	2246.62
343.12	2267.10
343.33	2074.59
343.54	2299.87
343.75	2310.11
343.96	2156.51
344.17	2158.56
344.38	2179.04
344.60	2170.85
344.81	2121.70
345.02	2127.84
345.23	2273.25
345.44	2424.80
345.65	2160.61
345.86	2191.33
346.07	2197.47
346.29	2074.59
346.50	2187.23
346.71	2265.05
346.92	2306.01
347.13	2396.12
347.34	2136.03
347.55	2072.54
347.76	2281.44
347.98	2041.82
348.19	2166.75
348.40	2185.18
348.61	2129.89
348.82	2387.93
349.03	2267.10
349.24	2047.97
349.45	2367.45
349.66	2060.26
349.88	2209.76
350.09	2107.36
350.30	2334.68
350.51	2299.87
350.72	2166.75
350.93	2205.66
351.14	2144.22
351.35	2273.25
351.56	2193.37
351.77	2166.75
351.99	2289.63
352.20	2297.82
352.41	2308.06
352.62	2002.91
352.83	2250.72
353.04	2226.14
353.25	2117.60
353.46	2306.01
353.67	2289.63
353.88	2013.15
354.09	2189.28
354.30	2244.57
354.52	2256.86
354.73	2244.57
354.94	2215.90
355.15	2209.76
355.36	2306.01
355.57	2146.27
355.78	2197.47
355.99	2101.22
356.20	2160.61
356.41	2265.05
356.62	2232.29
356.83	2172.89
357.04	2371.55
357.25	2076.64
357.46	2172.89
357.68	2035.68
357.89	2093.02
358.10	2197.47
358.31	2240.48
358.52	2174.94
358.73	2142.18
358.94	2105.31
359.15	2129.89
359.36	2250.72
359.57	2084.83
359.78	2179.04
359.99	2217.95
360.20	2078.69
360.41	2179.04
360.62	2297.82
360.83	2154.46
361.04	2168.80
361.25	2211.81
361.46	2312.16
361.67	2230.24
361.88	2234.33
362.09	2248.67
362.30	2220.00
362.51	2086.88
362.72	2203.61
362.93	2254.81
363.14	2215.90
363.35	2254.81
363.56	2084.83
363.78	2289.63
363.99	2246.62
364.20	2121.70
364.41	2156.51
364.62	2367.45
364.83	2269.15
365.04	2181.09
365.25	2162.66
365.46	2355.16
365.67	2170.85
365.88	2164.70
366.09	2111.46
366.30	2150.37
366.51	2203.61
366.72	2060.26
366.93	2097.12
367.14	2211.81
367.35	2289.63
367.56	2246.62
367.77	2301.92
367.98	2168.80
368.18	2201.57
368.39	2199.52
368.60	2142.18
368.81	2215.90
369.02	2215.90
369.23	2193.37
369.44	2064.35
369.65	2215.90
369.86	2220.00
370.07	2242.53
370.28	2099.17
370.49	2267.10
370.70	2283.49
370.91	2148.32
371.12	2054.11
371.33	2330.59
371.54	2152.42
371.75	2336.73
371.96	1992.67
372.17	2138.08
372.38	2115.55
372.59	2209.76
372.80	2185.18
373.01	2084.83
373.22	2203.61
373.43	2240.48
373.64	2007.01
373.85	2289.63
374.06	2312.16
374.26	2297.82
374.47	2172.89
374.68	2269.15
374.89	2174.94
375.10	2187.23
375.31	2181.09
375.52	2205.66
375.73	2236.38
375.94	2066.40
376.15	2336.73
376.36	2121.70
376.57	2090.98
376.78	2160.61
376.99	2170.85
377.20	2301.92
377.40	2195.42
377.61	2293.72
377.82	2131.94
378.03	2365.40
378.24	2205.66
378.45	2176.99
378.66	2213.85
378.87	2035.68
379.08	2035.68
379.29	2127.84
379.50	2289.63
379.71	2230.24
379.91	2297.82
380.12	2187.23
380.33	2234.33
380.54	2220.00
380.75	2234.33
380.96	2119.65
381.17	2303.96
381.38	2185.18
381.59	2205.66
381.80	2170.85
382.00	2514.91
382.21	2185.18
382.42	2389.98
382.63	2420.70
382.84	2228.19
383.05	2351.07
383.26	2373.60
383.47	2269.15
383.68	2222.05
383.88	2265.05
384.09	2224.09
384.30	2303.96
384.51	2242.53
384.72	2138.08
384.93	2115.55
385.14	2201.57
385.35	2258.91
385.55	2068.45
385.76	2351.07
385.97	2176.99
386.18	2088.93
386.39	2215.90
386.60	2160.61
386.81	2152.42
387.02	2113.50
387.22	2156.51
387.43	2273.25
387.64	2256.86
387.85	2367.45
388.06	2410.46
388.27	4003.78
388.48	8630.14
388.68	11982.67
388.89	14454.56
389.10	15865.61
389.31	14505.76
389.52	11255.64
389.73	9838.44
389.93	8806.27
390.14	8126.34
390.35	7268.24
390.56	6533.02
390.77	5289.90
390.98	4030.40
391.18	3350.48
391.39	2719.70
391.60	2312.16
391.81	2385.88
392.02	2097.12
392.23	2367.45
392.43	2285.53
392.64	2308.06
392.85	2224.09
393.06	2361.31
393.27	2166.75
393.47	2209.76
393.68	2203.61
393.89	2203.61
394.10	2299.87
394.31	2121.70
394.52	2136.03
394.72	2119.65
394.93	2346.97
395.14	2107.36
395.35	2258.91
395.56	2160.61
395.76	2215.90
395.97	2338.78
396.18	2306.01
396.39	2306.01
396.60	2666.46
396.80	2359.26
397.01	2314.20
397.22	2301.92
397.43	2353.12
397.64	2207.71
397.84	2289.63
398.05	2420.70
398.26	2238.43
398.47	2293.72
398.67	2291.68
398.88	2129.89
399.09	2179.04
399.30	2107.36
399.51	2240.48
399.71	2174.94
399.92	2203.61
400.13	2211.81
400.34	2183.13
400.54	2140.13
400.75	2449.37
400.96	2293.72
401.17	2342.88
401.37	2260.96
401.58	2240.48
401.79	2166.75
402.00	2334.68
402.21	2523.10
402.41	2602.97
402.62	2635.74
402.83	2693.08
403.04	2576.34
403.24	2729.94
403.45	2389.98
403.66	2441.18
403.87	2432.99
404.07	2490.33
404.28	2570.20
404.49	2381.79
404.70	2285.53
404.90	2306.01
405.11	2273.25
405.32	2271.20
405.52	2168.80
405.73	2099.17
405.94	2195.42
406.15	2199.52
406.35	2228.19
406.56	2226.14
406.77	2152.42
406.98	2230.24
407.18	2162.66
407.39	2287.58
407.60	2179.04
407.80	2232.29
408.01	2166.75
408.22	2265.05
408.43	2136.03
408.63	2201.57
408.84	2260.96
409.05	2303.96
409.25	2068.45
409.46	2148.32
409.67	2209.76
409.88	2144.22
410.08	2156.51
410.29	2072.54
410.50	2271.20
410.70	2226.14
410.91	2088.93
411.12	2217.95
411.32	2187.23
411.53	2146.27
411.74	2295.77
411.95	2285.53
412.15	2318.30
412.36	2330.59
412.57	2310.11
412.77	2269.15
412.98	2297.82
413.19	2203.61
413.39	2201.57
413.60	2232.29
413.81	2340.83
414.01	2107.36
414.22	2254.81
414.43	2256.86
414.63	2183.13
414.84	2318.30
415.05	2189.28
415.25	2095.07
415.46	2260.96
415.67	2133.98
415.87	2187.23
416.08	2207.71
416.29	2105.31
416.49	2293.72
416.70	2136.03
416.91	2228.19
417.11	2140.13
417.32	2357.21
417.53	2258.91
417.73	2242.53
417.94	2201.57
418.15	2250.72
418.35	2267.10
418.56	2240.48
418.77	2494.43
418.97	2176.99
419.18	2195.42
419.38	1980.39
419.59	2205.66
419.80	2281.44
420.00	2185.18
420.21	2183.13
420.42	2346.97
420.62	2226.14
420.83	2168.80
421.04	2138.08
421.24	2160.61
421.45	2232.29
421.65	2176.99
421.86	2156.51
422.07	2240.48
422.27	2260.96
422.48	2260.96
422.69	2074.59
422.89	2207.71
423.10	2162.66
423.30	2050.02
423.51	2252.77
423.72	2187.23
423.92	2303.96
424.13	2113.50
424.33	2156.51
424.54	2332.64
424.75	2150.37
424.95	2342.88
425.16	2162.66
425.36	2199.52
425.57	2359.26
425.78	2355.16
425.98	2289.63
426.19	2176.99
426.39	2176.99
426.60	2213.85
426.81	2340.83
427.01	2228.19
427.22	2127.84
427.42	2111.46
427.63	2191.33
427.83	2299.87
428.04	2371.55
428.25	2242.53
428.45	2306.01
428.66	2291.68
428.86	2166.75
429.07	2203.61
429.28	2220.00
429.48	2146.27
429.69	2119.65
429.89	2246.62
430.10	2068.45
430.30	2269.15
430.51	2224.09
430.71	2152.42
430.92	2144.22
431.13	2111.46
431.33	2244.57
431.54	2211.81
431.74	2308.06
431.95	2461.66
432.15	2101.22
432.36	2146.27
432.56	2275.29
432.77	2306.01
432.98	2422.75
433.18	2201.57
433.39	2119.65
433.59	2174.94
433.80	2396.12
434.00	2459.61
434.21	2160.61
434.41	2162.66
434.62	2422.75
434.82	2123.74
435.03	2105.31
435.23	2162.66
435.44	1927.14
435.64	2162.66
435.85	2168.80
436.06	2258.91
436.26	2295.77
436.47	2146.27
436.67	2099.17
436.88	2136.03
437.08	2260.96
437.29	2265.05
437.49	2209.76
437.70	2373.60
437.90	2191.33
438.11	2365.40
438.31	2256.86
438.52	2381.79
438.72	2398.17
438.93	2457.56
439.13	2306.01
439.34	2293.72
439.54	2240.48
439.75	2301.92
439.95	2244.57
440.16	2185.18
440.36	2240.48
440.57	2256.86
440.77	2248.67
440.98	2197.47
441.18	2254.81
441.39	2195.42
441.59	2064.35
441.80	2432.99
442.00	2129.89
442.21	2279.39
442.41	2093.02
442.62	2340.83
442.82	2107.36
443.02	2127.84
443.23	2240.48
443.43	2152.42
443.64	2301.92
443.84	2146.27
444.05	2334.68
444.25	2146.27
444.46	2224.09
444.66	2265.05
444.87	2375.64
445.07	2105.31
445.28	2203.61
445.48	2332.64
445.69	2318.30
445.89	2371.55
446.09	2172.89
446.30	2441.18
446.50	2846.68
446.71	4460.48
446.91	5552.04
447.12	6381.47
447.32	6750.10
447.53	6111.14
447.73	5197.74
447.93	4552.63
448.14	4278.21
448.34	4169.66
448.55	3569.61
448.75	3534.79
448.96	3297.23
449.16	3018.71
449.36	2848.72
449.57	2457.56
449.77	2297.82
449.98	2242.53
450.18	2318.30
450.39	2330.59
450.59	2289.63
450.79	2179.04
451.00	2158.56
451.20	2310.11
451.41	2166.75
451.61	2275.29
451.81	2215.90
452.02	2228.19
452.22	2191.33
452.43	2211.81
452.63	2189.28
