SpectraSuite Data File
++++++++++++++++++++++++++++++++++++
Date: Thu May 05 12:35:35 CEST 2016
User: root
Dark Spectrum Present: No
Reference Spectrum Present: No
Number of Sampled Component Spectra: 1
Spectrometers: USB4C02835
Integration Time (usec): 100000 (USB4C02835)
Spectra Averaged: 1 (USB4C02835)
Boxcar Smoothing: 0 (USB4C02835)
Correct for Electrical Dark: No (USB4C02835)
Strobe/Lamp Enabled: No (USB4C02835)
Correct for Detector Non-linearity: No (USB4C02835)
Correct for Stray Light: No (USB4C02835)
Number of Pixels in Processed Spectrum: 3648
>>>>>Begin Processed Spectral Data<<<<<
177.47	1775.59
177.69	1775.59
177.91	1775.59
178.13	1816.55
178.36	1746.92
178.58	2054.11
178.80	2187.23
179.02	2062.30
179.24	2054.11
179.46	2142.18
179.68	2207.71
179.90	2228.19
180.13	2158.56
180.35	2045.92
180.57	2136.03
180.79	2215.90
181.01	2220.00
181.23	2203.61
181.45	2215.90
181.67	2244.57
181.90	2295.77
182.12	2097.12
182.34	1992.67
182.56	2224.09
182.78	2287.58
183.00	2043.87
183.22	2050.02
183.44	2056.16
183.66	2506.71
183.89	2238.43
184.11	2111.46
184.33	2224.09
184.55	2293.72
184.77	2088.93
184.99	2109.41
185.21	2136.03
185.43	2482.14
185.65	2099.17
185.87	2068.45
186.10	2400.22
186.32	2475.99
186.54	2291.68
186.76	2174.94
186.98	2340.83
187.20	2224.09
187.42	2174.94
187.64	2107.36
187.86	2301.92
188.08	2310.11
188.30	2088.93
188.52	2199.52
188.75	2314.20
188.97	2363.36
189.19	2054.11
189.41	2097.12
189.63	2269.15
189.85	2117.60
190.07	2035.68
190.29	2013.15
190.51	2232.29
190.73	2072.54
190.95	2267.10
191.17	2125.79
191.39	2029.54
191.61	2156.51
191.84	2054.11
192.06	2189.28
192.28	2047.97
192.50	2494.43
192.72	2201.57
192.94	2078.69
193.16	2383.84
193.38	2224.09
193.60	2064.35
193.82	2060.26
194.04	2334.68
194.26	2265.05
194.48	2101.22
194.70	2074.59
194.92	2070.50
195.14	2230.24
195.36	2121.70
195.58	2138.08
195.80	2183.13
196.02	2109.41
196.24	2158.56
196.46	2127.84
196.69	2148.32
196.91	2420.70
197.13	2084.83
197.35	2150.37
197.57	2389.98
197.79	2211.81
198.01	2201.57
198.23	2170.85
198.45	2176.99
198.67	2068.45
198.89	2072.54
199.11	2183.13
199.33	2195.42
199.55	1933.28
199.77	2154.46
199.99	2193.37
200.21	2105.31
200.43	2174.94
200.65	2019.30
200.87	2043.87
201.09	2183.13
201.31	2176.99
201.53	2158.56
201.75	2197.47
201.97	2189.28
202.19	2211.81
202.41	2211.81
202.63	2310.11
202.85	2222.05
203.07	2211.81
203.29	2142.18
203.51	2052.06
203.73	2164.70
203.95	2406.36
204.17	2084.83
204.39	2154.46
204.61	2179.04
204.83	2119.65
205.05	2228.19
205.27	2152.42
205.49	2408.41
205.71	2156.51
205.93	2072.54
206.15	2074.59
206.37	2242.53
206.59	2193.37
206.81	2052.06
207.03	2099.17
207.25	2070.50
207.47	2242.53
207.69	2152.42
207.91	2299.87
208.13	2301.92
208.34	2131.94
208.56	2035.68
208.78	2228.19
209.00	2199.52
209.22	2146.27
209.44	2093.02
209.66	2150.37
209.88	2160.61
210.10	2142.18
210.32	2088.93
210.54	2328.54
210.76	2236.38
210.98	2252.77
211.20	1980.39
211.42	2179.04
211.64	2269.15
211.86	2230.24
212.08	2136.03
212.30	2209.76
212.52	2154.46
212.74	2258.91
212.96	2213.85
213.17	2260.96
213.39	2312.16
213.61	2363.36
213.83	2168.80
214.05	2127.84
214.27	2260.96
214.49	2064.35
214.71	2011.11
214.93	2201.57
215.15	2179.04
215.37	2222.05
215.59	2009.06
215.81	2181.09
216.03	2385.88
216.24	2215.90
216.46	2166.75
216.68	2146.27
216.90	2260.96
217.12	2332.64
217.34	2136.03
217.56	2240.48
217.78	2269.15
218.00	2209.76
218.22	2207.71
218.44	2236.38
218.66	2174.94
218.87	2324.44
219.09	2088.93
219.31	2217.95
219.53	2334.68
219.75	2121.70
219.97	2185.18
220.19	2183.13
220.41	2220.00
220.63	2359.26
220.85	2144.22
221.06	2121.70
221.28	2334.68
221.50	2285.53
221.72	2109.41
221.94	2103.26
222.16	2267.10
222.38	2193.37
222.60	2127.84
222.82	2148.32
223.03	2220.00
223.25	2064.35
223.47	2162.66
223.69	2332.64
223.91	2250.72
224.13	2133.98
224.35	2015.20
224.57	2195.42
224.78	2273.25
225.00	2109.41
225.22	2246.62
225.44	2181.09
225.66	2209.76
225.88	2095.07
226.10	2244.57
226.32	2172.89
226.53	2312.16
226.75	2140.13
226.97	2172.89
227.19	2103.26
227.41	2109.41
227.63	2146.27
227.85	2123.74
228.06	2103.26
228.28	2119.65
228.50	2123.74
228.72	2039.78
228.94	2082.78
229.16	2060.26
229.37	2150.37
229.59	2056.16
229.81	2308.06
230.03	2164.70
230.25	2066.40
230.47	1982.43
230.69	2088.93
230.90	2269.15
231.12	2150.37
231.34	2166.75
231.56	2248.67
231.78	2127.84
232.00	2209.76
232.21	2129.89
232.43	2109.41
232.65	1986.53
232.87	2201.57
233.09	2031.58
233.30	2136.03
233.52	2285.53
233.74	2193.37
233.96	2101.22
234.18	2170.85
234.40	2166.75
234.61	2422.75
234.83	2037.73
235.05	2019.30
235.27	2414.56
235.49	2326.49
235.70	2109.41
235.92	2254.81
236.14	2273.25
236.36	2459.61
236.58	2123.74
236.79	2179.04
237.01	2252.77
237.23	2220.00
237.45	2215.90
237.67	2062.30
237.88	2181.09
238.10	2385.88
238.32	2078.69
238.54	2150.37
238.76	2113.50
238.97	2086.88
239.19	2002.91
239.41	2230.24
239.63	2260.96
239.85	2138.08
240.06	2136.03
240.28	2084.83
240.50	2308.06
240.72	2240.48
240.93	2045.92
241.15	2250.72
241.37	2152.42
241.59	2353.12
241.81	2050.02
242.02	2172.89
242.24	2193.37
242.46	2207.71
242.68	2050.02
242.89	2076.64
243.11	2279.39
243.33	2176.99
243.55	2150.37
243.76	2105.31
243.98	2168.80
244.20	2146.27
244.42	2179.04
244.64	2121.70
244.85	2086.88
245.07	2074.59
245.29	2209.76
245.51	2166.75
245.72	2215.90
245.94	2277.34
246.16	2148.32
246.38	2170.85
246.59	2164.70
246.81	2172.89
247.03	2121.70
247.24	1986.53
247.46	2160.61
247.68	2125.79
247.90	2015.20
248.11	2166.75
248.33	2226.14
248.55	2158.56
248.77	2250.72
248.98	2236.38
249.20	2322.40
249.42	2209.76
249.64	2090.98
249.85	2138.08
250.07	2121.70
250.29	2252.77
250.50	2277.34
250.72	2009.06
250.94	2191.33
251.16	2322.40
251.37	2193.37
251.59	2193.37
251.81	2191.33
252.02	2263.01
252.24	2119.65
252.46	2166.75
252.68	2146.27
252.89	2101.22
253.11	2015.20
253.33	2310.11
253.54	2363.36
253.76	2021.35
253.98	2154.46
254.20	2105.31
254.41	2043.87
254.63	2142.18
254.85	2031.58
255.06	2162.66
255.28	2250.72
255.50	2146.27
255.71	2015.20
255.93	1949.67
256.15	2222.05
256.36	2299.87
256.58	2047.97
256.80	2150.37
257.02	2224.09
257.23	2152.42
257.45	2138.08
257.67	2254.81
257.88	2160.61
258.10	2226.14
258.32	2095.07
258.53	2232.29
258.75	2283.49
258.97	2129.89
259.18	2107.36
259.40	2193.37
259.62	2361.31
259.83	2357.21
260.05	2207.71
260.27	2529.24
260.48	2220.00
260.70	2101.22
260.92	2144.22
261.13	2197.47
261.35	2281.44
261.57	2205.66
261.78	2027.49
262.00	2172.89
262.22	2234.33
262.43	2070.50
262.65	2140.13
262.86	2207.71
263.08	2420.70
263.30	2195.42
263.51	1984.48
263.73	2033.63
263.95	2297.82
264.16	2099.17
264.38	2103.26
264.60	2168.80
264.81	2195.42
265.03	2267.10
265.25	2285.53
265.46	2088.93
265.68	2260.96
265.89	2244.57
266.11	2066.40
266.33	2156.51
266.54	2217.95
266.76	2179.04
266.98	2244.57
267.19	2295.77
267.41	2289.63
267.62	2170.85
267.84	1990.63
268.06	2150.37
268.27	2248.67
268.49	2273.25
268.70	2258.91
268.92	2133.98
269.14	2088.93
269.35	2189.28
269.57	2160.61
269.79	2215.90
270.00	2148.32
270.22	2367.45
270.43	2093.02
270.65	1982.43
270.87	2236.38
271.08	2287.58
271.30	2203.61
271.51	2129.89
271.73	2174.94
271.95	2318.30
272.16	2179.04
272.38	2160.61
272.59	2080.74
272.81	2234.33
273.02	2187.23
273.24	2174.94
273.46	2230.24
273.67	2138.08
273.89	2086.88
274.10	2058.21
274.32	2258.91
274.54	2250.72
274.75	2228.19
274.97	2086.88
275.18	2232.29
275.40	2240.48
275.61	2162.66
275.83	2306.01
276.05	2078.69
276.26	2203.61
276.48	2230.24
276.69	2133.98
276.91	2174.94
277.12	2322.40
277.34	2236.38
277.55	2179.04
277.77	2146.27
277.99	2191.33
278.20	2056.16
278.42	2105.31
278.63	2090.98
278.85	2099.17
279.06	2045.92
279.28	2260.96
279.49	2310.11
279.71	2342.88
279.93	2191.33
280.14	2185.18
280.36	2123.74
280.57	2314.20
280.79	2308.06
281.00	2148.32
281.22	2160.61
281.43	2340.83
281.65	1966.05
281.86	2109.41
282.08	2179.04
282.29	2465.75
282.51	2090.98
282.73	2086.88
282.94	2054.11
283.16	2207.71
283.37	2318.30
283.59	2179.04
283.80	2265.05
284.02	2084.83
284.23	2234.33
284.45	2170.85
284.66	2121.70
284.88	1994.72
285.09	2230.24
285.31	2277.34
285.52	2211.81
285.74	2043.87
285.95	2193.37
286.17	2170.85
286.38	2340.83
286.60	2062.30
286.81	2129.89
287.03	2187.23
287.24	2164.70
287.46	2189.28
287.67	2113.50
287.89	2398.17
288.10	2183.13
288.32	2201.57
288.53	2289.63
288.75	2162.66
288.96	2228.19
289.18	2166.75
289.39	2185.18
289.61	2232.29
289.82	2406.36
290.04	2379.74
290.25	2068.45
290.47	2125.79
290.68	2172.89
290.90	2254.81
291.11	2119.65
291.33	2226.14
291.54	2058.21
291.76	2158.56
291.97	2170.85
292.18	2211.81
292.40	2144.22
292.61	2117.60
292.83	2375.64
293.04	2203.61
293.26	2195.42
293.47	2211.81
293.69	2072.54
293.90	2166.75
294.12	2310.11
294.33	2197.47
294.55	2154.46
294.76	2181.09
294.97	2310.11
295.19	2371.55
295.40	2117.60
295.62	2275.29
295.83	2285.53
296.05	2133.98
296.26	2273.25
296.48	2095.07
296.69	2217.95
296.90	2224.09
297.12	2240.48
297.33	2162.66
297.55	2179.04
297.76	2179.04
297.98	2277.34
298.19	2160.61
298.41	2203.61
298.62	2179.04
298.83	2316.25
299.05	2146.27
299.26	2109.41
299.48	2074.59
299.69	2242.53
299.90	2193.37
300.12	2097.12
300.33	2222.05
300.55	2187.23
300.76	2166.75
300.98	2088.93
301.19	2269.15
301.40	2185.18
301.62	2138.08
301.83	2312.16
302.05	2203.61
302.26	2179.04
302.47	2224.09
302.69	2056.16
302.90	2168.80
303.12	1996.77
303.33	2207.71
303.54	2318.30
303.76	2138.08
303.97	2154.46
304.19	2189.28
304.40	2027.49
304.61	2244.57
304.83	2355.16
305.04	2246.62
305.26	2283.49
305.47	2199.52
305.68	2144.22
305.90	2013.15
306.11	2289.63
306.33	2176.99
306.54	2185.18
306.75	2015.20
306.97	2004.96
307.18	2123.74
307.39	2138.08
307.61	2189.28
307.82	2148.32
308.04	2263.01
308.25	2058.21
308.46	2232.29
308.68	2185.18
308.89	2197.47
309.10	2258.91
309.32	2222.05
309.53	2176.99
309.74	2285.53
309.96	2168.80
310.17	2273.25
310.39	2179.04
310.60	2238.43
310.81	2176.99
311.03	2039.78
311.24	2226.14
311.45	2220.00
311.67	2387.93
311.88	2187.23
312.09	2211.81
312.31	2195.42
312.52	2129.89
312.73	2117.60
312.95	2095.07
313.16	2107.36
313.37	2265.05
313.59	2228.19
313.80	2252.77
314.01	2289.63
314.23	2113.50
314.44	2131.94
314.65	2121.70
314.87	2160.61
315.08	2138.08
315.29	2168.80
315.51	2062.30
315.72	2056.16
315.93	2342.88
316.15	2203.61
316.36	2275.29
316.57	2181.09
316.79	2195.42
317.00	2095.07
317.21	2271.20
317.43	2080.74
317.64	2211.81
317.85	2152.42
318.07	2142.18
318.28	2129.89
318.49	2265.05
318.70	2439.13
318.92	2316.25
319.13	2367.45
319.34	2306.01
319.56	2224.09
319.77	2375.64
319.98	2367.45
320.20	2334.68
320.41	2260.96
320.62	2310.11
320.83	2097.12
321.05	2363.36
321.26	2191.33
321.47	2174.94
321.69	2332.64
321.90	2070.50
322.11	2070.50
322.32	2131.94
322.54	2320.35
322.75	2183.13
322.96	2463.71
323.18	2088.93
323.39	1984.48
323.60	2107.36
323.81	2220.00
324.03	2129.89
324.24	2166.75
324.45	2191.33
324.66	2113.50
324.88	2291.68
325.09	2426.84
325.30	2154.46
325.52	2078.69
325.73	2275.29
325.94	2086.88
326.15	1986.53
326.37	2133.98
326.58	2312.16
326.79	2334.68
327.00	2004.96
327.22	2181.09
327.43	2123.74
327.64	2125.79
327.85	2199.52
328.07	2203.61
328.28	2373.60
328.49	2095.07
328.70	2154.46
328.92	2121.70
329.13	2117.60
329.34	2166.75
329.55	2301.92
329.76	2199.52
329.98	2181.09
330.19	2322.40
330.40	2267.10
330.61	2162.66
330.83	2310.11
331.04	2189.28
331.25	2215.90
331.46	2043.87
331.68	1982.43
331.89	2232.29
332.10	2152.42
332.31	1974.24
332.52	2193.37
332.74	2338.78
332.95	1976.29
333.16	2226.14
333.37	2306.01
333.58	2080.74
333.80	2248.67
334.01	2045.92
334.22	2181.09
334.43	2152.42
334.64	2152.42
334.86	2088.93
335.07	2195.42
335.28	2326.49
335.49	2115.55
335.70	2191.33
335.92	2326.49
336.13	2371.55
336.34	2195.42
336.55	2228.19
336.76	2242.53
336.98	2029.54
337.19	2097.12
337.40	2285.53
337.61	2402.27
337.82	2234.33
338.04	2281.44
338.25	1957.86
338.46	2189.28
338.67	2142.18
338.88	2095.07
339.09	2080.74
339.31	2129.89
339.52	2172.89
339.73	2127.84
339.94	2160.61
340.15	2271.20
340.36	2224.09
340.58	2136.03
340.79	2066.40
341.00	2191.33
341.21	2082.78
341.42	2322.40
341.63	2146.27
341.85	2340.83
342.06	2197.47
342.27	2023.39
342.48	2275.29
342.69	2080.74
342.90	2224.09
343.12	2267.10
343.33	2121.70
343.54	2269.15
343.75	2318.30
343.96	2191.33
344.17	2074.59
344.38	2228.19
344.60	2068.45
344.81	2097.12
345.02	2217.95
345.23	2260.96
345.44	2432.99
345.65	2260.96
345.86	2144.22
346.07	2187.23
346.29	2111.46
346.50	2234.33
346.71	2230.24
346.92	2256.86
347.13	2400.22
347.34	2150.37
347.55	2273.25
347.76	2209.76
347.98	2035.68
348.19	2127.84
348.40	2285.53
348.61	2127.84
348.82	2361.31
349.03	2244.57
349.24	2086.88
349.45	2408.41
349.66	2013.15
349.88	2191.33
350.09	2072.54
350.30	2367.45
350.51	2301.92
350.72	2189.28
350.93	2195.42
351.14	2154.46
351.35	2281.44
351.56	2205.66
351.77	2107.36
351.99	2250.72
352.20	2383.84
352.41	2207.71
352.62	2019.30
352.83	2181.09
353.04	2136.03
353.25	2166.75
353.46	2265.05
353.67	2334.68
353.88	1982.43
354.09	2215.90
354.30	2121.70
354.52	2330.59
354.73	2215.90
354.94	2109.41
355.15	2211.81
355.36	2334.68
355.57	2105.31
355.78	2185.18
355.99	2117.60
356.20	2168.80
356.41	2263.01
356.62	2244.57
356.83	2191.33
357.04	2359.26
357.25	2064.35
357.46	2193.37
357.68	2072.54
357.89	2109.41
358.10	2136.03
358.31	2232.29
358.52	2181.09
358.73	2111.46
358.94	2095.07
359.15	2162.66
359.36	2232.29
359.57	2164.70
359.78	2230.24
359.99	2189.28
360.20	2123.74
360.41	2156.51
360.62	2185.18
360.83	2185.18
361.04	2224.09
361.25	2168.80
361.46	2389.98
361.67	2248.67
361.88	2203.61
362.09	2312.16
362.30	2236.38
362.51	2078.69
362.72	2224.09
362.93	2236.38
363.14	2244.57
363.35	2211.81
363.56	2215.90
363.78	2299.87
363.99	2289.63
364.20	2179.04
364.41	2195.42
364.62	2414.56
364.83	2228.19
365.04	2170.85
365.25	2195.42
365.46	2443.23
365.67	2050.02
365.88	2176.99
366.09	2088.93
366.30	2138.08
366.51	2224.09
366.72	2158.56
366.93	2142.18
367.14	2185.18
367.35	2320.35
367.56	2121.70
367.77	2291.68
367.98	2168.80
368.18	2148.32
368.39	2203.61
368.60	2050.02
368.81	2238.43
369.02	2242.53
369.23	2154.46
369.44	2025.44
369.65	2183.13
369.86	2258.91
370.07	2289.63
370.28	2105.31
370.49	2301.92
370.70	2326.49
370.91	2101.22
371.12	2029.54
371.33	2277.34
371.54	2191.33
371.75	2318.30
371.96	1892.32
372.17	2179.04
372.38	2183.13
372.59	2185.18
372.80	2088.93
373.01	2170.85
373.22	2220.00
373.43	2244.57
373.64	2019.30
373.85	2256.86
374.06	2359.26
374.26	2303.96
374.47	2232.29
374.68	2392.03
374.89	2220.00
375.10	2146.27
375.31	2328.54
375.52	2260.96
375.73	2170.85
375.94	2150.37
376.15	2258.91
376.36	2195.42
376.57	2099.17
376.78	2142.18
376.99	2281.44
377.20	2334.68
377.40	2195.42
377.61	2330.59
377.82	2064.35
378.03	2279.39
378.24	2287.58
378.45	2156.51
378.66	2152.42
378.87	1990.63
379.08	2150.37
379.29	2138.08
379.50	2314.20
379.71	2187.23
379.91	2277.34
380.12	2136.03
380.33	2103.26
380.54	2119.65
380.75	2156.51
380.96	2174.94
381.17	2355.16
381.38	2285.53
381.59	2232.29
381.80	2299.87
382.00	2379.74
382.21	2250.72
382.42	2408.41
382.63	2498.52
382.84	2258.91
383.05	2260.96
383.26	2379.74
383.47	2215.90
383.68	2220.00
383.88	2240.48
384.09	2185.18
384.30	2385.88
384.51	2211.81
384.72	2115.55
384.93	2164.70
385.14	2230.24
385.35	2297.82
385.55	2043.87
385.76	2365.40
385.97	2185.18
386.18	2103.26
386.39	2207.71
386.60	2107.36
386.81	2170.85
387.02	2015.20
387.22	2078.69
387.43	2312.16
387.64	2248.67
387.85	2428.89
388.06	2451.42
388.27	4069.31
388.48	8431.49
388.68	12148.55
388.89	14511.91
389.10	15654.67
389.31	14397.22
389.52	11501.39
389.73	9686.89
389.93	8783.74
390.14	8134.53
390.35	7335.82
390.56	6545.31
390.77	5408.69
390.98	4222.91
391.18	3272.65
391.39	2723.80
391.60	2289.63
391.81	2332.64
392.02	2179.04
392.23	2394.08
392.43	2215.90
392.64	2314.20
392.85	2152.42
393.06	2336.73
393.27	2162.66
393.47	2086.88
393.68	2205.66
393.89	2164.70
394.10	2275.29
394.31	2138.08
394.52	2162.66
394.72	2176.99
394.93	2387.93
395.14	2054.11
395.35	2246.62
395.56	2136.03
395.76	2136.03
395.97	2279.39
396.18	2326.49
396.39	2306.01
396.60	2660.31
396.80	2506.71
397.01	2387.93
397.22	2326.49
397.43	2449.37
397.64	2224.09
397.84	2273.25
398.05	2404.32
398.26	2207.71
398.47	2293.72
398.67	2301.92
398.88	2203.61
399.09	2283.49
399.30	2197.47
399.51	2289.63
399.71	2228.19
399.92	2240.48
400.13	2203.61
400.34	2146.27
400.54	2138.08
400.75	2389.98
400.96	2314.20
401.17	2371.55
401.37	2246.62
401.58	2183.13
401.79	2176.99
402.00	2332.64
402.21	2451.42
402.41	2519.00
402.62	2615.26
402.83	2666.46
403.04	2705.37
403.24	2770.90
403.45	2359.26
403.66	2535.39
403.87	2414.56
404.07	2457.56
404.28	2457.56
404.49	2506.71
404.70	2293.72
404.90	2328.54
405.11	2236.38
405.32	2240.48
405.52	2080.74
405.73	2174.94
405.94	2172.89
406.15	2172.89
406.35	2283.49
406.56	2215.90
406.77	2285.53
406.98	2256.86
407.18	2185.18
407.39	2324.44
407.60	2131.94
407.80	2230.24
408.01	2156.51
408.22	2185.18
408.43	2072.54
408.63	2236.38
408.84	2269.15
409.05	2224.09
409.25	2129.89
409.46	2146.27
409.67	2185.18
409.88	2138.08
410.08	2170.85
410.29	2189.28
410.50	2293.72
410.70	2215.90
410.91	2095.07
411.12	2166.75
411.32	2242.53
411.53	2170.85
411.74	2293.72
411.95	2324.44
412.15	2332.64
412.36	2314.20
412.57	2303.96
412.77	2355.16
412.98	2189.28
413.19	2201.57
413.39	2195.42
413.60	2193.37
413.81	2281.44
414.01	2144.22
414.22	2244.57
414.43	2310.11
414.63	2176.99
414.84	2275.29
415.05	2260.96
415.25	2013.15
415.46	2250.72
415.67	2136.03
415.87	2170.85
416.08	2154.46
416.29	2246.62
416.49	2250.72
416.70	2164.70
416.91	2246.62
417.11	2164.70
417.32	2293.72
417.53	2211.81
417.73	2258.91
417.94	2191.33
418.15	2248.67
418.35	2144.22
418.56	2230.24
418.77	2437.08
418.97	2277.34
419.18	2160.61
419.38	1982.43
419.59	2193.37
419.80	2271.20
420.00	2123.74
420.21	2226.14
420.42	2324.44
420.62	2179.04
420.83	2056.16
421.04	2172.89
421.24	2193.37
421.45	2246.62
421.65	2220.00
421.86	2154.46
422.07	2334.68
422.27	2256.86
422.48	2242.53
422.69	2140.13
422.89	2148.32
423.10	2252.77
423.30	2086.88
423.51	2170.85
423.72	2265.05
423.92	2248.67
424.13	2086.88
424.33	2158.56
424.54	2295.77
424.75	2269.15
424.95	2400.22
425.16	2211.81
425.36	2168.80
425.57	2297.82
425.78	2289.63
425.98	2301.92
426.19	2162.66
426.39	2105.31
426.60	2232.29
426.81	2308.06
427.01	2242.53
427.22	2140.13
427.42	2023.39
427.63	2113.50
427.83	2340.83
428.04	2365.40
428.25	2269.15
428.45	2271.20
428.66	2285.53
428.86	2211.81
429.07	2136.03
429.28	2197.47
429.48	2154.46
429.69	2093.02
429.89	2256.86
430.10	2031.58
430.30	2260.96
430.51	2291.68
430.71	2080.74
430.92	2119.65
431.13	2199.52
431.33	2250.72
431.54	2228.19
431.74	2371.55
431.95	2408.41
432.15	2113.50
432.36	2160.61
432.56	2209.76
432.77	2484.19
432.98	2435.03
433.18	2236.38
433.39	2185.18
433.59	2191.33
433.80	2457.56
434.00	2414.56
434.21	2222.05
434.41	2170.85
434.62	2467.80
434.82	2084.83
435.03	2164.70
435.23	2260.96
435.44	2064.35
435.64	2199.52
435.85	2250.72
436.06	2340.83
436.26	2293.72
436.47	2244.57
436.67	2125.79
436.88	2277.34
437.08	2174.94
437.29	2387.93
437.49	2234.33
437.70	2256.86
437.90	2183.13
438.11	2367.45
438.31	2277.34
438.52	2461.66
438.72	2375.64
438.93	2523.10
439.13	2275.29
439.34	2369.50
439.54	2172.89
439.75	2291.68
439.95	2275.29
440.16	2203.61
440.36	2252.77
440.57	2228.19
440.77	2176.99
440.98	2277.34
441.18	2254.81
441.39	2146.27
441.59	2066.40
441.80	2371.55
442.00	2197.47
442.21	2334.68
442.41	2023.39
442.62	2281.44
442.82	2181.09
443.02	2252.77
443.23	2217.95
443.43	2176.99
443.64	2265.05
443.84	2207.71
444.05	2361.31
444.25	2250.72
444.46	2215.90
444.66	2197.47
444.87	2414.56
445.07	2080.74
445.28	2211.81
445.48	2351.07
445.69	2236.38
445.89	2334.68
446.09	2242.53
446.30	2486.23
446.50	2832.34
446.71	4456.38
446.91	5617.58
447.12	6463.39
447.32	6686.62
447.53	6152.10
447.73	5132.21
447.93	4644.79
448.14	4175.81
448.34	3932.10
448.55	3542.99
448.75	3563.47
448.96	3350.48
449.16	3022.80
449.36	2805.72
449.57	2580.44
449.77	2383.84
449.98	2287.58
450.18	2275.29
450.39	2271.20
450.59	2226.14
450.79	2201.57
451.00	2176.99
451.20	2334.68
451.41	2176.99
451.61	2308.06
451.81	2244.57
452.02	2152.42
452.22	2148.32
452.43	2164.70
452.63	2203.61
