SpectraSuite Data File
++++++++++++++++++++++++++++++++++++
Date: Thu May 05 12:35:29 CEST 2016
User: root
Dark Spectrum Present: No
Reference Spectrum Present: No
Number of Sampled Component Spectra: 1
Spectrometers: USB4C02835
Integration Time (usec): 100000 (USB4C02835)
Spectra Averaged: 1 (USB4C02835)
Boxcar Smoothing: 0 (USB4C02835)
Correct for Electrical Dark: No (USB4C02835)
Strobe/Lamp Enabled: No (USB4C02835)
Correct for Detector Non-linearity: No (USB4C02835)
Correct for Stray Light: No (USB4C02835)
Number of Pixels in Processed Spectrum: 3648
>>>>>Begin Processed Spectral Data<<<<<
177.47	1808.36
177.69	1808.36
177.91	1808.36
178.13	1769.44
178.36	1767.40
178.58	2113.50
178.80	2252.77
179.02	2084.83
179.24	2097.12
179.46	2070.50
179.68	2248.67
179.90	2133.98
180.13	2226.14
180.35	2062.30
180.57	2146.27
180.79	2240.48
181.01	2211.81
181.23	2144.22
181.45	2244.57
181.67	2185.18
181.90	2209.76
182.12	2105.31
182.34	2004.96
182.56	2260.96
182.78	2236.38
183.00	2101.22
183.22	2117.60
183.44	2021.35
183.66	2445.27
183.89	2232.29
184.11	2109.41
184.33	2301.92
184.55	2226.14
184.77	2119.65
184.99	2113.50
185.21	2133.98
185.43	2353.12
185.65	2111.46
185.87	2125.79
186.10	2324.44
186.32	2465.75
186.54	2205.66
186.76	2191.33
186.98	2351.07
187.20	2195.42
187.42	2123.74
187.64	2125.79
187.86	2228.19
188.08	2314.20
188.30	2115.55
188.52	2123.74
188.75	2297.82
188.97	2398.17
189.19	2162.66
189.41	2084.83
189.63	2240.48
189.85	2211.81
190.07	2017.25
190.29	1920.99
190.51	2207.71
190.73	2146.27
190.95	2263.01
191.17	2093.02
191.39	1968.10
191.61	2176.99
191.84	2103.26
192.06	2119.65
192.28	2076.64
192.50	2465.75
192.72	2162.66
192.94	2144.22
193.16	2310.11
193.38	2236.38
193.60	2129.89
193.82	2152.42
194.04	2260.96
194.26	2095.07
194.48	2170.85
194.70	2088.93
194.92	2176.99
195.14	2209.76
195.36	2144.22
195.58	2172.89
195.80	2101.22
196.02	2111.46
196.24	2129.89
196.46	2191.33
196.69	2121.70
196.91	2328.54
197.13	2162.66
197.35	2097.12
197.57	2408.41
197.79	2271.20
198.01	2142.18
198.23	2160.61
198.45	2303.96
198.67	2095.07
198.89	2101.22
199.11	2142.18
199.33	2133.98
199.55	1966.05
199.77	2189.28
199.99	2244.57
200.21	2131.94
200.43	2258.91
200.65	1988.58
200.87	1998.82
201.09	2185.18
201.31	2185.18
201.53	2205.66
201.75	2142.18
201.97	2283.49
202.19	2170.85
202.41	2115.55
202.63	2340.83
202.85	2220.00
203.07	2267.10
203.29	2156.51
203.51	2043.87
203.73	2088.93
203.95	2488.28
204.17	2142.18
204.39	2260.96
204.61	2162.66
204.83	2224.09
205.05	2324.44
205.27	2187.23
205.49	2396.12
205.71	2217.95
205.93	2088.93
206.15	2146.27
206.37	2217.95
206.59	2150.37
206.81	2004.96
207.03	2066.40
207.25	2088.93
207.47	2283.49
207.69	2129.89
207.91	2320.35
208.13	2316.25
208.34	2179.04
208.56	2127.84
208.78	2129.89
209.00	2121.70
209.22	2152.42
209.44	2121.70
209.66	2056.16
209.88	2138.08
210.10	2115.55
210.32	2086.88
210.54	2250.72
210.76	2146.27
210.98	2267.10
211.20	2031.58
211.42	2174.94
211.64	2326.49
211.86	2244.57
212.08	2166.75
212.30	2133.98
212.52	2213.85
212.74	2258.91
212.96	2056.16
213.17	2179.04
213.39	2265.05
213.61	2338.78
213.83	2209.76
214.05	2093.02
214.27	2285.53
214.49	2105.31
214.71	2103.26
214.93	2273.25
215.15	2236.38
215.37	2258.91
215.59	1996.77
215.81	2222.05
216.03	2326.49
216.24	2248.67
216.46	2160.61
216.68	2160.61
216.90	2265.05
217.12	2226.14
217.34	2121.70
217.56	2201.57
217.78	2353.12
218.00	2222.05
218.22	2166.75
218.44	2170.85
218.66	2217.95
218.87	2377.69
219.09	2109.41
219.31	2154.46
219.53	2191.33
219.75	2140.13
219.97	2090.98
220.19	2176.99
220.41	2193.37
220.63	2396.12
220.85	2156.51
221.06	2060.26
221.28	2301.92
221.50	2256.86
221.72	2144.22
221.94	2080.74
222.16	2209.76
222.38	2248.67
222.60	2129.89
222.82	2136.03
223.03	2295.77
223.25	2072.54
223.47	2115.55
223.69	2314.20
223.91	2191.33
224.13	2172.89
224.35	2068.45
224.57	2238.43
224.78	2275.29
225.00	2113.50
225.22	2166.75
225.44	2152.42
225.66	2224.09
225.88	2101.22
226.10	2179.04
226.32	2254.81
226.53	2392.03
226.75	2164.70
226.97	2127.84
227.19	2152.42
227.41	2045.92
227.63	2185.18
227.85	1990.63
228.06	2113.50
228.28	2197.47
228.50	2277.34
228.72	2023.39
228.94	2142.18
229.16	2027.49
229.37	2097.12
229.59	2115.55
229.81	2318.30
230.03	2179.04
230.25	2056.16
230.47	2011.11
230.69	2064.35
230.90	2203.61
231.12	2113.50
231.34	2129.89
231.56	2197.47
231.78	2121.70
232.00	2201.57
232.21	2269.15
232.43	2054.11
232.65	2109.41
232.87	2234.33
233.09	2060.26
233.30	2078.69
233.52	2258.91
233.74	2185.18
233.96	2068.45
234.18	2250.72
234.40	2232.29
234.61	2437.08
234.83	2117.60
235.05	2023.39
235.27	2441.18
235.49	2291.68
235.70	2125.79
235.92	2220.00
236.14	2248.67
236.36	2500.57
236.58	2023.39
236.79	2179.04
237.01	2148.32
237.23	2142.18
237.45	2269.15
237.67	2019.30
237.88	2228.19
238.10	2363.36
238.32	2115.55
238.54	2103.26
238.76	2234.33
238.97	2121.70
239.19	2125.79
239.41	2289.63
239.63	2281.44
239.85	2105.31
240.06	2088.93
240.28	2199.52
240.50	2303.96
240.72	2187.23
240.93	2121.70
241.15	2203.61
241.37	2152.42
241.59	2287.58
241.81	2097.12
242.02	2152.42
242.24	2172.89
242.46	2269.15
242.68	2107.36
242.89	2144.22
243.11	2351.07
243.33	2203.61
243.55	2154.46
243.76	2138.08
243.98	2127.84
244.20	2232.29
244.42	2080.74
244.64	2158.56
244.85	2084.83
245.07	2140.13
245.29	2142.18
245.51	2146.27
245.72	2213.85
245.94	2279.39
246.16	2131.94
246.38	2105.31
246.59	2215.90
246.81	2105.31
247.03	2107.36
247.24	1953.76
247.46	2207.71
247.68	2215.90
247.90	2035.68
248.11	2152.42
248.33	2293.72
248.55	2183.13
248.77	2240.48
248.98	2156.51
249.20	2387.93
249.42	2166.75
249.64	2138.08
249.85	2224.09
250.07	2123.74
250.29	2226.14
250.50	2195.42
250.72	2035.68
250.94	2236.38
251.16	2385.88
251.37	2238.43
251.59	2156.51
251.81	2269.15
252.02	2271.20
252.24	2039.78
252.46	2254.81
252.68	2185.18
252.89	2148.32
253.11	2017.25
253.33	2205.66
253.54	2295.77
253.76	2056.16
253.98	2119.65
254.20	2142.18
254.41	2119.65
254.63	2170.85
254.85	2072.54
255.06	2174.94
255.28	2222.05
255.50	2170.85
255.71	2105.31
255.93	2037.73
256.15	2166.75
256.36	2267.10
256.58	2119.65
256.80	2162.66
257.02	2224.09
257.23	2113.50
257.45	2074.59
257.67	2144.22
257.88	2115.55
258.10	2166.75
258.32	2109.41
258.53	2179.04
258.75	2371.55
258.97	2244.57
259.18	2072.54
259.40	2082.78
259.62	2238.43
259.83	2326.49
260.05	2205.66
260.27	2572.25
260.48	2299.87
260.70	2062.30
260.92	2043.87
261.13	2193.37
261.35	2160.61
261.57	2197.47
261.78	2045.92
262.00	2043.87
262.22	2232.29
262.43	2095.07
262.65	2121.70
262.86	2193.37
263.08	2451.42
263.30	2217.95
263.51	2029.54
263.73	2099.17
263.95	2330.59
264.16	2121.70
264.38	1978.34
264.60	2168.80
264.81	2293.72
265.03	2314.20
265.25	2297.82
265.46	2152.42
265.68	2334.68
265.89	2265.05
266.11	2015.20
266.33	2199.52
266.54	2285.53
266.76	2160.61
266.98	2181.09
267.19	2170.85
267.41	2318.30
267.62	2129.89
267.84	2000.87
268.06	2170.85
268.27	2273.25
268.49	2265.05
268.70	2189.28
268.92	2140.13
269.14	2080.74
269.35	2121.70
269.57	2088.93
269.79	2217.95
270.00	2185.18
270.22	2435.03
270.43	2056.16
270.65	2021.35
270.87	2205.66
271.08	2244.57
271.30	2230.24
271.51	2183.13
271.73	2228.19
271.95	2324.44
272.16	2146.27
272.38	2215.90
272.59	2086.88
272.81	2271.20
273.02	2119.65
273.24	2220.00
273.46	2320.35
273.67	2093.02
273.89	2025.44
274.10	2203.61
274.32	2283.49
274.54	2215.90
274.75	2097.12
274.97	2150.37
275.18	2197.47
275.40	2211.81
275.61	2201.57
275.83	2181.09
276.05	2095.07
276.26	2140.13
276.48	2234.33
276.69	2158.56
276.91	2215.90
277.12	2396.12
277.34	2263.01
277.55	2291.68
277.77	2269.15
277.99	2203.61
278.20	2093.02
278.42	2088.93
278.63	2144.22
278.85	2125.79
279.06	1998.82
279.28	2195.42
279.49	2267.10
279.71	2258.91
279.93	2152.42
280.14	2207.71
280.36	2142.18
280.57	2301.92
280.79	2160.61
281.00	2105.31
281.22	2093.02
281.43	2254.81
281.65	1974.24
281.86	2095.07
282.08	2195.42
282.29	2312.16
282.51	2031.58
282.73	2131.94
282.94	1982.43
283.16	2250.72
283.37	2285.53
283.59	2138.08
283.80	2220.00
284.02	2158.56
284.23	2136.03
284.45	2183.13
284.66	2047.97
284.88	2107.36
285.09	2244.57
285.31	2166.75
285.52	2301.92
285.74	1972.19
285.95	2289.63
286.17	2168.80
286.38	2318.30
286.60	2152.42
286.81	2088.93
287.03	2129.89
287.24	2250.72
287.46	2246.62
287.67	2269.15
287.89	2326.49
288.10	2166.75
288.32	2138.08
288.53	2392.03
288.75	2226.14
288.96	2326.49
289.18	2025.44
289.39	2226.14
289.61	2242.53
289.82	2424.80
290.04	2326.49
290.25	2099.17
290.47	2213.85
290.68	2136.03
290.90	2232.29
291.11	1988.58
291.33	2207.71
291.54	2113.50
291.76	2123.74
291.97	2162.66
292.18	2144.22
292.40	2158.56
292.61	2064.35
292.83	2367.45
293.04	2207.71
293.26	2222.05
293.47	2185.18
293.69	2129.89
293.90	2154.46
294.12	2273.25
294.33	2154.46
294.55	2140.13
294.76	2246.62
294.97	2269.15
295.19	2267.10
295.40	2029.54
295.62	2234.33
295.83	2303.96
296.05	2121.70
296.26	2256.86
296.48	2142.18
296.69	2107.36
296.90	2176.99
297.12	2242.53
297.33	2246.62
297.55	2213.85
297.76	2199.52
297.98	2260.96
298.19	2191.33
298.41	2174.94
298.62	2181.09
298.83	2308.06
299.05	2260.96
299.26	2115.55
299.48	2138.08
299.69	2215.90
299.90	2133.98
300.12	2127.84
300.33	2199.52
300.55	2179.04
300.76	2133.98
300.98	2078.69
301.19	2275.29
301.40	2138.08
301.62	2150.37
301.83	2222.05
302.05	2162.66
302.26	2095.07
302.47	2211.81
302.69	2103.26
302.90	2242.53
303.12	1982.43
303.33	2220.00
303.54	2396.12
303.76	2170.85
303.97	2148.32
304.19	2314.20
304.40	2080.74
304.61	2267.10
304.83	2281.44
305.04	2332.64
305.26	2187.23
305.47	2179.04
305.68	2138.08
305.90	2121.70
306.11	2301.92
306.33	2201.57
306.54	2090.98
306.75	2111.46
306.97	2070.50
307.18	2207.71
307.39	2113.50
307.61	2252.77
307.82	2181.09
308.04	2285.53
308.25	2105.31
308.46	2246.62
308.68	2168.80
308.89	2217.95
309.10	2267.10
309.32	2232.29
309.53	2183.13
309.74	2172.89
309.96	2138.08
310.17	2256.86
310.39	2203.61
310.60	2359.26
310.81	2228.19
311.03	2064.35
311.24	2285.53
311.45	2174.94
311.67	2316.25
311.88	2105.31
312.09	2138.08
312.31	2164.70
312.52	2105.31
312.73	2185.18
312.95	2064.35
313.16	2125.79
313.37	2205.66
313.59	2236.38
313.80	2303.96
314.01	2332.64
314.23	2099.17
314.44	2125.79
314.65	2047.97
314.87	2185.18
315.08	2131.94
315.29	2172.89
315.51	2105.31
315.72	2113.50
315.93	2234.33
316.15	2324.44
316.36	2168.80
316.57	2236.38
316.79	2185.18
317.00	2093.02
317.21	2203.61
317.43	2093.02
317.64	2236.38
317.85	2115.55
318.07	2074.59
318.28	2263.01
318.49	2291.68
318.70	2422.75
318.92	2406.36
319.13	2383.84
319.34	2453.47
319.56	2369.50
319.77	2383.84
319.98	2336.73
320.20	2299.87
320.41	2303.96
320.62	2346.97
320.83	2115.55
321.05	2408.41
321.26	2172.89
321.47	2179.04
321.69	2365.40
321.90	2035.68
322.11	2156.51
322.32	2252.77
322.54	2326.49
322.75	2158.56
322.96	2449.37
323.18	2097.12
323.39	2031.58
323.60	2099.17
323.81	2164.70
324.03	2117.60
324.24	2170.85
324.45	2185.18
324.66	2158.56
324.88	2367.45
325.09	2383.84
325.30	2117.60
325.52	2158.56
325.73	2193.37
325.94	2099.17
326.15	2062.30
326.37	2123.74
326.58	2283.49
326.79	2326.49
327.00	2121.70
327.22	2115.55
327.43	2103.26
327.64	2142.18
327.85	2217.95
328.07	2252.77
328.28	2367.45
328.49	2166.75
328.70	2088.93
328.92	2109.41
329.13	2187.23
329.34	2252.77
329.55	2236.38
329.76	2277.34
329.98	2195.42
330.19	2400.22
330.40	2220.00
330.61	2150.37
330.83	2211.81
331.04	2093.02
331.25	2146.27
331.46	2179.04
331.68	2043.87
331.89	2326.49
332.10	2183.13
332.31	2019.30
332.52	2191.33
332.74	2406.36
332.95	2054.11
333.16	2146.27
333.37	2236.38
333.58	2131.94
333.80	2187.23
334.01	2121.70
334.22	2224.09
334.43	2154.46
334.64	2187.23
334.86	2068.45
335.07	2009.06
335.28	2334.68
335.49	2072.54
335.70	2181.09
335.92	2322.40
336.13	2461.66
336.34	2250.72
336.55	2197.47
336.76	2275.29
336.98	1982.43
337.19	2213.85
337.40	2267.10
337.61	2426.84
337.82	2125.79
338.04	2238.43
338.25	2060.26
338.46	2195.42
338.67	2183.13
338.88	2095.07
339.09	2117.60
339.31	2138.08
339.52	2064.35
339.73	2123.74
339.94	2158.56
340.15	2228.19
340.36	2125.79
340.58	2164.70
340.79	2156.51
341.00	2228.19
341.21	1968.10
341.42	2265.05
341.63	2185.18
341.85	2240.48
342.06	2168.80
342.27	2179.04
342.48	2263.01
342.69	2078.69
342.90	2260.96
343.12	2265.05
343.33	2154.46
343.54	2289.63
343.75	2363.36
343.96	2220.00
344.17	2080.74
344.38	2138.08
344.60	2119.65
344.81	2109.41
345.02	2164.70
345.23	2310.11
345.44	2412.51
345.65	2203.61
345.86	2220.00
346.07	2217.95
346.29	2174.94
346.50	2203.61
346.71	2281.44
346.92	2318.30
347.13	2459.61
347.34	2152.42
347.55	2191.33
347.76	2203.61
347.98	2017.25
348.19	2158.56
348.40	2273.25
348.61	2187.23
348.82	2389.98
349.03	2260.96
349.24	2076.64
349.45	2428.89
349.66	1998.82
349.88	2115.55
350.09	2117.60
350.30	2342.88
350.51	2310.11
350.72	2183.13
350.93	2211.81
351.14	2140.13
351.35	2267.10
351.56	2142.18
351.77	2215.90
351.99	2281.44
352.20	2367.45
352.41	2295.77
352.62	1998.82
352.83	2238.43
353.04	2226.14
353.25	2211.81
353.46	2203.61
353.67	2441.18
353.88	1945.57
354.09	2179.04
354.30	2203.61
354.52	2260.96
354.73	2121.70
354.94	2162.66
355.15	2211.81
355.36	2445.27
355.57	2062.30
355.78	2185.18
355.99	2142.18
356.20	2158.56
356.41	2314.20
356.62	2168.80
356.83	2248.67
357.04	2367.45
357.25	2119.65
357.46	2088.93
357.68	2074.59
357.89	2095.07
358.10	2133.98
358.31	2162.66
358.52	2187.23
358.73	2129.89
358.94	2093.02
359.15	2170.85
359.36	2252.77
359.57	2185.18
359.78	2154.46
359.99	2187.23
360.20	2113.50
360.41	2152.42
360.62	2195.42
360.83	2203.61
361.04	2193.37
361.25	2220.00
361.46	2318.30
361.67	2174.94
361.88	2131.94
362.09	2240.48
362.30	2234.33
362.51	2127.84
362.72	2222.05
362.93	2228.19
363.14	2197.47
363.35	2228.19
363.56	2076.64
363.78	2297.82
363.99	2326.49
364.20	2058.21
364.41	2226.14
364.62	2299.87
364.83	2146.27
365.04	2183.13
365.25	2129.89
365.46	2475.99
365.67	2131.94
365.88	2220.00
366.09	2035.68
366.30	2193.37
366.51	2269.15
366.72	2086.88
366.93	2170.85
367.14	2183.13
367.35	2326.49
367.56	2162.66
367.77	2310.11
367.98	2107.36
368.18	2207.71
368.39	2195.42
368.60	2140.13
368.81	2279.39
369.02	2197.47
369.23	2164.70
369.44	2047.97
369.65	2162.66
369.86	2211.81
370.07	2228.19
370.28	2158.56
370.49	2269.15
370.70	2209.76
370.91	2123.74
371.12	2058.21
371.33	2260.96
371.54	2183.13
371.75	2324.44
371.96	2058.21
372.17	2260.96
372.38	2244.57
372.59	2269.15
372.80	2166.75
373.01	2174.94
373.22	2176.99
373.43	2232.29
373.64	2062.30
373.85	2299.87
374.06	2422.75
374.26	2283.49
374.47	2131.94
374.68	2306.01
374.89	2203.61
375.10	2220.00
375.31	2224.09
375.52	2213.85
375.73	2166.75
375.94	2105.31
376.15	2310.11
376.36	2115.55
376.57	2129.89
376.78	2121.70
376.99	2168.80
377.20	2322.40
377.40	2189.28
377.61	2340.83
377.82	2097.12
378.03	2301.92
378.24	2201.57
378.45	2228.19
378.66	2273.25
378.87	2088.93
379.08	2033.63
379.29	2176.99
379.50	2269.15
379.71	2119.65
379.91	2310.11
380.12	2101.22
380.33	2176.99
380.54	2146.27
380.75	2185.18
380.96	2252.77
381.17	2336.73
381.38	2236.38
381.59	2179.04
381.80	2265.05
382.00	2435.03
382.21	2301.92
382.42	2418.65
382.63	2475.99
382.84	2252.77
383.05	2252.77
383.26	2326.49
383.47	2220.00
383.68	2209.76
383.88	2289.63
384.09	2152.42
384.30	2373.60
384.51	2287.58
384.72	2199.52
384.93	2107.36
385.14	2205.66
385.35	2267.10
385.55	2002.91
385.76	2281.44
385.97	2183.13
386.18	2066.40
386.39	2170.85
386.60	2152.42
386.81	2109.41
387.02	2158.56
387.22	2111.46
387.43	2326.49
387.64	2340.83
387.85	2369.50
388.06	2394.08
388.27	4085.70
388.48	8544.13
388.68	12253.00
388.89	14501.67
389.10	15634.19
389.31	14331.69
389.52	11306.84
389.73	9922.41
389.93	8841.08
390.14	8150.92
390.35	7217.04
390.56	6543.26
390.77	5470.12
390.98	4136.90
391.18	3248.08
391.39	2717.65
391.60	2297.82
391.81	2334.68
392.02	2166.75
392.23	2439.13
392.43	2271.20
392.64	2269.15
392.85	2238.43
393.06	2291.68
393.27	2211.81
393.47	2138.08
393.68	2263.01
393.89	2105.31
394.10	2381.79
394.31	2121.70
394.52	2047.97
394.72	2129.89
394.93	2367.45
395.14	2133.98
395.35	2201.57
395.56	2158.56
395.76	2203.61
395.97	2244.57
396.18	2367.45
396.39	2285.53
396.60	2635.74
396.80	2365.40
397.01	2418.65
397.22	2389.98
397.43	2330.59
397.64	2217.95
397.84	2250.72
398.05	2504.67
398.26	2209.76
398.47	2342.88
398.67	2312.16
398.88	2203.61
399.09	2224.09
399.30	2113.50
399.51	2195.42
399.71	2154.46
399.92	2238.43
400.13	2230.24
400.34	2109.41
400.54	2174.94
400.75	2297.82
400.96	2224.09
401.17	2389.98
401.37	2220.00
401.58	2123.74
401.79	2156.51
402.00	2289.63
402.21	2633.69
402.41	2488.28
402.62	2645.98
402.83	2629.59
403.04	2701.27
403.24	2695.13
403.45	2385.88
403.66	2529.24
403.87	2488.28
404.07	2543.58
404.28	2418.65
404.49	2420.70
404.70	2181.09
404.90	2293.72
405.11	2277.34
405.32	2246.62
405.52	2170.85
405.73	2176.99
405.94	2164.70
406.15	2203.61
406.35	2297.82
406.56	2306.01
406.77	2193.37
406.98	2248.67
407.18	2078.69
407.39	2353.12
407.60	2162.66
407.80	2246.62
408.01	2148.32
408.22	2275.29
408.43	2140.13
408.63	2215.90
408.84	2269.15
409.05	2373.60
409.25	2211.81
409.46	2138.08
409.67	2213.85
409.88	2170.85
410.08	2187.23
410.29	2187.23
410.50	2250.72
410.70	2316.25
410.91	2138.08
411.12	2207.71
411.32	2170.85
411.53	2082.78
411.74	2322.40
411.95	2207.71
412.15	2310.11
412.36	2346.97
412.57	2318.30
412.77	2293.72
412.98	2154.46
413.19	2254.81
413.39	2269.15
413.60	2285.53
413.81	2359.26
414.01	2129.89
414.22	2324.44
414.43	2301.92
414.63	2211.81
414.84	2375.64
415.05	2220.00
415.25	2125.79
415.46	2248.67
415.67	2152.42
415.87	2242.53
416.08	2146.27
416.29	2064.35
416.49	2189.28
416.70	2183.13
416.91	2164.70
417.11	2121.70
417.32	2381.79
417.53	2332.64
417.73	2195.42
417.94	2234.33
418.15	2314.20
418.35	2207.71
418.56	2222.05
418.77	2414.56
418.97	2174.94
419.18	2265.05
419.38	1961.95
419.59	2179.04
419.80	2312.16
420.00	2160.61
420.21	2254.81
420.42	2273.25
420.62	2314.20
420.83	2140.13
421.04	2148.32
421.24	2144.22
421.45	2293.72
421.65	2295.77
421.86	2111.46
422.07	2267.10
422.27	2283.49
422.48	2105.31
422.69	2205.66
422.89	2203.61
423.10	2228.19
423.30	2060.26
423.51	2213.85
423.72	2285.53
423.92	2273.25
424.13	2076.64
424.33	2113.50
424.54	2310.11
424.75	2174.94
424.95	2334.68
425.16	2250.72
425.36	2197.47
425.57	2215.90
425.78	2250.72
425.98	2211.81
426.19	2197.47
426.39	2138.08
426.60	2234.33
426.81	2334.68
427.01	2162.66
427.22	2117.60
427.42	2082.78
427.63	2095.07
427.83	2285.53
428.04	2377.69
428.25	2265.05
428.45	2293.72
428.66	2355.16
428.86	2189.28
429.07	2121.70
429.28	2209.76
429.48	2107.36
429.69	2158.56
429.89	2228.19
430.10	2111.46
430.30	2242.53
430.51	2324.44
430.71	2072.54
430.92	2170.85
431.13	2154.46
431.33	2260.96
431.54	2246.62
431.74	2369.50
431.95	2396.12
432.15	2090.98
432.36	2189.28
432.56	2232.29
432.77	2408.41
432.98	2432.99
433.18	2250.72
433.39	2107.36
433.59	2142.18
433.80	2424.80
434.00	2428.89
434.21	2123.74
434.41	2195.42
434.62	2414.56
434.82	2115.55
435.03	2076.64
435.23	2256.86
435.44	1945.57
435.64	2185.18
435.85	2250.72
436.06	2308.06
436.26	2256.86
436.47	2150.37
436.67	2111.46
436.88	2162.66
437.08	2303.96
437.29	2336.73
437.49	2201.57
437.70	2232.29
437.90	2209.76
438.11	2314.20
438.31	2252.77
438.52	2463.71
438.72	2478.04
438.93	2521.05
439.13	2271.20
439.34	2398.17
439.54	2256.86
439.75	2318.30
439.95	2273.25
440.16	2097.12
440.36	2242.53
440.57	2258.91
440.77	2199.52
440.98	2185.18
441.18	2250.72
441.39	2127.84
441.59	2162.66
441.80	2400.22
442.00	2158.56
442.21	2312.16
442.41	2103.26
442.62	2430.94
442.82	2146.27
443.02	2154.46
443.23	2203.61
443.43	2150.37
443.64	2277.34
443.84	2156.51
444.05	2344.92
444.25	2201.57
444.46	2289.63
444.66	2162.66
444.87	2396.12
445.07	2068.45
445.28	2201.57
445.48	2324.44
445.69	2220.00
445.89	2432.99
446.09	2244.57
446.30	2514.91
446.50	2901.97
446.71	4339.65
446.91	5609.39
447.12	6324.13
447.32	6748.06
447.53	6369.18
447.73	5246.90
447.93	4505.53
448.14	4153.28
448.34	4091.84
448.55	3481.55
448.75	3626.95
448.96	3299.28
449.16	3088.34
449.36	2854.87
449.57	2605.02
449.77	2383.84
449.98	2258.91
450.18	2281.44
450.39	2326.49
450.59	2312.16
450.79	2174.94
451.00	2238.43
451.20	2297.82
451.41	2170.85
451.61	2260.96
451.81	2148.32
452.02	2144.22
452.22	2164.70
452.43	2213.85
452.63	2222.05
