SpectraSuite Data File
++++++++++++++++++++++++++++++++++++
Date: Thu May 05 12:35:31 CEST 2016
User: root
Dark Spectrum Present: No
Reference Spectrum Present: No
Number of Sampled Component Spectra: 1
Spectrometers: USB4C02835
Integration Time (usec): 100000 (USB4C02835)
Spectra Averaged: 1 (USB4C02835)
Boxcar Smoothing: 0 (USB4C02835)
Correct for Electrical Dark: No (USB4C02835)
Strobe/Lamp Enabled: No (USB4C02835)
Correct for Detector Non-linearity: No (USB4C02835)
Correct for Stray Light: No (USB4C02835)
Number of Pixels in Processed Spectrum: 3648
>>>>>Begin Processed Spectral Data<<<<<
177.47	1794.02
177.69	1794.02
177.91	1794.02
178.13	1767.40
178.36	1753.06
178.58	2037.73
178.80	2260.96
179.02	2068.45
179.24	2109.41
179.46	2160.61
179.68	2199.52
179.90	2189.28
180.13	2211.81
180.35	2107.36
180.57	2009.06
180.79	2205.66
181.01	2236.38
181.23	2195.42
181.45	2357.21
181.67	2299.87
181.90	2267.10
182.12	2047.97
182.34	2086.88
182.56	2222.05
182.78	2209.76
183.00	2045.92
183.22	2105.31
183.44	2025.44
183.66	2396.12
183.89	2269.15
184.11	2138.08
184.33	2291.68
184.55	2297.82
184.77	2185.18
184.99	2154.46
185.21	2105.31
185.43	2490.33
185.65	2078.69
185.87	2158.56
186.10	2410.46
186.32	2408.41
186.54	2168.80
186.76	2226.14
186.98	2291.68
187.20	2148.32
187.42	2170.85
187.64	2142.18
187.86	2277.34
188.08	2269.15
188.30	2074.59
188.52	2193.37
188.75	2299.87
188.97	2299.87
189.19	2127.84
189.41	2129.89
189.63	2258.91
189.85	2097.12
190.07	2052.06
190.29	2033.63
190.51	2254.81
190.73	2123.74
190.95	2293.72
191.17	2121.70
191.39	2140.13
191.61	2287.58
191.84	2179.04
192.06	2220.00
192.28	2050.02
192.50	2506.71
192.72	2195.42
192.94	2131.94
193.16	2285.53
193.38	2185.18
193.60	2037.73
193.82	2097.12
194.04	2265.05
194.26	2199.52
194.48	2154.46
194.70	2113.50
194.92	2179.04
195.14	2324.44
195.36	2113.50
195.58	2181.09
195.80	2146.27
196.02	2105.31
196.24	2099.17
196.46	2117.60
196.69	2129.89
196.91	2408.41
197.13	2125.79
197.35	2176.99
197.57	2281.44
197.79	2275.29
198.01	2168.80
198.23	2183.13
198.45	2244.57
198.67	2103.26
198.89	2127.84
199.11	2275.29
199.33	2088.93
199.55	1986.53
199.77	2203.61
199.99	2228.19
200.21	2217.95
200.43	2220.00
200.65	2068.45
200.87	1974.24
201.09	2215.90
201.31	2166.75
201.53	2160.61
201.75	2144.22
201.97	2183.13
202.19	2222.05
202.41	2170.85
202.63	2322.40
202.85	2217.95
203.07	2246.62
203.29	2152.42
203.51	2093.02
203.73	2121.70
203.95	2443.23
204.17	2111.46
204.39	2150.37
204.61	2238.43
204.83	2220.00
205.05	2199.52
205.27	2320.35
205.49	2418.65
205.71	2168.80
205.93	2023.39
206.15	2068.45
206.37	2201.57
206.59	2187.23
206.81	2011.11
207.03	2111.46
207.25	2095.07
207.47	2254.81
207.69	2101.22
207.91	2314.20
208.13	2342.88
208.34	2174.94
208.56	2107.36
208.78	2119.65
209.00	2209.76
209.22	2158.56
209.44	2133.98
209.66	2142.18
209.88	2172.89
210.10	2265.05
210.32	2099.17
210.54	2201.57
210.76	2125.79
210.98	2275.29
211.20	1945.57
211.42	2125.79
211.64	2265.05
211.86	2220.00
212.08	2172.89
212.30	2170.85
212.52	2150.37
212.74	2224.09
212.96	2105.31
213.17	2207.71
213.39	2310.11
213.61	2316.25
213.83	2168.80
214.05	2220.00
214.27	2353.12
214.49	1998.82
214.71	2093.02
214.93	2181.09
215.15	2215.90
215.37	2326.49
215.59	1984.48
215.81	2203.61
216.03	2295.77
216.24	2285.53
216.46	2086.88
216.68	2146.27
216.90	2273.25
217.12	2181.09
217.34	2160.61
217.56	2209.76
217.78	2308.06
218.00	2269.15
218.22	2236.38
218.44	2238.43
218.66	2252.77
218.87	2295.77
219.09	2170.85
219.31	2199.52
219.53	2232.29
219.75	2158.56
219.97	2166.75
220.19	2072.54
220.41	2101.22
220.63	2267.10
220.85	2142.18
221.06	2179.04
221.28	2293.72
221.50	2230.24
221.72	2168.80
221.94	2097.12
222.16	2211.81
222.38	2303.96
222.60	2191.33
222.82	2101.22
223.03	2220.00
223.25	2125.79
223.47	2054.11
223.69	2310.11
223.91	2234.33
224.13	2213.85
224.35	2045.92
224.57	2254.81
224.78	2281.44
225.00	2023.39
225.22	2144.22
225.44	2154.46
225.66	2277.34
225.88	2181.09
226.10	2138.08
226.32	2187.23
226.53	2367.45
226.75	2174.94
226.97	2115.55
227.19	2146.27
227.41	2076.64
227.63	2154.46
227.85	2074.59
228.06	2121.70
228.28	2187.23
228.50	2215.90
228.72	2043.87
228.94	2123.74
229.16	2097.12
229.37	2103.26
229.59	2060.26
229.81	2260.96
230.03	2127.84
230.25	2007.01
230.47	2062.30
230.69	2058.21
230.90	2297.82
231.12	2183.13
231.34	2250.72
231.56	2160.61
231.78	2093.02
232.00	2183.13
232.21	2129.89
232.43	2142.18
232.65	2039.78
232.87	2258.91
233.09	2076.64
233.30	2123.74
233.52	2242.53
233.74	2209.76
233.96	2103.26
234.18	2277.34
234.40	2176.99
234.61	2365.40
234.83	2060.26
235.05	2013.15
235.27	2346.97
235.49	2338.78
235.70	2193.37
235.92	2181.09
236.14	2224.09
236.36	2514.91
236.58	2047.97
236.79	2203.61
237.01	2183.13
237.23	2119.65
237.45	2238.43
237.67	2138.08
237.88	2234.33
238.10	2373.60
238.32	2140.13
238.54	2115.55
238.76	2176.99
238.97	2095.07
239.19	2133.98
239.41	2281.44
239.63	2361.31
239.85	2129.89
240.06	2133.98
240.28	2142.18
240.50	2277.34
240.72	2179.04
240.93	2125.79
241.15	2250.72
241.37	2273.25
241.59	2291.68
241.81	2138.08
242.02	2131.94
242.24	2174.94
242.46	2252.77
242.68	2142.18
242.89	2148.32
243.11	2236.38
243.33	2138.08
243.55	2074.59
243.76	2209.76
243.98	2170.85
244.20	2293.72
244.42	2144.22
244.64	2195.42
244.85	2166.75
245.07	2121.70
245.29	2160.61
245.51	2201.57
245.72	2230.24
245.94	2195.42
246.16	2187.23
246.38	2185.18
246.59	2207.71
246.81	2107.36
247.03	2160.61
247.24	1996.77
247.46	2170.85
247.68	2187.23
247.90	2121.70
248.11	2097.12
248.33	2289.63
248.55	2224.09
248.77	2179.04
248.98	2254.81
249.20	2263.01
249.42	2213.85
249.64	2160.61
249.85	2035.68
250.07	2095.07
250.29	2166.75
250.50	2146.27
250.72	2033.63
250.94	2199.52
251.16	2385.88
251.37	2193.37
251.59	2189.28
251.81	2254.81
252.02	2316.25
252.24	2047.97
252.46	2238.43
252.68	2144.22
252.89	2146.27
253.11	1980.39
253.33	2248.67
253.54	2357.21
253.76	2090.98
253.98	2166.75
254.20	2119.65
254.41	2076.64
254.63	2121.70
254.85	2101.22
255.06	2095.07
255.28	2131.94
255.50	2244.57
255.71	2072.54
255.93	2013.15
256.15	2179.04
256.36	2250.72
256.58	2080.74
256.80	2123.74
257.02	2222.05
257.23	2152.42
257.45	2150.37
257.67	2138.08
257.88	2138.08
258.10	2207.71
258.32	2109.41
258.53	2146.27
258.75	2320.35
258.97	2217.95
259.18	2095.07
259.40	2152.42
259.62	2361.31
259.83	2308.06
260.05	2154.46
260.27	2600.92
260.48	2400.22
260.70	2117.60
260.92	2103.26
261.13	2072.54
261.35	2232.29
261.57	2207.71
261.78	1976.29
262.00	2056.16
262.22	2228.19
262.43	2084.83
262.65	2148.32
262.86	2127.84
263.08	2422.75
263.30	2301.92
263.51	2002.91
263.73	2154.46
263.95	2275.29
264.16	2105.31
264.38	2095.07
264.60	2154.46
264.81	2203.61
265.03	2334.68
265.25	2244.57
265.46	2107.36
265.68	2297.82
265.89	2240.48
266.11	2060.26
266.33	2203.61
266.54	2285.53
266.76	2265.05
266.98	2156.51
267.19	2197.47
267.41	2332.64
267.62	2236.38
267.84	2031.58
268.06	2195.42
268.27	2213.85
268.49	2260.96
268.70	2193.37
268.92	2170.85
269.14	2072.54
269.35	2035.68
269.57	2111.46
269.79	2140.13
270.00	2119.65
270.22	2289.63
270.43	2060.26
270.65	2015.20
270.87	2207.71
271.08	2293.72
271.30	2267.10
271.51	2115.55
271.73	2217.95
271.95	2283.49
272.16	2179.04
272.38	2215.90
272.59	2179.04
272.81	2224.09
273.02	2162.66
273.24	2166.75
273.46	2281.44
273.67	2101.22
273.89	2047.97
274.10	2179.04
274.32	2363.36
274.54	2154.46
274.75	2191.33
274.97	2181.09
275.18	2215.90
275.40	2244.57
275.61	2160.61
275.83	2224.09
276.05	2056.16
276.26	2115.55
276.48	2232.29
276.69	2097.12
276.91	2142.18
277.12	2381.79
277.34	2203.61
277.55	2244.57
277.77	2228.19
277.99	2150.37
278.20	2090.98
278.42	2097.12
278.63	2070.50
278.85	2082.78
279.06	2086.88
279.28	2226.14
279.49	2248.67
279.71	2318.30
279.93	2176.99
280.14	2197.47
280.36	2154.46
280.57	2330.59
280.79	2246.62
281.00	2138.08
281.22	2105.31
281.43	2318.30
281.65	2097.12
281.86	2052.06
282.08	2275.29
282.29	2349.02
282.51	1998.82
282.73	2101.22
282.94	2011.11
283.16	2248.67
283.37	2312.16
283.59	2131.94
283.80	2185.18
284.02	2170.85
284.23	2199.52
284.45	2101.22
284.66	2127.84
284.88	2138.08
285.09	2217.95
285.31	2277.34
285.52	2242.53
285.74	2050.02
285.95	2269.15
286.17	2191.33
286.38	2340.83
286.60	2109.41
286.81	2158.56
287.03	2152.42
287.24	2185.18
287.46	2191.33
287.67	2187.23
287.89	2351.07
288.10	2220.00
288.32	2207.71
288.53	2379.74
288.75	2193.37
288.96	2224.09
289.18	2158.56
289.39	2172.89
289.61	2203.61
289.82	2365.40
290.04	2383.84
290.25	2078.69
290.47	2121.70
290.68	2166.75
290.90	2301.92
291.11	2095.07
291.33	2228.19
291.54	2152.42
291.76	2074.59
291.97	2263.01
292.18	2187.23
292.40	2168.80
292.61	2144.22
292.83	2346.97
293.04	2160.61
293.26	2146.27
293.47	2162.66
293.69	2152.42
293.90	2084.83
294.12	2301.92
294.33	2154.46
294.55	2084.83
294.76	2308.06
294.97	2375.64
295.19	2389.98
295.40	2095.07
295.62	2265.05
295.83	2303.96
296.05	2168.80
296.26	2353.12
296.48	2183.13
296.69	2193.37
296.90	2185.18
297.12	2220.00
297.33	2258.91
297.55	2236.38
297.76	2174.94
297.98	2211.81
298.19	2205.66
298.41	2146.27
298.62	2064.35
298.83	2283.49
299.05	2152.42
299.26	2142.18
299.48	2086.88
299.69	2209.76
299.90	2146.27
300.12	2168.80
300.33	2185.18
300.55	2152.42
300.76	2179.04
300.98	2109.41
301.19	2324.44
301.40	2183.13
301.62	2185.18
301.83	2310.11
302.05	2209.76
302.26	2195.42
302.47	2193.37
302.69	2144.22
302.90	2203.61
303.12	1959.91
303.33	2174.94
303.54	2363.36
303.76	2158.56
303.97	2172.89
304.19	2371.55
304.40	2097.12
304.61	2267.10
304.83	2357.21
305.04	2248.67
305.26	2260.96
305.47	2242.53
305.68	2162.66
305.90	2029.54
306.11	2312.16
306.33	2154.46
306.54	2078.69
306.75	2097.12
306.97	2127.84
307.18	2090.98
307.39	2144.22
307.61	2220.00
307.82	2168.80
308.04	2271.20
308.25	2070.50
308.46	2240.48
308.68	2215.90
308.89	2154.46
309.10	2316.25
309.32	2195.42
309.53	2183.13
309.74	2279.39
309.96	2041.82
310.17	2250.72
310.39	2162.66
310.60	2226.14
310.81	2211.81
311.03	2064.35
311.24	2224.09
311.45	2220.00
311.67	2338.78
311.88	2279.39
312.09	2127.84
312.31	2131.94
312.52	2097.12
312.73	2088.93
312.95	2117.60
313.16	2109.41
313.37	2244.57
313.59	2203.61
313.80	2250.72
314.01	2332.64
314.23	2082.78
314.44	2166.75
314.65	1994.72
314.87	2011.11
315.08	2138.08
315.29	2138.08
315.51	2133.98
315.72	2082.78
315.93	2392.03
316.15	2191.33
316.36	2195.42
316.57	2207.71
316.79	2226.14
317.00	2136.03
317.21	2244.57
317.43	2107.36
317.64	2226.14
317.85	2101.22
318.07	2129.89
318.28	2236.38
318.49	2367.45
318.70	2494.43
318.92	2406.36
319.13	2383.84
319.34	2387.93
319.56	2342.88
319.77	2353.12
319.98	2435.03
320.20	2301.92
320.41	2293.72
320.62	2220.00
320.83	2043.87
321.05	2322.40
321.26	2189.28
321.47	2254.81
321.69	2293.72
321.90	2039.78
322.11	2146.27
322.32	2176.99
322.54	2324.44
322.75	2136.03
322.96	2441.18
323.18	2093.02
323.39	1984.48
323.60	2117.60
323.81	2217.95
324.03	2129.89
324.24	2166.75
324.45	2146.27
324.66	2064.35
324.88	2293.72
325.09	2394.08
325.30	2240.48
325.52	2185.18
325.73	2238.43
325.94	2152.42
326.15	2088.93
326.37	2129.89
326.58	2236.38
326.79	2279.39
327.00	2050.02
327.22	2209.76
327.43	2176.99
327.64	2107.36
327.85	2244.57
328.07	2187.23
328.28	2449.37
328.49	2121.70
328.70	2140.13
328.92	2183.13
329.13	2127.84
329.34	2281.44
329.55	2301.92
329.76	2326.49
329.98	2271.20
330.19	2351.07
330.40	2201.57
330.61	2211.81
330.83	2285.53
331.04	2160.61
331.25	2179.04
331.46	2113.50
331.68	2099.17
331.89	2250.72
332.10	2191.33
332.31	1964.00
332.52	2203.61
332.74	2447.32
332.95	2054.11
333.16	2193.37
333.37	2238.43
333.58	2129.89
333.80	2187.23
334.01	2058.21
334.22	2119.65
334.43	2205.66
334.64	2109.41
334.86	2138.08
335.07	2115.55
335.28	2234.33
335.49	2060.26
335.70	2301.92
335.92	2334.68
336.13	2410.46
336.34	2244.57
336.55	2291.68
336.76	2160.61
336.98	2076.64
337.19	2277.34
337.40	2312.16
337.61	2324.44
337.82	2086.88
338.04	2349.02
338.25	2007.01
338.46	2031.58
338.67	2111.46
338.88	2072.54
339.09	2088.93
339.31	2162.66
339.52	2115.55
339.73	2138.08
339.94	2152.42
340.15	2250.72
340.36	2121.70
340.58	2142.18
340.79	2043.87
341.00	2217.95
341.21	2064.35
341.42	2357.21
341.63	2187.23
341.85	2318.30
342.06	2201.57
342.27	2060.26
342.48	2197.47
342.69	2002.91
342.90	2222.05
343.12	2346.97
343.33	2164.70
343.54	2246.62
343.75	2353.12
343.96	2187.23
344.17	2156.51
344.38	2183.13
344.60	2129.89
344.81	2058.21
345.02	2160.61
345.23	2355.16
345.44	2351.07
345.65	2217.95
345.86	2246.62
346.07	2203.61
346.29	2115.55
346.50	2234.33
346.71	2254.81
346.92	2299.87
347.13	2449.37
347.34	2211.81
347.55	2201.57
347.76	2312.16
347.98	2080.74
348.19	2244.57
348.40	2242.53
348.61	2162.66
348.82	2308.06
349.03	2254.81
349.24	2084.83
349.45	2428.89
349.66	2019.30
349.88	2166.75
350.09	2113.50
350.30	2308.06
350.51	2289.63
350.72	2187.23
350.93	2170.85
351.14	2121.70
351.35	2271.20
351.56	2195.42
351.77	2209.76
351.99	2293.72
352.20	2353.12
352.41	2258.91
352.62	2039.78
352.83	2131.94
353.04	2217.95
353.25	2191.33
353.46	2269.15
353.67	2277.34
353.88	2019.30
354.09	2222.05
354.30	2217.95
354.52	2209.76
354.73	2111.46
354.94	2031.58
355.15	2140.13
355.36	2373.60
355.57	2226.14
355.78	2230.24
355.99	2185.18
356.20	2172.89
356.41	2334.68
356.62	2203.61
356.83	2172.89
357.04	2254.81
357.25	2093.02
357.46	2195.42
357.68	1984.48
357.89	2095.07
358.10	2189.28
358.31	2170.85
358.52	2154.46
358.73	2109.41
358.94	2090.98
359.15	2133.98
359.36	2250.72
359.57	2152.42
359.78	2152.42
359.99	2254.81
360.20	2115.55
360.41	2133.98
360.62	2242.53
360.83	2242.53
361.04	2166.75
361.25	2158.56
361.46	2406.36
361.67	2254.81
361.88	2256.86
362.09	2244.57
362.30	2203.61
362.51	2119.65
362.72	2140.13
362.93	2236.38
363.14	2334.68
363.35	2277.34
363.56	2129.89
363.78	2297.82
363.99	2265.05
364.20	2088.93
364.41	2191.33
364.62	2375.64
364.83	2242.53
365.04	2197.47
365.25	2232.29
365.46	2398.17
365.67	2131.94
365.88	2154.46
366.09	2176.99
366.30	2131.94
366.51	2285.53
366.72	2082.78
366.93	2162.66
367.14	2127.84
367.35	2346.97
367.56	2183.13
367.77	2252.77
367.98	2306.01
368.18	2179.04
368.39	2187.23
368.60	2072.54
368.81	2256.86
369.02	2136.03
369.23	2195.42
369.44	2082.78
369.65	2193.37
369.86	2281.44
370.07	2267.10
370.28	2101.22
370.49	2240.48
370.70	2226.14
370.91	2101.22
371.12	2109.41
371.33	2195.42
371.54	2123.74
371.75	2228.19
371.96	1978.34
372.17	2203.61
372.38	2176.99
372.59	2201.57
372.80	2119.65
373.01	2168.80
373.22	2265.05
373.43	2183.13
373.64	2138.08
373.85	2306.01
374.06	2289.63
374.26	2215.90
374.47	2238.43
374.68	2320.35
374.89	2150.37
375.10	2144.22
375.31	2314.20
375.52	2269.15
375.73	2203.61
375.94	2144.22
376.15	2318.30
376.36	2187.23
376.57	2162.66
376.78	2066.40
376.99	2189.28
377.20	2269.15
377.40	2152.42
377.61	2437.08
377.82	2070.50
378.03	2263.01
378.24	2291.68
378.45	2160.61
378.66	2228.19
378.87	2070.50
379.08	2039.78
379.29	2232.29
379.50	2291.68
379.71	2138.08
379.91	2248.67
380.12	2105.31
380.33	2215.90
380.54	2070.50
380.75	2207.71
380.96	2121.70
381.17	2314.20
381.38	2193.37
381.59	2185.18
381.80	2187.23
382.00	2396.12
382.21	2281.44
382.42	2410.46
382.63	2340.83
382.84	2230.24
383.05	2301.92
383.26	2389.98
383.47	2183.13
383.68	2176.99
383.88	2275.29
384.09	2176.99
384.30	2346.97
384.51	2242.53
384.72	2142.18
384.93	2058.21
385.14	2220.00
385.35	2265.05
385.55	2086.88
385.76	2285.53
385.97	2207.71
386.18	2002.91
386.39	2127.84
386.60	2037.73
386.81	2125.79
387.02	2105.31
387.22	2164.70
387.43	2242.53
387.64	2289.63
387.85	2383.84
388.06	2453.47
388.27	4042.69
388.48	8542.08
388.68	11984.71
388.89	14608.16
389.10	15806.22
389.31	14366.50
389.52	11353.94
389.73	9805.67
389.93	9066.36
390.14	8234.88
390.35	7446.41
390.56	6625.18
390.77	5384.11
390.98	4145.09
391.18	3215.31
391.39	2701.27
391.60	2320.35
391.81	2338.78
392.02	2138.08
392.23	2381.79
392.43	2220.00
392.64	2295.77
392.85	2150.37
393.06	2381.79
393.27	2176.99
393.47	2113.50
393.68	2193.37
393.89	2170.85
394.10	2314.20
394.31	2043.87
394.52	2123.74
394.72	2154.46
394.93	2398.17
395.14	2125.79
395.35	2273.25
395.56	2127.84
395.76	2119.65
395.97	2240.48
396.18	2301.92
396.39	2310.11
396.60	2668.50
396.80	2506.71
397.01	2389.98
397.22	2363.36
397.43	2359.26
397.64	2133.98
397.84	2260.96
398.05	2432.99
398.26	2308.06
398.47	2283.49
398.67	2396.12
398.88	2131.94
399.09	2197.47
399.30	2152.42
399.51	2254.81
399.71	2162.66
399.92	2162.66
400.13	2146.27
400.34	2205.66
400.54	2213.85
400.75	2324.44
400.96	2258.91
401.17	2363.36
401.37	2277.34
401.58	2211.81
401.79	2187.23
402.00	2301.92
402.21	2600.92
402.41	2519.00
402.62	2478.04
402.83	2619.35
403.04	2586.58
403.24	2711.51
403.45	2389.98
403.66	2473.95
403.87	2435.03
404.07	2490.33
404.28	2453.47
404.49	2437.08
404.70	2299.87
404.90	2320.35
405.11	2220.00
405.32	2215.90
405.52	2187.23
405.73	2220.00
405.94	2068.45
406.15	2222.05
406.35	2256.86
406.56	2248.67
406.77	2209.76
406.98	2144.22
407.18	2076.64
407.39	2285.53
407.60	2152.42
407.80	2211.81
408.01	2164.70
408.22	2189.28
408.43	2146.27
408.63	2224.09
408.84	2275.29
409.05	2303.96
409.25	2121.70
409.46	2095.07
409.67	2152.42
409.88	2125.79
410.08	2258.91
410.29	2146.27
410.50	2236.38
410.70	2252.77
410.91	2226.14
411.12	2146.27
411.32	2197.47
411.53	2160.61
411.74	2269.15
411.95	2265.05
412.15	2328.54
412.36	2295.77
412.57	2308.06
412.77	2340.83
412.98	2226.14
413.19	2199.52
413.39	2226.14
413.60	2185.18
413.81	2367.45
414.01	2146.27
414.22	2246.62
414.43	2340.83
414.63	2232.29
414.84	2260.96
415.05	2195.42
415.25	2117.60
415.46	2273.25
415.67	2166.75
415.87	2244.57
416.08	2246.62
416.29	2097.12
416.49	2174.94
416.70	2121.70
416.91	2176.99
417.11	2240.48
417.32	2228.19
417.53	2269.15
417.73	2252.77
417.94	2179.04
418.15	2279.39
418.35	2228.19
418.56	2215.90
418.77	2457.56
418.97	2189.28
419.18	2242.53
419.38	2007.01
419.59	2234.33
419.80	2303.96
420.00	2129.89
420.21	2154.46
420.42	2328.54
420.62	2162.66
420.83	2121.70
421.04	2193.37
421.24	2217.95
421.45	2273.25
421.65	2193.37
421.86	2185.18
422.07	2293.72
422.27	2269.15
422.48	2193.37
422.69	2125.79
422.89	2234.33
423.10	2179.04
423.30	2076.64
423.51	2203.61
423.72	2224.09
423.92	2232.29
424.13	2064.35
424.33	2117.60
424.54	2299.87
424.75	2263.01
424.95	2310.11
425.16	2267.10
425.36	2138.08
425.57	2359.26
425.78	2271.20
425.98	2265.05
426.19	2174.94
426.39	2127.84
426.60	2265.05
426.81	2293.72
427.01	2203.61
427.22	2121.70
427.42	2068.45
427.63	2072.54
427.83	2301.92
428.04	2389.98
428.25	2267.10
428.45	2318.30
428.66	2316.25
428.86	2181.09
429.07	2170.85
429.28	2250.72
429.48	2179.04
429.69	2111.46
429.89	2160.61
430.10	2162.66
430.30	2291.68
430.51	2289.63
430.71	2146.27
430.92	2117.60
431.13	2203.61
431.33	2328.54
431.54	2256.86
431.74	2332.64
431.95	2396.12
432.15	2119.65
432.36	2162.66
432.56	2170.85
432.77	2387.93
432.98	2353.12
433.18	2215.90
433.39	2220.00
433.59	2232.29
433.80	2340.83
434.00	2359.26
434.21	2154.46
434.41	2097.12
434.62	2416.60
434.82	2105.31
435.03	2078.69
435.23	2146.27
435.44	2013.15
435.64	2199.52
435.85	2191.33
436.06	2312.16
436.26	2361.31
436.47	2189.28
436.67	2103.26
436.88	2160.61
437.08	2332.64
437.29	2306.01
437.49	2203.61
437.70	2260.96
437.90	2144.22
438.11	2369.50
438.31	2267.10
438.52	2363.36
438.72	2426.84
438.93	2545.63
439.13	2287.58
439.34	2385.88
439.54	2242.53
439.75	2346.97
439.95	2281.44
440.16	2156.51
440.36	2207.71
440.57	2295.77
440.77	2172.89
440.98	2252.77
441.18	2244.57
441.39	2187.23
441.59	2107.36
441.80	2392.03
442.00	2240.48
442.21	2269.15
442.41	2058.21
442.62	2260.96
442.82	2103.26
443.02	2277.34
443.23	2228.19
443.43	2138.08
443.64	2387.93
443.84	2195.42
444.05	2254.81
444.25	2191.33
444.46	2133.98
444.66	2187.23
444.87	2308.06
445.07	2076.64
445.28	2220.00
445.48	2363.36
445.69	2291.68
445.89	2422.75
446.09	2197.47
446.30	2422.75
446.50	2885.59
446.71	4489.15
446.91	5660.59
447.12	6303.65
447.32	6664.09
447.53	6272.93
447.73	5050.29
447.93	4503.48
448.14	4239.30
448.34	3977.16
448.55	3717.06
448.75	3502.03
448.96	3356.62
449.16	3071.95
449.36	2852.82
449.57	2478.04
449.77	2357.21
449.98	2207.71
450.18	2308.06
450.39	2334.68
450.59	2265.05
450.79	2156.51
451.00	2119.65
451.20	2240.48
451.41	2232.29
451.61	2250.72
451.81	2185.18
452.02	2162.66
452.22	2154.46
452.43	2224.09
452.63	2281.44
