SpectraSuite Data File
++++++++++++++++++++++++++++++++++++
Date: Thu May 05 12:35:28 CEST 2016
User: root
Dark Spectrum Present: No
Reference Spectrum Present: No
Number of Sampled Component Spectra: 1
Spectrometers: USB4C02835
Integration Time (usec): 100000 (USB4C02835)
Spectra Averaged: 1 (USB4C02835)
Boxcar Smoothing: 0 (USB4C02835)
Correct for Electrical Dark: No (USB4C02835)
Strobe/Lamp Enabled: No (USB4C02835)
Correct for Detector Non-linearity: No (USB4C02835)
Correct for Stray Light: No (USB4C02835)
Number of Pixels in Processed Spectrum: 3648
>>>>>Begin Processed Spectral Data<<<<<
177.47	1740.77
177.69	1740.77
177.91	1740.77
178.13	1751.01
178.36	1740.77
178.58	2080.74
178.80	2244.57
179.02	2058.21
179.24	2133.98
179.46	2095.07
179.68	2213.85
179.90	2103.26
180.13	2240.48
180.35	2029.54
180.57	2183.13
180.79	2236.38
181.01	2176.99
181.23	2160.61
181.45	2121.70
181.67	2283.49
181.90	2217.95
182.12	2017.25
182.34	2078.69
182.56	2277.34
182.78	2226.14
183.00	2109.41
183.22	2045.92
183.44	2072.54
183.66	2398.17
183.89	2158.56
184.11	2095.07
184.33	2252.77
184.55	2332.64
184.77	2129.89
184.99	2150.37
185.21	2170.85
185.43	2416.60
185.65	2144.22
185.87	2127.84
186.10	2324.44
186.32	2373.60
186.54	2164.70
186.76	2250.72
186.98	2275.29
187.20	2162.66
187.42	2101.22
187.64	2117.60
187.86	2162.66
188.08	2349.02
188.30	2144.22
188.52	2105.31
188.75	2301.92
188.97	2291.68
189.19	2099.17
189.41	2111.46
189.63	2301.92
189.85	2160.61
190.07	2025.44
190.29	2011.11
190.51	2230.24
190.73	2101.22
190.95	2242.53
191.17	2138.08
191.39	2095.07
191.61	2166.75
191.84	2181.09
192.06	2148.32
192.28	2039.78
192.50	2463.71
192.72	2179.04
192.94	2170.85
193.16	2318.30
193.38	2279.39
193.60	2078.69
193.82	2146.27
194.04	2297.82
194.26	2269.15
194.48	2054.11
194.70	2138.08
194.92	2121.70
195.14	2258.91
195.36	2119.65
195.58	2107.36
195.80	2103.26
196.02	2127.84
196.24	2078.69
196.46	2195.42
196.69	2168.80
196.91	2379.74
197.13	2129.89
197.35	2123.74
197.57	2338.78
197.79	2222.05
198.01	2133.98
198.23	2146.27
198.45	2244.57
198.67	2107.36
198.89	2070.50
199.11	2246.62
199.33	2084.83
199.55	1966.05
199.77	2170.85
199.99	2230.24
200.21	2232.29
200.43	2306.01
200.65	2088.93
200.87	1935.33
201.09	2168.80
201.31	2099.17
201.53	2191.33
201.75	2179.04
201.97	2301.92
202.19	2226.14
202.41	2136.03
202.63	2275.29
202.85	2226.14
203.07	2299.87
203.29	2162.66
203.51	2035.68
203.73	2127.84
203.95	2494.43
204.17	2131.94
204.39	2228.19
204.61	2138.08
204.83	2168.80
205.05	2207.71
205.27	2207.71
205.49	2326.49
205.71	2168.80
205.93	2002.91
206.15	2095.07
206.37	2207.71
206.59	2111.46
206.81	2064.35
207.03	2056.16
207.25	2123.74
207.47	2275.29
207.69	2144.22
207.91	2299.87
208.13	2400.22
208.34	2095.07
208.56	2119.65
208.78	2191.33
209.00	2170.85
209.22	2189.28
209.44	2107.36
209.66	2113.50
209.88	2176.99
210.10	2125.79
210.32	2121.70
210.54	2289.63
210.76	2185.18
210.98	2283.49
211.20	1968.10
211.42	2117.60
211.64	2314.20
211.86	2283.49
212.08	2183.13
212.30	2158.56
212.52	2181.09
212.74	2224.09
212.96	2168.80
213.17	2238.43
213.39	2254.81
213.61	2310.11
213.83	2234.33
214.05	2205.66
214.27	2285.53
214.49	2101.22
214.71	2152.42
214.93	2209.76
215.15	2158.56
215.37	2349.02
215.59	1996.77
215.81	2129.89
216.03	2346.97
216.24	2244.57
216.46	2168.80
216.68	2211.81
216.90	2285.53
217.12	2297.82
217.34	2142.18
217.56	2183.13
217.78	2357.21
218.00	2248.67
218.22	2199.52
218.44	2203.61
218.66	2166.75
218.87	2379.74
219.09	2117.60
219.31	2105.31
219.53	2203.61
219.75	2176.99
219.97	2093.02
220.19	2211.81
220.41	2146.27
220.63	2367.45
220.85	2131.94
221.06	2131.94
221.28	2371.55
221.50	2215.90
221.72	2103.26
221.94	2070.50
222.16	2195.42
222.38	2238.43
222.60	2103.26
222.82	2119.65
223.03	2269.15
223.25	2088.93
223.47	2080.74
223.69	2346.97
223.91	2293.72
224.13	2205.66
224.35	2097.12
224.57	2215.90
224.78	2160.61
225.00	2088.93
225.22	2107.36
225.44	2156.51
225.66	2244.57
225.88	2111.46
226.10	2144.22
226.32	2176.99
226.53	2340.83
226.75	2121.70
226.97	2158.56
227.19	2144.22
227.41	2133.98
227.63	2185.18
227.85	1943.52
228.06	2138.08
228.28	2215.90
228.50	2293.72
228.72	2039.78
228.94	2093.02
229.16	2027.49
229.37	2072.54
229.59	2086.88
229.81	2271.20
230.03	2172.89
230.25	2131.94
230.47	2068.45
230.69	2013.15
230.90	2269.15
231.12	2170.85
231.34	2222.05
231.56	2232.29
231.78	2080.74
232.00	2230.24
232.21	2129.89
232.43	2080.74
232.65	2004.96
232.87	2283.49
233.09	2031.58
233.30	2131.94
233.52	2328.54
233.74	2127.84
233.96	2060.26
234.18	2146.27
234.40	2187.23
234.61	2389.98
234.83	2002.91
235.05	2029.54
235.27	2420.70
235.49	2199.52
235.70	2080.74
235.92	2265.05
236.14	2224.09
236.36	2498.52
236.58	2023.39
236.79	2240.48
237.01	2207.71
237.23	2246.62
237.45	2338.78
237.67	2117.60
237.88	2228.19
238.10	2367.45
238.32	2080.74
238.54	2125.79
238.76	2234.33
238.97	2101.22
239.19	2076.64
239.41	2179.04
239.63	2363.36
239.85	2078.69
240.06	2095.07
240.28	2129.89
240.50	2228.19
240.72	2189.28
240.93	2111.46
241.15	2207.71
241.37	2156.51
241.59	2242.53
241.81	2117.60
242.02	2109.41
242.24	2254.81
242.46	2281.44
242.68	2047.97
242.89	2031.58
243.11	2394.08
243.33	2193.37
243.55	2140.13
243.76	2138.08
243.98	2162.66
244.20	2199.52
244.42	2136.03
244.64	2111.46
244.85	2078.69
245.07	2088.93
245.29	2187.23
245.51	2123.74
245.72	2160.61
245.94	2275.29
246.16	2181.09
246.38	2246.62
246.59	2136.03
246.81	2084.83
247.03	2123.74
247.24	1978.34
247.46	2127.84
247.68	2154.46
247.90	2111.46
248.11	2060.26
248.33	2351.07
248.55	2174.94
248.77	2133.98
248.98	2181.09
249.20	2330.59
249.42	2293.72
249.64	2191.33
249.85	2119.65
250.07	2195.42
250.29	2211.81
250.50	2228.19
250.72	2021.35
250.94	2213.85
251.16	2461.66
251.37	2119.65
251.59	2201.57
251.81	2269.15
252.02	2297.82
252.24	2113.50
252.46	2240.48
252.68	2095.07
252.89	2121.70
253.11	1933.28
253.33	2207.71
253.54	2324.44
253.76	2037.73
253.98	2066.40
254.20	2039.78
254.41	2035.68
254.63	2133.98
254.85	2015.20
255.06	2121.70
255.28	2203.61
255.50	2144.22
255.71	2099.17
255.93	2074.59
256.15	2181.09
256.36	2254.81
256.58	2045.92
256.80	2179.04
257.02	2109.41
257.23	2070.50
257.45	2142.18
257.67	2213.85
257.88	2045.92
258.10	2226.14
258.32	2133.98
258.53	2207.71
258.75	2365.40
258.97	2129.89
259.18	2158.56
259.40	2050.02
259.62	2396.12
259.83	2308.06
260.05	2154.46
260.27	2510.81
260.48	2318.30
260.70	2133.98
260.92	2138.08
261.13	2154.46
261.35	2187.23
261.57	2228.19
261.78	2039.78
262.00	2076.64
262.22	2351.07
262.43	2021.35
262.65	2138.08
262.86	2121.70
263.08	2430.94
263.30	2236.38
263.51	1994.72
263.73	2097.12
263.95	2283.49
264.16	2088.93
264.38	2056.16
264.60	2111.46
264.81	2158.56
265.03	2285.53
265.25	2338.78
265.46	2179.04
265.68	2344.92
265.89	2275.29
266.11	2035.68
266.33	2156.51
266.54	2326.49
266.76	2297.82
266.98	2193.37
267.19	2158.56
267.41	2310.11
267.62	2263.01
267.84	2047.97
268.06	2166.75
268.27	2228.19
268.49	2310.11
268.70	2197.47
268.92	2125.79
269.14	2111.46
269.35	2113.50
269.57	2103.26
269.79	2260.96
270.00	2111.46
270.22	2375.64
270.43	2072.54
270.65	1955.81
270.87	2275.29
271.08	2285.53
271.30	2293.72
271.51	2146.27
271.73	2275.29
271.95	2277.34
272.16	2183.13
272.38	2230.24
272.59	2113.50
272.81	2314.20
273.02	2228.19
273.24	2199.52
273.46	2269.15
273.67	2037.73
273.89	2047.97
274.10	2019.30
274.32	2349.02
274.54	2312.16
274.75	2088.93
274.97	2039.78
275.18	2310.11
275.40	2277.34
275.61	2150.37
275.83	2123.74
276.05	2064.35
276.26	2211.81
276.48	2164.70
276.69	2168.80
276.91	2129.89
277.12	2314.20
277.34	2226.14
277.55	2228.19
277.77	2209.76
277.99	2154.46
278.20	2047.97
278.42	2031.58
278.63	2029.54
278.85	2138.08
279.06	2103.26
279.28	2195.42
279.49	2248.67
279.71	2291.68
279.93	2195.42
280.14	2129.89
280.36	2113.50
280.57	2324.44
280.79	2211.81
281.00	2093.02
281.22	2162.66
281.43	2283.49
281.65	2019.30
281.86	2129.89
282.08	2217.95
282.29	2330.59
282.51	2066.40
282.73	2021.35
282.94	2019.30
283.16	2283.49
283.37	2293.72
283.59	2164.70
283.80	2275.29
284.02	2230.24
284.23	2181.09
284.45	2160.61
284.66	2129.89
284.88	2131.94
285.09	2121.70
285.31	2269.15
285.52	2203.61
285.74	2060.26
285.95	2289.63
286.17	2131.94
286.38	2306.01
286.60	2037.73
286.81	2047.97
287.03	2199.52
287.24	2183.13
287.46	2209.76
287.67	2150.37
287.89	2406.36
288.10	2209.76
288.32	2162.66
288.53	2371.55
288.75	2215.90
288.96	2312.16
289.18	2144.22
289.39	2109.41
289.61	2254.81
289.82	2426.84
290.04	2316.25
290.25	2054.11
290.47	2226.14
290.68	2140.13
290.90	2299.87
291.11	2066.40
291.33	2236.38
291.54	2068.45
291.76	2121.70
291.97	2185.18
292.18	2150.37
292.40	2129.89
292.61	2172.89
292.83	2385.88
293.04	2220.00
293.26	2279.39
293.47	2170.85
293.69	2047.97
293.90	2166.75
294.12	2334.68
294.33	2189.28
294.55	2191.33
294.76	2226.14
294.97	2359.26
295.19	2349.02
295.40	2121.70
295.62	2211.81
295.83	2260.96
296.05	2170.85
296.26	2228.19
296.48	2080.74
296.69	2088.93
296.90	2215.90
297.12	2172.89
297.33	2236.38
297.55	2273.25
297.76	2318.30
297.98	2346.97
298.19	2230.24
298.41	2133.98
298.62	2101.22
298.83	2291.68
299.05	2252.77
299.26	2121.70
299.48	2093.02
299.69	2217.95
299.90	2154.46
300.12	2097.12
300.33	2250.72
300.55	2220.00
300.76	2281.44
300.98	2144.22
301.19	2279.39
301.40	2195.42
301.62	2191.33
301.83	2211.81
302.05	2256.86
302.26	2103.26
302.47	2211.81
302.69	2047.97
302.90	2213.85
303.12	2039.78
303.33	2252.77
303.54	2342.88
303.76	2113.50
303.97	2248.67
304.19	2250.72
304.40	2084.83
304.61	2152.42
304.83	2301.92
305.04	2265.05
305.26	2236.38
305.47	2166.75
305.68	2129.89
305.90	2072.54
306.11	2277.34
306.33	2166.75
306.54	2197.47
306.75	2086.88
306.97	2090.98
307.18	2133.98
307.39	2162.66
307.61	2230.24
307.82	2125.79
308.04	2203.61
308.25	2119.65
308.46	2183.13
308.68	2152.42
308.89	2183.13
309.10	2299.87
309.32	2193.37
309.53	2144.22
309.74	2256.86
309.96	2158.56
310.17	2301.92
310.39	2170.85
310.60	2275.29
310.81	2240.48
311.03	2080.74
311.24	2269.15
311.45	2127.84
311.67	2375.64
311.88	2260.96
312.09	2113.50
312.31	2152.42
312.52	2195.42
312.73	2213.85
312.95	2095.07
313.16	2166.75
313.37	2293.72
313.59	2228.19
313.80	2238.43
314.01	2396.12
314.23	2166.75
314.44	2136.03
314.65	2090.98
314.87	2136.03
315.08	2166.75
315.29	2187.23
315.51	2127.84
315.72	2029.54
315.93	2365.40
316.15	2342.88
316.36	2121.70
316.57	2256.86
316.79	2226.14
317.00	2097.12
317.21	2277.34
317.43	2152.42
317.64	2172.89
317.85	2093.02
318.07	2166.75
318.28	2226.14
318.49	2303.96
318.70	2402.27
318.92	2359.26
319.13	2367.45
319.34	2396.12
319.56	2230.24
319.77	2365.40
319.98	2283.49
320.20	2297.82
320.41	2238.43
320.62	2281.44
320.83	2093.02
321.05	2334.68
321.26	2222.05
321.47	2258.91
321.69	2277.34
321.90	2097.12
322.11	2174.94
322.32	2168.80
322.54	2291.68
322.75	2088.93
322.96	2514.91
323.18	2035.68
323.39	2070.50
323.60	2154.46
323.81	2242.53
324.03	2172.89
324.24	2179.04
324.45	2211.81
324.66	2138.08
324.88	2248.67
325.09	2412.51
325.30	2217.95
325.52	2230.24
325.73	2265.05
325.94	2144.22
326.15	1972.19
326.37	2107.36
326.58	2211.81
326.79	2332.64
327.00	2062.30
327.22	2193.37
327.43	2201.57
327.64	2162.66
327.85	2232.29
328.07	2127.84
328.28	2357.21
328.49	2136.03
328.70	2220.00
328.92	2138.08
329.13	2174.94
329.34	2183.13
329.55	2287.58
329.76	2275.29
329.98	2146.27
330.19	2408.41
330.40	2248.67
330.61	2199.52
330.83	2183.13
331.04	2072.54
331.25	2203.61
331.46	2125.79
331.68	2129.89
331.89	2314.20
332.10	2164.70
332.31	2086.88
332.52	2105.31
332.74	2306.01
332.95	2070.50
333.16	2127.84
333.37	2236.38
333.58	2164.70
333.80	2185.18
334.01	2179.04
334.22	2146.27
334.43	2138.08
334.64	2101.22
334.86	2007.01
335.07	2019.30
335.28	2215.90
335.49	2113.50
335.70	2287.58
335.92	2283.49
336.13	2478.04
336.34	2187.23
336.55	2176.99
336.76	2240.48
336.98	2041.82
337.19	2195.42
337.40	2318.30
337.61	2465.75
337.82	2185.18
338.04	2256.86
338.25	2060.26
338.46	2162.66
338.67	2117.60
338.88	2125.79
339.09	2133.98
339.31	2179.04
339.52	2090.98
339.73	2127.84
339.94	2133.98
340.15	2326.49
340.36	2154.46
340.58	2195.42
340.79	2158.56
341.00	2260.96
341.21	2140.13
341.42	2336.73
341.63	2160.61
341.85	2273.25
342.06	2252.77
342.27	2125.79
342.48	2211.81
342.69	2031.58
342.90	2217.95
343.12	2287.58
343.33	2099.17
343.54	2314.20
343.75	2330.59
343.96	2154.46
344.17	2142.18
344.38	2285.53
344.60	2127.84
344.81	2072.54
345.02	2146.27
345.23	2291.68
345.44	2471.90
345.65	2203.61
345.86	2179.04
346.07	2258.91
346.29	2105.31
346.50	2250.72
346.71	2254.81
346.92	2361.31
347.13	2461.66
347.34	2099.17
347.55	2154.46
347.76	2234.33
347.98	2093.02
348.19	2095.07
348.40	2265.05
348.61	2154.46
348.82	2316.25
349.03	2242.53
349.24	2086.88
349.45	2428.89
349.66	1945.57
349.88	2228.19
350.09	2080.74
350.30	2365.40
350.51	2369.50
350.72	2217.95
350.93	2203.61
351.14	2203.61
351.35	2236.38
351.56	2203.61
351.77	2168.80
351.99	2220.00
352.20	2406.36
352.41	2277.34
352.62	2041.82
352.83	2152.42
353.04	2310.11
353.25	2131.94
353.46	2228.19
353.67	2310.11
353.88	2072.54
354.09	2138.08
354.30	2236.38
354.52	2275.29
354.73	2203.61
354.94	2109.41
355.15	2203.61
355.36	2322.40
355.57	2211.81
355.78	2154.46
355.99	2084.83
356.20	2191.33
356.41	2289.63
356.62	2201.57
356.83	2152.42
357.04	2322.40
357.25	2017.25
357.46	2119.65
357.68	2074.59
357.89	2117.60
358.10	2168.80
358.31	2176.99
358.52	2119.65
358.73	2045.92
358.94	2115.55
359.15	2121.70
359.36	2236.38
359.57	2230.24
359.78	2152.42
359.99	2258.91
360.20	2129.89
360.41	2244.57
360.62	2316.25
360.83	2191.33
361.04	2172.89
361.25	2152.42
361.46	2314.20
361.67	2213.85
361.88	2318.30
362.09	2250.72
362.30	2193.37
362.51	2172.89
362.72	2152.42
362.93	2314.20
363.14	2176.99
363.35	2162.66
363.56	2054.11
363.78	2275.29
363.99	2267.10
364.20	2144.22
364.41	2213.85
364.62	2349.02
364.83	2242.53
365.04	2236.38
365.25	2146.27
365.46	2383.84
365.67	2097.12
365.88	2125.79
366.09	2066.40
366.30	2119.65
366.51	2242.53
366.72	2097.12
366.93	2197.47
367.14	2228.19
367.35	2340.83
367.56	2170.85
367.77	2250.72
367.98	2203.61
368.18	2207.71
368.39	2174.94
368.60	2113.50
368.81	2308.06
369.02	2248.67
369.23	2113.50
369.44	2138.08
369.65	2213.85
369.86	2191.33
370.07	2269.15
370.28	2088.93
370.49	2283.49
370.70	2318.30
370.91	2080.74
371.12	2107.36
371.33	2332.64
371.54	2205.66
371.75	2369.50
371.96	1957.86
372.17	2236.38
372.38	2113.50
372.59	2297.82
372.80	2105.31
373.01	2162.66
373.22	2195.42
373.43	2168.80
373.64	2093.02
373.85	2310.11
374.06	2400.22
374.26	2283.49
374.47	2187.23
374.68	2314.20
374.89	2193.37
375.10	2185.18
375.31	2269.15
375.52	2265.05
375.73	2191.33
375.94	2088.93
376.15	2375.64
376.36	2095.07
376.57	2121.70
376.78	2142.18
376.99	2140.13
377.20	2414.56
377.40	2127.84
377.61	2381.79
377.82	2080.74
378.03	2308.06
378.24	2295.77
378.45	2166.75
378.66	2217.95
378.87	2017.25
379.08	2074.59
379.29	2176.99
379.50	2258.91
379.71	2160.61
379.91	2244.57
380.12	2170.85
380.33	2183.13
380.54	2211.81
380.75	2162.66
380.96	2105.31
381.17	2226.14
381.38	2131.94
381.59	2193.37
381.80	2138.08
382.00	2392.03
382.21	2265.05
382.42	2392.03
382.63	2398.17
382.84	2310.11
383.05	2291.68
383.26	2289.63
383.47	2172.89
383.68	2275.29
383.88	2281.44
384.09	2271.20
384.30	2318.30
384.51	2211.81
384.72	2220.00
384.93	2031.58
385.14	2258.91
385.35	2324.44
385.55	2129.89
385.76	2344.92
385.97	2125.79
386.18	2064.35
386.39	2203.61
386.60	2166.75
386.81	2193.37
387.02	2090.98
387.22	2117.60
387.43	2250.72
387.64	2289.63
387.85	2387.93
388.06	2408.41
388.27	4069.31
388.48	8570.75
388.68	12365.64
388.89	14634.78
389.10	15955.72
389.31	14370.60
389.52	11296.60
389.73	9830.25
389.93	8904.57
390.14	8099.72
390.35	7356.30
390.56	6473.63
390.77	5498.80
390.98	4046.79
391.18	3252.17
391.39	2699.22
391.60	2342.88
391.81	2334.68
392.02	2168.80
392.23	2349.02
392.43	2176.99
392.64	2299.87
392.85	2265.05
393.06	2351.07
393.27	2232.29
393.47	2148.32
393.68	2224.09
393.89	2154.46
394.10	2371.55
394.31	2115.55
394.52	2140.13
394.72	2105.31
394.93	2285.53
395.14	2070.50
395.35	2209.76
395.56	2160.61
395.76	2215.90
395.97	2172.89
396.18	2414.56
396.39	2289.63
396.60	2678.74
396.80	2506.71
397.01	2373.60
397.22	2357.21
397.43	2473.95
397.64	2136.03
397.84	2277.34
398.05	2426.84
398.26	2316.25
398.47	2265.05
398.67	2342.88
398.88	2271.20
399.09	2230.24
399.30	2181.09
399.51	2215.90
399.71	2125.79
399.92	2136.03
400.13	2215.90
400.34	2103.26
400.54	2283.49
400.75	2308.06
400.96	2152.42
401.17	2373.60
401.37	2242.53
401.58	2193.37
401.79	2136.03
402.00	2295.77
402.21	2629.59
402.41	2484.19
402.62	2623.45
402.83	2574.30
403.04	2717.65
403.24	2760.66
403.45	2328.54
403.66	2381.79
403.87	2383.84
404.07	2387.93
404.28	2424.80
404.49	2408.41
404.70	2236.38
404.90	2314.20
405.11	2293.72
405.32	2252.77
405.52	2117.60
405.73	2117.60
405.94	2142.18
406.15	2201.57
406.35	2172.89
406.56	2222.05
406.77	2203.61
406.98	2222.05
407.18	2150.37
407.39	2320.35
407.60	2176.99
407.80	2291.68
408.01	2232.29
408.22	2285.53
408.43	2045.92
408.63	2222.05
408.84	2306.01
409.05	2320.35
409.25	2146.27
409.46	2150.37
409.67	2203.61
409.88	2156.51
410.08	2138.08
410.29	2176.99
410.50	2289.63
410.70	2258.91
410.91	2136.03
411.12	2254.81
411.32	2170.85
411.53	2021.35
411.74	2260.96
411.95	2263.01
412.15	2267.10
412.36	2326.49
412.57	2297.82
412.77	2263.01
412.98	2226.14
413.19	2267.10
413.39	2187.23
413.60	2297.82
413.81	2398.17
414.01	2125.79
414.22	2209.76
414.43	2328.54
414.63	2174.94
414.84	2291.68
415.05	2150.37
415.25	2056.16
415.46	2179.04
415.67	2164.70
415.87	2254.81
416.08	2166.75
416.29	2107.36
416.49	2299.87
416.70	2129.89
416.91	2166.75
417.11	2117.60
417.32	2281.44
417.53	2326.49
417.73	2201.57
417.94	2156.51
418.15	2265.05
418.35	2242.53
418.56	2222.05
418.77	2475.99
418.97	2174.94
419.18	2168.80
419.38	1970.15
419.59	2150.37
419.80	2416.60
420.00	2179.04
420.21	2090.98
420.42	2306.01
420.62	2254.81
420.83	2154.46
421.04	2166.75
421.24	2222.05
421.45	2273.25
421.65	2211.81
421.86	2164.70
422.07	2222.05
422.27	2179.04
422.48	2199.52
422.69	2117.60
422.89	2197.47
423.10	2236.38
423.30	2050.02
423.51	2299.87
423.72	2244.57
423.92	2314.20
424.13	2099.17
424.33	2224.09
424.54	2285.53
424.75	2271.20
424.95	2336.73
425.16	2234.33
425.36	2185.18
425.57	2275.29
425.78	2193.37
425.98	2334.68
426.19	2117.60
426.39	2117.60
426.60	2269.15
426.81	2226.14
427.01	2236.38
427.22	2105.31
427.42	2062.30
427.63	2133.98
427.83	2267.10
428.04	2357.21
428.25	2297.82
428.45	2314.20
428.66	2285.53
428.86	2199.52
429.07	2224.09
429.28	2105.31
429.48	2185.18
429.69	2195.42
429.89	2201.57
430.10	2050.02
430.30	2215.90
430.51	2215.90
430.71	2129.89
430.92	2176.99
431.13	2121.70
431.33	2222.05
431.54	2179.04
431.74	2361.31
431.95	2463.71
432.15	2166.75
432.36	2170.85
432.56	2234.33
432.77	2346.97
432.98	2289.63
433.18	2258.91
433.39	2203.61
433.59	2160.61
433.80	2424.80
434.00	2308.06
434.21	2185.18
434.41	2183.13
434.62	2400.22
434.82	2082.78
435.03	2078.69
435.23	2258.91
435.44	2056.16
435.64	2168.80
435.85	2217.95
436.06	2226.14
436.26	2252.77
436.47	2209.76
436.67	2144.22
436.88	2129.89
437.08	2301.92
437.29	2301.92
437.49	2152.42
437.70	2277.34
437.90	2222.05
438.11	2422.75
438.31	2263.01
438.52	2404.32
438.72	2426.84
438.93	2498.52
439.13	2357.21
439.34	2326.49
439.54	2215.90
439.75	2342.88
439.95	2228.19
440.16	2154.46
440.36	2236.38
440.57	2256.86
440.77	2297.82
440.98	2179.04
441.18	2267.10
441.39	2152.42
441.59	2019.30
441.80	2412.51
442.00	2232.29
442.21	2291.68
442.41	2105.31
442.62	2254.81
442.82	2156.51
443.02	2185.18
443.23	2232.29
443.43	2207.71
443.64	2316.25
443.84	2236.38
444.05	2334.68
444.25	2224.09
444.46	2193.37
444.66	2160.61
444.87	2389.98
445.07	2097.12
445.28	2125.79
445.48	2330.59
445.69	2310.11
445.89	2525.15
446.09	2254.81
446.30	2494.43
446.50	2852.82
446.71	4319.17
446.91	5699.50
447.12	6434.72
447.32	6668.19
447.53	6207.39
447.73	5152.69
447.93	4526.01
448.14	4229.06
448.34	4046.79
448.55	3416.01
448.75	3585.99
448.96	3323.85
449.16	2987.99
449.36	2840.53
449.57	2492.38
449.77	2281.44
449.98	2260.96
450.18	2197.47
450.39	2209.76
450.59	2308.06
450.79	2197.47
451.00	2179.04
451.20	2224.09
451.41	2191.33
451.61	2246.62
451.81	2160.61
452.02	2199.52
452.22	2154.46
452.43	2150.37
452.63	2142.18
