SpectraSuite Data File
++++++++++++++++++++++++++++++++++++
Date: Thu May 05 12:35:34 CEST 2016
User: root
Dark Spectrum Present: No
Reference Spectrum Present: No
Number of Sampled Component Spectra: 1
Spectrometers: USB4C02835
Integration Time (usec): 100000 (USB4C02835)
Spectra Averaged: 1 (USB4C02835)
Boxcar Smoothing: 0 (USB4C02835)
Correct for Electrical Dark: No (USB4C02835)
Strobe/Lamp Enabled: No (USB4C02835)
Correct for Detector Non-linearity: No (USB4C02835)
Correct for Stray Light: No (USB4C02835)
Number of Pixels in Processed Spectrum: 3648
>>>>>Begin Processed Spectral Data<<<<<
177.47	1857.51
177.69	1857.51
177.91	1857.51
178.13	1748.97
178.36	1826.79
178.58	2105.31
178.80	2230.24
179.02	2082.78
179.24	2121.70
179.46	2138.08
179.68	2179.04
179.90	2203.61
180.13	2230.24
180.35	1996.77
180.57	2179.04
180.79	2256.86
181.01	2187.23
181.23	2217.95
181.45	2256.86
181.67	2226.14
181.90	2318.30
182.12	2111.46
182.34	1980.39
182.56	2260.96
182.78	2254.81
183.00	2111.46
183.22	2109.41
183.44	2043.87
183.66	2443.23
183.89	2285.53
184.11	2140.13
184.33	2228.19
184.55	2269.15
184.77	2154.46
184.99	2158.56
185.21	2195.42
185.43	2465.75
185.65	2093.02
185.87	2107.36
186.10	2445.27
186.32	2392.03
186.54	2152.42
186.76	2142.18
186.98	2185.18
187.20	2176.99
187.42	2066.40
187.64	2080.74
187.86	2244.57
188.08	2340.83
188.30	2113.50
188.52	2146.27
188.75	2293.72
188.97	2392.03
189.19	2082.78
189.41	2066.40
189.63	2271.20
189.85	2111.46
190.07	2078.69
190.29	2007.01
190.51	2183.13
190.73	2047.97
190.95	2301.92
191.17	2129.89
191.39	2074.59
191.61	2162.66
191.84	2082.78
192.06	2158.56
192.28	2052.06
192.50	2455.51
192.72	2191.33
192.94	2162.66
193.16	2344.92
193.38	2254.81
193.60	2074.59
193.82	2197.47
194.04	2375.64
194.26	2244.57
194.48	2195.42
194.70	2097.12
194.92	2111.46
195.14	2232.29
195.36	2072.54
195.58	2138.08
195.80	2250.72
196.02	2170.85
196.24	2039.78
196.46	2232.29
196.69	2099.17
196.91	2439.13
197.13	2109.41
197.35	2125.79
197.57	2326.49
197.79	2285.53
198.01	2179.04
198.23	2146.27
198.45	2187.23
198.67	2109.41
198.89	2025.44
199.11	2154.46
199.33	2187.23
199.55	1964.00
199.77	2054.11
199.99	2203.61
200.21	2074.59
200.43	2250.72
200.65	2058.21
200.87	2074.59
201.09	2160.61
201.31	2164.70
201.53	2244.57
201.75	2158.56
201.97	2121.70
202.19	2156.51
202.41	2142.18
202.63	2314.20
202.85	2232.29
203.07	2207.71
203.29	2160.61
203.51	2074.59
203.73	2146.27
203.95	2445.27
204.17	2228.19
204.39	2226.14
204.61	2121.70
204.83	2121.70
205.05	2252.77
205.27	2215.90
205.49	2353.12
205.71	2125.79
205.93	2039.78
206.15	2080.74
206.37	2197.47
206.59	2146.27
206.81	2052.06
207.03	2043.87
207.25	2117.60
207.47	2281.44
207.69	2105.31
207.91	2365.40
208.13	2332.64
208.34	2154.46
208.56	2068.45
208.78	2205.66
209.00	2162.66
209.22	2086.88
209.44	2195.42
209.66	2121.70
209.88	2203.61
210.10	2207.71
210.32	2070.50
210.54	2232.29
210.76	2197.47
210.98	2232.29
211.20	1980.39
211.42	2138.08
211.64	2369.50
211.86	2152.42
212.08	2162.66
212.30	2181.09
212.52	2162.66
212.74	2310.11
212.96	2142.18
213.17	2166.75
213.39	2303.96
213.61	2275.29
213.83	2156.51
214.05	2226.14
214.27	2318.30
214.49	2058.21
214.71	2062.30
214.93	2256.86
215.15	2217.95
215.37	2297.82
215.59	2023.39
215.81	2238.43
216.03	2330.59
216.24	2260.96
216.46	2090.98
216.68	2146.27
216.90	2295.77
217.12	2281.44
217.34	2172.89
217.56	2242.53
217.78	2324.44
218.00	2289.63
218.22	2142.18
218.44	2142.18
218.66	2207.71
218.87	2447.32
219.09	2209.76
219.31	2183.13
219.53	2215.90
219.75	2138.08
219.97	2127.84
220.19	2150.37
220.41	2207.71
220.63	2412.51
220.85	2125.79
221.06	2084.83
221.28	2258.91
221.50	2260.96
221.72	2136.03
221.94	2023.39
222.16	2220.00
222.38	2281.44
222.60	2150.37
222.82	2152.42
223.03	2269.15
223.25	2113.50
223.47	2166.75
223.69	2306.01
223.91	2260.96
224.13	2172.89
224.35	2099.17
224.57	2162.66
224.78	2248.67
225.00	1982.43
225.22	2203.61
225.44	2187.23
225.66	2211.81
225.88	2174.94
226.10	2121.70
226.32	2193.37
226.53	2318.30
226.75	2146.27
226.97	2088.93
227.19	2162.66
227.41	2103.26
227.63	2097.12
227.85	2060.26
228.06	2183.13
228.28	2234.33
228.50	2297.82
228.72	2045.92
228.94	2080.74
229.16	2062.30
229.37	2148.32
229.59	2047.97
229.81	2254.81
230.03	2121.70
230.25	2070.50
230.47	2047.97
230.69	2093.02
230.90	2332.64
231.12	2133.98
231.34	2158.56
231.56	2269.15
231.78	2035.68
232.00	2226.14
232.21	2076.64
232.43	2084.83
232.65	2007.01
232.87	2293.72
233.09	2146.27
233.30	2047.97
233.52	2281.44
233.74	2158.56
233.96	2060.26
234.18	2185.18
234.40	2166.75
234.61	2441.18
234.83	2047.97
235.05	2082.78
235.27	2443.23
235.49	2355.16
235.70	2047.97
235.92	2181.09
236.14	2215.90
236.36	2416.60
236.58	2017.25
236.79	2230.24
237.01	2179.04
237.23	2211.81
237.45	2269.15
237.67	2133.98
237.88	2240.48
238.10	2363.36
238.32	2072.54
238.54	2117.60
238.76	2174.94
238.97	2080.74
239.19	2056.16
239.41	2187.23
239.63	2299.87
239.85	2179.04
240.06	2207.71
240.28	2109.41
240.50	2373.60
240.72	2213.85
240.93	2160.61
241.15	2222.05
241.37	2199.52
241.59	2277.34
241.81	2105.31
242.02	2222.05
242.24	2236.38
242.46	2144.22
242.68	2023.39
242.89	2189.28
243.11	2306.01
243.33	2115.55
243.55	2220.00
243.76	2146.27
243.98	2185.18
244.20	2240.48
244.42	2086.88
244.64	2109.41
244.85	2072.54
245.07	2125.79
245.29	2146.27
245.51	2150.37
245.72	2220.00
245.94	2314.20
246.16	2109.41
246.38	2166.75
246.59	2097.12
246.81	2109.41
247.03	2084.83
247.24	2080.74
247.46	2131.94
247.68	2181.09
247.90	2088.93
248.11	2121.70
248.33	2301.92
248.55	2144.22
248.77	2166.75
248.98	2187.23
249.20	2303.96
249.42	2201.57
249.64	2144.22
249.85	2164.70
250.07	2138.08
250.29	2191.33
250.50	2170.85
250.72	2066.40
250.94	2291.68
251.16	2428.89
251.37	2228.19
251.59	2217.95
251.81	2258.91
252.02	2291.68
252.24	2080.74
252.46	2232.29
252.68	2164.70
252.89	2146.27
253.11	2041.82
253.33	2291.68
253.54	2330.59
253.76	2009.06
253.98	2064.35
254.20	2052.06
254.41	2123.74
254.63	2226.14
254.85	2166.75
255.06	2174.94
255.28	2205.66
255.50	2256.86
255.71	2107.36
255.93	2056.16
256.15	2152.42
256.36	2267.10
256.58	2097.12
256.80	2080.74
257.02	2082.78
257.23	2193.37
257.45	2185.18
257.67	2187.23
257.88	2138.08
258.10	2232.29
258.32	2138.08
258.53	2154.46
258.75	2367.45
258.97	2144.22
259.18	2131.94
259.40	2107.36
259.62	2375.64
259.83	2351.07
260.05	2195.42
260.27	2496.47
260.48	2232.29
260.70	2101.22
260.92	2074.59
261.13	2193.37
261.35	2220.00
261.57	2215.90
261.78	2037.73
262.00	2107.36
262.22	2181.09
262.43	2097.12
262.65	2084.83
262.86	2060.26
263.08	2463.71
263.30	2185.18
263.51	2056.16
263.73	2080.74
263.95	2365.40
264.16	2150.37
264.38	2084.83
264.60	2185.18
264.81	2115.55
265.03	2224.09
265.25	2308.06
265.46	2146.27
265.68	2326.49
265.89	2263.01
266.11	1994.72
266.33	2113.50
266.54	2260.96
266.76	2209.76
266.98	2199.52
267.19	2176.99
267.41	2269.15
267.62	2179.04
267.84	2045.92
268.06	2068.45
268.27	2228.19
268.49	2273.25
268.70	2195.42
268.92	2142.18
269.14	2070.50
269.35	2090.98
269.57	2199.52
269.79	2199.52
270.00	2254.81
270.22	2277.34
270.43	2066.40
270.65	1990.63
270.87	2174.94
271.08	2291.68
271.30	2211.81
271.51	2146.27
271.73	2201.57
271.95	2326.49
272.16	2076.64
272.38	2187.23
272.59	2099.17
272.81	2312.16
273.02	2158.56
273.24	2213.85
273.46	2332.64
273.67	2070.50
273.89	2007.01
274.10	2133.98
274.32	2277.34
274.54	2269.15
274.75	2226.14
274.97	2176.99
275.18	2236.38
275.40	2283.49
275.61	2154.46
275.83	2207.71
276.05	2113.50
276.26	2179.04
276.48	2203.61
276.69	2129.89
276.91	2101.22
277.12	2342.88
277.34	2277.34
277.55	2254.81
277.77	2195.42
277.99	2148.32
278.20	2076.64
278.42	2070.50
278.63	2105.31
278.85	2109.41
279.06	2101.22
279.28	2258.91
279.49	2258.91
279.71	2252.77
279.93	2248.67
280.14	2209.76
280.36	2148.32
280.57	2306.01
280.79	2246.62
281.00	2056.16
281.22	2144.22
281.43	2295.77
281.65	1996.77
281.86	2123.74
282.08	2189.28
282.29	2400.22
282.51	2084.83
282.73	2054.11
282.94	2047.97
283.16	2248.67
283.37	2357.21
283.59	2207.71
283.80	2215.90
284.02	2146.27
284.23	2183.13
284.45	2082.78
284.66	2080.74
284.88	2121.70
285.09	2207.71
285.31	2217.95
285.52	2260.96
285.74	1988.58
285.95	2260.96
286.17	2111.46
286.38	2320.35
286.60	2148.32
286.81	2191.33
287.03	2154.46
287.24	2162.66
287.46	2234.33
287.67	2244.57
287.89	2308.06
288.10	2185.18
288.32	2246.62
288.53	2252.77
288.75	2189.28
288.96	2226.14
289.18	2074.59
289.39	2176.99
289.61	2232.29
289.82	2371.55
290.04	2373.60
290.25	2119.65
290.47	2162.66
290.68	2172.89
290.90	2260.96
291.11	2013.15
291.33	2295.77
291.54	2035.68
291.76	2185.18
291.97	2146.27
292.18	2211.81
292.40	2191.33
292.61	2121.70
292.83	2453.47
293.04	2199.52
293.26	2267.10
293.47	2154.46
293.69	2088.93
293.90	2121.70
294.12	2303.96
294.33	2156.51
294.55	2101.22
294.76	2320.35
294.97	2260.96
295.19	2365.40
295.40	2103.26
295.62	2181.09
295.83	2238.43
296.05	2084.83
296.26	2342.88
296.48	2093.02
296.69	2179.04
296.90	2131.94
297.12	2254.81
297.33	2203.61
297.55	2244.57
297.76	2220.00
297.98	2258.91
298.19	2164.70
298.41	2187.23
298.62	2150.37
298.83	2322.40
299.05	2170.85
299.26	2152.42
299.48	2142.18
299.69	2230.24
299.90	2176.99
300.12	2109.41
300.33	2271.20
300.55	2170.85
300.76	2197.47
300.98	2019.30
301.19	2252.77
301.40	2179.04
301.62	2131.94
301.83	2279.39
302.05	2189.28
302.26	2181.09
302.47	2203.61
302.69	2011.11
302.90	2238.43
303.12	1949.67
303.33	2228.19
303.54	2371.55
303.76	2105.31
303.97	2129.89
304.19	2318.30
304.40	2174.94
304.61	2195.42
304.83	2334.68
305.04	2275.29
305.26	2320.35
305.47	2193.37
305.68	2191.33
305.90	2103.26
306.11	2265.05
306.33	2289.63
306.54	2217.95
306.75	2117.60
306.97	2058.21
307.18	2082.78
307.39	2144.22
307.61	2248.67
307.82	2138.08
308.04	2275.29
308.25	2076.64
308.46	2156.51
308.68	2228.19
308.89	2234.33
309.10	2246.62
309.32	2230.24
309.53	2160.61
309.74	2228.19
309.96	2168.80
310.17	2295.77
310.39	2129.89
310.60	2213.85
310.81	2148.32
311.03	2066.40
311.24	2236.38
311.45	2191.33
311.67	2342.88
311.88	2222.05
312.09	2170.85
312.31	2181.09
312.52	2172.89
312.73	2064.35
312.95	2097.12
313.16	2097.12
313.37	2232.29
313.59	2215.90
313.80	2256.86
314.01	2299.87
314.23	2164.70
314.44	2174.94
314.65	2111.46
314.87	2156.51
315.08	2154.46
315.29	2117.60
315.51	2105.31
315.72	2064.35
315.93	2330.59
316.15	2117.60
316.36	2172.89
316.57	2125.79
316.79	2240.48
317.00	2203.61
317.21	2301.92
317.43	2162.66
317.64	2203.61
317.85	2154.46
318.07	2101.22
318.28	2209.76
318.49	2291.68
318.70	2484.19
318.92	2320.35
319.13	2381.79
319.34	2365.40
319.56	2260.96
319.77	2332.64
319.98	2265.05
320.20	2394.08
320.41	2242.53
320.62	2394.08
320.83	2129.89
321.05	2334.68
321.26	2230.24
321.47	2185.18
321.69	2359.26
321.90	2033.63
322.11	2142.18
322.32	2224.09
322.54	2371.55
322.75	2123.74
322.96	2519.00
323.18	2070.50
323.39	2050.02
323.60	2174.94
323.81	2191.33
324.03	2185.18
324.24	2224.09
324.45	2234.33
324.66	2168.80
324.88	2279.39
325.09	2400.22
325.30	2146.27
325.52	2320.35
325.73	2209.76
325.94	1980.39
326.15	2103.26
326.37	2166.75
326.58	2308.06
326.79	2285.53
327.00	2136.03
327.22	2232.29
327.43	2142.18
327.64	2084.83
327.85	2224.09
328.07	2146.27
328.28	2359.26
328.49	2166.75
328.70	2195.42
328.92	2121.70
329.13	2199.52
329.34	2215.90
329.55	2308.06
329.76	2269.15
329.98	2185.18
330.19	2402.27
330.40	2215.90
330.61	2189.28
330.83	2299.87
331.04	2148.32
331.25	2220.00
331.46	2176.99
331.68	2047.97
331.89	2293.72
332.10	2125.79
332.31	2090.98
332.52	2113.50
332.74	2295.77
332.95	2072.54
333.16	2232.29
333.37	2332.64
333.58	2230.24
333.80	2168.80
334.01	2113.50
334.22	2142.18
334.43	2105.31
334.64	2195.42
334.86	2031.58
335.07	2117.60
335.28	2383.84
335.49	2068.45
335.70	2191.33
335.92	2396.12
336.13	2439.13
336.34	2236.38
336.55	2201.57
336.76	2258.91
336.98	1996.77
337.19	2172.89
337.40	2377.69
337.61	2402.27
337.82	2150.37
338.04	2267.10
338.25	2064.35
338.46	2195.42
338.67	2154.46
338.88	2084.83
339.09	2109.41
339.31	2150.37
339.52	2138.08
339.73	2105.31
339.94	2146.27
340.15	2254.81
340.36	2097.12
340.58	2117.60
340.79	2078.69
341.00	2220.00
341.21	2107.36
341.42	2355.16
341.63	2152.42
341.85	2269.15
342.06	2228.19
342.27	2045.92
342.48	2242.53
342.69	2080.74
342.90	2232.29
343.12	2363.36
343.33	2174.94
343.54	2285.53
343.75	2297.82
343.96	2170.85
344.17	2076.64
344.38	2187.23
344.60	2154.46
344.81	2045.92
345.02	2187.23
345.23	2381.79
345.44	2428.89
345.65	2162.66
345.86	2242.53
346.07	2166.75
346.29	2179.04
346.50	2297.82
346.71	2195.42
346.92	2326.49
347.13	2402.27
347.34	2183.13
347.55	2164.70
347.76	2246.62
347.98	2062.30
348.19	2195.42
348.40	2265.05
348.61	2174.94
348.82	2375.64
349.03	2295.77
349.24	2099.17
349.45	2293.72
349.66	2031.58
349.88	2152.42
350.09	2093.02
350.30	2410.46
350.51	2273.25
350.72	2213.85
350.93	2213.85
351.14	2168.80
351.35	2201.57
351.56	2203.61
351.77	2158.56
351.99	2258.91
352.20	2389.98
352.41	2310.11
352.62	2047.97
352.83	2152.42
353.04	2181.09
353.25	2152.42
353.46	2283.49
353.67	2318.30
353.88	2045.92
354.09	2230.24
354.30	2162.66
354.52	2211.81
354.73	2260.96
354.94	2056.16
355.15	2154.46
355.36	2406.36
355.57	2220.00
355.78	2170.85
355.99	2183.13
356.20	2127.84
356.41	2334.68
356.62	2179.04
356.83	2187.23
357.04	2357.21
357.25	2080.74
357.46	2193.37
357.68	2045.92
357.89	2117.60
358.10	2197.47
358.31	2228.19
358.52	2113.50
358.73	2115.55
358.94	2156.51
359.15	2076.64
359.36	2267.10
359.57	2170.85
359.78	2158.56
359.99	2273.25
360.20	2129.89
360.41	2160.61
360.62	2287.58
360.83	2146.27
361.04	2207.71
361.25	2230.24
361.46	2310.11
361.67	2244.57
361.88	2189.28
362.09	2238.43
362.30	2256.86
362.51	2127.84
362.72	2213.85
362.93	2326.49
363.14	2285.53
363.35	2193.37
363.56	2158.56
363.78	2293.72
363.99	2301.92
364.20	2197.47
364.41	2185.18
364.62	2420.70
364.83	2230.24
365.04	2133.98
365.25	2179.04
365.46	2344.92
365.67	2068.45
365.88	2146.27
366.09	2217.95
366.30	2129.89
366.51	2191.33
366.72	2097.12
366.93	2228.19
367.14	2234.33
367.35	2256.86
367.56	2197.47
367.77	2283.49
367.98	2142.18
368.18	2256.86
368.39	2234.33
368.60	2109.41
368.81	2277.34
369.02	2209.76
369.23	2156.51
369.44	2074.59
369.65	2197.47
369.86	2232.29
370.07	2176.99
370.28	2146.27
370.49	2240.48
370.70	2209.76
370.91	2131.94
371.12	2115.55
371.33	2322.40
371.54	2080.74
371.75	2310.11
371.96	2021.35
372.17	2179.04
372.38	2144.22
372.59	2222.05
372.80	2113.50
373.01	2170.85
373.22	2244.57
373.43	2248.67
373.64	2097.12
373.85	2326.49
374.06	2340.83
374.26	2205.66
374.47	2250.72
374.68	2357.21
374.89	2224.09
375.10	2209.76
375.31	2242.53
375.52	2234.33
375.73	2230.24
375.94	2062.30
376.15	2346.97
376.36	2103.26
376.57	2162.66
376.78	2084.83
376.99	2121.70
377.20	2267.10
377.40	2146.27
377.61	2389.98
377.82	2068.45
378.03	2363.36
378.24	2371.55
378.45	2154.46
378.66	2267.10
378.87	2062.30
379.08	2054.11
379.29	2191.33
379.50	2346.97
379.71	2176.99
379.91	2310.11
380.12	2138.08
380.33	2133.98
380.54	2166.75
380.75	2125.79
380.96	2174.94
381.17	2242.53
381.38	2179.04
381.59	2256.86
381.80	2179.04
382.00	2338.78
382.21	2222.05
382.42	2502.62
382.63	2432.99
382.84	2224.09
383.05	2326.49
383.26	2258.91
383.47	2258.91
383.68	2273.25
383.88	2248.67
384.09	2195.42
384.30	2310.11
384.51	2254.81
384.72	2168.80
384.93	2193.37
385.14	2203.61
385.35	2195.42
385.55	2119.65
385.76	2326.49
385.97	2150.37
386.18	2000.87
386.39	2220.00
386.60	2140.13
386.81	2146.27
387.02	2185.18
387.22	2023.39
387.43	2324.44
387.64	2217.95
387.85	2306.01
388.06	2430.94
388.27	4114.37
388.48	8759.16
388.68	12312.39
388.89	14675.74
389.10	15785.74
389.31	14587.68
389.52	11312.98
389.73	9838.44
389.93	9054.07
390.14	8296.32
390.35	7296.91
390.56	6625.18
390.77	5314.48
390.98	4247.49
391.18	3235.79
391.39	2793.43
391.60	2275.29
391.81	2316.25
392.02	2203.61
392.23	2459.61
392.43	2293.72
392.64	2328.54
392.85	2244.57
393.06	2396.12
393.27	2211.81
393.47	2080.74
393.68	2252.77
393.89	2148.32
394.10	2295.77
394.31	2111.46
394.52	2150.37
394.72	2148.32
394.93	2398.17
395.14	2101.22
395.35	2244.57
395.56	2166.75
395.76	2236.38
395.97	2246.62
396.18	2318.30
396.39	2351.07
396.60	2541.53
396.80	2486.23
397.01	2398.17
397.22	2398.17
397.43	2428.89
397.64	2310.11
397.84	2392.03
398.05	2459.61
398.26	2193.37
398.47	2359.26
398.67	2293.72
398.88	2213.85
399.09	2277.34
399.30	2056.16
399.51	2226.14
399.71	2168.80
399.92	2164.70
400.13	2244.57
400.34	2084.83
400.54	2203.61
400.75	2367.45
400.96	2299.87
401.17	2400.22
401.37	2260.96
401.58	2113.50
401.79	2213.85
402.00	2287.58
402.21	2605.02
402.41	2533.34
402.62	2570.20
402.83	2664.41
403.04	2641.88
403.24	2723.80
403.45	2285.53
403.66	2490.33
403.87	2430.94
404.07	2453.47
404.28	2447.32
404.49	2500.57
404.70	2314.20
404.90	2324.44
405.11	2185.18
405.32	2310.11
405.52	2095.07
405.73	2115.55
405.94	2093.02
406.15	2121.70
406.35	2263.01
406.56	2314.20
406.77	2183.13
406.98	2254.81
407.18	2170.85
407.39	2338.78
407.60	2146.27
407.80	2220.00
408.01	2138.08
408.22	2220.00
408.43	2160.61
408.63	2191.33
408.84	2299.87
409.05	2193.37
409.25	2074.59
409.46	2103.26
409.67	2133.98
409.88	2203.61
410.08	2242.53
410.29	2183.13
410.50	2260.96
410.70	2256.86
410.91	2138.08
411.12	2215.90
411.32	2220.00
411.53	2119.65
411.74	2342.88
411.95	2250.72
412.15	2246.62
412.36	2359.26
412.57	2299.87
412.77	2361.31
412.98	2138.08
413.19	2215.90
413.39	2269.15
413.60	2297.82
413.81	2400.22
414.01	2195.42
414.22	2248.67
414.43	2303.96
414.63	2207.71
414.84	2357.21
415.05	2199.52
415.25	2072.54
415.46	2273.25
415.67	2220.00
415.87	2250.72
416.08	2201.57
416.29	2170.85
416.49	2293.72
416.70	2136.03
416.91	2146.27
417.11	2142.18
417.32	2252.77
417.53	2295.77
417.73	2250.72
417.94	2179.04
418.15	2224.09
418.35	2183.13
418.56	2131.94
418.77	2424.80
418.97	2260.96
419.18	2160.61
419.38	1941.47
419.59	2156.51
419.80	2324.44
420.00	2222.05
420.21	2144.22
420.42	2338.78
420.62	2209.76
420.83	2090.98
421.04	2185.18
421.24	2162.66
421.45	2238.43
421.65	2201.57
421.86	2185.18
422.07	2281.44
422.27	2238.43
422.48	2256.86
422.69	2148.32
422.89	2199.52
423.10	2201.57
423.30	2037.73
423.51	2217.95
423.72	2217.95
423.92	2332.64
424.13	2109.41
424.33	2199.52
424.54	2258.91
424.75	2146.27
424.95	2377.69
425.16	2189.28
425.36	2226.14
425.57	2312.16
425.78	2215.90
425.98	2230.24
426.19	2220.00
426.39	2154.46
426.60	2301.92
426.81	2258.91
427.01	2222.05
427.22	2138.08
427.42	2064.35
427.63	2029.54
427.83	2220.00
428.04	2322.40
428.25	2283.49
428.45	2301.92
428.66	2293.72
428.86	2189.28
429.07	2250.72
429.28	2162.66
429.48	2129.89
429.69	2197.47
429.89	2164.70
430.10	2099.17
430.30	2236.38
430.51	2359.26
430.71	2064.35
430.92	2142.18
431.13	2072.54
431.33	2299.87
431.54	2168.80
431.74	2349.02
431.95	2338.78
432.15	2095.07
432.36	2138.08
432.56	2269.15
432.77	2392.03
432.98	2308.06
433.18	2263.01
433.39	2121.70
433.59	2267.10
433.80	2406.36
434.00	2365.40
434.21	2113.50
434.41	2195.42
434.62	2455.51
434.82	2117.60
435.03	2045.92
435.23	2230.24
435.44	2070.50
435.64	2174.94
435.85	2220.00
436.06	2265.05
436.26	2295.77
436.47	2174.94
436.67	2023.39
436.88	2183.13
437.08	2183.13
437.29	2320.35
437.49	2191.33
437.70	2306.01
437.90	2215.90
438.11	2400.22
438.31	2267.10
438.52	2353.12
438.72	2432.99
438.93	2471.90
439.13	2269.15
439.34	2377.69
439.54	2232.29
439.75	2314.20
439.95	2340.83
440.16	2199.52
440.36	2236.38
440.57	2244.57
440.77	2170.85
440.98	2193.37
441.18	2248.67
441.39	2193.37
441.59	2082.78
441.80	2334.68
442.00	2121.70
442.21	2312.16
442.41	2103.26
442.62	2342.88
442.82	2129.89
443.02	2176.99
443.23	2172.89
443.43	2267.10
443.64	2385.88
443.84	2199.52
444.05	2316.25
444.25	2301.92
444.46	2140.13
444.66	2217.95
444.87	2314.20
445.07	2072.54
445.28	2193.37
445.48	2353.12
445.69	2252.77
445.89	2465.75
446.09	2301.92
446.30	2441.18
446.50	2820.05
446.71	4462.52
446.91	5656.49
447.12	6414.24
447.32	6848.41
447.53	6231.97
447.73	5230.51
447.93	4569.02
448.14	4202.43
448.34	4048.83
448.55	3610.57
448.75	3504.07
448.96	3399.63
449.16	3110.86
449.36	2779.09
449.57	2473.95
449.77	2330.59
449.98	2291.68
450.18	2275.29
450.39	2293.72
450.59	2238.43
450.79	2246.62
451.00	2129.89
451.20	2209.76
451.41	2234.33
451.61	2283.49
451.81	2164.70
452.02	2217.95
452.22	2187.23
452.43	2158.56
452.63	2117.60
