SpectraSuite Data File
++++++++++++++++++++++++++++++++++++
Date: Thu May 05 12:35:26 CEST 2016
User: root
Dark Spectrum Present: No
Reference Spectrum Present: No
Number of Sampled Component Spectra: 1
Spectrometers: USB4C02835
Integration Time (usec): 100000 (USB4C02835)
Spectra Averaged: 1 (USB4C02835)
Boxcar Smoothing: 0 (USB4C02835)
Correct for Electrical Dark: No (USB4C02835)
Strobe/Lamp Enabled: No (USB4C02835)
Correct for Detector Non-linearity: No (USB4C02835)
Correct for Stray Light: No (USB4C02835)
Number of Pixels in Processed Spectrum: 3648
>>>>>Begin Processed Spectral Data<<<<<
177.47	1810.40
177.69	1810.40
177.91	1810.40
178.13	1761.25
178.36	1724.39
178.58	2115.55
178.80	2191.33
179.02	2064.35
179.24	2095.07
179.46	2174.94
179.68	2162.66
179.90	2185.18
180.13	2183.13
180.35	1996.77
180.57	2140.13
180.79	2314.20
181.01	2195.42
181.23	2160.61
181.45	2289.63
181.67	2248.67
181.90	2248.67
182.12	2119.65
182.34	2002.91
182.56	2312.16
182.78	2222.05
183.00	2162.66
183.22	2140.13
183.44	2009.06
183.66	2455.51
183.89	2273.25
184.11	2095.07
184.33	2238.43
184.55	2306.01
184.77	2152.42
184.99	2150.37
185.21	2152.42
185.43	2404.32
185.65	2123.74
185.87	2074.59
186.10	2422.75
186.32	2422.75
186.54	2176.99
186.76	2213.85
186.98	2162.66
187.20	2213.85
187.42	2148.32
187.64	2209.76
187.86	2164.70
188.08	2316.25
188.30	2086.88
188.52	2129.89
188.75	2310.11
188.97	2232.29
189.19	2230.24
189.41	2154.46
189.63	2205.66
189.85	2129.89
190.07	2004.96
190.29	2029.54
190.51	2269.15
190.73	2072.54
190.95	2193.37
191.17	2140.13
191.39	2037.73
191.61	2195.42
191.84	2164.70
192.06	2170.85
192.28	2060.26
192.50	2473.95
192.72	2187.23
192.94	2105.31
193.16	2285.53
193.38	2287.58
193.60	2074.59
193.82	2119.65
194.04	2281.44
194.26	2275.29
194.48	2154.46
194.70	2158.56
194.92	2160.61
195.14	2293.72
195.36	2062.30
195.58	2181.09
195.80	2209.76
196.02	2166.75
196.24	2062.30
196.46	2176.99
196.69	2185.18
196.91	2424.80
197.13	2109.41
197.35	2111.46
197.57	2412.51
197.79	2250.72
198.01	2176.99
198.23	2166.75
198.45	2256.86
198.67	2095.07
198.89	2099.17
199.11	2146.27
199.33	2121.70
199.55	1990.63
199.77	2056.16
199.99	2220.00
200.21	2215.90
200.43	2181.09
200.65	2056.16
200.87	1929.19
201.09	2195.42
201.31	2136.03
201.53	2160.61
201.75	2142.18
201.97	2185.18
202.19	2224.09
202.41	2179.04
202.63	2260.96
202.85	2232.29
203.07	2242.53
203.29	2101.22
203.51	2080.74
203.73	2084.83
203.95	2496.47
204.17	2113.50
204.39	2181.09
204.61	2187.23
204.83	2144.22
205.05	2263.01
205.27	2127.84
205.49	2310.11
205.71	2179.04
205.93	2037.73
206.15	2045.92
206.37	2187.23
206.59	2193.37
206.81	1966.05
207.03	2058.21
207.25	2082.78
207.47	2303.96
207.69	2144.22
207.91	2248.67
208.13	2375.64
208.34	2125.79
208.56	2070.50
208.78	2131.94
209.00	2181.09
209.22	2127.84
209.44	2129.89
209.66	2129.89
209.88	2156.51
210.10	2146.27
210.32	2136.03
210.54	2213.85
210.76	2209.76
210.98	2275.29
211.20	1988.58
211.42	2220.00
211.64	2334.68
211.86	2226.14
212.08	2203.61
212.30	2179.04
212.52	2154.46
212.74	2242.53
212.96	2105.31
213.17	2191.33
213.39	2252.77
213.61	2252.77
213.83	2191.33
214.05	2117.60
214.27	2389.98
214.49	2064.35
214.71	2078.69
214.93	2187.23
215.15	2195.42
215.37	2232.29
215.59	2117.60
215.81	2185.18
216.03	2346.97
216.24	2195.42
216.46	2115.55
216.68	2179.04
216.90	2320.35
217.12	2340.83
217.34	2068.45
217.56	2195.42
217.78	2301.92
218.00	2258.91
218.22	2164.70
218.44	2150.37
218.66	2269.15
218.87	2334.68
219.09	2080.74
219.31	2144.22
219.53	2228.19
219.75	2170.85
219.97	2080.74
220.19	2189.28
220.41	2226.14
220.63	2406.36
220.85	2136.03
221.06	2072.54
221.28	2283.49
221.50	2215.90
221.72	2168.80
221.94	2119.65
222.16	2117.60
222.38	2277.34
222.60	2166.75
222.82	2226.14
223.03	2265.05
223.25	2037.73
223.47	2193.37
223.69	2275.29
223.91	2170.85
224.13	2256.86
224.35	2150.37
224.57	2222.05
224.78	2211.81
225.00	2080.74
225.22	2121.70
225.44	2207.71
225.66	2269.15
225.88	2146.27
226.10	2217.95
226.32	2160.61
226.53	2373.60
226.75	2197.47
226.97	2162.66
227.19	2170.85
227.41	2084.83
227.63	2111.46
227.85	2023.39
228.06	2158.56
228.28	2195.42
228.50	2293.72
228.72	2045.92
228.94	2140.13
229.16	2064.35
229.37	2133.98
229.59	2156.51
229.81	2281.44
230.03	2197.47
230.25	2127.84
230.47	2097.12
230.69	2056.16
230.90	2230.24
231.12	2144.22
231.34	2273.25
231.56	2230.24
231.78	2025.44
232.00	2133.98
232.21	2099.17
232.43	2084.83
232.65	2011.11
232.87	2250.72
233.09	2086.88
233.30	2138.08
233.52	2338.78
233.74	2217.95
233.96	2060.26
234.18	2142.18
234.40	2207.71
234.61	2334.68
234.83	1959.91
235.05	2070.50
235.27	2465.75
235.49	2308.06
235.70	2217.95
235.92	2160.61
236.14	2201.57
236.36	2389.98
236.58	2037.73
236.79	2189.28
237.01	2232.29
237.23	2140.13
237.45	2351.07
237.67	2060.26
237.88	2215.90
238.10	2306.01
238.32	2027.49
238.54	2127.84
238.76	2201.57
238.97	2121.70
239.19	2109.41
239.41	2226.14
239.63	2203.61
239.85	2127.84
240.06	2129.89
240.28	2113.50
240.50	2342.88
240.72	2246.62
240.93	2117.60
241.15	2250.72
241.37	2195.42
241.59	2269.15
241.81	2129.89
242.02	2140.13
242.24	2162.66
242.46	2244.57
242.68	2068.45
242.89	2170.85
243.11	2301.92
243.33	2144.22
243.55	2133.98
243.76	2236.38
243.98	2168.80
244.20	2172.89
244.42	2174.94
244.64	2154.46
244.85	1998.82
245.07	2076.64
245.29	2170.85
245.51	2111.46
245.72	2252.77
245.94	2330.59
246.16	2179.04
246.38	2142.18
246.59	2103.26
246.81	2103.26
247.03	2144.22
247.24	2013.15
247.46	2154.46
247.68	2136.03
247.90	2105.31
248.11	2109.41
248.33	2242.53
248.55	2256.86
248.77	2156.51
248.98	2205.66
249.20	2387.93
249.42	2234.33
249.64	2093.02
249.85	2140.13
250.07	2191.33
250.29	2217.95
250.50	2211.81
250.72	2015.20
250.94	2234.33
251.16	2404.32
251.37	2176.99
251.59	2258.91
251.81	2244.57
252.02	2281.44
252.24	2111.46
252.46	2242.53
252.68	2097.12
252.89	1980.39
253.11	1957.86
253.33	2260.96
253.54	2285.53
253.76	2144.22
253.98	2103.26
254.20	2136.03
254.41	2023.39
254.63	2181.09
254.85	2007.01
255.06	2176.99
255.28	2301.92
255.50	2215.90
255.71	2123.74
255.93	2045.92
256.15	2103.26
256.36	2258.91
256.58	2127.84
256.80	2201.57
257.02	2215.90
257.23	2150.37
257.45	2162.66
257.67	2203.61
257.88	2156.51
258.10	2236.38
258.32	2127.84
258.53	2166.75
258.75	2285.53
258.97	2097.12
259.18	2107.36
259.40	2144.22
259.62	2336.73
259.83	2342.88
260.05	2119.65
260.27	2637.78
260.48	2326.49
260.70	2064.35
260.92	2101.22
261.13	2199.52
261.35	2185.18
261.57	2230.24
261.78	2027.49
262.00	2021.35
262.22	2299.87
262.43	2136.03
262.65	2170.85
262.86	2215.90
263.08	2478.04
263.30	2164.70
263.51	2029.54
263.73	2021.35
263.95	2324.44
264.16	2054.11
264.38	2176.99
264.60	2131.94
264.81	2189.28
265.03	2349.02
265.25	2213.85
265.46	2078.69
265.68	2371.55
265.89	2260.96
266.11	2041.82
266.33	2160.61
266.54	2400.22
266.76	2303.96
266.98	2207.71
267.19	2248.67
267.41	2275.29
267.62	2113.50
267.84	1988.58
268.06	2248.67
268.27	2289.63
268.49	2301.92
268.70	2174.94
268.92	2172.89
269.14	2082.78
269.35	2021.35
269.57	2156.51
269.79	2140.13
270.00	2170.85
270.22	2322.40
270.43	2072.54
270.65	1957.86
270.87	2228.19
271.08	2220.00
271.30	2203.61
271.51	2176.99
271.73	2287.58
271.95	2334.68
272.16	2123.74
272.38	2207.71
272.59	2121.70
272.81	2258.91
273.02	2158.56
273.24	2224.09
273.46	2326.49
273.67	2097.12
273.89	2007.01
274.10	2117.60
274.32	2359.26
274.54	2203.61
274.75	2144.22
274.97	2072.54
275.18	2273.25
275.40	2283.49
275.61	2152.42
275.83	2238.43
276.05	2062.30
276.26	2217.95
276.48	2121.70
276.69	2176.99
276.91	2129.89
277.12	2312.16
277.34	2248.67
277.55	2285.53
277.77	2156.51
277.99	2185.18
278.20	2062.30
278.42	2072.54
278.63	2072.54
278.85	2113.50
279.06	2058.21
279.28	2228.19
279.49	2252.77
279.71	2277.34
279.93	2170.85
280.14	2146.27
280.36	2117.60
280.57	2283.49
280.79	2256.86
281.00	2133.98
281.22	2209.76
281.43	2277.34
281.65	2031.58
281.86	2060.26
282.08	2228.19
282.29	2301.92
282.51	2047.97
282.73	2090.98
282.94	2060.26
283.16	2273.25
283.37	2281.44
283.59	2088.93
283.80	2248.67
284.02	2150.37
284.23	2240.48
284.45	2183.13
284.66	2111.46
284.88	2152.42
285.09	2228.19
285.31	2242.53
285.52	2213.85
285.74	2078.69
285.95	2281.44
286.17	2185.18
286.38	2244.57
286.60	2160.61
286.81	2113.50
287.03	2170.85
287.24	2160.61
287.46	2185.18
287.67	2179.04
287.89	2336.73
288.10	2174.94
288.32	2176.99
288.53	2297.82
288.75	2185.18
288.96	2283.49
289.18	2138.08
289.39	2158.56
289.61	2164.70
289.82	2338.78
290.04	2322.40
290.25	2047.97
290.47	2199.52
290.68	2179.04
290.90	2205.66
291.11	2009.06
291.33	2252.77
291.54	2064.35
291.76	2070.50
291.97	2193.37
292.18	2095.07
292.40	2109.41
292.61	2101.22
292.83	2355.16
293.04	2191.33
293.26	2185.18
293.47	2131.94
293.69	2168.80
293.90	2170.85
294.12	2353.12
294.33	2279.39
294.55	2199.52
294.76	2269.15
294.97	2252.77
295.19	2287.58
295.40	2164.70
295.62	2234.33
295.83	2289.63
296.05	2095.07
296.26	2355.16
296.48	2103.26
296.69	2213.85
296.90	2195.42
297.12	2244.57
297.33	2314.20
297.55	2211.81
297.76	2232.29
297.98	2217.95
298.19	2250.72
298.41	2250.72
298.62	2129.89
298.83	2285.53
299.05	2187.23
299.26	2195.42
299.48	2136.03
299.69	2217.95
299.90	2191.33
300.12	2115.55
300.33	2306.01
300.55	2166.75
300.76	2269.15
300.98	2072.54
301.19	2289.63
301.40	2133.98
301.62	2199.52
301.83	2207.71
302.05	2224.09
302.26	2197.47
302.47	2146.27
302.69	2105.31
302.90	2203.61
303.12	2058.21
303.33	2265.05
303.54	2373.60
303.76	2160.61
303.97	2187.23
304.19	2269.15
304.40	2125.79
304.61	2258.91
304.83	2318.30
305.04	2209.76
305.26	2342.88
305.47	2250.72
305.68	2150.37
305.90	2043.87
306.11	2351.07
306.33	2150.37
306.54	2117.60
306.75	2084.83
306.97	2056.16
307.18	2088.93
307.39	2117.60
307.61	2226.14
307.82	2086.88
308.04	2234.33
308.25	2031.58
308.46	2220.00
308.68	2174.94
308.89	2201.57
309.10	2279.39
309.32	2265.05
309.53	2152.42
309.74	2244.57
309.96	2164.70
310.17	2332.64
310.39	2064.35
310.60	2275.29
310.81	2240.48
311.03	2082.78
311.24	2322.40
311.45	2201.57
311.67	2349.02
311.88	2160.61
312.09	2179.04
312.31	2211.81
312.52	2056.16
312.73	2197.47
312.95	2027.49
313.16	2095.07
313.37	2312.16
313.59	2236.38
313.80	2197.47
314.01	2357.21
314.23	2115.55
314.44	2250.72
314.65	2109.41
314.87	2090.98
315.08	2101.22
315.29	2166.75
315.51	2131.94
315.72	2111.46
315.93	2381.79
316.15	2279.39
316.36	2183.13
316.57	2193.37
316.79	2254.81
317.00	2105.31
317.21	2224.09
317.43	2070.50
317.64	2197.47
317.85	2115.55
318.07	2123.74
318.28	2164.70
318.49	2291.68
318.70	2492.38
318.92	2373.60
319.13	2408.41
319.34	2418.65
319.56	2355.16
319.77	2310.11
319.98	2392.03
320.20	2332.64
320.41	2222.05
320.62	2189.28
320.83	2129.89
321.05	2320.35
321.26	2279.39
321.47	2201.57
321.69	2361.31
321.90	2070.50
322.11	2136.03
322.32	2174.94
322.54	2326.49
322.75	2107.36
322.96	2496.47
323.18	2035.68
323.39	2097.12
323.60	2095.07
323.81	2281.44
324.03	2133.98
324.24	2207.71
324.45	2152.42
324.66	2064.35
324.88	2289.63
325.09	2394.08
325.30	2201.57
325.52	2197.47
325.73	2236.38
325.94	2050.02
326.15	1986.53
326.37	2074.59
326.58	2314.20
326.79	2355.16
327.00	2066.40
327.22	2181.09
327.43	2187.23
327.64	2152.42
327.85	2209.76
328.07	2275.29
328.28	2285.53
328.49	2140.13
328.70	2209.76
328.92	2209.76
329.13	2187.23
329.34	2215.90
329.55	2306.01
329.76	2285.53
329.98	2232.29
330.19	2240.48
330.40	2211.81
330.61	2181.09
330.83	2289.63
331.04	2066.40
331.25	2275.29
331.46	2160.61
331.68	2043.87
331.89	2318.30
332.10	2144.22
332.31	2037.73
332.52	2146.27
332.74	2232.29
332.95	2074.59
333.16	2170.85
333.37	2260.96
333.58	2193.37
333.80	2162.66
334.01	2093.02
334.22	2193.37
334.43	2099.17
334.64	2187.23
334.86	2121.70
335.07	2072.54
335.28	2297.82
335.49	2076.64
335.70	2150.37
335.92	2306.01
336.13	2478.04
336.34	2187.23
336.55	2154.46
336.76	2191.33
336.98	2127.84
337.19	2152.42
337.40	2291.68
337.61	2457.56
337.82	2201.57
338.04	2267.10
338.25	2166.75
338.46	2144.22
338.67	2127.84
338.88	2138.08
339.09	2133.98
339.31	2158.56
339.52	2084.83
339.73	2105.31
339.94	2174.94
340.15	2277.34
340.36	2164.70
340.58	2234.33
340.79	2070.50
341.00	2256.86
341.21	2111.46
341.42	2349.02
341.63	2240.48
341.85	2205.66
342.06	2179.04
342.27	2201.57
342.48	2201.57
342.69	2090.98
342.90	2234.33
343.12	2287.58
343.33	2179.04
343.54	2193.37
343.75	2332.64
343.96	2138.08
344.17	2138.08
344.38	2185.18
344.60	2072.54
344.81	2064.35
345.02	2207.71
345.23	2318.30
345.44	2457.56
345.65	2269.15
345.86	2205.66
346.07	2183.13
346.29	2125.79
346.50	2199.52
346.71	2250.72
346.92	2303.96
347.13	2398.17
347.34	2172.89
347.55	2140.13
347.76	2236.38
347.98	2084.83
348.19	2201.57
348.40	2236.38
348.61	2152.42
348.82	2271.20
349.03	2209.76
349.24	2158.56
349.45	2301.92
349.66	1990.63
349.88	2174.94
350.09	2093.02
350.30	2308.06
350.51	2293.72
350.72	2168.80
350.93	2191.33
351.14	2117.60
351.35	2240.48
351.56	2191.33
351.77	2150.37
351.99	2260.96
352.20	2383.84
352.41	2308.06
352.62	2021.35
352.83	2248.67
353.04	2220.00
353.25	2121.70
353.46	2252.77
353.67	2265.05
353.88	2041.82
354.09	2154.46
354.30	2113.50
354.52	2320.35
354.73	2279.39
354.94	2129.89
355.15	2258.91
355.36	2287.58
355.57	2086.88
355.78	2176.99
355.99	2152.42
356.20	2121.70
356.41	2260.96
356.62	2220.00
356.83	2168.80
357.04	2297.82
357.25	2043.87
357.46	2101.22
357.68	2084.83
357.89	2080.74
358.10	2205.66
358.31	2191.33
358.52	2146.27
358.73	2060.26
358.94	2115.55
359.15	2121.70
359.36	2246.62
359.57	2117.60
359.78	2183.13
359.99	2265.05
360.20	2009.06
360.41	2179.04
360.62	2224.09
360.83	2195.42
361.04	2152.42
361.25	2160.61
361.46	2326.49
361.67	2254.81
361.88	2211.81
362.09	2297.82
362.30	2258.91
362.51	2185.18
362.72	2172.89
362.93	2238.43
363.14	2281.44
363.35	2215.90
363.56	2105.31
363.78	2303.96
363.99	2316.25
364.20	2052.06
364.41	2172.89
364.62	2422.75
364.83	2203.61
365.04	2150.37
365.25	2187.23
365.46	2414.56
365.67	2105.31
365.88	2195.42
366.09	2133.98
366.30	2228.19
366.51	2191.33
366.72	2125.79
366.93	2160.61
367.14	2197.47
367.35	2326.49
367.56	2078.69
367.77	2316.25
367.98	2152.42
368.18	2283.49
368.39	2279.39
368.60	2037.73
368.81	2250.72
369.02	2148.32
369.23	2179.04
369.44	2019.30
369.65	2183.13
369.86	2187.23
370.07	2244.57
370.28	2064.35
370.49	2295.77
370.70	2267.10
370.91	2017.25
371.12	2002.91
371.33	2271.20
371.54	2152.42
371.75	2359.26
371.96	1957.86
372.17	2205.66
372.38	2191.33
372.59	2230.24
372.80	2242.53
373.01	2252.77
373.22	2205.66
373.43	2260.96
373.64	2078.69
373.85	2269.15
374.06	2455.51
374.26	2256.86
374.47	2213.85
374.68	2318.30
374.89	2191.33
375.10	2181.09
375.31	2285.53
375.52	2207.71
375.73	2195.42
375.94	2080.74
376.15	2353.12
376.36	2078.69
376.57	2133.98
376.78	2127.84
376.99	2189.28
377.20	2373.60
377.40	2168.80
377.61	2355.16
377.82	2129.89
378.03	2256.86
378.24	2256.86
378.45	2215.90
378.66	2271.20
378.87	2031.58
379.08	2037.73
379.29	2144.22
379.50	2275.29
379.71	2244.57
379.91	2217.95
380.12	2076.64
380.33	2146.27
380.54	2213.85
380.75	2162.66
380.96	2172.89
381.17	2201.57
381.38	2213.85
381.59	2224.09
381.80	2209.76
382.00	2420.70
382.21	2228.19
382.42	2349.02
382.63	2455.51
382.84	2248.67
383.05	2299.87
383.26	2293.72
383.47	2164.70
383.68	2254.81
383.88	2297.82
384.09	2267.10
384.30	2392.03
384.51	2189.28
384.72	2072.54
384.93	2080.74
385.14	2201.57
385.35	2349.02
385.55	2082.78
385.76	2330.59
385.97	2170.85
386.18	2062.30
386.39	2138.08
386.60	2217.95
386.81	2162.66
387.02	2103.26
387.22	2037.73
387.43	2191.33
387.64	2246.62
387.85	2418.65
388.06	2398.17
388.27	4059.07
388.48	8599.42
388.68	12177.22
388.89	14855.97
389.10	15824.65
389.31	14384.93
389.52	11442.00
389.73	9867.11
389.93	8923.00
390.14	8150.92
390.35	7413.65
390.56	6508.44
390.77	5267.38
390.98	4227.01
391.18	3256.27
391.39	2756.57
391.60	2369.50
391.81	2402.27
392.02	2150.37
392.23	2426.84
392.43	2158.56
392.64	2310.11
392.85	2146.27
393.06	2398.17
393.27	2234.33
393.47	2203.61
393.68	2228.19
393.89	2152.42
394.10	2310.11
394.31	2162.66
394.52	2144.22
394.72	2111.46
394.93	2351.07
395.14	2039.78
395.35	2166.75
395.56	2125.79
395.76	2260.96
395.97	2240.48
396.18	2291.68
396.39	2349.02
396.60	2650.07
396.80	2455.51
397.01	2306.01
397.22	2336.73
397.43	2459.61
397.64	2209.76
397.84	2303.96
398.05	2439.13
398.26	2271.20
398.47	2254.81
398.67	2351.07
398.88	2252.77
399.09	2263.01
399.30	2129.89
399.51	2195.42
399.71	2127.84
399.92	2162.66
400.13	2242.53
400.34	2136.03
400.54	2129.89
400.75	2381.79
400.96	2215.90
401.17	2332.64
401.37	2283.49
401.58	2101.22
401.79	2146.27
402.00	2316.25
402.21	2578.39
402.41	2519.00
402.62	2574.30
402.83	2666.46
403.04	2572.25
403.24	2801.62
403.45	2293.72
403.66	2408.41
403.87	2383.84
404.07	2426.84
404.28	2406.36
404.49	2447.32
404.70	2224.09
404.90	2318.30
405.11	2176.99
405.32	2260.96
405.52	2197.47
405.73	2109.41
405.94	2162.66
406.15	2199.52
406.35	2324.44
406.56	2297.82
406.77	2256.86
406.98	2195.42
407.18	2152.42
407.39	2355.16
407.60	2179.04
407.80	2205.66
408.01	2127.84
408.22	2310.11
408.43	2174.94
408.63	2250.72
408.84	2215.90
409.05	2308.06
409.25	2127.84
409.46	2152.42
409.67	2244.57
409.88	2158.56
410.08	2215.90
410.29	2117.60
410.50	2263.01
410.70	2220.00
410.91	2109.41
411.12	2203.61
411.32	2250.72
411.53	2150.37
411.74	2250.72
411.95	2293.72
412.15	2330.59
412.36	2422.75
412.57	2242.53
412.77	2416.60
412.98	2222.05
413.19	2115.55
413.39	2254.81
413.60	2203.61
413.81	2324.44
414.01	2109.41
414.22	2248.67
414.43	2295.77
414.63	2205.66
414.84	2312.16
415.05	2146.27
415.25	2058.21
415.46	2269.15
415.67	2113.50
415.87	2258.91
416.08	2220.00
416.29	2054.11
416.49	2260.96
416.70	2146.27
416.91	2158.56
417.11	2109.41
417.32	2281.44
417.53	2265.05
417.73	2322.40
417.94	2170.85
418.15	2217.95
418.35	2226.14
418.56	2248.67
418.77	2375.64
418.97	2119.65
419.18	2119.65
419.38	2052.06
419.59	2170.85
419.80	2330.59
420.00	2158.56
420.21	2291.68
420.42	2400.22
420.62	2254.81
420.83	2121.70
421.04	2228.19
421.24	2162.66
421.45	2265.05
421.65	2217.95
421.86	2176.99
422.07	2226.14
422.27	2314.20
422.48	2170.85
422.69	2086.88
422.89	2154.46
423.10	2158.56
423.30	2105.31
423.51	2138.08
423.72	2211.81
423.92	2256.86
424.13	2101.22
424.33	2131.94
424.54	2226.14
424.75	2191.33
424.95	2377.69
425.16	2220.00
425.36	2136.03
425.57	2342.88
425.78	2174.94
425.98	2273.25
426.19	2121.70
426.39	2080.74
426.60	2189.28
426.81	2291.68
427.01	2242.53
427.22	2109.41
427.42	2095.07
427.63	2121.70
427.83	2213.85
428.04	2398.17
428.25	2271.20
428.45	2289.63
428.66	2303.96
428.86	2185.18
429.07	2142.18
429.28	2211.81
429.48	2113.50
429.69	2109.41
429.89	2265.05
430.10	2101.22
430.30	2338.78
430.51	2293.72
430.71	2125.79
430.92	2217.95
431.13	2172.89
431.33	2236.38
431.54	2224.09
431.74	2328.54
431.95	2363.36
432.15	2131.94
432.36	2263.01
432.56	2193.37
432.77	2328.54
432.98	2439.13
433.18	2283.49
433.39	2209.76
433.59	2213.85
433.80	2349.02
434.00	2398.17
434.21	2060.26
434.41	2111.46
434.62	2502.62
434.82	2047.97
435.03	2070.50
435.23	2226.14
435.44	2029.54
435.64	2174.94
435.85	2238.43
436.06	2224.09
436.26	2351.07
436.47	2203.61
436.67	2113.50
436.88	2179.04
437.08	2318.30
437.29	2301.92
437.49	2271.20
437.70	2252.77
437.90	2295.77
438.11	2326.49
438.31	2285.53
438.52	2445.27
438.72	2338.78
438.93	2478.04
439.13	2383.84
439.34	2303.96
439.54	2201.57
439.75	2297.82
439.95	2242.53
440.16	2131.94
440.36	2275.29
440.57	2312.16
440.77	2215.90
440.98	2287.58
441.18	2342.88
441.39	2105.31
441.59	2111.46
441.80	2297.82
442.00	2203.61
442.21	2310.11
442.41	2064.35
442.62	2336.73
442.82	2140.13
443.02	2191.33
443.23	2170.85
443.43	2111.46
443.64	2334.68
443.84	2215.90
444.05	2303.96
444.25	2201.57
444.46	2142.18
444.66	2179.04
444.87	2269.15
445.07	2086.88
445.28	2244.57
445.48	2326.49
445.69	2240.48
445.89	2400.22
446.09	2271.20
446.30	2428.89
446.50	2795.48
446.71	4476.86
446.91	5593.00
447.12	6379.42
447.32	6758.30
447.53	6242.21
447.73	5167.03
447.93	4528.06
448.14	4290.49
448.34	4030.40
448.55	3542.99
448.75	3538.89
448.96	3428.30
449.16	3010.51
449.36	2815.96
449.57	2508.76
449.77	2338.78
449.98	2170.85
450.18	2326.49
450.39	2265.05
450.59	2254.81
450.79	2269.15
451.00	2111.46
451.20	2291.68
451.41	2211.81
451.61	2232.29
451.81	2226.14
452.02	2052.06
452.22	2176.99
452.43	2166.75
452.63	2117.60
