SpectraSuite Data File
++++++++++++++++++++++++++++++++++++
Date: Thu May 05 12:35:38 CEST 2016
User: root
Dark Spectrum Present: No
Reference Spectrum Present: No
Number of Sampled Component Spectra: 1
Spectrometers: USB4C02835
Integration Time (usec): 100000 (USB4C02835)
Spectra Averaged: 1 (USB4C02835)
Boxcar Smoothing: 0 (USB4C02835)
Correct for Electrical Dark: No (USB4C02835)
Strobe/Lamp Enabled: No (USB4C02835)
Correct for Detector Non-linearity: No (USB4C02835)
Correct for Stray Light: No (USB4C02835)
Number of Pixels in Processed Spectrum: 3648
>>>>>Begin Processed Spectral Data<<<<<
177.47	1779.68
177.69	1779.68
177.91	1779.68
178.13	1847.27
178.36	1783.78
178.58	2119.65
178.80	2170.85
179.02	2105.31
179.24	2109.41
179.46	2090.98
179.68	2256.86
179.90	2176.99
180.13	2181.09
180.35	2037.73
180.57	2107.36
180.79	2293.72
181.01	2183.13
181.23	2230.24
181.45	2201.57
181.67	2195.42
181.90	2267.10
182.12	2047.97
182.34	2009.06
182.56	2195.42
182.78	2260.96
183.00	2174.94
183.22	2129.89
183.44	2064.35
183.66	2414.56
183.89	2285.53
184.11	2105.31
184.33	2258.91
184.55	2242.53
184.77	2162.66
184.99	2213.85
185.21	2105.31
185.43	2465.75
185.65	2070.50
185.87	2158.56
186.10	2430.94
186.32	2379.74
186.54	2099.17
186.76	2236.38
186.98	2336.73
187.20	2127.84
187.42	2117.60
187.64	2140.13
187.86	2193.37
188.08	2306.01
188.30	2129.89
188.52	2199.52
188.75	2383.84
188.97	2301.92
189.19	2095.07
189.41	2195.42
189.63	2285.53
189.85	2176.99
190.07	2043.87
190.29	2062.30
190.51	2271.20
190.73	2011.11
190.95	2222.05
191.17	2146.27
191.39	2074.59
191.61	2185.18
191.84	2129.89
192.06	2267.10
192.28	2031.58
192.50	2406.36
192.72	2174.94
192.94	2109.41
193.16	2279.39
193.38	2228.19
193.60	2062.30
193.82	2138.08
194.04	2236.38
194.26	2252.77
194.48	2138.08
194.70	2066.40
194.92	2113.50
195.14	2244.57
195.36	2080.74
195.58	2142.18
195.80	2248.67
196.02	2123.74
196.24	2099.17
196.46	2131.94
196.69	2154.46
196.91	2412.51
197.13	2101.22
197.35	2140.13
197.57	2287.58
197.79	2242.53
198.01	2209.76
198.23	2172.89
198.45	2240.48
198.67	2142.18
198.89	2041.82
199.11	2121.70
199.33	2140.13
199.55	1957.86
199.77	2127.84
199.99	2240.48
200.21	2097.12
200.43	2215.90
200.65	2039.78
200.87	1990.63
201.09	2154.46
201.31	2127.84
201.53	2193.37
201.75	2250.72
201.97	2207.71
202.19	2199.52
202.41	2195.42
202.63	2310.11
202.85	2273.25
203.07	2240.48
203.29	2111.46
203.51	2170.85
203.73	2123.74
203.95	2437.08
204.17	2138.08
204.39	2191.33
204.61	2133.98
204.83	2129.89
205.05	2310.11
205.27	2209.76
205.49	2332.64
205.71	2099.17
205.93	2086.88
206.15	2111.46
206.37	2215.90
206.59	2166.75
206.81	1998.82
207.03	2056.16
207.25	2170.85
207.47	2310.11
207.69	2150.37
207.91	2336.73
208.13	2381.79
208.34	2148.32
208.56	2109.41
208.78	2166.75
209.00	2191.33
209.22	2113.50
209.44	2138.08
209.66	2066.40
209.88	2258.91
210.10	2168.80
210.32	2127.84
210.54	2269.15
210.76	2107.36
210.98	2308.06
211.20	1988.58
211.42	2166.75
211.64	2301.92
211.86	2246.62
212.08	2142.18
212.30	2136.03
212.52	2185.18
212.74	2154.46
212.96	2097.12
213.17	2224.09
213.39	2273.25
213.61	2265.05
213.83	2203.61
214.05	2242.53
214.27	2342.88
214.49	2076.64
214.71	2097.12
214.93	2232.29
215.15	2146.27
215.37	2222.05
215.59	2068.45
215.81	2162.66
216.03	2316.25
216.24	2140.13
216.46	2068.45
216.68	2183.13
216.90	2236.38
217.12	2330.59
217.34	2152.42
217.56	2191.33
217.78	2381.79
218.00	2195.42
218.22	2234.33
218.44	2283.49
218.66	2201.57
218.87	2342.88
219.09	2183.13
219.31	2256.86
219.53	2193.37
219.75	2082.78
219.97	2150.37
220.19	2115.55
220.41	2162.66
220.63	2392.03
220.85	2162.66
221.06	2082.78
221.28	2334.68
221.50	2203.61
221.72	2148.32
221.94	1998.82
222.16	2187.23
222.38	2371.55
222.60	2152.42
222.82	2127.84
223.03	2287.58
223.25	2066.40
223.47	2176.99
223.69	2224.09
223.91	2232.29
224.13	2170.85
224.35	2113.50
224.57	2273.25
224.78	2240.48
225.00	2138.08
225.22	2152.42
225.44	2166.75
225.66	2324.44
225.88	2176.99
226.10	2197.47
226.32	2123.74
226.53	2330.59
226.75	2097.12
226.97	2164.70
227.19	2080.74
227.41	2113.50
227.63	2121.70
227.85	2021.35
228.06	2127.84
228.28	2211.81
228.50	2289.63
228.72	2086.88
228.94	2090.98
229.16	2080.74
229.37	2093.02
229.59	2103.26
229.81	2191.33
230.03	2064.35
230.25	2058.21
230.47	1957.86
230.69	2066.40
230.90	2263.01
231.12	2140.13
231.34	2129.89
231.56	2220.00
231.78	2107.36
232.00	2258.91
232.21	2121.70
232.43	2203.61
232.65	1918.95
232.87	2193.37
233.09	2021.35
233.30	2101.22
233.52	2260.96
233.74	2144.22
233.96	2093.02
234.18	2228.19
234.40	2107.36
234.61	2441.18
234.83	2004.96
235.05	2086.88
235.27	2422.75
235.49	2314.20
235.70	2088.93
235.92	2179.04
236.14	2226.14
236.36	2392.03
236.58	2105.31
236.79	2220.00
237.01	2252.77
237.23	2252.77
237.45	2281.44
237.67	2105.31
237.88	2197.47
238.10	2310.11
238.32	2056.16
238.54	2103.26
238.76	2119.65
238.97	2097.12
239.19	2097.12
239.41	2174.94
239.63	2260.96
239.85	2117.60
240.06	2160.61
240.28	2086.88
240.50	2336.73
240.72	2207.71
240.93	2031.58
241.15	2246.62
241.37	2228.19
241.59	2322.40
241.81	2154.46
242.02	2144.22
242.24	2179.04
242.46	2236.38
242.68	2103.26
242.89	2097.12
243.11	2285.53
243.33	2197.47
243.55	2179.04
243.76	2183.13
243.98	2170.85
244.20	2187.23
244.42	2107.36
244.64	2209.76
244.85	2138.08
245.07	2093.02
245.29	2170.85
245.51	2131.94
245.72	2238.43
245.94	2191.33
246.16	2099.17
246.38	2234.33
246.59	2127.84
246.81	2133.98
247.03	2070.50
247.24	2066.40
247.46	2179.04
247.68	2230.24
247.90	2090.98
248.11	2176.99
248.33	2267.10
248.55	2129.89
248.77	2195.42
248.98	2291.68
249.20	2277.34
249.42	2224.09
249.64	2187.23
249.85	2123.74
250.07	2197.47
250.29	2273.25
250.50	2121.70
250.72	2045.92
250.94	2256.86
251.16	2359.26
251.37	2150.37
251.59	2160.61
251.81	2220.00
252.02	2318.30
252.24	2070.50
252.46	2195.42
252.68	2152.42
252.89	2138.08
253.11	1994.72
253.33	2279.39
253.54	2383.84
253.76	2150.37
253.98	2213.85
254.20	2086.88
254.41	2080.74
254.63	2160.61
254.85	2009.06
255.06	2133.98
255.28	2197.47
255.50	2123.74
255.71	2121.70
255.93	2133.98
256.15	2258.91
256.36	2256.86
256.58	2033.63
256.80	2154.46
257.02	2244.57
257.23	2105.31
257.45	2162.66
257.67	2226.14
257.88	2172.89
258.10	2244.57
258.32	2105.31
258.53	2183.13
258.75	2334.68
258.97	2166.75
259.18	2146.27
259.40	2099.17
259.62	2359.26
259.83	2381.79
260.05	2191.33
260.27	2535.39
260.48	2301.92
260.70	2164.70
260.92	2062.30
261.13	2107.36
261.35	2113.50
261.57	2244.57
261.78	2031.58
262.00	2076.64
262.22	2273.25
262.43	2064.35
262.65	2197.47
262.86	2105.31
263.08	2435.03
263.30	2217.95
263.51	2056.16
263.73	2101.22
263.95	2308.06
264.16	2068.45
264.38	2031.58
264.60	2158.56
264.81	2201.57
265.03	2254.81
265.25	2252.77
265.46	2197.47
265.68	2312.16
265.89	2306.01
266.11	2027.49
266.33	2193.37
266.54	2330.59
266.76	2281.44
266.98	2183.13
267.19	2228.19
267.41	2250.72
267.62	2203.61
267.84	2021.35
268.06	2199.52
268.27	2101.22
268.49	2283.49
268.70	2281.44
268.92	2129.89
269.14	2148.32
269.35	2086.88
269.57	2121.70
269.79	2207.71
270.00	2144.22
270.22	2332.64
270.43	2097.12
270.65	1980.39
270.87	2144.22
271.08	2176.99
271.30	2213.85
271.51	2084.83
271.73	2228.19
271.95	2244.57
272.16	2193.37
272.38	2166.75
272.59	2119.65
272.81	2224.09
273.02	2080.74
273.24	2308.06
273.46	2285.53
273.67	2035.68
273.89	2113.50
274.10	2080.74
274.32	2375.64
274.54	2170.85
274.75	2203.61
274.97	2138.08
275.18	2129.89
275.40	2240.48
275.61	2166.75
275.83	2146.27
276.05	2029.54
276.26	2187.23
276.48	2211.81
276.69	2138.08
276.91	2117.60
277.12	2383.84
277.34	2234.33
277.55	2252.77
277.77	2170.85
277.99	2226.14
278.20	2144.22
278.42	2072.54
278.63	2082.78
278.85	2150.37
279.06	2062.30
279.28	2254.81
279.49	2293.72
279.71	2246.62
279.93	2242.53
280.14	2207.71
280.36	2168.80
280.57	2215.90
280.79	2293.72
281.00	2054.11
281.22	2156.51
281.43	2387.93
281.65	2019.30
281.86	2039.78
282.08	2244.57
282.29	2326.49
282.51	2101.22
282.73	2047.97
282.94	1970.15
283.16	2289.63
283.37	2301.92
283.59	2181.09
283.80	2260.96
284.02	2217.95
284.23	2240.48
284.45	2121.70
284.66	2107.36
284.88	2125.79
285.09	2191.33
285.31	2281.44
285.52	2234.33
285.74	2035.68
285.95	2193.37
286.17	2244.57
286.38	2328.54
286.60	2119.65
286.81	2176.99
287.03	2133.98
287.24	2166.75
287.46	2222.05
287.67	2158.56
287.89	2295.77
288.10	2121.70
288.32	2207.71
288.53	2363.36
288.75	2172.89
288.96	2265.05
289.18	2154.46
289.39	2154.46
289.61	2318.30
289.82	2422.75
290.04	2349.02
290.25	2011.11
290.47	2228.19
290.68	2131.94
290.90	2349.02
291.11	2062.30
291.33	2252.77
291.54	2084.83
291.76	2105.31
291.97	2254.81
292.18	2207.71
292.40	2133.98
292.61	2174.94
292.83	2371.55
293.04	2185.18
293.26	2176.99
293.47	2144.22
293.69	2121.70
293.90	2195.42
294.12	2293.72
294.33	2205.66
294.55	2205.66
294.76	2142.18
294.97	2295.77
295.19	2408.41
295.40	2174.94
295.62	2265.05
295.83	2299.87
296.05	2072.54
296.26	2230.24
296.48	2107.36
296.69	2158.56
296.90	2158.56
297.12	2269.15
297.33	2260.96
297.55	2252.77
297.76	2256.86
297.98	2211.81
298.19	2189.28
298.41	2144.22
298.62	2103.26
298.83	2269.15
299.05	2201.57
299.26	2203.61
299.48	2162.66
299.69	2189.28
299.90	2203.61
300.12	2095.07
300.33	2240.48
300.55	2228.19
300.76	2220.00
300.98	2056.16
301.19	2299.87
301.40	2105.31
301.62	2154.46
301.83	2211.81
302.05	2191.33
302.26	2179.04
302.47	2191.33
302.69	2133.98
302.90	2187.23
303.12	2004.96
303.33	2228.19
303.54	2359.26
303.76	2121.70
303.97	2187.23
304.19	2322.40
304.40	2115.55
304.61	2258.91
304.83	2314.20
305.04	2226.14
305.26	2242.53
305.47	2156.51
305.68	2127.84
305.90	2136.03
306.11	2301.92
306.33	2232.29
306.54	2179.04
306.75	2105.31
306.97	2047.97
307.18	2125.79
307.39	2103.26
307.61	2269.15
307.82	2156.51
308.04	2220.00
308.25	2082.78
308.46	2226.14
308.68	2215.90
308.89	2095.07
309.10	2285.53
309.32	2160.61
309.53	2172.89
309.74	2234.33
309.96	2226.14
310.17	2252.77
310.39	2150.37
310.60	2310.11
310.81	2162.66
311.03	2107.36
311.24	2215.90
311.45	2209.76
311.67	2379.74
311.88	2183.13
312.09	2121.70
312.31	2162.66
312.52	2228.19
312.73	2244.57
312.95	2052.06
313.16	2146.27
313.37	2299.87
313.59	2246.62
313.80	2281.44
314.01	2316.25
314.23	2113.50
314.44	2154.46
314.65	2168.80
314.87	2123.74
315.08	2152.42
315.29	2123.74
315.51	2095.07
315.72	2045.92
315.93	2291.68
316.15	2193.37
316.36	2176.99
316.57	2211.81
316.79	2156.51
317.00	2105.31
317.21	2232.29
317.43	2142.18
317.64	2234.33
317.85	2140.13
318.07	2060.26
318.28	2172.89
318.49	2287.58
318.70	2480.09
318.92	2295.77
319.13	2369.50
319.34	2457.56
319.56	2297.82
319.77	2291.68
319.98	2299.87
320.20	2351.07
320.41	2306.01
320.62	2258.91
320.83	2105.31
321.05	2324.44
321.26	2187.23
321.47	2236.38
321.69	2297.82
321.90	2062.30
322.11	2138.08
322.32	2199.52
322.54	2322.40
322.75	2144.22
322.96	2416.60
323.18	2101.22
323.39	2027.49
323.60	2142.18
323.81	2215.90
324.03	2080.74
324.24	2166.75
324.45	2222.05
324.66	2133.98
324.88	2281.44
325.09	2320.35
325.30	2205.66
325.52	2154.46
325.73	2308.06
325.94	2066.40
326.15	2027.49
326.37	2117.60
326.58	2299.87
326.79	2246.62
327.00	2068.45
327.22	2254.81
327.43	2154.46
327.64	2060.26
327.85	2195.42
328.07	2187.23
328.28	2316.25
328.49	2144.22
328.70	2154.46
328.92	2201.57
329.13	2113.50
329.34	2254.81
329.55	2320.35
329.76	2275.29
329.98	2252.77
330.19	2293.72
330.40	2260.96
330.61	2199.52
330.83	2269.15
331.04	2105.31
331.25	2267.10
331.46	2199.52
331.68	2021.35
331.89	2293.72
332.10	2160.61
332.31	2033.63
332.52	2209.76
332.74	2252.77
332.95	2015.20
333.16	2144.22
333.37	2256.86
333.58	2160.61
333.80	2222.05
334.01	1984.48
334.22	2199.52
334.43	2093.02
334.64	2236.38
334.86	2166.75
335.07	2097.12
335.28	2310.11
335.49	2023.39
335.70	2191.33
335.92	2252.77
336.13	2361.31
336.34	2260.96
336.55	2152.42
336.76	2187.23
336.98	2033.63
337.19	2125.79
337.40	2332.64
337.61	2400.22
337.82	2138.08
338.04	2252.77
338.25	2037.73
338.46	2211.81
338.67	2144.22
338.88	2086.88
339.09	2068.45
339.31	2080.74
339.52	2072.54
339.73	2164.70
339.94	2146.27
340.15	2248.67
340.36	2152.42
340.58	2277.34
340.79	2115.55
341.00	2277.34
341.21	2129.89
341.42	2453.47
341.63	2121.70
341.85	2301.92
342.06	2248.67
342.27	2170.85
342.48	2248.67
342.69	2062.30
342.90	2209.76
343.12	2303.96
343.33	2146.27
343.54	2291.68
343.75	2342.88
343.96	2207.71
344.17	2050.02
344.38	2129.89
344.60	2099.17
344.81	2138.08
345.02	2162.66
345.23	2349.02
345.44	2475.99
345.65	2228.19
345.86	2254.81
346.07	2242.53
346.29	2121.70
346.50	2246.62
346.71	2176.99
346.92	2326.49
347.13	2398.17
347.34	2199.52
347.55	2133.98
347.76	2183.13
347.98	2054.11
348.19	2127.84
348.40	2312.16
348.61	2123.74
348.82	2240.48
349.03	2179.04
349.24	2129.89
349.45	2375.64
349.66	2019.30
349.88	2168.80
350.09	2127.84
350.30	2250.72
350.51	2377.69
350.72	2260.96
350.93	2193.37
351.14	2146.27
351.35	2168.80
351.56	2125.79
351.77	2230.24
351.99	2183.13
352.20	2392.03
352.41	2236.38
352.62	2060.26
352.83	2097.12
353.04	2176.99
353.25	2093.02
353.46	2269.15
353.67	2232.29
353.88	2011.11
354.09	2183.13
354.30	2228.19
354.52	2283.49
354.73	2234.33
354.94	2242.53
355.15	2191.33
355.36	2387.93
355.57	2168.80
355.78	2201.57
355.99	2133.98
356.20	2154.46
356.41	2342.88
356.62	2226.14
356.83	2187.23
357.04	2318.30
357.25	2113.50
357.46	2220.00
357.68	2045.92
357.89	2164.70
358.10	2150.37
358.31	2170.85
358.52	2138.08
358.73	2084.83
358.94	2136.03
359.15	2103.26
359.36	2215.90
359.57	2236.38
359.78	2146.27
359.99	2217.95
360.20	2086.88
360.41	2170.85
360.62	2248.67
360.83	2289.63
361.04	2213.85
361.25	2174.94
361.46	2367.45
361.67	2273.25
361.88	2215.90
362.09	2244.57
362.30	2271.20
362.51	2199.52
362.72	2174.94
362.93	2289.63
363.14	2252.77
363.35	2133.98
363.56	2097.12
363.78	2392.03
363.99	2303.96
364.20	2142.18
364.41	2209.76
364.62	2367.45
364.83	2228.19
365.04	2121.70
365.25	2133.98
365.46	2412.51
365.67	2191.33
365.88	2121.70
366.09	2224.09
366.30	2179.04
366.51	2220.00
366.72	2058.21
366.93	2174.94
367.14	2232.29
367.35	2316.25
367.56	2236.38
367.77	2217.95
367.98	2160.61
368.18	2232.29
368.39	2168.80
368.60	2056.16
368.81	2303.96
369.02	2195.42
369.23	2164.70
369.44	2121.70
369.65	2152.42
369.86	2299.87
370.07	2185.18
370.28	2119.65
370.49	2287.58
370.70	2265.05
370.91	2041.82
371.12	2011.11
371.33	2258.91
371.54	2152.42
371.75	2293.72
371.96	1974.24
372.17	2265.05
372.38	2187.23
372.59	2283.49
372.80	2121.70
373.01	2193.37
373.22	2242.53
373.43	2185.18
373.64	2068.45
373.85	2332.64
374.06	2293.72
374.26	2250.72
374.47	2146.27
374.68	2310.11
374.89	2176.99
375.10	2172.89
375.31	2222.05
375.52	2310.11
375.73	2105.31
375.94	2103.26
376.15	2316.25
376.36	2133.98
376.57	2117.60
376.78	2146.27
376.99	2191.33
377.20	2359.26
377.40	2146.27
377.61	2342.88
377.82	2117.60
378.03	2265.05
378.24	2342.88
378.45	2217.95
378.66	2195.42
378.87	2052.06
379.08	2084.83
379.29	2162.66
379.50	2254.81
379.71	2174.94
379.91	2240.48
380.12	2152.42
380.33	2152.42
380.54	2129.89
380.75	2187.23
380.96	2129.89
381.17	2211.81
381.38	2154.46
381.59	2269.15
381.80	2152.42
382.00	2369.50
382.21	2195.42
382.42	2402.27
382.63	2510.81
382.84	2260.96
383.05	2365.40
383.26	2355.16
383.47	2234.33
383.68	2248.67
383.88	2263.01
384.09	2207.71
384.30	2357.21
384.51	2244.57
384.72	2152.42
384.93	2039.78
385.14	2267.10
385.35	2252.77
385.55	2146.27
385.76	2334.68
385.97	2150.37
386.18	2117.60
386.39	2115.55
386.60	2197.47
386.81	2228.19
387.02	2146.27
387.22	2090.98
387.43	2338.78
387.64	2248.67
387.85	2392.03
388.06	2432.99
388.27	4050.88
388.48	8499.07
388.68	12271.43
388.89	14796.57
389.10	15767.31
389.31	14636.83
389.52	11618.13
389.73	9865.07
389.93	8939.38
390.14	8238.98
390.35	7389.07
390.56	6573.98
390.77	5402.54
390.98	4091.84
391.18	3223.50
391.39	2762.71
391.60	2447.32
391.81	2398.17
392.02	2109.41
392.23	2465.75
392.43	2236.38
392.64	2334.68
392.85	2156.51
393.06	2291.68
393.27	2195.42
393.47	2156.51
393.68	2156.51
393.89	2140.13
394.10	2297.82
394.31	2228.19
394.52	2119.65
394.72	2064.35
394.93	2361.31
395.14	2160.61
395.35	2217.95
395.56	2185.18
395.76	2226.14
395.97	2232.29
396.18	2295.77
396.39	2316.25
396.60	2695.13
396.80	2463.71
397.01	2459.61
397.22	2404.32
397.43	2396.12
397.64	2281.44
397.84	2203.61
398.05	2455.51
398.26	2168.80
398.47	2306.01
398.67	2293.72
398.88	2228.19
399.09	2301.92
399.30	2179.04
399.51	2295.77
399.71	2070.50
399.92	2252.77
400.13	2236.38
400.34	2181.09
400.54	2213.85
400.75	2400.22
400.96	2146.27
401.17	2326.49
401.37	2236.38
401.58	2209.76
401.79	2140.13
402.00	2310.11
402.21	2609.11
402.41	2570.20
402.62	2566.10
402.83	2703.32
403.04	2633.69
403.24	2766.81
403.45	2351.07
403.66	2512.86
403.87	2420.70
404.07	2475.99
404.28	2435.03
404.49	2414.56
404.70	2254.81
404.90	2349.02
405.11	2256.86
405.32	2238.43
405.52	2181.09
405.73	2166.75
405.94	2170.85
406.15	2193.37
406.35	2267.10
406.56	2154.46
406.77	2248.67
406.98	2213.85
407.18	2174.94
407.39	2336.73
407.60	2111.46
407.80	2211.81
408.01	2158.56
408.22	2256.86
408.43	2144.22
408.63	2240.48
408.84	2256.86
409.05	2332.64
409.25	2107.36
409.46	2146.27
409.67	2187.23
409.88	2236.38
410.08	2224.09
410.29	2111.46
410.50	2201.57
410.70	2220.00
410.91	2107.36
411.12	2228.19
411.32	2187.23
411.53	2158.56
411.74	2326.49
411.95	2265.05
412.15	2244.57
412.36	2344.92
412.57	2328.54
412.77	2349.02
412.98	2238.43
413.19	2179.04
413.39	2211.81
413.60	2215.90
413.81	2260.96
414.01	2097.12
414.22	2240.48
414.43	2281.44
414.63	2183.13
414.84	2246.62
415.05	2220.00
415.25	2138.08
415.46	2291.68
415.67	2154.46
415.87	2236.38
416.08	2146.27
416.29	2146.27
416.49	2187.23
416.70	2174.94
416.91	2183.13
417.11	2174.94
417.32	2277.34
417.53	2328.54
417.73	2176.99
417.94	2144.22
418.15	2291.68
418.35	2189.28
418.56	2201.57
418.77	2475.99
418.97	2127.84
419.18	2138.08
419.38	2031.58
419.59	2228.19
419.80	2398.17
420.00	2119.65
420.21	2211.81
420.42	2256.86
420.62	2195.42
420.83	2123.74
421.04	2160.61
421.24	2152.42
421.45	2236.38
421.65	2252.77
421.86	2238.43
422.07	2314.20
422.27	2232.29
422.48	2154.46
422.69	2129.89
422.89	2220.00
423.10	2191.33
423.30	2080.74
423.51	2250.72
423.72	2260.96
423.92	2314.20
424.13	2133.98
424.33	2146.27
424.54	2301.92
424.75	2217.95
424.95	2387.93
425.16	2211.81
425.36	2181.09
425.57	2355.16
425.78	2176.99
425.98	2285.53
426.19	2203.61
426.39	2064.35
426.60	2154.46
426.81	2254.81
427.01	2230.24
427.22	2158.56
427.42	2021.35
427.63	2156.51
427.83	2269.15
428.04	2375.64
428.25	2310.11
428.45	2158.56
428.66	2258.91
428.86	2193.37
429.07	2187.23
429.28	2322.40
429.48	2160.61
429.69	2052.06
429.89	2213.85
430.10	2035.68
430.30	2273.25
430.51	2289.63
430.71	2093.02
430.92	2187.23
431.13	2136.03
431.33	2283.49
431.54	2226.14
431.74	2314.20
431.95	2398.17
432.15	2148.32
432.36	2203.61
432.56	2240.48
432.77	2404.32
432.98	2404.32
433.18	2240.48
433.39	2187.23
433.59	2191.33
433.80	2310.11
434.00	2408.41
434.21	2168.80
434.41	2111.46
434.62	2424.80
434.82	2129.89
435.03	2072.54
435.23	2281.44
435.44	2015.20
435.64	2187.23
435.85	2168.80
436.06	2232.29
436.26	2297.82
436.47	2154.46
436.67	2072.54
436.88	2203.61
437.08	2289.63
437.29	2308.06
437.49	2205.66
437.70	2260.96
437.90	2156.51
438.11	2363.36
438.31	2222.05
438.52	2398.17
438.72	2424.80
438.93	2404.32
439.13	2230.24
439.34	2310.11
439.54	2232.29
439.75	2312.16
439.95	2273.25
440.16	2183.13
440.36	2248.67
440.57	2254.81
440.77	2244.57
440.98	2256.86
441.18	2176.99
441.39	2111.46
441.59	2109.41
441.80	2424.80
442.00	2189.28
442.21	2336.73
442.41	2086.88
442.62	2301.92
442.82	2125.79
443.02	2203.61
443.23	2271.20
443.43	2166.75
443.64	2322.40
443.84	2193.37
444.05	2336.73
444.25	2285.53
444.46	2150.37
444.66	2228.19
444.87	2320.35
445.07	2080.74
445.28	2250.72
445.48	2342.88
445.69	2263.01
445.89	2494.43
446.09	2273.25
446.30	2594.78
446.50	2797.53
446.71	4446.14
446.91	5449.64
447.12	6530.97
447.32	6991.77
447.53	6440.86
447.73	5228.46
447.93	4566.97
448.14	4306.88
448.34	3983.30
448.55	3588.04
448.75	3579.85
448.96	3407.82
449.16	3004.37
449.36	2850.77
449.57	2566.10
449.77	2404.32
449.98	2195.42
450.18	2285.53
450.39	2303.96
450.59	2277.34
450.79	2258.91
451.00	2170.85
451.20	2324.44
451.41	2220.00
451.61	2240.48
451.81	2191.33
452.02	2203.61
452.22	2097.12
452.43	2201.57
452.63	2201.57
