SpectraSuite Data File
++++++++++++++++++++++++++++++++++++
Date: Thu May 05 12:35:37 CEST 2016
User: root
Dark Spectrum Present: No
Reference Spectrum Present: No
Number of Sampled Component Spectra: 1
Spectrometers: USB4C02835
Integration Time (usec): 100000 (USB4C02835)
Spectra Averaged: 1 (USB4C02835)
Boxcar Smoothing: 0 (USB4C02835)
Correct for Electrical Dark: No (USB4C02835)
Strobe/Lamp Enabled: No (USB4C02835)
Correct for Detector Non-linearity: No (USB4C02835)
Correct for Stray Light: No (USB4C02835)
Number of Pixels in Processed Spectrum: 3648
>>>>>Begin Processed Spectral Data<<<<<
177.47	1753.06
177.69	1753.06
177.91	1753.06
178.13	1703.91
178.36	1806.31
178.58	2095.07
178.80	2246.62
179.02	2107.36
179.24	2154.46
179.46	2117.60
179.68	2162.66
179.90	2176.99
180.13	2242.53
180.35	2058.21
180.57	2086.88
180.79	2260.96
181.01	2138.08
181.23	2093.02
181.45	2256.86
181.67	2179.04
181.90	2224.09
182.12	2107.36
182.34	2035.68
182.56	2199.52
182.78	2246.62
183.00	2072.54
183.22	2127.84
183.44	2058.21
183.66	2473.95
183.89	2191.33
184.11	2109.41
184.33	2193.37
184.55	2265.05
184.77	2146.27
184.99	2187.23
185.21	2093.02
185.43	2379.74
185.65	2138.08
185.87	2056.16
186.10	2385.88
186.32	2392.03
186.54	2127.84
186.76	2220.00
186.98	2377.69
187.20	2193.37
187.42	2084.83
187.64	2111.46
187.86	2244.57
188.08	2281.44
188.30	2082.78
188.52	2086.88
188.75	2349.02
188.97	2281.44
189.19	2056.16
189.41	2119.65
189.63	2355.16
189.85	2156.51
190.07	1935.33
190.29	2039.78
190.51	2215.90
190.73	2084.83
190.95	2162.66
191.17	2127.84
191.39	2109.41
191.61	2215.90
191.84	2119.65
192.06	2256.86
192.28	1974.24
192.50	2461.66
192.72	2205.66
192.94	2150.37
193.16	2297.82
193.38	2250.72
193.60	2111.46
193.82	2179.04
194.04	2314.20
194.26	2185.18
194.48	2127.84
194.70	2119.65
194.92	2138.08
195.14	2265.05
195.36	2064.35
195.58	2125.79
195.80	2209.76
196.02	2152.42
196.24	2101.22
196.46	2105.31
196.69	2140.13
196.91	2453.47
197.13	2111.46
197.35	2080.74
197.57	2344.92
197.79	2189.28
198.01	2226.14
198.23	2179.04
198.45	2258.91
198.67	2072.54
198.89	2041.82
199.11	2144.22
199.33	2172.89
199.55	1998.82
199.77	2103.26
199.99	2248.67
200.21	2129.89
200.43	2242.53
200.65	2023.39
200.87	1957.86
201.09	2125.79
201.31	2189.28
201.53	2201.57
201.75	2144.22
201.97	2154.46
202.19	2187.23
202.41	2226.14
202.63	2277.34
202.85	2179.04
203.07	2176.99
203.29	2078.69
203.51	2047.97
203.73	2138.08
203.95	2455.51
204.17	2093.02
204.39	2150.37
204.61	2127.84
204.83	2136.03
205.05	2273.25
205.27	2240.48
205.49	2529.24
205.71	2224.09
205.93	2105.31
206.15	2072.54
206.37	2224.09
206.59	2201.57
206.81	2060.26
207.03	2035.68
207.25	2136.03
207.47	2293.72
207.69	2144.22
207.91	2301.92
208.13	2306.01
208.34	2138.08
208.56	2045.92
208.78	2140.13
209.00	2162.66
209.22	2199.52
209.44	2111.46
209.66	2127.84
209.88	2131.94
210.10	2248.67
210.32	2140.13
210.54	2279.39
210.76	2121.70
210.98	2273.25
211.20	2021.35
211.42	2162.66
211.64	2295.77
211.86	2248.67
212.08	2164.70
212.30	2191.33
212.52	2179.04
212.74	2162.66
212.96	2148.32
213.17	2199.52
213.39	2166.75
213.61	2312.16
213.83	2199.52
214.05	2195.42
214.27	2271.20
214.49	2095.07
214.71	2136.03
214.93	2242.53
215.15	2138.08
215.37	2310.11
215.59	2078.69
215.81	2211.81
216.03	2254.81
216.24	2195.42
216.46	2125.79
216.68	2166.75
216.90	2181.09
217.12	2269.15
217.34	2086.88
217.56	2185.18
217.78	2351.07
218.00	2258.91
218.22	2248.67
218.44	2248.67
218.66	2199.52
218.87	2389.98
219.09	2105.31
219.31	2129.89
219.53	2213.85
219.75	2109.41
219.97	2103.26
220.19	2174.94
220.41	2203.61
220.63	2412.51
220.85	2154.46
221.06	2060.26
221.28	2342.88
221.50	2230.24
221.72	2084.83
221.94	2064.35
222.16	2226.14
222.38	2287.58
222.60	2127.84
222.82	2136.03
223.03	2359.26
223.25	2072.54
223.47	2146.27
223.69	2314.20
223.91	2244.57
224.13	2207.71
224.35	2054.11
224.57	2303.96
224.78	2238.43
225.00	2101.22
225.22	2191.33
225.44	2236.38
225.66	2205.66
225.88	2084.83
226.10	2207.71
226.32	2220.00
226.53	2353.12
226.75	2174.94
226.97	2138.08
227.19	2129.89
227.41	2152.42
227.63	2129.89
227.85	2013.15
228.06	2148.32
228.28	2263.01
228.50	2275.29
228.72	2058.21
228.94	2168.80
229.16	2047.97
229.37	2101.22
229.59	2021.35
229.81	2320.35
230.03	2133.98
230.25	2113.50
230.47	2070.50
230.69	2138.08
230.90	2320.35
231.12	2199.52
231.34	2185.18
231.56	2246.62
231.78	2136.03
232.00	2209.76
232.21	2129.89
232.43	2099.17
232.65	1949.67
232.87	2220.00
233.09	2076.64
233.30	2148.32
233.52	2256.86
233.74	2215.90
233.96	2084.83
234.18	2146.27
234.40	2127.84
234.61	2414.56
234.83	2070.50
235.05	2021.35
235.27	2467.80
235.49	2297.82
235.70	2144.22
235.92	2193.37
236.14	2287.58
236.36	2441.18
236.58	2064.35
236.79	2301.92
237.01	2228.19
237.23	2166.75
237.45	2295.77
237.67	2019.30
237.88	2228.19
238.10	2351.07
238.32	2027.49
238.54	2150.37
238.76	2170.85
238.97	2090.98
239.19	1996.77
239.41	2205.66
239.63	2318.30
239.85	2111.46
240.06	2154.46
240.28	2113.50
240.50	2256.86
240.72	2244.57
240.93	2158.56
241.15	2203.61
241.37	2203.61
241.59	2322.40
241.81	2131.94
242.02	2060.26
242.24	2170.85
242.46	2232.29
242.68	2023.39
242.89	2068.45
243.11	2242.53
243.33	2195.42
243.55	2168.80
243.76	2248.67
243.98	2119.65
244.20	2199.52
244.42	2117.60
244.64	2207.71
244.85	2029.54
245.07	2093.02
245.29	2138.08
245.51	2078.69
245.72	2185.18
245.94	2297.82
246.16	2097.12
246.38	2146.27
246.59	2125.79
246.81	2070.50
247.03	2150.37
247.24	2025.44
247.46	2154.46
247.68	2160.61
247.90	2154.46
248.11	2117.60
248.33	2273.25
248.55	2176.99
248.77	2170.85
248.98	2220.00
249.20	2351.07
249.42	2185.18
249.64	2084.83
249.85	2078.69
250.07	2226.14
250.29	2285.53
250.50	2168.80
250.72	1966.05
250.94	2185.18
251.16	2357.21
251.37	2254.81
251.59	2207.71
251.81	2285.53
252.02	2265.05
252.24	2054.11
252.46	2234.33
252.68	2072.54
252.89	2156.51
253.11	1982.43
253.33	2273.25
253.54	2320.35
253.76	2033.63
253.98	2164.70
254.20	2117.60
254.41	2136.03
254.63	2164.70
254.85	2035.68
255.06	2121.70
255.28	2226.14
255.50	2179.04
255.71	2123.74
255.93	1970.15
256.15	2148.32
256.36	2273.25
256.58	2082.78
256.80	2172.89
257.02	2144.22
257.23	2146.27
257.45	2176.99
257.67	2195.42
257.88	2131.94
258.10	2242.53
258.32	2039.78
258.53	2123.74
258.75	2346.97
258.97	2121.70
259.18	2142.18
259.40	2121.70
259.62	2355.16
259.83	2314.20
260.05	2201.57
260.27	2496.47
260.48	2295.77
260.70	2127.84
260.92	2099.17
261.13	2146.27
261.35	2285.53
261.57	2258.91
261.78	2045.92
262.00	2097.12
262.22	2217.95
262.43	2133.98
262.65	2131.94
262.86	2140.13
263.08	2455.51
263.30	2222.05
263.51	1978.34
263.73	2103.26
263.95	2220.00
264.16	2150.37
264.38	2097.12
264.60	2193.37
264.81	2213.85
265.03	2355.16
265.25	2310.11
265.46	2183.13
265.68	2271.20
265.89	2226.14
266.11	1990.63
266.33	2160.61
266.54	2275.29
266.76	2310.11
266.98	2185.18
267.19	2228.19
267.41	2285.53
267.62	2162.66
267.84	2004.96
268.06	2217.95
268.27	2220.00
268.49	2234.33
268.70	2140.13
268.92	2111.46
269.14	2125.79
269.35	2095.07
269.57	2097.12
269.79	2183.13
270.00	2072.54
270.22	2373.60
270.43	2103.26
270.65	1943.52
270.87	2220.00
271.08	2299.87
271.30	2164.70
271.51	2117.60
271.73	2244.57
271.95	2244.57
272.16	2109.41
272.38	2152.42
272.59	2193.37
272.81	2265.05
273.02	2152.42
273.24	2211.81
273.46	2228.19
273.67	2090.98
273.89	2088.93
274.10	2150.37
274.32	2359.26
274.54	2213.85
274.75	2170.85
274.97	2072.54
275.18	2215.90
275.40	2275.29
275.61	2131.94
275.83	2127.84
276.05	2125.79
276.26	2248.67
276.48	2197.47
276.69	2160.61
276.91	2127.84
277.12	2359.26
277.34	2162.66
277.55	2279.39
277.77	2213.85
277.99	2181.09
278.20	2070.50
278.42	2033.63
278.63	2176.99
278.85	2088.93
279.06	2107.36
279.28	2191.33
279.49	2310.11
279.71	2230.24
279.93	2179.04
280.14	2101.22
280.36	2187.23
280.57	2252.77
280.79	2183.13
281.00	2056.16
281.22	2121.70
281.43	2326.49
281.65	2047.97
281.86	2023.39
282.08	2275.29
282.29	2338.78
282.51	2041.82
282.73	2056.16
282.94	2064.35
283.16	2258.91
283.37	2226.14
283.59	2170.85
283.80	2166.75
284.02	2234.33
284.23	2209.76
284.45	2138.08
284.66	2201.57
284.88	2078.69
285.09	2148.32
285.31	2230.24
285.52	2215.90
285.74	2045.92
285.95	2201.57
286.17	2207.71
286.38	2314.20
286.60	2129.89
286.81	2074.59
287.03	2170.85
287.24	2107.36
287.46	2236.38
287.67	2203.61
287.89	2383.84
288.10	2183.13
288.32	2193.37
288.53	2289.63
288.75	2158.56
288.96	2242.53
289.18	2136.03
289.39	2097.12
289.61	2209.76
289.82	2377.69
290.04	2416.60
290.25	2113.50
290.47	2166.75
290.68	2152.42
290.90	2349.02
291.11	2039.78
291.33	2338.78
291.54	2086.88
291.76	2109.41
291.97	2197.47
292.18	2166.75
292.40	2174.94
292.61	2099.17
292.83	2385.88
293.04	2220.00
293.26	2174.94
293.47	2105.31
293.69	2127.84
293.90	2158.56
294.12	2250.72
294.33	2138.08
294.55	2062.30
294.76	2328.54
294.97	2283.49
295.19	2394.08
295.40	2117.60
295.62	2215.90
295.83	2248.67
296.05	2082.78
296.26	2299.87
296.48	2121.70
296.69	2220.00
296.90	2240.48
297.12	2265.05
297.33	2248.67
297.55	2205.66
297.76	2199.52
297.98	2217.95
298.19	2197.47
298.41	2217.95
298.62	2074.59
298.83	2330.59
299.05	2252.77
299.26	2162.66
299.48	2058.21
299.69	2224.09
299.90	2164.70
300.12	2125.79
300.33	2256.86
300.55	2232.29
300.76	2181.09
300.98	2154.46
301.19	2224.09
301.40	2097.12
301.62	2090.98
301.83	2260.96
302.05	2195.42
302.26	2211.81
302.47	2211.81
302.69	2086.88
302.90	2174.94
303.12	1933.28
303.33	2238.43
303.54	2265.05
303.76	2168.80
303.97	2160.61
304.19	2371.55
304.40	2099.17
304.61	2215.90
304.83	2385.88
305.04	2236.38
305.26	2242.53
305.47	2209.76
305.68	2215.90
305.90	2109.41
306.11	2283.49
306.33	2154.46
306.54	2136.03
306.75	2152.42
306.97	2015.20
307.18	2068.45
307.39	2166.75
307.61	2183.13
307.82	2127.84
308.04	2226.14
308.25	2185.18
308.46	2211.81
308.68	2084.83
308.89	2146.27
309.10	2215.90
309.32	2170.85
309.53	2174.94
309.74	2254.81
309.96	2172.89
310.17	2248.67
310.39	2156.51
310.60	2240.48
310.81	2240.48
311.03	2113.50
311.24	2269.15
311.45	2195.42
311.67	2256.86
311.88	2168.80
312.09	2146.27
312.31	2150.37
312.52	2086.88
312.73	2168.80
312.95	2019.30
313.16	2039.78
313.37	2242.53
313.59	2248.67
313.80	2260.96
314.01	2424.80
314.23	2148.32
314.44	2189.28
314.65	2078.69
314.87	2097.12
315.08	2152.42
315.29	2127.84
315.51	2101.22
315.72	2125.79
315.93	2314.20
316.15	2240.48
316.36	2146.27
316.57	2213.85
316.79	2277.34
317.00	2152.42
317.21	2285.53
317.43	2052.06
317.64	2207.71
317.85	2209.76
318.07	2154.46
318.28	2236.38
318.49	2301.92
318.70	2422.75
318.92	2400.22
319.13	2367.45
319.34	2463.71
319.56	2340.83
319.77	2322.40
319.98	2310.11
320.20	2324.44
320.41	2340.83
320.62	2224.09
320.83	2078.69
321.05	2361.31
321.26	2162.66
321.47	2181.09
321.69	2363.36
321.90	2121.70
322.11	2209.76
322.32	2226.14
322.54	2254.81
322.75	2181.09
322.96	2453.47
323.18	2066.40
323.39	2084.83
323.60	2045.92
323.81	2211.81
324.03	2238.43
324.24	2252.77
324.45	2220.00
324.66	2125.79
324.88	2220.00
325.09	2320.35
325.30	2166.75
325.52	2183.13
325.73	2334.68
325.94	2060.26
326.15	2050.02
326.37	2131.94
326.58	2287.58
326.79	2430.94
327.00	2025.44
327.22	2131.94
327.43	2125.79
327.64	2084.83
327.85	2283.49
328.07	2152.42
328.28	2402.27
328.49	2220.00
328.70	2088.93
328.92	2181.09
329.13	2187.23
329.34	2242.53
329.55	2363.36
329.76	2232.29
329.98	2234.33
330.19	2318.30
330.40	2242.53
330.61	2203.61
330.83	2240.48
331.04	2117.60
331.25	2156.51
331.46	2154.46
331.68	2070.50
331.89	2310.11
332.10	2240.48
332.31	1959.91
332.52	2086.88
332.74	2256.86
332.95	2101.22
333.16	2133.98
333.37	2256.86
333.58	2131.94
333.80	2140.13
334.01	2107.36
334.22	2226.14
334.43	2250.72
334.64	2097.12
334.86	2113.50
335.07	2054.11
335.28	2324.44
335.49	2025.44
335.70	2201.57
335.92	2326.49
336.13	2420.70
336.34	2291.68
336.55	2111.46
336.76	2258.91
336.98	2121.70
337.19	2068.45
337.40	2238.43
337.61	2471.90
337.82	2105.31
338.04	2269.15
338.25	2115.55
338.46	2162.66
338.67	2179.04
338.88	2136.03
339.09	2082.78
339.31	2174.94
339.52	2050.02
339.73	2056.16
339.94	2181.09
340.15	2205.66
340.36	2117.60
340.58	2131.94
340.79	2101.22
341.00	2250.72
341.21	2168.80
341.42	2324.44
341.63	2142.18
341.85	2220.00
342.06	2187.23
342.27	2168.80
342.48	2281.44
342.69	2066.40
342.90	2215.90
343.12	2346.97
343.33	2117.60
343.54	2279.39
343.75	2269.15
343.96	2230.24
344.17	2172.89
344.38	2176.99
344.60	2070.50
344.81	2156.51
345.02	2138.08
345.23	2308.06
345.44	2420.70
345.65	2211.81
345.86	2191.33
346.07	2220.00
346.29	2209.76
346.50	2152.42
346.71	2183.13
346.92	2351.07
347.13	2394.08
347.34	2166.75
347.55	2119.65
347.76	2244.57
347.98	2107.36
348.19	2160.61
348.40	2342.88
348.61	2176.99
348.82	2424.80
349.03	2277.34
349.24	2099.17
349.45	2344.92
349.66	2029.54
349.88	2179.04
350.09	2066.40
350.30	2318.30
350.51	2310.11
350.72	2203.61
350.93	2203.61
351.14	2140.13
351.35	2308.06
351.56	2211.81
351.77	2131.94
351.99	2332.64
352.20	2312.16
352.41	2228.19
352.62	1992.67
352.83	2250.72
353.04	2164.70
353.25	2172.89
353.46	2195.42
353.67	2316.25
353.88	2058.21
354.09	2164.70
354.30	2144.22
354.52	2226.14
354.73	2103.26
354.94	2154.46
355.15	2211.81
355.36	2363.36
355.57	2193.37
355.78	2199.52
355.99	2056.16
356.20	2125.79
356.41	2312.16
356.62	2207.71
356.83	2224.09
357.04	2285.53
357.25	2078.69
357.46	2162.66
357.68	2021.35
357.89	2148.32
358.10	2199.52
358.31	2170.85
358.52	2123.74
358.73	2142.18
358.94	2074.59
359.15	2129.89
359.36	2256.86
359.57	2199.52
359.78	2193.37
359.99	2242.53
360.20	2052.06
360.41	2172.89
360.62	2265.05
360.83	2191.33
361.04	2117.60
361.25	2244.57
361.46	2318.30
361.67	2301.92
361.88	2256.86
362.09	2199.52
362.30	2160.61
362.51	2199.52
362.72	2191.33
362.93	2287.58
363.14	2246.62
363.35	2148.32
363.56	2054.11
363.78	2285.53
363.99	2293.72
364.20	2101.22
364.41	2248.67
364.62	2289.63
364.83	2254.81
365.04	2234.33
365.25	2164.70
365.46	2467.80
365.67	2119.65
365.88	2314.20
366.09	2236.38
366.30	2093.02
366.51	2195.42
366.72	2056.16
366.93	2158.56
367.14	2209.76
367.35	2316.25
367.56	2179.04
367.77	2265.05
367.98	2185.18
368.18	2203.61
368.39	2203.61
368.60	2072.54
368.81	2279.39
369.02	2232.29
369.23	2138.08
369.44	2066.40
369.65	2129.89
369.86	2258.91
370.07	2189.28
370.28	2095.07
370.49	2205.66
370.70	2260.96
370.91	2056.16
371.12	2144.22
371.33	2285.53
371.54	2189.28
371.75	2297.82
371.96	1980.39
372.17	2230.24
372.38	2162.66
372.59	2183.13
372.80	2101.22
373.01	2148.32
373.22	2213.85
373.43	2138.08
373.64	2064.35
373.85	2306.01
374.06	2375.64
374.26	2228.19
374.47	2273.25
374.68	2291.68
374.89	2185.18
375.10	2185.18
375.31	2187.23
375.52	2260.96
375.73	2211.81
375.94	2127.84
376.15	2326.49
376.36	2174.94
376.57	2066.40
376.78	2138.08
376.99	2252.77
377.20	2349.02
377.40	2195.42
377.61	2330.59
377.82	2183.13
378.03	2277.34
378.24	2289.63
378.45	2222.05
378.66	2213.85
378.87	2101.22
379.08	2043.87
379.29	2140.13
379.50	2273.25
379.71	2154.46
379.91	2201.57
380.12	2211.81
380.33	2127.84
380.54	2158.56
380.75	2181.09
380.96	2131.94
381.17	2269.15
381.38	2058.21
381.59	2289.63
381.80	2138.08
382.00	2351.07
382.21	2279.39
382.42	2398.17
382.63	2355.16
382.84	2279.39
383.05	2416.60
383.26	2310.11
383.47	2170.85
383.68	2269.15
383.88	2205.66
384.09	2236.38
384.30	2318.30
384.51	2287.58
384.72	2170.85
384.93	2097.12
385.14	2176.99
385.35	2334.68
385.55	2107.36
385.76	2351.07
385.97	2226.14
386.18	2058.21
386.39	2140.13
386.60	2174.94
386.81	2201.57
387.02	2080.74
387.22	2097.12
387.43	2256.86
387.64	2287.58
387.85	2359.26
388.06	2430.94
388.27	4112.32
388.48	8650.62
388.68	12201.80
388.89	14642.98
389.10	15638.29
389.31	14548.77
389.52	11321.17
389.73	9838.44
389.93	8894.33
390.14	8222.59
390.35	7440.27
390.56	6557.60
390.77	5337.01
390.98	4093.89
391.18	3207.12
391.39	2717.65
391.60	2295.77
391.81	2389.98
392.02	2162.66
392.23	2428.89
392.43	2273.25
392.64	2334.68
392.85	2224.09
393.06	2392.03
393.27	2222.05
393.47	2066.40
393.68	2297.82
393.89	2121.70
394.10	2318.30
394.31	2166.75
394.52	2113.50
394.72	2121.70
394.93	2371.55
395.14	2002.91
395.35	2207.71
395.56	2148.32
395.76	2172.89
395.97	2222.05
396.18	2334.68
396.39	2330.59
396.60	2613.21
396.80	2455.51
397.01	2383.84
397.22	2412.51
397.43	2312.16
397.64	2211.81
397.84	2332.64
398.05	2357.21
398.26	2236.38
398.47	2312.16
398.67	2293.72
398.88	2179.04
399.09	2172.89
399.30	2187.23
399.51	2281.44
399.71	2097.12
399.92	2090.98
400.13	2291.68
400.34	2187.23
400.54	2138.08
400.75	2328.54
400.96	2273.25
401.17	2369.50
401.37	2258.91
401.58	2150.37
401.79	2176.99
402.00	2365.40
402.21	2566.10
402.41	2498.52
402.62	2629.59
402.83	2744.28
403.04	2641.88
403.24	2723.80
403.45	2383.84
403.66	2349.02
403.87	2457.56
404.07	2527.19
404.28	2504.67
404.49	2447.32
404.70	2220.00
404.90	2303.96
405.11	2207.71
405.32	2269.15
405.52	2187.23
405.73	2117.60
405.94	2133.98
406.15	2187.23
406.35	2260.96
406.56	2267.10
406.77	2203.61
406.98	2215.90
407.18	2226.14
407.39	2371.55
407.60	2095.07
407.80	2269.15
408.01	2168.80
408.22	2162.66
408.43	2125.79
408.63	2176.99
408.84	2258.91
409.05	2240.48
409.25	2113.50
409.46	2101.22
409.67	2146.27
409.88	2062.30
410.08	2220.00
410.29	2154.46
410.50	2289.63
410.70	2281.44
410.91	2052.06
411.12	2207.71
411.32	2174.94
411.53	2136.03
411.74	2312.16
411.95	2326.49
412.15	2334.68
412.36	2303.96
412.57	2330.59
412.77	2271.20
412.98	2260.96
413.19	2066.40
413.39	2230.24
413.60	2228.19
413.81	2314.20
414.01	2107.36
414.22	2215.90
414.43	2299.87
414.63	2213.85
414.84	2357.21
415.05	2168.80
415.25	2047.97
415.46	2269.15
415.67	2123.74
415.87	2256.86
416.08	2156.51
416.29	2197.47
416.49	2222.05
416.70	2097.12
416.91	2174.94
417.11	2166.75
417.32	2299.87
417.53	2299.87
417.73	2209.76
417.94	2113.50
418.15	2191.33
418.35	2172.89
418.56	2142.18
418.77	2478.04
418.97	2140.13
419.18	2209.76
419.38	1998.82
419.59	2179.04
419.80	2344.92
420.00	2156.51
420.21	2181.09
420.42	2281.44
420.62	2244.57
420.83	2109.41
421.04	2217.95
421.24	2148.32
421.45	2256.86
421.65	2230.24
421.86	2211.81
422.07	2254.81
422.27	2232.29
422.48	2193.37
422.69	2101.22
422.89	2160.61
423.10	2150.37
423.30	2115.55
423.51	2189.28
423.72	2203.61
423.92	2260.96
424.13	2074.59
424.33	2211.81
424.54	2334.68
424.75	2150.37
424.95	2357.21
425.16	2185.18
425.36	2111.46
425.57	2258.91
425.78	2195.42
425.98	2291.68
426.19	2193.37
426.39	2064.35
426.60	2258.91
426.81	2338.78
427.01	2242.53
427.22	2224.09
427.42	2105.31
427.63	2156.51
427.83	2281.44
428.04	2373.60
428.25	2232.29
428.45	2301.92
428.66	2267.10
428.86	2150.37
429.07	2183.13
429.28	2246.62
429.48	2209.76
429.69	2125.79
429.89	2275.29
430.10	2158.56
430.30	2258.91
430.51	2306.01
430.71	2101.22
430.92	2250.72
431.13	2123.74
431.33	2228.19
431.54	2277.34
431.74	2389.98
431.95	2437.08
432.15	2146.27
432.36	2133.98
432.56	2269.15
432.77	2371.55
432.98	2328.54
433.18	2271.20
433.39	2160.61
433.59	2193.37
433.80	2381.79
434.00	2349.02
434.21	2144.22
434.41	2152.42
434.62	2412.51
434.82	2129.89
435.03	2193.37
435.23	2183.13
435.44	1964.00
435.64	2179.04
435.85	2236.38
436.06	2252.77
436.26	2312.16
436.47	2203.61
436.67	2078.69
436.88	2160.61
437.08	2355.16
437.29	2301.92
437.49	2207.71
437.70	2250.72
437.90	2183.13
438.11	2324.44
438.31	2303.96
438.52	2416.60
438.72	2377.69
438.93	2402.27
439.13	2367.45
439.34	2424.80
439.54	2209.76
439.75	2281.44
439.95	2293.72
440.16	2093.02
440.36	2191.33
440.57	2285.53
440.77	2279.39
440.98	2279.39
441.18	2242.53
441.39	2117.60
441.59	2150.37
441.80	2275.29
442.00	2248.67
442.21	2295.77
442.41	2045.92
442.62	2330.59
442.82	2183.13
443.02	2279.39
443.23	2265.05
443.43	2144.22
443.64	2336.73
443.84	2156.51
444.05	2387.93
444.25	2252.77
444.46	2181.09
444.66	2119.65
444.87	2340.83
445.07	2105.31
445.28	2199.52
445.48	2301.92
445.69	2226.14
445.89	2439.13
446.09	2285.53
446.30	2488.28
446.50	2863.06
446.71	4440.00
446.91	5603.24
447.12	6504.35
447.32	6668.19
447.53	6234.02
447.73	5162.93
447.93	4585.40
448.14	4163.52
448.34	4138.94
448.55	3579.85
448.75	3530.70
448.96	3401.68
449.16	3082.19
449.36	2885.59
449.57	2580.44
449.77	2371.55
449.98	2197.47
450.18	2230.24
450.39	2211.81
450.59	2365.40
450.79	2250.72
451.00	2183.13
451.20	2252.77
451.41	2199.52
451.61	2252.77
451.81	2176.99
452.02	2146.27
452.22	2195.42
452.43	2138.08
452.63	2152.42
