SpectraSuite Data File
++++++++++++++++++++++++++++++++++++
Date: Thu May 05 12:35:36 CEST 2016
User: root
Dark Spectrum Present: No
Reference Spectrum Present: No
Number of Sampled Component Spectra: 1
Spectrometers: USB4C02835
Integration Time (usec): 100000 (USB4C02835)
Spectra Averaged: 1 (USB4C02835)
Boxcar Smoothing: 0 (USB4C02835)
Correct for Electrical Dark: No (USB4C02835)
Strobe/Lamp Enabled: No (USB4C02835)
Correct for Detector Non-linearity: No (USB4C02835)
Correct for Stray Light: No (USB4C02835)
Number of Pixels in Processed Spectrum: 3648
>>>>>Begin Processed Spectral Data<<<<<
177.47	1806.31
177.69	1806.31
177.91	1806.31
178.13	1753.06
178.36	1728.49
178.58	2090.98
178.80	2195.42
179.02	2121.70
179.24	2146.27
179.46	2037.73
179.68	2172.89
179.90	2170.85
180.13	2226.14
180.35	2056.16
180.57	2078.69
180.79	2244.57
181.01	2189.28
181.23	2187.23
181.45	2246.62
181.67	2242.53
181.90	2297.82
182.12	2144.22
182.34	2170.85
182.56	2265.05
182.78	2258.91
183.00	2117.60
183.22	2093.02
183.44	2039.78
183.66	2420.70
183.89	2228.19
184.11	2101.22
184.33	2285.53
184.55	2281.44
184.77	2142.18
184.99	2193.37
185.21	2170.85
185.43	2375.64
185.65	2142.18
185.87	2156.51
186.10	2457.56
186.32	2424.80
186.54	2185.18
186.76	2103.26
186.98	2281.44
187.20	2181.09
187.42	2070.50
187.64	2166.75
187.86	2203.61
188.08	2242.53
188.30	2113.50
188.52	2088.93
188.75	2344.92
188.97	2250.72
189.19	2043.87
189.41	2117.60
189.63	2285.53
189.85	2170.85
190.07	2086.88
190.29	2019.30
190.51	2217.95
190.73	2047.97
190.95	2312.16
191.17	2172.89
191.39	2113.50
191.61	2193.37
191.84	2207.71
192.06	2215.90
192.28	2103.26
192.50	2441.18
192.72	2220.00
192.94	2097.12
193.16	2275.29
193.38	2260.96
193.60	2072.54
193.82	2107.36
194.04	2258.91
194.26	2258.91
194.48	2136.03
194.70	2107.36
194.92	2109.41
195.14	2197.47
195.36	2101.22
195.58	2125.79
195.80	2166.75
196.02	2168.80
196.24	2078.69
196.46	2150.37
196.69	2111.46
196.91	2412.51
197.13	2131.94
197.35	2144.22
197.57	2299.87
197.79	2265.05
198.01	2176.99
198.23	2158.56
198.45	2263.01
198.67	2111.46
198.89	2025.44
199.11	2146.27
199.33	2131.94
199.55	2023.39
199.77	2101.22
199.99	2324.44
200.21	2164.70
200.43	2269.15
200.65	2113.50
200.87	1916.90
201.09	2164.70
201.31	2103.26
201.53	2144.22
201.75	2211.81
201.97	2260.96
202.19	2127.84
202.41	2183.13
202.63	2293.72
202.85	2150.37
203.07	2246.62
203.29	2144.22
203.51	2076.64
203.73	2086.88
203.95	2482.14
204.17	2156.51
204.39	2181.09
204.61	2144.22
204.83	2156.51
205.05	2248.67
205.27	2209.76
205.49	2367.45
205.71	2154.46
205.93	2007.01
206.15	2088.93
206.37	2203.61
206.59	2172.89
206.81	2088.93
207.03	2023.39
207.25	2107.36
207.47	2215.90
207.69	2152.42
207.91	2328.54
208.13	2385.88
208.34	2103.26
208.56	2103.26
208.78	2174.94
209.00	2164.70
209.22	2154.46
209.44	2101.22
209.66	2127.84
209.88	2213.85
210.10	2146.27
210.32	2070.50
210.54	2222.05
210.76	2195.42
210.98	2340.83
211.20	1970.15
211.42	2142.18
211.64	2322.40
211.86	2209.76
212.08	2179.04
212.30	2111.46
212.52	2127.84
212.74	2172.89
212.96	2205.66
213.17	2176.99
213.39	2269.15
213.61	2340.83
213.83	2144.22
214.05	2129.89
214.27	2324.44
214.49	2101.22
214.71	2039.78
214.93	2189.28
215.15	2267.10
215.37	2209.76
215.59	1982.43
215.81	2220.00
216.03	2330.59
216.24	2144.22
216.46	2144.22
216.68	2117.60
216.90	2269.15
217.12	2308.06
217.34	2121.70
217.56	2119.65
217.78	2293.72
218.00	2322.40
218.22	2176.99
218.44	2176.99
218.66	2260.96
218.87	2373.60
219.09	2113.50
219.31	2136.03
219.53	2195.42
219.75	2170.85
219.97	2170.85
220.19	2222.05
220.41	2201.57
220.63	2324.44
220.85	2164.70
221.06	2084.83
221.28	2334.68
221.50	2277.34
221.72	2138.08
221.94	2103.26
222.16	2234.33
222.38	2289.63
222.60	2193.37
222.82	2086.88
223.03	2220.00
223.25	2107.36
223.47	2125.79
223.69	2201.57
223.91	2265.05
224.13	2195.42
224.35	2062.30
224.57	2209.76
224.78	2115.55
225.00	2082.78
225.22	2213.85
225.44	2185.18
225.66	2205.66
225.88	2168.80
226.10	2179.04
226.32	2115.55
226.53	2293.72
226.75	2121.70
226.97	2111.46
227.19	2199.52
227.41	2121.70
227.63	2189.28
227.85	1970.15
228.06	2158.56
228.28	2133.98
228.50	2318.30
228.72	2027.49
228.94	2133.98
229.16	1998.82
229.37	2068.45
229.59	2021.35
229.81	2232.29
230.03	2109.41
230.25	2009.06
230.47	2007.01
230.69	2047.97
230.90	2236.38
231.12	2197.47
231.34	2185.18
231.56	2213.85
231.78	2097.12
232.00	2181.09
232.21	2129.89
232.43	2125.79
232.65	2015.20
232.87	2281.44
233.09	2088.93
233.30	2101.22
233.52	2277.34
233.74	2154.46
233.96	2113.50
234.18	2191.33
234.40	2201.57
234.61	2422.75
234.83	2037.73
235.05	2017.25
235.27	2463.71
235.49	2275.29
235.70	2078.69
235.92	2179.04
236.14	2215.90
236.36	2355.16
236.58	2068.45
236.79	2293.72
237.01	2146.27
237.23	2199.52
237.45	2277.34
237.67	1998.82
237.88	2152.42
238.10	2400.22
238.32	2039.78
238.54	2117.60
238.76	2232.29
238.97	2019.30
239.19	2058.21
239.41	2154.46
239.63	2295.77
239.85	2080.74
240.06	2238.43
240.28	2068.45
240.50	2340.83
240.72	2220.00
240.93	2080.74
241.15	2267.10
241.37	2187.23
241.59	2277.34
241.81	2121.70
242.02	2138.08
242.24	2275.29
242.46	2273.25
242.68	2009.06
242.89	2068.45
243.11	2244.57
243.33	2207.71
243.55	2140.13
243.76	2179.04
243.98	2103.26
244.20	2275.29
244.42	2123.74
244.64	2195.42
244.85	2074.59
245.07	2131.94
245.29	2117.60
245.51	2201.57
245.72	2191.33
245.94	2396.12
246.16	2144.22
246.38	2201.57
246.59	2133.98
246.81	2056.16
247.03	2062.30
247.24	2125.79
247.46	2150.37
247.68	2283.49
247.90	2082.78
248.11	2129.89
248.33	2265.05
248.55	2242.53
248.77	2160.61
248.98	2234.33
249.20	2301.92
249.42	2170.85
249.64	2129.89
249.85	2111.46
250.07	2185.18
250.29	2271.20
250.50	2113.50
250.72	2088.93
250.94	2240.48
251.16	2398.17
251.37	2228.19
251.59	2201.57
251.81	2224.09
252.02	2271.20
252.24	1998.82
252.46	2121.70
252.68	2078.69
252.89	2168.80
253.11	2056.16
253.33	2228.19
253.54	2371.55
253.76	2072.54
253.98	2056.16
254.20	2164.70
254.41	2041.82
254.63	2211.81
254.85	2074.59
255.06	2174.94
255.28	2222.05
255.50	2168.80
255.71	2160.61
255.93	2068.45
256.15	2144.22
256.36	2283.49
256.58	2107.36
256.80	2140.13
257.02	2097.12
257.23	2154.46
257.45	2152.42
257.67	2164.70
257.88	2150.37
258.10	2260.96
258.32	2176.99
258.53	2160.61
258.75	2310.11
258.97	2133.98
259.18	2084.83
259.40	2136.03
259.62	2398.17
259.83	2375.64
260.05	2185.18
260.27	2582.49
260.48	2346.97
260.70	2125.79
260.92	2129.89
261.13	2162.66
261.35	2258.91
261.57	2224.09
261.78	1984.48
262.00	2052.06
262.22	2250.72
262.43	2109.41
262.65	2131.94
262.86	2140.13
263.08	2469.85
263.30	2187.23
263.51	2021.35
263.73	2080.74
263.95	2314.20
264.16	2154.46
264.38	2062.30
264.60	2084.83
264.81	2209.76
265.03	2324.44
265.25	2283.49
265.46	2119.65
265.68	2293.72
265.89	2197.47
266.11	2117.60
266.33	2119.65
266.54	2263.01
266.76	2220.00
266.98	2193.37
267.19	2250.72
267.41	2252.77
267.62	2121.70
267.84	2017.25
268.06	2150.37
268.27	2197.47
268.49	2308.06
268.70	2242.53
268.92	2101.22
269.14	2047.97
269.35	2074.59
269.57	2109.41
269.79	2181.09
270.00	2146.27
270.22	2353.12
270.43	2099.17
270.65	1955.81
270.87	2127.84
271.08	2256.86
271.30	2199.52
271.51	2152.42
271.73	2232.29
271.95	2283.49
272.16	2185.18
272.38	2158.56
272.59	2109.41
272.81	2271.20
273.02	2174.94
273.24	2162.66
273.46	2336.73
273.67	2076.64
273.89	2054.11
274.10	2105.31
274.32	2285.53
274.54	2164.70
274.75	2185.18
274.97	2154.46
275.18	2215.90
275.40	2267.10
275.61	2217.95
275.83	2203.61
276.05	2121.70
276.26	2191.33
276.48	2232.29
276.69	2174.94
276.91	2121.70
277.12	2318.30
277.34	2269.15
277.55	2271.20
277.77	2142.18
277.99	2213.85
278.20	2115.55
278.42	2095.07
278.63	2113.50
278.85	2111.46
279.06	2062.30
279.28	2301.92
279.49	2273.25
279.71	2306.01
279.93	2166.75
280.14	2125.79
280.36	2146.27
280.57	2252.77
280.79	2263.01
281.00	2109.41
281.22	2162.66
281.43	2293.72
281.65	1990.63
281.86	2117.60
282.08	2228.19
282.29	2351.07
282.51	2076.64
282.73	2033.63
282.94	2009.06
283.16	2269.15
283.37	2297.82
283.59	2111.46
283.80	2217.95
284.02	2195.42
284.23	2189.28
284.45	2146.27
284.66	2015.20
284.88	2095.07
285.09	2138.08
285.31	2230.24
285.52	2162.66
285.74	2074.59
285.95	2248.67
286.17	2252.77
286.38	2277.34
286.60	2152.42
286.81	2099.17
287.03	2129.89
287.24	2238.43
287.46	2308.06
287.67	2232.29
287.89	2373.60
288.10	2205.66
288.32	2154.46
288.53	2334.68
288.75	2234.33
288.96	2254.81
289.18	2250.72
289.39	2113.50
289.61	2293.72
289.82	2394.08
290.04	2351.07
290.25	2052.06
290.47	2215.90
290.68	2140.13
290.90	2301.92
291.11	2007.01
291.33	2224.09
291.54	2058.21
291.76	2179.04
291.97	2121.70
292.18	2201.57
292.40	2160.61
292.61	2164.70
292.83	2373.60
293.04	2138.08
293.26	2279.39
293.47	2174.94
293.69	2125.79
293.90	2222.05
294.12	2267.10
294.33	2191.33
294.55	2144.22
294.76	2265.05
294.97	2301.92
295.19	2355.16
295.40	2119.65
295.62	2234.33
295.83	2303.96
296.05	2072.54
296.26	2301.92
296.48	2101.22
296.69	2260.96
296.90	2154.46
297.12	2244.57
297.33	2318.30
297.55	2187.23
297.76	2351.07
297.98	2308.06
298.19	2209.76
298.41	2236.38
298.62	2007.01
298.83	2306.01
299.05	2203.61
299.26	2150.37
299.48	2125.79
299.69	2209.76
299.90	2131.94
300.12	2109.41
300.33	2375.64
300.55	2260.96
300.76	2258.91
300.98	2105.31
301.19	2197.47
301.40	2179.04
301.62	2144.22
301.83	2195.42
302.05	2291.68
302.26	2179.04
302.47	2199.52
302.69	2148.32
302.90	2179.04
303.12	2039.78
303.33	2179.04
303.54	2367.45
303.76	2185.18
303.97	2164.70
304.19	2346.97
304.40	2144.22
304.61	2263.01
304.83	2301.92
305.04	2226.14
305.26	2250.72
305.47	2187.23
305.68	2162.66
305.90	2099.17
306.11	2312.16
306.33	2072.54
306.54	2121.70
306.75	2193.37
306.97	2027.49
307.18	2105.31
307.39	2152.42
307.61	2281.44
307.82	2224.09
308.04	2240.48
308.25	2150.37
308.46	2252.77
308.68	2168.80
308.89	2176.99
309.10	2279.39
309.32	2183.13
309.53	2142.18
309.74	2314.20
309.96	2133.98
310.17	2293.72
310.39	2070.50
310.60	2179.04
310.81	2230.24
311.03	2015.20
311.24	2359.26
311.45	2156.51
311.67	2322.40
311.88	2181.09
312.09	2150.37
312.31	2156.51
312.52	2146.27
312.73	2195.42
312.95	2043.87
313.16	2181.09
313.37	2310.11
313.59	2179.04
313.80	2248.67
314.01	2416.60
314.23	2101.22
314.44	2136.03
314.65	2105.31
314.87	2121.70
315.08	2111.46
315.29	2107.36
315.51	2117.60
315.72	2160.61
315.93	2269.15
316.15	2252.77
316.36	2119.65
316.57	2154.46
316.79	2203.61
317.00	2209.76
317.21	2275.29
317.43	2156.51
317.64	2203.61
317.85	2093.02
318.07	2148.32
318.28	2127.84
318.49	2342.88
318.70	2455.51
318.92	2349.02
319.13	2351.07
319.34	2318.30
319.56	2224.09
319.77	2367.45
319.98	2369.50
320.20	2312.16
320.41	2287.58
320.62	2265.05
320.83	2138.08
321.05	2414.56
321.26	2211.81
321.47	2222.05
321.69	2273.25
321.90	2088.93
322.11	2215.90
322.32	2234.33
322.54	2392.03
322.75	2172.89
322.96	2570.20
323.18	2047.97
323.39	2015.20
323.60	2121.70
323.81	2279.39
324.03	2215.90
324.24	2129.89
324.45	2207.71
324.66	2136.03
324.88	2336.73
325.09	2297.82
325.30	2265.05
325.52	2195.42
325.73	2154.46
325.94	2080.74
326.15	2035.68
326.37	2160.61
326.58	2291.68
326.79	2435.03
327.00	2129.89
327.22	2154.46
327.43	2138.08
327.64	2152.42
327.85	2144.22
328.07	2181.09
328.28	2363.36
328.49	2152.42
328.70	2174.94
328.92	2193.37
329.13	2183.13
329.34	2179.04
329.55	2359.26
329.76	2312.16
329.98	2179.04
330.19	2269.15
330.40	2176.99
330.61	2191.33
330.83	2248.67
331.04	2111.46
331.25	2203.61
331.46	2136.03
331.68	2064.35
331.89	2385.88
332.10	2203.61
332.31	2093.02
332.52	2179.04
332.74	2326.49
332.95	2058.21
333.16	2187.23
333.37	2316.25
333.58	2193.37
333.80	2246.62
334.01	2084.83
334.22	2224.09
334.43	2136.03
334.64	2107.36
334.86	2064.35
335.07	2086.88
335.28	2369.50
335.49	2070.50
335.70	2301.92
335.92	2287.58
336.13	2437.08
336.34	2246.62
336.55	2170.85
336.76	2195.42
336.98	2103.26
337.19	2129.89
337.40	2322.40
337.61	2414.56
337.82	2170.85
338.04	2275.29
338.25	2015.20
338.46	2150.37
338.67	2179.04
338.88	2125.79
339.09	2078.69
339.31	2154.46
339.52	2080.74
339.73	2023.39
339.94	2142.18
340.15	2238.43
340.36	2097.12
340.58	2291.68
340.79	1994.72
341.00	2215.90
341.21	2166.75
341.42	2295.77
341.63	2138.08
341.85	2301.92
342.06	2191.33
342.27	2078.69
342.48	2193.37
342.69	2176.99
342.90	2220.00
343.12	2316.25
343.33	2136.03
343.54	2258.91
343.75	2357.21
343.96	2160.61
344.17	2127.84
344.38	2252.77
344.60	2162.66
344.81	2125.79
345.02	2109.41
345.23	2330.59
345.44	2465.75
345.65	2258.91
345.86	2265.05
346.07	2148.32
346.29	2154.46
346.50	2174.94
346.71	2285.53
346.92	2414.56
347.13	2318.30
347.34	2084.83
347.55	2168.80
347.76	2246.62
347.98	2019.30
348.19	2209.76
348.40	2224.09
348.61	2176.99
348.82	2279.39
349.03	2244.57
349.24	2172.89
349.45	2303.96
349.66	1943.52
349.88	2248.67
350.09	2150.37
350.30	2275.29
350.51	2240.48
350.72	2201.57
350.93	2224.09
351.14	2154.46
351.35	2203.61
351.56	2211.81
351.77	2211.81
351.99	2293.72
352.20	2402.27
352.41	2303.96
352.62	2029.54
352.83	2281.44
353.04	2138.08
353.25	2217.95
353.46	2248.67
353.67	2277.34
353.88	2045.92
354.09	2222.05
354.30	2101.22
354.52	2193.37
354.73	2209.76
354.94	2131.94
355.15	2166.75
355.36	2283.49
355.57	2176.99
355.78	2131.94
355.99	2148.32
356.20	2105.31
356.41	2326.49
356.62	2246.62
356.83	2215.90
357.04	2326.49
357.25	2064.35
357.46	2152.42
357.68	2068.45
357.89	2109.41
358.10	2258.91
358.31	2138.08
358.52	2172.89
358.73	2113.50
358.94	2195.42
359.15	2060.26
359.36	2271.20
359.57	2244.57
359.78	2215.90
359.99	2220.00
360.20	2056.16
360.41	2189.28
360.62	2240.48
360.83	2187.23
361.04	2199.52
361.25	2187.23
361.46	2326.49
361.67	2203.61
361.88	2220.00
362.09	2297.82
362.30	2260.96
362.51	2160.61
362.72	2215.90
362.93	2254.81
363.14	2242.53
363.35	2277.34
363.56	2133.98
363.78	2293.72
363.99	2295.77
364.20	2187.23
364.41	2129.89
364.62	2373.60
364.83	2197.47
365.04	2162.66
365.25	2191.33
365.46	2408.41
365.67	2068.45
365.88	2267.10
366.09	2205.66
366.30	2154.46
366.51	2234.33
366.72	2078.69
366.93	2136.03
367.14	2170.85
367.35	2328.54
367.56	2154.46
367.77	2291.68
367.98	2260.96
368.18	2361.31
368.39	2209.76
368.60	2117.60
368.81	2250.72
369.02	2199.52
369.23	2222.05
369.44	2084.83
369.65	2226.14
369.86	2205.66
370.07	2230.24
370.28	2095.07
370.49	2273.25
370.70	2187.23
370.91	2086.88
371.12	2101.22
371.33	2252.77
371.54	2211.81
371.75	2291.68
371.96	1998.82
372.17	2228.19
372.38	2185.18
372.59	2258.91
372.80	2129.89
373.01	2201.57
373.22	2297.82
373.43	2185.18
373.64	2060.26
373.85	2351.07
374.06	2314.20
374.26	2271.20
374.47	2176.99
374.68	2301.92
374.89	2220.00
375.10	2176.99
375.31	2256.86
375.52	2226.14
375.73	2209.76
375.94	2058.21
376.15	2375.64
376.36	2146.27
376.57	2121.70
376.78	2185.18
376.99	2265.05
377.20	2310.11
377.40	2107.36
377.61	2326.49
377.82	2072.54
378.03	2377.69
378.24	2400.22
378.45	2154.46
378.66	2234.33
378.87	2068.45
379.08	2070.50
379.29	2080.74
379.50	2297.82
379.71	2144.22
379.91	2123.74
380.12	2105.31
380.33	2230.24
380.54	2201.57
380.75	2125.79
380.96	2185.18
381.17	2234.33
381.38	2232.29
381.59	2207.71
381.80	2220.00
382.00	2346.97
382.21	2349.02
382.42	2320.35
382.63	2430.94
382.84	2183.13
383.05	2375.64
383.26	2365.40
383.47	2201.57
383.68	2187.23
383.88	2230.24
384.09	2197.47
384.30	2371.55
384.51	2170.85
384.72	2158.56
384.93	2150.37
385.14	2189.28
385.35	2334.68
385.55	2027.49
385.76	2273.25
385.97	2131.94
386.18	2025.44
386.39	2080.74
386.60	2181.09
386.81	2146.27
387.02	2103.26
387.22	2025.44
387.43	2308.06
387.64	2303.96
387.85	2342.88
388.06	2490.33
388.27	4065.22
388.48	8490.88
388.68	12132.17
388.89	14440.23
389.10	15488.79
389.31	14575.39
389.52	11226.96
389.73	9770.86
389.93	8863.61
390.14	8128.39
390.35	7333.78
390.56	6469.53
390.77	5167.03
390.98	4097.99
391.18	3225.55
391.39	2639.83
391.60	2357.21
391.81	2334.68
392.02	2121.70
392.23	2424.80
392.43	2179.04
392.64	2400.22
392.85	2170.85
393.06	2383.84
393.27	2258.91
393.47	2197.47
393.68	2209.76
393.89	2166.75
394.10	2250.72
394.31	2168.80
394.52	2121.70
394.72	2193.37
394.93	2357.21
395.14	2105.31
395.35	2355.16
395.56	2172.89
395.76	2211.81
395.97	2213.85
396.18	2256.86
396.39	2342.88
396.60	2684.89
396.80	2375.64
397.01	2437.08
397.22	2381.79
397.43	2291.68
397.64	2115.55
397.84	2324.44
398.05	2490.33
398.26	2275.29
398.47	2342.88
398.67	2289.63
398.88	2252.77
399.09	2236.38
399.30	2187.23
399.51	2269.15
399.71	2172.89
399.92	2226.14
400.13	2246.62
400.34	2160.61
400.54	2256.86
400.75	2406.36
400.96	2310.11
401.17	2359.26
401.37	2244.57
401.58	2170.85
401.79	2220.00
402.00	2324.44
402.21	2602.97
402.41	2539.48
402.62	2588.63
402.83	2674.65
403.04	2650.07
403.24	2801.62
403.45	2387.93
403.66	2465.75
403.87	2424.80
404.07	2408.41
404.28	2428.89
404.49	2467.80
404.70	2308.06
404.90	2254.81
405.11	2232.29
405.32	2224.09
405.52	2160.61
405.73	2093.02
405.94	2086.88
406.15	2197.47
406.35	2291.68
406.56	2236.38
406.77	2267.10
406.98	2095.07
407.18	2115.55
407.39	2379.74
407.60	2187.23
407.80	2228.19
408.01	2197.47
408.22	2187.23
408.43	2117.60
408.63	2312.16
408.84	2277.34
409.05	2322.40
409.25	2170.85
409.46	2072.54
409.67	2117.60
409.88	2113.50
410.08	2220.00
410.29	2162.66
410.50	2277.34
410.70	2201.57
410.91	2113.50
411.12	2197.47
411.32	2199.52
411.53	2084.83
411.74	2289.63
411.95	2252.77
412.15	2275.29
412.36	2267.10
412.57	2287.58
412.77	2363.36
412.98	2252.77
413.19	2220.00
413.39	2293.72
413.60	2230.24
413.81	2310.11
414.01	2086.88
414.22	2215.90
414.43	2295.77
414.63	2113.50
414.84	2303.96
415.05	2248.67
415.25	2107.36
415.46	2250.72
415.67	2197.47
415.87	2195.42
416.08	2215.90
416.29	2138.08
416.49	2195.42
416.70	2187.23
416.91	2174.94
417.11	2217.95
417.32	2310.11
417.53	2285.53
417.73	2172.89
417.94	2154.46
418.15	2314.20
418.35	2144.22
418.56	2207.71
418.77	2480.09
418.97	2170.85
419.18	2193.37
419.38	1966.05
419.59	2201.57
419.80	2301.92
420.00	2183.13
420.21	2242.53
420.42	2287.58
420.62	2283.49
420.83	2187.23
421.04	2166.75
421.24	2113.50
421.45	2248.67
421.65	2303.96
421.86	2162.66
422.07	2263.01
422.27	2306.01
422.48	2203.61
422.69	2084.83
422.89	2256.86
423.10	2189.28
423.30	2078.69
423.51	2207.71
423.72	2267.10
423.92	2324.44
424.13	2095.07
424.33	2236.38
424.54	2326.49
424.75	2226.14
424.95	2318.30
425.16	2181.09
425.36	2170.85
425.57	2256.86
425.78	2252.77
425.98	2293.72
426.19	2176.99
426.39	2039.78
426.60	2160.61
426.81	2363.36
427.01	2232.29
427.22	2105.31
427.42	2054.11
427.63	2160.61
427.83	2252.77
428.04	2428.89
428.25	2416.60
428.45	2310.11
428.66	2260.96
428.86	2164.70
429.07	2127.84
429.28	2244.57
429.48	2150.37
429.69	2090.98
429.89	2217.95
430.10	2027.49
430.30	2265.05
430.51	2338.78
430.71	2170.85
430.92	2125.79
431.13	2138.08
431.33	2248.67
431.54	2234.33
431.74	2351.07
431.95	2418.65
432.15	2090.98
432.36	2152.42
432.56	2369.50
432.77	2322.40
432.98	2342.88
433.18	2240.48
433.39	2125.79
433.59	2179.04
433.80	2281.44
434.00	2428.89
434.21	2160.61
434.41	2093.02
434.62	2461.66
434.82	2074.59
435.03	2054.11
435.23	2242.53
435.44	1978.34
435.64	2211.81
435.85	2193.37
436.06	2291.68
436.26	2285.53
436.47	2228.19
436.67	2078.69
436.88	2168.80
437.08	2314.20
437.29	2256.86
437.49	2310.11
437.70	2322.40
437.90	2236.38
438.11	2398.17
438.31	2271.20
438.52	2342.88
438.72	2398.17
438.93	2447.32
439.13	2357.21
439.34	2340.83
439.54	2244.57
439.75	2234.33
439.95	2277.34
440.16	2209.76
440.36	2269.15
440.57	2236.38
440.77	2166.75
440.98	2263.01
441.18	2209.76
441.39	2068.45
441.59	2029.54
441.80	2492.38
442.00	2199.52
442.21	2265.05
442.41	2084.83
442.62	2271.20
442.82	2119.65
443.02	2150.37
443.23	2246.62
443.43	2228.19
443.64	2344.92
443.84	2086.88
444.05	2346.97
444.25	2269.15
444.46	2166.75
444.66	2183.13
444.87	2324.44
445.07	2138.08
445.28	2144.22
445.48	2355.16
445.69	2224.09
445.89	2459.61
446.09	2246.62
446.30	2480.09
446.50	2901.97
446.71	4485.05
446.91	5603.24
447.12	6295.46
447.32	6649.75
447.53	6156.19
447.73	5107.63
447.93	4415.42
448.14	4274.11
448.34	4050.88
448.55	3577.80
448.75	3434.44
448.96	3407.82
449.16	2924.50
449.36	2838.48
449.57	2490.33
449.77	2363.36
449.98	2244.57
450.18	2293.72
450.39	2277.34
450.59	2263.01
450.79	2176.99
451.00	2176.99
451.20	2285.53
451.41	2244.57
451.61	2260.96
451.81	2254.81
452.02	2195.42
452.22	2179.04
452.43	2138.08
452.63	2181.09
