SpectraSuite Data File
++++++++++++++++++++++++++++++++++++
Date: Thu May 05 12:35:41 CEST 2016
User: root
Dark Spectrum Present: No
Reference Spectrum Present: No
Number of Sampled Component Spectra: 1
Spectrometers: USB4C02835
Integration Time (usec): 100000 (USB4C02835)
Spectra Averaged: 1 (USB4C02835)
Boxcar Smoothing: 0 (USB4C02835)
Correct for Electrical Dark: No (USB4C02835)
Strobe/Lamp Enabled: No (USB4C02835)
Correct for Detector Non-linearity: No (USB4C02835)
Correct for Stray Light: No (USB4C02835)
Number of Pixels in Processed Spectrum: 3648
>>>>>Begin Processed Spectral Data<<<<<
177.47	1716.20
177.69	1716.20
177.91	1716.20
178.13	1767.40
178.36	1785.83
178.58	2172.89
178.80	2250.72
179.02	2056.16
179.24	2129.89
179.46	2119.65
179.68	2136.03
179.90	2138.08
180.13	2193.37
180.35	2093.02
180.57	2103.26
180.79	2275.29
181.01	2146.27
181.23	2252.77
181.45	2240.48
181.67	2207.71
181.90	2281.44
182.12	2105.31
182.34	2144.22
182.56	2240.48
182.78	2217.95
183.00	2097.12
183.22	2084.83
183.44	2017.25
183.66	2473.95
183.89	2224.09
184.11	2162.66
184.33	2252.77
184.55	2293.72
184.77	2109.41
184.99	2072.54
185.21	2109.41
185.43	2463.71
185.65	2072.54
185.87	2133.98
186.10	2389.98
186.32	2447.32
186.54	2240.48
186.76	2150.37
186.98	2260.96
187.20	2183.13
187.42	2136.03
187.64	2074.59
187.86	2273.25
188.08	2297.82
188.30	2142.18
188.52	2142.18
188.75	2258.91
188.97	2301.92
189.19	2088.93
189.41	2105.31
189.63	2236.38
189.85	2131.94
190.07	1957.86
190.29	2015.20
190.51	2252.77
190.73	2125.79
190.95	2269.15
191.17	2181.09
191.39	2060.26
191.61	2193.37
191.84	2086.88
192.06	2140.13
192.28	2095.07
192.50	2590.68
192.72	2183.13
192.94	2176.99
193.16	2283.49
193.38	2285.53
193.60	2070.50
193.82	2191.33
194.04	2256.86
194.26	2277.34
194.48	2160.61
194.70	2035.68
194.92	2101.22
195.14	2269.15
195.36	2090.98
195.58	2265.05
195.80	2189.28
196.02	2144.22
196.24	2097.12
196.46	2199.52
196.69	2138.08
196.91	2336.73
197.13	2080.74
197.35	2101.22
197.57	2312.16
197.79	2256.86
198.01	2150.37
198.23	2224.09
198.45	2211.81
198.67	2117.60
198.89	2072.54
199.11	2205.66
199.33	2103.26
199.55	1982.43
199.77	2150.37
199.99	2226.14
200.21	2154.46
200.43	2271.20
200.65	1974.24
200.87	2009.06
201.09	2199.52
201.31	2183.13
201.53	2176.99
201.75	2183.13
201.97	2203.61
202.19	2183.13
202.41	2207.71
202.63	2269.15
202.85	2201.57
203.07	2269.15
203.29	2068.45
203.51	2056.16
203.73	2111.46
203.95	2545.63
204.17	2142.18
204.39	2179.04
204.61	2129.89
204.83	2199.52
205.05	2142.18
205.27	2271.20
205.49	2410.46
205.71	2154.46
205.93	2011.11
206.15	2082.78
206.37	2207.71
206.59	2133.98
206.81	2088.93
207.03	2086.88
207.25	2095.07
207.47	2297.82
207.69	2027.49
207.91	2193.37
208.13	2430.94
208.34	2213.85
208.56	2125.79
208.78	2174.94
209.00	2109.41
209.22	2111.46
209.44	2176.99
209.66	2146.27
209.88	2209.76
210.10	2152.42
210.32	2105.31
210.54	2242.53
210.76	2154.46
210.98	2201.57
211.20	1933.28
211.42	2209.76
211.64	2277.34
211.86	2252.77
212.08	2238.43
212.30	2074.59
212.52	2283.49
212.74	2236.38
212.96	2160.61
213.17	2236.38
213.39	2201.57
213.61	2265.05
213.83	2176.99
214.05	2154.46
214.27	2273.25
214.49	2121.70
214.71	2029.54
214.93	2275.29
215.15	2142.18
215.37	2320.35
215.59	2025.44
215.81	2176.99
216.03	2285.53
216.24	2244.57
216.46	2093.02
216.68	2176.99
216.90	2283.49
217.12	2351.07
217.34	2129.89
217.56	2179.04
217.78	2293.72
218.00	2254.81
218.22	2162.66
218.44	2250.72
218.66	2201.57
218.87	2392.03
219.09	2093.02
219.31	2246.62
219.53	2205.66
219.75	2109.41
219.97	2191.33
220.19	2097.12
220.41	2170.85
220.63	2342.88
220.85	2174.94
221.06	2093.02
221.28	2277.34
221.50	2322.40
221.72	2129.89
221.94	2076.64
222.16	2170.85
222.38	2232.29
222.60	2138.08
222.82	2107.36
223.03	2281.44
223.25	2072.54
223.47	2070.50
223.69	2275.29
223.91	2275.29
224.13	2201.57
224.35	2027.49
224.57	2256.86
224.78	2248.67
225.00	2107.36
225.22	2162.66
225.44	2101.22
225.66	2279.39
225.88	2201.57
226.10	2230.24
226.32	2158.56
226.53	2330.59
226.75	2109.41
226.97	2101.22
227.19	2138.08
227.41	2111.46
227.63	2150.37
227.85	2039.78
228.06	2185.18
228.28	2142.18
228.50	2230.24
228.72	2013.15
228.94	2148.32
229.16	2101.22
229.37	2050.02
229.59	2068.45
229.81	2199.52
230.03	2125.79
230.25	2064.35
230.47	2037.73
230.69	2064.35
230.90	2240.48
231.12	2162.66
231.34	2121.70
231.56	2254.81
231.78	2150.37
232.00	2084.83
232.21	2076.64
232.43	2138.08
232.65	2035.68
232.87	2252.77
233.09	2070.50
233.30	2113.50
233.52	2314.20
233.74	2125.79
233.96	2041.82
234.18	2183.13
234.40	2176.99
234.61	2412.51
234.83	2084.83
235.05	2107.36
235.27	2459.61
235.49	2422.75
235.70	2136.03
235.92	2220.00
236.14	2299.87
236.36	2406.36
236.58	2039.78
236.79	2179.04
237.01	2275.29
237.23	2260.96
237.45	2236.38
237.67	2084.83
237.88	2318.30
238.10	2379.74
238.32	1990.63
238.54	2181.09
238.76	2164.70
238.97	2125.79
239.19	2056.16
239.41	2156.51
239.63	2355.16
239.85	2088.93
240.06	2138.08
240.28	2078.69
240.50	2265.05
240.72	2224.09
240.93	2064.35
241.15	2201.57
241.37	2193.37
241.59	2349.02
241.81	2060.26
242.02	2179.04
242.24	2326.49
242.46	2256.86
242.68	2105.31
242.89	2101.22
243.11	2269.15
243.33	2095.07
243.55	2168.80
243.76	2109.41
243.98	2123.74
244.20	2209.76
244.42	2113.50
244.64	2162.66
244.85	2072.54
245.07	2047.97
245.29	2160.61
245.51	2203.61
245.72	2254.81
245.94	2365.40
246.16	2072.54
246.38	2203.61
246.59	2125.79
246.81	2170.85
247.03	2056.16
247.24	2054.11
247.46	2181.09
247.68	2213.85
247.90	2084.83
248.11	2058.21
248.33	2340.83
248.55	2174.94
248.77	2117.60
248.98	2142.18
249.20	2283.49
249.42	2281.44
249.64	2174.94
249.85	2129.89
250.07	2084.83
250.29	2326.49
250.50	2138.08
250.72	2029.54
250.94	2199.52
251.16	2416.60
251.37	2105.31
251.59	2162.66
251.81	2205.66
252.02	2306.01
252.24	2074.59
252.46	2215.90
252.68	2097.12
252.89	2093.02
253.11	2004.96
253.33	2211.81
253.54	2392.03
253.76	2095.07
253.98	2080.74
254.20	2082.78
254.41	2058.21
254.63	2174.94
254.85	2052.06
255.06	2166.75
255.28	2248.67
255.50	2220.00
255.71	2103.26
255.93	1980.39
256.15	2226.14
256.36	2269.15
256.58	2099.17
256.80	2156.51
257.02	2162.66
257.23	2236.38
257.45	2166.75
257.67	2162.66
257.88	2129.89
258.10	2234.33
258.32	2148.32
258.53	2121.70
258.75	2301.92
258.97	2154.46
259.18	2121.70
259.40	2097.12
259.62	2389.98
259.83	2367.45
260.05	2121.70
260.27	2541.53
260.48	2322.40
260.70	2113.50
260.92	2121.70
261.13	2222.05
261.35	2248.67
261.57	2205.66
261.78	2007.01
262.00	2045.92
262.22	2185.18
262.43	2144.22
262.65	2136.03
262.86	2140.13
263.08	2445.27
263.30	2166.75
263.51	2015.20
263.73	2099.17
263.95	2336.73
264.16	2162.66
264.38	2166.75
264.60	2068.45
264.81	2209.76
265.03	2275.29
265.25	2258.91
265.46	2103.26
265.68	2365.40
265.89	2275.29
266.11	2035.68
266.33	2205.66
266.54	2308.06
266.76	2244.57
266.98	2152.42
267.19	2269.15
267.41	2285.53
267.62	2193.37
267.84	2035.68
268.06	2246.62
268.27	2146.27
268.49	2355.16
268.70	2185.18
268.92	2185.18
269.14	2099.17
269.35	2088.93
269.57	2228.19
269.79	2174.94
270.00	2138.08
270.22	2308.06
270.43	2072.54
270.65	2029.54
270.87	2191.33
271.08	2322.40
271.30	2181.09
271.51	2136.03
271.73	2252.77
271.95	2398.17
272.16	2154.46
272.38	2119.65
272.59	2185.18
272.81	2277.34
273.02	2207.71
273.24	2160.61
273.46	2340.83
273.67	2080.74
273.89	2031.58
274.10	2113.50
274.32	2215.90
274.54	2193.37
274.75	2207.71
274.97	2125.79
275.18	2236.38
275.40	2277.34
275.61	2127.84
275.83	2193.37
276.05	2047.97
276.26	2228.19
276.48	2226.14
276.69	2152.42
276.91	2154.46
277.12	2232.29
277.34	2289.63
277.55	2283.49
277.77	2179.04
277.99	2148.32
278.20	2050.02
278.42	2105.31
278.63	2099.17
278.85	2133.98
279.06	2054.11
279.28	2199.52
279.49	2248.67
279.71	2256.86
279.93	2215.90
280.14	2269.15
280.36	2105.31
280.57	2279.39
280.79	2236.38
281.00	2066.40
281.22	2131.94
281.43	2297.82
281.65	2064.35
281.86	2138.08
282.08	2240.48
282.29	2392.03
282.51	2088.93
282.73	2103.26
282.94	2023.39
283.16	2207.71
283.37	2351.07
283.59	2211.81
283.80	2256.86
284.02	2191.33
284.23	2256.86
284.45	2201.57
284.66	2197.47
284.88	2115.55
285.09	2131.94
285.31	2267.10
285.52	2267.10
285.74	1996.77
285.95	2205.66
286.17	2176.99
286.38	2281.44
286.60	2203.61
286.81	2111.46
287.03	2113.50
287.24	2217.95
287.46	2258.91
287.67	2160.61
287.89	2344.92
288.10	2207.71
288.32	2203.61
288.53	2342.88
288.75	2211.81
288.96	2242.53
289.18	2162.66
289.39	2121.70
289.61	2168.80
289.82	2430.94
290.04	2353.12
290.25	2080.74
290.47	2248.67
290.68	2084.83
290.90	2359.26
291.11	2068.45
291.33	2220.00
291.54	2084.83
291.76	2133.98
291.97	2263.01
292.18	2220.00
292.40	2127.84
292.61	2109.41
292.83	2334.68
293.04	2232.29
293.26	2256.86
293.47	2172.89
293.69	2058.21
293.90	2154.46
294.12	2314.20
294.33	2244.57
294.55	2183.13
294.76	2228.19
294.97	2301.92
295.19	2400.22
295.40	2095.07
295.62	2179.04
295.83	2318.30
296.05	2170.85
296.26	2334.68
296.48	2129.89
296.69	2220.00
296.90	2215.90
297.12	2232.29
297.33	2332.64
297.55	2181.09
297.76	2203.61
297.98	2224.09
298.19	2211.81
298.41	2209.76
298.62	2117.60
298.83	2342.88
299.05	2271.20
299.26	2150.37
299.48	2162.66
299.69	2172.89
299.90	2195.42
300.12	2144.22
300.33	2236.38
300.55	2136.03
300.76	2193.37
300.98	2047.97
301.19	2295.77
301.40	2154.46
301.62	2160.61
301.83	2228.19
302.05	2193.37
302.26	2203.61
302.47	2170.85
302.69	2117.60
302.90	2232.29
303.12	2050.02
303.33	2220.00
303.54	2371.55
303.76	2170.85
303.97	2129.89
304.19	2291.68
304.40	2107.36
304.61	2244.57
304.83	2318.30
305.04	2283.49
305.26	2299.87
305.47	2252.77
305.68	2174.94
305.90	2154.46
306.11	2318.30
306.33	2121.70
306.54	2097.12
306.75	2113.50
306.97	2070.50
307.18	2158.56
307.39	2117.60
307.61	2252.77
307.82	2211.81
308.04	2195.42
308.25	2047.97
308.46	2236.38
308.68	2220.00
308.89	2209.76
309.10	2254.81
309.32	2312.16
309.53	2181.09
309.74	2136.03
309.96	2209.76
310.17	2342.88
310.39	2168.80
310.60	2252.77
310.81	2164.70
311.03	2121.70
311.24	2267.10
311.45	2195.42
311.67	2365.40
311.88	2162.66
312.09	2086.88
312.31	2123.74
312.52	2099.17
312.73	2222.05
312.95	2099.17
313.16	2125.79
313.37	2291.68
313.59	2267.10
313.80	2293.72
314.01	2344.92
314.23	2119.65
314.44	2123.74
314.65	2070.50
314.87	2121.70
315.08	2164.70
315.29	2113.50
315.51	2056.16
315.72	2070.50
315.93	2289.63
316.15	2236.38
316.36	2150.37
316.57	2181.09
316.79	2258.91
317.00	2183.13
317.21	2217.95
317.43	2111.46
317.64	2273.25
317.85	2117.60
318.07	2074.59
318.28	2176.99
318.49	2406.36
318.70	2482.14
318.92	2340.83
319.13	2371.55
319.34	2441.18
319.56	2244.57
319.77	2346.97
319.98	2330.59
320.20	2267.10
320.41	2301.92
320.62	2250.72
320.83	2136.03
321.05	2392.03
321.26	2242.53
321.47	2299.87
321.69	2365.40
321.90	2103.26
322.11	2074.59
322.32	2183.13
322.54	2381.79
322.75	2160.61
322.96	2463.71
323.18	2090.98
323.39	2097.12
323.60	2131.94
323.81	2289.63
324.03	2076.64
324.24	2275.29
324.45	2220.00
324.66	2193.37
324.88	2201.57
325.09	2310.11
325.30	2138.08
325.52	2183.13
325.73	2248.67
325.94	2066.40
326.15	2037.73
326.37	2111.46
326.58	2338.78
326.79	2396.12
327.00	2154.46
327.22	2179.04
327.43	2164.70
327.64	2179.04
327.85	2215.90
328.07	2201.57
328.28	2346.97
328.49	2052.06
328.70	2133.98
328.92	2146.27
329.13	2183.13
329.34	2291.68
329.55	2277.34
329.76	2252.77
329.98	2236.38
330.19	2273.25
330.40	2187.23
330.61	2193.37
330.83	2277.34
331.04	2158.56
331.25	2265.05
331.46	2174.94
331.68	2052.06
331.89	2209.76
332.10	2181.09
332.31	2070.50
332.52	2146.27
332.74	2267.10
332.95	2088.93
333.16	2133.98
333.37	2271.20
333.58	2191.33
333.80	2140.13
334.01	2105.31
334.22	2271.20
334.43	2095.07
334.64	2123.74
334.86	2029.54
335.07	2076.64
335.28	2332.64
335.49	2070.50
335.70	2215.90
335.92	2277.34
336.13	2428.89
336.34	2168.80
336.55	2220.00
336.76	2256.86
336.98	2033.63
337.19	2084.83
337.40	2265.05
337.61	2414.56
337.82	2170.85
338.04	2334.68
338.25	2047.97
338.46	2209.76
338.67	2105.31
338.88	2088.93
339.09	2111.46
339.31	2088.93
339.52	2078.69
339.73	2121.70
339.94	2156.51
340.15	2299.87
340.36	2189.28
340.58	2160.61
340.79	2064.35
341.00	2269.15
341.21	2050.02
341.42	2269.15
341.63	2263.01
341.85	2236.38
342.06	2244.57
342.27	2117.60
342.48	2258.91
342.69	2105.31
342.90	2228.19
343.12	2269.15
343.33	2125.79
343.54	2281.44
343.75	2314.20
343.96	2086.88
344.17	2146.27
344.38	2158.56
344.60	2105.31
344.81	2152.42
345.02	2101.22
345.23	2220.00
345.44	2445.27
345.65	2299.87
345.86	2226.14
346.07	2144.22
346.29	2199.52
346.50	2207.71
346.71	2234.33
346.92	2377.69
347.13	2435.03
347.34	2154.46
347.55	2187.23
347.76	2258.91
347.98	2033.63
348.19	2185.18
348.40	2265.05
348.61	2224.09
348.82	2326.49
349.03	2238.43
349.24	2140.13
349.45	2402.27
349.66	1992.67
349.88	2148.32
350.09	2113.50
350.30	2322.40
350.51	2297.82
350.72	2158.56
350.93	2174.94
351.14	2121.70
351.35	2236.38
351.56	2144.22
351.77	2203.61
351.99	2181.09
352.20	2297.82
352.41	2279.39
352.62	2064.35
352.83	2187.23
353.04	2193.37
353.25	2136.03
353.46	2220.00
353.67	2310.11
353.88	2007.01
354.09	2244.57
354.30	2207.71
354.52	2260.96
354.73	2217.95
354.94	2136.03
355.15	2193.37
355.36	2414.56
355.57	2047.97
355.78	2158.56
355.99	2158.56
356.20	2174.94
356.41	2365.40
356.62	2217.95
356.83	2209.76
357.04	2299.87
357.25	2037.73
357.46	2170.85
357.68	2054.11
357.89	2179.04
358.10	2230.24
358.31	2140.13
358.52	2154.46
358.73	2129.89
358.94	2121.70
359.15	2121.70
359.36	2308.06
359.57	2189.28
359.78	2095.07
359.99	2310.11
360.20	2080.74
360.41	2080.74
360.62	2242.53
360.83	2236.38
361.04	2244.57
361.25	2228.19
361.46	2418.65
361.67	2240.48
361.88	2236.38
362.09	2232.29
362.30	2207.71
362.51	2101.22
362.72	2160.61
362.93	2336.73
363.14	2281.44
363.35	2201.57
363.56	2082.78
363.78	2301.92
363.99	2332.64
364.20	2103.26
364.41	2176.99
364.62	2285.53
364.83	2209.76
365.04	2097.12
365.25	2199.52
365.46	2340.83
365.67	2158.56
365.88	2113.50
366.09	2068.45
366.30	2140.13
366.51	2174.94
366.72	2121.70
366.93	2187.23
367.14	2269.15
367.35	2291.68
367.56	2115.55
367.77	2303.96
367.98	2164.70
368.18	2209.76
368.39	2170.85
368.60	2115.55
368.81	2314.20
369.02	2203.61
369.23	2176.99
369.44	2125.79
369.65	2183.13
369.86	2226.14
370.07	2275.29
370.28	2105.31
370.49	2258.91
370.70	2312.16
370.91	2099.17
371.12	2113.50
371.33	2289.63
371.54	2199.52
371.75	2301.92
371.96	2027.49
372.17	2222.05
372.38	2133.98
372.59	2265.05
372.80	2140.13
373.01	2172.89
373.22	2183.13
373.43	2205.66
373.64	2068.45
373.85	2330.59
374.06	2373.60
374.26	2232.29
374.47	2252.77
374.68	2338.78
374.89	2215.90
375.10	2131.94
375.31	2238.43
375.52	2187.23
375.73	2228.19
375.94	2123.74
376.15	2285.53
376.36	2150.37
376.57	2191.33
376.78	2138.08
376.99	2160.61
377.20	2371.55
377.40	2050.02
377.61	2324.44
377.82	2220.00
378.03	2308.06
378.24	2203.61
378.45	2142.18
378.66	2215.90
378.87	2054.11
379.08	2136.03
379.29	2113.50
379.50	2340.83
379.71	2129.89
379.91	2254.81
380.12	2187.23
380.33	2211.81
380.54	2224.09
380.75	2228.19
380.96	2166.75
381.17	2256.86
381.38	2269.15
381.59	2236.38
381.80	2209.76
382.00	2365.40
382.21	2265.05
382.42	2334.68
382.63	2432.99
382.84	2279.39
383.05	2398.17
383.26	2346.97
383.47	2174.94
383.68	2263.01
383.88	2228.19
384.09	2170.85
384.30	2367.45
384.51	2236.38
384.72	2174.94
384.93	2099.17
385.14	2121.70
385.35	2248.67
385.55	2070.50
385.76	2287.58
385.97	2160.61
386.18	2144.22
386.39	2150.37
386.60	2170.85
386.81	2195.42
387.02	2109.41
387.22	2162.66
387.43	2267.10
387.64	2291.68
387.85	2279.39
388.06	2404.32
388.27	4052.93
388.48	8599.42
388.68	12265.28
388.89	14616.35
389.10	16002.83
389.31	14642.98
389.52	11224.92
389.73	9994.09
389.93	8890.23
390.14	8226.69
390.35	7296.91
390.56	6616.99
390.77	5328.81
390.98	4087.75
391.18	3266.51
391.39	2731.99
391.60	2340.83
391.81	2394.08
392.02	2166.75
392.23	2439.13
392.43	2252.77
392.64	2330.59
392.85	2211.81
393.06	2316.25
393.27	2199.52
393.47	2160.61
393.68	2193.37
393.89	2113.50
394.10	2232.29
394.31	2197.47
394.52	2113.50
394.72	2201.57
394.93	2346.97
395.14	2084.83
395.35	2303.96
395.56	2078.69
395.76	2179.04
395.97	2199.52
396.18	2306.01
396.39	2297.82
396.60	2654.17
396.80	2357.21
397.01	2367.45
397.22	2373.60
397.43	2398.17
397.64	2220.00
397.84	2351.07
398.05	2504.67
398.26	2232.29
398.47	2293.72
398.67	2265.05
398.88	2242.53
399.09	2287.58
399.30	2093.02
399.51	2267.10
399.71	2158.56
399.92	2127.84
400.13	2199.52
400.34	2256.86
400.54	2240.48
400.75	2389.98
400.96	2195.42
401.17	2324.44
401.37	2308.06
401.58	2193.37
401.79	2209.76
402.00	2273.25
402.21	2541.53
402.41	2531.29
402.62	2535.39
402.83	2766.81
403.04	2672.60
403.24	2766.81
403.45	2416.60
403.66	2555.86
403.87	2449.37
404.07	2459.61
404.28	2459.61
404.49	2363.36
404.70	2238.43
404.90	2308.06
405.11	2220.00
405.32	2217.95
405.52	2125.79
405.73	2103.26
405.94	2101.22
406.15	2220.00
406.35	2258.91
406.56	2295.77
406.77	2271.20
406.98	2213.85
407.18	2039.78
407.39	2310.11
407.60	2156.51
407.80	2312.16
408.01	2097.12
408.22	2250.72
408.43	2117.60
408.63	2217.95
408.84	2220.00
409.05	2244.57
409.25	2105.31
409.46	2088.93
409.67	2160.61
409.88	2179.04
410.08	2220.00
410.29	2156.51
410.50	2240.48
410.70	2215.90
410.91	2138.08
411.12	2203.61
411.32	2170.85
411.53	2203.61
411.74	2273.25
411.95	2283.49
412.15	2308.06
412.36	2365.40
412.57	2283.49
412.77	2338.78
412.98	2248.67
413.19	2217.95
413.39	2310.11
413.60	2279.39
413.81	2365.40
414.01	2172.89
414.22	2187.23
414.43	2234.33
414.63	2158.56
414.84	2367.45
415.05	2183.13
415.25	2052.06
415.46	2252.77
415.67	2101.22
415.87	2170.85
416.08	2150.37
416.29	2111.46
416.49	2183.13
416.70	2131.94
416.91	2174.94
417.11	2301.92
417.32	2316.25
417.53	2224.09
417.73	2273.25
417.94	2162.66
418.15	2220.00
418.35	2162.66
418.56	2174.94
418.77	2377.69
418.97	2301.92
419.18	2152.42
419.38	2047.97
419.59	2209.76
419.80	2428.89
420.00	2185.18
420.21	2162.66
420.42	2359.26
420.62	2301.92
420.83	2115.55
421.04	2160.61
421.24	2095.07
421.45	2260.96
421.65	2226.14
421.86	2113.50
422.07	2258.91
422.27	2199.52
422.48	2228.19
422.69	2125.79
422.89	2129.89
423.10	2150.37
423.30	2052.06
423.51	2314.20
423.72	2193.37
423.92	2176.99
424.13	2043.87
424.33	2226.14
424.54	2342.88
424.75	2148.32
424.95	2398.17
425.16	2189.28
425.36	2142.18
425.57	2306.01
425.78	2168.80
425.98	2260.96
426.19	2154.46
426.39	2121.70
426.60	2129.89
426.81	2328.54
427.01	2250.72
427.22	2095.07
427.42	2072.54
427.63	2111.46
427.83	2240.48
428.04	2291.68
428.25	2252.77
428.45	2297.82
428.66	2383.84
428.86	2199.52
429.07	2232.29
429.28	2183.13
429.48	2293.72
429.69	2144.22
429.89	2201.57
430.10	2136.03
430.30	2211.81
430.51	2375.64
430.71	2162.66
430.92	2254.81
431.13	2136.03
431.33	2267.10
431.54	2131.94
431.74	2316.25
431.95	2502.62
432.15	2072.54
432.36	2195.42
432.56	2224.09
432.77	2342.88
432.98	2336.73
433.18	2170.85
433.39	2207.71
433.59	2162.66
433.80	2283.49
434.00	2400.22
434.21	2250.72
434.41	2150.37
434.62	2465.75
434.82	2093.02
435.03	2187.23
435.23	2187.23
435.44	2084.83
435.64	2174.94
435.85	2215.90
436.06	2342.88
436.26	2220.00
436.47	2228.19
436.67	2205.66
436.88	2234.33
437.08	2258.91
437.29	2340.83
437.49	2240.48
437.70	2342.88
437.90	2176.99
438.11	2342.88
438.31	2277.34
438.52	2408.41
438.72	2387.93
438.93	2471.90
439.13	2193.37
439.34	2365.40
439.54	2281.44
439.75	2279.39
439.95	2312.16
440.16	2181.09
440.36	2281.44
440.57	2226.14
440.77	2236.38
440.98	2187.23
441.18	2285.53
441.39	2187.23
441.59	2101.22
441.80	2392.03
442.00	2224.09
442.21	2297.82
442.41	2115.55
442.62	2260.96
442.82	2213.85
443.02	2207.71
443.23	2183.13
443.43	2260.96
443.64	2310.11
443.84	2125.79
444.05	2310.11
444.25	2297.82
444.46	2211.81
444.66	2113.50
444.87	2381.79
445.07	2060.26
445.28	2185.18
445.48	2381.79
445.69	2281.44
445.89	2424.80
446.09	2222.05
446.30	2439.13
446.50	2883.54
446.71	4476.86
446.91	5550.00
447.12	6645.66
447.32	6836.12
447.53	6428.57
447.73	5240.75
447.93	4581.31
448.14	4220.86
448.34	4087.75
448.55	3653.58
448.75	3590.09
448.96	3502.03
449.16	3053.52
449.36	2885.59
449.57	2486.23
449.77	2332.64
449.98	2211.81
450.18	2260.96
450.39	2293.72
450.59	2361.31
450.79	2244.57
451.00	2123.74
451.20	2265.05
451.41	2197.47
451.61	2293.72
451.81	2187.23
452.02	2224.09
452.22	2228.19
452.43	2185.18
452.63	2127.84
