SpectraSuite Data File
++++++++++++++++++++++++++++++++++++
Date: Thu May 05 12:35:39 CEST 2016
User: root
Dark Spectrum Present: No
Reference Spectrum Present: No
Number of Sampled Component Spectra: 1
Spectrometers: USB4C02835
Integration Time (usec): 100000 (USB4C02835)
Spectra Averaged: 1 (USB4C02835)
Boxcar Smoothing: 0 (USB4C02835)
Correct for Electrical Dark: No (USB4C02835)
Strobe/Lamp Enabled: No (USB4C02835)
Correct for Detector Non-linearity: No (USB4C02835)
Correct for Stray Light: No (USB4C02835)
Number of Pixels in Processed Spectrum: 3648
>>>>>Begin Processed Spectral Data<<<<<
177.47	1765.35
177.69	1765.35
177.91	1765.35
178.13	1828.84
178.36	1867.75
178.58	2187.23
178.80	2250.72
179.02	2052.06
179.24	2090.98
179.46	2179.04
179.68	2213.85
179.90	2121.70
180.13	2160.61
180.35	2047.97
180.57	2074.59
180.79	2263.01
181.01	2213.85
181.23	2254.81
181.45	2170.85
181.67	2193.37
181.90	2236.38
182.12	2047.97
182.34	2050.02
182.56	2279.39
182.78	2228.19
183.00	2127.84
183.22	2093.02
183.44	1974.24
183.66	2379.74
183.89	2269.15
184.11	2097.12
184.33	2254.81
184.55	2244.57
184.77	2213.85
184.99	2107.36
185.21	2220.00
185.43	2480.09
185.65	2160.61
185.87	2148.32
186.10	2398.17
186.32	2398.17
186.54	2228.19
186.76	2113.50
186.98	2293.72
187.20	2213.85
187.42	2037.73
187.64	2093.02
187.86	2277.34
188.08	2285.53
188.30	2095.07
188.52	2133.98
188.75	2277.34
188.97	2344.92
189.19	2090.98
189.41	2105.31
189.63	2273.25
189.85	2105.31
190.07	2052.06
190.29	2131.94
190.51	2220.00
190.73	2084.83
190.95	2232.29
191.17	2162.66
191.39	2097.12
191.61	2156.51
191.84	2084.83
192.06	2234.33
192.28	2062.30
192.50	2465.75
192.72	2144.22
192.94	2181.09
193.16	2260.96
193.38	2185.18
193.60	2074.59
193.82	2164.70
194.04	2383.84
194.26	2207.71
194.48	2136.03
194.70	2054.11
194.92	2162.66
195.14	2228.19
195.36	2084.83
195.58	2088.93
195.80	2174.94
196.02	2093.02
196.24	2027.49
196.46	2232.29
196.69	2136.03
196.91	2406.36
197.13	2113.50
197.35	2088.93
197.57	2281.44
197.79	2226.14
198.01	2121.70
198.23	2168.80
198.45	2281.44
198.67	2086.88
198.89	2136.03
199.11	2199.52
199.33	2097.12
199.55	2035.68
199.77	2080.74
199.99	2144.22
200.21	2144.22
200.43	2215.90
200.65	2150.37
200.87	2019.30
201.09	2166.75
201.31	2170.85
201.53	2150.37
201.75	2260.96
201.97	2281.44
202.19	2203.61
202.41	2211.81
202.63	2285.53
202.85	2185.18
203.07	2127.84
203.29	2170.85
203.51	2099.17
203.73	2162.66
203.95	2471.90
204.17	2138.08
204.39	2224.09
204.61	2224.09
204.83	2187.23
205.05	2207.71
205.27	2164.70
205.49	2424.80
205.71	2179.04
205.93	2015.20
206.15	2136.03
206.37	2209.76
206.59	2146.27
206.81	2054.11
207.03	2056.16
207.25	2181.09
207.47	2281.44
207.69	2199.52
207.91	2351.07
208.13	2295.77
208.34	2154.46
208.56	2074.59
208.78	2213.85
209.00	2103.26
209.22	2074.59
209.44	2152.42
209.66	2086.88
209.88	2254.81
210.10	2133.98
210.32	2037.73
210.54	2230.24
210.76	2226.14
210.98	2187.23
211.20	1941.47
211.42	2131.94
211.64	2297.82
211.86	2215.90
212.08	2162.66
212.30	2097.12
212.52	2162.66
212.74	2281.44
212.96	2064.35
213.17	2176.99
213.39	2318.30
213.61	2392.03
213.83	2093.02
214.05	2226.14
214.27	2260.96
214.49	2076.64
214.71	2039.78
214.93	2226.14
215.15	2160.61
215.37	2303.96
215.59	2082.78
215.81	2260.96
216.03	2306.01
216.24	2148.32
216.46	2072.54
216.68	2136.03
216.90	2201.57
217.12	2353.12
217.34	2146.27
217.56	2142.18
217.78	2267.10
218.00	2283.49
218.22	2152.42
218.44	2205.66
218.66	2146.27
218.87	2308.06
219.09	2107.36
219.31	2103.26
219.53	2224.09
219.75	2146.27
219.97	2099.17
220.19	2156.51
220.41	2140.13
220.63	2381.79
220.85	2205.66
221.06	2097.12
221.28	2349.02
221.50	2224.09
221.72	2152.42
221.94	2113.50
222.16	2215.90
222.38	2334.68
222.60	2168.80
222.82	2097.12
223.03	2289.63
223.25	2068.45
223.47	2166.75
223.69	2383.84
223.91	2222.05
224.13	2176.99
224.35	2021.35
224.57	2244.57
224.78	2220.00
225.00	2195.42
225.22	2156.51
225.44	2101.22
225.66	2303.96
225.88	2109.41
226.10	2226.14
226.32	2164.70
226.53	2299.87
226.75	2133.98
226.97	2185.18
227.19	2133.98
227.41	2150.37
227.63	2179.04
227.85	1961.95
228.06	2103.26
228.28	2238.43
228.50	2277.34
228.72	2035.68
228.94	2076.64
229.16	2058.21
229.37	2056.16
229.59	2062.30
229.81	2195.42
230.03	2170.85
230.25	2068.45
230.47	2027.49
230.69	2023.39
230.90	2226.14
231.12	2133.98
231.34	2162.66
231.56	2248.67
231.78	2127.84
232.00	2160.61
232.21	2152.42
232.43	2156.51
232.65	1953.76
232.87	2232.29
233.09	2125.79
233.30	2140.13
233.52	2248.67
233.74	2162.66
233.96	2088.93
234.18	2217.95
234.40	2195.42
234.61	2373.60
234.83	2023.39
235.05	2039.78
235.27	2373.60
235.49	2236.38
235.70	2144.22
235.92	2248.67
236.14	2285.53
236.36	2400.22
236.58	1943.52
236.79	2246.62
237.01	2162.66
237.23	2125.79
237.45	2318.30
237.67	2115.55
237.88	2242.53
238.10	2394.08
238.32	2047.97
238.54	2045.92
238.76	2113.50
238.97	2113.50
239.19	2117.60
239.41	2248.67
239.63	2340.83
239.85	2064.35
240.06	2140.13
240.28	2052.06
240.50	2322.40
240.72	2201.57
240.93	2084.83
241.15	2232.29
241.37	2181.09
241.59	2318.30
241.81	2125.79
242.02	2133.98
242.24	2187.23
242.46	2238.43
242.68	2088.93
242.89	2123.74
243.11	2330.59
243.33	2236.38
243.55	2129.89
243.76	2172.89
243.98	2088.93
244.20	2170.85
244.42	2127.84
244.64	2215.90
244.85	2121.70
245.07	2027.49
245.29	2209.76
245.51	2058.21
245.72	2170.85
245.94	2334.68
246.16	2121.70
246.38	2185.18
246.59	2076.64
246.81	2125.79
247.03	2133.98
247.24	1941.47
247.46	2123.74
247.68	2211.81
247.90	2047.97
248.11	2095.07
248.33	2269.15
248.55	2142.18
248.77	2150.37
248.98	2256.86
249.20	2338.78
249.42	2170.85
249.64	2138.08
249.85	2090.98
250.07	2185.18
250.29	2330.59
250.50	2220.00
250.72	2076.64
250.94	2152.42
251.16	2402.27
251.37	2166.75
251.59	2164.70
251.81	2310.11
252.02	2373.60
252.24	2070.50
252.46	2197.47
252.68	2041.82
252.89	2164.70
253.11	2021.35
253.33	2289.63
253.54	2326.49
253.76	2101.22
253.98	2179.04
254.20	2121.70
254.41	2017.25
254.63	2142.18
254.85	2052.06
255.06	2123.74
255.28	2240.48
255.50	2168.80
255.71	2111.46
255.93	2021.35
256.15	2162.66
256.36	2174.94
256.58	2101.22
256.80	2154.46
257.02	2209.76
257.23	2191.33
257.45	2176.99
257.67	2142.18
257.88	2146.27
258.10	2152.42
258.32	2086.88
258.53	2105.31
258.75	2355.16
258.97	2140.13
259.18	2127.84
259.40	2090.98
259.62	2285.53
259.83	2408.41
260.05	2133.98
260.27	2504.67
260.48	2269.15
260.70	2111.46
260.92	2129.89
261.13	2115.55
261.35	2205.66
261.57	2195.42
261.78	2068.45
262.00	2109.41
262.22	2273.25
262.43	2095.07
262.65	2113.50
262.86	2129.89
263.08	2379.74
263.30	2199.52
263.51	1966.05
263.73	2031.58
263.95	2244.57
264.16	2133.98
264.38	2095.07
264.60	2058.21
264.81	2244.57
265.03	2383.84
265.25	2238.43
265.46	2117.60
265.68	2392.03
265.89	2217.95
266.11	2109.41
266.33	2160.61
266.54	2318.30
266.76	2201.57
266.98	2144.22
267.19	2166.75
267.41	2297.82
267.62	2082.78
267.84	2004.96
268.06	2144.22
268.27	2197.47
268.49	2207.71
268.70	2211.81
268.92	2170.85
269.14	2133.98
269.35	2103.26
269.57	2176.99
269.79	2183.13
270.00	2127.84
270.22	2414.56
270.43	2113.50
270.65	1927.14
270.87	2258.91
271.08	2246.62
271.30	2252.77
271.51	2197.47
271.73	2193.37
271.95	2328.54
272.16	2133.98
272.38	2205.66
272.59	2080.74
272.81	2301.92
273.02	2136.03
273.24	2226.14
273.46	2306.01
273.67	2127.84
273.89	2047.97
274.10	2097.12
274.32	2281.44
274.54	2242.53
274.75	2179.04
274.97	2150.37
275.18	2252.77
275.40	2181.09
275.61	2189.28
275.83	2193.37
276.05	2050.02
276.26	2187.23
276.48	2131.94
276.69	2082.78
276.91	2187.23
277.12	2375.64
277.34	2185.18
277.55	2248.67
277.77	2258.91
277.99	2183.13
278.20	2074.59
278.42	2004.96
278.63	2107.36
278.85	2125.79
279.06	2064.35
279.28	2242.53
279.49	2338.78
279.71	2330.59
279.93	2240.48
280.14	2193.37
280.36	2156.51
280.57	2291.68
280.79	2334.68
281.00	2023.39
281.22	2109.41
281.43	2334.68
281.65	1964.00
281.86	2039.78
282.08	2248.67
282.29	2342.88
282.51	2029.54
282.73	2117.60
282.94	2039.78
283.16	2232.29
283.37	2279.39
283.59	2185.18
283.80	2201.57
284.02	2242.53
284.23	2154.46
284.45	2105.31
284.66	2080.74
284.88	2203.61
285.09	2168.80
285.31	2199.52
285.52	2179.04
285.74	2060.26
285.95	2267.10
286.17	2199.52
286.38	2369.50
286.60	2119.65
286.81	2121.70
287.03	2146.27
287.24	2166.75
287.46	2269.15
287.67	2103.26
287.89	2334.68
288.10	2168.80
288.32	2215.90
288.53	2291.68
288.75	2113.50
288.96	2203.61
289.18	2170.85
289.39	2176.99
289.61	2289.63
289.82	2400.22
290.04	2310.11
290.25	2105.31
290.47	2115.55
290.68	2121.70
290.90	2213.85
291.11	2062.30
291.33	2232.29
291.54	2093.02
291.76	2131.94
291.97	2234.33
292.18	2220.00
292.40	2176.99
292.61	2156.51
292.83	2306.01
293.04	2170.85
293.26	2222.05
293.47	2207.71
293.69	2070.50
293.90	2170.85
294.12	2320.35
294.33	2201.57
294.55	2238.43
294.76	2254.81
294.97	2371.55
295.19	2355.16
295.40	2144.22
295.62	2166.75
295.83	2260.96
296.05	2187.23
296.26	2271.20
296.48	2072.54
296.69	2183.13
296.90	2199.52
297.12	2234.33
297.33	2316.25
297.55	2203.61
297.76	2240.48
297.98	2236.38
298.19	2164.70
298.41	2211.81
298.62	2078.69
298.83	2244.57
299.05	2224.09
299.26	2121.70
299.48	2111.46
299.69	2226.14
299.90	2164.70
300.12	2074.59
300.33	2179.04
300.55	2215.90
300.76	2215.90
300.98	2052.06
301.19	2217.95
301.40	2125.79
301.62	2189.28
301.83	2283.49
302.05	2197.47
302.26	2176.99
302.47	2138.08
302.69	2111.46
302.90	2119.65
303.12	2058.21
303.33	2193.37
303.54	2412.51
303.76	2176.99
303.97	2179.04
304.19	2312.16
304.40	2101.22
304.61	2176.99
304.83	2357.21
305.04	2279.39
305.26	2211.81
305.47	2183.13
305.68	2093.02
305.90	2103.26
306.11	2375.64
306.33	2181.09
306.54	2105.31
306.75	2146.27
306.97	2095.07
307.18	2095.07
307.39	2127.84
307.61	2152.42
307.82	2150.37
308.04	2248.67
308.25	2086.88
308.46	2234.33
308.68	2213.85
308.89	2273.25
309.10	2326.49
309.32	2318.30
309.53	2183.13
309.74	2260.96
309.96	2191.33
310.17	2250.72
310.39	2160.61
310.60	2224.09
310.81	2230.24
311.03	2060.26
311.24	2195.42
311.45	2205.66
311.67	2383.84
311.88	2189.28
312.09	2158.56
312.31	2181.09
312.52	2162.66
312.73	2183.13
312.95	2140.13
313.16	2117.60
313.37	2301.92
313.59	2191.33
313.80	2273.25
314.01	2310.11
314.23	2181.09
314.44	2131.94
314.65	2074.59
314.87	2097.12
315.08	2244.57
315.29	2174.94
315.51	2082.78
315.72	2086.88
315.93	2306.01
316.15	2209.76
316.36	2148.32
316.57	2228.19
316.79	2185.18
317.00	2195.42
317.21	2265.05
317.43	2136.03
317.64	2205.66
317.85	2103.26
318.07	2168.80
318.28	2152.42
318.49	2375.64
318.70	2445.27
318.92	2365.40
319.13	2394.08
319.34	2441.18
319.56	2242.53
319.77	2344.92
319.98	2330.59
320.20	2349.02
320.41	2265.05
320.62	2187.23
320.83	2052.06
321.05	2301.92
321.26	2174.94
321.47	2209.76
321.69	2334.68
321.90	2054.11
322.11	2142.18
322.32	2185.18
322.54	2369.50
322.75	2158.56
322.96	2381.79
323.18	2101.22
323.39	2009.06
323.60	2070.50
323.81	2275.29
324.03	2195.42
324.24	2101.22
324.45	2133.98
324.66	2127.84
324.88	2299.87
325.09	2248.67
325.30	2164.70
325.52	2207.71
325.73	2246.62
325.94	2127.84
326.15	2050.02
326.37	2109.41
326.58	2275.29
326.79	2375.64
327.00	2025.44
327.22	2125.79
327.43	2191.33
327.64	2101.22
327.85	2228.19
328.07	2242.53
328.28	2394.08
328.49	2107.36
328.70	2152.42
328.92	2158.56
329.13	2172.89
329.34	2187.23
329.55	2408.41
329.76	2230.24
329.98	2203.61
330.19	2244.57
330.40	2179.04
330.61	2197.47
330.83	2211.81
331.04	2031.58
331.25	2154.46
331.46	2193.37
331.68	2160.61
331.89	2416.60
332.10	2195.42
332.31	2021.35
332.52	2197.47
332.74	2269.15
332.95	2074.59
333.16	2170.85
333.37	2336.73
333.58	2068.45
333.80	2263.01
334.01	2064.35
334.22	2183.13
334.43	2099.17
334.64	2107.36
334.86	2131.94
335.07	2086.88
335.28	2310.11
335.49	2060.26
335.70	2260.96
335.92	2291.68
336.13	2471.90
336.34	2230.24
336.55	2260.96
336.76	2267.10
336.98	2041.82
337.19	2162.66
337.40	2289.63
337.61	2445.27
337.82	2189.28
338.04	2236.38
338.25	1996.77
338.46	2103.26
338.67	2222.05
338.88	2136.03
339.09	2086.88
339.31	2140.13
339.52	2121.70
339.73	2047.97
339.94	2129.89
340.15	2310.11
340.36	2115.55
340.58	2242.53
340.79	2093.02
341.00	2254.81
341.21	2154.46
341.42	2291.68
341.63	2129.89
341.85	2295.77
342.06	2162.66
342.27	2101.22
342.48	2195.42
342.69	2101.22
342.90	2273.25
343.12	2301.92
343.33	2142.18
343.54	2213.85
343.75	2228.19
343.96	2093.02
344.17	2072.54
344.38	2185.18
344.60	2111.46
344.81	2031.58
345.02	2144.22
345.23	2209.76
345.44	2443.23
345.65	2265.05
345.86	2183.13
346.07	2207.71
346.29	2193.37
346.50	2240.48
346.71	2228.19
346.92	2297.82
347.13	2387.93
347.34	2127.84
347.55	2121.70
347.76	2162.66
347.98	2060.26
348.19	2129.89
348.40	2238.43
348.61	2174.94
348.82	2324.44
349.03	2195.42
349.24	2195.42
349.45	2398.17
349.66	1988.58
349.88	2185.18
350.09	2084.83
350.30	2324.44
350.51	2326.49
350.72	2238.43
350.93	2203.61
351.14	2125.79
351.35	2164.70
351.56	2191.33
351.77	2154.46
351.99	2213.85
352.20	2385.88
352.41	2324.44
352.62	1988.58
352.83	2183.13
353.04	2187.23
353.25	2133.98
353.46	2172.89
353.67	2387.93
353.88	2113.50
354.09	2129.89
354.30	2142.18
354.52	2326.49
354.73	2111.46
354.94	2164.70
355.15	2158.56
355.36	2463.71
355.57	2172.89
355.78	2205.66
355.99	2084.83
356.20	2183.13
356.41	2275.29
356.62	2217.95
356.83	2236.38
357.04	2361.31
357.25	2113.50
357.46	2179.04
357.68	2095.07
357.89	2068.45
358.10	2220.00
358.31	2277.34
358.52	2097.12
358.73	2082.78
358.94	2105.31
359.15	2129.89
359.36	2195.42
359.57	2181.09
359.78	2154.46
359.99	2179.04
360.20	2045.92
360.41	2215.90
360.62	2293.72
360.83	2133.98
361.04	2195.42
361.25	2217.95
361.46	2344.92
361.67	2105.31
361.88	2236.38
362.09	2209.76
362.30	2195.42
362.51	2140.13
362.72	2211.81
362.93	2287.58
363.14	2211.81
363.35	2201.57
363.56	2127.84
363.78	2316.25
363.99	2238.43
364.20	2168.80
364.41	2107.36
364.62	2457.56
364.83	2215.90
365.04	2160.61
365.25	2127.84
365.46	2410.46
365.67	2191.33
365.88	2170.85
366.09	2185.18
366.30	2146.27
366.51	2232.29
366.72	2064.35
366.93	2152.42
367.14	2119.65
367.35	2306.01
367.56	2152.42
367.77	2349.02
367.98	2168.80
368.18	2273.25
368.39	2187.23
368.60	2146.27
368.81	2265.05
369.02	2224.09
369.23	2224.09
369.44	2144.22
369.65	2074.59
369.86	2236.38
370.07	2260.96
370.28	2119.65
370.49	2269.15
370.70	2191.33
370.91	2119.65
371.12	2021.35
371.33	2297.82
371.54	2144.22
371.75	2211.81
371.96	1996.77
372.17	2287.58
372.38	2176.99
372.59	2220.00
372.80	2127.84
373.01	2191.33
373.22	2228.19
373.43	2154.46
373.64	2080.74
373.85	2285.53
374.06	2363.36
374.26	2252.77
374.47	2252.77
374.68	2342.88
374.89	2273.25
375.10	2183.13
375.31	2263.01
375.52	2183.13
375.73	2195.42
375.94	1984.48
376.15	2254.81
376.36	2080.74
376.57	2123.74
376.78	2133.98
376.99	2174.94
377.20	2306.01
377.40	2152.42
377.61	2338.78
377.82	2060.26
378.03	2310.11
378.24	2234.33
378.45	2228.19
378.66	2224.09
378.87	2105.31
379.08	2125.79
379.29	2187.23
379.50	2217.95
379.71	2211.81
379.91	2220.00
380.12	2174.94
380.33	2166.75
380.54	2170.85
380.75	2146.27
380.96	2252.77
381.17	2203.61
381.38	2172.89
381.59	2187.23
381.80	2170.85
382.00	2361.31
382.21	2203.61
382.42	2449.37
382.63	2435.03
382.84	2275.29
383.05	2299.87
383.26	2310.11
383.47	2228.19
383.68	2213.85
383.88	2314.20
384.09	2195.42
384.30	2371.55
384.51	2252.77
384.72	2099.17
384.93	2045.92
385.14	2199.52
385.35	2275.29
385.55	2023.39
385.76	2324.44
385.97	2138.08
386.18	2029.54
386.39	2193.37
386.60	2125.79
386.81	2162.66
387.02	2142.18
387.22	2029.54
387.43	2314.20
387.64	2279.39
387.85	2379.74
388.06	2416.60
388.27	3981.25
388.48	8580.99
388.68	12140.36
388.89	14370.60
389.10	15750.93
389.31	14704.42
389.52	11233.11
389.73	9822.06
389.93	8898.42
390.14	8126.34
390.35	7280.53
390.56	6524.83
390.77	5431.21
390.98	4267.97
391.18	3325.90
391.39	2807.77
391.60	2308.06
391.81	2310.11
392.02	2138.08
392.23	2416.60
392.43	2217.95
392.64	2265.05
392.85	2152.42
393.06	2355.16
393.27	2226.14
393.47	2125.79
393.68	2193.37
393.89	2119.65
394.10	2291.68
394.31	2058.21
394.52	2164.70
394.72	2074.59
394.93	2342.88
395.14	2154.46
395.35	2203.61
395.56	2109.41
395.76	2185.18
395.97	2250.72
396.18	2260.96
396.39	2394.08
396.60	2674.65
396.80	2512.86
397.01	2392.03
397.22	2363.36
397.43	2303.96
397.64	2217.95
397.84	2285.53
398.05	2500.57
398.26	2203.61
398.47	2342.88
398.67	2297.82
398.88	2232.29
399.09	2263.01
399.30	2127.84
399.51	2299.87
399.71	2119.65
399.92	2174.94
400.13	2226.14
400.34	2166.75
400.54	2258.91
400.75	2338.78
400.96	2228.19
401.17	2330.59
401.37	2179.04
401.58	2176.99
401.79	2211.81
402.00	2338.78
402.21	2562.01
402.41	2625.50
402.62	2553.82
402.83	2674.65
403.04	2637.78
403.24	2846.68
403.45	2324.44
403.66	2457.56
403.87	2439.13
404.07	2516.95
404.28	2488.28
404.49	2342.88
404.70	2295.77
404.90	2359.26
405.11	2164.70
405.32	2289.63
405.52	2166.75
405.73	2158.56
405.94	2095.07
406.15	2211.81
406.35	2170.85
406.56	2322.40
406.77	2316.25
406.98	2226.14
407.18	2199.52
407.39	2318.30
407.60	2244.57
407.80	2254.81
408.01	2172.89
408.22	2263.01
408.43	2154.46
408.63	2250.72
408.84	2201.57
409.05	2332.64
409.25	2150.37
409.46	2179.04
409.67	2179.04
409.88	2138.08
410.08	2191.33
410.29	2084.83
410.50	2236.38
410.70	2195.42
410.91	2084.83
411.12	2240.48
411.32	2295.77
411.53	2154.46
411.74	2318.30
411.95	2320.35
412.15	2293.72
412.36	2344.92
412.57	2260.96
412.77	2361.31
412.98	2217.95
413.19	2121.70
413.39	2320.35
413.60	2277.34
413.81	2293.72
414.01	2064.35
414.22	2242.53
414.43	2238.43
414.63	2220.00
414.84	2293.72
415.05	2146.27
415.25	2088.93
415.46	2306.01
415.67	2183.13
415.87	2187.23
416.08	2213.85
416.29	2230.24
416.49	2258.91
416.70	2154.46
416.91	2162.66
417.11	2220.00
417.32	2312.16
417.53	2187.23
417.73	2193.37
417.94	2187.23
418.15	2252.77
418.35	2242.53
418.56	2170.85
418.77	2383.84
418.97	2265.05
419.18	2093.02
419.38	2019.30
419.59	2109.41
419.80	2383.84
420.00	2138.08
420.21	2172.89
420.42	2269.15
420.62	2238.43
420.83	2176.99
421.04	2140.13
421.24	2176.99
421.45	2267.10
421.65	2228.19
421.86	2199.52
422.07	2244.57
422.27	2179.04
422.48	2168.80
422.69	2072.54
422.89	2220.00
423.10	2170.85
423.30	2133.98
423.51	2158.56
423.72	2203.61
423.92	2277.34
424.13	2084.83
424.33	2166.75
424.54	2295.77
424.75	2289.63
424.95	2373.60
425.16	2205.66
425.36	2170.85
425.57	2289.63
425.78	2220.00
425.98	2244.57
426.19	2187.23
426.39	2127.84
426.60	2213.85
426.81	2291.68
427.01	2199.52
427.22	2074.59
427.42	2072.54
427.63	2033.63
427.83	2301.92
428.04	2359.26
428.25	2310.11
428.45	2220.00
428.66	2308.06
428.86	2174.94
429.07	2174.94
429.28	2166.75
429.48	2199.52
429.69	2179.04
429.89	2244.57
430.10	2050.02
430.30	2222.05
430.51	2301.92
430.71	2117.60
430.92	2174.94
431.13	2146.27
431.33	2250.72
431.54	2248.67
431.74	2328.54
431.95	2432.99
432.15	2109.41
432.36	2164.70
432.56	2215.90
432.77	2342.88
432.98	2406.36
433.18	2172.89
433.39	2127.84
433.59	2220.00
433.80	2363.36
434.00	2269.15
434.21	2150.37
434.41	2107.36
434.62	2453.47
434.82	2062.30
435.03	2111.46
435.23	2164.70
435.44	2045.92
435.64	2250.72
435.85	2236.38
436.06	2271.20
436.26	2285.53
436.47	2201.57
436.67	2095.07
436.88	2226.14
437.08	2244.57
437.29	2351.07
437.49	2248.67
437.70	2293.72
437.90	2244.57
438.11	2463.71
438.31	2295.77
438.52	2400.22
438.72	2412.51
438.93	2496.47
439.13	2279.39
439.34	2392.03
439.54	2158.56
439.75	2363.36
439.95	2379.74
440.16	2148.32
440.36	2228.19
440.57	2250.72
440.77	2191.33
440.98	2281.44
441.18	2322.40
441.39	2103.26
441.59	2119.65
441.80	2353.12
442.00	2254.81
442.21	2379.74
442.41	2039.78
442.62	2240.48
442.82	2154.46
443.02	2211.81
443.23	2215.90
443.43	2193.37
443.64	2373.60
443.84	2125.79
444.05	2369.50
444.25	2189.28
444.46	2224.09
444.66	2232.29
444.87	2381.79
445.07	2047.97
445.28	2213.85
445.48	2322.40
445.69	2326.49
445.89	2424.80
446.09	2217.95
446.30	2555.86
446.50	2811.86
446.71	4333.50
446.91	5576.62
447.12	6442.91
447.32	6688.67
447.53	6256.54
447.73	5185.46
447.93	4663.22
448.14	4284.35
448.34	4052.93
448.55	3653.58
448.75	3506.12
448.96	3373.00
449.16	3176.40
449.36	2779.09
449.57	2525.15
449.77	2316.25
449.98	2195.42
450.18	2332.64
450.39	2314.20
450.59	2256.86
450.79	2228.19
451.00	2133.98
451.20	2250.72
451.41	2125.79
451.61	2252.77
451.81	2340.83
452.02	2168.80
452.22	2154.46
452.43	2142.18
452.63	2160.61
