SpectraSuite Data File
++++++++++++++++++++++++++++++++++++
Date: Thu May 05 12:35:40 CEST 2016
User: root
Dark Spectrum Present: No
Reference Spectrum Present: No
Number of Sampled Component Spectra: 1
Spectrometers: USB4C02835
Integration Time (usec): 100000 (USB4C02835)
Spectra Averaged: 1 (USB4C02835)
Boxcar Smoothing: 0 (USB4C02835)
Correct for Electrical Dark: No (USB4C02835)
Strobe/Lamp Enabled: No (USB4C02835)
Correct for Detector Non-linearity: No (USB4C02835)
Correct for Stray Light: No (USB4C02835)
Number of Pixels in Processed Spectrum: 3648
>>>>>Begin Processed Spectral Data<<<<<
177.47	1769.44
177.69	1769.44
177.91	1769.44
178.13	1765.35
178.36	1775.59
178.58	2117.60
178.80	2258.91
179.02	2064.35
179.24	2111.46
179.46	2154.46
179.68	2195.42
179.90	2174.94
180.13	2215.90
180.35	2082.78
180.57	2136.03
180.79	2211.81
181.01	2234.33
181.23	2146.27
181.45	2168.80
181.67	2254.81
181.90	2289.63
182.12	2086.88
182.34	2099.17
182.56	2281.44
182.78	2183.13
183.00	2133.98
183.22	2125.79
183.44	2023.39
183.66	2414.56
183.89	2197.47
184.11	2203.61
184.33	2310.11
184.55	2281.44
184.77	2146.27
184.99	2150.37
185.21	2119.65
185.43	2420.70
185.65	2070.50
185.87	2158.56
186.10	2371.55
186.32	2340.83
186.54	2193.37
186.76	2256.86
186.98	2342.88
187.20	2187.23
187.42	2193.37
187.64	2199.52
187.86	2189.28
188.08	2258.91
188.30	2111.46
188.52	2138.08
188.75	2322.40
188.97	2271.20
189.19	2111.46
189.41	2152.42
189.63	2209.76
189.85	2189.28
190.07	1970.15
190.29	2002.91
190.51	2293.72
190.73	2101.22
190.95	2238.43
191.17	2121.70
191.39	2013.15
191.61	2252.77
191.84	2062.30
192.06	2131.94
192.28	1980.39
192.50	2473.95
192.72	2224.09
192.94	2082.78
193.16	2256.86
193.38	2222.05
193.60	2054.11
193.82	2093.02
194.04	2267.10
194.26	2189.28
194.48	2088.93
194.70	2191.33
194.92	2152.42
195.14	2250.72
195.36	2127.84
195.58	2152.42
195.80	2162.66
196.02	2193.37
196.24	2164.70
196.46	2209.76
196.69	2152.42
196.91	2437.08
197.13	2011.11
197.35	2080.74
197.57	2246.62
197.79	2244.57
198.01	2285.53
198.23	2236.38
198.45	2203.61
198.67	2084.83
198.89	2160.61
199.11	2176.99
199.33	2170.85
199.55	1992.67
199.77	2076.64
199.99	2289.63
200.21	2080.74
200.43	2213.85
200.65	2103.26
200.87	2007.01
201.09	2187.23
201.31	2129.89
201.53	2174.94
201.75	2119.65
201.97	2301.92
202.19	2152.42
202.41	2201.57
202.63	2281.44
202.85	2238.43
203.07	2203.61
203.29	2070.50
203.51	2072.54
203.73	2109.41
203.95	2539.48
204.17	2162.66
204.39	2176.99
204.61	2207.71
204.83	2086.88
205.05	2195.42
205.27	2240.48
205.49	2465.75
205.71	2179.04
205.93	2095.07
206.15	2162.66
206.37	2193.37
206.59	2074.59
206.81	1988.58
207.03	2080.74
207.25	2015.20
207.47	2248.67
207.69	2131.94
207.91	2346.97
208.13	2326.49
208.34	2111.46
208.56	2011.11
208.78	2076.64
209.00	2129.89
209.22	2172.89
209.44	2086.88
209.66	2064.35
209.88	2123.74
210.10	2142.18
210.32	2084.83
210.54	2133.98
210.76	2201.57
210.98	2191.33
211.20	2007.01
211.42	2070.50
211.64	2322.40
211.86	2215.90
212.08	2246.62
212.30	2236.38
212.52	2181.09
212.74	2285.53
212.96	2179.04
213.17	2166.75
213.39	2301.92
213.61	2326.49
213.83	2097.12
214.05	2152.42
214.27	2275.29
214.49	2076.64
214.71	2072.54
214.93	2250.72
215.15	2150.37
215.37	2293.72
215.59	1990.63
215.81	2222.05
216.03	2379.74
216.24	2199.52
216.46	2183.13
216.68	2158.56
216.90	2162.66
217.12	2265.05
217.34	2099.17
217.56	2191.33
217.78	2297.82
218.00	2324.44
218.22	2129.89
218.44	2211.81
218.66	2211.81
218.87	2355.16
219.09	2146.27
219.31	2119.65
219.53	2193.37
219.75	2191.33
219.97	2129.89
220.19	2103.26
220.41	2185.18
220.63	2351.07
220.85	2164.70
221.06	2125.79
221.28	2375.64
221.50	2242.53
221.72	2193.37
221.94	2136.03
222.16	2133.98
222.38	2238.43
222.60	2160.61
222.82	2084.83
223.03	2277.34
223.25	2023.39
223.47	2215.90
223.69	2279.39
223.91	2211.81
224.13	2248.67
224.35	2056.16
224.57	2248.67
224.78	2181.09
225.00	2072.54
225.22	2127.84
225.44	2131.94
225.66	2283.49
225.88	2086.88
226.10	2211.81
226.32	2121.70
226.53	2387.93
226.75	2162.66
226.97	2070.50
227.19	2172.89
227.41	2209.76
227.63	2152.42
227.85	2021.35
228.06	2144.22
228.28	2242.53
228.50	2256.86
228.72	2021.35
228.94	2142.18
229.16	2062.30
229.37	2109.41
229.59	2105.31
229.81	2220.00
230.03	2150.37
230.25	2101.22
230.47	2023.39
230.69	2123.74
230.90	2293.72
231.12	2199.52
231.34	2187.23
231.56	2281.44
231.78	2052.06
232.00	2220.00
232.21	2179.04
232.43	2113.50
232.65	2004.96
232.87	2152.42
233.09	2070.50
233.30	2183.13
233.52	2320.35
233.74	2168.80
233.96	2117.60
234.18	2138.08
234.40	2127.84
234.61	2422.75
234.83	2054.11
235.05	2054.11
235.27	2490.33
235.49	2267.10
235.70	2101.22
235.92	2256.86
236.14	2224.09
236.36	2367.45
236.58	2023.39
236.79	2244.57
237.01	2078.69
237.23	2113.50
237.45	2283.49
237.67	2127.84
237.88	2258.91
238.10	2400.22
238.32	1998.82
238.54	2146.27
238.76	2203.61
238.97	2078.69
239.19	2086.88
239.41	2168.80
239.63	2310.11
239.85	2088.93
240.06	2195.42
240.28	2158.56
240.50	2299.87
240.72	2213.85
240.93	2179.04
241.15	2291.68
241.37	2183.13
241.59	2283.49
241.81	2154.46
242.02	2129.89
242.24	2226.14
242.46	2254.81
242.68	2078.69
242.89	2138.08
243.11	2193.37
243.33	2142.18
243.55	2183.13
243.76	2260.96
243.98	2121.70
244.20	2183.13
244.42	2191.33
244.64	2150.37
244.85	2062.30
245.07	2047.97
245.29	2201.57
245.51	2168.80
245.72	2256.86
245.94	2293.72
246.16	2041.82
246.38	2133.98
246.59	2078.69
246.81	2117.60
247.03	2162.66
247.24	2068.45
247.46	2123.74
247.68	2187.23
247.90	2084.83
248.11	2133.98
248.33	2267.10
248.55	2267.10
248.77	2168.80
248.98	2164.70
249.20	2324.44
249.42	2176.99
249.64	2152.42
249.85	2080.74
250.07	2187.23
250.29	2279.39
250.50	2142.18
250.72	2039.78
250.94	2195.42
251.16	2432.99
251.37	2199.52
251.59	2234.33
251.81	2263.01
252.02	2279.39
252.24	2007.01
252.46	2248.67
252.68	2101.22
252.89	2070.50
253.11	2052.06
253.33	2295.77
253.54	2326.49
253.76	2103.26
253.98	2121.70
254.20	2150.37
254.41	2099.17
254.63	2183.13
254.85	1959.91
255.06	2240.48
255.28	2138.08
255.50	2162.66
255.71	2150.37
255.93	1988.58
256.15	2209.76
256.36	2201.57
256.58	2140.13
256.80	2154.46
257.02	2226.14
257.23	2207.71
257.45	2119.65
257.67	2201.57
257.88	2174.94
258.10	2234.33
258.32	2146.27
258.53	2203.61
258.75	2379.74
258.97	2148.32
259.18	2105.31
259.40	2162.66
259.62	2336.73
259.83	2263.01
260.05	2183.13
260.27	2574.30
260.48	2318.30
260.70	1992.67
260.92	2133.98
261.13	2179.04
261.35	2203.61
261.57	2238.43
261.78	2090.98
262.00	2144.22
262.22	2279.39
262.43	2162.66
262.65	2088.93
262.86	2068.45
263.08	2369.50
263.30	2289.63
263.51	2035.68
263.73	2127.84
263.95	2285.53
264.16	2136.03
264.38	2088.93
264.60	2109.41
264.81	2080.74
265.03	2285.53
265.25	2285.53
265.46	2072.54
265.68	2334.68
265.89	2211.81
266.11	2031.58
266.33	2203.61
266.54	2324.44
266.76	2199.52
266.98	2146.27
267.19	2207.71
267.41	2236.38
267.62	2207.71
267.84	2033.63
268.06	2176.99
268.27	2195.42
268.49	2322.40
268.70	2170.85
268.92	2138.08
269.14	2129.89
269.35	2107.36
269.57	2097.12
269.79	2168.80
270.00	2082.78
270.22	2258.91
270.43	2031.58
270.65	2045.92
270.87	2189.28
271.08	2238.43
271.30	2203.61
271.51	2166.75
271.73	2224.09
271.95	2293.72
272.16	2103.26
272.38	2166.75
272.59	2095.07
272.81	2146.27
273.02	2093.02
273.24	2197.47
273.46	2291.68
273.67	2117.60
273.89	2074.59
274.10	2107.36
274.32	2310.11
274.54	2289.63
274.75	2236.38
274.97	2103.26
275.18	2306.01
275.40	2240.48
275.61	2213.85
275.83	2246.62
276.05	2037.73
276.26	2220.00
276.48	2181.09
276.69	2109.41
276.91	2166.75
277.12	2301.92
277.34	2193.37
277.55	2310.11
277.77	2185.18
277.99	2164.70
278.20	2138.08
278.42	2029.54
278.63	2064.35
278.85	2099.17
279.06	2019.30
279.28	2244.57
279.49	2285.53
279.71	2226.14
279.93	2203.61
280.14	2207.71
280.36	2076.64
280.57	2287.58
280.79	2226.14
281.00	2045.92
281.22	2138.08
281.43	2285.53
281.65	1959.91
281.86	2113.50
282.08	2232.29
282.29	2375.64
282.51	2045.92
282.73	2093.02
282.94	2037.73
283.16	2224.09
283.37	2340.83
283.59	2183.13
283.80	2195.42
284.02	2138.08
284.23	2293.72
284.45	2162.66
284.66	2045.92
284.88	2164.70
285.09	2174.94
285.31	2254.81
285.52	2299.87
285.74	2011.11
285.95	2291.68
286.17	2164.70
286.38	2283.49
286.60	2187.23
286.81	2136.03
287.03	2174.94
287.24	2185.18
287.46	2240.48
287.67	2189.28
287.89	2267.10
288.10	2205.66
288.32	2179.04
288.53	2228.19
288.75	2150.37
288.96	2295.77
289.18	2152.42
289.39	2138.08
289.61	2267.10
289.82	2412.51
290.04	2359.26
290.25	2121.70
290.47	2181.09
290.68	2166.75
290.90	2279.39
291.11	2031.58
291.33	2275.29
291.54	2111.46
291.76	2127.84
291.97	2244.57
292.18	2183.13
292.40	2193.37
292.61	2142.18
292.83	2285.53
293.04	2211.81
293.26	2228.19
293.47	2148.32
293.69	2056.16
293.90	2150.37
294.12	2306.01
294.33	2179.04
294.55	2142.18
294.76	2234.33
294.97	2277.34
295.19	2367.45
295.40	2199.52
295.62	2267.10
295.83	2277.34
296.05	2162.66
296.26	2265.05
296.48	2105.31
296.69	2201.57
296.90	2146.27
297.12	2224.09
297.33	2244.57
297.55	2150.37
297.76	2228.19
297.98	2199.52
298.19	2228.19
298.41	2226.14
298.62	2107.36
298.83	2314.20
299.05	2172.89
299.26	2127.84
299.48	2062.30
299.69	2193.37
299.90	2179.04
300.12	2045.92
300.33	2189.28
300.55	2168.80
300.76	2236.38
300.98	2146.27
301.19	2246.62
301.40	2170.85
301.62	2199.52
301.83	2226.14
302.05	2179.04
302.26	2166.75
302.47	2176.99
302.69	2076.64
302.90	2211.81
303.12	2070.50
303.33	2148.32
303.54	2295.77
303.76	2185.18
303.97	2228.19
304.19	2277.34
304.40	2074.59
304.61	2232.29
304.83	2379.74
305.04	2232.29
305.26	2297.82
305.47	2191.33
305.68	2082.78
305.90	1918.95
306.11	2318.30
306.33	2162.66
306.54	2111.46
306.75	2119.65
306.97	2185.18
307.18	2084.83
307.39	2142.18
307.61	2312.16
307.82	2142.18
308.04	2269.15
308.25	2060.26
308.46	2209.76
308.68	2170.85
308.89	2156.51
309.10	2322.40
309.32	2156.51
309.53	2306.01
309.74	2246.62
309.96	2123.74
310.17	2254.81
310.39	2129.89
310.60	2322.40
310.81	2129.89
311.03	2129.89
311.24	2234.33
311.45	2187.23
311.67	2275.29
311.88	2215.90
312.09	2226.14
312.31	2103.26
312.52	2193.37
312.73	2119.65
312.95	2152.42
313.16	2129.89
313.37	2246.62
313.59	2263.01
313.80	2250.72
314.01	2373.60
314.23	2164.70
314.44	2054.11
314.65	2047.97
314.87	2113.50
315.08	2146.27
315.29	2150.37
315.51	2093.02
315.72	2052.06
315.93	2271.20
316.15	2301.92
316.36	2097.12
316.57	2199.52
316.79	2234.33
317.00	2117.60
317.21	2355.16
317.43	2133.98
317.64	2160.61
317.85	2138.08
318.07	2162.66
318.28	2201.57
318.49	2314.20
318.70	2428.89
318.92	2445.27
319.13	2414.56
319.34	2418.65
319.56	2324.44
319.77	2279.39
319.98	2340.83
320.20	2342.88
320.41	2217.95
320.62	2228.19
320.83	2160.61
321.05	2389.98
321.26	2193.37
321.47	2127.84
321.69	2432.99
321.90	2101.22
322.11	2138.08
322.32	2293.72
322.54	2334.68
322.75	2136.03
322.96	2494.43
323.18	2031.58
323.39	2007.01
323.60	2129.89
323.81	2265.05
324.03	2117.60
324.24	2205.66
324.45	2172.89
324.66	2086.88
324.88	2277.34
325.09	2322.40
325.30	2187.23
325.52	2211.81
325.73	2187.23
325.94	2080.74
326.15	2070.50
326.37	2117.60
326.58	2265.05
326.79	2326.49
327.00	2095.07
327.22	2162.66
327.43	2086.88
327.64	2076.64
327.85	2172.89
328.07	2189.28
328.28	2369.50
328.49	2146.27
328.70	2195.42
328.92	2197.47
329.13	2158.56
329.34	2133.98
329.55	2459.61
329.76	2187.23
329.98	2185.18
330.19	2322.40
330.40	2258.91
330.61	2166.75
330.83	2269.15
331.04	2129.89
331.25	2220.00
331.46	2224.09
331.68	1984.48
331.89	2332.64
332.10	2187.23
332.31	2041.82
332.52	2166.75
332.74	2316.25
332.95	2066.40
333.16	2162.66
333.37	2277.34
333.58	2179.04
333.80	2209.76
334.01	1994.72
334.22	2176.99
334.43	2138.08
334.64	2195.42
334.86	2152.42
335.07	2068.45
335.28	2369.50
335.49	2054.11
335.70	2183.13
335.92	2336.73
336.13	2432.99
336.34	2246.62
336.55	2215.90
336.76	2222.05
336.98	2052.06
337.19	2111.46
337.40	2316.25
337.61	2381.79
337.82	2168.80
338.04	2283.49
338.25	2068.45
338.46	2217.95
338.67	2166.75
338.88	2129.89
339.09	2127.84
339.31	2240.48
339.52	2115.55
339.73	2154.46
339.94	2183.13
340.15	2267.10
340.36	2133.98
340.58	2179.04
340.79	2101.22
341.00	2234.33
341.21	2107.36
341.42	2291.68
341.63	2170.85
341.85	2263.01
342.06	2244.57
342.27	2095.07
342.48	2179.04
342.69	2136.03
342.90	2226.14
343.12	2242.53
343.33	2144.22
343.54	2258.91
343.75	2340.83
343.96	2133.98
344.17	2084.83
344.38	2164.70
344.60	2082.78
344.81	2088.93
345.02	2291.68
345.23	2267.10
345.44	2502.62
345.65	2252.77
345.86	2265.05
346.07	2209.76
346.29	2273.25
346.50	2203.61
346.71	2228.19
346.92	2244.57
347.13	2400.22
347.34	2224.09
347.55	2211.81
347.76	2146.27
347.98	2095.07
348.19	2119.65
348.40	2314.20
348.61	2131.94
348.82	2334.68
349.03	2220.00
349.24	2060.26
349.45	2416.60
349.66	2072.54
349.88	2191.33
350.09	2170.85
350.30	2314.20
350.51	2310.11
350.72	2230.24
350.93	2215.90
351.14	2082.78
351.35	2238.43
351.56	2152.42
351.77	2168.80
351.99	2236.38
352.20	2277.34
352.41	2234.33
352.62	2009.06
352.83	2195.42
353.04	2220.00
353.25	2097.12
353.46	2236.38
353.67	2314.20
353.88	2031.58
354.09	2156.51
354.30	2183.13
354.52	2279.39
354.73	2236.38
354.94	2097.12
355.15	2228.19
355.36	2424.80
355.57	2160.61
355.78	2160.61
355.99	2193.37
356.20	2217.95
356.41	2346.97
356.62	2195.42
356.83	2154.46
357.04	2351.07
357.25	1980.39
357.46	2146.27
357.68	2041.82
357.89	2113.50
358.10	2183.13
358.31	2211.81
358.52	2131.94
358.73	2170.85
358.94	2045.92
359.15	2047.97
359.36	2318.30
359.57	2125.79
359.78	2103.26
359.99	2224.09
360.20	2101.22
360.41	2187.23
360.62	2234.33
360.83	2250.72
361.04	2205.66
361.25	2234.33
361.46	2367.45
361.67	2310.11
361.88	2293.72
362.09	2285.53
362.30	2252.77
362.51	2101.22
362.72	2213.85
362.93	2273.25
363.14	2271.20
363.35	2185.18
363.56	2117.60
363.78	2299.87
363.99	2295.77
364.20	2144.22
364.41	2127.84
364.62	2418.65
364.83	2246.62
365.04	2187.23
365.25	2234.33
365.46	2365.40
365.67	2166.75
365.88	2195.42
366.09	2129.89
366.30	2099.17
366.51	2152.42
366.72	2070.50
366.93	2187.23
367.14	2217.95
367.35	2402.27
367.56	2162.66
367.77	2312.16
367.98	2230.24
368.18	2162.66
368.39	2185.18
368.60	2136.03
368.81	2260.96
369.02	2260.96
369.23	2101.22
369.44	2133.98
369.65	2121.70
369.86	2238.43
370.07	2213.85
370.28	2129.89
370.49	2193.37
370.70	2236.38
370.91	2056.16
371.12	2080.74
371.33	2318.30
371.54	2193.37
371.75	2326.49
371.96	2002.91
372.17	2191.33
372.38	2240.48
372.59	2181.09
372.80	2176.99
373.01	2205.66
373.22	2154.46
373.43	2242.53
373.64	2117.60
373.85	2318.30
374.06	2330.59
374.26	2285.53
374.47	2222.05
374.68	2299.87
374.89	2215.90
375.10	2121.70
375.31	2281.44
375.52	2138.08
375.73	2211.81
375.94	2080.74
376.15	2310.11
376.36	2154.46
376.57	2170.85
376.78	2062.30
376.99	2158.56
377.20	2361.31
377.40	2121.70
377.61	2334.68
377.82	2031.58
378.03	2252.77
378.24	2191.33
378.45	2113.50
378.66	2205.66
378.87	2068.45
379.08	2162.66
379.29	2111.46
379.50	2273.25
379.71	2181.09
379.91	2250.72
380.12	2168.80
380.33	2164.70
380.54	2185.18
380.75	2113.50
380.96	2170.85
381.17	2199.52
381.38	2234.33
381.59	2236.38
381.80	2271.20
382.00	2340.83
382.21	2306.01
382.42	2383.84
382.63	2430.94
382.84	2265.05
383.05	2297.82
383.26	2359.26
383.47	2172.89
383.68	2260.96
383.88	2248.67
384.09	2197.47
384.30	2346.97
384.51	2203.61
384.72	2131.94
384.93	2004.96
385.14	2152.42
385.35	2326.49
385.55	2056.16
385.76	2260.96
385.97	2240.48
386.18	2088.93
386.39	2123.74
386.60	2136.03
386.81	2117.60
387.02	2146.27
387.22	2080.74
387.43	2322.40
387.64	2306.01
387.85	2367.45
388.06	2447.32
388.27	4026.31
388.48	8470.40
388.68	12042.06
388.89	14505.76
389.10	15501.08
389.31	14253.86
389.52	11249.49
389.73	10016.62
389.93	8968.06
390.14	8060.80
390.35	7294.86
390.56	6479.77
390.77	5265.33
390.98	4122.56
391.18	3198.93
391.39	2684.89
391.60	2346.97
391.81	2375.64
392.02	2160.61
392.23	2420.70
392.43	2275.29
392.64	2363.36
392.85	2310.11
393.06	2455.51
393.27	2220.00
393.47	2142.18
393.68	2191.33
393.89	2246.62
394.10	2310.11
394.31	2189.28
394.52	2107.36
394.72	2166.75
394.93	2263.01
395.14	2138.08
395.35	2209.76
395.56	2179.04
395.76	2201.57
395.97	2330.59
396.18	2297.82
396.39	2342.88
396.60	2625.50
396.80	2555.86
397.01	2437.08
397.22	2502.62
397.43	2369.50
397.64	2168.80
397.84	2263.01
398.05	2486.23
398.26	2224.09
398.47	2256.86
398.67	2267.10
398.88	2230.24
399.09	2279.39
399.30	2215.90
399.51	2263.01
399.71	2086.88
399.92	2133.98
400.13	2236.38
400.34	2191.33
400.54	2244.57
400.75	2371.55
400.96	2232.29
401.17	2330.59
401.37	2220.00
401.58	2162.66
401.79	2172.89
402.00	2361.31
402.21	2547.67
402.41	2533.34
402.62	2582.49
402.83	2725.85
403.04	2580.44
403.24	2783.19
403.45	2326.49
403.66	2529.24
403.87	2439.13
404.07	2441.18
404.28	2422.75
404.49	2373.60
404.70	2258.91
404.90	2301.92
405.11	2234.33
405.32	2187.23
405.52	2238.43
405.73	2168.80
405.94	2113.50
406.15	2195.42
406.35	2326.49
406.56	2281.44
406.77	2250.72
406.98	2222.05
407.18	2154.46
407.39	2355.16
407.60	2179.04
407.80	2291.68
408.01	2211.81
408.22	2217.95
408.43	2090.98
408.63	2281.44
408.84	2314.20
409.05	2275.29
409.25	2129.89
409.46	2146.27
409.67	2166.75
409.88	2183.13
410.08	2217.95
410.29	2142.18
410.50	2324.44
410.70	2199.52
410.91	2136.03
411.12	2254.81
411.32	2193.37
411.53	2195.42
411.74	2277.34
411.95	2301.92
412.15	2318.30
412.36	2357.21
412.57	2291.68
412.77	2342.88
412.98	2236.38
413.19	2152.42
413.39	2195.42
413.60	2254.81
413.81	2299.87
414.01	2150.37
414.22	2256.86
414.43	2250.72
414.63	2152.42
414.84	2187.23
415.05	2220.00
415.25	2109.41
415.46	2334.68
415.67	2146.27
415.87	2203.61
416.08	2166.75
416.29	2125.79
416.49	2271.20
416.70	2189.28
416.91	2121.70
417.11	2217.95
417.32	2236.38
417.53	2287.58
417.73	2254.81
417.94	2211.81
418.15	2191.33
418.35	2179.04
418.56	2168.80
418.77	2383.84
418.97	2187.23
419.18	2164.70
419.38	1957.86
419.59	2160.61
419.80	2256.86
420.00	2193.37
420.21	2316.25
420.42	2326.49
420.62	2207.71
420.83	2133.98
421.04	2191.33
421.24	2164.70
421.45	2267.10
421.65	2252.77
421.86	2138.08
422.07	2295.77
422.27	2271.20
422.48	2258.91
422.69	2121.70
422.89	2197.47
423.10	2146.27
423.30	2076.64
423.51	2230.24
423.72	2265.05
423.92	2215.90
424.13	2052.06
424.33	2267.10
424.54	2281.44
424.75	2252.77
424.95	2375.64
425.16	2224.09
425.36	2101.22
425.57	2314.20
425.78	2236.38
425.98	2246.62
426.19	2193.37
426.39	2064.35
426.60	2201.57
426.81	2340.83
427.01	2220.00
427.22	2109.41
427.42	2000.87
427.63	2082.78
427.83	2287.58
428.04	2291.68
428.25	2398.17
428.45	2283.49
428.66	2326.49
428.86	2123.74
429.07	2162.66
429.28	2203.61
429.48	2172.89
429.69	2074.59
429.89	2228.19
430.10	2084.83
430.30	2244.57
430.51	2320.35
430.71	2101.22
430.92	2174.94
431.13	2162.66
431.33	2248.67
431.54	2265.05
431.74	2316.25
431.95	2428.89
432.15	2119.65
432.36	2203.61
432.56	2258.91
432.77	2357.21
432.98	2328.54
433.18	2211.81
433.39	2160.61
433.59	2181.09
433.80	2308.06
434.00	2414.56
434.21	2158.56
434.41	2138.08
434.62	2426.84
434.82	2115.55
435.03	2142.18
435.23	2277.34
435.44	2002.91
435.64	2220.00
435.85	2265.05
436.06	2324.44
436.26	2244.57
436.47	2146.27
436.67	2199.52
436.88	2189.28
437.08	2342.88
437.29	2281.44
437.49	2211.81
437.70	2267.10
437.90	2115.55
438.11	2371.55
438.31	2254.81
438.52	2381.79
438.72	2422.75
438.93	2543.58
439.13	2256.86
439.34	2244.57
439.54	2181.09
439.75	2301.92
439.95	2222.05
440.16	2119.65
440.36	2170.85
440.57	2279.39
440.77	2250.72
440.98	2195.42
441.18	2273.25
441.39	2136.03
441.59	2072.54
441.80	2484.19
442.00	2213.85
442.21	2299.87
442.41	2119.65
442.62	2379.74
442.82	2140.13
443.02	2136.03
443.23	2232.29
443.43	2203.61
443.64	2320.35
443.84	2160.61
444.05	2385.88
444.25	2236.38
444.46	2166.75
444.66	2148.32
444.87	2383.84
445.07	2136.03
445.28	2228.19
445.48	2287.58
445.69	2269.15
445.89	2424.80
446.09	2252.77
446.30	2496.47
446.50	2822.10
446.71	4464.57
446.91	5517.23
447.12	6418.33
447.32	6668.19
447.53	6229.92
447.73	5048.24
447.93	4648.89
448.14	4214.72
448.34	4061.12
448.55	3555.27
448.75	3481.55
448.96	3313.61
449.16	3039.19
449.36	2836.44
449.57	2557.91
449.77	2273.25
449.98	2299.87
450.18	2299.87
450.39	2224.09
450.59	2285.53
450.79	2205.66
451.00	2162.66
451.20	2230.24
451.41	2195.42
451.61	2260.96
451.81	2283.49
452.02	2224.09
452.22	2199.52
452.43	2217.95
