SpectraSuite Data File
++++++++++++++++++++++++++++++++++++
Date: Thu May 05 12:35:45 CEST 2016
User: root
Dark Spectrum Present: No
Reference Spectrum Present: No
Number of Sampled Component Spectra: 1
Spectrometers: USB4C02835
Integration Time (usec): 100000 (USB4C02835)
Spectra Averaged: 1 (USB4C02835)
Boxcar Smoothing: 0 (USB4C02835)
Correct for Electrical Dark: No (USB4C02835)
Strobe/Lamp Enabled: No (USB4C02835)
Correct for Detector Non-linearity: No (USB4C02835)
Correct for Stray Light: No (USB4C02835)
Number of Pixels in Processed Spectrum: 3648
>>>>>Begin Processed Spectral Data<<<<<
177.47	1773.54
177.69	1773.54
177.91	1773.54
178.13	1748.97
178.36	1755.11
178.58	2064.35
178.80	2156.51
179.02	2054.11
179.24	2045.92
179.46	2105.31
179.68	2179.04
179.90	2162.66
180.13	2123.74
180.35	2097.12
180.57	2119.65
180.79	2146.27
181.01	2209.76
181.23	2191.33
181.45	2193.37
181.67	2236.38
181.90	2383.84
182.12	2080.74
182.34	2025.44
182.56	2277.34
182.78	2297.82
183.00	2088.93
183.22	2170.85
183.44	2047.97
183.66	2502.62
183.89	2170.85
184.11	2183.13
184.33	2254.81
184.55	2273.25
184.77	2154.46
184.99	2152.42
185.21	2189.28
185.43	2449.37
185.65	2017.25
185.87	2133.98
186.10	2424.80
186.32	2406.36
186.54	2129.89
186.76	2236.38
186.98	2256.86
187.20	2164.70
187.42	2095.07
187.64	2078.69
187.86	2287.58
188.08	2330.59
188.30	2027.49
188.52	2140.13
188.75	2303.96
188.97	2326.49
189.19	2043.87
189.41	2035.68
189.63	2232.29
189.85	2209.76
190.07	2039.78
190.29	1964.00
190.51	2123.74
190.73	2113.50
190.95	2244.57
191.17	2060.26
191.39	2054.11
191.61	2101.22
191.84	2080.74
192.06	2160.61
192.28	2060.26
192.50	2535.39
192.72	2166.75
192.94	2162.66
193.16	2328.54
193.38	2213.85
193.60	2088.93
193.82	2136.03
194.04	2330.59
194.26	2228.19
194.48	2129.89
194.70	2133.98
194.92	2140.13
195.14	2258.91
195.36	2074.59
195.58	2140.13
195.80	2168.80
196.02	2119.65
196.24	2064.35
196.46	2158.56
196.69	2160.61
196.91	2406.36
197.13	2072.54
197.35	2154.46
197.57	2326.49
197.79	2133.98
198.01	2183.13
198.23	2146.27
198.45	2201.57
198.67	2093.02
198.89	2162.66
199.11	2224.09
199.33	2121.70
199.55	2002.91
199.77	2142.18
199.99	2263.01
200.21	2162.66
200.43	2256.86
200.65	2054.11
200.87	2009.06
201.09	2181.09
201.31	2115.55
201.53	2179.04
201.75	2158.56
201.97	2275.29
202.19	2230.24
202.41	2228.19
202.63	2318.30
202.85	2299.87
203.07	2201.57
203.29	2056.16
203.51	2009.06
203.73	2105.31
203.95	2537.43
204.17	2176.99
204.39	2164.70
204.61	2136.03
204.83	2056.16
205.05	2215.90
205.27	2164.70
205.49	2428.89
205.71	2181.09
205.93	2074.59
206.15	2076.64
206.37	2166.75
206.59	2158.56
206.81	2093.02
207.03	2103.26
207.25	2123.74
207.47	2244.57
207.69	2095.07
207.91	2299.87
208.13	2342.88
208.34	2179.04
208.56	2064.35
208.78	2154.46
209.00	2187.23
209.22	2146.27
209.44	2193.37
209.66	2011.11
209.88	2252.77
210.10	2107.36
210.32	2017.25
210.54	2236.38
210.76	2222.05
210.98	2371.55
211.20	1978.34
211.42	2183.13
211.64	2277.34
211.86	2215.90
212.08	2160.61
212.30	2095.07
212.52	2189.28
212.74	2201.57
212.96	2164.70
213.17	2176.99
213.39	2258.91
213.61	2387.93
213.83	2166.75
214.05	2101.22
214.27	2344.92
214.49	2138.08
214.71	2193.37
214.93	2228.19
215.15	2127.84
215.37	2303.96
215.59	1968.10
215.81	2183.13
216.03	2416.60
216.24	2258.91
216.46	2146.27
216.68	2158.56
216.90	2277.34
217.12	2310.11
217.34	2154.46
217.56	2109.41
217.78	2283.49
218.00	2287.58
218.22	2222.05
218.44	2086.88
218.66	2197.47
218.87	2357.21
219.09	2097.12
219.31	2211.81
219.53	2127.84
219.75	2166.75
219.97	2125.79
220.19	2131.94
220.41	2187.23
220.63	2367.45
220.85	2152.42
221.06	2144.22
221.28	2359.26
221.50	2236.38
221.72	2226.14
221.94	2095.07
222.16	2138.08
222.38	2297.82
222.60	2187.23
222.82	2111.46
223.03	2283.49
223.25	2062.30
223.47	2152.42
223.69	2269.15
223.91	2226.14
224.13	2267.10
224.35	2084.83
224.57	2244.57
224.78	2250.72
225.00	2113.50
225.22	2215.90
225.44	2084.83
225.66	2342.88
225.88	2131.94
226.10	2195.42
226.32	2158.56
226.53	2357.21
226.75	2158.56
226.97	2136.03
227.19	2170.85
227.41	2097.12
227.63	2162.66
227.85	1972.19
228.06	2138.08
228.28	2256.86
228.50	2297.82
228.72	2031.58
228.94	2121.70
229.16	2066.40
229.37	2039.78
229.59	2088.93
229.81	2314.20
230.03	2138.08
230.25	2054.11
230.47	1982.43
230.69	2045.92
230.90	2189.28
231.12	2097.12
231.34	2195.42
231.56	2260.96
231.78	2088.93
232.00	2133.98
232.21	2084.83
232.43	2131.94
232.65	2050.02
232.87	2275.29
233.09	2029.54
233.30	2097.12
233.52	2291.68
233.74	2172.89
233.96	2115.55
234.18	2224.09
234.40	2150.37
234.61	2389.98
234.83	2011.11
235.05	2080.74
235.27	2455.51
235.49	2277.34
235.70	2107.36
235.92	2222.05
236.14	2306.01
236.36	2365.40
236.58	2025.44
236.79	2258.91
237.01	2193.37
237.23	2174.94
237.45	2287.58
237.67	2107.36
237.88	2136.03
238.10	2392.03
238.32	2066.40
238.54	2105.31
238.76	2254.81
238.97	2185.18
239.19	2095.07
239.41	2260.96
239.63	2281.44
239.85	2052.06
240.06	2211.81
240.28	2179.04
240.50	2234.33
240.72	2168.80
240.93	2121.70
241.15	2138.08
241.37	2248.67
241.59	2342.88
241.81	2052.06
242.02	2156.51
242.24	2232.29
242.46	2252.77
242.68	2076.64
242.89	2168.80
243.11	2330.59
243.33	2238.43
243.55	2099.17
243.76	2136.03
243.98	2033.63
244.20	2183.13
244.42	2144.22
244.64	2088.93
244.85	2125.79
245.07	2105.31
245.29	2138.08
245.51	2131.94
245.72	2203.61
245.94	2273.25
246.16	2191.33
246.38	2111.46
246.59	2037.73
246.81	2097.12
247.03	2095.07
247.24	2009.06
247.46	2133.98
247.68	2254.81
247.90	2068.45
248.11	2172.89
248.33	2248.67
248.55	2146.27
248.77	2127.84
248.98	2211.81
249.20	2326.49
249.42	2260.96
249.64	2136.03
249.85	2158.56
250.07	2191.33
250.29	2166.75
250.50	2230.24
250.72	2070.50
250.94	2232.29
251.16	2412.51
251.37	2150.37
251.59	2215.90
251.81	2224.09
252.02	2316.25
252.24	2017.25
252.46	2220.00
252.68	2095.07
252.89	2064.35
253.11	2009.06
253.33	2277.34
253.54	2295.77
253.76	2039.78
253.98	2050.02
254.20	2086.88
254.41	1961.95
254.63	2140.13
254.85	2056.16
255.06	2166.75
255.28	2197.47
255.50	2201.57
255.71	2162.66
255.93	2050.02
256.15	2152.42
256.36	2295.77
256.58	2127.84
256.80	2117.60
257.02	2222.05
257.23	2166.75
257.45	2150.37
257.67	2158.56
257.88	2129.89
258.10	2164.70
258.32	2129.89
258.53	2152.42
258.75	2373.60
258.97	2125.79
259.18	2045.92
259.40	2095.07
259.62	2396.12
259.83	2277.34
260.05	2142.18
260.27	2607.06
260.48	2295.77
260.70	2050.02
260.92	2095.07
261.13	2138.08
261.35	2191.33
261.57	2252.77
261.78	1976.29
262.00	2074.59
262.22	2236.38
262.43	2109.41
262.65	2052.06
262.86	2150.37
263.08	2453.47
263.30	2183.13
263.51	2033.63
263.73	2080.74
263.95	2326.49
264.16	2113.50
264.38	2088.93
264.60	2193.37
264.81	2211.81
265.03	2248.67
265.25	2277.34
265.46	2144.22
265.68	2312.16
265.89	2242.53
266.11	2031.58
266.33	2187.23
266.54	2222.05
266.76	2265.05
266.98	2234.33
267.19	2195.42
267.41	2295.77
267.62	2195.42
267.84	2058.21
268.06	2191.33
268.27	2209.76
268.49	2295.77
268.70	2220.00
268.92	2131.94
269.14	2129.89
269.35	2039.78
269.57	2070.50
269.79	2166.75
270.00	2095.07
270.22	2377.69
270.43	2078.69
270.65	1955.81
270.87	2220.00
271.08	2320.35
271.30	2176.99
271.51	2174.94
271.73	2273.25
271.95	2385.88
272.16	2105.31
272.38	2101.22
272.59	2119.65
272.81	2209.76
273.02	2140.13
273.24	2166.75
273.46	2240.48
273.67	2105.31
273.89	2043.87
274.10	2052.06
274.32	2318.30
274.54	2224.09
274.75	2144.22
274.97	2133.98
275.18	2244.57
275.40	2230.24
275.61	2111.46
275.83	2168.80
276.05	2023.39
276.26	2158.56
276.48	2193.37
276.69	2187.23
276.91	2168.80
277.12	2252.77
277.34	2213.85
277.55	2326.49
277.77	2242.53
277.99	2170.85
278.20	2136.03
278.42	2050.02
278.63	2101.22
278.85	2164.70
279.06	2084.83
279.28	2314.20
279.49	2322.40
279.71	2267.10
279.93	2172.89
280.14	2117.60
280.36	2095.07
280.57	2258.91
280.79	2291.68
281.00	2097.12
281.22	2097.12
281.43	2322.40
281.65	2009.06
281.86	2070.50
282.08	2283.49
282.29	2392.03
282.51	2095.07
282.73	2097.12
282.94	2090.98
283.16	2277.34
283.37	2277.34
283.59	2183.13
283.80	2242.53
284.02	2101.22
284.23	2123.74
284.45	2187.23
284.66	2045.92
284.88	2111.46
285.09	2140.13
285.31	2332.64
285.52	2306.01
285.74	1992.67
285.95	2252.77
286.17	2236.38
286.38	2287.58
286.60	2154.46
286.81	2125.79
287.03	2047.97
287.24	2215.90
287.46	2164.70
287.67	2168.80
287.89	2353.12
288.10	2160.61
288.32	2252.77
288.53	2359.26
288.75	2148.32
288.96	2269.15
289.18	2162.66
289.39	2193.37
289.61	2226.14
289.82	2342.88
290.04	2406.36
290.25	2084.83
290.47	2213.85
290.68	2142.18
290.90	2289.63
291.11	2023.39
291.33	2168.80
291.54	2113.50
291.76	2183.13
291.97	2220.00
292.18	2220.00
292.40	2142.18
292.61	2133.98
292.83	2330.59
293.04	2308.06
293.26	2258.91
293.47	2242.53
293.69	2160.61
293.90	2146.27
294.12	2381.79
294.33	2199.52
294.55	2179.04
294.76	2248.67
294.97	2328.54
295.19	2320.35
295.40	2039.78
295.62	2234.33
295.83	2269.15
296.05	2150.37
296.26	2226.14
296.48	2152.42
296.69	2138.08
296.90	2238.43
297.12	2236.38
297.33	2242.53
297.55	2228.19
297.76	2215.90
297.98	2271.20
298.19	2248.67
298.41	2142.18
298.62	2084.83
298.83	2258.91
299.05	2228.19
299.26	2146.27
299.48	2152.42
299.69	2250.72
299.90	2220.00
300.12	2164.70
300.33	2217.95
300.55	2150.37
300.76	2154.46
300.98	2103.26
301.19	2316.25
301.40	2156.51
301.62	2148.32
301.83	2273.25
302.05	2174.94
302.26	2174.94
302.47	2183.13
302.69	2127.84
302.90	2146.27
303.12	1990.63
303.33	2267.10
303.54	2359.26
303.76	2207.71
303.97	2226.14
304.19	2334.68
304.40	2047.97
304.61	2179.04
304.83	2355.16
305.04	2283.49
305.26	2287.58
305.47	2133.98
305.68	2215.90
305.90	2109.41
306.11	2275.29
306.33	2220.00
306.54	2170.85
306.75	2111.46
306.97	2039.78
307.18	2133.98
307.39	2158.56
307.61	2207.71
307.82	2215.90
308.04	2232.29
308.25	2133.98
308.46	2193.37
308.68	2211.81
308.89	2156.51
309.10	2289.63
309.32	2191.33
309.53	2158.56
309.74	2250.72
309.96	2109.41
310.17	2260.96
310.39	2179.04
310.60	2183.13
310.81	2172.89
311.03	2052.06
311.24	2267.10
311.45	2234.33
311.67	2349.02
311.88	2234.33
312.09	2179.04
312.31	2121.70
312.52	2123.74
312.73	2162.66
312.95	2066.40
313.16	2125.79
313.37	2187.23
313.59	2181.09
313.80	2301.92
314.01	2416.60
314.23	2154.46
314.44	2156.51
314.65	1990.63
314.87	2211.81
315.08	2150.37
315.29	2133.98
315.51	2195.42
315.72	2052.06
315.93	2275.29
316.15	2129.89
316.36	2142.18
316.57	2299.87
316.79	2164.70
317.00	2113.50
317.21	2230.24
317.43	2117.60
317.64	2193.37
317.85	2056.16
318.07	2131.94
318.28	2150.37
318.49	2320.35
318.70	2457.56
318.92	2414.56
319.13	2389.98
319.34	2404.32
319.56	2338.78
319.77	2332.64
319.98	2334.68
320.20	2297.82
320.41	2349.02
320.62	2314.20
320.83	2107.36
321.05	2377.69
321.26	2191.33
321.47	2211.81
321.69	2277.34
321.90	2078.69
322.11	2166.75
322.32	2215.90
322.54	2254.81
322.75	2162.66
322.96	2551.77
323.18	2074.59
323.39	2035.68
323.60	2144.22
323.81	2217.95
324.03	2179.04
324.24	2172.89
324.45	2185.18
324.66	2176.99
324.88	2340.83
325.09	2287.58
325.30	2179.04
325.52	2152.42
325.73	2240.48
325.94	2097.12
326.15	2031.58
326.37	2099.17
326.58	2326.49
326.79	2334.68
327.00	2095.07
327.22	2140.13
327.43	2201.57
327.64	2109.41
327.85	2244.57
328.07	2136.03
328.28	2332.64
328.49	2176.99
328.70	2201.57
328.92	2236.38
329.13	2234.33
329.34	2181.09
329.55	2355.16
329.76	2277.34
329.98	2146.27
330.19	2291.68
330.40	2187.23
330.61	2168.80
330.83	2209.76
331.04	2072.54
331.25	2215.90
331.46	2160.61
331.68	2115.55
331.89	2238.43
332.10	2146.27
332.31	2068.45
332.52	2283.49
332.74	2314.20
332.95	2111.46
333.16	2236.38
333.37	2306.01
333.58	2154.46
333.80	2199.52
334.01	2119.65
334.22	2146.27
334.43	2203.61
334.64	2162.66
334.86	2101.22
335.07	2099.17
335.28	2326.49
335.49	2093.02
335.70	2170.85
335.92	2355.16
336.13	2449.37
336.34	2181.09
336.55	2160.61
336.76	2260.96
336.98	2029.54
337.19	2199.52
337.40	2330.59
337.61	2457.56
337.82	2119.65
338.04	2170.85
338.25	1996.77
338.46	2168.80
338.67	2121.70
338.88	2179.04
339.09	2095.07
339.31	2103.26
339.52	2086.88
339.73	2060.26
339.94	2209.76
340.15	2301.92
340.36	2142.18
340.58	2252.77
340.79	2136.03
341.00	2293.72
341.21	2164.70
341.42	2385.88
341.63	2125.79
341.85	2250.72
342.06	2234.33
342.27	2113.50
342.48	2297.82
342.69	2086.88
342.90	2244.57
343.12	2250.72
343.33	2144.22
343.54	2326.49
343.75	2246.62
343.96	2217.95
344.17	2050.02
344.38	2244.57
344.60	2101.22
344.81	2107.36
345.02	2148.32
345.23	2369.50
345.44	2437.08
345.65	2256.86
345.86	2199.52
346.07	2211.81
346.29	2209.76
346.50	2228.19
346.71	2301.92
346.92	2322.40
347.13	2369.50
347.34	2193.37
347.55	2129.89
347.76	2267.10
347.98	2009.06
348.19	2142.18
348.40	2234.33
348.61	2205.66
348.82	2326.49
349.03	2256.86
349.24	2076.64
349.45	2408.41
349.66	2074.59
349.88	2220.00
350.09	2062.30
350.30	2267.10
350.51	2269.15
350.72	2244.57
350.93	2203.61
351.14	2236.38
351.35	2207.71
351.56	2162.66
351.77	2213.85
351.99	2320.35
352.20	2332.64
352.41	2283.49
352.62	1996.77
352.83	2162.66
353.04	2246.62
353.25	2150.37
353.46	2285.53
353.67	2242.53
353.88	1984.48
354.09	2148.32
354.30	2215.90
354.52	2281.44
354.73	2236.38
354.94	2146.27
355.15	2215.90
355.36	2353.12
355.57	2152.42
355.78	2191.33
355.99	2164.70
356.20	2154.46
356.41	2277.34
356.62	2166.75
356.83	2179.04
357.04	2303.96
357.25	2054.11
357.46	2144.22
357.68	2068.45
357.89	2121.70
358.10	2129.89
358.31	2162.66
358.52	2125.79
358.73	2133.98
358.94	2060.26
359.15	2119.65
359.36	2222.05
359.57	2211.81
359.78	2222.05
359.99	2256.86
360.20	2115.55
360.41	2236.38
360.62	2254.81
360.83	2248.67
361.04	2140.13
361.25	2160.61
361.46	2306.01
361.67	2326.49
361.88	2299.87
362.09	2314.20
362.30	2308.06
362.51	2179.04
362.72	2230.24
362.93	2291.68
363.14	2256.86
363.35	2193.37
363.56	2150.37
363.78	2260.96
363.99	2273.25
364.20	2142.18
364.41	2150.37
364.62	2293.72
364.83	2228.19
365.04	2168.80
365.25	2181.09
365.46	2383.84
365.67	2140.13
365.88	2240.48
366.09	2146.27
366.30	2195.42
366.51	2281.44
366.72	2103.26
366.93	2121.70
367.14	2217.95
367.35	2312.16
367.56	2189.28
367.77	2191.33
367.98	2211.81
368.18	2230.24
368.39	2193.37
368.60	2133.98
368.81	2267.10
369.02	2256.86
369.23	2205.66
369.44	2072.54
369.65	2097.12
369.86	2215.90
370.07	2279.39
370.28	2103.26
370.49	2201.57
370.70	2203.61
370.91	2052.06
371.12	2093.02
371.33	2238.43
371.54	2164.70
371.75	2291.68
371.96	2007.01
372.17	2207.71
372.38	2119.65
372.59	2240.48
372.80	2183.13
373.01	2170.85
373.22	2238.43
373.43	2121.70
373.64	2127.84
373.85	2369.50
374.06	2402.27
374.26	2318.30
374.47	2256.86
374.68	2342.88
374.89	2156.51
375.10	2152.42
375.31	2228.19
375.52	2217.95
375.73	2187.23
375.94	2056.16
376.15	2293.72
376.36	2127.84
376.57	2115.55
376.78	2121.70
376.99	2211.81
377.20	2383.84
377.40	2105.31
377.61	2338.78
377.82	2115.55
378.03	2310.11
378.24	2195.42
378.45	2176.99
378.66	2174.94
378.87	2097.12
379.08	2088.93
379.29	2121.70
379.50	2273.25
379.71	2176.99
379.91	2236.38
380.12	2174.94
380.33	2162.66
380.54	2242.53
380.75	2207.71
380.96	2150.37
381.17	2215.90
381.38	2195.42
381.59	2267.10
381.80	2146.27
382.00	2357.21
382.21	2248.67
382.42	2308.06
382.63	2467.80
382.84	2226.14
383.05	2260.96
383.26	2334.68
383.47	2258.91
383.68	2232.29
383.88	2275.29
384.09	2203.61
384.30	2383.84
384.51	2252.77
384.72	2133.98
384.93	2076.64
385.14	2260.96
385.35	2254.81
385.55	2064.35
385.76	2367.45
385.97	2195.42
386.18	2019.30
386.39	2144.22
386.60	2168.80
386.81	2176.99
387.02	2138.08
387.22	2086.88
387.43	2269.15
387.64	2322.40
387.85	2416.60
388.06	2469.85
388.27	4063.17
388.48	8462.21
388.68	12134.21
388.89	14409.51
389.10	15466.26
389.31	14694.18
389.52	11231.06
389.73	9770.86
389.93	8726.39
390.14	8091.52
390.35	7325.58
390.56	6578.08
390.77	5418.93
390.98	3971.01
391.18	3260.37
391.39	2768.85
391.60	2308.06
391.81	2336.73
392.02	2125.79
392.23	2443.23
392.43	2265.05
392.64	2285.53
392.85	2160.61
393.06	2363.36
393.27	2183.13
393.47	2162.66
393.68	2142.18
393.89	2150.37
394.10	2346.97
394.31	2138.08
394.52	2133.98
394.72	2154.46
394.93	2320.35
395.14	2025.44
395.35	2252.77
395.56	2121.70
395.76	2254.81
395.97	2310.11
396.18	2265.05
396.39	2306.01
396.60	2652.12
396.80	2486.23
397.01	2473.95
397.22	2342.88
397.43	2330.59
397.64	2228.19
397.84	2273.25
398.05	2424.80
398.26	2230.24
398.47	2381.79
398.67	2383.84
398.88	2195.42
399.09	2185.18
399.30	2136.03
399.51	2222.05
399.71	2088.93
399.92	2236.38
400.13	2189.28
400.34	2138.08
400.54	2156.51
400.75	2430.94
400.96	2246.62
401.17	2303.96
401.37	2277.34
401.58	2164.70
401.79	2179.04
402.00	2314.20
402.21	2602.97
402.41	2574.30
402.62	2568.15
402.83	2705.37
403.04	2707.41
403.24	2791.38
403.45	2342.88
403.66	2531.29
403.87	2361.31
404.07	2482.14
404.28	2414.56
404.49	2435.03
404.70	2289.63
404.90	2281.44
405.11	2189.28
405.32	2338.78
405.52	2115.55
405.73	2105.31
405.94	2127.84
406.15	2201.57
406.35	2220.00
406.56	2338.78
406.77	2236.38
406.98	2195.42
407.18	2176.99
407.39	2392.03
407.60	2138.08
407.80	2215.90
408.01	2179.04
408.22	2326.49
408.43	2150.37
408.63	2265.05
408.84	2291.68
409.05	2320.35
409.25	2166.75
409.46	2207.71
409.67	2185.18
409.88	2164.70
410.08	2203.61
410.29	2154.46
410.50	2217.95
410.70	2250.72
410.91	2037.73
411.12	2211.81
411.32	2146.27
411.53	2115.55
411.74	2277.34
411.95	2291.68
412.15	2240.48
412.36	2400.22
412.57	2318.30
412.77	2363.36
412.98	2211.81
413.19	2176.99
413.39	2267.10
413.60	2154.46
413.81	2432.99
414.01	2113.50
414.22	2299.87
414.43	2244.57
414.63	2179.04
414.84	2303.96
415.05	2232.29
415.25	2060.26
415.46	2289.63
415.67	2179.04
415.87	2228.19
416.08	2133.98
416.29	2185.18
416.49	2297.82
416.70	2088.93
416.91	2150.37
417.11	2131.94
417.32	2320.35
417.53	2355.16
417.73	2215.90
417.94	2138.08
418.15	2330.59
418.35	2209.76
418.56	2207.71
418.77	2418.65
418.97	2189.28
419.18	2205.66
419.38	1929.19
419.59	2226.14
419.80	2363.36
420.00	2185.18
420.21	2220.00
420.42	2293.72
420.62	2320.35
420.83	2078.69
421.04	2166.75
421.24	2224.09
421.45	2285.53
421.65	2201.57
421.86	2252.77
422.07	2234.33
422.27	2191.33
422.48	2252.77
422.69	2086.88
422.89	2252.77
423.10	2109.41
423.30	2047.97
423.51	2170.85
423.72	2158.56
423.92	2279.39
424.13	2088.93
424.33	2154.46
424.54	2232.29
424.75	2224.09
424.95	2357.21
425.16	2230.24
425.36	2215.90
425.57	2279.39
425.78	2285.53
425.98	2287.58
426.19	2113.50
426.39	2125.79
426.60	2203.61
426.81	2404.32
427.01	2148.32
427.22	2131.94
427.42	2047.97
427.63	2148.32
427.83	2267.10
428.04	2281.44
428.25	2277.34
428.45	2295.77
428.66	2232.29
428.86	2191.33
429.07	2142.18
429.28	2179.04
429.48	2185.18
429.69	2156.51
429.89	2277.34
430.10	2146.27
430.30	2240.48
430.51	2324.44
430.71	2129.89
430.92	2183.13
431.13	2154.46
431.33	2222.05
431.54	2306.01
431.74	2394.08
431.95	2418.65
432.15	2095.07
432.36	2172.89
432.56	2318.30
432.77	2349.02
432.98	2381.79
433.18	2226.14
433.39	2156.51
433.59	2176.99
433.80	2359.26
434.00	2303.96
434.21	2160.61
434.41	2136.03
434.62	2375.64
434.82	2097.12
435.03	2078.69
435.23	2148.32
435.44	1968.10
435.64	2205.66
435.85	2213.85
436.06	2269.15
436.26	2365.40
436.47	2146.27
436.67	2101.22
436.88	2201.57
437.08	2256.86
437.29	2351.07
437.49	2260.96
437.70	2355.16
437.90	2199.52
438.11	2359.26
438.31	2232.29
438.52	2437.08
438.72	2400.22
438.93	2484.19
439.13	2203.61
439.34	2340.83
439.54	2226.14
439.75	2244.57
439.95	2238.43
440.16	2209.76
440.36	2211.81
440.57	2215.90
440.77	2226.14
440.98	2133.98
441.18	2160.61
441.39	2140.13
441.59	2080.74
441.80	2367.45
442.00	2222.05
442.21	2308.06
442.41	2047.97
442.62	2328.54
442.82	2093.02
443.02	2203.61
443.23	2213.85
443.43	2267.10
443.64	2379.74
443.84	2191.33
444.05	2353.12
444.25	2215.90
444.46	2232.29
444.66	2238.43
444.87	2342.88
445.07	2074.59
445.28	2273.25
445.48	2367.45
445.69	2273.25
445.89	2465.75
446.09	2232.29
446.30	2408.41
446.50	2766.81
446.71	4364.22
446.91	5509.04
447.12	6553.50
447.32	6782.87
447.53	6199.20
447.73	5066.67
447.93	4423.61
448.14	4300.73
448.34	4104.13
448.55	3585.99
448.75	3526.60
448.96	3356.62
449.16	3045.33
449.36	2832.34
449.57	2490.33
449.77	2326.49
449.98	2172.89
450.18	2228.19
450.39	2271.20
450.59	2310.11
450.79	2209.76
451.00	2158.56
451.20	2252.77
451.41	2228.19
451.61	2275.29
451.81	2121.70
452.02	2203.61
452.22	2185.18
452.43	2197.47
452.63	2080.74
