SpectraSuite Data File
++++++++++++++++++++++++++++++++++++
Date: Thu May 05 12:35:50 CEST 2016
User: root
Dark Spectrum Present: No
Reference Spectrum Present: No
Number of Sampled Component Spectra: 1
Spectrometers: USB4C02835
Integration Time (usec): 100000 (USB4C02835)
Spectra Averaged: 1 (USB4C02835)
Boxcar Smoothing: 0 (USB4C02835)
Correct for Electrical Dark: No (USB4C02835)
Strobe/Lamp Enabled: No (USB4C02835)
Correct for Detector Non-linearity: No (USB4C02835)
Correct for Stray Light: No (USB4C02835)
Number of Pixels in Processed Spectrum: 3648
>>>>>Begin Processed Spectral Data<<<<<
177.47	1748.97
177.69	1748.97
177.91	1748.97
178.13	1783.78
178.36	1785.83
178.58	2097.12
178.80	2172.89
179.02	2127.84
179.24	2129.89
179.46	2133.98
179.68	2127.84
179.90	2209.76
180.13	2226.14
180.35	2082.78
180.57	2025.44
180.79	2295.77
181.01	2160.61
181.23	2133.98
181.45	2314.20
181.67	2252.77
181.90	2217.95
182.12	2154.46
182.34	2007.01
182.56	2246.62
182.78	2181.09
183.00	2158.56
183.22	2191.33
183.44	2007.01
183.66	2424.80
183.89	2342.88
184.11	2269.15
184.33	2301.92
184.55	2316.25
184.77	2121.70
184.99	2176.99
185.21	2115.55
185.43	2359.26
185.65	2127.84
185.87	2131.94
186.10	2449.37
186.32	2365.40
186.54	2170.85
186.76	2248.67
186.98	2287.58
187.20	2170.85
187.42	2097.12
187.64	2183.13
187.86	2228.19
188.08	2234.33
188.30	2068.45
188.52	2181.09
188.75	2244.57
188.97	2383.84
189.19	2119.65
189.41	2160.61
189.63	2263.01
189.85	2101.22
190.07	2027.49
190.29	2039.78
190.51	2267.10
190.73	2088.93
190.95	2244.57
191.17	2117.60
191.39	2035.68
191.61	2144.22
191.84	2093.02
192.06	2127.84
192.28	1980.39
192.50	2492.38
192.72	2181.09
192.94	2166.75
193.16	2297.82
193.38	2287.58
193.60	2050.02
193.82	2172.89
194.04	2303.96
194.26	2181.09
194.48	2140.13
194.70	2125.79
194.92	2195.42
195.14	2289.63
195.36	2105.31
195.58	2142.18
195.80	2154.46
196.02	2179.04
196.24	2070.50
196.46	2146.27
196.69	2176.99
196.91	2449.37
197.13	2136.03
197.35	2066.40
197.57	2310.11
197.79	2344.92
198.01	2138.08
198.23	2142.18
198.45	2312.16
198.67	2111.46
198.89	2064.35
199.11	2170.85
199.33	2187.23
199.55	2013.15
199.77	2121.70
199.99	2209.76
200.21	2142.18
200.43	2242.53
200.65	2058.21
200.87	1937.38
201.09	2269.15
201.31	2150.37
201.53	2203.61
201.75	2211.81
201.97	2285.53
202.19	2224.09
202.41	2185.18
202.63	2281.44
202.85	2293.72
203.07	2174.94
203.29	2105.31
203.51	2074.59
203.73	2133.98
203.95	2412.51
204.17	2179.04
204.39	2211.81
204.61	2207.71
204.83	2086.88
205.05	2254.81
205.27	2156.51
205.49	2402.27
205.71	2205.66
205.93	2101.22
206.15	2160.61
206.37	2174.94
206.59	2158.56
206.81	2011.11
207.03	2062.30
207.25	2097.12
207.47	2267.10
207.69	2162.66
207.91	2332.64
208.13	2383.84
208.34	2181.09
208.56	2117.60
208.78	2158.56
209.00	2172.89
209.22	2240.48
209.44	2121.70
209.66	2107.36
209.88	2217.95
210.10	2179.04
210.32	2103.26
210.54	2238.43
210.76	2103.26
210.98	2312.16
211.20	1953.76
211.42	2160.61
211.64	2308.06
211.86	2289.63
212.08	2185.18
212.30	2133.98
212.52	2162.66
212.74	2283.49
212.96	2152.42
213.17	2226.14
213.39	2267.10
213.61	2308.06
213.83	2127.84
214.05	2162.66
214.27	2275.29
214.49	2070.50
214.71	2138.08
214.93	2234.33
215.15	2168.80
215.37	2265.05
215.59	2039.78
215.81	2140.13
216.03	2295.77
216.24	2240.48
216.46	2199.52
216.68	2250.72
216.90	2195.42
217.12	2306.01
217.34	2121.70
217.56	2234.33
217.78	2322.40
218.00	2297.82
218.22	2185.18
218.44	2183.13
218.66	2258.91
218.87	2396.12
219.09	2174.94
219.31	2117.60
219.53	2236.38
219.75	2201.57
219.97	2154.46
220.19	2252.77
220.41	2117.60
220.63	2367.45
220.85	2179.04
221.06	2140.13
221.28	2322.40
221.50	2213.85
221.72	2164.70
221.94	2090.98
222.16	2260.96
222.38	2293.72
222.60	2168.80
222.82	2093.02
223.03	2242.53
223.25	2064.35
223.47	2158.56
223.69	2195.42
223.91	2240.48
224.13	2197.47
224.35	2064.35
224.57	2179.04
224.78	2176.99
225.00	2068.45
225.22	2191.33
225.44	2129.89
225.66	2260.96
225.88	2275.29
226.10	2248.67
226.32	2113.50
226.53	2365.40
226.75	2213.85
226.97	2203.61
227.19	2103.26
227.41	2127.84
227.63	2111.46
227.85	1990.63
228.06	2097.12
228.28	2228.19
228.50	2217.95
228.72	2021.35
228.94	2088.93
229.16	1996.77
229.37	2078.69
229.59	2047.97
229.81	2191.33
230.03	2078.69
230.25	2064.35
230.47	1939.43
230.69	2068.45
230.90	2361.31
231.12	2158.56
231.34	2146.27
231.56	2183.13
231.78	2127.84
232.00	2275.29
232.21	2103.26
232.43	2160.61
232.65	1982.43
232.87	2209.76
233.09	2072.54
233.30	2070.50
233.52	2209.76
233.74	2158.56
233.96	2129.89
234.18	2189.28
234.40	2179.04
234.61	2361.31
234.83	2086.88
235.05	2119.65
235.27	2428.89
235.49	2342.88
235.70	2072.54
235.92	2213.85
236.14	2197.47
236.36	2416.60
236.58	2125.79
236.79	2179.04
237.01	2150.37
237.23	2187.23
237.45	2312.16
237.67	2127.84
237.88	2170.85
238.10	2318.30
238.32	2105.31
238.54	2160.61
238.76	2203.61
238.97	2113.50
239.19	2090.98
239.41	2129.89
239.63	2330.59
239.85	2133.98
240.06	2187.23
240.28	2095.07
240.50	2240.48
240.72	2201.57
240.93	2064.35
241.15	2189.28
241.37	2199.52
241.59	2373.60
241.81	2193.37
242.02	2117.60
242.24	2193.37
242.46	2285.53
242.68	2088.93
242.89	2127.84
243.11	2299.87
243.33	2179.04
243.55	2119.65
243.76	2154.46
243.98	2097.12
244.20	2236.38
244.42	2099.17
244.64	2142.18
244.85	2041.82
245.07	2093.02
245.29	2191.33
245.51	2179.04
245.72	2295.77
245.94	2375.64
246.16	2146.27
246.38	2179.04
246.59	2154.46
246.81	2154.46
247.03	2058.21
247.24	1988.58
247.46	2107.36
247.68	2084.83
247.90	2095.07
248.11	2158.56
248.33	2252.77
248.55	2166.75
248.77	2136.03
248.98	2187.23
249.20	2322.40
249.42	2146.27
249.64	2146.27
249.85	2148.32
250.07	2097.12
250.29	2281.44
250.50	2242.53
250.72	2090.98
250.94	2170.85
251.16	2385.88
251.37	2183.13
251.59	2152.42
251.81	2224.09
252.02	2316.25
252.24	2068.45
252.46	2332.64
252.68	2127.84
252.89	2099.17
253.11	2002.91
253.33	2293.72
253.54	2271.20
253.76	2043.87
253.98	2138.08
254.20	2125.79
254.41	2043.87
254.63	2193.37
254.85	2037.73
255.06	2154.46
255.28	2277.34
255.50	2179.04
255.71	2117.60
255.93	2078.69
256.15	2195.42
256.36	2263.01
256.58	2170.85
256.80	2166.75
257.02	2256.86
257.23	2183.13
257.45	2119.65
257.67	2222.05
257.88	2090.98
258.10	2260.96
258.32	2121.70
258.53	2082.78
258.75	2316.25
258.97	2025.44
259.18	2117.60
259.40	2160.61
259.62	2242.53
259.83	2346.97
260.05	2215.90
260.27	2617.30
260.48	2254.81
260.70	2052.06
260.92	2029.54
261.13	2179.04
261.35	2205.66
261.57	2281.44
261.78	2047.97
262.00	2039.78
262.22	2234.33
262.43	2054.11
262.65	2111.46
262.86	2142.18
263.08	2414.56
263.30	2211.81
263.51	1986.53
263.73	2119.65
263.95	2361.31
264.16	2078.69
264.38	2031.58
264.60	2172.89
264.81	2121.70
265.03	2283.49
265.25	2293.72
265.46	2054.11
265.68	2254.81
265.89	2246.62
266.11	2037.73
266.33	2140.13
266.54	2351.07
266.76	2224.09
266.98	2129.89
267.19	2258.91
267.41	2269.15
267.62	2160.61
267.84	2070.50
268.06	2187.23
268.27	2205.66
268.49	2267.10
268.70	2211.81
268.92	2156.51
269.14	2111.46
269.35	2045.92
269.57	2129.89
269.79	2256.86
270.00	2164.70
270.22	2306.01
270.43	1980.39
270.65	1908.71
270.87	2193.37
271.08	2283.49
271.30	2193.37
271.51	2164.70
271.73	2246.62
271.95	2318.30
272.16	2097.12
272.38	2099.17
272.59	2181.09
272.81	2299.87
273.02	2111.46
273.24	2226.14
273.46	2238.43
273.67	2035.68
273.89	2090.98
274.10	2070.50
274.32	2392.03
274.54	2176.99
274.75	2238.43
274.97	2174.94
275.18	2293.72
275.40	2260.96
275.61	2217.95
275.83	2185.18
276.05	2058.21
276.26	2183.13
276.48	2226.14
276.69	2133.98
276.91	2199.52
277.12	2312.16
277.34	2248.67
277.55	2281.44
277.77	2172.89
277.99	2158.56
278.20	2162.66
278.42	2074.59
278.63	2111.46
278.85	2197.47
279.06	2133.98
279.28	2258.91
279.49	2285.53
279.71	2299.87
279.93	2154.46
280.14	2168.80
280.36	2142.18
280.57	2281.44
280.79	2240.48
281.00	2062.30
281.22	2119.65
281.43	2248.67
281.65	2039.78
281.86	2088.93
282.08	2258.91
282.29	2375.64
282.51	2037.73
282.73	2095.07
282.94	2101.22
283.16	2246.62
283.37	2291.68
283.59	2129.89
283.80	2213.85
284.02	2144.22
284.23	2236.38
284.45	2117.60
284.66	2146.27
284.88	2156.51
285.09	2158.56
285.31	2297.82
285.52	2252.77
285.74	1968.10
285.95	2220.00
286.17	2285.53
286.38	2244.57
286.60	2093.02
286.81	2115.55
287.03	2138.08
287.24	2205.66
287.46	2232.29
287.67	2125.79
287.89	2363.36
288.10	2162.66
288.32	2213.85
288.53	2283.49
288.75	2195.42
288.96	2254.81
289.18	2123.74
289.39	2136.03
289.61	2258.91
289.82	2416.60
290.04	2318.30
290.25	2078.69
290.47	2199.52
290.68	2185.18
290.90	2267.10
291.11	1988.58
291.33	2250.72
291.54	2119.65
291.76	2164.70
291.97	2263.01
292.18	2217.95
292.40	2174.94
292.61	2099.17
292.83	2318.30
293.04	2269.15
293.26	2191.33
293.47	2170.85
293.69	2113.50
293.90	2166.75
294.12	2316.25
294.33	2281.44
294.55	2103.26
294.76	2217.95
294.97	2363.36
295.19	2394.08
295.40	2162.66
295.62	2265.05
295.83	2277.34
296.05	2174.94
296.26	2254.81
296.48	2095.07
296.69	2187.23
296.90	2146.27
297.12	2254.81
297.33	2258.91
297.55	2201.57
297.76	2220.00
297.98	2224.09
298.19	2236.38
298.41	2181.09
298.62	2080.74
298.83	2269.15
299.05	2170.85
299.26	2082.78
299.48	2144.22
299.69	2174.94
299.90	2168.80
300.12	2078.69
300.33	2203.61
300.55	2195.42
300.76	2211.81
300.98	2131.94
301.19	2191.33
301.40	2093.02
301.62	2107.36
301.83	2244.57
302.05	2228.19
302.26	2191.33
302.47	2107.36
302.69	2086.88
302.90	2260.96
303.12	2062.30
303.33	2269.15
303.54	2373.60
303.76	2146.27
303.97	2252.77
304.19	2326.49
304.40	2080.74
304.61	2273.25
304.83	2324.44
305.04	2385.88
305.26	2234.33
305.47	2179.04
305.68	2176.99
305.90	2060.26
306.11	2236.38
306.33	2176.99
306.54	2097.12
306.75	2031.58
306.97	2078.69
307.18	2127.84
307.39	2168.80
307.61	2318.30
307.82	2156.51
308.04	2205.66
308.25	2117.60
308.46	2226.14
308.68	2209.76
308.89	2256.86
309.10	2222.05
309.32	2310.11
309.53	2211.81
309.74	2222.05
309.96	2203.61
310.17	2283.49
310.39	2220.00
310.60	2322.40
310.81	2146.27
311.03	2062.30
311.24	2226.14
311.45	2179.04
311.67	2334.68
311.88	2136.03
312.09	2144.22
312.31	2109.41
312.52	2207.71
312.73	2080.74
312.95	2058.21
313.16	2148.32
313.37	2267.10
313.59	2220.00
313.80	2228.19
314.01	2375.64
314.23	2146.27
314.44	2125.79
314.65	2117.60
314.87	2152.42
315.08	2109.41
315.29	2195.42
315.51	2207.71
315.72	2095.07
315.93	2316.25
316.15	2185.18
316.36	2154.46
316.57	2240.48
316.79	2195.42
317.00	2133.98
317.21	2183.13
317.43	2133.98
317.64	2158.56
317.85	2007.01
318.07	2142.18
318.28	2252.77
318.49	2312.16
318.70	2492.38
318.92	2383.84
319.13	2400.22
319.34	2418.65
319.56	2328.54
319.77	2357.21
319.98	2449.37
320.20	2351.07
320.41	2269.15
320.62	2308.06
320.83	2140.13
321.05	2406.36
321.26	2140.13
321.47	2232.29
321.69	2328.54
321.90	2031.58
322.11	2103.26
322.32	2303.96
322.54	2342.88
322.75	2129.89
322.96	2418.65
323.18	2045.92
323.39	2025.44
323.60	2033.63
323.81	2222.05
324.03	2168.80
324.24	2174.94
324.45	2195.42
324.66	2170.85
324.88	2275.29
325.09	2365.40
325.30	2197.47
325.52	2242.53
325.73	2179.04
325.94	2127.84
326.15	2011.11
326.37	2107.36
326.58	2269.15
326.79	2367.45
327.00	2099.17
327.22	2138.08
327.43	2095.07
327.64	2107.36
327.85	2207.71
328.07	2201.57
328.28	2418.65
328.49	2142.18
328.70	2158.56
328.92	2097.12
329.13	2172.89
329.34	2293.72
329.55	2375.64
329.76	2258.91
329.98	2181.09
330.19	2357.21
330.40	2183.13
330.61	2248.67
330.83	2250.72
331.04	2160.61
331.25	2260.96
331.46	2095.07
331.68	2047.97
331.89	2238.43
332.10	2172.89
332.31	2043.87
332.52	2140.13
332.74	2340.83
332.95	2047.97
333.16	2176.99
333.37	2265.05
333.58	2213.85
333.80	2220.00
334.01	2127.84
334.22	2166.75
334.43	2172.89
334.64	2162.66
334.86	2062.30
335.07	2150.37
335.28	2306.01
335.49	2045.92
335.70	2301.92
335.92	2281.44
336.13	2437.08
336.34	2240.48
336.55	2240.48
336.76	2228.19
336.98	1966.05
337.19	2142.18
337.40	2365.40
337.61	2377.69
337.82	2113.50
338.04	2320.35
338.25	2111.46
338.46	2121.70
338.67	2029.54
338.88	2220.00
339.09	2080.74
339.31	2176.99
339.52	2029.54
339.73	2109.41
339.94	2144.22
340.15	2281.44
340.36	2084.83
340.58	2215.90
340.79	2060.26
341.00	2289.63
341.21	2084.83
341.42	2340.83
341.63	2170.85
341.85	2293.72
342.06	2168.80
342.27	2148.32
342.48	2361.31
342.69	2127.84
342.90	2289.63
343.12	2320.35
343.33	2152.42
343.54	2220.00
343.75	2322.40
343.96	2199.52
344.17	2054.11
344.38	2156.51
344.60	2097.12
344.81	2133.98
345.02	2097.12
345.23	2275.29
345.44	2420.70
345.65	2220.00
345.86	2191.33
346.07	2138.08
346.29	2162.66
346.50	2211.81
346.71	2248.67
346.92	2357.21
347.13	2412.51
347.34	2209.76
347.55	2162.66
347.76	2158.56
347.98	2031.58
348.19	2162.66
348.40	2316.25
348.61	2168.80
348.82	2389.98
349.03	2269.15
349.24	2084.83
349.45	2398.17
349.66	2064.35
349.88	2213.85
350.09	2113.50
350.30	2326.49
350.51	2254.81
350.72	2248.67
350.93	2209.76
351.14	2179.04
351.35	2248.67
351.56	2156.51
351.77	2207.71
351.99	2189.28
352.20	2336.73
352.41	2344.92
352.62	1994.72
352.83	2275.29
353.04	2166.75
353.25	2258.91
353.46	2295.77
353.67	2285.53
353.88	1974.24
354.09	2234.33
354.30	2236.38
354.52	2269.15
354.73	2228.19
354.94	2148.32
355.15	2090.98
355.36	2340.83
355.57	2125.79
355.78	2191.33
355.99	2101.22
356.20	2146.27
356.41	2299.87
356.62	2209.76
356.83	2209.76
357.04	2340.83
357.25	2029.54
357.46	2101.22
357.68	2105.31
357.89	2056.16
358.10	2187.23
358.31	2105.31
358.52	2150.37
358.73	2095.07
358.94	2029.54
359.15	2095.07
359.36	2179.04
359.57	2203.61
359.78	2203.61
359.99	2217.95
360.20	2154.46
360.41	2306.01
360.62	2240.48
360.83	2291.68
361.04	2115.55
361.25	2189.28
361.46	2385.88
361.67	2269.15
361.88	2256.86
362.09	2373.60
362.30	2203.61
362.51	2160.61
362.72	2160.61
362.93	2185.18
363.14	2170.85
363.35	2258.91
363.56	2166.75
363.78	2285.53
363.99	2224.09
364.20	2138.08
364.41	2148.32
364.62	2324.44
364.83	2269.15
365.04	2220.00
365.25	2181.09
365.46	2318.30
365.67	2113.50
365.88	2183.13
366.09	2115.55
366.30	2138.08
366.51	2207.71
366.72	2095.07
366.93	2047.97
367.14	2220.00
367.35	2248.67
367.56	2121.70
367.77	2275.29
367.98	2187.23
368.18	2164.70
368.39	2291.68
368.60	2080.74
368.81	2277.34
369.02	2258.91
369.23	2256.86
369.44	2050.02
369.65	2183.13
369.86	2209.76
370.07	2271.20
370.28	2078.69
370.49	2224.09
370.70	2271.20
370.91	2168.80
371.12	2045.92
371.33	2285.53
371.54	2111.46
371.75	2252.77
371.96	2058.21
372.17	2226.14
372.38	2217.95
372.59	2195.42
372.80	2097.12
373.01	2162.66
373.22	2228.19
373.43	2199.52
373.64	2037.73
373.85	2375.64
374.06	2308.06
374.26	2213.85
374.47	2281.44
374.68	2310.11
374.89	2205.66
375.10	2242.53
375.31	2187.23
375.52	2195.42
375.73	2228.19
375.94	2066.40
376.15	2254.81
376.36	2121.70
376.57	2127.84
376.78	2152.42
376.99	2191.33
377.20	2416.60
377.40	2080.74
377.61	2381.79
377.82	2113.50
378.03	2314.20
378.24	2346.97
378.45	2166.75
378.66	2209.76
378.87	2015.20
379.08	2068.45
379.29	2156.51
379.50	2295.77
379.71	2154.46
379.91	2269.15
380.12	2179.04
380.33	2185.18
380.54	2189.28
380.75	2189.28
380.96	2164.70
381.17	2246.62
381.38	2113.50
381.59	2154.46
381.80	2195.42
382.00	2414.56
382.21	2310.11
382.42	2326.49
382.63	2428.89
382.84	2195.42
383.05	2303.96
383.26	2424.80
383.47	2250.72
383.68	2260.96
383.88	2314.20
384.09	2234.33
384.30	2398.17
384.51	2172.89
384.72	2150.37
384.93	2121.70
385.14	2217.95
385.35	2283.49
385.55	2054.11
385.76	2322.40
385.97	2148.32
386.18	2101.22
386.39	2152.42
386.60	2148.32
386.81	2199.52
387.02	2174.94
387.22	2045.92
387.43	2326.49
387.64	2293.72
387.85	2322.40
388.06	2392.03
388.27	4050.88
388.48	8501.12
388.68	12175.17
388.89	14360.36
389.10	15611.67
389.31	14376.74
389.52	11272.02
389.73	9836.39
389.93	8802.17
390.14	8058.76
390.35	7243.67
390.56	6471.58
390.77	5250.99
390.98	4024.26
391.18	3336.14
391.39	2697.17
391.60	2445.27
391.81	2318.30
392.02	2127.84
392.23	2420.70
392.43	2213.85
392.64	2289.63
392.85	2191.33
393.06	2342.88
393.27	2162.66
393.47	2156.51
393.68	2209.76
393.89	2154.46
394.10	2334.68
394.31	2166.75
394.52	2066.40
394.72	2138.08
394.93	2373.60
395.14	2088.93
395.35	2224.09
395.56	2144.22
395.76	2258.91
395.97	2277.34
396.18	2308.06
396.39	2361.31
396.60	2662.36
396.80	2473.95
397.01	2349.02
397.22	2379.74
397.43	2334.68
397.64	2187.23
397.84	2346.97
398.05	2449.37
398.26	2220.00
398.47	2312.16
398.67	2308.06
398.88	2234.33
399.09	2217.95
399.30	2131.94
399.51	2242.53
399.71	2195.42
399.92	2168.80
400.13	2213.85
400.34	2224.09
400.54	2187.23
400.75	2443.23
400.96	2277.34
401.17	2293.72
401.37	2193.37
401.58	2166.75
401.79	2142.18
402.00	2342.88
402.21	2639.83
402.41	2572.25
402.62	2598.87
402.83	2772.95
403.04	2623.45
403.24	2818.00
403.45	2338.78
403.66	2463.71
403.87	2367.45
404.07	2531.29
404.28	2523.10
404.49	2430.94
404.70	2312.16
404.90	2291.68
405.11	2209.76
405.32	2226.14
405.52	2101.22
405.73	2123.74
405.94	2168.80
406.15	2215.90
406.35	2308.06
406.56	2310.11
406.77	2220.00
406.98	2176.99
407.18	2150.37
407.39	2330.59
407.60	2234.33
407.80	2265.05
408.01	2193.37
408.22	2164.70
408.43	2170.85
408.63	2183.13
408.84	2375.64
409.05	2279.39
409.25	2160.61
409.46	2031.58
409.67	2168.80
409.88	2207.71
410.08	2236.38
410.29	2138.08
410.50	2289.63
410.70	2248.67
410.91	2105.31
411.12	2187.23
411.32	2185.18
411.53	2133.98
411.74	2287.58
411.95	2320.35
412.15	2289.63
412.36	2334.68
412.57	2299.87
412.77	2318.30
412.98	2258.91
413.19	2148.32
413.39	2275.29
413.60	2224.09
413.81	2295.77
414.01	2176.99
414.22	2252.77
414.43	2193.37
414.63	2162.66
414.84	2306.01
415.05	2201.57
415.25	2072.54
415.46	2258.91
415.67	2195.42
415.87	2252.77
416.08	2213.85
416.29	2179.04
416.49	2195.42
416.70	2150.37
416.91	2119.65
417.11	2220.00
417.32	2269.15
417.53	2269.15
417.73	2254.81
417.94	2160.61
418.15	2228.19
418.35	2172.89
418.56	2160.61
418.77	2449.37
418.97	2228.19
419.18	2205.66
419.38	2017.25
419.59	2256.86
419.80	2277.34
420.00	2113.50
420.21	2119.65
420.42	2326.49
420.62	2217.95
420.83	2211.81
421.04	2162.66
421.24	2162.66
421.45	2246.62
421.65	2267.10
421.86	2090.98
422.07	2248.67
422.27	2291.68
422.48	2144.22
422.69	2054.11
422.89	2162.66
423.10	2164.70
423.30	2088.93
423.51	2256.86
423.72	2220.00
423.92	2283.49
424.13	2152.42
424.33	2199.52
424.54	2340.83
424.75	2244.57
424.95	2408.41
425.16	2195.42
425.36	2170.85
425.57	2236.38
425.78	2258.91
425.98	2312.16
426.19	2236.38
426.39	2078.69
426.60	2199.52
426.81	2267.10
427.01	2181.09
427.22	2062.30
427.42	2009.06
427.63	2140.13
427.83	2277.34
428.04	2357.21
428.25	2295.77
428.45	2277.34
428.66	2338.78
428.86	2244.57
429.07	2121.70
429.28	2197.47
429.48	2226.14
429.69	2138.08
429.89	2162.66
430.10	2115.55
430.30	2252.77
430.51	2349.02
430.71	2113.50
430.92	2176.99
431.13	2136.03
431.33	2217.95
431.54	2207.71
431.74	2299.87
431.95	2459.61
432.15	2193.37
432.36	2158.56
432.56	2265.05
432.77	2453.47
432.98	2387.93
433.18	2197.47
433.39	2148.32
433.59	2131.94
433.80	2320.35
434.00	2428.89
434.21	2152.42
434.41	2144.22
434.62	2455.51
434.82	2142.18
435.03	2115.55
435.23	2260.96
435.44	2084.83
435.64	2117.60
435.85	2246.62
436.06	2316.25
436.26	2312.16
436.47	2215.90
436.67	2095.07
436.88	2213.85
437.08	2246.62
437.29	2281.44
437.49	2215.90
437.70	2387.93
437.90	2205.66
438.11	2342.88
438.31	2310.11
438.52	2387.93
438.72	2277.34
438.93	2488.28
439.13	2359.26
439.34	2383.84
439.54	2209.76
439.75	2287.58
439.95	2293.72
440.16	2203.61
440.36	2324.44
440.57	2207.71
440.77	2308.06
440.98	2260.96
441.18	2183.13
441.39	2129.89
441.59	2185.18
441.80	2371.55
442.00	2199.52
442.21	2383.84
442.41	2050.02
442.62	2340.83
442.82	2162.66
443.02	2220.00
443.23	2220.00
443.43	2195.42
443.64	2389.98
443.84	2150.37
444.05	2342.88
444.25	2168.80
444.46	2154.46
444.66	2183.13
444.87	2287.58
445.07	2070.50
445.28	2191.33
445.48	2283.49
445.69	2244.57
445.89	2330.59
446.09	2215.90
446.30	2508.76
446.50	2803.67
446.71	4448.19
446.91	5468.08
447.12	6242.21
447.32	6668.19
447.53	6281.12
447.73	5169.07
447.93	4579.26
448.14	4151.23
448.34	4061.12
448.55	3561.42
448.75	3672.01
448.96	3342.28
449.16	3020.75
449.36	2875.35
449.57	2531.29
449.77	2357.21
449.98	2285.53
450.18	2260.96
450.39	2283.49
450.59	2330.59
450.79	2258.91
451.00	2140.13
451.20	2170.85
451.41	2234.33
451.61	2244.57
451.81	2209.76
452.02	2209.76
452.22	2228.19
452.43	2125.79
452.63	2185.18
