SpectraSuite Data File
++++++++++++++++++++++++++++++++++++
Date: Thu May 05 12:35:51 CEST 2016
User: root
Dark Spectrum Present: No
Reference Spectrum Present: No
Number of Sampled Component Spectra: 1
Spectrometers: USB4C02835
Integration Time (usec): 100000 (USB4C02835)
Spectra Averaged: 1 (USB4C02835)
Boxcar Smoothing: 0 (USB4C02835)
Correct for Electrical Dark: No (USB4C02835)
Strobe/Lamp Enabled: No (USB4C02835)
Correct for Detector Non-linearity: No (USB4C02835)
Correct for Stray Light: No (USB4C02835)
Number of Pixels in Processed Spectrum: 3648
>>>>>Begin Processed Spectral Data<<<<<
177.47	1781.73
177.69	1781.73
177.91	1781.73
178.13	1726.44
178.36	1822.69
178.58	2054.11
178.80	2183.13
179.02	2062.30
179.24	2023.39
179.46	2070.50
179.68	2222.05
179.90	2205.66
180.13	2246.62
180.35	2070.50
180.57	2097.12
180.79	2232.29
181.01	2199.52
181.23	2224.09
181.45	2222.05
181.67	2281.44
181.90	2232.29
182.12	2209.76
182.34	2088.93
182.56	2209.76
182.78	2263.01
183.00	2093.02
183.22	2164.70
183.44	2017.25
183.66	2475.99
183.89	2258.91
184.11	2164.70
184.33	2273.25
184.55	2215.90
184.77	2138.08
184.99	2217.95
185.21	2174.94
185.43	2486.23
185.65	2105.31
185.87	2117.60
186.10	2439.13
186.32	2457.56
186.54	2179.04
186.76	2199.52
186.98	2291.68
187.20	2248.67
187.42	2060.26
187.64	2093.02
187.86	2240.48
188.08	2252.77
188.30	2064.35
188.52	2111.46
188.75	2289.63
188.97	2330.59
189.19	2076.64
189.41	2047.97
189.63	2234.33
189.85	2207.71
190.07	2115.55
190.29	2058.21
190.51	2205.66
190.73	2047.97
190.95	2209.76
191.17	2158.56
191.39	2066.40
191.61	2197.47
191.84	2121.70
192.06	2185.18
192.28	2070.50
192.50	2510.81
192.72	2105.31
192.94	2123.74
193.16	2371.55
193.38	2244.57
193.60	2074.59
193.82	2119.65
194.04	2342.88
194.26	2232.29
194.48	2115.55
194.70	2084.83
194.92	2127.84
195.14	2211.81
195.36	2127.84
195.58	2080.74
195.80	2113.50
196.02	2213.85
196.24	2125.79
196.46	2213.85
196.69	2127.84
196.91	2484.19
197.13	2117.60
197.35	2174.94
197.57	2336.73
197.79	2187.23
198.01	2127.84
198.23	2238.43
198.45	2250.72
198.67	2086.88
198.89	2103.26
199.11	2228.19
199.33	2195.42
199.55	1984.48
199.77	2133.98
199.99	2207.71
200.21	2095.07
200.43	2258.91
200.65	2066.40
200.87	2011.11
201.09	2322.40
201.31	2203.61
201.53	2197.47
201.75	2191.33
201.97	2207.71
202.19	2170.85
202.41	2222.05
202.63	2291.68
202.85	2162.66
203.07	2260.96
203.29	2162.66
203.51	2041.82
203.73	2160.61
203.95	2482.14
204.17	2082.78
204.39	2217.95
204.61	2228.19
204.83	2183.13
205.05	2172.89
205.27	2236.38
205.49	2369.50
205.71	2203.61
205.93	2052.06
206.15	2088.93
206.37	2144.22
206.59	2185.18
206.81	2060.26
207.03	2047.97
207.25	2148.32
207.47	2234.33
207.69	2113.50
207.91	2281.44
208.13	2324.44
208.34	2062.30
208.56	2062.30
208.78	2160.61
209.00	2113.50
209.22	2162.66
209.44	2193.37
209.66	2090.98
209.88	2201.57
210.10	2240.48
210.32	2090.98
210.54	2189.28
210.76	2244.57
210.98	2263.01
211.20	1941.47
211.42	2117.60
211.64	2357.21
211.86	2232.29
212.08	2154.46
212.30	2183.13
212.52	2170.85
212.74	2211.81
212.96	2101.22
213.17	2238.43
213.39	2322.40
213.61	2301.92
213.83	2146.27
214.05	2185.18
214.27	2301.92
214.49	2101.22
214.71	2129.89
214.93	2185.18
215.15	2234.33
215.37	2371.55
215.59	2035.68
215.81	2127.84
216.03	2244.57
216.24	2203.61
216.46	2056.16
216.68	2195.42
216.90	2179.04
217.12	2389.98
217.34	2170.85
217.56	2195.42
217.78	2265.05
218.00	2301.92
218.22	2150.37
218.44	2162.66
218.66	2226.14
218.87	2420.70
219.09	2045.92
219.31	2179.04
219.53	2242.53
219.75	2129.89
219.97	2076.64
220.19	2158.56
220.41	2199.52
220.63	2346.97
220.85	2260.96
221.06	2170.85
221.28	2342.88
221.50	2277.34
221.72	2258.91
221.94	2174.94
222.16	2244.57
222.38	2228.19
222.60	2185.18
222.82	2121.70
223.03	2203.61
223.25	2078.69
223.47	2195.42
223.69	2263.01
223.91	2293.72
224.13	2250.72
224.35	2107.36
224.57	2285.53
224.78	2199.52
225.00	2068.45
225.22	2215.90
225.44	2099.17
225.66	2254.81
225.88	2160.61
226.10	2146.27
226.32	2160.61
226.53	2293.72
226.75	2166.75
226.97	2160.61
227.19	2127.84
227.41	2176.99
227.63	2117.60
227.85	1988.58
228.06	2185.18
228.28	2236.38
228.50	2203.61
228.72	2011.11
228.94	2105.31
229.16	1988.58
229.37	2060.26
229.59	2123.74
229.81	2232.29
230.03	2088.93
230.25	2056.16
230.47	2011.11
230.69	2103.26
230.90	2226.14
231.12	2195.42
231.34	2174.94
231.56	2181.09
231.78	2082.78
232.00	2222.05
232.21	2113.50
232.43	2174.94
232.65	2056.16
232.87	2189.28
233.09	2039.78
233.30	2115.55
233.52	2338.78
233.74	2260.96
233.96	2088.93
234.18	2263.01
234.40	2166.75
234.61	2404.32
234.83	2015.20
235.05	2027.49
235.27	2310.11
235.49	2371.55
235.70	2086.88
235.92	2191.33
236.14	2273.25
236.36	2424.80
236.58	2045.92
236.79	2242.53
237.01	2217.95
237.23	2121.70
237.45	2310.11
237.67	2090.98
237.88	2179.04
238.10	2301.92
238.32	1970.15
238.54	2105.31
238.76	2183.13
238.97	2078.69
239.19	2056.16
239.41	2226.14
239.63	2285.53
239.85	2129.89
240.06	2215.90
240.28	2162.66
240.50	2287.58
240.72	2236.38
240.93	2052.06
241.15	2205.66
241.37	2260.96
241.59	2301.92
241.81	2146.27
242.02	2187.23
242.24	2215.90
242.46	2242.53
242.68	2017.25
242.89	2154.46
243.11	2342.88
243.33	2232.29
243.55	2195.42
243.76	2064.35
243.98	2172.89
244.20	2209.76
244.42	2179.04
244.64	2123.74
244.85	2047.97
245.07	2084.83
245.29	2172.89
245.51	2078.69
245.72	2248.67
245.94	2342.88
246.16	2179.04
246.38	2213.85
246.59	2131.94
246.81	2105.31
247.03	2136.03
247.24	2035.68
247.46	2183.13
247.68	2154.46
247.90	2168.80
248.11	2095.07
248.33	2220.00
248.55	2125.79
248.77	2189.28
248.98	2244.57
249.20	2371.55
249.42	2154.46
249.64	2185.18
249.85	2232.29
250.07	2117.60
250.29	2211.81
250.50	2207.71
250.72	2068.45
250.94	2176.99
251.16	2398.17
251.37	2138.08
251.59	2287.58
251.81	2273.25
252.02	2365.40
252.24	2150.37
252.46	2248.67
252.68	2146.27
252.89	2074.59
253.11	2011.11
253.33	2293.72
253.54	2349.02
253.76	2064.35
253.98	2119.65
254.20	2154.46
254.41	2031.58
254.63	2146.27
254.85	2041.82
255.06	2138.08
255.28	2203.61
255.50	2236.38
255.71	2101.22
255.93	2103.26
256.15	2150.37
256.36	2260.96
256.58	2093.02
256.80	2068.45
257.02	2166.75
257.23	2090.98
257.45	2115.55
257.67	2267.10
257.88	2158.56
258.10	2310.11
258.32	2111.46
258.53	2103.26
258.75	2316.25
258.97	2138.08
259.18	2127.84
259.40	2072.54
259.62	2342.88
259.83	2396.12
260.05	2156.51
260.27	2596.82
260.48	2238.43
260.70	2070.50
260.92	2119.65
261.13	2156.51
261.35	2230.24
261.57	2150.37
261.78	2025.44
262.00	2025.44
262.22	2312.16
262.43	2113.50
262.65	2113.50
262.86	2166.75
263.08	2359.26
263.30	2148.32
263.51	2031.58
263.73	2058.21
263.95	2310.11
264.16	2144.22
264.38	2121.70
264.60	2142.18
264.81	2160.61
265.03	2340.83
265.25	2318.30
265.46	2101.22
265.68	2328.54
265.89	2209.76
266.11	2054.11
266.33	2203.61
266.54	2248.67
266.76	2258.91
266.98	2271.20
267.19	2213.85
267.41	2295.77
267.62	2185.18
267.84	2019.30
268.06	2213.85
268.27	2236.38
268.49	2277.34
268.70	2154.46
268.92	2125.79
269.14	2179.04
269.35	2070.50
269.57	2136.03
269.79	2254.81
270.00	2154.46
270.22	2363.36
270.43	2080.74
270.65	2037.73
270.87	2283.49
271.08	2195.42
271.30	2252.77
271.51	2035.68
271.73	2238.43
271.95	2357.21
272.16	2166.75
272.38	2220.00
272.59	2195.42
272.81	2303.96
273.02	2152.42
273.24	2129.89
273.46	2340.83
273.67	2074.59
273.89	2047.97
274.10	2158.56
274.32	2363.36
274.54	2211.81
274.75	2187.23
274.97	2097.12
275.18	2283.49
275.40	2203.61
275.61	2209.76
275.83	2144.22
276.05	2148.32
276.26	2142.18
276.48	2226.14
276.69	2166.75
276.91	2187.23
277.12	2295.77
277.34	2195.42
277.55	2213.85
277.77	2207.71
277.99	2168.80
278.20	2019.30
278.42	2074.59
278.63	2070.50
278.85	2056.16
279.06	2115.55
279.28	2164.70
279.49	2301.92
279.71	2322.40
279.93	2146.27
280.14	2207.71
280.36	2107.36
280.57	2254.81
280.79	2299.87
281.00	2121.70
281.22	2113.50
281.43	2289.63
281.65	2004.96
281.86	2127.84
282.08	2203.61
282.29	2332.64
282.51	2127.84
282.73	2023.39
282.94	2056.16
283.16	2297.82
283.37	2326.49
283.59	2158.56
283.80	2220.00
284.02	2170.85
284.23	2258.91
284.45	2166.75
284.66	2115.55
284.88	2191.33
285.09	2170.85
285.31	2265.05
285.52	2199.52
285.74	2127.84
285.95	2222.05
286.17	2252.77
286.38	2285.53
286.60	2119.65
286.81	2201.57
287.03	2119.65
287.24	2230.24
287.46	2185.18
287.67	2150.37
287.89	2318.30
288.10	2203.61
288.32	2211.81
288.53	2291.68
288.75	2234.33
288.96	2273.25
289.18	2150.37
289.39	2152.42
289.61	2234.33
289.82	2414.56
290.04	2453.47
290.25	2060.26
290.47	2117.60
290.68	2168.80
290.90	2267.10
291.11	1961.95
291.33	2203.61
291.54	2105.31
291.76	2041.82
291.97	2179.04
292.18	2220.00
292.40	2183.13
292.61	2195.42
292.83	2349.02
293.04	2197.47
293.26	2248.67
293.47	2133.98
293.69	2131.94
293.90	2123.74
294.12	2342.88
294.33	2183.13
294.55	2205.66
294.76	2263.01
294.97	2336.73
295.19	2349.02
295.40	2109.41
295.62	2248.67
295.83	2297.82
296.05	2152.42
296.26	2244.57
296.48	2144.22
296.69	2199.52
296.90	2164.70
297.12	2283.49
297.33	2246.62
297.55	2211.81
297.76	2308.06
297.98	2250.72
298.19	2201.57
298.41	2176.99
298.62	2115.55
298.83	2303.96
299.05	2183.13
299.26	2154.46
299.48	2142.18
299.69	2252.77
299.90	2170.85
300.12	2099.17
300.33	2187.23
300.55	2242.53
300.76	2170.85
300.98	2129.89
301.19	2242.53
301.40	2119.65
301.62	2033.63
301.83	2283.49
302.05	2228.19
302.26	2138.08
302.47	2230.24
302.69	2076.64
302.90	2277.34
303.12	2041.82
303.33	2242.53
303.54	2373.60
303.76	2146.27
303.97	2195.42
304.19	2324.44
304.40	2021.35
304.61	2250.72
304.83	2283.49
305.04	2351.07
305.26	2234.33
305.47	2113.50
305.68	2197.47
305.90	2148.32
306.11	2297.82
306.33	2170.85
306.54	2019.30
306.75	2123.74
306.97	2019.30
307.18	2105.31
307.39	2121.70
307.61	2240.48
307.82	2166.75
308.04	2248.67
308.25	2113.50
308.46	2250.72
308.68	2211.81
308.89	2213.85
309.10	2258.91
309.32	2191.33
309.53	2215.90
309.74	2263.01
309.96	2207.71
310.17	2353.12
310.39	2058.21
310.60	2293.72
310.81	2236.38
311.03	2052.06
311.24	2252.77
311.45	2160.61
311.67	2373.60
311.88	2267.10
312.09	2213.85
312.31	2041.82
312.52	2109.41
312.73	2146.27
312.95	2029.54
313.16	2111.46
313.37	2316.25
313.59	2172.89
313.80	2224.09
314.01	2406.36
314.23	2146.27
314.44	2150.37
314.65	2043.87
314.87	2080.74
315.08	2181.09
315.29	2136.03
315.51	2127.84
315.72	2068.45
315.93	2234.33
316.15	2197.47
316.36	2090.98
316.57	2205.66
316.79	2203.61
317.00	2189.28
317.21	2318.30
317.43	2158.56
317.64	2166.75
317.85	2107.36
318.07	2111.46
318.28	2224.09
318.49	2312.16
318.70	2482.14
318.92	2367.45
319.13	2416.60
319.34	2359.26
319.56	2222.05
319.77	2269.15
319.98	2353.12
320.20	2338.78
320.41	2318.30
320.62	2207.71
320.83	2197.47
321.05	2400.22
321.26	2250.72
321.47	2217.95
321.69	2283.49
321.90	2064.35
322.11	2113.50
322.32	2256.86
322.54	2336.73
322.75	2093.02
322.96	2396.12
323.18	2060.26
323.39	2041.82
323.60	2133.98
323.81	2322.40
324.03	2160.61
324.24	2179.04
324.45	2133.98
324.66	2107.36
324.88	2275.29
325.09	2330.59
325.30	2095.07
325.52	2195.42
325.73	2224.09
325.94	2099.17
326.15	2062.30
326.37	2103.26
326.58	2267.10
326.79	2351.07
327.00	2105.31
327.22	2224.09
327.43	2131.94
327.64	2099.17
327.85	2250.72
328.07	2162.66
328.28	2340.83
328.49	2138.08
328.70	2197.47
328.92	2195.42
329.13	2236.38
329.34	2281.44
329.55	2281.44
329.76	2215.90
329.98	2166.75
330.19	2269.15
330.40	2211.81
330.61	2260.96
330.83	2281.44
331.04	2152.42
331.25	2195.42
331.46	2179.04
331.68	2080.74
331.89	2256.86
332.10	2129.89
332.31	2058.21
332.52	2179.04
332.74	2256.86
332.95	2052.06
333.16	2179.04
333.37	2252.77
333.58	2099.17
333.80	2187.23
334.01	2076.64
334.22	2097.12
334.43	2215.90
334.64	2152.42
334.86	2099.17
335.07	2088.93
335.28	2297.82
335.49	2154.46
335.70	2213.85
335.92	2283.49
336.13	2420.70
336.34	2314.20
336.55	2142.18
336.76	2181.09
336.98	2060.26
337.19	2150.37
337.40	2349.02
337.61	2394.08
337.82	2150.37
338.04	2244.57
338.25	2050.02
338.46	2191.33
338.67	2158.56
338.88	2133.98
339.09	2088.93
339.31	2187.23
339.52	2093.02
339.73	2070.50
339.94	2209.76
340.15	2244.57
340.36	2181.09
340.58	2107.36
340.79	2150.37
341.00	2250.72
341.21	2113.50
341.42	2324.44
341.63	2160.61
341.85	2199.52
342.06	2244.57
342.27	2125.79
342.48	2244.57
342.69	2099.17
342.90	2207.71
343.12	2271.20
343.33	2117.60
343.54	2293.72
343.75	2371.55
343.96	2228.19
344.17	2084.83
344.38	2193.37
344.60	2084.83
344.81	2052.06
345.02	2111.46
345.23	2289.63
345.44	2375.64
345.65	2201.57
345.86	2121.70
346.07	2244.57
346.29	2119.65
346.50	2244.57
346.71	2299.87
346.92	2324.44
347.13	2441.18
347.34	2224.09
347.55	2187.23
347.76	2250.72
347.98	2058.21
348.19	2215.90
348.40	2320.35
348.61	2195.42
348.82	2328.54
349.03	2232.29
349.24	2183.13
349.45	2363.36
349.66	2054.11
349.88	2150.37
350.09	2117.60
350.30	2342.88
350.51	2308.06
350.72	2160.61
350.93	2185.18
351.14	2195.42
351.35	2256.86
351.56	2107.36
351.77	2152.42
351.99	2252.77
352.20	2398.17
352.41	2232.29
352.62	2011.11
352.83	2179.04
353.04	2193.37
353.25	2158.56
353.46	2263.01
353.67	2381.79
353.88	2060.26
354.09	2189.28
354.30	2166.75
354.52	2254.81
354.73	2131.94
354.94	2105.31
355.15	2265.05
355.36	2355.16
355.57	2183.13
355.78	2242.53
355.99	2109.41
356.20	2162.66
356.41	2256.86
356.62	2254.81
356.83	2166.75
357.04	2334.68
357.25	2113.50
357.46	2148.32
357.68	2060.26
357.89	2084.83
358.10	2179.04
358.31	2142.18
358.52	2097.12
358.73	2062.30
358.94	2103.26
359.15	2107.36
359.36	2193.37
359.57	2203.61
359.78	2166.75
359.99	2220.00
360.20	2056.16
360.41	2211.81
360.62	2252.77
360.83	2160.61
361.04	2205.66
361.25	2248.67
361.46	2293.72
361.67	2224.09
361.88	2164.70
362.09	2232.29
362.30	2179.04
362.51	2084.83
362.72	2199.52
362.93	2277.34
363.14	2220.00
363.35	2265.05
363.56	2107.36
363.78	2334.68
363.99	2256.86
364.20	2146.27
364.41	2199.52
364.62	2402.27
364.83	2242.53
365.04	2154.46
365.25	2162.66
365.46	2342.88
365.67	2170.85
365.88	2172.89
366.09	2172.89
366.30	2166.75
366.51	2179.04
366.72	2111.46
366.93	2162.66
367.14	2123.74
367.35	2346.97
367.56	2156.51
367.77	2314.20
367.98	2199.52
368.18	2232.29
368.39	2260.96
368.60	2107.36
368.81	2267.10
369.02	2248.67
369.23	2213.85
369.44	2047.97
369.65	2099.17
369.86	2232.29
370.07	2267.10
370.28	2088.93
370.49	2164.70
370.70	2207.71
370.91	2086.88
371.12	2099.17
371.33	2308.06
371.54	2236.38
371.75	2265.05
371.96	1992.67
372.17	2252.77
372.38	2256.86
372.59	2185.18
372.80	2121.70
373.01	2203.61
373.22	2129.89
373.43	2226.14
373.64	2076.64
373.85	2408.41
374.06	2277.34
374.26	2234.33
374.47	2269.15
374.68	2336.73
374.89	2252.77
375.10	2129.89
375.31	2254.81
375.52	2244.57
375.73	2146.27
375.94	2052.06
376.15	2285.53
376.36	2119.65
376.57	2099.17
376.78	2099.17
376.99	2220.00
377.20	2301.92
377.40	2199.52
377.61	2381.79
377.82	2109.41
378.03	2306.01
378.24	2293.72
378.45	2215.90
378.66	2211.81
378.87	2064.35
379.08	2099.17
379.29	2162.66
379.50	2295.77
379.71	2197.47
379.91	2228.19
380.12	2176.99
380.33	2234.33
380.54	2170.85
380.75	2240.48
380.96	2117.60
381.17	2252.77
381.38	2250.72
381.59	2195.42
381.80	2199.52
382.00	2482.14
382.21	2299.87
382.42	2404.32
382.63	2432.99
382.84	2260.96
383.05	2277.34
383.26	2367.45
383.47	2168.80
383.68	2138.08
383.88	2258.91
384.09	2281.44
384.30	2355.16
384.51	2271.20
384.72	2150.37
384.93	2113.50
385.14	2203.61
385.35	2174.94
385.55	2062.30
385.76	2365.40
385.97	2174.94
386.18	2144.22
386.39	2115.55
386.60	2187.23
386.81	2199.52
387.02	2119.65
387.22	2144.22
387.43	2242.53
387.64	2287.58
387.85	2424.80
388.06	2455.51
388.27	4005.83
388.48	8537.98
388.68	12232.52
388.89	14407.46
389.10	15525.65
389.31	14352.16
389.52	11188.05
389.73	9695.08
389.93	8996.73
390.14	8142.72
390.35	7241.62
390.56	6385.57
390.77	5322.67
390.98	4052.93
391.18	3262.41
391.39	2686.94
391.60	2320.35
391.81	2387.93
392.02	2162.66
392.23	2443.23
392.43	2224.09
392.64	2340.83
392.85	2187.23
393.06	2359.26
393.27	2213.85
393.47	2183.13
393.68	2234.33
393.89	2148.32
394.10	2334.68
394.31	2105.31
394.52	2166.75
394.72	2156.51
394.93	2394.08
395.14	2095.07
395.35	2287.58
395.56	2193.37
395.76	2189.28
395.97	2265.05
396.18	2312.16
396.39	2383.84
396.60	2654.17
396.80	2492.38
397.01	2402.27
397.22	2293.72
397.43	2371.55
397.64	2162.66
397.84	2310.11
398.05	2424.80
398.26	2183.13
398.47	2306.01
398.67	2281.44
398.88	2195.42
399.09	2234.33
399.30	2127.84
399.51	2281.44
399.71	2148.32
399.92	2150.37
400.13	2232.29
400.34	2217.95
400.54	2146.27
400.75	2392.03
400.96	2203.61
401.17	2389.98
401.37	2246.62
401.58	2136.03
401.79	2236.38
402.00	2267.10
402.21	2594.78
402.41	2539.48
402.62	2521.05
402.83	2711.51
403.04	2682.84
403.24	2719.70
403.45	2365.40
403.66	2437.08
403.87	2383.84
404.07	2424.80
404.28	2455.51
404.49	2428.89
404.70	2301.92
404.90	2303.96
405.11	2195.42
405.32	2273.25
405.52	2056.16
405.73	2084.83
405.94	2113.50
406.15	2176.99
406.35	2263.01
406.56	2211.81
406.77	2220.00
406.98	2240.48
407.18	2127.84
407.39	2297.82
407.60	2117.60
407.80	2176.99
408.01	2152.42
408.22	2244.57
408.43	2111.46
408.63	2201.57
408.84	2285.53
409.05	2277.34
409.25	2101.22
409.46	2172.89
409.67	2127.84
409.88	2117.60
410.08	2226.14
410.29	2187.23
410.50	2306.01
410.70	2217.95
410.91	2097.12
411.12	2232.29
411.32	2203.61
411.53	2123.74
411.74	2326.49
411.95	2314.20
412.15	2240.48
412.36	2299.87
412.57	2242.53
412.77	2320.35
412.98	2236.38
413.19	2183.13
413.39	2187.23
413.60	2207.71
413.81	2400.22
414.01	2191.33
414.22	2279.39
414.43	2254.81
414.63	2191.33
414.84	2310.11
415.05	2289.63
415.25	2129.89
415.46	2289.63
415.67	2162.66
415.87	2172.89
416.08	2185.18
416.29	2176.99
416.49	2269.15
416.70	2166.75
416.91	2152.42
417.11	2203.61
417.32	2295.77
417.53	2346.97
417.73	2213.85
417.94	2129.89
418.15	2295.77
418.35	2164.70
418.56	2125.79
418.77	2406.36
418.97	2144.22
419.18	2162.66
419.38	1972.19
419.59	2191.33
419.80	2330.59
420.00	2166.75
420.21	2211.81
420.42	2314.20
420.62	2281.44
420.83	2179.04
421.04	2215.90
421.24	2295.77
421.45	2285.53
421.65	2236.38
421.86	2168.80
422.07	2242.53
422.27	2267.10
422.48	2183.13
422.69	2023.39
422.89	2224.09
423.10	2183.13
423.30	2136.03
423.51	2211.81
423.72	2197.47
423.92	2310.11
424.13	2043.87
424.33	2162.66
424.54	2326.49
424.75	2156.51
424.95	2355.16
425.16	2197.47
425.36	2224.09
425.57	2260.96
425.78	2197.47
425.98	2267.10
426.19	2103.26
426.39	2035.68
426.60	2174.94
426.81	2306.01
427.01	2158.56
427.22	2168.80
427.42	2058.21
427.63	2121.70
427.83	2365.40
428.04	2373.60
428.25	2306.01
428.45	2342.88
428.66	2363.36
428.86	2111.46
429.07	2162.66
429.28	2205.66
429.48	2172.89
429.69	2127.84
429.89	2131.94
430.10	2037.73
430.30	2289.63
430.51	2297.82
430.71	2107.36
430.92	2228.19
431.13	2078.69
431.33	2252.77
431.54	2277.34
431.74	2371.55
431.95	2330.59
432.15	2162.66
432.36	2193.37
432.56	2238.43
432.77	2371.55
432.98	2387.93
433.18	2185.18
433.39	2136.03
433.59	2213.85
433.80	2383.84
434.00	2414.56
434.21	2160.61
434.41	2070.50
434.62	2412.51
434.82	2109.41
435.03	2160.61
435.23	2226.14
435.44	2111.46
435.64	2207.71
435.85	2191.33
436.06	2234.33
436.26	2181.09
436.47	2172.89
436.67	2144.22
436.88	2181.09
437.08	2283.49
437.29	2332.64
437.49	2222.05
437.70	2346.97
437.90	2275.29
438.11	2430.94
438.31	2308.06
438.52	2414.56
438.72	2404.32
438.93	2482.14
439.13	2250.72
439.34	2338.78
439.54	2281.44
439.75	2318.30
439.95	2283.49
440.16	2144.22
440.36	2250.72
440.57	2250.72
440.77	2162.66
440.98	2217.95
441.18	2273.25
441.39	2156.51
441.59	2060.26
441.80	2422.75
442.00	2217.95
442.21	2291.68
442.41	2170.85
442.62	2303.96
442.82	2144.22
443.02	2174.94
443.23	2205.66
443.43	2152.42
443.64	2400.22
443.84	2187.23
444.05	2332.64
444.25	2213.85
444.46	2205.66
444.66	2220.00
444.87	2314.20
445.07	2152.42
445.28	2162.66
445.48	2381.79
445.69	2224.09
445.89	2531.29
446.09	2246.62
446.30	2564.06
446.50	2734.04
446.71	4356.03
446.91	5515.18
447.12	6485.92
447.32	6596.51
447.53	6231.97
447.73	5050.29
447.93	4560.83
448.14	4325.31
448.34	4136.90
448.55	3598.28
448.75	3495.88
448.96	3477.45
449.16	3014.61
449.36	2818.00
449.57	2463.71
449.77	2363.36
449.98	2201.57
450.18	2256.86
450.39	2279.39
450.59	2326.49
450.79	2179.04
451.00	2201.57
451.20	2277.34
451.41	2125.79
451.61	2230.24
451.81	2254.81
452.02	2168.80
452.22	2176.99
452.43	2154.46
452.63	2168.80
