SpectraSuite Data File
++++++++++++++++++++++++++++++++++++
Date: Thu May 05 12:35:52 CEST 2016
User: root
Dark Spectrum Present: No
Reference Spectrum Present: No
Number of Sampled Component Spectra: 1
Spectrometers: USB4C02835
Integration Time (usec): 100000 (USB4C02835)
Spectra Averaged: 1 (USB4C02835)
Boxcar Smoothing: 0 (USB4C02835)
Correct for Electrical Dark: No (USB4C02835)
Strobe/Lamp Enabled: No (USB4C02835)
Correct for Detector Non-linearity: No (USB4C02835)
Correct for Stray Light: No (USB4C02835)
Number of Pixels in Processed Spectrum: 3648
>>>>>Begin Processed Spectral Data<<<<<
177.47	1798.12
177.69	1798.12
177.91	1798.12
178.13	1802.21
178.36	1728.49
178.58	2144.22
178.80	2176.99
179.02	2041.82
179.24	2111.46
179.46	2062.30
179.68	2170.85
179.90	2193.37
180.13	2201.57
180.35	2041.82
180.57	2115.55
180.79	2236.38
181.01	2176.99
181.23	2301.92
181.45	2226.14
181.67	2146.27
181.90	2183.13
182.12	2119.65
182.34	2076.64
182.56	2283.49
182.78	2246.62
183.00	2031.58
183.22	2125.79
183.44	2029.54
183.66	2473.95
183.89	2191.33
184.11	2136.03
184.33	2127.84
184.55	2289.63
184.77	2156.51
184.99	2133.98
185.21	2172.89
185.43	2422.75
185.65	2068.45
185.87	2138.08
186.10	2400.22
186.32	2516.95
186.54	2162.66
186.76	2195.42
186.98	2277.34
187.20	2166.75
187.42	2070.50
187.64	2101.22
187.86	2150.37
188.08	2281.44
188.30	2166.75
188.52	2146.27
188.75	2330.59
188.97	2375.64
189.19	2099.17
189.41	2105.31
189.63	2224.09
189.85	2138.08
190.07	2045.92
190.29	2000.87
190.51	2226.14
190.73	2054.11
190.95	2326.49
191.17	2127.84
191.39	2043.87
191.61	2148.32
191.84	2066.40
192.06	2207.71
192.28	2064.35
192.50	2469.85
192.72	2121.70
192.94	2170.85
193.16	2285.53
193.38	2236.38
193.60	2017.25
193.82	2097.12
194.04	2326.49
194.26	2224.09
194.48	2146.27
194.70	2047.97
194.92	2150.37
195.14	2324.44
195.36	2060.26
195.58	2191.33
195.80	2170.85
196.02	2097.12
196.24	2082.78
196.46	2154.46
196.69	2123.74
196.91	2410.46
197.13	2101.22
197.35	2088.93
197.57	2336.73
197.79	2246.62
198.01	2179.04
198.23	2148.32
198.45	2244.57
198.67	2056.16
198.89	2121.70
199.11	2152.42
199.33	2113.50
199.55	1957.86
199.77	2056.16
199.99	2277.34
200.21	2232.29
200.43	2164.70
200.65	2015.20
200.87	2033.63
201.09	2230.24
201.31	2226.14
201.53	2256.86
201.75	2142.18
201.97	2220.00
202.19	2193.37
202.41	2277.34
202.63	2224.09
202.85	2213.85
203.07	2211.81
203.29	2090.98
203.51	2090.98
203.73	2082.78
203.95	2467.80
204.17	2281.44
204.39	2203.61
204.61	2142.18
204.83	2101.22
205.05	2240.48
205.27	2215.90
205.49	2357.21
205.71	2179.04
205.93	2047.97
206.15	2064.35
206.37	2256.86
206.59	2129.89
206.81	2019.30
207.03	2009.06
207.25	2037.73
207.47	2338.78
207.69	2207.71
207.91	2326.49
208.13	2371.55
208.34	2197.47
208.56	2047.97
208.78	2164.70
209.00	2181.09
209.22	2121.70
209.44	2060.26
209.66	2103.26
209.88	2207.71
210.10	2191.33
210.32	2119.65
210.54	2248.67
210.76	2154.46
210.98	2265.05
211.20	1974.24
211.42	2195.42
211.64	2283.49
211.86	2236.38
212.08	2205.66
212.30	2117.60
212.52	2203.61
212.74	2277.34
212.96	2203.61
213.17	2224.09
213.39	2281.44
213.61	2299.87
213.83	2176.99
214.05	2127.84
214.27	2336.73
214.49	2084.83
214.71	2090.98
214.93	2205.66
215.15	2138.08
215.37	2211.81
215.59	1943.52
215.81	2121.70
216.03	2416.60
216.24	2191.33
216.46	2150.37
216.68	2170.85
216.90	2324.44
217.12	2363.36
217.34	1998.82
217.56	2185.18
217.78	2328.54
218.00	2293.72
218.22	2144.22
218.44	2181.09
218.66	2281.44
218.87	2387.93
219.09	2176.99
219.31	2174.94
219.53	2228.19
219.75	2131.94
219.97	2166.75
220.19	2111.46
220.41	2168.80
220.63	2353.12
220.85	2211.81
221.06	2148.32
221.28	2297.82
221.50	2187.23
221.72	2160.61
221.94	2047.97
222.16	2179.04
222.38	2244.57
222.60	2189.28
222.82	2185.18
223.03	2326.49
223.25	2078.69
223.47	2146.27
223.69	2367.45
223.91	2220.00
224.13	2277.34
224.35	2095.07
224.57	2252.77
224.78	2205.66
225.00	2172.89
225.22	2113.50
225.44	2201.57
225.66	2232.29
225.88	2105.31
226.10	2191.33
226.32	2209.76
226.53	2324.44
226.75	2125.79
226.97	2152.42
227.19	2158.56
227.41	2109.41
227.63	2185.18
227.85	2047.97
228.06	2142.18
228.28	2220.00
228.50	2179.04
228.72	2086.88
228.94	2138.08
229.16	2068.45
229.37	2070.50
229.59	2084.83
229.81	2269.15
230.03	2154.46
230.25	2076.64
230.47	2000.87
230.69	1980.39
230.90	2258.91
231.12	2133.98
231.34	2097.12
231.56	2156.51
231.78	2035.68
232.00	2201.57
232.21	2144.22
232.43	2119.65
232.65	2021.35
232.87	2195.42
233.09	2064.35
233.30	2125.79
233.52	2310.11
233.74	2205.66
233.96	2113.50
234.18	2170.85
234.40	2189.28
234.61	2306.01
234.83	2052.06
235.05	2158.56
235.27	2412.51
235.49	2256.86
235.70	2090.98
235.92	2174.94
236.14	2263.01
236.36	2457.56
236.58	1974.24
236.79	2226.14
237.01	2168.80
237.23	2228.19
237.45	2342.88
237.67	2127.84
237.88	2187.23
238.10	2385.88
238.32	2097.12
238.54	2107.36
238.76	2183.13
238.97	2117.60
239.19	2099.17
239.41	2207.71
239.63	2301.92
239.85	2121.70
240.06	2193.37
240.28	2103.26
240.50	2324.44
240.72	2197.47
240.93	2109.41
241.15	2197.47
241.37	2138.08
241.59	2306.01
241.81	2172.89
242.02	2068.45
242.24	2203.61
242.46	2285.53
242.68	2027.49
242.89	2123.74
243.11	2279.39
243.33	2244.57
243.55	2140.13
243.76	2084.83
243.98	2138.08
244.20	2084.83
244.42	2109.41
244.64	2156.51
244.85	2144.22
245.07	2109.41
245.29	2174.94
245.51	2144.22
245.72	2209.76
245.94	2246.62
246.16	2207.71
246.38	2250.72
246.59	2115.55
246.81	2201.57
247.03	2107.36
247.24	2025.44
247.46	2117.60
247.68	2258.91
247.90	2072.54
248.11	2140.13
248.33	2334.68
248.55	2170.85
248.77	2203.61
248.98	2162.66
249.20	2306.01
249.42	2236.38
249.64	2217.95
249.85	2119.65
250.07	2179.04
250.29	2269.15
250.50	2138.08
250.72	2109.41
250.94	2181.09
251.16	2428.89
251.37	2271.20
251.59	2154.46
251.81	2271.20
252.02	2330.59
252.24	2113.50
252.46	2269.15
252.68	2117.60
252.89	2179.04
253.11	2027.49
253.33	2242.53
253.54	2328.54
253.76	2152.42
253.98	2088.93
254.20	2074.59
254.41	2064.35
254.63	2090.98
254.85	2080.74
255.06	2162.66
255.28	2334.68
255.50	2162.66
255.71	2080.74
255.93	2039.78
256.15	2152.42
256.36	2242.53
256.58	2105.31
256.80	2142.18
257.02	2154.46
257.23	2080.74
257.45	2211.81
257.67	2199.52
257.88	2127.84
258.10	2293.72
258.32	2162.66
258.53	2226.14
258.75	2373.60
258.97	2088.93
259.18	2045.92
259.40	2111.46
259.62	2287.58
259.83	2330.59
260.05	2162.66
260.27	2629.59
260.48	2260.96
260.70	2074.59
260.92	2062.30
261.13	2174.94
261.35	2232.29
261.57	2207.71
261.78	2037.73
262.00	2066.40
262.22	2246.62
262.43	2150.37
262.65	2111.46
262.86	2179.04
263.08	2392.03
263.30	2142.18
263.51	2023.39
263.73	2035.68
263.95	2351.07
264.16	2064.35
264.38	2045.92
264.60	2037.73
264.81	2224.09
265.03	2265.05
265.25	2265.05
265.46	2097.12
265.68	2316.25
265.89	2252.77
266.11	1968.10
266.33	2144.22
266.54	2346.97
266.76	2195.42
266.98	2220.00
267.19	2244.57
267.41	2293.72
267.62	2142.18
267.84	2015.20
268.06	2189.28
268.27	2133.98
268.49	2318.30
268.70	2158.56
268.92	2142.18
269.14	2105.31
269.35	2072.54
269.57	2179.04
269.79	2164.70
270.00	2111.46
270.22	2367.45
270.43	2093.02
270.65	1976.29
270.87	2207.71
271.08	2291.68
271.30	2301.92
271.51	2111.46
271.73	2248.67
271.95	2340.83
272.16	2187.23
272.38	2166.75
272.59	2152.42
272.81	2291.68
273.02	2181.09
273.24	2140.13
273.46	2308.06
273.67	2113.50
273.89	2035.68
274.10	2121.70
274.32	2318.30
274.54	2176.99
274.75	2207.71
274.97	2111.46
275.18	2234.33
275.40	2209.76
275.61	2140.13
275.83	2162.66
276.05	2068.45
276.26	2234.33
276.48	2295.77
276.69	2203.61
276.91	2064.35
277.12	2320.35
277.34	2240.48
277.55	2215.90
277.77	2263.01
277.99	2103.26
278.20	2125.79
278.42	2035.68
278.63	2127.84
278.85	2154.46
279.06	2076.64
279.28	2222.05
279.49	2326.49
279.71	2252.77
279.93	2154.46
280.14	2158.56
280.36	2174.94
280.57	2285.53
280.79	2199.52
281.00	2136.03
281.22	2131.94
281.43	2316.25
281.65	1974.24
281.86	2068.45
282.08	2293.72
282.29	2371.55
282.51	2084.83
282.73	2090.98
282.94	1976.29
283.16	2215.90
283.37	2326.49
283.59	2181.09
283.80	2242.53
284.02	2185.18
284.23	2238.43
284.45	2166.75
284.66	2021.35
284.88	2205.66
285.09	2158.56
285.31	2250.72
285.52	2203.61
285.74	2072.54
285.95	2283.49
286.17	2215.90
286.38	2220.00
286.60	2203.61
286.81	2088.93
287.03	2183.13
287.24	2211.81
287.46	2172.89
287.67	2217.95
287.89	2293.72
288.10	2224.09
288.32	2232.29
288.53	2236.38
288.75	2162.66
288.96	2258.91
289.18	2162.66
289.39	2220.00
289.61	2228.19
289.82	2408.41
290.04	2416.60
290.25	2090.98
290.47	2246.62
290.68	2211.81
290.90	2197.47
291.11	2007.01
291.33	2273.25
291.54	2125.79
291.76	2123.74
291.97	2144.22
292.18	2240.48
292.40	2146.27
292.61	2099.17
292.83	2381.79
293.04	2164.70
293.26	2248.67
293.47	2203.61
293.69	2068.45
293.90	2133.98
294.12	2287.58
294.33	2252.77
294.55	2111.46
294.76	2293.72
294.97	2389.98
295.19	2381.79
295.40	2179.04
295.62	2232.29
295.83	2244.57
296.05	2121.70
296.26	2402.27
296.48	2113.50
296.69	2220.00
296.90	2222.05
297.12	2283.49
297.33	2220.00
297.55	2232.29
297.76	2248.67
297.98	2295.77
298.19	2158.56
298.41	2176.99
298.62	2166.75
298.83	2269.15
299.05	2230.24
299.26	2215.90
299.48	2109.41
299.69	2203.61
299.90	2166.75
300.12	2035.68
300.33	2258.91
300.55	2121.70
300.76	2220.00
300.98	2068.45
301.19	2277.34
301.40	2097.12
301.62	2152.42
301.83	2267.10
302.05	2199.52
302.26	2201.57
302.47	2195.42
302.69	2101.22
302.90	2226.14
303.12	1986.53
303.33	2254.81
303.54	2394.08
303.76	2144.22
303.97	2207.71
304.19	2275.29
304.40	2113.50
304.61	2228.19
304.83	2344.92
305.04	2326.49
305.26	2246.62
305.47	2187.23
305.68	2152.42
305.90	2111.46
306.11	2269.15
306.33	2127.84
306.54	2109.41
306.75	2068.45
306.97	2052.06
307.18	2172.89
307.39	2195.42
307.61	2299.87
307.82	2176.99
308.04	2260.96
308.25	2095.07
308.46	2191.33
308.68	2234.33
308.89	2097.12
309.10	2291.68
309.32	2224.09
309.53	2193.37
309.74	2156.51
309.96	2129.89
310.17	2269.15
310.39	2121.70
310.60	2252.77
310.81	2172.89
311.03	2013.15
311.24	2224.09
311.45	2103.26
311.67	2404.32
311.88	2199.52
312.09	2109.41
312.31	2172.89
312.52	2097.12
312.73	2168.80
312.95	2027.49
313.16	2152.42
313.37	2263.01
313.59	2191.33
313.80	2338.78
314.01	2379.74
314.23	2152.42
314.44	2207.71
314.65	2142.18
314.87	2142.18
315.08	2193.37
315.29	2150.37
315.51	2031.58
315.72	2111.46
315.93	2342.88
316.15	2236.38
316.36	2136.03
316.57	2222.05
316.79	2254.81
317.00	2138.08
317.21	2193.37
317.43	2136.03
317.64	2187.23
317.85	2107.36
318.07	2095.07
318.28	2156.51
318.49	2414.56
318.70	2484.19
318.92	2338.78
319.13	2334.68
319.34	2379.74
319.56	2326.49
319.77	2306.01
319.98	2346.97
320.20	2291.68
320.41	2306.01
320.62	2310.11
320.83	2129.89
321.05	2355.16
321.26	2117.60
321.47	2119.65
321.69	2301.92
321.90	2127.84
322.11	2138.08
322.32	2109.41
322.54	2361.31
322.75	2113.50
322.96	2447.32
323.18	2111.46
323.39	2084.83
323.60	2162.66
323.81	2217.95
324.03	2142.18
324.24	2058.21
324.45	2181.09
324.66	2111.46
324.88	2240.48
325.09	2330.59
325.30	2127.84
325.52	2203.61
325.73	2209.76
325.94	2109.41
326.15	2035.68
326.37	2054.11
326.58	2256.86
326.79	2238.43
327.00	2072.54
327.22	2148.32
327.43	2256.86
327.64	2160.61
327.85	2281.44
328.07	2224.09
328.28	2267.10
328.49	2082.78
328.70	2127.84
328.92	2109.41
329.13	2207.71
329.34	2185.18
329.55	2375.64
329.76	2250.72
329.98	2170.85
330.19	2355.16
330.40	2193.37
330.61	2185.18
330.83	2301.92
331.04	2185.18
331.25	2244.57
331.46	2144.22
331.68	2131.94
331.89	2312.16
332.10	2162.66
332.31	2062.30
332.52	2211.81
332.74	2297.82
332.95	2054.11
333.16	2197.47
333.37	2248.67
333.58	2107.36
333.80	2125.79
334.01	2007.01
334.22	2183.13
334.43	2150.37
334.64	2138.08
334.86	2052.06
335.07	2121.70
335.28	2394.08
335.49	2154.46
335.70	2258.91
335.92	2265.05
336.13	2473.95
336.34	2207.71
336.55	2211.81
336.76	2256.86
336.98	2052.06
337.19	2203.61
337.40	2342.88
337.61	2482.14
337.82	2170.85
338.04	2244.57
338.25	2043.87
338.46	2195.42
338.67	2179.04
338.88	2101.22
339.09	2074.59
339.31	2119.65
339.52	2070.50
339.73	2093.02
339.94	2209.76
340.15	2228.19
340.36	2164.70
340.58	2273.25
340.79	2072.54
341.00	2199.52
341.21	2064.35
341.42	2377.69
341.63	2140.13
341.85	2332.64
342.06	2199.52
342.27	2025.44
342.48	2215.90
342.69	2060.26
342.90	2197.47
343.12	2279.39
343.33	2070.50
343.54	2308.06
343.75	2301.92
343.96	2195.42
344.17	2156.51
344.38	2232.29
344.60	2047.97
344.81	2146.27
345.02	2191.33
345.23	2256.86
345.44	2514.91
345.65	2224.09
345.86	2240.48
346.07	2254.81
346.29	2152.42
346.50	2199.52
346.71	2279.39
346.92	2273.25
347.13	2392.03
347.34	2158.56
347.55	2127.84
347.76	2217.95
347.98	2033.63
348.19	2172.89
348.40	2316.25
348.61	2162.66
348.82	2369.50
349.03	2258.91
349.24	2111.46
349.45	2377.69
349.66	2002.91
349.88	2228.19
350.09	2119.65
350.30	2326.49
350.51	2303.96
350.72	2203.61
350.93	2310.11
351.14	2113.50
351.35	2205.66
351.56	2193.37
351.77	2211.81
351.99	2236.38
352.20	2334.68
352.41	2283.49
352.62	1980.39
352.83	2162.66
353.04	2242.53
353.25	2111.46
353.46	2303.96
353.67	2285.53
353.88	2078.69
354.09	2095.07
354.30	2209.76
354.52	2181.09
354.73	2326.49
354.94	2131.94
355.15	2121.70
355.36	2389.98
355.57	2187.23
355.78	2168.80
355.99	2148.32
356.20	2152.42
356.41	2357.21
356.62	2172.89
356.83	2203.61
357.04	2312.16
357.25	2023.39
357.46	2113.50
357.68	2021.35
357.89	2121.70
358.10	2125.79
358.31	2146.27
358.52	2195.42
358.73	2097.12
358.94	2127.84
359.15	2142.18
359.36	2250.72
359.57	2289.63
359.78	2256.86
359.99	2179.04
360.20	2095.07
360.41	2195.42
360.62	2193.37
360.83	2201.57
361.04	2162.66
361.25	2258.91
361.46	2314.20
361.67	2228.19
361.88	2310.11
362.09	2267.10
362.30	2222.05
362.51	2121.70
362.72	2133.98
362.93	2297.82
363.14	2285.53
363.35	2195.42
363.56	2115.55
363.78	2275.29
363.99	2295.77
364.20	2054.11
364.41	2138.08
364.62	2379.74
364.83	2183.13
365.04	2131.94
365.25	2160.61
365.46	2416.60
365.67	2191.33
365.88	2246.62
366.09	2136.03
366.30	2162.66
366.51	2166.75
366.72	2093.02
366.93	2236.38
367.14	2162.66
367.35	2328.54
367.56	2187.23
367.77	2322.40
367.98	2111.46
368.18	2191.33
368.39	2215.90
368.60	2115.55
368.81	2232.29
369.02	2244.57
369.23	2168.80
369.44	2099.17
369.65	2193.37
369.86	2267.10
370.07	2256.86
370.28	2043.87
370.49	2226.14
370.70	2213.85
370.91	2152.42
371.12	2174.94
371.33	2269.15
371.54	2123.74
371.75	2357.21
371.96	2027.49
372.17	2211.81
372.38	2193.37
372.59	2256.86
372.80	2099.17
373.01	2154.46
373.22	2285.53
373.43	2138.08
373.64	2035.68
373.85	2269.15
374.06	2326.49
374.26	2293.72
374.47	2207.71
374.68	2271.20
374.89	2152.42
375.10	2236.38
375.31	2238.43
375.52	2215.90
375.73	2242.53
375.94	2129.89
376.15	2314.20
376.36	2158.56
376.57	2099.17
376.78	2129.89
376.99	2179.04
377.20	2375.64
377.40	2164.70
377.61	2400.22
377.82	2035.68
378.03	2281.44
378.24	2160.61
378.45	2138.08
378.66	2195.42
378.87	2047.97
379.08	2119.65
379.29	2111.46
379.50	2258.91
379.71	2242.53
379.91	2215.90
380.12	2162.66
380.33	2201.57
380.54	2193.37
380.75	2160.61
380.96	2197.47
381.17	2183.13
381.38	2209.76
381.59	2279.39
381.80	2203.61
382.00	2424.80
382.21	2271.20
382.42	2371.55
382.63	2432.99
382.84	2291.68
383.05	2297.82
383.26	2299.87
383.47	2179.04
383.68	2289.63
383.88	2242.53
384.09	2209.76
384.30	2396.12
384.51	2168.80
384.72	2070.50
384.93	2140.13
385.14	2226.14
385.35	2238.43
385.55	2047.97
385.76	2363.36
385.97	2133.98
386.18	2062.30
386.39	2125.79
386.60	2174.94
386.81	2166.75
387.02	2103.26
387.22	2152.42
387.43	2340.83
387.64	2301.92
387.85	2346.97
388.06	2420.70
388.27	3981.25
388.48	8439.68
388.68	12119.88
388.89	14419.75
389.10	15511.32
389.31	14407.46
389.52	11308.88
389.73	9457.52
389.93	8740.73
390.14	7942.02
390.35	7251.86
390.56	6559.64
390.77	5373.87
390.98	4003.78
391.18	3260.37
391.39	2799.57
391.60	2310.11
391.81	2412.51
392.02	2176.99
392.23	2310.11
392.43	2224.09
392.64	2303.96
392.85	2111.46
393.06	2322.40
393.27	2201.57
393.47	2082.78
393.68	2215.90
393.89	2160.61
394.10	2373.60
394.31	2121.70
394.52	2070.50
394.72	2152.42
394.93	2357.21
395.14	2095.07
395.35	2265.05
395.56	2119.65
395.76	2187.23
395.97	2308.06
396.18	2365.40
396.39	2326.49
396.60	2684.89
396.80	2467.80
397.01	2379.74
397.22	2383.84
397.43	2396.12
397.64	2258.91
397.84	2224.09
398.05	2424.80
398.26	2258.91
398.47	2201.57
398.67	2394.08
398.88	2176.99
399.09	2265.05
399.30	2181.09
399.51	2275.29
399.71	2174.94
399.92	2242.53
400.13	2215.90
400.34	2179.04
400.54	2185.18
400.75	2312.16
400.96	2236.38
401.17	2357.21
401.37	2242.53
401.58	2203.61
401.79	2217.95
402.00	2351.07
402.21	2580.44
402.41	2594.78
402.62	2617.30
402.83	2588.63
403.04	2668.50
403.24	2693.08
403.45	2306.01
403.66	2494.43
403.87	2432.99
404.07	2506.71
404.28	2480.09
404.49	2473.95
404.70	2224.09
404.90	2355.16
405.11	2242.53
405.32	2275.29
405.52	2199.52
405.73	2142.18
405.94	2154.46
406.15	2256.86
406.35	2236.38
406.56	2281.44
406.77	2193.37
406.98	2154.46
407.18	2187.23
407.39	2277.34
407.60	2232.29
407.80	2154.46
408.01	2217.95
408.22	2226.14
408.43	2070.50
408.63	2199.52
408.84	2334.68
409.05	2230.24
409.25	2125.79
409.46	2162.66
409.67	2154.46
409.88	2187.23
410.08	2244.57
410.29	2125.79
410.50	2308.06
410.70	2260.96
410.91	2146.27
411.12	2250.72
411.32	2252.77
411.53	2097.12
411.74	2234.33
411.95	2330.59
412.15	2336.73
412.36	2295.77
412.57	2342.88
412.77	2410.46
412.98	2236.38
413.19	2207.71
413.39	2260.96
413.60	2215.90
413.81	2330.59
414.01	2136.03
414.22	2195.42
414.43	2244.57
414.63	2185.18
414.84	2361.31
415.05	2183.13
415.25	2121.70
415.46	2312.16
415.67	2117.60
415.87	2226.14
416.08	2187.23
416.29	2138.08
416.49	2263.01
416.70	2191.33
416.91	2193.37
417.11	2258.91
417.32	2248.67
417.53	2293.72
417.73	2285.53
417.94	2095.07
418.15	2246.62
418.35	2185.18
418.56	2191.33
418.77	2406.36
418.97	2215.90
419.18	2179.04
419.38	2009.06
419.59	2211.81
419.80	2289.63
420.00	2220.00
420.21	2207.71
420.42	2402.27
420.62	2191.33
420.83	2103.26
421.04	2144.22
421.24	2136.03
421.45	2310.11
421.65	2240.48
421.86	2062.30
422.07	2232.29
422.27	2226.14
422.48	2201.57
422.69	2093.02
422.89	2138.08
423.10	2142.18
423.30	2093.02
423.51	2195.42
423.72	2195.42
423.92	2396.12
424.13	2064.35
424.33	2176.99
424.54	2269.15
424.75	2213.85
424.95	2291.68
425.16	2232.29
425.36	2179.04
425.57	2367.45
425.78	2248.67
425.98	2263.01
426.19	2195.42
426.39	2039.78
426.60	2244.57
426.81	2213.85
427.01	2236.38
427.22	2146.27
427.42	2019.30
427.63	2144.22
427.83	2265.05
428.04	2394.08
428.25	2340.83
428.45	2281.44
428.66	2283.49
428.86	2269.15
429.07	2191.33
429.28	2228.19
429.48	2176.99
429.69	2109.41
429.89	2156.51
430.10	2090.98
430.30	2346.97
430.51	2297.82
430.71	2103.26
430.92	2203.61
431.13	2160.61
431.33	2232.29
431.54	2256.86
431.74	2355.16
431.95	2473.95
432.15	2062.30
432.36	2234.33
432.56	2260.96
432.77	2342.88
432.98	2306.01
433.18	2260.96
433.39	2111.46
433.59	2166.75
433.80	2420.70
434.00	2322.40
434.21	2228.19
434.41	2142.18
434.62	2338.78
434.82	2097.12
435.03	2142.18
435.23	2228.19
435.44	2019.30
435.64	2187.23
435.85	2226.14
436.06	2277.34
436.26	2336.73
436.47	2189.28
436.67	2133.98
436.88	2103.26
437.08	2301.92
437.29	2281.44
437.49	2277.34
437.70	2394.08
437.90	2230.24
438.11	2351.07
438.31	2230.24
438.52	2416.60
438.72	2373.60
438.93	2490.33
439.13	2312.16
439.34	2351.07
439.54	2136.03
439.75	2301.92
439.95	2293.72
440.16	2084.83
440.36	2193.37
440.57	2269.15
440.77	2236.38
440.98	2238.43
441.18	2238.43
441.39	2084.83
441.59	2056.16
441.80	2428.89
442.00	2250.72
442.21	2351.07
442.41	2031.58
442.62	2281.44
442.82	2131.94
443.02	2146.27
443.23	2289.63
443.43	2176.99
443.64	2267.10
443.84	2142.18
444.05	2371.55
444.25	2195.42
444.46	2220.00
444.66	2152.42
444.87	2316.25
445.07	2076.64
445.28	2152.42
445.48	2394.08
445.69	2248.67
445.89	2494.43
446.09	2222.05
446.30	2553.82
446.50	2691.03
446.71	4407.23
446.91	5502.89
447.12	6307.74
447.32	6537.12
447.53	6272.93
447.73	5173.17
447.93	4544.44
448.14	4247.49
448.34	4020.16
448.55	3659.72
448.75	3588.04
448.96	3475.40
449.16	3084.24
449.36	2838.48
449.57	2486.23
449.77	2346.97
449.98	2285.53
450.18	2240.48
450.39	2258.91
450.59	2314.20
450.79	2201.57
451.00	2187.23
451.20	2306.01
451.41	2260.96
451.61	2267.10
451.81	2267.10
452.02	2154.46
452.22	2154.46
452.43	2156.51
452.63	2228.19
