SpectraSuite Data File
++++++++++++++++++++++++++++++++++++
Date: Thu May 05 12:35:54 CEST 2016
User: root
Dark Spectrum Present: No
Reference Spectrum Present: No
Number of Sampled Component Spectra: 1
Spectrometers: USB4C02835
Integration Time (usec): 100000 (USB4C02835)
Spectra Averaged: 1 (USB4C02835)
Boxcar Smoothing: 0 (USB4C02835)
Correct for Electrical Dark: No (USB4C02835)
Strobe/Lamp Enabled: No (USB4C02835)
Correct for Detector Non-linearity: No (USB4C02835)
Correct for Stray Light: No (USB4C02835)
Number of Pixels in Processed Spectrum: 3648
>>>>>Begin Processed Spectral Data<<<<<
177.47	1710.05
177.69	1710.05
177.91	1710.05
178.13	1722.34
178.36	1820.64
178.58	2052.06
178.80	2203.61
179.02	2015.20
179.24	2172.89
179.46	2105.31
179.68	2224.09
179.90	2170.85
180.13	2226.14
180.35	2039.78
180.57	2123.74
180.79	2222.05
181.01	2238.43
181.23	2209.76
181.45	2316.25
181.67	2179.04
181.90	2291.68
182.12	2133.98
182.34	2056.16
182.56	2283.49
182.78	2185.18
183.00	2084.83
183.22	2256.86
183.44	2082.78
183.66	2414.56
183.89	2291.68
184.11	2148.32
184.33	2123.74
184.55	2314.20
184.77	2127.84
184.99	2138.08
185.21	2090.98
185.43	2465.75
185.65	2164.70
185.87	2097.12
186.10	2353.12
186.32	2373.60
186.54	2146.27
186.76	2168.80
186.98	2279.39
187.20	2170.85
187.42	2142.18
187.64	2240.48
187.86	2232.29
188.08	2287.58
188.30	2086.88
188.52	2176.99
188.75	2338.78
188.97	2281.44
189.19	2013.15
189.41	2080.74
189.63	2248.67
189.85	2158.56
190.07	2007.01
190.29	2068.45
190.51	2191.33
190.73	2047.97
190.95	2158.56
191.17	2111.46
191.39	2099.17
191.61	2160.61
191.84	2129.89
192.06	2228.19
192.28	2021.35
192.50	2488.28
192.72	2267.10
192.94	2162.66
193.16	2222.05
193.38	2207.71
193.60	1994.72
193.82	2160.61
194.04	2359.26
194.26	2185.18
194.48	2189.28
194.70	2039.78
194.92	2166.75
195.14	2248.67
195.36	2158.56
195.58	2138.08
195.80	2146.27
196.02	2150.37
196.24	2088.93
196.46	2138.08
196.69	2090.98
196.91	2451.42
197.13	2133.98
197.35	2152.42
197.57	2338.78
197.79	2295.77
198.01	2213.85
198.23	2222.05
198.45	2187.23
198.67	2125.79
198.89	2119.65
199.11	2213.85
199.33	2203.61
199.55	2043.87
199.77	2176.99
199.99	2224.09
200.21	2203.61
200.43	2260.96
200.65	2029.54
200.87	1990.63
201.09	2160.61
201.31	2142.18
201.53	2285.53
201.75	2138.08
201.97	2183.13
202.19	2211.81
202.41	2234.33
202.63	2312.16
202.85	2244.57
203.07	2263.01
203.29	2029.54
203.51	2025.44
203.73	2142.18
203.95	2496.47
204.17	2121.70
204.39	2209.76
204.61	2176.99
204.83	2121.70
205.05	2129.89
205.27	2117.60
205.49	2334.68
205.71	2265.05
205.93	2078.69
206.15	2072.54
206.37	2197.47
206.59	2185.18
206.81	2060.26
207.03	2064.35
207.25	2140.13
207.47	2260.96
207.69	2062.30
207.91	2244.57
208.13	2316.25
208.34	2168.80
208.56	2084.83
208.78	2203.61
209.00	2111.46
209.22	2121.70
209.44	2185.18
209.66	2052.06
209.88	2191.33
210.10	2140.13
210.32	2080.74
210.54	2224.09
210.76	2244.57
210.98	2277.34
211.20	1984.48
211.42	2127.84
211.64	2248.67
211.86	2254.81
212.08	2213.85
212.30	2138.08
212.52	2154.46
212.74	2260.96
212.96	2170.85
213.17	2275.29
213.39	2236.38
213.61	2310.11
213.83	2183.13
214.05	2191.33
214.27	2291.68
214.49	2070.50
214.71	2072.54
214.93	2250.72
215.15	2252.77
215.37	2283.49
215.59	2052.06
215.81	2279.39
216.03	2320.35
216.24	2291.68
216.46	2152.42
216.68	2189.28
216.90	2308.06
217.12	2320.35
217.34	2113.50
217.56	2228.19
217.78	2428.89
218.00	2277.34
218.22	2080.74
218.44	2158.56
218.66	2240.48
218.87	2334.68
219.09	2078.69
219.31	2179.04
219.53	2199.52
219.75	2080.74
219.97	2107.36
220.19	2117.60
220.41	2179.04
220.63	2308.06
220.85	2168.80
221.06	2127.84
221.28	2283.49
221.50	2217.95
221.72	2129.89
221.94	2086.88
222.16	2176.99
222.38	2236.38
222.60	2191.33
222.82	2185.18
223.03	2240.48
223.25	2107.36
223.47	2181.09
223.69	2211.81
223.91	2318.30
224.13	2174.94
224.35	2050.02
224.57	2299.87
224.78	2207.71
225.00	2150.37
225.22	2162.66
225.44	2129.89
225.66	2183.13
225.88	2222.05
226.10	2244.57
226.32	2136.03
226.53	2389.98
226.75	2191.33
226.97	2170.85
227.19	2084.83
227.41	2138.08
227.63	2154.46
227.85	2041.82
228.06	2172.89
228.28	2217.95
228.50	2326.49
228.72	1998.82
228.94	2107.36
229.16	1994.72
229.37	2082.78
229.59	1994.72
229.81	2252.77
230.03	2070.50
230.25	2072.54
230.47	2007.01
230.69	2050.02
230.90	2201.57
231.12	2129.89
231.34	2138.08
231.56	2168.80
231.78	2123.74
232.00	2226.14
232.21	2158.56
232.43	2113.50
232.65	2015.20
232.87	2211.81
233.09	2086.88
233.30	2072.54
233.52	2283.49
233.74	2179.04
233.96	2084.83
234.18	2160.61
234.40	2230.24
234.61	2385.88
234.83	2068.45
235.05	2043.87
235.27	2408.41
235.49	2283.49
235.70	2064.35
235.92	2197.47
236.14	2197.47
236.36	2398.17
236.58	2043.87
236.79	2146.27
237.01	2168.80
237.23	2154.46
237.45	2260.96
237.67	2123.74
237.88	2269.15
238.10	2441.18
238.32	2037.73
238.54	2121.70
238.76	2209.76
238.97	2138.08
239.19	2105.31
239.41	2195.42
239.63	2320.35
239.85	2148.32
240.06	2113.50
240.28	2070.50
240.50	2213.85
240.72	2183.13
240.93	2080.74
241.15	2279.39
241.37	2234.33
241.59	2355.16
241.81	2158.56
242.02	2162.66
242.24	2222.05
242.46	2230.24
242.68	2111.46
242.89	2111.46
243.11	2265.05
243.33	2174.94
243.55	2072.54
243.76	2217.95
243.98	2152.42
244.20	2195.42
244.42	2119.65
244.64	2185.18
244.85	2076.64
245.07	2160.61
245.29	2170.85
245.51	2168.80
245.72	2209.76
245.94	2306.01
246.16	2144.22
246.38	2273.25
246.59	2105.31
246.81	2070.50
247.03	2035.68
247.24	2023.39
247.46	2148.32
247.68	2232.29
247.90	2097.12
248.11	2150.37
248.33	2281.44
248.55	2172.89
248.77	2211.81
248.98	2199.52
249.20	2303.96
249.42	2226.14
249.64	2158.56
249.85	2093.02
250.07	2113.50
250.29	2209.76
250.50	2176.99
250.72	2068.45
250.94	2220.00
251.16	2412.51
251.37	2187.23
251.59	2197.47
251.81	2240.48
252.02	2291.68
252.24	2052.06
252.46	2195.42
252.68	2127.84
252.89	2164.70
253.11	2007.01
253.33	2308.06
253.54	2275.29
253.76	2062.30
253.98	2080.74
254.20	2084.83
254.41	2093.02
254.63	2189.28
254.85	2093.02
255.06	2154.46
255.28	2267.10
255.50	2117.60
255.71	2121.70
255.93	2095.07
256.15	2179.04
256.36	2211.81
256.58	2093.02
256.80	2160.61
257.02	2127.84
257.23	2140.13
257.45	2138.08
257.67	2201.57
257.88	2172.89
258.10	2191.33
258.32	2215.90
258.53	2183.13
258.75	2349.02
258.97	2136.03
259.18	2136.03
259.40	2093.02
259.62	2408.41
259.83	2357.21
260.05	2176.99
260.27	2600.92
260.48	2287.58
260.70	2060.26
260.92	2045.92
261.13	2140.13
261.35	2275.29
261.57	2256.86
261.78	1974.24
262.00	2027.49
262.22	2201.57
262.43	2109.41
262.65	2078.69
262.86	2115.55
263.08	2428.89
263.30	2203.61
263.51	2054.11
263.73	2131.94
263.95	2416.60
264.16	2166.75
264.38	2062.30
264.60	2256.86
264.81	2181.09
265.03	2197.47
265.25	2236.38
265.46	2144.22
265.68	2250.72
265.89	2310.11
266.11	1957.86
266.33	2179.04
266.54	2318.30
266.76	2265.05
266.98	2117.60
267.19	2205.66
267.41	2273.25
267.62	2179.04
267.84	2019.30
268.06	2211.81
268.27	2166.75
268.49	2289.63
268.70	2152.42
268.92	2172.89
269.14	2107.36
269.35	2101.22
269.57	2179.04
269.79	2224.09
270.00	2125.79
270.22	2441.18
270.43	2107.36
270.65	2017.25
270.87	2179.04
271.08	2295.77
271.30	2185.18
271.51	2207.71
271.73	2275.29
271.95	2373.60
272.16	2101.22
272.38	2226.14
272.59	2117.60
272.81	2273.25
273.02	2146.27
273.24	2162.66
273.46	2269.15
273.67	2187.23
273.89	2023.39
274.10	2093.02
274.32	2226.14
274.54	2201.57
274.75	2205.66
274.97	2230.24
275.18	2256.86
275.40	2191.33
275.61	2203.61
275.83	2211.81
276.05	2088.93
276.26	2207.71
276.48	2226.14
276.69	2191.33
276.91	2133.98
277.12	2303.96
277.34	2179.04
277.55	2183.13
277.77	2211.81
277.99	2179.04
278.20	2127.84
278.42	2136.03
278.63	2150.37
278.85	2080.74
279.06	2056.16
279.28	2144.22
279.49	2351.07
279.71	2215.90
279.93	2254.81
280.14	2179.04
280.36	2152.42
280.57	2197.47
280.79	2330.59
281.00	2174.94
281.22	2179.04
281.43	2265.05
281.65	1986.53
281.86	2064.35
282.08	2209.76
282.29	2316.25
282.51	2080.74
282.73	2086.88
282.94	2080.74
283.16	2228.19
283.37	2359.26
283.59	2166.75
283.80	2193.37
284.02	2187.23
284.23	2224.09
284.45	2107.36
284.66	2117.60
284.88	2179.04
285.09	2201.57
285.31	2318.30
285.52	2291.68
285.74	2007.01
285.95	2146.27
286.17	2189.28
286.38	2236.38
286.60	2109.41
286.81	2095.07
287.03	2179.04
287.24	2187.23
287.46	2220.00
287.67	2248.67
287.89	2371.55
288.10	2131.94
288.32	2174.94
288.53	2228.19
288.75	2179.04
288.96	2301.92
289.18	2148.32
289.39	2166.75
289.61	2211.81
289.82	2381.79
290.04	2359.26
290.25	2072.54
290.47	2164.70
290.68	2187.23
290.90	2256.86
291.11	2113.50
291.33	2332.64
291.54	2179.04
291.76	2095.07
291.97	2277.34
292.18	2172.89
292.40	2121.70
292.61	2156.51
292.83	2308.06
293.04	2256.86
293.26	2201.57
293.47	2158.56
293.69	2103.26
293.90	2125.79
294.12	2269.15
294.33	2176.99
294.55	2154.46
294.76	2205.66
294.97	2369.50
295.19	2400.22
295.40	2113.50
295.62	2176.99
295.83	2322.40
296.05	2097.12
296.26	2222.05
296.48	2150.37
296.69	2170.85
296.90	2103.26
297.12	2211.81
297.33	2250.72
297.55	2220.00
297.76	2263.01
297.98	2301.92
298.19	2201.57
298.41	2103.26
298.62	2088.93
298.83	2158.56
299.05	2179.04
299.26	2199.52
299.48	2105.31
299.69	2176.99
299.90	2236.38
300.12	2160.61
300.33	2355.16
300.55	2166.75
300.76	2226.14
300.98	2068.45
301.19	2258.91
301.40	2052.06
301.62	2138.08
301.83	2252.77
302.05	2254.81
302.26	2179.04
302.47	2224.09
302.69	2062.30
302.90	2170.85
303.12	1996.77
303.33	2189.28
303.54	2338.78
303.76	2174.94
303.97	2193.37
304.19	2297.82
304.40	2052.06
304.61	2265.05
304.83	2334.68
305.04	2201.57
305.26	2195.42
305.47	2183.13
305.68	2215.90
305.90	2027.49
306.11	2277.34
306.33	2103.26
306.54	2086.88
306.75	2109.41
306.97	2037.73
307.18	2074.59
307.39	2187.23
307.61	2252.77
307.82	2191.33
308.04	2271.20
308.25	2185.18
308.46	2203.61
308.68	2236.38
308.89	2185.18
309.10	2277.34
309.32	2303.96
309.53	2205.66
309.74	2260.96
309.96	2133.98
310.17	2293.72
310.39	2113.50
310.60	2273.25
310.81	2195.42
311.03	2047.97
311.24	2293.72
311.45	2199.52
311.67	2271.20
311.88	2144.22
312.09	2142.18
312.31	2152.42
312.52	2183.13
312.73	2090.98
312.95	2000.87
313.16	2117.60
313.37	2312.16
313.59	2211.81
313.80	2250.72
314.01	2334.68
314.23	2133.98
314.44	2039.78
314.65	2109.41
314.87	2086.88
315.08	2154.46
315.29	2150.37
315.51	2047.97
315.72	2025.44
315.93	2250.72
316.15	2289.63
316.36	2213.85
316.57	2240.48
316.79	2174.94
317.00	2101.22
317.21	2217.95
317.43	2166.75
317.64	2162.66
317.85	2074.59
318.07	2133.98
318.28	2207.71
318.49	2322.40
318.70	2441.18
318.92	2398.17
319.13	2371.55
319.34	2441.18
319.56	2236.38
319.77	2346.97
319.98	2287.58
320.20	2236.38
320.41	2244.57
320.62	2342.88
320.83	2154.46
321.05	2342.88
321.26	2240.48
321.47	2201.57
321.69	2217.95
321.90	2099.17
322.11	2152.42
322.32	2205.66
322.54	2248.67
322.75	2111.46
322.96	2471.90
323.18	2039.78
323.39	2043.87
323.60	2074.59
323.81	2359.26
324.03	2176.99
324.24	2258.91
324.45	2193.37
324.66	2129.89
324.88	2211.81
325.09	2303.96
325.30	2166.75
325.52	2222.05
325.73	2191.33
325.94	2146.27
326.15	2103.26
326.37	2080.74
326.58	2291.68
326.79	2256.86
327.00	2146.27
327.22	2113.50
327.43	2170.85
327.64	2084.83
327.85	2275.29
328.07	2273.25
328.28	2377.69
328.49	2160.61
328.70	2154.46
328.92	2176.99
329.13	2174.94
329.34	2220.00
329.55	2322.40
329.76	2179.04
329.98	2232.29
330.19	2324.44
330.40	2230.24
330.61	2248.67
330.83	2320.35
331.04	2086.88
331.25	2166.75
331.46	2168.80
331.68	2095.07
331.89	2357.21
332.10	2232.29
332.31	2015.20
332.52	2195.42
332.74	2318.30
332.95	2074.59
333.16	2207.71
333.37	2291.68
333.58	2205.66
333.80	2236.38
334.01	2039.78
334.22	2185.18
334.43	2125.79
334.64	2215.90
334.86	2066.40
335.07	2064.35
335.28	2332.64
335.49	2023.39
335.70	2183.13
335.92	2256.86
336.13	2435.03
336.34	2203.61
336.55	2176.99
336.76	2260.96
336.98	2035.68
337.19	2146.27
337.40	2387.93
337.61	2416.60
337.82	2138.08
338.04	2228.19
338.25	2080.74
338.46	2240.48
338.67	2152.42
338.88	2076.64
339.09	2095.07
339.31	2183.13
339.52	2068.45
339.73	2162.66
339.94	2105.31
340.15	2228.19
340.36	2168.80
340.58	2133.98
340.79	2074.59
341.00	2269.15
341.21	2084.83
341.42	2310.11
341.63	2152.42
341.85	2308.06
342.06	2291.68
342.27	2072.54
342.48	2318.30
342.69	2045.92
342.90	2189.28
343.12	2240.48
343.33	2195.42
343.54	2236.38
343.75	2330.59
343.96	2197.47
344.17	2045.92
344.38	2160.61
344.60	2031.58
344.81	2072.54
345.02	2115.55
345.23	2312.16
345.44	2428.89
345.65	2267.10
345.86	2238.43
346.07	2224.09
346.29	2150.37
346.50	2293.72
346.71	2240.48
346.92	2312.16
347.13	2402.27
347.34	2107.36
347.55	2144.22
347.76	2258.91
347.98	1984.48
348.19	2207.71
348.40	2322.40
348.61	2211.81
348.82	2389.98
349.03	2256.86
349.24	2121.70
349.45	2346.97
349.66	2035.68
349.88	2129.89
350.09	2133.98
350.30	2281.44
350.51	2293.72
350.72	2207.71
350.93	2150.37
351.14	2152.42
351.35	2267.10
351.56	2193.37
351.77	2263.01
351.99	2195.42
352.20	2359.26
352.41	2203.61
352.62	2039.78
352.83	2230.24
353.04	2226.14
353.25	2172.89
353.46	2195.42
353.67	2357.21
353.88	2007.01
354.09	2209.76
354.30	2195.42
354.52	2277.34
354.73	2183.13
354.94	2129.89
355.15	2174.94
355.36	2400.22
355.57	2185.18
355.78	2193.37
355.99	2166.75
356.20	2113.50
356.41	2283.49
356.62	2244.57
356.83	2123.74
357.04	2326.49
357.25	2043.87
357.46	2129.89
357.68	2088.93
357.89	2127.84
358.10	2136.03
358.31	2248.67
358.52	2107.36
358.73	2133.98
358.94	2129.89
359.15	2160.61
359.36	2207.71
359.57	2138.08
359.78	2279.39
359.99	2293.72
360.20	2072.54
360.41	2152.42
360.62	2308.06
360.83	2250.72
361.04	2207.71
361.25	2285.53
361.46	2267.10
361.67	2201.57
361.88	2244.57
362.09	2179.04
362.30	2236.38
362.51	2121.70
362.72	2162.66
362.93	2213.85
363.14	2263.01
363.35	2187.23
363.56	2103.26
363.78	2258.91
363.99	2353.12
364.20	2150.37
364.41	2215.90
364.62	2412.51
364.83	2234.33
365.04	2144.22
365.25	2236.38
365.46	2355.16
365.67	2050.02
365.88	2162.66
366.09	2150.37
366.30	2156.51
366.51	2191.33
366.72	2154.46
366.93	2123.74
367.14	2164.70
367.35	2344.92
367.56	2203.61
367.77	2392.03
367.98	2158.56
368.18	2156.51
368.39	2263.01
368.60	2052.06
368.81	2234.33
369.02	2246.62
369.23	2138.08
369.44	2041.82
369.65	2136.03
369.86	2328.54
370.07	2322.40
370.28	2090.98
370.49	2176.99
370.70	2220.00
370.91	2131.94
371.12	2068.45
371.33	2224.09
371.54	2117.60
371.75	2349.02
371.96	1998.82
372.17	2222.05
372.38	2238.43
372.59	2265.05
372.80	2113.50
373.01	2195.42
373.22	2242.53
373.43	2152.42
373.64	2080.74
373.85	2314.20
374.06	2346.97
374.26	2203.61
374.47	2199.52
374.68	2355.16
374.89	2197.47
375.10	2195.42
375.31	2258.91
375.52	2267.10
375.73	2115.55
375.94	2127.84
376.15	2267.10
376.36	2162.66
376.57	2138.08
376.78	2158.56
376.99	2228.19
377.20	2381.79
377.40	2189.28
377.61	2355.16
377.82	2007.01
378.03	2299.87
378.24	2344.92
378.45	2193.37
378.66	2217.95
378.87	2086.88
379.08	2072.54
379.29	2166.75
379.50	2353.12
379.71	2203.61
379.91	2236.38
380.12	2115.55
380.33	2156.51
380.54	2254.81
380.75	2207.71
380.96	2201.57
381.17	2172.89
381.38	2230.24
381.59	2271.20
381.80	2306.01
382.00	2275.29
382.21	2215.90
382.42	2353.12
382.63	2396.12
382.84	2226.14
383.05	2344.92
383.26	2346.97
383.47	2242.53
383.68	2250.72
383.88	2236.38
384.09	2189.28
384.30	2326.49
384.51	2201.57
384.72	2166.75
384.93	2078.69
385.14	2195.42
385.35	2297.82
385.55	2097.12
385.76	2310.11
385.97	2148.32
386.18	2015.20
386.39	2205.66
386.60	2211.81
386.81	2179.04
387.02	2066.40
387.22	2131.94
387.43	2273.25
387.64	2267.10
387.85	2336.73
388.06	2406.36
388.27	4046.79
388.48	8404.86
388.68	12144.45
388.89	14810.91
389.10	15634.19
389.31	14534.43
389.52	11310.93
389.73	9903.98
389.93	8814.46
390.14	8042.37
390.35	7128.98
390.56	6545.31
390.77	5357.49
390.98	4153.28
391.18	3393.48
391.39	2768.85
391.60	2283.49
391.81	2406.36
392.02	2187.23
392.23	2445.27
392.43	2310.11
392.64	2215.90
392.85	2215.90
393.06	2306.01
393.27	2097.12
393.47	2199.52
393.68	2205.66
393.89	2080.74
394.10	2281.44
394.31	2162.66
394.52	2138.08
394.72	2154.46
394.93	2357.21
395.14	2054.11
395.35	2230.24
395.56	2181.09
395.76	2256.86
395.97	2267.10
396.18	2367.45
396.39	2412.51
396.60	2691.03
396.80	2463.71
397.01	2355.16
397.22	2396.12
397.43	2351.07
397.64	2195.42
397.84	2299.87
398.05	2469.85
398.26	2191.33
398.47	2316.25
398.67	2328.54
398.88	2146.27
399.09	2263.01
399.30	2105.31
399.51	2248.67
399.71	2140.13
399.92	2158.56
400.13	2226.14
400.34	2152.42
400.54	2269.15
400.75	2344.92
400.96	2238.43
401.17	2346.97
401.37	2248.67
401.58	2121.70
401.79	2207.71
402.00	2367.45
402.21	2594.78
402.41	2572.25
402.62	2605.02
402.83	2648.02
403.04	2652.12
403.24	2750.42
403.45	2355.16
403.66	2504.67
403.87	2408.41
404.07	2482.14
404.28	2519.00
404.49	2453.47
404.70	2308.06
404.90	2295.77
405.11	2133.98
405.32	2230.24
405.52	2166.75
405.73	2150.37
405.94	2172.89
406.15	2136.03
406.35	2248.67
406.56	2260.96
406.77	2267.10
406.98	2285.53
407.18	2136.03
407.39	2297.82
407.60	2211.81
407.80	2240.48
408.01	2072.54
408.22	2199.52
408.43	2115.55
408.63	2193.37
408.84	2285.53
409.05	2260.96
409.25	2136.03
409.46	2179.04
409.67	2207.71
409.88	2119.65
410.08	2217.95
410.29	2156.51
410.50	2303.96
410.70	2254.81
410.91	2144.22
411.12	2244.57
411.32	2170.85
411.53	2082.78
411.74	2267.10
411.95	2326.49
412.15	2260.96
412.36	2232.29
412.57	2293.72
412.77	2267.10
412.98	2269.15
413.19	2228.19
413.39	2226.14
413.60	2242.53
413.81	2258.91
414.01	2054.11
414.22	2260.96
414.43	2283.49
414.63	2183.13
414.84	2328.54
415.05	2244.57
415.25	2068.45
415.46	2332.64
415.67	2144.22
415.87	2187.23
416.08	2252.77
416.29	2217.95
416.49	2293.72
416.70	2150.37
416.91	2115.55
417.11	2240.48
417.32	2312.16
417.53	2334.68
417.73	2254.81
417.94	2166.75
418.15	2215.90
418.35	2156.51
418.56	2176.99
418.77	2441.18
418.97	2279.39
419.18	2176.99
419.38	1974.24
419.59	2164.70
419.80	2322.40
420.00	2170.85
420.21	2185.18
420.42	2351.07
420.62	2174.94
420.83	2054.11
421.04	2158.56
421.24	2172.89
421.45	2326.49
421.65	2256.86
421.86	2160.61
422.07	2164.70
422.27	2203.61
422.48	2162.66
422.69	2054.11
422.89	2211.81
423.10	2113.50
423.30	2066.40
423.51	2224.09
423.72	2199.52
423.92	2244.57
424.13	2072.54
424.33	2287.58
424.54	2308.06
424.75	2236.38
424.95	2367.45
425.16	2273.25
425.36	2189.28
425.57	2244.57
425.78	2289.63
425.98	2234.33
426.19	2176.99
426.39	2146.27
426.60	2226.14
426.81	2316.25
427.01	2142.18
427.22	2156.51
427.42	2121.70
427.63	2074.59
427.83	2217.95
428.04	2326.49
428.25	2377.69
428.45	2203.61
428.66	2250.72
428.86	2148.32
429.07	2203.61
429.28	2181.09
429.48	2172.89
429.69	2136.03
429.89	2193.37
430.10	2099.17
430.30	2242.53
430.51	2340.83
430.71	2131.94
430.92	2195.42
431.13	2170.85
431.33	2299.87
431.54	2250.72
431.74	2332.64
431.95	2424.80
432.15	2107.36
432.36	2209.76
432.56	2201.57
432.77	2306.01
432.98	2414.56
433.18	2244.57
433.39	2109.41
433.59	2176.99
433.80	2379.74
434.00	2365.40
434.21	2211.81
434.41	2142.18
434.62	2453.47
434.82	2117.60
435.03	2121.70
435.23	2275.29
435.44	2043.87
435.64	2185.18
435.85	2199.52
436.06	2220.00
436.26	2265.05
436.47	2203.61
436.67	2101.22
436.88	2187.23
437.08	2322.40
437.29	2269.15
437.49	2252.77
437.70	2301.92
437.90	2129.89
438.11	2400.22
438.31	2250.72
438.52	2471.90
438.72	2428.89
438.93	2437.08
439.13	2285.53
439.34	2400.22
439.54	2197.47
439.75	2277.34
439.95	2250.72
440.16	2176.99
440.36	2234.33
440.57	2232.29
440.77	2199.52
440.98	2228.19
441.18	2256.86
441.39	2068.45
441.59	2074.59
441.80	2414.56
442.00	2181.09
442.21	2324.44
442.41	2133.98
442.62	2234.33
442.82	2195.42
443.02	2131.94
443.23	2207.71
443.43	2211.81
443.64	2387.93
443.84	2101.22
444.05	2293.72
444.25	2295.77
444.46	2256.86
444.66	2211.81
444.87	2371.55
445.07	2068.45
445.28	2172.89
445.48	2283.49
445.69	2314.20
445.89	2441.18
446.09	2222.05
446.30	2486.23
446.50	2818.00
446.71	4407.23
446.91	5511.08
447.12	6369.18
447.32	6703.00
447.53	6166.43
447.73	5126.07
447.93	4673.46
448.14	4175.81
448.34	4202.43
448.55	3620.81
448.75	3602.38
448.96	3342.28
449.16	3018.71
449.36	2846.68
449.57	2578.39
449.77	2277.34
449.98	2201.57
450.18	2265.05
450.39	2252.77
450.59	2369.50
450.79	2215.90
451.00	2158.56
451.20	2281.44
451.41	2246.62
451.61	2228.19
451.81	2207.71
452.02	2193.37
452.22	2172.89
452.43	2232.29
452.63	2136.03
