SpectraSuite Data File
++++++++++++++++++++++++++++++++++++
Date: Thu May 05 12:35:55 CEST 2016
User: root
Dark Spectrum Present: No
Reference Spectrum Present: No
Number of Sampled Component Spectra: 1
Spectrometers: USB4C02835
Integration Time (usec): 100000 (USB4C02835)
Spectra Averaged: 1 (USB4C02835)
Boxcar Smoothing: 0 (USB4C02835)
Correct for Electrical Dark: No (USB4C02835)
Strobe/Lamp Enabled: No (USB4C02835)
Correct for Detector Non-linearity: No (USB4C02835)
Correct for Stray Light: No (USB4C02835)
Number of Pixels in Processed Spectrum: 3648
>>>>>Begin Processed Spectral Data<<<<<
177.47	1748.97
177.69	1748.97
177.91	1748.97
178.13	1791.97
178.36	1826.79
178.58	2097.12
178.80	2234.33
179.02	2115.55
179.24	2170.85
179.46	2068.45
179.68	2181.09
179.90	2152.42
180.13	2244.57
180.35	2117.60
180.57	2176.99
180.79	2254.81
181.01	2138.08
181.23	2226.14
181.45	2242.53
181.67	2267.10
181.90	2252.77
182.12	2183.13
182.34	2015.20
182.56	2258.91
182.78	2172.89
183.00	2140.13
183.22	2156.51
183.44	2031.58
183.66	2387.93
183.89	2260.96
184.11	2138.08
184.33	2187.23
184.55	2308.06
184.77	2113.50
184.99	2162.66
185.21	2174.94
185.43	2465.75
185.65	2105.31
185.87	2156.51
186.10	2398.17
186.32	2394.08
186.54	2211.81
186.76	2242.53
186.98	2318.30
187.20	2152.42
187.42	2056.16
187.64	2152.42
187.86	2232.29
188.08	2240.48
188.30	2136.03
188.52	2209.76
188.75	2277.34
188.97	2375.64
189.19	2138.08
189.41	2097.12
189.63	2170.85
189.85	2138.08
190.07	2076.64
190.29	1929.19
190.51	2211.81
190.73	2064.35
190.95	2263.01
191.17	2150.37
191.39	2074.59
191.61	2170.85
191.84	2097.12
192.06	2148.32
192.28	2025.44
192.50	2496.47
192.72	2263.01
192.94	2086.88
193.16	2359.26
193.38	2187.23
193.60	2011.11
193.82	2191.33
194.04	2252.77
194.26	2191.33
194.48	2066.40
194.70	2039.78
194.92	2220.00
195.14	2256.86
195.36	2109.41
195.58	2199.52
195.80	2158.56
196.02	2078.69
196.24	2070.50
196.46	2193.37
196.69	2160.61
196.91	2400.22
197.13	2154.46
197.35	2111.46
197.57	2306.01
197.79	2285.53
198.01	2170.85
198.23	2121.70
198.45	2191.33
198.67	2025.44
198.89	2125.79
199.11	2267.10
199.33	2123.74
199.55	2043.87
199.77	2123.74
199.99	2265.05
200.21	2076.64
200.43	2232.29
200.65	2037.73
200.87	2037.73
201.09	2162.66
201.31	2154.46
201.53	2193.37
201.75	2199.52
201.97	2220.00
202.19	2211.81
202.41	2203.61
202.63	2258.91
202.85	2258.91
203.07	2172.89
203.29	2125.79
203.51	2072.54
203.73	2088.93
203.95	2445.27
204.17	2125.79
204.39	2224.09
204.61	2138.08
204.83	2183.13
205.05	2224.09
205.27	2152.42
205.49	2351.07
205.71	2160.61
205.93	2047.97
206.15	2041.82
206.37	2248.67
206.59	2220.00
206.81	2129.89
207.03	2056.16
207.25	2095.07
207.47	2289.63
207.69	2080.74
207.91	2293.72
208.13	2357.21
208.34	2097.12
208.56	2062.30
208.78	2226.14
209.00	2142.18
209.22	2166.75
209.44	2054.11
209.66	2072.54
209.88	2201.57
210.10	2121.70
210.32	2097.12
210.54	2222.05
210.76	2138.08
210.98	2275.29
211.20	2015.20
211.42	2222.05
211.64	2248.67
211.86	2265.05
212.08	2179.04
212.30	2142.18
212.52	2150.37
212.74	2211.81
212.96	2129.89
213.17	2195.42
213.39	2267.10
213.61	2422.75
213.83	2146.27
214.05	2054.11
214.27	2334.68
214.49	2000.87
214.71	2076.64
214.93	2224.09
215.15	2271.20
215.37	2224.09
215.59	1998.82
215.81	2164.70
216.03	2310.11
216.24	2236.38
216.46	2154.46
216.68	2133.98
216.90	2263.01
217.12	2310.11
217.34	2154.46
217.56	2146.27
217.78	2308.06
218.00	2277.34
218.22	2181.09
218.44	2179.04
218.66	2250.72
218.87	2412.51
219.09	2093.02
219.31	2160.61
219.53	2281.44
219.75	2125.79
219.97	2142.18
220.19	2148.32
220.41	2080.74
220.63	2263.01
220.85	2154.46
221.06	2152.42
221.28	2226.14
221.50	2211.81
221.72	2123.74
221.94	2111.46
222.16	2209.76
222.38	2291.68
222.60	2133.98
222.82	2150.37
223.03	2252.77
223.25	2027.49
223.47	2043.87
223.69	2273.25
223.91	2144.22
224.13	2301.92
224.35	1970.15
224.57	2357.21
224.78	2265.05
225.00	2043.87
225.22	2152.42
225.44	2111.46
225.66	2260.96
225.88	2195.42
226.10	2185.18
226.32	2080.74
226.53	2328.54
226.75	2217.95
226.97	2119.65
227.19	2140.13
227.41	2140.13
227.63	2193.37
227.85	2031.58
228.06	2156.51
228.28	2244.57
228.50	2287.58
228.72	2052.06
228.94	2105.31
229.16	2070.50
229.37	2037.73
229.59	2080.74
229.81	2215.90
230.03	2150.37
230.25	2078.69
230.47	2027.49
230.69	1998.82
230.90	2293.72
231.12	2138.08
231.34	2152.42
231.56	2220.00
231.78	2095.07
232.00	2220.00
232.21	2144.22
232.43	2201.57
232.65	1970.15
232.87	2240.48
233.09	2068.45
233.30	2066.40
233.52	2267.10
233.74	2168.80
233.96	2068.45
234.18	2164.70
234.40	2172.89
234.61	2449.37
234.83	2080.74
235.05	2103.26
235.27	2506.71
235.49	2252.77
235.70	2121.70
235.92	2220.00
236.14	2244.57
236.36	2449.37
236.58	1998.82
236.79	2174.94
237.01	2205.66
237.23	2234.33
237.45	2334.68
237.67	2170.85
237.88	2201.57
238.10	2426.84
238.32	2084.83
238.54	2119.65
238.76	2211.81
238.97	2117.60
239.19	2076.64
239.41	2154.46
239.63	2322.40
239.85	2084.83
240.06	2166.75
240.28	2045.92
240.50	2209.76
240.72	2150.37
240.93	2213.85
241.15	2265.05
241.37	2187.23
241.59	2338.78
241.81	2088.93
242.02	2119.65
242.24	2250.72
242.46	2260.96
242.68	2097.12
242.89	2115.55
243.11	2267.10
243.33	2228.19
243.55	2170.85
243.76	2162.66
243.98	2168.80
244.20	2117.60
244.42	2119.65
244.64	2191.33
244.85	2088.93
245.07	2144.22
245.29	2144.22
245.51	2136.03
245.72	2248.67
245.94	2281.44
246.16	2095.07
246.38	2181.09
246.59	2201.57
246.81	2101.22
247.03	2129.89
247.24	2019.30
247.46	2115.55
247.68	2236.38
247.90	2033.63
248.11	2129.89
248.33	2293.72
248.55	2207.71
248.77	2191.33
248.98	2213.85
249.20	2344.92
249.42	2195.42
249.64	2146.27
249.85	2088.93
250.07	2152.42
250.29	2328.54
250.50	2240.48
250.72	2097.12
250.94	2140.13
251.16	2387.93
251.37	2170.85
251.59	2101.22
251.81	2242.53
252.02	2232.29
252.24	2060.26
252.46	2275.29
252.68	2150.37
252.89	2140.13
253.11	2011.11
253.33	2228.19
253.54	2291.68
253.76	2127.84
253.98	2090.98
254.20	2099.17
254.41	2088.93
254.63	2224.09
254.85	2062.30
255.06	2127.84
255.28	2258.91
255.50	2191.33
255.71	2031.58
255.93	2113.50
256.15	2203.61
256.36	2301.92
256.58	2062.30
256.80	2107.36
257.02	2203.61
257.23	2117.60
257.45	2140.13
257.67	2271.20
257.88	2140.13
258.10	2211.81
258.32	2101.22
258.53	2185.18
258.75	2320.35
258.97	2133.98
259.18	2115.55
259.40	2146.27
259.62	2283.49
259.83	2267.10
260.05	2226.14
260.27	2559.96
260.48	2357.21
260.70	2056.16
260.92	2101.22
261.13	2138.08
261.35	2203.61
261.57	2156.51
261.78	2078.69
262.00	2154.46
262.22	2308.06
262.43	2119.65
262.65	2142.18
262.86	2228.19
263.08	2373.60
263.30	2191.33
263.51	1986.53
263.73	2064.35
263.95	2318.30
264.16	2162.66
264.38	2037.73
264.60	2170.85
264.81	2158.56
265.03	2338.78
265.25	2277.34
265.46	2150.37
265.68	2373.60
265.89	2244.57
266.11	2072.54
266.33	2150.37
266.54	2201.57
266.76	2275.29
266.98	2156.51
267.19	2248.67
267.41	2252.77
267.62	2191.33
267.84	2002.91
268.06	2187.23
268.27	2230.24
268.49	2375.64
268.70	2228.19
268.92	2119.65
269.14	2076.64
269.35	2121.70
269.57	2121.70
269.79	2176.99
270.00	2086.88
270.22	2316.25
270.43	2129.89
270.65	1953.76
270.87	2187.23
271.08	2279.39
271.30	2185.18
271.51	2099.17
271.73	2240.48
271.95	2260.96
272.16	2082.78
272.38	2183.13
272.59	2121.70
272.81	2308.06
273.02	2234.33
273.24	2133.98
273.46	2232.29
273.67	2125.79
273.89	2045.92
274.10	2111.46
274.32	2303.96
274.54	2234.33
274.75	2236.38
274.97	2119.65
275.18	2281.44
275.40	2269.15
275.61	2084.83
275.83	2211.81
276.05	2129.89
276.26	2156.51
276.48	2162.66
276.69	2205.66
276.91	2113.50
277.12	2363.36
277.34	2234.33
277.55	2240.48
277.77	2220.00
277.99	2189.28
278.20	2152.42
278.42	1996.77
278.63	2119.65
278.85	2131.94
279.06	2043.87
279.28	2152.42
279.49	2258.91
279.71	2164.70
279.93	2242.53
280.14	2195.42
280.36	2099.17
280.57	2242.53
280.79	2191.33
281.00	2097.12
281.22	2113.50
281.43	2330.59
281.65	2027.49
281.86	2107.36
282.08	2248.67
282.29	2441.18
282.51	2017.25
282.73	2023.39
282.94	2062.30
283.16	2269.15
283.37	2211.81
283.59	2179.04
283.80	2326.49
284.02	2222.05
284.23	2220.00
284.45	2146.27
284.66	2127.84
284.88	2082.78
285.09	2209.76
285.31	2285.53
285.52	2207.71
285.74	2027.49
285.95	2318.30
286.17	2265.05
286.38	2314.20
286.60	2125.79
286.81	2136.03
287.03	2185.18
287.24	2250.72
287.46	2187.23
287.67	2121.70
287.89	2346.97
288.10	2248.67
288.32	2181.09
288.53	2318.30
288.75	2164.70
288.96	2256.86
289.18	2119.65
289.39	2164.70
289.61	2215.90
289.82	2439.13
290.04	2439.13
290.25	2101.22
290.47	2097.12
290.68	2185.18
290.90	2291.68
291.11	2035.68
291.33	2254.81
291.54	2103.26
291.76	2140.13
291.97	2250.72
292.18	2199.52
292.40	2138.08
292.61	2172.89
292.83	2394.08
293.04	2166.75
293.26	2224.09
293.47	2174.94
293.69	2076.64
293.90	2146.27
294.12	2330.59
294.33	2168.80
294.55	2154.46
294.76	2258.91
294.97	2338.78
295.19	2437.08
295.40	2176.99
295.62	2252.77
295.83	2244.57
296.05	2084.83
296.26	2283.49
296.48	2062.30
296.69	2213.85
296.90	2189.28
297.12	2256.86
297.33	2314.20
297.55	2197.47
297.76	2250.72
297.98	2254.81
298.19	2158.56
298.41	2103.26
298.62	2086.88
298.83	2293.72
299.05	2166.75
299.26	2199.52
299.48	2131.94
299.69	2260.96
299.90	2179.04
300.12	2095.07
300.33	2316.25
300.55	2217.95
300.76	2162.66
300.98	2131.94
301.19	2256.86
301.40	2078.69
301.62	2140.13
301.83	2328.54
302.05	2197.47
302.26	2144.22
302.47	2318.30
302.69	2164.70
302.90	2248.67
303.12	1974.24
303.33	2279.39
303.54	2367.45
303.76	2133.98
303.97	2162.66
304.19	2314.20
304.40	2133.98
304.61	2176.99
304.83	2271.20
305.04	2248.67
305.26	2271.20
305.47	2140.13
305.68	2170.85
305.90	2142.18
306.11	2312.16
306.33	2191.33
306.54	2119.65
306.75	2076.64
306.97	2174.94
307.18	2078.69
307.39	2138.08
307.61	2291.68
307.82	2199.52
308.04	2236.38
308.25	2146.27
308.46	2230.24
308.68	2156.51
308.89	2220.00
309.10	2326.49
309.32	2234.33
309.53	2107.36
309.74	2279.39
309.96	2193.37
310.17	2160.61
310.39	2078.69
310.60	2224.09
310.81	2244.57
311.03	2117.60
311.24	2332.64
311.45	2254.81
311.67	2355.16
311.88	2236.38
312.09	2154.46
312.31	2086.88
312.52	2123.74
312.73	2136.03
312.95	2050.02
313.16	2187.23
313.37	2228.19
313.59	2299.87
313.80	2220.00
314.01	2320.35
314.23	2127.84
314.44	2138.08
314.65	2086.88
314.87	2125.79
315.08	2131.94
315.29	2199.52
315.51	2162.66
315.72	2054.11
315.93	2301.92
316.15	2236.38
316.36	2152.42
316.57	2232.29
316.79	2164.70
317.00	2097.12
317.21	2236.38
317.43	2078.69
317.64	2160.61
317.85	2115.55
318.07	2131.94
318.28	2193.37
318.49	2340.83
318.70	2482.14
318.92	2265.05
319.13	2387.93
319.34	2361.31
319.56	2291.68
319.77	2285.53
319.98	2387.93
320.20	2334.68
320.41	2293.72
320.62	2211.81
320.83	2154.46
321.05	2367.45
321.26	2168.80
321.47	2166.75
321.69	2279.39
321.90	2047.97
322.11	2162.66
322.32	2232.29
322.54	2283.49
322.75	2240.48
322.96	2512.86
323.18	2154.46
323.39	2021.35
323.60	2146.27
323.81	2308.06
324.03	2064.35
324.24	2115.55
324.45	2256.86
324.66	2152.42
324.88	2301.92
325.09	2373.60
325.30	2152.42
325.52	2172.89
325.73	2228.19
325.94	2093.02
326.15	2023.39
326.37	2129.89
326.58	2254.81
326.79	2361.31
327.00	2084.83
327.22	2138.08
327.43	2144.22
327.64	2125.79
327.85	2236.38
328.07	2193.37
328.28	2373.60
328.49	2176.99
328.70	2133.98
328.92	2146.27
329.13	2166.75
329.34	2207.71
329.55	2281.44
329.76	2252.77
329.98	2154.46
330.19	2260.96
330.40	2279.39
330.61	2232.29
330.83	2271.20
331.04	2117.60
331.25	2162.66
331.46	2101.22
331.68	2066.40
331.89	2277.34
332.10	2121.70
332.31	2138.08
332.52	2162.66
332.74	2283.49
332.95	1998.82
333.16	2191.33
333.37	2312.16
333.58	2199.52
333.80	2248.67
334.01	1953.76
334.22	2154.46
334.43	2166.75
334.64	2174.94
334.86	2047.97
335.07	2129.89
335.28	2326.49
335.49	2103.26
335.70	2244.57
335.92	2275.29
336.13	2326.49
336.34	2308.06
336.55	2195.42
336.76	2281.44
336.98	2021.35
337.19	2265.05
337.40	2254.81
337.61	2383.84
337.82	2164.70
338.04	2256.86
338.25	2066.40
338.46	2168.80
338.67	2107.36
338.88	2095.07
339.09	2062.30
339.31	2150.37
339.52	2103.26
339.73	2105.31
339.94	2203.61
340.15	2267.10
340.36	2154.46
340.58	2191.33
340.79	2138.08
341.00	2230.24
341.21	2168.80
341.42	2365.40
341.63	2129.89
341.85	2254.81
342.06	2205.66
342.27	2076.64
342.48	2246.62
342.69	2062.30
342.90	2230.24
343.12	2240.48
343.33	2060.26
343.54	2303.96
343.75	2363.36
343.96	2166.75
344.17	2086.88
344.38	2242.53
344.60	2109.41
344.81	2117.60
345.02	2166.75
345.23	2260.96
345.44	2414.56
345.65	2224.09
345.86	2158.56
346.07	2187.23
346.29	2084.83
346.50	2324.44
346.71	2156.51
346.92	2281.44
347.13	2406.36
347.34	2211.81
347.55	2164.70
347.76	2244.57
347.98	2117.60
348.19	2166.75
348.40	2375.64
348.61	2179.04
348.82	2326.49
349.03	2236.38
349.24	2037.73
349.45	2336.73
349.66	2000.87
349.88	2183.13
350.09	2142.18
350.30	2269.15
350.51	2287.58
350.72	2256.86
350.93	2211.81
351.14	2179.04
351.35	2176.99
351.56	2144.22
351.77	2144.22
351.99	2322.40
352.20	2306.01
352.41	2301.92
352.62	2037.73
352.83	2187.23
353.04	2144.22
353.25	2117.60
353.46	2201.57
353.67	2318.30
353.88	1998.82
354.09	2150.37
354.30	2129.89
354.52	2197.47
354.73	2230.24
354.94	2170.85
355.15	2222.05
355.36	2387.93
355.57	2136.03
355.78	2156.51
355.99	2144.22
356.20	2103.26
356.41	2361.31
356.62	2236.38
356.83	2195.42
357.04	2351.07
357.25	2056.16
357.46	2088.93
357.68	2095.07
357.89	2154.46
358.10	2174.94
358.31	2164.70
358.52	2164.70
358.73	2033.63
358.94	2095.07
359.15	2152.42
359.36	2303.96
359.57	2185.18
359.78	2170.85
359.99	2287.58
360.20	2121.70
360.41	2209.76
360.62	2226.14
360.83	2205.66
361.04	2215.90
361.25	2240.48
361.46	2387.93
361.67	2260.96
361.88	2189.28
362.09	2326.49
362.30	2242.53
362.51	2107.36
362.72	2164.70
362.93	2244.57
363.14	2246.62
363.35	2144.22
363.56	2113.50
363.78	2293.72
363.99	2287.58
364.20	2154.46
364.41	2195.42
364.62	2392.03
364.83	2226.14
365.04	2158.56
365.25	2174.94
365.46	2414.56
365.67	2111.46
365.88	2170.85
366.09	2197.47
366.30	2105.31
366.51	2213.85
366.72	2097.12
366.93	2138.08
367.14	2197.47
367.35	2334.68
367.56	2138.08
367.77	2342.88
367.98	2144.22
368.18	2260.96
368.39	2269.15
368.60	2109.41
368.81	2240.48
369.02	2228.19
369.23	2185.18
369.44	2056.16
369.65	2166.75
369.86	2168.80
370.07	2306.01
370.28	2121.70
370.49	2199.52
370.70	2330.59
370.91	2113.50
371.12	2101.22
371.33	2310.11
371.54	2090.98
371.75	2320.35
371.96	2047.97
372.17	2260.96
372.38	2170.85
372.59	2183.13
372.80	2080.74
373.01	2131.94
373.22	2195.42
373.43	2183.13
373.64	2111.46
373.85	2273.25
374.06	2426.84
374.26	2242.53
374.47	2170.85
374.68	2324.44
374.89	2201.57
375.10	2189.28
375.31	2220.00
375.52	2248.67
375.73	2226.14
375.94	2138.08
376.15	2301.92
376.36	2162.66
376.57	2131.94
376.78	2195.42
376.99	2224.09
377.20	2383.84
377.40	2127.84
377.61	2324.44
377.82	2115.55
378.03	2306.01
378.24	2222.05
378.45	2127.84
378.66	2160.61
378.87	1984.48
379.08	2088.93
379.29	2084.83
379.50	2267.10
379.71	2150.37
379.91	2289.63
380.12	2240.48
380.33	2181.09
380.54	2193.37
380.75	2183.13
380.96	2125.79
381.17	2291.68
381.38	2191.33
381.59	2222.05
381.80	2195.42
382.00	2328.54
382.21	2303.96
382.42	2371.55
382.63	2465.75
382.84	2277.34
383.05	2326.49
383.26	2303.96
383.47	2211.81
383.68	2303.96
383.88	2281.44
384.09	2193.37
384.30	2375.64
384.51	2265.05
384.72	2168.80
384.93	2107.36
385.14	2246.62
385.35	2320.35
385.55	2129.89
385.76	2334.68
385.97	2228.19
386.18	2156.51
386.39	2113.50
386.60	2138.08
386.81	2220.00
387.02	2105.31
387.22	2119.65
387.43	2326.49
387.64	2289.63
387.85	2377.69
388.06	2416.60
388.27	4075.46
388.48	8429.44
388.68	12164.93
388.89	14491.43
389.10	15646.48
389.31	14466.85
389.52	11077.46
389.73	9682.80
389.93	8750.97
390.14	8161.16
390.35	7413.65
390.56	6502.30
390.77	5201.84
390.98	4140.99
391.18	3203.02
391.39	2703.32
391.60	2394.08
391.81	2310.11
392.02	2222.05
392.23	2447.32
392.43	2179.04
392.64	2340.83
392.85	2140.13
393.06	2285.53
393.27	2240.48
393.47	2150.37
393.68	2248.67
393.89	2179.04
394.10	2359.26
394.31	2146.27
394.52	2156.51
394.72	2228.19
394.93	2340.83
395.14	2047.97
395.35	2234.33
395.56	2125.79
395.76	2246.62
395.97	2228.19
396.18	2340.83
396.39	2295.77
396.60	2701.27
396.80	2416.60
397.01	2437.08
397.22	2441.18
397.43	2355.16
397.64	2179.04
397.84	2334.68
398.05	2525.15
398.26	2224.09
398.47	2346.97
398.67	2306.01
398.88	2160.61
399.09	2234.33
399.30	2185.18
399.51	2201.57
399.71	2103.26
399.92	2193.37
400.13	2301.92
400.34	2146.27
400.54	2220.00
400.75	2396.12
400.96	2273.25
401.17	2346.97
401.37	2271.20
401.58	2209.76
401.79	2193.37
402.00	2260.96
402.21	2609.11
402.41	2576.34
402.62	2580.44
402.83	2584.54
403.04	2713.56
403.24	2777.05
403.45	2381.79
403.66	2424.80
403.87	2432.99
404.07	2482.14
404.28	2465.75
404.49	2439.13
404.70	2306.01
404.90	2326.49
405.11	2220.00
405.32	2269.15
405.52	2082.78
405.73	2197.47
405.94	2093.02
406.15	2168.80
406.35	2220.00
406.56	2265.05
406.77	2283.49
406.98	2205.66
407.18	2162.66
407.39	2359.26
407.60	2105.31
407.80	2265.05
408.01	2101.22
408.22	2203.61
408.43	2160.61
408.63	2299.87
408.84	2252.77
409.05	2252.77
409.25	2072.54
409.46	2086.88
409.67	2160.61
409.88	2156.51
410.08	2224.09
410.29	2166.75
410.50	2277.34
410.70	2207.71
410.91	2068.45
411.12	2256.86
411.32	2213.85
411.53	2172.89
411.74	2275.29
411.95	2355.16
412.15	2322.40
412.36	2318.30
412.57	2254.81
412.77	2332.64
412.98	2224.09
413.19	2129.89
413.39	2291.68
413.60	2226.14
413.81	2375.64
414.01	2111.46
414.22	2174.94
414.43	2316.25
414.63	2193.37
414.84	2363.36
415.05	2234.33
415.25	2031.58
415.46	2242.53
415.67	2209.76
415.87	2144.22
416.08	2217.95
416.29	2183.13
416.49	2334.68
416.70	2148.32
416.91	2232.29
417.11	2230.24
417.32	2334.68
417.53	2267.10
417.73	2277.34
417.94	2187.23
418.15	2211.81
418.35	2183.13
418.56	2199.52
418.77	2408.41
418.97	2220.00
419.18	2220.00
419.38	1978.34
419.59	2213.85
419.80	2334.68
420.00	2256.86
420.21	2179.04
420.42	2363.36
420.62	2342.88
420.83	2146.27
421.04	2052.06
421.24	2211.81
421.45	2265.05
421.65	2310.11
421.86	2220.00
422.07	2279.39
422.27	2248.67
422.48	2228.19
422.69	2105.31
422.89	2176.99
423.10	2187.23
423.30	2039.78
423.51	2195.42
423.72	2226.14
423.92	2260.96
424.13	2095.07
424.33	2236.38
424.54	2342.88
424.75	2181.09
424.95	2342.88
425.16	2254.81
425.36	2197.47
425.57	2209.76
425.78	2226.14
425.98	2267.10
426.19	2127.84
426.39	2111.46
426.60	2295.77
426.81	2256.86
427.01	2228.19
427.22	2103.26
427.42	1974.24
427.63	2080.74
427.83	2201.57
428.04	2324.44
428.25	2334.68
428.45	2271.20
428.66	2316.25
428.86	2211.81
429.07	2179.04
429.28	2162.66
429.48	2140.13
429.69	2050.02
429.89	2242.53
430.10	2019.30
430.30	2303.96
430.51	2252.77
430.71	2121.70
430.92	2160.61
431.13	2176.99
431.33	2252.77
431.54	2224.09
431.74	2379.74
431.95	2371.55
432.15	2125.79
432.36	2211.81
432.56	2203.61
432.77	2342.88
432.98	2435.03
433.18	2267.10
433.39	2217.95
433.59	2166.75
433.80	2326.49
434.00	2412.51
434.21	2172.89
434.41	2193.37
434.62	2455.51
434.82	2119.65
435.03	2105.31
435.23	2312.16
435.44	2029.54
435.64	2199.52
435.85	2195.42
436.06	2240.48
436.26	2322.40
436.47	2179.04
436.67	2109.41
436.88	2226.14
437.08	2344.92
437.29	2336.73
437.49	2179.04
437.70	2271.20
437.90	2197.47
438.11	2361.31
438.31	2316.25
438.52	2441.18
438.72	2428.89
438.93	2482.14
439.13	2267.10
439.34	2351.07
439.54	2213.85
439.75	2306.01
439.95	2299.87
440.16	2228.19
440.36	2291.68
440.57	2195.42
440.77	2248.67
440.98	2228.19
441.18	2275.29
441.39	2099.17
441.59	2127.84
441.80	2371.55
442.00	2158.56
442.21	2371.55
442.41	2146.27
442.62	2269.15
442.82	2183.13
443.02	2199.52
443.23	2209.76
443.43	2224.09
443.64	2338.78
443.84	2170.85
444.05	2297.82
444.25	2201.57
444.46	2166.75
444.66	2258.91
444.87	2402.27
445.07	2131.94
445.28	2232.29
445.48	2363.36
445.69	2363.36
445.89	2514.91
446.09	2211.81
446.30	2523.10
446.50	2781.14
446.71	4444.09
446.91	5474.22
447.12	6516.64
447.32	6692.76
447.53	6186.91
447.73	5162.93
447.93	4511.68
448.14	4259.78
448.34	4026.31
448.55	3661.77
448.75	3463.12
448.96	3231.69
449.16	3088.34
449.36	2875.35
449.57	2482.14
449.77	2260.96
449.98	2232.29
450.18	2326.49
450.39	2371.55
450.59	2316.25
450.79	2260.96
451.00	2113.50
451.20	2230.24
451.41	2152.42
451.61	2252.77
451.81	2297.82
452.02	2121.70
452.22	2115.55
452.43	2154.46
452.63	2142.18
