SpectraSuite Data File
++++++++++++++++++++++++++++++++++++
Date: Thu May 05 12:35:49 CEST 2016
User: root
Dark Spectrum Present: No
Reference Spectrum Present: No
Number of Sampled Component Spectra: 1
Spectrometers: USB4C02835
Integration Time (usec): 100000 (USB4C02835)
Spectra Averaged: 1 (USB4C02835)
Boxcar Smoothing: 0 (USB4C02835)
Correct for Electrical Dark: No (USB4C02835)
Strobe/Lamp Enabled: No (USB4C02835)
Correct for Detector Non-linearity: No (USB4C02835)
Correct for Stray Light: No (USB4C02835)
Number of Pixels in Processed Spectrum: 3648
>>>>>Begin Processed Spectral Data<<<<<
177.47	1726.44
177.69	1726.44
177.91	1726.44
178.13	1773.54
178.36	1755.11
178.58	2125.79
178.80	2211.81
179.02	2045.92
179.24	2076.64
179.46	2146.27
179.68	2207.71
179.90	2142.18
180.13	2228.19
180.35	1990.63
180.57	2123.74
180.79	2275.29
181.01	2187.23
181.23	2224.09
181.45	2273.25
181.67	2193.37
181.90	2260.96
182.12	2037.73
182.34	2000.87
182.56	2228.19
182.78	2242.53
183.00	2142.18
183.22	2158.56
183.44	2095.07
183.66	2418.65
183.89	2285.53
184.11	2082.78
184.33	2248.67
184.55	2220.00
184.77	2174.94
184.99	2146.27
185.21	2234.33
185.43	2422.75
185.65	2066.40
185.87	2156.51
186.10	2441.18
186.32	2373.60
186.54	2170.85
186.76	2158.56
186.98	2277.34
187.20	2136.03
187.42	2095.07
187.64	2170.85
187.86	2228.19
188.08	2226.14
188.30	2127.84
188.52	2131.94
188.75	2332.64
188.97	2324.44
189.19	2111.46
189.41	2103.26
189.63	2256.86
189.85	2179.04
190.07	2045.92
190.29	1974.24
190.51	2193.37
190.73	2047.97
190.95	2346.97
191.17	2168.80
191.39	2107.36
191.61	2154.46
191.84	2019.30
192.06	2117.60
192.28	2035.68
192.50	2557.91
192.72	2195.42
192.94	2105.31
193.16	2258.91
193.38	2271.20
193.60	2133.98
193.82	2138.08
194.04	2363.36
194.26	2166.75
194.48	2121.70
194.70	2144.22
194.92	2201.57
195.14	2285.53
195.36	2101.22
195.58	2156.51
195.80	2103.26
196.02	2072.54
196.24	2109.41
196.46	2207.71
196.69	2179.04
196.91	2480.09
197.13	2078.69
197.35	2107.36
197.57	2279.39
197.79	2260.96
198.01	2193.37
198.23	2154.46
198.45	2281.44
198.67	2058.21
198.89	2080.74
199.11	2193.37
199.33	2101.22
199.55	1972.19
199.77	2070.50
199.99	2176.99
200.21	2236.38
200.43	2277.34
200.65	2052.06
200.87	2029.54
201.09	2179.04
201.31	2187.23
201.53	2166.75
201.75	2195.42
201.97	2146.27
202.19	2279.39
202.41	2226.14
202.63	2267.10
202.85	2254.81
203.07	2195.42
203.29	2191.33
203.51	2123.74
203.73	2150.37
203.95	2406.36
204.17	2138.08
204.39	2138.08
204.61	2111.46
204.83	2183.13
205.05	2201.57
205.27	2232.29
205.49	2326.49
205.71	2189.28
205.93	2041.82
206.15	2095.07
206.37	2121.70
206.59	2201.57
206.81	2033.63
207.03	2056.16
207.25	2099.17
207.47	2215.90
207.69	2121.70
207.91	2308.06
208.13	2293.72
208.34	2148.32
208.56	2019.30
208.78	2138.08
209.00	2179.04
209.22	2117.60
209.44	2093.02
209.66	2064.35
209.88	2297.82
210.10	2072.54
210.32	2162.66
210.54	2234.33
210.76	2211.81
210.98	2293.72
211.20	2023.39
211.42	2138.08
211.64	2404.32
211.86	2291.68
212.08	2154.46
212.30	2144.22
212.52	2119.65
212.74	2189.28
212.96	2185.18
213.17	2131.94
213.39	2273.25
213.61	2289.63
213.83	2045.92
214.05	2109.41
214.27	2310.11
214.49	2060.26
214.71	2076.64
214.93	2222.05
215.15	2191.33
215.37	2367.45
215.59	2050.02
215.81	2185.18
216.03	2228.19
216.24	2265.05
216.46	2170.85
216.68	2236.38
216.90	2250.72
217.12	2336.73
217.34	2138.08
217.56	2166.75
217.78	2275.29
218.00	2234.33
218.22	2187.23
218.44	2187.23
218.66	2260.96
218.87	2420.70
219.09	2121.70
219.31	2158.56
219.53	2181.09
219.75	2140.13
219.97	2121.70
220.19	2158.56
220.41	2226.14
220.63	2314.20
220.85	2209.76
221.06	2076.64
221.28	2277.34
221.50	2238.43
221.72	2146.27
221.94	2047.97
222.16	2154.46
222.38	2283.49
222.60	2095.07
222.82	2150.37
223.03	2277.34
223.25	2086.88
223.47	2215.90
223.69	2301.92
223.91	2242.53
224.13	2260.96
224.35	2054.11
224.57	2236.38
224.78	2224.09
225.00	2050.02
225.22	2162.66
225.44	2099.17
225.66	2308.06
225.88	2136.03
226.10	2166.75
226.32	2222.05
226.53	2342.88
226.75	2113.50
226.97	2109.41
227.19	2168.80
227.41	2154.46
227.63	2211.81
227.85	1988.58
228.06	2217.95
228.28	2170.85
228.50	2263.01
228.72	2093.02
228.94	2105.31
229.16	2078.69
229.37	2041.82
229.59	2109.41
229.81	2310.11
230.03	2162.66
230.25	2115.55
230.47	2039.78
230.69	2039.78
230.90	2310.11
231.12	2154.46
231.34	2203.61
231.56	2211.81
231.78	2109.41
232.00	2197.47
232.21	2109.41
232.43	2101.22
232.65	1974.24
232.87	2252.77
233.09	2064.35
233.30	2082.78
233.52	2215.90
233.74	2125.79
233.96	2064.35
234.18	2228.19
234.40	2203.61
234.61	2367.45
234.83	2031.58
235.05	2017.25
235.27	2529.24
235.49	2320.35
235.70	2140.13
235.92	2230.24
236.14	2234.33
236.36	2494.43
236.58	2015.20
236.79	2207.71
237.01	2248.67
237.23	2170.85
237.45	2303.96
237.67	2072.54
237.88	2277.34
238.10	2432.99
238.32	2140.13
238.54	2213.85
238.76	2195.42
238.97	2174.94
239.19	2080.74
239.41	2197.47
239.63	2252.77
239.85	2244.57
240.06	2166.75
240.28	2045.92
240.50	2308.06
240.72	2201.57
240.93	2029.54
241.15	2263.01
241.37	2248.67
241.59	2297.82
241.81	2105.31
242.02	2101.22
242.24	2265.05
242.46	2265.05
242.68	2088.93
242.89	2113.50
243.11	2242.53
243.33	2232.29
243.55	2144.22
243.76	2183.13
243.98	2105.31
244.20	2170.85
244.42	2189.28
244.64	2103.26
244.85	2078.69
245.07	2123.74
245.29	2115.55
245.51	2174.94
245.72	2234.33
245.94	2224.09
246.16	2258.91
246.38	2242.53
246.59	2056.16
246.81	2080.74
247.03	2150.37
247.24	2027.49
247.46	2164.70
247.68	2232.29
247.90	2080.74
248.11	2109.41
248.33	2207.71
248.55	2236.38
248.77	2117.60
248.98	2158.56
249.20	2387.93
249.42	2142.18
249.64	2240.48
249.85	2105.31
250.07	2084.83
250.29	2246.62
250.50	2179.04
250.72	1988.58
250.94	2267.10
251.16	2387.93
251.37	2174.94
251.59	2146.27
251.81	2170.85
252.02	2275.29
252.24	2127.84
252.46	2193.37
252.68	2136.03
252.89	2158.56
253.11	1992.67
253.33	2258.91
253.54	2334.68
253.76	1986.53
253.98	2150.37
254.20	2105.31
254.41	2025.44
254.63	2189.28
254.85	2011.11
255.06	2213.85
255.28	2185.18
255.50	2232.29
255.71	2101.22
255.93	1982.43
256.15	2144.22
256.36	2211.81
256.58	2086.88
256.80	2140.13
257.02	2197.47
257.23	2140.13
257.45	2148.32
257.67	2236.38
257.88	2156.51
258.10	2252.77
258.32	2191.33
258.53	2195.42
258.75	2252.77
258.97	2150.37
259.18	2129.89
259.40	2105.31
259.62	2351.07
259.83	2320.35
260.05	2199.52
260.27	2576.34
260.48	2199.52
260.70	2093.02
260.92	2125.79
261.13	2187.23
261.35	2131.94
261.57	2271.20
261.78	2023.39
262.00	1984.48
262.22	2271.20
262.43	2105.31
262.65	2158.56
262.86	2205.66
263.08	2416.60
263.30	2260.96
263.51	2007.01
263.73	2097.12
263.95	2349.02
264.16	2095.07
264.38	2107.36
264.60	2144.22
264.81	2234.33
265.03	2314.20
265.25	2263.01
265.46	2230.24
265.68	2346.97
265.89	2201.57
266.11	2088.93
266.33	2129.89
266.54	2355.16
266.76	2324.44
266.98	2283.49
267.19	2234.33
267.41	2344.92
267.62	2148.32
267.84	1978.34
268.06	2228.19
268.27	2310.11
268.49	2275.29
268.70	2273.25
268.92	2146.27
269.14	2136.03
269.35	2101.22
269.57	2095.07
269.79	2285.53
270.00	2174.94
270.22	2400.22
270.43	2017.25
270.65	1953.76
270.87	2162.66
271.08	2265.05
271.30	2213.85
271.51	2172.89
271.73	2351.07
271.95	2273.25
272.16	2168.80
272.38	2160.61
272.59	2127.84
272.81	2252.77
273.02	2144.22
273.24	2097.12
273.46	2328.54
273.67	2129.89
273.89	2015.20
274.10	2109.41
274.32	2289.63
274.54	2254.81
274.75	2265.05
274.97	2228.19
275.18	2242.53
275.40	2242.53
275.61	2142.18
275.83	2154.46
276.05	2109.41
276.26	2154.46
276.48	2176.99
276.69	2189.28
276.91	2129.89
277.12	2263.01
277.34	2238.43
277.55	2279.39
277.77	2172.89
277.99	2267.10
278.20	2056.16
278.42	2078.69
278.63	2179.04
278.85	2160.61
279.06	2037.73
279.28	2238.43
279.49	2217.95
279.71	2252.77
279.93	2203.61
280.14	2232.29
280.36	2158.56
280.57	2279.39
280.79	2226.14
281.00	2086.88
281.22	2078.69
281.43	2338.78
281.65	2021.35
281.86	2078.69
282.08	2277.34
282.29	2361.31
282.51	2004.96
282.73	2070.50
282.94	2037.73
283.16	2224.09
283.37	2267.10
283.59	2248.67
283.80	2267.10
284.02	2244.57
284.23	2236.38
284.45	2168.80
284.66	2133.98
284.88	2162.66
285.09	2256.86
285.31	2215.90
285.52	2277.34
285.74	2107.36
285.95	2293.72
286.17	2176.99
286.38	2260.96
286.60	2150.37
286.81	2129.89
287.03	2154.46
287.24	2148.32
287.46	2240.48
287.67	2168.80
287.89	2301.92
288.10	2181.09
288.32	2154.46
288.53	2263.01
288.75	2222.05
288.96	2285.53
289.18	2144.22
289.39	2136.03
289.61	2181.09
289.82	2449.37
290.04	2252.77
290.25	2072.54
290.47	2242.53
290.68	2217.95
290.90	2285.53
291.11	2050.02
291.33	2244.57
291.54	2187.23
291.76	2129.89
291.97	2260.96
292.18	2224.09
292.40	2172.89
292.61	2121.70
292.83	2332.64
293.04	2230.24
293.26	2271.20
293.47	2156.51
293.69	2099.17
293.90	2158.56
294.12	2281.44
294.33	2170.85
294.55	2170.85
294.76	2256.86
294.97	2271.20
295.19	2385.88
295.40	2174.94
295.62	2232.29
295.83	2277.34
296.05	2119.65
296.26	2275.29
296.48	2072.54
296.69	2258.91
296.90	2179.04
297.12	2269.15
297.33	2285.53
297.55	2154.46
297.76	2117.60
297.98	2224.09
298.19	2197.47
298.41	2220.00
298.62	2103.26
298.83	2260.96
299.05	2234.33
299.26	2093.02
299.48	2078.69
299.69	2240.48
299.90	2187.23
300.12	2166.75
300.33	2285.53
300.55	2228.19
300.76	2220.00
300.98	2103.26
301.19	2207.71
301.40	2154.46
301.62	2113.50
301.83	2187.23
302.05	2162.66
302.26	2205.66
302.47	2205.66
302.69	2078.69
302.90	2228.19
303.12	2064.35
303.33	2203.61
303.54	2353.12
303.76	2156.51
303.97	2170.85
304.19	2351.07
304.40	2058.21
304.61	2260.96
304.83	2303.96
305.04	2316.25
305.26	2269.15
305.47	2199.52
305.68	2174.94
305.90	2078.69
306.11	2385.88
306.33	2172.89
306.54	2138.08
306.75	2127.84
306.97	2099.17
307.18	2093.02
307.39	2140.13
307.61	2281.44
307.82	2193.37
308.04	2222.05
308.25	2111.46
308.46	2238.43
308.68	2220.00
308.89	2215.90
309.10	2306.01
309.32	2213.85
309.53	2252.77
309.74	2236.38
309.96	2183.13
310.17	2279.39
310.39	2193.37
310.60	2299.87
310.81	2201.57
311.03	2082.78
311.24	2164.70
311.45	2209.76
311.67	2349.02
311.88	2191.33
312.09	2150.37
312.31	2189.28
312.52	2117.60
312.73	2179.04
312.95	2080.74
313.16	2093.02
313.37	2293.72
313.59	2254.81
313.80	2205.66
314.01	2291.68
314.23	2084.83
314.44	2127.84
314.65	2193.37
314.87	2115.55
315.08	2056.16
315.29	2097.12
315.51	2056.16
315.72	2058.21
315.93	2273.25
316.15	2275.29
316.36	2162.66
316.57	2179.04
316.79	2258.91
317.00	2148.32
317.21	2220.00
317.43	2209.76
317.64	2203.61
317.85	2183.13
318.07	2119.65
318.28	2179.04
318.49	2365.40
318.70	2492.38
318.92	2340.83
319.13	2424.80
319.34	2383.84
319.56	2217.95
319.77	2326.49
319.98	2291.68
320.20	2330.59
320.41	2310.11
320.62	2308.06
320.83	2025.44
321.05	2365.40
321.26	2179.04
321.47	2220.00
321.69	2334.68
321.90	2047.97
322.11	2158.56
322.32	2195.42
322.54	2353.12
322.75	2150.37
322.96	2412.51
323.18	2023.39
323.39	2035.68
323.60	2119.65
323.81	2236.38
324.03	2142.18
324.24	2199.52
324.45	2250.72
324.66	2195.42
324.88	2283.49
325.09	2355.16
325.30	2129.89
325.52	2236.38
325.73	2244.57
325.94	2129.89
326.15	2007.01
326.37	2107.36
326.58	2357.21
326.79	2373.60
327.00	2133.98
327.22	2129.89
327.43	2138.08
327.64	2131.94
327.85	2283.49
328.07	2193.37
328.28	2346.97
328.49	2217.95
328.70	2154.46
328.92	2236.38
329.13	2230.24
329.34	2193.37
329.55	2336.73
329.76	2256.86
329.98	2185.18
330.19	2244.57
330.40	2197.47
330.61	2228.19
330.83	2265.05
331.04	2162.66
331.25	2187.23
331.46	2133.98
331.68	2146.27
331.89	2260.96
332.10	2250.72
332.31	2043.87
332.52	2129.89
332.74	2322.40
332.95	2119.65
333.16	2158.56
333.37	2293.72
333.58	2138.08
333.80	2191.33
334.01	2088.93
334.22	2179.04
334.43	2111.46
334.64	2187.23
334.86	2082.78
335.07	2121.70
335.28	2310.11
335.49	2105.31
335.70	2265.05
335.92	2367.45
336.13	2432.99
336.34	2183.13
336.55	2248.67
336.76	2209.76
336.98	2082.78
337.19	2127.84
337.40	2240.48
337.61	2363.36
337.82	2123.74
338.04	2234.33
338.25	2039.78
338.46	2088.93
338.67	2211.81
338.88	2119.65
339.09	2068.45
339.31	2228.19
339.52	2101.22
339.73	2127.84
339.94	2203.61
340.15	2299.87
340.36	2160.61
340.58	2207.71
340.79	2101.22
341.00	2275.29
341.21	2019.30
341.42	2332.64
341.63	2191.33
341.85	2275.29
342.06	2211.81
342.27	2127.84
342.48	2168.80
342.69	2170.85
342.90	2234.33
343.12	2267.10
343.33	2201.57
343.54	2240.48
343.75	2328.54
343.96	2205.66
344.17	2168.80
344.38	2156.51
344.60	2176.99
344.81	2097.12
345.02	2107.36
345.23	2301.92
345.44	2369.50
345.65	2226.14
345.86	2217.95
346.07	2195.42
346.29	2099.17
346.50	2228.19
346.71	2213.85
346.92	2338.78
347.13	2377.69
347.34	2232.29
347.55	2144.22
347.76	2228.19
347.98	2007.01
348.19	2160.61
348.40	2310.11
348.61	2133.98
348.82	2379.74
349.03	2211.81
349.24	2097.12
349.45	2404.32
349.66	1959.91
349.88	2260.96
350.09	2101.22
350.30	2301.92
350.51	2277.34
350.72	2136.03
350.93	2191.33
351.14	2148.32
351.35	2246.62
351.56	2176.99
351.77	2195.42
351.99	2195.42
352.20	2371.55
352.41	2240.48
352.62	2062.30
352.83	2172.89
353.04	2240.48
353.25	2197.47
353.46	2232.29
353.67	2271.20
353.88	2009.06
354.09	2242.53
354.30	2133.98
354.52	2269.15
354.73	2166.75
354.94	2176.99
355.15	2150.37
355.36	2371.55
355.57	2146.27
355.78	2224.09
355.99	2144.22
356.20	2101.22
356.41	2244.57
356.62	2224.09
356.83	2109.41
357.04	2369.50
357.25	2052.06
357.46	2240.48
357.68	2023.39
357.89	2133.98
358.10	2228.19
358.31	2136.03
358.52	2166.75
358.73	2078.69
358.94	2111.46
359.15	2086.88
359.36	2269.15
359.57	2170.85
359.78	2179.04
359.99	2213.85
360.20	2176.99
360.41	2193.37
360.62	2234.33
360.83	2199.52
361.04	2150.37
361.25	2252.77
361.46	2303.96
361.67	2293.72
361.88	2285.53
362.09	2142.18
362.30	2220.00
362.51	2187.23
362.72	2220.00
362.93	2283.49
363.14	2281.44
363.35	2176.99
363.56	2205.66
363.78	2349.02
363.99	2285.53
364.20	2056.16
364.41	2199.52
364.62	2351.07
364.83	2236.38
365.04	2127.84
365.25	2136.03
365.46	2326.49
365.67	2154.46
365.88	2174.94
366.09	2138.08
366.30	2176.99
366.51	2138.08
366.72	2039.78
366.93	2183.13
367.14	2119.65
367.35	2299.87
367.56	2205.66
367.77	2326.49
367.98	2215.90
368.18	2242.53
368.39	2201.57
368.60	2070.50
368.81	2277.34
369.02	2181.09
369.23	2203.61
369.44	2082.78
369.65	2168.80
369.86	2242.53
370.07	2250.72
370.28	2127.84
370.49	2185.18
370.70	2267.10
370.91	2117.60
371.12	2047.97
371.33	2275.29
371.54	2174.94
371.75	2353.12
371.96	2000.87
372.17	2222.05
372.38	2176.99
372.59	2228.19
372.80	2113.50
373.01	2267.10
373.22	2195.42
373.43	2201.57
373.64	2064.35
373.85	2232.29
374.06	2342.88
374.26	2334.68
374.47	2228.19
374.68	2398.17
374.89	2269.15
375.10	2156.51
375.31	2301.92
375.52	2185.18
375.73	2187.23
375.94	2043.87
376.15	2275.29
376.36	2070.50
376.57	2131.94
376.78	2217.95
376.99	2166.75
377.20	2299.87
377.40	2150.37
377.61	2306.01
377.82	2013.15
378.03	2324.44
378.24	2226.14
378.45	2185.18
378.66	2240.48
378.87	2023.39
379.08	2033.63
379.29	2148.32
379.50	2346.97
379.71	2187.23
379.91	2195.42
380.12	2117.60
380.33	2195.42
380.54	2129.89
380.75	2201.57
380.96	2170.85
381.17	2242.53
381.38	2154.46
381.59	2222.05
381.80	2185.18
382.00	2418.65
382.21	2260.96
382.42	2355.16
382.63	2445.27
382.84	2285.53
383.05	2265.05
383.26	2293.72
383.47	2260.96
383.68	2185.18
383.88	2277.34
384.09	2263.01
384.30	2385.88
384.51	2215.90
384.72	2140.13
384.93	2076.64
385.14	2199.52
385.35	2244.57
385.55	2119.65
385.76	2346.97
385.97	2172.89
386.18	2084.83
386.39	2074.59
386.60	2199.52
386.81	2146.27
387.02	2107.36
387.22	2154.46
387.43	2297.82
387.64	2265.05
387.85	2418.65
388.06	2473.95
388.27	4093.89
388.48	8576.89
388.68	12412.74
388.89	14733.09
389.10	15595.28
389.31	14608.16
389.52	11247.44
389.73	9715.56
389.93	8927.10
390.14	8265.60
390.35	7409.55
390.56	6533.02
390.77	5390.25
390.98	4169.66
391.18	3340.24
391.39	2668.50
391.60	2318.30
391.81	2357.21
392.02	2240.48
392.23	2465.75
392.43	2215.90
392.64	2308.06
392.85	2203.61
393.06	2383.84
393.27	2199.52
393.47	2113.50
393.68	2201.57
393.89	2107.36
394.10	2332.64
394.31	2107.36
394.52	2103.26
394.72	2125.79
394.93	2359.26
395.14	2097.12
395.35	2254.81
395.56	2047.97
395.76	2234.33
395.97	2260.96
396.18	2373.60
396.39	2361.31
396.60	2586.58
396.80	2416.60
397.01	2342.88
397.22	2338.78
397.43	2484.19
397.64	2136.03
397.84	2246.62
398.05	2357.21
398.26	2166.75
398.47	2297.82
398.67	2260.96
398.88	2258.91
399.09	2240.48
399.30	2193.37
399.51	2269.15
399.71	2115.55
399.92	2213.85
400.13	2215.90
400.34	2138.08
400.54	2191.33
400.75	2351.07
400.96	2228.19
401.17	2277.34
401.37	2256.86
401.58	2172.89
401.79	2232.29
402.00	2314.20
402.21	2703.32
402.41	2502.62
402.62	2490.33
402.83	2566.10
403.04	2602.97
403.24	2731.99
403.45	2408.41
403.66	2490.33
403.87	2318.30
404.07	2422.75
404.28	2432.99
404.49	2519.00
404.70	2260.96
404.90	2244.57
405.11	2242.53
405.32	2277.34
405.52	2162.66
405.73	2166.75
405.94	2109.41
406.15	2234.33
406.35	2234.33
406.56	2285.53
406.77	2195.42
406.98	2256.86
407.18	2129.89
407.39	2330.59
407.60	2086.88
407.80	2271.20
408.01	2162.66
408.22	2285.53
408.43	2154.46
408.63	2248.67
408.84	2256.86
409.05	2289.63
409.25	2121.70
409.46	2113.50
409.67	2168.80
409.88	2119.65
410.08	2244.57
410.29	2146.27
410.50	2314.20
410.70	2242.53
410.91	2088.93
411.12	2224.09
411.32	2217.95
411.53	2170.85
411.74	2248.67
411.95	2318.30
412.15	2279.39
412.36	2318.30
412.57	2277.34
412.77	2308.06
412.98	2207.71
413.19	2197.47
413.39	2275.29
413.60	2226.14
413.81	2332.64
414.01	2191.33
414.22	2187.23
414.43	2238.43
414.63	2140.13
414.84	2340.83
415.05	2158.56
415.25	2136.03
415.46	2330.59
415.67	2191.33
415.87	2228.19
416.08	2168.80
416.29	2250.72
416.49	2297.82
416.70	2101.22
416.91	2222.05
417.11	2230.24
417.32	2299.87
417.53	2310.11
417.73	2211.81
417.94	2168.80
418.15	2301.92
418.35	2213.85
418.56	2138.08
418.77	2475.99
418.97	2189.28
419.18	2166.75
419.38	1949.67
419.59	2199.52
419.80	2361.31
420.00	2193.37
420.21	2283.49
420.42	2244.57
420.62	2129.89
420.83	2080.74
421.04	2168.80
421.24	2203.61
421.45	2273.25
421.65	2250.72
421.86	2129.89
422.07	2279.39
422.27	2209.76
422.48	2220.00
422.69	2070.50
422.89	2170.85
423.10	2121.70
423.30	2170.85
423.51	2203.61
423.72	2238.43
423.92	2289.63
424.13	2031.58
424.33	2148.32
424.54	2299.87
424.75	2244.57
424.95	2299.87
425.16	2215.90
425.36	2189.28
425.57	2258.91
425.78	2228.19
425.98	2256.86
426.19	2168.80
426.39	2121.70
426.60	2215.90
426.81	2316.25
427.01	2197.47
427.22	2133.98
427.42	2054.11
427.63	2138.08
427.83	2297.82
428.04	2316.25
428.25	2260.96
428.45	2318.30
428.66	2355.16
428.86	2146.27
429.07	2162.66
429.28	2156.51
429.48	2150.37
429.69	2080.74
429.89	2234.33
430.10	2080.74
430.30	2203.61
430.51	2351.07
430.71	2107.36
430.92	2154.46
431.13	2125.79
431.33	2340.83
431.54	2234.33
431.74	2377.69
431.95	2357.21
432.15	2131.94
432.36	2107.36
432.56	2242.53
432.77	2322.40
432.98	2383.84
433.18	2267.10
433.39	2158.56
433.59	2226.14
433.80	2467.80
434.00	2441.18
434.21	2115.55
434.41	2074.59
434.62	2451.42
434.82	2029.54
435.03	2189.28
435.23	2260.96
435.44	2107.36
435.64	2275.29
435.85	2244.57
436.06	2267.10
436.26	2342.88
436.47	2236.38
436.67	2105.31
436.88	2158.56
437.08	2310.11
437.29	2291.68
437.49	2275.29
437.70	2342.88
437.90	2195.42
438.11	2353.12
438.31	2203.61
438.52	2363.36
438.72	2371.55
438.93	2492.38
439.13	2340.83
439.34	2406.36
439.54	2250.72
439.75	2299.87
439.95	2351.07
440.16	2199.52
440.36	2256.86
440.57	2244.57
440.77	2138.08
440.98	2215.90
441.18	2195.42
441.39	2187.23
441.59	2121.70
441.80	2375.64
442.00	2179.04
442.21	2326.49
442.41	2101.22
442.62	2320.35
442.82	2168.80
443.02	2181.09
443.23	2222.05
443.43	2217.95
443.64	2303.96
443.84	2121.70
444.05	2299.87
444.25	2256.86
444.46	2242.53
444.66	2152.42
444.87	2355.16
445.07	2054.11
445.28	2234.33
445.48	2297.82
445.69	2267.10
445.89	2447.32
446.09	2146.27
446.30	2465.75
446.50	2824.15
446.71	4483.00
446.91	5765.03
447.12	6481.82
447.32	6649.75
447.53	6393.76
447.73	5156.79
447.93	4493.24
448.14	4177.86
448.34	4124.61
448.55	3616.71
448.75	3534.79
448.96	3375.05
449.16	3055.57
449.36	2781.14
449.57	2578.39
449.77	2332.64
449.98	2267.10
450.18	2342.88
450.39	2260.96
450.59	2215.90
450.79	2185.18
451.00	2201.57
451.20	2318.30
451.41	2211.81
451.61	2306.01
451.81	2240.48
452.02	2236.38
452.22	2174.94
452.43	2240.48
452.63	2103.26
