SpectraSuite Data File
++++++++++++++++++++++++++++++++++++
Date: Thu May 05 12:35:47 CEST 2016
User: root
Dark Spectrum Present: No
Reference Spectrum Present: No
Number of Sampled Component Spectra: 1
Spectrometers: USB4C02835
Integration Time (usec): 100000 (USB4C02835)
Spectra Averaged: 1 (USB4C02835)
Boxcar Smoothing: 0 (USB4C02835)
Correct for Electrical Dark: No (USB4C02835)
Strobe/Lamp Enabled: No (USB4C02835)
Correct for Detector Non-linearity: No (USB4C02835)
Correct for Stray Light: No (USB4C02835)
Number of Pixels in Processed Spectrum: 3648
>>>>>Begin Processed Spectral Data<<<<<
177.47	1802.21
177.69	1802.21
177.91	1802.21
178.13	1726.44
178.36	1777.64
178.58	2158.56
178.80	2252.77
179.02	2056.16
179.24	2113.50
179.46	2146.27
179.68	2164.70
179.90	2236.38
180.13	2174.94
180.35	2138.08
180.57	2138.08
180.79	2211.81
181.01	2222.05
181.23	2201.57
181.45	2209.76
181.67	2250.72
181.90	2226.14
182.12	2193.37
182.34	1943.52
182.56	2365.40
182.78	2242.53
183.00	2111.46
183.22	2142.18
183.44	2064.35
183.66	2484.19
183.89	2244.57
184.11	2136.03
184.33	2220.00
184.55	2334.68
184.77	2131.94
184.99	2158.56
185.21	2203.61
185.43	2400.22
185.65	2076.64
185.87	2111.46
186.10	2463.71
186.32	2406.36
186.54	2224.09
186.76	2131.94
186.98	2314.20
187.20	2222.05
187.42	2152.42
187.64	2125.79
187.86	2236.38
188.08	2295.77
188.30	2041.82
188.52	2160.61
188.75	2252.77
188.97	2285.53
189.19	2090.98
189.41	2142.18
189.63	2234.33
189.85	2211.81
190.07	2039.78
190.29	2007.01
190.51	2236.38
190.73	2060.26
190.95	2211.81
191.17	2078.69
191.39	2068.45
191.61	2199.52
191.84	2125.79
192.06	2185.18
192.28	2070.50
192.50	2473.95
192.72	2160.61
192.94	2148.32
193.16	2201.57
193.38	2242.53
193.60	2064.35
193.82	2275.29
194.04	2203.61
194.26	2195.42
194.48	2197.47
194.70	2142.18
194.92	2187.23
195.14	2230.24
195.36	2064.35
195.58	2174.94
195.80	2162.66
196.02	2097.12
196.24	2144.22
196.46	2222.05
196.69	2095.07
196.91	2461.66
197.13	2168.80
197.35	2217.95
197.57	2310.11
197.79	2220.00
198.01	2154.46
198.23	2207.71
198.45	2246.62
198.67	2086.88
198.89	2101.22
199.11	2179.04
199.33	2058.21
199.55	1978.34
199.77	2138.08
199.99	2230.24
200.21	2160.61
200.43	2197.47
200.65	2019.30
200.87	1945.57
201.09	2232.29
201.31	2183.13
201.53	2226.14
201.75	2193.37
201.97	2176.99
202.19	2226.14
202.41	2183.13
202.63	2289.63
202.85	2275.29
203.07	2303.96
203.29	2133.98
203.51	2039.78
203.73	2113.50
203.95	2475.99
204.17	2174.94
204.39	2187.23
204.61	2144.22
204.83	2101.22
205.05	2267.10
205.27	2181.09
205.49	2478.04
205.71	2127.84
205.93	2043.87
206.15	2115.55
206.37	2199.52
206.59	2170.85
206.81	2050.02
207.03	2146.27
207.25	2123.74
207.47	2271.20
207.69	2176.99
207.91	2310.11
208.13	2342.88
208.34	2123.74
208.56	2146.27
208.78	2119.65
209.00	2179.04
209.22	2113.50
209.44	2144.22
209.66	2039.78
209.88	2131.94
210.10	2133.98
210.32	2078.69
210.54	2240.48
210.76	2201.57
210.98	2217.95
211.20	2027.49
211.42	2226.14
211.64	2318.30
211.86	2285.53
212.08	2181.09
212.30	2113.50
212.52	2088.93
212.74	2121.70
212.96	2209.76
213.17	2172.89
213.39	2260.96
213.61	2318.30
213.83	2187.23
214.05	2269.15
214.27	2228.19
214.49	2158.56
214.71	2084.83
214.93	2260.96
215.15	2156.51
215.37	2287.58
215.59	2129.89
215.81	2220.00
216.03	2301.92
216.24	2158.56
216.46	2156.51
216.68	2113.50
216.90	2267.10
217.12	2275.29
217.34	2203.61
217.56	2170.85
217.78	2271.20
218.00	2236.38
218.22	2215.90
218.44	2158.56
218.66	2230.24
218.87	2342.88
219.09	2160.61
219.31	2138.08
219.53	2224.09
219.75	2138.08
219.97	2125.79
220.19	2131.94
220.41	2236.38
220.63	2306.01
220.85	2133.98
221.06	2109.41
221.28	2318.30
221.50	2199.52
221.72	2181.09
221.94	2174.94
222.16	2277.34
222.38	2285.53
222.60	2176.99
222.82	2146.27
223.03	2238.43
223.25	2068.45
223.47	2129.89
223.69	2375.64
223.91	2185.18
224.13	2133.98
224.35	2103.26
224.57	2207.71
224.78	2203.61
225.00	2115.55
225.22	2097.12
225.44	2111.46
225.66	2199.52
225.88	2179.04
226.10	2138.08
226.32	2174.94
226.53	2320.35
226.75	2109.41
226.97	2095.07
227.19	2062.30
227.41	2097.12
227.63	2111.46
227.85	1900.52
228.06	2220.00
228.28	2109.41
228.50	2281.44
228.72	2052.06
228.94	2078.69
229.16	2062.30
229.37	2078.69
229.59	2072.54
229.81	2281.44
230.03	2144.22
230.25	2093.02
230.47	2064.35
230.69	2129.89
230.90	2265.05
231.12	2113.50
231.34	2269.15
231.56	2179.04
231.78	2095.07
232.00	2174.94
232.21	2168.80
232.43	2158.56
232.65	1966.05
232.87	2226.14
233.09	2064.35
233.30	2107.36
233.52	2299.87
233.74	2162.66
233.96	2127.84
234.18	2148.32
234.40	2191.33
234.61	2437.08
234.83	2129.89
235.05	2103.26
235.27	2496.47
235.49	2279.39
235.70	2127.84
235.92	2215.90
236.14	2220.00
236.36	2406.36
236.58	2062.30
236.79	2187.23
237.01	2203.61
237.23	2256.86
237.45	2340.83
237.67	2035.68
237.88	2185.18
238.10	2281.44
238.32	2068.45
238.54	2174.94
238.76	2133.98
238.97	2156.51
239.19	2097.12
239.41	2244.57
239.63	2326.49
239.85	2138.08
240.06	2129.89
240.28	2084.83
240.50	2287.58
240.72	2166.75
240.93	2129.89
241.15	2230.24
241.37	2138.08
241.59	2322.40
241.81	2099.17
242.02	1988.58
242.24	2226.14
242.46	2281.44
242.68	2068.45
242.89	2158.56
243.11	2234.33
243.33	2170.85
243.55	2097.12
243.76	2215.90
243.98	2133.98
244.20	2213.85
244.42	2119.65
244.64	2103.26
244.85	2113.50
245.07	2058.21
245.29	2226.14
245.51	2133.98
245.72	2217.95
245.94	2267.10
246.16	2195.42
246.38	2248.67
246.59	2174.94
246.81	2097.12
247.03	2060.26
247.24	2050.02
247.46	2113.50
247.68	2174.94
247.90	2127.84
248.11	2150.37
248.33	2314.20
248.55	2185.18
248.77	2203.61
248.98	2226.14
249.20	2273.25
249.42	2129.89
249.64	2228.19
249.85	2156.51
250.07	2121.70
250.29	2246.62
250.50	2234.33
250.72	2062.30
250.94	2213.85
251.16	2332.64
251.37	2203.61
251.59	2226.14
251.81	2279.39
252.02	2334.68
252.24	2138.08
252.46	2220.00
252.68	2152.42
252.89	2136.03
253.11	1998.82
253.33	2277.34
253.54	2310.11
253.76	2045.92
253.98	2181.09
254.20	2111.46
254.41	2105.31
254.63	2168.80
254.85	2056.16
255.06	2090.98
255.28	2187.23
255.50	2220.00
255.71	2099.17
255.93	2090.98
256.15	2150.37
256.36	2289.63
256.58	2099.17
256.80	2168.80
257.02	2220.00
257.23	2181.09
257.45	2240.48
257.67	2244.57
257.88	2090.98
258.10	2166.75
258.32	2160.61
258.53	2152.42
258.75	2267.10
258.97	2107.36
259.18	2093.02
259.40	2136.03
259.62	2430.94
259.83	2250.72
260.05	2150.37
260.27	2635.74
260.48	2285.53
260.70	1970.15
260.92	2146.27
261.13	2148.32
261.35	2220.00
261.57	2244.57
261.78	2072.54
262.00	2101.22
262.22	2244.57
262.43	2078.69
262.65	2066.40
262.86	2082.78
263.08	2463.71
263.30	2265.05
263.51	2043.87
263.73	2090.98
263.95	2322.40
264.16	2133.98
264.38	2037.73
264.60	2136.03
264.81	2187.23
265.03	2301.92
265.25	2265.05
265.46	2084.83
265.68	2303.96
265.89	2203.61
266.11	2050.02
266.33	2187.23
266.54	2359.26
266.76	2201.57
266.98	2162.66
267.19	2215.90
267.41	2256.86
267.62	2179.04
267.84	2007.01
268.06	2228.19
268.27	2193.37
268.49	2306.01
268.70	2252.77
268.92	2090.98
269.14	2131.94
269.35	2011.11
269.57	2101.22
269.79	2183.13
270.00	2127.84
270.22	2242.53
270.43	2111.46
270.65	1996.77
270.87	2293.72
271.08	2187.23
271.30	2185.18
271.51	2176.99
271.73	2250.72
271.95	2303.96
272.16	2142.18
272.38	2154.46
272.59	2236.38
272.81	2260.96
273.02	2129.89
273.24	2150.37
273.46	2324.44
273.67	2101.22
273.89	2136.03
274.10	2097.12
274.32	2346.97
274.54	2181.09
274.75	2222.05
274.97	2179.04
275.18	2293.72
275.40	2199.52
275.61	2152.42
275.83	2263.01
276.05	2140.13
276.26	2181.09
276.48	2172.89
276.69	2045.92
276.91	2150.37
277.12	2301.92
277.34	2283.49
277.55	2283.49
277.77	2213.85
277.99	2144.22
278.20	2146.27
278.42	2107.36
278.63	2088.93
278.85	2113.50
279.06	2062.30
279.28	2193.37
279.49	2291.68
279.71	2322.40
279.93	2170.85
280.14	2119.65
280.36	2080.74
280.57	2273.25
280.79	2193.37
281.00	2090.98
281.22	2168.80
281.43	2334.68
281.65	1974.24
281.86	2115.55
282.08	2148.32
282.29	2265.05
282.51	2074.59
282.73	2056.16
282.94	2021.35
283.16	2277.34
283.37	2318.30
283.59	2226.14
283.80	2252.77
284.02	2142.18
284.23	2265.05
284.45	2176.99
284.66	2117.60
284.88	2125.79
285.09	2217.95
285.31	2273.25
285.52	2242.53
285.74	2097.12
285.95	2260.96
286.17	2142.18
286.38	2340.83
286.60	2068.45
286.81	2146.27
287.03	2160.61
287.24	2215.90
287.46	2213.85
287.67	2166.75
287.89	2344.92
288.10	2203.61
288.32	2160.61
288.53	2310.11
288.75	2117.60
288.96	2244.57
289.18	2078.69
289.39	2166.75
289.61	2213.85
289.82	2355.16
290.04	2404.32
290.25	2025.44
290.47	2213.85
290.68	2160.61
290.90	2269.15
291.11	2088.93
291.33	2287.58
291.54	2174.94
291.76	2185.18
291.97	2244.57
292.18	2211.81
292.40	2162.66
292.61	2103.26
292.83	2410.46
293.04	2144.22
293.26	2138.08
293.47	2129.89
293.69	2107.36
293.90	2103.26
294.12	2379.74
294.33	2191.33
294.55	2133.98
294.76	2220.00
294.97	2295.77
295.19	2375.64
295.40	2113.50
295.62	2160.61
295.83	2260.96
296.05	2125.79
296.26	2236.38
296.48	2115.55
296.69	2207.71
296.90	2205.66
297.12	2240.48
297.33	2244.57
297.55	2170.85
297.76	2277.34
297.98	2269.15
298.19	2220.00
298.41	2226.14
298.62	2146.27
298.83	2336.73
299.05	2187.23
299.26	2205.66
299.48	2176.99
299.69	2238.43
299.90	2113.50
300.12	2144.22
300.33	2209.76
300.55	2144.22
300.76	2275.29
300.98	2176.99
301.19	2285.53
301.40	2168.80
301.62	2220.00
301.83	2285.53
302.05	2191.33
302.26	2152.42
302.47	2220.00
302.69	2136.03
302.90	2189.28
303.12	2011.11
303.33	2242.53
303.54	2359.26
303.76	2146.27
303.97	2263.01
304.19	2365.40
304.40	2047.97
304.61	2238.43
304.83	2346.97
305.04	2283.49
305.26	2291.68
305.47	2129.89
305.68	2248.67
305.90	2095.07
306.11	2324.44
306.33	2207.71
306.54	2144.22
306.75	2064.35
306.97	2115.55
307.18	2080.74
307.39	2097.12
307.61	2260.96
307.82	2224.09
308.04	2291.68
308.25	2076.64
308.46	2217.95
308.68	2160.61
308.89	2148.32
309.10	2215.90
309.32	2248.67
309.53	2105.31
309.74	2285.53
309.96	2179.04
310.17	2185.18
310.39	2123.74
310.60	2209.76
310.81	2150.37
311.03	2074.59
311.24	2244.57
311.45	2203.61
311.67	2373.60
311.88	2205.66
312.09	2121.70
312.31	2062.30
312.52	2166.75
312.73	2125.79
312.95	2025.44
313.16	2076.64
313.37	2338.78
313.59	2267.10
313.80	2277.34
314.01	2383.84
314.23	2121.70
314.44	2103.26
314.65	2113.50
314.87	2154.46
315.08	2111.46
315.29	2154.46
315.51	2136.03
315.72	1943.52
315.93	2344.92
316.15	2306.01
316.36	2119.65
316.57	2183.13
316.79	2234.33
317.00	2056.16
317.21	2267.10
317.43	2160.61
317.64	2176.99
317.85	2230.24
318.07	2088.93
318.28	2193.37
318.49	2371.55
318.70	2533.34
318.92	2316.25
319.13	2420.70
319.34	2375.64
319.56	2252.77
319.77	2330.59
319.98	2387.93
320.20	2308.06
320.41	2220.00
320.62	2275.29
320.83	2095.07
321.05	2435.03
321.26	2273.25
321.47	2119.65
321.69	2275.29
321.90	2047.97
322.11	2103.26
322.32	2242.53
322.54	2377.69
322.75	2080.74
322.96	2449.37
323.18	2086.88
323.39	2043.87
323.60	2113.50
323.81	2256.86
324.03	2129.89
324.24	2176.99
324.45	2160.61
324.66	2111.46
324.88	2289.63
325.09	2299.87
325.30	2160.61
325.52	2203.61
325.73	2207.71
325.94	2172.89
326.15	2056.16
326.37	2084.83
326.58	2242.53
326.79	2387.93
327.00	2056.16
327.22	2148.32
327.43	2136.03
327.64	2107.36
327.85	2193.37
328.07	2232.29
328.28	2375.64
328.49	2097.12
328.70	2234.33
328.92	2125.79
329.13	2146.27
329.34	2232.29
329.55	2332.64
329.76	2332.64
329.98	2140.13
330.19	2254.81
330.40	2197.47
330.61	2195.42
330.83	2299.87
331.04	2172.89
331.25	2185.18
331.46	2187.23
331.68	2064.35
331.89	2332.64
332.10	2125.79
332.31	2039.78
332.52	2160.61
332.74	2408.41
332.95	2047.97
333.16	2121.70
333.37	2248.67
333.58	2107.36
333.80	2199.52
334.01	2078.69
334.22	2154.46
334.43	2103.26
334.64	2105.31
334.86	2097.12
335.07	2115.55
335.28	2346.97
335.49	2054.11
335.70	2240.48
335.92	2283.49
336.13	2359.26
336.34	2179.04
336.55	2174.94
336.76	2179.04
336.98	2011.11
337.19	2154.46
337.40	2299.87
337.61	2383.84
337.82	2121.70
338.04	2236.38
338.25	1982.43
338.46	2205.66
338.67	2166.75
338.88	2037.73
339.09	2119.65
339.31	2197.47
339.52	2047.97
339.73	2123.74
339.94	2232.29
340.15	2226.14
340.36	2152.42
340.58	2154.46
340.79	2105.31
341.00	2269.15
341.21	2076.64
341.42	2351.07
341.63	2170.85
341.85	2314.20
342.06	2220.00
342.27	2113.50
342.48	2291.68
342.69	2099.17
342.90	2197.47
343.12	2226.14
343.33	2142.18
343.54	2326.49
343.75	2269.15
343.96	2195.42
344.17	2166.75
344.38	2215.90
344.60	2140.13
344.81	2082.78
345.02	2183.13
345.23	2279.39
345.44	2381.79
345.65	2279.39
345.86	2185.18
346.07	2224.09
346.29	2150.37
346.50	2238.43
346.71	2176.99
346.92	2318.30
347.13	2412.51
347.34	2205.66
347.55	2170.85
347.76	2240.48
347.98	2090.98
348.19	2150.37
348.40	2295.77
348.61	2099.17
348.82	2361.31
349.03	2201.57
349.24	2023.39
349.45	2394.08
349.66	2021.35
349.88	2191.33
350.09	2168.80
350.30	2326.49
350.51	2377.69
350.72	2222.05
350.93	2160.61
351.14	2146.27
351.35	2277.34
351.56	2158.56
351.77	2260.96
351.99	2293.72
352.20	2371.55
352.41	2256.86
352.62	2068.45
352.83	2217.95
353.04	2172.89
353.25	2119.65
353.46	2232.29
353.67	2299.87
353.88	2035.68
354.09	2236.38
354.30	2158.56
354.52	2289.63
354.73	2224.09
354.94	2105.31
355.15	2211.81
355.36	2336.73
355.57	2154.46
355.78	2238.43
355.99	2166.75
356.20	2156.51
356.41	2285.53
356.62	2156.51
356.83	2213.85
357.04	2351.07
357.25	2019.30
357.46	2095.07
357.68	2105.31
357.89	2117.60
358.10	2172.89
358.31	2191.33
358.52	2224.09
358.73	2029.54
358.94	2080.74
359.15	2164.70
359.36	2226.14
359.57	2168.80
359.78	2179.04
359.99	2217.95
360.20	2113.50
360.41	2152.42
360.62	2236.38
360.83	2166.75
361.04	2213.85
361.25	2222.05
361.46	2303.96
361.67	2203.61
361.88	2152.42
362.09	2201.57
362.30	2275.29
362.51	2064.35
362.72	2201.57
362.93	2314.20
363.14	2220.00
363.35	2183.13
363.56	2111.46
363.78	2275.29
363.99	2236.38
364.20	2174.94
364.41	2162.66
364.62	2418.65
364.83	2199.52
365.04	2162.66
365.25	2142.18
365.46	2439.13
365.67	2148.32
365.88	2220.00
366.09	2158.56
366.30	2179.04
366.51	2191.33
366.72	2150.37
366.93	2142.18
367.14	2090.98
367.35	2334.68
367.56	2142.18
367.77	2316.25
367.98	2191.33
368.18	2230.24
368.39	2181.09
368.60	2019.30
368.81	2215.90
369.02	2269.15
369.23	2226.14
369.44	2093.02
369.65	2185.18
369.86	2232.29
370.07	2232.29
370.28	2129.89
370.49	2240.48
370.70	2234.33
370.91	2119.65
371.12	2095.07
371.33	2289.63
371.54	2179.04
371.75	2316.25
371.96	2011.11
372.17	2211.81
372.38	2199.52
372.59	2150.37
372.80	2183.13
373.01	2187.23
373.22	2240.48
373.43	2105.31
373.64	2035.68
373.85	2351.07
374.06	2400.22
374.26	2238.43
374.47	2152.42
374.68	2408.41
374.89	2236.38
375.10	2162.66
375.31	2168.80
375.52	2236.38
375.73	2207.71
375.94	2064.35
376.15	2295.77
376.36	2080.74
376.57	2119.65
376.78	2154.46
376.99	2215.90
377.20	2301.92
377.40	2105.31
377.61	2359.26
377.82	2158.56
378.03	2301.92
378.24	2224.09
378.45	2220.00
378.66	2193.37
378.87	1980.39
379.08	2113.50
379.29	2113.50
379.50	2353.12
379.71	2166.75
379.91	2203.61
380.12	2105.31
380.33	2179.04
380.54	2199.52
380.75	2201.57
380.96	2168.80
381.17	2349.02
381.38	2185.18
381.59	2174.94
381.80	2195.42
382.00	2451.42
382.21	2228.19
382.42	2369.50
382.63	2437.08
382.84	2242.53
383.05	2330.59
383.26	2318.30
383.47	2162.66
383.68	2230.24
383.88	2236.38
384.09	2260.96
384.30	2398.17
384.51	2267.10
384.72	2115.55
384.93	2076.64
385.14	2248.67
385.35	2283.49
385.55	2080.74
385.76	2318.30
385.97	2154.46
386.18	2064.35
386.39	2158.56
386.60	2240.48
386.81	2228.19
387.02	2095.07
387.22	2105.31
387.43	2265.05
387.64	2238.43
387.85	2432.99
388.06	2432.99
388.27	4007.87
388.48	8505.21
388.68	12171.08
388.89	14507.81
389.10	15791.89
389.31	14821.15
389.52	11308.88
389.73	9813.87
389.93	8914.81
390.14	8167.30
390.35	7204.75
390.56	6731.67
390.77	5308.34
390.98	4249.54
391.18	3303.37
391.39	2744.28
391.60	2439.13
391.81	2392.03
392.02	2162.66
392.23	2371.55
392.43	2263.01
392.64	2195.42
392.85	2187.23
393.06	2361.31
393.27	2207.71
393.47	2117.60
393.68	2224.09
393.89	2133.98
394.10	2230.24
394.31	2047.97
394.52	2189.28
394.72	2113.50
394.93	2330.59
395.14	2150.37
395.35	2189.28
395.56	2138.08
395.76	2127.84
395.97	2185.18
396.18	2297.82
396.39	2316.25
396.60	2680.79
396.80	2441.18
397.01	2369.50
397.22	2396.12
397.43	2387.93
397.64	2131.94
397.84	2316.25
398.05	2449.37
398.26	2222.05
398.47	2310.11
398.67	2285.53
398.88	2179.04
399.09	2260.96
399.30	2160.61
399.51	2224.09
399.71	2187.23
399.92	2193.37
400.13	2174.94
400.34	2142.18
400.54	2234.33
400.75	2439.13
400.96	2236.38
401.17	2351.07
401.37	2318.30
401.58	2144.22
401.79	2183.13
402.00	2340.83
402.21	2615.26
402.41	2475.99
402.62	2590.68
402.83	2770.90
403.04	2547.67
403.24	2793.43
403.45	2361.31
403.66	2482.14
403.87	2414.56
404.07	2424.80
404.28	2488.28
404.49	2461.66
404.70	2236.38
404.90	2353.12
405.11	2260.96
405.32	2338.78
405.52	2144.22
405.73	2166.75
405.94	2113.50
406.15	2207.71
406.35	2228.19
406.56	2248.67
406.77	2176.99
406.98	2271.20
407.18	2088.93
407.39	2295.77
407.60	2154.46
407.80	2269.15
408.01	2133.98
408.22	2193.37
408.43	2066.40
408.63	2213.85
408.84	2170.85
409.05	2346.97
409.25	2142.18
409.46	2174.94
409.67	2156.51
409.88	2150.37
410.08	2213.85
410.29	2215.90
410.50	2285.53
410.70	2236.38
410.91	2121.70
411.12	2260.96
411.32	2179.04
411.53	2162.66
411.74	2314.20
411.95	2342.88
412.15	2269.15
412.36	2355.16
412.57	2342.88
412.77	2338.78
412.98	2246.62
413.19	2160.61
413.39	2281.44
413.60	2275.29
413.81	2289.63
414.01	2127.84
414.22	2220.00
414.43	2295.77
414.63	2174.94
414.84	2291.68
415.05	2232.29
415.25	2039.78
415.46	2301.92
415.67	2107.36
415.87	2322.40
416.08	2183.13
416.29	2176.99
416.49	2158.56
416.70	2129.89
416.91	2150.37
417.11	2113.50
417.32	2230.24
417.53	2303.96
417.73	2275.29
417.94	2148.32
418.15	2195.42
418.35	2203.61
418.56	2217.95
418.77	2441.18
418.97	2166.75
419.18	2211.81
419.38	2004.96
419.59	2176.99
419.80	2301.92
420.00	2187.23
420.21	2269.15
420.42	2265.05
420.62	2185.18
420.83	2140.13
421.04	2105.31
421.24	2170.85
421.45	2291.68
421.65	2168.80
421.86	2142.18
422.07	2236.38
422.27	2209.76
422.48	2170.85
422.69	2191.33
422.89	2181.09
423.10	2189.28
423.30	2088.93
423.51	2240.48
423.72	2308.06
423.92	2312.16
424.13	2097.12
424.33	2217.95
424.54	2256.86
424.75	2183.13
424.95	2408.41
425.16	2154.46
425.36	2150.37
425.57	2265.05
425.78	2248.67
425.98	2346.97
426.19	2213.85
426.39	2119.65
426.60	2258.91
426.81	2318.30
427.01	2275.29
427.22	2064.35
427.42	2039.78
427.63	2072.54
427.83	2232.29
428.04	2281.44
428.25	2293.72
428.45	2226.14
428.66	2220.00
428.86	2281.44
429.07	2179.04
429.28	2187.23
429.48	2211.81
429.69	2125.79
429.89	2199.52
430.10	2111.46
430.30	2244.57
430.51	2289.63
430.71	2179.04
430.92	2179.04
431.13	2113.50
431.33	2236.38
431.54	2207.71
431.74	2314.20
431.95	2400.22
432.15	2170.85
432.36	2199.52
432.56	2275.29
432.77	2375.64
432.98	2414.56
433.18	2136.03
433.39	2201.57
433.59	2176.99
433.80	2363.36
434.00	2398.17
434.21	2179.04
434.41	2168.80
434.62	2344.92
434.82	2088.93
435.03	2160.61
435.23	2224.09
435.44	2023.39
435.64	2095.07
435.85	2217.95
436.06	2226.14
436.26	2308.06
436.47	2097.12
436.67	2164.70
436.88	2150.37
437.08	2306.01
437.29	2332.64
437.49	2291.68
437.70	2373.60
437.90	2209.76
438.11	2430.94
438.31	2256.86
438.52	2363.36
438.72	2389.98
438.93	2482.14
439.13	2297.82
439.34	2316.25
439.54	2168.80
439.75	2258.91
439.95	2207.71
440.16	2127.84
440.36	2209.76
440.57	2183.13
440.77	2299.87
440.98	2193.37
441.18	2338.78
441.39	2203.61
441.59	2123.74
441.80	2445.27
442.00	2258.91
442.21	2281.44
442.41	2088.93
442.62	2375.64
442.82	2154.46
443.02	2156.51
443.23	2162.66
443.43	2146.27
443.64	2367.45
443.84	2133.98
444.05	2381.79
444.25	2158.56
444.46	2179.04
444.66	2197.47
444.87	2404.32
445.07	2168.80
445.28	2181.09
445.48	2322.40
445.69	2260.96
445.89	2387.93
446.09	2191.33
446.30	2437.08
446.50	2830.29
446.71	4435.90
446.91	5683.11
447.12	6317.98
447.32	6770.58
447.53	6283.17
447.73	5068.72
447.93	4591.55
448.14	4251.58
448.34	4032.45
448.55	3545.03
448.75	3495.88
448.96	3373.00
449.16	3014.61
449.36	2842.58
449.57	2545.63
449.77	2396.12
449.98	2166.75
450.18	2236.38
450.39	2306.01
450.59	2324.44
450.79	2228.19
451.00	2181.09
451.20	2277.34
451.41	2238.43
451.61	2318.30
451.81	2226.14
452.02	2174.94
452.22	2154.46
452.43	2226.14
452.63	2138.08
