SpectraSuite Data File
++++++++++++++++++++++++++++++++++++
Date: Tue May 03 11:24:00 CEST 2016
User: root
Dark Spectrum Present: No
Reference Spectrum Present: No
Number of Sampled Component Spectra: 1
Spectrometers: USB4C02835
Integration Time (usec): 100000 (USB4C02835)
Spectra Averaged: 1 (USB4C02835)
Boxcar Smoothing: 0 (USB4C02835)
Correct for Electrical Dark: No (USB4C02835)
Strobe/Lamp Enabled: No (USB4C02835)
Correct for Detector Non-linearity: No (USB4C02835)
Correct for Stray Light: No (USB4C02835)
Number of Pixels in Processed Spectrum: 3648
>>>>>Begin Processed Spectral Data<<<<<
177.47	1265.64
177.69	1265.64
177.91	1265.64
178.13	1155.05
178.36	1216.49
178.58	1302.51
178.80	1353.71
179.02	1382.38
179.24	1251.31
179.46	1400.81
179.68	1443.82
179.90	1333.23
180.13	1394.67
180.35	1298.41
180.57	1345.52
180.79	1390.57
181.01	1304.56
181.23	1402.86
181.45	1404.91
181.67	1363.95
181.90	1343.47
182.12	1370.09
182.34	1331.18
182.56	1351.66
182.78	1374.19
183.00	1327.08
183.22	1384.43
183.44	1253.36
183.66	1503.21
183.89	1435.63
184.11	1380.33
184.33	1384.43
184.55	1355.76
184.77	1445.87
184.99	1374.19
185.21	1349.61
185.43	1486.83
185.65	1288.17
185.87	1349.61
186.10	1413.10
186.32	1443.82
186.54	1398.76
186.76	1423.34
186.98	1345.52
187.20	1302.51
187.42	1322.99
187.64	1392.62
187.86	1290.22
188.08	1361.90
188.30	1359.85
188.52	1308.65
188.75	1417.19
188.97	1406.95
189.19	1368.04
189.41	1382.38
189.63	1335.28
189.85	1413.10
190.07	1353.71
190.29	1304.56
190.51	1441.77
190.73	1363.95
190.95	1409.00
191.17	1374.19
191.39	1284.08
191.61	1398.76
191.84	1363.95
192.06	1372.14
192.28	1413.10
192.50	1452.01
192.72	1402.86
192.94	1331.18
193.16	1411.05
193.38	1406.95
193.60	1306.60
193.82	1372.14
194.04	1423.34
194.26	1390.57
194.48	1343.47
194.70	1339.37
194.92	1376.24
195.14	1355.76
195.36	1341.42
195.58	1349.61
195.80	1347.56
196.02	1345.52
196.24	1413.10
196.46	1329.13
196.69	1374.19
196.91	1464.30
197.13	1433.58
197.35	1226.73
197.57	1464.30
197.79	1472.49
198.01	1306.60
198.23	1351.66
198.45	1474.54
198.67	1351.66
198.89	1357.80
199.11	1390.57
199.33	1339.37
199.55	1331.18
199.77	1437.67
199.99	1392.62
200.21	1363.95
200.43	1366.00
200.65	1249.26
200.87	1245.16
201.09	1372.14
201.31	1302.51
201.53	1406.95
201.75	1423.34
201.97	1329.13
202.19	1277.93
202.41	1452.01
202.63	1437.67
202.85	1374.19
203.07	1425.39
203.29	1347.56
203.51	1300.46
203.73	1302.51
203.95	1501.16
204.17	1390.57
204.39	1392.62
204.61	1304.56
204.83	1406.95
205.05	1325.04
205.27	1447.91
205.49	1488.87
205.71	1339.37
205.93	1314.80
206.15	1337.32
206.37	1329.13
206.59	1384.43
206.81	1355.76
207.03	1343.47
207.25	1314.80
207.47	1372.14
207.69	1345.52
207.91	1476.59
208.13	1372.14
208.34	1255.40
208.56	1298.41
208.78	1396.71
209.00	1339.37
209.22	1304.56
209.44	1380.33
209.66	1343.47
209.88	1425.39
210.10	1392.62
210.32	1331.18
210.54	1351.66
210.76	1374.19
210.98	1429.48
211.20	1286.12
211.42	1411.05
211.64	1347.56
211.86	1421.29
212.08	1363.95
212.30	1335.28
212.52	1316.84
212.74	1384.43
212.96	1351.66
213.17	1415.15
213.39	1388.52
213.61	1398.76
213.83	1398.76
214.05	1368.04
214.27	1372.14
214.49	1370.09
214.71	1335.28
214.93	1503.21
215.15	1443.82
215.37	1386.47
215.59	1335.28
215.81	1443.82
216.03	1468.39
216.24	1378.28
216.46	1396.71
216.68	1353.71
216.90	1335.28
217.12	1443.82
217.34	1396.71
217.56	1404.91
217.78	1363.95
218.00	1406.95
218.22	1402.86
218.44	1333.23
218.66	1372.14
218.87	1402.86
219.09	1363.95
219.31	1351.66
219.53	1445.87
219.75	1329.13
219.97	1378.28
220.19	1409.00
220.41	1343.47
220.63	1366.00
220.85	1390.57
221.06	1306.60
221.28	1376.24
221.50	1394.67
221.72	1325.04
221.94	1361.90
222.16	1390.57
222.38	1378.28
222.60	1429.48
222.82	1349.61
223.03	1384.43
223.25	1380.33
223.47	1413.10
223.69	1445.87
223.91	1441.77
224.13	1388.52
224.35	1353.71
224.57	1402.86
224.78	1386.47
225.00	1306.60
225.22	1370.09
225.44	1402.86
225.66	1460.20
225.88	1298.41
226.10	1419.24
226.32	1347.56
226.53	1415.15
226.75	1366.00
226.97	1353.71
227.19	1355.76
227.41	1355.76
227.63	1380.33
227.85	1382.38
228.06	1372.14
228.28	1378.28
228.50	1359.85
228.72	1290.22
228.94	1386.47
229.16	1327.08
229.37	1413.10
229.59	1302.51
229.81	1437.67
230.03	1345.52
230.25	1329.13
230.47	1304.56
230.69	1343.47
230.90	1386.47
231.12	1390.57
231.34	1368.04
231.56	1421.29
231.78	1316.84
232.00	1423.34
232.21	1392.62
232.43	1427.43
232.65	1286.12
232.87	1415.15
233.09	1339.37
233.30	1370.09
233.52	1349.61
233.74	1392.62
233.96	1304.56
234.18	1380.33
234.40	1310.70
234.61	1413.10
234.83	1318.89
235.05	1312.75
235.27	1499.11
235.49	1415.15
235.70	1392.62
235.92	1421.29
236.14	1368.04
236.36	1441.77
236.58	1335.28
236.79	1380.33
237.01	1355.76
237.23	1396.71
237.45	1521.64
237.67	1376.24
237.88	1341.42
238.10	1402.86
238.32	1310.70
238.54	1265.64
238.76	1359.85
238.97	1341.42
239.19	1388.52
239.41	1443.82
239.63	1329.13
239.85	1374.19
240.06	1429.48
240.28	1372.14
240.50	1359.85
240.72	1333.23
240.93	1417.19
241.15	1386.47
241.37	1333.23
241.59	1400.81
241.81	1382.38
242.02	1394.67
242.24	1386.47
242.46	1345.52
242.68	1370.09
242.89	1380.33
243.11	1429.48
243.33	1349.61
243.55	1372.14
243.76	1478.63
243.98	1386.47
244.20	1462.25
244.42	1347.56
244.64	1388.52
244.85	1310.70
245.07	1370.09
245.29	1361.90
245.51	1409.00
245.72	1302.51
245.94	1445.87
246.16	1378.28
246.38	1472.49
246.59	1318.89
246.81	1333.23
247.03	1384.43
247.24	1257.45
247.46	1304.56
247.68	1343.47
247.90	1355.76
248.11	1304.56
248.33	1380.33
248.55	1441.77
248.77	1329.13
248.98	1404.91
249.20	1492.97
249.42	1359.85
249.64	1376.24
249.85	1349.61
250.07	1380.33
250.29	1384.43
250.50	1443.82
250.72	1327.08
250.94	1329.13
251.16	1419.24
251.37	1421.29
251.59	1368.04
251.81	1447.91
252.02	1333.23
252.24	1339.37
252.46	1437.67
252.68	1445.87
252.89	1378.28
253.11	1320.94
253.33	1398.76
253.54	1470.44
253.76	1327.08
253.98	1398.76
254.20	1361.90
254.41	1320.94
254.63	1347.56
254.85	1314.80
255.06	1419.24
255.28	1409.00
255.50	1329.13
255.71	1366.00
255.93	1341.42
256.15	1392.62
256.36	1421.29
256.58	1363.95
256.80	1417.19
257.02	1320.94
257.23	1306.60
257.45	1318.89
257.67	1433.58
257.88	1345.52
258.10	1390.57
258.32	1333.23
258.53	1331.18
258.75	1454.06
258.97	1331.18
259.18	1374.19
259.40	1370.09
259.62	1353.71
259.83	1347.56
260.05	1308.65
260.27	1492.97
260.48	1327.08
260.70	1322.99
260.92	1353.71
261.13	1411.05
261.35	1449.96
261.57	1394.67
261.78	1288.17
262.00	1339.37
262.22	1331.18
262.43	1361.90
262.65	1361.90
262.86	1388.52
263.08	1386.47
263.30	1378.28
263.51	1335.28
263.73	1378.28
263.95	1368.04
264.16	1347.56
264.38	1415.15
264.60	1472.49
264.81	1355.76
265.03	1429.48
265.25	1339.37
265.46	1392.62
265.68	1437.67
265.89	1372.14
266.11	1302.51
266.33	1392.62
266.54	1347.56
266.76	1378.28
266.98	1349.61
267.19	1429.48
267.41	1384.43
267.62	1406.95
267.84	1349.61
268.06	1329.13
268.27	1427.43
268.49	1370.09
268.70	1353.71
268.92	1341.42
269.14	1425.39
269.35	1288.17
269.57	1366.00
269.79	1447.91
270.00	1300.46
270.22	1411.05
270.43	1429.48
270.65	1273.84
270.87	1343.47
271.08	1423.34
271.30	1304.56
271.51	1402.86
271.73	1415.15
271.95	1431.53
272.16	1372.14
272.38	1409.00
272.59	1251.31
272.81	1429.48
273.02	1370.09
273.24	1349.61
273.46	1370.09
273.67	1339.37
273.89	1355.76
274.10	1429.48
274.32	1394.67
274.54	1363.95
274.75	1390.57
274.97	1322.99
275.18	1378.28
275.40	1322.99
275.61	1433.58
275.83	1318.89
276.05	1308.65
276.26	1337.32
276.48	1429.48
276.69	1384.43
276.91	1335.28
277.12	1425.39
277.34	1378.28
277.55	1370.09
277.77	1388.52
277.99	1419.24
278.20	1351.66
278.42	1267.69
278.63	1277.93
278.85	1390.57
279.06	1337.32
279.28	1406.95
279.49	1411.05
279.71	1376.24
279.93	1335.28
280.14	1351.66
280.36	1382.38
280.57	1374.19
280.79	1402.86
281.00	1349.61
281.22	1363.95
281.43	1439.72
281.65	1298.41
281.86	1372.14
282.08	1361.90
282.29	1515.50
282.51	1361.90
282.73	1353.71
282.94	1304.56
283.16	1368.04
283.37	1415.15
283.59	1415.15
283.80	1363.95
284.02	1427.43
284.23	1372.14
284.45	1298.41
284.66	1345.52
284.88	1376.24
285.09	1331.18
285.31	1419.24
285.52	1406.95
285.74	1308.65
285.95	1363.95
286.17	1402.86
286.38	1376.24
286.60	1341.42
286.81	1318.89
287.03	1339.37
287.24	1333.23
287.46	1423.34
287.67	1361.90
287.89	1400.81
288.10	1329.13
288.32	1396.71
288.53	1458.15
288.75	1353.71
288.96	1386.47
289.18	1390.57
289.39	1413.10
289.61	1411.05
289.82	1372.14
290.04	1464.30
290.25	1331.18
290.47	1433.58
290.68	1363.95
290.90	1421.29
291.11	1329.13
291.33	1335.28
291.54	1380.33
291.76	1376.24
291.97	1433.58
292.18	1384.43
292.40	1353.71
292.61	1337.32
292.83	1421.29
293.04	1431.53
293.26	1388.52
293.47	1335.28
293.69	1312.75
293.90	1429.48
294.12	1419.24
294.33	1353.71
294.55	1423.34
294.76	1404.91
294.97	1400.81
295.19	1396.71
295.40	1343.47
295.62	1355.76
295.83	1329.13
296.05	1320.94
296.26	1349.61
296.48	1263.60
296.69	1363.95
296.90	1351.66
297.12	1421.29
297.33	1443.82
297.55	1413.10
297.76	1378.28
297.98	1443.82
298.19	1361.90
298.41	1353.71
298.62	1316.84
298.83	1456.11
299.05	1404.91
299.26	1351.66
299.48	1370.09
299.69	1404.91
299.90	1331.18
300.12	1327.08
300.33	1370.09
300.55	1343.47
300.76	1388.52
300.98	1327.08
301.19	1402.86
301.40	1421.29
301.62	1337.32
301.83	1394.67
302.05	1372.14
302.26	1390.57
302.47	1335.28
302.69	1398.76
302.90	1382.38
303.12	1282.03
303.33	1394.67
303.54	1431.53
303.76	1320.94
303.97	1374.19
304.19	1384.43
304.40	1327.08
304.61	1366.00
304.83	1488.87
305.04	1394.67
305.26	1363.95
305.47	1396.71
305.68	1390.57
305.90	1345.52
306.11	1433.58
306.33	1341.42
306.54	1361.90
306.75	1370.09
306.97	1335.28
307.18	1279.98
307.39	1329.13
307.61	1417.19
307.82	1417.19
308.04	1355.76
308.25	1294.32
308.46	1347.56
308.68	1339.37
308.89	1425.39
309.10	1427.43
309.32	1366.00
309.53	1404.91
309.74	1372.14
309.96	1363.95
310.17	1337.32
310.39	1331.18
310.60	1361.90
310.81	1372.14
311.03	1290.22
311.24	1382.38
311.45	1392.62
311.67	1458.15
311.88	1374.19
312.09	1331.18
312.31	1402.86
312.52	1325.04
312.73	1380.33
312.95	1273.84
313.16	1251.31
313.37	1363.95
313.59	1376.24
313.80	1353.71
314.01	1429.48
314.23	1368.04
314.44	1335.28
314.65	1421.29
314.87	1337.32
315.08	1331.18
315.29	1411.05
315.51	1273.84
315.72	1267.69
315.93	1402.86
316.15	1304.56
316.36	1341.42
316.57	1411.05
316.79	1355.76
317.00	1331.18
317.21	1314.80
317.43	1378.28
317.64	1359.85
317.85	1409.00
318.07	1472.49
318.28	1474.54
318.49	1519.59
318.70	1607.66
318.92	1560.55
319.13	1503.21
319.34	1501.16
319.56	1501.16
319.77	1521.64
319.98	1429.48
320.20	1427.43
320.41	1411.05
320.62	1411.05
320.83	1386.47
321.05	1462.25
321.26	1355.76
321.47	1363.95
321.69	1351.66
321.90	1306.60
322.11	1343.47
322.32	1353.71
322.54	1372.14
322.75	1411.05
322.96	1374.19
323.18	1382.38
323.39	1312.75
323.60	1277.93
323.81	1384.43
324.03	1386.47
324.24	1388.52
324.45	1378.28
324.66	1353.71
324.88	1351.66
325.09	1390.57
325.30	1380.33
325.52	1359.85
325.73	1429.48
325.94	1286.12
326.15	1347.56
326.37	1378.28
326.58	1429.48
326.79	1400.81
327.00	1273.84
327.22	1378.28
327.43	1322.99
327.64	1349.61
327.85	1429.48
328.07	1349.61
328.28	1472.49
328.49	1386.47
328.70	1351.66
328.92	1345.52
329.13	1325.04
329.34	1290.22
329.55	1370.09
329.76	1398.76
329.98	1320.94
330.19	1406.95
330.40	1421.29
330.61	1417.19
330.83	1404.91
331.04	1366.00
331.25	1366.00
331.46	1341.42
331.68	1333.23
331.89	1413.10
332.10	1376.24
332.31	1337.32
332.52	1345.52
332.74	1435.63
332.95	1310.70
333.16	1376.24
333.37	1413.10
333.58	1359.85
333.80	1329.13
334.01	1269.74
334.22	1337.32
334.43	1304.56
334.64	1333.23
334.86	1386.47
335.07	1351.66
335.28	1470.44
335.49	1339.37
335.70	1366.00
335.92	1347.56
336.13	1447.91
336.34	1361.90
336.55	1378.28
336.76	1366.00
336.98	1306.60
337.19	1452.01
337.40	1458.15
337.61	1402.86
337.82	1378.28
338.04	1470.44
338.25	1335.28
338.46	1320.94
338.67	1347.56
338.88	1361.90
339.09	1347.56
339.31	1339.37
339.52	1398.76
339.73	1286.12
339.94	1335.28
340.15	1458.15
340.36	1347.56
340.58	1421.29
340.79	1304.56
341.00	1302.51
341.21	1343.47
341.42	1466.35
341.63	1427.43
341.85	1431.53
342.06	1329.13
342.27	1351.66
342.48	1347.56
342.69	1392.62
342.90	1378.28
343.12	1357.80
343.33	1421.29
343.54	1417.19
343.75	1433.58
343.96	1359.85
344.17	1443.82
344.38	1368.04
344.60	1314.80
344.81	1376.24
345.02	1347.56
345.23	1478.63
345.44	1378.28
345.65	1386.47
345.86	1402.86
346.07	1419.24
346.29	1314.80
346.50	1411.05
346.71	1366.00
346.92	1361.90
347.13	1409.00
347.34	1415.15
347.55	1357.80
347.76	1392.62
347.98	1353.71
348.19	1335.28
348.40	1384.43
348.61	1327.08
348.82	1492.97
349.03	1484.78
349.24	1282.03
349.45	1374.19
349.66	1341.42
349.88	1368.04
350.09	1343.47
350.30	1351.66
350.51	1411.05
350.72	1312.75
350.93	1384.43
351.14	1411.05
351.35	1447.91
351.56	1396.71
351.77	1445.87
351.99	1357.80
352.20	1515.50
352.41	1409.00
352.62	1351.66
352.83	1353.71
353.04	1329.13
353.25	1394.67
353.46	1443.82
353.67	1384.43
353.88	1304.56
354.09	1316.84
354.30	1433.58
354.52	1337.32
354.73	1372.14
354.94	1366.00
355.15	1419.24
355.36	1343.47
355.57	1349.61
355.78	1398.76
355.99	1339.37
356.20	1402.86
356.41	1466.35
356.62	1439.72
356.83	1339.37
357.04	1452.01
357.25	1271.79
357.46	1286.12
357.68	1318.89
357.89	1363.95
358.10	1366.00
358.31	1298.41
358.52	1378.28
358.73	1290.22
358.94	1382.38
359.15	1349.61
359.36	1404.91
359.57	1394.67
359.78	1363.95
359.99	1402.86
360.20	1320.94
360.41	1345.52
360.62	1357.80
360.83	1413.10
361.04	1380.33
361.25	1406.95
361.46	1431.53
361.67	1380.33
361.88	1361.90
362.09	1394.67
362.30	1353.71
362.51	1294.32
362.72	1409.00
362.93	1439.72
363.14	1359.85
363.35	1441.77
363.56	1437.67
363.78	1351.66
363.99	1413.10
364.20	1337.32
364.41	1390.57
364.62	1417.19
364.83	1400.81
365.04	1392.62
365.25	1341.42
365.46	1468.39
365.67	1366.00
365.88	1400.81
366.09	1314.80
366.30	1349.61
366.51	1406.95
366.72	1351.66
366.93	1366.00
367.14	1415.15
367.35	1454.06
367.56	1431.53
367.77	1380.33
367.98	1390.57
368.18	1411.05
368.39	1423.34
368.60	1359.85
368.81	1421.29
369.02	1298.41
369.23	1339.37
369.44	1314.80
369.65	1429.48
369.86	1394.67
370.07	1501.16
370.28	1380.33
370.49	1335.28
370.70	1441.77
370.91	1402.86
371.12	1320.94
371.33	1427.43
371.54	1462.25
371.75	1456.11
371.96	1306.60
372.17	1445.87
372.38	1329.13
372.59	1318.89
372.80	1333.23
373.01	1427.43
373.22	1366.00
373.43	1439.72
373.64	1357.80
373.85	1429.48
374.06	1427.43
374.26	1419.24
374.47	1310.70
374.68	1409.00
374.89	1351.66
375.10	1392.62
375.31	1413.10
375.52	1351.66
375.73	1298.41
375.94	1339.37
376.15	1427.43
376.36	1423.34
376.57	1339.37
376.78	1372.14
376.99	1380.33
377.20	1427.43
377.40	1351.66
377.61	1429.48
377.82	1359.85
378.03	1449.96
378.24	1384.43
378.45	1374.19
378.66	1347.56
378.87	1243.12
379.08	1318.89
379.29	1343.47
379.50	1359.85
379.71	1454.06
379.91	1343.47
380.12	1437.67
380.33	1339.37
380.54	1318.89
380.75	1329.13
380.96	1388.52
381.17	1443.82
381.38	1462.25
381.59	1456.11
381.80	1419.24
382.00	1482.73
382.21	1454.06
382.42	1445.87
382.63	1452.01
382.84	1447.91
383.05	1449.96
383.26	1441.77
383.47	1368.04
383.68	1370.09
383.88	1423.34
384.09	1413.10
384.30	1447.91
384.51	1331.18
384.72	1460.20
384.93	1398.76
385.14	1355.76
385.35	1419.24
385.55	1275.88
385.76	1482.73
385.97	1409.00
386.18	1327.08
386.39	1337.32
386.60	1443.82
386.81	1325.04
387.02	1402.86
387.22	1357.80
387.43	1435.63
387.64	1515.50
387.85	2306.01
388.06	5658.54
388.27	9412.46
388.48	11372.37
388.68	12875.58
388.89	13383.48
389.10	10551.14
389.31	9385.84
389.52	8472.45
389.73	7466.89
389.93	6956.95
390.14	6541.21
390.35	6006.69
390.56	5365.68
390.77	4693.94
390.98	3616.71
391.18	2869.20
391.39	2187.23
391.60	1742.82
391.81	1574.89
392.02	1390.57
392.23	1544.17
392.43	1390.57
392.64	1529.83
392.85	1335.28
393.06	1445.87
393.27	1419.24
393.47	1368.04
393.68	1423.34
393.89	1376.24
394.10	1427.43
394.31	1296.36
394.52	1361.90
394.72	1355.76
394.93	1439.72
395.14	1320.94
395.35	1419.24
395.56	1427.43
395.76	1554.41
395.97	1439.72
396.18	1603.56
396.39	1585.13
396.60	1740.77
396.80	1511.40
397.01	1591.27
397.22	1544.17
397.43	1511.40
397.64	1439.72
397.84	1456.11
398.05	1486.83
398.26	1509.35
398.47	1429.48
398.67	1546.22
398.88	1462.25
399.09	1456.11
399.30	1396.71
399.51	1452.01
399.71	1368.04
399.92	1337.32
400.13	1411.05
400.34	1380.33
400.54	1349.61
400.75	1456.11
400.96	1400.81
401.17	1460.20
401.37	1413.10
401.58	1357.80
401.79	1476.59
402.00	1644.52
402.21	1851.36
402.41	1851.36
402.62	1765.35
402.83	1673.19
403.04	1708.01
403.24	1740.77
403.45	1603.56
403.66	1585.13
403.87	1519.59
404.07	1548.26
404.28	1566.70
404.49	1542.12
404.70	1495.02
404.90	1484.78
405.11	1439.72
405.32	1476.59
405.52	1378.28
405.73	1349.61
405.94	1421.29
406.15	1363.95
406.35	1421.29
406.56	1427.43
406.77	1298.41
406.98	1398.76
407.18	1368.04
407.39	1466.35
407.60	1382.38
407.80	1368.04
408.01	1322.99
408.22	1343.47
408.43	1351.66
408.63	1347.56
408.84	1355.76
409.05	1406.95
409.25	1320.94
409.46	1331.18
409.67	1298.41
409.88	1392.62
410.08	1286.12
410.29	1368.04
410.50	1322.99
410.70	1421.29
410.91	1302.51
411.12	1433.58
411.32	1361.90
411.53	1372.14
411.74	1523.69
411.95	1443.82
412.15	1484.78
412.36	1415.15
412.57	1425.39
412.77	1443.82
412.98	1370.09
413.19	1431.53
413.39	1402.86
413.60	1417.19
413.81	1445.87
414.01	1415.15
414.22	1411.05
414.43	1478.63
414.63	1357.80
414.84	1423.34
415.05	1300.46
415.25	1228.78
415.46	1380.33
415.67	1331.18
415.87	1394.67
416.08	1456.11
416.29	1370.09
416.49	1372.14
416.70	1341.42
416.91	1368.04
417.11	1333.23
417.32	1376.24
417.53	1359.85
417.73	1372.14
417.94	1361.90
418.15	1427.43
418.35	1310.70
418.56	1347.56
418.77	1454.06
418.97	1361.90
419.18	1378.28
419.38	1359.85
419.59	1312.75
419.80	1413.10
420.00	1378.28
420.21	1441.77
420.42	1411.05
420.62	1384.43
420.83	1406.95
421.04	1370.09
421.24	1341.42
421.45	1425.39
421.65	1370.09
421.86	1339.37
422.07	1384.43
422.27	1413.10
422.48	1363.95
422.69	1361.90
422.89	1353.71
423.10	1339.37
423.30	1398.76
423.51	1400.81
423.72	1366.00
423.92	1447.91
424.13	1314.80
424.33	1361.90
424.54	1411.05
424.75	1310.70
424.95	1427.43
425.16	1392.62
425.36	1386.47
425.57	1433.58
425.78	1443.82
425.98	1310.70
426.19	1370.09
426.39	1271.79
426.60	1368.04
426.81	1370.09
427.01	1322.99
427.22	1347.56
427.42	1316.84
427.63	1349.61
427.83	1353.71
428.04	1429.48
428.25	1406.95
428.45	1345.52
428.66	1322.99
428.86	1390.57
429.07	1329.13
429.28	1384.43
429.48	1382.38
429.69	1347.56
429.89	1419.24
430.10	1353.71
430.30	1368.04
430.51	1361.90
430.71	1419.24
430.92	1404.91
431.13	1425.39
431.33	1413.10
431.54	1368.04
431.74	1480.68
431.95	1429.48
432.15	1406.95
432.36	1380.33
432.56	1390.57
432.77	1388.52
432.98	1417.19
433.18	1413.10
433.39	1304.56
433.59	1275.88
433.80	1492.97
434.00	1495.02
434.21	1298.41
434.41	1378.28
434.62	1449.96
434.82	1306.60
435.03	1394.67
435.23	1300.46
435.44	1359.85
435.64	1390.57
435.85	1302.51
436.06	1449.96
436.26	1347.56
436.47	1378.28
436.67	1392.62
436.88	1359.85
437.08	1376.24
437.29	1431.53
437.49	1359.85
437.70	1411.05
437.90	1359.85
438.11	1509.35
438.31	1531.88
438.52	1595.37
438.72	1550.31
438.93	1527.78
439.13	1429.48
439.34	1523.69
439.54	1419.24
439.75	1505.26
439.95	1431.53
440.16	1427.43
440.36	1419.24
440.57	1429.48
440.77	1359.85
440.98	1419.24
441.18	1345.52
441.39	1337.32
441.59	1322.99
441.80	1329.13
442.00	1363.95
442.21	1452.01
442.41	1353.71
442.62	1347.56
442.82	1282.03
443.02	1327.08
443.23	1339.37
443.43	1421.29
443.64	1486.83
443.84	1419.24
444.05	1392.62
444.25	1380.33
444.46	1433.58
444.66	1372.14
444.87	1429.48
445.07	1333.23
445.28	1298.41
445.48	1482.73
445.69	1421.29
445.89	1449.96
446.09	1497.07
446.30	2240.48
446.50	3653.58
446.71	4687.80
446.91	5259.18
447.12	5621.67
447.32	4919.22
447.53	4198.34
447.73	3796.93
447.93	3405.77
448.14	3219.41
448.34	3074.00
448.55	2863.06
448.75	2752.47
448.96	2584.54
449.16	2410.46
449.36	2213.85
449.57	1914.85
449.77	1699.81
449.98	1538.02
450.18	1495.02
450.39	1486.83
450.59	1468.39
450.79	1392.62
451.00	1439.72
451.20	1413.10
451.41	1419.24
451.61	1402.86
451.81	1396.71
452.02	1316.84
452.22	1329.13
452.43	1366.00
452.63	1378.28
