SpectraSuite Data File
++++++++++++++++++++++++++++++++++++
Date: Tue May 03 11:23:59 CEST 2016
User: root
Dark Spectrum Present: No
Reference Spectrum Present: No
Number of Sampled Component Spectra: 1
Spectrometers: USB4C02835
Integration Time (usec): 100000 (USB4C02835)
Spectra Averaged: 1 (USB4C02835)
Boxcar Smoothing: 0 (USB4C02835)
Correct for Electrical Dark: No (USB4C02835)
Strobe/Lamp Enabled: No (USB4C02835)
Correct for Detector Non-linearity: No (USB4C02835)
Correct for Stray Light: No (USB4C02835)
Number of Pixels in Processed Spectrum: 3648
>>>>>Begin Processed Spectral Data<<<<<
177.47	1191.92
177.69	1191.92
177.91	1191.92
178.13	1294.32
178.36	1167.34
178.58	1277.93
178.80	1361.90
179.02	1224.69
179.24	1318.89
179.46	1361.90
179.68	1366.00
179.90	1363.95
180.13	1398.76
180.35	1353.71
180.57	1376.24
180.79	1394.67
181.01	1355.76
181.23	1421.29
181.45	1355.76
181.67	1370.09
181.90	1388.52
182.12	1329.13
182.34	1376.24
182.56	1384.43
182.78	1357.80
183.00	1359.85
183.22	1372.14
183.44	1282.03
183.66	1411.05
183.89	1404.91
184.11	1361.90
184.33	1322.99
184.55	1402.86
184.77	1376.24
184.99	1359.85
185.21	1359.85
185.43	1423.34
185.65	1290.22
185.87	1345.52
186.10	1441.77
186.32	1439.72
186.54	1300.46
186.76	1368.04
186.98	1411.05
187.20	1355.76
187.42	1318.89
187.64	1415.15
187.86	1421.29
188.08	1372.14
188.30	1417.19
188.52	1376.24
188.75	1392.62
188.97	1388.52
189.19	1390.57
189.41	1370.09
189.63	1376.24
189.85	1298.41
190.07	1265.64
190.29	1355.76
190.51	1380.33
190.73	1347.56
190.95	1447.91
191.17	1357.80
191.39	1282.03
191.61	1353.71
191.84	1298.41
192.06	1372.14
192.28	1286.12
192.50	1521.64
192.72	1335.28
192.94	1423.34
193.16	1318.89
193.38	1298.41
193.60	1429.48
193.82	1306.60
194.04	1333.23
194.26	1370.09
194.48	1390.57
194.70	1325.04
194.92	1347.56
195.14	1363.95
195.36	1255.40
195.58	1355.76
195.80	1445.87
196.02	1376.24
196.24	1417.19
196.46	1361.90
196.69	1284.08
196.91	1519.59
197.13	1368.04
197.35	1374.19
197.57	1413.10
197.79	1394.67
198.01	1388.52
198.23	1343.47
198.45	1366.00
198.67	1386.47
198.89	1368.04
199.11	1355.76
199.33	1413.10
199.55	1259.50
199.77	1355.76
199.99	1411.05
200.21	1398.76
200.43	1388.52
200.65	1349.61
200.87	1247.21
201.09	1337.32
201.31	1380.33
201.53	1417.19
201.75	1282.03
201.97	1347.56
202.19	1349.61
202.41	1394.67
202.63	1480.68
202.85	1390.57
203.07	1341.42
203.29	1355.76
203.51	1298.41
203.73	1308.65
203.95	1548.26
204.17	1306.60
204.39	1361.90
204.61	1413.10
204.83	1314.80
205.05	1376.24
205.27	1413.10
205.49	1447.91
205.71	1353.71
205.93	1308.65
206.15	1404.91
206.37	1413.10
206.59	1325.04
206.81	1349.61
207.03	1347.56
207.25	1374.19
207.47	1361.90
207.69	1322.99
207.91	1419.24
208.13	1384.43
208.34	1458.15
208.56	1345.52
208.78	1406.95
209.00	1363.95
209.22	1402.86
209.44	1353.71
209.66	1308.65
209.88	1386.47
210.10	1406.95
210.32	1275.88
210.54	1347.56
210.76	1355.76
210.98	1437.67
211.20	1239.02
211.42	1411.05
211.64	1431.53
211.86	1406.95
212.08	1449.96
212.30	1349.61
212.52	1304.56
212.74	1331.18
212.96	1396.71
213.17	1388.52
213.39	1294.32
213.61	1443.82
213.83	1464.30
214.05	1294.32
214.27	1370.09
214.49	1314.80
214.71	1392.62
214.93	1363.95
215.15	1339.37
215.37	1327.08
215.59	1359.85
215.81	1406.95
216.03	1314.80
216.24	1394.67
216.46	1396.71
216.68	1464.30
216.90	1363.95
217.12	1376.24
217.34	1380.33
217.56	1392.62
217.78	1380.33
218.00	1339.37
218.22	1409.00
218.44	1353.71
218.66	1337.32
218.87	1351.66
219.09	1357.80
219.31	1327.08
219.53	1298.41
219.75	1368.04
219.97	1372.14
220.19	1368.04
220.41	1292.27
220.63	1359.85
220.85	1378.28
221.06	1329.13
221.28	1388.52
221.50	1433.58
221.72	1374.19
221.94	1353.71
222.16	1296.36
222.38	1370.09
222.60	1439.72
222.82	1376.24
223.03	1409.00
223.25	1380.33
223.47	1478.63
223.69	1449.96
223.91	1376.24
224.13	1376.24
224.35	1368.04
224.57	1435.63
224.78	1409.00
225.00	1286.12
225.22	1388.52
225.44	1382.38
225.66	1404.91
225.88	1363.95
226.10	1394.67
226.32	1396.71
226.53	1435.63
226.75	1409.00
226.97	1390.57
227.19	1404.91
227.41	1349.61
227.63	1355.76
227.85	1331.18
228.06	1413.10
228.28	1402.86
228.50	1386.47
228.72	1351.66
228.94	1368.04
229.16	1320.94
229.37	1290.22
229.59	1318.89
229.81	1374.19
230.03	1282.03
230.25	1294.32
230.47	1394.67
230.69	1312.75
230.90	1390.57
231.12	1374.19
231.34	1406.95
231.56	1333.23
231.78	1339.37
232.00	1374.19
232.21	1374.19
232.43	1368.04
232.65	1239.02
232.87	1308.65
233.09	1302.51
233.30	1306.60
233.52	1337.32
233.74	1386.47
233.96	1378.28
234.18	1394.67
234.40	1310.70
234.61	1409.00
234.83	1339.37
235.05	1318.89
235.27	1460.20
235.49	1441.77
235.70	1462.25
235.92	1441.77
236.14	1402.86
236.36	1435.63
236.58	1355.76
236.79	1460.20
237.01	1437.67
237.23	1333.23
237.45	1507.30
237.67	1310.70
237.88	1359.85
238.10	1476.59
238.32	1361.90
238.54	1409.00
238.76	1406.95
238.97	1312.75
239.19	1378.28
239.41	1480.68
239.63	1478.63
239.85	1337.32
240.06	1357.80
240.28	1273.84
240.50	1468.39
240.72	1390.57
240.93	1402.86
241.15	1417.19
241.37	1388.52
241.59	1388.52
241.81	1411.05
242.02	1388.52
242.24	1402.86
242.46	1402.86
242.68	1329.13
242.89	1413.10
243.11	1415.15
243.33	1366.00
243.55	1406.95
243.76	1351.66
243.98	1347.56
244.20	1337.32
244.42	1351.66
244.64	1372.14
244.85	1355.76
245.07	1257.45
245.29	1366.00
245.51	1331.18
245.72	1345.52
245.94	1314.80
246.16	1411.05
246.38	1355.76
246.59	1437.67
246.81	1359.85
247.03	1443.82
247.24	1386.47
247.46	1398.76
247.68	1380.33
247.90	1290.22
248.11	1402.86
248.33	1376.24
248.55	1394.67
248.77	1439.72
248.98	1345.52
249.20	1388.52
249.42	1417.19
249.64	1406.95
249.85	1390.57
250.07	1294.32
250.29	1310.70
250.50	1413.10
250.72	1304.56
250.94	1363.95
251.16	1470.44
251.37	1464.30
251.59	1441.77
251.81	1390.57
252.02	1433.58
252.24	1351.66
252.46	1445.87
252.68	1374.19
252.89	1335.28
253.11	1363.95
253.33	1474.54
253.54	1404.91
253.76	1339.37
253.98	1339.37
254.20	1361.90
254.41	1368.04
254.63	1392.62
254.85	1363.95
255.06	1370.09
255.28	1357.80
255.50	1400.81
255.71	1228.78
255.93	1349.61
256.15	1466.35
256.36	1468.39
256.58	1359.85
256.80	1380.33
257.02	1337.32
257.23	1335.28
257.45	1284.08
257.67	1427.43
257.88	1396.71
258.10	1355.76
258.32	1404.91
258.53	1355.76
258.75	1427.43
258.97	1351.66
259.18	1415.15
259.40	1290.22
259.62	1366.00
259.83	1363.95
260.05	1458.15
260.27	1538.02
260.48	1468.39
260.70	1286.12
260.92	1370.09
261.13	1310.70
261.35	1396.71
261.57	1376.24
261.78	1308.65
262.00	1378.28
262.22	1449.96
262.43	1265.64
262.65	1363.95
262.86	1269.74
263.08	1427.43
263.30	1400.81
263.51	1318.89
263.73	1449.96
263.95	1388.52
264.16	1347.56
264.38	1333.23
264.60	1406.95
264.81	1363.95
265.03	1409.00
265.25	1417.19
265.46	1294.32
265.68	1501.16
265.89	1396.71
266.11	1331.18
266.33	1411.05
266.54	1409.00
266.76	1282.03
266.98	1413.10
267.19	1423.34
267.41	1417.19
267.62	1298.41
267.84	1337.32
268.06	1374.19
268.27	1370.09
268.49	1462.25
268.70	1368.04
268.92	1413.10
269.14	1390.57
269.35	1255.40
269.57	1337.32
269.79	1437.67
270.00	1374.19
270.22	1431.53
270.43	1423.34
270.65	1314.80
270.87	1322.99
271.08	1357.80
271.30	1409.00
271.51	1341.42
271.73	1355.76
271.95	1417.19
272.16	1304.56
272.38	1429.48
272.59	1339.37
272.81	1458.15
273.02	1372.14
273.24	1335.28
273.46	1406.95
273.67	1368.04
273.89	1378.28
274.10	1363.95
274.32	1402.86
274.54	1411.05
274.75	1376.24
274.97	1411.05
275.18	1386.47
275.40	1384.43
275.61	1310.70
275.83	1378.28
276.05	1294.32
276.26	1308.65
276.48	1460.20
276.69	1296.36
276.91	1347.56
277.12	1421.29
277.34	1382.38
277.55	1449.96
277.77	1347.56
277.99	1370.09
278.20	1353.71
278.42	1257.45
278.63	1288.17
278.85	1304.56
279.06	1304.56
279.28	1406.95
279.49	1386.47
279.71	1394.67
279.93	1327.08
280.14	1423.34
280.36	1290.22
280.57	1449.96
280.79	1337.32
281.00	1331.18
281.22	1304.56
281.43	1366.00
281.65	1316.84
281.86	1402.86
282.08	1345.52
282.29	1456.11
282.51	1290.22
282.73	1257.45
282.94	1341.42
283.16	1368.04
283.37	1464.30
283.59	1368.04
283.80	1388.52
284.02	1339.37
284.23	1339.37
284.45	1361.90
284.66	1337.32
284.88	1310.70
285.09	1439.72
285.31	1376.24
285.52	1345.52
285.74	1325.04
285.95	1447.91
286.17	1363.95
286.38	1337.32
286.60	1310.70
286.81	1363.95
287.03	1361.90
287.24	1419.24
287.46	1355.76
287.67	1320.94
287.89	1509.35
288.10	1388.52
288.32	1318.89
288.53	1388.52
288.75	1413.10
288.96	1413.10
289.18	1343.47
289.39	1366.00
289.61	1355.76
289.82	1386.47
290.04	1427.43
290.25	1355.76
290.47	1345.52
290.68	1376.24
290.90	1406.95
291.11	1271.79
291.33	1404.91
291.54	1366.00
291.76	1421.29
291.97	1396.71
292.18	1318.89
292.40	1296.36
292.61	1359.85
292.83	1396.71
293.04	1445.87
293.26	1409.00
293.47	1306.60
293.69	1296.36
293.90	1437.67
294.12	1386.47
294.33	1312.75
294.55	1337.32
294.76	1421.29
294.97	1368.04
295.19	1388.52
295.40	1277.93
295.62	1345.52
295.83	1380.33
296.05	1226.73
296.26	1372.14
296.48	1288.17
296.69	1392.62
296.90	1357.80
297.12	1415.15
297.33	1361.90
297.55	1421.29
297.76	1357.80
297.98	1320.94
298.19	1388.52
298.41	1415.15
298.62	1384.43
298.83	1435.63
299.05	1343.47
299.26	1308.65
299.48	1425.39
299.69	1435.63
299.90	1296.36
300.12	1288.17
300.33	1372.14
300.55	1349.61
300.76	1443.82
300.98	1333.23
301.19	1417.19
301.40	1345.52
301.62	1376.24
301.83	1355.76
302.05	1341.42
302.26	1310.70
302.47	1406.95
302.69	1357.80
302.90	1386.47
303.12	1247.21
303.33	1394.67
303.54	1376.24
303.76	1318.89
303.97	1314.80
304.19	1501.16
304.40	1396.71
304.61	1402.86
304.83	1417.19
305.04	1363.95
305.26	1310.70
305.47	1390.57
305.68	1331.18
305.90	1378.28
306.11	1345.52
306.33	1337.32
306.54	1361.90
306.75	1384.43
306.97	1347.56
307.18	1374.19
307.39	1322.99
307.61	1456.11
307.82	1374.19
308.04	1429.48
308.25	1353.71
308.46	1339.37
308.68	1363.95
308.89	1421.29
309.10	1378.28
309.32	1409.00
309.53	1359.85
309.74	1427.43
309.96	1388.52
310.17	1363.95
310.39	1300.46
310.60	1437.67
310.81	1298.41
311.03	1376.24
311.24	1386.47
311.45	1361.90
311.67	1472.49
311.88	1380.33
312.09	1339.37
312.31	1347.56
312.52	1390.57
312.73	1335.28
312.95	1378.28
313.16	1423.34
313.37	1439.72
313.59	1286.12
313.80	1392.62
314.01	1427.43
314.23	1339.37
314.44	1366.00
314.65	1345.52
314.87	1409.00
315.08	1394.67
315.29	1316.84
315.51	1347.56
315.72	1279.98
315.93	1456.11
316.15	1374.19
316.36	1357.80
316.57	1357.80
316.79	1343.47
317.00	1347.56
317.21	1370.09
317.43	1359.85
317.64	1386.47
317.85	1402.86
318.07	1462.25
318.28	1511.40
318.49	1552.36
318.70	1640.42
318.92	1507.30
319.13	1499.11
319.34	1538.02
319.56	1488.87
319.77	1441.77
319.98	1495.02
320.20	1417.19
320.41	1486.83
320.62	1372.14
320.83	1298.41
321.05	1382.38
321.26	1409.00
321.47	1294.32
321.69	1480.68
321.90	1359.85
322.11	1425.39
322.32	1392.62
322.54	1345.52
322.75	1300.46
322.96	1435.63
323.18	1327.08
323.39	1310.70
323.60	1406.95
323.81	1318.89
324.03	1275.88
324.24	1380.33
324.45	1413.10
324.66	1347.56
324.88	1392.62
325.09	1452.01
325.30	1316.84
325.52	1390.57
325.73	1337.32
325.94	1361.90
326.15	1343.47
326.37	1335.28
326.58	1462.25
326.79	1394.67
327.00	1357.80
327.22	1329.13
327.43	1341.42
327.64	1316.84
327.85	1361.90
328.07	1421.29
328.28	1470.44
328.49	1355.76
328.70	1331.18
328.92	1413.10
329.13	1419.24
329.34	1388.52
329.55	1398.76
329.76	1431.53
329.98	1411.05
330.19	1437.67
330.40	1415.15
330.61	1417.19
330.83	1382.38
331.04	1339.37
331.25	1415.15
331.46	1370.09
331.68	1427.43
331.89	1406.95
332.10	1357.80
332.31	1322.99
332.52	1378.28
332.74	1476.59
332.95	1353.71
333.16	1286.12
333.37	1425.39
333.58	1343.47
333.80	1355.76
334.01	1279.98
334.22	1341.42
334.43	1345.52
334.64	1290.22
334.86	1290.22
335.07	1292.27
335.28	1468.39
335.49	1310.70
335.70	1357.80
335.92	1462.25
336.13	1390.57
336.34	1409.00
336.55	1406.95
336.76	1378.28
336.98	1294.32
337.19	1378.28
337.40	1384.43
337.61	1392.62
337.82	1329.13
338.04	1355.76
338.25	1327.08
338.46	1335.28
338.67	1355.76
338.88	1312.75
339.09	1314.80
339.31	1329.13
339.52	1341.42
339.73	1282.03
339.94	1343.47
340.15	1374.19
340.36	1318.89
340.58	1306.60
340.79	1429.48
341.00	1337.32
341.21	1310.70
341.42	1396.71
341.63	1388.52
341.85	1374.19
342.06	1406.95
342.27	1353.71
342.48	1423.34
342.69	1318.89
342.90	1359.85
343.12	1329.13
343.33	1359.85
343.54	1298.41
343.75	1368.04
343.96	1402.86
344.17	1318.89
344.38	1341.42
344.60	1357.80
344.81	1361.90
345.02	1402.86
345.23	1417.19
345.44	1488.87
345.65	1345.52
345.86	1368.04
346.07	1357.80
346.29	1325.04
346.50	1347.56
346.71	1460.20
346.92	1433.58
347.13	1394.67
347.34	1343.47
347.55	1337.32
347.76	1404.91
347.98	1343.47
348.19	1382.38
348.40	1417.19
348.61	1339.37
348.82	1458.15
349.03	1402.86
349.24	1279.98
349.45	1525.74
349.66	1200.11
349.88	1345.52
350.09	1337.32
350.30	1349.61
350.51	1452.01
350.72	1411.05
350.93	1345.52
351.14	1316.84
351.35	1388.52
351.56	1335.28
351.77	1374.19
351.99	1347.56
352.20	1355.76
352.41	1355.76
352.62	1273.84
352.83	1320.94
353.04	1396.71
353.25	1370.09
353.46	1454.06
353.67	1409.00
353.88	1361.90
354.09	1445.87
354.30	1415.15
354.52	1331.18
354.73	1341.42
354.94	1402.86
355.15	1341.42
355.36	1372.14
355.57	1394.67
355.78	1400.81
355.99	1308.65
356.20	1284.08
356.41	1355.76
356.62	1343.47
356.83	1351.66
357.04	1437.67
357.25	1312.75
357.46	1392.62
357.68	1306.60
357.89	1370.09
358.10	1290.22
358.31	1384.43
358.52	1390.57
358.73	1282.03
358.94	1337.32
359.15	1351.66
359.36	1433.58
359.57	1398.76
359.78	1374.19
359.99	1380.33
360.20	1361.90
360.41	1380.33
360.62	1492.97
360.83	1441.77
361.04	1499.11
361.25	1335.28
361.46	1433.58
361.67	1480.68
361.88	1433.58
362.09	1386.47
362.30	1304.56
362.51	1302.51
362.72	1394.67
362.93	1419.24
363.14	1396.71
363.35	1390.57
363.56	1359.85
363.78	1380.33
363.99	1392.62
364.20	1386.47
364.41	1423.34
364.62	1406.95
364.83	1339.37
365.04	1404.91
365.25	1333.23
365.46	1409.00
365.67	1361.90
365.88	1374.19
366.09	1384.43
366.30	1421.29
366.51	1415.15
366.72	1366.00
366.93	1378.28
367.14	1425.39
367.35	1435.63
367.56	1347.56
367.77	1460.20
367.98	1396.71
368.18	1353.71
368.39	1435.63
368.60	1333.23
368.81	1333.23
369.02	1357.80
369.23	1384.43
369.44	1257.45
369.65	1372.14
369.86	1351.66
370.07	1478.63
370.28	1284.08
370.49	1359.85
370.70	1370.09
370.91	1306.60
371.12	1351.66
371.33	1390.57
371.54	1345.52
371.75	1427.43
371.96	1337.32
372.17	1314.80
372.38	1441.77
372.59	1415.15
372.80	1429.48
373.01	1296.36
373.22	1402.86
373.43	1353.71
373.64	1388.52
373.85	1386.47
374.06	1472.49
374.26	1413.10
374.47	1376.24
374.68	1417.19
374.89	1370.09
375.10	1351.66
375.31	1421.29
375.52	1355.76
375.73	1417.19
375.94	1314.80
376.15	1400.81
376.36	1329.13
376.57	1325.04
376.78	1361.90
376.99	1347.56
377.20	1380.33
377.40	1351.66
377.61	1398.76
377.82	1345.52
378.03	1431.53
378.24	1341.42
378.45	1409.00
378.66	1357.80
378.87	1296.36
379.08	1357.80
379.29	1322.99
379.50	1431.53
379.71	1329.13
379.91	1388.52
380.12	1392.62
380.33	1331.18
380.54	1419.24
380.75	1325.04
380.96	1355.76
381.17	1527.78
381.38	1456.11
381.59	1476.59
381.80	1425.39
382.00	1517.54
382.21	1443.82
382.42	1523.69
382.63	1550.31
382.84	1372.14
383.05	1466.35
383.26	1515.50
383.47	1447.91
383.68	1394.67
383.88	1411.05
384.09	1402.86
384.30	1472.49
384.51	1366.00
384.72	1308.65
384.93	1251.31
385.14	1431.53
385.35	1382.38
385.55	1382.38
385.76	1378.28
385.97	1409.00
386.18	1333.23
386.39	1292.27
386.60	1355.76
386.81	1429.48
387.02	1318.89
387.22	1290.22
387.43	1443.82
387.64	1564.65
387.85	2338.78
388.06	5867.43
388.27	9488.24
388.48	11650.89
388.68	13195.06
388.89	13291.32
389.10	10645.34
389.31	9168.76
389.52	8431.49
389.73	7516.05
389.93	6963.09
390.14	6504.35
390.35	6018.98
390.56	5451.69
390.77	4689.85
390.98	3684.30
391.18	2799.57
391.39	2152.42
391.60	1779.68
391.81	1617.90
392.02	1458.15
392.23	1484.78
392.43	1349.61
392.64	1437.67
392.85	1376.24
393.06	1402.86
393.27	1318.89
393.47	1394.67
393.68	1392.62
393.89	1429.48
394.10	1366.00
394.31	1359.85
394.52	1322.99
394.72	1374.19
394.93	1413.10
395.14	1265.64
395.35	1380.33
395.56	1462.25
395.76	1556.46
395.97	1550.31
396.18	1591.27
396.39	1576.94
396.60	1679.33
396.80	1585.13
397.01	1509.35
397.22	1480.68
397.43	1470.44
397.64	1464.30
397.84	1480.68
398.05	1540.07
398.26	1490.92
398.47	1515.50
398.67	1478.63
398.88	1384.43
399.09	1417.19
399.30	1316.84
399.51	1363.95
399.71	1359.85
399.92	1396.71
400.13	1423.34
400.34	1282.03
400.54	1339.37
400.75	1460.20
400.96	1495.02
401.17	1400.81
401.37	1378.28
401.58	1363.95
401.79	1564.65
402.00	1628.14
402.21	1800.16
402.41	1753.06
402.62	1783.78
402.83	1703.91
403.04	1548.26
403.24	1613.80
403.45	1568.74
403.66	1609.70
403.87	1439.72
404.07	1581.03
404.28	1583.08
404.49	1550.31
404.70	1505.26
404.90	1466.35
405.11	1452.01
405.32	1488.87
405.52	1343.47
405.73	1339.37
405.94	1327.08
406.15	1419.24
406.35	1413.10
406.56	1413.10
406.77	1320.94
406.98	1394.67
407.18	1376.24
407.39	1374.19
407.60	1331.18
407.80	1472.49
408.01	1286.12
408.22	1372.14
408.43	1282.03
408.63	1353.71
408.84	1345.52
409.05	1361.90
409.25	1478.63
409.46	1337.32
409.67	1376.24
409.88	1300.46
410.08	1376.24
410.29	1384.43
410.50	1415.15
410.70	1359.85
410.91	1294.32
411.12	1454.06
411.32	1419.24
411.53	1425.39
411.74	1488.87
411.95	1468.39
412.15	1466.35
412.36	1484.78
412.57	1480.68
412.77	1404.91
412.98	1406.95
413.19	1386.47
413.39	1343.47
413.60	1447.91
413.81	1560.55
414.01	1449.96
414.22	1368.04
414.43	1409.00
414.63	1306.60
414.84	1402.86
415.05	1382.38
415.25	1306.60
415.46	1384.43
415.67	1380.33
415.87	1382.38
416.08	1333.23
416.29	1363.95
416.49	1439.72
416.70	1300.46
416.91	1335.28
417.11	1378.28
417.32	1431.53
417.53	1390.57
417.73	1429.48
417.94	1374.19
418.15	1370.09
418.35	1329.13
418.56	1351.66
418.77	1433.58
418.97	1353.71
419.18	1366.00
419.38	1222.64
419.59	1398.76
419.80	1361.90
420.00	1386.47
420.21	1462.25
420.42	1363.95
420.62	1357.80
420.83	1394.67
421.04	1363.95
421.24	1329.13
421.45	1501.16
421.65	1419.24
421.86	1409.00
422.07	1335.28
422.27	1390.57
422.48	1372.14
422.69	1318.89
422.89	1386.47
423.10	1374.19
423.30	1386.47
423.51	1347.56
423.72	1329.13
423.92	1435.63
424.13	1296.36
424.33	1306.60
424.54	1454.06
424.75	1355.76
424.95	1370.09
425.16	1331.18
425.36	1402.86
425.57	1413.10
425.78	1415.15
425.98	1380.33
426.19	1425.39
426.39	1310.70
426.60	1402.86
426.81	1378.28
427.01	1304.56
427.22	1339.37
427.42	1327.08
427.63	1386.47
427.83	1400.81
428.04	1349.61
428.25	1386.47
428.45	1320.94
428.66	1402.86
428.86	1394.67
429.07	1265.64
429.28	1345.52
429.48	1443.82
429.69	1325.04
429.89	1325.04
430.10	1298.41
430.30	1441.77
430.51	1355.76
430.71	1388.52
430.92	1370.09
431.13	1447.91
431.33	1390.57
431.54	1409.00
431.74	1474.54
431.95	1452.01
432.15	1355.76
432.36	1406.95
432.56	1409.00
432.77	1417.19
432.98	1472.49
433.18	1314.80
433.39	1331.18
433.59	1314.80
433.80	1366.00
434.00	1454.06
434.21	1406.95
434.41	1359.85
434.62	1437.67
434.82	1382.38
435.03	1306.60
435.23	1351.66
435.44	1269.74
435.64	1370.09
435.85	1380.33
436.06	1413.10
436.26	1368.04
436.47	1374.19
436.67	1372.14
436.88	1380.33
437.08	1374.19
437.29	1443.82
437.49	1359.85
437.70	1357.80
437.90	1437.67
438.11	1556.46
438.31	1497.07
438.52	1583.08
438.72	1572.84
438.93	1478.63
439.13	1466.35
439.34	1478.63
439.54	1454.06
439.75	1535.98
439.95	1486.83
440.16	1406.95
440.36	1468.39
440.57	1449.96
440.77	1404.91
440.98	1402.86
441.18	1445.87
441.39	1366.00
441.59	1378.28
441.80	1429.48
442.00	1370.09
442.21	1382.38
442.41	1349.61
442.62	1374.19
442.82	1357.80
443.02	1425.39
443.23	1458.15
443.43	1439.72
443.64	1456.11
443.84	1409.00
444.05	1419.24
444.25	1413.10
444.46	1409.00
444.66	1404.91
444.87	1449.96
445.07	1320.94
445.28	1361.90
445.48	1394.67
445.69	1402.86
445.89	1456.11
446.09	1517.54
446.30	2277.34
446.50	3753.93
446.71	4648.89
446.91	5310.38
447.12	5599.15
447.32	4997.04
447.53	4151.23
447.73	3753.93
447.93	3444.68
448.14	3088.34
448.34	3049.43
448.55	2734.04
448.75	2807.77
448.96	2662.36
449.16	2344.92
449.36	2207.71
449.57	1912.80
449.77	1648.61
449.98	1486.83
450.18	1523.69
450.39	1474.54
450.59	1464.30
450.79	1366.00
451.00	1443.82
451.20	1421.29
451.41	1402.86
451.61	1378.28
451.81	1363.95
452.02	1333.23
452.22	1392.62
452.43	1312.75
452.63	1327.08
