SpectraSuite Data File
++++++++++++++++++++++++++++++++++++
Date: Tue May 03 11:24:03 CEST 2016
User: root
Dark Spectrum Present: No
Reference Spectrum Present: No
Number of Sampled Component Spectra: 1
Spectrometers: USB4C02835
Integration Time (usec): 100000 (USB4C02835)
Spectra Averaged: 1 (USB4C02835)
Boxcar Smoothing: 0 (USB4C02835)
Correct for Electrical Dark: No (USB4C02835)
Strobe/Lamp Enabled: No (USB4C02835)
Correct for Detector Non-linearity: No (USB4C02835)
Correct for Stray Light: No (USB4C02835)
Number of Pixels in Processed Spectrum: 3648
>>>>>Begin Processed Spectral Data<<<<<
177.47	1234.93
177.69	1234.93
177.91	1234.93
178.13	1198.06
178.36	1255.40
178.58	1347.56
178.80	1384.43
179.02	1306.60
179.24	1341.42
179.46	1370.09
179.68	1343.47
179.90	1376.24
180.13	1398.76
180.35	1314.80
180.57	1341.42
180.79	1363.95
181.01	1316.84
181.23	1411.05
181.45	1425.39
181.67	1413.10
181.90	1386.47
182.12	1271.79
182.34	1392.62
182.56	1386.47
182.78	1421.29
183.00	1341.42
183.22	1394.67
183.44	1261.55
183.66	1474.54
183.89	1349.61
184.11	1411.05
184.33	1349.61
184.55	1380.33
184.77	1411.05
184.99	1429.48
185.21	1353.71
185.43	1425.39
185.65	1351.66
185.87	1388.52
186.10	1437.67
186.32	1435.63
186.54	1388.52
186.76	1390.57
186.98	1437.67
187.20	1363.95
187.42	1376.24
187.64	1439.72
187.86	1378.28
188.08	1456.11
188.30	1353.71
188.52	1380.33
188.75	1447.91
188.97	1441.77
189.19	1339.37
189.41	1411.05
189.63	1400.81
189.85	1351.66
190.07	1302.51
190.29	1351.66
190.51	1366.00
190.73	1359.85
190.95	1325.04
191.17	1413.10
191.39	1343.47
191.61	1351.66
191.84	1441.77
192.06	1429.48
192.28	1294.32
192.50	1435.63
192.72	1402.86
192.94	1443.82
193.16	1349.61
193.38	1300.46
193.60	1353.71
193.82	1325.04
194.04	1449.96
194.26	1314.80
194.48	1339.37
194.70	1363.95
194.92	1370.09
195.14	1402.86
195.36	1339.37
195.58	1347.56
195.80	1361.90
196.02	1347.56
196.24	1400.81
196.46	1300.46
196.69	1390.57
196.91	1468.39
197.13	1372.14
197.35	1413.10
197.57	1433.58
197.79	1339.37
198.01	1402.86
198.23	1433.58
198.45	1376.24
198.67	1312.75
198.89	1392.62
199.11	1466.35
199.33	1345.52
199.55	1286.12
199.77	1359.85
199.99	1419.24
200.21	1331.18
200.43	1421.29
200.65	1271.79
200.87	1349.61
201.09	1320.94
201.31	1382.38
201.53	1386.47
201.75	1361.90
201.97	1380.33
202.19	1439.72
202.41	1392.62
202.63	1499.11
202.85	1300.46
203.07	1396.71
203.29	1314.80
203.51	1314.80
203.73	1322.99
203.95	1495.02
204.17	1398.76
204.39	1464.30
204.61	1325.04
204.83	1421.29
205.05	1378.28
205.27	1386.47
205.49	1388.52
205.71	1417.19
205.93	1366.00
206.15	1394.67
206.37	1353.71
206.59	1390.57
206.81	1372.14
207.03	1376.24
207.25	1357.80
207.47	1439.72
207.69	1335.28
207.91	1400.81
208.13	1419.24
208.34	1343.47
208.56	1349.61
208.78	1394.67
209.00	1284.08
209.22	1335.28
209.44	1384.43
209.66	1400.81
209.88	1402.86
210.10	1273.84
210.32	1372.14
210.54	1425.39
210.76	1355.76
210.98	1404.91
211.20	1277.93
211.42	1378.28
211.64	1325.04
211.86	1357.80
212.08	1431.53
212.30	1353.71
212.52	1370.09
212.74	1310.70
212.96	1359.85
213.17	1376.24
213.39	1345.52
213.61	1386.47
213.83	1409.00
214.05	1368.04
214.27	1425.39
214.49	1333.23
214.71	1310.70
214.93	1386.47
215.15	1335.28
215.37	1314.80
215.59	1347.56
215.81	1468.39
216.03	1300.46
216.24	1316.84
216.46	1435.63
216.68	1316.84
216.90	1421.29
217.12	1435.63
217.34	1388.52
217.56	1368.04
217.78	1447.91
218.00	1400.81
218.22	1310.70
218.44	1435.63
218.66	1372.14
218.87	1404.91
219.09	1341.42
219.31	1411.05
219.53	1402.86
219.75	1267.69
219.97	1357.80
220.19	1431.53
220.41	1372.14
220.63	1445.87
220.85	1398.76
221.06	1370.09
221.28	1392.62
221.50	1370.09
221.72	1372.14
221.94	1363.95
222.16	1415.15
222.38	1345.52
222.60	1384.43
222.82	1392.62
223.03	1429.48
223.25	1294.32
223.47	1394.67
223.69	1423.34
223.91	1417.19
224.13	1335.28
224.35	1292.27
224.57	1443.82
224.78	1441.77
225.00	1419.24
225.22	1374.19
225.44	1435.63
225.66	1411.05
225.88	1337.32
226.10	1363.95
226.32	1370.09
226.53	1435.63
226.75	1345.52
226.97	1322.99
227.19	1343.47
227.41	1341.42
227.63	1279.98
227.85	1322.99
228.06	1353.71
228.28	1437.67
228.50	1429.48
228.72	1423.34
228.94	1437.67
229.16	1325.04
229.37	1298.41
229.59	1396.71
229.81	1419.24
230.03	1339.37
230.25	1386.47
230.47	1302.51
230.69	1269.74
230.90	1402.86
231.12	1320.94
231.34	1327.08
231.56	1441.77
231.78	1331.18
232.00	1357.80
232.21	1372.14
232.43	1359.85
232.65	1257.45
232.87	1372.14
233.09	1351.66
233.30	1396.71
233.52	1445.87
233.74	1306.60
233.96	1421.29
234.18	1372.14
234.40	1368.04
234.61	1386.47
234.83	1325.04
235.05	1331.18
235.27	1431.53
235.49	1411.05
235.70	1347.56
235.92	1355.76
236.14	1400.81
236.36	1509.35
236.58	1368.04
236.79	1421.29
237.01	1357.80
237.23	1366.00
237.45	1456.11
237.67	1331.18
237.88	1355.76
238.10	1447.91
238.32	1402.86
238.54	1366.00
238.76	1341.42
238.97	1343.47
239.19	1363.95
239.41	1359.85
239.63	1318.89
239.85	1368.04
240.06	1349.61
240.28	1312.75
240.50	1368.04
240.72	1351.66
240.93	1294.32
241.15	1396.71
241.37	1351.66
241.59	1382.38
241.81	1339.37
242.02	1318.89
242.24	1345.52
242.46	1425.39
242.68	1320.94
242.89	1351.66
243.11	1370.09
243.33	1388.52
243.55	1400.81
243.76	1462.25
243.98	1376.24
244.20	1433.58
244.42	1398.76
244.64	1366.00
244.85	1300.46
245.07	1382.38
245.29	1335.28
245.51	1357.80
245.72	1345.52
245.94	1419.24
246.16	1404.91
246.38	1427.43
246.59	1292.27
246.81	1396.71
247.03	1349.61
247.24	1251.31
247.46	1325.04
247.68	1314.80
247.90	1329.13
248.11	1345.52
248.33	1417.19
248.55	1345.52
248.77	1345.52
248.98	1454.06
249.20	1372.14
249.42	1382.38
249.64	1382.38
249.85	1417.19
250.07	1368.04
250.29	1335.28
250.50	1441.77
250.72	1304.56
250.94	1366.00
251.16	1396.71
251.37	1415.15
251.59	1421.29
251.81	1439.72
252.02	1411.05
252.24	1298.41
252.46	1386.47
252.68	1290.22
252.89	1380.33
253.11	1302.51
253.33	1368.04
253.54	1366.00
253.76	1366.00
253.98	1335.28
254.20	1380.33
254.41	1263.60
254.63	1429.48
254.85	1325.04
255.06	1345.52
255.28	1386.47
255.50	1376.24
255.71	1335.28
255.93	1310.70
256.15	1261.55
256.36	1419.24
256.58	1419.24
256.80	1423.34
257.02	1406.95
257.23	1363.95
257.45	1386.47
257.67	1331.18
257.88	1363.95
258.10	1384.43
258.32	1413.10
258.53	1357.80
258.75	1361.90
258.97	1288.17
259.18	1380.33
259.40	1345.52
259.62	1417.19
259.83	1406.95
260.05	1419.24
260.27	1540.07
260.48	1386.47
260.70	1304.56
260.92	1435.63
261.13	1404.91
261.35	1386.47
261.57	1392.62
261.78	1253.36
262.00	1376.24
262.22	1368.04
262.43	1376.24
262.65	1339.37
262.86	1314.80
263.08	1439.72
263.30	1384.43
263.51	1325.04
263.73	1267.69
263.95	1392.62
264.16	1425.39
264.38	1339.37
264.60	1466.35
264.81	1400.81
265.03	1363.95
265.25	1363.95
265.46	1316.84
265.68	1431.53
265.89	1345.52
266.11	1288.17
266.33	1452.01
266.54	1366.00
266.76	1392.62
266.98	1398.76
267.19	1359.85
267.41	1419.24
267.62	1431.53
267.84	1353.71
268.06	1374.19
268.27	1415.15
268.49	1386.47
268.70	1413.10
268.92	1357.80
269.14	1304.56
269.35	1380.33
269.57	1402.86
269.79	1357.80
270.00	1298.41
270.22	1495.02
270.43	1333.23
270.65	1236.97
270.87	1327.08
271.08	1413.10
271.30	1456.11
271.51	1445.87
271.73	1429.48
271.95	1384.43
272.16	1447.91
272.38	1384.43
272.59	1306.60
272.81	1415.15
273.02	1327.08
273.24	1322.99
273.46	1361.90
273.67	1325.04
273.89	1341.42
274.10	1355.76
274.32	1363.95
274.54	1370.09
274.75	1370.09
274.97	1380.33
275.18	1363.95
275.40	1425.39
275.61	1363.95
275.83	1339.37
276.05	1322.99
276.26	1384.43
276.48	1333.23
276.69	1374.19
276.91	1359.85
277.12	1404.91
277.34	1388.52
277.55	1343.47
277.77	1337.32
277.99	1335.28
278.20	1351.66
278.42	1361.90
278.63	1308.65
278.85	1300.46
279.06	1308.65
279.28	1468.39
279.49	1363.95
279.71	1413.10
279.93	1396.71
280.14	1355.76
280.36	1337.32
280.57	1439.72
280.79	1437.67
281.00	1363.95
281.22	1308.65
281.43	1361.90
281.65	1247.21
281.86	1320.94
282.08	1374.19
282.29	1429.48
282.51	1306.60
282.73	1304.56
282.94	1335.28
283.16	1396.71
283.37	1390.57
283.59	1370.09
283.80	1370.09
284.02	1380.33
284.23	1302.51
284.45	1411.05
284.66	1363.95
284.88	1239.02
285.09	1359.85
285.31	1382.38
285.52	1372.14
285.74	1325.04
285.95	1443.82
286.17	1380.33
286.38	1335.28
286.60	1486.83
286.81	1337.32
287.03	1343.47
287.24	1394.67
287.46	1392.62
287.67	1382.38
287.89	1388.52
288.10	1429.48
288.32	1396.71
288.53	1441.77
288.75	1343.47
288.96	1413.10
289.18	1302.51
289.39	1337.32
289.61	1368.04
289.82	1501.16
290.04	1439.72
290.25	1382.38
290.47	1329.13
290.68	1353.71
290.90	1318.89
291.11	1318.89
291.33	1388.52
291.54	1290.22
291.76	1355.76
291.97	1359.85
292.18	1392.62
292.40	1333.23
292.61	1400.81
292.83	1443.82
293.04	1427.43
293.26	1288.17
293.47	1368.04
293.69	1355.76
293.90	1351.66
294.12	1417.19
294.33	1374.19
294.55	1337.32
294.76	1406.95
294.97	1406.95
295.19	1458.15
295.40	1361.90
295.62	1396.71
295.83	1421.29
296.05	1359.85
296.26	1320.94
296.48	1271.79
296.69	1378.28
296.90	1390.57
297.12	1339.37
297.33	1384.43
297.55	1308.65
297.76	1343.47
297.98	1390.57
298.19	1361.90
298.41	1292.27
298.62	1308.65
298.83	1460.20
299.05	1361.90
299.26	1345.52
299.48	1312.75
299.69	1370.09
299.90	1394.67
300.12	1351.66
300.33	1460.20
300.55	1409.00
300.76	1429.48
300.98	1351.66
301.19	1427.43
301.40	1415.15
301.62	1400.81
301.83	1447.91
302.05	1329.13
302.26	1386.47
302.47	1357.80
302.69	1294.32
302.90	1402.86
303.12	1302.51
303.33	1402.86
303.54	1366.00
303.76	1380.33
303.97	1320.94
304.19	1404.91
304.40	1327.08
304.61	1402.86
304.83	1427.43
305.04	1400.81
305.26	1345.52
305.47	1327.08
305.68	1396.71
305.90	1308.65
306.11	1404.91
306.33	1372.14
306.54	1292.27
306.75	1392.62
306.97	1345.52
307.18	1218.54
307.39	1322.99
307.61	1341.42
307.82	1345.52
308.04	1366.00
308.25	1282.03
308.46	1361.90
308.68	1359.85
308.89	1357.80
309.10	1425.39
309.32	1343.47
309.53	1361.90
309.74	1388.52
309.96	1310.70
310.17	1419.24
310.39	1331.18
310.60	1357.80
310.81	1329.13
311.03	1327.08
311.24	1427.43
311.45	1394.67
311.67	1492.97
311.88	1411.05
312.09	1329.13
312.31	1322.99
312.52	1445.87
312.73	1376.24
312.95	1335.28
313.16	1310.70
313.37	1372.14
313.59	1368.04
313.80	1404.91
314.01	1380.33
314.23	1394.67
314.44	1357.80
314.65	1316.84
314.87	1314.80
315.08	1404.91
315.29	1308.65
315.51	1374.19
315.72	1310.70
315.93	1425.39
316.15	1372.14
316.36	1349.61
316.57	1363.95
316.79	1359.85
317.00	1343.47
317.21	1333.23
317.43	1349.61
317.64	1388.52
317.85	1374.19
318.07	1497.07
318.28	1509.35
318.49	1542.12
318.70	1720.29
318.92	1517.54
319.13	1492.97
319.34	1507.30
319.56	1533.93
319.77	1366.00
319.98	1472.49
320.20	1406.95
320.41	1484.78
320.62	1415.15
320.83	1415.15
321.05	1558.50
321.26	1386.47
321.47	1368.04
321.69	1372.14
321.90	1286.12
322.11	1388.52
322.32	1366.00
322.54	1355.76
322.75	1322.99
322.96	1378.28
323.18	1337.32
323.39	1304.56
323.60	1294.32
323.81	1419.24
324.03	1363.95
324.24	1296.36
324.45	1392.62
324.66	1370.09
324.88	1429.48
325.09	1337.32
325.30	1445.87
325.52	1380.33
325.73	1411.05
325.94	1368.04
326.15	1304.56
326.37	1325.04
326.58	1441.77
326.79	1439.72
327.00	1390.57
327.22	1361.90
327.43	1333.23
327.64	1357.80
327.85	1419.24
328.07	1392.62
328.28	1376.24
328.49	1284.08
328.70	1318.89
328.92	1374.19
329.13	1370.09
329.34	1353.71
329.55	1441.77
329.76	1421.29
329.98	1355.76
330.19	1427.43
330.40	1368.04
330.61	1372.14
330.83	1335.28
331.04	1361.90
331.25	1411.05
331.46	1423.34
331.68	1273.84
331.89	1445.87
332.10	1433.58
332.31	1337.32
332.52	1286.12
332.74	1492.97
332.95	1339.37
333.16	1427.43
333.37	1329.13
333.58	1359.85
333.80	1363.95
334.01	1376.24
334.22	1290.22
334.43	1378.28
334.64	1394.67
334.86	1292.27
335.07	1271.79
335.28	1357.80
335.49	1378.28
335.70	1339.37
335.92	1351.66
336.13	1476.59
336.34	1361.90
336.55	1392.62
336.76	1310.70
336.98	1290.22
337.19	1322.99
337.40	1492.97
337.61	1388.52
337.82	1343.47
338.04	1472.49
338.25	1292.27
338.46	1282.03
338.67	1413.10
338.88	1380.33
339.09	1314.80
339.31	1366.00
339.52	1368.04
339.73	1384.43
339.94	1390.57
340.15	1388.52
340.36	1333.23
340.58	1386.47
340.79	1396.71
341.00	1345.52
341.21	1284.08
341.42	1509.35
341.63	1298.41
341.85	1400.81
342.06	1380.33
342.27	1304.56
342.48	1357.80
342.69	1267.69
342.90	1380.33
343.12	1335.28
343.33	1394.67
343.54	1396.71
343.75	1386.47
343.96	1378.28
344.17	1363.95
344.38	1349.61
344.60	1345.52
344.81	1337.32
345.02	1308.65
345.23	1380.33
345.44	1421.29
345.65	1378.28
345.86	1435.63
346.07	1357.80
346.29	1337.32
346.50	1363.95
346.71	1382.38
346.92	1433.58
347.13	1470.44
347.34	1415.15
347.55	1333.23
347.76	1341.42
347.98	1366.00
348.19	1318.89
348.40	1390.57
348.61	1361.90
348.82	1341.42
349.03	1363.95
349.24	1329.13
349.45	1372.14
349.66	1300.46
349.88	1433.58
350.09	1298.41
350.30	1400.81
350.51	1443.82
350.72	1396.71
350.93	1429.48
351.14	1413.10
351.35	1345.52
351.56	1357.80
351.77	1378.28
351.99	1413.10
352.20	1411.05
352.41	1415.15
352.62	1300.46
352.83	1359.85
353.04	1304.56
353.25	1374.19
353.46	1351.66
353.67	1425.39
353.88	1376.24
354.09	1359.85
354.30	1320.94
354.52	1435.63
354.73	1378.28
354.94	1335.28
355.15	1374.19
355.36	1384.43
355.57	1396.71
355.78	1351.66
355.99	1300.46
356.20	1333.23
356.41	1402.86
356.62	1329.13
356.83	1390.57
357.04	1458.15
357.25	1372.14
357.46	1357.80
357.68	1302.51
357.89	1304.56
358.10	1339.37
358.31	1419.24
358.52	1343.47
358.73	1310.70
358.94	1386.47
359.15	1357.80
359.36	1331.18
359.57	1370.09
359.78	1284.08
359.99	1400.81
360.20	1310.70
360.41	1376.24
360.62	1472.49
360.83	1468.39
361.04	1402.86
361.25	1443.82
361.46	1452.01
361.67	1355.76
361.88	1419.24
362.09	1429.48
362.30	1327.08
362.51	1386.47
362.72	1378.28
362.93	1468.39
363.14	1425.39
363.35	1310.70
363.56	1394.67
363.78	1386.47
363.99	1462.25
364.20	1372.14
364.41	1396.71
364.62	1454.06
364.83	1429.48
365.04	1335.28
365.25	1349.61
365.46	1470.44
365.67	1335.28
365.88	1421.29
366.09	1320.94
366.30	1445.87
366.51	1394.67
366.72	1284.08
366.93	1355.76
367.14	1361.90
367.35	1445.87
367.56	1384.43
367.77	1380.33
367.98	1386.47
368.18	1372.14
368.39	1413.10
368.60	1265.64
368.81	1460.20
369.02	1415.15
369.23	1331.18
369.44	1347.56
369.65	1374.19
369.86	1357.80
370.07	1433.58
370.28	1310.70
370.49	1490.92
370.70	1486.83
370.91	1372.14
371.12	1296.36
371.33	1425.39
371.54	1329.13
371.75	1480.68
371.96	1282.03
372.17	1331.18
372.38	1380.33
372.59	1404.91
372.80	1413.10
373.01	1439.72
373.22	1368.04
373.43	1384.43
373.64	1390.57
373.85	1468.39
374.06	1380.33
374.26	1468.39
374.47	1333.23
374.68	1359.85
374.89	1404.91
375.10	1249.26
375.31	1492.97
375.52	1347.56
375.73	1374.19
375.94	1320.94
376.15	1370.09
376.36	1333.23
376.57	1337.32
376.78	1327.08
376.99	1394.67
377.20	1495.02
377.40	1298.41
377.61	1443.82
377.82	1388.52
378.03	1404.91
378.24	1452.01
378.45	1304.56
378.66	1382.38
378.87	1337.32
379.08	1376.24
379.29	1282.03
379.50	1378.28
379.71	1372.14
379.91	1368.04
380.12	1347.56
380.33	1359.85
380.54	1363.95
380.75	1363.95
380.96	1366.00
381.17	1490.92
381.38	1378.28
381.59	1406.95
381.80	1425.39
382.00	1576.94
382.21	1439.72
382.42	1468.39
382.63	1527.78
382.84	1456.11
383.05	1388.52
383.26	1464.30
383.47	1386.47
383.68	1394.67
383.88	1468.39
384.09	1423.34
384.30	1486.83
384.51	1378.28
384.72	1351.66
384.93	1388.52
385.14	1382.38
385.35	1363.95
385.55	1437.67
385.76	1425.39
385.97	1417.19
386.18	1316.84
386.39	1388.52
386.60	1398.76
386.81	1413.10
387.02	1380.33
387.22	1370.09
387.43	1511.40
387.64	1576.94
387.85	2281.44
388.06	5695.40
388.27	9406.32
388.48	11462.48
388.68	13184.82
388.89	13363.00
389.10	10659.68
389.31	9377.65
389.52	8400.77
389.73	7407.50
389.93	6920.09
390.14	6504.35
390.35	6197.15
390.56	5404.59
390.77	4540.35
390.98	3616.71
391.18	2836.44
391.39	2074.59
391.60	1675.24
391.81	1538.02
392.02	1400.81
392.23	1452.01
392.43	1345.52
392.64	1460.20
392.85	1347.56
393.06	1443.82
393.27	1359.85
393.47	1368.04
393.68	1314.80
393.89	1363.95
394.10	1368.04
394.31	1374.19
394.52	1394.67
394.72	1437.67
394.93	1480.68
395.14	1351.66
395.35	1363.95
395.56	1404.91
395.76	1495.02
395.97	1535.98
396.18	1617.90
396.39	1591.27
396.60	1691.62
396.80	1560.55
397.01	1595.37
397.22	1535.98
397.43	1476.59
397.64	1482.73
397.84	1482.73
398.05	1523.69
398.26	1437.67
398.47	1419.24
398.67	1476.59
398.88	1478.63
399.09	1423.34
399.30	1337.32
399.51	1388.52
399.71	1320.94
399.92	1361.90
400.13	1402.86
400.34	1380.33
400.54	1402.86
400.75	1482.73
400.96	1411.05
401.17	1394.67
401.37	1392.62
401.58	1374.19
401.79	1544.17
402.00	1669.09
402.21	1751.01
402.41	1779.68
402.62	1841.12
402.83	1708.01
403.04	1585.13
403.24	1703.91
403.45	1533.93
403.66	1544.17
403.87	1542.12
404.07	1548.26
404.28	1611.75
404.49	1595.37
404.70	1488.87
404.90	1456.11
405.11	1413.10
405.32	1415.15
405.52	1374.19
405.73	1343.47
405.94	1357.80
406.15	1439.72
406.35	1396.71
406.56	1368.04
406.77	1343.47
406.98	1396.71
407.18	1339.37
407.39	1411.05
407.60	1425.39
407.80	1443.82
408.01	1331.18
408.22	1402.86
408.43	1327.08
408.63	1433.58
408.84	1402.86
409.05	1429.48
409.25	1325.04
409.46	1357.80
409.67	1376.24
409.88	1400.81
410.08	1400.81
410.29	1325.04
410.50	1423.34
410.70	1404.91
410.91	1322.99
411.12	1439.72
411.32	1406.95
411.53	1351.66
411.74	1433.58
411.95	1492.97
412.15	1466.35
412.36	1470.44
412.57	1468.39
412.77	1488.87
412.98	1417.19
413.19	1353.71
413.39	1441.77
413.60	1404.91
413.81	1419.24
414.01	1394.67
414.22	1400.81
414.43	1427.43
414.63	1359.85
414.84	1361.90
415.05	1374.19
415.25	1331.18
415.46	1370.09
415.67	1273.84
415.87	1390.57
416.08	1435.63
416.29	1427.43
416.49	1404.91
416.70	1386.47
416.91	1419.24
417.11	1333.23
417.32	1443.82
417.53	1331.18
417.73	1388.52
417.94	1368.04
418.15	1322.99
418.35	1433.58
418.56	1304.56
418.77	1419.24
418.97	1355.76
419.18	1398.76
419.38	1263.60
419.59	1359.85
419.80	1398.76
420.00	1390.57
420.21	1374.19
420.42	1370.09
420.62	1361.90
420.83	1376.24
421.04	1380.33
421.24	1398.76
421.45	1376.24
421.65	1392.62
421.86	1329.13
422.07	1474.54
422.27	1359.85
422.48	1404.91
422.69	1396.71
422.89	1406.95
423.10	1345.52
423.30	1380.33
423.51	1325.04
423.72	1429.48
423.92	1421.29
424.13	1394.67
424.33	1378.28
424.54	1427.43
424.75	1372.14
424.95	1394.67
425.16	1390.57
425.36	1357.80
425.57	1402.86
425.78	1353.71
425.98	1456.11
426.19	1345.52
426.39	1372.14
426.60	1370.09
426.81	1415.15
427.01	1429.48
427.22	1351.66
427.42	1318.89
427.63	1406.95
427.83	1394.67
428.04	1406.95
428.25	1546.22
428.45	1431.53
428.66	1366.00
428.86	1413.10
429.07	1249.26
429.28	1341.42
429.48	1386.47
429.69	1343.47
429.89	1355.76
430.10	1355.76
430.30	1359.85
430.51	1462.25
430.71	1345.52
430.92	1372.14
431.13	1400.81
431.33	1370.09
431.54	1343.47
431.74	1419.24
431.95	1480.68
432.15	1310.70
432.36	1343.47
432.56	1404.91
432.77	1523.69
432.98	1431.53
433.18	1406.95
433.39	1378.28
433.59	1290.22
433.80	1421.29
434.00	1478.63
434.21	1421.29
434.41	1312.75
434.62	1509.35
434.82	1292.27
435.03	1390.57
435.23	1372.14
435.44	1320.94
435.64	1374.19
435.85	1417.19
436.06	1361.90
436.26	1437.67
436.47	1368.04
436.67	1347.56
436.88	1282.03
437.08	1396.71
437.29	1456.11
437.49	1411.05
437.70	1366.00
437.90	1376.24
438.11	1533.93
438.31	1552.36
438.52	1509.35
438.72	1574.89
438.93	1601.51
439.13	1435.63
439.34	1472.49
439.54	1515.50
439.75	1497.07
439.95	1468.39
440.16	1402.86
440.36	1382.38
440.57	1458.15
440.77	1402.86
440.98	1368.04
441.18	1443.82
441.39	1374.19
441.59	1435.63
441.80	1437.67
442.00	1406.95
442.21	1396.71
442.41	1380.33
442.62	1421.29
442.82	1384.43
443.02	1396.71
443.23	1413.10
443.43	1431.53
443.64	1380.33
443.84	1302.51
444.05	1439.72
444.25	1255.40
444.46	1404.91
444.66	1304.56
444.87	1409.00
445.07	1333.23
445.28	1445.87
445.48	1480.68
445.69	1421.29
445.89	1427.43
446.09	1550.31
446.30	2250.72
446.50	3745.73
446.71	4564.92
446.91	5169.07
447.12	5533.61
447.32	4857.78
447.53	4159.42
447.73	3854.28
447.93	3377.10
448.14	3276.75
448.34	2930.64
448.55	2822.10
448.75	2715.61
448.96	2645.98
449.16	2381.79
449.36	2199.52
449.57	1916.90
449.77	1681.38
449.98	1574.89
450.18	1458.15
450.39	1454.06
450.59	1468.39
450.79	1314.80
451.00	1386.47
451.20	1425.39
451.41	1413.10
451.61	1355.76
451.81	1378.28
452.02	1298.41
452.22	1390.57
452.43	1363.95
452.63	1361.90
