SpectraSuite Data File
++++++++++++++++++++++++++++++++++++
Date: Tue May 03 11:23:58 CEST 2016
User: root
Dark Spectrum Present: No
Reference Spectrum Present: No
Number of Sampled Component Spectra: 1
Spectrometers: USB4C02835
Integration Time (usec): 100000 (USB4C02835)
Spectra Averaged: 1 (USB4C02835)
Boxcar Smoothing: 0 (USB4C02835)
Correct for Electrical Dark: No (USB4C02835)
Strobe/Lamp Enabled: No (USB4C02835)
Correct for Detector Non-linearity: No (USB4C02835)
Correct for Stray Light: No (USB4C02835)
Number of Pixels in Processed Spectrum: 3648
>>>>>Begin Processed Spectral Data<<<<<
177.47	1267.69
177.69	1267.69
177.91	1267.69
178.13	1257.45
178.36	1273.84
178.58	1320.94
178.80	1368.04
179.02	1253.36
179.24	1386.47
179.46	1411.05
179.68	1413.10
179.90	1359.85
180.13	1337.32
180.35	1298.41
180.57	1384.43
180.79	1392.62
181.01	1378.28
181.23	1474.54
181.45	1411.05
181.67	1396.71
181.90	1404.91
182.12	1349.61
182.34	1392.62
182.56	1335.28
182.78	1421.29
183.00	1396.71
183.22	1431.53
183.44	1335.28
183.66	1376.24
183.89	1396.71
184.11	1404.91
184.33	1378.28
184.55	1380.33
184.77	1415.15
184.99	1351.66
185.21	1325.04
185.43	1501.16
185.65	1277.93
185.87	1345.52
186.10	1482.73
186.32	1425.39
186.54	1474.54
186.76	1429.48
186.98	1388.52
187.20	1400.81
187.42	1392.62
187.64	1388.52
187.86	1310.70
188.08	1419.24
188.30	1308.65
188.52	1374.19
188.75	1345.52
188.97	1359.85
189.19	1288.17
189.41	1419.24
189.63	1386.47
189.85	1376.24
190.07	1345.52
190.29	1263.60
190.51	1306.60
190.73	1259.50
190.95	1370.09
191.17	1343.47
191.39	1359.85
191.61	1406.95
191.84	1396.71
192.06	1396.71
192.28	1288.17
192.50	1394.67
192.72	1402.86
192.94	1277.93
193.16	1402.86
193.38	1366.00
193.60	1382.38
193.82	1351.66
194.04	1419.24
194.26	1386.47
194.48	1310.70
194.70	1353.71
194.92	1368.04
195.14	1306.60
195.36	1423.34
195.58	1415.15
195.80	1361.90
196.02	1400.81
196.24	1359.85
196.46	1351.66
196.69	1284.08
196.91	1441.77
197.13	1417.19
197.35	1329.13
197.57	1376.24
197.79	1357.80
198.01	1325.04
198.23	1376.24
198.45	1353.71
198.67	1273.84
198.89	1390.57
199.11	1339.37
199.33	1335.28
199.55	1333.23
199.77	1404.91
199.99	1413.10
200.21	1390.57
200.43	1452.01
200.65	1282.03
200.87	1343.47
201.09	1374.19
201.31	1286.12
201.53	1421.29
201.75	1390.57
201.97	1392.62
202.19	1306.60
202.41	1374.19
202.63	1439.72
202.85	1368.04
203.07	1312.75
203.29	1411.05
203.51	1386.47
203.73	1357.80
203.95	1337.32
204.17	1406.95
204.39	1460.20
204.61	1372.14
204.83	1353.71
205.05	1382.38
205.27	1417.19
205.49	1398.76
205.71	1378.28
205.93	1337.32
206.15	1359.85
206.37	1421.29
206.59	1353.71
206.81	1304.56
207.03	1277.93
207.25	1359.85
207.47	1359.85
207.69	1372.14
207.91	1433.58
208.13	1468.39
208.34	1316.84
208.56	1476.59
208.78	1398.76
209.00	1406.95
209.22	1433.58
209.44	1347.56
209.66	1343.47
209.88	1415.15
210.10	1419.24
210.32	1363.95
210.54	1462.25
210.76	1378.28
210.98	1318.89
211.20	1261.55
211.42	1413.10
211.64	1425.39
211.86	1411.05
212.08	1376.24
212.30	1386.47
212.52	1400.81
212.74	1464.30
212.96	1425.39
213.17	1351.66
213.39	1378.28
213.61	1409.00
213.83	1456.11
214.05	1452.01
214.27	1339.37
214.49	1302.51
214.71	1368.04
214.93	1476.59
215.15	1394.67
215.37	1304.56
215.59	1370.09
215.81	1409.00
216.03	1400.81
216.24	1363.95
216.46	1417.19
216.68	1361.90
216.90	1370.09
217.12	1384.43
217.34	1380.33
217.56	1390.57
217.78	1437.67
218.00	1370.09
218.22	1421.29
218.44	1355.76
218.66	1380.33
218.87	1443.82
219.09	1419.24
219.31	1390.57
219.53	1372.14
219.75	1366.00
219.97	1378.28
220.19	1439.72
220.41	1306.60
220.63	1409.00
220.85	1345.52
221.06	1306.60
221.28	1337.32
221.50	1310.70
221.72	1382.38
221.94	1355.76
222.16	1400.81
222.38	1320.94
222.60	1425.39
222.82	1355.76
223.03	1413.10
223.25	1357.80
223.47	1413.10
223.69	1421.29
223.91	1423.34
224.13	1376.24
224.35	1417.19
224.57	1421.29
224.78	1331.18
225.00	1390.57
225.22	1357.80
225.44	1441.77
225.66	1382.38
225.88	1398.76
226.10	1370.09
226.32	1343.47
226.53	1361.90
226.75	1345.52
226.97	1413.10
227.19	1351.66
227.41	1376.24
227.63	1329.13
227.85	1329.13
228.06	1419.24
228.28	1402.86
228.50	1415.15
228.72	1306.60
228.94	1388.52
229.16	1302.51
229.37	1384.43
229.59	1341.42
229.81	1431.53
230.03	1366.00
230.25	1376.24
230.47	1361.90
230.69	1396.71
230.90	1382.38
231.12	1331.18
231.34	1325.04
231.56	1419.24
231.78	1277.93
232.00	1382.38
232.21	1398.76
232.43	1341.42
232.65	1458.15
232.87	1368.04
233.09	1261.55
233.30	1370.09
233.52	1339.37
233.74	1417.19
233.96	1282.03
234.18	1486.83
234.40	1384.43
234.61	1445.87
234.83	1335.28
235.05	1318.89
235.27	1392.62
235.49	1376.24
235.70	1425.39
235.92	1415.15
236.14	1413.10
236.36	1468.39
236.58	1359.85
236.79	1437.67
237.01	1355.76
237.23	1325.04
237.45	1447.91
237.67	1355.76
237.88	1372.14
238.10	1456.11
238.32	1322.99
238.54	1310.70
238.76	1353.71
238.97	1337.32
239.19	1425.39
239.41	1386.47
239.63	1378.28
239.85	1421.29
240.06	1339.37
240.28	1394.67
240.50	1392.62
240.72	1247.21
240.93	1368.04
241.15	1388.52
241.37	1294.32
241.59	1427.43
241.81	1374.19
242.02	1300.46
242.24	1411.05
242.46	1370.09
242.68	1355.76
242.89	1361.90
243.11	1419.24
243.33	1382.38
243.55	1353.71
243.76	1435.63
243.98	1347.56
244.20	1366.00
244.42	1329.13
244.64	1441.77
244.85	1236.97
245.07	1363.95
245.29	1437.67
245.51	1376.24
245.72	1366.00
245.94	1378.28
246.16	1431.53
246.38	1404.91
246.59	1355.76
246.81	1333.23
247.03	1449.96
247.24	1331.18
247.46	1286.12
247.68	1376.24
247.90	1384.43
248.11	1292.27
248.33	1351.66
248.55	1322.99
248.77	1331.18
248.98	1437.67
249.20	1435.63
249.42	1359.85
249.64	1421.29
249.85	1335.28
250.07	1386.47
250.29	1388.52
250.50	1449.96
250.72	1284.08
250.94	1452.01
251.16	1505.26
251.37	1468.39
251.59	1388.52
251.81	1392.62
252.02	1437.67
252.24	1306.60
252.46	1458.15
252.68	1423.34
252.89	1329.13
253.11	1372.14
253.33	1478.63
253.54	1433.58
253.76	1363.95
253.98	1333.23
254.20	1302.51
254.41	1282.03
254.63	1339.37
254.85	1327.08
255.06	1329.13
255.28	1327.08
255.50	1327.08
255.71	1298.41
255.93	1384.43
256.15	1417.19
256.36	1427.43
256.58	1417.19
256.80	1380.33
257.02	1386.47
257.23	1374.19
257.45	1359.85
257.67	1337.32
257.88	1347.56
258.10	1394.67
258.32	1409.00
258.53	1286.12
258.75	1349.61
258.97	1374.19
259.18	1357.80
259.40	1386.47
259.62	1413.10
259.83	1386.47
260.05	1361.90
260.27	1460.20
260.48	1406.95
260.70	1361.90
260.92	1361.90
261.13	1322.99
261.35	1427.43
261.57	1382.38
261.78	1308.65
262.00	1372.14
262.22	1468.39
262.43	1406.95
262.65	1341.42
262.86	1427.43
263.08	1468.39
263.30	1415.15
263.51	1355.76
263.73	1378.28
263.95	1423.34
264.16	1325.04
264.38	1296.36
264.60	1419.24
264.81	1361.90
265.03	1386.47
265.25	1456.11
265.46	1363.95
265.68	1357.80
265.89	1409.00
266.11	1337.32
266.33	1374.19
266.54	1415.15
266.76	1351.66
266.98	1374.19
267.19	1404.91
267.41	1462.25
267.62	1398.76
267.84	1402.86
268.06	1427.43
268.27	1351.66
268.49	1468.39
268.70	1402.86
268.92	1409.00
269.14	1347.56
269.35	1347.56
269.57	1351.66
269.79	1314.80
270.00	1355.76
270.22	1406.95
270.43	1331.18
270.65	1320.94
270.87	1394.67
271.08	1419.24
271.30	1388.52
271.51	1294.32
271.73	1409.00
271.95	1345.52
272.16	1294.32
272.38	1351.66
272.59	1341.42
272.81	1370.09
273.02	1370.09
273.24	1372.14
273.46	1331.18
273.67	1320.94
273.89	1339.37
274.10	1366.00
274.32	1456.11
274.54	1435.63
274.75	1349.61
274.97	1390.57
275.18	1370.09
275.40	1411.05
275.61	1402.86
275.83	1378.28
276.05	1331.18
276.26	1363.95
276.48	1482.73
276.69	1327.08
276.91	1329.13
277.12	1456.11
277.34	1462.25
277.55	1390.57
277.77	1284.08
277.99	1404.91
278.20	1294.32
278.42	1388.52
278.63	1292.27
278.85	1443.82
279.06	1329.13
279.28	1386.47
279.49	1361.90
279.71	1376.24
279.93	1378.28
280.14	1419.24
280.36	1366.00
280.57	1447.91
280.79	1333.23
281.00	1361.90
281.22	1325.04
281.43	1353.71
281.65	1271.79
281.86	1398.76
282.08	1404.91
282.29	1433.58
282.51	1331.18
282.73	1421.29
282.94	1335.28
283.16	1345.52
283.37	1404.91
283.59	1423.34
283.80	1382.38
284.02	1394.67
284.23	1386.47
284.45	1345.52
284.66	1277.93
284.88	1304.56
285.09	1411.05
285.31	1398.76
285.52	1335.28
285.74	1320.94
285.95	1425.39
286.17	1409.00
286.38	1437.67
286.60	1372.14
286.81	1351.66
287.03	1318.89
287.24	1439.72
287.46	1347.56
287.67	1390.57
287.89	1439.72
288.10	1388.52
288.32	1345.52
288.53	1443.82
288.75	1382.38
288.96	1370.09
289.18	1357.80
289.39	1388.52
289.61	1468.39
289.82	1394.67
290.04	1476.59
290.25	1298.41
290.47	1288.17
290.68	1388.52
290.90	1353.71
291.11	1310.70
291.33	1363.95
291.54	1320.94
291.76	1306.60
291.97	1349.61
292.18	1429.48
292.40	1392.62
292.61	1417.19
292.83	1396.71
293.04	1388.52
293.26	1351.66
293.47	1345.52
293.69	1347.56
293.90	1366.00
294.12	1363.95
294.33	1425.39
294.55	1339.37
294.76	1458.15
294.97	1445.87
295.19	1445.87
295.40	1419.24
295.62	1351.66
295.83	1390.57
296.05	1347.56
296.26	1384.43
296.48	1284.08
296.69	1304.56
296.90	1347.56
297.12	1353.71
297.33	1439.72
297.55	1331.18
297.76	1351.66
297.98	1329.13
298.19	1345.52
298.41	1368.04
298.62	1429.48
298.83	1468.39
299.05	1417.19
299.26	1425.39
299.48	1341.42
299.69	1390.57
299.90	1378.28
300.12	1318.89
300.33	1390.57
300.55	1423.34
300.76	1370.09
300.98	1312.75
301.19	1374.19
301.40	1306.60
301.62	1341.42
301.83	1331.18
302.05	1363.95
302.26	1388.52
302.47	1345.52
302.69	1298.41
302.90	1390.57
303.12	1363.95
303.33	1372.14
303.54	1406.95
303.76	1368.04
303.97	1384.43
304.19	1474.54
304.40	1337.32
304.61	1343.47
304.83	1474.54
305.04	1374.19
305.26	1392.62
305.47	1370.09
305.68	1363.95
305.90	1378.28
306.11	1384.43
306.33	1370.09
306.54	1359.85
306.75	1357.80
306.97	1396.71
307.18	1359.85
307.39	1386.47
307.61	1441.77
307.82	1337.32
308.04	1312.75
308.25	1359.85
308.46	1355.76
308.68	1341.42
308.89	1355.76
309.10	1425.39
309.32	1372.14
309.53	1402.86
309.74	1398.76
309.96	1294.32
310.17	1370.09
310.39	1355.76
310.60	1331.18
310.81	1318.89
311.03	1335.28
311.24	1372.14
311.45	1361.90
311.67	1425.39
311.88	1357.80
312.09	1290.22
312.31	1331.18
312.52	1327.08
312.73	1402.86
312.95	1382.38
313.16	1288.17
313.37	1423.34
313.59	1351.66
313.80	1388.52
314.01	1417.19
314.23	1343.47
314.44	1359.85
314.65	1325.04
314.87	1351.66
315.08	1423.34
315.29	1343.47
315.51	1269.74
315.72	1282.03
315.93	1443.82
316.15	1255.40
316.36	1312.75
316.57	1370.09
316.79	1339.37
317.00	1400.81
317.21	1322.99
317.43	1378.28
317.64	1411.05
317.85	1396.71
318.07	1470.44
318.28	1544.17
318.49	1517.54
318.70	1650.66
318.92	1538.02
319.13	1572.84
319.34	1540.07
319.56	1503.21
319.77	1460.20
319.98	1478.63
320.20	1429.48
320.41	1429.48
320.62	1495.02
320.83	1343.47
321.05	1476.59
321.26	1382.38
321.47	1341.42
321.69	1351.66
321.90	1380.33
322.11	1372.14
322.32	1411.05
322.54	1345.52
322.75	1355.76
322.96	1468.39
323.18	1314.80
323.39	1267.69
323.60	1353.71
323.81	1495.02
324.03	1368.04
324.24	1400.81
324.45	1378.28
324.66	1402.86
324.88	1363.95
325.09	1415.15
325.30	1378.28
325.52	1363.95
325.73	1376.24
325.94	1331.18
326.15	1245.16
326.37	1368.04
326.58	1366.00
326.79	1378.28
327.00	1320.94
327.22	1431.53
327.43	1331.18
327.64	1298.41
327.85	1386.47
328.07	1341.42
328.28	1482.73
328.49	1380.33
328.70	1353.71
328.92	1386.47
329.13	1374.19
329.34	1429.48
329.55	1509.35
329.76	1396.71
329.98	1325.04
330.19	1419.24
330.40	1339.37
330.61	1437.67
330.83	1366.00
331.04	1322.99
331.25	1331.18
331.46	1304.56
331.68	1284.08
331.89	1378.28
332.10	1349.61
332.31	1320.94
332.52	1359.85
332.74	1318.89
332.95	1310.70
333.16	1398.76
333.37	1372.14
333.58	1251.31
333.80	1390.57
334.01	1302.51
334.22	1361.90
334.43	1273.84
334.64	1308.65
334.86	1314.80
335.07	1310.70
335.28	1419.24
335.49	1351.66
335.70	1351.66
335.92	1376.24
336.13	1425.39
336.34	1376.24
336.55	1312.75
336.76	1316.84
336.98	1308.65
337.19	1363.95
337.40	1388.52
337.61	1409.00
337.82	1380.33
338.04	1409.00
338.25	1271.79
338.46	1343.47
338.67	1329.13
338.88	1372.14
339.09	1236.97
339.31	1331.18
339.52	1347.56
339.73	1310.70
339.94	1359.85
340.15	1368.04
340.36	1374.19
340.58	1404.91
340.79	1370.09
341.00	1372.14
341.21	1388.52
341.42	1392.62
341.63	1374.19
341.85	1351.66
342.06	1333.23
342.27	1282.03
342.48	1372.14
342.69	1294.32
342.90	1454.06
343.12	1447.91
343.33	1429.48
343.54	1310.70
343.75	1429.48
343.96	1464.30
344.17	1370.09
344.38	1359.85
344.60	1386.47
344.81	1294.32
345.02	1363.95
345.23	1435.63
345.44	1454.06
345.65	1413.10
345.86	1388.52
346.07	1384.43
346.29	1380.33
346.50	1404.91
346.71	1402.86
346.92	1355.76
347.13	1437.67
347.34	1351.66
347.55	1331.18
347.76	1314.80
347.98	1300.46
348.19	1331.18
348.40	1470.44
348.61	1415.15
348.82	1402.86
349.03	1392.62
349.24	1275.88
349.45	1351.66
349.66	1372.14
349.88	1341.42
350.09	1423.34
350.30	1400.81
350.51	1490.92
350.72	1415.15
350.93	1402.86
351.14	1390.57
351.35	1486.83
351.56	1378.28
351.77	1318.89
351.99	1372.14
352.20	1409.00
352.41	1341.42
352.62	1337.32
352.83	1329.13
353.04	1382.38
353.25	1327.08
353.46	1386.47
353.67	1394.67
353.88	1339.37
354.09	1359.85
354.30	1386.47
354.52	1423.34
354.73	1400.81
354.94	1366.00
355.15	1329.13
355.36	1456.11
355.57	1419.24
355.78	1404.91
355.99	1331.18
356.20	1325.04
356.41	1402.86
356.62	1329.13
356.83	1345.52
357.04	1386.47
357.25	1306.60
357.46	1380.33
357.68	1314.80
357.89	1234.93
358.10	1355.76
358.31	1478.63
358.52	1288.17
358.73	1392.62
358.94	1296.36
359.15	1310.70
359.36	1339.37
359.57	1388.52
359.78	1361.90
359.99	1415.15
360.20	1339.37
360.41	1337.32
360.62	1402.86
360.83	1392.62
361.04	1419.24
361.25	1370.09
361.46	1447.91
361.67	1380.33
361.88	1456.11
362.09	1396.71
362.30	1415.15
362.51	1372.14
362.72	1384.43
362.93	1372.14
363.14	1331.18
363.35	1435.63
363.56	1363.95
363.78	1388.52
363.99	1376.24
364.20	1329.13
364.41	1419.24
364.62	1363.95
364.83	1466.35
365.04	1435.63
365.25	1435.63
365.46	1460.20
365.67	1374.19
365.88	1327.08
366.09	1380.33
366.30	1370.09
366.51	1363.95
366.72	1279.98
366.93	1390.57
367.14	1429.48
367.35	1402.86
367.56	1386.47
367.77	1425.39
367.98	1353.71
368.18	1376.24
368.39	1396.71
368.60	1298.41
368.81	1368.04
369.02	1343.47
369.23	1366.00
369.44	1275.88
369.65	1298.41
369.86	1325.04
370.07	1341.42
370.28	1376.24
370.49	1437.67
370.70	1363.95
370.91	1316.84
371.12	1361.90
371.33	1386.47
371.54	1288.17
371.75	1490.92
371.96	1345.52
372.17	1363.95
372.38	1353.71
372.59	1386.47
372.80	1312.75
373.01	1406.95
373.22	1396.71
373.43	1374.19
373.64	1423.34
373.85	1339.37
374.06	1384.43
374.26	1386.47
374.47	1378.28
374.68	1439.72
374.89	1322.99
375.10	1392.62
375.31	1409.00
375.52	1372.14
375.73	1327.08
375.94	1431.53
376.15	1376.24
376.36	1318.89
376.57	1331.18
376.78	1388.52
376.99	1370.09
377.20	1421.29
377.40	1273.84
377.61	1411.05
377.82	1345.52
378.03	1425.39
378.24	1427.43
378.45	1355.76
378.66	1478.63
378.87	1329.13
379.08	1279.98
379.29	1374.19
379.50	1417.19
379.71	1363.95
379.91	1396.71
380.12	1359.85
380.33	1402.86
380.54	1347.56
380.75	1423.34
380.96	1388.52
381.17	1480.68
381.38	1423.34
381.59	1439.72
381.80	1447.91
382.00	1443.82
382.21	1503.21
382.42	1452.01
382.63	1478.63
382.84	1511.40
383.05	1454.06
383.26	1427.43
383.47	1378.28
383.68	1439.72
383.88	1378.28
384.09	1439.72
384.30	1437.67
384.51	1425.39
384.72	1355.76
384.93	1302.51
385.14	1398.76
385.35	1402.86
385.55	1300.46
385.76	1366.00
385.97	1310.70
386.18	1411.05
386.39	1368.04
386.60	1335.28
386.81	1437.67
387.02	1357.80
387.22	1353.71
387.43	1558.50
387.64	1595.37
387.85	2301.92
388.06	5705.64
388.27	9541.49
388.48	11509.58
388.68	13317.94
388.89	13272.89
389.10	10600.29
389.31	9095.03
389.52	8388.48
389.73	7286.67
389.93	6975.38
390.14	6496.16
390.35	6090.66
390.56	5398.45
390.77	4720.57
390.98	3614.66
391.18	2826.20
391.39	2176.99
391.60	1724.39
391.81	1583.08
392.02	1449.96
392.23	1492.97
392.43	1437.67
392.64	1388.52
392.85	1435.63
393.06	1417.19
393.27	1368.04
393.47	1351.66
393.68	1361.90
393.89	1402.86
394.10	1425.39
394.31	1392.62
394.52	1357.80
394.72	1355.76
394.93	1396.71
395.14	1290.22
395.35	1427.43
395.56	1456.11
395.76	1499.11
395.97	1619.94
396.18	1570.79
396.39	1523.69
396.60	1658.85
396.80	1628.14
397.01	1492.97
397.22	1499.11
397.43	1550.31
397.64	1427.43
397.84	1499.11
398.05	1486.83
398.26	1517.54
398.47	1509.35
398.67	1452.01
398.88	1357.80
399.09	1343.47
399.30	1372.14
399.51	1488.87
399.71	1374.19
399.92	1335.28
400.13	1376.24
400.34	1341.42
400.54	1384.43
400.75	1429.48
400.96	1390.57
401.17	1503.21
401.37	1378.28
401.58	1413.10
401.79	1597.42
402.00	1654.76
402.21	1765.35
402.41	1826.79
402.62	1837.03
402.83	1763.30
403.04	1677.29
403.24	1685.48
403.45	1581.03
403.66	1660.90
403.87	1652.71
404.07	1585.13
404.28	1632.23
404.49	1486.83
404.70	1482.73
404.90	1452.01
405.11	1366.00
405.32	1452.01
405.52	1384.43
405.73	1353.71
405.94	1306.60
406.15	1394.67
406.35	1378.28
406.56	1392.62
406.77	1396.71
406.98	1370.09
407.18	1290.22
407.39	1439.72
407.60	1353.71
407.80	1398.76
408.01	1314.80
408.22	1372.14
408.43	1308.65
408.63	1316.84
408.84	1394.67
409.05	1353.71
409.25	1386.47
409.46	1359.85
409.67	1380.33
409.88	1316.84
410.08	1284.08
410.29	1355.76
410.50	1472.49
410.70	1417.19
410.91	1349.61
411.12	1378.28
411.32	1314.80
411.53	1423.34
411.74	1464.30
411.95	1497.07
412.15	1449.96
412.36	1456.11
412.57	1495.02
412.77	1366.00
412.98	1390.57
413.19	1366.00
413.39	1413.10
413.60	1388.52
413.81	1464.30
414.01	1390.57
414.22	1421.29
414.43	1384.43
414.63	1372.14
414.84	1417.19
415.05	1425.39
415.25	1349.61
415.46	1361.90
415.67	1241.07
415.87	1406.95
416.08	1400.81
416.29	1339.37
416.49	1427.43
416.70	1341.42
416.91	1384.43
417.11	1445.87
417.32	1454.06
417.53	1304.56
417.73	1327.08
417.94	1325.04
418.15	1349.61
418.35	1464.30
418.56	1320.94
418.77	1429.48
418.97	1447.91
419.18	1406.95
419.38	1368.04
419.59	1331.18
419.80	1454.06
420.00	1388.52
420.21	1368.04
420.42	1394.67
420.62	1359.85
420.83	1314.80
421.04	1331.18
421.24	1232.88
421.45	1345.52
421.65	1447.91
421.86	1368.04
422.07	1341.42
422.27	1372.14
422.48	1419.24
422.69	1411.05
422.89	1394.67
423.10	1441.77
423.30	1329.13
423.51	1439.72
423.72	1392.62
423.92	1417.19
424.13	1335.28
424.33	1384.43
424.54	1390.57
424.75	1341.42
424.95	1439.72
425.16	1484.78
425.36	1343.47
425.57	1402.86
425.78	1419.24
425.98	1331.18
426.19	1349.61
426.39	1380.33
426.60	1372.14
426.81	1398.76
427.01	1318.89
427.22	1331.18
427.42	1337.32
427.63	1406.95
427.83	1347.56
428.04	1423.34
428.25	1396.71
428.45	1409.00
428.66	1433.58
428.86	1409.00
429.07	1380.33
429.28	1427.43
429.48	1329.13
429.69	1314.80
429.89	1413.10
430.10	1314.80
430.30	1427.43
430.51	1439.72
430.71	1372.14
430.92	1370.09
431.13	1306.60
431.33	1384.43
431.54	1357.80
431.74	1452.01
431.95	1421.29
432.15	1343.47
432.36	1318.89
432.56	1384.43
432.77	1419.24
432.98	1456.11
433.18	1361.90
433.39	1398.76
433.59	1294.32
433.80	1423.34
434.00	1406.95
434.21	1413.10
434.41	1333.23
434.62	1413.10
434.82	1327.08
435.03	1306.60
435.23	1300.46
435.44	1279.98
435.64	1308.65
435.85	1433.58
436.06	1427.43
436.26	1353.71
436.47	1374.19
436.67	1312.75
436.88	1325.04
437.08	1378.28
437.29	1423.34
437.49	1443.82
437.70	1404.91
437.90	1366.00
438.11	1515.50
438.31	1560.55
438.52	1540.07
438.72	1535.98
438.93	1521.64
439.13	1470.44
439.34	1519.59
439.54	1476.59
439.75	1456.11
439.95	1449.96
440.16	1380.33
440.36	1361.90
440.57	1406.95
440.77	1466.35
440.98	1386.47
441.18	1380.33
441.39	1269.74
441.59	1402.86
441.80	1413.10
442.00	1427.43
442.21	1482.73
442.41	1363.95
442.62	1345.52
442.82	1331.18
443.02	1347.56
443.23	1368.04
443.43	1337.32
443.64	1411.05
443.84	1331.18
444.05	1398.76
444.25	1355.76
444.46	1316.84
444.66	1427.43
444.87	1462.25
445.07	1327.08
445.28	1339.37
445.48	1445.87
445.69	1445.87
445.89	1433.58
446.09	1515.50
446.30	2240.48
446.50	3723.21
446.71	4646.84
446.91	5242.80
447.12	5695.40
447.32	4982.71
447.53	4157.38
447.73	3856.33
447.93	3491.79
448.14	3149.78
448.34	3153.87
448.55	2781.14
448.75	2770.90
448.96	2637.78
449.16	2525.15
449.36	2193.37
449.57	1966.05
449.77	1689.57
449.98	1517.54
450.18	1583.08
450.39	1454.06
450.59	1388.52
450.79	1370.09
451.00	1284.08
451.20	1406.95
451.41	1378.28
451.61	1423.34
451.81	1378.28
452.02	1417.19
452.22	1415.15
452.43	1341.42
452.63	1320.94
