SpectraSuite Data File
++++++++++++++++++++++++++++++++++++
Date: Tue May 03 11:24:04 CEST 2016
User: root
Dark Spectrum Present: No
Reference Spectrum Present: No
Number of Sampled Component Spectra: 1
Spectrometers: USB4C02835
Integration Time (usec): 100000 (USB4C02835)
Spectra Averaged: 1 (USB4C02835)
Boxcar Smoothing: 0 (USB4C02835)
Correct for Electrical Dark: No (USB4C02835)
Strobe/Lamp Enabled: No (USB4C02835)
Correct for Detector Non-linearity: No (USB4C02835)
Correct for Stray Light: No (USB4C02835)
Number of Pixels in Processed Spectrum: 3648
>>>>>Begin Processed Spectral Data<<<<<
177.47	1196.01
177.69	1196.01
177.91	1196.01
178.13	1196.01
178.36	1171.44
178.58	1292.27
178.80	1380.33
179.02	1271.79
179.24	1296.36
179.46	1314.80
179.68	1388.52
179.90	1380.33
180.13	1372.14
180.35	1298.41
180.57	1347.56
180.79	1372.14
181.01	1388.52
181.23	1384.43
181.45	1425.39
181.67	1370.09
181.90	1370.09
182.12	1314.80
182.34	1343.47
182.56	1421.29
182.78	1402.86
183.00	1400.81
183.22	1366.00
183.44	1306.60
183.66	1378.28
183.89	1386.47
184.11	1355.76
184.33	1439.72
184.55	1392.62
184.77	1402.86
184.99	1310.70
185.21	1333.23
185.43	1447.91
185.65	1327.08
185.87	1437.67
186.10	1433.58
186.32	1488.87
186.54	1372.14
186.76	1400.81
186.98	1361.90
187.20	1282.03
187.42	1255.40
187.64	1363.95
187.86	1308.65
188.08	1298.41
188.30	1337.32
188.52	1441.77
188.75	1386.47
188.97	1380.33
189.19	1333.23
189.41	1357.80
189.63	1368.04
189.85	1368.04
190.07	1327.08
190.29	1394.67
190.51	1390.57
190.73	1339.37
190.95	1388.52
191.17	1378.28
191.39	1277.93
191.61	1288.17
191.84	1404.91
192.06	1378.28
192.28	1290.22
192.50	1476.59
192.72	1458.15
192.94	1409.00
193.16	1443.82
193.38	1464.30
193.60	1314.80
193.82	1429.48
194.04	1363.95
194.26	1425.39
194.48	1427.43
194.70	1396.71
194.92	1359.85
195.14	1390.57
195.36	1390.57
195.58	1386.47
195.80	1337.32
196.02	1308.65
196.24	1357.80
196.46	1351.66
196.69	1347.56
196.91	1435.63
197.13	1339.37
197.35	1390.57
197.57	1394.67
197.79	1357.80
198.01	1392.62
198.23	1441.77
198.45	1351.66
198.67	1302.51
198.89	1345.52
199.11	1320.94
199.33	1294.32
199.55	1294.32
199.77	1427.43
199.99	1396.71
200.21	1327.08
200.43	1308.65
200.65	1351.66
200.87	1312.75
201.09	1429.48
201.31	1308.65
201.53	1421.29
201.75	1378.28
201.97	1386.47
202.19	1390.57
202.41	1449.96
202.63	1409.00
202.85	1423.34
203.07	1411.05
203.29	1382.38
203.51	1353.71
203.73	1400.81
203.95	1462.25
204.17	1390.57
204.39	1382.38
204.61	1378.28
204.83	1310.70
205.05	1409.00
205.27	1390.57
205.49	1429.48
205.71	1382.38
205.93	1277.93
206.15	1339.37
206.37	1413.10
206.59	1343.47
206.81	1392.62
207.03	1261.55
207.25	1351.66
207.47	1363.95
207.69	1335.28
207.91	1421.29
208.13	1447.91
208.34	1304.56
208.56	1380.33
208.78	1404.91
209.00	1351.66
209.22	1372.14
209.44	1329.13
209.66	1320.94
209.88	1355.76
210.10	1355.76
210.32	1370.09
210.54	1470.44
210.76	1300.46
210.98	1419.24
211.20	1376.24
211.42	1380.33
211.64	1396.71
211.86	1370.09
212.08	1411.05
212.30	1300.46
212.52	1386.47
212.74	1384.43
212.96	1355.76
213.17	1380.33
213.39	1396.71
213.61	1378.28
213.83	1347.56
214.05	1282.03
214.27	1382.38
214.49	1357.80
214.71	1361.90
214.93	1370.09
215.15	1279.98
215.37	1449.96
215.59	1372.14
215.81	1378.28
216.03	1445.87
216.24	1382.38
216.46	1406.95
216.68	1378.28
216.90	1355.76
217.12	1404.91
217.34	1394.67
217.56	1363.95
217.78	1349.61
218.00	1458.15
218.22	1325.04
218.44	1452.01
218.66	1300.46
218.87	1468.39
219.09	1366.00
219.31	1486.83
219.53	1382.38
219.75	1351.66
219.97	1357.80
220.19	1411.05
220.41	1423.34
220.63	1421.29
220.85	1417.19
221.06	1361.90
221.28	1394.67
221.50	1425.39
221.72	1425.39
221.94	1396.71
222.16	1406.95
222.38	1351.66
222.60	1466.35
222.82	1392.62
223.03	1306.60
223.25	1310.70
223.47	1363.95
223.69	1490.92
223.91	1400.81
224.13	1454.06
224.35	1411.05
224.57	1443.82
224.78	1337.32
225.00	1357.80
225.22	1341.42
225.44	1363.95
225.66	1368.04
225.88	1488.87
226.10	1357.80
226.32	1400.81
226.53	1417.19
226.75	1366.00
226.97	1456.11
227.19	1409.00
227.41	1296.36
227.63	1306.60
227.85	1273.84
228.06	1376.24
228.28	1351.66
228.50	1409.00
228.72	1433.58
228.94	1378.28
229.16	1273.84
229.37	1337.32
229.59	1300.46
229.81	1290.22
230.03	1376.24
230.25	1333.23
230.47	1345.52
230.69	1302.51
230.90	1417.19
231.12	1361.90
231.34	1409.00
231.56	1347.56
231.78	1286.12
232.00	1374.19
232.21	1439.72
232.43	1345.52
232.65	1263.60
232.87	1318.89
233.09	1337.32
233.30	1339.37
233.52	1386.47
233.74	1349.61
233.96	1353.71
234.18	1355.76
234.40	1411.05
234.61	1402.86
234.83	1392.62
235.05	1304.56
235.27	1435.63
235.49	1419.24
235.70	1320.94
235.92	1411.05
236.14	1322.99
236.36	1486.83
236.58	1366.00
236.79	1368.04
237.01	1380.33
237.23	1331.18
237.45	1421.29
237.67	1355.76
237.88	1382.38
238.10	1492.97
238.32	1322.99
238.54	1443.82
238.76	1333.23
238.97	1372.14
239.19	1382.38
239.41	1464.30
239.63	1359.85
239.85	1366.00
240.06	1353.71
240.28	1406.95
240.50	1464.30
240.72	1372.14
240.93	1388.52
241.15	1423.34
241.37	1343.47
241.59	1390.57
241.81	1402.86
242.02	1316.84
242.24	1411.05
242.46	1415.15
242.68	1411.05
242.89	1413.10
243.11	1419.24
243.33	1325.04
243.55	1404.91
243.76	1449.96
243.98	1363.95
244.20	1372.14
244.42	1443.82
244.64	1312.75
244.85	1361.90
245.07	1259.50
245.29	1413.10
245.51	1458.15
245.72	1380.33
245.94	1452.01
246.16	1406.95
246.38	1437.67
246.59	1322.99
246.81	1345.52
247.03	1368.04
247.24	1347.56
247.46	1277.93
247.68	1351.66
247.90	1355.76
248.11	1382.38
248.33	1433.58
248.55	1366.00
248.77	1429.48
248.98	1404.91
249.20	1435.63
249.42	1349.61
249.64	1392.62
249.85	1380.33
250.07	1327.08
250.29	1431.53
250.50	1413.10
250.72	1366.00
250.94	1374.19
251.16	1441.77
251.37	1454.06
251.59	1370.09
251.81	1437.67
252.02	1458.15
252.24	1304.56
252.46	1390.57
252.68	1363.95
252.89	1368.04
253.11	1290.22
253.33	1445.87
253.54	1452.01
253.76	1277.93
253.98	1413.10
254.20	1339.37
254.41	1331.18
254.63	1337.32
254.85	1351.66
255.06	1439.72
255.28	1404.91
255.50	1392.62
255.71	1382.38
255.93	1329.13
256.15	1310.70
256.36	1439.72
256.58	1304.56
256.80	1359.85
257.02	1378.28
257.23	1331.18
257.45	1347.56
257.67	1492.97
257.88	1445.87
258.10	1445.87
258.32	1368.04
258.53	1404.91
258.75	1366.00
258.97	1372.14
259.18	1349.61
259.40	1368.04
259.62	1421.29
259.83	1406.95
260.05	1368.04
260.27	1597.42
260.48	1392.62
260.70	1351.66
260.92	1380.33
261.13	1384.43
261.35	1329.13
261.57	1411.05
261.78	1304.56
262.00	1290.22
262.22	1355.76
262.43	1394.67
262.65	1277.93
262.86	1370.09
263.08	1409.00
263.30	1386.47
263.51	1312.75
263.73	1353.71
263.95	1382.38
264.16	1345.52
264.38	1353.71
264.60	1273.84
264.81	1316.84
265.03	1462.25
265.25	1349.61
265.46	1411.05
265.68	1411.05
265.89	1406.95
266.11	1351.66
266.33	1329.13
266.54	1413.10
266.76	1411.05
266.98	1398.76
267.19	1439.72
267.41	1290.22
267.62	1394.67
267.84	1298.41
268.06	1396.71
268.27	1378.28
268.49	1400.81
268.70	1310.70
268.92	1255.40
269.14	1376.24
269.35	1312.75
269.57	1337.32
269.79	1290.22
270.00	1421.29
270.22	1433.58
270.43	1439.72
270.65	1251.31
270.87	1318.89
271.08	1355.76
271.30	1404.91
271.51	1390.57
271.73	1425.39
271.95	1384.43
272.16	1374.19
272.38	1374.19
272.59	1411.05
272.81	1355.76
273.02	1400.81
273.24	1368.04
273.46	1421.29
273.67	1325.04
273.89	1304.56
274.10	1337.32
274.32	1396.71
274.54	1363.95
274.75	1384.43
274.97	1271.79
275.18	1421.29
275.40	1413.10
275.61	1273.84
275.83	1349.61
276.05	1308.65
276.26	1335.28
276.48	1406.95
276.69	1355.76
276.91	1394.67
277.12	1345.52
277.34	1425.39
277.55	1415.15
277.77	1421.29
277.99	1415.15
278.20	1304.56
278.42	1288.17
278.63	1380.33
278.85	1333.23
279.06	1300.46
279.28	1372.14
279.49	1382.38
279.71	1454.06
279.93	1288.17
280.14	1333.23
280.36	1341.42
280.57	1411.05
280.79	1443.82
281.00	1292.27
281.22	1370.09
281.43	1284.08
281.65	1269.74
281.86	1320.94
282.08	1394.67
282.29	1433.58
282.51	1339.37
282.73	1290.22
282.94	1341.42
283.16	1400.81
283.37	1458.15
283.59	1396.71
283.80	1357.80
284.02	1298.41
284.23	1320.94
284.45	1345.52
284.66	1279.98
284.88	1359.85
285.09	1310.70
285.31	1425.39
285.52	1382.38
285.74	1380.33
285.95	1390.57
286.17	1406.95
286.38	1417.19
286.60	1353.71
286.81	1370.09
287.03	1306.60
287.24	1384.43
287.46	1492.97
287.67	1366.00
287.89	1437.67
288.10	1310.70
288.32	1296.36
288.53	1435.63
288.75	1427.43
288.96	1374.19
289.18	1314.80
289.39	1376.24
289.61	1419.24
289.82	1472.49
290.04	1449.96
290.25	1275.88
290.47	1370.09
290.68	1372.14
290.90	1437.67
291.11	1306.60
291.33	1361.90
291.54	1370.09
291.76	1388.52
291.97	1400.81
292.18	1398.76
292.40	1296.36
292.61	1370.09
292.83	1384.43
293.04	1419.24
293.26	1327.08
293.47	1345.52
293.69	1294.32
293.90	1406.95
294.12	1417.19
294.33	1374.19
294.55	1335.28
294.76	1402.86
294.97	1357.80
295.19	1429.48
295.40	1370.09
295.62	1347.56
295.83	1415.15
296.05	1306.60
296.26	1400.81
296.48	1404.91
296.69	1368.04
296.90	1374.19
297.12	1368.04
297.33	1429.48
297.55	1374.19
297.76	1312.75
297.98	1341.42
298.19	1417.19
298.41	1376.24
298.62	1363.95
298.83	1396.71
299.05	1327.08
299.26	1320.94
299.48	1378.28
299.69	1308.65
299.90	1398.76
300.12	1394.67
300.33	1394.67
300.55	1353.71
300.76	1329.13
300.98	1318.89
301.19	1386.47
301.40	1390.57
301.62	1353.71
301.83	1378.28
302.05	1308.65
302.26	1273.84
302.47	1380.33
302.69	1404.91
302.90	1394.67
303.12	1327.08
303.33	1374.19
303.54	1427.43
303.76	1409.00
303.97	1429.48
304.19	1396.71
304.40	1318.89
304.61	1341.42
304.83	1517.54
305.04	1370.09
305.26	1445.87
305.47	1339.37
305.68	1368.04
305.90	1355.76
306.11	1349.61
306.33	1347.56
306.54	1372.14
306.75	1333.23
306.97	1359.85
307.18	1337.32
307.39	1304.56
307.61	1460.20
307.82	1335.28
308.04	1384.43
308.25	1386.47
308.46	1376.24
308.68	1406.95
308.89	1308.65
309.10	1376.24
309.32	1425.39
309.53	1413.10
309.74	1347.56
309.96	1335.28
310.17	1361.90
310.39	1406.95
310.60	1394.67
310.81	1353.71
311.03	1298.41
311.24	1437.67
311.45	1378.28
311.67	1439.72
311.88	1411.05
312.09	1314.80
312.31	1337.32
312.52	1392.62
312.73	1320.94
312.95	1306.60
313.16	1394.67
313.37	1396.71
313.59	1370.09
313.80	1259.50
314.01	1452.01
314.23	1349.61
314.44	1347.56
314.65	1386.47
314.87	1322.99
315.08	1378.28
315.29	1345.52
315.51	1316.84
315.72	1288.17
315.93	1443.82
316.15	1386.47
316.36	1241.07
316.57	1359.85
316.79	1409.00
317.00	1302.51
317.21	1411.05
317.43	1329.13
317.64	1378.28
317.85	1306.60
318.07	1421.29
318.28	1552.36
318.49	1507.30
318.70	1634.28
318.92	1583.08
319.13	1501.16
319.34	1484.78
319.56	1597.42
319.77	1388.52
319.98	1468.39
320.20	1454.06
320.41	1409.00
320.62	1439.72
320.83	1390.57
321.05	1460.20
321.26	1390.57
321.47	1462.25
321.69	1384.43
321.90	1390.57
322.11	1316.84
322.32	1320.94
322.54	1466.35
322.75	1355.76
322.96	1472.49
323.18	1271.79
323.39	1273.84
323.60	1320.94
323.81	1353.71
324.03	1378.28
324.24	1413.10
324.45	1302.51
324.66	1392.62
324.88	1320.94
325.09	1388.52
325.30	1296.36
325.52	1406.95
325.73	1409.00
325.94	1361.90
326.15	1216.49
326.37	1329.13
326.58	1388.52
326.79	1456.11
327.00	1312.75
327.22	1390.57
327.43	1337.32
327.64	1322.99
327.85	1398.76
328.07	1353.71
328.28	1392.62
328.49	1337.32
328.70	1335.28
328.92	1415.15
329.13	1316.84
329.34	1331.18
329.55	1421.29
329.76	1415.15
329.98	1304.56
330.19	1380.33
330.40	1361.90
330.61	1290.22
330.83	1404.91
331.04	1339.37
331.25	1384.43
331.46	1417.19
331.68	1376.24
331.89	1419.24
332.10	1345.52
332.31	1372.14
332.52	1417.19
332.74	1322.99
332.95	1308.65
333.16	1402.86
333.37	1425.39
333.58	1320.94
333.80	1306.60
334.01	1384.43
334.22	1384.43
334.43	1312.75
334.64	1351.66
334.86	1406.95
335.07	1378.28
335.28	1406.95
335.49	1327.08
335.70	1337.32
335.92	1335.28
336.13	1437.67
336.34	1411.05
336.55	1316.84
336.76	1294.32
336.98	1341.42
337.19	1288.17
337.40	1390.57
337.61	1445.87
337.82	1312.75
338.04	1396.71
338.25	1279.98
338.46	1370.09
338.67	1384.43
338.88	1288.17
339.09	1380.33
339.31	1386.47
339.52	1314.80
339.73	1302.51
339.94	1404.91
340.15	1466.35
340.36	1359.85
340.58	1388.52
340.79	1325.04
341.00	1380.33
341.21	1376.24
341.42	1495.02
341.63	1388.52
341.85	1468.39
342.06	1443.82
342.27	1370.09
342.48	1404.91
342.69	1337.32
342.90	1427.43
343.12	1413.10
343.33	1310.70
343.54	1366.00
343.75	1445.87
343.96	1382.38
344.17	1312.75
344.38	1337.32
344.60	1320.94
344.81	1353.71
345.02	1357.80
345.23	1437.67
345.44	1460.20
345.65	1435.63
345.86	1368.04
346.07	1339.37
346.29	1359.85
346.50	1437.67
346.71	1427.43
346.92	1417.19
347.13	1452.01
347.34	1351.66
347.55	1380.33
347.76	1384.43
347.98	1304.56
348.19	1316.84
348.40	1470.44
348.61	1329.13
348.82	1413.10
349.03	1392.62
349.24	1312.75
349.45	1406.95
349.66	1279.98
349.88	1351.66
350.09	1374.19
350.30	1396.71
350.51	1435.63
350.72	1355.76
350.93	1376.24
351.14	1359.85
351.35	1353.71
351.56	1341.42
351.77	1314.80
351.99	1296.36
352.20	1419.24
352.41	1486.83
352.62	1331.18
352.83	1409.00
353.04	1335.28
353.25	1253.36
353.46	1441.77
353.67	1458.15
353.88	1345.52
354.09	1380.33
354.30	1353.71
354.52	1445.87
354.73	1308.65
354.94	1351.66
355.15	1427.43
355.36	1495.02
355.57	1402.86
355.78	1396.71
355.99	1304.56
356.20	1429.48
356.41	1437.67
356.62	1388.52
356.83	1388.52
357.04	1429.48
357.25	1353.71
357.46	1374.19
357.68	1294.32
357.89	1327.08
358.10	1429.48
358.31	1320.94
358.52	1427.43
358.73	1331.18
358.94	1380.33
359.15	1409.00
359.36	1486.83
359.57	1409.00
359.78	1374.19
359.99	1431.53
360.20	1300.46
360.41	1413.10
360.62	1431.53
360.83	1392.62
361.04	1398.76
361.25	1374.19
361.46	1425.39
361.67	1363.95
361.88	1363.95
362.09	1335.28
362.30	1392.62
362.51	1378.28
362.72	1462.25
362.93	1411.05
363.14	1429.48
363.35	1447.91
363.56	1402.86
363.78	1406.95
363.99	1335.28
364.20	1353.71
364.41	1329.13
364.62	1454.06
364.83	1363.95
365.04	1335.28
365.25	1392.62
365.46	1531.88
365.67	1357.80
365.88	1378.28
366.09	1322.99
366.30	1304.56
366.51	1308.65
366.72	1341.42
366.93	1388.52
367.14	1374.19
367.35	1427.43
367.56	1441.77
367.77	1419.24
367.98	1331.18
368.18	1425.39
368.39	1396.71
368.60	1282.03
368.81	1406.95
369.02	1372.14
369.23	1322.99
369.44	1318.89
369.65	1421.29
369.86	1396.71
370.07	1341.42
370.28	1312.75
370.49	1331.18
370.70	1351.66
370.91	1263.60
371.12	1337.32
371.33	1396.71
371.54	1314.80
371.75	1482.73
371.96	1306.60
372.17	1404.91
372.38	1366.00
372.59	1355.76
372.80	1345.52
373.01	1366.00
373.22	1374.19
373.43	1353.71
373.64	1374.19
373.85	1347.56
374.06	1411.05
374.26	1363.95
374.47	1325.04
374.68	1427.43
374.89	1363.95
375.10	1316.84
375.31	1443.82
375.52	1290.22
375.73	1341.42
375.94	1353.71
376.15	1370.09
376.36	1312.75
376.57	1411.05
376.78	1392.62
376.99	1318.89
377.20	1376.24
377.40	1384.43
377.61	1425.39
377.82	1378.28
378.03	1476.59
378.24	1374.19
378.45	1396.71
378.66	1406.95
378.87	1351.66
379.08	1353.71
379.29	1363.95
379.50	1363.95
379.71	1343.47
379.91	1404.91
380.12	1359.85
380.33	1341.42
380.54	1392.62
380.75	1368.04
380.96	1355.76
381.17	1462.25
381.38	1402.86
381.59	1429.48
381.80	1447.91
382.00	1540.07
382.21	1413.10
382.42	1454.06
382.63	1507.30
382.84	1339.37
383.05	1355.76
383.26	1474.54
383.47	1361.90
383.68	1452.01
383.88	1372.14
384.09	1376.24
384.30	1433.58
384.51	1386.47
384.72	1318.89
384.93	1421.29
385.14	1374.19
385.35	1421.29
385.55	1286.12
385.76	1413.10
385.97	1359.85
386.18	1411.05
386.39	1329.13
386.60	1433.58
386.81	1454.06
387.02	1318.89
387.22	1396.71
387.43	1413.10
387.64	1597.42
387.85	2297.82
388.06	5662.63
388.27	9418.61
388.48	11489.10
388.68	12863.29
388.89	13123.38
389.10	10600.29
389.31	9205.62
389.52	8423.30
389.73	7413.65
389.93	6903.70
390.14	6524.83
390.35	6021.03
390.56	5521.32
390.77	4687.80
390.98	3624.90
391.18	2813.91
391.39	2127.84
391.60	1710.05
391.81	1544.17
392.02	1429.48
392.23	1474.54
392.43	1394.67
392.64	1417.19
392.85	1419.24
393.06	1458.15
393.27	1396.71
393.47	1298.41
393.68	1386.47
393.89	1306.60
394.10	1411.05
394.31	1331.18
394.52	1355.76
394.72	1308.65
394.93	1400.81
395.14	1404.91
395.35	1437.67
395.56	1468.39
395.76	1527.78
395.97	1531.88
396.18	1476.59
396.39	1650.66
396.60	1617.90
396.80	1525.74
397.01	1468.39
397.22	1505.26
397.43	1423.34
397.64	1501.16
397.84	1525.74
398.05	1443.82
398.26	1474.54
398.47	1499.11
398.67	1452.01
398.88	1355.76
399.09	1419.24
399.30	1339.37
399.51	1359.85
399.71	1304.56
399.92	1370.09
400.13	1431.53
400.34	1378.28
400.54	1388.52
400.75	1437.67
400.96	1400.81
401.17	1472.49
401.37	1378.28
401.58	1368.04
401.79	1523.69
402.00	1656.81
402.21	1820.64
402.41	1832.93
402.62	1857.51
402.83	1697.77
403.04	1624.04
403.24	1642.47
403.45	1521.64
403.66	1585.13
403.87	1554.41
404.07	1660.90
404.28	1603.56
404.49	1425.39
404.70	1525.74
404.90	1499.11
405.11	1447.91
405.32	1429.48
405.52	1353.71
405.73	1402.86
405.94	1355.76
406.15	1341.42
406.35	1411.05
406.56	1409.00
406.77	1333.23
406.98	1406.95
407.18	1404.91
407.39	1359.85
407.60	1343.47
407.80	1363.95
408.01	1331.18
408.22	1411.05
408.43	1376.24
408.63	1394.67
408.84	1417.19
409.05	1435.63
409.25	1398.76
409.46	1273.84
409.67	1327.08
409.88	1341.42
410.08	1429.48
410.29	1300.46
410.50	1411.05
410.70	1388.52
410.91	1335.28
411.12	1396.71
411.32	1402.86
411.53	1456.11
411.74	1425.39
411.95	1574.89
412.15	1411.05
412.36	1454.06
412.57	1363.95
412.77	1437.67
412.98	1437.67
413.19	1386.47
413.39	1411.05
413.60	1460.20
413.81	1478.63
414.01	1357.80
414.22	1378.28
414.43	1380.33
414.63	1372.14
414.84	1355.76
415.05	1359.85
415.25	1366.00
415.46	1400.81
415.67	1402.86
415.87	1370.09
416.08	1329.13
416.29	1429.48
416.49	1437.67
416.70	1349.61
416.91	1372.14
417.11	1298.41
417.32	1437.67
417.53	1363.95
417.73	1368.04
417.94	1357.80
418.15	1310.70
418.35	1370.09
418.56	1404.91
418.77	1499.11
418.97	1437.67
419.18	1353.71
419.38	1273.84
419.59	1322.99
419.80	1423.34
420.00	1318.89
420.21	1370.09
420.42	1466.35
420.62	1341.42
420.83	1347.56
421.04	1351.66
421.24	1294.32
421.45	1429.48
421.65	1427.43
421.86	1349.61
422.07	1339.37
422.27	1390.57
422.48	1284.08
422.69	1427.43
422.89	1355.76
423.10	1368.04
423.30	1288.17
423.51	1349.61
423.72	1378.28
423.92	1400.81
424.13	1314.80
424.33	1290.22
424.54	1366.00
424.75	1394.67
424.95	1474.54
425.16	1396.71
425.36	1361.90
425.57	1359.85
425.78	1478.63
425.98	1333.23
426.19	1325.04
426.39	1370.09
426.60	1404.91
426.81	1411.05
427.01	1353.71
427.22	1310.70
427.42	1286.12
427.63	1310.70
427.83	1388.52
428.04	1454.06
428.25	1441.77
428.45	1413.10
428.66	1533.93
428.86	1388.52
429.07	1368.04
429.28	1378.28
429.48	1361.90
429.69	1406.95
429.89	1380.33
430.10	1366.00
430.30	1374.19
430.51	1411.05
430.71	1277.93
430.92	1337.32
431.13	1351.66
431.33	1355.76
431.54	1413.10
431.74	1460.20
431.95	1439.72
432.15	1368.04
432.36	1363.95
432.56	1439.72
432.77	1474.54
432.98	1429.48
433.18	1366.00
433.39	1341.42
433.59	1376.24
433.80	1378.28
434.00	1468.39
434.21	1327.08
434.41	1312.75
434.62	1441.77
434.82	1294.32
435.03	1316.84
435.23	1318.89
435.44	1277.93
435.64	1396.71
435.85	1431.53
436.06	1384.43
436.26	1454.06
436.47	1368.04
436.67	1384.43
436.88	1314.80
437.08	1388.52
437.29	1376.24
437.49	1353.71
437.70	1486.83
437.90	1441.77
438.11	1585.13
438.31	1419.24
438.52	1550.31
438.72	1527.78
438.93	1562.60
439.13	1538.02
439.34	1482.73
439.54	1462.25
439.75	1368.04
439.95	1429.48
440.16	1411.05
440.36	1425.39
440.57	1429.48
440.77	1441.77
440.98	1368.04
441.18	1423.34
441.39	1355.76
441.59	1355.76
441.80	1484.78
442.00	1351.66
442.21	1458.15
442.41	1366.00
442.62	1415.15
442.82	1253.36
443.02	1433.58
443.23	1429.48
443.43	1398.76
443.64	1443.82
443.84	1302.51
444.05	1462.25
444.25	1378.28
444.46	1386.47
444.66	1359.85
444.87	1439.72
445.07	1361.90
445.28	1357.80
445.48	1458.15
445.69	1437.67
445.89	1437.67
446.09	1527.78
446.30	2320.35
446.50	3731.40
446.71	4642.75
446.91	5261.23
447.12	5593.00
447.32	4976.56
447.53	4108.23
447.73	3782.60
447.93	3508.17
448.14	3149.78
448.34	3069.91
448.55	2795.48
448.75	2783.19
448.96	2674.65
449.16	2404.32
449.36	2156.51
449.57	1961.95
449.77	1765.35
449.98	1597.42
450.18	1490.92
450.39	1527.78
450.59	1363.95
450.79	1378.28
451.00	1339.37
451.20	1439.72
451.41	1398.76
451.61	1390.57
451.81	1380.33
452.02	1337.32
452.22	1388.52
452.43	1298.41
452.63	1339.37
