SpectraSuite Data File
++++++++++++++++++++++++++++++++++++
Date: Tue May 03 11:24:05 CEST 2016
User: root
Dark Spectrum Present: No
Reference Spectrum Present: No
Number of Sampled Component Spectra: 1
Spectrometers: USB4C02835
Integration Time (usec): 100000 (USB4C02835)
Spectra Averaged: 1 (USB4C02835)
Boxcar Smoothing: 0 (USB4C02835)
Correct for Electrical Dark: No (USB4C02835)
Strobe/Lamp Enabled: No (USB4C02835)
Correct for Detector Non-linearity: No (USB4C02835)
Correct for Stray Light: No (USB4C02835)
Number of Pixels in Processed Spectrum: 3648
>>>>>Begin Processed Spectral Data<<<<<
177.47	1226.73
177.69	1226.73
177.91	1226.73
178.13	1179.63
178.36	1200.11
178.58	1368.04
178.80	1374.19
179.02	1300.46
179.24	1302.51
179.46	1363.95
179.68	1396.71
179.90	1331.18
180.13	1363.95
180.35	1351.66
180.57	1372.14
180.79	1470.44
181.01	1288.17
181.23	1366.00
181.45	1349.61
181.67	1353.71
181.90	1482.73
182.12	1368.04
182.34	1273.84
182.56	1353.71
182.78	1372.14
183.00	1361.90
183.22	1386.47
183.44	1325.04
183.66	1509.35
183.89	1501.16
184.11	1320.94
184.33	1380.33
184.55	1421.29
184.77	1390.57
184.99	1433.58
185.21	1318.89
185.43	1439.72
185.65	1343.47
185.87	1406.95
186.10	1501.16
186.32	1443.82
186.54	1339.37
186.76	1341.42
186.98	1372.14
187.20	1345.52
187.42	1435.63
187.64	1404.91
187.86	1349.61
188.08	1396.71
188.30	1310.70
188.52	1388.52
188.75	1361.90
188.97	1413.10
189.19	1429.48
189.41	1312.75
189.63	1327.08
189.85	1445.87
190.07	1329.13
190.29	1372.14
190.51	1261.55
190.73	1353.71
190.95	1480.68
191.17	1386.47
191.39	1302.51
191.61	1376.24
191.84	1308.65
192.06	1409.00
192.28	1318.89
192.50	1447.91
192.72	1327.08
192.94	1353.71
193.16	1460.20
193.38	1417.19
193.60	1302.51
193.82	1376.24
194.04	1398.76
194.26	1388.52
194.48	1347.56
194.70	1347.56
194.92	1325.04
195.14	1378.28
195.36	1331.18
195.58	1378.28
195.80	1419.24
196.02	1345.52
196.24	1380.33
196.46	1325.04
196.69	1347.56
196.91	1466.35
197.13	1347.56
197.35	1368.04
197.57	1427.43
197.79	1372.14
198.01	1400.81
198.23	1417.19
198.45	1320.94
198.67	1304.56
198.89	1347.56
199.11	1355.76
199.33	1339.37
199.55	1333.23
199.77	1349.61
199.99	1390.57
200.21	1370.09
200.43	1269.74
200.65	1366.00
200.87	1214.45
201.09	1392.62
201.31	1288.17
201.53	1366.00
201.75	1316.84
201.97	1380.33
202.19	1382.38
202.41	1341.42
202.63	1437.67
202.85	1370.09
203.07	1425.39
203.29	1341.42
203.51	1298.41
203.73	1279.98
203.95	1445.87
204.17	1400.81
204.39	1263.60
204.61	1359.85
204.83	1409.00
205.05	1306.60
205.27	1333.23
205.49	1380.33
205.71	1337.32
205.93	1277.93
206.15	1388.52
206.37	1400.81
206.59	1310.70
206.81	1243.12
207.03	1304.56
207.25	1304.56
207.47	1427.43
207.69	1318.89
207.91	1357.80
208.13	1437.67
208.34	1302.51
208.56	1359.85
208.78	1347.56
209.00	1331.18
209.22	1296.36
209.44	1355.76
209.66	1370.09
209.88	1361.90
210.10	1363.95
210.32	1355.76
210.54	1423.34
210.76	1382.38
210.98	1363.95
211.20	1380.33
211.42	1357.80
211.64	1449.96
211.86	1392.62
212.08	1443.82
212.30	1374.19
212.52	1370.09
212.74	1361.90
212.96	1402.86
213.17	1359.85
213.39	1386.47
213.61	1363.95
213.83	1447.91
214.05	1337.32
214.27	1415.15
214.49	1363.95
214.71	1302.51
214.93	1363.95
215.15	1327.08
215.37	1386.47
215.59	1411.05
215.81	1288.17
216.03	1413.10
216.24	1413.10
216.46	1353.71
216.68	1404.91
216.90	1382.38
217.12	1435.63
217.34	1343.47
217.56	1380.33
217.78	1425.39
218.00	1413.10
218.22	1380.33
218.44	1396.71
218.66	1347.56
218.87	1441.77
219.09	1374.19
219.31	1361.90
219.53	1353.71
219.75	1310.70
219.97	1302.51
220.19	1388.52
220.41	1406.95
220.63	1464.30
220.85	1361.90
221.06	1386.47
221.28	1353.71
221.50	1415.15
221.72	1331.18
221.94	1345.52
222.16	1400.81
222.38	1400.81
222.60	1380.33
222.82	1392.62
223.03	1322.99
223.25	1320.94
223.47	1347.56
223.69	1431.53
223.91	1417.19
224.13	1402.86
224.35	1359.85
224.57	1363.95
224.78	1347.56
225.00	1378.28
225.22	1302.51
225.44	1380.33
225.66	1390.57
225.88	1361.90
226.10	1374.19
226.32	1345.52
226.53	1437.67
226.75	1421.29
226.97	1372.14
227.19	1363.95
227.41	1366.00
227.63	1347.56
227.85	1413.10
228.06	1427.43
228.28	1368.04
228.50	1443.82
228.72	1347.56
228.94	1404.91
229.16	1331.18
229.37	1347.56
229.59	1318.89
229.81	1437.67
230.03	1386.47
230.25	1331.18
230.47	1279.98
230.69	1335.28
230.90	1384.43
231.12	1322.99
231.34	1398.76
231.56	1423.34
231.78	1351.66
232.00	1359.85
232.21	1449.96
232.43	1390.57
232.65	1251.31
232.87	1374.19
233.09	1427.43
233.30	1413.10
233.52	1380.33
233.74	1308.65
233.96	1433.58
234.18	1409.00
234.40	1363.95
234.61	1366.00
234.83	1343.47
235.05	1380.33
235.27	1503.21
235.49	1404.91
235.70	1363.95
235.92	1411.05
236.14	1398.76
236.36	1384.43
236.58	1263.60
236.79	1378.28
237.01	1355.76
237.23	1325.04
237.45	1378.28
237.67	1349.61
237.88	1304.56
238.10	1382.38
238.32	1196.01
238.54	1413.10
238.76	1347.56
238.97	1378.28
239.19	1320.94
239.41	1443.82
239.63	1398.76
239.85	1296.36
240.06	1374.19
240.28	1372.14
240.50	1376.24
240.72	1400.81
240.93	1421.29
241.15	1460.20
241.37	1353.71
241.59	1402.86
241.81	1396.71
242.02	1359.85
242.24	1368.04
242.46	1378.28
242.68	1376.24
242.89	1415.15
243.11	1380.33
243.33	1415.15
243.55	1374.19
243.76	1353.71
243.98	1382.38
244.20	1351.66
244.42	1445.87
244.64	1433.58
244.85	1431.53
245.07	1351.66
245.29	1402.86
245.51	1376.24
245.72	1339.37
245.94	1378.28
246.16	1382.38
246.38	1402.86
246.59	1376.24
246.81	1275.88
247.03	1404.91
247.24	1312.75
247.46	1384.43
247.68	1355.76
247.90	1361.90
248.11	1363.95
248.33	1325.04
248.55	1325.04
248.77	1345.52
248.98	1394.67
249.20	1415.15
249.42	1345.52
249.64	1427.43
249.85	1443.82
250.07	1372.14
250.29	1302.51
250.50	1429.48
250.72	1304.56
250.94	1339.37
251.16	1476.59
251.37	1343.47
251.59	1417.19
251.81	1376.24
252.02	1398.76
252.24	1271.79
252.46	1423.34
252.68	1249.26
252.89	1400.81
253.11	1249.26
253.33	1372.14
253.54	1368.04
253.76	1296.36
253.98	1316.84
254.20	1357.80
254.41	1286.12
254.63	1370.09
254.85	1349.61
255.06	1370.09
255.28	1361.90
255.50	1368.04
255.71	1355.76
255.93	1327.08
256.15	1370.09
256.36	1363.95
256.58	1429.48
256.80	1390.57
257.02	1351.66
257.23	1370.09
257.45	1386.47
257.67	1390.57
257.88	1294.32
258.10	1378.28
258.32	1333.23
258.53	1390.57
258.75	1351.66
258.97	1314.80
259.18	1413.10
259.40	1370.09
259.62	1382.38
259.83	1413.10
260.05	1359.85
260.27	1521.64
260.48	1314.80
260.70	1333.23
260.92	1404.91
261.13	1294.32
261.35	1359.85
261.57	1353.71
261.78	1351.66
262.00	1320.94
262.22	1421.29
262.43	1284.08
262.65	1341.42
262.86	1435.63
263.08	1388.52
263.30	1329.13
263.51	1277.93
263.73	1314.80
263.95	1435.63
264.16	1347.56
264.38	1374.19
264.60	1400.81
264.81	1396.71
265.03	1394.67
265.25	1425.39
265.46	1355.76
265.68	1411.05
265.89	1413.10
266.11	1355.76
266.33	1406.95
266.54	1443.82
266.76	1384.43
266.98	1372.14
267.19	1474.54
267.41	1386.47
267.62	1339.37
267.84	1378.28
268.06	1316.84
268.27	1468.39
268.49	1435.63
268.70	1363.95
268.92	1470.44
269.14	1337.32
269.35	1294.32
269.57	1394.67
269.79	1445.87
270.00	1331.18
270.22	1468.39
270.43	1347.56
270.65	1322.99
270.87	1355.76
271.08	1445.87
271.30	1388.52
271.51	1355.76
271.73	1382.38
271.95	1320.94
272.16	1421.29
272.38	1363.95
272.59	1363.95
272.81	1320.94
273.02	1390.57
273.24	1423.34
273.46	1400.81
273.67	1351.66
273.89	1349.61
274.10	1279.98
274.32	1406.95
274.54	1363.95
274.75	1331.18
274.97	1333.23
275.18	1437.67
275.40	1366.00
275.61	1419.24
275.83	1318.89
276.05	1279.98
276.26	1345.52
276.48	1359.85
276.69	1382.38
276.91	1382.38
277.12	1445.87
277.34	1359.85
277.55	1404.91
277.77	1390.57
277.99	1304.56
278.20	1263.60
278.42	1396.71
278.63	1349.61
278.85	1325.04
279.06	1318.89
279.28	1378.28
279.49	1394.67
279.71	1417.19
279.93	1357.80
280.14	1396.71
280.36	1361.90
280.57	1353.71
280.79	1368.04
281.00	1357.80
281.22	1359.85
281.43	1411.05
281.65	1355.76
281.86	1413.10
282.08	1374.19
282.29	1431.53
282.51	1341.42
282.73	1257.45
282.94	1292.27
283.16	1421.29
283.37	1419.24
283.59	1368.04
283.80	1402.86
284.02	1359.85
284.23	1400.81
284.45	1372.14
284.66	1322.99
284.88	1226.73
285.09	1337.32
285.31	1382.38
285.52	1351.66
285.74	1349.61
285.95	1372.14
286.17	1394.67
286.38	1370.09
286.60	1300.46
286.81	1337.32
287.03	1306.60
287.24	1351.66
287.46	1316.84
287.67	1339.37
287.89	1452.01
288.10	1286.12
288.32	1429.48
288.53	1388.52
288.75	1402.86
288.96	1351.66
289.18	1353.71
289.39	1322.99
289.61	1417.19
289.82	1359.85
290.04	1413.10
290.25	1384.43
290.47	1316.84
290.68	1343.47
290.90	1372.14
291.11	1312.75
291.33	1402.86
291.54	1300.46
291.76	1353.71
291.97	1351.66
292.18	1376.24
292.40	1366.00
292.61	1361.90
292.83	1460.20
293.04	1390.57
293.26	1331.18
293.47	1370.09
293.69	1337.32
293.90	1374.19
294.12	1347.56
294.33	1327.08
294.55	1310.70
294.76	1388.52
294.97	1458.15
295.19	1413.10
295.40	1361.90
295.62	1316.84
295.83	1396.71
296.05	1357.80
296.26	1384.43
296.48	1335.28
296.69	1394.67
296.90	1345.52
297.12	1380.33
297.33	1443.82
297.55	1335.28
297.76	1413.10
297.98	1429.48
298.19	1388.52
298.41	1363.95
298.62	1359.85
298.83	1441.77
299.05	1398.76
299.26	1380.33
299.48	1380.33
299.69	1406.95
299.90	1370.09
300.12	1296.36
300.33	1423.34
300.55	1378.28
300.76	1452.01
300.98	1284.08
301.19	1339.37
301.40	1351.66
301.62	1366.00
301.83	1396.71
302.05	1374.19
302.26	1370.09
302.47	1411.05
302.69	1335.28
302.90	1388.52
303.12	1345.52
303.33	1423.34
303.54	1355.76
303.76	1259.50
303.97	1361.90
304.19	1421.29
304.40	1417.19
304.61	1357.80
304.83	1386.47
305.04	1411.05
305.26	1322.99
305.47	1363.95
305.68	1384.43
305.90	1378.28
306.11	1411.05
306.33	1347.56
306.54	1318.89
306.75	1335.28
306.97	1296.36
307.18	1378.28
307.39	1296.36
307.61	1421.29
307.82	1314.80
308.04	1271.79
308.25	1320.94
308.46	1392.62
308.68	1349.61
308.89	1398.76
309.10	1392.62
309.32	1320.94
309.53	1390.57
309.74	1443.82
309.96	1398.76
310.17	1374.19
310.39	1370.09
310.60	1431.53
310.81	1353.71
311.03	1357.80
311.24	1337.32
311.45	1353.71
311.67	1406.95
311.88	1464.30
312.09	1363.95
312.31	1335.28
312.52	1357.80
312.73	1331.18
312.95	1327.08
313.16	1388.52
313.37	1396.71
313.59	1388.52
313.80	1406.95
314.01	1357.80
314.23	1396.71
314.44	1372.14
314.65	1302.51
314.87	1310.70
315.08	1392.62
315.29	1339.37
315.51	1306.60
315.72	1361.90
315.93	1431.53
316.15	1470.44
316.36	1331.18
316.57	1402.86
316.79	1400.81
317.00	1370.09
317.21	1445.87
317.43	1380.33
317.64	1378.28
317.85	1363.95
318.07	1490.92
318.28	1511.40
318.49	1574.89
318.70	1679.33
318.92	1513.45
319.13	1558.50
319.34	1576.94
319.56	1480.68
319.77	1466.35
319.98	1404.91
320.20	1443.82
320.41	1497.07
320.62	1409.00
320.83	1359.85
321.05	1531.88
321.26	1406.95
321.47	1298.41
321.69	1439.72
321.90	1341.42
322.11	1382.38
322.32	1345.52
322.54	1398.76
322.75	1376.24
322.96	1445.87
323.18	1286.12
323.39	1296.36
323.60	1298.41
323.81	1413.10
324.03	1384.43
324.24	1368.04
324.45	1366.00
324.66	1388.52
324.88	1421.29
325.09	1464.30
325.30	1363.95
325.52	1306.60
325.73	1331.18
325.94	1349.61
326.15	1343.47
326.37	1349.61
326.58	1372.14
326.79	1384.43
327.00	1310.70
327.22	1470.44
327.43	1290.22
327.64	1286.12
327.85	1345.52
328.07	1339.37
328.28	1476.59
328.49	1327.08
328.70	1306.60
328.92	1294.32
329.13	1388.52
329.34	1384.43
329.55	1394.67
329.76	1370.09
329.98	1312.75
330.19	1433.58
330.40	1382.38
330.61	1329.13
330.83	1388.52
331.04	1300.46
331.25	1282.03
331.46	1390.57
331.68	1382.38
331.89	1488.87
332.10	1343.47
332.31	1316.84
332.52	1294.32
332.74	1431.53
332.95	1396.71
333.16	1402.86
333.37	1347.56
333.58	1413.10
333.80	1384.43
334.01	1322.99
334.22	1402.86
334.43	1296.36
334.64	1341.42
334.86	1302.51
335.07	1247.21
335.28	1437.67
335.49	1363.95
335.70	1378.28
335.92	1376.24
336.13	1413.10
336.34	1327.08
336.55	1423.34
336.76	1376.24
336.98	1232.88
337.19	1374.19
337.40	1433.58
337.61	1452.01
337.82	1337.32
338.04	1325.04
338.25	1351.66
338.46	1421.29
338.67	1427.43
338.88	1316.84
339.09	1286.12
339.31	1363.95
339.52	1327.08
339.73	1370.09
339.94	1386.47
340.15	1382.38
340.36	1320.94
340.58	1433.58
340.79	1292.27
341.00	1370.09
341.21	1380.33
341.42	1392.62
341.63	1325.04
341.85	1417.19
342.06	1314.80
342.27	1331.18
342.48	1386.47
342.69	1339.37
342.90	1398.76
343.12	1396.71
343.33	1306.60
343.54	1370.09
343.75	1396.71
343.96	1425.39
344.17	1374.19
344.38	1413.10
344.60	1314.80
344.81	1386.47
345.02	1308.65
345.23	1449.96
345.44	1400.81
345.65	1351.66
345.86	1394.67
346.07	1398.76
346.29	1417.19
346.50	1372.14
346.71	1396.71
346.92	1406.95
347.13	1413.10
347.34	1376.24
347.55	1363.95
347.76	1452.01
347.98	1322.99
348.19	1312.75
348.40	1462.25
348.61	1327.08
348.82	1449.96
349.03	1384.43
349.24	1406.95
349.45	1409.00
349.66	1296.36
349.88	1382.38
350.09	1312.75
350.30	1411.05
350.51	1433.58
350.72	1363.95
350.93	1396.71
351.14	1333.23
351.35	1347.56
351.56	1398.76
351.77	1402.86
351.99	1366.00
352.20	1394.67
352.41	1363.95
352.62	1372.14
352.83	1359.85
353.04	1368.04
353.25	1368.04
353.46	1413.10
353.67	1392.62
353.88	1226.73
354.09	1372.14
354.30	1429.48
354.52	1396.71
354.73	1318.89
354.94	1329.13
355.15	1290.22
355.36	1406.95
355.57	1347.56
355.78	1370.09
355.99	1374.19
356.20	1419.24
356.41	1437.67
356.62	1353.71
356.83	1337.32
357.04	1425.39
357.25	1277.93
357.46	1329.13
357.68	1347.56
357.89	1433.58
358.10	1445.87
358.31	1359.85
358.52	1380.33
358.73	1355.76
358.94	1304.56
359.15	1378.28
359.36	1368.04
359.57	1390.57
359.78	1368.04
359.99	1343.47
360.20	1294.32
360.41	1339.37
360.62	1429.48
360.83	1359.85
361.04	1386.47
361.25	1374.19
361.46	1445.87
361.67	1402.86
361.88	1480.68
362.09	1345.52
362.30	1396.71
362.51	1366.00
362.72	1370.09
362.93	1390.57
363.14	1392.62
363.35	1449.96
363.56	1361.90
363.78	1441.77
363.99	1429.48
364.20	1347.56
364.41	1380.33
364.62	1406.95
364.83	1394.67
365.04	1335.28
365.25	1290.22
365.46	1460.20
365.67	1376.24
365.88	1374.19
366.09	1327.08
366.30	1382.38
366.51	1357.80
366.72	1372.14
366.93	1400.81
367.14	1335.28
367.35	1431.53
367.56	1351.66
367.77	1378.28
367.98	1404.91
368.18	1329.13
368.39	1372.14
368.60	1273.84
368.81	1409.00
369.02	1386.47
369.23	1359.85
369.44	1314.80
369.65	1331.18
369.86	1437.67
370.07	1368.04
370.28	1314.80
370.49	1425.39
370.70	1384.43
370.91	1355.76
371.12	1380.33
371.33	1388.52
371.54	1361.90
371.75	1454.06
371.96	1304.56
372.17	1370.09
372.38	1376.24
372.59	1351.66
372.80	1388.52
373.01	1325.04
373.22	1378.28
373.43	1351.66
373.64	1398.76
373.85	1398.76
374.06	1388.52
374.26	1415.15
374.47	1427.43
374.68	1368.04
374.89	1398.76
375.10	1316.84
375.31	1386.47
375.52	1372.14
375.73	1392.62
375.94	1357.80
376.15	1429.48
376.36	1351.66
376.57	1404.91
376.78	1368.04
376.99	1400.81
377.20	1306.60
377.40	1386.47
377.61	1429.48
377.82	1308.65
378.03	1445.87
378.24	1363.95
378.45	1335.28
378.66	1368.04
378.87	1302.51
379.08	1277.93
379.29	1392.62
379.50	1370.09
379.71	1343.47
379.91	1374.19
380.12	1361.90
380.33	1357.80
380.54	1337.32
380.75	1357.80
380.96	1345.52
381.17	1437.67
381.38	1411.05
381.59	1431.53
381.80	1482.73
382.00	1466.35
382.21	1409.00
382.42	1507.30
382.63	1476.59
382.84	1425.39
383.05	1400.81
383.26	1472.49
383.47	1415.15
383.68	1443.82
383.88	1366.00
384.09	1376.24
384.30	1462.25
384.51	1366.00
384.72	1388.52
384.93	1345.52
385.14	1349.61
385.35	1406.95
385.55	1298.41
385.76	1421.29
385.97	1273.84
386.18	1343.47
386.39	1292.27
386.60	1386.47
386.81	1392.62
387.02	1355.76
387.22	1366.00
387.43	1495.02
387.64	1548.26
387.85	2310.11
388.06	5865.38
388.27	9572.21
388.48	11339.60
388.68	13094.71
388.89	13285.17
389.10	10499.94
389.31	9199.48
389.52	8249.22
389.73	7483.28
389.93	6999.96
390.14	6516.64
390.35	6027.17
390.56	5341.10
390.77	4673.46
390.98	3669.96
391.18	2863.06
391.39	2138.08
391.60	1738.73
391.81	1523.69
392.02	1415.15
392.23	1486.83
392.43	1394.67
392.64	1472.49
392.85	1351.66
393.06	1417.19
393.27	1277.93
393.47	1384.43
393.68	1423.34
393.89	1292.27
394.10	1413.10
394.31	1347.56
394.52	1298.41
394.72	1359.85
394.93	1427.43
395.14	1402.86
395.35	1376.24
395.56	1353.71
395.76	1540.07
395.97	1591.27
396.18	1591.27
396.39	1603.56
396.60	1662.95
396.80	1560.55
397.01	1513.45
397.22	1497.07
397.43	1538.02
397.64	1447.91
397.84	1507.30
398.05	1423.34
398.26	1372.14
398.47	1503.21
398.67	1523.69
398.88	1423.34
399.09	1429.48
399.30	1411.05
399.51	1380.33
399.71	1347.56
399.92	1421.29
400.13	1417.19
400.34	1275.88
400.54	1468.39
400.75	1431.53
400.96	1361.90
401.17	1349.61
401.37	1449.96
401.58	1415.15
401.79	1562.60
402.00	1804.26
402.21	1806.31
402.41	1818.60
402.62	1847.27
402.83	1669.09
403.04	1640.42
403.24	1716.20
403.45	1566.70
403.66	1636.33
403.87	1593.32
404.07	1529.83
404.28	1540.07
404.49	1509.35
404.70	1464.30
404.90	1505.26
405.11	1443.82
405.32	1409.00
405.52	1357.80
405.73	1482.73
405.94	1241.07
406.15	1382.38
406.35	1402.86
406.56	1472.49
406.77	1425.39
406.98	1351.66
407.18	1404.91
407.39	1431.53
407.60	1380.33
407.80	1449.96
408.01	1318.89
408.22	1443.82
408.43	1290.22
408.63	1378.28
408.84	1361.90
409.05	1411.05
409.25	1322.99
409.46	1384.43
409.67	1411.05
409.88	1357.80
410.08	1435.63
410.29	1421.29
410.50	1443.82
410.70	1394.67
410.91	1267.69
411.12	1398.76
411.32	1398.76
411.53	1433.58
411.74	1490.92
411.95	1437.67
412.15	1466.35
412.36	1396.71
412.57	1437.67
412.77	1495.02
412.98	1443.82
413.19	1400.81
413.39	1427.43
413.60	1400.81
413.81	1415.15
414.01	1406.95
414.22	1452.01
414.43	1484.78
414.63	1363.95
414.84	1439.72
415.05	1411.05
415.25	1339.37
415.46	1445.87
415.67	1359.85
415.87	1396.71
416.08	1404.91
416.29	1345.52
416.49	1423.34
416.70	1255.40
416.91	1318.89
417.11	1353.71
417.32	1374.19
417.53	1388.52
417.73	1435.63
417.94	1382.38
418.15	1366.00
418.35	1312.75
418.56	1355.76
418.77	1492.97
418.97	1359.85
419.18	1347.56
419.38	1296.36
419.59	1333.23
419.80	1392.62
420.00	1290.22
420.21	1351.66
420.42	1421.29
420.62	1445.87
420.83	1388.52
421.04	1394.67
421.24	1329.13
421.45	1359.85
421.65	1398.76
421.86	1351.66
422.07	1429.48
422.27	1382.38
422.48	1363.95
422.69	1337.32
422.89	1343.47
423.10	1335.28
423.30	1322.99
423.51	1394.67
423.72	1351.66
423.92	1386.47
424.13	1351.66
424.33	1390.57
424.54	1415.15
424.75	1388.52
424.95	1492.97
425.16	1372.14
425.36	1417.19
425.57	1306.60
425.78	1441.77
425.98	1433.58
426.19	1435.63
426.39	1368.04
426.60	1384.43
426.81	1519.59
427.01	1331.18
427.22	1284.08
427.42	1275.88
427.63	1345.52
427.83	1386.47
428.04	1384.43
428.25	1404.91
428.45	1433.58
428.66	1359.85
428.86	1386.47
429.07	1333.23
429.28	1345.52
429.48	1331.18
429.69	1376.24
429.89	1351.66
430.10	1421.29
430.30	1304.56
430.51	1413.10
430.71	1357.80
430.92	1353.71
431.13	1335.28
431.33	1353.71
431.54	1388.52
431.74	1452.01
431.95	1585.13
432.15	1325.04
432.36	1398.76
432.56	1413.10
432.77	1390.57
432.98	1339.37
433.18	1306.60
433.39	1370.09
433.59	1355.76
433.80	1484.78
434.00	1460.20
434.21	1409.00
434.41	1337.32
434.62	1431.53
434.82	1413.10
435.03	1294.32
435.23	1388.52
435.44	1409.00
435.64	1363.95
435.85	1318.89
436.06	1396.71
436.26	1427.43
436.47	1351.66
436.67	1441.77
436.88	1384.43
437.08	1394.67
437.29	1347.56
437.49	1419.24
437.70	1421.29
437.90	1357.80
438.11	1595.37
438.31	1472.49
438.52	1568.74
438.72	1521.64
438.93	1609.70
439.13	1484.78
439.34	1501.16
439.54	1419.24
439.75	1462.25
439.95	1468.39
440.16	1341.42
440.36	1421.29
440.57	1400.81
440.77	1445.87
440.98	1351.66
441.18	1415.15
441.39	1425.39
441.59	1384.43
441.80	1417.19
442.00	1445.87
442.21	1441.77
442.41	1282.03
442.62	1398.76
442.82	1400.81
443.02	1368.04
443.23	1347.56
443.43	1366.00
443.64	1445.87
443.84	1359.85
444.05	1476.59
444.25	1329.13
444.46	1366.00
444.66	1427.43
444.87	1402.86
445.07	1423.34
445.28	1409.00
445.48	1449.96
445.69	1433.58
445.89	1511.40
446.09	1538.02
446.30	2279.39
446.50	3772.36
446.71	4741.05
446.91	5361.58
447.12	5513.13
447.32	5060.53
447.53	4147.14
447.73	3811.27
447.93	3440.59
448.14	3155.92
448.34	2979.79
448.55	2813.91
448.75	2818.00
448.96	2582.49
449.16	2430.94
449.36	2232.29
449.57	1888.23
449.77	1669.09
449.98	1523.69
450.18	1542.12
450.39	1456.11
450.59	1452.01
450.79	1437.67
451.00	1357.80
451.20	1384.43
451.41	1396.71
451.61	1329.13
451.81	1429.48
452.02	1320.94
452.22	1372.14
452.43	1228.78
452.63	1284.08
