SpectraSuite Data File
++++++++++++++++++++++++++++++++++++
Date: Tue May 03 11:24:02 CEST 2016
User: root
Dark Spectrum Present: No
Reference Spectrum Present: No
Number of Sampled Component Spectra: 1
Spectrometers: USB4C02835
Integration Time (usec): 100000 (USB4C02835)
Spectra Averaged: 1 (USB4C02835)
Boxcar Smoothing: 0 (USB4C02835)
Correct for Electrical Dark: No (USB4C02835)
Strobe/Lamp Enabled: No (USB4C02835)
Correct for Detector Non-linearity: No (USB4C02835)
Correct for Stray Light: No (USB4C02835)
Number of Pixels in Processed Spectrum: 3648
>>>>>Begin Processed Spectral Data<<<<<
177.47	1181.68
177.69	1181.68
177.91	1181.68
178.13	1245.16
178.36	1247.21
178.58	1341.42
178.80	1437.67
179.02	1331.18
179.24	1312.75
179.46	1423.34
179.68	1421.29
179.90	1380.33
180.13	1339.37
180.35	1396.71
180.57	1333.23
180.79	1298.41
181.01	1366.00
181.23	1366.00
181.45	1454.06
181.67	1409.00
181.90	1380.33
182.12	1345.52
182.34	1308.65
182.56	1370.09
182.78	1368.04
183.00	1329.13
183.22	1370.09
183.44	1310.70
183.66	1429.48
183.89	1437.67
184.11	1376.24
184.33	1372.14
184.55	1386.47
184.77	1400.81
184.99	1386.47
185.21	1386.47
185.43	1394.67
185.65	1329.13
185.87	1388.52
186.10	1419.24
186.32	1490.92
186.54	1378.28
186.76	1359.85
186.98	1361.90
187.20	1394.67
187.42	1263.60
187.64	1331.18
187.86	1325.04
188.08	1409.00
188.30	1419.24
188.52	1384.43
188.75	1363.95
188.97	1366.00
189.19	1392.62
189.41	1320.94
189.63	1415.15
189.85	1417.19
190.07	1345.52
190.29	1296.36
190.51	1380.33
190.73	1314.80
190.95	1353.71
191.17	1331.18
191.39	1335.28
191.61	1372.14
191.84	1282.03
192.06	1275.88
192.28	1296.36
192.50	1443.82
192.72	1429.48
192.94	1374.19
193.16	1417.19
193.38	1331.18
193.60	1355.76
193.82	1361.90
194.04	1425.39
194.26	1322.99
194.48	1413.10
194.70	1347.56
194.92	1329.13
195.14	1406.95
195.36	1337.32
195.58	1339.37
195.80	1386.47
196.02	1400.81
196.24	1349.61
196.46	1380.33
196.69	1296.36
196.91	1429.48
197.13	1384.43
197.35	1366.00
197.57	1361.90
197.79	1288.17
198.01	1318.89
198.23	1380.33
198.45	1415.15
198.67	1361.90
198.89	1466.35
199.11	1355.76
199.33	1290.22
199.55	1337.32
199.77	1282.03
199.99	1425.39
200.21	1325.04
200.43	1394.67
200.65	1409.00
200.87	1279.98
201.09	1279.98
201.31	1345.52
201.53	1421.29
201.75	1341.42
201.97	1368.04
202.19	1366.00
202.41	1411.05
202.63	1468.39
202.85	1421.29
203.07	1343.47
203.29	1325.04
203.51	1333.23
203.73	1308.65
203.95	1472.49
204.17	1329.13
204.39	1404.91
204.61	1355.76
204.83	1306.60
205.05	1429.48
205.27	1486.83
205.49	1398.76
205.71	1374.19
205.93	1316.84
206.15	1331.18
206.37	1404.91
206.59	1382.38
206.81	1312.75
207.03	1304.56
207.25	1284.08
207.47	1378.28
207.69	1363.95
207.91	1472.49
208.13	1392.62
208.34	1318.89
208.56	1290.22
208.78	1372.14
209.00	1384.43
209.22	1300.46
209.44	1392.62
209.66	1363.95
209.88	1392.62
210.10	1327.08
210.32	1429.48
210.54	1343.47
210.76	1333.23
210.98	1402.86
211.20	1288.17
211.42	1419.24
211.64	1437.67
211.86	1298.41
212.08	1486.83
212.30	1462.25
212.52	1388.52
212.74	1378.28
212.96	1390.57
213.17	1392.62
213.39	1368.04
213.61	1425.39
213.83	1497.07
214.05	1306.60
214.27	1435.63
214.49	1345.52
214.71	1347.56
214.93	1513.45
215.15	1329.13
215.37	1366.00
215.59	1234.93
215.81	1341.42
216.03	1390.57
216.24	1335.28
216.46	1411.05
216.68	1417.19
216.90	1374.19
217.12	1411.05
217.34	1376.24
217.56	1419.24
217.78	1374.19
218.00	1398.76
218.22	1353.71
218.44	1366.00
218.66	1329.13
218.87	1388.52
219.09	1394.67
219.31	1392.62
219.53	1357.80
219.75	1404.91
219.97	1327.08
220.19	1402.86
220.41	1413.10
220.63	1394.67
220.85	1339.37
221.06	1370.09
221.28	1359.85
221.50	1447.91
221.72	1370.09
221.94	1372.14
222.16	1439.72
222.38	1363.95
222.60	1427.43
222.82	1343.47
223.03	1400.81
223.25	1335.28
223.47	1466.35
223.69	1445.87
223.91	1372.14
224.13	1284.08
224.35	1374.19
224.57	1394.67
224.78	1447.91
225.00	1314.80
225.22	1320.94
225.44	1341.42
225.66	1427.43
225.88	1404.91
226.10	1456.11
226.32	1339.37
226.53	1486.83
226.75	1310.70
226.97	1314.80
227.19	1386.47
227.41	1308.65
227.63	1288.17
227.85	1294.32
228.06	1308.65
228.28	1419.24
228.50	1351.66
228.72	1259.50
228.94	1316.84
229.16	1294.32
229.37	1331.18
229.59	1374.19
229.81	1433.58
230.03	1306.60
230.25	1320.94
230.47	1343.47
230.69	1308.65
230.90	1433.58
231.12	1378.28
231.34	1380.33
231.56	1353.71
231.78	1234.93
232.00	1392.62
232.21	1398.76
232.43	1380.33
232.65	1296.36
232.87	1402.86
233.09	1384.43
233.30	1349.61
233.52	1298.41
233.74	1437.67
233.96	1374.19
234.18	1431.53
234.40	1341.42
234.61	1372.14
234.83	1273.84
235.05	1327.08
235.27	1433.58
235.49	1413.10
235.70	1396.71
235.92	1402.86
236.14	1376.24
236.36	1452.01
236.58	1257.45
236.79	1404.91
237.01	1314.80
237.23	1298.41
237.45	1404.91
237.67	1368.04
237.88	1322.99
238.10	1452.01
238.32	1312.75
238.54	1406.95
238.76	1419.24
238.97	1339.37
239.19	1345.52
239.41	1445.87
239.63	1435.63
239.85	1308.65
240.06	1333.23
240.28	1361.90
240.50	1331.18
240.72	1318.89
240.93	1396.71
241.15	1445.87
241.37	1343.47
241.59	1458.15
241.81	1380.33
242.02	1286.12
242.24	1421.29
242.46	1355.76
242.68	1282.03
242.89	1380.33
243.11	1351.66
243.33	1349.61
243.55	1355.76
243.76	1404.91
243.98	1415.15
244.20	1386.47
244.42	1333.23
244.64	1351.66
244.85	1378.28
245.07	1294.32
245.29	1398.76
245.51	1425.39
245.72	1470.44
245.94	1345.52
246.16	1417.19
246.38	1390.57
246.59	1318.89
246.81	1378.28
247.03	1376.24
247.24	1273.84
247.46	1363.95
247.68	1425.39
247.90	1343.47
248.11	1347.56
248.33	1445.87
248.55	1343.47
248.77	1351.66
248.98	1372.14
249.20	1400.81
249.42	1400.81
249.64	1339.37
249.85	1298.41
250.07	1292.27
250.29	1331.18
250.50	1413.10
250.72	1347.56
250.94	1372.14
251.16	1441.77
251.37	1495.02
251.59	1402.86
251.81	1417.19
252.02	1456.11
252.24	1402.86
252.46	1357.80
252.68	1320.94
252.89	1294.32
253.11	1277.93
253.33	1427.43
253.54	1404.91
253.76	1363.95
253.98	1374.19
254.20	1306.60
254.41	1374.19
254.63	1331.18
254.85	1384.43
255.06	1347.56
255.28	1333.23
255.50	1392.62
255.71	1320.94
255.93	1312.75
256.15	1411.05
256.36	1292.27
256.58	1392.62
256.80	1388.52
257.02	1351.66
257.23	1415.15
257.45	1357.80
257.67	1411.05
257.88	1308.65
258.10	1335.28
258.32	1384.43
258.53	1355.76
258.75	1458.15
258.97	1337.32
259.18	1411.05
259.40	1370.09
259.62	1353.71
259.83	1363.95
260.05	1454.06
260.27	1511.40
260.48	1456.11
260.70	1331.18
260.92	1353.71
261.13	1335.28
261.35	1284.08
261.57	1349.61
261.78	1347.56
262.00	1370.09
262.22	1386.47
262.43	1345.52
262.65	1361.90
262.86	1282.03
263.08	1429.48
263.30	1386.47
263.51	1259.50
263.73	1298.41
263.95	1357.80
264.16	1314.80
264.38	1251.31
264.60	1390.57
264.81	1263.60
265.03	1460.20
265.25	1398.76
265.46	1322.99
265.68	1394.67
265.89	1392.62
266.11	1339.37
266.33	1400.81
266.54	1306.60
266.76	1415.15
266.98	1372.14
267.19	1470.44
267.41	1411.05
267.62	1361.90
267.84	1318.89
268.06	1435.63
268.27	1355.76
268.49	1390.57
268.70	1398.76
268.92	1349.61
269.14	1363.95
269.35	1304.56
269.57	1316.84
269.79	1337.32
270.00	1378.28
270.22	1361.90
270.43	1357.80
270.65	1300.46
270.87	1409.00
271.08	1380.33
271.30	1384.43
271.51	1345.52
271.73	1370.09
271.95	1363.95
272.16	1372.14
272.38	1363.95
272.59	1374.19
272.81	1359.85
273.02	1411.05
273.24	1339.37
273.46	1388.52
273.67	1359.85
273.89	1357.80
274.10	1386.47
274.32	1372.14
274.54	1359.85
274.75	1343.47
274.97	1419.24
275.18	1335.28
275.40	1327.08
275.61	1390.57
275.83	1366.00
276.05	1343.47
276.26	1306.60
276.48	1361.90
276.69	1316.84
276.91	1378.28
277.12	1413.10
277.34	1441.77
277.55	1388.52
277.77	1390.57
277.99	1288.17
278.20	1335.28
278.42	1306.60
278.63	1267.69
278.85	1310.70
279.06	1304.56
279.28	1388.52
279.49	1388.52
279.71	1423.34
279.93	1322.99
280.14	1431.53
280.36	1343.47
280.57	1331.18
280.79	1423.34
281.00	1361.90
281.22	1306.60
281.43	1427.43
281.65	1257.45
281.86	1355.76
282.08	1427.43
282.29	1488.87
282.51	1345.52
282.73	1271.79
282.94	1339.37
283.16	1499.11
283.37	1421.29
283.59	1347.56
283.80	1353.71
284.02	1318.89
284.23	1388.52
284.45	1325.04
284.66	1368.04
284.88	1363.95
285.09	1376.24
285.31	1400.81
285.52	1400.81
285.74	1306.60
285.95	1374.19
286.17	1353.71
286.38	1322.99
286.60	1279.98
286.81	1376.24
287.03	1318.89
287.24	1413.10
287.46	1378.28
287.67	1402.86
287.89	1425.39
288.10	1363.95
288.32	1279.98
288.53	1378.28
288.75	1353.71
288.96	1345.52
289.18	1363.95
289.39	1388.52
289.61	1353.71
289.82	1388.52
290.04	1474.54
290.25	1300.46
290.47	1322.99
290.68	1411.05
290.90	1380.33
291.11	1202.16
291.33	1372.14
291.54	1368.04
291.76	1302.51
291.97	1419.24
292.18	1400.81
292.40	1359.85
292.61	1335.28
292.83	1476.59
293.04	1415.15
293.26	1347.56
293.47	1359.85
293.69	1267.69
293.90	1343.47
294.12	1433.58
294.33	1314.80
294.55	1239.02
294.76	1392.62
294.97	1372.14
295.19	1435.63
295.40	1312.75
295.62	1409.00
295.83	1398.76
296.05	1452.01
296.26	1425.39
296.48	1357.80
296.69	1386.47
296.90	1359.85
297.12	1392.62
297.33	1400.81
297.55	1427.43
297.76	1394.67
297.98	1394.67
298.19	1413.10
298.41	1368.04
298.62	1361.90
298.83	1406.95
299.05	1411.05
299.26	1378.28
299.48	1355.76
299.69	1415.15
299.90	1398.76
300.12	1380.33
300.33	1370.09
300.55	1345.52
300.76	1386.47
300.98	1273.84
301.19	1327.08
301.40	1370.09
301.62	1316.84
301.83	1359.85
302.05	1398.76
302.26	1427.43
302.47	1347.56
302.69	1343.47
302.90	1333.23
303.12	1331.18
303.33	1390.57
303.54	1402.86
303.76	1347.56
303.97	1376.24
304.19	1431.53
304.40	1320.94
304.61	1353.71
304.83	1462.25
305.04	1347.56
305.26	1402.86
305.47	1310.70
305.68	1390.57
305.90	1314.80
306.11	1394.67
306.33	1378.28
306.54	1402.86
306.75	1343.47
306.97	1284.08
307.18	1400.81
307.39	1351.66
307.61	1443.82
307.82	1327.08
308.04	1433.58
308.25	1366.00
308.46	1339.37
308.68	1372.14
308.89	1349.61
309.10	1449.96
309.32	1402.86
309.53	1355.76
309.74	1378.28
309.96	1394.67
310.17	1411.05
310.39	1390.57
310.60	1363.95
310.81	1286.12
311.03	1392.62
311.24	1302.51
311.45	1298.41
311.67	1431.53
311.88	1343.47
312.09	1292.27
312.31	1390.57
312.52	1372.14
312.73	1400.81
312.95	1333.23
313.16	1322.99
313.37	1384.43
313.59	1363.95
313.80	1443.82
314.01	1390.57
314.23	1355.76
314.44	1370.09
314.65	1333.23
314.87	1398.76
315.08	1355.76
315.29	1363.95
315.51	1286.12
315.72	1339.37
315.93	1404.91
316.15	1411.05
316.36	1300.46
316.57	1394.67
316.79	1411.05
317.00	1466.35
317.21	1359.85
317.43	1400.81
317.64	1314.80
317.85	1402.86
318.07	1466.35
318.28	1515.50
318.49	1540.07
318.70	1652.71
318.92	1445.87
319.13	1464.30
319.34	1466.35
319.56	1476.59
319.77	1519.59
319.98	1437.67
320.20	1511.40
320.41	1396.71
320.62	1374.19
320.83	1435.63
321.05	1404.91
321.26	1415.15
321.47	1361.90
321.69	1390.57
321.90	1296.36
322.11	1378.28
322.32	1386.47
322.54	1382.38
322.75	1353.71
322.96	1400.81
323.18	1335.28
323.39	1279.98
323.60	1337.32
323.81	1417.19
324.03	1376.24
324.24	1372.14
324.45	1402.86
324.66	1384.43
324.88	1476.59
325.09	1443.82
325.30	1392.62
325.52	1433.58
325.73	1490.92
325.94	1308.65
326.15	1333.23
326.37	1294.32
326.58	1400.81
326.79	1359.85
327.00	1378.28
327.22	1337.32
327.43	1384.43
327.64	1271.79
327.85	1359.85
328.07	1425.39
328.28	1443.82
328.49	1339.37
328.70	1351.66
328.92	1374.19
329.13	1318.89
329.34	1449.96
329.55	1390.57
329.76	1433.58
329.98	1355.76
330.19	1400.81
330.40	1406.95
330.61	1366.00
330.83	1378.28
331.04	1339.37
331.25	1394.67
331.46	1347.56
331.68	1339.37
331.89	1443.82
332.10	1310.70
332.31	1314.80
332.52	1349.61
332.74	1337.32
332.95	1243.12
333.16	1339.37
333.37	1382.38
333.58	1316.84
333.80	1396.71
334.01	1339.37
334.22	1279.98
334.43	1382.38
334.64	1335.28
334.86	1327.08
335.07	1296.36
335.28	1429.48
335.49	1290.22
335.70	1339.37
335.92	1372.14
336.13	1382.38
336.34	1376.24
336.55	1357.80
336.76	1427.43
336.98	1296.36
337.19	1390.57
337.40	1466.35
337.61	1511.40
337.82	1404.91
338.04	1409.00
338.25	1361.90
338.46	1388.52
338.67	1366.00
338.88	1277.93
339.09	1312.75
339.31	1345.52
339.52	1302.51
339.73	1400.81
339.94	1337.32
340.15	1390.57
340.36	1341.42
340.58	1388.52
340.79	1355.76
341.00	1314.80
341.21	1306.60
341.42	1370.09
341.63	1372.14
341.85	1376.24
342.06	1314.80
342.27	1302.51
342.48	1368.04
342.69	1310.70
342.90	1406.95
343.12	1384.43
343.33	1339.37
343.54	1386.47
343.75	1411.05
343.96	1409.00
344.17	1378.28
344.38	1359.85
344.60	1343.47
344.81	1396.71
345.02	1392.62
345.23	1357.80
345.44	1445.87
345.65	1390.57
345.86	1400.81
346.07	1318.89
346.29	1343.47
346.50	1441.77
346.71	1443.82
346.92	1380.33
347.13	1490.92
347.34	1400.81
347.55	1361.90
347.76	1363.95
347.98	1368.04
348.19	1394.67
348.40	1462.25
348.61	1320.94
348.82	1425.39
349.03	1425.39
349.24	1251.31
349.45	1406.95
349.66	1318.89
349.88	1392.62
350.09	1376.24
350.30	1366.00
350.51	1374.19
350.72	1390.57
350.93	1429.48
351.14	1290.22
351.35	1396.71
351.56	1325.04
351.77	1329.13
351.99	1441.77
352.20	1398.76
352.41	1468.39
352.62	1292.27
352.83	1343.47
353.04	1370.09
353.25	1439.72
353.46	1378.28
353.67	1429.48
353.88	1304.56
354.09	1421.29
354.30	1409.00
354.52	1374.19
354.73	1366.00
354.94	1425.39
355.15	1384.43
355.36	1417.19
355.57	1382.38
355.78	1355.76
355.99	1339.37
356.20	1329.13
356.41	1470.44
356.62	1370.09
356.83	1359.85
357.04	1366.00
357.25	1331.18
357.46	1337.32
357.68	1228.78
357.89	1282.03
358.10	1466.35
358.31	1396.71
358.52	1402.86
358.73	1310.70
358.94	1277.93
359.15	1409.00
359.36	1437.67
359.57	1380.33
359.78	1396.71
359.99	1396.71
360.20	1376.24
360.41	1372.14
360.62	1468.39
360.83	1433.58
361.04	1392.62
361.25	1351.66
361.46	1470.44
361.67	1433.58
361.88	1404.91
362.09	1353.71
362.30	1413.10
362.51	1398.76
362.72	1439.72
362.93	1378.28
363.14	1363.95
363.35	1386.47
363.56	1296.36
363.78	1392.62
363.99	1458.15
364.20	1370.09
364.41	1347.56
364.62	1474.54
364.83	1345.52
365.04	1380.33
365.25	1363.95
365.46	1396.71
365.67	1382.38
365.88	1409.00
366.09	1314.80
366.30	1335.28
366.51	1363.95
366.72	1318.89
366.93	1456.11
367.14	1427.43
367.35	1370.09
367.56	1398.76
367.77	1443.82
367.98	1359.85
368.18	1368.04
368.39	1306.60
368.60	1329.13
368.81	1349.61
369.02	1374.19
369.23	1400.81
369.44	1298.41
369.65	1361.90
369.86	1368.04
370.07	1427.43
370.28	1304.56
370.49	1423.34
370.70	1419.24
370.91	1392.62
371.12	1202.16
371.33	1400.81
371.54	1339.37
371.75	1456.11
371.96	1298.41
372.17	1361.90
372.38	1339.37
372.59	1337.32
372.80	1378.28
373.01	1347.56
373.22	1425.39
373.43	1363.95
373.64	1308.65
373.85	1388.52
374.06	1347.56
374.26	1402.86
374.47	1425.39
374.68	1468.39
374.89	1331.18
375.10	1445.87
375.31	1458.15
375.52	1366.00
375.73	1429.48
375.94	1374.19
376.15	1425.39
376.36	1404.91
376.57	1337.32
376.78	1316.84
376.99	1335.28
377.20	1486.83
377.40	1292.27
377.61	1376.24
377.82	1386.47
378.03	1413.10
378.24	1449.96
378.45	1333.23
378.66	1343.47
378.87	1322.99
379.08	1300.46
379.29	1331.18
379.50	1368.04
379.71	1347.56
379.91	1386.47
380.12	1347.56
380.33	1361.90
380.54	1318.89
380.75	1382.38
380.96	1351.66
381.17	1458.15
381.38	1429.48
381.59	1464.30
381.80	1476.59
382.00	1480.68
382.21	1370.09
382.42	1464.30
382.63	1449.96
382.84	1398.76
383.05	1409.00
383.26	1484.78
383.47	1353.71
383.68	1372.14
383.88	1411.05
384.09	1417.19
384.30	1464.30
384.51	1394.67
384.72	1404.91
384.93	1320.94
385.14	1339.37
385.35	1437.67
385.55	1306.60
385.76	1529.83
385.97	1462.25
386.18	1345.52
386.39	1339.37
386.60	1396.71
386.81	1476.59
387.02	1427.43
387.22	1433.58
387.43	1447.91
387.64	1544.17
387.85	2217.95
388.06	5816.23
388.27	9758.57
388.48	11407.19
388.68	12932.92
388.89	13356.85
389.10	10653.53
389.31	9101.17
389.52	8277.89
389.73	7290.77
389.93	7059.35
390.14	6313.89
390.35	6180.77
390.56	5412.78
390.77	4577.21
390.98	3649.48
391.18	2912.21
391.39	2127.84
391.60	1742.82
391.81	1521.64
392.02	1454.06
392.23	1558.50
392.43	1460.20
392.64	1437.67
392.85	1396.71
393.06	1492.97
393.27	1376.24
393.47	1306.60
393.68	1368.04
393.89	1341.42
394.10	1445.87
394.31	1329.13
394.52	1312.75
394.72	1396.71
394.93	1443.82
395.14	1331.18
395.35	1406.95
395.56	1443.82
395.76	1556.46
395.97	1495.02
396.18	1570.79
396.39	1632.23
396.60	1650.66
396.80	1572.84
397.01	1556.46
397.22	1517.54
397.43	1538.02
397.64	1427.43
397.84	1495.02
398.05	1548.26
398.26	1454.06
398.47	1468.39
398.67	1445.87
398.88	1435.63
399.09	1372.14
399.30	1316.84
399.51	1382.38
399.71	1341.42
399.92	1427.43
400.13	1329.13
400.34	1462.25
400.54	1386.47
400.75	1515.50
400.96	1398.76
401.17	1519.59
401.37	1384.43
401.58	1347.56
401.79	1474.54
402.00	1720.29
402.21	1820.64
402.41	1818.60
402.62	1796.07
402.83	1695.72
403.04	1748.97
403.24	1685.48
403.45	1593.32
403.66	1552.36
403.87	1529.83
404.07	1452.01
404.28	1560.55
404.49	1560.55
404.70	1456.11
404.90	1447.91
405.11	1464.30
405.32	1396.71
405.52	1392.62
405.73	1253.36
405.94	1282.03
406.15	1359.85
406.35	1445.87
406.56	1390.57
406.77	1339.37
406.98	1374.19
407.18	1359.85
407.39	1447.91
407.60	1310.70
407.80	1423.34
408.01	1368.04
408.22	1413.10
408.43	1347.56
408.63	1396.71
408.84	1400.81
409.05	1331.18
409.25	1329.13
409.46	1331.18
409.67	1351.66
409.88	1421.29
410.08	1327.08
410.29	1337.32
410.50	1361.90
410.70	1406.95
410.91	1284.08
411.12	1372.14
411.32	1378.28
411.53	1288.17
411.74	1429.48
411.95	1464.30
412.15	1439.72
412.36	1415.15
412.57	1452.01
412.77	1458.15
412.98	1392.62
413.19	1366.00
413.39	1392.62
413.60	1435.63
413.81	1464.30
414.01	1349.61
414.22	1417.19
414.43	1392.62
414.63	1406.95
414.84	1468.39
415.05	1417.19
415.25	1355.76
415.46	1368.04
415.67	1306.60
415.87	1353.71
416.08	1445.87
416.29	1390.57
416.49	1376.24
416.70	1415.15
416.91	1279.98
417.11	1394.67
417.32	1376.24
417.53	1464.30
417.73	1343.47
417.94	1349.61
418.15	1394.67
418.35	1402.86
418.56	1327.08
418.77	1435.63
418.97	1378.28
419.18	1380.33
419.38	1273.84
419.59	1355.76
419.80	1400.81
420.00	1437.67
420.21	1390.57
420.42	1320.94
420.62	1390.57
420.83	1265.64
421.04	1316.84
421.24	1351.66
421.45	1394.67
421.65	1433.58
421.86	1304.56
422.07	1441.77
422.27	1363.95
422.48	1353.71
422.69	1415.15
422.89	1388.52
423.10	1339.37
423.30	1265.64
423.51	1380.33
423.72	1363.95
423.92	1339.37
424.13	1337.32
424.33	1337.32
424.54	1427.43
424.75	1290.22
424.95	1400.81
425.16	1423.34
425.36	1322.99
425.57	1470.44
425.78	1433.58
425.98	1413.10
426.19	1343.47
426.39	1320.94
426.60	1341.42
426.81	1495.02
427.01	1384.43
427.22	1431.53
427.42	1355.76
427.63	1409.00
427.83	1384.43
428.04	1460.20
428.25	1417.19
428.45	1386.47
428.66	1458.15
428.86	1298.41
429.07	1325.04
429.28	1372.14
429.48	1320.94
429.69	1355.76
429.89	1388.52
430.10	1316.84
430.30	1357.80
430.51	1423.34
430.71	1374.19
430.92	1366.00
431.13	1322.99
431.33	1372.14
431.54	1384.43
431.74	1423.34
431.95	1388.52
432.15	1300.46
432.36	1380.33
432.56	1425.39
432.77	1445.87
432.98	1511.40
433.18	1306.60
433.39	1452.01
433.59	1351.66
433.80	1476.59
434.00	1497.07
434.21	1318.89
434.41	1392.62
434.62	1468.39
434.82	1310.70
435.03	1357.80
435.23	1308.65
435.44	1316.84
435.64	1339.37
435.85	1382.38
436.06	1439.72
436.26	1359.85
436.47	1357.80
436.67	1318.89
436.88	1466.35
437.08	1363.95
437.29	1374.19
437.49	1382.38
437.70	1421.29
437.90	1398.76
438.11	1474.54
438.31	1476.59
438.52	1578.98
438.72	1535.98
438.93	1564.65
439.13	1519.59
439.34	1409.00
439.54	1443.82
439.75	1374.19
439.95	1447.91
440.16	1368.04
440.36	1390.57
440.57	1423.34
440.77	1335.28
440.98	1406.95
441.18	1429.48
441.39	1413.10
441.59	1419.24
441.80	1449.96
442.00	1370.09
442.21	1443.82
442.41	1413.10
442.62	1363.95
442.82	1404.91
443.02	1417.19
443.23	1443.82
443.43	1394.67
443.64	1411.05
443.84	1386.47
444.05	1445.87
444.25	1441.77
444.46	1396.71
444.66	1447.91
444.87	1359.85
445.07	1306.60
445.28	1415.15
445.48	1492.97
445.69	1386.47
445.89	1499.11
446.09	1595.37
446.30	2267.10
446.50	3698.63
446.71	4646.84
446.91	5279.66
447.12	5570.48
447.32	4978.61
447.53	4071.36
447.73	3692.49
447.93	3401.68
448.14	3225.55
448.34	2975.70
448.55	2889.68
448.75	2828.24
448.96	2660.31
449.16	2418.65
449.36	2197.47
449.57	1988.58
449.77	1683.43
449.98	1535.98
450.18	1538.02
450.39	1476.59
450.59	1331.18
450.79	1339.37
451.00	1310.70
451.20	1398.76
451.41	1304.56
451.61	1388.52
451.81	1312.75
452.02	1419.24
452.22	1376.24
452.43	1421.29
452.63	1392.62
