SpectraSuite Data File
++++++++++++++++++++++++++++++++++++
Date: Tue May 03 11:24:17 CEST 2016
User: root
Dark Spectrum Present: No
Reference Spectrum Present: No
Number of Sampled Component Spectra: 1
Spectrometers: USB4C02835
Integration Time (usec): 100000 (USB4C02835)
Spectra Averaged: 1 (USB4C02835)
Boxcar Smoothing: 0 (USB4C02835)
Correct for Electrical Dark: No (USB4C02835)
Strobe/Lamp Enabled: No (USB4C02835)
Correct for Detector Non-linearity: No (USB4C02835)
Correct for Stray Light: No (USB4C02835)
Number of Pixels in Processed Spectrum: 3648
>>>>>Begin Processed Spectral Data<<<<<
177.47	1259.50
177.69	1259.50
177.91	1259.50
178.13	1277.93
178.36	1230.83
178.58	1327.08
178.80	1359.85
179.02	1359.85
179.24	1312.75
179.46	1353.71
179.68	1417.19
179.90	1388.52
180.13	1406.95
180.35	1351.66
180.57	1322.99
180.79	1368.04
181.01	1333.23
181.23	1376.24
181.45	1509.35
181.67	1363.95
181.90	1404.91
182.12	1406.95
182.34	1359.85
182.56	1394.67
182.78	1456.11
183.00	1386.47
183.22	1347.56
183.44	1290.22
183.66	1523.69
183.89	1419.24
184.11	1359.85
184.33	1355.76
184.55	1411.05
184.77	1400.81
184.99	1355.76
185.21	1400.81
185.43	1419.24
185.65	1353.71
185.87	1417.19
186.10	1482.73
186.32	1394.67
186.54	1413.10
186.76	1449.96
186.98	1376.24
187.20	1376.24
187.42	1392.62
187.64	1329.13
187.86	1413.10
188.08	1368.04
188.30	1347.56
188.52	1382.38
188.75	1398.76
188.97	1353.71
189.19	1306.60
189.41	1345.52
189.63	1388.52
189.85	1312.75
190.07	1255.40
190.29	1275.88
190.51	1363.95
190.73	1329.13
190.95	1513.45
191.17	1345.52
191.39	1359.85
191.61	1322.99
191.84	1417.19
192.06	1359.85
192.28	1255.40
192.50	1458.15
192.72	1353.71
192.94	1339.37
193.16	1345.52
193.38	1398.76
193.60	1312.75
193.82	1366.00
194.04	1390.57
194.26	1372.14
194.48	1425.39
194.70	1388.52
194.92	1402.86
195.14	1394.67
195.36	1423.34
195.58	1415.15
195.80	1370.09
196.02	1421.29
196.24	1382.38
196.46	1396.71
196.69	1314.80
196.91	1376.24
197.13	1300.46
197.35	1368.04
197.57	1441.77
197.79	1374.19
198.01	1417.19
198.23	1343.47
198.45	1357.80
198.67	1382.38
198.89	1404.91
199.11	1361.90
199.33	1310.70
199.55	1366.00
199.77	1282.03
199.99	1400.81
200.21	1380.33
200.43	1339.37
200.65	1335.28
200.87	1345.52
201.09	1427.43
201.31	1329.13
201.53	1431.53
201.75	1474.54
201.97	1374.19
202.19	1353.71
202.41	1394.67
202.63	1398.76
202.85	1351.66
203.07	1398.76
203.29	1327.08
203.51	1282.03
203.73	1368.04
203.95	1474.54
204.17	1386.47
204.39	1351.66
204.61	1351.66
204.83	1320.94
205.05	1382.38
205.27	1380.33
205.49	1472.49
205.71	1368.04
205.93	1398.76
206.15	1386.47
206.37	1355.76
206.59	1361.90
206.81	1316.84
207.03	1378.28
207.25	1265.64
207.47	1329.13
207.69	1372.14
207.91	1366.00
208.13	1357.80
208.34	1335.28
208.56	1316.84
208.78	1404.91
209.00	1337.32
209.22	1366.00
209.44	1345.52
209.66	1404.91
209.88	1355.76
210.10	1402.86
210.32	1302.51
210.54	1351.66
210.76	1279.98
210.98	1376.24
211.20	1320.94
211.42	1378.28
211.64	1396.71
211.86	1302.51
212.08	1378.28
212.30	1476.59
212.52	1320.94
212.74	1409.00
212.96	1413.10
213.17	1339.37
213.39	1441.77
213.61	1384.43
213.83	1421.29
214.05	1327.08
214.27	1394.67
214.49	1308.65
214.71	1390.57
214.93	1413.10
215.15	1368.04
215.37	1386.47
215.59	1298.41
215.81	1390.57
216.03	1382.38
216.24	1306.60
216.46	1372.14
216.68	1419.24
216.90	1359.85
217.12	1421.29
217.34	1380.33
217.56	1378.28
217.78	1406.95
218.00	1396.71
218.22	1277.93
218.44	1386.47
218.66	1376.24
218.87	1456.11
219.09	1318.89
219.31	1351.66
219.53	1339.37
219.75	1380.33
219.97	1331.18
220.19	1363.95
220.41	1282.03
220.63	1404.91
220.85	1409.00
221.06	1421.29
221.28	1482.73
221.50	1464.30
221.72	1394.67
221.94	1318.89
222.16	1347.56
222.38	1402.86
222.60	1380.33
222.82	1372.14
223.03	1363.95
223.25	1339.37
223.47	1353.71
223.69	1433.58
223.91	1398.76
224.13	1349.61
224.35	1361.90
224.57	1439.72
224.78	1392.62
225.00	1355.76
225.22	1384.43
225.44	1402.86
225.66	1288.17
225.88	1343.47
226.10	1411.05
226.32	1390.57
226.53	1431.53
226.75	1343.47
226.97	1458.15
227.19	1310.70
227.41	1288.17
227.63	1329.13
227.85	1261.55
228.06	1380.33
228.28	1357.80
228.50	1406.95
228.72	1333.23
228.94	1404.91
229.16	1310.70
229.37	1318.89
229.59	1396.71
229.81	1456.11
230.03	1380.33
230.25	1351.66
230.47	1411.05
230.69	1347.56
230.90	1353.71
231.12	1329.13
231.34	1363.95
231.56	1480.68
231.78	1306.60
232.00	1329.13
232.21	1443.82
232.43	1339.37
232.65	1247.21
232.87	1370.09
233.09	1292.27
233.30	1308.65
233.52	1310.70
233.74	1320.94
233.96	1259.50
234.18	1300.46
234.40	1314.80
234.61	1417.19
234.83	1331.18
235.05	1333.23
235.27	1486.83
235.49	1404.91
235.70	1347.56
235.92	1404.91
236.14	1380.33
236.36	1488.87
236.58	1316.84
236.79	1308.65
237.01	1382.38
237.23	1257.45
237.45	1427.43
237.67	1359.85
237.88	1368.04
238.10	1406.95
238.32	1413.10
238.54	1441.77
238.76	1419.24
238.97	1353.71
239.19	1380.33
239.41	1472.49
239.63	1318.89
239.85	1357.80
240.06	1357.80
240.28	1337.32
240.50	1409.00
240.72	1345.52
240.93	1333.23
241.15	1449.96
241.37	1388.52
241.59	1357.80
241.81	1343.47
242.02	1343.47
242.24	1353.71
242.46	1478.63
242.68	1355.76
242.89	1386.47
243.11	1388.52
243.33	1419.24
243.55	1417.19
243.76	1456.11
243.98	1322.99
244.20	1394.67
244.42	1368.04
244.64	1363.95
244.85	1361.90
245.07	1320.94
245.29	1447.91
245.51	1347.56
245.72	1351.66
245.94	1363.95
246.16	1355.76
246.38	1339.37
246.59	1380.33
246.81	1390.57
247.03	1337.32
247.24	1318.89
247.46	1335.28
247.68	1404.91
247.90	1417.19
248.11	1312.75
248.33	1341.42
248.55	1304.56
248.77	1406.95
248.98	1366.00
249.20	1390.57
249.42	1316.84
249.64	1417.19
249.85	1390.57
250.07	1314.80
250.29	1437.67
250.50	1433.58
250.72	1277.93
250.94	1320.94
251.16	1470.44
251.37	1404.91
251.59	1427.43
251.81	1398.76
252.02	1355.76
252.24	1359.85
252.46	1404.91
252.68	1406.95
252.89	1345.52
253.11	1347.56
253.33	1454.06
253.54	1386.47
253.76	1329.13
253.98	1392.62
254.20	1347.56
254.41	1290.22
254.63	1366.00
254.85	1308.65
255.06	1355.76
255.28	1411.05
255.50	1409.00
255.71	1279.98
255.93	1316.84
256.15	1322.99
256.36	1419.24
256.58	1394.67
256.80	1396.71
257.02	1361.90
257.23	1363.95
257.45	1402.86
257.67	1386.47
257.88	1368.04
258.10	1380.33
258.32	1368.04
258.53	1435.63
258.75	1409.00
258.97	1296.36
259.18	1302.51
259.40	1314.80
259.62	1372.14
259.83	1404.91
260.05	1368.04
260.27	1523.69
260.48	1398.76
260.70	1322.99
260.92	1388.52
261.13	1318.89
261.35	1294.32
261.57	1435.63
261.78	1343.47
262.00	1329.13
262.22	1386.47
262.43	1314.80
262.65	1388.52
262.86	1445.87
263.08	1431.53
263.30	1390.57
263.51	1271.79
263.73	1355.76
263.95	1452.01
264.16	1359.85
264.38	1316.84
264.60	1445.87
264.81	1335.28
265.03	1411.05
265.25	1374.19
265.46	1400.81
265.68	1368.04
265.89	1376.24
266.11	1361.90
266.33	1363.95
266.54	1384.43
266.76	1392.62
266.98	1392.62
267.19	1449.96
267.41	1443.82
267.62	1359.85
267.84	1337.32
268.06	1368.04
268.27	1433.58
268.49	1486.83
268.70	1427.43
268.92	1433.58
269.14	1382.38
269.35	1343.47
269.57	1322.99
269.79	1495.02
270.00	1343.47
270.22	1374.19
270.43	1439.72
270.65	1337.32
270.87	1376.24
271.08	1376.24
271.30	1419.24
271.51	1411.05
271.73	1378.28
271.95	1411.05
272.16	1376.24
272.38	1380.33
272.59	1396.71
272.81	1380.33
273.02	1419.24
273.24	1312.75
273.46	1439.72
273.67	1310.70
273.89	1265.64
274.10	1312.75
274.32	1409.00
274.54	1368.04
274.75	1368.04
274.97	1374.19
275.18	1443.82
275.40	1361.90
275.61	1427.43
275.83	1370.09
276.05	1325.04
276.26	1331.18
276.48	1378.28
276.69	1345.52
276.91	1394.67
277.12	1374.19
277.34	1429.48
277.55	1363.95
277.77	1406.95
277.99	1347.56
278.20	1388.52
278.42	1400.81
278.63	1349.61
278.85	1378.28
279.06	1363.95
279.28	1421.29
279.49	1372.14
279.71	1318.89
279.93	1392.62
280.14	1331.18
280.36	1347.56
280.57	1316.84
280.79	1437.67
281.00	1388.52
281.22	1431.53
281.43	1429.48
281.65	1294.32
281.86	1329.13
282.08	1357.80
282.29	1431.53
282.51	1343.47
282.73	1339.37
282.94	1331.18
283.16	1413.10
283.37	1384.43
283.59	1351.66
283.80	1290.22
284.02	1411.05
284.23	1394.67
284.45	1390.57
284.66	1386.47
284.88	1316.84
285.09	1386.47
285.31	1376.24
285.52	1322.99
285.74	1343.47
285.95	1343.47
286.17	1304.56
286.38	1368.04
286.60	1343.47
286.81	1359.85
287.03	1335.28
287.24	1335.28
287.46	1400.81
287.67	1445.87
287.89	1511.40
288.10	1339.37
288.32	1458.15
288.53	1404.91
288.75	1413.10
288.96	1380.33
289.18	1304.56
289.39	1312.75
289.61	1435.63
289.82	1468.39
290.04	1435.63
290.25	1392.62
290.47	1376.24
290.68	1298.41
290.90	1400.81
291.11	1341.42
291.33	1378.28
291.54	1316.84
291.76	1312.75
291.97	1404.91
292.18	1368.04
292.40	1320.94
292.61	1304.56
292.83	1513.45
293.04	1386.47
293.26	1345.52
293.47	1435.63
293.69	1374.19
293.90	1265.64
294.12	1388.52
294.33	1325.04
294.55	1411.05
294.76	1402.86
294.97	1429.48
295.19	1443.82
295.40	1417.19
295.62	1341.42
295.83	1409.00
296.05	1230.83
296.26	1327.08
296.48	1376.24
296.69	1359.85
296.90	1372.14
297.12	1341.42
297.33	1357.80
297.55	1413.10
297.76	1380.33
297.98	1363.95
298.19	1386.47
298.41	1351.66
298.62	1325.04
298.83	1449.96
299.05	1345.52
299.26	1325.04
299.48	1314.80
299.69	1318.89
299.90	1396.71
300.12	1271.79
300.33	1378.28
300.55	1349.61
300.76	1347.56
300.98	1343.47
301.19	1343.47
301.40	1355.76
301.62	1318.89
301.83	1390.57
302.05	1370.09
302.26	1411.05
302.47	1392.62
302.69	1314.80
302.90	1368.04
303.12	1245.16
303.33	1495.02
303.54	1394.67
303.76	1296.36
303.97	1380.33
304.19	1525.74
304.40	1384.43
304.61	1441.77
304.83	1400.81
305.04	1439.72
305.26	1396.71
305.47	1310.70
305.68	1427.43
305.90	1347.56
306.11	1384.43
306.33	1353.71
306.54	1333.23
306.75	1333.23
306.97	1253.36
307.18	1339.37
307.39	1413.10
307.61	1388.52
307.82	1396.71
308.04	1357.80
308.25	1374.19
308.46	1441.77
308.68	1376.24
308.89	1376.24
309.10	1445.87
309.32	1386.47
309.53	1368.04
309.74	1400.81
309.96	1286.12
310.17	1380.33
310.39	1366.00
310.60	1361.90
310.81	1372.14
311.03	1312.75
311.24	1411.05
311.45	1339.37
311.67	1398.76
311.88	1392.62
312.09	1390.57
312.31	1392.62
312.52	1460.20
312.73	1359.85
312.95	1267.69
313.16	1361.90
313.37	1439.72
313.59	1396.71
313.80	1368.04
314.01	1394.67
314.23	1347.56
314.44	1370.09
314.65	1282.03
314.87	1320.94
315.08	1357.80
315.29	1322.99
315.51	1351.66
315.72	1386.47
315.93	1417.19
316.15	1400.81
316.36	1421.29
316.57	1404.91
316.79	1372.14
317.00	1337.32
317.21	1372.14
317.43	1357.80
317.64	1402.86
317.85	1417.19
318.07	1398.76
318.28	1439.72
318.49	1599.46
318.70	1601.51
318.92	1540.07
319.13	1517.54
319.34	1558.50
319.56	1509.35
319.77	1482.73
319.98	1464.30
320.20	1404.91
320.41	1378.28
320.62	1337.32
320.83	1409.00
321.05	1429.48
321.26	1271.79
321.47	1339.37
321.69	1470.44
321.90	1286.12
322.11	1363.95
322.32	1372.14
322.54	1439.72
322.75	1413.10
322.96	1337.32
323.18	1271.79
323.39	1273.84
323.60	1286.12
323.81	1380.33
324.03	1368.04
324.24	1376.24
324.45	1372.14
324.66	1339.37
324.88	1347.56
325.09	1320.94
325.30	1341.42
325.52	1398.76
325.73	1390.57
325.94	1357.80
326.15	1263.60
326.37	1386.47
326.58	1400.81
326.79	1404.91
327.00	1308.65
327.22	1404.91
327.43	1308.65
327.64	1329.13
327.85	1396.71
328.07	1374.19
328.28	1445.87
328.49	1355.76
328.70	1341.42
328.92	1329.13
329.13	1327.08
329.34	1384.43
329.55	1454.06
329.76	1390.57
329.98	1314.80
330.19	1370.09
330.40	1359.85
330.61	1349.61
330.83	1331.18
331.04	1343.47
331.25	1384.43
331.46	1402.86
331.68	1333.23
331.89	1376.24
332.10	1417.19
332.31	1359.85
332.52	1288.17
332.74	1427.43
332.95	1343.47
333.16	1359.85
333.37	1368.04
333.58	1388.52
333.80	1308.65
334.01	1284.08
334.22	1396.71
334.43	1322.99
334.64	1382.38
334.86	1345.52
335.07	1335.28
335.28	1396.71
335.49	1329.13
335.70	1468.39
335.92	1396.71
336.13	1488.87
336.34	1392.62
336.55	1380.33
336.76	1392.62
336.98	1300.46
337.19	1337.32
337.40	1431.53
337.61	1480.68
337.82	1376.24
338.04	1339.37
338.25	1357.80
338.46	1398.76
338.67	1349.61
338.88	1314.80
339.09	1279.98
339.31	1279.98
339.52	1353.71
339.73	1304.56
339.94	1322.99
340.15	1339.37
340.36	1298.41
340.58	1425.39
340.79	1294.32
341.00	1417.19
341.21	1366.00
341.42	1439.72
341.63	1413.10
341.85	1390.57
342.06	1374.19
342.27	1306.60
342.48	1398.76
342.69	1243.12
342.90	1392.62
343.12	1402.86
343.33	1351.66
343.54	1351.66
343.75	1484.78
343.96	1357.80
344.17	1322.99
344.38	1325.04
344.60	1361.90
344.81	1306.60
345.02	1396.71
345.23	1437.67
345.44	1456.11
345.65	1482.73
345.86	1380.33
346.07	1357.80
346.29	1331.18
346.50	1423.34
346.71	1419.24
346.92	1417.19
347.13	1478.63
347.34	1370.09
347.55	1376.24
347.76	1419.24
347.98	1335.28
348.19	1382.38
348.40	1437.67
348.61	1320.94
348.82	1427.43
349.03	1368.04
349.24	1380.33
349.45	1384.43
349.66	1320.94
349.88	1382.38
350.09	1316.84
350.30	1462.25
350.51	1380.33
350.72	1437.67
350.93	1353.71
351.14	1318.89
351.35	1402.86
351.56	1349.61
351.77	1286.12
351.99	1355.76
352.20	1433.58
352.41	1404.91
352.62	1343.47
352.83	1312.75
353.04	1388.52
353.25	1349.61
353.46	1419.24
353.67	1392.62
353.88	1271.79
354.09	1343.47
354.30	1378.28
354.52	1415.15
354.73	1378.28
354.94	1320.94
355.15	1441.77
355.36	1398.76
355.57	1275.88
355.78	1427.43
355.99	1378.28
356.20	1404.91
356.41	1499.11
356.62	1314.80
356.83	1357.80
357.04	1374.19
357.25	1320.94
357.46	1363.95
357.68	1341.42
357.89	1363.95
358.10	1282.03
358.31	1318.89
358.52	1392.62
358.73	1345.52
358.94	1300.46
359.15	1390.57
359.36	1429.48
359.57	1263.60
359.78	1318.89
359.99	1314.80
360.20	1384.43
360.41	1380.33
360.62	1409.00
360.83	1392.62
361.04	1423.34
361.25	1355.76
361.46	1417.19
361.67	1486.83
361.88	1423.34
362.09	1398.76
362.30	1398.76
362.51	1322.99
362.72	1406.95
362.93	1372.14
363.14	1421.29
363.35	1363.95
363.56	1368.04
363.78	1437.67
363.99	1437.67
364.20	1370.09
364.41	1398.76
364.62	1400.81
364.83	1435.63
365.04	1327.08
365.25	1359.85
365.46	1462.25
365.67	1363.95
365.88	1351.66
366.09	1333.23
366.30	1343.47
366.51	1374.19
366.72	1339.37
366.93	1409.00
367.14	1441.77
367.35	1386.47
367.56	1345.52
367.77	1411.05
367.98	1431.53
368.18	1337.32
368.39	1460.20
368.60	1310.70
368.81	1372.14
369.02	1400.81
369.23	1396.71
369.44	1378.28
369.65	1351.66
369.86	1380.33
370.07	1425.39
370.28	1290.22
370.49	1349.61
370.70	1370.09
370.91	1359.85
371.12	1335.28
371.33	1474.54
371.54	1347.56
371.75	1445.87
371.96	1269.74
372.17	1355.76
372.38	1370.09
372.59	1380.33
372.80	1390.57
373.01	1370.09
373.22	1404.91
373.43	1421.29
373.64	1378.28
373.85	1327.08
374.06	1374.19
374.26	1404.91
374.47	1343.47
374.68	1339.37
374.89	1343.47
375.10	1341.42
375.31	1402.86
375.52	1359.85
375.73	1370.09
375.94	1382.38
376.15	1370.09
376.36	1314.80
376.57	1341.42
376.78	1384.43
376.99	1343.47
377.20	1402.86
377.40	1306.60
377.61	1409.00
377.82	1343.47
378.03	1368.04
378.24	1413.10
378.45	1368.04
378.66	1372.14
378.87	1353.71
379.08	1370.09
379.29	1353.71
379.50	1431.53
379.71	1390.57
379.91	1392.62
380.12	1304.56
380.33	1392.62
380.54	1404.91
380.75	1400.81
380.96	1359.85
381.17	1458.15
381.38	1437.67
381.59	1445.87
381.80	1423.34
382.00	1544.17
382.21	1406.95
382.42	1513.45
382.63	1497.07
382.84	1454.06
383.05	1398.76
383.26	1466.35
383.47	1466.35
383.68	1462.25
383.88	1431.53
384.09	1357.80
384.30	1435.63
384.51	1388.52
384.72	1345.52
384.93	1376.24
385.14	1406.95
385.35	1419.24
385.55	1366.00
385.76	1447.91
385.97	1339.37
386.18	1327.08
386.39	1341.42
386.60	1404.91
386.81	1366.00
387.02	1443.82
387.22	1433.58
387.43	1556.46
387.64	1589.22
387.85	2289.63
388.06	5593.00
388.27	9666.41
388.48	11568.98
388.68	13283.13
388.89	13326.13
389.10	10692.44
389.31	9287.54
389.52	8388.48
389.73	7440.27
389.93	6934.42
390.14	6633.37
390.35	6215.59
390.56	5523.37
390.77	4599.74
390.98	3694.54
391.18	2959.31
391.39	2181.09
391.60	1734.63
391.81	1574.89
392.02	1470.44
392.23	1458.15
392.43	1406.95
392.64	1398.76
392.85	1347.56
393.06	1409.00
393.27	1396.71
393.47	1396.71
393.68	1339.37
393.89	1445.87
394.10	1380.33
394.31	1370.09
394.52	1372.14
394.72	1357.80
394.93	1419.24
395.14	1335.28
395.35	1370.09
395.56	1404.91
395.76	1447.91
395.97	1654.76
396.18	1597.42
396.39	1691.62
396.60	1679.33
396.80	1621.99
397.01	1519.59
397.22	1511.40
397.43	1458.15
397.64	1474.54
397.84	1464.30
398.05	1462.25
398.26	1445.87
398.47	1425.39
398.67	1468.39
398.88	1443.82
399.09	1378.28
399.30	1398.76
399.51	1421.29
399.71	1380.33
399.92	1363.95
400.13	1411.05
400.34	1390.57
400.54	1335.28
400.75	1462.25
400.96	1380.33
401.17	1400.81
401.37	1388.52
401.58	1392.62
401.79	1452.01
402.00	1744.87
402.21	1888.23
402.41	1890.28
402.62	1826.79
402.83	1701.86
403.04	1677.29
403.24	1738.73
403.45	1566.70
403.66	1552.36
403.87	1574.89
404.07	1593.32
404.28	1525.74
404.49	1611.75
404.70	1503.21
404.90	1392.62
405.11	1343.47
405.32	1445.87
405.52	1415.15
405.73	1353.71
405.94	1335.28
406.15	1409.00
406.35	1382.38
406.56	1347.56
406.77	1368.04
406.98	1357.80
407.18	1296.36
407.39	1413.10
407.60	1366.00
407.80	1384.43
408.01	1372.14
408.22	1425.39
408.43	1368.04
408.63	1378.28
408.84	1368.04
409.05	1404.91
409.25	1341.42
409.46	1314.80
409.67	1368.04
409.88	1314.80
410.08	1370.09
410.29	1298.41
410.50	1382.38
410.70	1378.28
410.91	1351.66
411.12	1357.80
411.32	1355.76
411.53	1404.91
411.74	1460.20
411.95	1474.54
412.15	1409.00
412.36	1488.87
412.57	1349.61
412.77	1462.25
412.98	1406.95
413.19	1339.37
413.39	1347.56
413.60	1386.47
413.81	1441.77
414.01	1372.14
414.22	1400.81
414.43	1390.57
414.63	1431.53
414.84	1380.33
415.05	1382.38
415.25	1343.47
415.46	1507.30
415.67	1349.61
415.87	1413.10
416.08	1415.15
416.29	1366.00
416.49	1368.04
416.70	1363.95
416.91	1372.14
417.11	1374.19
417.32	1327.08
417.53	1447.91
417.73	1343.47
417.94	1320.94
418.15	1372.14
418.35	1413.10
418.56	1363.95
418.77	1368.04
418.97	1333.23
419.18	1368.04
419.38	1322.99
419.59	1325.04
419.80	1400.81
420.00	1322.99
420.21	1411.05
420.42	1441.77
420.62	1404.91
420.83	1372.14
421.04	1411.05
421.24	1394.67
421.45	1339.37
421.65	1374.19
421.86	1349.61
422.07	1398.76
422.27	1392.62
422.48	1388.52
422.69	1341.42
422.89	1337.32
423.10	1368.04
423.30	1359.85
423.51	1376.24
423.72	1345.52
423.92	1441.77
424.13	1333.23
424.33	1345.52
424.54	1363.95
424.75	1296.36
424.95	1388.52
425.16	1347.56
425.36	1292.27
425.57	1474.54
425.78	1386.47
425.98	1382.38
426.19	1325.04
426.39	1300.46
426.60	1421.29
426.81	1363.95
427.01	1374.19
427.22	1335.28
427.42	1310.70
427.63	1335.28
427.83	1427.43
428.04	1411.05
428.25	1406.95
428.45	1433.58
428.66	1353.71
428.86	1417.19
429.07	1419.24
429.28	1359.85
429.48	1316.84
429.69	1294.32
429.89	1427.43
430.10	1355.76
430.30	1402.86
430.51	1429.48
430.71	1339.37
430.92	1372.14
431.13	1378.28
431.33	1341.42
431.54	1402.86
431.74	1386.47
431.95	1511.40
432.15	1357.80
432.36	1363.95
432.56	1445.87
432.77	1370.09
432.98	1462.25
433.18	1331.18
433.39	1376.24
433.59	1314.80
433.80	1398.76
434.00	1476.59
434.21	1288.17
434.41	1351.66
434.62	1433.58
434.82	1318.89
435.03	1284.08
435.23	1404.91
435.44	1363.95
435.64	1355.76
435.85	1380.33
436.06	1368.04
436.26	1368.04
436.47	1320.94
436.67	1392.62
436.88	1341.42
437.08	1400.81
437.29	1325.04
437.49	1333.23
437.70	1419.24
437.90	1460.20
438.11	1542.12
438.31	1441.77
438.52	1578.98
438.72	1581.03
438.93	1673.19
439.13	1423.34
439.34	1462.25
439.54	1400.81
439.75	1447.91
439.95	1431.53
440.16	1359.85
440.36	1402.86
440.57	1417.19
440.77	1400.81
440.98	1378.28
441.18	1390.57
441.39	1339.37
441.59	1302.51
441.80	1413.10
442.00	1427.43
442.21	1400.81
442.41	1349.61
442.62	1433.58
442.82	1322.99
443.02	1363.95
443.23	1445.87
443.43	1392.62
443.64	1388.52
443.84	1378.28
444.05	1486.83
444.25	1327.08
444.46	1322.99
444.66	1384.43
444.87	1437.67
445.07	1341.42
445.28	1331.18
445.48	1443.82
445.69	1388.52
445.89	1419.24
446.09	1605.61
446.30	2238.43
446.50	3788.74
446.71	4794.29
446.91	5326.77
447.12	5584.81
447.32	4982.71
447.53	4155.33
447.73	3829.70
447.93	3450.83
448.14	3207.12
448.34	2871.25
448.55	2834.39
448.75	2787.29
448.96	2650.07
449.16	2447.32
449.36	2117.60
449.57	1927.14
449.77	1677.29
449.98	1615.85
450.18	1423.34
450.39	1490.92
450.59	1413.10
450.79	1421.29
451.00	1380.33
451.20	1427.43
451.41	1404.91
451.61	1402.86
451.81	1417.19
452.02	1359.85
452.22	1349.61
452.43	1327.08
452.63	1357.80
