SpectraSuite Data File
++++++++++++++++++++++++++++++++++++
Date: Tue May 03 11:24:09 CEST 2016
User: root
Dark Spectrum Present: No
Reference Spectrum Present: No
Number of Sampled Component Spectra: 1
Spectrometers: USB4C02835
Integration Time (usec): 100000 (USB4C02835)
Spectra Averaged: 1 (USB4C02835)
Boxcar Smoothing: 0 (USB4C02835)
Correct for Electrical Dark: No (USB4C02835)
Strobe/Lamp Enabled: No (USB4C02835)
Correct for Detector Non-linearity: No (USB4C02835)
Correct for Stray Light: No (USB4C02835)
Number of Pixels in Processed Spectrum: 3648
>>>>>Begin Processed Spectral Data<<<<<
177.47	1261.55
177.69	1261.55
177.91	1261.55
178.13	1232.88
178.36	1206.25
178.58	1384.43
178.80	1396.71
179.02	1263.60
179.24	1331.18
179.46	1335.28
179.68	1402.86
179.90	1325.04
180.13	1267.69
180.35	1359.85
180.57	1423.34
180.79	1333.23
181.01	1380.33
181.23	1525.74
181.45	1443.82
181.67	1386.47
181.90	1398.76
182.12	1347.56
182.34	1359.85
182.56	1304.56
182.78	1380.33
183.00	1386.47
183.22	1314.80
183.44	1310.70
183.66	1445.87
183.89	1396.71
184.11	1413.10
184.33	1347.56
184.55	1400.81
184.77	1394.67
184.99	1423.34
185.21	1343.47
185.43	1402.86
185.65	1314.80
185.87	1464.30
186.10	1439.72
186.32	1363.95
186.54	1402.86
186.76	1376.24
186.98	1396.71
187.20	1337.32
187.42	1353.71
187.64	1411.05
187.86	1314.80
188.08	1296.36
188.30	1382.38
188.52	1286.12
188.75	1368.04
188.97	1357.80
189.19	1368.04
189.41	1372.14
189.63	1353.71
189.85	1382.38
190.07	1310.70
190.29	1304.56
190.51	1396.71
190.73	1312.75
190.95	1419.24
191.17	1359.85
191.39	1335.28
191.61	1322.99
191.84	1263.60
192.06	1376.24
192.28	1322.99
192.50	1468.39
192.72	1466.35
192.94	1361.90
193.16	1421.29
193.38	1304.56
193.60	1329.13
193.82	1329.13
194.04	1370.09
194.26	1370.09
194.48	1335.28
194.70	1320.94
194.92	1341.42
195.14	1386.47
195.36	1368.04
195.58	1361.90
195.80	1296.36
196.02	1322.99
196.24	1431.53
196.46	1376.24
196.69	1335.28
196.91	1523.69
197.13	1290.22
197.35	1388.52
197.57	1404.91
197.79	1298.41
198.01	1409.00
198.23	1413.10
198.45	1384.43
198.67	1337.32
198.89	1388.52
199.11	1347.56
199.33	1361.90
199.55	1302.51
199.77	1361.90
199.99	1394.67
200.21	1306.60
200.43	1376.24
200.65	1349.61
200.87	1247.21
201.09	1421.29
201.31	1361.90
201.53	1421.29
201.75	1406.95
201.97	1304.56
202.19	1366.00
202.41	1345.52
202.63	1474.54
202.85	1384.43
203.07	1384.43
203.29	1392.62
203.51	1322.99
203.73	1378.28
203.95	1464.30
204.17	1366.00
204.39	1376.24
204.61	1413.10
204.83	1415.15
205.05	1445.87
205.27	1419.24
205.49	1394.67
205.71	1378.28
205.93	1327.08
206.15	1378.28
206.37	1421.29
206.59	1339.37
206.81	1349.61
207.03	1374.19
207.25	1273.84
207.47	1400.81
207.69	1308.65
207.91	1482.73
208.13	1390.57
208.34	1411.05
208.56	1296.36
208.78	1363.95
209.00	1411.05
209.22	1347.56
209.44	1376.24
209.66	1271.79
209.88	1429.48
210.10	1386.47
210.32	1384.43
210.54	1390.57
210.76	1366.00
210.98	1462.25
211.20	1275.88
211.42	1376.24
211.64	1409.00
211.86	1417.19
212.08	1359.85
212.30	1374.19
212.52	1286.12
212.74	1394.67
212.96	1411.05
213.17	1439.72
213.39	1314.80
213.61	1388.52
213.83	1359.85
214.05	1392.62
214.27	1435.63
214.49	1277.93
214.71	1333.23
214.93	1361.90
215.15	1329.13
215.37	1335.28
215.59	1431.53
215.81	1396.71
216.03	1435.63
216.24	1370.09
216.46	1380.33
216.68	1421.29
216.90	1398.76
217.12	1400.81
217.34	1429.48
217.56	1402.86
217.78	1366.00
218.00	1419.24
218.22	1312.75
218.44	1357.80
218.66	1374.19
218.87	1386.47
219.09	1417.19
219.31	1347.56
219.53	1318.89
219.75	1298.41
219.97	1327.08
220.19	1417.19
220.41	1374.19
220.63	1423.34
220.85	1411.05
221.06	1370.09
221.28	1370.09
221.50	1441.77
221.72	1380.33
221.94	1359.85
222.16	1404.91
222.38	1392.62
222.60	1404.91
222.82	1368.04
223.03	1310.70
223.25	1302.51
223.47	1429.48
223.69	1413.10
223.91	1368.04
224.13	1370.09
224.35	1380.33
224.57	1468.39
224.78	1417.19
225.00	1316.84
225.22	1355.76
225.44	1427.43
225.66	1423.34
225.88	1341.42
226.10	1390.57
226.32	1486.83
226.53	1359.85
226.75	1400.81
226.97	1335.28
227.19	1423.34
227.41	1333.23
227.63	1427.43
227.85	1275.88
228.06	1384.43
228.28	1351.66
228.50	1396.71
228.72	1359.85
228.94	1314.80
229.16	1335.28
229.37	1343.47
229.59	1353.71
229.81	1484.78
230.03	1415.15
230.25	1353.71
230.47	1386.47
230.69	1292.27
230.90	1380.33
231.12	1359.85
231.34	1400.81
231.56	1355.76
231.78	1368.04
232.00	1382.38
232.21	1359.85
232.43	1343.47
232.65	1261.55
232.87	1386.47
233.09	1366.00
233.30	1269.74
233.52	1333.23
233.74	1374.19
233.96	1282.03
234.18	1370.09
234.40	1331.18
234.61	1523.69
234.83	1357.80
235.05	1320.94
235.27	1439.72
235.49	1447.91
235.70	1406.95
235.92	1394.67
236.14	1460.20
236.36	1456.11
236.58	1355.76
236.79	1429.48
237.01	1337.32
237.23	1359.85
237.45	1413.10
237.67	1409.00
237.88	1339.37
238.10	1460.20
238.32	1382.38
238.54	1370.09
238.76	1376.24
238.97	1368.04
239.19	1378.28
239.41	1486.83
239.63	1480.68
239.85	1308.65
240.06	1327.08
240.28	1372.14
240.50	1398.76
240.72	1435.63
240.93	1339.37
241.15	1390.57
241.37	1376.24
241.59	1443.82
241.81	1300.46
242.02	1308.65
242.24	1396.71
242.46	1345.52
242.68	1298.41
242.89	1445.87
243.11	1392.62
243.33	1366.00
243.55	1298.41
243.76	1404.91
243.98	1318.89
244.20	1361.90
244.42	1423.34
244.64	1392.62
244.85	1292.27
245.07	1314.80
245.29	1427.43
245.51	1396.71
245.72	1386.47
245.94	1335.28
246.16	1331.18
246.38	1372.14
246.59	1310.70
246.81	1282.03
247.03	1396.71
247.24	1286.12
247.46	1357.80
247.68	1363.95
247.90	1396.71
248.11	1327.08
248.33	1368.04
248.55	1347.56
248.77	1357.80
248.98	1433.58
249.20	1411.05
249.42	1374.19
249.64	1419.24
249.85	1357.80
250.07	1380.33
250.29	1337.32
250.50	1355.76
250.72	1347.56
250.94	1353.71
251.16	1390.57
251.37	1402.86
251.59	1409.00
251.81	1318.89
252.02	1402.86
252.24	1396.71
252.46	1392.62
252.68	1216.49
252.89	1372.14
253.11	1261.55
253.33	1417.19
253.54	1368.04
253.76	1288.17
253.98	1284.08
254.20	1386.47
254.41	1320.94
254.63	1390.57
254.85	1292.27
255.06	1388.52
255.28	1390.57
255.50	1421.29
255.71	1380.33
255.93	1263.60
256.15	1384.43
256.36	1351.66
256.58	1318.89
256.80	1427.43
257.02	1382.38
257.23	1304.56
257.45	1396.71
257.67	1386.47
257.88	1298.41
258.10	1327.08
258.32	1402.86
258.53	1306.60
258.75	1402.86
258.97	1318.89
259.18	1413.10
259.40	1386.47
259.62	1394.67
259.83	1425.39
260.05	1456.11
260.27	1574.89
260.48	1359.85
260.70	1357.80
260.92	1355.76
261.13	1355.76
261.35	1413.10
261.57	1398.76
261.78	1294.32
262.00	1312.75
262.22	1396.71
262.43	1353.71
262.65	1417.19
262.86	1378.28
263.08	1351.66
263.30	1427.43
263.51	1343.47
263.73	1347.56
263.95	1355.76
264.16	1327.08
264.38	1357.80
264.60	1314.80
264.81	1392.62
265.03	1441.77
265.25	1363.95
265.46	1357.80
265.68	1417.19
265.89	1386.47
266.11	1357.80
266.33	1376.24
266.54	1359.85
266.76	1363.95
266.98	1490.92
267.19	1372.14
267.41	1392.62
267.62	1337.32
267.84	1322.99
268.06	1386.47
268.27	1374.19
268.49	1433.58
268.70	1355.76
268.92	1429.48
269.14	1384.43
269.35	1320.94
269.57	1388.52
269.79	1419.24
270.00	1392.62
270.22	1398.76
270.43	1363.95
270.65	1322.99
270.87	1349.61
271.08	1343.47
271.30	1368.04
271.51	1361.90
271.73	1386.47
271.95	1345.52
272.16	1284.08
272.38	1419.24
272.59	1392.62
272.81	1372.14
273.02	1386.47
273.24	1419.24
273.46	1374.19
273.67	1355.76
273.89	1380.33
274.10	1292.27
274.32	1349.61
274.54	1415.15
274.75	1421.29
274.97	1314.80
275.18	1425.39
275.40	1398.76
275.61	1314.80
275.83	1411.05
276.05	1351.66
276.26	1288.17
276.48	1366.00
276.69	1337.32
276.91	1353.71
277.12	1394.67
277.34	1394.67
277.55	1345.52
277.77	1329.13
277.99	1421.29
278.20	1312.75
278.42	1310.70
278.63	1318.89
278.85	1325.04
279.06	1337.32
279.28	1378.28
279.49	1355.76
279.71	1347.56
279.93	1361.90
280.14	1339.37
280.36	1347.56
280.57	1452.01
280.79	1411.05
281.00	1392.62
281.22	1341.42
281.43	1431.53
281.65	1314.80
281.86	1341.42
282.08	1398.76
282.29	1411.05
282.51	1284.08
282.73	1333.23
282.94	1384.43
283.16	1431.53
283.37	1441.77
283.59	1353.71
283.80	1345.52
284.02	1378.28
284.23	1318.89
284.45	1427.43
284.66	1339.37
284.88	1339.37
285.09	1325.04
285.31	1431.53
285.52	1433.58
285.74	1325.04
285.95	1419.24
286.17	1337.32
286.38	1363.95
286.60	1320.94
286.81	1378.28
287.03	1345.52
287.24	1279.98
287.46	1390.57
287.67	1345.52
287.89	1355.76
288.10	1372.14
288.32	1310.70
288.53	1423.34
288.75	1443.82
288.96	1402.86
289.18	1292.27
289.39	1466.35
289.61	1413.10
289.82	1484.78
290.04	1435.63
290.25	1322.99
290.47	1349.61
290.68	1327.08
290.90	1411.05
291.11	1265.64
291.33	1402.86
291.54	1333.23
291.76	1386.47
291.97	1370.09
292.18	1429.48
292.40	1345.52
292.61	1402.86
292.83	1429.48
293.04	1388.52
293.26	1406.95
293.47	1345.52
293.69	1282.03
293.90	1355.76
294.12	1388.52
294.33	1376.24
294.55	1374.19
294.76	1343.47
294.97	1372.14
295.19	1511.40
295.40	1413.10
295.62	1357.80
295.83	1454.06
296.05	1331.18
296.26	1476.59
296.48	1320.94
296.69	1353.71
296.90	1312.75
297.12	1441.77
297.33	1390.57
297.55	1351.66
297.76	1429.48
297.98	1359.85
298.19	1353.71
298.41	1320.94
298.62	1331.18
298.83	1404.91
299.05	1345.52
299.26	1355.76
299.48	1351.66
299.69	1314.80
299.90	1345.52
300.12	1341.42
300.33	1357.80
300.55	1386.47
300.76	1388.52
300.98	1271.79
301.19	1419.24
301.40	1382.38
301.62	1380.33
301.83	1341.42
302.05	1337.32
302.26	1376.24
302.47	1296.36
302.69	1304.56
302.90	1343.47
303.12	1302.51
303.33	1357.80
303.54	1454.06
303.76	1310.70
303.97	1421.29
304.19	1353.71
304.40	1327.08
304.61	1386.47
304.83	1429.48
305.04	1394.67
305.26	1329.13
305.47	1398.76
305.68	1384.43
305.90	1345.52
306.11	1427.43
306.33	1335.28
306.54	1341.42
306.75	1286.12
306.97	1282.03
307.18	1329.13
307.39	1308.65
307.61	1437.67
307.82	1282.03
308.04	1449.96
308.25	1357.80
308.46	1351.66
308.68	1378.28
308.89	1327.08
309.10	1386.47
309.32	1409.00
309.53	1327.08
309.74	1355.76
309.96	1363.95
310.17	1392.62
310.39	1279.98
310.60	1394.67
310.81	1435.63
311.03	1320.94
311.24	1304.56
311.45	1320.94
311.67	1441.77
311.88	1431.53
312.09	1337.32
312.31	1327.08
312.52	1337.32
312.73	1331.18
312.95	1341.42
313.16	1304.56
313.37	1425.39
313.59	1241.07
313.80	1462.25
314.01	1421.29
314.23	1353.71
314.44	1347.56
314.65	1271.79
314.87	1292.27
315.08	1380.33
315.29	1419.24
315.51	1329.13
315.72	1363.95
315.93	1499.11
316.15	1413.10
316.36	1357.80
316.57	1380.33
316.79	1347.56
317.00	1320.94
317.21	1366.00
317.43	1310.70
317.64	1372.14
317.85	1372.14
318.07	1441.77
318.28	1576.94
318.49	1505.26
318.70	1656.81
318.92	1458.15
319.13	1431.53
319.34	1515.50
319.56	1445.87
319.77	1443.82
319.98	1423.34
320.20	1445.87
320.41	1433.58
320.62	1431.53
320.83	1314.80
321.05	1495.02
321.26	1419.24
321.47	1388.52
321.69	1384.43
321.90	1396.71
322.11	1388.52
322.32	1415.15
322.54	1454.06
322.75	1337.32
322.96	1423.34
323.18	1363.95
323.39	1265.64
323.60	1331.18
323.81	1355.76
324.03	1366.00
324.24	1357.80
324.45	1333.23
324.66	1357.80
324.88	1341.42
325.09	1380.33
325.30	1355.76
325.52	1372.14
325.73	1341.42
325.94	1402.86
326.15	1304.56
326.37	1322.99
326.58	1380.33
326.79	1470.44
327.00	1284.08
327.22	1396.71
327.43	1325.04
327.64	1419.24
327.85	1372.14
328.07	1325.04
328.28	1382.38
328.49	1347.56
328.70	1335.28
328.92	1335.28
329.13	1372.14
329.34	1228.78
329.55	1396.71
329.76	1413.10
329.98	1372.14
330.19	1394.67
330.40	1353.71
330.61	1368.04
330.83	1427.43
331.04	1347.56
331.25	1394.67
331.46	1345.52
331.68	1306.60
331.89	1394.67
332.10	1347.56
332.31	1337.32
332.52	1341.42
332.74	1398.76
332.95	1380.33
333.16	1392.62
333.37	1411.05
333.58	1394.67
333.80	1384.43
334.01	1318.89
334.22	1368.04
334.43	1300.46
334.64	1345.52
334.86	1288.17
335.07	1304.56
335.28	1382.38
335.49	1302.51
335.70	1329.13
335.92	1382.38
336.13	1433.58
336.34	1413.10
336.55	1406.95
336.76	1353.71
336.98	1296.36
337.19	1409.00
337.40	1443.82
337.61	1503.21
337.82	1312.75
338.04	1390.57
338.25	1304.56
338.46	1370.09
338.67	1331.18
338.88	1294.32
339.09	1314.80
339.31	1392.62
339.52	1372.14
339.73	1370.09
339.94	1325.04
340.15	1431.53
340.36	1411.05
340.58	1400.81
340.79	1298.41
341.00	1378.28
341.21	1396.71
341.42	1398.76
341.63	1331.18
341.85	1372.14
342.06	1318.89
342.27	1347.56
342.48	1454.06
342.69	1277.93
342.90	1359.85
343.12	1363.95
343.33	1306.60
343.54	1413.10
343.75	1425.39
343.96	1370.09
344.17	1370.09
344.38	1351.66
344.60	1366.00
344.81	1300.46
345.02	1339.37
345.23	1347.56
345.44	1501.16
345.65	1316.84
345.86	1413.10
346.07	1353.71
346.29	1339.37
346.50	1439.72
346.71	1351.66
346.92	1388.52
347.13	1406.95
347.34	1368.04
347.55	1394.67
347.76	1388.52
347.98	1298.41
348.19	1316.84
348.40	1376.24
348.61	1288.17
348.82	1421.29
349.03	1378.28
349.24	1370.09
349.45	1392.62
349.66	1259.50
349.88	1347.56
350.09	1363.95
350.30	1398.76
350.51	1398.76
350.72	1343.47
350.93	1357.80
351.14	1347.56
351.35	1425.39
351.56	1427.43
351.77	1431.53
351.99	1374.19
352.20	1363.95
352.41	1439.72
352.62	1366.00
352.83	1329.13
353.04	1302.51
353.25	1320.94
353.46	1376.24
353.67	1343.47
353.88	1396.71
354.09	1449.96
354.30	1351.66
354.52	1343.47
354.73	1275.88
354.94	1351.66
355.15	1384.43
355.36	1423.34
355.57	1345.52
355.78	1394.67
355.99	1339.37
356.20	1353.71
356.41	1386.47
356.62	1421.29
356.83	1443.82
357.04	1443.82
357.25	1310.70
357.46	1341.42
357.68	1345.52
357.89	1380.33
358.10	1400.81
358.31	1347.56
358.52	1363.95
358.73	1284.08
358.94	1329.13
359.15	1294.32
359.36	1501.16
359.57	1380.33
359.78	1349.61
359.99	1409.00
360.20	1333.23
360.41	1388.52
360.62	1376.24
360.83	1376.24
361.04	1314.80
361.25	1402.86
361.46	1396.71
361.67	1355.76
361.88	1478.63
362.09	1433.58
362.30	1331.18
362.51	1345.52
362.72	1423.34
362.93	1419.24
363.14	1411.05
363.35	1363.95
363.56	1353.71
363.78	1380.33
363.99	1318.89
364.20	1337.32
364.41	1449.96
364.62	1341.42
364.83	1380.33
365.04	1388.52
365.25	1431.53
365.46	1441.77
365.67	1394.67
365.88	1386.47
366.09	1423.34
366.30	1347.56
366.51	1386.47
366.72	1333.23
366.93	1386.47
367.14	1406.95
367.35	1396.71
367.56	1400.81
367.77	1425.39
367.98	1380.33
368.18	1456.11
368.39	1372.14
368.60	1298.41
368.81	1409.00
369.02	1329.13
369.23	1347.56
369.44	1316.84
369.65	1304.56
369.86	1400.81
370.07	1462.25
370.28	1341.42
370.49	1341.42
370.70	1415.15
370.91	1353.71
371.12	1368.04
371.33	1396.71
371.54	1359.85
371.75	1441.77
371.96	1269.74
372.17	1322.99
372.38	1302.51
372.59	1425.39
372.80	1386.47
373.01	1400.81
373.22	1363.95
373.43	1384.43
373.64	1314.80
373.85	1452.01
374.06	1486.83
374.26	1406.95
374.47	1402.86
374.68	1435.63
374.89	1429.48
375.10	1357.80
375.31	1445.87
375.52	1337.32
375.73	1476.59
375.94	1284.08
376.15	1378.28
376.36	1421.29
376.57	1355.76
376.78	1388.52
376.99	1425.39
377.20	1406.95
377.40	1327.08
377.61	1462.25
377.82	1396.71
378.03	1400.81
378.24	1400.81
378.45	1402.86
378.66	1378.28
378.87	1449.96
379.08	1306.60
379.29	1370.09
379.50	1427.43
379.71	1415.15
379.91	1411.05
380.12	1406.95
380.33	1441.77
380.54	1380.33
380.75	1343.47
380.96	1406.95
381.17	1402.86
381.38	1368.04
381.59	1462.25
381.80	1431.53
382.00	1501.16
382.21	1419.24
382.42	1458.15
382.63	1527.78
382.84	1419.24
383.05	1406.95
383.26	1390.57
383.47	1439.72
383.68	1427.43
383.88	1372.14
384.09	1462.25
384.30	1413.10
384.51	1441.77
384.72	1347.56
384.93	1327.08
385.14	1366.00
385.35	1368.04
385.55	1327.08
385.76	1431.53
385.97	1497.07
386.18	1351.66
386.39	1366.00
386.60	1402.86
386.81	1353.71
387.02	1345.52
387.22	1404.91
387.43	1556.46
387.64	1533.93
387.85	2297.82
388.06	5765.03
388.27	9473.90
388.48	11517.78
388.68	13137.72
388.89	13498.16
389.10	10588.00
389.31	9156.47
389.52	8601.47
389.73	7378.83
389.93	6854.55
390.14	6520.73
390.35	5867.43
390.56	5373.87
390.77	4556.73
390.98	3665.86
391.18	2813.91
391.39	2021.35
391.60	1748.97
391.81	1568.74
392.02	1343.47
392.23	1492.97
392.43	1400.81
392.64	1439.72
392.85	1396.71
393.06	1421.29
393.27	1404.91
393.47	1394.67
393.68	1363.95
393.89	1400.81
394.10	1431.53
394.31	1282.03
394.52	1296.36
394.72	1396.71
394.93	1458.15
395.14	1322.99
395.35	1404.91
395.56	1439.72
395.76	1445.87
395.97	1531.88
396.18	1517.54
396.39	1621.99
396.60	1679.33
396.80	1558.50
397.01	1552.36
397.22	1435.63
397.43	1509.35
397.64	1394.67
397.84	1562.60
398.05	1476.59
398.26	1431.53
398.47	1464.30
398.67	1423.34
398.88	1386.47
399.09	1404.91
399.30	1314.80
399.51	1392.62
399.71	1378.28
399.92	1296.36
400.13	1511.40
400.34	1294.32
400.54	1380.33
400.75	1384.43
400.96	1337.32
401.17	1413.10
401.37	1386.47
401.58	1437.67
401.79	1484.78
402.00	1761.25
402.21	1785.83
402.41	1771.49
402.62	1867.75
402.83	1728.49
403.04	1607.66
403.24	1761.25
403.45	1517.54
403.66	1558.50
403.87	1578.98
404.07	1558.50
404.28	1603.56
404.49	1609.70
404.70	1492.97
404.90	1478.63
405.11	1417.19
405.32	1466.35
405.52	1417.19
405.73	1339.37
405.94	1415.15
406.15	1372.14
406.35	1413.10
406.56	1454.06
406.77	1355.76
406.98	1396.71
407.18	1361.90
407.39	1400.81
407.60	1363.95
407.80	1427.43
408.01	1363.95
408.22	1337.32
408.43	1329.13
408.63	1404.91
408.84	1421.29
409.05	1372.14
409.25	1417.19
409.46	1339.37
409.67	1396.71
409.88	1318.89
410.08	1335.28
410.29	1337.32
410.50	1400.81
410.70	1380.33
410.91	1298.41
411.12	1423.34
411.32	1380.33
411.53	1439.72
411.74	1441.77
411.95	1607.66
412.15	1476.59
412.36	1366.00
412.57	1468.39
412.77	1431.53
412.98	1388.52
413.19	1361.90
413.39	1454.06
413.60	1376.24
413.81	1507.30
414.01	1402.86
414.22	1456.11
414.43	1517.54
414.63	1366.00
414.84	1482.73
415.05	1396.71
415.25	1359.85
415.46	1402.86
415.67	1400.81
415.87	1421.29
416.08	1409.00
416.29	1384.43
416.49	1427.43
416.70	1345.52
416.91	1308.65
417.11	1378.28
417.32	1349.61
417.53	1421.29
417.73	1423.34
417.94	1388.52
418.15	1304.56
418.35	1376.24
418.56	1331.18
418.77	1421.29
418.97	1357.80
419.18	1374.19
419.38	1226.73
419.59	1310.70
419.80	1415.15
420.00	1363.95
420.21	1339.37
420.42	1368.04
420.62	1404.91
420.83	1341.42
421.04	1370.09
421.24	1368.04
421.45	1357.80
421.65	1447.91
421.86	1335.28
422.07	1394.67
422.27	1353.71
422.48	1308.65
422.69	1292.27
422.89	1368.04
423.10	1308.65
423.30	1312.75
423.51	1366.00
423.72	1445.87
423.92	1376.24
424.13	1304.56
424.33	1421.29
424.54	1445.87
424.75	1316.84
424.95	1390.57
425.16	1382.38
425.36	1316.84
425.57	1404.91
425.78	1374.19
425.98	1339.37
426.19	1347.56
426.39	1308.65
426.60	1382.38
426.81	1464.30
427.01	1372.14
427.22	1378.28
427.42	1310.70
427.63	1370.09
427.83	1382.38
428.04	1404.91
428.25	1421.29
428.45	1435.63
428.66	1359.85
428.86	1347.56
429.07	1304.56
429.28	1339.37
429.48	1312.75
429.69	1298.41
429.89	1308.65
430.10	1368.04
430.30	1366.00
430.51	1394.67
430.71	1263.60
430.92	1333.23
431.13	1318.89
431.33	1310.70
431.54	1396.71
431.74	1400.81
431.95	1404.91
432.15	1261.55
432.36	1406.95
432.56	1460.20
432.77	1406.95
432.98	1392.62
433.18	1363.95
433.39	1347.56
433.59	1388.52
433.80	1417.19
434.00	1480.68
434.21	1302.51
434.41	1322.99
434.62	1411.05
434.82	1308.65
435.03	1347.56
435.23	1402.86
435.44	1306.60
435.64	1370.09
435.85	1390.57
436.06	1396.71
436.26	1515.50
436.47	1376.24
436.67	1351.66
436.88	1376.24
437.08	1366.00
437.29	1419.24
437.49	1380.33
437.70	1411.05
437.90	1484.78
438.11	1529.83
438.31	1443.82
438.52	1550.31
438.72	1554.41
438.93	1560.55
439.13	1439.72
439.34	1454.06
439.54	1404.91
439.75	1515.50
439.95	1425.39
440.16	1398.76
440.36	1384.43
440.57	1441.77
440.77	1384.43
440.98	1423.34
441.18	1452.01
441.39	1306.60
441.59	1294.32
441.80	1429.48
442.00	1417.19
442.21	1378.28
442.41	1312.75
442.62	1417.19
442.82	1380.33
443.02	1429.48
443.23	1488.87
443.43	1384.43
443.64	1406.95
443.84	1329.13
444.05	1501.16
444.25	1392.62
444.46	1347.56
444.66	1357.80
444.87	1404.91
445.07	1327.08
445.28	1429.48
445.48	1427.43
445.69	1427.43
445.89	1464.30
446.09	1474.54
446.30	2330.59
446.50	3616.71
446.71	4652.98
446.91	5314.48
447.12	5623.72
447.32	4990.90
447.53	4206.53
447.73	3786.69
447.93	3370.96
448.14	3207.12
448.34	3049.43
448.55	2785.24
448.75	2809.81
448.96	2693.08
449.16	2271.20
449.36	2230.24
449.57	1906.66
449.77	1705.96
449.98	1523.69
450.18	1560.55
450.39	1458.15
450.59	1388.52
450.79	1433.58
451.00	1417.19
451.20	1370.09
451.41	1415.15
451.61	1382.38
451.81	1417.19
452.02	1329.13
452.22	1325.04
452.43	1329.13
452.63	1357.80
