SpectraSuite Data File
++++++++++++++++++++++++++++++++++++
Date: Tue May 03 11:24:12 CEST 2016
User: root
Dark Spectrum Present: No
Reference Spectrum Present: No
Number of Sampled Component Spectra: 1
Spectrometers: USB4C02835
Integration Time (usec): 100000 (USB4C02835)
Spectra Averaged: 1 (USB4C02835)
Boxcar Smoothing: 0 (USB4C02835)
Correct for Electrical Dark: No (USB4C02835)
Strobe/Lamp Enabled: No (USB4C02835)
Correct for Detector Non-linearity: No (USB4C02835)
Correct for Stray Light: No (USB4C02835)
Number of Pixels in Processed Spectrum: 3648
>>>>>Begin Processed Spectral Data<<<<<
177.47	1157.10
177.69	1157.10
177.91	1157.10
178.13	1191.92
178.36	1247.21
178.58	1363.95
178.80	1404.91
179.02	1300.46
179.24	1366.00
179.46	1333.23
179.68	1441.77
179.90	1417.19
180.13	1398.76
180.35	1353.71
180.57	1384.43
180.79	1363.95
181.01	1316.84
181.23	1363.95
181.45	1329.13
181.67	1331.18
181.90	1370.09
182.12	1370.09
182.34	1396.71
182.56	1347.56
182.78	1409.00
183.00	1382.38
183.22	1343.47
183.44	1253.36
183.66	1429.48
183.89	1523.69
184.11	1329.13
184.33	1327.08
184.55	1388.52
184.77	1329.13
184.99	1415.15
185.21	1325.04
185.43	1429.48
185.65	1384.43
185.87	1376.24
186.10	1398.76
186.32	1452.01
186.54	1468.39
186.76	1488.87
186.98	1325.04
187.20	1394.67
187.42	1345.52
187.64	1372.14
187.86	1378.28
188.08	1329.13
188.30	1398.76
188.52	1368.04
188.75	1437.67
188.97	1425.39
189.19	1306.60
189.41	1298.41
189.63	1329.13
189.85	1335.28
190.07	1376.24
190.29	1271.79
190.51	1378.28
190.73	1251.31
190.95	1349.61
191.17	1370.09
191.39	1322.99
191.61	1353.71
191.84	1349.61
192.06	1368.04
192.28	1288.17
192.50	1462.25
192.72	1349.61
192.94	1368.04
193.16	1366.00
193.38	1353.71
193.60	1353.71
193.82	1312.75
194.04	1433.58
194.26	1460.20
194.48	1359.85
194.70	1335.28
194.92	1322.99
195.14	1386.47
195.36	1327.08
195.58	1427.43
195.80	1366.00
196.02	1388.52
196.24	1366.00
196.46	1398.76
196.69	1411.05
196.91	1484.78
197.13	1361.90
197.35	1339.37
197.57	1339.37
197.79	1361.90
198.01	1355.76
198.23	1347.56
198.45	1380.33
198.67	1366.00
198.89	1345.52
199.11	1318.89
199.33	1361.90
199.55	1273.84
199.77	1396.71
199.99	1406.95
200.21	1341.42
200.43	1421.29
200.65	1263.60
200.87	1325.04
201.09	1343.47
201.31	1290.22
201.53	1386.47
201.75	1331.18
201.97	1347.56
202.19	1359.85
202.41	1372.14
202.63	1413.10
202.85	1351.66
203.07	1325.04
203.29	1411.05
203.51	1382.38
203.73	1325.04
203.95	1449.96
204.17	1339.37
204.39	1411.05
204.61	1411.05
204.83	1380.33
205.05	1443.82
205.27	1419.24
205.49	1366.00
205.71	1277.93
205.93	1282.03
206.15	1349.61
206.37	1316.84
206.59	1394.67
206.81	1314.80
207.03	1343.47
207.25	1331.18
207.47	1402.86
207.69	1257.45
207.91	1439.72
208.13	1404.91
208.34	1345.52
208.56	1370.09
208.78	1329.13
209.00	1349.61
209.22	1284.08
209.44	1423.34
209.66	1337.32
209.88	1296.36
210.10	1343.47
210.32	1390.57
210.54	1492.97
210.76	1386.47
210.98	1413.10
211.20	1359.85
211.42	1411.05
211.64	1370.09
211.86	1353.71
212.08	1372.14
212.30	1392.62
212.52	1298.41
212.74	1312.75
212.96	1368.04
213.17	1355.76
213.39	1394.67
213.61	1445.87
213.83	1421.29
214.05	1357.80
214.27	1402.86
214.49	1402.86
214.71	1345.52
214.93	1490.92
215.15	1333.23
215.37	1394.67
215.59	1284.08
215.81	1400.81
216.03	1384.43
216.24	1357.80
216.46	1382.38
216.68	1433.58
216.90	1343.47
217.12	1343.47
217.34	1374.19
217.56	1409.00
217.78	1429.48
218.00	1372.14
218.22	1394.67
218.44	1392.62
218.66	1273.84
218.87	1376.24
219.09	1339.37
219.31	1384.43
219.53	1370.09
219.75	1335.28
219.97	1273.84
220.19	1376.24
220.41	1406.95
220.63	1421.29
220.85	1398.76
221.06	1333.23
221.28	1341.42
221.50	1392.62
221.72	1347.56
221.94	1378.28
222.16	1339.37
222.38	1378.28
222.60	1421.29
222.82	1329.13
223.03	1409.00
223.25	1355.76
223.47	1368.04
223.69	1445.87
223.91	1409.00
224.13	1419.24
224.35	1386.47
224.57	1384.43
224.78	1468.39
225.00	1290.22
225.22	1363.95
225.44	1423.34
225.66	1343.47
225.88	1314.80
226.10	1398.76
226.32	1308.65
226.53	1421.29
226.75	1345.52
226.97	1347.56
227.19	1327.08
227.41	1329.13
227.63	1325.04
227.85	1331.18
228.06	1337.32
228.28	1368.04
228.50	1402.86
228.72	1398.76
228.94	1314.80
229.16	1333.23
229.37	1345.52
229.59	1355.76
229.81	1361.90
230.03	1417.19
230.25	1331.18
230.47	1296.36
230.69	1343.47
230.90	1374.19
231.12	1427.43
231.34	1429.48
231.56	1413.10
231.78	1368.04
232.00	1316.84
232.21	1439.72
232.43	1335.28
232.65	1310.70
232.87	1404.91
233.09	1339.37
233.30	1310.70
233.52	1404.91
233.74	1370.09
233.96	1425.39
234.18	1439.72
234.40	1343.47
234.61	1427.43
234.83	1351.66
235.05	1288.17
235.27	1454.06
235.49	1443.82
235.70	1374.19
235.92	1396.71
236.14	1411.05
236.36	1478.63
236.58	1286.12
236.79	1351.66
237.01	1335.28
237.23	1380.33
237.45	1441.77
237.67	1353.71
237.88	1449.96
238.10	1433.58
238.32	1341.42
238.54	1337.32
238.76	1376.24
238.97	1316.84
239.19	1310.70
239.41	1392.62
239.63	1411.05
239.85	1312.75
240.06	1411.05
240.28	1363.95
240.50	1271.79
240.72	1363.95
240.93	1378.28
241.15	1470.44
241.37	1398.76
241.59	1460.20
241.81	1335.28
242.02	1363.95
242.24	1366.00
242.46	1398.76
242.68	1296.36
242.89	1366.00
243.11	1437.67
243.33	1374.19
243.55	1386.47
243.76	1415.15
243.98	1325.04
244.20	1320.94
244.42	1363.95
244.64	1396.71
244.85	1359.85
245.07	1374.19
245.29	1400.81
245.51	1372.14
245.72	1400.81
245.94	1452.01
246.16	1343.47
246.38	1400.81
246.59	1302.51
246.81	1409.00
247.03	1306.60
247.24	1333.23
247.46	1392.62
247.68	1351.66
247.90	1339.37
248.11	1361.90
248.33	1411.05
248.55	1372.14
248.77	1431.53
248.98	1411.05
249.20	1366.00
249.42	1349.61
249.64	1355.76
249.85	1349.61
250.07	1325.04
250.29	1396.71
250.50	1466.35
250.72	1349.61
250.94	1370.09
251.16	1482.73
251.37	1474.54
251.59	1411.05
251.81	1337.32
252.02	1380.33
252.24	1363.95
252.46	1341.42
252.68	1314.80
252.89	1380.33
253.11	1277.93
253.33	1413.10
253.54	1355.76
253.76	1296.36
253.98	1320.94
254.20	1384.43
254.41	1355.76
254.63	1282.03
254.85	1417.19
255.06	1333.23
255.28	1413.10
255.50	1298.41
255.71	1322.99
255.93	1322.99
256.15	1398.76
256.36	1335.28
256.58	1333.23
256.80	1392.62
257.02	1329.13
257.23	1370.09
257.45	1392.62
257.67	1404.91
257.88	1300.46
258.10	1429.48
258.32	1335.28
258.53	1386.47
258.75	1478.63
258.97	1417.19
259.18	1404.91
259.40	1366.00
259.62	1374.19
259.83	1386.47
260.05	1310.70
260.27	1560.55
260.48	1316.84
260.70	1286.12
260.92	1351.66
261.13	1345.52
261.35	1327.08
261.57	1406.95
261.78	1325.04
262.00	1329.13
262.22	1433.58
262.43	1343.47
262.65	1351.66
262.86	1452.01
263.08	1472.49
263.30	1460.20
263.51	1372.14
263.73	1327.08
263.95	1380.33
264.16	1325.04
264.38	1384.43
264.60	1368.04
264.81	1392.62
265.03	1384.43
265.25	1413.10
265.46	1304.56
265.68	1415.15
265.89	1406.95
266.11	1263.60
266.33	1341.42
266.54	1388.52
266.76	1327.08
266.98	1378.28
267.19	1390.57
267.41	1472.49
267.62	1353.71
267.84	1294.32
268.06	1413.10
268.27	1353.71
268.49	1347.56
268.70	1359.85
268.92	1441.77
269.14	1290.22
269.35	1347.56
269.57	1359.85
269.79	1376.24
270.00	1388.52
270.22	1404.91
270.43	1300.46
270.65	1236.97
270.87	1394.67
271.08	1439.72
271.30	1423.34
271.51	1368.04
271.73	1411.05
271.95	1443.82
272.16	1372.14
272.38	1304.56
272.59	1325.04
272.81	1372.14
273.02	1411.05
273.24	1433.58
273.46	1425.39
273.67	1370.09
273.89	1361.90
274.10	1331.18
274.32	1458.15
274.54	1390.57
274.75	1406.95
274.97	1355.76
275.18	1460.20
275.40	1345.52
275.61	1343.47
275.83	1378.28
276.05	1310.70
276.26	1353.71
276.48	1447.91
276.69	1370.09
276.91	1284.08
277.12	1370.09
277.34	1402.86
277.55	1402.86
277.77	1396.71
277.99	1357.80
278.20	1370.09
278.42	1325.04
278.63	1320.94
278.85	1343.47
279.06	1353.71
279.28	1415.15
279.49	1351.66
279.71	1380.33
279.93	1277.93
280.14	1341.42
280.36	1376.24
280.57	1468.39
280.79	1423.34
281.00	1376.24
281.22	1374.19
281.43	1423.34
281.65	1312.75
281.86	1392.62
282.08	1406.95
282.29	1470.44
282.51	1300.46
282.73	1363.95
282.94	1341.42
283.16	1402.86
283.37	1429.48
283.59	1411.05
283.80	1370.09
284.02	1417.19
284.23	1413.10
284.45	1363.95
284.66	1325.04
284.88	1339.37
285.09	1339.37
285.31	1376.24
285.52	1322.99
285.74	1341.42
285.95	1423.34
286.17	1411.05
286.38	1456.11
286.60	1331.18
286.81	1349.61
287.03	1417.19
287.24	1312.75
287.46	1376.24
287.67	1355.76
287.89	1492.97
288.10	1345.52
288.32	1327.08
288.53	1384.43
288.75	1390.57
288.96	1359.85
289.18	1265.64
289.39	1347.56
289.61	1353.71
289.82	1351.66
290.04	1361.90
290.25	1335.28
290.47	1363.95
290.68	1378.28
290.90	1398.76
291.11	1290.22
291.33	1355.76
291.54	1306.60
291.76	1339.37
291.97	1423.34
292.18	1396.71
292.40	1372.14
292.61	1345.52
292.83	1474.54
293.04	1425.39
293.26	1341.42
293.47	1413.10
293.69	1363.95
293.90	1368.04
294.12	1435.63
294.33	1316.84
294.55	1310.70
294.76	1374.19
294.97	1396.71
295.19	1415.15
295.40	1392.62
295.62	1355.76
295.83	1337.32
296.05	1318.89
296.26	1380.33
296.48	1363.95
296.69	1327.08
296.90	1341.42
297.12	1406.95
297.33	1435.63
297.55	1372.14
297.76	1304.56
297.98	1439.72
298.19	1331.18
298.41	1351.66
298.62	1327.08
298.83	1415.15
299.05	1404.91
299.26	1355.76
299.48	1390.57
299.69	1411.05
299.90	1310.70
300.12	1304.56
300.33	1443.82
300.55	1415.15
300.76	1390.57
300.98	1318.89
301.19	1394.67
301.40	1398.76
301.62	1271.79
301.83	1433.58
302.05	1372.14
302.26	1382.38
302.47	1329.13
302.69	1335.28
302.90	1337.32
303.12	1347.56
303.33	1435.63
303.54	1386.47
303.76	1361.90
303.97	1349.61
304.19	1439.72
304.40	1288.17
304.61	1355.76
304.83	1388.52
305.04	1411.05
305.26	1372.14
305.47	1349.61
305.68	1380.33
305.90	1312.75
306.11	1431.53
306.33	1331.18
306.54	1316.84
306.75	1339.37
306.97	1343.47
307.18	1267.69
307.39	1304.56
307.61	1382.38
307.82	1322.99
308.04	1361.90
308.25	1271.79
308.46	1378.28
308.68	1331.18
308.89	1318.89
309.10	1427.43
309.32	1382.38
309.53	1337.32
309.74	1406.95
309.96	1427.43
310.17	1331.18
310.39	1355.76
310.60	1359.85
310.81	1351.66
311.03	1366.00
311.24	1427.43
311.45	1406.95
311.67	1411.05
311.88	1437.67
312.09	1458.15
312.31	1353.71
312.52	1378.28
312.73	1359.85
312.95	1345.52
313.16	1331.18
313.37	1429.48
313.59	1409.00
313.80	1392.62
314.01	1337.32
314.23	1368.04
314.44	1298.41
314.65	1331.18
314.87	1347.56
315.08	1341.42
315.29	1312.75
315.51	1282.03
315.72	1337.32
315.93	1429.48
316.15	1351.66
316.36	1292.27
316.57	1376.24
316.79	1402.86
317.00	1273.84
317.21	1288.17
317.43	1411.05
317.64	1386.47
317.85	1351.66
318.07	1435.63
318.28	1482.73
318.49	1542.12
318.70	1591.27
318.92	1511.40
319.13	1527.78
319.34	1562.60
319.56	1470.44
319.77	1513.45
319.98	1417.19
320.20	1363.95
320.41	1470.44
320.62	1392.62
320.83	1359.85
321.05	1507.30
321.26	1384.43
321.47	1388.52
321.69	1384.43
321.90	1409.00
322.11	1337.32
322.32	1374.19
322.54	1435.63
322.75	1327.08
322.96	1423.34
323.18	1302.51
323.39	1314.80
323.60	1366.00
323.81	1372.14
324.03	1415.15
324.24	1355.76
324.45	1351.66
324.66	1316.84
324.88	1445.87
325.09	1419.24
325.30	1392.62
325.52	1386.47
325.73	1331.18
325.94	1345.52
326.15	1282.03
326.37	1361.90
326.58	1429.48
326.79	1372.14
327.00	1308.65
327.22	1386.47
327.43	1335.28
327.64	1380.33
327.85	1441.77
328.07	1286.12
328.28	1406.95
328.49	1370.09
328.70	1345.52
328.92	1380.33
329.13	1374.19
329.34	1370.09
329.55	1417.19
329.76	1458.15
329.98	1347.56
330.19	1435.63
330.40	1370.09
330.61	1419.24
330.83	1335.28
331.04	1353.71
331.25	1386.47
331.46	1325.04
331.68	1318.89
331.89	1439.72
332.10	1402.86
332.31	1232.88
332.52	1363.95
332.74	1476.59
332.95	1386.47
333.16	1380.33
333.37	1429.48
333.58	1370.09
333.80	1359.85
334.01	1380.33
334.22	1402.86
334.43	1355.76
334.64	1339.37
334.86	1292.27
335.07	1390.57
335.28	1372.14
335.49	1368.04
335.70	1368.04
335.92	1452.01
336.13	1472.49
336.34	1429.48
336.55	1384.43
336.76	1374.19
336.98	1277.93
337.19	1267.69
337.40	1429.48
337.61	1445.87
337.82	1419.24
338.04	1396.71
338.25	1339.37
338.46	1308.65
338.67	1380.33
338.88	1378.28
339.09	1341.42
339.31	1279.98
339.52	1345.52
339.73	1302.51
339.94	1388.52
340.15	1339.37
340.36	1382.38
340.58	1419.24
340.79	1349.61
341.00	1409.00
341.21	1437.67
341.42	1482.73
341.63	1413.10
341.85	1363.95
342.06	1402.86
342.27	1257.45
342.48	1472.49
342.69	1322.99
342.90	1337.32
343.12	1417.19
343.33	1339.37
343.54	1431.53
343.75	1435.63
343.96	1279.98
344.17	1333.23
344.38	1345.52
344.60	1353.71
344.81	1345.52
345.02	1378.28
345.23	1406.95
345.44	1478.63
345.65	1478.63
345.86	1337.32
346.07	1351.66
346.29	1380.33
346.50	1431.53
346.71	1431.53
346.92	1400.81
347.13	1409.00
347.34	1366.00
347.55	1394.67
347.76	1404.91
347.98	1269.74
348.19	1318.89
348.40	1411.05
348.61	1386.47
348.82	1386.47
349.03	1376.24
349.24	1327.08
349.45	1437.67
349.66	1308.65
349.88	1322.99
350.09	1325.04
350.30	1353.71
350.51	1380.33
350.72	1329.13
350.93	1374.19
351.14	1415.15
351.35	1384.43
351.56	1329.13
351.77	1392.62
351.99	1378.28
352.20	1458.15
352.41	1392.62
352.62	1329.13
352.83	1425.39
353.04	1351.66
353.25	1322.99
353.46	1312.75
353.67	1402.86
353.88	1253.36
354.09	1361.90
354.30	1443.82
354.52	1388.52
354.73	1310.70
354.94	1357.80
355.15	1372.14
355.36	1441.77
355.57	1327.08
355.78	1431.53
355.99	1384.43
356.20	1417.19
356.41	1376.24
356.62	1413.10
356.83	1388.52
357.04	1380.33
357.25	1363.95
357.46	1378.28
357.68	1306.60
357.89	1302.51
358.10	1372.14
358.31	1320.94
358.52	1353.71
358.73	1271.79
358.94	1331.18
359.15	1345.52
359.36	1419.24
359.57	1372.14
359.78	1353.71
359.99	1306.60
360.20	1355.76
360.41	1320.94
360.62	1433.58
360.83	1435.63
361.04	1355.76
361.25	1345.52
361.46	1435.63
361.67	1415.15
361.88	1327.08
362.09	1378.28
362.30	1456.11
362.51	1366.00
362.72	1380.33
362.93	1363.95
363.14	1413.10
363.35	1370.09
363.56	1351.66
363.78	1386.47
363.99	1372.14
364.20	1318.89
364.41	1431.53
364.62	1464.30
364.83	1374.19
365.04	1421.29
365.25	1325.04
365.46	1386.47
365.67	1398.76
365.88	1374.19
366.09	1341.42
366.30	1343.47
366.51	1382.38
366.72	1296.36
366.93	1327.08
367.14	1327.08
367.35	1394.67
367.56	1376.24
367.77	1370.09
367.98	1335.28
368.18	1388.52
368.39	1392.62
368.60	1355.76
368.81	1388.52
369.02	1374.19
369.23	1359.85
369.44	1310.70
369.65	1318.89
369.86	1370.09
370.07	1402.86
370.28	1335.28
370.49	1419.24
370.70	1396.71
370.91	1351.66
371.12	1327.08
371.33	1386.47
371.54	1333.23
371.75	1454.06
371.96	1314.80
372.17	1400.81
372.38	1322.99
372.59	1374.19
372.80	1370.09
373.01	1392.62
373.22	1370.09
373.43	1347.56
373.64	1347.56
373.85	1363.95
374.06	1435.63
374.26	1437.67
374.47	1372.14
374.68	1372.14
374.89	1413.10
375.10	1310.70
375.31	1355.76
375.52	1300.46
375.73	1333.23
375.94	1327.08
376.15	1431.53
376.36	1310.70
376.57	1384.43
376.78	1351.66
376.99	1374.19
377.20	1499.11
377.40	1294.32
377.61	1421.29
377.82	1320.94
378.03	1419.24
378.24	1390.57
378.45	1331.18
378.66	1331.18
378.87	1271.79
379.08	1404.91
379.29	1374.19
379.50	1427.43
379.71	1378.28
379.91	1404.91
380.12	1316.84
380.33	1390.57
380.54	1415.15
380.75	1335.28
380.96	1433.58
381.17	1363.95
381.38	1443.82
381.59	1456.11
381.80	1478.63
382.00	1458.15
382.21	1431.53
382.42	1456.11
382.63	1513.45
382.84	1388.52
383.05	1441.77
383.26	1458.15
383.47	1449.96
383.68	1452.01
383.88	1329.13
384.09	1341.42
384.30	1482.73
384.51	1325.04
384.72	1374.19
384.93	1331.18
385.14	1402.86
385.35	1394.67
385.55	1366.00
385.76	1474.54
385.97	1345.52
386.18	1355.76
386.39	1366.00
386.60	1402.86
386.81	1339.37
387.02	1384.43
387.22	1382.38
387.43	1415.15
387.64	1535.98
387.85	2328.54
388.06	5746.60
388.27	9459.57
388.48	11685.71
388.68	13012.79
388.89	13408.05
389.10	10594.14
389.31	9342.83
389.52	8324.99
389.73	7182.23
389.93	6907.80
390.14	6428.57
390.35	6115.23
390.56	5531.56
390.77	4597.69
390.98	3647.43
391.18	2910.16
391.39	2115.55
391.60	1816.55
391.81	1556.46
392.02	1447.91
392.23	1470.44
392.43	1404.91
392.64	1437.67
392.85	1370.09
393.06	1464.30
393.27	1404.91
393.47	1251.31
393.68	1437.67
393.89	1370.09
394.10	1402.86
394.31	1308.65
394.52	1378.28
394.72	1302.51
394.93	1468.39
395.14	1388.52
395.35	1372.14
395.56	1404.91
395.76	1480.68
395.97	1517.54
396.18	1517.54
396.39	1552.36
396.60	1665.00
396.80	1540.07
397.01	1501.16
397.22	1525.74
397.43	1480.68
397.64	1411.05
397.84	1535.98
398.05	1490.92
398.26	1462.25
398.47	1458.15
398.67	1404.91
398.88	1363.95
399.09	1386.47
399.30	1363.95
399.51	1378.28
399.71	1296.36
399.92	1363.95
400.13	1431.53
400.34	1382.38
400.54	1310.70
400.75	1402.86
400.96	1464.30
401.17	1499.11
401.37	1445.87
401.58	1423.34
401.79	1495.02
402.00	1765.35
402.21	1837.03
402.41	1798.12
402.62	1757.16
402.83	1687.53
403.04	1714.15
403.24	1716.20
403.45	1562.60
403.66	1650.66
403.87	1540.07
404.07	1574.89
404.28	1497.07
404.49	1495.02
404.70	1449.96
404.90	1421.29
405.11	1478.63
405.32	1427.43
405.52	1333.23
405.73	1409.00
405.94	1331.18
406.15	1380.33
406.35	1421.29
406.56	1353.71
406.77	1400.81
406.98	1345.52
407.18	1247.21
407.39	1419.24
407.60	1384.43
407.80	1384.43
408.01	1345.52
408.22	1310.70
408.43	1335.28
408.63	1406.95
408.84	1435.63
409.05	1400.81
409.25	1386.47
409.46	1351.66
409.67	1318.89
409.88	1382.38
410.08	1370.09
410.29	1359.85
410.50	1415.15
410.70	1353.71
410.91	1263.60
411.12	1392.62
411.32	1370.09
411.53	1423.34
411.74	1470.44
411.95	1417.19
412.15	1437.67
412.36	1437.67
412.57	1437.67
412.77	1492.97
412.98	1443.82
413.19	1363.95
413.39	1460.20
413.60	1421.29
413.81	1486.83
414.01	1372.14
414.22	1372.14
414.43	1464.30
414.63	1386.47
414.84	1384.43
415.05	1415.15
415.25	1236.97
415.46	1392.62
415.67	1384.43
415.87	1406.95
416.08	1441.77
416.29	1290.22
416.49	1429.48
416.70	1368.04
416.91	1339.37
417.11	1329.13
417.32	1419.24
417.53	1404.91
417.73	1374.19
417.94	1417.19
418.15	1427.43
418.35	1425.39
418.56	1376.24
418.77	1392.62
418.97	1404.91
419.18	1411.05
419.38	1304.56
419.59	1406.95
419.80	1503.21
420.00	1384.43
420.21	1357.80
420.42	1372.14
420.62	1402.86
420.83	1421.29
421.04	1376.24
421.24	1386.47
421.45	1361.90
421.65	1374.19
421.86	1333.23
422.07	1306.60
422.27	1417.19
422.48	1361.90
422.69	1318.89
422.89	1355.76
423.10	1361.90
423.30	1320.94
423.51	1357.80
423.72	1394.67
423.92	1349.61
424.13	1304.56
424.33	1357.80
424.54	1339.37
424.75	1316.84
424.95	1390.57
425.16	1411.05
425.36	1325.04
425.57	1406.95
425.78	1282.03
425.98	1374.19
426.19	1343.47
426.39	1427.43
426.60	1380.33
426.81	1417.19
427.01	1380.33
427.22	1406.95
427.42	1325.04
427.63	1380.33
427.83	1400.81
428.04	1476.59
428.25	1458.15
428.45	1421.29
428.66	1411.05
428.86	1349.61
429.07	1337.32
429.28	1370.09
429.48	1351.66
429.69	1306.60
429.89	1353.71
430.10	1353.71
430.30	1447.91
430.51	1470.44
430.71	1306.60
430.92	1443.82
431.13	1267.69
431.33	1390.57
431.54	1406.95
431.74	1372.14
431.95	1337.32
432.15	1302.51
432.36	1421.29
432.56	1372.14
432.77	1441.77
432.98	1429.48
433.18	1351.66
433.39	1343.47
433.59	1368.04
433.80	1486.83
434.00	1527.78
434.21	1361.90
434.41	1318.89
434.62	1433.58
434.82	1349.61
435.03	1294.32
435.23	1343.47
435.44	1345.52
435.64	1415.15
435.85	1419.24
436.06	1378.28
436.26	1419.24
436.47	1341.42
436.67	1337.32
436.88	1406.95
437.08	1402.86
437.29	1449.96
437.49	1390.57
437.70	1378.28
437.90	1372.14
438.11	1548.26
438.31	1482.73
438.52	1466.35
438.72	1521.64
438.93	1523.69
439.13	1495.02
439.34	1482.73
439.54	1419.24
439.75	1421.29
439.95	1456.11
440.16	1390.57
440.36	1378.28
440.57	1447.91
440.77	1423.34
440.98	1355.76
441.18	1435.63
441.39	1353.71
441.59	1271.79
441.80	1490.92
442.00	1368.04
442.21	1406.95
442.41	1308.65
442.62	1398.76
442.82	1374.19
443.02	1413.10
443.23	1435.63
443.43	1355.76
443.64	1495.02
443.84	1357.80
444.05	1437.67
444.25	1437.67
444.46	1429.48
444.66	1329.13
444.87	1433.58
445.07	1249.26
445.28	1417.19
445.48	1437.67
445.69	1396.71
445.89	1454.06
446.09	1533.93
446.30	2260.96
446.50	3719.11
446.71	4683.70
446.91	5320.62
447.12	5521.32
447.32	5042.10
447.53	4278.21
447.73	3786.69
447.93	3592.14
448.14	3141.58
448.34	3037.14
448.55	2828.24
448.75	2820.05
448.96	2648.02
449.16	2334.68
449.36	2213.85
449.57	1974.24
449.77	1705.96
449.98	1550.31
450.18	1548.26
450.39	1443.82
450.59	1480.68
450.79	1392.62
451.00	1368.04
451.20	1417.19
451.41	1363.95
451.61	1425.39
451.81	1316.84
452.02	1413.10
452.22	1349.61
452.43	1400.81
452.63	1341.42
