SpectraSuite Data File
++++++++++++++++++++++++++++++++++++
Date: Tue May 03 11:24:15 CEST 2016
User: root
Dark Spectrum Present: No
Reference Spectrum Present: No
Number of Sampled Component Spectra: 1
Spectrometers: USB4C02835
Integration Time (usec): 100000 (USB4C02835)
Spectra Averaged: 1 (USB4C02835)
Boxcar Smoothing: 0 (USB4C02835)
Correct for Electrical Dark: No (USB4C02835)
Strobe/Lamp Enabled: No (USB4C02835)
Correct for Detector Non-linearity: No (USB4C02835)
Correct for Stray Light: No (USB4C02835)
Number of Pixels in Processed Spectrum: 3648
>>>>>Begin Processed Spectral Data<<<<<
177.47	1239.02
177.69	1239.02
177.91	1239.02
178.13	1222.64
178.36	1216.49
178.58	1339.37
178.80	1322.99
179.02	1320.94
179.24	1351.66
179.46	1300.46
179.68	1419.24
179.90	1347.56
180.13	1345.52
180.35	1361.90
180.57	1351.66
180.79	1380.33
181.01	1329.13
181.23	1343.47
181.45	1396.71
181.67	1318.89
181.90	1366.00
182.12	1374.19
182.34	1394.67
182.56	1325.04
182.78	1316.84
183.00	1282.03
183.22	1306.60
183.44	1376.24
183.66	1470.44
183.89	1417.19
184.11	1345.52
184.33	1392.62
184.55	1454.06
184.77	1392.62
184.99	1404.91
185.21	1339.37
185.43	1474.54
185.65	1322.99
185.87	1329.13
186.10	1370.09
186.32	1507.30
186.54	1380.33
186.76	1429.48
186.98	1378.28
187.20	1376.24
187.42	1374.19
187.64	1298.41
187.86	1402.86
188.08	1394.67
188.30	1384.43
188.52	1312.75
188.75	1409.00
188.97	1402.86
189.19	1380.33
189.41	1372.14
189.63	1329.13
189.85	1392.62
190.07	1349.61
190.29	1376.24
190.51	1404.91
190.73	1320.94
190.95	1333.23
191.17	1337.32
191.39	1329.13
191.61	1384.43
191.84	1361.90
192.06	1353.71
192.28	1341.42
192.50	1443.82
192.72	1400.81
192.94	1298.41
193.16	1415.15
193.38	1366.00
193.60	1335.28
193.82	1370.09
194.04	1361.90
194.26	1349.61
194.48	1290.22
194.70	1339.37
194.92	1335.28
195.14	1335.28
195.36	1318.89
195.58	1419.24
195.80	1355.76
196.02	1347.56
196.24	1372.14
196.46	1458.15
196.69	1290.22
196.91	1384.43
197.13	1296.36
197.35	1284.08
197.57	1413.10
197.79	1413.10
198.01	1325.04
198.23	1390.57
198.45	1425.39
198.67	1374.19
198.89	1370.09
199.11	1372.14
199.33	1327.08
199.55	1292.27
199.77	1368.04
199.99	1452.01
200.21	1386.47
200.43	1376.24
200.65	1333.23
200.87	1292.27
201.09	1411.05
201.31	1329.13
201.53	1437.67
201.75	1454.06
201.97	1337.32
202.19	1376.24
202.41	1294.32
202.63	1404.91
202.85	1355.76
203.07	1376.24
203.29	1398.76
203.51	1394.67
203.73	1417.19
203.95	1454.06
204.17	1419.24
204.39	1398.76
204.61	1458.15
204.83	1368.04
205.05	1363.95
205.27	1322.99
205.49	1409.00
205.71	1353.71
205.93	1269.74
206.15	1370.09
206.37	1388.52
206.59	1370.09
206.81	1298.41
207.03	1320.94
207.25	1357.80
207.47	1458.15
207.69	1327.08
207.91	1376.24
208.13	1492.97
208.34	1366.00
208.56	1376.24
208.78	1312.75
209.00	1421.29
209.22	1294.32
209.44	1421.29
209.66	1331.18
209.88	1458.15
210.10	1419.24
210.32	1370.09
210.54	1507.30
210.76	1331.18
210.98	1402.86
211.20	1241.07
211.42	1437.67
211.64	1351.66
211.86	1382.38
212.08	1361.90
212.30	1462.25
212.52	1259.50
212.74	1329.13
212.96	1322.99
213.17	1447.91
213.39	1398.76
213.61	1431.53
213.83	1427.43
214.05	1290.22
214.27	1384.43
214.49	1329.13
214.71	1310.70
214.93	1400.81
215.15	1374.19
215.37	1327.08
215.59	1341.42
215.81	1388.52
216.03	1472.49
216.24	1378.28
216.46	1306.60
216.68	1396.71
216.90	1421.29
217.12	1396.71
217.34	1304.56
217.56	1427.43
217.78	1413.10
218.00	1429.48
218.22	1361.90
218.44	1386.47
218.66	1464.30
218.87	1421.29
219.09	1370.09
219.31	1404.91
219.53	1417.19
219.75	1339.37
219.97	1359.85
220.19	1357.80
220.41	1337.32
220.63	1396.71
220.85	1378.28
221.06	1339.37
221.28	1402.86
221.50	1370.09
221.72	1337.32
221.94	1333.23
222.16	1345.52
222.38	1394.67
222.60	1409.00
222.82	1343.47
223.03	1406.95
223.25	1380.33
223.47	1447.91
223.69	1421.29
223.91	1390.57
224.13	1380.33
224.35	1363.95
224.57	1454.06
224.78	1355.76
225.00	1357.80
225.22	1296.36
225.44	1427.43
225.66	1400.81
225.88	1355.76
226.10	1437.67
226.32	1316.84
226.53	1439.72
226.75	1335.28
226.97	1292.27
227.19	1382.38
227.41	1310.70
227.63	1388.52
227.85	1359.85
228.06	1372.14
228.28	1351.66
228.50	1492.97
228.72	1355.76
228.94	1298.41
229.16	1435.63
229.37	1294.32
229.59	1298.41
229.81	1445.87
230.03	1316.84
230.25	1304.56
230.47	1310.70
230.69	1335.28
230.90	1415.15
231.12	1370.09
231.34	1355.76
231.56	1363.95
231.78	1308.65
232.00	1351.66
232.21	1398.76
232.43	1368.04
232.65	1290.22
232.87	1335.28
233.09	1341.42
233.30	1327.08
233.52	1335.28
233.74	1318.89
233.96	1355.76
234.18	1353.71
234.40	1390.57
234.61	1322.99
234.83	1372.14
235.05	1337.32
235.27	1435.63
235.49	1456.11
235.70	1347.56
235.92	1443.82
236.14	1396.71
236.36	1435.63
236.58	1372.14
236.79	1386.47
237.01	1370.09
237.23	1386.47
237.45	1490.92
237.67	1288.17
237.88	1279.98
238.10	1386.47
238.32	1294.32
238.54	1331.18
238.76	1425.39
238.97	1329.13
239.19	1314.80
239.41	1409.00
239.63	1460.20
239.85	1355.76
240.06	1441.77
240.28	1353.71
240.50	1374.19
240.72	1421.29
240.93	1347.56
241.15	1409.00
241.37	1437.67
241.59	1425.39
241.81	1378.28
242.02	1337.32
242.24	1386.47
242.46	1347.56
242.68	1406.95
242.89	1452.01
243.11	1378.28
243.33	1398.76
243.55	1329.13
243.76	1421.29
243.98	1370.09
244.20	1363.95
244.42	1433.58
244.64	1335.28
244.85	1284.08
245.07	1302.51
245.29	1421.29
245.51	1329.13
245.72	1431.53
245.94	1333.23
246.16	1452.01
246.38	1384.43
246.59	1370.09
246.81	1263.60
247.03	1277.93
247.24	1353.71
247.46	1368.04
247.68	1372.14
247.90	1421.29
248.11	1363.95
248.33	1406.95
248.55	1370.09
248.77	1316.84
248.98	1449.96
249.20	1413.10
249.42	1351.66
249.64	1388.52
249.85	1413.10
250.07	1394.67
250.29	1456.11
250.50	1390.57
250.72	1372.14
250.94	1341.42
251.16	1413.10
251.37	1474.54
251.59	1433.58
251.81	1353.71
252.02	1341.42
252.24	1388.52
252.46	1398.76
252.68	1423.34
252.89	1312.75
253.11	1341.42
253.33	1476.59
253.54	1353.71
253.76	1314.80
253.98	1337.32
254.20	1398.76
254.41	1282.03
254.63	1417.19
254.85	1249.26
255.06	1265.64
255.28	1337.32
255.50	1331.18
255.71	1320.94
255.93	1247.21
256.15	1409.00
256.36	1339.37
256.58	1351.66
256.80	1347.56
257.02	1320.94
257.23	1460.20
257.45	1402.86
257.67	1386.47
257.88	1335.28
258.10	1357.80
258.32	1390.57
258.53	1372.14
258.75	1320.94
258.97	1359.85
259.18	1361.90
259.40	1269.74
259.62	1394.67
259.83	1470.44
260.05	1339.37
260.27	1570.79
260.48	1320.94
260.70	1337.32
260.92	1343.47
261.13	1411.05
261.35	1396.71
261.57	1411.05
261.78	1349.61
262.00	1318.89
262.22	1331.18
262.43	1331.18
262.65	1409.00
262.86	1357.80
263.08	1472.49
263.30	1382.38
263.51	1275.88
263.73	1370.09
263.95	1474.54
264.16	1347.56
264.38	1296.36
264.60	1382.38
264.81	1335.28
265.03	1376.24
265.25	1380.33
265.46	1433.58
265.68	1335.28
265.89	1423.34
266.11	1318.89
266.33	1331.18
266.54	1476.59
266.76	1322.99
266.98	1454.06
267.19	1390.57
267.41	1417.19
267.62	1361.90
267.84	1298.41
268.06	1368.04
268.27	1327.08
268.49	1394.67
268.70	1392.62
268.92	1409.00
269.14	1359.85
269.35	1247.21
269.57	1351.66
269.79	1288.17
270.00	1351.66
270.22	1511.40
270.43	1400.81
270.65	1318.89
270.87	1355.76
271.08	1347.56
271.30	1374.19
271.51	1290.22
271.73	1411.05
271.95	1447.91
272.16	1406.95
272.38	1384.43
272.59	1314.80
272.81	1359.85
273.02	1404.91
273.24	1380.33
273.46	1384.43
273.67	1294.32
273.89	1335.28
274.10	1306.60
274.32	1421.29
274.54	1398.76
274.75	1322.99
274.97	1353.71
275.18	1398.76
275.40	1429.48
275.61	1351.66
275.83	1349.61
276.05	1282.03
276.26	1277.93
276.48	1359.85
276.69	1300.46
276.91	1382.38
277.12	1388.52
277.34	1437.67
277.55	1341.42
277.77	1376.24
277.99	1386.47
278.20	1261.55
278.42	1345.52
278.63	1327.08
278.85	1372.14
279.06	1349.61
279.28	1396.71
279.49	1415.15
279.71	1390.57
279.93	1351.66
280.14	1325.04
280.36	1357.80
280.57	1320.94
280.79	1409.00
281.00	1368.04
281.22	1339.37
281.43	1318.89
281.65	1322.99
281.86	1333.23
282.08	1443.82
282.29	1460.20
282.51	1310.70
282.73	1286.12
282.94	1282.03
283.16	1366.00
283.37	1458.15
283.59	1331.18
283.80	1312.75
284.02	1392.62
284.23	1388.52
284.45	1351.66
284.66	1335.28
284.88	1318.89
285.09	1388.52
285.31	1404.91
285.52	1460.20
285.74	1339.37
285.95	1419.24
286.17	1372.14
286.38	1431.53
286.60	1353.71
286.81	1361.90
287.03	1384.43
287.24	1380.33
287.46	1423.34
287.67	1376.24
287.89	1421.29
288.10	1378.28
288.32	1337.32
288.53	1396.71
288.75	1394.67
288.96	1406.95
289.18	1421.29
289.39	1382.38
289.61	1409.00
289.82	1480.68
290.04	1341.42
290.25	1302.51
290.47	1429.48
290.68	1443.82
290.90	1376.24
291.11	1284.08
291.33	1382.38
291.54	1294.32
291.76	1415.15
291.97	1335.28
292.18	1406.95
292.40	1374.19
292.61	1312.75
292.83	1413.10
293.04	1359.85
293.26	1421.29
293.47	1351.66
293.69	1351.66
293.90	1368.04
294.12	1411.05
294.33	1372.14
294.55	1386.47
294.76	1415.15
294.97	1429.48
295.19	1486.83
295.40	1273.84
295.62	1384.43
295.83	1306.60
296.05	1310.70
296.26	1406.95
296.48	1421.29
296.69	1333.23
296.90	1331.18
297.12	1394.67
297.33	1431.53
297.55	1318.89
297.76	1370.09
297.98	1427.43
298.19	1322.99
298.41	1404.91
298.62	1335.28
298.83	1396.71
299.05	1372.14
299.26	1380.33
299.48	1279.98
299.69	1359.85
299.90	1329.13
300.12	1312.75
300.33	1351.66
300.55	1366.00
300.76	1339.37
300.98	1282.03
301.19	1325.04
301.40	1341.42
301.62	1370.09
301.83	1380.33
302.05	1353.71
302.26	1378.28
302.47	1325.04
302.69	1333.23
302.90	1380.33
303.12	1370.09
303.33	1406.95
303.54	1462.25
303.76	1390.57
303.97	1339.37
304.19	1443.82
304.40	1370.09
304.61	1429.48
304.83	1486.83
305.04	1427.43
305.26	1355.76
305.47	1380.33
305.68	1366.00
305.90	1394.67
306.11	1468.39
306.33	1359.85
306.54	1363.95
306.75	1406.95
306.97	1265.64
307.18	1247.21
307.39	1382.38
307.61	1378.28
307.82	1363.95
308.04	1378.28
308.25	1378.28
308.46	1353.71
308.68	1398.76
308.89	1327.08
309.10	1396.71
309.32	1386.47
309.53	1394.67
309.74	1337.32
309.96	1394.67
310.17	1409.00
310.39	1380.33
310.60	1357.80
310.81	1388.52
311.03	1415.15
311.24	1337.32
311.45	1359.85
311.67	1355.76
311.88	1380.33
312.09	1316.84
312.31	1357.80
312.52	1329.13
312.73	1284.08
312.95	1331.18
313.16	1290.22
313.37	1423.34
313.59	1376.24
313.80	1349.61
314.01	1353.71
314.23	1341.42
314.44	1398.76
314.65	1361.90
314.87	1271.79
315.08	1419.24
315.29	1355.76
315.51	1380.33
315.72	1308.65
315.93	1366.00
316.15	1413.10
316.36	1308.65
316.57	1312.75
316.79	1361.90
317.00	1298.41
317.21	1425.39
317.43	1339.37
317.64	1435.63
317.85	1378.28
318.07	1486.83
318.28	1544.17
318.49	1597.42
318.70	1744.87
318.92	1538.02
319.13	1511.40
319.34	1519.59
319.56	1525.74
319.77	1427.43
319.98	1525.74
320.20	1413.10
320.41	1374.19
320.62	1417.19
320.83	1337.32
321.05	1474.54
321.26	1376.24
321.47	1331.18
321.69	1413.10
321.90	1257.45
322.11	1329.13
322.32	1425.39
322.54	1413.10
322.75	1333.23
322.96	1466.35
323.18	1329.13
323.39	1232.88
323.60	1357.80
323.81	1411.05
324.03	1380.33
324.24	1376.24
324.45	1400.81
324.66	1447.91
324.88	1421.29
325.09	1404.91
325.30	1372.14
325.52	1368.04
325.73	1376.24
325.94	1333.23
326.15	1335.28
326.37	1314.80
326.58	1398.76
326.79	1388.52
327.00	1359.85
327.22	1335.28
327.43	1271.79
327.64	1368.04
327.85	1296.36
328.07	1413.10
328.28	1439.72
328.49	1400.81
328.70	1312.75
328.92	1400.81
329.13	1382.38
329.34	1439.72
329.55	1449.96
329.76	1388.52
329.98	1380.33
330.19	1382.38
330.40	1351.66
330.61	1411.05
330.83	1404.91
331.04	1308.65
331.25	1443.82
331.46	1339.37
331.68	1429.48
331.89	1382.38
332.10	1392.62
332.31	1411.05
332.52	1370.09
332.74	1452.01
332.95	1290.22
333.16	1335.28
333.37	1415.15
333.58	1370.09
333.80	1380.33
334.01	1288.17
334.22	1370.09
334.43	1409.00
334.64	1351.66
334.86	1372.14
335.07	1366.00
335.28	1388.52
335.49	1388.52
335.70	1290.22
335.92	1333.23
336.13	1427.43
336.34	1429.48
336.55	1386.47
336.76	1331.18
336.98	1290.22
337.19	1394.67
337.40	1413.10
337.61	1454.06
337.82	1374.19
338.04	1370.09
338.25	1304.56
338.46	1333.23
338.67	1314.80
338.88	1251.31
339.09	1306.60
339.31	1325.04
339.52	1308.65
339.73	1343.47
339.94	1357.80
340.15	1359.85
340.36	1366.00
340.58	1372.14
340.79	1298.41
341.00	1400.81
341.21	1271.79
341.42	1476.59
341.63	1355.76
341.85	1425.39
342.06	1316.84
342.27	1349.61
342.48	1363.95
342.69	1318.89
342.90	1355.76
343.12	1343.47
343.33	1329.13
343.54	1382.38
343.75	1409.00
343.96	1320.94
344.17	1337.32
344.38	1320.94
344.60	1382.38
344.81	1355.76
345.02	1431.53
345.23	1378.28
345.44	1460.20
345.65	1431.53
345.86	1411.05
346.07	1411.05
346.29	1351.66
346.50	1306.60
346.71	1380.33
346.92	1366.00
347.13	1421.29
347.34	1308.65
347.55	1378.28
347.76	1390.57
347.98	1286.12
348.19	1339.37
348.40	1441.77
348.61	1378.28
348.82	1421.29
349.03	1406.95
349.24	1275.88
349.45	1374.19
349.66	1347.56
349.88	1396.71
350.09	1351.66
350.30	1347.56
350.51	1470.44
350.72	1361.90
350.93	1372.14
351.14	1273.84
351.35	1398.76
351.56	1314.80
351.77	1279.98
351.99	1341.42
352.20	1357.80
352.41	1404.91
352.62	1339.37
352.83	1402.86
353.04	1316.84
353.25	1384.43
353.46	1406.95
353.67	1370.09
353.88	1249.26
354.09	1458.15
354.30	1452.01
354.52	1322.99
354.73	1357.80
354.94	1345.52
355.15	1378.28
355.36	1413.10
355.57	1314.80
355.78	1363.95
355.99	1331.18
356.20	1388.52
356.41	1286.12
356.62	1396.71
356.83	1318.89
357.04	1396.71
357.25	1341.42
357.46	1433.58
357.68	1327.08
357.89	1378.28
358.10	1503.21
358.31	1355.76
358.52	1320.94
358.73	1212.40
358.94	1359.85
359.15	1308.65
359.36	1374.19
359.57	1396.71
359.78	1316.84
359.99	1400.81
360.20	1335.28
360.41	1372.14
360.62	1357.80
360.83	1308.65
361.04	1329.13
361.25	1415.15
361.46	1396.71
361.67	1386.47
361.88	1329.13
362.09	1425.39
362.30	1429.48
362.51	1314.80
362.72	1308.65
362.93	1415.15
363.14	1361.90
363.35	1361.90
363.56	1329.13
363.78	1376.24
363.99	1468.39
364.20	1384.43
364.41	1384.43
364.62	1402.86
364.83	1329.13
365.04	1359.85
365.25	1316.84
365.46	1437.67
365.67	1349.61
365.88	1361.90
366.09	1306.60
366.30	1380.33
366.51	1347.56
366.72	1318.89
366.93	1390.57
367.14	1400.81
367.35	1390.57
367.56	1318.89
367.77	1396.71
367.98	1417.19
368.18	1335.28
368.39	1464.30
368.60	1251.31
368.81	1341.42
369.02	1402.86
369.23	1411.05
369.44	1290.22
369.65	1329.13
369.86	1282.03
370.07	1421.29
370.28	1347.56
370.49	1355.76
370.70	1368.04
370.91	1366.00
371.12	1335.28
371.33	1316.84
371.54	1363.95
371.75	1392.62
371.96	1255.40
372.17	1417.19
372.38	1402.86
372.59	1409.00
372.80	1368.04
373.01	1349.61
373.22	1390.57
373.43	1320.94
373.64	1308.65
373.85	1361.90
374.06	1464.30
374.26	1413.10
374.47	1320.94
374.68	1400.81
374.89	1320.94
375.10	1320.94
375.31	1392.62
375.52	1347.56
375.73	1396.71
375.94	1314.80
376.15	1449.96
376.36	1325.04
376.57	1357.80
376.78	1370.09
376.99	1382.38
377.20	1411.05
377.40	1359.85
377.61	1402.86
377.82	1370.09
378.03	1411.05
378.24	1361.90
378.45	1296.36
378.66	1314.80
378.87	1337.32
379.08	1320.94
379.29	1390.57
379.50	1470.44
379.71	1386.47
379.91	1468.39
380.12	1378.28
380.33	1363.95
380.54	1320.94
380.75	1343.47
380.96	1372.14
381.17	1492.97
381.38	1435.63
381.59	1445.87
381.80	1447.91
382.00	1476.59
382.21	1443.82
382.42	1462.25
382.63	1458.15
382.84	1415.15
383.05	1552.36
383.26	1458.15
383.47	1431.53
383.68	1413.10
383.88	1525.74
384.09	1421.29
384.30	1421.29
384.51	1394.67
384.72	1400.81
384.93	1325.04
385.14	1402.86
385.35	1374.19
385.55	1370.09
385.76	1394.67
385.97	1341.42
386.18	1374.19
386.39	1396.71
386.60	1368.04
386.81	1357.80
387.02	1384.43
387.22	1384.43
387.43	1466.35
387.64	1617.90
387.85	2281.44
388.06	5613.48
388.27	9381.74
388.48	11630.41
388.68	13104.95
388.89	13180.73
389.10	10604.38
389.31	9092.98
389.52	8288.13
389.73	7468.94
389.93	6825.88
390.14	6473.63
390.35	6156.19
390.56	5408.69
390.77	4628.41
390.98	3661.77
391.18	2834.39
391.39	2113.50
391.60	1708.01
391.81	1558.50
392.02	1466.35
392.23	1544.17
392.43	1458.15
392.64	1421.29
392.85	1370.09
393.06	1445.87
393.27	1370.09
393.47	1378.28
393.68	1435.63
393.89	1380.33
394.10	1452.01
394.31	1300.46
394.52	1349.61
394.72	1376.24
394.93	1445.87
395.14	1308.65
395.35	1458.15
395.56	1417.19
395.76	1574.89
395.97	1546.22
396.18	1601.51
396.39	1636.33
396.60	1712.10
396.80	1548.26
397.01	1535.98
397.22	1429.48
397.43	1540.07
397.64	1374.19
397.84	1441.77
398.05	1542.12
398.26	1464.30
398.47	1413.10
398.67	1439.72
398.88	1433.58
399.09	1435.63
399.30	1396.71
399.51	1368.04
399.71	1380.33
399.92	1394.67
400.13	1351.66
400.34	1368.04
400.54	1390.57
400.75	1472.49
400.96	1447.91
401.17	1427.43
401.37	1456.11
401.58	1372.14
401.79	1458.15
402.00	1683.43
402.21	1787.88
402.41	1800.16
402.62	1763.30
402.83	1757.16
403.04	1671.14
403.24	1681.38
403.45	1601.51
403.66	1638.38
403.87	1507.30
404.07	1568.74
404.28	1560.55
404.49	1562.60
404.70	1511.40
404.90	1492.97
405.11	1406.95
405.32	1423.34
405.52	1349.61
405.73	1325.04
405.94	1353.71
406.15	1294.32
406.35	1394.67
406.56	1380.33
406.77	1406.95
406.98	1388.52
407.18	1368.04
407.39	1388.52
407.60	1296.36
407.80	1423.34
408.01	1378.28
408.22	1429.48
408.43	1331.18
408.63	1370.09
408.84	1421.29
409.05	1404.91
409.25	1294.32
409.46	1363.95
409.67	1390.57
409.88	1388.52
410.08	1345.52
410.29	1325.04
410.50	1411.05
410.70	1386.47
410.91	1345.52
411.12	1359.85
411.32	1404.91
411.53	1460.20
411.74	1474.54
411.95	1521.64
412.15	1429.48
412.36	1423.34
412.57	1441.77
412.77	1478.63
412.98	1409.00
413.19	1337.32
413.39	1402.86
413.60	1470.44
413.81	1466.35
414.01	1353.71
414.22	1363.95
414.43	1470.44
414.63	1470.44
414.84	1452.01
415.05	1380.33
415.25	1341.42
415.46	1347.56
415.67	1329.13
415.87	1363.95
416.08	1406.95
416.29	1337.32
416.49	1361.90
416.70	1380.33
416.91	1363.95
417.11	1337.32
417.32	1322.99
417.53	1486.83
417.73	1427.43
417.94	1372.14
418.15	1429.48
418.35	1386.47
418.56	1322.99
418.77	1355.76
418.97	1349.61
419.18	1316.84
419.38	1335.28
419.59	1337.32
419.80	1437.67
420.00	1337.32
420.21	1429.48
420.42	1337.32
420.62	1372.14
420.83	1316.84
421.04	1374.19
421.24	1306.60
421.45	1366.00
421.65	1368.04
421.86	1372.14
422.07	1335.28
422.27	1368.04
422.48	1415.15
422.69	1339.37
422.89	1349.61
423.10	1380.33
423.30	1351.66
423.51	1402.86
423.72	1335.28
423.92	1345.52
424.13	1357.80
424.33	1353.71
424.54	1310.70
424.75	1400.81
424.95	1429.48
425.16	1404.91
425.36	1329.13
425.57	1386.47
425.78	1353.71
425.98	1351.66
426.19	1388.52
426.39	1275.88
426.60	1376.24
426.81	1533.93
427.01	1398.76
427.22	1327.08
427.42	1310.70
427.63	1402.86
427.83	1363.95
428.04	1417.19
428.25	1361.90
428.45	1429.48
428.66	1404.91
428.86	1374.19
429.07	1312.75
429.28	1349.61
429.48	1372.14
429.69	1376.24
429.89	1363.95
430.10	1333.23
430.30	1380.33
430.51	1366.00
430.71	1372.14
430.92	1402.86
431.13	1341.42
431.33	1441.77
431.54	1400.81
431.74	1392.62
431.95	1384.43
432.15	1310.70
432.36	1404.91
432.56	1339.37
432.77	1429.48
432.98	1392.62
433.18	1370.09
433.39	1386.47
433.59	1355.76
433.80	1488.87
434.00	1390.57
434.21	1331.18
434.41	1372.14
434.62	1470.44
434.82	1312.75
435.03	1359.85
435.23	1406.95
435.44	1290.22
435.64	1406.95
435.85	1345.52
436.06	1417.19
436.26	1427.43
436.47	1361.90
436.67	1353.71
436.88	1316.84
437.08	1355.76
437.29	1486.83
437.49	1380.33
437.70	1353.71
437.90	1413.10
438.11	1529.83
438.31	1480.68
438.52	1470.44
438.72	1552.36
438.93	1609.70
439.13	1492.97
439.34	1429.48
439.54	1400.81
439.75	1523.69
439.95	1495.02
440.16	1419.24
440.36	1474.54
440.57	1400.81
440.77	1470.44
440.98	1359.85
441.18	1406.95
441.39	1347.56
441.59	1300.46
441.80	1511.40
442.00	1312.75
442.21	1329.13
442.41	1366.00
442.62	1359.85
442.82	1366.00
443.02	1368.04
443.23	1363.95
443.43	1322.99
443.64	1433.58
443.84	1460.20
444.05	1460.20
444.25	1384.43
444.46	1392.62
444.66	1392.62
444.87	1452.01
445.07	1361.90
445.28	1384.43
445.48	1466.35
445.69	1384.43
445.89	1548.26
446.09	1529.83
446.30	2271.20
446.50	3817.41
446.71	4583.35
446.91	5146.55
447.12	5509.04
447.32	5042.10
447.53	4190.14
447.73	3776.45
447.93	3411.92
448.14	3127.25
448.34	3080.14
448.55	2885.59
448.75	2791.38
448.96	2656.22
449.16	2443.23
449.36	2201.57
449.57	1912.80
449.77	1701.86
449.98	1542.12
450.18	1478.63
450.39	1484.78
450.59	1415.15
450.79	1368.04
451.00	1396.71
451.20	1413.10
451.41	1353.71
451.61	1392.62
451.81	1361.90
452.02	1447.91
452.22	1337.32
452.43	1370.09
452.63	1337.32
