SpectraSuite Data File
++++++++++++++++++++++++++++++++++++
Date: Tue May 03 11:24:13 CEST 2016
User: root
Dark Spectrum Present: No
Reference Spectrum Present: No
Number of Sampled Component Spectra: 1
Spectrometers: USB4C02835
Integration Time (usec): 100000 (USB4C02835)
Spectra Averaged: 1 (USB4C02835)
Boxcar Smoothing: 0 (USB4C02835)
Correct for Electrical Dark: No (USB4C02835)
Strobe/Lamp Enabled: No (USB4C02835)
Correct for Detector Non-linearity: No (USB4C02835)
Correct for Stray Light: No (USB4C02835)
Number of Pixels in Processed Spectrum: 3648
>>>>>Begin Processed Spectral Data<<<<<
177.47	1155.05
177.69	1155.05
177.91	1155.05
178.13	1193.97
178.36	1214.45
178.58	1335.28
178.80	1312.75
179.02	1343.47
179.24	1386.47
179.46	1361.90
179.68	1441.77
179.90	1329.13
180.13	1314.80
180.35	1359.85
180.57	1443.82
180.79	1406.95
181.01	1390.57
181.23	1462.25
181.45	1435.63
181.67	1322.99
181.90	1417.19
182.12	1320.94
182.34	1288.17
182.56	1490.92
182.78	1390.57
183.00	1396.71
183.22	1394.67
183.44	1376.24
183.66	1460.20
183.89	1390.57
184.11	1308.65
184.33	1394.67
184.55	1421.29
184.77	1363.95
184.99	1368.04
185.21	1304.56
185.43	1503.21
185.65	1304.56
185.87	1396.71
186.10	1456.11
186.32	1439.72
186.54	1345.52
186.76	1388.52
186.98	1343.47
187.20	1417.19
187.42	1419.24
187.64	1269.74
187.86	1398.76
188.08	1345.52
188.30	1398.76
188.52	1368.04
188.75	1439.72
188.97	1372.14
189.19	1312.75
189.41	1314.80
189.63	1386.47
189.85	1282.03
190.07	1392.62
190.29	1384.43
190.51	1452.01
190.73	1318.89
190.95	1421.29
191.17	1429.48
191.39	1341.42
191.61	1409.00
191.84	1429.48
192.06	1380.33
192.28	1265.64
192.50	1480.68
192.72	1331.18
192.94	1363.95
193.16	1361.90
193.38	1353.71
193.60	1339.37
193.82	1439.72
194.04	1351.66
194.26	1314.80
194.48	1396.71
194.70	1398.76
194.92	1384.43
195.14	1378.28
195.36	1355.76
195.58	1363.95
195.80	1310.70
196.02	1370.09
196.24	1353.71
196.46	1333.23
196.69	1380.33
196.91	1427.43
197.13	1306.60
197.35	1404.91
197.57	1386.47
197.79	1486.83
198.01	1355.76
198.23	1400.81
198.45	1384.43
198.67	1343.47
198.89	1378.28
199.11	1327.08
199.33	1382.38
199.55	1327.08
199.77	1372.14
199.99	1415.15
200.21	1308.65
200.43	1376.24
200.65	1374.19
200.87	1331.18
201.09	1361.90
201.31	1378.28
201.53	1394.67
201.75	1378.28
201.97	1357.80
202.19	1398.76
202.41	1425.39
202.63	1419.24
202.85	1372.14
203.07	1341.42
203.29	1339.37
203.51	1398.76
203.73	1308.65
203.95	1445.87
204.17	1380.33
204.39	1355.76
204.61	1269.74
204.83	1374.19
205.05	1409.00
205.27	1400.81
205.49	1392.62
205.71	1386.47
205.93	1349.61
206.15	1337.32
206.37	1380.33
206.59	1335.28
206.81	1378.28
207.03	1335.28
207.25	1322.99
207.47	1443.82
207.69	1378.28
207.91	1431.53
208.13	1355.76
208.34	1374.19
208.56	1347.56
208.78	1425.39
209.00	1341.42
209.22	1341.42
209.44	1370.09
209.66	1290.22
209.88	1327.08
210.10	1300.46
210.32	1310.70
210.54	1411.05
210.76	1370.09
210.98	1445.87
211.20	1277.93
211.42	1359.85
211.64	1396.71
211.86	1339.37
212.08	1312.75
212.30	1425.39
212.52	1370.09
212.74	1386.47
212.96	1361.90
213.17	1386.47
213.39	1329.13
213.61	1411.05
213.83	1386.47
214.05	1325.04
214.27	1384.43
214.49	1292.27
214.71	1398.76
214.93	1447.91
215.15	1378.28
215.37	1347.56
215.59	1372.14
215.81	1413.10
216.03	1406.95
216.24	1402.86
216.46	1335.28
216.68	1435.63
216.90	1441.77
217.12	1421.29
217.34	1374.19
217.56	1386.47
217.78	1490.92
218.00	1353.71
218.22	1322.99
218.44	1374.19
218.66	1316.84
218.87	1386.47
219.09	1380.33
219.31	1425.39
219.53	1394.67
219.75	1351.66
219.97	1421.29
220.19	1312.75
220.41	1347.56
220.63	1384.43
220.85	1339.37
221.06	1396.71
221.28	1398.76
221.50	1366.00
221.72	1361.90
221.94	1409.00
222.16	1425.39
222.38	1404.91
222.60	1419.24
222.82	1357.80
223.03	1347.56
223.25	1331.18
223.47	1449.96
223.69	1388.52
223.91	1316.84
224.13	1343.47
224.35	1445.87
224.57	1380.33
224.78	1458.15
225.00	1298.41
225.22	1349.61
225.44	1312.75
225.66	1341.42
225.88	1425.39
226.10	1382.38
226.32	1380.33
226.53	1470.44
226.75	1366.00
226.97	1351.66
227.19	1361.90
227.41	1335.28
227.63	1384.43
227.85	1363.95
228.06	1398.76
228.28	1374.19
228.50	1425.39
228.72	1341.42
228.94	1298.41
229.16	1325.04
229.37	1302.51
229.59	1325.04
229.81	1380.33
230.03	1322.99
230.25	1322.99
230.47	1290.22
230.69	1325.04
230.90	1429.48
231.12	1411.05
231.34	1456.11
231.56	1392.62
231.78	1294.32
232.00	1351.66
232.21	1368.04
232.43	1378.28
232.65	1298.41
232.87	1384.43
233.09	1316.84
233.30	1345.52
233.52	1409.00
233.74	1353.71
233.96	1372.14
234.18	1370.09
234.40	1382.38
234.61	1456.11
234.83	1292.27
235.05	1372.14
235.27	1484.78
235.49	1298.41
235.70	1351.66
235.92	1425.39
236.14	1322.99
236.36	1441.77
236.58	1388.52
236.79	1435.63
237.01	1318.89
237.23	1294.32
237.45	1409.00
237.67	1363.95
237.88	1353.71
238.10	1437.67
238.32	1308.65
238.54	1396.71
238.76	1339.37
238.97	1322.99
239.19	1361.90
239.41	1423.34
239.63	1394.67
239.85	1351.66
240.06	1390.57
240.28	1437.67
240.50	1306.60
240.72	1419.24
240.93	1406.95
241.15	1449.96
241.37	1290.22
241.59	1437.67
241.81	1298.41
242.02	1400.81
242.24	1378.28
242.46	1384.43
242.68	1359.85
242.89	1413.10
243.11	1409.00
243.33	1322.99
243.55	1400.81
243.76	1380.33
243.98	1366.00
244.20	1378.28
244.42	1411.05
244.64	1400.81
244.85	1333.23
245.07	1282.03
245.29	1421.29
245.51	1368.04
245.72	1380.33
245.94	1390.57
246.16	1376.24
246.38	1345.52
246.59	1355.76
246.81	1318.89
247.03	1300.46
247.24	1325.04
247.46	1247.21
247.68	1398.76
247.90	1476.59
248.11	1374.19
248.33	1421.29
248.55	1361.90
248.77	1398.76
248.98	1437.67
249.20	1429.48
249.42	1378.28
249.64	1415.15
249.85	1402.86
250.07	1366.00
250.29	1331.18
250.50	1366.00
250.72	1406.95
250.94	1417.19
251.16	1425.39
251.37	1423.34
251.59	1441.77
251.81	1384.43
252.02	1431.53
252.24	1351.66
252.46	1429.48
252.68	1361.90
252.89	1374.19
253.11	1304.56
253.33	1363.95
253.54	1468.39
253.76	1351.66
253.98	1351.66
254.20	1404.91
254.41	1308.65
254.63	1376.24
254.85	1415.15
255.06	1363.95
255.28	1370.09
255.50	1359.85
255.71	1394.67
255.93	1380.33
256.15	1314.80
256.36	1312.75
256.58	1449.96
256.80	1353.71
257.02	1368.04
257.23	1345.52
257.45	1421.29
257.67	1345.52
257.88	1390.57
258.10	1423.34
258.32	1382.38
258.53	1376.24
258.75	1400.81
258.97	1433.58
259.18	1316.84
259.40	1370.09
259.62	1449.96
259.83	1411.05
260.05	1435.63
260.27	1521.64
260.48	1374.19
260.70	1339.37
260.92	1331.18
261.13	1390.57
261.35	1400.81
261.57	1411.05
261.78	1349.61
262.00	1339.37
262.22	1335.28
262.43	1363.95
262.65	1351.66
262.86	1337.32
263.08	1413.10
263.30	1337.32
263.51	1341.42
263.73	1318.89
263.95	1386.47
264.16	1339.37
264.38	1347.56
264.60	1439.72
264.81	1394.67
265.03	1378.28
265.25	1411.05
265.46	1345.52
265.68	1392.62
265.89	1449.96
266.11	1327.08
266.33	1335.28
266.54	1380.33
266.76	1333.23
266.98	1349.61
267.19	1462.25
267.41	1318.89
267.62	1335.28
267.84	1329.13
268.06	1417.19
268.27	1304.56
268.49	1370.09
268.70	1435.63
268.92	1351.66
269.14	1400.81
269.35	1320.94
269.57	1322.99
269.79	1386.47
270.00	1320.94
270.22	1421.29
270.43	1368.04
270.65	1255.40
270.87	1452.01
271.08	1404.91
271.30	1415.15
271.51	1349.61
271.73	1368.04
271.95	1480.68
272.16	1388.52
272.38	1314.80
272.59	1320.94
272.81	1374.19
273.02	1335.28
273.24	1423.34
273.46	1351.66
273.67	1296.36
273.89	1347.56
274.10	1318.89
274.32	1372.14
274.54	1288.17
274.75	1388.52
274.97	1359.85
275.18	1394.67
275.40	1443.82
275.61	1417.19
275.83	1363.95
276.05	1345.52
276.26	1312.75
276.48	1419.24
276.69	1359.85
276.91	1409.00
277.12	1439.72
277.34	1456.11
277.55	1376.24
277.77	1370.09
277.99	1363.95
278.20	1372.14
278.42	1308.65
278.63	1251.31
278.85	1353.71
279.06	1320.94
279.28	1345.52
279.49	1398.76
279.71	1378.28
279.93	1376.24
280.14	1443.82
280.36	1392.62
280.57	1439.72
280.79	1433.58
281.00	1279.98
281.22	1384.43
281.43	1386.47
281.65	1327.08
281.86	1282.03
282.08	1382.38
282.29	1390.57
282.51	1411.05
282.73	1335.28
282.94	1345.52
283.16	1427.43
283.37	1441.77
283.59	1435.63
283.80	1325.04
284.02	1431.53
284.23	1366.00
284.45	1394.67
284.66	1310.70
284.88	1320.94
285.09	1374.19
285.31	1472.49
285.52	1400.81
285.74	1294.32
285.95	1388.52
286.17	1386.47
286.38	1376.24
286.60	1345.52
286.81	1388.52
287.03	1288.17
287.24	1341.42
287.46	1384.43
287.67	1316.84
287.89	1437.67
288.10	1372.14
288.32	1374.19
288.53	1370.09
288.75	1335.28
288.96	1425.39
289.18	1292.27
289.39	1329.13
289.61	1499.11
289.82	1425.39
290.04	1413.10
290.25	1363.95
290.47	1445.87
290.68	1386.47
290.90	1390.57
291.11	1351.66
291.33	1366.00
291.54	1306.60
291.76	1351.66
291.97	1433.58
292.18	1376.24
292.40	1304.56
292.61	1372.14
292.83	1423.34
293.04	1439.72
293.26	1390.57
293.47	1384.43
293.69	1345.52
293.90	1349.61
294.12	1351.66
294.33	1380.33
294.55	1267.69
294.76	1396.71
294.97	1343.47
295.19	1404.91
295.40	1341.42
295.62	1372.14
295.83	1417.19
296.05	1290.22
296.26	1394.67
296.48	1378.28
296.69	1318.89
296.90	1421.29
297.12	1363.95
297.33	1464.30
297.55	1343.47
297.76	1351.66
297.98	1447.91
298.19	1329.13
298.41	1294.32
298.62	1314.80
298.83	1443.82
299.05	1312.75
299.26	1333.23
299.48	1359.85
299.69	1382.38
299.90	1329.13
300.12	1331.18
300.33	1474.54
300.55	1409.00
300.76	1390.57
300.98	1320.94
301.19	1331.18
301.40	1380.33
301.62	1447.91
301.83	1409.00
302.05	1359.85
302.26	1343.47
302.47	1363.95
302.69	1400.81
302.90	1392.62
303.12	1292.27
303.33	1363.95
303.54	1331.18
303.76	1327.08
303.97	1392.62
304.19	1427.43
304.40	1361.90
304.61	1388.52
304.83	1404.91
305.04	1363.95
305.26	1322.99
305.47	1384.43
305.68	1341.42
305.90	1290.22
306.11	1433.58
306.33	1417.19
306.54	1390.57
306.75	1357.80
306.97	1316.84
307.18	1339.37
307.39	1372.14
307.61	1392.62
307.82	1429.48
308.04	1372.14
308.25	1329.13
308.46	1312.75
308.68	1349.61
308.89	1439.72
309.10	1388.52
309.32	1353.71
309.53	1341.42
309.74	1409.00
309.96	1269.74
310.17	1390.57
310.39	1406.95
310.60	1370.09
310.81	1423.34
311.03	1290.22
311.24	1370.09
311.45	1339.37
311.67	1441.77
311.88	1320.94
312.09	1325.04
312.31	1304.56
312.52	1400.81
312.73	1380.33
312.95	1261.55
313.16	1296.36
313.37	1390.57
313.59	1380.33
313.80	1361.90
314.01	1441.77
314.23	1421.29
314.44	1382.38
314.65	1357.80
314.87	1296.36
315.08	1361.90
315.29	1341.42
315.51	1339.37
315.72	1302.51
315.93	1421.29
316.15	1372.14
316.36	1331.18
316.57	1322.99
316.79	1402.86
317.00	1382.38
317.21	1400.81
317.43	1376.24
317.64	1441.77
317.85	1402.86
318.07	1458.15
318.28	1533.93
318.49	1617.90
318.70	1589.22
318.92	1523.69
319.13	1478.63
319.34	1529.83
319.56	1460.20
319.77	1474.54
319.98	1519.59
320.20	1497.07
320.41	1460.20
320.62	1374.19
320.83	1404.91
321.05	1468.39
321.26	1349.61
321.47	1380.33
321.69	1441.77
321.90	1345.52
322.11	1363.95
322.32	1380.33
322.54	1372.14
322.75	1327.08
322.96	1404.91
323.18	1308.65
323.39	1337.32
323.60	1355.76
323.81	1439.72
324.03	1368.04
324.24	1406.95
324.45	1359.85
324.66	1290.22
324.88	1372.14
325.09	1398.76
325.30	1462.25
325.52	1337.32
325.73	1374.19
325.94	1333.23
326.15	1372.14
326.37	1376.24
326.58	1368.04
326.79	1333.23
327.00	1406.95
327.22	1339.37
327.43	1327.08
327.64	1236.97
327.85	1359.85
328.07	1413.10
328.28	1347.56
328.49	1329.13
328.70	1384.43
328.92	1320.94
329.13	1349.61
329.34	1363.95
329.55	1435.63
329.76	1355.76
329.98	1374.19
330.19	1390.57
330.40	1384.43
330.61	1368.04
330.83	1372.14
331.04	1333.23
331.25	1413.10
331.46	1329.13
331.68	1331.18
331.89	1372.14
332.10	1374.19
332.31	1322.99
332.52	1392.62
332.74	1454.06
332.95	1343.47
333.16	1316.84
333.37	1320.94
333.58	1370.09
333.80	1390.57
334.01	1310.70
334.22	1275.88
334.43	1273.84
334.64	1298.41
334.86	1345.52
335.07	1302.51
335.28	1322.99
335.49	1372.14
335.70	1398.76
335.92	1406.95
336.13	1411.05
336.34	1415.15
336.55	1370.09
336.76	1351.66
336.98	1290.22
337.19	1355.76
337.40	1452.01
337.61	1437.67
337.82	1378.28
338.04	1347.56
338.25	1327.08
338.46	1472.49
338.67	1372.14
338.88	1255.40
339.09	1322.99
339.31	1357.80
339.52	1374.19
339.73	1314.80
339.94	1273.84
340.15	1409.00
340.36	1331.18
340.58	1366.00
340.79	1335.28
341.00	1392.62
341.21	1279.98
341.42	1531.88
341.63	1312.75
341.85	1458.15
342.06	1390.57
342.27	1347.56
342.48	1435.63
342.69	1355.76
342.90	1370.09
343.12	1406.95
343.33	1390.57
343.54	1382.38
343.75	1386.47
343.96	1335.28
344.17	1275.88
344.38	1390.57
344.60	1290.22
344.81	1349.61
345.02	1372.14
345.23	1425.39
345.44	1394.67
345.65	1374.19
345.86	1423.34
346.07	1370.09
346.29	1316.84
346.50	1363.95
346.71	1388.52
346.92	1419.24
347.13	1468.39
347.34	1329.13
347.55	1347.56
347.76	1374.19
347.98	1359.85
348.19	1318.89
348.40	1400.81
348.61	1413.10
348.82	1341.42
349.03	1392.62
349.24	1304.56
349.45	1441.77
349.66	1337.32
349.88	1351.66
350.09	1370.09
350.30	1370.09
350.51	1445.87
350.72	1449.96
350.93	1368.04
351.14	1271.79
351.35	1433.58
351.56	1374.19
351.77	1331.18
351.99	1433.58
352.20	1384.43
352.41	1458.15
352.62	1306.60
352.83	1384.43
353.04	1429.48
353.25	1388.52
353.46	1445.87
353.67	1417.19
353.88	1384.43
354.09	1458.15
354.30	1370.09
354.52	1351.66
354.73	1374.19
354.94	1341.42
355.15	1314.80
355.36	1425.39
355.57	1374.19
355.78	1366.00
355.99	1335.28
356.20	1339.37
356.41	1421.29
356.62	1331.18
356.83	1265.64
357.04	1433.58
357.25	1243.12
357.46	1331.18
357.68	1345.52
357.89	1392.62
358.10	1374.19
358.31	1327.08
358.52	1349.61
358.73	1411.05
358.94	1355.76
359.15	1359.85
359.36	1380.33
359.57	1409.00
359.78	1423.34
359.99	1355.76
360.20	1300.46
360.41	1351.66
360.62	1363.95
360.83	1411.05
361.04	1452.01
361.25	1349.61
361.46	1386.47
361.67	1366.00
361.88	1425.39
362.09	1390.57
362.30	1361.90
362.51	1308.65
362.72	1374.19
362.93	1327.08
363.14	1470.44
363.35	1357.80
363.56	1275.88
363.78	1480.68
363.99	1378.28
364.20	1374.19
364.41	1347.56
364.62	1429.48
364.83	1333.23
365.04	1327.08
365.25	1419.24
365.46	1454.06
365.67	1341.42
365.88	1337.32
366.09	1417.19
366.30	1279.98
366.51	1298.41
366.72	1347.56
366.93	1363.95
367.14	1368.04
367.35	1337.32
367.56	1343.47
367.77	1460.20
367.98	1355.76
368.18	1392.62
368.39	1376.24
368.60	1411.05
368.81	1400.81
369.02	1394.67
369.23	1294.32
369.44	1427.43
369.65	1355.76
369.86	1370.09
370.07	1339.37
370.28	1366.00
370.49	1347.56
370.70	1382.38
370.91	1341.42
371.12	1286.12
371.33	1370.09
371.54	1374.19
371.75	1396.71
371.96	1288.17
372.17	1392.62
372.38	1413.10
372.59	1386.47
372.80	1304.56
373.01	1404.91
373.22	1322.99
373.43	1368.04
373.64	1308.65
373.85	1429.48
374.06	1452.01
374.26	1347.56
374.47	1308.65
374.68	1462.25
374.89	1441.77
375.10	1378.28
375.31	1376.24
375.52	1413.10
375.73	1392.62
375.94	1316.84
376.15	1413.10
376.36	1363.95
376.57	1413.10
376.78	1361.90
376.99	1329.13
377.20	1378.28
377.40	1386.47
377.61	1421.29
377.82	1355.76
378.03	1366.00
378.24	1339.37
378.45	1386.47
378.66	1413.10
378.87	1327.08
379.08	1361.90
379.29	1409.00
379.50	1396.71
379.71	1322.99
379.91	1423.34
380.12	1429.48
380.33	1382.38
380.54	1394.67
380.75	1337.32
380.96	1331.18
381.17	1437.67
381.38	1439.72
381.59	1474.54
381.80	1413.10
382.00	1542.12
382.21	1497.07
382.42	1443.82
382.63	1501.16
382.84	1398.76
383.05	1411.05
383.26	1429.48
383.47	1417.19
383.68	1402.86
383.88	1337.32
384.09	1409.00
384.30	1497.07
384.51	1384.43
384.72	1370.09
384.93	1361.90
385.14	1396.71
385.35	1378.28
385.55	1310.70
385.76	1378.28
385.97	1378.28
386.18	1335.28
386.39	1415.15
386.60	1363.95
386.81	1396.71
387.02	1322.99
387.22	1464.30
387.43	1495.02
387.64	1474.54
387.85	2220.00
388.06	5607.34
388.27	9621.36
388.48	11562.83
388.68	13211.45
388.89	13246.26
389.10	10575.71
389.31	9348.98
389.52	8193.92
389.73	7360.40
389.93	6825.88
390.14	6434.72
390.35	6072.23
390.56	5531.56
390.77	4644.79
390.98	3585.99
391.18	2885.59
391.39	2170.85
391.60	1687.53
391.81	1568.74
392.02	1441.77
392.23	1480.68
392.43	1406.95
392.64	1458.15
392.85	1357.80
393.06	1445.87
393.27	1394.67
393.47	1347.56
393.68	1374.19
393.89	1320.94
394.10	1355.76
394.31	1341.42
394.52	1421.29
394.72	1368.04
394.93	1386.47
395.14	1333.23
395.35	1427.43
395.56	1390.57
395.76	1523.69
395.97	1581.03
396.18	1593.32
396.39	1583.08
396.60	1691.62
396.80	1540.07
397.01	1466.35
397.22	1515.50
397.43	1556.46
397.64	1421.29
397.84	1501.16
398.05	1427.43
398.26	1429.48
398.47	1421.29
398.67	1470.44
398.88	1394.67
399.09	1374.19
399.30	1464.30
399.51	1378.28
399.71	1345.52
399.92	1398.76
400.13	1331.18
400.34	1394.67
400.54	1374.19
400.75	1370.09
400.96	1392.62
401.17	1470.44
401.37	1466.35
401.58	1411.05
401.79	1564.65
402.00	1763.30
402.21	1773.54
402.41	1851.36
402.62	1832.93
402.83	1705.96
403.04	1617.90
403.24	1746.92
403.45	1595.37
403.66	1562.60
403.87	1546.22
404.07	1593.32
404.28	1591.27
404.49	1630.18
404.70	1402.86
404.90	1423.34
405.11	1347.56
405.32	1441.77
405.52	1345.52
405.73	1361.90
405.94	1361.90
406.15	1404.91
406.35	1366.00
406.56	1404.91
406.77	1322.99
406.98	1400.81
407.18	1380.33
407.39	1413.10
407.60	1267.69
407.80	1433.58
408.01	1404.91
408.22	1423.34
408.43	1310.70
408.63	1372.14
408.84	1386.47
409.05	1402.86
409.25	1355.76
409.46	1413.10
409.67	1335.28
409.88	1329.13
410.08	1312.75
410.29	1318.89
410.50	1378.28
410.70	1376.24
410.91	1378.28
411.12	1486.83
411.32	1402.86
411.53	1427.43
411.74	1474.54
411.95	1439.72
412.15	1497.07
412.36	1447.91
412.57	1417.19
412.77	1468.39
412.98	1421.29
413.19	1368.04
413.39	1341.42
413.60	1327.08
413.81	1511.40
414.01	1331.18
414.22	1427.43
414.43	1382.38
414.63	1290.22
414.84	1382.38
415.05	1331.18
415.25	1300.46
415.46	1374.19
415.67	1390.57
415.87	1390.57
416.08	1409.00
416.29	1312.75
416.49	1378.28
416.70	1376.24
416.91	1355.76
417.11	1322.99
417.32	1384.43
417.53	1394.67
417.73	1445.87
417.94	1439.72
418.15	1425.39
418.35	1409.00
418.56	1312.75
418.77	1499.11
418.97	1421.29
419.18	1286.12
419.38	1294.32
419.59	1378.28
419.80	1310.70
420.00	1372.14
420.21	1394.67
420.42	1433.58
420.62	1394.67
420.83	1370.09
421.04	1345.52
421.24	1423.34
421.45	1411.05
421.65	1427.43
421.86	1312.75
422.07	1378.28
422.27	1435.63
422.48	1372.14
422.69	1361.90
422.89	1388.52
423.10	1288.17
423.30	1361.90
423.51	1312.75
423.72	1409.00
423.92	1359.85
424.13	1308.65
424.33	1390.57
424.54	1355.76
424.75	1429.48
424.95	1425.39
425.16	1353.71
425.36	1378.28
425.57	1411.05
425.78	1386.47
425.98	1449.96
426.19	1370.09
426.39	1331.18
426.60	1361.90
426.81	1386.47
427.01	1282.03
427.22	1345.52
427.42	1239.02
427.63	1322.99
427.83	1368.04
428.04	1472.49
428.25	1441.77
428.45	1437.67
428.66	1396.71
428.86	1402.86
429.07	1361.90
429.28	1449.96
429.48	1325.04
429.69	1394.67
429.89	1443.82
430.10	1314.80
430.30	1370.09
430.51	1411.05
430.71	1277.93
430.92	1345.52
431.13	1378.28
431.33	1341.42
431.54	1376.24
431.74	1550.31
431.95	1476.59
432.15	1386.47
432.36	1337.32
432.56	1327.08
432.77	1372.14
432.98	1439.72
433.18	1366.00
433.39	1390.57
433.59	1320.94
433.80	1388.52
434.00	1484.78
434.21	1304.56
434.41	1345.52
434.62	1406.95
434.82	1421.29
435.03	1314.80
435.23	1423.34
435.44	1333.23
435.64	1277.93
435.85	1400.81
436.06	1419.24
436.26	1421.29
436.47	1349.61
436.67	1331.18
436.88	1372.14
437.08	1454.06
437.29	1390.57
437.49	1329.13
437.70	1456.11
437.90	1423.34
438.11	1492.97
438.31	1527.78
438.52	1476.59
438.72	1533.93
438.93	1558.50
439.13	1456.11
439.34	1495.02
439.54	1429.48
439.75	1488.87
439.95	1404.91
440.16	1388.52
440.36	1406.95
440.57	1380.33
440.77	1402.86
440.98	1341.42
441.18	1382.38
441.39	1351.66
441.59	1396.71
441.80	1411.05
442.00	1376.24
442.21	1388.52
442.41	1345.52
442.62	1415.15
442.82	1312.75
443.02	1402.86
443.23	1402.86
443.43	1363.95
443.64	1472.49
443.84	1366.00
444.05	1411.05
444.25	1400.81
444.46	1333.23
444.66	1433.58
444.87	1492.97
445.07	1392.62
445.28	1363.95
445.48	1458.15
445.69	1431.53
445.89	1458.15
446.09	1511.40
446.30	2293.72
446.50	3629.00
446.71	4655.03
446.91	5273.52
447.12	5662.63
447.32	4870.07
447.53	4167.62
447.73	3751.88
447.93	3399.63
448.14	3139.54
448.34	3033.04
448.55	2797.53
448.75	2709.46
448.96	2648.02
449.16	2412.51
449.36	2224.09
449.57	1972.19
449.77	1685.48
449.98	1550.31
450.18	1480.68
450.39	1460.20
450.59	1339.37
450.79	1421.29
451.00	1409.00
451.20	1394.67
451.41	1378.28
451.61	1427.43
451.81	1378.28
452.02	1439.72
452.22	1363.95
452.43	1411.05
452.63	1388.52
