SpectraSuite Data File
++++++++++++++++++++++++++++++++++++
Date: Tue May 03 11:24:10 CEST 2016
User: root
Dark Spectrum Present: No
Reference Spectrum Present: No
Number of Sampled Component Spectra: 1
Spectrometers: USB4C02835
Integration Time (usec): 100000 (USB4C02835)
Spectra Averaged: 1 (USB4C02835)
Boxcar Smoothing: 0 (USB4C02835)
Correct for Electrical Dark: No (USB4C02835)
Strobe/Lamp Enabled: No (USB4C02835)
Correct for Detector Non-linearity: No (USB4C02835)
Correct for Stray Light: No (USB4C02835)
Number of Pixels in Processed Spectrum: 3648
>>>>>Begin Processed Spectral Data<<<<<
177.47	1206.25
177.69	1206.25
177.91	1206.25
178.13	1212.40
178.36	1175.53
178.58	1378.28
178.80	1396.71
179.02	1359.85
179.24	1331.18
179.46	1396.71
179.68	1411.05
179.90	1363.95
180.13	1353.71
180.35	1388.52
180.57	1402.86
180.79	1298.41
181.01	1341.42
181.23	1437.67
181.45	1384.43
181.67	1429.48
181.90	1392.62
182.12	1349.61
182.34	1361.90
182.56	1339.37
182.78	1423.34
183.00	1372.14
183.22	1310.70
183.44	1304.56
183.66	1458.15
183.89	1441.77
184.11	1333.23
184.33	1372.14
184.55	1380.33
184.77	1370.09
184.99	1384.43
185.21	1382.38
185.43	1513.45
185.65	1316.84
185.87	1400.81
186.10	1382.38
186.32	1392.62
186.54	1400.81
186.76	1421.29
186.98	1409.00
187.20	1327.08
187.42	1294.32
187.64	1368.04
187.86	1306.60
188.08	1425.39
188.30	1413.10
188.52	1312.75
188.75	1437.67
188.97	1427.43
189.19	1277.93
189.41	1312.75
189.63	1331.18
189.85	1294.32
190.07	1273.84
190.29	1312.75
190.51	1351.66
190.73	1415.15
190.95	1374.19
191.17	1396.71
191.39	1351.66
191.61	1339.37
191.84	1333.23
192.06	1378.28
192.28	1322.99
192.50	1402.86
192.72	1318.89
192.94	1366.00
193.16	1396.71
193.38	1374.19
193.60	1353.71
193.82	1351.66
194.04	1396.71
194.26	1400.81
194.48	1411.05
194.70	1269.74
194.92	1359.85
195.14	1382.38
195.36	1343.47
195.58	1404.91
195.80	1388.52
196.02	1290.22
196.24	1368.04
196.46	1312.75
196.69	1394.67
196.91	1443.82
197.13	1419.24
197.35	1257.45
197.57	1390.57
197.79	1335.28
198.01	1359.85
198.23	1404.91
198.45	1452.01
198.67	1304.56
198.89	1327.08
199.11	1400.81
199.33	1351.66
199.55	1382.38
199.77	1376.24
199.99	1353.71
200.21	1388.52
200.43	1347.56
200.65	1261.55
200.87	1306.60
201.09	1359.85
201.31	1417.19
201.53	1357.80
201.75	1345.52
201.97	1398.76
202.19	1368.04
202.41	1421.29
202.63	1423.34
202.85	1388.52
203.07	1347.56
203.29	1343.47
203.51	1423.34
203.73	1366.00
203.95	1441.77
204.17	1353.71
204.39	1396.71
204.61	1337.32
204.83	1347.56
205.05	1372.14
205.27	1392.62
205.49	1445.87
205.71	1406.95
205.93	1339.37
206.15	1353.71
206.37	1353.71
206.59	1304.56
206.81	1292.27
207.03	1318.89
207.25	1359.85
207.47	1421.29
207.69	1368.04
207.91	1400.81
208.13	1495.02
208.34	1284.08
208.56	1380.33
208.78	1376.24
209.00	1312.75
209.22	1320.94
209.44	1382.38
209.66	1263.60
209.88	1343.47
210.10	1320.94
210.32	1288.17
210.54	1423.34
210.76	1363.95
210.98	1421.29
211.20	1327.08
211.42	1429.48
211.64	1474.54
211.86	1353.71
212.08	1359.85
212.30	1359.85
212.52	1404.91
212.74	1372.14
212.96	1355.76
213.17	1298.41
213.39	1388.52
213.61	1378.28
213.83	1476.59
214.05	1341.42
214.27	1341.42
214.49	1292.27
214.71	1333.23
214.93	1351.66
215.15	1329.13
215.37	1312.75
215.59	1349.61
215.81	1435.63
216.03	1458.15
216.24	1396.71
216.46	1445.87
216.68	1337.32
216.90	1378.28
217.12	1349.61
217.34	1439.72
217.56	1349.61
217.78	1421.29
218.00	1409.00
218.22	1382.38
218.44	1423.34
218.66	1351.66
218.87	1406.95
219.09	1441.77
219.31	1390.57
219.53	1322.99
219.75	1290.22
219.97	1390.57
220.19	1380.33
220.41	1363.95
220.63	1413.10
220.85	1478.63
221.06	1368.04
221.28	1488.87
221.50	1351.66
221.72	1404.91
221.94	1370.09
222.16	1366.00
222.38	1437.67
222.60	1361.90
222.82	1337.32
223.03	1359.85
223.25	1417.19
223.47	1433.58
223.69	1443.82
223.91	1409.00
224.13	1347.56
224.35	1355.76
224.57	1409.00
224.78	1349.61
225.00	1374.19
225.22	1345.52
225.44	1435.63
225.66	1406.95
225.88	1337.32
226.10	1458.15
226.32	1351.66
226.53	1380.33
226.75	1322.99
226.97	1329.13
227.19	1357.80
227.41	1363.95
227.63	1370.09
227.85	1300.46
228.06	1355.76
228.28	1312.75
228.50	1423.34
228.72	1300.46
228.94	1349.61
229.16	1331.18
229.37	1341.42
229.59	1374.19
229.81	1445.87
230.03	1382.38
230.25	1275.88
230.47	1294.32
230.69	1282.03
230.90	1345.52
231.12	1347.56
231.34	1415.15
231.56	1390.57
231.78	1363.95
232.00	1349.61
232.21	1353.71
232.43	1288.17
232.65	1359.85
232.87	1392.62
233.09	1392.62
233.30	1347.56
233.52	1361.90
233.74	1355.76
233.96	1423.34
234.18	1343.47
234.40	1433.58
234.61	1472.49
234.83	1343.47
235.05	1376.24
235.27	1439.72
235.49	1468.39
235.70	1445.87
235.92	1503.21
236.14	1339.37
236.36	1452.01
236.58	1345.52
236.79	1351.66
237.01	1423.34
237.23	1347.56
237.45	1468.39
237.67	1361.90
237.88	1331.18
238.10	1406.95
238.32	1306.60
238.54	1333.23
238.76	1355.76
238.97	1331.18
239.19	1343.47
239.41	1409.00
239.63	1433.58
239.85	1427.43
240.06	1388.52
240.28	1404.91
240.50	1437.67
240.72	1337.32
240.93	1382.38
241.15	1456.11
241.37	1415.15
241.59	1435.63
241.81	1357.80
242.02	1339.37
242.24	1329.13
242.46	1413.10
242.68	1284.08
242.89	1417.19
243.11	1540.07
243.33	1320.94
243.55	1392.62
243.76	1384.43
243.98	1349.61
244.20	1357.80
244.42	1413.10
244.64	1413.10
244.85	1359.85
245.07	1341.42
245.29	1435.63
245.51	1320.94
245.72	1394.67
245.94	1396.71
246.16	1417.19
246.38	1343.47
246.59	1376.24
246.81	1290.22
247.03	1370.09
247.24	1351.66
247.46	1341.42
247.68	1327.08
247.90	1417.19
248.11	1366.00
248.33	1394.67
248.55	1292.27
248.77	1378.28
248.98	1425.39
249.20	1452.01
249.42	1355.76
249.64	1454.06
249.85	1406.95
250.07	1277.93
250.29	1337.32
250.50	1406.95
250.72	1318.89
250.94	1353.71
251.16	1462.25
251.37	1380.33
251.59	1384.43
251.81	1335.28
252.02	1499.11
252.24	1318.89
252.46	1492.97
252.68	1325.04
252.89	1322.99
253.11	1316.84
253.33	1417.19
253.54	1353.71
253.76	1327.08
253.98	1353.71
254.20	1329.13
254.41	1302.51
254.63	1423.34
254.85	1368.04
255.06	1355.76
255.28	1351.66
255.50	1331.18
255.71	1343.47
255.93	1357.80
256.15	1341.42
256.36	1386.47
256.58	1368.04
256.80	1372.14
257.02	1335.28
257.23	1374.19
257.45	1425.39
257.67	1454.06
257.88	1347.56
258.10	1353.71
258.32	1429.48
258.53	1380.33
258.75	1423.34
258.97	1339.37
259.18	1380.33
259.40	1458.15
259.62	1456.11
259.83	1421.29
260.05	1429.48
260.27	1572.84
260.48	1490.92
260.70	1292.27
260.92	1458.15
261.13	1372.14
261.35	1345.52
261.57	1308.65
261.78	1318.89
262.00	1388.52
262.22	1327.08
262.43	1329.13
262.65	1388.52
262.86	1390.57
263.08	1411.05
263.30	1343.47
263.51	1298.41
263.73	1394.67
263.95	1429.48
264.16	1413.10
264.38	1374.19
264.60	1409.00
264.81	1366.00
265.03	1445.87
265.25	1392.62
265.46	1331.18
265.68	1376.24
265.89	1335.28
266.11	1302.51
266.33	1325.04
266.54	1331.18
266.76	1439.72
266.98	1462.25
267.19	1366.00
267.41	1374.19
267.62	1314.80
267.84	1273.84
268.06	1363.95
268.27	1380.33
268.49	1398.76
268.70	1384.43
268.92	1394.67
269.14	1312.75
269.35	1341.42
269.57	1355.76
269.79	1404.91
270.00	1310.70
270.22	1417.19
270.43	1386.47
270.65	1265.64
270.87	1421.29
271.08	1411.05
271.30	1378.28
271.51	1402.86
271.73	1347.56
271.95	1411.05
272.16	1378.28
272.38	1368.04
272.59	1318.89
272.81	1335.28
273.02	1378.28
273.24	1456.11
273.46	1425.39
273.67	1320.94
273.89	1337.32
274.10	1298.41
274.32	1425.39
274.54	1427.43
274.75	1429.48
274.97	1353.71
275.18	1402.86
275.40	1310.70
275.61	1310.70
275.83	1417.19
276.05	1433.58
276.26	1359.85
276.48	1419.24
276.69	1402.86
276.91	1322.99
277.12	1310.70
277.34	1376.24
277.55	1417.19
277.77	1306.60
277.99	1314.80
278.20	1327.08
278.42	1314.80
278.63	1329.13
278.85	1355.76
279.06	1392.62
279.28	1320.94
279.49	1368.04
279.71	1421.29
279.93	1292.27
280.14	1329.13
280.36	1329.13
280.57	1363.95
280.79	1400.81
281.00	1384.43
281.22	1261.55
281.43	1423.34
281.65	1267.69
281.86	1320.94
282.08	1353.71
282.29	1441.77
282.51	1380.33
282.73	1331.18
282.94	1366.00
283.16	1441.77
283.37	1437.67
283.59	1423.34
283.80	1333.23
284.02	1398.76
284.23	1361.90
284.45	1337.32
284.66	1376.24
284.88	1394.67
285.09	1376.24
285.31	1392.62
285.52	1421.29
285.74	1316.84
285.95	1357.80
286.17	1382.38
286.38	1345.52
286.60	1411.05
286.81	1376.24
287.03	1351.66
287.24	1353.71
287.46	1445.87
287.67	1466.35
287.89	1380.33
288.10	1402.86
288.32	1486.83
288.53	1378.28
288.75	1361.90
288.96	1394.67
289.18	1357.80
289.39	1335.28
289.61	1376.24
289.82	1427.43
290.04	1441.77
290.25	1288.17
290.47	1392.62
290.68	1335.28
290.90	1427.43
291.11	1312.75
291.33	1296.36
291.54	1402.86
291.76	1355.76
291.97	1409.00
292.18	1417.19
292.40	1366.00
292.61	1380.33
292.83	1427.43
293.04	1445.87
293.26	1388.52
293.47	1378.28
293.69	1312.75
293.90	1355.76
294.12	1411.05
294.33	1421.29
294.55	1327.08
294.76	1413.10
294.97	1363.95
295.19	1421.29
295.40	1351.66
295.62	1347.56
295.83	1329.13
296.05	1327.08
296.26	1386.47
296.48	1316.84
296.69	1380.33
296.90	1370.09
297.12	1359.85
297.33	1417.19
297.55	1355.76
297.76	1392.62
297.98	1464.30
298.19	1374.19
298.41	1345.52
298.62	1359.85
298.83	1374.19
299.05	1417.19
299.26	1355.76
299.48	1406.95
299.69	1394.67
299.90	1320.94
300.12	1363.95
300.33	1388.52
300.55	1372.14
300.76	1472.49
300.98	1355.76
301.19	1417.19
301.40	1353.71
301.62	1447.91
301.83	1347.56
302.05	1345.52
302.26	1351.66
302.47	1345.52
302.69	1312.75
302.90	1316.84
303.12	1275.88
303.33	1468.39
303.54	1476.59
303.76	1351.66
303.97	1349.61
304.19	1486.83
304.40	1314.80
304.61	1417.19
304.83	1392.62
305.04	1417.19
305.26	1413.10
305.47	1384.43
305.68	1368.04
305.90	1277.93
306.11	1398.76
306.33	1394.67
306.54	1343.47
306.75	1335.28
306.97	1347.56
307.18	1357.80
307.39	1359.85
307.61	1378.28
307.82	1402.86
308.04	1322.99
308.25	1327.08
308.46	1353.71
308.68	1409.00
308.89	1306.60
309.10	1464.30
309.32	1357.80
309.53	1331.18
309.74	1402.86
309.96	1372.14
310.17	1398.76
310.39	1363.95
310.60	1345.52
310.81	1413.10
311.03	1351.66
311.24	1368.04
311.45	1386.47
311.67	1345.52
311.88	1384.43
312.09	1310.70
312.31	1322.99
312.52	1327.08
312.73	1288.17
312.95	1308.65
313.16	1347.56
313.37	1380.33
313.59	1421.29
313.80	1394.67
314.01	1458.15
314.23	1290.22
314.44	1325.04
314.65	1374.19
314.87	1298.41
315.08	1388.52
315.29	1376.24
315.51	1368.04
315.72	1304.56
315.93	1398.76
316.15	1388.52
316.36	1372.14
316.57	1335.28
316.79	1433.58
317.00	1357.80
317.21	1384.43
317.43	1316.84
317.64	1394.67
317.85	1419.24
318.07	1482.73
318.28	1472.49
318.49	1568.74
318.70	1658.85
318.92	1519.59
319.13	1517.54
319.34	1535.98
319.56	1421.29
319.77	1509.35
319.98	1478.63
320.20	1452.01
320.41	1431.53
320.62	1466.35
320.83	1335.28
321.05	1449.96
321.26	1429.48
321.47	1357.80
321.69	1386.47
321.90	1396.71
322.11	1341.42
322.32	1284.08
322.54	1456.11
322.75	1380.33
322.96	1460.20
323.18	1331.18
323.39	1302.51
323.60	1312.75
323.81	1406.95
324.03	1361.90
324.24	1322.99
324.45	1396.71
324.66	1398.76
324.88	1392.62
325.09	1439.72
325.30	1376.24
325.52	1302.51
325.73	1347.56
325.94	1267.69
326.15	1296.36
326.37	1318.89
326.58	1374.19
326.79	1370.09
327.00	1388.52
327.22	1388.52
327.43	1380.33
327.64	1380.33
327.85	1290.22
328.07	1331.18
328.28	1468.39
328.49	1374.19
328.70	1400.81
328.92	1380.33
329.13	1388.52
329.34	1413.10
329.55	1400.81
329.76	1425.39
329.98	1339.37
330.19	1394.67
330.40	1343.47
330.61	1343.47
330.83	1415.15
331.04	1298.41
331.25	1329.13
331.46	1300.46
331.68	1359.85
331.89	1390.57
332.10	1339.37
332.31	1345.52
332.52	1394.67
332.74	1359.85
332.95	1327.08
333.16	1331.18
333.37	1363.95
333.58	1380.33
333.80	1343.47
334.01	1361.90
334.22	1404.91
334.43	1306.60
334.64	1363.95
334.86	1325.04
335.07	1322.99
335.28	1409.00
335.49	1355.76
335.70	1417.19
335.92	1380.33
336.13	1406.95
336.34	1327.08
336.55	1349.61
336.76	1454.06
336.98	1331.18
337.19	1421.29
337.40	1406.95
337.61	1409.00
337.82	1398.76
338.04	1402.86
338.25	1241.07
338.46	1376.24
338.67	1404.91
338.88	1335.28
339.09	1353.71
339.31	1310.70
339.52	1351.66
339.73	1302.51
339.94	1284.08
340.15	1345.52
340.36	1329.13
340.58	1454.06
340.79	1347.56
341.00	1366.00
341.21	1366.00
341.42	1308.65
341.63	1310.70
341.85	1402.86
342.06	1402.86
342.27	1288.17
342.48	1337.32
342.69	1312.75
342.90	1363.95
343.12	1263.60
343.33	1382.38
343.54	1343.47
343.75	1345.52
343.96	1335.28
344.17	1335.28
344.38	1361.90
344.60	1327.08
344.81	1351.66
345.02	1308.65
345.23	1406.95
345.44	1441.77
345.65	1443.82
345.86	1345.52
346.07	1378.28
346.29	1359.85
346.50	1425.39
346.71	1470.44
346.92	1386.47
347.13	1445.87
347.34	1335.28
347.55	1413.10
347.76	1337.32
347.98	1366.00
348.19	1406.95
348.40	1357.80
348.61	1378.28
348.82	1404.91
349.03	1363.95
349.24	1331.18
349.45	1452.01
349.66	1398.76
349.88	1400.81
350.09	1302.51
350.30	1372.14
350.51	1392.62
350.72	1359.85
350.93	1421.29
351.14	1370.09
351.35	1380.33
351.56	1329.13
351.77	1421.29
351.99	1400.81
352.20	1421.29
352.41	1449.96
352.62	1318.89
352.83	1349.61
353.04	1388.52
353.25	1345.52
353.46	1409.00
353.67	1380.33
353.88	1320.94
354.09	1380.33
354.30	1353.71
354.52	1347.56
354.73	1376.24
354.94	1339.37
355.15	1361.90
355.36	1433.58
355.57	1382.38
355.78	1347.56
355.99	1318.89
356.20	1327.08
356.41	1398.76
356.62	1486.83
356.83	1279.98
357.04	1429.48
357.25	1243.12
357.46	1337.32
357.68	1273.84
357.89	1290.22
358.10	1413.10
358.31	1400.81
358.52	1318.89
358.73	1271.79
358.94	1300.46
359.15	1396.71
359.36	1449.96
359.57	1333.23
359.78	1419.24
359.99	1316.84
360.20	1380.33
360.41	1351.66
360.62	1443.82
360.83	1380.33
361.04	1386.47
361.25	1341.42
361.46	1433.58
361.67	1370.09
361.88	1406.95
362.09	1333.23
362.30	1409.00
362.51	1294.32
362.72	1368.04
362.93	1429.48
363.14	1449.96
363.35	1355.76
363.56	1411.05
363.78	1441.77
363.99	1380.33
364.20	1361.90
364.41	1357.80
364.62	1423.34
364.83	1388.52
365.04	1343.47
365.25	1298.41
365.46	1478.63
365.67	1320.94
365.88	1374.19
366.09	1402.86
366.30	1327.08
366.51	1437.67
366.72	1359.85
366.93	1392.62
367.14	1361.90
367.35	1484.78
367.56	1396.71
367.77	1366.00
367.98	1376.24
368.18	1368.04
368.39	1351.66
368.60	1427.43
368.81	1355.76
369.02	1316.84
369.23	1390.57
369.44	1320.94
369.65	1298.41
369.86	1337.32
370.07	1425.39
370.28	1400.81
370.49	1384.43
370.70	1351.66
370.91	1302.51
371.12	1359.85
371.33	1456.11
371.54	1347.56
371.75	1439.72
371.96	1359.85
372.17	1386.47
372.38	1357.80
372.59	1409.00
372.80	1306.60
373.01	1288.17
373.22	1337.32
373.43	1331.18
373.64	1361.90
373.85	1351.66
374.06	1452.01
374.26	1400.81
374.47	1392.62
374.68	1413.10
374.89	1492.97
375.10	1312.75
375.31	1396.71
375.52	1388.52
375.73	1370.09
375.94	1269.74
376.15	1417.19
376.36	1345.52
376.57	1380.33
376.78	1366.00
376.99	1372.14
377.20	1458.15
377.40	1372.14
377.61	1492.97
377.82	1341.42
378.03	1452.01
378.24	1409.00
378.45	1366.00
378.66	1396.71
378.87	1320.94
379.08	1341.42
379.29	1398.76
379.50	1372.14
379.71	1333.23
379.91	1404.91
380.12	1439.72
380.33	1341.42
380.54	1325.04
380.75	1335.28
380.96	1452.01
381.17	1445.87
381.38	1417.19
381.59	1447.91
381.80	1439.72
382.00	1462.25
382.21	1376.24
382.42	1521.64
382.63	1535.98
382.84	1449.96
383.05	1421.29
383.26	1441.77
383.47	1437.67
383.68	1404.91
383.88	1398.76
384.09	1476.59
384.30	1519.59
384.51	1464.30
384.72	1347.56
384.93	1368.04
385.14	1390.57
385.35	1411.05
385.55	1339.37
385.76	1347.56
385.97	1351.66
386.18	1372.14
386.39	1370.09
386.60	1429.48
386.81	1402.86
387.02	1316.84
387.22	1363.95
387.43	1593.32
387.64	1558.50
387.85	2340.83
388.06	5861.29
388.27	9545.58
388.48	11435.86
388.68	13266.74
388.89	13457.20
389.10	10891.10
389.31	9289.59
389.52	8447.87
389.73	7503.76
389.93	6991.77
390.14	6571.93
390.35	5894.05
390.56	5474.22
390.77	4530.11
390.98	3598.28
391.18	2793.43
391.39	2121.70
391.60	1771.49
391.81	1556.46
392.02	1427.43
392.23	1525.74
392.43	1402.86
392.64	1413.10
392.85	1460.20
393.06	1460.20
393.27	1382.38
393.47	1327.08
393.68	1445.87
393.89	1372.14
394.10	1423.34
394.31	1345.52
394.52	1402.86
394.72	1318.89
394.93	1464.30
395.14	1253.36
395.35	1488.87
395.56	1347.56
395.76	1484.78
395.97	1501.16
396.18	1667.05
396.39	1529.83
396.60	1689.57
396.80	1525.74
397.01	1454.06
397.22	1472.49
397.43	1492.97
397.64	1445.87
397.84	1464.30
398.05	1574.89
398.26	1458.15
398.47	1359.85
398.67	1468.39
398.88	1409.00
399.09	1495.02
399.30	1363.95
399.51	1333.23
399.71	1370.09
399.92	1396.71
400.13	1413.10
400.34	1388.52
400.54	1335.28
400.75	1376.24
400.96	1347.56
401.17	1396.71
401.37	1409.00
401.58	1425.39
401.79	1572.84
402.00	1638.38
402.21	1808.36
402.41	1855.46
402.62	1789.92
402.83	1730.53
403.04	1787.88
403.24	1658.85
403.45	1585.13
403.66	1513.45
403.87	1439.72
404.07	1542.12
404.28	1570.79
404.49	1558.50
404.70	1495.02
404.90	1437.67
405.11	1423.34
405.32	1466.35
405.52	1294.32
405.73	1368.04
405.94	1341.42
406.15	1351.66
406.35	1359.85
406.56	1435.63
406.77	1341.42
406.98	1458.15
407.18	1366.00
407.39	1378.28
407.60	1298.41
407.80	1411.05
408.01	1316.84
408.22	1449.96
408.43	1376.24
408.63	1460.20
408.84	1316.84
409.05	1470.44
409.25	1337.32
409.46	1359.85
409.67	1404.91
409.88	1349.61
410.08	1355.76
410.29	1361.90
410.50	1433.58
410.70	1392.62
410.91	1363.95
411.12	1314.80
411.32	1474.54
411.53	1361.90
411.74	1445.87
411.95	1435.63
412.15	1411.05
412.36	1396.71
412.57	1417.19
412.77	1449.96
412.98	1404.91
413.19	1306.60
413.39	1486.83
413.60	1523.69
413.81	1441.77
414.01	1378.28
414.22	1406.95
414.43	1413.10
414.63	1329.13
414.84	1443.82
415.05	1443.82
415.25	1388.52
415.46	1404.91
415.67	1333.23
415.87	1349.61
416.08	1345.52
416.29	1314.80
416.49	1456.11
416.70	1378.28
416.91	1368.04
417.11	1380.33
417.32	1290.22
417.53	1433.58
417.73	1396.71
417.94	1390.57
418.15	1298.41
418.35	1411.05
418.56	1406.95
418.77	1374.19
418.97	1335.28
419.18	1406.95
419.38	1380.33
419.59	1345.52
419.80	1423.34
420.00	1361.90
420.21	1423.34
420.42	1425.39
420.62	1437.67
420.83	1351.66
421.04	1370.09
421.24	1298.41
421.45	1370.09
421.65	1409.00
421.86	1359.85
422.07	1386.47
422.27	1353.71
422.48	1288.17
422.69	1331.18
422.89	1402.86
423.10	1331.18
423.30	1329.13
423.51	1413.10
423.72	1376.24
423.92	1353.71
424.13	1327.08
424.33	1431.53
424.54	1374.19
424.75	1366.00
424.95	1429.48
425.16	1417.19
425.36	1425.39
425.57	1427.43
425.78	1388.52
425.98	1449.96
426.19	1378.28
426.39	1306.60
426.60	1339.37
426.81	1497.07
427.01	1337.32
427.22	1384.43
427.42	1368.04
427.63	1419.24
427.83	1398.76
428.04	1368.04
428.25	1386.47
428.45	1374.19
428.66	1406.95
428.86	1388.52
429.07	1419.24
429.28	1308.65
429.48	1409.00
429.69	1298.41
429.89	1507.30
430.10	1325.04
430.30	1359.85
430.51	1380.33
430.71	1376.24
430.92	1363.95
431.13	1329.13
431.33	1329.13
431.54	1368.04
431.74	1413.10
431.95	1417.19
432.15	1347.56
432.36	1505.26
432.56	1447.91
432.77	1392.62
432.98	1439.72
433.18	1409.00
433.39	1345.52
433.59	1374.19
433.80	1429.48
434.00	1435.63
434.21	1345.52
434.41	1345.52
434.62	1456.11
434.82	1335.28
435.03	1337.32
435.23	1359.85
435.44	1261.55
435.64	1357.80
435.85	1368.04
436.06	1380.33
436.26	1341.42
436.47	1394.67
436.67	1392.62
436.88	1310.70
437.08	1470.44
437.29	1443.82
437.49	1312.75
437.70	1400.81
437.90	1392.62
438.11	1568.74
438.31	1468.39
438.52	1513.45
438.72	1544.17
438.93	1462.25
439.13	1445.87
439.34	1495.02
439.54	1349.61
439.75	1497.07
439.95	1460.20
440.16	1415.15
440.36	1423.34
440.57	1380.33
440.77	1476.59
440.98	1374.19
441.18	1372.14
441.39	1355.76
441.59	1376.24
441.80	1421.29
442.00	1374.19
442.21	1396.71
442.41	1349.61
442.62	1388.52
442.82	1320.94
443.02	1341.42
443.23	1478.63
443.43	1413.10
443.64	1456.11
443.84	1368.04
444.05	1419.24
444.25	1386.47
444.46	1343.47
444.66	1441.77
444.87	1456.11
445.07	1269.74
445.28	1413.10
445.48	1437.67
445.69	1413.10
445.89	1570.79
446.09	1509.35
446.30	2283.49
446.50	3882.95
446.71	4677.56
446.91	5429.17
447.12	5670.83
447.32	5119.92
447.53	4147.14
447.73	3862.47
447.93	3538.89
448.14	3188.69
448.34	3045.33
448.55	2756.57
448.75	2826.20
448.96	2740.18
449.16	2328.54
449.36	2156.51
449.57	1939.43
449.77	1705.96
449.98	1591.27
450.18	1441.77
450.39	1431.53
450.59	1372.14
450.79	1380.33
451.00	1406.95
451.20	1466.35
451.41	1400.81
451.61	1347.56
451.81	1351.66
452.02	1388.52
452.22	1366.00
452.43	1366.00
452.63	1359.85
