SpectraSuite Data File
++++++++++++++++++++++++++++++++++++
Date: Tue May 03 11:24:11 CEST 2016
User: root
Dark Spectrum Present: No
Reference Spectrum Present: No
Number of Sampled Component Spectra: 1
Spectrometers: USB4C02835
Integration Time (usec): 100000 (USB4C02835)
Spectra Averaged: 1 (USB4C02835)
Boxcar Smoothing: 0 (USB4C02835)
Correct for Electrical Dark: No (USB4C02835)
Strobe/Lamp Enabled: No (USB4C02835)
Correct for Detector Non-linearity: No (USB4C02835)
Correct for Stray Light: No (USB4C02835)
Number of Pixels in Processed Spectrum: 3648
>>>>>Begin Processed Spectral Data<<<<<
177.47	1296.36
177.69	1296.36
177.91	1296.36
178.13	1206.25
178.36	1226.73
178.58	1335.28
178.80	1351.66
179.02	1349.61
179.24	1349.61
179.46	1392.62
179.68	1443.82
179.90	1341.42
180.13	1333.23
180.35	1339.37
180.57	1345.52
180.79	1333.23
181.01	1374.19
181.23	1382.38
181.45	1462.25
181.67	1318.89
181.90	1423.34
182.12	1335.28
182.34	1300.46
182.56	1400.81
182.78	1351.66
183.00	1372.14
183.22	1318.89
183.44	1339.37
183.66	1505.26
183.89	1366.00
184.11	1402.86
184.33	1380.33
184.55	1382.38
184.77	1380.33
184.99	1402.86
185.21	1345.52
185.43	1474.54
185.65	1312.75
185.87	1437.67
186.10	1447.91
186.32	1445.87
186.54	1384.43
186.76	1421.29
186.98	1445.87
187.20	1366.00
187.42	1378.28
187.64	1314.80
187.86	1333.23
188.08	1339.37
188.30	1370.09
188.52	1292.27
188.75	1472.49
188.97	1406.95
189.19	1359.85
189.41	1394.67
189.63	1390.57
189.85	1370.09
190.07	1265.64
190.29	1296.36
190.51	1312.75
190.73	1337.32
190.95	1300.46
191.17	1445.87
191.39	1380.33
191.61	1320.94
191.84	1449.96
192.06	1355.76
192.28	1402.86
192.50	1464.30
192.72	1353.71
192.94	1343.47
193.16	1361.90
193.38	1361.90
193.60	1353.71
193.82	1421.29
194.04	1368.04
194.26	1359.85
194.48	1286.12
194.70	1355.76
194.92	1327.08
195.14	1437.67
195.36	1253.36
195.58	1392.62
195.80	1337.32
196.02	1322.99
196.24	1370.09
196.46	1359.85
196.69	1312.75
196.91	1482.73
197.13	1392.62
197.35	1322.99
197.57	1419.24
197.79	1396.71
198.01	1392.62
198.23	1347.56
198.45	1357.80
198.67	1327.08
198.89	1359.85
199.11	1292.27
199.33	1333.23
199.55	1316.84
199.77	1400.81
199.99	1488.87
200.21	1318.89
200.43	1361.90
200.65	1368.04
200.87	1296.36
201.09	1396.71
201.31	1327.08
201.53	1374.19
201.75	1413.10
201.97	1374.19
202.19	1335.28
202.41	1343.47
202.63	1488.87
202.85	1427.43
203.07	1380.33
203.29	1370.09
203.51	1355.76
203.73	1370.09
203.95	1425.39
204.17	1411.05
204.39	1353.71
204.61	1357.80
204.83	1329.13
205.05	1370.09
205.27	1331.18
205.49	1380.33
205.71	1372.14
205.93	1316.84
206.15	1277.93
206.37	1429.48
206.59	1411.05
206.81	1355.76
207.03	1390.57
207.25	1351.66
207.47	1429.48
207.69	1419.24
207.91	1415.15
208.13	1402.86
208.34	1388.52
208.56	1378.28
208.78	1368.04
209.00	1392.62
209.22	1363.95
209.44	1300.46
209.66	1359.85
209.88	1361.90
210.10	1306.60
210.32	1339.37
210.54	1433.58
210.76	1333.23
210.98	1357.80
211.20	1306.60
211.42	1382.38
211.64	1449.96
211.86	1429.48
212.08	1427.43
212.30	1404.91
212.52	1327.08
212.74	1337.32
212.96	1359.85
213.17	1388.52
213.39	1386.47
213.61	1363.95
213.83	1454.06
214.05	1282.03
214.27	1368.04
214.49	1329.13
214.71	1294.32
214.93	1366.00
215.15	1372.14
215.37	1413.10
215.59	1325.04
215.81	1402.86
216.03	1406.95
216.24	1384.43
216.46	1402.86
216.68	1417.19
216.90	1421.29
217.12	1374.19
217.34	1431.53
217.56	1378.28
217.78	1445.87
218.00	1372.14
218.22	1361.90
218.44	1382.38
218.66	1409.00
218.87	1495.02
219.09	1363.95
219.31	1359.85
219.53	1380.33
219.75	1292.27
219.97	1279.98
220.19	1447.91
220.41	1484.78
220.63	1363.95
220.85	1359.85
221.06	1386.47
221.28	1447.91
221.50	1341.42
221.72	1413.10
221.94	1386.47
222.16	1404.91
222.38	1415.15
222.60	1390.57
222.82	1312.75
223.03	1333.23
223.25	1288.17
223.47	1366.00
223.69	1435.63
223.91	1370.09
224.13	1310.70
224.35	1431.53
224.57	1398.76
224.78	1421.29
225.00	1304.56
225.22	1269.74
225.44	1351.66
225.66	1402.86
225.88	1277.93
226.10	1370.09
226.32	1429.48
226.53	1366.00
226.75	1329.13
226.97	1423.34
227.19	1308.65
227.41	1329.13
227.63	1333.23
227.85	1333.23
228.06	1355.76
228.28	1380.33
228.50	1306.60
228.72	1388.52
228.94	1294.32
229.16	1253.36
229.37	1363.95
229.59	1312.75
229.81	1413.10
230.03	1339.37
230.25	1273.84
230.47	1300.46
230.69	1345.52
230.90	1374.19
231.12	1402.86
231.34	1433.58
231.56	1380.33
231.78	1394.67
232.00	1347.56
232.21	1406.95
232.43	1380.33
232.65	1327.08
232.87	1384.43
233.09	1357.80
233.30	1271.79
233.52	1380.33
233.74	1353.71
233.96	1400.81
234.18	1390.57
234.40	1322.99
234.61	1441.77
234.83	1392.62
235.05	1396.71
235.27	1445.87
235.49	1462.25
235.70	1411.05
235.92	1441.77
236.14	1331.18
236.36	1482.73
236.58	1312.75
236.79	1314.80
237.01	1333.23
237.23	1310.70
237.45	1421.29
237.67	1378.28
237.88	1331.18
238.10	1396.71
238.32	1353.71
238.54	1427.43
238.76	1286.12
238.97	1343.47
239.19	1396.71
239.41	1431.53
239.63	1456.11
239.85	1298.41
240.06	1376.24
240.28	1353.71
240.50	1361.90
240.72	1452.01
240.93	1411.05
241.15	1349.61
241.37	1374.19
241.59	1435.63
241.81	1366.00
242.02	1355.76
242.24	1320.94
242.46	1411.05
242.68	1357.80
242.89	1402.86
243.11	1347.56
243.33	1366.00
243.55	1335.28
243.76	1435.63
243.98	1374.19
244.20	1380.33
244.42	1398.76
244.64	1404.91
244.85	1396.71
245.07	1368.04
245.29	1425.39
245.51	1417.19
245.72	1335.28
245.94	1382.38
246.16	1421.29
246.38	1361.90
246.59	1394.67
246.81	1357.80
247.03	1382.38
247.24	1327.08
247.46	1392.62
247.68	1314.80
247.90	1417.19
248.11	1347.56
248.33	1390.57
248.55	1308.65
248.77	1417.19
248.98	1357.80
249.20	1447.91
249.42	1333.23
249.64	1341.42
249.85	1419.24
250.07	1337.32
250.29	1396.71
250.50	1415.15
250.72	1341.42
250.94	1380.33
251.16	1372.14
251.37	1486.83
251.59	1394.67
251.81	1429.48
252.02	1376.24
252.24	1322.99
252.46	1363.95
252.68	1288.17
252.89	1363.95
253.11	1366.00
253.33	1421.29
253.54	1370.09
253.76	1259.50
253.98	1372.14
254.20	1339.37
254.41	1353.71
254.63	1341.42
254.85	1257.45
255.06	1368.04
255.28	1366.00
255.50	1376.24
255.71	1345.52
255.93	1327.08
256.15	1345.52
256.36	1411.05
256.58	1406.95
256.80	1333.23
257.02	1288.17
257.23	1359.85
257.45	1288.17
257.67	1411.05
257.88	1368.04
258.10	1351.66
258.32	1345.52
258.53	1406.95
258.75	1419.24
258.97	1290.22
259.18	1406.95
259.40	1347.56
259.62	1460.20
259.83	1460.20
260.05	1390.57
260.27	1517.54
260.48	1415.15
260.70	1314.80
260.92	1341.42
261.13	1394.67
261.35	1347.56
261.57	1400.81
261.78	1304.56
262.00	1347.56
262.22	1355.76
262.43	1394.67
262.65	1294.32
262.86	1419.24
263.08	1396.71
263.30	1382.38
263.51	1406.95
263.73	1329.13
263.95	1443.82
264.16	1357.80
264.38	1253.36
264.60	1398.76
264.81	1400.81
265.03	1411.05
265.25	1437.67
265.46	1437.67
265.68	1349.61
265.89	1345.52
266.11	1353.71
266.33	1363.95
266.54	1429.48
266.76	1392.62
266.98	1363.95
267.19	1413.10
267.41	1370.09
267.62	1361.90
267.84	1349.61
268.06	1402.86
268.27	1396.71
268.49	1417.19
268.70	1361.90
268.92	1411.05
269.14	1261.55
269.35	1271.79
269.57	1382.38
269.79	1370.09
270.00	1431.53
270.22	1308.65
270.43	1353.71
270.65	1302.51
270.87	1370.09
271.08	1368.04
271.30	1445.87
271.51	1333.23
271.73	1392.62
271.95	1400.81
272.16	1310.70
272.38	1325.04
272.59	1322.99
272.81	1456.11
273.02	1429.48
273.24	1394.67
273.46	1382.38
273.67	1282.03
273.89	1331.18
274.10	1353.71
274.32	1435.63
274.54	1411.05
274.75	1304.56
274.97	1345.52
275.18	1347.56
275.40	1378.28
275.61	1277.93
275.83	1329.13
276.05	1327.08
276.26	1327.08
276.48	1339.37
276.69	1314.80
276.91	1308.65
277.12	1425.39
277.34	1425.39
277.55	1480.68
277.77	1363.95
277.99	1361.90
278.20	1288.17
278.42	1363.95
278.63	1296.36
278.85	1380.33
279.06	1331.18
279.28	1423.34
279.49	1318.89
279.71	1396.71
279.93	1355.76
280.14	1333.23
280.36	1359.85
280.57	1406.95
280.79	1380.33
281.00	1345.52
281.22	1370.09
281.43	1368.04
281.65	1302.51
281.86	1279.98
282.08	1417.19
282.29	1472.49
282.51	1308.65
282.73	1335.28
282.94	1318.89
283.16	1359.85
283.37	1388.52
283.59	1331.18
283.80	1382.38
284.02	1353.71
284.23	1370.09
284.45	1363.95
284.66	1339.37
284.88	1325.04
285.09	1398.76
285.31	1398.76
285.52	1329.13
285.74	1296.36
285.95	1417.19
286.17	1351.66
286.38	1443.82
286.60	1357.80
286.81	1361.90
287.03	1388.52
287.24	1406.95
287.46	1372.14
287.67	1347.56
287.89	1357.80
288.10	1366.00
288.32	1327.08
288.53	1419.24
288.75	1355.76
288.96	1439.72
289.18	1363.95
289.39	1349.61
289.61	1376.24
289.82	1415.15
290.04	1294.32
290.25	1327.08
290.47	1382.38
290.68	1306.60
290.90	1435.63
291.11	1376.24
291.33	1380.33
291.54	1357.80
291.76	1388.52
291.97	1318.89
292.18	1406.95
292.40	1318.89
292.61	1404.91
292.83	1431.53
293.04	1423.34
293.26	1386.47
293.47	1366.00
293.69	1355.76
293.90	1384.43
294.12	1427.43
294.33	1449.96
294.55	1409.00
294.76	1421.29
294.97	1486.83
295.19	1400.81
295.40	1298.41
295.62	1394.67
295.83	1413.10
296.05	1378.28
296.26	1398.76
296.48	1339.37
296.69	1384.43
296.90	1388.52
297.12	1472.49
297.33	1361.90
297.55	1374.19
297.76	1429.48
297.98	1411.05
298.19	1396.71
298.41	1376.24
298.62	1353.71
298.83	1441.77
299.05	1411.05
299.26	1372.14
299.48	1302.51
299.69	1368.04
299.90	1468.39
300.12	1425.39
300.33	1351.66
300.55	1411.05
300.76	1363.95
300.98	1253.36
301.19	1406.95
301.40	1437.67
301.62	1443.82
301.83	1386.47
302.05	1304.56
302.26	1331.18
302.47	1394.67
302.69	1372.14
302.90	1376.24
303.12	1366.00
303.33	1409.00
303.54	1490.92
303.76	1382.38
303.97	1329.13
304.19	1472.49
304.40	1335.28
304.61	1374.19
304.83	1464.30
305.04	1384.43
305.26	1310.70
305.47	1417.19
305.68	1441.77
305.90	1271.79
306.11	1419.24
306.33	1361.90
306.54	1390.57
306.75	1347.56
306.97	1304.56
307.18	1331.18
307.39	1423.34
307.61	1398.76
307.82	1353.71
308.04	1458.15
308.25	1347.56
308.46	1406.95
308.68	1368.04
308.89	1355.76
309.10	1421.29
309.32	1380.33
309.53	1388.52
309.74	1390.57
309.96	1351.66
310.17	1388.52
310.39	1331.18
310.60	1423.34
310.81	1355.76
311.03	1322.99
311.24	1449.96
311.45	1372.14
311.67	1419.24
311.88	1368.04
312.09	1355.76
312.31	1329.13
312.52	1355.76
312.73	1339.37
312.95	1355.76
313.16	1331.18
313.37	1396.71
313.59	1427.43
313.80	1406.95
314.01	1386.47
314.23	1368.04
314.44	1333.23
314.65	1290.22
314.87	1437.67
315.08	1335.28
315.29	1351.66
315.51	1349.61
315.72	1333.23
315.93	1382.38
316.15	1460.20
316.36	1372.14
316.57	1306.60
316.79	1411.05
317.00	1331.18
317.21	1351.66
317.43	1370.09
317.64	1419.24
317.85	1443.82
318.07	1384.43
318.28	1472.49
318.49	1554.41
318.70	1624.04
318.92	1523.69
319.13	1554.41
319.34	1472.49
319.56	1501.16
319.77	1470.44
319.98	1503.21
320.20	1402.86
320.41	1458.15
320.62	1423.34
320.83	1368.04
321.05	1519.59
321.26	1298.41
321.47	1331.18
321.69	1427.43
321.90	1288.17
322.11	1361.90
322.32	1378.28
322.54	1372.14
322.75	1417.19
322.96	1411.05
323.18	1378.28
323.39	1282.03
323.60	1316.84
323.81	1486.83
324.03	1388.52
324.24	1322.99
324.45	1308.65
324.66	1351.66
324.88	1441.77
325.09	1419.24
325.30	1363.95
325.52	1384.43
325.73	1390.57
325.94	1331.18
326.15	1357.80
326.37	1363.95
326.58	1443.82
326.79	1406.95
327.00	1363.95
327.22	1447.91
327.43	1370.09
327.64	1380.33
327.85	1316.84
328.07	1396.71
328.28	1409.00
328.49	1406.95
328.70	1355.76
328.92	1361.90
329.13	1398.76
329.34	1345.52
329.55	1374.19
329.76	1413.10
329.98	1345.52
330.19	1495.02
330.40	1411.05
330.61	1388.52
330.83	1376.24
331.04	1372.14
331.25	1374.19
331.46	1390.57
331.68	1298.41
331.89	1406.95
332.10	1482.73
332.31	1288.17
332.52	1411.05
332.74	1503.21
332.95	1380.33
333.16	1363.95
333.37	1378.28
333.58	1470.44
333.80	1368.04
334.01	1388.52
334.22	1386.47
334.43	1402.86
334.64	1290.22
334.86	1322.99
335.07	1382.38
335.28	1386.47
335.49	1351.66
335.70	1380.33
335.92	1445.87
336.13	1480.68
336.34	1404.91
336.55	1394.67
336.76	1331.18
336.98	1263.60
337.19	1425.39
337.40	1411.05
337.61	1509.35
337.82	1316.84
338.04	1366.00
338.25	1318.89
338.46	1304.56
338.67	1357.80
338.88	1263.60
339.09	1331.18
339.31	1335.28
339.52	1298.41
339.73	1374.19
339.94	1351.66
340.15	1398.76
340.36	1337.32
340.58	1370.09
340.79	1437.67
341.00	1370.09
341.21	1331.18
341.42	1413.10
341.63	1353.71
341.85	1376.24
342.06	1327.08
342.27	1406.95
342.48	1384.43
342.69	1341.42
342.90	1386.47
343.12	1394.67
343.33	1351.66
343.54	1329.13
343.75	1499.11
343.96	1290.22
344.17	1314.80
344.38	1366.00
344.60	1351.66
344.81	1304.56
345.02	1359.85
345.23	1327.08
345.44	1441.77
345.65	1431.53
345.86	1376.24
346.07	1372.14
346.29	1349.61
346.50	1388.52
346.71	1372.14
346.92	1394.67
347.13	1423.34
347.34	1294.32
347.55	1353.71
347.76	1421.29
347.98	1226.73
348.19	1370.09
348.40	1462.25
348.61	1337.32
348.82	1411.05
349.03	1406.95
349.24	1347.56
349.45	1527.78
349.66	1322.99
349.88	1363.95
350.09	1380.33
350.30	1366.00
350.51	1445.87
350.72	1376.24
350.93	1394.67
351.14	1337.32
351.35	1378.28
351.56	1386.47
351.77	1378.28
351.99	1406.95
352.20	1400.81
352.41	1429.48
352.62	1357.80
352.83	1292.27
353.04	1288.17
353.25	1347.56
353.46	1421.29
353.67	1433.58
353.88	1384.43
354.09	1431.53
354.30	1322.99
354.52	1449.96
354.73	1370.09
354.94	1417.19
355.15	1404.91
355.36	1398.76
355.57	1351.66
355.78	1368.04
355.99	1366.00
356.20	1398.76
356.41	1402.86
356.62	1380.33
356.83	1271.79
357.04	1404.91
357.25	1300.46
357.46	1400.81
357.68	1361.90
357.89	1322.99
358.10	1359.85
358.31	1353.71
358.52	1368.04
358.73	1304.56
358.94	1368.04
359.15	1368.04
359.36	1366.00
359.57	1355.76
359.78	1337.32
359.99	1343.47
360.20	1423.34
360.41	1396.71
360.62	1400.81
360.83	1322.99
361.04	1382.38
361.25	1468.39
361.46	1400.81
361.67	1370.09
361.88	1439.72
362.09	1441.77
362.30	1374.19
362.51	1433.58
362.72	1392.62
362.93	1484.78
363.14	1388.52
363.35	1380.33
363.56	1339.37
363.78	1361.90
363.99	1429.48
364.20	1320.94
364.41	1363.95
364.62	1449.96
364.83	1335.28
365.04	1361.90
365.25	1353.71
365.46	1447.91
365.67	1294.32
365.88	1427.43
366.09	1402.86
366.30	1341.42
366.51	1347.56
366.72	1306.60
366.93	1390.57
367.14	1279.98
367.35	1349.61
367.56	1390.57
367.77	1355.76
367.98	1359.85
368.18	1308.65
368.39	1388.52
368.60	1335.28
368.81	1382.38
369.02	1339.37
369.23	1339.37
369.44	1345.52
369.65	1347.56
369.86	1449.96
370.07	1366.00
370.28	1322.99
370.49	1431.53
370.70	1427.43
370.91	1318.89
371.12	1314.80
371.33	1433.58
371.54	1394.67
371.75	1458.15
371.96	1316.84
372.17	1366.00
372.38	1378.28
372.59	1368.04
372.80	1339.37
373.01	1308.65
373.22	1366.00
373.43	1392.62
373.64	1380.33
373.85	1402.86
374.06	1454.06
374.26	1349.61
374.47	1341.42
374.68	1445.87
374.89	1337.32
375.10	1335.28
375.31	1361.90
375.52	1308.65
375.73	1409.00
375.94	1363.95
376.15	1439.72
376.36	1290.22
376.57	1376.24
376.78	1374.19
376.99	1349.61
377.20	1366.00
377.40	1415.15
377.61	1425.39
377.82	1413.10
378.03	1417.19
378.24	1372.14
378.45	1378.28
378.66	1415.15
378.87	1331.18
379.08	1357.80
379.29	1368.04
379.50	1372.14
379.71	1298.41
379.91	1421.29
380.12	1394.67
380.33	1380.33
380.54	1318.89
380.75	1345.52
380.96	1337.32
381.17	1456.11
381.38	1355.76
381.59	1470.44
381.80	1472.49
382.00	1550.31
382.21	1396.71
382.42	1460.20
382.63	1409.00
382.84	1402.86
383.05	1384.43
383.26	1433.58
383.47	1388.52
383.68	1454.06
383.88	1402.86
384.09	1363.95
384.30	1437.67
384.51	1355.76
384.72	1400.81
384.93	1341.42
385.14	1368.04
385.35	1355.76
385.55	1382.38
385.76	1478.63
385.97	1413.10
386.18	1406.95
386.39	1349.61
386.60	1452.01
386.81	1460.20
387.02	1363.95
387.22	1353.71
387.43	1396.71
387.64	1546.22
387.85	2291.68
388.06	5797.80
388.27	9498.48
388.48	11693.90
388.68	12943.16
388.89	13539.12
389.10	10639.20
389.31	9279.35
389.52	8400.77
389.73	7430.03
389.93	7067.54
390.14	6504.35
390.35	6090.66
390.56	5453.74
390.77	4556.73
390.98	3751.88
391.18	2846.68
391.39	2066.40
391.60	1695.72
391.81	1593.32
392.02	1445.87
392.23	1519.59
392.43	1398.76
392.64	1449.96
392.85	1452.01
393.06	1431.53
393.27	1413.10
393.47	1320.94
393.68	1363.95
393.89	1353.71
394.10	1433.58
394.31	1376.24
394.52	1380.33
394.72	1382.38
394.93	1505.26
395.14	1333.23
395.35	1400.81
395.56	1392.62
395.76	1583.08
395.97	1552.36
396.18	1603.56
396.39	1644.52
396.60	1699.81
396.80	1525.74
397.01	1513.45
397.22	1495.02
397.43	1452.01
397.64	1462.25
397.84	1474.54
398.05	1509.35
398.26	1482.73
398.47	1511.40
398.67	1454.06
398.88	1394.67
399.09	1337.32
399.30	1359.85
399.51	1521.64
399.71	1400.81
399.92	1396.71
400.13	1327.08
400.34	1363.95
400.54	1404.91
400.75	1439.72
400.96	1437.67
401.17	1386.47
401.37	1419.24
401.58	1402.86
401.79	1507.30
402.00	1718.25
402.21	1902.56
402.41	1742.82
402.62	1802.21
402.83	1728.49
403.04	1705.96
403.24	1724.39
403.45	1595.37
403.66	1552.36
403.87	1572.84
404.07	1513.45
404.28	1562.60
404.49	1621.99
404.70	1505.26
404.90	1484.78
405.11	1411.05
405.32	1396.71
405.52	1452.01
405.73	1376.24
405.94	1394.67
406.15	1359.85
406.35	1452.01
406.56	1421.29
406.77	1316.84
406.98	1322.99
407.18	1359.85
407.39	1460.20
407.60	1400.81
407.80	1413.10
408.01	1388.52
408.22	1388.52
408.43	1353.71
408.63	1374.19
408.84	1368.04
409.05	1363.95
409.25	1318.89
409.46	1368.04
409.67	1339.37
409.88	1322.99
410.08	1359.85
410.29	1271.79
410.50	1421.29
410.70	1345.52
410.91	1282.03
411.12	1333.23
411.32	1427.43
411.53	1392.62
411.74	1480.68
411.95	1413.10
412.15	1349.61
412.36	1470.44
412.57	1406.95
412.77	1411.05
412.98	1386.47
413.19	1363.95
413.39	1476.59
413.60	1361.90
413.81	1437.67
414.01	1359.85
414.22	1486.83
414.43	1404.91
414.63	1363.95
414.84	1339.37
415.05	1421.29
415.25	1361.90
415.46	1435.63
415.67	1388.52
415.87	1386.47
416.08	1402.86
416.29	1366.00
416.49	1429.48
416.70	1390.57
416.91	1351.66
417.11	1357.80
417.32	1445.87
417.53	1376.24
417.73	1361.90
417.94	1409.00
418.15	1378.28
418.35	1331.18
418.56	1409.00
418.77	1495.02
418.97	1409.00
419.18	1374.19
419.38	1302.51
419.59	1302.51
419.80	1378.28
420.00	1398.76
420.21	1345.52
420.42	1404.91
420.62	1400.81
420.83	1378.28
421.04	1429.48
421.24	1343.47
421.45	1345.52
421.65	1331.18
421.86	1419.24
422.07	1370.09
422.27	1411.05
422.48	1368.04
422.69	1409.00
422.89	1376.24
423.10	1339.37
423.30	1263.60
423.51	1349.61
423.72	1363.95
423.92	1357.80
424.13	1294.32
424.33	1372.14
424.54	1376.24
424.75	1302.51
424.95	1419.24
425.16	1433.58
425.36	1320.94
425.57	1427.43
425.78	1419.24
425.98	1413.10
426.19	1374.19
426.39	1347.56
426.60	1335.28
426.81	1398.76
427.01	1294.32
427.22	1329.13
427.42	1331.18
427.63	1382.38
427.83	1363.95
428.04	1431.53
428.25	1376.24
428.45	1454.06
428.66	1392.62
428.86	1370.09
429.07	1347.56
429.28	1355.76
429.48	1380.33
429.69	1423.34
429.89	1386.47
430.10	1372.14
430.30	1409.00
430.51	1488.87
430.71	1347.56
430.92	1411.05
431.13	1296.36
431.33	1413.10
431.54	1441.77
431.74	1478.63
431.95	1474.54
432.15	1277.93
432.36	1396.71
432.56	1339.37
432.77	1456.11
432.98	1445.87
433.18	1400.81
433.39	1359.85
433.59	1359.85
433.80	1359.85
434.00	1388.52
434.21	1402.86
434.41	1409.00
434.62	1431.53
434.82	1370.09
435.03	1376.24
435.23	1378.28
435.44	1339.37
435.64	1390.57
435.85	1322.99
436.06	1331.18
436.26	1353.71
436.47	1390.57
436.67	1331.18
436.88	1382.38
437.08	1368.04
437.29	1390.57
437.49	1458.15
437.70	1427.43
437.90	1478.63
438.11	1449.96
438.31	1470.44
438.52	1576.94
438.72	1517.54
438.93	1591.27
439.13	1435.63
439.34	1507.30
439.54	1460.20
439.75	1474.54
439.95	1417.19
440.16	1437.67
440.36	1392.62
440.57	1445.87
440.77	1413.10
440.98	1398.76
441.18	1392.62
441.39	1400.81
441.59	1349.61
441.80	1431.53
442.00	1370.09
442.21	1361.90
442.41	1325.04
442.62	1462.25
442.82	1366.00
443.02	1411.05
443.23	1353.71
443.43	1425.39
443.64	1439.72
443.84	1398.76
444.05	1429.48
444.25	1382.38
444.46	1390.57
444.66	1355.76
444.87	1445.87
445.07	1298.41
445.28	1398.76
445.48	1439.72
445.69	1347.56
445.89	1572.84
446.09	1431.53
446.30	2248.67
446.50	3770.31
446.71	4728.76
446.91	5203.89
447.12	5580.71
447.32	5128.11
447.53	4208.58
447.73	3854.28
447.93	3487.69
448.14	3168.21
448.34	2996.18
448.55	2729.94
448.75	2676.70
448.96	2688.98
449.16	2439.13
449.36	2254.81
449.57	2011.11
449.77	1697.77
449.98	1652.71
450.18	1462.25
450.39	1456.11
450.59	1402.86
450.79	1380.33
451.00	1427.43
451.20	1409.00
451.41	1290.22
451.61	1376.24
451.81	1335.28
452.02	1370.09
452.22	1374.19
452.43	1339.37
452.63	1419.24
