SpectraSuite Data File
++++++++++++++++++++++++++++++++++++
Date: Tue May 03 11:24:26 CEST 2016
User: root
Dark Spectrum Present: No
Reference Spectrum Present: No
Number of Sampled Component Spectra: 1
Spectrometers: USB4C02835
Integration Time (usec): 100000 (USB4C02835)
Spectra Averaged: 1 (USB4C02835)
Boxcar Smoothing: 0 (USB4C02835)
Correct for Electrical Dark: No (USB4C02835)
Strobe/Lamp Enabled: No (USB4C02835)
Correct for Detector Non-linearity: No (USB4C02835)
Correct for Stray Light: No (USB4C02835)
Number of Pixels in Processed Spectrum: 3648
>>>>>Begin Processed Spectral Data<<<<<
177.47	1187.82
177.69	1187.82
177.91	1187.82
178.13	1253.36
178.36	1230.83
178.58	1366.00
178.80	1433.58
179.02	1388.52
179.24	1300.46
179.46	1343.47
179.68	1353.71
179.90	1372.14
180.13	1419.24
180.35	1421.29
180.57	1359.85
180.79	1372.14
181.01	1423.34
181.23	1417.19
181.45	1386.47
181.67	1347.56
181.90	1390.57
182.12	1300.46
182.34	1343.47
182.56	1331.18
182.78	1392.62
183.00	1392.62
183.22	1374.19
183.44	1271.79
183.66	1427.43
183.89	1427.43
184.11	1376.24
184.33	1384.43
184.55	1366.00
184.77	1366.00
184.99	1460.20
185.21	1347.56
185.43	1443.82
185.65	1361.90
185.87	1345.52
186.10	1429.48
186.32	1474.54
186.54	1329.13
186.76	1427.43
186.98	1419.24
187.20	1312.75
187.42	1366.00
187.64	1363.95
187.86	1333.23
188.08	1353.71
188.30	1331.18
188.52	1308.65
188.75	1396.71
188.97	1380.33
189.19	1359.85
189.41	1392.62
189.63	1384.43
189.85	1312.75
190.07	1337.32
190.29	1279.98
190.51	1437.67
190.73	1388.52
190.95	1376.24
191.17	1429.48
191.39	1290.22
191.61	1306.60
191.84	1347.56
192.06	1347.56
192.28	1376.24
192.50	1462.25
192.72	1374.19
192.94	1337.32
193.16	1413.10
193.38	1341.42
193.60	1404.91
193.82	1445.87
194.04	1413.10
194.26	1402.86
194.48	1361.90
194.70	1302.51
194.92	1380.33
195.14	1329.13
195.36	1312.75
195.58	1394.67
195.80	1411.05
196.02	1304.56
196.24	1286.12
196.46	1417.19
196.69	1349.61
196.91	1478.63
197.13	1380.33
197.35	1316.84
197.57	1376.24
197.79	1347.56
198.01	1396.71
198.23	1370.09
198.45	1359.85
198.67	1312.75
198.89	1359.85
199.11	1394.67
199.33	1329.13
199.55	1320.94
199.77	1351.66
199.99	1415.15
200.21	1384.43
200.43	1388.52
200.65	1351.66
200.87	1339.37
201.09	1370.09
201.31	1361.90
201.53	1376.24
201.75	1392.62
201.97	1351.66
202.19	1300.46
202.41	1355.76
202.63	1400.81
202.85	1380.33
203.07	1386.47
203.29	1366.00
203.51	1327.08
203.73	1318.89
203.95	1458.15
204.17	1368.04
204.39	1370.09
204.61	1333.23
204.83	1374.19
205.05	1413.10
205.27	1423.34
205.49	1427.43
205.71	1337.32
205.93	1376.24
206.15	1288.17
206.37	1335.28
206.59	1327.08
206.81	1355.76
207.03	1308.65
207.25	1347.56
207.47	1331.18
207.69	1351.66
207.91	1435.63
208.13	1384.43
208.34	1329.13
208.56	1372.14
208.78	1361.90
209.00	1374.19
209.22	1322.99
209.44	1415.15
209.66	1308.65
209.88	1411.05
210.10	1376.24
210.32	1349.61
210.54	1476.59
210.76	1325.04
210.98	1376.24
211.20	1345.52
211.42	1404.91
211.64	1343.47
211.86	1386.47
212.08	1423.34
212.30	1353.71
212.52	1353.71
212.74	1333.23
212.96	1359.85
213.17	1419.24
213.39	1421.29
213.61	1421.29
213.83	1484.78
214.05	1298.41
214.27	1441.77
214.49	1290.22
214.71	1306.60
214.93	1445.87
215.15	1392.62
215.37	1339.37
215.59	1398.76
215.81	1357.80
216.03	1351.66
216.24	1419.24
216.46	1306.60
216.68	1355.76
216.90	1335.28
217.12	1439.72
217.34	1419.24
217.56	1400.81
217.78	1431.53
218.00	1349.61
218.22	1353.71
218.44	1376.24
218.66	1452.01
218.87	1466.35
219.09	1322.99
219.31	1419.24
219.53	1431.53
219.75	1306.60
219.97	1361.90
220.19	1392.62
220.41	1392.62
220.63	1327.08
220.85	1470.44
221.06	1396.71
221.28	1386.47
221.50	1359.85
221.72	1335.28
221.94	1312.75
222.16	1318.89
222.38	1366.00
222.60	1437.67
222.82	1353.71
223.03	1353.71
223.25	1339.37
223.47	1417.19
223.69	1482.73
223.91	1388.52
224.13	1343.47
224.35	1370.09
224.57	1335.28
224.78	1386.47
225.00	1357.80
225.22	1429.48
225.44	1404.91
225.66	1380.33
225.88	1333.23
226.10	1449.96
226.32	1445.87
226.53	1394.67
226.75	1341.42
226.97	1351.66
227.19	1378.28
227.41	1417.19
227.63	1337.32
227.85	1396.71
228.06	1294.32
228.28	1419.24
228.50	1404.91
228.72	1320.94
228.94	1320.94
229.16	1337.32
229.37	1277.93
229.59	1322.99
229.81	1449.96
230.03	1355.76
230.25	1310.70
230.47	1359.85
230.69	1343.47
230.90	1400.81
231.12	1376.24
231.34	1370.09
231.56	1363.95
231.78	1325.04
232.00	1325.04
232.21	1341.42
232.43	1308.65
232.65	1273.84
232.87	1359.85
233.09	1320.94
233.30	1368.04
233.52	1392.62
233.74	1409.00
233.96	1347.56
234.18	1398.76
234.40	1359.85
234.61	1458.15
234.83	1320.94
235.05	1265.64
235.27	1425.39
235.49	1396.71
235.70	1427.43
235.92	1511.40
236.14	1382.38
236.36	1394.67
236.58	1277.93
236.79	1359.85
237.01	1361.90
237.23	1361.90
237.45	1466.35
237.67	1400.81
237.88	1380.33
238.10	1427.43
238.32	1306.60
238.54	1357.80
238.76	1345.52
238.97	1320.94
239.19	1345.52
239.41	1409.00
239.63	1368.04
239.85	1339.37
240.06	1325.04
240.28	1335.28
240.50	1439.72
240.72	1386.47
240.93	1368.04
241.15	1314.80
241.37	1331.18
241.59	1392.62
241.81	1392.62
242.02	1331.18
242.24	1345.52
242.46	1341.42
242.68	1384.43
242.89	1386.47
243.11	1357.80
243.33	1400.81
243.55	1378.28
243.76	1394.67
243.98	1294.32
244.20	1374.19
244.42	1339.37
244.64	1380.33
244.85	1312.75
245.07	1357.80
245.29	1366.00
245.51	1374.19
245.72	1310.70
245.94	1400.81
246.16	1347.56
246.38	1409.00
246.59	1366.00
246.81	1417.19
247.03	1355.76
247.24	1359.85
247.46	1363.95
247.68	1411.05
247.90	1388.52
248.11	1359.85
248.33	1427.43
248.55	1421.29
248.77	1429.48
248.98	1345.52
249.20	1402.86
249.42	1404.91
249.64	1361.90
249.85	1398.76
250.07	1355.76
250.29	1415.15
250.50	1376.24
250.72	1374.19
250.94	1339.37
251.16	1331.18
251.37	1374.19
251.59	1435.63
251.81	1333.23
252.02	1462.25
252.24	1372.14
252.46	1322.99
252.68	1394.67
252.89	1357.80
253.11	1308.65
253.33	1421.29
253.54	1433.58
253.76	1275.88
253.98	1331.18
254.20	1402.86
254.41	1288.17
254.63	1394.67
254.85	1361.90
255.06	1368.04
255.28	1388.52
255.50	1386.47
255.71	1251.31
255.93	1372.14
256.15	1390.57
256.36	1390.57
256.58	1290.22
256.80	1421.29
257.02	1347.56
257.23	1341.42
257.45	1402.86
257.67	1394.67
257.88	1380.33
258.10	1322.99
258.32	1335.28
258.53	1394.67
258.75	1394.67
258.97	1347.56
259.18	1431.53
259.40	1347.56
259.62	1417.19
259.83	1425.39
260.05	1419.24
260.27	1574.89
260.48	1427.43
260.70	1327.08
260.92	1374.19
261.13	1400.81
261.35	1284.08
261.57	1372.14
261.78	1300.46
262.00	1331.18
262.22	1359.85
262.43	1374.19
262.65	1361.90
262.86	1312.75
263.08	1388.52
263.30	1359.85
263.51	1353.71
263.73	1292.27
263.95	1390.57
264.16	1361.90
264.38	1404.91
264.60	1398.76
264.81	1372.14
265.03	1329.13
265.25	1409.00
265.46	1370.09
265.68	1484.78
265.89	1388.52
266.11	1325.04
266.33	1404.91
266.54	1355.76
266.76	1437.67
266.98	1417.19
267.19	1406.95
267.41	1353.71
267.62	1417.19
267.84	1304.56
268.06	1320.94
268.27	1402.86
268.49	1396.71
268.70	1423.34
268.92	1304.56
269.14	1386.47
269.35	1290.22
269.57	1380.33
269.79	1398.76
270.00	1327.08
270.22	1357.80
270.43	1304.56
270.65	1400.81
270.87	1302.51
271.08	1409.00
271.30	1390.57
271.51	1404.91
271.73	1392.62
271.95	1325.04
272.16	1429.48
272.38	1357.80
272.59	1322.99
272.81	1425.39
273.02	1458.15
273.24	1331.18
273.46	1425.39
273.67	1320.94
273.89	1454.06
274.10	1318.89
274.32	1394.67
274.54	1380.33
274.75	1368.04
274.97	1382.38
275.18	1427.43
275.40	1339.37
275.61	1400.81
275.83	1404.91
276.05	1310.70
276.26	1372.14
276.48	1409.00
276.69	1302.51
276.91	1372.14
277.12	1335.28
277.34	1400.81
277.55	1392.62
277.77	1384.43
277.99	1384.43
278.20	1329.13
278.42	1331.18
278.63	1366.00
278.85	1431.53
279.06	1378.28
279.28	1392.62
279.49	1462.25
279.71	1449.96
279.93	1413.10
280.14	1390.57
280.36	1341.42
280.57	1411.05
280.79	1413.10
281.00	1400.81
281.22	1288.17
281.43	1443.82
281.65	1302.51
281.86	1302.51
282.08	1351.66
282.29	1392.62
282.51	1341.42
282.73	1374.19
282.94	1310.70
283.16	1386.47
283.37	1425.39
283.59	1357.80
283.80	1316.84
284.02	1394.67
284.23	1400.81
284.45	1298.41
284.66	1316.84
284.88	1343.47
285.09	1388.52
285.31	1435.63
285.52	1380.33
285.74	1292.27
285.95	1472.49
286.17	1433.58
286.38	1411.05
286.60	1314.80
286.81	1286.12
287.03	1304.56
287.24	1298.41
287.46	1382.38
287.67	1409.00
287.89	1359.85
288.10	1388.52
288.32	1394.67
288.53	1417.19
288.75	1404.91
288.96	1396.71
289.18	1359.85
289.39	1398.76
289.61	1388.52
289.82	1404.91
290.04	1374.19
290.25	1363.95
290.47	1331.18
290.68	1380.33
290.90	1396.71
291.11	1359.85
291.33	1480.68
291.54	1351.66
291.76	1366.00
291.97	1312.75
292.18	1322.99
292.40	1355.76
292.61	1380.33
292.83	1396.71
293.04	1406.95
293.26	1380.33
293.47	1353.71
293.69	1335.28
293.90	1411.05
294.12	1429.48
294.33	1437.67
294.55	1298.41
294.76	1370.09
294.97	1388.52
295.19	1366.00
295.40	1394.67
295.62	1368.04
295.83	1411.05
296.05	1320.94
296.26	1380.33
296.48	1322.99
296.69	1374.19
296.90	1396.71
297.12	1384.43
297.33	1396.71
297.55	1347.56
297.76	1415.15
297.98	1404.91
298.19	1417.19
298.41	1406.95
298.62	1372.14
298.83	1423.34
299.05	1376.24
299.26	1382.38
299.48	1277.93
299.69	1400.81
299.90	1394.67
300.12	1374.19
300.33	1437.67
300.55	1390.57
300.76	1363.95
300.98	1378.28
301.19	1419.24
301.40	1341.42
301.62	1392.62
301.83	1374.19
302.05	1368.04
302.26	1351.66
302.47	1306.60
302.69	1351.66
302.90	1353.71
303.12	1294.32
303.33	1368.04
303.54	1419.24
303.76	1384.43
303.97	1380.33
304.19	1435.63
304.40	1314.80
304.61	1355.76
304.83	1380.33
305.04	1474.54
305.26	1331.18
305.47	1378.28
305.68	1314.80
305.90	1458.15
306.11	1363.95
306.33	1388.52
306.54	1374.19
306.75	1361.90
306.97	1269.74
307.18	1357.80
307.39	1347.56
307.61	1366.00
307.82	1286.12
308.04	1421.29
308.25	1374.19
308.46	1390.57
308.68	1325.04
308.89	1302.51
309.10	1507.30
309.32	1380.33
309.53	1390.57
309.74	1314.80
309.96	1398.76
310.17	1349.61
310.39	1431.53
310.60	1398.76
310.81	1417.19
311.03	1343.47
311.24	1384.43
311.45	1396.71
311.67	1460.20
311.88	1396.71
312.09	1329.13
312.31	1425.39
312.52	1363.95
312.73	1363.95
312.95	1308.65
313.16	1331.18
313.37	1427.43
313.59	1460.20
313.80	1396.71
314.01	1495.02
314.23	1322.99
314.44	1331.18
314.65	1245.16
314.87	1327.08
315.08	1400.81
315.29	1339.37
315.51	1296.36
315.72	1351.66
315.93	1433.58
316.15	1456.11
316.36	1265.64
316.57	1353.71
316.79	1359.85
317.00	1402.86
317.21	1394.67
317.43	1343.47
317.64	1386.47
317.85	1370.09
318.07	1449.96
318.28	1519.59
318.49	1564.65
318.70	1566.70
318.92	1601.51
319.13	1470.44
319.34	1478.63
319.56	1515.50
319.77	1480.68
319.98	1445.87
320.20	1462.25
320.41	1409.00
320.62	1357.80
320.83	1357.80
321.05	1447.91
321.26	1368.04
321.47	1363.95
321.69	1402.86
321.90	1384.43
322.11	1429.48
322.32	1406.95
322.54	1462.25
322.75	1425.39
322.96	1460.20
323.18	1316.84
323.39	1343.47
323.60	1349.61
323.81	1454.06
324.03	1310.70
324.24	1386.47
324.45	1361.90
324.66	1380.33
324.88	1394.67
325.09	1435.63
325.30	1382.38
325.52	1380.33
325.73	1382.38
325.94	1361.90
326.15	1288.17
326.37	1376.24
326.58	1435.63
326.79	1443.82
327.00	1386.47
327.22	1329.13
327.43	1304.56
327.64	1380.33
327.85	1316.84
328.07	1409.00
328.28	1384.43
328.49	1413.10
328.70	1390.57
328.92	1361.90
329.13	1386.47
329.34	1415.15
329.55	1511.40
329.76	1413.10
329.98	1372.14
330.19	1462.25
330.40	1380.33
330.61	1388.52
330.83	1341.42
331.04	1331.18
331.25	1400.81
331.46	1396.71
331.68	1286.12
331.89	1396.71
332.10	1345.52
332.31	1312.75
332.52	1366.00
332.74	1439.72
332.95	1314.80
333.16	1335.28
333.37	1404.91
333.58	1351.66
333.80	1351.66
334.01	1294.32
334.22	1325.04
334.43	1406.95
334.64	1333.23
334.86	1345.52
335.07	1388.52
335.28	1363.95
335.49	1298.41
335.70	1462.25
335.92	1363.95
336.13	1435.63
336.34	1347.56
336.55	1372.14
336.76	1396.71
336.98	1284.08
337.19	1322.99
337.40	1394.67
337.61	1509.35
337.82	1296.36
338.04	1454.06
338.25	1331.18
338.46	1331.18
338.67	1378.28
338.88	1351.66
339.09	1370.09
339.31	1327.08
339.52	1325.04
339.73	1304.56
339.94	1345.52
340.15	1355.76
340.36	1368.04
340.58	1322.99
340.79	1345.52
341.00	1322.99
341.21	1376.24
341.42	1404.91
341.63	1304.56
341.85	1353.71
342.06	1390.57
342.27	1361.90
342.48	1396.71
342.69	1318.89
342.90	1353.71
343.12	1372.14
343.33	1394.67
343.54	1476.59
343.75	1380.33
343.96	1357.80
344.17	1261.55
344.38	1306.60
344.60	1363.95
344.81	1351.66
345.02	1392.62
345.23	1429.48
345.44	1441.77
345.65	1435.63
345.86	1417.19
346.07	1411.05
346.29	1372.14
346.50	1341.42
346.71	1388.52
346.92	1433.58
347.13	1460.20
347.34	1316.84
347.55	1337.32
347.76	1404.91
347.98	1273.84
348.19	1361.90
348.40	1396.71
348.61	1372.14
348.82	1429.48
349.03	1406.95
349.24	1343.47
349.45	1431.53
349.66	1374.19
349.88	1406.95
350.09	1302.51
350.30	1421.29
350.51	1400.81
350.72	1349.61
350.93	1351.66
351.14	1353.71
351.35	1316.84
351.56	1339.37
351.77	1388.52
351.99	1366.00
352.20	1452.01
352.41	1439.72
352.62	1310.70
352.83	1290.22
353.04	1396.71
353.25	1374.19
353.46	1366.00
353.67	1413.10
353.88	1312.75
354.09	1419.24
354.30	1363.95
354.52	1345.52
354.73	1413.10
354.94	1363.95
355.15	1386.47
355.36	1406.95
355.57	1359.85
355.78	1411.05
355.99	1353.71
356.20	1368.04
356.41	1402.86
356.62	1435.63
356.83	1361.90
357.04	1394.67
357.25	1335.28
357.46	1341.42
357.68	1288.17
357.89	1316.84
358.10	1392.62
358.31	1417.19
358.52	1351.66
358.73	1284.08
358.94	1351.66
359.15	1353.71
359.36	1419.24
359.57	1421.29
359.78	1384.43
359.99	1349.61
360.20	1327.08
360.41	1329.13
360.62	1374.19
360.83	1406.95
361.04	1437.67
361.25	1406.95
361.46	1468.39
361.67	1378.28
361.88	1441.77
362.09	1353.71
362.30	1345.52
362.51	1368.04
362.72	1411.05
362.93	1343.47
363.14	1413.10
363.35	1370.09
363.56	1343.47
363.78	1409.00
363.99	1409.00
364.20	1390.57
364.41	1355.76
364.62	1349.61
364.83	1380.33
365.04	1345.52
365.25	1376.24
365.46	1390.57
365.67	1357.80
365.88	1335.28
366.09	1308.65
366.30	1318.89
366.51	1333.23
366.72	1327.08
366.93	1325.04
367.14	1392.62
367.35	1431.53
367.56	1318.89
367.77	1421.29
367.98	1363.95
368.18	1368.04
368.39	1325.04
368.60	1339.37
368.81	1394.67
369.02	1366.00
369.23	1325.04
369.44	1376.24
369.65	1402.86
369.86	1372.14
370.07	1347.56
370.28	1390.57
370.49	1341.42
370.70	1398.76
370.91	1406.95
371.12	1404.91
371.33	1378.28
371.54	1431.53
371.75	1413.10
371.96	1384.43
372.17	1341.42
372.38	1384.43
372.59	1392.62
372.80	1351.66
373.01	1347.56
373.22	1349.61
373.43	1372.14
373.64	1378.28
373.85	1421.29
374.06	1419.24
374.26	1355.76
374.47	1339.37
374.68	1433.58
374.89	1366.00
375.10	1390.57
375.31	1445.87
375.52	1396.71
375.73	1322.99
375.94	1325.04
376.15	1335.28
376.36	1339.37
376.57	1337.32
376.78	1322.99
376.99	1380.33
377.20	1322.99
377.40	1329.13
377.61	1452.01
377.82	1388.52
378.03	1427.43
378.24	1320.94
378.45	1392.62
378.66	1355.76
378.87	1325.04
379.08	1329.13
379.29	1376.24
379.50	1415.15
379.71	1388.52
379.91	1306.60
380.12	1400.81
380.33	1398.76
380.54	1427.43
380.75	1357.80
380.96	1312.75
381.17	1441.77
381.38	1361.90
381.59	1421.29
381.80	1406.95
382.00	1507.30
382.21	1417.19
382.42	1554.41
382.63	1501.16
382.84	1355.76
383.05	1370.09
383.26	1388.52
383.47	1480.68
383.68	1394.67
383.88	1320.94
384.09	1355.76
384.30	1417.19
384.51	1411.05
384.72	1366.00
384.93	1325.04
385.14	1378.28
385.35	1445.87
385.55	1384.43
385.76	1370.09
385.97	1370.09
386.18	1349.61
386.39	1392.62
386.60	1372.14
386.81	1300.46
387.02	1402.86
387.22	1421.29
387.43	1533.93
387.64	1607.66
387.85	2224.09
388.06	5861.29
388.27	9582.45
388.48	11589.46
388.68	13201.21
388.89	13240.12
389.10	10645.34
389.31	9504.62
389.52	8431.49
389.73	7319.44
389.93	6819.74
390.14	6651.80
390.35	5869.48
390.56	5443.50
390.77	4702.14
390.98	3618.76
391.18	2830.29
391.39	2203.61
391.60	1710.05
391.81	1583.08
392.02	1439.72
392.23	1452.01
392.43	1441.77
392.64	1380.33
392.85	1322.99
393.06	1464.30
393.27	1413.10
393.47	1325.04
393.68	1353.71
393.89	1353.71
394.10	1443.82
394.31	1402.86
394.52	1288.17
394.72	1398.76
394.93	1431.53
395.14	1417.19
395.35	1390.57
395.56	1431.53
395.76	1466.35
395.97	1564.65
396.18	1615.85
396.39	1478.63
396.60	1658.85
396.80	1597.42
397.01	1583.08
397.22	1468.39
397.43	1505.26
397.64	1425.39
397.84	1507.30
398.05	1515.50
398.26	1445.87
398.47	1382.38
398.67	1466.35
398.88	1462.25
399.09	1398.76
399.30	1298.41
399.51	1429.48
399.71	1316.84
399.92	1296.36
400.13	1417.19
400.34	1327.08
400.54	1282.03
400.75	1464.30
400.96	1380.33
401.17	1429.48
401.37	1458.15
401.58	1413.10
401.79	1503.21
402.00	1656.81
402.21	1837.03
402.41	1806.31
402.62	1859.56
402.83	1677.29
403.04	1656.81
403.24	1697.77
403.45	1576.94
403.66	1482.73
403.87	1499.11
404.07	1572.84
404.28	1556.46
404.49	1511.40
404.70	1523.69
404.90	1464.30
405.11	1423.34
405.32	1490.92
405.52	1345.52
405.73	1376.24
405.94	1347.56
406.15	1380.33
406.35	1368.04
406.56	1404.91
406.77	1398.76
406.98	1402.86
407.18	1333.23
407.39	1443.82
407.60	1337.32
407.80	1363.95
408.01	1376.24
408.22	1380.33
408.43	1370.09
408.63	1378.28
408.84	1363.95
409.05	1462.25
409.25	1343.47
409.46	1368.04
409.67	1361.90
409.88	1318.89
410.08	1394.67
410.29	1335.28
410.50	1327.08
410.70	1398.76
410.91	1310.70
411.12	1392.62
411.32	1406.95
411.53	1361.90
411.74	1476.59
411.95	1605.61
412.15	1449.96
412.36	1363.95
412.57	1388.52
412.77	1517.54
412.98	1462.25
413.19	1380.33
413.39	1445.87
413.60	1366.00
413.81	1488.87
414.01	1368.04
414.22	1470.44
414.43	1392.62
414.63	1402.86
414.84	1378.28
415.05	1363.95
415.25	1298.41
415.46	1366.00
415.67	1322.99
415.87	1390.57
416.08	1443.82
416.29	1394.67
416.49	1413.10
416.70	1335.28
416.91	1370.09
417.11	1366.00
417.32	1402.86
417.53	1361.90
417.73	1429.48
417.94	1372.14
418.15	1419.24
418.35	1308.65
418.56	1431.53
418.77	1437.67
418.97	1347.56
419.18	1361.90
419.38	1322.99
419.59	1318.89
419.80	1482.73
420.00	1361.90
420.21	1404.91
420.42	1366.00
420.62	1437.67
420.83	1368.04
421.04	1400.81
421.24	1310.70
421.45	1363.95
421.65	1433.58
421.86	1355.76
422.07	1431.53
422.27	1361.90
422.48	1378.28
422.69	1370.09
422.89	1345.52
423.10	1404.91
423.30	1243.12
423.51	1435.63
423.72	1427.43
423.92	1409.00
424.13	1241.07
424.33	1314.80
424.54	1380.33
424.75	1378.28
424.95	1363.95
425.16	1382.38
425.36	1361.90
425.57	1404.91
425.78	1443.82
425.98	1368.04
426.19	1331.18
426.39	1288.17
426.60	1316.84
426.81	1368.04
427.01	1419.24
427.22	1386.47
427.42	1335.28
427.63	1329.13
427.83	1351.66
428.04	1421.29
428.25	1392.62
428.45	1452.01
428.66	1404.91
428.86	1296.36
429.07	1411.05
429.28	1402.86
429.48	1329.13
429.69	1339.37
429.89	1396.71
430.10	1327.08
430.30	1396.71
430.51	1366.00
430.71	1349.61
430.92	1361.90
431.13	1376.24
431.33	1380.33
431.54	1345.52
431.74	1449.96
431.95	1468.39
432.15	1339.37
432.36	1351.66
432.56	1384.43
432.77	1439.72
432.98	1425.39
433.18	1368.04
433.39	1368.04
433.59	1392.62
433.80	1441.77
434.00	1472.49
434.21	1322.99
434.41	1425.39
434.62	1468.39
434.82	1288.17
435.03	1388.52
435.23	1329.13
435.44	1318.89
435.64	1357.80
435.85	1392.62
436.06	1386.47
436.26	1419.24
436.47	1378.28
436.67	1339.37
436.88	1306.60
437.08	1398.76
437.29	1443.82
437.49	1374.19
437.70	1392.62
437.90	1404.91
438.11	1476.59
438.31	1503.21
438.52	1538.02
438.72	1556.46
438.93	1546.22
439.13	1488.87
439.34	1462.25
439.54	1433.58
439.75	1452.01
439.95	1363.95
440.16	1425.39
440.36	1464.30
440.57	1413.10
440.77	1366.00
440.98	1413.10
441.18	1409.00
441.39	1392.62
441.59	1398.76
441.80	1449.96
442.00	1411.05
442.21	1396.71
442.41	1277.93
442.62	1411.05
442.82	1380.33
443.02	1427.43
443.23	1333.23
443.43	1372.14
443.64	1462.25
443.84	1310.70
444.05	1435.63
444.25	1380.33
444.46	1335.28
444.66	1343.47
444.87	1492.97
445.07	1329.13
445.28	1310.70
445.48	1495.02
445.69	1435.63
445.89	1482.73
446.09	1548.26
446.30	2289.63
446.50	3624.90
446.71	4597.69
446.91	5314.48
447.12	5468.08
447.32	4894.65
447.53	4165.57
447.73	3737.54
447.93	3330.00
448.14	3203.02
448.34	3063.76
448.55	2766.81
448.75	2744.28
448.96	2623.45
449.16	2373.60
449.36	2224.09
449.57	2007.01
449.77	1662.95
449.98	1513.45
450.18	1482.73
450.39	1406.95
450.59	1382.38
450.79	1363.95
451.00	1384.43
451.20	1429.48
451.41	1423.34
451.61	1341.42
451.81	1380.33
452.02	1306.60
452.22	1384.43
452.43	1345.52
452.63	1353.71
