SpectraSuite Data File
++++++++++++++++++++++++++++++++++++
Date: Tue May 03 11:24:23 CEST 2016
User: root
Dark Spectrum Present: No
Reference Spectrum Present: No
Number of Sampled Component Spectra: 1
Spectrometers: USB4C02835
Integration Time (usec): 100000 (USB4C02835)
Spectra Averaged: 1 (USB4C02835)
Boxcar Smoothing: 0 (USB4C02835)
Correct for Electrical Dark: No (USB4C02835)
Strobe/Lamp Enabled: No (USB4C02835)
Correct for Detector Non-linearity: No (USB4C02835)
Correct for Stray Light: No (USB4C02835)
Number of Pixels in Processed Spectrum: 3648
>>>>>Begin Processed Spectral Data<<<<<
177.47	1269.74
177.69	1269.74
177.91	1269.74
178.13	1212.40
178.36	1257.45
178.58	1361.90
178.80	1345.52
179.02	1300.46
179.24	1359.85
179.46	1339.37
179.68	1423.34
179.90	1372.14
180.13	1380.33
180.35	1298.41
180.57	1363.95
180.79	1335.28
181.01	1404.91
181.23	1396.71
181.45	1359.85
181.67	1404.91
181.90	1353.71
182.12	1372.14
182.34	1273.84
182.56	1392.62
182.78	1419.24
183.00	1392.62
183.22	1349.61
183.44	1329.13
183.66	1427.43
183.89	1452.01
184.11	1384.43
184.33	1402.86
184.55	1433.58
184.77	1345.52
184.99	1394.67
185.21	1357.80
185.43	1452.01
185.65	1353.71
185.87	1458.15
186.10	1441.77
186.32	1443.82
186.54	1402.86
186.76	1361.90
186.98	1378.28
187.20	1312.75
187.42	1329.13
187.64	1402.86
187.86	1384.43
188.08	1341.42
188.30	1333.23
188.52	1366.00
188.75	1384.43
188.97	1390.57
189.19	1368.04
189.41	1376.24
189.63	1396.71
189.85	1345.52
190.07	1290.22
190.29	1355.76
190.51	1376.24
190.73	1380.33
190.95	1429.48
191.17	1247.21
191.39	1288.17
191.61	1298.41
191.84	1402.86
192.06	1355.76
192.28	1306.60
192.50	1466.35
192.72	1361.90
192.94	1445.87
193.16	1372.14
193.38	1341.42
193.60	1357.80
193.82	1363.95
194.04	1392.62
194.26	1368.04
194.48	1413.10
194.70	1413.10
194.92	1314.80
195.14	1409.00
195.36	1353.71
195.58	1378.28
195.80	1363.95
196.02	1335.28
196.24	1312.75
196.46	1351.66
196.69	1374.19
196.91	1357.80
197.13	1374.19
197.35	1359.85
197.57	1427.43
197.79	1409.00
198.01	1417.19
198.23	1421.29
198.45	1357.80
198.67	1345.52
198.89	1304.56
199.11	1345.52
199.33	1353.71
199.55	1331.18
199.77	1355.76
199.99	1445.87
200.21	1288.17
200.43	1327.08
200.65	1345.52
200.87	1304.56
201.09	1443.82
201.31	1390.57
201.53	1392.62
201.75	1337.32
201.97	1241.07
202.19	1380.33
202.41	1361.90
202.63	1378.28
202.85	1327.08
203.07	1380.33
203.29	1374.19
203.51	1292.27
203.73	1396.71
203.95	1492.97
204.17	1411.05
204.39	1359.85
204.61	1284.08
204.83	1361.90
205.05	1427.43
205.27	1396.71
205.49	1419.24
205.71	1382.38
205.93	1331.18
206.15	1306.60
206.37	1368.04
206.59	1413.10
206.81	1347.56
207.03	1400.81
207.25	1331.18
207.47	1419.24
207.69	1318.89
207.91	1429.48
208.13	1472.49
208.34	1376.24
208.56	1349.61
208.78	1390.57
209.00	1372.14
209.22	1351.66
209.44	1386.47
209.66	1318.89
209.88	1300.46
210.10	1318.89
210.32	1355.76
210.54	1345.52
210.76	1404.91
210.98	1460.20
211.20	1294.32
211.42	1411.05
211.64	1394.67
211.86	1310.70
212.08	1331.18
212.30	1409.00
212.52	1325.04
212.74	1402.86
212.96	1308.65
213.17	1378.28
213.39	1357.80
213.61	1472.49
213.83	1343.47
214.05	1341.42
214.27	1384.43
214.49	1351.66
214.71	1329.13
214.93	1409.00
215.15	1243.12
215.37	1423.34
215.59	1363.95
215.81	1404.91
216.03	1345.52
216.24	1366.00
216.46	1345.52
216.68	1384.43
216.90	1351.66
217.12	1368.04
217.34	1404.91
217.56	1351.66
217.78	1447.91
218.00	1370.09
218.22	1392.62
218.44	1339.37
218.66	1349.61
218.87	1429.48
219.09	1421.29
219.31	1396.71
219.53	1368.04
219.75	1339.37
219.97	1265.64
220.19	1337.32
220.41	1343.47
220.63	1396.71
220.85	1437.67
221.06	1402.86
221.28	1404.91
221.50	1394.67
221.72	1447.91
221.94	1337.32
222.16	1386.47
222.38	1402.86
222.60	1347.56
222.82	1337.32
223.03	1370.09
223.25	1347.56
223.47	1409.00
223.69	1488.87
223.91	1411.05
224.13	1394.67
224.35	1368.04
224.57	1429.48
224.78	1351.66
225.00	1349.61
225.22	1386.47
225.44	1347.56
225.66	1355.76
225.88	1343.47
226.10	1392.62
226.32	1361.90
226.53	1388.52
226.75	1320.94
226.97	1359.85
227.19	1394.67
227.41	1376.24
227.63	1355.76
227.85	1325.04
228.06	1452.01
228.28	1449.96
228.50	1435.63
228.72	1339.37
228.94	1320.94
229.16	1327.08
229.37	1257.45
229.59	1376.24
229.81	1472.49
230.03	1376.24
230.25	1341.42
230.47	1390.57
230.69	1257.45
230.90	1363.95
231.12	1376.24
231.34	1388.52
231.56	1327.08
231.78	1327.08
232.00	1378.28
232.21	1339.37
232.43	1384.43
232.65	1294.32
232.87	1394.67
233.09	1347.56
233.30	1392.62
233.52	1433.58
233.74	1353.71
233.96	1312.75
234.18	1376.24
234.40	1355.76
234.61	1447.91
234.83	1318.89
235.05	1275.88
235.27	1492.97
235.49	1394.67
235.70	1431.53
235.92	1437.67
236.14	1368.04
236.36	1409.00
236.58	1363.95
236.79	1390.57
237.01	1343.47
237.23	1292.27
237.45	1423.34
237.67	1329.13
237.88	1361.90
238.10	1392.62
238.32	1372.14
238.54	1376.24
238.76	1384.43
238.97	1339.37
239.19	1363.95
239.41	1376.24
239.63	1431.53
239.85	1325.04
240.06	1380.33
240.28	1388.52
240.50	1329.13
240.72	1370.09
240.93	1388.52
241.15	1421.29
241.37	1333.23
241.59	1384.43
241.81	1325.04
242.02	1333.23
242.24	1370.09
242.46	1380.33
242.68	1343.47
242.89	1388.52
243.11	1384.43
243.33	1320.94
243.55	1388.52
243.76	1347.56
243.98	1296.36
244.20	1304.56
244.42	1318.89
244.64	1484.78
244.85	1245.16
245.07	1456.11
245.29	1349.61
245.51	1437.67
245.72	1361.90
245.94	1361.90
246.16	1427.43
246.38	1439.72
246.59	1275.88
246.81	1284.08
247.03	1327.08
247.24	1284.08
247.46	1308.65
247.68	1386.47
247.90	1417.19
248.11	1345.52
248.33	1386.47
248.55	1380.33
248.77	1409.00
248.98	1394.67
249.20	1331.18
249.42	1390.57
249.64	1380.33
249.85	1380.33
250.07	1343.47
250.29	1318.89
250.50	1357.80
250.72	1394.67
250.94	1361.90
251.16	1431.53
251.37	1361.90
251.59	1492.97
251.81	1388.52
252.02	1378.28
252.24	1349.61
252.46	1460.20
252.68	1343.47
252.89	1347.56
253.11	1322.99
253.33	1437.67
253.54	1396.71
253.76	1318.89
253.98	1351.66
254.20	1366.00
254.41	1316.84
254.63	1355.76
254.85	1329.13
255.06	1386.47
255.28	1339.37
255.50	1349.61
255.71	1329.13
255.93	1331.18
256.15	1359.85
256.36	1335.28
256.58	1298.41
256.80	1441.77
257.02	1417.19
257.23	1331.18
257.45	1419.24
257.67	1411.05
257.88	1265.64
258.10	1345.52
258.32	1374.19
258.53	1392.62
258.75	1425.39
258.97	1388.52
259.18	1361.90
259.40	1341.42
259.62	1445.87
259.83	1404.91
260.05	1419.24
260.27	1558.50
260.48	1406.95
260.70	1357.80
260.92	1286.12
261.13	1370.09
261.35	1368.04
261.57	1351.66
261.78	1279.98
262.00	1286.12
262.22	1413.10
262.43	1331.18
262.65	1394.67
262.86	1347.56
263.08	1388.52
263.30	1361.90
263.51	1359.85
263.73	1396.71
263.95	1333.23
264.16	1394.67
264.38	1271.79
264.60	1347.56
264.81	1386.47
265.03	1335.28
265.25	1409.00
265.46	1310.70
265.68	1396.71
265.89	1382.38
266.11	1312.75
266.33	1339.37
266.54	1343.47
266.76	1400.81
266.98	1368.04
267.19	1495.02
267.41	1380.33
267.62	1349.61
267.84	1322.99
268.06	1335.28
268.27	1363.95
268.49	1417.19
268.70	1406.95
268.92	1298.41
269.14	1288.17
269.35	1370.09
269.57	1409.00
269.79	1427.43
270.00	1314.80
270.22	1386.47
270.43	1329.13
270.65	1273.84
270.87	1341.42
271.08	1404.91
271.30	1349.61
271.51	1370.09
271.73	1368.04
271.95	1376.24
272.16	1288.17
272.38	1302.51
272.59	1335.28
272.81	1370.09
273.02	1404.91
273.24	1406.95
273.46	1402.86
273.67	1279.98
273.89	1341.42
274.10	1409.00
274.32	1394.67
274.54	1339.37
274.75	1316.84
274.97	1382.38
275.18	1363.95
275.40	1374.19
275.61	1392.62
275.83	1462.25
276.05	1294.32
276.26	1349.61
276.48	1452.01
276.69	1355.76
276.91	1378.28
277.12	1376.24
277.34	1490.92
277.55	1421.29
277.77	1419.24
277.99	1347.56
278.20	1370.09
278.42	1325.04
278.63	1322.99
278.85	1322.99
279.06	1316.84
279.28	1388.52
279.49	1374.19
279.71	1445.87
279.93	1339.37
280.14	1337.32
280.36	1372.14
280.57	1439.72
280.79	1433.58
281.00	1382.38
281.22	1329.13
281.43	1361.90
281.65	1261.55
281.86	1341.42
282.08	1316.84
282.29	1497.07
282.51	1359.85
282.73	1279.98
282.94	1404.91
283.16	1456.11
283.37	1376.24
283.59	1394.67
283.80	1374.19
284.02	1284.08
284.23	1390.57
284.45	1310.70
284.66	1374.19
284.88	1353.71
285.09	1333.23
285.31	1392.62
285.52	1445.87
285.74	1355.76
285.95	1419.24
286.17	1366.00
286.38	1423.34
286.60	1345.52
286.81	1314.80
287.03	1376.24
287.24	1316.84
287.46	1398.76
287.67	1409.00
287.89	1431.53
288.10	1388.52
288.32	1370.09
288.53	1454.06
288.75	1374.19
288.96	1417.19
289.18	1423.34
289.39	1331.18
289.61	1417.19
289.82	1415.15
290.04	1425.39
290.25	1353.71
290.47	1347.56
290.68	1312.75
290.90	1331.18
291.11	1345.52
291.33	1359.85
291.54	1366.00
291.76	1355.76
291.97	1304.56
292.18	1423.34
292.40	1394.67
292.61	1343.47
292.83	1402.86
293.04	1314.80
293.26	1460.20
293.47	1406.95
293.69	1394.67
293.90	1378.28
294.12	1384.43
294.33	1388.52
294.55	1368.04
294.76	1359.85
294.97	1374.19
295.19	1486.83
295.40	1402.86
295.62	1386.47
295.83	1462.25
296.05	1380.33
296.26	1417.19
296.48	1347.56
296.69	1320.94
296.90	1337.32
297.12	1404.91
297.33	1322.99
297.55	1282.03
297.76	1396.71
297.98	1419.24
298.19	1333.23
298.41	1366.00
298.62	1271.79
298.83	1368.04
299.05	1306.60
299.26	1333.23
299.48	1355.76
299.69	1394.67
299.90	1349.61
300.12	1312.75
300.33	1404.91
300.55	1320.94
300.76	1363.95
300.98	1337.32
301.19	1359.85
301.40	1359.85
301.62	1339.37
301.83	1372.14
302.05	1400.81
302.26	1400.81
302.47	1376.24
302.69	1273.84
302.90	1308.65
303.12	1327.08
303.33	1415.15
303.54	1452.01
303.76	1376.24
303.97	1370.09
304.19	1353.71
304.40	1335.28
304.61	1361.90
304.83	1394.67
305.04	1454.06
305.26	1300.46
305.47	1337.32
305.68	1445.87
305.90	1314.80
306.11	1433.58
306.33	1400.81
306.54	1392.62
306.75	1302.51
306.97	1400.81
307.18	1345.52
307.39	1351.66
307.61	1425.39
307.82	1431.53
308.04	1384.43
308.25	1316.84
308.46	1325.04
308.68	1329.13
308.89	1378.28
309.10	1380.33
309.32	1355.76
309.53	1339.37
309.74	1366.00
309.96	1349.61
310.17	1546.22
310.39	1394.67
310.60	1402.86
310.81	1402.86
311.03	1351.66
311.24	1359.85
311.45	1351.66
311.67	1423.34
311.88	1402.86
312.09	1306.60
312.31	1329.13
312.52	1322.99
312.73	1378.28
312.95	1370.09
313.16	1347.56
313.37	1439.72
313.59	1351.66
313.80	1417.19
314.01	1396.71
314.23	1366.00
314.44	1312.75
314.65	1339.37
314.87	1284.08
315.08	1318.89
315.29	1331.18
315.51	1304.56
315.72	1366.00
315.93	1374.19
316.15	1396.71
316.36	1400.81
316.57	1349.61
316.79	1406.95
317.00	1335.28
317.21	1404.91
317.43	1353.71
317.64	1378.28
317.85	1370.09
318.07	1392.62
318.28	1546.22
318.49	1552.36
318.70	1585.13
318.92	1501.16
319.13	1492.97
319.34	1474.54
319.56	1501.16
319.77	1540.07
319.98	1486.83
320.20	1423.34
320.41	1419.24
320.62	1443.82
320.83	1419.24
321.05	1472.49
321.26	1449.96
321.47	1437.67
321.69	1441.77
321.90	1357.80
322.11	1370.09
322.32	1384.43
322.54	1411.05
322.75	1380.33
322.96	1404.91
323.18	1415.15
323.39	1318.89
323.60	1370.09
323.81	1359.85
324.03	1366.00
324.24	1423.34
324.45	1374.19
324.66	1382.38
324.88	1433.58
325.09	1456.11
325.30	1351.66
325.52	1388.52
325.73	1452.01
325.94	1288.17
326.15	1318.89
326.37	1355.76
326.58	1384.43
326.79	1343.47
327.00	1339.37
327.22	1382.38
327.43	1337.32
327.64	1277.93
327.85	1357.80
328.07	1398.76
328.28	1388.52
328.49	1353.71
328.70	1413.10
328.92	1312.75
329.13	1361.90
329.34	1388.52
329.55	1449.96
329.76	1435.63
329.98	1396.71
330.19	1470.44
330.40	1370.09
330.61	1370.09
330.83	1335.28
331.04	1341.42
331.25	1304.56
331.46	1320.94
331.68	1318.89
331.89	1419.24
332.10	1447.91
332.31	1372.14
332.52	1382.38
332.74	1411.05
332.95	1300.46
333.16	1398.76
333.37	1343.47
333.58	1308.65
333.80	1347.56
334.01	1320.94
334.22	1411.05
334.43	1282.03
334.64	1349.61
334.86	1273.84
335.07	1312.75
335.28	1386.47
335.49	1282.03
335.70	1435.63
335.92	1398.76
336.13	1490.92
336.34	1380.33
336.55	1425.39
336.76	1380.33
336.98	1347.56
337.19	1366.00
337.40	1341.42
337.61	1363.95
337.82	1349.61
338.04	1351.66
338.25	1282.03
338.46	1335.28
338.67	1353.71
338.88	1329.13
339.09	1288.17
339.31	1300.46
339.52	1343.47
339.73	1368.04
339.94	1308.65
340.15	1394.67
340.36	1400.81
340.58	1318.89
340.79	1361.90
341.00	1366.00
341.21	1300.46
341.42	1296.36
341.63	1378.28
341.85	1374.19
342.06	1411.05
342.27	1382.38
342.48	1386.47
342.69	1396.71
342.90	1396.71
343.12	1376.24
343.33	1386.47
343.54	1392.62
343.75	1361.90
343.96	1316.84
344.17	1353.71
344.38	1308.65
344.60	1355.76
344.81	1378.28
345.02	1415.15
345.23	1427.43
345.44	1400.81
345.65	1316.84
345.86	1372.14
346.07	1347.56
346.29	1339.37
346.50	1339.37
346.71	1456.11
346.92	1480.68
347.13	1413.10
347.34	1343.47
347.55	1361.90
347.76	1304.56
347.98	1279.98
348.19	1409.00
348.40	1384.43
348.61	1322.99
348.82	1320.94
349.03	1439.72
349.24	1366.00
349.45	1386.47
349.66	1357.80
349.88	1343.47
350.09	1386.47
350.30	1431.53
350.51	1404.91
350.72	1404.91
350.93	1429.48
351.14	1406.95
351.35	1445.87
351.56	1376.24
351.77	1370.09
351.99	1353.71
352.20	1435.63
352.41	1415.15
352.62	1359.85
352.83	1394.67
353.04	1298.41
353.25	1294.32
353.46	1417.19
353.67	1316.84
353.88	1308.65
354.09	1376.24
354.30	1421.29
354.52	1406.95
354.73	1347.56
354.94	1325.04
355.15	1394.67
355.36	1462.25
355.57	1327.08
355.78	1302.51
355.99	1357.80
356.20	1359.85
356.41	1345.52
356.62	1404.91
356.83	1314.80
357.04	1359.85
357.25	1247.21
357.46	1355.76
357.68	1327.08
357.89	1308.65
358.10	1396.71
358.31	1341.42
358.52	1406.95
358.73	1316.84
358.94	1327.08
359.15	1370.09
359.36	1390.57
359.57	1400.81
359.78	1347.56
359.99	1366.00
360.20	1331.18
360.41	1406.95
360.62	1425.39
360.83	1359.85
361.04	1404.91
361.25	1335.28
361.46	1423.34
361.67	1339.37
361.88	1406.95
362.09	1380.33
362.30	1445.87
362.51	1388.52
362.72	1339.37
362.93	1370.09
363.14	1390.57
363.35	1378.28
363.56	1255.40
363.78	1376.24
363.99	1466.35
364.20	1310.70
364.41	1355.76
364.62	1409.00
364.83	1386.47
365.04	1376.24
365.25	1370.09
365.46	1363.95
365.67	1363.95
365.88	1337.32
366.09	1374.19
366.30	1327.08
366.51	1394.67
366.72	1353.71
366.93	1331.18
367.14	1335.28
367.35	1411.05
367.56	1382.38
367.77	1345.52
367.98	1376.24
368.18	1394.67
368.39	1333.23
368.60	1366.00
368.81	1425.39
369.02	1411.05
369.23	1427.43
369.44	1370.09
369.65	1355.76
369.86	1406.95
370.07	1474.54
370.28	1394.67
370.49	1423.34
370.70	1439.72
370.91	1306.60
371.12	1376.24
371.33	1396.71
371.54	1333.23
371.75	1464.30
371.96	1353.71
372.17	1384.43
372.38	1390.57
372.59	1351.66
372.80	1308.65
373.01	1374.19
373.22	1388.52
373.43	1378.28
373.64	1329.13
373.85	1433.58
374.06	1396.71
374.26	1406.95
374.47	1396.71
374.68	1398.76
374.89	1421.29
375.10	1406.95
375.31	1452.01
375.52	1349.61
375.73	1398.76
375.94	1392.62
376.15	1415.15
376.36	1304.56
376.57	1396.71
376.78	1384.43
376.99	1411.05
377.20	1411.05
377.40	1392.62
377.61	1439.72
377.82	1378.28
378.03	1429.48
378.24	1366.00
378.45	1357.80
378.66	1480.68
378.87	1333.23
379.08	1318.89
379.29	1325.04
379.50	1492.97
379.71	1286.12
379.91	1454.06
380.12	1384.43
380.33	1398.76
380.54	1361.90
380.75	1298.41
380.96	1333.23
381.17	1460.20
381.38	1517.54
381.59	1490.92
381.80	1435.63
382.00	1470.44
382.21	1388.52
382.42	1474.54
382.63	1531.88
382.84	1419.24
383.05	1363.95
383.26	1445.87
383.47	1359.85
383.68	1435.63
383.88	1437.67
384.09	1419.24
384.30	1402.86
384.51	1339.37
384.72	1361.90
384.93	1406.95
385.14	1390.57
385.35	1486.83
385.55	1368.04
385.76	1468.39
385.97	1380.33
386.18	1363.95
386.39	1347.56
386.60	1449.96
386.81	1372.14
387.02	1343.47
387.22	1370.09
387.43	1456.11
387.64	1560.55
387.85	2363.36
388.06	5758.89
388.27	9607.02
388.48	11654.99
388.68	13334.32
388.89	13332.28
389.10	10606.43
389.31	9281.39
389.52	8515.45
389.73	7370.64
389.93	6897.56
390.14	6432.67
390.35	6203.30
390.56	5445.55
390.77	4489.15
390.98	3741.64
391.18	2795.48
391.39	2111.46
391.60	1679.33
391.81	1621.99
392.02	1398.76
392.23	1386.47
392.43	1447.91
392.64	1435.63
392.85	1404.91
393.06	1372.14
393.27	1406.95
393.47	1361.90
393.68	1368.04
393.89	1353.71
394.10	1409.00
394.31	1390.57
394.52	1349.61
394.72	1290.22
394.93	1413.10
395.14	1351.66
395.35	1415.15
395.56	1374.19
395.76	1470.44
395.97	1533.93
396.18	1605.61
396.39	1630.18
396.60	1638.38
396.80	1505.26
397.01	1527.78
397.22	1492.97
397.43	1478.63
397.64	1462.25
397.84	1558.50
398.05	1507.30
398.26	1413.10
398.47	1392.62
398.67	1425.39
398.88	1458.15
399.09	1458.15
399.30	1392.62
399.51	1421.29
399.71	1329.13
399.92	1472.49
400.13	1384.43
400.34	1355.76
400.54	1384.43
400.75	1464.30
400.96	1351.66
401.17	1417.19
401.37	1368.04
401.58	1398.76
401.79	1581.03
402.00	1695.72
402.21	1845.22
402.41	1806.31
402.62	1820.64
402.83	1757.16
403.04	1654.76
403.24	1724.39
403.45	1574.89
403.66	1509.35
403.87	1535.98
404.07	1560.55
404.28	1574.89
404.49	1626.09
404.70	1503.21
404.90	1488.87
405.11	1388.52
405.32	1390.57
405.52	1400.81
405.73	1339.37
405.94	1351.66
406.15	1347.56
406.35	1355.76
406.56	1337.32
406.77	1417.19
406.98	1353.71
407.18	1331.18
407.39	1406.95
407.60	1433.58
407.80	1447.91
408.01	1388.52
408.22	1425.39
408.43	1363.95
408.63	1431.53
408.84	1415.15
409.05	1423.34
409.25	1308.65
409.46	1366.00
409.67	1335.28
409.88	1316.84
410.08	1445.87
410.29	1325.04
410.50	1376.24
410.70	1390.57
410.91	1394.67
411.12	1372.14
411.32	1425.39
411.53	1394.67
411.74	1484.78
411.95	1468.39
412.15	1396.71
412.36	1425.39
412.57	1431.53
412.77	1486.83
412.98	1337.32
413.19	1368.04
413.39	1388.52
413.60	1419.24
413.81	1396.71
414.01	1343.47
414.22	1363.95
414.43	1435.63
414.63	1370.09
414.84	1384.43
415.05	1423.34
415.25	1351.66
415.46	1458.15
415.67	1312.75
415.87	1351.66
416.08	1351.66
416.29	1357.80
416.49	1443.82
416.70	1400.81
416.91	1394.67
417.11	1343.47
417.32	1376.24
417.53	1413.10
417.73	1409.00
417.94	1363.95
418.15	1402.86
418.35	1386.47
418.56	1388.52
418.77	1538.02
418.97	1335.28
419.18	1372.14
419.38	1308.65
419.59	1335.28
419.80	1402.86
420.00	1372.14
420.21	1419.24
420.42	1476.59
420.62	1320.94
420.83	1380.33
421.04	1331.18
421.24	1390.57
421.45	1345.52
421.65	1441.77
421.86	1282.03
422.07	1468.39
422.27	1370.09
422.48	1335.28
422.69	1296.36
422.89	1337.32
423.10	1409.00
423.30	1308.65
423.51	1294.32
423.72	1425.39
423.92	1413.10
424.13	1308.65
424.33	1396.71
424.54	1447.91
424.75	1398.76
424.95	1495.02
425.16	1357.80
425.36	1357.80
425.57	1409.00
425.78	1359.85
425.98	1402.86
426.19	1302.51
426.39	1335.28
426.60	1398.76
426.81	1374.19
427.01	1384.43
427.22	1302.51
427.42	1366.00
427.63	1445.87
427.83	1329.13
428.04	1474.54
428.25	1458.15
428.45	1433.58
428.66	1415.15
428.86	1322.99
429.07	1355.76
429.28	1374.19
429.48	1353.71
429.69	1370.09
429.89	1406.95
430.10	1339.37
430.30	1366.00
430.51	1388.52
430.71	1374.19
430.92	1357.80
431.13	1376.24
431.33	1380.33
431.54	1380.33
431.74	1390.57
431.95	1468.39
432.15	1376.24
432.36	1318.89
432.56	1409.00
432.77	1462.25
432.98	1447.91
433.18	1413.10
433.39	1378.28
433.59	1345.52
433.80	1447.91
434.00	1447.91
434.21	1396.71
434.41	1314.80
434.62	1460.20
434.82	1361.90
435.03	1335.28
435.23	1355.76
435.44	1271.79
435.64	1386.47
435.85	1322.99
436.06	1396.71
436.26	1392.62
436.47	1366.00
436.67	1460.20
436.88	1359.85
437.08	1396.71
437.29	1452.01
437.49	1409.00
437.70	1449.96
437.90	1503.21
438.11	1527.78
438.31	1593.32
438.52	1544.17
438.72	1548.26
438.93	1556.46
439.13	1456.11
439.34	1384.43
439.54	1445.87
439.75	1415.15
439.95	1495.02
440.16	1372.14
440.36	1501.16
440.57	1380.33
440.77	1390.57
440.98	1374.19
441.18	1380.33
441.39	1302.51
441.59	1386.47
441.80	1415.15
442.00	1359.85
442.21	1427.43
442.41	1251.31
442.62	1441.77
442.82	1386.47
443.02	1419.24
443.23	1441.77
443.43	1396.71
443.64	1402.86
443.84	1359.85
444.05	1402.86
444.25	1417.19
444.46	1374.19
444.66	1370.09
444.87	1433.58
445.07	1341.42
445.28	1413.10
445.48	1458.15
445.69	1484.78
445.89	1527.78
446.09	1470.44
446.30	2338.78
446.50	3770.31
446.71	4710.33
446.91	5347.25
447.12	5576.62
447.32	5003.19
447.53	4130.75
447.73	3856.33
447.93	3387.34
448.14	3221.45
448.34	3063.76
448.55	2869.20
448.75	2820.05
448.96	2707.41
449.16	2389.98
449.36	2142.18
449.57	1927.14
449.77	1740.77
449.98	1490.92
450.18	1413.10
450.39	1423.34
450.59	1427.43
450.79	1480.68
451.00	1353.71
451.20	1394.67
451.41	1320.94
451.61	1411.05
451.81	1449.96
452.02	1376.24
452.22	1312.75
452.43	1363.95
452.63	1404.91
