SpectraSuite Data File
++++++++++++++++++++++++++++++++++++
Date: Tue May 03 11:24:21 CEST 2016
User: root
Dark Spectrum Present: No
Reference Spectrum Present: No
Number of Sampled Component Spectra: 1
Spectrometers: USB4C02835
Integration Time (usec): 100000 (USB4C02835)
Spectra Averaged: 1 (USB4C02835)
Boxcar Smoothing: 0 (USB4C02835)
Correct for Electrical Dark: No (USB4C02835)
Strobe/Lamp Enabled: No (USB4C02835)
Correct for Detector Non-linearity: No (USB4C02835)
Correct for Stray Light: No (USB4C02835)
Number of Pixels in Processed Spectrum: 3648
>>>>>Begin Processed Spectral Data<<<<<
177.47	1159.15
177.69	1159.15
177.91	1159.15
178.13	1179.63
178.36	1216.49
178.58	1331.18
178.80	1341.42
179.02	1292.27
179.24	1308.65
179.46	1347.56
179.68	1509.35
179.90	1329.13
180.13	1312.75
180.35	1306.60
180.57	1345.52
180.79	1370.09
181.01	1363.95
181.23	1329.13
181.45	1437.67
181.67	1312.75
181.90	1284.08
182.12	1318.89
182.34	1263.60
182.56	1406.95
182.78	1343.47
183.00	1331.18
183.22	1343.47
183.44	1294.32
183.66	1443.82
183.89	1366.00
184.11	1415.15
184.33	1314.80
184.55	1341.42
184.77	1396.71
184.99	1409.00
185.21	1349.61
185.43	1495.02
185.65	1255.40
185.87	1435.63
186.10	1482.73
186.32	1382.38
186.54	1368.04
186.76	1347.56
186.98	1304.56
187.20	1419.24
187.42	1329.13
187.64	1353.71
187.86	1409.00
188.08	1359.85
188.30	1370.09
188.52	1445.87
188.75	1417.19
188.97	1380.33
189.19	1380.33
189.41	1320.94
189.63	1351.66
189.85	1304.56
190.07	1290.22
190.29	1298.41
190.51	1417.19
190.73	1298.41
190.95	1437.67
191.17	1337.32
191.39	1347.56
191.61	1372.14
191.84	1325.04
192.06	1361.90
192.28	1243.12
192.50	1484.78
192.72	1400.81
192.94	1388.52
193.16	1435.63
193.38	1396.71
193.60	1382.38
193.82	1357.80
194.04	1429.48
194.26	1421.29
194.48	1394.67
194.70	1427.43
194.92	1351.66
195.14	1392.62
195.36	1320.94
195.58	1437.67
195.80	1316.84
196.02	1361.90
196.24	1331.18
196.46	1306.60
196.69	1363.95
196.91	1478.63
197.13	1337.32
197.35	1441.77
197.57	1341.42
197.79	1411.05
198.01	1366.00
198.23	1341.42
198.45	1396.71
198.67	1314.80
198.89	1374.19
199.11	1292.27
199.33	1329.13
199.55	1288.17
199.77	1370.09
199.99	1429.48
200.21	1415.15
200.43	1355.76
200.65	1372.14
200.87	1398.76
201.09	1361.90
201.31	1347.56
201.53	1409.00
201.75	1413.10
201.97	1388.52
202.19	1322.99
202.41	1341.42
202.63	1468.39
202.85	1372.14
203.07	1349.61
203.29	1290.22
203.51	1331.18
203.73	1374.19
203.95	1411.05
204.17	1353.71
204.39	1388.52
204.61	1349.61
204.83	1417.19
205.05	1433.58
205.27	1363.95
205.49	1394.67
205.71	1370.09
205.93	1345.52
206.15	1372.14
206.37	1398.76
206.59	1363.95
206.81	1298.41
207.03	1411.05
207.25	1284.08
207.47	1329.13
207.69	1370.09
207.91	1447.91
208.13	1433.58
208.34	1357.80
208.56	1300.46
208.78	1419.24
209.00	1370.09
209.22	1331.18
209.44	1431.53
209.66	1372.14
209.88	1296.36
210.10	1345.52
210.32	1368.04
210.54	1380.33
210.76	1335.28
210.98	1425.39
211.20	1255.40
211.42	1347.56
211.64	1390.57
211.86	1427.43
212.08	1378.28
212.30	1370.09
212.52	1333.23
212.74	1425.39
212.96	1347.56
213.17	1419.24
213.39	1476.59
213.61	1392.62
213.83	1355.76
214.05	1353.71
214.27	1380.33
214.49	1294.32
214.71	1318.89
214.93	1409.00
215.15	1388.52
215.37	1271.79
215.59	1290.22
215.81	1421.29
216.03	1437.67
216.24	1396.71
216.46	1331.18
216.68	1331.18
216.90	1462.25
217.12	1423.34
217.34	1355.76
217.56	1384.43
217.78	1388.52
218.00	1374.19
218.22	1300.46
218.44	1402.86
218.66	1427.43
218.87	1394.67
219.09	1374.19
219.31	1376.24
219.53	1363.95
219.75	1290.22
219.97	1318.89
220.19	1347.56
220.41	1288.17
220.63	1435.63
220.85	1441.77
221.06	1339.37
221.28	1495.02
221.50	1390.57
221.72	1363.95
221.94	1380.33
222.16	1314.80
222.38	1388.52
222.60	1445.87
222.82	1322.99
223.03	1351.66
223.25	1357.80
223.47	1411.05
223.69	1456.11
223.91	1417.19
224.13	1474.54
224.35	1353.71
224.57	1384.43
224.78	1476.59
225.00	1345.52
225.22	1363.95
225.44	1380.33
225.66	1388.52
225.88	1388.52
226.10	1396.71
226.32	1409.00
226.53	1386.47
226.75	1384.43
226.97	1390.57
227.19	1384.43
227.41	1415.15
227.63	1368.04
227.85	1253.36
228.06	1372.14
228.28	1398.76
228.50	1419.24
228.72	1409.00
228.94	1423.34
229.16	1302.51
229.37	1322.99
229.59	1335.28
229.81	1443.82
230.03	1304.56
230.25	1347.56
230.47	1347.56
230.69	1290.22
230.90	1361.90
231.12	1372.14
231.34	1368.04
231.56	1349.61
231.78	1351.66
232.00	1337.32
232.21	1376.24
232.43	1339.37
232.65	1269.74
232.87	1349.61
233.09	1402.86
233.30	1302.51
233.52	1353.71
233.74	1353.71
233.96	1378.28
234.18	1423.34
234.40	1384.43
234.61	1404.91
234.83	1304.56
235.05	1353.71
235.27	1437.67
235.49	1404.91
235.70	1345.52
235.92	1394.67
236.14	1388.52
236.36	1443.82
236.58	1372.14
236.79	1382.38
237.01	1333.23
237.23	1359.85
237.45	1433.58
237.67	1357.80
237.88	1363.95
238.10	1466.35
238.32	1335.28
238.54	1329.13
238.76	1361.90
238.97	1320.94
239.19	1263.60
239.41	1386.47
239.63	1404.91
239.85	1366.00
240.06	1398.76
240.28	1322.99
240.50	1392.62
240.72	1409.00
240.93	1400.81
241.15	1370.09
241.37	1417.19
241.59	1345.52
241.81	1413.10
242.02	1318.89
242.24	1390.57
242.46	1433.58
242.68	1335.28
242.89	1363.95
243.11	1331.18
243.33	1388.52
243.55	1366.00
243.76	1363.95
243.98	1310.70
244.20	1347.56
244.42	1359.85
244.64	1419.24
244.85	1341.42
245.07	1347.56
245.29	1419.24
245.51	1372.14
245.72	1357.80
245.94	1429.48
246.16	1413.10
246.38	1437.67
246.59	1312.75
246.81	1310.70
247.03	1411.05
247.24	1339.37
247.46	1374.19
247.68	1355.76
247.90	1421.29
248.11	1296.36
248.33	1355.76
248.55	1380.33
248.77	1370.09
248.98	1392.62
249.20	1476.59
249.42	1396.71
249.64	1413.10
249.85	1355.76
250.07	1331.18
250.29	1339.37
250.50	1345.52
250.72	1331.18
250.94	1394.67
251.16	1492.97
251.37	1429.48
251.59	1384.43
251.81	1447.91
252.02	1439.72
252.24	1327.08
252.46	1363.95
252.68	1349.61
252.89	1273.84
253.11	1320.94
253.33	1435.63
253.54	1425.39
253.76	1333.23
253.98	1392.62
254.20	1306.60
254.41	1339.37
254.63	1325.04
254.85	1302.51
255.06	1366.00
255.28	1366.00
255.50	1372.14
255.71	1318.89
255.93	1363.95
256.15	1316.84
256.36	1382.38
256.58	1421.29
256.80	1441.77
257.02	1308.65
257.23	1374.19
257.45	1335.28
257.67	1370.09
257.88	1376.24
258.10	1386.47
258.32	1400.81
258.53	1429.48
258.75	1445.87
258.97	1353.71
259.18	1286.12
259.40	1339.37
259.62	1384.43
259.83	1386.47
260.05	1388.52
260.27	1452.01
260.48	1366.00
260.70	1306.60
260.92	1329.13
261.13	1388.52
261.35	1386.47
261.57	1318.89
261.78	1300.46
262.00	1320.94
262.22	1417.19
262.43	1351.66
262.65	1351.66
262.86	1359.85
263.08	1384.43
263.30	1318.89
263.51	1327.08
263.73	1312.75
263.95	1421.29
264.16	1325.04
264.38	1415.15
264.60	1380.33
264.81	1308.65
265.03	1458.15
265.25	1419.24
265.46	1335.28
265.68	1552.36
265.89	1337.32
266.11	1372.14
266.33	1492.97
266.54	1374.19
266.76	1382.38
266.98	1445.87
267.19	1411.05
267.41	1466.35
267.62	1378.28
267.84	1284.08
268.06	1361.90
268.27	1388.52
268.49	1380.33
268.70	1423.34
268.92	1413.10
269.14	1409.00
269.35	1314.80
269.57	1372.14
269.79	1398.76
270.00	1368.04
270.22	1394.67
270.43	1314.80
270.65	1286.12
270.87	1384.43
271.08	1394.67
271.30	1392.62
271.51	1366.00
271.73	1398.76
271.95	1318.89
272.16	1355.76
272.38	1441.77
272.59	1370.09
272.81	1353.71
273.02	1372.14
273.24	1495.02
273.46	1378.28
273.67	1263.60
273.89	1419.24
274.10	1368.04
274.32	1409.00
274.54	1370.09
274.75	1382.38
274.97	1325.04
275.18	1468.39
275.40	1402.86
275.61	1404.91
275.83	1380.33
276.05	1329.13
276.26	1353.71
276.48	1413.10
276.69	1394.67
276.91	1341.42
277.12	1429.48
277.34	1421.29
277.55	1406.95
277.77	1296.36
277.99	1357.80
278.20	1298.41
278.42	1341.42
278.63	1292.27
278.85	1359.85
279.06	1337.32
279.28	1353.71
279.49	1402.86
279.71	1441.77
279.93	1329.13
280.14	1382.38
280.36	1363.95
280.57	1363.95
280.79	1482.73
281.00	1314.80
281.22	1411.05
281.43	1363.95
281.65	1312.75
281.86	1306.60
282.08	1396.71
282.29	1392.62
282.51	1339.37
282.73	1390.57
282.94	1337.32
283.16	1380.33
283.37	1449.96
283.59	1394.67
283.80	1382.38
284.02	1347.56
284.23	1341.42
284.45	1339.37
284.66	1327.08
284.88	1384.43
285.09	1386.47
285.31	1390.57
285.52	1337.32
285.74	1333.23
285.95	1404.91
286.17	1398.76
286.38	1394.67
286.60	1394.67
286.81	1351.66
287.03	1320.94
287.24	1335.28
287.46	1368.04
287.67	1355.76
287.89	1413.10
288.10	1327.08
288.32	1380.33
288.53	1361.90
288.75	1372.14
288.96	1363.95
289.18	1382.38
289.39	1404.91
289.61	1384.43
289.82	1419.24
290.04	1404.91
290.25	1314.80
290.47	1370.09
290.68	1388.52
290.90	1400.81
291.11	1302.51
291.33	1437.67
291.54	1359.85
291.76	1271.79
291.97	1388.52
292.18	1386.47
292.40	1368.04
292.61	1357.80
292.83	1433.58
293.04	1411.05
293.26	1380.33
293.47	1439.72
293.69	1302.51
293.90	1331.18
294.12	1394.67
294.33	1388.52
294.55	1376.24
294.76	1433.58
294.97	1351.66
295.19	1503.21
295.40	1345.52
295.62	1333.23
295.83	1386.47
296.05	1339.37
296.26	1363.95
296.48	1302.51
296.69	1322.99
296.90	1306.60
297.12	1314.80
297.33	1372.14
297.55	1339.37
297.76	1462.25
297.98	1368.04
298.19	1333.23
298.41	1382.38
298.62	1322.99
298.83	1351.66
299.05	1404.91
299.26	1327.08
299.48	1282.03
299.69	1400.81
299.90	1382.38
300.12	1304.56
300.33	1406.95
300.55	1376.24
300.76	1421.29
300.98	1388.52
301.19	1425.39
301.40	1355.76
301.62	1394.67
301.83	1396.71
302.05	1331.18
302.26	1398.76
302.47	1396.71
302.69	1263.60
302.90	1361.90
303.12	1277.93
303.33	1378.28
303.54	1454.06
303.76	1314.80
303.97	1396.71
304.19	1372.14
304.40	1413.10
304.61	1390.57
304.83	1429.48
305.04	1394.67
305.26	1378.28
305.47	1341.42
305.68	1357.80
305.90	1333.23
306.11	1390.57
306.33	1267.69
306.54	1339.37
306.75	1306.60
306.97	1359.85
307.18	1314.80
307.39	1325.04
307.61	1382.38
307.82	1333.23
308.04	1415.15
308.25	1345.52
308.46	1345.52
308.68	1335.28
308.89	1372.14
309.10	1404.91
309.32	1419.24
309.53	1378.28
309.74	1421.29
309.96	1314.80
310.17	1421.29
310.39	1380.33
310.60	1335.28
310.81	1394.67
311.03	1380.33
311.24	1390.57
311.45	1366.00
311.67	1404.91
311.88	1376.24
312.09	1331.18
312.31	1376.24
312.52	1376.24
312.73	1390.57
312.95	1251.31
313.16	1327.08
313.37	1359.85
313.59	1386.47
313.80	1368.04
314.01	1363.95
314.23	1345.52
314.44	1353.71
314.65	1304.56
314.87	1376.24
315.08	1433.58
315.29	1361.90
315.51	1290.22
315.72	1304.56
315.93	1409.00
316.15	1458.15
316.36	1376.24
316.57	1349.61
316.79	1353.71
317.00	1363.95
317.21	1370.09
317.43	1376.24
317.64	1406.95
317.85	1419.24
318.07	1468.39
318.28	1568.74
318.49	1544.17
318.70	1644.52
318.92	1468.39
319.13	1427.43
319.34	1548.26
319.56	1495.02
319.77	1415.15
319.98	1486.83
320.20	1429.48
320.41	1466.35
320.62	1413.10
320.83	1398.76
321.05	1427.43
321.26	1345.52
321.47	1363.95
321.69	1388.52
321.90	1298.41
322.11	1325.04
322.32	1372.14
322.54	1437.67
322.75	1308.65
322.96	1337.32
323.18	1355.76
323.39	1243.12
323.60	1341.42
323.81	1372.14
324.03	1394.67
324.24	1322.99
324.45	1355.76
324.66	1318.89
324.88	1415.15
325.09	1374.19
325.30	1288.17
325.52	1404.91
325.73	1310.70
325.94	1339.37
326.15	1273.84
326.37	1318.89
326.58	1363.95
326.79	1380.33
327.00	1335.28
327.22	1347.56
327.43	1368.04
327.64	1384.43
327.85	1380.33
328.07	1427.43
328.28	1406.95
328.49	1347.56
328.70	1331.18
328.92	1382.38
329.13	1351.66
329.34	1370.09
329.55	1454.06
329.76	1456.11
329.98	1394.67
330.19	1394.67
330.40	1384.43
330.61	1384.43
330.83	1351.66
331.04	1353.71
331.25	1435.63
331.46	1396.71
331.68	1400.81
331.89	1429.48
332.10	1366.00
332.31	1363.95
332.52	1363.95
332.74	1398.76
332.95	1368.04
333.16	1298.41
333.37	1409.00
333.58	1331.18
333.80	1359.85
334.01	1306.60
334.22	1343.47
334.43	1390.57
334.64	1343.47
334.86	1382.38
335.07	1273.84
335.28	1404.91
335.49	1400.81
335.70	1382.38
335.92	1327.08
336.13	1470.44
336.34	1411.05
336.55	1370.09
336.76	1472.49
336.98	1279.98
337.19	1388.52
337.40	1396.71
337.61	1433.58
337.82	1327.08
338.04	1372.14
338.25	1380.33
338.46	1353.71
338.67	1349.61
338.88	1314.80
339.09	1335.28
339.31	1339.37
339.52	1353.71
339.73	1349.61
339.94	1306.60
340.15	1368.04
340.36	1353.71
340.58	1417.19
340.79	1376.24
341.00	1378.28
341.21	1353.71
341.42	1437.67
341.63	1333.23
341.85	1413.10
342.06	1404.91
342.27	1263.60
342.48	1388.52
342.69	1394.67
342.90	1382.38
343.12	1388.52
343.33	1316.84
343.54	1417.19
343.75	1355.76
343.96	1355.76
344.17	1282.03
344.38	1288.17
344.60	1402.86
344.81	1386.47
345.02	1394.67
345.23	1415.15
345.44	1413.10
345.65	1368.04
345.86	1374.19
346.07	1308.65
346.29	1353.71
346.50	1470.44
346.71	1374.19
346.92	1388.52
347.13	1429.48
347.34	1322.99
347.55	1429.48
347.76	1415.15
347.98	1396.71
348.19	1259.50
348.40	1495.02
348.61	1413.10
348.82	1325.04
349.03	1464.30
349.24	1372.14
349.45	1441.77
349.66	1312.75
349.88	1435.63
350.09	1343.47
350.30	1396.71
350.51	1419.24
350.72	1376.24
350.93	1386.47
351.14	1331.18
351.35	1402.86
351.56	1378.28
351.77	1464.30
351.99	1376.24
352.20	1398.76
352.41	1359.85
352.62	1314.80
352.83	1310.70
353.04	1447.91
353.25	1384.43
353.46	1421.29
353.67	1411.05
353.88	1325.04
354.09	1355.76
354.30	1273.84
354.52	1390.57
354.73	1380.33
354.94	1380.33
355.15	1378.28
355.36	1411.05
355.57	1361.90
355.78	1322.99
355.99	1351.66
356.20	1314.80
356.41	1460.20
356.62	1370.09
356.83	1306.60
357.04	1357.80
357.25	1343.47
357.46	1343.47
357.68	1298.41
357.89	1353.71
358.10	1327.08
358.31	1357.80
358.52	1400.81
358.73	1339.37
358.94	1318.89
359.15	1314.80
359.36	1380.33
359.57	1366.00
359.78	1409.00
359.99	1415.15
360.20	1325.04
360.41	1349.61
360.62	1370.09
360.83	1423.34
361.04	1409.00
361.25	1351.66
361.46	1357.80
361.67	1386.47
361.88	1390.57
362.09	1376.24
362.30	1413.10
362.51	1318.89
362.72	1349.61
362.93	1433.58
363.14	1415.15
363.35	1347.56
363.56	1349.61
363.78	1380.33
363.99	1337.32
364.20	1304.56
364.41	1378.28
364.62	1394.67
364.83	1337.32
365.04	1423.34
365.25	1378.28
365.46	1425.39
365.67	1302.51
365.88	1361.90
366.09	1267.69
366.30	1378.28
366.51	1413.10
366.72	1302.51
366.93	1279.98
367.14	1458.15
367.35	1486.83
367.56	1390.57
367.77	1421.29
367.98	1419.24
368.18	1497.07
368.39	1398.76
368.60	1316.84
368.81	1359.85
369.02	1347.56
369.23	1355.76
369.44	1275.88
369.65	1394.67
369.86	1411.05
370.07	1435.63
370.28	1402.86
370.49	1466.35
370.70	1382.38
370.91	1380.33
371.12	1322.99
371.33	1429.48
371.54	1279.98
371.75	1415.15
371.96	1236.97
372.17	1439.72
372.38	1357.80
372.59	1406.95
372.80	1376.24
373.01	1435.63
373.22	1425.39
373.43	1357.80
373.64	1327.08
373.85	1306.60
374.06	1456.11
374.26	1439.72
374.47	1406.95
374.68	1322.99
374.89	1474.54
375.10	1335.28
375.31	1429.48
375.52	1372.14
375.73	1357.80
375.94	1392.62
376.15	1411.05
376.36	1366.00
376.57	1419.24
376.78	1349.61
376.99	1380.33
377.20	1425.39
377.40	1327.08
377.61	1415.15
377.82	1353.71
378.03	1449.96
378.24	1357.80
378.45	1327.08
378.66	1404.91
378.87	1310.70
379.08	1306.60
379.29	1382.38
379.50	1419.24
379.71	1368.04
379.91	1337.32
380.12	1347.56
380.33	1292.27
380.54	1388.52
380.75	1374.19
380.96	1452.01
381.17	1452.01
381.38	1435.63
381.59	1431.53
381.80	1388.52
382.00	1591.27
382.21	1419.24
382.42	1452.01
382.63	1470.44
382.84	1437.67
383.05	1447.91
383.26	1409.00
383.47	1294.32
383.68	1437.67
383.88	1388.52
384.09	1327.08
384.30	1499.11
384.51	1394.67
384.72	1302.51
384.93	1337.32
385.14	1421.29
385.35	1462.25
385.55	1339.37
385.76	1439.72
385.97	1441.77
386.18	1378.28
386.39	1458.15
386.60	1372.14
386.81	1431.53
387.02	1476.59
387.22	1402.86
387.43	1474.54
387.64	1517.54
387.85	2269.15
388.06	5687.21
388.27	9383.79
388.48	11382.61
388.68	12885.82
388.89	13322.04
389.10	10571.61
389.31	8953.72
389.52	8212.35
389.73	7403.41
389.93	6729.63
390.14	6328.22
390.35	6055.84
390.56	5431.21
390.77	4652.98
390.98	3659.72
391.18	2758.61
391.39	2156.51
391.60	1763.30
391.81	1552.36
392.02	1529.83
392.23	1472.49
392.43	1468.39
392.64	1398.76
392.85	1382.38
393.06	1413.10
393.27	1318.89
393.47	1366.00
393.68	1372.14
393.89	1409.00
394.10	1437.67
394.31	1271.79
394.52	1314.80
394.72	1269.74
394.93	1470.44
395.14	1335.28
395.35	1368.04
395.56	1400.81
395.76	1554.41
395.97	1476.59
396.18	1576.94
396.39	1605.61
396.60	1703.91
396.80	1497.07
397.01	1535.98
397.22	1535.98
397.43	1470.44
397.64	1484.78
397.84	1499.11
398.05	1542.12
398.26	1435.63
398.47	1441.77
398.67	1517.54
398.88	1386.47
399.09	1400.81
399.30	1353.71
399.51	1423.34
399.71	1343.47
399.92	1404.91
400.13	1386.47
400.34	1320.94
400.54	1347.56
400.75	1447.91
400.96	1411.05
401.17	1366.00
401.37	1433.58
401.58	1335.28
401.79	1513.45
402.00	1642.47
402.21	1814.50
402.41	1705.96
402.62	1753.06
402.83	1708.01
403.04	1595.37
403.24	1701.86
403.45	1562.60
403.66	1587.18
403.87	1585.13
404.07	1521.64
404.28	1533.93
404.49	1634.28
404.70	1460.20
404.90	1380.33
405.11	1347.56
405.32	1335.28
405.52	1400.81
405.73	1363.95
405.94	1366.00
406.15	1329.13
406.35	1439.72
406.56	1470.44
406.77	1361.90
406.98	1441.77
407.18	1376.24
407.39	1466.35
407.60	1474.54
407.80	1413.10
408.01	1437.67
408.22	1372.14
408.43	1409.00
408.63	1460.20
408.84	1441.77
409.05	1404.91
409.25	1329.13
409.46	1396.71
409.67	1322.99
409.88	1363.95
410.08	1351.66
410.29	1411.05
410.50	1431.53
410.70	1421.29
410.91	1318.89
411.12	1427.43
411.32	1335.28
411.53	1468.39
411.74	1464.30
411.95	1454.06
412.15	1431.53
412.36	1486.83
412.57	1351.66
412.77	1458.15
412.98	1335.28
413.19	1396.71
413.39	1384.43
413.60	1421.29
413.81	1458.15
414.01	1368.04
414.22	1406.95
414.43	1427.43
414.63	1368.04
414.84	1421.29
415.05	1378.28
415.25	1292.27
415.46	1415.15
415.67	1347.56
415.87	1396.71
416.08	1402.86
416.29	1429.48
416.49	1429.48
416.70	1320.94
416.91	1306.60
417.11	1413.10
417.32	1411.05
417.53	1363.95
417.73	1380.33
417.94	1349.61
418.15	1392.62
418.35	1380.33
418.56	1359.85
418.77	1421.29
418.97	1417.19
419.18	1327.08
419.38	1267.69
419.59	1370.09
419.80	1476.59
420.00	1343.47
420.21	1331.18
420.42	1423.34
420.62	1353.71
420.83	1345.52
421.04	1357.80
421.24	1382.38
421.45	1449.96
421.65	1431.53
421.86	1370.09
422.07	1370.09
422.27	1359.85
422.48	1343.47
422.69	1339.37
422.89	1372.14
423.10	1290.22
423.30	1353.71
423.51	1425.39
423.72	1378.28
423.92	1382.38
424.13	1368.04
424.33	1368.04
424.54	1343.47
424.75	1411.05
424.95	1353.71
425.16	1343.47
425.36	1392.62
425.57	1353.71
425.78	1386.47
425.98	1402.86
426.19	1398.76
426.39	1294.32
426.60	1409.00
426.81	1419.24
427.01	1366.00
427.22	1353.71
427.42	1314.80
427.63	1359.85
427.83	1423.34
428.04	1456.11
428.25	1443.82
428.45	1386.47
428.66	1318.89
428.86	1366.00
429.07	1316.84
429.28	1322.99
429.48	1308.65
429.69	1357.80
429.89	1386.47
430.10	1349.61
430.30	1417.19
430.51	1380.33
430.71	1286.12
430.92	1355.76
431.13	1492.97
431.33	1429.48
431.54	1425.39
431.74	1474.54
431.95	1425.39
432.15	1325.04
432.36	1425.39
432.56	1505.26
432.77	1394.67
432.98	1449.96
433.18	1427.43
433.39	1411.05
433.59	1296.36
433.80	1355.76
434.00	1472.49
434.21	1382.38
434.41	1398.76
434.62	1423.34
434.82	1273.84
435.03	1380.33
435.23	1427.43
435.44	1298.41
435.64	1363.95
435.85	1353.71
436.06	1419.24
436.26	1388.52
436.47	1363.95
436.67	1261.55
436.88	1331.18
437.08	1425.39
437.29	1394.67
437.49	1441.77
437.70	1396.71
437.90	1361.90
438.11	1542.12
438.31	1427.43
438.52	1640.42
438.72	1482.73
438.93	1527.78
439.13	1435.63
439.34	1484.78
439.54	1370.09
439.75	1497.07
439.95	1476.59
440.16	1431.53
440.36	1423.34
440.57	1486.83
440.77	1347.56
440.98	1394.67
441.18	1400.81
441.39	1351.66
441.59	1318.89
441.80	1423.34
442.00	1433.58
442.21	1372.14
442.41	1392.62
442.62	1368.04
442.82	1343.47
443.02	1357.80
443.23	1417.19
443.43	1370.09
443.64	1449.96
443.84	1384.43
444.05	1421.29
444.25	1472.49
444.46	1357.80
444.66	1404.91
444.87	1449.96
445.07	1304.56
445.28	1343.47
445.48	1402.86
445.69	1409.00
445.89	1511.40
446.09	1511.40
446.30	2357.21
446.50	3637.19
446.71	4673.46
446.91	5359.53
447.12	5472.17
447.32	4962.23
447.53	4245.44
447.73	3839.94
447.93	3370.96
448.14	3178.45
448.34	3086.29
448.55	2779.09
448.75	2766.81
448.96	2707.41
449.16	2363.36
449.36	2187.23
449.57	1996.77
449.77	1658.85
449.98	1568.74
450.18	1525.74
450.39	1449.96
450.59	1392.62
450.79	1411.05
451.00	1388.52
451.20	1380.33
451.41	1415.15
451.61	1372.14
451.81	1327.08
452.02	1298.41
452.22	1361.90
452.43	1310.70
452.63	1345.52
