SpectraSuite Data File
++++++++++++++++++++++++++++++++++++
Date: Tue May 03 11:24:22 CEST 2016
User: root
Dark Spectrum Present: No
Reference Spectrum Present: No
Number of Sampled Component Spectra: 1
Spectrometers: USB4C02835
Integration Time (usec): 100000 (USB4C02835)
Spectra Averaged: 1 (USB4C02835)
Boxcar Smoothing: 0 (USB4C02835)
Correct for Electrical Dark: No (USB4C02835)
Strobe/Lamp Enabled: No (USB4C02835)
Correct for Detector Non-linearity: No (USB4C02835)
Correct for Stray Light: No (USB4C02835)
Number of Pixels in Processed Spectrum: 3648
>>>>>Begin Processed Spectral Data<<<<<
177.47	1208.30
177.69	1208.30
177.91	1208.30
178.13	1222.64
178.36	1173.49
178.58	1343.47
178.80	1357.80
179.02	1351.66
179.24	1302.51
179.46	1343.47
179.68	1402.86
179.90	1325.04
180.13	1372.14
180.35	1353.71
180.57	1347.56
180.79	1404.91
181.01	1335.28
181.23	1402.86
181.45	1351.66
181.67	1402.86
181.90	1384.43
182.12	1318.89
182.34	1308.65
182.56	1366.00
182.78	1376.24
183.00	1378.28
183.22	1318.89
183.44	1376.24
183.66	1474.54
183.89	1333.23
184.11	1269.74
184.33	1398.76
184.55	1322.99
184.77	1327.08
184.99	1343.47
185.21	1409.00
185.43	1443.82
185.65	1368.04
185.87	1327.08
186.10	1464.30
186.32	1449.96
186.54	1355.76
186.76	1359.85
186.98	1449.96
187.20	1333.23
187.42	1384.43
187.64	1363.95
187.86	1325.04
188.08	1368.04
188.30	1363.95
188.52	1386.47
188.75	1363.95
188.97	1427.43
189.19	1363.95
189.41	1308.65
189.63	1413.10
189.85	1392.62
190.07	1349.61
190.29	1304.56
190.51	1347.56
190.73	1304.56
190.95	1376.24
191.17	1392.62
191.39	1363.95
191.61	1355.76
191.84	1269.74
192.06	1449.96
192.28	1353.71
192.50	1417.19
192.72	1396.71
192.94	1339.37
193.16	1366.00
193.38	1378.28
193.60	1325.04
193.82	1343.47
194.04	1433.58
194.26	1445.87
194.48	1298.41
194.70	1339.37
194.92	1331.18
195.14	1372.14
195.36	1292.27
195.58	1327.08
195.80	1361.90
196.02	1290.22
196.24	1431.53
196.46	1337.32
196.69	1322.99
196.91	1439.72
197.13	1400.81
197.35	1363.95
197.57	1445.87
197.79	1378.28
198.01	1437.67
198.23	1427.43
198.45	1357.80
198.67	1331.18
198.89	1417.19
199.11	1331.18
199.33	1339.37
199.55	1322.99
199.77	1413.10
199.99	1464.30
200.21	1290.22
200.43	1411.05
200.65	1316.84
200.87	1337.32
201.09	1343.47
201.31	1347.56
201.53	1427.43
201.75	1388.52
201.97	1363.95
202.19	1333.23
202.41	1316.84
202.63	1503.21
202.85	1396.71
203.07	1347.56
203.29	1372.14
203.51	1335.28
203.73	1372.14
203.95	1452.01
204.17	1384.43
204.39	1425.39
204.61	1337.32
204.83	1396.71
205.05	1347.56
205.27	1359.85
205.49	1429.48
205.71	1402.86
205.93	1329.13
206.15	1366.00
206.37	1322.99
206.59	1368.04
206.81	1302.51
207.03	1310.70
207.25	1290.22
207.47	1339.37
207.69	1363.95
207.91	1497.07
208.13	1335.28
208.34	1435.63
208.56	1366.00
208.78	1488.87
209.00	1411.05
209.22	1308.65
209.44	1413.10
209.66	1318.89
209.88	1415.15
210.10	1282.03
210.32	1310.70
210.54	1429.48
210.76	1325.04
210.98	1409.00
211.20	1318.89
211.42	1320.94
211.64	1382.38
211.86	1345.52
212.08	1404.91
212.30	1396.71
212.52	1363.95
212.74	1404.91
212.96	1363.95
213.17	1372.14
213.39	1347.56
213.61	1468.39
213.83	1417.19
214.05	1394.67
214.27	1413.10
214.49	1298.41
214.71	1413.10
214.93	1433.58
215.15	1376.24
215.37	1392.62
215.59	1273.84
215.81	1376.24
216.03	1372.14
216.24	1333.23
216.46	1357.80
216.68	1349.61
216.90	1435.63
217.12	1411.05
217.34	1386.47
217.56	1288.17
217.78	1327.08
218.00	1366.00
218.22	1394.67
218.44	1370.09
218.66	1265.64
218.87	1363.95
219.09	1388.52
219.31	1437.67
219.53	1347.56
219.75	1343.47
219.97	1331.18
220.19	1421.29
220.41	1296.36
220.63	1382.38
220.85	1325.04
221.06	1378.28
221.28	1308.65
221.50	1316.84
221.72	1396.71
221.94	1378.28
222.16	1380.33
222.38	1400.81
222.60	1413.10
222.82	1329.13
223.03	1404.91
223.25	1386.47
223.47	1343.47
223.69	1462.25
223.91	1394.67
224.13	1366.00
224.35	1388.52
224.57	1388.52
224.78	1333.23
225.00	1384.43
225.22	1353.71
225.44	1363.95
225.66	1396.71
225.88	1359.85
226.10	1398.76
226.32	1355.76
226.53	1464.30
226.75	1314.80
226.97	1370.09
227.19	1386.47
227.41	1331.18
227.63	1366.00
227.85	1345.52
228.06	1398.76
228.28	1355.76
228.50	1265.64
228.72	1327.08
228.94	1355.76
229.16	1267.69
229.37	1245.16
229.59	1378.28
229.81	1470.44
230.03	1339.37
230.25	1302.51
230.47	1306.60
230.69	1312.75
230.90	1380.33
231.12	1288.17
231.34	1386.47
231.56	1505.26
231.78	1300.46
232.00	1366.00
232.21	1359.85
232.43	1374.19
232.65	1288.17
232.87	1466.35
233.09	1335.28
233.30	1417.19
233.52	1351.66
233.74	1386.47
233.96	1331.18
234.18	1400.81
234.40	1353.71
234.61	1478.63
234.83	1255.40
235.05	1308.65
235.27	1470.44
235.49	1429.48
235.70	1417.19
235.92	1437.67
236.14	1460.20
236.36	1449.96
236.58	1327.08
236.79	1400.81
237.01	1320.94
237.23	1286.12
237.45	1411.05
237.67	1239.02
237.88	1347.56
238.10	1511.40
238.32	1339.37
238.54	1370.09
238.76	1345.52
238.97	1322.99
239.19	1282.03
239.41	1361.90
239.63	1411.05
239.85	1363.95
240.06	1372.14
240.28	1361.90
240.50	1402.86
240.72	1390.57
240.93	1361.90
241.15	1429.48
241.37	1386.47
241.59	1386.47
241.81	1353.71
242.02	1361.90
242.24	1300.46
242.46	1388.52
242.68	1349.61
242.89	1370.09
243.11	1409.00
243.33	1380.33
243.55	1366.00
243.76	1478.63
243.98	1347.56
244.20	1368.04
244.42	1421.29
244.64	1396.71
244.85	1402.86
245.07	1314.80
245.29	1380.33
245.51	1390.57
245.72	1372.14
245.94	1331.18
246.16	1413.10
246.38	1382.38
246.59	1398.76
246.81	1306.60
247.03	1335.28
247.24	1306.60
247.46	1351.66
247.68	1400.81
247.90	1320.94
248.11	1347.56
248.33	1413.10
248.55	1386.47
248.77	1406.95
248.98	1357.80
249.20	1435.63
249.42	1349.61
249.64	1355.76
249.85	1277.93
250.07	1392.62
250.29	1335.28
250.50	1327.08
250.72	1366.00
250.94	1366.00
251.16	1314.80
251.37	1449.96
251.59	1378.28
251.81	1368.04
252.02	1419.24
252.24	1331.18
252.46	1404.91
252.68	1333.23
252.89	1359.85
253.11	1310.70
253.33	1419.24
253.54	1411.05
253.76	1355.76
253.98	1347.56
254.20	1370.09
254.41	1286.12
254.63	1380.33
254.85	1304.56
255.06	1322.99
255.28	1363.95
255.50	1333.23
255.71	1431.53
255.93	1351.66
256.15	1314.80
256.36	1406.95
256.58	1355.76
256.80	1337.32
257.02	1349.61
257.23	1355.76
257.45	1431.53
257.67	1421.29
257.88	1255.40
258.10	1366.00
258.32	1341.42
258.53	1353.71
258.75	1429.48
258.97	1353.71
259.18	1353.71
259.40	1427.43
259.62	1441.77
259.83	1445.87
260.05	1406.95
260.27	1560.55
260.48	1339.37
260.70	1460.20
260.92	1310.70
261.13	1368.04
261.35	1386.47
261.57	1396.71
261.78	1298.41
262.00	1302.51
262.22	1402.86
262.43	1378.28
262.65	1394.67
262.86	1322.99
263.08	1384.43
263.30	1400.81
263.51	1316.84
263.73	1363.95
263.95	1413.10
264.16	1359.85
264.38	1277.93
264.60	1378.28
264.81	1267.69
265.03	1445.87
265.25	1366.00
265.46	1390.57
265.68	1462.25
265.89	1382.38
266.11	1304.56
266.33	1382.38
266.54	1437.67
266.76	1400.81
266.98	1406.95
267.19	1396.71
267.41	1322.99
267.62	1368.04
267.84	1378.28
268.06	1345.52
268.27	1345.52
268.49	1376.24
268.70	1355.76
268.92	1316.84
269.14	1277.93
269.35	1222.64
269.57	1370.09
269.79	1404.91
270.00	1355.76
270.22	1409.00
270.43	1335.28
270.65	1359.85
270.87	1441.77
271.08	1421.29
271.30	1400.81
271.51	1460.20
271.73	1419.24
271.95	1492.97
272.16	1331.18
272.38	1390.57
272.59	1341.42
272.81	1300.46
273.02	1380.33
273.24	1431.53
273.46	1466.35
273.67	1386.47
273.89	1384.43
274.10	1314.80
274.32	1384.43
274.54	1433.58
274.75	1351.66
274.97	1335.28
275.18	1380.33
275.40	1339.37
275.61	1390.57
275.83	1322.99
276.05	1380.33
276.26	1329.13
276.48	1433.58
276.69	1368.04
276.91	1325.04
277.12	1361.90
277.34	1443.82
277.55	1320.94
277.77	1413.10
277.99	1347.56
278.20	1304.56
278.42	1335.28
278.63	1290.22
278.85	1320.94
279.06	1390.57
279.28	1374.19
279.49	1382.38
279.71	1384.43
279.93	1402.86
280.14	1398.76
280.36	1347.56
280.57	1411.05
280.79	1394.67
281.00	1400.81
281.22	1345.52
281.43	1413.10
281.65	1261.55
281.86	1361.90
282.08	1368.04
282.29	1347.56
282.51	1302.51
282.73	1331.18
282.94	1353.71
283.16	1392.62
283.37	1398.76
283.59	1343.47
283.80	1376.24
284.02	1413.10
284.23	1413.10
284.45	1378.28
284.66	1390.57
284.88	1335.28
285.09	1363.95
285.31	1411.05
285.52	1419.24
285.74	1286.12
285.95	1335.28
286.17	1404.91
286.38	1343.47
286.60	1343.47
286.81	1314.80
287.03	1341.42
287.24	1300.46
287.46	1335.28
287.67	1400.81
287.89	1423.34
288.10	1341.42
288.32	1261.55
288.53	1429.48
288.75	1355.76
288.96	1372.14
289.18	1353.71
289.39	1329.13
289.61	1421.29
289.82	1484.78
290.04	1476.59
290.25	1261.55
290.47	1322.99
290.68	1413.10
290.90	1419.24
291.11	1259.50
291.33	1320.94
291.54	1284.08
291.76	1327.08
291.97	1327.08
292.18	1343.47
292.40	1331.18
292.61	1376.24
292.83	1443.82
293.04	1419.24
293.26	1396.71
293.47	1339.37
293.69	1335.28
293.90	1402.86
294.12	1404.91
294.33	1357.80
294.55	1355.76
294.76	1462.25
294.97	1433.58
295.19	1396.71
295.40	1357.80
295.62	1298.41
295.83	1366.00
296.05	1339.37
296.26	1355.76
296.48	1384.43
296.69	1415.15
296.90	1339.37
297.12	1404.91
297.33	1384.43
297.55	1349.61
297.76	1378.28
297.98	1396.71
298.19	1378.28
298.41	1292.27
298.62	1337.32
298.83	1474.54
299.05	1298.41
299.26	1353.71
299.48	1394.67
299.69	1329.13
299.90	1441.77
300.12	1308.65
300.33	1370.09
300.55	1333.23
300.76	1433.58
300.98	1236.97
301.19	1363.95
301.40	1286.12
301.62	1327.08
301.83	1355.76
302.05	1374.19
302.26	1353.71
302.47	1368.04
302.69	1288.17
302.90	1404.91
303.12	1269.74
303.33	1421.29
303.54	1454.06
303.76	1331.18
303.97	1368.04
304.19	1423.34
304.40	1296.36
304.61	1394.67
304.83	1486.83
305.04	1396.71
305.26	1327.08
305.47	1386.47
305.68	1355.76
305.90	1292.27
306.11	1376.24
306.33	1339.37
306.54	1329.13
306.75	1337.32
306.97	1314.80
307.18	1337.32
307.39	1372.14
307.61	1355.76
307.82	1372.14
308.04	1402.86
308.25	1386.47
308.46	1435.63
308.68	1388.52
308.89	1372.14
309.10	1390.57
309.32	1347.56
309.53	1339.37
309.74	1318.89
309.96	1345.52
310.17	1380.33
310.39	1376.24
310.60	1333.23
310.81	1411.05
311.03	1368.04
311.24	1415.15
311.45	1327.08
311.67	1449.96
311.88	1376.24
312.09	1312.75
312.31	1282.03
312.52	1400.81
312.73	1388.52
312.95	1376.24
313.16	1318.89
313.37	1443.82
313.59	1376.24
313.80	1398.76
314.01	1413.10
314.23	1384.43
314.44	1394.67
314.65	1335.28
314.87	1304.56
315.08	1363.95
315.29	1380.33
315.51	1347.56
315.72	1249.26
315.93	1458.15
316.15	1409.00
316.36	1318.89
316.57	1390.57
316.79	1322.99
317.00	1341.42
317.21	1421.29
317.43	1331.18
317.64	1388.52
317.85	1359.85
318.07	1490.92
318.28	1538.02
318.49	1568.74
318.70	1626.09
318.92	1517.54
319.13	1531.88
319.34	1560.55
319.56	1554.41
319.77	1470.44
319.98	1568.74
320.20	1470.44
320.41	1464.30
320.62	1400.81
320.83	1382.38
321.05	1415.15
321.26	1423.34
321.47	1310.70
321.69	1441.77
321.90	1337.32
322.11	1302.51
322.32	1400.81
322.54	1396.71
322.75	1351.66
322.96	1425.39
323.18	1304.56
323.39	1341.42
323.60	1271.79
323.81	1345.52
324.03	1345.52
324.24	1300.46
324.45	1333.23
324.66	1368.04
324.88	1417.19
325.09	1347.56
325.30	1382.38
325.52	1402.86
325.73	1376.24
325.94	1363.95
326.15	1347.56
326.37	1378.28
326.58	1472.49
326.79	1390.57
327.00	1327.08
327.22	1386.47
327.43	1333.23
327.64	1325.04
327.85	1433.58
328.07	1357.80
328.28	1519.59
328.49	1439.72
328.70	1322.99
328.92	1265.64
329.13	1421.29
329.34	1390.57
329.55	1402.86
329.76	1431.53
329.98	1382.38
330.19	1476.59
330.40	1406.95
330.61	1421.29
330.83	1333.23
331.04	1445.87
331.25	1327.08
331.46	1345.52
331.68	1361.90
331.89	1398.76
332.10	1370.09
332.31	1314.80
332.52	1302.51
332.74	1396.71
332.95	1335.28
333.16	1361.90
333.37	1409.00
333.58	1267.69
333.80	1380.33
334.01	1294.32
334.22	1279.98
334.43	1423.34
334.64	1333.23
334.86	1384.43
335.07	1380.33
335.28	1312.75
335.49	1294.32
335.70	1357.80
335.92	1351.66
336.13	1452.01
336.34	1382.38
336.55	1398.76
336.76	1406.95
336.98	1257.45
337.19	1368.04
337.40	1447.91
337.61	1447.91
337.82	1380.33
338.04	1413.10
338.25	1363.95
338.46	1378.28
338.67	1376.24
338.88	1333.23
339.09	1333.23
339.31	1255.40
339.52	1378.28
339.73	1312.75
339.94	1355.76
340.15	1384.43
340.36	1386.47
340.58	1357.80
340.79	1349.61
341.00	1384.43
341.21	1310.70
341.42	1486.83
341.63	1355.76
341.85	1415.15
342.06	1429.48
342.27	1429.48
342.48	1441.77
342.69	1308.65
342.90	1316.84
343.12	1421.29
343.33	1404.91
343.54	1390.57
343.75	1374.19
343.96	1363.95
344.17	1409.00
344.38	1361.90
344.60	1339.37
344.81	1286.12
345.02	1359.85
345.23	1402.86
345.44	1425.39
345.65	1339.37
345.86	1411.05
346.07	1372.14
346.29	1337.32
346.50	1443.82
346.71	1312.75
346.92	1411.05
347.13	1454.06
347.34	1431.53
347.55	1322.99
347.76	1368.04
347.98	1329.13
348.19	1435.63
348.40	1454.06
348.61	1402.86
348.82	1474.54
349.03	1417.19
349.24	1445.87
349.45	1386.47
349.66	1302.51
349.88	1359.85
350.09	1394.67
350.30	1415.15
350.51	1378.28
350.72	1482.73
350.93	1380.33
351.14	1312.75
351.35	1361.90
351.56	1361.90
351.77	1339.37
351.99	1400.81
352.20	1425.39
352.41	1460.20
352.62	1300.46
352.83	1378.28
353.04	1310.70
353.25	1304.56
353.46	1359.85
353.67	1333.23
353.88	1312.75
354.09	1409.00
354.30	1411.05
354.52	1417.19
354.73	1378.28
354.94	1294.32
355.15	1310.70
355.36	1429.48
355.57	1345.52
355.78	1398.76
355.99	1308.65
356.20	1425.39
356.41	1392.62
356.62	1363.95
356.83	1382.38
357.04	1474.54
357.25	1298.41
357.46	1353.71
357.68	1286.12
357.89	1304.56
358.10	1366.00
358.31	1413.10
358.52	1374.19
358.73	1402.86
358.94	1370.09
359.15	1327.08
359.36	1372.14
359.57	1392.62
359.78	1341.42
359.99	1423.34
360.20	1341.42
360.41	1349.61
360.62	1413.10
360.83	1413.10
361.04	1353.71
361.25	1417.19
361.46	1466.35
361.67	1472.49
361.88	1335.28
362.09	1353.71
362.30	1427.43
362.51	1351.66
362.72	1370.09
362.93	1423.34
363.14	1406.95
363.35	1386.47
363.56	1357.80
363.78	1402.86
363.99	1445.87
364.20	1378.28
364.41	1361.90
364.62	1470.44
364.83	1345.52
365.04	1355.76
365.25	1294.32
365.46	1447.91
365.67	1372.14
365.88	1396.71
366.09	1329.13
366.30	1351.66
366.51	1298.41
366.72	1292.27
366.93	1337.32
367.14	1429.48
367.35	1378.28
367.56	1366.00
367.77	1423.34
367.98	1351.66
368.18	1429.48
368.39	1331.18
368.60	1382.38
368.81	1347.56
369.02	1417.19
369.23	1384.43
369.44	1284.08
369.65	1394.67
369.86	1445.87
370.07	1370.09
370.28	1363.95
370.49	1429.48
370.70	1331.18
370.91	1386.47
371.12	1370.09
371.33	1372.14
371.54	1331.18
371.75	1470.44
371.96	1261.55
372.17	1357.80
372.38	1349.61
372.59	1372.14
372.80	1339.37
373.01	1355.76
373.22	1357.80
373.43	1374.19
373.64	1419.24
373.85	1343.47
374.06	1425.39
374.26	1396.71
374.47	1341.42
374.68	1452.01
374.89	1398.76
375.10	1361.90
375.31	1355.76
375.52	1331.18
375.73	1347.56
375.94	1322.99
376.15	1406.95
376.36	1380.33
376.57	1349.61
376.78	1353.71
376.99	1339.37
377.20	1445.87
377.40	1372.14
377.61	1433.58
377.82	1322.99
378.03	1384.43
378.24	1439.72
378.45	1388.52
378.66	1423.34
378.87	1296.36
379.08	1322.99
379.29	1339.37
379.50	1325.04
379.71	1282.03
379.91	1417.19
380.12	1347.56
380.33	1411.05
380.54	1343.47
380.75	1413.10
380.96	1351.66
381.17	1460.20
381.38	1413.10
381.59	1433.58
381.80	1419.24
382.00	1441.77
382.21	1425.39
382.42	1425.39
382.63	1488.87
382.84	1402.86
383.05	1384.43
383.26	1447.91
383.47	1378.28
383.68	1413.10
383.88	1392.62
384.09	1402.86
384.30	1382.38
384.51	1363.95
384.72	1406.95
384.93	1398.76
385.14	1372.14
385.35	1386.47
385.55	1322.99
385.76	1458.15
385.97	1366.00
386.18	1368.04
386.39	1439.72
386.60	1333.23
386.81	1419.24
387.02	1396.71
387.22	1382.38
387.43	1486.83
387.64	1544.17
387.85	2201.57
388.06	5828.52
388.27	9496.43
388.48	11693.90
388.68	13160.25
388.89	13338.42
389.10	10604.38
389.31	9230.20
389.52	8456.06
389.73	7401.36
389.93	7131.03
390.14	6465.44
390.35	5947.30
390.56	5593.00
390.77	4757.43
390.98	3532.75
391.18	2787.29
391.39	2152.42
391.60	1810.40
391.81	1511.40
392.02	1449.96
392.23	1495.02
392.43	1474.54
392.64	1429.48
392.85	1347.56
393.06	1484.78
393.27	1329.13
393.47	1306.60
393.68	1374.19
393.89	1363.95
394.10	1449.96
394.31	1382.38
394.52	1327.08
394.72	1335.28
394.93	1421.29
395.14	1347.56
395.35	1288.17
395.56	1439.72
395.76	1529.83
395.97	1591.27
396.18	1677.29
396.39	1591.27
396.60	1701.86
396.80	1613.80
397.01	1425.39
397.22	1415.15
397.43	1527.78
397.64	1480.68
397.84	1585.13
398.05	1509.35
398.26	1402.86
398.47	1476.59
398.67	1449.96
398.88	1425.39
399.09	1345.52
399.30	1380.33
399.51	1441.77
399.71	1294.32
399.92	1384.43
400.13	1366.00
400.34	1384.43
400.54	1355.76
400.75	1345.52
400.96	1398.76
401.17	1435.63
401.37	1357.80
401.58	1316.84
401.79	1458.15
402.00	1703.91
402.21	1837.03
402.41	1812.45
402.62	1763.30
402.83	1738.73
403.04	1695.72
403.24	1730.53
403.45	1554.41
403.66	1607.66
403.87	1607.66
404.07	1615.85
404.28	1527.78
404.49	1609.70
404.70	1501.16
404.90	1423.34
405.11	1419.24
405.32	1443.82
405.52	1304.56
405.73	1390.57
405.94	1366.00
406.15	1404.91
406.35	1419.24
406.56	1409.00
406.77	1314.80
406.98	1347.56
407.18	1325.04
407.39	1439.72
407.60	1357.80
407.80	1380.33
408.01	1366.00
408.22	1445.87
408.43	1388.52
408.63	1447.91
408.84	1452.01
409.05	1458.15
409.25	1329.13
409.46	1318.89
409.67	1333.23
409.88	1345.52
410.08	1456.11
410.29	1331.18
410.50	1380.33
410.70	1376.24
410.91	1282.03
411.12	1441.77
411.32	1439.72
411.53	1404.91
411.74	1380.33
411.95	1523.69
412.15	1392.62
412.36	1482.73
412.57	1427.43
412.77	1464.30
412.98	1392.62
413.19	1386.47
413.39	1419.24
413.60	1372.14
413.81	1421.29
414.01	1345.52
414.22	1427.43
414.43	1411.05
414.63	1394.67
414.84	1380.33
415.05	1427.43
415.25	1310.70
415.46	1386.47
415.67	1382.38
415.87	1306.60
416.08	1343.47
416.29	1392.62
416.49	1411.05
416.70	1345.52
416.91	1392.62
417.11	1316.84
417.32	1429.48
417.53	1429.48
417.73	1376.24
417.94	1333.23
418.15	1388.52
418.35	1378.28
418.56	1421.29
418.77	1427.43
418.97	1325.04
419.18	1468.39
419.38	1374.19
419.59	1298.41
419.80	1415.15
420.00	1316.84
420.21	1337.32
420.42	1361.90
420.62	1419.24
420.83	1329.13
421.04	1345.52
421.24	1339.37
421.45	1343.47
421.65	1380.33
421.86	1314.80
422.07	1425.39
422.27	1396.71
422.48	1366.00
422.69	1363.95
422.89	1355.76
423.10	1357.80
423.30	1292.27
423.51	1261.55
423.72	1413.10
423.92	1390.57
424.13	1382.38
424.33	1372.14
424.54	1380.33
424.75	1396.71
424.95	1421.29
425.16	1314.80
425.36	1341.42
425.57	1462.25
425.78	1411.05
425.98	1413.10
426.19	1392.62
426.39	1400.81
426.60	1409.00
426.81	1413.10
427.01	1394.67
427.22	1343.47
427.42	1329.13
427.63	1329.13
427.83	1417.19
428.04	1392.62
428.25	1409.00
428.45	1376.24
428.66	1376.24
428.86	1349.61
429.07	1329.13
429.28	1404.91
429.48	1345.52
429.69	1353.71
429.89	1390.57
430.10	1282.03
430.30	1368.04
430.51	1400.81
430.71	1363.95
430.92	1433.58
431.13	1349.61
431.33	1359.85
431.54	1423.34
431.74	1392.62
431.95	1474.54
432.15	1396.71
432.36	1394.67
432.56	1370.09
432.77	1378.28
432.98	1435.63
433.18	1339.37
433.39	1359.85
433.59	1368.04
433.80	1449.96
434.00	1398.76
434.21	1378.28
434.41	1372.14
434.62	1482.73
434.82	1384.43
435.03	1366.00
435.23	1390.57
435.44	1306.60
435.64	1466.35
435.85	1318.89
436.06	1429.48
436.26	1296.36
436.47	1322.99
436.67	1376.24
436.88	1308.65
437.08	1335.28
437.29	1425.39
437.49	1388.52
437.70	1429.48
437.90	1431.53
438.11	1495.02
438.31	1529.83
438.52	1523.69
438.72	1527.78
438.93	1517.54
439.13	1437.67
439.34	1509.35
439.54	1435.63
439.75	1464.30
439.95	1476.59
440.16	1343.47
440.36	1427.43
440.57	1409.00
440.77	1366.00
440.98	1460.20
441.18	1413.10
441.39	1308.65
441.59	1327.08
441.80	1480.68
442.00	1388.52
442.21	1433.58
442.41	1396.71
442.62	1435.63
442.82	1339.37
443.02	1435.63
443.23	1363.95
443.43	1374.19
443.64	1521.64
443.84	1402.86
444.05	1490.92
444.25	1392.62
444.46	1382.38
444.66	1398.76
444.87	1484.78
445.07	1382.38
445.28	1435.63
445.48	1437.67
445.69	1452.01
445.89	1533.93
446.09	1552.36
446.30	2295.77
446.50	3698.63
446.71	4724.66
446.91	5353.39
447.12	5664.68
447.32	4872.12
447.53	4167.62
447.73	3803.08
447.93	3438.54
448.14	3190.74
448.34	2963.41
448.55	2766.81
448.75	2738.13
448.96	2596.82
449.16	2396.12
449.36	2228.19
449.57	1957.86
449.77	1757.16
449.98	1472.49
450.18	1460.20
450.39	1482.73
450.59	1458.15
450.79	1376.24
451.00	1320.94
451.20	1378.28
451.41	1443.82
451.61	1349.61
451.81	1366.00
452.02	1335.28
452.22	1355.76
452.43	1318.89
452.63	1394.67
