SpectraSuite Data File
++++++++++++++++++++++++++++++++++++
Date: Tue May 03 11:24:19 CEST 2016
User: root
Dark Spectrum Present: No
Reference Spectrum Present: No
Number of Sampled Component Spectra: 1
Spectrometers: USB4C02835
Integration Time (usec): 100000 (USB4C02835)
Spectra Averaged: 1 (USB4C02835)
Boxcar Smoothing: 0 (USB4C02835)
Correct for Electrical Dark: No (USB4C02835)
Strobe/Lamp Enabled: No (USB4C02835)
Correct for Detector Non-linearity: No (USB4C02835)
Correct for Stray Light: No (USB4C02835)
Number of Pixels in Processed Spectrum: 3648
>>>>>Begin Processed Spectral Data<<<<<
177.47	1150.96
177.69	1150.96
177.91	1150.96
178.13	1218.54
178.36	1177.58
178.58	1302.51
178.80	1384.43
179.02	1308.65
179.24	1341.42
179.46	1421.29
179.68	1421.29
179.90	1320.94
180.13	1406.95
180.35	1298.41
180.57	1402.86
180.79	1427.43
181.01	1327.08
181.23	1345.52
181.45	1478.63
181.67	1400.81
181.90	1419.24
182.12	1372.14
182.34	1378.28
182.56	1380.33
182.78	1292.27
183.00	1380.33
183.22	1425.39
183.44	1261.55
183.66	1468.39
183.89	1363.95
184.11	1413.10
184.33	1282.03
184.55	1413.10
184.77	1396.71
184.99	1398.76
185.21	1335.28
185.43	1468.39
185.65	1353.71
185.87	1411.05
186.10	1460.20
186.32	1425.39
186.54	1441.77
186.76	1337.32
186.98	1382.38
187.20	1372.14
187.42	1368.04
187.64	1386.47
187.86	1409.00
188.08	1456.11
188.30	1351.66
188.52	1320.94
188.75	1392.62
188.97	1378.28
189.19	1363.95
189.41	1327.08
189.63	1380.33
189.85	1343.47
190.07	1267.69
190.29	1265.64
190.51	1386.47
190.73	1310.70
190.95	1406.95
191.17	1392.62
191.39	1325.04
191.61	1351.66
191.84	1359.85
192.06	1347.56
192.28	1271.79
192.50	1470.44
192.72	1443.82
192.94	1433.58
193.16	1378.28
193.38	1333.23
193.60	1409.00
193.82	1296.36
194.04	1390.57
194.26	1325.04
194.48	1447.91
194.70	1388.52
194.92	1314.80
195.14	1306.60
195.36	1351.66
195.58	1411.05
195.80	1409.00
196.02	1320.94
196.24	1265.64
196.46	1341.42
196.69	1372.14
196.91	1484.78
197.13	1411.05
197.35	1443.82
197.57	1423.34
197.79	1433.58
198.01	1339.37
198.23	1435.63
198.45	1384.43
198.67	1339.37
198.89	1429.48
199.11	1398.76
199.33	1359.85
199.55	1312.75
199.77	1398.76
199.99	1339.37
200.21	1312.75
200.43	1271.79
200.65	1322.99
200.87	1312.75
201.09	1372.14
201.31	1372.14
201.53	1423.34
201.75	1429.48
201.97	1370.09
202.19	1351.66
202.41	1413.10
202.63	1486.83
202.85	1433.58
203.07	1329.13
203.29	1351.66
203.51	1431.53
203.73	1417.19
203.95	1458.15
204.17	1433.58
204.39	1376.24
204.61	1341.42
204.83	1314.80
205.05	1441.77
205.27	1411.05
205.49	1413.10
205.71	1394.67
205.93	1370.09
206.15	1366.00
206.37	1394.67
206.59	1386.47
206.81	1343.47
207.03	1294.32
207.25	1349.61
207.47	1333.23
207.69	1366.00
207.91	1429.48
208.13	1366.00
208.34	1339.37
208.56	1370.09
208.78	1437.67
209.00	1404.91
209.22	1286.12
209.44	1409.00
209.66	1370.09
209.88	1359.85
210.10	1347.56
210.32	1411.05
210.54	1376.24
210.76	1329.13
210.98	1306.60
211.20	1282.03
211.42	1394.67
211.64	1396.71
211.86	1351.66
212.08	1345.52
212.30	1413.10
212.52	1329.13
212.74	1363.95
212.96	1368.04
213.17	1435.63
213.39	1343.47
213.61	1415.15
213.83	1374.19
214.05	1304.56
214.27	1413.10
214.49	1310.70
214.71	1351.66
214.93	1460.20
215.15	1316.84
215.37	1406.95
215.59	1314.80
215.81	1429.48
216.03	1445.87
216.24	1366.00
216.46	1339.37
216.68	1335.28
216.90	1290.22
217.12	1423.34
217.34	1366.00
217.56	1402.86
217.78	1325.04
218.00	1386.47
218.22	1300.46
218.44	1458.15
218.66	1349.61
218.87	1482.73
219.09	1327.08
219.31	1347.56
219.53	1378.28
219.75	1361.90
219.97	1325.04
220.19	1429.48
220.41	1312.75
220.63	1413.10
220.85	1421.29
221.06	1445.87
221.28	1372.14
221.50	1351.66
221.72	1404.91
221.94	1388.52
222.16	1454.06
222.38	1402.86
222.60	1361.90
222.82	1376.24
223.03	1333.23
223.25	1335.28
223.47	1443.82
223.69	1404.91
223.91	1394.67
224.13	1382.38
224.35	1349.61
224.57	1388.52
224.78	1402.86
225.00	1376.24
225.22	1398.76
225.44	1382.38
225.66	1298.41
225.88	1312.75
226.10	1415.15
226.32	1378.28
226.53	1454.06
226.75	1290.22
226.97	1376.24
227.19	1392.62
227.41	1370.09
227.63	1337.32
227.85	1251.31
228.06	1359.85
228.28	1322.99
228.50	1376.24
228.72	1361.90
228.94	1329.13
229.16	1406.95
229.37	1349.61
229.59	1322.99
229.81	1476.59
230.03	1339.37
230.25	1312.75
230.47	1359.85
230.69	1314.80
230.90	1449.96
231.12	1282.03
231.34	1433.58
231.56	1406.95
231.78	1282.03
232.00	1296.36
232.21	1413.10
232.43	1341.42
232.65	1325.04
232.87	1366.00
233.09	1333.23
233.30	1331.18
233.52	1329.13
233.74	1370.09
233.96	1296.36
234.18	1378.28
234.40	1378.28
234.61	1411.05
234.83	1335.28
235.05	1306.60
235.27	1466.35
235.49	1419.24
235.70	1411.05
235.92	1394.67
236.14	1374.19
236.36	1472.49
236.58	1316.84
236.79	1396.71
237.01	1404.91
237.23	1337.32
237.45	1460.20
237.67	1335.28
237.88	1406.95
238.10	1374.19
238.32	1345.52
238.54	1288.17
238.76	1374.19
238.97	1322.99
239.19	1310.70
239.41	1380.33
239.63	1425.39
239.85	1329.13
240.06	1327.08
240.28	1302.51
240.50	1368.04
240.72	1318.89
240.93	1421.29
241.15	1429.48
241.37	1345.52
241.59	1370.09
241.81	1388.52
242.02	1404.91
242.24	1427.43
242.46	1425.39
242.68	1357.80
242.89	1429.48
243.11	1376.24
243.33	1345.52
243.55	1398.76
243.76	1359.85
243.98	1306.60
244.20	1402.86
244.42	1368.04
244.64	1421.29
244.85	1314.80
245.07	1343.47
245.29	1392.62
245.51	1361.90
245.72	1415.15
245.94	1458.15
246.16	1433.58
246.38	1427.43
246.59	1333.23
246.81	1351.66
247.03	1404.91
247.24	1300.46
247.46	1253.36
247.68	1351.66
247.90	1382.38
248.11	1378.28
248.33	1390.57
248.55	1337.32
248.77	1341.42
248.98	1359.85
249.20	1429.48
249.42	1339.37
249.64	1361.90
249.85	1329.13
250.07	1378.28
250.29	1431.53
250.50	1437.67
250.72	1292.27
250.94	1325.04
251.16	1417.19
251.37	1404.91
251.59	1384.43
251.81	1298.41
252.02	1429.48
252.24	1384.43
252.46	1372.14
252.68	1347.56
252.89	1400.81
253.11	1347.56
253.33	1474.54
253.54	1421.29
253.76	1282.03
253.98	1304.56
254.20	1345.52
254.41	1314.80
254.63	1380.33
254.85	1359.85
255.06	1466.35
255.28	1353.71
255.50	1372.14
255.71	1370.09
255.93	1271.79
256.15	1290.22
256.36	1433.58
256.58	1331.18
256.80	1386.47
257.02	1366.00
257.23	1304.56
257.45	1282.03
257.67	1341.42
257.88	1366.00
258.10	1355.76
258.32	1413.10
258.53	1361.90
258.75	1474.54
258.97	1372.14
259.18	1370.09
259.40	1345.52
259.62	1468.39
259.83	1366.00
260.05	1415.15
260.27	1517.54
260.48	1355.76
260.70	1308.65
260.92	1366.00
261.13	1284.08
261.35	1402.86
261.57	1339.37
261.78	1345.52
262.00	1353.71
262.22	1427.43
262.43	1404.91
262.65	1335.28
262.86	1361.90
263.08	1445.87
263.30	1447.91
263.51	1304.56
263.73	1376.24
263.95	1425.39
264.16	1333.23
264.38	1331.18
264.60	1452.01
264.81	1349.61
265.03	1363.95
265.25	1482.73
265.46	1349.61
265.68	1368.04
265.89	1386.47
266.11	1279.98
266.33	1335.28
266.54	1423.34
266.76	1402.86
266.98	1435.63
267.19	1429.48
267.41	1404.91
267.62	1357.80
267.84	1384.43
268.06	1380.33
268.27	1372.14
268.49	1351.66
268.70	1470.44
268.92	1359.85
269.14	1409.00
269.35	1228.78
269.57	1421.29
269.79	1386.47
270.00	1355.76
270.22	1384.43
270.43	1337.32
270.65	1337.32
270.87	1404.91
271.08	1335.28
271.30	1423.34
271.51	1284.08
271.73	1337.32
271.95	1396.71
272.16	1333.23
272.38	1382.38
272.59	1302.51
272.81	1363.95
273.02	1357.80
273.24	1423.34
273.46	1376.24
273.67	1314.80
273.89	1376.24
274.10	1392.62
274.32	1388.52
274.54	1402.86
274.75	1368.04
274.97	1378.28
275.18	1380.33
275.40	1368.04
275.61	1370.09
275.83	1390.57
276.05	1290.22
276.26	1398.76
276.48	1409.00
276.69	1368.04
276.91	1310.70
277.12	1429.48
277.34	1447.91
277.55	1421.29
277.77	1374.19
277.99	1339.37
278.20	1388.52
278.42	1333.23
278.63	1314.80
278.85	1286.12
279.06	1349.61
279.28	1335.28
279.49	1394.67
279.71	1378.28
279.93	1349.61
280.14	1339.37
280.36	1331.18
280.57	1460.20
280.79	1402.86
281.00	1318.89
281.22	1339.37
281.43	1433.58
281.65	1331.18
281.86	1306.60
282.08	1406.95
282.29	1429.48
282.51	1290.22
282.73	1331.18
282.94	1290.22
283.16	1329.13
283.37	1419.24
283.59	1396.71
283.80	1322.99
284.02	1372.14
284.23	1404.91
284.45	1304.56
284.66	1308.65
284.88	1314.80
285.09	1429.48
285.31	1398.76
285.52	1327.08
285.74	1417.19
285.95	1392.62
286.17	1374.19
286.38	1378.28
286.60	1259.50
286.81	1331.18
287.03	1304.56
287.24	1310.70
287.46	1339.37
287.67	1302.51
287.89	1404.91
288.10	1337.32
288.32	1400.81
288.53	1490.92
288.75	1294.32
288.96	1474.54
289.18	1368.04
289.39	1314.80
289.61	1452.01
289.82	1460.20
290.04	1345.52
290.25	1327.08
290.47	1349.61
290.68	1376.24
290.90	1480.68
291.11	1312.75
291.33	1435.63
291.54	1300.46
291.76	1261.55
291.97	1368.04
292.18	1413.10
292.40	1298.41
292.61	1282.03
292.83	1454.06
293.04	1437.67
293.26	1296.36
293.47	1363.95
293.69	1349.61
293.90	1361.90
294.12	1370.09
294.33	1361.90
294.55	1394.67
294.76	1411.05
294.97	1376.24
295.19	1501.16
295.40	1421.29
295.62	1306.60
295.83	1370.09
296.05	1294.32
296.26	1396.71
296.48	1380.33
296.69	1376.24
296.90	1363.95
297.12	1355.76
297.33	1357.80
297.55	1441.77
297.76	1417.19
297.98	1386.47
298.19	1339.37
298.41	1277.93
298.62	1361.90
298.83	1427.43
299.05	1370.09
299.26	1327.08
299.48	1320.94
299.69	1327.08
299.90	1404.91
300.12	1296.36
300.33	1368.04
300.55	1435.63
300.76	1394.67
300.98	1288.17
301.19	1392.62
301.40	1286.12
301.62	1322.99
301.83	1322.99
302.05	1341.42
302.26	1421.29
302.47	1308.65
302.69	1343.47
302.90	1351.66
303.12	1247.21
303.33	1370.09
303.54	1425.39
303.76	1406.95
303.97	1337.32
304.19	1427.43
304.40	1308.65
304.61	1335.28
304.83	1419.24
305.04	1370.09
305.26	1400.81
305.47	1366.00
305.68	1368.04
305.90	1322.99
306.11	1406.95
306.33	1333.23
306.54	1349.61
306.75	1320.94
306.97	1322.99
307.18	1275.88
307.39	1308.65
307.61	1345.52
307.82	1349.61
308.04	1339.37
308.25	1298.41
308.46	1347.56
308.68	1343.47
308.89	1384.43
309.10	1456.11
309.32	1406.95
309.53	1363.95
309.74	1366.00
309.96	1353.71
310.17	1398.76
310.39	1347.56
310.60	1392.62
310.81	1363.95
311.03	1343.47
311.24	1421.29
311.45	1470.44
311.67	1415.15
311.88	1402.86
312.09	1392.62
312.31	1353.71
312.52	1386.47
312.73	1345.52
312.95	1282.03
313.16	1327.08
313.37	1372.14
313.59	1337.32
313.80	1370.09
314.01	1429.48
314.23	1341.42
314.44	1421.29
314.65	1243.12
314.87	1351.66
315.08	1355.76
315.29	1347.56
315.51	1325.04
315.72	1331.18
315.93	1409.00
316.15	1361.90
316.36	1329.13
316.57	1333.23
316.79	1396.71
317.00	1282.03
317.21	1372.14
317.43	1421.29
317.64	1359.85
317.85	1339.37
318.07	1431.53
318.28	1546.22
318.49	1533.93
318.70	1540.07
318.92	1542.12
319.13	1540.07
319.34	1578.98
319.56	1452.01
319.77	1544.17
319.98	1449.96
320.20	1480.68
320.41	1490.92
320.62	1388.52
320.83	1441.77
321.05	1449.96
321.26	1443.82
321.47	1411.05
321.69	1372.14
321.90	1333.23
322.11	1327.08
322.32	1413.10
322.54	1316.84
322.75	1288.17
322.96	1417.19
323.18	1320.94
323.39	1345.52
323.60	1351.66
323.81	1445.87
324.03	1361.90
324.24	1314.80
324.45	1380.33
324.66	1429.48
324.88	1409.00
325.09	1384.43
325.30	1310.70
325.52	1433.58
325.73	1355.76
325.94	1404.91
326.15	1333.23
326.37	1370.09
326.58	1380.33
326.79	1396.71
327.00	1339.37
327.22	1409.00
327.43	1322.99
327.64	1343.47
327.85	1349.61
328.07	1294.32
328.28	1406.95
328.49	1429.48
328.70	1279.98
328.92	1411.05
329.13	1378.28
329.34	1337.32
329.55	1447.91
329.76	1392.62
329.98	1241.07
330.19	1419.24
330.40	1413.10
330.61	1380.33
330.83	1388.52
331.04	1322.99
331.25	1404.91
331.46	1366.00
331.68	1265.64
331.89	1398.76
332.10	1353.71
332.31	1345.52
332.52	1355.76
332.74	1341.42
332.95	1372.14
333.16	1363.95
333.37	1339.37
333.58	1421.29
333.80	1370.09
334.01	1327.08
334.22	1378.28
334.43	1275.88
334.64	1376.24
334.86	1335.28
335.07	1277.93
335.28	1462.25
335.49	1347.56
335.70	1380.33
335.92	1402.86
336.13	1413.10
336.34	1294.32
336.55	1431.53
336.76	1445.87
336.98	1316.84
337.19	1357.80
337.40	1476.59
337.61	1478.63
337.82	1355.76
338.04	1374.19
338.25	1357.80
338.46	1368.04
338.67	1415.15
338.88	1368.04
339.09	1322.99
339.31	1376.24
339.52	1437.67
339.73	1257.45
339.94	1374.19
340.15	1366.00
340.36	1353.71
340.58	1441.77
340.79	1435.63
341.00	1339.37
341.21	1318.89
341.42	1392.62
341.63	1386.47
341.85	1372.14
342.06	1368.04
342.27	1376.24
342.48	1386.47
342.69	1275.88
342.90	1394.67
343.12	1339.37
343.33	1347.56
343.54	1472.49
343.75	1411.05
343.96	1359.85
344.17	1290.22
344.38	1366.00
344.60	1300.46
344.81	1345.52
345.02	1417.19
345.23	1429.48
345.44	1388.52
345.65	1427.43
345.86	1343.47
346.07	1351.66
346.29	1421.29
346.50	1349.61
346.71	1351.66
346.92	1406.95
347.13	1396.71
347.34	1372.14
347.55	1378.28
347.76	1470.44
347.98	1322.99
348.19	1345.52
348.40	1443.82
348.61	1339.37
348.82	1390.57
349.03	1345.52
349.24	1343.47
349.45	1470.44
349.66	1269.74
349.88	1388.52
350.09	1322.99
350.30	1314.80
350.51	1449.96
350.72	1372.14
350.93	1452.01
351.14	1347.56
351.35	1368.04
351.56	1406.95
351.77	1376.24
351.99	1478.63
352.20	1372.14
352.41	1349.61
352.62	1331.18
352.83	1347.56
353.04	1335.28
353.25	1345.52
353.46	1429.48
353.67	1452.01
353.88	1343.47
354.09	1370.09
354.30	1390.57
354.52	1425.39
354.73	1456.11
354.94	1288.17
355.15	1402.86
355.36	1402.86
355.57	1290.22
355.78	1386.47
355.99	1384.43
356.20	1339.37
356.41	1353.71
356.62	1366.00
356.83	1394.67
357.04	1413.10
357.25	1368.04
357.46	1296.36
357.68	1279.98
357.89	1396.71
358.10	1327.08
358.31	1372.14
358.52	1388.52
358.73	1368.04
358.94	1380.33
359.15	1345.52
359.36	1394.67
359.57	1339.37
359.78	1363.95
359.99	1363.95
360.20	1363.95
360.41	1325.04
360.62	1380.33
360.83	1353.71
361.04	1386.47
361.25	1368.04
361.46	1411.05
361.67	1427.43
361.88	1390.57
362.09	1318.89
362.30	1378.28
362.51	1417.19
362.72	1378.28
362.93	1378.28
363.14	1421.29
363.35	1310.70
363.56	1370.09
363.78	1382.38
363.99	1370.09
364.20	1308.65
364.41	1400.81
364.62	1443.82
364.83	1267.69
365.04	1325.04
365.25	1325.04
365.46	1419.24
365.67	1378.28
365.88	1351.66
366.09	1294.32
366.30	1337.32
366.51	1421.29
366.72	1400.81
366.93	1390.57
367.14	1361.90
367.35	1398.76
367.56	1322.99
367.77	1445.87
367.98	1333.23
368.18	1282.03
368.39	1355.76
368.60	1312.75
368.81	1359.85
369.02	1310.70
369.23	1380.33
369.44	1390.57
369.65	1341.42
369.86	1374.19
370.07	1419.24
370.28	1282.03
370.49	1372.14
370.70	1398.76
370.91	1413.10
371.12	1304.56
371.33	1411.05
371.54	1351.66
371.75	1423.34
371.96	1359.85
372.17	1449.96
372.38	1261.55
372.59	1435.63
372.80	1429.48
373.01	1327.08
373.22	1417.19
373.43	1329.13
373.64	1290.22
373.85	1370.09
374.06	1488.87
374.26	1394.67
374.47	1396.71
374.68	1374.19
374.89	1361.90
375.10	1425.39
375.31	1394.67
375.52	1388.52
375.73	1429.48
375.94	1322.99
376.15	1406.95
376.36	1296.36
376.57	1316.84
376.78	1417.19
376.99	1435.63
377.20	1366.00
377.40	1327.08
377.61	1478.63
377.82	1384.43
378.03	1406.95
378.24	1419.24
378.45	1372.14
378.66	1421.29
378.87	1359.85
379.08	1294.32
379.29	1406.95
379.50	1476.59
379.71	1310.70
379.91	1335.28
380.12	1322.99
380.33	1282.03
380.54	1382.38
380.75	1402.86
380.96	1337.32
381.17	1464.30
381.38	1415.15
381.59	1425.39
381.80	1366.00
382.00	1574.89
382.21	1429.48
382.42	1474.54
382.63	1505.26
382.84	1452.01
383.05	1454.06
383.26	1423.34
383.47	1368.04
383.68	1357.80
383.88	1363.95
384.09	1351.66
384.30	1433.58
384.51	1449.96
384.72	1329.13
384.93	1325.04
385.14	1380.33
385.35	1353.71
385.55	1341.42
385.76	1406.95
385.97	1394.67
386.18	1363.95
386.39	1302.51
386.60	1419.24
386.81	1454.06
387.02	1335.28
387.22	1372.14
387.43	1478.63
387.64	1601.51
387.85	2256.86
388.06	5590.95
388.27	9660.27
388.48	11491.15
388.68	13008.70
388.89	13367.09
389.10	10815.32
389.31	9131.89
389.52	8347.52
389.73	7413.65
389.93	6975.38
390.14	6700.95
390.35	6219.68
390.56	5623.72
390.77	4589.50
390.98	3674.06
391.18	2834.39
391.39	2136.03
391.60	1724.39
391.81	1529.83
392.02	1380.33
392.23	1458.15
392.43	1470.44
392.64	1409.00
392.85	1435.63
393.06	1474.54
393.27	1380.33
393.47	1363.95
393.68	1388.52
393.89	1374.19
394.10	1394.67
394.31	1316.84
394.52	1341.42
394.72	1339.37
394.93	1449.96
395.14	1331.18
395.35	1439.72
395.56	1386.47
395.76	1449.96
395.97	1556.46
396.18	1562.60
396.39	1572.84
396.60	1603.56
396.80	1544.17
397.01	1484.78
397.22	1503.21
397.43	1495.02
397.64	1406.95
397.84	1486.83
398.05	1562.60
398.26	1462.25
398.47	1421.29
398.67	1462.25
398.88	1322.99
399.09	1423.34
399.30	1363.95
399.51	1388.52
399.71	1341.42
399.92	1380.33
400.13	1435.63
400.34	1363.95
400.54	1341.42
400.75	1423.34
400.96	1439.72
401.17	1370.09
401.37	1361.90
401.58	1337.32
401.79	1544.17
402.00	1740.77
402.21	1779.68
402.41	1892.32
402.62	1830.88
402.83	1677.29
403.04	1636.33
403.24	1800.16
403.45	1423.34
403.66	1624.04
403.87	1613.80
404.07	1609.70
404.28	1585.13
404.49	1605.61
404.70	1505.26
404.90	1388.52
405.11	1413.10
405.32	1523.69
405.52	1372.14
405.73	1351.66
405.94	1429.48
406.15	1476.59
406.35	1423.34
406.56	1355.76
406.77	1355.76
406.98	1390.57
407.18	1298.41
407.39	1351.66
407.60	1355.76
407.80	1353.71
408.01	1314.80
408.22	1388.52
408.43	1304.56
408.63	1345.52
408.84	1376.24
409.05	1353.71
409.25	1343.47
409.46	1366.00
409.67	1374.19
409.88	1370.09
410.08	1282.03
410.29	1316.84
410.50	1380.33
410.70	1415.15
410.91	1359.85
411.12	1396.71
411.32	1363.95
411.53	1472.49
411.74	1511.40
411.95	1509.35
412.15	1484.78
412.36	1402.86
412.57	1454.06
412.77	1486.83
412.98	1421.29
413.19	1380.33
413.39	1376.24
413.60	1429.48
413.81	1406.95
414.01	1310.70
414.22	1427.43
414.43	1404.91
414.63	1413.10
414.84	1449.96
415.05	1314.80
415.25	1316.84
415.46	1376.24
415.67	1388.52
415.87	1376.24
416.08	1400.81
416.29	1370.09
416.49	1361.90
416.70	1347.56
416.91	1316.84
417.11	1406.95
417.32	1374.19
417.53	1417.19
417.73	1458.15
417.94	1349.61
418.15	1337.32
418.35	1322.99
418.56	1380.33
418.77	1456.11
418.97	1372.14
419.18	1413.10
419.38	1279.98
419.59	1384.43
419.80	1380.33
420.00	1300.46
420.21	1376.24
420.42	1427.43
420.62	1347.56
420.83	1312.75
421.04	1318.89
421.24	1341.42
421.45	1345.52
421.65	1308.65
421.86	1370.09
422.07	1462.25
422.27	1409.00
422.48	1390.57
422.69	1265.64
422.89	1353.71
423.10	1298.41
423.30	1390.57
423.51	1400.81
423.72	1382.38
423.92	1329.13
424.13	1394.67
424.33	1372.14
424.54	1341.42
424.75	1409.00
424.95	1478.63
425.16	1480.68
425.36	1392.62
425.57	1382.38
425.78	1423.34
425.98	1312.75
426.19	1384.43
426.39	1236.97
426.60	1398.76
426.81	1404.91
427.01	1398.76
427.22	1339.37
427.42	1353.71
427.63	1388.52
427.83	1376.24
428.04	1462.25
428.25	1359.85
428.45	1396.71
428.66	1417.19
428.86	1406.95
429.07	1355.76
429.28	1425.39
429.48	1320.94
429.69	1398.76
429.89	1398.76
430.10	1343.47
430.30	1312.75
430.51	1392.62
430.71	1396.71
430.92	1333.23
431.13	1351.66
431.33	1359.85
431.54	1347.56
431.74	1529.83
431.95	1411.05
432.15	1290.22
432.36	1345.52
432.56	1372.14
432.77	1458.15
432.98	1400.81
433.18	1325.04
433.39	1392.62
433.59	1386.47
433.80	1343.47
434.00	1511.40
434.21	1335.28
434.41	1316.84
434.62	1431.53
434.82	1298.41
435.03	1265.64
435.23	1374.19
435.44	1386.47
435.64	1343.47
435.85	1361.90
436.06	1380.33
436.26	1382.38
436.47	1355.76
436.67	1421.29
436.88	1357.80
437.08	1349.61
437.29	1415.15
437.49	1327.08
437.70	1458.15
437.90	1370.09
438.11	1554.41
438.31	1443.82
438.52	1552.36
438.72	1626.09
438.93	1515.50
439.13	1441.77
439.34	1486.83
439.54	1445.87
439.75	1449.96
439.95	1427.43
440.16	1374.19
440.36	1435.63
440.57	1474.54
440.77	1382.38
440.98	1343.47
441.18	1437.67
441.39	1388.52
441.59	1368.04
441.80	1439.72
442.00	1394.67
442.21	1411.05
442.41	1363.95
442.62	1421.29
442.82	1363.95
443.02	1382.38
443.23	1449.96
443.43	1419.24
443.64	1478.63
443.84	1374.19
444.05	1368.04
444.25	1257.45
444.46	1349.61
444.66	1337.32
444.87	1464.30
445.07	1359.85
445.28	1277.93
445.48	1482.73
445.69	1374.19
445.89	1484.78
446.09	1437.67
446.30	2297.82
446.50	3735.50
446.71	4550.59
446.91	5296.05
447.12	5564.33
447.32	4966.32
447.53	4118.47
447.73	3874.76
447.93	3448.78
448.14	3182.54
448.34	3137.49
448.55	2799.57
448.75	2686.94
448.96	2680.79
449.16	2318.30
449.36	2250.72
449.57	1959.91
449.77	1703.91
449.98	1531.88
450.18	1603.56
450.39	1466.35
450.59	1406.95
450.79	1423.34
451.00	1347.56
451.20	1478.63
451.41	1363.95
451.61	1394.67
451.81	1435.63
452.02	1441.77
452.22	1388.52
452.43	1339.37
452.63	1359.85
