SpectraSuite Data File
++++++++++++++++++++++++++++++++++++
Date: Tue May 03 11:24:27 CEST 2016
User: root
Dark Spectrum Present: No
Reference Spectrum Present: No
Number of Sampled Component Spectra: 1
Spectrometers: USB4C02835
Integration Time (usec): 100000 (USB4C02835)
Spectra Averaged: 1 (USB4C02835)
Boxcar Smoothing: 0 (USB4C02835)
Correct for Electrical Dark: No (USB4C02835)
Strobe/Lamp Enabled: No (USB4C02835)
Correct for Detector Non-linearity: No (USB4C02835)
Correct for Stray Light: No (USB4C02835)
Number of Pixels in Processed Spectrum: 3648
>>>>>Begin Processed Spectral Data<<<<<
177.47	1228.78
177.69	1228.78
177.91	1228.78
178.13	1220.59
178.36	1265.64
178.58	1437.67
178.80	1388.52
179.02	1325.04
179.24	1327.08
179.46	1361.90
179.68	1421.29
179.90	1316.84
180.13	1376.24
180.35	1390.57
180.57	1386.47
180.79	1316.84
181.01	1380.33
181.23	1351.66
181.45	1421.29
181.67	1404.91
181.90	1372.14
182.12	1392.62
182.34	1382.38
182.56	1382.38
182.78	1355.76
183.00	1384.43
183.22	1417.19
183.44	1279.98
183.66	1503.21
183.89	1458.15
184.11	1386.47
184.33	1351.66
184.55	1445.87
184.77	1366.00
184.99	1406.95
185.21	1433.58
185.43	1427.43
185.65	1376.24
185.87	1402.86
186.10	1376.24
186.32	1390.57
186.54	1400.81
186.76	1388.52
186.98	1409.00
187.20	1308.65
187.42	1314.80
187.64	1347.56
187.86	1370.09
188.08	1353.71
188.30	1435.63
188.52	1359.85
188.75	1378.28
188.97	1402.86
189.19	1284.08
189.41	1370.09
189.63	1437.67
189.85	1359.85
190.07	1398.76
190.29	1304.56
190.51	1357.80
190.73	1296.36
190.95	1376.24
191.17	1357.80
191.39	1349.61
191.61	1294.32
191.84	1357.80
192.06	1419.24
192.28	1318.89
192.50	1482.73
192.72	1380.33
192.94	1265.64
193.16	1419.24
193.38	1376.24
193.60	1282.03
193.82	1363.95
194.04	1423.34
194.26	1363.95
194.48	1259.50
194.70	1368.04
194.92	1398.76
195.14	1314.80
195.36	1339.37
195.58	1320.94
195.80	1337.32
196.02	1415.15
196.24	1433.58
196.46	1427.43
196.69	1411.05
196.91	1460.20
197.13	1419.24
197.35	1396.71
197.57	1415.15
197.79	1443.82
198.01	1388.52
198.23	1449.96
198.45	1421.29
198.67	1302.51
198.89	1359.85
199.11	1384.43
199.33	1361.90
199.55	1308.65
199.77	1425.39
199.99	1384.43
200.21	1337.32
200.43	1380.33
200.65	1400.81
200.87	1306.60
201.09	1402.86
201.31	1363.95
201.53	1333.23
201.75	1363.95
201.97	1370.09
202.19	1355.76
202.41	1327.08
202.63	1460.20
202.85	1406.95
203.07	1366.00
203.29	1355.76
203.51	1339.37
203.73	1282.03
203.95	1425.39
204.17	1400.81
204.39	1378.28
204.61	1378.28
204.83	1333.23
205.05	1411.05
205.27	1406.95
205.49	1445.87
205.71	1322.99
205.93	1316.84
206.15	1404.91
206.37	1357.80
206.59	1320.94
206.81	1376.24
207.03	1282.03
207.25	1363.95
207.47	1359.85
207.69	1417.19
207.91	1347.56
208.13	1341.42
208.34	1345.52
208.56	1372.14
208.78	1347.56
209.00	1359.85
209.22	1304.56
209.44	1386.47
209.66	1306.60
209.88	1382.38
210.10	1263.60
210.32	1388.52
210.54	1398.76
210.76	1406.95
210.98	1433.58
211.20	1263.60
211.42	1370.09
211.64	1372.14
211.86	1390.57
212.08	1429.48
212.30	1353.71
212.52	1384.43
212.74	1415.15
212.96	1400.81
213.17	1370.09
213.39	1454.06
213.61	1462.25
213.83	1374.19
214.05	1327.08
214.27	1417.19
214.49	1345.52
214.71	1316.84
214.93	1384.43
215.15	1400.81
215.37	1417.19
215.59	1322.99
215.81	1351.66
216.03	1363.95
216.24	1429.48
216.46	1357.80
216.68	1361.90
216.90	1376.24
217.12	1378.28
217.34	1421.29
217.56	1355.76
217.78	1363.95
218.00	1390.57
218.22	1355.76
218.44	1312.75
218.66	1306.60
218.87	1378.28
219.09	1341.42
219.31	1384.43
219.53	1316.84
219.75	1400.81
219.97	1404.91
220.19	1318.89
220.41	1378.28
220.63	1472.49
220.85	1464.30
221.06	1314.80
221.28	1495.02
221.50	1402.86
221.72	1363.95
221.94	1406.95
222.16	1415.15
222.38	1325.04
222.60	1429.48
222.82	1366.00
223.03	1286.12
223.25	1327.08
223.47	1380.33
223.69	1474.54
223.91	1378.28
224.13	1351.66
224.35	1361.90
224.57	1499.11
224.78	1411.05
225.00	1351.66
225.22	1335.28
225.44	1353.71
225.66	1394.67
225.88	1374.19
226.10	1380.33
226.32	1363.95
226.53	1486.83
226.75	1398.76
226.97	1368.04
227.19	1361.90
227.41	1376.24
227.63	1310.70
227.85	1304.56
228.06	1349.61
228.28	1343.47
228.50	1316.84
228.72	1378.28
228.94	1292.27
229.16	1288.17
229.37	1335.28
229.59	1341.42
229.81	1495.02
230.03	1363.95
230.25	1396.71
230.47	1335.28
230.69	1286.12
230.90	1380.33
231.12	1363.95
231.34	1406.95
231.56	1423.34
231.78	1327.08
232.00	1382.38
232.21	1322.99
232.43	1296.36
232.65	1306.60
232.87	1376.24
233.09	1406.95
233.30	1400.81
233.52	1480.68
233.74	1366.00
233.96	1370.09
234.18	1341.42
234.40	1366.00
234.61	1429.48
234.83	1359.85
235.05	1335.28
235.27	1431.53
235.49	1460.20
235.70	1359.85
235.92	1460.20
236.14	1406.95
236.36	1419.24
236.58	1273.84
236.79	1384.43
237.01	1314.80
237.23	1349.61
237.45	1464.30
237.67	1263.60
237.88	1396.71
238.10	1394.67
238.32	1300.46
238.54	1402.86
238.76	1390.57
238.97	1419.24
239.19	1312.75
239.41	1501.16
239.63	1445.87
239.85	1372.14
240.06	1355.76
240.28	1314.80
240.50	1363.95
240.72	1396.71
240.93	1355.76
241.15	1400.81
241.37	1400.81
241.59	1468.39
241.81	1357.80
242.02	1445.87
242.24	1437.67
242.46	1380.33
242.68	1300.46
242.89	1357.80
243.11	1335.28
243.33	1409.00
243.55	1370.09
243.76	1380.33
243.98	1382.38
244.20	1357.80
244.42	1495.02
244.64	1308.65
244.85	1372.14
245.07	1304.56
245.29	1366.00
245.51	1421.29
245.72	1382.38
245.94	1411.05
246.16	1495.02
246.38	1419.24
246.59	1322.99
246.81	1341.42
247.03	1314.80
247.24	1370.09
247.46	1409.00
247.68	1388.52
247.90	1349.61
248.11	1361.90
248.33	1355.76
248.55	1282.03
248.77	1327.08
248.98	1349.61
249.20	1470.44
249.42	1298.41
249.64	1376.24
249.85	1374.19
250.07	1345.52
250.29	1359.85
250.50	1331.18
250.72	1312.75
250.94	1296.36
251.16	1413.10
251.37	1441.77
251.59	1452.01
251.81	1429.48
252.02	1402.86
252.24	1343.47
252.46	1394.67
252.68	1353.71
252.89	1347.56
253.11	1327.08
253.33	1460.20
253.54	1431.53
253.76	1312.75
253.98	1300.46
254.20	1378.28
254.41	1318.89
254.63	1349.61
254.85	1355.76
255.06	1368.04
255.28	1394.67
255.50	1329.13
255.71	1294.32
255.93	1368.04
256.15	1411.05
256.36	1404.91
256.58	1460.20
256.80	1388.52
257.02	1312.75
257.23	1378.28
257.45	1331.18
257.67	1435.63
257.88	1320.94
258.10	1433.58
258.32	1374.19
258.53	1388.52
258.75	1374.19
258.97	1421.29
259.18	1392.62
259.40	1390.57
259.62	1492.97
259.83	1384.43
260.05	1421.29
260.27	1562.60
260.48	1429.48
260.70	1353.71
260.92	1339.37
261.13	1314.80
261.35	1363.95
261.57	1388.52
261.78	1333.23
262.00	1363.95
262.22	1439.72
262.43	1359.85
262.65	1419.24
262.86	1386.47
263.08	1449.96
263.30	1349.61
263.51	1282.03
263.73	1341.42
263.95	1392.62
264.16	1304.56
264.38	1288.17
264.60	1421.29
264.81	1318.89
265.03	1378.28
265.25	1368.04
265.46	1351.66
265.68	1388.52
265.89	1343.47
266.11	1304.56
266.33	1413.10
266.54	1372.14
266.76	1380.33
266.98	1398.76
267.19	1409.00
267.41	1374.19
267.62	1413.10
267.84	1378.28
268.06	1333.23
268.27	1329.13
268.49	1370.09
268.70	1382.38
268.92	1353.71
269.14	1314.80
269.35	1337.32
269.57	1366.00
269.79	1472.49
270.00	1366.00
270.22	1382.38
270.43	1331.18
270.65	1349.61
270.87	1329.13
271.08	1423.34
271.30	1368.04
271.51	1409.00
271.73	1376.24
271.95	1400.81
272.16	1402.86
272.38	1402.86
272.59	1308.65
272.81	1374.19
273.02	1345.52
273.24	1388.52
273.46	1462.25
273.67	1345.52
273.89	1388.52
274.10	1351.66
274.32	1355.76
274.54	1349.61
274.75	1355.76
274.97	1312.75
275.18	1290.22
275.40	1347.56
275.61	1345.52
275.83	1366.00
276.05	1339.37
276.26	1343.47
276.48	1374.19
276.69	1296.36
276.91	1361.90
277.12	1429.48
277.34	1349.61
277.55	1380.33
277.77	1372.14
277.99	1370.09
278.20	1341.42
278.42	1384.43
278.63	1273.84
278.85	1380.33
279.06	1304.56
279.28	1353.71
279.49	1318.89
279.71	1413.10
279.93	1378.28
280.14	1394.67
280.36	1363.95
280.57	1404.91
280.79	1378.28
281.00	1390.57
281.22	1413.10
281.43	1454.06
281.65	1359.85
281.86	1359.85
282.08	1394.67
282.29	1394.67
282.51	1368.04
282.73	1390.57
282.94	1351.66
283.16	1409.00
283.37	1458.15
283.59	1333.23
283.80	1341.42
284.02	1302.51
284.23	1361.90
284.45	1404.91
284.66	1312.75
284.88	1329.13
285.09	1443.82
285.31	1429.48
285.52	1388.52
285.74	1282.03
285.95	1417.19
286.17	1361.90
286.38	1394.67
286.60	1267.69
286.81	1302.51
287.03	1357.80
287.24	1327.08
287.46	1411.05
287.67	1320.94
287.89	1445.87
288.10	1441.77
288.32	1359.85
288.53	1464.30
288.75	1282.03
288.96	1388.52
289.18	1267.69
289.39	1331.18
289.61	1421.29
289.82	1503.21
290.04	1386.47
290.25	1271.79
290.47	1382.38
290.68	1413.10
290.90	1370.09
291.11	1343.47
291.33	1318.89
291.54	1335.28
291.76	1325.04
291.97	1318.89
292.18	1409.00
292.40	1359.85
292.61	1372.14
292.83	1429.48
293.04	1441.77
293.26	1443.82
293.47	1298.41
293.69	1368.04
293.90	1357.80
294.12	1460.20
294.33	1357.80
294.55	1368.04
294.76	1394.67
294.97	1429.48
295.19	1386.47
295.40	1431.53
295.62	1386.47
295.83	1347.56
296.05	1402.86
296.26	1423.34
296.48	1343.47
296.69	1331.18
296.90	1355.76
297.12	1409.00
297.33	1372.14
297.55	1341.42
297.76	1318.89
297.98	1359.85
298.19	1427.43
298.41	1343.47
298.62	1374.19
298.83	1499.11
299.05	1376.24
299.26	1390.57
299.48	1349.61
299.69	1409.00
299.90	1353.71
300.12	1331.18
300.33	1372.14
300.55	1372.14
300.76	1413.10
300.98	1316.84
301.19	1413.10
301.40	1312.75
301.62	1368.04
301.83	1376.24
302.05	1341.42
302.26	1314.80
302.47	1396.71
302.69	1337.32
302.90	1456.11
303.12	1361.90
303.33	1366.00
303.54	1388.52
303.76	1390.57
303.97	1374.19
304.19	1388.52
304.40	1294.32
304.61	1347.56
304.83	1427.43
305.04	1417.19
305.26	1370.09
305.47	1394.67
305.68	1406.95
305.90	1335.28
306.11	1392.62
306.33	1359.85
306.54	1300.46
306.75	1374.19
306.97	1320.94
307.18	1351.66
307.39	1378.28
307.61	1353.71
307.82	1368.04
308.04	1386.47
308.25	1312.75
308.46	1337.32
308.68	1411.05
308.89	1316.84
309.10	1368.04
309.32	1400.81
309.53	1376.24
309.74	1343.47
309.96	1447.91
310.17	1384.43
310.39	1312.75
310.60	1419.24
310.81	1382.38
311.03	1335.28
311.24	1423.34
311.45	1368.04
311.67	1499.11
311.88	1345.52
312.09	1341.42
312.31	1398.76
312.52	1382.38
312.73	1349.61
312.95	1329.13
313.16	1337.32
313.37	1480.68
313.59	1439.72
313.80	1404.91
314.01	1427.43
314.23	1343.47
314.44	1345.52
314.65	1329.13
314.87	1335.28
315.08	1392.62
315.29	1386.47
315.51	1423.34
315.72	1288.17
315.93	1447.91
316.15	1409.00
316.36	1310.70
316.57	1273.84
316.79	1456.11
317.00	1411.05
317.21	1413.10
317.43	1372.14
317.64	1394.67
317.85	1417.19
318.07	1433.58
318.28	1495.02
318.49	1546.22
318.70	1589.22
318.92	1501.16
319.13	1533.93
319.34	1603.56
319.56	1435.63
319.77	1464.30
319.98	1449.96
320.20	1546.22
320.41	1468.39
320.62	1359.85
320.83	1372.14
321.05	1503.21
321.26	1472.49
321.47	1359.85
321.69	1419.24
321.90	1343.47
322.11	1374.19
322.32	1388.52
322.54	1322.99
322.75	1404.91
322.96	1427.43
323.18	1400.81
323.39	1257.45
323.60	1411.05
323.81	1406.95
324.03	1327.08
324.24	1409.00
324.45	1441.77
324.66	1351.66
324.88	1378.28
325.09	1472.49
325.30	1374.19
325.52	1363.95
325.73	1380.33
325.94	1298.41
326.15	1294.32
326.37	1370.09
326.58	1372.14
326.79	1359.85
327.00	1335.28
327.22	1404.91
327.43	1288.17
327.64	1349.61
327.85	1359.85
328.07	1292.27
328.28	1386.47
328.49	1316.84
328.70	1409.00
328.92	1443.82
329.13	1392.62
329.34	1372.14
329.55	1474.54
329.76	1427.43
329.98	1288.17
330.19	1431.53
330.40	1423.34
330.61	1402.86
330.83	1370.09
331.04	1294.32
331.25	1380.33
331.46	1361.90
331.68	1370.09
331.89	1390.57
332.10	1318.89
332.31	1363.95
332.52	1214.45
332.74	1466.35
332.95	1306.60
333.16	1366.00
333.37	1392.62
333.58	1398.76
333.80	1345.52
334.01	1310.70
334.22	1361.90
334.43	1322.99
334.64	1394.67
334.86	1308.65
335.07	1392.62
335.28	1392.62
335.49	1249.26
335.70	1314.80
335.92	1443.82
336.13	1445.87
336.34	1380.33
336.55	1392.62
336.76	1357.80
336.98	1347.56
337.19	1394.67
337.40	1433.58
337.61	1437.67
337.82	1331.18
338.04	1429.48
338.25	1368.04
338.46	1327.08
338.67	1425.39
338.88	1361.90
339.09	1343.47
339.31	1345.52
339.52	1341.42
339.73	1409.00
339.94	1398.76
340.15	1357.80
340.36	1376.24
340.58	1384.43
340.79	1370.09
341.00	1306.60
341.21	1331.18
341.42	1402.86
341.63	1370.09
341.85	1386.47
342.06	1443.82
342.27	1347.56
342.48	1472.49
342.69	1292.27
342.90	1392.62
343.12	1411.05
343.33	1361.90
343.54	1413.10
343.75	1370.09
343.96	1339.37
344.17	1368.04
344.38	1378.28
344.60	1374.19
344.81	1388.52
345.02	1306.60
345.23	1439.72
345.44	1382.38
345.65	1361.90
345.86	1310.70
346.07	1353.71
346.29	1353.71
346.50	1353.71
346.71	1402.86
346.92	1456.11
347.13	1449.96
347.34	1374.19
347.55	1386.47
347.76	1361.90
347.98	1304.56
348.19	1335.28
348.40	1400.81
348.61	1380.33
348.82	1398.76
349.03	1452.01
349.24	1302.51
349.45	1447.91
349.66	1339.37
349.88	1370.09
350.09	1304.56
350.30	1370.09
350.51	1476.59
350.72	1417.19
350.93	1298.41
351.14	1380.33
351.35	1284.08
351.56	1320.94
351.77	1374.19
351.99	1411.05
352.20	1462.25
352.41	1454.06
352.62	1288.17
352.83	1331.18
353.04	1327.08
353.25	1343.47
353.46	1339.37
353.67	1484.78
353.88	1312.75
354.09	1302.51
354.30	1374.19
354.52	1341.42
354.73	1353.71
354.94	1351.66
355.15	1341.42
355.36	1404.91
355.57	1363.95
355.78	1431.53
355.99	1372.14
356.20	1435.63
356.41	1390.57
356.62	1413.10
356.83	1357.80
357.04	1409.00
357.25	1308.65
357.46	1363.95
357.68	1312.75
357.89	1304.56
358.10	1343.47
358.31	1388.52
358.52	1435.63
358.73	1363.95
358.94	1339.37
359.15	1325.04
359.36	1445.87
359.57	1316.84
359.78	1355.76
359.99	1384.43
360.20	1335.28
360.41	1357.80
360.62	1370.09
360.83	1347.56
361.04	1400.81
361.25	1476.59
361.46	1419.24
361.67	1474.54
361.88	1386.47
362.09	1286.12
362.30	1376.24
362.51	1376.24
362.72	1339.37
362.93	1425.39
363.14	1351.66
363.35	1427.43
363.56	1361.90
363.78	1386.47
363.99	1333.23
364.20	1361.90
364.41	1376.24
364.62	1449.96
364.83	1370.09
365.04	1402.86
365.25	1359.85
365.46	1472.49
365.67	1378.28
365.88	1333.23
366.09	1411.05
366.30	1433.58
366.51	1402.86
366.72	1355.76
366.93	1366.00
367.14	1308.65
367.35	1423.34
367.56	1396.71
367.77	1417.19
367.98	1368.04
368.18	1314.80
368.39	1419.24
368.60	1286.12
368.81	1361.90
369.02	1378.28
369.23	1363.95
369.44	1402.86
369.65	1347.56
369.86	1427.43
370.07	1413.10
370.28	1357.80
370.49	1335.28
370.70	1361.90
370.91	1380.33
371.12	1306.60
371.33	1433.58
371.54	1402.86
371.75	1486.83
371.96	1339.37
372.17	1417.19
372.38	1404.91
372.59	1347.56
372.80	1236.97
373.01	1306.60
373.22	1355.76
373.43	1306.60
373.64	1390.57
373.85	1353.71
374.06	1454.06
374.26	1429.48
374.47	1406.95
374.68	1411.05
374.89	1431.53
375.10	1382.38
375.31	1388.52
375.52	1355.76
375.73	1380.33
375.94	1372.14
376.15	1495.02
376.36	1353.71
376.57	1376.24
376.78	1359.85
376.99	1396.71
377.20	1443.82
377.40	1396.71
377.61	1486.83
377.82	1333.23
378.03	1421.29
378.24	1394.67
378.45	1396.71
378.66	1394.67
378.87	1394.67
379.08	1337.32
379.29	1292.27
379.50	1368.04
379.71	1392.62
379.91	1423.34
380.12	1400.81
380.33	1349.61
380.54	1404.91
380.75	1415.15
380.96	1339.37
381.17	1454.06
381.38	1370.09
381.59	1542.12
381.80	1351.66
382.00	1486.83
382.21	1417.19
382.42	1454.06
382.63	1544.17
382.84	1400.81
383.05	1427.43
383.26	1413.10
383.47	1441.77
383.68	1433.58
383.88	1415.15
384.09	1312.75
384.30	1460.20
384.51	1359.85
384.72	1314.80
384.93	1331.18
385.14	1359.85
385.35	1435.63
385.55	1310.70
385.76	1329.13
385.97	1384.43
386.18	1355.76
386.39	1318.89
386.60	1359.85
386.81	1425.39
387.02	1409.00
387.22	1359.85
387.43	1454.06
387.64	1566.70
387.85	2244.57
388.06	5887.91
388.27	9512.81
388.48	11724.62
388.68	13348.66
388.89	13567.79
389.10	10741.60
389.31	9471.86
389.52	8456.06
389.73	7540.62
389.93	6956.95
390.14	6512.54
390.35	6012.84
390.56	5582.76
390.77	4753.34
390.98	3678.15
391.18	2842.58
391.39	2207.71
391.60	1718.25
391.81	1621.99
392.02	1452.01
392.23	1509.35
392.43	1443.82
392.64	1462.25
392.85	1370.09
393.06	1380.33
393.27	1325.04
393.47	1398.76
393.68	1413.10
393.89	1376.24
394.10	1427.43
394.31	1343.47
394.52	1298.41
394.72	1335.28
394.93	1441.77
395.14	1337.32
395.35	1460.20
395.56	1329.13
395.76	1501.16
395.97	1511.40
396.18	1591.27
396.39	1599.46
396.60	1699.81
396.80	1597.42
397.01	1519.59
397.22	1617.90
397.43	1464.30
397.64	1454.06
397.84	1495.02
398.05	1445.87
398.26	1411.05
398.47	1478.63
398.67	1435.63
398.88	1411.05
399.09	1406.95
399.30	1378.28
399.51	1329.13
399.71	1390.57
399.92	1314.80
400.13	1337.32
400.34	1361.90
400.54	1343.47
400.75	1441.77
400.96	1347.56
401.17	1376.24
401.37	1429.48
401.58	1415.15
401.79	1443.82
402.00	1673.19
402.21	1761.25
402.41	1834.98
402.62	1796.07
402.83	1726.44
403.04	1630.18
403.24	1751.01
403.45	1626.09
403.66	1591.27
403.87	1601.51
404.07	1611.75
404.28	1619.94
404.49	1581.03
404.70	1470.44
404.90	1484.78
405.11	1419.24
405.32	1447.91
405.52	1361.90
405.73	1386.47
405.94	1370.09
406.15	1382.38
406.35	1404.91
406.56	1413.10
406.77	1431.53
406.98	1413.10
407.18	1378.28
407.39	1439.72
407.60	1347.56
407.80	1337.32
408.01	1421.29
408.22	1355.76
408.43	1402.86
408.63	1415.15
408.84	1433.58
409.05	1366.00
409.25	1292.27
409.46	1368.04
409.67	1363.95
409.88	1445.87
410.08	1339.37
410.29	1353.71
410.50	1419.24
410.70	1441.77
410.91	1292.27
411.12	1409.00
411.32	1388.52
411.53	1443.82
411.74	1464.30
411.95	1560.55
412.15	1488.87
412.36	1374.19
412.57	1402.86
412.77	1437.67
412.98	1495.02
413.19	1363.95
413.39	1439.72
413.60	1484.78
413.81	1415.15
414.01	1495.02
414.22	1476.59
414.43	1433.58
414.63	1425.39
414.84	1439.72
415.05	1447.91
415.25	1335.28
415.46	1347.56
415.67	1421.29
415.87	1335.28
416.08	1437.67
416.29	1288.17
416.49	1331.18
416.70	1423.34
416.91	1382.38
417.11	1384.43
417.32	1415.15
417.53	1404.91
417.73	1456.11
417.94	1380.33
418.15	1374.19
418.35	1415.15
418.56	1380.33
418.77	1394.67
418.97	1363.95
419.18	1380.33
419.38	1308.65
419.59	1374.19
419.80	1454.06
420.00	1439.72
420.21	1335.28
420.42	1339.37
420.62	1329.13
420.83	1351.66
421.04	1376.24
421.24	1421.29
421.45	1380.33
421.65	1355.76
421.86	1339.37
422.07	1421.29
422.27	1341.42
422.48	1357.80
422.69	1361.90
422.89	1325.04
423.10	1380.33
423.30	1302.51
423.51	1413.10
423.72	1400.81
423.92	1363.95
424.13	1374.19
424.33	1310.70
424.54	1406.95
424.75	1292.27
424.95	1396.71
425.16	1271.79
425.36	1388.52
425.57	1419.24
425.78	1353.71
425.98	1449.96
426.19	1366.00
426.39	1390.57
426.60	1349.61
426.81	1427.43
427.01	1275.88
427.22	1413.10
427.42	1308.65
427.63	1347.56
427.83	1390.57
428.04	1480.68
428.25	1456.11
428.45	1406.95
428.66	1366.00
428.86	1388.52
429.07	1308.65
429.28	1394.67
429.48	1296.36
429.69	1339.37
429.89	1310.70
430.10	1241.07
430.30	1388.52
430.51	1425.39
430.71	1308.65
430.92	1384.43
431.13	1343.47
431.33	1427.43
431.54	1409.00
431.74	1384.43
431.95	1437.67
432.15	1411.05
432.36	1411.05
432.56	1351.66
432.77	1398.76
432.98	1447.91
433.18	1341.42
433.39	1396.71
433.59	1322.99
433.80	1427.43
434.00	1376.24
434.21	1359.85
434.41	1341.42
434.62	1456.11
434.82	1331.18
435.03	1359.85
435.23	1370.09
435.44	1318.89
435.64	1366.00
435.85	1404.91
436.06	1384.43
436.26	1366.00
436.47	1376.24
436.67	1339.37
436.88	1429.48
437.08	1368.04
437.29	1435.63
437.49	1363.95
437.70	1427.43
437.90	1390.57
438.11	1441.77
438.31	1570.79
438.52	1656.81
438.72	1470.44
438.93	1572.84
439.13	1445.87
439.34	1468.39
439.54	1417.19
439.75	1480.68
439.95	1464.30
440.16	1394.67
440.36	1466.35
440.57	1482.73
440.77	1425.39
440.98	1409.00
441.18	1415.15
441.39	1378.28
441.59	1376.24
441.80	1429.48
442.00	1353.71
442.21	1366.00
442.41	1312.75
442.62	1443.82
442.82	1419.24
443.02	1423.34
443.23	1404.91
443.43	1415.15
443.64	1437.67
443.84	1329.13
444.05	1411.05
444.25	1458.15
444.46	1363.95
444.66	1396.71
444.87	1433.58
445.07	1368.04
445.28	1396.71
445.48	1468.39
445.69	1452.01
445.89	1492.97
446.09	1560.55
446.30	2226.14
446.50	3764.17
446.71	4759.48
446.91	5459.88
447.12	5556.14
447.32	5062.58
447.53	4104.13
447.73	3876.80
447.93	3475.40
448.14	3293.13
448.34	3227.60
448.55	2852.82
448.75	2693.08
448.96	2682.84
449.16	2383.84
449.36	2215.90
449.57	1886.18
449.77	1685.48
449.98	1492.97
450.18	1480.68
450.39	1429.48
450.59	1402.86
450.79	1355.76
451.00	1345.52
451.20	1406.95
451.41	1378.28
451.61	1409.00
451.81	1419.24
452.02	1382.38
452.22	1363.95
452.43	1370.09
452.63	1355.76
