SpectraSuite Data File
++++++++++++++++++++++++++++++++++++
Date: Tue May 03 11:24:29 CEST 2016
User: root
Dark Spectrum Present: No
Reference Spectrum Present: No
Number of Sampled Component Spectra: 1
Spectrometers: USB4C02835
Integration Time (usec): 100000 (USB4C02835)
Spectra Averaged: 1 (USB4C02835)
Boxcar Smoothing: 0 (USB4C02835)
Correct for Electrical Dark: No (USB4C02835)
Strobe/Lamp Enabled: No (USB4C02835)
Correct for Detector Non-linearity: No (USB4C02835)
Correct for Stray Light: No (USB4C02835)
Number of Pixels in Processed Spectrum: 3648
>>>>>Begin Processed Spectral Data<<<<<
177.47	1208.30
177.69	1208.30
177.91	1208.30
178.13	1212.40
178.36	1286.12
178.58	1388.52
178.80	1298.41
179.02	1359.85
179.24	1296.36
179.46	1347.56
179.68	1443.82
179.90	1376.24
180.13	1388.52
180.35	1372.14
180.57	1402.86
180.79	1368.04
181.01	1325.04
181.23	1462.25
181.45	1314.80
181.67	1378.28
181.90	1425.39
182.12	1302.51
182.34	1304.56
182.56	1392.62
182.78	1314.80
183.00	1396.71
183.22	1449.96
183.44	1282.03
183.66	1468.39
183.89	1413.10
184.11	1333.23
184.33	1413.10
184.55	1396.71
184.77	1392.62
184.99	1394.67
185.21	1349.61
185.43	1437.67
185.65	1378.28
185.87	1288.17
186.10	1480.68
186.32	1435.63
186.54	1402.86
186.76	1380.33
186.98	1376.24
187.20	1402.86
187.42	1443.82
187.64	1325.04
187.86	1292.27
188.08	1425.39
188.30	1322.99
188.52	1361.90
188.75	1413.10
188.97	1419.24
189.19	1409.00
189.41	1370.09
189.63	1382.38
189.85	1376.24
190.07	1327.08
190.29	1288.17
190.51	1370.09
190.73	1374.19
190.95	1406.95
191.17	1423.34
191.39	1335.28
191.61	1343.47
191.84	1361.90
192.06	1357.80
192.28	1337.32
192.50	1525.74
192.72	1437.67
192.94	1269.74
193.16	1376.24
193.38	1368.04
193.60	1318.89
193.82	1380.33
194.04	1423.34
194.26	1341.42
194.48	1431.53
194.70	1400.81
194.92	1234.93
195.14	1343.47
195.36	1341.42
195.58	1308.65
195.80	1310.70
196.02	1388.52
196.24	1329.13
196.46	1355.76
196.69	1341.42
196.91	1466.35
197.13	1415.15
197.35	1316.84
197.57	1406.95
197.79	1458.15
198.01	1439.72
198.23	1419.24
198.45	1402.86
198.67	1255.40
198.89	1322.99
199.11	1363.95
199.33	1265.64
199.55	1314.80
199.77	1310.70
199.99	1409.00
200.21	1400.81
200.43	1409.00
200.65	1314.80
200.87	1357.80
201.09	1419.24
201.31	1337.32
201.53	1409.00
201.75	1378.28
201.97	1349.61
202.19	1392.62
202.41	1447.91
202.63	1429.48
202.85	1419.24
203.07	1400.81
203.29	1320.94
203.51	1320.94
203.73	1353.71
203.95	1452.01
204.17	1433.58
204.39	1429.48
204.61	1333.23
204.83	1335.28
205.05	1320.94
205.27	1435.63
205.49	1429.48
205.71	1327.08
205.93	1335.28
206.15	1376.24
206.37	1357.80
206.59	1374.19
206.81	1312.75
207.03	1335.28
207.25	1306.60
207.47	1376.24
207.69	1345.52
207.91	1417.19
208.13	1441.77
208.34	1415.15
208.56	1400.81
208.78	1363.95
209.00	1341.42
209.22	1333.23
209.44	1322.99
209.66	1335.28
209.88	1378.28
210.10	1339.37
210.32	1411.05
210.54	1466.35
210.76	1411.05
210.98	1351.66
211.20	1337.32
211.42	1355.76
211.64	1409.00
211.86	1394.67
212.08	1462.25
212.30	1376.24
212.52	1343.47
212.74	1409.00
212.96	1406.95
213.17	1335.28
213.39	1427.43
213.61	1355.76
213.83	1429.48
214.05	1318.89
214.27	1402.86
214.49	1279.98
214.71	1366.00
214.93	1445.87
215.15	1314.80
215.37	1452.01
215.59	1302.51
215.81	1427.43
216.03	1329.13
216.24	1329.13
216.46	1325.04
216.68	1380.33
216.90	1429.48
217.12	1370.09
217.34	1355.76
217.56	1425.39
217.78	1443.82
218.00	1382.38
218.22	1366.00
218.44	1402.86
218.66	1384.43
218.87	1359.85
219.09	1361.90
219.31	1478.63
219.53	1411.05
219.75	1325.04
219.97	1386.47
220.19	1314.80
220.41	1331.18
220.63	1413.10
220.85	1376.24
221.06	1415.15
221.28	1380.33
221.50	1372.14
221.72	1392.62
221.94	1372.14
222.16	1327.08
222.38	1374.19
222.60	1429.48
222.82	1349.61
223.03	1476.59
223.25	1343.47
223.47	1456.11
223.69	1445.87
223.91	1421.29
224.13	1413.10
224.35	1370.09
224.57	1468.39
224.78	1312.75
225.00	1386.47
225.22	1335.28
225.44	1411.05
225.66	1404.91
225.88	1361.90
226.10	1458.15
226.32	1419.24
226.53	1409.00
226.75	1359.85
226.97	1359.85
227.19	1343.47
227.41	1406.95
227.63	1327.08
227.85	1310.70
228.06	1423.34
228.28	1331.18
228.50	1406.95
228.72	1312.75
228.94	1312.75
229.16	1320.94
229.37	1337.32
229.59	1398.76
229.81	1382.38
230.03	1282.03
230.25	1376.24
230.47	1241.07
230.69	1286.12
230.90	1347.56
231.12	1335.28
231.34	1396.71
231.56	1394.67
231.78	1380.33
232.00	1335.28
232.21	1372.14
232.43	1300.46
232.65	1298.41
232.87	1394.67
233.09	1337.32
233.30	1345.52
233.52	1335.28
233.74	1429.48
233.96	1357.80
234.18	1353.71
234.40	1343.47
234.61	1441.77
234.83	1277.93
235.05	1345.52
235.27	1478.63
235.49	1417.19
235.70	1322.99
235.92	1402.86
236.14	1419.24
236.36	1427.43
236.58	1331.18
236.79	1363.95
237.01	1386.47
237.23	1363.95
237.45	1427.43
237.67	1372.14
237.88	1310.70
238.10	1470.44
238.32	1341.42
238.54	1421.29
238.76	1349.61
238.97	1335.28
239.19	1400.81
239.41	1294.32
239.63	1398.76
239.85	1327.08
240.06	1429.48
240.28	1337.32
240.50	1394.67
240.72	1347.56
240.93	1396.71
241.15	1406.95
241.37	1284.08
241.59	1370.09
241.81	1322.99
242.02	1376.24
242.24	1404.91
242.46	1353.71
242.68	1349.61
242.89	1404.91
243.11	1394.67
243.33	1384.43
243.55	1425.39
243.76	1347.56
243.98	1327.08
244.20	1357.80
244.42	1390.57
244.64	1445.87
244.85	1343.47
245.07	1370.09
245.29	1374.19
245.51	1318.89
245.72	1396.71
245.94	1378.28
246.16	1402.86
246.38	1378.28
246.59	1361.90
246.81	1314.80
247.03	1355.76
247.24	1331.18
247.46	1392.62
247.68	1376.24
247.90	1392.62
248.11	1355.76
248.33	1386.47
248.55	1404.91
248.77	1427.43
248.98	1415.15
249.20	1388.52
249.42	1312.75
249.64	1413.10
249.85	1339.37
250.07	1404.91
250.29	1411.05
250.50	1343.47
250.72	1282.03
250.94	1400.81
251.16	1402.86
251.37	1366.00
251.59	1406.95
251.81	1454.06
252.02	1452.01
252.24	1390.57
252.46	1316.84
252.68	1331.18
252.89	1439.72
253.11	1337.32
253.33	1411.05
253.54	1398.76
253.76	1314.80
253.98	1351.66
254.20	1337.32
254.41	1347.56
254.63	1382.38
254.85	1314.80
255.06	1349.61
255.28	1331.18
255.50	1396.71
255.71	1275.88
255.93	1312.75
256.15	1370.09
256.36	1411.05
256.58	1363.95
256.80	1468.39
257.02	1378.28
257.23	1419.24
257.45	1306.60
257.67	1347.56
257.88	1257.45
258.10	1396.71
258.32	1396.71
258.53	1359.85
258.75	1460.20
258.97	1347.56
259.18	1382.38
259.40	1443.82
259.62	1439.72
259.83	1447.91
260.05	1398.76
260.27	1535.98
260.48	1267.69
260.70	1345.52
260.92	1384.43
261.13	1376.24
261.35	1415.15
261.57	1382.38
261.78	1308.65
262.00	1357.80
262.22	1368.04
262.43	1357.80
262.65	1415.15
262.86	1355.76
263.08	1490.92
263.30	1396.71
263.51	1337.32
263.73	1282.03
263.95	1439.72
264.16	1320.94
264.38	1296.36
264.60	1374.19
264.81	1355.76
265.03	1400.81
265.25	1331.18
265.46	1345.52
265.68	1480.68
265.89	1327.08
266.11	1359.85
266.33	1429.48
266.54	1415.15
266.76	1413.10
266.98	1388.52
267.19	1374.19
267.41	1388.52
267.62	1433.58
267.84	1357.80
268.06	1474.54
268.27	1363.95
268.49	1433.58
268.70	1396.71
268.92	1361.90
269.14	1388.52
269.35	1316.84
269.57	1406.95
269.79	1402.86
270.00	1314.80
270.22	1396.71
270.43	1409.00
270.65	1359.85
270.87	1363.95
271.08	1372.14
271.30	1327.08
271.51	1382.38
271.73	1386.47
271.95	1357.80
272.16	1433.58
272.38	1335.28
272.59	1349.61
272.81	1394.67
273.02	1466.35
273.24	1396.71
273.46	1396.71
273.67	1339.37
273.89	1359.85
274.10	1353.71
274.32	1480.68
274.54	1345.52
274.75	1361.90
274.97	1337.32
275.18	1347.56
275.40	1396.71
275.61	1402.86
275.83	1337.32
276.05	1320.94
276.26	1304.56
276.48	1402.86
276.69	1343.47
276.91	1355.76
277.12	1423.34
277.34	1390.57
277.55	1398.76
277.77	1454.06
277.99	1386.47
278.20	1343.47
278.42	1325.04
278.63	1316.84
278.85	1357.80
279.06	1316.84
279.28	1470.44
279.49	1406.95
279.71	1435.63
279.93	1372.14
280.14	1394.67
280.36	1357.80
280.57	1394.67
280.79	1284.08
281.00	1232.88
281.22	1343.47
281.43	1402.86
281.65	1359.85
281.86	1314.80
282.08	1409.00
282.29	1392.62
282.51	1363.95
282.73	1361.90
282.94	1392.62
283.16	1390.57
283.37	1476.59
283.59	1345.52
283.80	1402.86
284.02	1376.24
284.23	1349.61
284.45	1372.14
284.66	1327.08
284.88	1382.38
285.09	1490.92
285.31	1404.91
285.52	1300.46
285.74	1265.64
285.95	1429.48
286.17	1316.84
286.38	1427.43
286.60	1411.05
286.81	1347.56
287.03	1398.76
287.24	1333.23
287.46	1361.90
287.67	1339.37
287.89	1472.49
288.10	1333.23
288.32	1396.71
288.53	1445.87
288.75	1374.19
288.96	1402.86
289.18	1320.94
289.39	1343.47
289.61	1384.43
289.82	1478.63
290.04	1423.34
290.25	1339.37
290.47	1409.00
290.68	1312.75
290.90	1415.15
291.11	1298.41
291.33	1329.13
291.54	1388.52
291.76	1294.32
291.97	1345.52
292.18	1417.19
292.40	1380.33
292.61	1230.83
292.83	1462.25
293.04	1384.43
293.26	1368.04
293.47	1394.67
293.69	1310.70
293.90	1331.18
294.12	1394.67
294.33	1398.76
294.55	1376.24
294.76	1376.24
294.97	1396.71
295.19	1488.87
295.40	1347.56
295.62	1402.86
295.83	1335.28
296.05	1349.61
296.26	1476.59
296.48	1349.61
296.69	1433.58
296.90	1366.00
297.12	1409.00
297.33	1419.24
297.55	1439.72
297.76	1335.28
297.98	1449.96
298.19	1400.81
298.41	1341.42
298.62	1368.04
298.83	1423.34
299.05	1298.41
299.26	1384.43
299.48	1372.14
299.69	1361.90
299.90	1398.76
300.12	1320.94
300.33	1394.67
300.55	1386.47
300.76	1404.91
300.98	1316.84
301.19	1322.99
301.40	1355.76
301.62	1314.80
301.83	1402.86
302.05	1386.47
302.26	1409.00
302.47	1386.47
302.69	1406.95
302.90	1449.96
303.12	1290.22
303.33	1384.43
303.54	1384.43
303.76	1357.80
303.97	1341.42
304.19	1413.10
304.40	1390.57
304.61	1404.91
304.83	1368.04
305.04	1411.05
305.26	1388.52
305.47	1347.56
305.68	1411.05
305.90	1316.84
306.11	1327.08
306.33	1339.37
306.54	1333.23
306.75	1400.81
306.97	1306.60
307.18	1296.36
307.39	1316.84
307.61	1353.71
307.82	1269.74
308.04	1370.09
308.25	1411.05
308.46	1351.66
308.68	1413.10
308.89	1372.14
309.10	1480.68
309.32	1417.19
309.53	1370.09
309.74	1308.65
309.96	1384.43
310.17	1417.19
310.39	1337.32
310.60	1353.71
310.81	1388.52
311.03	1308.65
311.24	1394.67
311.45	1310.70
311.67	1394.67
311.88	1372.14
312.09	1419.24
312.31	1370.09
312.52	1417.19
312.73	1333.23
312.95	1366.00
313.16	1443.82
313.37	1388.52
313.59	1402.86
313.80	1421.29
314.01	1357.80
314.23	1304.56
314.44	1345.52
314.65	1347.56
314.87	1302.51
315.08	1337.32
315.29	1390.57
315.51	1392.62
315.72	1331.18
315.93	1456.11
316.15	1392.62
316.36	1339.37
316.57	1320.94
316.79	1400.81
317.00	1345.52
317.21	1402.86
317.43	1327.08
317.64	1462.25
317.85	1341.42
318.07	1449.96
318.28	1392.62
318.49	1605.61
318.70	1673.19
318.92	1548.26
319.13	1495.02
319.34	1673.19
319.56	1454.06
319.77	1509.35
319.98	1497.07
320.20	1484.78
320.41	1474.54
320.62	1486.83
320.83	1386.47
321.05	1406.95
321.26	1486.83
321.47	1357.80
321.69	1345.52
321.90	1400.81
322.11	1355.76
322.32	1388.52
322.54	1372.14
322.75	1329.13
322.96	1421.29
323.18	1325.04
323.39	1345.52
323.60	1351.66
323.81	1363.95
324.03	1349.61
324.24	1380.33
324.45	1394.67
324.66	1421.29
324.88	1398.76
325.09	1454.06
325.30	1318.89
325.52	1382.38
325.73	1318.89
325.94	1308.65
326.15	1312.75
326.37	1417.19
326.58	1370.09
326.79	1402.86
327.00	1331.18
327.22	1378.28
327.43	1363.95
327.64	1263.60
327.85	1355.76
328.07	1331.18
328.28	1394.67
328.49	1343.47
328.70	1366.00
328.92	1413.10
329.13	1347.56
329.34	1363.95
329.55	1445.87
329.76	1425.39
329.98	1343.47
330.19	1447.91
330.40	1359.85
330.61	1363.95
330.83	1499.11
331.04	1331.18
331.25	1396.71
331.46	1394.67
331.68	1239.02
331.89	1411.05
332.10	1400.81
332.31	1288.17
332.52	1380.33
332.74	1447.91
332.95	1263.60
333.16	1372.14
333.37	1378.28
333.58	1355.76
333.80	1425.39
334.01	1337.32
334.22	1398.76
334.43	1376.24
334.64	1366.00
334.86	1333.23
335.07	1327.08
335.28	1437.67
335.49	1392.62
335.70	1406.95
335.92	1413.10
336.13	1443.82
336.34	1368.04
336.55	1437.67
336.76	1347.56
336.98	1255.40
337.19	1409.00
337.40	1447.91
337.61	1468.39
337.82	1337.32
338.04	1431.53
338.25	1372.14
338.46	1384.43
338.67	1382.38
338.88	1363.95
339.09	1341.42
339.31	1423.34
339.52	1402.86
339.73	1380.33
339.94	1339.37
340.15	1394.67
340.36	1327.08
340.58	1337.32
340.79	1380.33
341.00	1427.43
341.21	1304.56
341.42	1390.57
341.63	1372.14
341.85	1433.58
342.06	1343.47
342.27	1298.41
342.48	1339.37
342.69	1363.95
342.90	1419.24
343.12	1361.90
343.33	1302.51
343.54	1398.76
343.75	1384.43
343.96	1316.84
344.17	1308.65
344.38	1331.18
344.60	1382.38
344.81	1374.19
345.02	1427.43
345.23	1320.94
345.44	1359.85
345.65	1380.33
345.86	1411.05
346.07	1468.39
346.29	1370.09
346.50	1380.33
346.71	1402.86
346.92	1394.67
347.13	1464.30
347.34	1431.53
347.55	1398.76
347.76	1400.81
347.98	1304.56
348.19	1376.24
348.40	1394.67
348.61	1363.95
348.82	1390.57
349.03	1351.66
349.24	1322.99
349.45	1409.00
349.66	1277.93
349.88	1304.56
350.09	1421.29
350.30	1347.56
350.51	1423.34
350.72	1359.85
350.93	1411.05
351.14	1361.90
351.35	1425.39
351.56	1380.33
351.77	1335.28
351.99	1425.39
352.20	1470.44
352.41	1392.62
352.62	1263.60
352.83	1357.80
353.04	1353.71
353.25	1353.71
353.46	1437.67
353.67	1427.43
353.88	1335.28
354.09	1351.66
354.30	1349.61
354.52	1435.63
354.73	1372.14
354.94	1390.57
355.15	1368.04
355.36	1415.15
355.57	1341.42
355.78	1398.76
355.99	1386.47
356.20	1312.75
356.41	1423.34
356.62	1464.30
356.83	1355.76
357.04	1327.08
357.25	1308.65
357.46	1331.18
357.68	1347.56
357.89	1380.33
358.10	1310.70
358.31	1314.80
358.52	1400.81
358.73	1339.37
358.94	1308.65
359.15	1351.66
359.36	1339.37
359.57	1331.18
359.78	1363.95
359.99	1359.85
360.20	1372.14
360.41	1376.24
360.62	1363.95
360.83	1425.39
361.04	1374.19
361.25	1464.30
361.46	1466.35
361.67	1400.81
361.88	1396.71
362.09	1406.95
362.30	1411.05
362.51	1339.37
362.72	1458.15
362.93	1359.85
363.14	1398.76
363.35	1474.54
363.56	1345.52
363.78	1394.67
363.99	1454.06
364.20	1363.95
364.41	1392.62
364.62	1433.58
364.83	1347.56
365.04	1300.46
365.25	1361.90
365.46	1460.20
365.67	1329.13
365.88	1456.11
366.09	1376.24
366.30	1318.89
366.51	1345.52
366.72	1331.18
366.93	1341.42
367.14	1380.33
367.35	1404.91
367.56	1382.38
367.77	1327.08
367.98	1345.52
368.18	1396.71
368.39	1314.80
368.60	1273.84
368.81	1322.99
369.02	1370.09
369.23	1341.42
369.44	1331.18
369.65	1335.28
369.86	1409.00
370.07	1429.48
370.28	1445.87
370.49	1353.71
370.70	1376.24
370.91	1378.28
371.12	1345.52
371.33	1419.24
371.54	1314.80
371.75	1435.63
371.96	1308.65
372.17	1435.63
372.38	1343.47
372.59	1417.19
372.80	1388.52
373.01	1318.89
373.22	1406.95
373.43	1349.61
373.64	1404.91
373.85	1433.58
374.06	1437.67
374.26	1363.95
374.47	1409.00
374.68	1349.61
374.89	1333.23
375.10	1370.09
375.31	1454.06
375.52	1357.80
375.73	1363.95
375.94	1413.10
376.15	1433.58
376.36	1333.23
376.57	1318.89
376.78	1464.30
376.99	1409.00
377.20	1355.76
377.40	1343.47
377.61	1413.10
377.82	1337.32
378.03	1439.72
378.24	1402.86
378.45	1329.13
378.66	1470.44
378.87	1282.03
379.08	1409.00
379.29	1427.43
379.50	1409.00
379.71	1396.71
379.91	1345.52
380.12	1437.67
380.33	1347.56
380.54	1443.82
380.75	1380.33
380.96	1378.28
381.17	1437.67
381.38	1486.83
381.59	1460.20
381.80	1460.20
382.00	1576.94
382.21	1497.07
382.42	1445.87
382.63	1476.59
382.84	1433.58
383.05	1396.71
383.26	1492.97
383.47	1331.18
383.68	1386.47
383.88	1429.48
384.09	1384.43
384.30	1458.15
384.51	1380.33
384.72	1349.61
384.93	1347.56
385.14	1335.28
385.35	1435.63
385.55	1339.37
385.76	1413.10
385.97	1415.15
386.18	1419.24
386.39	1306.60
386.60	1417.19
386.81	1386.47
387.02	1327.08
387.22	1347.56
387.43	1439.72
387.64	1568.74
387.85	2349.02
388.06	5679.02
388.27	9424.75
388.48	11388.75
388.68	13070.14
388.89	13231.93
389.10	10588.00
389.31	9154.42
389.52	8281.99
389.73	7440.27
389.93	6989.72
390.14	6541.21
390.35	5992.36
390.56	5517.23
390.77	4628.41
390.98	3647.43
391.18	2811.86
391.39	2224.09
391.60	1650.66
391.81	1574.89
392.02	1351.66
392.23	1527.78
392.43	1394.67
392.64	1488.87
392.85	1331.18
393.06	1417.19
393.27	1404.91
393.47	1404.91
393.68	1382.38
393.89	1310.70
394.10	1433.58
394.31	1343.47
394.52	1304.56
394.72	1312.75
394.93	1417.19
395.14	1265.64
395.35	1353.71
395.56	1402.86
395.76	1484.78
395.97	1583.08
396.18	1632.23
396.39	1589.22
396.60	1699.81
396.80	1527.78
397.01	1505.26
397.22	1411.05
397.43	1439.72
397.64	1374.19
397.84	1484.78
398.05	1566.70
398.26	1404.91
398.47	1433.58
398.67	1454.06
398.88	1441.77
399.09	1361.90
399.30	1339.37
399.51	1343.47
399.71	1277.93
399.92	1320.94
400.13	1384.43
400.34	1394.67
400.54	1318.89
400.75	1409.00
400.96	1402.86
401.17	1437.67
401.37	1411.05
401.58	1409.00
401.79	1535.98
402.00	1642.47
402.21	1818.60
402.41	1787.88
402.62	1763.30
402.83	1775.59
403.04	1613.80
403.24	1675.24
403.45	1599.46
403.66	1531.88
403.87	1570.79
404.07	1570.79
404.28	1574.89
404.49	1517.54
404.70	1425.39
404.90	1452.01
405.11	1413.10
405.32	1425.39
405.52	1447.91
405.73	1384.43
405.94	1329.13
406.15	1355.76
406.35	1427.43
406.56	1421.29
406.77	1382.38
406.98	1404.91
407.18	1335.28
407.39	1417.19
407.60	1402.86
407.80	1355.76
408.01	1347.56
408.22	1341.42
408.43	1398.76
408.63	1402.86
408.84	1394.67
409.05	1392.62
409.25	1302.51
409.46	1300.46
409.67	1253.36
409.88	1359.85
410.08	1357.80
410.29	1318.89
410.50	1376.24
410.70	1406.95
410.91	1308.65
411.12	1454.06
411.32	1363.95
411.53	1421.29
411.74	1507.30
411.95	1476.59
412.15	1486.83
412.36	1429.48
412.57	1503.21
412.77	1431.53
412.98	1409.00
413.19	1411.05
413.39	1458.15
413.60	1445.87
413.81	1458.15
414.01	1368.04
414.22	1363.95
414.43	1452.01
414.63	1337.32
414.84	1388.52
415.05	1347.56
415.25	1306.60
415.46	1429.48
415.67	1355.76
415.87	1376.24
416.08	1374.19
416.29	1277.93
416.49	1409.00
416.70	1345.52
416.91	1314.80
417.11	1310.70
417.32	1294.32
417.53	1447.91
417.73	1325.04
417.94	1384.43
418.15	1345.52
418.35	1378.28
418.56	1441.77
418.77	1404.91
418.97	1388.52
419.18	1382.38
419.38	1304.56
419.59	1404.91
419.80	1425.39
420.00	1325.04
420.21	1390.57
420.42	1386.47
420.62	1347.56
420.83	1279.98
421.04	1400.81
421.24	1333.23
421.45	1425.39
421.65	1472.49
421.86	1333.23
422.07	1472.49
422.27	1392.62
422.48	1441.77
422.69	1351.66
422.89	1241.07
423.10	1345.52
423.30	1345.52
423.51	1366.00
423.72	1310.70
423.92	1435.63
424.13	1296.36
424.33	1409.00
424.54	1372.14
424.75	1435.63
424.95	1447.91
425.16	1384.43
425.36	1351.66
425.57	1484.78
425.78	1378.28
425.98	1308.65
426.19	1402.86
426.39	1359.85
426.60	1400.81
426.81	1380.33
427.01	1320.94
427.22	1306.60
427.42	1300.46
427.63	1322.99
427.83	1343.47
428.04	1452.01
428.25	1351.66
428.45	1429.48
428.66	1409.00
428.86	1400.81
429.07	1271.79
429.28	1382.38
429.48	1288.17
429.69	1363.95
429.89	1382.38
430.10	1314.80
430.30	1421.29
430.51	1454.06
430.71	1396.71
430.92	1347.56
431.13	1333.23
431.33	1312.75
431.54	1392.62
431.74	1415.15
431.95	1357.80
432.15	1370.09
432.36	1406.95
432.56	1394.67
432.77	1400.81
432.98	1419.24
433.18	1380.33
433.39	1419.24
433.59	1409.00
433.80	1411.05
434.00	1406.95
434.21	1431.53
434.41	1378.28
434.62	1470.44
434.82	1327.08
435.03	1247.21
435.23	1398.76
435.44	1316.84
435.64	1400.81
435.85	1349.61
436.06	1378.28
436.26	1427.43
436.47	1402.86
436.67	1384.43
436.88	1415.15
437.08	1376.24
437.29	1429.48
437.49	1423.34
437.70	1386.47
437.90	1372.14
438.11	1492.97
438.31	1509.35
438.52	1511.40
438.72	1523.69
438.93	1560.55
439.13	1384.43
439.34	1476.59
439.54	1366.00
439.75	1533.93
439.95	1499.11
440.16	1390.57
440.36	1394.67
440.57	1447.91
440.77	1431.53
440.98	1454.06
441.18	1470.44
441.39	1353.71
441.59	1302.51
441.80	1492.97
442.00	1394.67
442.21	1447.91
442.41	1363.95
442.62	1400.81
442.82	1363.95
443.02	1394.67
443.23	1388.52
443.43	1413.10
443.64	1490.92
443.84	1300.46
444.05	1409.00
444.25	1462.25
444.46	1349.61
444.66	1366.00
444.87	1466.35
445.07	1363.95
445.28	1417.19
445.48	1472.49
445.69	1503.21
445.89	1441.77
446.09	1558.50
446.30	2209.76
446.50	3655.62
446.71	4659.13
446.91	5347.25
447.12	5578.67
447.32	4980.66
447.53	4108.23
447.73	3815.37
447.93	3432.40
448.14	3190.74
448.34	3012.56
448.55	2926.55
448.75	2781.14
448.96	2723.80
449.16	2398.17
449.36	2215.90
449.57	1847.27
449.77	1740.77
449.98	1611.75
450.18	1535.98
450.39	1462.25
450.59	1447.91
450.79	1368.04
451.00	1361.90
451.20	1382.38
451.41	1433.58
451.61	1384.43
451.81	1378.28
452.02	1337.32
452.22	1351.66
452.43	1355.76
452.63	1361.90
