SpectraSuite Data File
++++++++++++++++++++++++++++++++++++
Date: Tue May 03 11:24:31 CEST 2016
User: root
Dark Spectrum Present: No
Reference Spectrum Present: No
Number of Sampled Component Spectra: 1
Spectrometers: USB4C02835
Integration Time (usec): 100000 (USB4C02835)
Spectra Averaged: 1 (USB4C02835)
Boxcar Smoothing: 0 (USB4C02835)
Correct for Electrical Dark: No (USB4C02835)
Strobe/Lamp Enabled: No (USB4C02835)
Correct for Detector Non-linearity: No (USB4C02835)
Correct for Stray Light: No (USB4C02835)
Number of Pixels in Processed Spectrum: 3648
>>>>>Begin Processed Spectral Data<<<<<
177.47	1259.50
177.69	1259.50
177.91	1259.50
178.13	1245.16
178.36	1288.17
178.58	1327.08
178.80	1341.42
179.02	1345.52
179.24	1366.00
179.46	1394.67
179.68	1419.24
179.90	1402.86
180.13	1345.52
180.35	1355.76
180.57	1339.37
180.79	1402.86
181.01	1435.63
181.23	1413.10
181.45	1396.71
181.67	1374.19
181.90	1413.10
182.12	1355.76
182.34	1284.08
182.56	1384.43
182.78	1290.22
183.00	1368.04
183.22	1366.00
183.44	1341.42
183.66	1472.49
183.89	1411.05
184.11	1370.09
184.33	1355.76
184.55	1392.62
184.77	1382.38
184.99	1300.46
185.21	1361.90
185.43	1404.91
185.65	1351.66
185.87	1355.76
186.10	1476.59
186.32	1394.67
186.54	1413.10
186.76	1396.71
186.98	1413.10
187.20	1310.70
187.42	1359.85
187.64	1437.67
187.86	1359.85
188.08	1345.52
188.30	1337.32
188.52	1361.90
188.75	1466.35
188.97	1357.80
189.19	1388.52
189.41	1343.47
189.63	1384.43
189.85	1388.52
190.07	1333.23
190.29	1269.74
190.51	1384.43
190.73	1282.03
190.95	1361.90
191.17	1372.14
191.39	1374.19
191.61	1441.77
191.84	1394.67
192.06	1388.52
192.28	1257.45
192.50	1439.72
192.72	1421.29
192.94	1271.79
193.16	1296.36
193.38	1359.85
193.60	1316.84
193.82	1355.76
194.04	1437.67
194.26	1404.91
194.48	1380.33
194.70	1322.99
194.92	1337.32
195.14	1384.43
195.36	1296.36
195.58	1361.90
195.80	1384.43
196.02	1341.42
196.24	1417.19
196.46	1320.94
196.69	1353.71
196.91	1454.06
197.13	1406.95
197.35	1402.86
197.57	1413.10
197.79	1378.28
198.01	1378.28
198.23	1388.52
198.45	1363.95
198.67	1314.80
198.89	1320.94
199.11	1296.36
199.33	1249.26
199.55	1255.40
199.77	1382.38
199.99	1425.39
200.21	1396.71
200.43	1370.09
200.65	1400.81
200.87	1296.36
201.09	1386.47
201.31	1353.71
201.53	1464.30
201.75	1396.71
201.97	1394.67
202.19	1308.65
202.41	1437.67
202.63	1392.62
202.85	1359.85
203.07	1312.75
203.29	1300.46
203.51	1372.14
203.73	1337.32
203.95	1466.35
204.17	1411.05
204.39	1425.39
204.61	1322.99
204.83	1318.89
205.05	1361.90
205.27	1472.49
205.49	1406.95
205.71	1396.71
205.93	1329.13
206.15	1382.38
206.37	1413.10
206.59	1384.43
206.81	1318.89
207.03	1327.08
207.25	1347.56
207.47	1402.86
207.69	1376.24
207.91	1462.25
208.13	1417.19
208.34	1292.27
208.56	1320.94
208.78	1396.71
209.00	1370.09
209.22	1331.18
209.44	1333.23
209.66	1292.27
209.88	1404.91
210.10	1372.14
210.32	1423.34
210.54	1388.52
210.76	1394.67
210.98	1361.90
211.20	1286.12
211.42	1374.19
211.64	1462.25
211.86	1361.90
212.08	1374.19
212.30	1382.38
212.52	1384.43
212.74	1396.71
212.96	1335.28
213.17	1421.29
213.39	1417.19
213.61	1423.34
213.83	1374.19
214.05	1314.80
214.27	1372.14
214.49	1345.52
214.71	1406.95
214.93	1404.91
215.15	1370.09
215.37	1353.71
215.59	1368.04
215.81	1406.95
216.03	1374.19
216.24	1425.39
216.46	1288.17
216.68	1419.24
216.90	1368.04
217.12	1404.91
217.34	1372.14
217.56	1478.63
217.78	1427.43
218.00	1386.47
218.22	1398.76
218.44	1363.95
218.66	1331.18
218.87	1484.78
219.09	1271.79
219.31	1370.09
219.53	1458.15
219.75	1298.41
219.97	1372.14
220.19	1339.37
220.41	1380.33
220.63	1505.26
220.85	1437.67
221.06	1429.48
221.28	1353.71
221.50	1353.71
221.72	1421.29
221.94	1402.86
222.16	1400.81
222.38	1417.19
222.60	1415.15
222.82	1400.81
223.03	1376.24
223.25	1325.04
223.47	1441.77
223.69	1445.87
223.91	1390.57
224.13	1341.42
224.35	1366.00
224.57	1349.61
224.78	1404.91
225.00	1333.23
225.22	1382.38
225.44	1380.33
225.66	1380.33
225.88	1370.09
226.10	1409.00
226.32	1427.43
226.53	1431.53
226.75	1331.18
226.97	1318.89
227.19	1404.91
227.41	1351.66
227.63	1329.13
227.85	1286.12
228.06	1347.56
228.28	1415.15
228.50	1409.00
228.72	1294.32
228.94	1378.28
229.16	1249.26
229.37	1339.37
229.59	1404.91
229.81	1382.38
230.03	1337.32
230.25	1394.67
230.47	1355.76
230.69	1308.65
230.90	1419.24
231.12	1349.61
231.34	1386.47
231.56	1347.56
231.78	1427.43
232.00	1411.05
232.21	1419.24
232.43	1374.19
232.65	1363.95
232.87	1427.43
233.09	1329.13
233.30	1304.56
233.52	1331.18
233.74	1372.14
233.96	1449.96
234.18	1361.90
234.40	1388.52
234.61	1460.20
234.83	1363.95
235.05	1374.19
235.27	1470.44
235.49	1437.67
235.70	1413.10
235.92	1374.19
236.14	1411.05
236.36	1470.44
236.58	1304.56
236.79	1374.19
237.01	1372.14
237.23	1380.33
237.45	1417.19
237.67	1388.52
237.88	1396.71
238.10	1458.15
238.32	1343.47
238.54	1370.09
238.76	1335.28
238.97	1380.33
239.19	1304.56
239.41	1398.76
239.63	1359.85
239.85	1372.14
240.06	1396.71
240.28	1357.80
240.50	1396.71
240.72	1312.75
240.93	1462.25
241.15	1402.86
241.37	1374.19
241.59	1411.05
241.81	1341.42
242.02	1322.99
242.24	1421.29
242.46	1396.71
242.68	1380.33
242.89	1372.14
243.11	1355.76
243.33	1355.76
243.55	1396.71
243.76	1349.61
243.98	1316.84
244.20	1423.34
244.42	1388.52
244.64	1439.72
244.85	1249.26
245.07	1316.84
245.29	1427.43
245.51	1363.95
245.72	1361.90
245.94	1447.91
246.16	1372.14
246.38	1402.86
246.59	1339.37
246.81	1318.89
247.03	1396.71
247.24	1304.56
247.46	1282.03
247.68	1331.18
247.90	1468.39
248.11	1341.42
248.33	1419.24
248.55	1376.24
248.77	1409.00
248.98	1376.24
249.20	1388.52
249.42	1409.00
249.64	1382.38
249.85	1306.60
250.07	1343.47
250.29	1359.85
250.50	1423.34
250.72	1339.37
250.94	1413.10
251.16	1415.15
251.37	1433.58
251.59	1390.57
251.81	1378.28
252.02	1470.44
252.24	1357.80
252.46	1396.71
252.68	1339.37
252.89	1306.60
253.11	1277.93
253.33	1413.10
253.54	1404.91
253.76	1247.21
253.98	1386.47
254.20	1402.86
254.41	1361.90
254.63	1417.19
254.85	1384.43
255.06	1343.47
255.28	1394.67
255.50	1310.70
255.71	1361.90
255.93	1320.94
256.15	1322.99
256.36	1404.91
256.58	1411.05
256.80	1409.00
257.02	1361.90
257.23	1421.29
257.45	1345.52
257.67	1429.48
257.88	1370.09
258.10	1370.09
258.32	1361.90
258.53	1394.67
258.75	1411.05
258.97	1245.16
259.18	1402.86
259.40	1366.00
259.62	1353.71
259.83	1447.91
260.05	1359.85
260.27	1542.12
260.48	1380.33
260.70	1384.43
260.92	1335.28
261.13	1366.00
261.35	1347.56
261.57	1337.32
261.78	1329.13
262.00	1320.94
262.22	1347.56
262.43	1351.66
262.65	1343.47
262.86	1404.91
263.08	1464.30
263.30	1386.47
263.51	1267.69
263.73	1306.60
263.95	1368.04
264.16	1271.79
264.38	1404.91
264.60	1392.62
264.81	1335.28
265.03	1392.62
265.25	1320.94
265.46	1359.85
265.68	1427.43
265.89	1402.86
266.11	1382.38
266.33	1394.67
266.54	1361.90
266.76	1396.71
266.98	1402.86
267.19	1470.44
267.41	1433.58
267.62	1343.47
267.84	1296.36
268.06	1306.60
268.27	1335.28
268.49	1368.04
268.70	1353.71
268.92	1421.29
269.14	1337.32
269.35	1290.22
269.57	1409.00
269.79	1386.47
270.00	1343.47
270.22	1390.57
270.43	1427.43
270.65	1267.69
270.87	1343.47
271.08	1413.10
271.30	1355.76
271.51	1312.75
271.73	1351.66
271.95	1390.57
272.16	1404.91
272.38	1322.99
272.59	1265.64
272.81	1363.95
273.02	1396.71
273.24	1312.75
273.46	1374.19
273.67	1320.94
273.89	1300.46
274.10	1345.52
274.32	1411.05
274.54	1353.71
274.75	1402.86
274.97	1363.95
275.18	1435.63
275.40	1372.14
275.61	1378.28
275.83	1331.18
276.05	1322.99
276.26	1359.85
276.48	1433.58
276.69	1333.23
276.91	1357.80
277.12	1390.57
277.34	1380.33
277.55	1400.81
277.77	1402.86
277.99	1331.18
278.20	1388.52
278.42	1286.12
278.63	1322.99
278.85	1349.61
279.06	1290.22
279.28	1390.57
279.49	1374.19
279.71	1400.81
279.93	1368.04
280.14	1368.04
280.36	1394.67
280.57	1392.62
280.79	1394.67
281.00	1335.28
281.22	1331.18
281.43	1441.77
281.65	1327.08
281.86	1376.24
282.08	1411.05
282.29	1400.81
282.51	1370.09
282.73	1357.80
282.94	1320.94
283.16	1409.00
283.37	1415.15
283.59	1351.66
283.80	1370.09
284.02	1363.95
284.23	1460.20
284.45	1435.63
284.66	1355.76
284.88	1357.80
285.09	1423.34
285.31	1482.73
285.52	1310.70
285.74	1265.64
285.95	1421.29
286.17	1429.48
286.38	1439.72
286.60	1337.32
286.81	1368.04
287.03	1335.28
287.24	1361.90
287.46	1372.14
287.67	1359.85
287.89	1490.92
288.10	1402.86
288.32	1378.28
288.53	1370.09
288.75	1337.32
288.96	1417.19
289.18	1368.04
289.39	1419.24
289.61	1421.29
289.82	1433.58
290.04	1406.95
290.25	1353.71
290.47	1398.76
290.68	1372.14
290.90	1427.43
291.11	1384.43
291.33	1421.29
291.54	1380.33
291.76	1368.04
291.97	1366.00
292.18	1413.10
292.40	1370.09
292.61	1355.76
292.83	1458.15
293.04	1380.33
293.26	1320.94
293.47	1386.47
293.69	1368.04
293.90	1454.06
294.12	1429.48
294.33	1368.04
294.55	1378.28
294.76	1357.80
294.97	1441.77
295.19	1429.48
295.40	1331.18
295.62	1445.87
295.83	1339.37
296.05	1419.24
296.26	1341.42
296.48	1390.57
296.69	1402.86
296.90	1366.00
297.12	1320.94
297.33	1454.06
297.55	1322.99
297.76	1380.33
297.98	1359.85
298.19	1380.33
298.41	1339.37
298.62	1339.37
298.83	1341.42
299.05	1386.47
299.26	1382.38
299.48	1277.93
299.69	1355.76
299.90	1351.66
300.12	1368.04
300.33	1398.76
300.55	1337.32
300.76	1345.52
300.98	1314.80
301.19	1331.18
301.40	1351.66
301.62	1355.76
301.83	1402.86
302.05	1329.13
302.26	1337.32
302.47	1363.95
302.69	1353.71
302.90	1345.52
303.12	1327.08
303.33	1472.49
303.54	1497.07
303.76	1370.09
303.97	1265.64
304.19	1431.53
304.40	1349.61
304.61	1304.56
304.83	1380.33
305.04	1411.05
305.26	1353.71
305.47	1355.76
305.68	1306.60
305.90	1320.94
306.11	1388.52
306.33	1372.14
306.54	1427.43
306.75	1374.19
306.97	1370.09
307.18	1353.71
307.39	1421.29
307.61	1390.57
307.82	1318.89
308.04	1421.29
308.25	1341.42
308.46	1337.32
308.68	1404.91
308.89	1378.28
309.10	1380.33
309.32	1380.33
309.53	1345.52
309.74	1337.32
309.96	1361.90
310.17	1417.19
310.39	1298.41
310.60	1363.95
310.81	1368.04
311.03	1318.89
311.24	1372.14
311.45	1366.00
311.67	1474.54
311.88	1325.04
312.09	1343.47
312.31	1290.22
312.52	1327.08
312.73	1380.33
312.95	1357.80
313.16	1312.75
313.37	1409.00
313.59	1374.19
313.80	1386.47
314.01	1429.48
314.23	1388.52
314.44	1271.79
314.65	1363.95
314.87	1265.64
315.08	1363.95
315.29	1392.62
315.51	1337.32
315.72	1349.61
315.93	1390.57
316.15	1384.43
316.36	1288.17
316.57	1382.38
316.79	1388.52
317.00	1267.69
317.21	1394.67
317.43	1394.67
317.64	1320.94
317.85	1431.53
318.07	1474.54
318.28	1474.54
318.49	1521.64
318.70	1583.08
318.92	1509.35
319.13	1540.07
319.34	1503.21
319.56	1511.40
319.77	1447.91
319.98	1531.88
320.20	1474.54
320.41	1443.82
320.62	1374.19
320.83	1409.00
321.05	1433.58
321.26	1343.47
321.47	1314.80
321.69	1439.72
321.90	1423.34
322.11	1329.13
322.32	1380.33
322.54	1396.71
322.75	1374.19
322.96	1390.57
323.18	1331.18
323.39	1351.66
323.60	1302.51
323.81	1464.30
324.03	1419.24
324.24	1339.37
324.45	1355.76
324.66	1396.71
324.88	1396.71
325.09	1476.59
325.30	1419.24
325.52	1282.03
325.73	1380.33
325.94	1308.65
326.15	1345.52
326.37	1372.14
326.58	1404.91
326.79	1439.72
327.00	1304.56
327.22	1402.86
327.43	1314.80
327.64	1331.18
327.85	1333.23
328.07	1329.13
328.28	1427.43
328.49	1402.86
328.70	1394.67
328.92	1411.05
329.13	1376.24
329.34	1390.57
329.55	1400.81
329.76	1404.91
329.98	1394.67
330.19	1411.05
330.40	1492.97
330.61	1462.25
330.83	1390.57
331.04	1304.56
331.25	1363.95
331.46	1378.28
331.68	1339.37
331.89	1378.28
332.10	1357.80
332.31	1335.28
332.52	1318.89
332.74	1409.00
332.95	1288.17
333.16	1404.91
333.37	1388.52
333.58	1318.89
333.80	1413.10
334.01	1359.85
334.22	1343.47
334.43	1337.32
334.64	1312.75
334.86	1275.88
335.07	1318.89
335.28	1394.67
335.49	1366.00
335.70	1343.47
335.92	1347.56
336.13	1460.20
336.34	1411.05
336.55	1341.42
336.76	1331.18
336.98	1337.32
337.19	1376.24
337.40	1431.53
337.61	1499.11
337.82	1394.67
338.04	1392.62
338.25	1353.71
338.46	1322.99
338.67	1298.41
338.88	1286.12
339.09	1355.76
339.31	1335.28
339.52	1325.04
339.73	1351.66
339.94	1445.87
340.15	1437.67
340.36	1316.84
340.58	1279.98
340.79	1339.37
341.00	1339.37
341.21	1337.32
341.42	1443.82
341.63	1376.24
341.85	1374.19
342.06	1384.43
342.27	1363.95
342.48	1429.48
342.69	1300.46
342.90	1380.33
343.12	1349.61
343.33	1357.80
343.54	1322.99
343.75	1404.91
343.96	1341.42
344.17	1329.13
344.38	1347.56
344.60	1290.22
344.81	1419.24
345.02	1341.42
345.23	1433.58
345.44	1470.44
345.65	1468.39
345.86	1388.52
346.07	1384.43
346.29	1247.21
346.50	1458.15
346.71	1398.76
346.92	1384.43
347.13	1425.39
347.34	1331.18
347.55	1357.80
347.76	1357.80
347.98	1374.19
348.19	1378.28
348.40	1372.14
348.61	1351.66
348.82	1425.39
349.03	1378.28
349.24	1320.94
349.45	1368.04
349.66	1335.28
349.88	1329.13
350.09	1347.56
350.30	1470.44
350.51	1411.05
350.72	1390.57
350.93	1419.24
351.14	1347.56
351.35	1390.57
351.56	1359.85
351.77	1378.28
351.99	1382.38
352.20	1368.04
352.41	1366.00
352.62	1384.43
352.83	1345.52
353.04	1390.57
353.25	1349.61
353.46	1386.47
353.67	1429.48
353.88	1353.71
354.09	1384.43
354.30	1460.20
354.52	1351.66
354.73	1363.95
354.94	1357.80
355.15	1384.43
355.36	1329.13
355.57	1357.80
355.78	1398.76
355.99	1327.08
356.20	1361.90
356.41	1378.28
356.62	1462.25
356.83	1327.08
357.04	1357.80
357.25	1284.08
357.46	1339.37
357.68	1329.13
357.89	1300.46
358.10	1368.04
358.31	1333.23
358.52	1386.47
358.73	1265.64
358.94	1306.60
359.15	1363.95
359.36	1431.53
359.57	1370.09
359.78	1353.71
359.99	1466.35
360.20	1378.28
360.41	1318.89
360.62	1411.05
360.83	1400.81
361.04	1298.41
361.25	1433.58
361.46	1370.09
361.67	1413.10
361.88	1325.04
362.09	1341.42
362.30	1329.13
362.51	1411.05
362.72	1447.91
362.93	1470.44
363.14	1439.72
363.35	1335.28
363.56	1366.00
363.78	1386.47
363.99	1388.52
364.20	1329.13
364.41	1370.09
364.62	1384.43
364.83	1312.75
365.04	1284.08
365.25	1372.14
365.46	1437.67
365.67	1298.41
365.88	1423.34
366.09	1366.00
366.30	1361.90
366.51	1366.00
366.72	1425.39
366.93	1370.09
367.14	1439.72
367.35	1429.48
367.56	1409.00
367.77	1452.01
367.98	1351.66
368.18	1435.63
368.39	1447.91
368.60	1318.89
368.81	1421.29
369.02	1337.32
369.23	1325.04
369.44	1273.84
369.65	1329.13
369.86	1378.28
370.07	1425.39
370.28	1368.04
370.49	1380.33
370.70	1380.33
370.91	1304.56
371.12	1363.95
371.33	1406.95
371.54	1347.56
371.75	1388.52
371.96	1271.79
372.17	1466.35
372.38	1322.99
372.59	1433.58
372.80	1388.52
373.01	1288.17
373.22	1327.08
373.43	1368.04
373.64	1384.43
373.85	1380.33
374.06	1429.48
374.26	1357.80
374.47	1445.87
374.68	1374.19
374.89	1372.14
375.10	1359.85
375.31	1476.59
375.52	1353.71
375.73	1378.28
375.94	1333.23
376.15	1376.24
376.36	1329.13
376.57	1347.56
376.78	1370.09
376.99	1363.95
377.20	1449.96
377.40	1312.75
377.61	1441.77
377.82	1384.43
378.03	1439.72
378.24	1329.13
378.45	1423.34
378.66	1396.71
378.87	1275.88
379.08	1347.56
379.29	1392.62
379.50	1443.82
379.71	1355.76
379.91	1372.14
380.12	1298.41
380.33	1359.85
380.54	1376.24
380.75	1411.05
380.96	1327.08
381.17	1452.01
381.38	1437.67
381.59	1531.88
381.80	1421.29
382.00	1470.44
382.21	1443.82
382.42	1533.93
382.63	1515.50
382.84	1452.01
383.05	1468.39
383.26	1435.63
383.47	1380.33
383.68	1423.34
383.88	1433.58
384.09	1368.04
384.30	1417.19
384.51	1400.81
384.72	1427.43
384.93	1335.28
385.14	1384.43
385.35	1456.11
385.55	1239.02
385.76	1476.59
385.97	1355.76
386.18	1361.90
386.39	1439.72
386.60	1431.53
386.81	1372.14
387.02	1359.85
387.22	1378.28
387.43	1466.35
387.64	1550.31
387.85	2254.81
388.06	5566.38
388.27	9537.39
388.48	11525.97
388.68	13010.75
388.89	13377.33
389.10	10751.84
389.31	9105.27
389.52	8365.95
389.73	7489.42
389.93	6844.31
390.14	6528.92
390.35	6010.79
390.56	5472.17
390.77	4591.55
390.98	3737.54
391.18	2768.85
391.39	2093.02
391.60	1708.01
391.81	1566.70
392.02	1427.43
392.23	1538.02
392.43	1411.05
392.64	1464.30
392.85	1417.19
393.06	1427.43
393.27	1353.71
393.47	1351.66
393.68	1394.67
393.89	1331.18
394.10	1402.86
394.31	1452.01
394.52	1339.37
394.72	1376.24
394.93	1447.91
395.14	1345.52
395.35	1368.04
395.56	1476.59
395.76	1517.54
395.97	1581.03
396.18	1603.56
396.39	1505.26
396.60	1732.58
396.80	1581.03
397.01	1521.64
397.22	1548.26
397.43	1490.92
397.64	1388.52
397.84	1488.87
398.05	1400.81
398.26	1495.02
398.47	1531.88
398.67	1413.10
398.88	1409.00
399.09	1384.43
399.30	1368.04
399.51	1468.39
399.71	1290.22
399.92	1322.99
400.13	1423.34
400.34	1415.15
400.54	1392.62
400.75	1396.71
400.96	1337.32
401.17	1517.54
401.37	1402.86
401.58	1374.19
401.79	1576.94
402.00	1581.03
402.21	1796.07
402.41	1808.36
402.62	1761.25
402.83	1761.25
403.04	1691.62
403.24	1769.44
403.45	1548.26
403.66	1615.85
403.87	1490.92
404.07	1560.55
404.28	1576.94
404.49	1634.28
404.70	1443.82
404.90	1480.68
405.11	1384.43
405.32	1433.58
405.52	1402.86
405.73	1392.62
405.94	1310.70
406.15	1378.28
406.35	1458.15
406.56	1466.35
406.77	1413.10
406.98	1396.71
407.18	1327.08
407.39	1394.67
407.60	1314.80
407.80	1388.52
408.01	1286.12
408.22	1378.28
408.43	1341.42
408.63	1359.85
408.84	1394.67
409.05	1417.19
409.25	1341.42
409.46	1347.56
409.67	1427.43
409.88	1327.08
410.08	1376.24
410.29	1388.52
410.50	1462.25
410.70	1384.43
410.91	1322.99
411.12	1400.81
411.32	1357.80
411.53	1425.39
411.74	1478.63
411.95	1421.29
412.15	1429.48
412.36	1501.16
412.57	1294.32
412.77	1437.67
412.98	1419.24
413.19	1415.15
413.39	1400.81
413.60	1449.96
413.81	1402.86
414.01	1368.04
414.22	1488.87
414.43	1419.24
414.63	1378.28
414.84	1396.71
415.05	1366.00
415.25	1374.19
415.46	1429.48
415.67	1327.08
415.87	1458.15
416.08	1454.06
416.29	1400.81
416.49	1388.52
416.70	1374.19
416.91	1374.19
417.11	1376.24
417.32	1423.34
417.53	1398.76
417.73	1400.81
417.94	1292.27
418.15	1366.00
418.35	1374.19
418.56	1343.47
418.77	1456.11
418.97	1331.18
419.18	1310.70
419.38	1288.17
419.59	1388.52
419.80	1374.19
420.00	1308.65
420.21	1466.35
420.42	1386.47
420.62	1415.15
420.83	1378.28
421.04	1417.19
421.24	1402.86
421.45	1363.95
421.65	1370.09
421.86	1396.71
422.07	1325.04
422.27	1382.38
422.48	1400.81
422.69	1259.50
422.89	1384.43
423.10	1339.37
423.30	1327.08
423.51	1415.15
423.72	1363.95
423.92	1376.24
424.13	1331.18
424.33	1372.14
424.54	1353.71
424.75	1347.56
424.95	1421.29
425.16	1413.10
425.36	1300.46
425.57	1437.67
425.78	1411.05
425.98	1331.18
426.19	1382.38
426.39	1329.13
426.60	1482.73
426.81	1507.30
427.01	1345.52
427.22	1390.57
427.42	1333.23
427.63	1347.56
427.83	1390.57
428.04	1488.87
428.25	1462.25
428.45	1454.06
428.66	1333.23
428.86	1322.99
429.07	1325.04
429.28	1415.15
429.48	1396.71
429.69	1261.55
429.89	1320.94
430.10	1277.93
430.30	1353.71
430.51	1439.72
430.71	1290.22
430.92	1337.32
431.13	1341.42
431.33	1304.56
431.54	1372.14
431.74	1460.20
431.95	1435.63
432.15	1333.23
432.36	1320.94
432.56	1396.71
432.77	1435.63
432.98	1503.21
433.18	1374.19
433.39	1355.76
433.59	1363.95
433.80	1406.95
434.00	1406.95
434.21	1312.75
434.41	1308.65
434.62	1472.49
434.82	1296.36
435.03	1388.52
435.23	1411.05
435.44	1239.02
435.64	1347.56
435.85	1304.56
436.06	1366.00
436.26	1394.67
436.47	1329.13
436.67	1384.43
436.88	1333.23
437.08	1347.56
437.29	1388.52
437.49	1384.43
437.70	1380.33
437.90	1370.09
438.11	1523.69
438.31	1515.50
438.52	1495.02
438.72	1591.27
438.93	1548.26
439.13	1468.39
439.34	1423.34
439.54	1415.15
439.75	1452.01
439.95	1441.77
440.16	1423.34
440.36	1406.95
440.57	1435.63
440.77	1445.87
440.98	1425.39
441.18	1452.01
441.39	1363.95
441.59	1294.32
441.80	1503.21
442.00	1359.85
442.21	1417.19
442.41	1212.40
442.62	1355.76
442.82	1390.57
443.02	1322.99
443.23	1370.09
443.43	1353.71
443.64	1503.21
443.84	1333.23
444.05	1425.39
444.25	1394.67
444.46	1425.39
444.66	1374.19
444.87	1482.73
445.07	1351.66
445.28	1423.34
445.48	1447.91
445.69	1449.96
445.89	1431.53
446.09	1574.89
446.30	2387.93
446.50	3741.64
446.71	4724.66
446.91	5332.91
447.12	5619.63
447.32	4990.90
447.53	4224.96
447.73	3796.93
447.93	3491.79
448.14	3155.92
448.34	3082.19
448.55	2777.05
448.75	2707.41
448.96	2650.07
449.16	2490.33
449.36	2201.57
449.57	1910.75
449.77	1728.49
449.98	1544.17
450.18	1447.91
450.39	1449.96
450.59	1431.53
450.79	1406.95
451.00	1370.09
451.20	1427.43
451.41	1431.53
451.61	1433.58
451.81	1374.19
452.02	1370.09
452.22	1386.47
452.43	1351.66
452.63	1382.38
