SpectraSuite Data File
++++++++++++++++++++++++++++++++++++
Date: Tue May 03 11:24:28 CEST 2016
User: root
Dark Spectrum Present: No
Reference Spectrum Present: No
Number of Sampled Component Spectra: 1
Spectrometers: USB4C02835
Integration Time (usec): 100000 (USB4C02835)
Spectra Averaged: 1 (USB4C02835)
Boxcar Smoothing: 0 (USB4C02835)
Correct for Electrical Dark: No (USB4C02835)
Strobe/Lamp Enabled: No (USB4C02835)
Correct for Detector Non-linearity: No (USB4C02835)
Correct for Stray Light: No (USB4C02835)
Number of Pixels in Processed Spectrum: 3648
>>>>>Begin Processed Spectral Data<<<<<
177.47	1226.73
177.69	1226.73
177.91	1226.73
178.13	1187.82
178.36	1294.32
178.58	1290.22
178.80	1425.39
179.02	1298.41
179.24	1314.80
179.46	1353.71
179.68	1427.43
179.90	1351.66
180.13	1384.43
180.35	1294.32
180.57	1431.53
180.79	1433.58
181.01	1300.46
181.23	1462.25
181.45	1409.00
181.67	1423.34
181.90	1415.15
182.12	1374.19
182.34	1275.88
182.56	1353.71
182.78	1353.71
183.00	1333.23
183.22	1386.47
183.44	1245.16
183.66	1484.78
183.89	1372.14
184.11	1398.76
184.33	1343.47
184.55	1466.35
184.77	1402.86
184.99	1425.39
185.21	1306.60
185.43	1449.96
185.65	1376.24
185.87	1388.52
186.10	1374.19
186.32	1423.34
186.54	1435.63
186.76	1398.76
186.98	1406.95
187.20	1359.85
187.42	1378.28
187.64	1421.29
187.86	1423.34
188.08	1341.42
188.30	1372.14
188.52	1339.37
188.75	1392.62
188.97	1458.15
189.19	1351.66
189.41	1298.41
189.63	1427.43
189.85	1417.19
190.07	1388.52
190.29	1363.95
190.51	1390.57
190.73	1290.22
190.95	1398.76
191.17	1331.18
191.39	1370.09
191.61	1329.13
191.84	1388.52
192.06	1421.29
192.28	1265.64
192.50	1427.43
192.72	1368.04
192.94	1333.23
193.16	1386.47
193.38	1396.71
193.60	1343.47
193.82	1320.94
194.04	1374.19
194.26	1298.41
194.48	1339.37
194.70	1376.24
194.92	1302.51
195.14	1394.67
195.36	1392.62
195.58	1419.24
195.80	1335.28
196.02	1370.09
196.24	1355.76
196.46	1345.52
196.69	1288.17
196.91	1380.33
197.13	1304.56
197.35	1372.14
197.57	1490.92
197.79	1382.38
198.01	1409.00
198.23	1404.91
198.45	1345.52
198.67	1382.38
198.89	1398.76
199.11	1386.47
199.33	1347.56
199.55	1279.98
199.77	1322.99
199.99	1441.77
200.21	1327.08
200.43	1341.42
200.65	1425.39
200.87	1290.22
201.09	1349.61
201.31	1472.49
201.53	1439.72
201.75	1404.91
201.97	1335.28
202.19	1361.90
202.41	1394.67
202.63	1462.25
202.85	1361.90
203.07	1464.30
203.29	1398.76
203.51	1409.00
203.73	1339.37
203.95	1392.62
204.17	1384.43
204.39	1366.00
204.61	1417.19
204.83	1372.14
205.05	1406.95
205.27	1370.09
205.49	1458.15
205.71	1392.62
205.93	1296.36
206.15	1320.94
206.37	1427.43
206.59	1402.86
206.81	1376.24
207.03	1404.91
207.25	1382.38
207.47	1429.48
207.69	1320.94
207.91	1413.10
208.13	1435.63
208.34	1331.18
208.56	1361.90
208.78	1474.54
209.00	1310.70
209.22	1329.13
209.44	1357.80
209.66	1433.58
209.88	1343.47
210.10	1288.17
210.32	1437.67
210.54	1486.83
210.76	1384.43
210.98	1435.63
211.20	1318.89
211.42	1411.05
211.64	1439.72
211.86	1396.71
212.08	1382.38
212.30	1425.39
212.52	1327.08
212.74	1382.38
212.96	1378.28
213.17	1400.81
213.39	1380.33
213.61	1419.24
213.83	1406.95
214.05	1398.76
214.27	1380.33
214.49	1325.04
214.71	1329.13
214.93	1495.02
215.15	1337.32
215.37	1421.29
215.59	1411.05
215.81	1441.77
216.03	1503.21
216.24	1314.80
216.46	1411.05
216.68	1402.86
216.90	1380.33
217.12	1439.72
217.34	1343.47
217.56	1370.09
217.78	1447.91
218.00	1363.95
218.22	1388.52
218.44	1378.28
218.66	1386.47
218.87	1419.24
219.09	1368.04
219.31	1425.39
219.53	1376.24
219.75	1292.27
219.97	1320.94
220.19	1411.05
220.41	1279.98
220.63	1413.10
220.85	1322.99
221.06	1337.32
221.28	1282.03
221.50	1349.61
221.72	1376.24
221.94	1460.20
222.16	1329.13
222.38	1396.71
222.60	1386.47
222.82	1366.00
223.03	1366.00
223.25	1273.84
223.47	1421.29
223.69	1458.15
223.91	1437.67
224.13	1396.71
224.35	1349.61
224.57	1386.47
224.78	1370.09
225.00	1267.69
225.22	1331.18
225.44	1310.70
225.66	1447.91
225.88	1398.76
226.10	1402.86
226.32	1409.00
226.53	1351.66
226.75	1337.32
226.97	1427.43
227.19	1331.18
227.41	1349.61
227.63	1347.56
227.85	1423.34
228.06	1366.00
228.28	1349.61
228.50	1339.37
228.72	1335.28
228.94	1298.41
229.16	1288.17
229.37	1296.36
229.59	1349.61
229.81	1372.14
230.03	1329.13
230.25	1341.42
230.47	1359.85
230.69	1316.84
230.90	1368.04
231.12	1419.24
231.34	1386.47
231.56	1394.67
231.78	1374.19
232.00	1409.00
232.21	1384.43
232.43	1333.23
232.65	1282.03
232.87	1400.81
233.09	1277.93
233.30	1413.10
233.52	1392.62
233.74	1306.60
233.96	1316.84
234.18	1370.09
234.40	1372.14
234.61	1449.96
234.83	1386.47
235.05	1320.94
235.27	1505.26
235.49	1339.37
235.70	1394.67
235.92	1427.43
236.14	1392.62
236.36	1441.77
236.58	1306.60
236.79	1435.63
237.01	1406.95
237.23	1294.32
237.45	1388.52
237.67	1314.80
237.88	1357.80
238.10	1333.23
238.32	1294.32
238.54	1394.67
238.76	1411.05
238.97	1368.04
239.19	1335.28
239.41	1384.43
239.63	1376.24
239.85	1386.47
240.06	1380.33
240.28	1413.10
240.50	1386.47
240.72	1341.42
240.93	1376.24
241.15	1413.10
241.37	1312.75
241.59	1396.71
241.81	1406.95
242.02	1361.90
242.24	1394.67
242.46	1282.03
242.68	1347.56
242.89	1390.57
243.11	1345.52
243.33	1368.04
243.55	1374.19
243.76	1398.76
243.98	1394.67
244.20	1302.51
244.42	1314.80
244.64	1419.24
244.85	1312.75
245.07	1304.56
245.29	1509.35
245.51	1361.90
245.72	1366.00
245.94	1378.28
246.16	1351.66
246.38	1314.80
246.59	1380.33
246.81	1353.71
247.03	1376.24
247.24	1302.51
247.46	1327.08
247.68	1386.47
247.90	1417.19
248.11	1394.67
248.33	1357.80
248.55	1404.91
248.77	1464.30
248.98	1353.71
249.20	1454.06
249.42	1345.52
249.64	1421.29
249.85	1400.81
250.07	1335.28
250.29	1363.95
250.50	1417.19
250.72	1353.71
250.94	1341.42
251.16	1505.26
251.37	1441.77
251.59	1404.91
251.81	1429.48
252.02	1429.48
252.24	1308.65
252.46	1429.48
252.68	1322.99
252.89	1353.71
253.11	1374.19
253.33	1478.63
253.54	1355.76
253.76	1382.38
253.98	1335.28
254.20	1378.28
254.41	1392.62
254.63	1353.71
254.85	1318.89
255.06	1325.04
255.28	1400.81
255.50	1400.81
255.71	1398.76
255.93	1392.62
256.15	1279.98
256.36	1370.09
256.58	1380.33
256.80	1400.81
257.02	1310.70
257.23	1447.91
257.45	1304.56
257.67	1398.76
257.88	1351.66
258.10	1370.09
258.32	1409.00
258.53	1312.75
258.75	1431.53
258.97	1421.29
259.18	1376.24
259.40	1368.04
259.62	1415.15
259.83	1386.47
260.05	1406.95
260.27	1525.74
260.48	1415.15
260.70	1294.32
260.92	1421.29
261.13	1419.24
261.35	1366.00
261.57	1368.04
261.78	1275.88
262.00	1308.65
262.22	1355.76
262.43	1322.99
262.65	1318.89
262.86	1404.91
263.08	1495.02
263.30	1343.47
263.51	1363.95
263.73	1320.94
263.95	1445.87
264.16	1286.12
264.38	1376.24
264.60	1376.24
264.81	1331.18
265.03	1316.84
265.25	1398.76
265.46	1359.85
265.68	1388.52
265.89	1388.52
266.11	1331.18
266.33	1409.00
266.54	1478.63
266.76	1368.04
266.98	1376.24
267.19	1464.30
267.41	1398.76
267.62	1386.47
267.84	1247.21
268.06	1355.76
268.27	1331.18
268.49	1351.66
268.70	1400.81
268.92	1392.62
269.14	1380.33
269.35	1329.13
269.57	1366.00
269.79	1351.66
270.00	1277.93
270.22	1443.82
270.43	1310.70
270.65	1380.33
270.87	1294.32
271.08	1466.35
271.30	1415.15
271.51	1411.05
271.73	1355.76
271.95	1341.42
272.16	1376.24
272.38	1406.95
272.59	1349.61
272.81	1460.20
273.02	1351.66
273.24	1388.52
273.46	1382.38
273.67	1355.76
273.89	1366.00
274.10	1318.89
274.32	1394.67
274.54	1327.08
274.75	1415.15
274.97	1361.90
275.18	1359.85
275.40	1431.53
275.61	1341.42
275.83	1384.43
276.05	1386.47
276.26	1415.15
276.48	1361.90
276.69	1359.85
276.91	1370.09
277.12	1361.90
277.34	1337.32
277.55	1361.90
277.77	1372.14
277.99	1372.14
278.20	1329.13
278.42	1372.14
278.63	1294.32
278.85	1363.95
279.06	1290.22
279.28	1490.92
279.49	1312.75
279.71	1392.62
279.93	1329.13
280.14	1329.13
280.36	1392.62
280.57	1380.33
280.79	1421.29
281.00	1331.18
281.22	1384.43
281.43	1363.95
281.65	1308.65
281.86	1343.47
282.08	1349.61
282.29	1423.34
282.51	1298.41
282.73	1247.21
282.94	1296.36
283.16	1388.52
283.37	1372.14
283.59	1382.38
283.80	1390.57
284.02	1306.60
284.23	1429.48
284.45	1370.09
284.66	1310.70
284.88	1406.95
285.09	1386.47
285.31	1351.66
285.52	1316.84
285.74	1333.23
285.95	1388.52
286.17	1374.19
286.38	1361.90
286.60	1357.80
286.81	1302.51
287.03	1372.14
287.24	1343.47
287.46	1351.66
287.67	1374.19
287.89	1392.62
288.10	1335.28
288.32	1384.43
288.53	1368.04
288.75	1325.04
288.96	1363.95
289.18	1339.37
289.39	1341.42
289.61	1394.67
289.82	1366.00
290.04	1437.67
290.25	1316.84
290.47	1390.57
290.68	1363.95
290.90	1329.13
291.11	1333.23
291.33	1345.52
291.54	1310.70
291.76	1275.88
291.97	1333.23
292.18	1413.10
292.40	1312.75
292.61	1333.23
292.83	1439.72
293.04	1368.04
293.26	1363.95
293.47	1331.18
293.69	1335.28
293.90	1322.99
294.12	1435.63
294.33	1359.85
294.55	1359.85
294.76	1404.91
294.97	1441.77
295.19	1388.52
295.40	1386.47
295.62	1380.33
295.83	1359.85
296.05	1339.37
296.26	1427.43
296.48	1384.43
296.69	1345.52
296.90	1370.09
297.12	1370.09
297.33	1449.96
297.55	1394.67
297.76	1380.33
297.98	1460.20
298.19	1404.91
298.41	1355.76
298.62	1351.66
298.83	1382.38
299.05	1417.19
299.26	1384.43
299.48	1290.22
299.69	1378.28
299.90	1337.32
300.12	1304.56
300.33	1404.91
300.55	1343.47
300.76	1368.04
300.98	1273.84
301.19	1409.00
301.40	1419.24
301.62	1404.91
301.83	1388.52
302.05	1411.05
302.26	1441.77
302.47	1310.70
302.69	1411.05
302.90	1374.19
303.12	1320.94
303.33	1415.15
303.54	1392.62
303.76	1386.47
303.97	1388.52
304.19	1384.43
304.40	1359.85
304.61	1368.04
304.83	1415.15
305.04	1347.56
305.26	1421.29
305.47	1357.80
305.68	1370.09
305.90	1302.51
306.11	1476.59
306.33	1308.65
306.54	1329.13
306.75	1339.37
306.97	1290.22
307.18	1349.61
307.39	1353.71
307.61	1476.59
307.82	1392.62
308.04	1345.52
308.25	1363.95
308.46	1372.14
308.68	1404.91
308.89	1378.28
309.10	1359.85
309.32	1415.15
309.53	1343.47
309.74	1366.00
309.96	1384.43
310.17	1488.87
310.39	1253.36
310.60	1327.08
310.81	1462.25
311.03	1298.41
311.24	1376.24
311.45	1382.38
311.67	1402.86
311.88	1474.54
312.09	1378.28
312.31	1370.09
312.52	1374.19
312.73	1320.94
312.95	1345.52
313.16	1404.91
313.37	1445.87
313.59	1392.62
313.80	1445.87
314.01	1452.01
314.23	1329.13
314.44	1310.70
314.65	1361.90
314.87	1257.45
315.08	1269.74
315.29	1308.65
315.51	1355.76
315.72	1327.08
315.93	1425.39
316.15	1447.91
316.36	1370.09
316.57	1363.95
316.79	1382.38
317.00	1345.52
317.21	1402.86
317.43	1388.52
317.64	1376.24
317.85	1413.10
318.07	1445.87
318.28	1513.45
318.49	1517.54
318.70	1599.46
318.92	1478.63
319.13	1544.17
319.34	1587.18
319.56	1482.73
319.77	1464.30
319.98	1533.93
320.20	1374.19
320.41	1378.28
320.62	1351.66
320.83	1376.24
321.05	1484.78
321.26	1398.76
321.47	1345.52
321.69	1445.87
321.90	1265.64
322.11	1335.28
322.32	1366.00
322.54	1495.02
322.75	1298.41
322.96	1413.10
323.18	1337.32
323.39	1318.89
323.60	1378.28
323.81	1447.91
324.03	1296.36
324.24	1359.85
324.45	1466.35
324.66	1359.85
324.88	1396.71
325.09	1388.52
325.30	1382.38
325.52	1404.91
325.73	1353.71
325.94	1361.90
326.15	1327.08
326.37	1286.12
326.58	1372.14
326.79	1406.95
327.00	1355.76
327.22	1333.23
327.43	1357.80
327.64	1380.33
327.85	1308.65
328.07	1404.91
328.28	1437.67
328.49	1333.23
328.70	1394.67
328.92	1325.04
329.13	1288.17
329.34	1370.09
329.55	1380.33
329.76	1384.43
329.98	1421.29
330.19	1390.57
330.40	1331.18
330.61	1290.22
330.83	1382.38
331.04	1447.91
331.25	1380.33
331.46	1343.47
331.68	1376.24
331.89	1437.67
332.10	1290.22
332.31	1265.64
332.52	1370.09
332.74	1413.10
332.95	1230.83
333.16	1400.81
333.37	1443.82
333.58	1437.67
333.80	1363.95
334.01	1396.71
334.22	1396.71
334.43	1325.04
334.64	1368.04
334.86	1347.56
335.07	1339.37
335.28	1406.95
335.49	1341.42
335.70	1402.86
335.92	1363.95
336.13	1382.38
336.34	1384.43
336.55	1406.95
336.76	1460.20
336.98	1292.27
337.19	1304.56
337.40	1417.19
337.61	1454.06
337.82	1372.14
338.04	1341.42
338.25	1351.66
338.46	1376.24
338.67	1429.48
338.88	1343.47
339.09	1392.62
339.31	1347.56
339.52	1279.98
339.73	1314.80
339.94	1333.23
340.15	1390.57
340.36	1376.24
340.58	1284.08
340.79	1357.80
341.00	1394.67
341.21	1345.52
341.42	1380.33
341.63	1304.56
341.85	1384.43
342.06	1390.57
342.27	1296.36
342.48	1359.85
342.69	1359.85
342.90	1415.15
343.12	1359.85
343.33	1347.56
343.54	1398.76
343.75	1415.15
343.96	1316.84
344.17	1259.50
344.38	1380.33
344.60	1370.09
344.81	1294.32
345.02	1363.95
345.23	1409.00
345.44	1419.24
345.65	1388.52
345.86	1443.82
346.07	1409.00
346.29	1302.51
346.50	1339.37
346.71	1347.56
346.92	1292.27
347.13	1462.25
347.34	1404.91
347.55	1415.15
347.76	1363.95
347.98	1349.61
348.19	1388.52
348.40	1417.19
348.61	1279.98
348.82	1439.72
349.03	1271.79
349.24	1359.85
349.45	1396.71
349.66	1325.04
349.88	1433.58
350.09	1329.13
350.30	1458.15
350.51	1425.39
350.72	1413.10
350.93	1363.95
351.14	1361.90
351.35	1304.56
351.56	1361.90
351.77	1392.62
351.99	1402.86
352.20	1437.67
352.41	1419.24
352.62	1333.23
352.83	1366.00
353.04	1368.04
353.25	1322.99
353.46	1423.34
353.67	1384.43
353.88	1290.22
354.09	1421.29
354.30	1355.76
354.52	1366.00
354.73	1337.32
354.94	1382.38
355.15	1290.22
355.36	1400.81
355.57	1366.00
355.78	1368.04
355.99	1304.56
356.20	1343.47
356.41	1470.44
356.62	1329.13
356.83	1413.10
357.04	1441.77
357.25	1333.23
357.46	1325.04
357.68	1331.18
357.89	1366.00
358.10	1357.80
358.31	1406.95
358.52	1296.36
358.73	1384.43
358.94	1366.00
359.15	1318.89
359.36	1400.81
359.57	1337.32
359.78	1392.62
359.99	1392.62
360.20	1359.85
360.41	1380.33
360.62	1437.67
360.83	1347.56
361.04	1406.95
361.25	1351.66
361.46	1423.34
361.67	1404.91
361.88	1419.24
362.09	1411.05
362.30	1372.14
362.51	1370.09
362.72	1394.67
362.93	1396.71
363.14	1366.00
363.35	1370.09
363.56	1353.71
363.78	1462.25
363.99	1402.86
364.20	1341.42
364.41	1423.34
364.62	1400.81
364.83	1421.29
365.04	1372.14
365.25	1368.04
365.46	1421.29
365.67	1316.84
365.88	1314.80
366.09	1363.95
366.30	1302.51
366.51	1409.00
366.72	1363.95
366.93	1347.56
367.14	1349.61
367.35	1341.42
367.56	1302.51
367.77	1492.97
367.98	1357.80
368.18	1320.94
368.39	1345.52
368.60	1417.19
368.81	1421.29
369.02	1435.63
369.23	1378.28
369.44	1318.89
369.65	1337.32
369.86	1390.57
370.07	1417.19
370.28	1320.94
370.49	1359.85
370.70	1351.66
370.91	1304.56
371.12	1271.79
371.33	1374.19
371.54	1437.67
371.75	1425.39
371.96	1302.51
372.17	1425.39
372.38	1337.32
372.59	1396.71
372.80	1419.24
373.01	1386.47
373.22	1339.37
373.43	1396.71
373.64	1355.76
373.85	1386.47
374.06	1517.54
374.26	1427.43
374.47	1351.66
374.68	1488.87
374.89	1449.96
375.10	1341.42
375.31	1452.01
375.52	1411.05
375.73	1429.48
375.94	1353.71
376.15	1394.67
376.36	1314.80
376.57	1341.42
376.78	1314.80
376.99	1421.29
377.20	1339.37
377.40	1337.32
377.61	1449.96
377.82	1306.60
378.03	1406.95
378.24	1378.28
378.45	1363.95
378.66	1337.32
378.87	1290.22
379.08	1322.99
379.29	1382.38
379.50	1382.38
379.71	1308.65
379.91	1427.43
380.12	1343.47
380.33	1370.09
380.54	1374.19
380.75	1372.14
380.96	1388.52
381.17	1507.30
381.38	1415.15
381.59	1462.25
381.80	1406.95
382.00	1538.02
382.21	1439.72
382.42	1488.87
382.63	1552.36
382.84	1392.62
383.05	1392.62
383.26	1449.96
383.47	1433.58
383.68	1423.34
383.88	1366.00
384.09	1447.91
384.30	1452.01
384.51	1433.58
384.72	1415.15
384.93	1298.41
385.14	1406.95
385.35	1314.80
385.55	1368.04
385.76	1429.48
385.97	1429.48
386.18	1370.09
386.39	1363.95
386.60	1431.53
386.81	1425.39
387.02	1370.09
387.22	1357.80
387.43	1527.78
387.64	1619.94
387.85	2265.05
388.06	5461.93
388.27	9289.59
388.48	11317.08
388.68	12951.35
388.89	13174.58
389.10	10454.88
389.31	9146.23
389.52	8251.27
389.73	7251.86
389.93	6891.41
390.14	6479.77
390.35	6084.52
390.56	5420.97
390.77	4530.11
390.98	3583.95
391.18	2740.18
391.39	2086.88
391.60	1699.81
391.81	1527.78
392.02	1359.85
392.23	1433.58
392.43	1396.71
392.64	1454.06
392.85	1452.01
393.06	1425.39
393.27	1349.61
393.47	1372.14
393.68	1404.91
393.89	1370.09
394.10	1429.48
394.31	1333.23
394.52	1292.27
394.72	1396.71
394.93	1406.95
395.14	1355.76
395.35	1435.63
395.56	1415.15
395.76	1529.83
395.97	1554.41
396.18	1636.33
396.39	1585.13
396.60	1720.29
396.80	1531.88
397.01	1560.55
397.22	1480.68
397.43	1470.44
397.64	1431.53
397.84	1517.54
398.05	1548.26
398.26	1382.38
398.47	1484.78
398.67	1402.86
398.88	1353.71
399.09	1400.81
399.30	1312.75
399.51	1396.71
399.71	1370.09
399.92	1331.18
400.13	1417.19
400.34	1363.95
400.54	1300.46
400.75	1519.59
400.96	1366.00
401.17	1409.00
401.37	1363.95
401.58	1435.63
401.79	1519.59
402.00	1701.86
402.21	1853.41
402.41	1742.82
402.62	1769.44
402.83	1708.01
403.04	1695.72
403.24	1746.92
403.45	1542.12
403.66	1654.76
403.87	1626.09
404.07	1576.94
404.28	1654.76
404.49	1597.42
404.70	1501.16
404.90	1482.73
405.11	1511.40
405.32	1372.14
405.52	1363.95
405.73	1341.42
405.94	1296.36
406.15	1435.63
406.35	1349.61
406.56	1380.33
406.77	1419.24
406.98	1419.24
407.18	1284.08
407.39	1449.96
407.60	1392.62
407.80	1316.84
408.01	1411.05
408.22	1400.81
408.43	1466.35
408.63	1390.57
408.84	1359.85
409.05	1417.19
409.25	1417.19
409.46	1310.70
409.67	1335.28
409.88	1347.56
410.08	1353.71
410.29	1376.24
410.50	1355.76
410.70	1376.24
410.91	1343.47
411.12	1320.94
411.32	1404.91
411.53	1335.28
411.74	1466.35
411.95	1411.05
412.15	1517.54
412.36	1378.28
412.57	1449.96
412.77	1441.77
412.98	1398.76
413.19	1443.82
413.39	1376.24
413.60	1411.05
413.81	1474.54
414.01	1337.32
414.22	1449.96
414.43	1429.48
414.63	1417.19
414.84	1402.86
415.05	1366.00
415.25	1310.70
415.46	1374.19
415.67	1392.62
415.87	1378.28
416.08	1388.52
416.29	1355.76
416.49	1409.00
416.70	1355.76
416.91	1363.95
417.11	1345.52
417.32	1396.71
417.53	1396.71
417.73	1456.11
417.94	1290.22
418.15	1361.90
418.35	1372.14
418.56	1353.71
418.77	1413.10
418.97	1374.19
419.18	1433.58
419.38	1298.41
419.59	1353.71
419.80	1470.44
420.00	1415.15
420.21	1380.33
420.42	1372.14
420.62	1419.24
420.83	1380.33
421.04	1363.95
421.24	1437.67
421.45	1394.67
421.65	1359.85
421.86	1376.24
422.07	1380.33
422.27	1327.08
422.48	1368.04
422.69	1314.80
422.89	1402.86
423.10	1413.10
423.30	1327.08
423.51	1349.61
423.72	1361.90
423.92	1363.95
424.13	1361.90
424.33	1322.99
424.54	1380.33
424.75	1456.11
424.95	1390.57
425.16	1370.09
425.36	1388.52
425.57	1421.29
425.78	1419.24
425.98	1460.20
426.19	1370.09
426.39	1378.28
426.60	1458.15
426.81	1423.34
427.01	1378.28
427.22	1380.33
427.42	1333.23
427.63	1370.09
427.83	1396.71
428.04	1472.49
428.25	1419.24
428.45	1443.82
428.66	1372.14
428.86	1406.95
429.07	1382.38
429.28	1421.29
429.48	1335.28
429.69	1429.48
429.89	1415.15
430.10	1322.99
430.30	1417.19
430.51	1441.77
430.71	1353.71
430.92	1304.56
431.13	1388.52
431.33	1406.95
431.54	1380.33
431.74	1484.78
431.95	1425.39
432.15	1396.71
432.36	1331.18
432.56	1386.47
432.77	1384.43
432.98	1460.20
433.18	1306.60
433.39	1411.05
433.59	1374.19
433.80	1445.87
434.00	1486.83
434.21	1347.56
434.41	1337.32
434.62	1372.14
434.82	1347.56
435.03	1343.47
435.23	1392.62
435.44	1249.26
435.64	1351.66
435.85	1380.33
436.06	1409.00
436.26	1386.47
436.47	1378.28
436.67	1320.94
436.88	1335.28
437.08	1353.71
437.29	1419.24
437.49	1458.15
437.70	1413.10
437.90	1392.62
438.11	1564.65
438.31	1615.85
438.52	1552.36
438.72	1505.26
438.93	1535.98
439.13	1470.44
439.34	1484.78
439.54	1388.52
439.75	1445.87
439.95	1507.30
440.16	1339.37
440.36	1443.82
440.57	1363.95
440.77	1439.72
440.98	1378.28
441.18	1409.00
441.39	1337.32
441.59	1335.28
441.80	1466.35
442.00	1331.18
442.21	1441.77
442.41	1384.43
442.62	1359.85
442.82	1413.10
443.02	1357.80
443.23	1400.81
443.43	1376.24
443.64	1437.67
443.84	1322.99
444.05	1456.11
444.25	1388.52
444.46	1294.32
444.66	1384.43
444.87	1429.48
445.07	1351.66
445.28	1382.38
445.48	1421.29
445.69	1478.63
445.89	1445.87
446.09	1572.84
446.30	2359.26
446.50	3764.17
446.71	4616.12
446.91	5330.86
447.12	5597.10
447.32	4980.66
447.53	4171.71
447.73	3786.69
447.93	3418.06
448.14	3174.35
448.34	3039.19
448.55	2871.25
448.75	2731.99
448.96	2611.16
449.16	2445.27
449.36	2109.41
449.57	1955.81
449.77	1705.96
449.98	1556.46
450.18	1488.87
450.39	1433.58
450.59	1394.67
450.79	1347.56
451.00	1368.04
451.20	1372.14
451.41	1411.05
451.61	1433.58
451.81	1380.33
452.02	1337.32
452.22	1368.04
452.43	1327.08
452.63	1333.23
