SpectraSuite Data File
++++++++++++++++++++++++++++++++++++
Date: Tue May 03 11:24:32 CEST 2016
User: root
Dark Spectrum Present: No
Reference Spectrum Present: No
Number of Sampled Component Spectra: 1
Spectrometers: USB4C02835
Integration Time (usec): 100000 (USB4C02835)
Spectra Averaged: 1 (USB4C02835)
Boxcar Smoothing: 0 (USB4C02835)
Correct for Electrical Dark: No (USB4C02835)
Strobe/Lamp Enabled: No (USB4C02835)
Correct for Detector Non-linearity: No (USB4C02835)
Correct for Stray Light: No (USB4C02835)
Number of Pixels in Processed Spectrum: 3648
>>>>>Begin Processed Spectral Data<<<<<
177.47	1273.84
177.69	1273.84
177.91	1273.84
178.13	1226.73
178.36	1212.40
178.58	1361.90
178.80	1366.00
179.02	1304.56
179.24	1308.65
179.46	1339.37
179.68	1415.15
179.90	1320.94
180.13	1361.90
180.35	1361.90
180.57	1304.56
180.79	1417.19
181.01	1333.23
181.23	1382.38
181.45	1437.67
181.67	1353.71
181.90	1427.43
182.12	1363.95
182.34	1296.36
182.56	1380.33
182.78	1380.33
183.00	1409.00
183.22	1396.71
183.44	1277.93
183.66	1435.63
183.89	1415.15
184.11	1376.24
184.33	1419.24
184.55	1394.67
184.77	1386.47
184.99	1488.87
185.21	1349.61
185.43	1462.25
185.65	1304.56
185.87	1325.04
186.10	1392.62
186.32	1425.39
186.54	1435.63
186.76	1380.33
186.98	1511.40
187.20	1370.09
187.42	1374.19
187.64	1402.86
187.86	1345.52
188.08	1468.39
188.30	1435.63
188.52	1349.61
188.75	1349.61
188.97	1439.72
189.19	1339.37
189.41	1337.32
189.63	1284.08
189.85	1355.76
190.07	1320.94
190.29	1325.04
190.51	1368.04
190.73	1298.41
190.95	1544.17
191.17	1368.04
191.39	1306.60
191.61	1363.95
191.84	1437.67
192.06	1380.33
192.28	1368.04
192.50	1497.07
192.72	1382.38
192.94	1259.50
193.16	1415.15
193.38	1445.87
193.60	1343.47
193.82	1402.86
194.04	1419.24
194.26	1267.69
194.48	1398.76
194.70	1388.52
194.92	1337.32
195.14	1386.47
195.36	1349.61
195.58	1411.05
195.80	1359.85
196.02	1325.04
196.24	1249.26
196.46	1359.85
196.69	1372.14
196.91	1495.02
197.13	1406.95
197.35	1335.28
197.57	1417.19
197.79	1392.62
198.01	1398.76
198.23	1404.91
198.45	1333.23
198.67	1353.71
198.89	1380.33
199.11	1411.05
199.33	1355.76
199.55	1370.09
199.77	1392.62
199.99	1368.04
200.21	1374.19
200.43	1409.00
200.65	1335.28
200.87	1259.50
201.09	1347.56
201.31	1320.94
201.53	1363.95
201.75	1417.19
201.97	1368.04
202.19	1392.62
202.41	1312.75
202.63	1480.68
202.85	1374.19
203.07	1337.32
203.29	1351.66
203.51	1329.13
203.73	1398.76
203.95	1421.29
204.17	1396.71
204.39	1339.37
204.61	1413.10
204.83	1413.10
205.05	1411.05
205.27	1351.66
205.49	1449.96
205.71	1380.33
205.93	1327.08
206.15	1263.60
206.37	1361.90
206.59	1427.43
206.81	1380.33
207.03	1341.42
207.25	1243.12
207.47	1419.24
207.69	1366.00
207.91	1380.33
208.13	1437.67
208.34	1329.13
208.56	1337.32
208.78	1388.52
209.00	1310.70
209.22	1427.43
209.44	1345.52
209.66	1320.94
209.88	1347.56
210.10	1394.67
210.32	1441.77
210.54	1429.48
210.76	1394.67
210.98	1402.86
211.20	1333.23
211.42	1421.29
211.64	1490.92
211.86	1363.95
212.08	1437.67
212.30	1417.19
212.52	1308.65
212.74	1400.81
212.96	1370.09
213.17	1398.76
213.39	1306.60
213.61	1406.95
213.83	1413.10
214.05	1298.41
214.27	1419.24
214.49	1284.08
214.71	1380.33
214.93	1419.24
215.15	1449.96
215.37	1347.56
215.59	1392.62
215.81	1400.81
216.03	1382.38
216.24	1411.05
216.46	1368.04
216.68	1347.56
216.90	1466.35
217.12	1441.77
217.34	1388.52
217.56	1380.33
217.78	1445.87
218.00	1349.61
218.22	1390.57
218.44	1343.47
218.66	1419.24
218.87	1404.91
219.09	1386.47
219.31	1406.95
219.53	1384.43
219.75	1292.27
219.97	1370.09
220.19	1396.71
220.41	1359.85
220.63	1419.24
220.85	1325.04
221.06	1384.43
221.28	1370.09
221.50	1345.52
221.72	1314.80
221.94	1335.28
222.16	1363.95
222.38	1370.09
222.60	1468.39
222.82	1314.80
223.03	1302.51
223.25	1318.89
223.47	1429.48
223.69	1406.95
223.91	1392.62
224.13	1413.10
224.35	1355.76
224.57	1386.47
224.78	1404.91
225.00	1310.70
225.22	1353.71
225.44	1361.90
225.66	1466.35
225.88	1292.27
226.10	1378.28
226.32	1390.57
226.53	1443.82
226.75	1357.80
226.97	1327.08
227.19	1378.28
227.41	1374.19
227.63	1345.52
227.85	1298.41
228.06	1333.23
228.28	1349.61
228.50	1435.63
228.72	1341.42
228.94	1351.66
229.16	1325.04
229.37	1327.08
229.59	1435.63
229.81	1454.06
230.03	1288.17
230.25	1378.28
230.47	1318.89
230.69	1306.60
230.90	1488.87
231.12	1302.51
231.34	1361.90
231.56	1376.24
231.78	1318.89
232.00	1370.09
232.21	1382.38
232.43	1404.91
232.65	1282.03
232.87	1331.18
233.09	1294.32
233.30	1331.18
233.52	1325.04
233.74	1325.04
233.96	1335.28
234.18	1376.24
234.40	1343.47
234.61	1411.05
234.83	1304.56
235.05	1333.23
235.27	1478.63
235.49	1460.20
235.70	1433.58
235.92	1484.78
236.14	1345.52
236.36	1458.15
236.58	1294.32
236.79	1331.18
237.01	1351.66
237.23	1380.33
237.45	1392.62
237.67	1331.18
237.88	1331.18
238.10	1398.76
238.32	1325.04
238.54	1298.41
238.76	1411.05
238.97	1372.14
239.19	1370.09
239.41	1363.95
239.63	1409.00
239.85	1339.37
240.06	1363.95
240.28	1320.94
240.50	1425.39
240.72	1433.58
240.93	1361.90
241.15	1415.15
241.37	1320.94
241.59	1396.71
241.81	1447.91
242.02	1314.80
242.24	1413.10
242.46	1388.52
242.68	1417.19
242.89	1417.19
243.11	1349.61
243.33	1384.43
243.55	1353.71
243.76	1415.15
243.98	1314.80
244.20	1359.85
244.42	1351.66
244.64	1294.32
244.85	1296.36
245.07	1355.76
245.29	1378.28
245.51	1423.34
245.72	1329.13
245.94	1372.14
246.16	1460.20
246.38	1355.76
246.59	1361.90
246.81	1374.19
247.03	1341.42
247.24	1404.91
247.46	1347.56
247.68	1349.61
247.90	1316.84
248.11	1339.37
248.33	1376.24
248.55	1376.24
248.77	1318.89
248.98	1433.58
249.20	1429.48
249.42	1392.62
249.64	1382.38
249.85	1361.90
250.07	1384.43
250.29	1290.22
250.50	1411.05
250.72	1339.37
250.94	1302.51
251.16	1521.64
251.37	1435.63
251.59	1419.24
251.81	1300.46
252.02	1515.50
252.24	1359.85
252.46	1462.25
252.68	1343.47
252.89	1415.15
253.11	1359.85
253.33	1525.74
253.54	1409.00
253.76	1335.28
253.98	1339.37
254.20	1488.87
254.41	1343.47
254.63	1415.15
254.85	1370.09
255.06	1355.76
255.28	1351.66
255.50	1372.14
255.71	1382.38
255.93	1376.24
256.15	1378.28
256.36	1384.43
256.58	1454.06
256.80	1411.05
257.02	1343.47
257.23	1359.85
257.45	1304.56
257.67	1380.33
257.88	1392.62
258.10	1355.76
258.32	1341.42
258.53	1419.24
258.75	1439.72
258.97	1300.46
259.18	1386.47
259.40	1372.14
259.62	1390.57
259.83	1409.00
260.05	1468.39
260.27	1464.30
260.48	1435.63
260.70	1333.23
260.92	1296.36
261.13	1361.90
261.35	1423.34
261.57	1396.71
261.78	1345.52
262.00	1325.04
262.22	1351.66
262.43	1363.95
262.65	1378.28
262.86	1298.41
263.08	1388.52
263.30	1394.67
263.51	1349.61
263.73	1435.63
263.95	1437.67
264.16	1290.22
264.38	1431.53
264.60	1400.81
264.81	1382.38
265.03	1378.28
265.25	1419.24
265.46	1357.80
265.68	1466.35
265.89	1386.47
266.11	1284.08
266.33	1449.96
266.54	1443.82
266.76	1392.62
266.98	1415.15
267.19	1484.78
267.41	1363.95
267.62	1351.66
267.84	1304.56
268.06	1322.99
268.27	1431.53
268.49	1396.71
268.70	1402.86
268.92	1359.85
269.14	1372.14
269.35	1357.80
269.57	1284.08
269.79	1351.66
270.00	1320.94
270.22	1392.62
270.43	1351.66
270.65	1271.79
270.87	1345.52
271.08	1374.19
271.30	1435.63
271.51	1316.84
271.73	1437.67
271.95	1376.24
272.16	1433.58
272.38	1390.57
272.59	1302.51
272.81	1394.67
273.02	1449.96
273.24	1361.90
273.46	1474.54
273.67	1370.09
273.89	1378.28
274.10	1341.42
274.32	1445.87
274.54	1437.67
274.75	1368.04
274.97	1339.37
275.18	1419.24
275.40	1406.95
275.61	1355.76
275.83	1433.58
276.05	1349.61
276.26	1386.47
276.48	1269.74
276.69	1361.90
276.91	1404.91
277.12	1411.05
277.34	1363.95
277.55	1429.48
277.77	1394.67
277.99	1306.60
278.20	1314.80
278.42	1347.56
278.63	1349.61
278.85	1343.47
279.06	1351.66
279.28	1366.00
279.49	1447.91
279.71	1402.86
279.93	1433.58
280.14	1384.43
280.36	1392.62
280.57	1359.85
280.79	1374.19
281.00	1318.89
281.22	1333.23
281.43	1392.62
281.65	1302.51
281.86	1327.08
282.08	1353.71
282.29	1511.40
282.51	1349.61
282.73	1370.09
282.94	1349.61
283.16	1488.87
283.37	1347.56
283.59	1382.38
283.80	1419.24
284.02	1425.39
284.23	1402.86
284.45	1456.11
284.66	1308.65
284.88	1445.87
285.09	1310.70
285.31	1406.95
285.52	1413.10
285.74	1372.14
285.95	1396.71
286.17	1423.34
286.38	1415.15
286.60	1392.62
286.81	1409.00
287.03	1361.90
287.24	1337.32
287.46	1363.95
287.67	1396.71
287.89	1411.05
288.10	1372.14
288.32	1320.94
288.53	1415.15
288.75	1296.36
288.96	1458.15
289.18	1335.28
289.39	1380.33
289.61	1376.24
289.82	1433.58
290.04	1376.24
290.25	1359.85
290.47	1400.81
290.68	1396.71
290.90	1415.15
291.11	1308.65
291.33	1419.24
291.54	1318.89
291.76	1292.27
291.97	1353.71
292.18	1398.76
292.40	1308.65
292.61	1370.09
292.83	1468.39
293.04	1382.38
293.26	1404.91
293.47	1380.33
293.69	1316.84
293.90	1439.72
294.12	1382.38
294.33	1378.28
294.55	1456.11
294.76	1435.63
294.97	1329.13
295.19	1386.47
295.40	1413.10
295.62	1376.24
295.83	1466.35
296.05	1339.37
296.26	1445.87
296.48	1339.37
296.69	1345.52
296.90	1384.43
297.12	1374.19
297.33	1423.34
297.55	1437.67
297.76	1372.14
297.98	1449.96
298.19	1406.95
298.41	1337.32
298.62	1378.28
298.83	1396.71
299.05	1449.96
299.26	1384.43
299.48	1353.71
299.69	1454.06
299.90	1376.24
300.12	1433.58
300.33	1402.86
300.55	1339.37
300.76	1290.22
300.98	1322.99
301.19	1409.00
301.40	1343.47
301.62	1392.62
301.83	1406.95
302.05	1343.47
302.26	1386.47
302.47	1306.60
302.69	1343.47
302.90	1425.39
303.12	1304.56
303.33	1421.29
303.54	1429.48
303.76	1349.61
303.97	1398.76
304.19	1337.32
304.40	1345.52
304.61	1400.81
304.83	1419.24
305.04	1370.09
305.26	1406.95
305.47	1366.00
305.68	1376.24
305.90	1275.88
306.11	1470.44
306.33	1345.52
306.54	1337.32
306.75	1363.95
306.97	1333.23
307.18	1392.62
307.39	1409.00
307.61	1427.43
307.82	1380.33
308.04	1372.14
308.25	1312.75
308.46	1437.67
308.68	1366.00
308.89	1345.52
309.10	1417.19
309.32	1406.95
309.53	1409.00
309.74	1335.28
309.96	1368.04
310.17	1441.77
310.39	1337.32
310.60	1355.76
310.81	1357.80
311.03	1327.08
311.24	1316.84
311.45	1361.90
311.67	1427.43
311.88	1376.24
312.09	1298.41
312.31	1331.18
312.52	1380.33
312.73	1374.19
312.95	1376.24
313.16	1361.90
313.37	1409.00
313.59	1363.95
313.80	1427.43
314.01	1302.51
314.23	1374.19
314.44	1335.28
314.65	1322.99
314.87	1349.61
315.08	1380.33
315.29	1333.23
315.51	1404.91
315.72	1331.18
315.93	1406.95
316.15	1404.91
316.36	1306.60
316.57	1419.24
316.79	1374.19
317.00	1363.95
317.21	1402.86
317.43	1277.93
317.64	1413.10
317.85	1337.32
318.07	1474.54
318.28	1478.63
318.49	1509.35
318.70	1691.62
318.92	1499.11
319.13	1529.83
319.34	1556.46
319.56	1439.72
319.77	1441.77
319.98	1484.78
320.20	1454.06
320.41	1492.97
320.62	1409.00
320.83	1288.17
321.05	1470.44
321.26	1417.19
321.47	1415.15
321.69	1454.06
321.90	1296.36
322.11	1357.80
322.32	1386.47
322.54	1396.71
322.75	1380.33
322.96	1421.29
323.18	1404.91
323.39	1243.12
323.60	1347.56
323.81	1353.71
324.03	1361.90
324.24	1343.47
324.45	1325.04
324.66	1380.33
324.88	1433.58
325.09	1423.34
325.30	1478.63
325.52	1398.76
325.73	1394.67
325.94	1355.76
326.15	1294.32
326.37	1376.24
326.58	1388.52
326.79	1394.67
327.00	1329.13
327.22	1368.04
327.43	1351.66
327.64	1322.99
327.85	1341.42
328.07	1300.46
328.28	1372.14
328.49	1282.03
328.70	1396.71
328.92	1390.57
329.13	1363.95
329.34	1409.00
329.55	1359.85
329.76	1394.67
329.98	1396.71
330.19	1351.66
330.40	1339.37
330.61	1267.69
330.83	1470.44
331.04	1378.28
331.25	1343.47
331.46	1396.71
331.68	1361.90
331.89	1376.24
332.10	1394.67
332.31	1296.36
332.52	1376.24
332.74	1382.38
332.95	1378.28
333.16	1376.24
333.37	1406.95
333.58	1404.91
333.80	1406.95
334.01	1357.80
334.22	1378.28
334.43	1355.76
334.64	1392.62
334.86	1351.66
335.07	1394.67
335.28	1417.19
335.49	1384.43
335.70	1380.33
335.92	1431.53
336.13	1462.25
336.34	1398.76
336.55	1372.14
336.76	1406.95
336.98	1353.71
337.19	1355.76
337.40	1427.43
337.61	1427.43
337.82	1243.12
338.04	1351.66
338.25	1312.75
338.46	1349.61
338.67	1327.08
338.88	1343.47
339.09	1294.32
339.31	1320.94
339.52	1341.42
339.73	1308.65
339.94	1314.80
340.15	1316.84
340.36	1333.23
340.58	1355.76
340.79	1390.57
341.00	1409.00
341.21	1421.29
341.42	1431.53
341.63	1394.67
341.85	1388.52
342.06	1347.56
342.27	1259.50
342.48	1437.67
342.69	1433.58
342.90	1372.14
343.12	1384.43
343.33	1339.37
343.54	1368.04
343.75	1394.67
343.96	1347.56
344.17	1320.94
344.38	1417.19
344.60	1337.32
344.81	1374.19
345.02	1316.84
345.23	1464.30
345.44	1417.19
345.65	1435.63
345.86	1429.48
346.07	1386.47
346.29	1374.19
346.50	1423.34
346.71	1433.58
346.92	1388.52
347.13	1415.15
347.34	1390.57
347.55	1425.39
347.76	1337.32
347.98	1306.60
348.19	1429.48
348.40	1398.76
348.61	1390.57
348.82	1345.52
349.03	1329.13
349.24	1392.62
349.45	1404.91
349.66	1359.85
349.88	1413.10
350.09	1357.80
350.30	1345.52
350.51	1419.24
350.72	1372.14
350.93	1437.67
351.14	1413.10
351.35	1388.52
351.56	1382.38
351.77	1396.71
351.99	1396.71
352.20	1390.57
352.41	1454.06
352.62	1380.33
352.83	1341.42
353.04	1275.88
353.25	1382.38
353.46	1409.00
353.67	1384.43
353.88	1314.80
354.09	1366.00
354.30	1363.95
354.52	1396.71
354.73	1402.86
354.94	1378.28
355.15	1345.52
355.36	1421.29
355.57	1419.24
355.78	1454.06
355.99	1308.65
356.20	1345.52
356.41	1378.28
356.62	1337.32
356.83	1411.05
357.04	1411.05
357.25	1306.60
357.46	1372.14
357.68	1372.14
357.89	1335.28
358.10	1392.62
358.31	1372.14
358.52	1351.66
358.73	1374.19
358.94	1394.67
359.15	1421.29
359.36	1378.28
359.57	1370.09
359.78	1318.89
359.99	1423.34
360.20	1404.91
360.41	1384.43
360.62	1392.62
360.83	1339.37
361.04	1304.56
361.25	1392.62
361.46	1497.07
361.67	1392.62
361.88	1431.53
362.09	1386.47
362.30	1363.95
362.51	1363.95
362.72	1413.10
362.93	1382.38
363.14	1361.90
363.35	1404.91
363.56	1327.08
363.78	1409.00
363.99	1388.52
364.20	1357.80
364.41	1390.57
364.62	1353.71
364.83	1421.29
365.04	1372.14
365.25	1409.00
365.46	1396.71
365.67	1363.95
365.88	1374.19
366.09	1361.90
366.30	1318.89
366.51	1337.32
366.72	1359.85
366.93	1398.76
367.14	1345.52
367.35	1406.95
367.56	1378.28
367.77	1402.86
367.98	1296.36
368.18	1447.91
368.39	1417.19
368.60	1331.18
368.81	1333.23
369.02	1339.37
369.23	1368.04
369.44	1372.14
369.65	1327.08
369.86	1380.33
370.07	1415.15
370.28	1355.76
370.49	1359.85
370.70	1404.91
370.91	1406.95
371.12	1351.66
371.33	1456.11
371.54	1316.84
371.75	1441.77
371.96	1277.93
372.17	1404.91
372.38	1380.33
372.59	1406.95
372.80	1257.45
373.01	1406.95
373.22	1425.39
373.43	1400.81
373.64	1325.04
373.85	1368.04
374.06	1398.76
374.26	1441.77
374.47	1363.95
374.68	1413.10
374.89	1462.25
375.10	1290.22
375.31	1433.58
375.52	1415.15
375.73	1413.10
375.94	1306.60
376.15	1409.00
376.36	1384.43
376.57	1325.04
376.78	1429.48
376.99	1402.86
377.20	1396.71
377.40	1335.28
377.61	1535.98
377.82	1345.52
378.03	1427.43
378.24	1443.82
378.45	1378.28
378.66	1429.48
378.87	1331.18
379.08	1388.52
379.29	1454.06
379.50	1456.11
379.71	1376.24
379.91	1378.28
380.12	1361.90
380.33	1402.86
380.54	1392.62
380.75	1413.10
380.96	1370.09
381.17	1441.77
381.38	1449.96
381.59	1425.39
381.80	1398.76
382.00	1492.97
382.21	1439.72
382.42	1476.59
382.63	1542.12
382.84	1341.42
383.05	1382.38
383.26	1363.95
383.47	1380.33
383.68	1396.71
383.88	1456.11
384.09	1437.67
384.30	1347.56
384.51	1431.53
384.72	1302.51
384.93	1279.98
385.14	1388.52
385.35	1398.76
385.55	1325.04
385.76	1421.29
385.97	1392.62
386.18	1374.19
386.39	1366.00
386.60	1415.15
386.81	1353.71
387.02	1394.67
387.22	1454.06
387.43	1478.63
387.64	1533.93
387.85	2359.26
388.06	5885.86
388.27	9731.95
388.48	11747.15
388.68	13244.21
388.89	13272.89
389.10	10678.11
389.31	9211.76
389.52	8312.71
389.73	7366.54
389.93	6909.85
390.14	6406.05
390.35	6164.39
390.56	5459.88
390.77	4702.14
390.98	3698.63
391.18	2910.16
391.39	2162.66
391.60	1794.02
391.81	1587.18
392.02	1460.20
392.23	1484.78
392.43	1452.01
392.64	1449.96
392.85	1443.82
393.06	1433.58
393.27	1394.67
393.47	1363.95
393.68	1400.81
393.89	1349.61
394.10	1378.28
394.31	1327.08
394.52	1357.80
394.72	1394.67
394.93	1527.78
395.14	1304.56
395.35	1443.82
395.56	1380.33
395.76	1548.26
395.97	1638.38
396.18	1566.70
396.39	1617.90
396.60	1699.81
396.80	1589.22
397.01	1495.02
397.22	1490.92
397.43	1554.41
397.64	1431.53
397.84	1406.95
398.05	1492.97
398.26	1372.14
398.47	1488.87
398.67	1376.24
398.88	1382.38
399.09	1476.59
399.30	1277.93
399.51	1370.09
399.71	1368.04
399.92	1402.86
400.13	1388.52
400.34	1366.00
400.54	1314.80
400.75	1396.71
400.96	1349.61
401.17	1423.34
401.37	1413.10
401.58	1376.24
401.79	1486.83
402.00	1705.96
402.21	1771.49
402.41	1818.60
402.62	1810.40
402.83	1755.11
403.04	1726.44
403.24	1753.06
403.45	1556.46
403.66	1560.55
403.87	1527.78
404.07	1558.50
404.28	1562.60
404.49	1560.55
404.70	1443.82
404.90	1435.63
405.11	1374.19
405.32	1458.15
405.52	1322.99
405.73	1273.84
405.94	1402.86
406.15	1333.23
406.35	1449.96
406.56	1394.67
406.77	1314.80
406.98	1392.62
407.18	1355.76
407.39	1449.96
407.60	1363.95
407.80	1431.53
408.01	1390.57
408.22	1419.24
408.43	1351.66
408.63	1480.68
408.84	1382.38
409.05	1439.72
409.25	1388.52
409.46	1394.67
409.67	1318.89
409.88	1320.94
410.08	1327.08
410.29	1380.33
410.50	1376.24
410.70	1419.24
410.91	1286.12
411.12	1443.82
411.32	1386.47
411.53	1390.57
411.74	1460.20
411.95	1486.83
412.15	1445.87
412.36	1501.16
412.57	1341.42
412.77	1392.62
412.98	1454.06
413.19	1355.76
413.39	1431.53
413.60	1437.67
413.81	1468.39
414.01	1400.81
414.22	1421.29
414.43	1404.91
414.63	1384.43
414.84	1398.76
415.05	1421.29
415.25	1394.67
415.46	1372.14
415.67	1378.28
415.87	1507.30
416.08	1363.95
416.29	1353.71
416.49	1443.82
416.70	1329.13
416.91	1335.28
417.11	1314.80
417.32	1322.99
417.53	1388.52
417.73	1447.91
417.94	1409.00
418.15	1431.53
418.35	1355.76
418.56	1460.20
418.77	1478.63
418.97	1316.84
419.18	1361.90
419.38	1296.36
419.59	1396.71
419.80	1441.77
420.00	1296.36
420.21	1363.95
420.42	1398.76
420.62	1376.24
420.83	1312.75
421.04	1341.42
421.24	1257.45
421.45	1431.53
421.65	1368.04
421.86	1325.04
422.07	1413.10
422.27	1353.71
422.48	1318.89
422.69	1349.61
422.89	1363.95
423.10	1382.38
423.30	1343.47
423.51	1345.52
423.72	1366.00
423.92	1392.62
424.13	1327.08
424.33	1423.34
424.54	1413.10
424.75	1415.15
424.95	1400.81
425.16	1359.85
425.36	1378.28
425.57	1413.10
425.78	1363.95
425.98	1370.09
426.19	1292.27
426.39	1396.71
426.60	1396.71
426.81	1404.91
427.01	1388.52
427.22	1341.42
427.42	1376.24
427.63	1341.42
427.83	1361.90
428.04	1460.20
428.25	1376.24
428.45	1411.05
428.66	1402.86
428.86	1392.62
429.07	1325.04
429.28	1376.24
429.48	1359.85
429.69	1359.85
429.89	1382.38
430.10	1302.51
430.30	1394.67
430.51	1411.05
430.71	1294.32
430.92	1337.32
431.13	1388.52
431.33	1435.63
431.54	1417.19
431.74	1452.01
431.95	1396.71
432.15	1425.39
432.36	1417.19
432.56	1388.52
432.77	1400.81
432.98	1386.47
433.18	1386.47
433.39	1318.89
433.59	1376.24
433.80	1470.44
434.00	1478.63
434.21	1347.56
434.41	1329.13
434.62	1406.95
434.82	1308.65
435.03	1384.43
435.23	1409.00
435.44	1380.33
435.64	1351.66
435.85	1394.67
436.06	1374.19
436.26	1374.19
436.47	1402.86
436.67	1349.61
436.88	1370.09
437.08	1466.35
437.29	1439.72
437.49	1345.52
437.70	1396.71
437.90	1370.09
438.11	1495.02
438.31	1538.02
438.52	1480.68
438.72	1533.93
438.93	1611.75
439.13	1419.24
439.34	1406.95
439.54	1480.68
439.75	1447.91
439.95	1452.01
440.16	1437.67
440.36	1431.53
440.57	1345.52
440.77	1396.71
440.98	1421.29
441.18	1427.43
441.39	1443.82
441.59	1357.80
441.80	1474.54
442.00	1388.52
442.21	1511.40
442.41	1275.88
442.62	1419.24
442.82	1376.24
443.02	1351.66
443.23	1394.67
443.43	1421.29
443.64	1468.39
443.84	1288.17
444.05	1468.39
444.25	1488.87
444.46	1406.95
444.66	1322.99
444.87	1419.24
445.07	1345.52
445.28	1361.90
445.48	1468.39
445.69	1411.05
445.89	1527.78
446.09	1609.70
446.30	2324.44
446.50	3803.08
446.71	4689.85
446.91	5310.38
447.12	5623.72
447.32	4927.41
447.53	4222.91
447.73	3774.41
447.93	3545.03
448.14	3170.26
448.34	3076.05
448.55	2906.07
448.75	2734.04
448.96	2717.65
449.16	2363.36
449.36	2213.85
449.57	1916.90
449.77	1699.81
449.98	1542.12
450.18	1476.59
450.39	1490.92
450.59	1404.91
450.79	1370.09
451.00	1312.75
451.20	1359.85
451.41	1341.42
451.61	1363.95
451.81	1314.80
452.02	1406.95
452.22	1357.80
452.43	1402.86
452.63	1370.09
