SpectraSuite Data File
++++++++++++++++++++++++++++++++++++
Date: Tue May 03 11:24:30 CEST 2016
User: root
Dark Spectrum Present: No
Reference Spectrum Present: No
Number of Sampled Component Spectra: 1
Spectrometers: USB4C02835
Integration Time (usec): 100000 (USB4C02835)
Spectra Averaged: 1 (USB4C02835)
Boxcar Smoothing: 0 (USB4C02835)
Correct for Electrical Dark: No (USB4C02835)
Strobe/Lamp Enabled: No (USB4C02835)
Correct for Detector Non-linearity: No (USB4C02835)
Correct for Stray Light: No (USB4C02835)
Number of Pixels in Processed Spectrum: 3648
>>>>>Begin Processed Spectral Data<<<<<
177.47	1265.64
177.69	1265.64
177.91	1265.64
178.13	1208.30
178.36	1222.64
178.58	1355.76
178.80	1390.57
179.02	1312.75
179.24	1288.17
179.46	1374.19
179.68	1396.71
179.90	1355.76
180.13	1374.19
180.35	1339.37
180.57	1359.85
180.79	1388.52
181.01	1361.90
181.23	1464.30
181.45	1429.48
181.67	1404.91
181.90	1357.80
182.12	1304.56
182.34	1318.89
182.56	1333.23
182.78	1359.85
183.00	1380.33
183.22	1355.76
183.44	1298.41
183.66	1396.71
183.89	1495.02
184.11	1409.00
184.33	1400.81
184.55	1370.09
184.77	1327.08
184.99	1413.10
185.21	1290.22
185.43	1445.87
185.65	1271.79
185.87	1331.18
186.10	1370.09
186.32	1366.00
186.54	1384.43
186.76	1390.57
186.98	1374.19
187.20	1380.33
187.42	1359.85
187.64	1349.61
187.86	1357.80
188.08	1443.82
188.30	1456.11
188.52	1370.09
188.75	1454.06
188.97	1355.76
189.19	1322.99
189.41	1255.40
189.63	1296.36
189.85	1370.09
190.07	1318.89
190.29	1279.98
190.51	1341.42
190.73	1320.94
190.95	1431.53
191.17	1335.28
191.39	1300.46
191.61	1347.56
191.84	1349.61
192.06	1347.56
192.28	1343.47
192.50	1445.87
192.72	1411.05
192.94	1402.86
193.16	1417.19
193.38	1415.15
193.60	1331.18
193.82	1325.04
194.04	1386.47
194.26	1339.37
194.48	1265.64
194.70	1337.32
194.92	1404.91
195.14	1437.67
195.36	1388.52
195.58	1417.19
195.80	1349.61
196.02	1394.67
196.24	1400.81
196.46	1322.99
196.69	1314.80
196.91	1441.77
197.13	1308.65
197.35	1339.37
197.57	1415.15
197.79	1429.48
198.01	1374.19
198.23	1495.02
198.45	1409.00
198.67	1339.37
198.89	1425.39
199.11	1435.63
199.33	1255.40
199.55	1273.84
199.77	1441.77
199.99	1427.43
200.21	1329.13
200.43	1384.43
200.65	1241.07
200.87	1308.65
201.09	1347.56
201.31	1406.95
201.53	1398.76
201.75	1406.95
201.97	1359.85
202.19	1361.90
202.41	1429.48
202.63	1443.82
202.85	1417.19
203.07	1380.33
203.29	1335.28
203.51	1325.04
203.73	1351.66
203.95	1398.76
204.17	1400.81
204.39	1400.81
204.61	1413.10
204.83	1388.52
205.05	1419.24
205.27	1366.00
205.49	1394.67
205.71	1384.43
205.93	1339.37
206.15	1392.62
206.37	1327.08
206.59	1347.56
206.81	1382.38
207.03	1384.43
207.25	1347.56
207.47	1456.11
207.69	1370.09
207.91	1366.00
208.13	1419.24
208.34	1294.32
208.56	1294.32
208.78	1382.38
209.00	1333.23
209.22	1370.09
209.44	1345.52
209.66	1409.00
209.88	1415.15
210.10	1318.89
210.32	1425.39
210.54	1351.66
210.76	1413.10
210.98	1404.91
211.20	1275.88
211.42	1335.28
211.64	1382.38
211.86	1402.86
212.08	1335.28
212.30	1409.00
212.52	1298.41
212.74	1411.05
212.96	1466.35
213.17	1415.15
213.39	1366.00
213.61	1417.19
213.83	1415.15
214.05	1308.65
214.27	1357.80
214.49	1302.51
214.71	1314.80
214.93	1466.35
215.15	1394.67
215.37	1413.10
215.59	1271.79
215.81	1382.38
216.03	1413.10
216.24	1357.80
216.46	1300.46
216.68	1413.10
216.90	1435.63
217.12	1458.15
217.34	1384.43
217.56	1374.19
217.78	1413.10
218.00	1394.67
218.22	1443.82
218.44	1306.60
218.66	1341.42
218.87	1413.10
219.09	1320.94
219.31	1347.56
219.53	1415.15
219.75	1347.56
219.97	1402.86
220.19	1335.28
220.41	1353.71
220.63	1398.76
220.85	1380.33
221.06	1368.04
221.28	1396.71
221.50	1413.10
221.72	1417.19
221.94	1341.42
222.16	1269.74
222.38	1404.91
222.60	1415.15
222.82	1413.10
223.03	1413.10
223.25	1357.80
223.47	1357.80
223.69	1470.44
223.91	1341.42
224.13	1366.00
224.35	1400.81
224.57	1347.56
224.78	1322.99
225.00	1292.27
225.22	1423.34
225.44	1343.47
225.66	1376.24
225.88	1400.81
226.10	1447.91
226.32	1339.37
226.53	1406.95
226.75	1339.37
226.97	1402.86
227.19	1308.65
227.41	1359.85
227.63	1333.23
227.85	1363.95
228.06	1345.52
228.28	1396.71
228.50	1417.19
228.72	1335.28
228.94	1411.05
229.16	1325.04
229.37	1355.76
229.59	1388.52
229.81	1480.68
230.03	1347.56
230.25	1402.86
230.47	1390.57
230.69	1370.09
230.90	1402.86
231.12	1386.47
231.34	1355.76
231.56	1361.90
231.78	1423.34
232.00	1447.91
232.21	1386.47
232.43	1325.04
232.65	1239.02
232.87	1421.29
233.09	1339.37
233.30	1374.19
233.52	1318.89
233.74	1310.70
233.96	1392.62
234.18	1384.43
234.40	1331.18
234.61	1441.77
234.83	1351.66
235.05	1306.60
235.27	1486.83
235.49	1443.82
235.70	1419.24
235.92	1439.72
236.14	1400.81
236.36	1476.59
236.58	1384.43
236.79	1343.47
237.01	1359.85
237.23	1429.48
237.45	1400.81
237.67	1388.52
237.88	1314.80
238.10	1394.67
238.32	1347.56
238.54	1441.77
238.76	1310.70
238.97	1470.44
239.19	1349.61
239.41	1411.05
239.63	1417.19
239.85	1341.42
240.06	1351.66
240.28	1361.90
240.50	1339.37
240.72	1384.43
240.93	1325.04
241.15	1402.86
241.37	1429.48
241.59	1411.05
241.81	1415.15
242.02	1370.09
242.24	1374.19
242.46	1515.50
242.68	1341.42
242.89	1419.24
243.11	1429.48
243.33	1355.76
243.55	1359.85
243.76	1392.62
243.98	1331.18
244.20	1368.04
244.42	1390.57
244.64	1351.66
244.85	1308.65
245.07	1294.32
245.29	1370.09
245.51	1363.95
245.72	1374.19
245.94	1392.62
246.16	1380.33
246.38	1452.01
246.59	1333.23
246.81	1361.90
247.03	1361.90
247.24	1353.71
247.46	1392.62
247.68	1337.32
247.90	1470.44
248.11	1374.19
248.33	1370.09
248.55	1398.76
248.77	1370.09
248.98	1431.53
249.20	1441.77
249.42	1343.47
249.64	1406.95
249.85	1386.47
250.07	1269.74
250.29	1357.80
250.50	1345.52
250.72	1329.13
250.94	1398.76
251.16	1466.35
251.37	1406.95
251.59	1376.24
251.81	1409.00
252.02	1458.15
252.24	1378.28
252.46	1404.91
252.68	1366.00
252.89	1370.09
253.11	1273.84
253.33	1484.78
253.54	1429.48
253.76	1413.10
253.98	1411.05
254.20	1361.90
254.41	1333.23
254.63	1353.71
254.85	1374.19
255.06	1329.13
255.28	1306.60
255.50	1386.47
255.71	1343.47
255.93	1314.80
256.15	1302.51
256.36	1361.90
256.58	1409.00
256.80	1286.12
257.02	1386.47
257.23	1331.18
257.45	1329.13
257.67	1427.43
257.88	1349.61
258.10	1425.39
258.32	1345.52
258.53	1419.24
258.75	1372.14
258.97	1376.24
259.18	1368.04
259.40	1380.33
259.62	1445.87
259.83	1363.95
260.05	1308.65
260.27	1523.69
260.48	1413.10
260.70	1329.13
260.92	1368.04
261.13	1413.10
261.35	1404.91
261.57	1290.22
261.78	1341.42
262.00	1304.56
262.22	1343.47
262.43	1355.76
262.65	1327.08
262.86	1353.71
263.08	1458.15
263.30	1298.41
263.51	1349.61
263.73	1355.76
263.95	1449.96
264.16	1288.17
264.38	1372.14
264.60	1415.15
264.81	1431.53
265.03	1398.76
265.25	1345.52
265.46	1316.84
265.68	1370.09
265.89	1419.24
266.11	1353.71
266.33	1394.67
266.54	1402.86
266.76	1443.82
266.98	1421.29
267.19	1361.90
267.41	1359.85
267.62	1390.57
267.84	1345.52
268.06	1406.95
268.27	1275.88
268.49	1384.43
268.70	1345.52
268.92	1327.08
269.14	1327.08
269.35	1296.36
269.57	1363.95
269.79	1368.04
270.00	1351.66
270.22	1341.42
270.43	1329.13
270.65	1322.99
270.87	1337.32
271.08	1361.90
271.30	1404.91
271.51	1363.95
271.73	1378.28
271.95	1370.09
272.16	1406.95
272.38	1380.33
272.59	1376.24
272.81	1421.29
273.02	1378.28
273.24	1394.67
273.46	1333.23
273.67	1347.56
273.89	1357.80
274.10	1351.66
274.32	1329.13
274.54	1363.95
274.75	1339.37
274.97	1329.13
275.18	1372.14
275.40	1343.47
275.61	1329.13
275.83	1310.70
276.05	1310.70
276.26	1454.06
276.48	1409.00
276.69	1404.91
276.91	1329.13
277.12	1421.29
277.34	1374.19
277.55	1347.56
277.77	1378.28
277.99	1386.47
278.20	1290.22
278.42	1265.64
278.63	1374.19
278.85	1347.56
279.06	1349.61
279.28	1380.33
279.49	1429.48
279.71	1443.82
279.93	1339.37
280.14	1402.86
280.36	1325.04
280.57	1374.19
280.79	1468.39
281.00	1339.37
281.22	1402.86
281.43	1437.67
281.65	1306.60
281.86	1312.75
282.08	1359.85
282.29	1427.43
282.51	1366.00
282.73	1306.60
282.94	1351.66
283.16	1456.11
283.37	1419.24
283.59	1380.33
283.80	1390.57
284.02	1322.99
284.23	1286.12
284.45	1357.80
284.66	1368.04
284.88	1378.28
285.09	1349.61
285.31	1378.28
285.52	1314.80
285.74	1355.76
285.95	1398.76
286.17	1402.86
286.38	1343.47
286.60	1314.80
286.81	1343.47
287.03	1394.67
287.24	1335.28
287.46	1372.14
287.67	1351.66
287.89	1386.47
288.10	1394.67
288.32	1370.09
288.53	1351.66
288.75	1359.85
288.96	1314.80
289.18	1337.32
289.39	1361.90
289.61	1413.10
289.82	1427.43
290.04	1427.43
290.25	1374.19
290.47	1343.47
290.68	1345.52
290.90	1443.82
291.11	1322.99
291.33	1533.93
291.54	1294.32
291.76	1456.11
291.97	1345.52
292.18	1355.76
292.40	1347.56
292.61	1325.04
292.83	1435.63
293.04	1447.91
293.26	1431.53
293.47	1409.00
293.69	1351.66
293.90	1318.89
294.12	1421.29
294.33	1290.22
294.55	1331.18
294.76	1417.19
294.97	1396.71
295.19	1486.83
295.40	1355.76
295.62	1400.81
295.83	1421.29
296.05	1409.00
296.26	1435.63
296.48	1331.18
296.69	1435.63
296.90	1376.24
297.12	1374.19
297.33	1415.15
297.55	1347.56
297.76	1349.61
297.98	1417.19
298.19	1400.81
298.41	1359.85
298.62	1320.94
298.83	1382.38
299.05	1304.56
299.26	1345.52
299.48	1331.18
299.69	1406.95
299.90	1462.25
300.12	1312.75
300.33	1406.95
300.55	1370.09
300.76	1396.71
300.98	1312.75
301.19	1468.39
301.40	1425.39
301.62	1345.52
301.83	1411.05
302.05	1421.29
302.26	1372.14
302.47	1372.14
302.69	1376.24
302.90	1361.90
303.12	1318.89
303.33	1384.43
303.54	1388.52
303.76	1370.09
303.97	1329.13
304.19	1368.04
304.40	1318.89
304.61	1314.80
304.83	1505.26
305.04	1361.90
305.26	1417.19
305.47	1468.39
305.68	1452.01
305.90	1331.18
306.11	1429.48
306.33	1363.95
306.54	1341.42
306.75	1361.90
306.97	1267.69
307.18	1327.08
307.39	1306.60
307.61	1433.58
307.82	1337.32
308.04	1431.53
308.25	1339.37
308.46	1429.48
308.68	1359.85
308.89	1417.19
309.10	1478.63
309.32	1402.86
309.53	1394.67
309.74	1435.63
309.96	1339.37
310.17	1427.43
310.39	1376.24
310.60	1384.43
310.81	1329.13
311.03	1304.56
311.24	1435.63
311.45	1376.24
311.67	1351.66
311.88	1384.43
312.09	1308.65
312.31	1345.52
312.52	1359.85
312.73	1404.91
312.95	1380.33
313.16	1368.04
313.37	1466.35
313.59	1384.43
313.80	1355.76
314.01	1413.10
314.23	1331.18
314.44	1306.60
314.65	1361.90
314.87	1386.47
315.08	1355.76
315.29	1298.41
315.51	1388.52
315.72	1312.75
315.93	1419.24
316.15	1374.19
316.36	1322.99
316.57	1337.32
316.79	1335.28
317.00	1296.36
317.21	1404.91
317.43	1355.76
317.64	1337.32
317.85	1445.87
318.07	1363.95
318.28	1445.87
318.49	1619.94
318.70	1574.89
318.92	1437.67
319.13	1552.36
319.34	1521.64
319.56	1462.25
319.77	1456.11
319.98	1447.91
320.20	1415.15
320.41	1452.01
320.62	1482.73
320.83	1374.19
321.05	1472.49
321.26	1419.24
321.47	1353.71
321.69	1355.76
321.90	1425.39
322.11	1312.75
322.32	1421.29
322.54	1409.00
322.75	1394.67
322.96	1411.05
323.18	1384.43
323.39	1261.55
323.60	1384.43
323.81	1368.04
324.03	1415.15
324.24	1386.47
324.45	1462.25
324.66	1288.17
324.88	1435.63
325.09	1384.43
325.30	1366.00
325.52	1411.05
325.73	1351.66
325.94	1370.09
326.15	1359.85
326.37	1353.71
326.58	1462.25
326.79	1431.53
327.00	1343.47
327.22	1417.19
327.43	1404.91
327.64	1361.90
327.85	1435.63
328.07	1343.47
328.28	1445.87
328.49	1306.60
328.70	1359.85
328.92	1302.51
329.13	1300.46
329.34	1488.87
329.55	1433.58
329.76	1460.20
329.98	1325.04
330.19	1359.85
330.40	1419.24
330.61	1443.82
330.83	1386.47
331.04	1322.99
331.25	1353.71
331.46	1292.27
331.68	1302.51
331.89	1417.19
332.10	1370.09
332.31	1265.64
332.52	1392.62
332.74	1423.34
332.95	1290.22
333.16	1363.95
333.37	1443.82
333.58	1329.13
333.80	1372.14
334.01	1320.94
334.22	1374.19
334.43	1327.08
334.64	1318.89
334.86	1282.03
335.07	1310.70
335.28	1396.71
335.49	1316.84
335.70	1359.85
335.92	1427.43
336.13	1468.39
336.34	1429.48
336.55	1464.30
336.76	1349.61
336.98	1376.24
337.19	1357.80
337.40	1441.77
337.61	1501.16
337.82	1261.55
338.04	1374.19
338.25	1265.64
338.46	1406.95
338.67	1398.76
338.88	1345.52
339.09	1380.33
339.31	1384.43
339.52	1298.41
339.73	1376.24
339.94	1341.42
340.15	1462.25
340.36	1370.09
340.58	1359.85
340.79	1363.95
341.00	1384.43
341.21	1337.32
341.42	1413.10
341.63	1366.00
341.85	1392.62
342.06	1486.83
342.27	1454.06
342.48	1431.53
342.69	1349.61
342.90	1345.52
343.12	1357.80
343.33	1406.95
343.54	1497.07
343.75	1359.85
343.96	1366.00
344.17	1359.85
344.38	1351.66
344.60	1320.94
344.81	1357.80
345.02	1337.32
345.23	1388.52
345.44	1404.91
345.65	1433.58
345.86	1452.01
346.07	1331.18
346.29	1396.71
346.50	1396.71
346.71	1425.39
346.92	1435.63
347.13	1468.39
347.34	1347.56
347.55	1388.52
347.76	1343.47
347.98	1267.69
348.19	1402.86
348.40	1435.63
348.61	1325.04
348.82	1388.52
349.03	1449.96
349.24	1400.81
349.45	1394.67
349.66	1331.18
349.88	1316.84
350.09	1363.95
350.30	1406.95
350.51	1368.04
350.72	1335.28
350.93	1409.00
351.14	1327.08
351.35	1380.33
351.56	1384.43
351.77	1396.71
351.99	1423.34
352.20	1425.39
352.41	1439.72
352.62	1320.94
352.83	1439.72
353.04	1361.90
353.25	1368.04
353.46	1392.62
353.67	1298.41
353.88	1308.65
354.09	1355.76
354.30	1343.47
354.52	1382.38
354.73	1339.37
354.94	1310.70
355.15	1396.71
355.36	1464.30
355.57	1382.38
355.78	1308.65
355.99	1298.41
356.20	1390.57
356.41	1406.95
356.62	1384.43
356.83	1351.66
357.04	1413.10
357.25	1214.45
357.46	1378.28
357.68	1392.62
357.89	1298.41
358.10	1337.32
358.31	1331.18
358.52	1255.40
358.73	1314.80
358.94	1370.09
359.15	1390.57
359.36	1347.56
359.57	1363.95
359.78	1376.24
359.99	1335.28
360.20	1310.70
360.41	1402.86
360.62	1413.10
360.83	1449.96
361.04	1429.48
361.25	1400.81
361.46	1423.34
361.67	1415.15
361.88	1337.32
362.09	1320.94
362.30	1394.67
362.51	1355.76
362.72	1425.39
362.93	1488.87
363.14	1394.67
363.35	1333.23
363.56	1341.42
363.78	1341.42
363.99	1427.43
364.20	1435.63
364.41	1372.14
364.62	1468.39
364.83	1370.09
365.04	1298.41
365.25	1427.43
365.46	1495.02
365.67	1329.13
365.88	1341.42
366.09	1419.24
366.30	1312.75
366.51	1374.19
366.72	1374.19
366.93	1337.32
367.14	1359.85
367.35	1437.67
367.56	1392.62
367.77	1435.63
367.98	1421.29
368.18	1339.37
368.39	1374.19
368.60	1292.27
368.81	1421.29
369.02	1462.25
369.23	1331.18
369.44	1368.04
369.65	1419.24
369.86	1394.67
370.07	1413.10
370.28	1339.37
370.49	1456.11
370.70	1406.95
370.91	1296.36
371.12	1353.71
371.33	1443.82
371.54	1382.38
371.75	1329.13
371.96	1322.99
372.17	1404.91
372.38	1378.28
372.59	1355.76
372.80	1372.14
373.01	1406.95
373.22	1355.76
373.43	1322.99
373.64	1269.74
373.85	1413.10
374.06	1396.71
374.26	1400.81
374.47	1368.04
374.68	1423.34
374.89	1325.04
375.10	1435.63
375.31	1378.28
375.52	1296.36
375.73	1374.19
375.94	1370.09
376.15	1382.38
376.36	1341.42
376.57	1318.89
376.78	1390.57
376.99	1368.04
377.20	1402.86
377.40	1347.56
377.61	1478.63
377.82	1337.32
378.03	1320.94
378.24	1380.33
378.45	1353.71
378.66	1452.01
378.87	1327.08
379.08	1390.57
379.29	1282.03
379.50	1421.29
379.71	1269.74
379.91	1361.90
380.12	1372.14
380.33	1384.43
380.54	1374.19
380.75	1394.67
380.96	1349.61
381.17	1456.11
381.38	1411.05
381.59	1439.72
381.80	1409.00
382.00	1527.78
382.21	1435.63
382.42	1458.15
382.63	1482.73
382.84	1435.63
383.05	1402.86
383.26	1413.10
383.47	1437.67
383.68	1402.86
383.88	1423.34
384.09	1411.05
384.30	1439.72
384.51	1409.00
384.72	1341.42
384.93	1306.60
385.14	1372.14
385.35	1368.04
385.55	1314.80
385.76	1480.68
385.97	1376.24
386.18	1402.86
386.39	1316.84
386.60	1382.38
386.81	1433.58
387.02	1425.39
387.22	1406.95
387.43	1464.30
387.64	1574.89
387.85	2193.37
388.06	5636.01
388.27	9561.97
388.48	11231.06
388.68	12818.24
388.89	13127.48
389.10	10325.86
389.31	9101.17
389.52	8187.78
389.73	7327.63
389.93	6750.10
390.14	6469.53
390.35	5793.70
390.56	5521.32
390.77	4698.04
390.98	3733.45
391.18	2840.53
391.39	2119.65
391.60	1785.83
391.81	1521.64
392.02	1435.63
392.23	1564.65
392.43	1437.67
392.64	1462.25
392.85	1370.09
393.06	1437.67
393.27	1439.72
393.47	1411.05
393.68	1396.71
393.89	1427.43
394.10	1411.05
394.31	1353.71
394.52	1384.43
394.72	1445.87
394.93	1388.52
395.14	1304.56
395.35	1404.91
395.56	1411.05
395.76	1507.30
395.97	1576.94
396.18	1560.55
396.39	1605.61
396.60	1671.14
396.80	1546.22
397.01	1568.74
397.22	1497.07
397.43	1454.06
397.64	1445.87
397.84	1470.44
398.05	1521.64
398.26	1511.40
398.47	1466.35
398.67	1439.72
398.88	1368.04
399.09	1388.52
399.30	1380.33
399.51	1437.67
399.71	1306.60
399.92	1411.05
400.13	1396.71
400.34	1396.71
400.54	1404.91
400.75	1390.57
400.96	1384.43
401.17	1482.73
401.37	1409.00
401.58	1417.19
401.79	1474.54
402.00	1697.77
402.21	1816.55
402.41	1732.58
402.62	1763.30
402.83	1728.49
403.04	1703.91
403.24	1742.82
403.45	1535.98
403.66	1583.08
403.87	1517.54
404.07	1615.85
404.28	1587.18
404.49	1501.16
404.70	1509.35
404.90	1419.24
405.11	1400.81
405.32	1482.73
405.52	1425.39
405.73	1368.04
405.94	1341.42
406.15	1310.70
406.35	1368.04
406.56	1355.76
406.77	1394.67
406.98	1421.29
407.18	1306.60
407.39	1441.77
407.60	1298.41
407.80	1337.32
408.01	1400.81
408.22	1419.24
408.43	1349.61
408.63	1361.90
408.84	1417.19
409.05	1421.29
409.25	1310.70
409.46	1460.20
409.67	1368.04
409.88	1400.81
410.08	1486.83
410.29	1349.61
410.50	1411.05
410.70	1394.67
410.91	1314.80
411.12	1441.77
411.32	1435.63
411.53	1333.23
411.74	1404.91
411.95	1515.50
412.15	1464.30
412.36	1380.33
412.57	1445.87
412.77	1413.10
412.98	1404.91
413.19	1400.81
413.39	1427.43
413.60	1404.91
413.81	1503.21
414.01	1409.00
414.22	1372.14
414.43	1378.28
414.63	1366.00
414.84	1396.71
415.05	1376.24
415.25	1318.89
415.46	1384.43
415.67	1394.67
415.87	1372.14
416.08	1429.48
416.29	1376.24
416.49	1394.67
416.70	1292.27
416.91	1406.95
417.11	1380.33
417.32	1404.91
417.53	1392.62
417.73	1439.72
417.94	1370.09
418.15	1380.33
418.35	1329.13
418.56	1464.30
418.77	1458.15
418.97	1402.86
419.18	1357.80
419.38	1239.02
419.59	1404.91
419.80	1478.63
420.00	1353.71
420.21	1423.34
420.42	1445.87
420.62	1363.95
420.83	1296.36
421.04	1341.42
421.24	1345.52
421.45	1333.23
421.65	1302.51
421.86	1343.47
422.07	1421.29
422.27	1390.57
422.48	1398.76
422.69	1306.60
422.89	1355.76
423.10	1388.52
423.30	1378.28
423.51	1435.63
423.72	1312.75
423.92	1368.04
424.13	1337.32
424.33	1388.52
424.54	1359.85
424.75	1361.90
424.95	1388.52
425.16	1413.10
425.36	1345.52
425.57	1404.91
425.78	1427.43
425.98	1466.35
426.19	1372.14
426.39	1318.89
426.60	1327.08
426.81	1441.77
427.01	1415.15
427.22	1357.80
427.42	1345.52
427.63	1345.52
427.83	1361.90
428.04	1398.76
428.25	1343.47
428.45	1429.48
428.66	1382.38
428.86	1372.14
429.07	1325.04
429.28	1355.76
429.48	1402.86
429.69	1363.95
429.89	1374.19
430.10	1294.32
430.30	1368.04
430.51	1449.96
430.71	1384.43
430.92	1394.67
431.13	1388.52
431.33	1378.28
431.54	1447.91
431.74	1402.86
431.95	1421.29
432.15	1343.47
432.36	1304.56
432.56	1388.52
432.77	1411.05
432.98	1400.81
433.18	1308.65
433.39	1339.37
433.59	1341.42
433.80	1488.87
434.00	1411.05
434.21	1296.36
434.41	1329.13
434.62	1413.10
434.82	1343.47
435.03	1370.09
435.23	1409.00
435.44	1396.71
435.64	1368.04
435.85	1322.99
436.06	1419.24
436.26	1449.96
436.47	1374.19
436.67	1355.76
436.88	1349.61
437.08	1370.09
437.29	1474.54
437.49	1366.00
437.70	1433.58
437.90	1445.87
438.11	1472.49
438.31	1503.21
438.52	1599.46
438.72	1511.40
438.93	1621.99
439.13	1445.87
439.34	1462.25
439.54	1359.85
439.75	1429.48
439.95	1480.68
440.16	1392.62
440.36	1402.86
440.57	1460.20
440.77	1343.47
440.98	1415.15
441.18	1382.38
441.39	1361.90
441.59	1318.89
441.80	1476.59
442.00	1445.87
442.21	1421.29
442.41	1382.38
442.62	1392.62
442.82	1386.47
443.02	1406.95
443.23	1439.72
443.43	1355.76
443.64	1476.59
443.84	1441.77
444.05	1515.50
444.25	1437.67
444.46	1374.19
444.66	1372.14
444.87	1443.82
445.07	1288.17
445.28	1411.05
445.48	1433.58
445.69	1462.25
445.89	1519.59
446.09	1509.35
446.30	2342.88
446.50	3557.32
446.71	4544.44
446.91	5285.81
447.12	5543.85
447.32	4943.80
447.53	4243.39
447.73	3790.79
447.93	3344.33
448.14	3198.93
448.34	2957.27
448.55	2789.33
448.75	2709.46
448.96	2697.17
449.16	2371.55
449.36	2215.90
449.57	1939.43
449.77	1683.43
449.98	1566.70
450.18	1476.59
450.39	1484.78
450.59	1417.19
450.79	1337.32
451.00	1355.76
451.20	1427.43
451.41	1417.19
451.61	1368.04
451.81	1363.95
452.02	1341.42
452.22	1341.42
452.43	1380.33
452.63	1490.92
