SpectraSuite Data File
++++++++++++++++++++++++++++++++++++
Date: Tue May 03 11:24:35 CEST 2016
User: root
Dark Spectrum Present: No
Reference Spectrum Present: No
Number of Sampled Component Spectra: 1
Spectrometers: USB4C02835
Integration Time (usec): 100000 (USB4C02835)
Spectra Averaged: 1 (USB4C02835)
Boxcar Smoothing: 0 (USB4C02835)
Correct for Electrical Dark: No (USB4C02835)
Strobe/Lamp Enabled: No (USB4C02835)
Correct for Detector Non-linearity: No (USB4C02835)
Correct for Stray Light: No (USB4C02835)
Number of Pixels in Processed Spectrum: 3648
>>>>>Begin Processed Spectral Data<<<<<
177.47	1232.88
177.69	1232.88
177.91	1232.88
178.13	1118.19
178.36	1232.88
178.58	1261.55
178.80	1366.00
179.02	1374.19
179.24	1331.18
179.46	1318.89
179.68	1402.86
179.90	1341.42
180.13	1370.09
180.35	1388.52
180.57	1392.62
180.79	1406.95
181.01	1370.09
181.23	1374.19
181.45	1492.97
181.67	1443.82
181.90	1409.00
182.12	1366.00
182.34	1380.33
182.56	1366.00
182.78	1390.57
183.00	1366.00
183.22	1353.71
183.44	1314.80
183.66	1466.35
183.89	1417.19
184.11	1347.56
184.33	1394.67
184.55	1429.48
184.77	1322.99
184.99	1368.04
185.21	1398.76
185.43	1425.39
185.65	1382.38
185.87	1386.47
186.10	1406.95
186.32	1394.67
186.54	1353.71
186.76	1431.53
186.98	1425.39
187.20	1322.99
187.42	1331.18
187.64	1404.91
187.86	1339.37
188.08	1406.95
188.30	1402.86
188.52	1396.71
188.75	1490.92
188.97	1404.91
189.19	1331.18
189.41	1339.37
189.63	1388.52
189.85	1257.45
190.07	1368.04
190.29	1368.04
190.51	1341.42
190.73	1304.56
190.95	1353.71
191.17	1388.52
191.39	1363.95
191.61	1359.85
191.84	1363.95
192.06	1413.10
192.28	1372.14
192.50	1486.83
192.72	1380.33
192.94	1394.67
193.16	1445.87
193.38	1370.09
193.60	1374.19
193.82	1386.47
194.04	1400.81
194.26	1390.57
194.48	1417.19
194.70	1382.38
194.92	1396.71
195.14	1343.47
195.36	1370.09
195.58	1425.39
195.80	1327.08
196.02	1314.80
196.24	1335.28
196.46	1421.29
196.69	1357.80
196.91	1427.43
197.13	1431.53
197.35	1380.33
197.57	1449.96
197.79	1355.76
198.01	1382.38
198.23	1404.91
198.45	1417.19
198.67	1337.32
198.89	1327.08
199.11	1345.52
199.33	1370.09
199.55	1347.56
199.77	1411.05
199.99	1445.87
200.21	1380.33
200.43	1378.28
200.65	1333.23
200.87	1329.13
201.09	1353.71
201.31	1345.52
201.53	1372.14
201.75	1359.85
201.97	1368.04
202.19	1316.84
202.41	1429.48
202.63	1433.58
202.85	1388.52
203.07	1409.00
203.29	1409.00
203.51	1363.95
203.73	1339.37
203.95	1435.63
204.17	1374.19
204.39	1372.14
204.61	1337.32
204.83	1378.28
205.05	1419.24
205.27	1490.92
205.49	1462.25
205.71	1378.28
205.93	1357.80
206.15	1347.56
206.37	1312.75
206.59	1361.90
206.81	1363.95
207.03	1355.76
207.25	1370.09
207.47	1318.89
207.69	1386.47
207.91	1384.43
208.13	1349.61
208.34	1351.66
208.56	1347.56
208.78	1417.19
209.00	1327.08
209.22	1263.60
209.44	1333.23
209.66	1335.28
209.88	1390.57
210.10	1294.32
210.32	1374.19
210.54	1363.95
210.76	1415.15
210.98	1355.76
211.20	1308.65
211.42	1466.35
211.64	1394.67
211.86	1404.91
212.08	1454.06
212.30	1402.86
212.52	1380.33
212.74	1392.62
212.96	1384.43
213.17	1396.71
213.39	1388.52
213.61	1476.59
213.83	1431.53
214.05	1363.95
214.27	1386.47
214.49	1302.51
214.71	1335.28
214.93	1374.19
215.15	1361.90
215.37	1378.28
215.59	1271.79
215.81	1392.62
216.03	1429.48
216.24	1402.86
216.46	1398.76
216.68	1462.25
216.90	1409.00
217.12	1445.87
217.34	1398.76
217.56	1406.95
217.78	1454.06
218.00	1351.66
218.22	1388.52
218.44	1388.52
218.66	1437.67
218.87	1400.81
219.09	1437.67
219.31	1406.95
219.53	1359.85
219.75	1331.18
219.97	1388.52
220.19	1347.56
220.41	1386.47
220.63	1331.18
220.85	1421.29
221.06	1343.47
221.28	1337.32
221.50	1419.24
221.72	1390.57
221.94	1388.52
222.16	1310.70
222.38	1392.62
222.60	1380.33
222.82	1370.09
223.03	1392.62
223.25	1269.74
223.47	1372.14
223.69	1437.67
223.91	1404.91
224.13	1345.52
224.35	1445.87
224.57	1411.05
224.78	1361.90
225.00	1363.95
225.22	1296.36
225.44	1406.95
225.66	1476.59
225.88	1327.08
226.10	1470.44
226.32	1310.70
226.53	1361.90
226.75	1282.03
226.97	1374.19
227.19	1384.43
227.41	1318.89
227.63	1320.94
227.85	1284.08
228.06	1329.13
228.28	1329.13
228.50	1437.67
228.72	1347.56
228.94	1363.95
229.16	1355.76
229.37	1355.76
229.59	1396.71
229.81	1411.05
230.03	1359.85
230.25	1294.32
230.47	1322.99
230.69	1380.33
230.90	1415.15
231.12	1331.18
231.34	1355.76
231.56	1406.95
231.78	1366.00
232.00	1331.18
232.21	1329.13
232.43	1314.80
232.65	1241.07
232.87	1415.15
233.09	1417.19
233.30	1368.04
233.52	1396.71
233.74	1372.14
233.96	1380.33
234.18	1363.95
234.40	1380.33
234.61	1462.25
234.83	1302.51
235.05	1327.08
235.27	1435.63
235.49	1404.91
235.70	1398.76
235.92	1454.06
236.14	1464.30
236.36	1468.39
236.58	1349.61
236.79	1355.76
237.01	1427.43
237.23	1341.42
237.45	1441.77
237.67	1388.52
237.88	1310.70
238.10	1374.19
238.32	1345.52
238.54	1333.23
238.76	1390.57
238.97	1384.43
239.19	1380.33
239.41	1322.99
239.63	1378.28
239.85	1355.76
240.06	1411.05
240.28	1320.94
240.50	1366.00
240.72	1376.24
240.93	1392.62
241.15	1417.19
241.37	1394.67
241.59	1329.13
241.81	1400.81
242.02	1343.47
242.24	1327.08
242.46	1327.08
242.68	1390.57
242.89	1433.58
243.11	1347.56
243.33	1396.71
243.55	1394.67
243.76	1341.42
243.98	1327.08
244.20	1437.67
244.42	1392.62
244.64	1396.71
244.85	1312.75
245.07	1288.17
245.29	1454.06
245.51	1361.90
245.72	1380.33
245.94	1476.59
246.16	1316.84
246.38	1386.47
246.59	1353.71
246.81	1275.88
247.03	1331.18
247.24	1355.76
247.46	1396.71
247.68	1359.85
247.90	1382.38
248.11	1396.71
248.33	1437.67
248.55	1294.32
248.77	1374.19
248.98	1415.15
249.20	1490.92
249.42	1337.32
249.64	1376.24
249.85	1363.95
250.07	1349.61
250.29	1392.62
250.50	1505.26
250.72	1241.07
250.94	1470.44
251.16	1468.39
251.37	1486.83
251.59	1380.33
251.81	1378.28
252.02	1492.97
252.24	1368.04
252.46	1400.81
252.68	1316.84
252.89	1353.71
253.11	1325.04
253.33	1449.96
253.54	1353.71
253.76	1279.98
253.98	1361.90
254.20	1423.34
254.41	1380.33
254.63	1378.28
254.85	1261.55
255.06	1409.00
255.28	1351.66
255.50	1337.32
255.71	1378.28
255.93	1275.88
256.15	1361.90
256.36	1359.85
256.58	1435.63
256.80	1392.62
257.02	1351.66
257.23	1384.43
257.45	1409.00
257.67	1433.58
257.88	1345.52
258.10	1357.80
258.32	1339.37
258.53	1437.67
258.75	1382.38
258.97	1363.95
259.18	1388.52
259.40	1320.94
259.62	1439.72
259.83	1380.33
260.05	1372.14
260.27	1544.17
260.48	1345.52
260.70	1271.79
260.92	1386.47
261.13	1380.33
261.35	1382.38
261.57	1406.95
261.78	1316.84
262.00	1359.85
262.22	1404.91
262.43	1331.18
262.65	1333.23
262.86	1345.52
263.08	1429.48
263.30	1376.24
263.51	1363.95
263.73	1370.09
263.95	1355.76
264.16	1298.41
264.38	1339.37
264.60	1390.57
264.81	1368.04
265.03	1411.05
265.25	1366.00
265.46	1388.52
265.68	1421.29
265.89	1415.15
266.11	1366.00
266.33	1386.47
266.54	1376.24
266.76	1466.35
266.98	1312.75
267.19	1437.67
267.41	1411.05
267.62	1404.91
267.84	1372.14
268.06	1333.23
268.27	1345.52
268.49	1409.00
268.70	1429.48
268.92	1372.14
269.14	1294.32
269.35	1339.37
269.57	1425.39
269.79	1386.47
270.00	1341.42
270.22	1390.57
270.43	1333.23
270.65	1314.80
270.87	1402.86
271.08	1378.28
271.30	1374.19
271.51	1341.42
271.73	1402.86
271.95	1439.72
272.16	1419.24
272.38	1390.57
272.59	1390.57
272.81	1472.49
273.02	1382.38
273.24	1366.00
273.46	1470.44
273.67	1374.19
273.89	1314.80
274.10	1368.04
274.32	1429.48
274.54	1380.33
274.75	1396.71
274.97	1322.99
275.18	1382.38
275.40	1411.05
275.61	1341.42
275.83	1347.56
276.05	1310.70
276.26	1296.36
276.48	1368.04
276.69	1347.56
276.91	1388.52
277.12	1441.77
277.34	1437.67
277.55	1335.28
277.77	1382.38
277.99	1355.76
278.20	1345.52
278.42	1370.09
278.63	1343.47
278.85	1378.28
279.06	1337.32
279.28	1382.38
279.49	1388.52
279.71	1378.28
279.93	1390.57
280.14	1329.13
280.36	1257.45
280.57	1411.05
280.79	1378.28
281.00	1329.13
281.22	1388.52
281.43	1357.80
281.65	1292.27
281.86	1304.56
282.08	1370.09
282.29	1435.63
282.51	1404.91
282.73	1302.51
282.94	1302.51
283.16	1302.51
283.37	1476.59
283.59	1394.67
283.80	1423.34
284.02	1325.04
284.23	1406.95
284.45	1368.04
284.66	1298.41
284.88	1419.24
285.09	1431.53
285.31	1411.05
285.52	1417.19
285.74	1331.18
285.95	1384.43
286.17	1312.75
286.38	1331.18
286.60	1411.05
286.81	1378.28
287.03	1384.43
287.24	1337.32
287.46	1347.56
287.67	1300.46
287.89	1419.24
288.10	1355.76
288.32	1384.43
288.53	1398.76
288.75	1361.90
288.96	1380.33
289.18	1353.71
289.39	1353.71
289.61	1404.91
289.82	1470.44
290.04	1423.34
290.25	1327.08
290.47	1435.63
290.68	1376.24
290.90	1396.71
291.11	1353.71
291.33	1495.02
291.54	1308.65
291.76	1380.33
291.97	1404.91
292.18	1468.39
292.40	1368.04
292.61	1359.85
292.83	1468.39
293.04	1320.94
293.26	1372.14
293.47	1341.42
293.69	1337.32
293.90	1368.04
294.12	1433.58
294.33	1359.85
294.55	1359.85
294.76	1359.85
294.97	1435.63
295.19	1460.20
295.40	1386.47
295.62	1314.80
295.83	1409.00
296.05	1325.04
296.26	1396.71
296.48	1378.28
296.69	1347.56
296.90	1427.43
297.12	1417.19
297.33	1368.04
297.55	1339.37
297.76	1394.67
297.98	1400.81
298.19	1372.14
298.41	1353.71
298.62	1298.41
298.83	1374.19
299.05	1384.43
299.26	1431.53
299.48	1304.56
299.69	1363.95
299.90	1388.52
300.12	1308.65
300.33	1386.47
300.55	1435.63
300.76	1409.00
300.98	1320.94
301.19	1357.80
301.40	1345.52
301.62	1380.33
301.83	1363.95
302.05	1429.48
302.26	1429.48
302.47	1394.67
302.69	1316.84
302.90	1355.76
303.12	1322.99
303.33	1417.19
303.54	1431.53
303.76	1415.15
303.97	1384.43
304.19	1386.47
304.40	1282.03
304.61	1380.33
304.83	1394.67
305.04	1368.04
305.26	1386.47
305.47	1406.95
305.68	1382.38
305.90	1294.32
306.11	1415.15
306.33	1355.76
306.54	1411.05
306.75	1396.71
306.97	1267.69
307.18	1353.71
307.39	1333.23
307.61	1460.20
307.82	1376.24
308.04	1419.24
308.25	1327.08
308.46	1441.77
308.68	1347.56
308.89	1396.71
309.10	1456.11
309.32	1404.91
309.53	1435.63
309.74	1411.05
309.96	1325.04
310.17	1361.90
310.39	1388.52
310.60	1468.39
310.81	1370.09
311.03	1318.89
311.24	1433.58
311.45	1357.80
311.67	1445.87
311.88	1415.15
312.09	1374.19
312.31	1359.85
312.52	1417.19
312.73	1286.12
312.95	1349.61
313.16	1368.04
313.37	1421.29
313.59	1339.37
313.80	1402.86
314.01	1484.78
314.23	1308.65
314.44	1404.91
314.65	1288.17
314.87	1314.80
315.08	1413.10
315.29	1376.24
315.51	1282.03
315.72	1316.84
315.93	1460.20
316.15	1478.63
316.36	1329.13
316.57	1314.80
316.79	1394.67
317.00	1415.15
317.21	1456.11
317.43	1370.09
317.64	1370.09
317.85	1411.05
318.07	1406.95
318.28	1462.25
318.49	1560.55
318.70	1640.42
318.92	1482.73
319.13	1462.25
319.34	1566.70
319.56	1568.74
319.77	1472.49
319.98	1507.30
320.20	1337.32
320.41	1464.30
320.62	1374.19
320.83	1355.76
321.05	1503.21
321.26	1394.67
321.47	1392.62
321.69	1525.74
321.90	1247.21
322.11	1378.28
322.32	1349.61
322.54	1462.25
322.75	1392.62
322.96	1456.11
323.18	1308.65
323.39	1333.23
323.60	1345.52
323.81	1413.10
324.03	1316.84
324.24	1331.18
324.45	1335.28
324.66	1357.80
324.88	1390.57
325.09	1388.52
325.30	1388.52
325.52	1380.33
325.73	1320.94
325.94	1378.28
326.15	1347.56
326.37	1345.52
326.58	1439.72
326.79	1396.71
327.00	1267.69
327.22	1400.81
327.43	1273.84
327.64	1339.37
327.85	1429.48
328.07	1398.76
328.28	1359.85
328.49	1388.52
328.70	1368.04
328.92	1327.08
329.13	1372.14
329.34	1427.43
329.55	1329.13
329.76	1447.91
329.98	1355.76
330.19	1382.38
330.40	1327.08
330.61	1380.33
330.83	1320.94
331.04	1290.22
331.25	1372.14
331.46	1329.13
331.68	1376.24
331.89	1366.00
332.10	1302.51
332.31	1296.36
332.52	1376.24
332.74	1392.62
332.95	1366.00
333.16	1372.14
333.37	1402.86
333.58	1394.67
333.80	1374.19
334.01	1347.56
334.22	1335.28
334.43	1320.94
334.64	1259.50
334.86	1419.24
335.07	1355.76
335.28	1423.34
335.49	1349.61
335.70	1433.58
335.92	1374.19
336.13	1413.10
336.34	1415.15
336.55	1335.28
336.76	1429.48
336.98	1310.70
337.19	1341.42
337.40	1503.21
337.61	1472.49
337.82	1388.52
338.04	1421.29
338.25	1327.08
338.46	1355.76
338.67	1331.18
338.88	1343.47
339.09	1310.70
339.31	1341.42
339.52	1388.52
339.73	1306.60
339.94	1454.06
340.15	1378.28
340.36	1318.89
340.58	1411.05
340.79	1292.27
341.00	1333.23
341.21	1384.43
341.42	1419.24
341.63	1388.52
341.85	1380.33
342.06	1355.76
342.27	1327.08
342.48	1425.39
342.69	1351.66
342.90	1322.99
343.12	1347.56
343.33	1390.57
343.54	1400.81
343.75	1443.82
343.96	1374.19
344.17	1275.88
344.38	1421.29
344.60	1359.85
344.81	1333.23
345.02	1335.28
345.23	1400.81
345.44	1388.52
345.65	1378.28
345.86	1411.05
346.07	1320.94
346.29	1322.99
346.50	1335.28
346.71	1382.38
346.92	1466.35
347.13	1404.91
347.34	1333.23
347.55	1454.06
347.76	1429.48
347.98	1359.85
348.19	1357.80
348.40	1503.21
348.61	1353.71
348.82	1460.20
349.03	1413.10
349.24	1316.84
349.45	1394.67
349.66	1349.61
349.88	1316.84
350.09	1355.76
350.30	1433.58
350.51	1419.24
350.72	1359.85
350.93	1363.95
351.14	1388.52
351.35	1394.67
351.56	1419.24
351.77	1406.95
351.99	1394.67
352.20	1411.05
352.41	1452.01
352.62	1302.51
352.83	1380.33
353.04	1398.76
353.25	1363.95
353.46	1476.59
353.67	1337.32
353.88	1327.08
354.09	1343.47
354.30	1425.39
354.52	1409.00
354.73	1404.91
354.94	1423.34
355.15	1327.08
355.36	1497.07
355.57	1349.61
355.78	1437.67
355.99	1318.89
356.20	1312.75
356.41	1400.81
356.62	1372.14
356.83	1355.76
357.04	1480.68
357.25	1359.85
357.46	1361.90
357.68	1325.04
357.89	1400.81
358.10	1394.67
358.31	1368.04
358.52	1396.71
358.73	1322.99
358.94	1341.42
359.15	1388.52
359.36	1378.28
359.57	1333.23
359.78	1443.82
359.99	1386.47
360.20	1433.58
360.41	1341.42
360.62	1394.67
360.83	1392.62
361.04	1394.67
361.25	1439.72
361.46	1384.43
361.67	1386.47
361.88	1421.29
362.09	1454.06
362.30	1322.99
362.51	1351.66
362.72	1384.43
362.93	1413.10
363.14	1400.81
363.35	1372.14
363.56	1378.28
363.78	1376.24
363.99	1456.11
364.20	1353.71
364.41	1431.53
364.62	1519.59
364.83	1335.28
365.04	1378.28
365.25	1433.58
365.46	1441.77
365.67	1366.00
365.88	1347.56
366.09	1318.89
366.30	1345.52
366.51	1396.71
366.72	1341.42
366.93	1312.75
367.14	1429.48
367.35	1363.95
367.56	1394.67
367.77	1542.12
367.98	1374.19
368.18	1406.95
368.39	1435.63
368.60	1341.42
368.81	1398.76
369.02	1363.95
369.23	1277.93
369.44	1335.28
369.65	1396.71
369.86	1366.00
370.07	1306.60
370.28	1376.24
370.49	1380.33
370.70	1454.06
370.91	1263.60
371.12	1368.04
371.33	1431.53
371.54	1310.70
371.75	1423.34
371.96	1329.13
372.17	1419.24
372.38	1376.24
372.59	1427.43
372.80	1388.52
373.01	1339.37
373.22	1337.32
373.43	1417.19
373.64	1345.52
373.85	1427.43
374.06	1400.81
374.26	1386.47
374.47	1347.56
374.68	1368.04
374.89	1368.04
375.10	1390.57
375.31	1386.47
375.52	1355.76
375.73	1411.05
375.94	1378.28
376.15	1437.67
376.36	1329.13
376.57	1353.71
376.78	1366.00
376.99	1409.00
377.20	1445.87
377.40	1392.62
377.61	1445.87
377.82	1314.80
378.03	1447.91
378.24	1409.00
378.45	1286.12
378.66	1464.30
378.87	1304.56
379.08	1216.49
379.29	1312.75
379.50	1458.15
379.71	1400.81
379.91	1449.96
380.12	1368.04
380.33	1392.62
380.54	1404.91
380.75	1433.58
380.96	1359.85
381.17	1384.43
381.38	1417.19
381.59	1421.29
381.80	1419.24
382.00	1521.64
382.21	1406.95
382.42	1449.96
382.63	1490.92
382.84	1376.24
383.05	1449.96
383.26	1433.58
383.47	1368.04
383.68	1409.00
383.88	1423.34
384.09	1402.86
384.30	1507.30
384.51	1421.29
384.72	1404.91
384.93	1327.08
385.14	1347.56
385.35	1472.49
385.55	1374.19
385.76	1404.91
385.97	1415.15
386.18	1396.71
386.39	1351.66
386.60	1335.28
386.81	1327.08
387.02	1443.82
387.22	1345.52
387.43	1437.67
387.64	1630.18
387.85	2312.16
388.06	5717.93
388.27	9297.78
388.48	11419.47
388.68	13113.14
388.89	13283.13
389.10	10768.22
389.31	9056.12
389.52	8329.09
389.73	7258.00
389.93	7032.72
390.14	6479.77
390.35	6018.98
390.56	5654.44
390.77	4667.32
390.98	3764.17
391.18	2818.00
391.39	2084.83
391.60	1736.68
391.81	1621.99
392.02	1462.25
392.23	1501.16
392.43	1427.43
392.64	1449.96
392.85	1482.73
393.06	1411.05
393.27	1337.32
393.47	1353.71
393.68	1312.75
393.89	1376.24
394.10	1470.44
394.31	1372.14
394.52	1343.47
394.72	1363.95
394.93	1406.95
395.14	1322.99
395.35	1396.71
395.56	1388.52
395.76	1548.26
395.97	1650.66
396.18	1556.46
396.39	1619.94
396.60	1683.43
396.80	1560.55
397.01	1560.55
397.22	1548.26
397.43	1585.13
397.64	1423.34
397.84	1466.35
398.05	1472.49
398.26	1437.67
398.47	1382.38
398.67	1468.39
398.88	1423.34
399.09	1384.43
399.30	1306.60
399.51	1376.24
399.71	1337.32
399.92	1441.77
400.13	1380.33
400.34	1347.56
400.54	1327.08
400.75	1447.91
400.96	1394.67
401.17	1441.77
401.37	1458.15
401.58	1343.47
401.79	1517.54
402.00	1744.87
402.21	1763.30
402.41	1708.01
402.62	1761.25
402.83	1714.15
403.04	1578.98
403.24	1783.78
403.45	1562.60
403.66	1552.36
403.87	1574.89
404.07	1560.55
404.28	1660.90
404.49	1548.26
404.70	1460.20
404.90	1495.02
405.11	1409.00
405.32	1386.47
405.52	1304.56
405.73	1396.71
405.94	1388.52
406.15	1335.28
406.35	1404.91
406.56	1339.37
406.77	1394.67
406.98	1388.52
407.18	1384.43
407.39	1400.81
407.60	1423.34
407.80	1361.90
408.01	1370.09
408.22	1392.62
408.43	1427.43
408.63	1466.35
408.84	1404.91
409.05	1363.95
409.25	1322.99
409.46	1322.99
409.67	1372.14
409.88	1345.52
410.08	1443.82
410.29	1411.05
410.50	1431.53
410.70	1368.04
410.91	1378.28
411.12	1437.67
411.32	1390.57
411.53	1349.61
411.74	1454.06
411.95	1470.44
412.15	1406.95
412.36	1431.53
412.57	1320.94
412.77	1398.76
412.98	1447.91
413.19	1441.77
413.39	1378.28
413.60	1429.48
413.81	1476.59
414.01	1386.47
414.22	1443.82
414.43	1429.48
414.63	1484.78
414.84	1339.37
415.05	1359.85
415.25	1339.37
415.46	1472.49
415.67	1413.10
415.87	1402.86
416.08	1357.80
416.29	1368.04
416.49	1423.34
416.70	1341.42
416.91	1423.34
417.11	1341.42
417.32	1411.05
417.53	1409.00
417.73	1355.76
417.94	1382.38
418.15	1413.10
418.35	1341.42
418.56	1406.95
418.77	1443.82
418.97	1388.52
419.18	1335.28
419.38	1257.45
419.59	1318.89
419.80	1423.34
420.00	1343.47
420.21	1351.66
420.42	1437.67
420.62	1339.37
420.83	1300.46
421.04	1327.08
421.24	1372.14
421.45	1382.38
421.65	1359.85
421.86	1376.24
422.07	1333.23
422.27	1322.99
422.48	1398.76
422.69	1312.75
422.89	1370.09
423.10	1363.95
423.30	1333.23
423.51	1337.32
423.72	1343.47
423.92	1378.28
424.13	1363.95
424.33	1372.14
424.54	1284.08
424.75	1470.44
424.95	1415.15
425.16	1413.10
425.36	1312.75
425.57	1409.00
425.78	1386.47
425.98	1378.28
426.19	1357.80
426.39	1275.88
426.60	1314.80
426.81	1374.19
427.01	1368.04
427.22	1337.32
427.42	1361.90
427.63	1413.10
427.83	1372.14
428.04	1439.72
428.25	1415.15
428.45	1427.43
428.66	1423.34
428.86	1370.09
429.07	1388.52
429.28	1437.67
429.48	1310.70
429.69	1306.60
429.89	1347.56
430.10	1296.36
430.30	1341.42
430.51	1419.24
430.71	1359.85
430.92	1363.95
431.13	1372.14
431.33	1388.52
431.54	1466.35
431.74	1370.09
431.95	1384.43
432.15	1394.67
432.36	1290.22
432.56	1423.34
432.77	1454.06
432.98	1435.63
433.18	1394.67
433.39	1351.66
433.59	1310.70
433.80	1480.68
434.00	1460.20
434.21	1419.24
434.41	1269.74
434.62	1470.44
434.82	1316.84
435.03	1341.42
435.23	1345.52
435.44	1290.22
435.64	1370.09
435.85	1411.05
436.06	1445.87
436.26	1433.58
436.47	1382.38
436.67	1345.52
436.88	1406.95
437.08	1378.28
437.29	1468.39
437.49	1454.06
437.70	1400.81
437.90	1419.24
438.11	1519.59
438.31	1548.26
438.52	1648.61
438.72	1517.54
438.93	1568.74
439.13	1470.44
439.34	1462.25
439.54	1454.06
439.75	1423.34
439.95	1445.87
440.16	1343.47
440.36	1376.24
440.57	1439.72
440.77	1413.10
440.98	1351.66
441.18	1423.34
441.39	1343.47
441.59	1333.23
441.80	1447.91
442.00	1415.15
442.21	1378.28
442.41	1290.22
442.62	1409.00
442.82	1404.91
443.02	1361.90
443.23	1435.63
443.43	1445.87
443.64	1507.30
443.84	1316.84
444.05	1464.30
444.25	1429.48
444.46	1366.00
444.66	1366.00
444.87	1531.88
445.07	1363.95
445.28	1394.67
445.48	1484.78
445.69	1454.06
445.89	1437.67
446.09	1396.71
446.30	2267.10
446.50	3764.17
446.71	4620.22
446.91	5365.68
447.12	5576.62
447.32	5003.19
447.53	4136.90
447.73	3770.31
447.93	3551.18
448.14	3127.25
448.34	2953.17
448.55	2772.95
448.75	2660.31
448.96	2633.69
449.16	2445.27
449.36	2191.33
449.57	1929.19
449.77	1652.71
449.98	1540.07
450.18	1544.17
450.39	1507.30
450.59	1386.47
450.79	1429.48
451.00	1347.56
451.20	1298.41
451.41	1329.13
451.61	1415.15
451.81	1355.76
452.02	1441.77
452.22	1435.63
452.43	1333.23
452.63	1335.28
