SpectraSuite Data File
++++++++++++++++++++++++++++++++++++
Date: Tue May 03 11:24:36 CEST 2016
User: root
Dark Spectrum Present: No
Reference Spectrum Present: No
Number of Sampled Component Spectra: 1
Spectrometers: USB4C02835
Integration Time (usec): 100000 (USB4C02835)
Spectra Averaged: 1 (USB4C02835)
Boxcar Smoothing: 0 (USB4C02835)
Correct for Electrical Dark: No (USB4C02835)
Strobe/Lamp Enabled: No (USB4C02835)
Correct for Detector Non-linearity: No (USB4C02835)
Correct for Stray Light: No (USB4C02835)
Number of Pixels in Processed Spectrum: 3648
>>>>>Begin Processed Spectral Data<<<<<
177.47	1253.36
177.69	1253.36
177.91	1253.36
178.13	1265.64
178.36	1288.17
178.58	1236.97
178.80	1368.04
179.02	1312.75
179.24	1329.13
179.46	1392.62
179.68	1474.54
179.90	1421.29
180.13	1378.28
180.35	1394.67
180.57	1363.95
180.79	1355.76
181.01	1370.09
181.23	1443.82
181.45	1466.35
181.67	1382.38
181.90	1406.95
182.12	1400.81
182.34	1277.93
182.56	1357.80
182.78	1368.04
183.00	1366.00
183.22	1419.24
183.44	1288.17
183.66	1409.00
183.89	1433.58
184.11	1366.00
184.33	1366.00
184.55	1366.00
184.77	1368.04
184.99	1400.81
185.21	1368.04
185.43	1564.65
185.65	1327.08
185.87	1331.18
186.10	1421.29
186.32	1437.67
186.54	1351.66
186.76	1413.10
186.98	1482.73
187.20	1376.24
187.42	1421.29
187.64	1400.81
187.86	1400.81
188.08	1404.91
188.30	1353.71
188.52	1355.76
188.75	1417.19
188.97	1431.53
189.19	1327.08
189.41	1374.19
189.63	1351.66
189.85	1351.66
190.07	1306.60
190.29	1335.28
190.51	1421.29
190.73	1345.52
190.95	1445.87
191.17	1304.56
191.39	1341.42
191.61	1353.71
191.84	1378.28
192.06	1361.90
192.28	1353.71
192.50	1507.30
192.72	1361.90
192.94	1370.09
193.16	1505.26
193.38	1427.43
193.60	1347.56
193.82	1306.60
194.04	1345.52
194.26	1361.90
194.48	1298.41
194.70	1386.47
194.92	1318.89
195.14	1368.04
195.36	1357.80
195.58	1306.60
195.80	1376.24
196.02	1300.46
196.24	1359.85
196.46	1335.28
196.69	1275.88
196.91	1437.67
197.13	1413.10
197.35	1314.80
197.57	1366.00
197.79	1370.09
198.01	1366.00
198.23	1419.24
198.45	1372.14
198.67	1267.69
198.89	1339.37
199.11	1357.80
199.33	1366.00
199.55	1279.98
199.77	1392.62
199.99	1400.81
200.21	1396.71
200.43	1292.27
200.65	1423.34
200.87	1302.51
201.09	1312.75
201.31	1396.71
201.53	1347.56
201.75	1382.38
201.97	1419.24
202.19	1370.09
202.41	1355.76
202.63	1535.98
202.85	1406.95
203.07	1353.71
203.29	1359.85
203.51	1398.76
203.73	1361.90
203.95	1437.67
204.17	1419.24
204.39	1378.28
204.61	1353.71
204.83	1372.14
205.05	1492.97
205.27	1380.33
205.49	1409.00
205.71	1351.66
205.93	1376.24
206.15	1294.32
206.37	1322.99
206.59	1353.71
206.81	1331.18
207.03	1355.76
207.25	1320.94
207.47	1417.19
207.69	1341.42
207.91	1359.85
208.13	1429.48
208.34	1347.56
208.56	1366.00
208.78	1460.20
209.00	1366.00
209.22	1329.13
209.44	1353.71
209.66	1357.80
209.88	1337.32
210.10	1320.94
210.32	1343.47
210.54	1419.24
210.76	1361.90
210.98	1411.05
211.20	1333.23
211.42	1423.34
211.64	1406.95
211.86	1378.28
212.08	1427.43
212.30	1370.09
212.52	1347.56
212.74	1273.84
212.96	1384.43
213.17	1431.53
213.39	1376.24
213.61	1363.95
213.83	1372.14
214.05	1366.00
214.27	1392.62
214.49	1320.94
214.71	1290.22
214.93	1441.77
215.15	1388.52
215.37	1351.66
215.59	1277.93
215.81	1396.71
216.03	1404.91
216.24	1411.05
216.46	1419.24
216.68	1402.86
216.90	1359.85
217.12	1353.71
217.34	1433.58
217.56	1411.05
217.78	1474.54
218.00	1411.05
218.22	1404.91
218.44	1366.00
218.66	1417.19
218.87	1495.02
219.09	1329.13
219.31	1421.29
219.53	1402.86
219.75	1318.89
219.97	1351.66
220.19	1394.67
220.41	1349.61
220.63	1495.02
220.85	1384.43
221.06	1286.12
221.28	1421.29
221.50	1421.29
221.72	1374.19
221.94	1306.60
222.16	1392.62
222.38	1372.14
222.60	1402.86
222.82	1298.41
223.03	1343.47
223.25	1269.74
223.47	1445.87
223.69	1490.92
223.91	1306.60
224.13	1337.32
224.35	1402.86
224.57	1449.96
224.78	1423.34
225.00	1302.51
225.22	1343.47
225.44	1382.38
225.66	1429.48
225.88	1396.71
226.10	1411.05
226.32	1439.72
226.53	1429.48
226.75	1339.37
226.97	1335.28
227.19	1372.14
227.41	1382.38
227.63	1349.61
227.85	1359.85
228.06	1406.95
228.28	1341.42
228.50	1296.36
228.72	1366.00
228.94	1378.28
229.16	1279.98
229.37	1376.24
229.59	1388.52
229.81	1427.43
230.03	1288.17
230.25	1318.89
230.47	1269.74
230.69	1388.52
230.90	1374.19
231.12	1355.76
231.34	1413.10
231.56	1400.81
231.78	1415.15
232.00	1425.39
232.21	1359.85
232.43	1378.28
232.65	1179.63
232.87	1406.95
233.09	1265.64
233.30	1288.17
233.52	1413.10
233.74	1306.60
233.96	1355.76
234.18	1363.95
234.40	1333.23
234.61	1474.54
234.83	1310.70
235.05	1300.46
235.27	1495.02
235.49	1425.39
235.70	1386.47
235.92	1456.11
236.14	1406.95
236.36	1529.83
236.58	1312.75
236.79	1363.95
237.01	1396.71
237.23	1353.71
237.45	1361.90
237.67	1394.67
237.88	1310.70
238.10	1445.87
238.32	1347.56
238.54	1413.10
238.76	1298.41
238.97	1327.08
239.19	1343.47
239.41	1480.68
239.63	1421.29
239.85	1271.79
240.06	1368.04
240.28	1355.76
240.50	1347.56
240.72	1335.28
240.93	1331.18
241.15	1413.10
241.37	1382.38
241.59	1470.44
241.81	1460.20
242.02	1398.76
242.24	1355.76
242.46	1363.95
242.68	1273.84
242.89	1355.76
243.11	1419.24
243.33	1302.51
243.55	1349.61
243.76	1394.67
243.98	1327.08
244.20	1353.71
244.42	1394.67
244.64	1390.57
244.85	1337.32
245.07	1368.04
245.29	1429.48
245.51	1363.95
245.72	1433.58
245.94	1380.33
246.16	1470.44
246.38	1454.06
246.59	1286.12
246.81	1372.14
247.03	1335.28
247.24	1269.74
247.46	1310.70
247.68	1366.00
247.90	1384.43
248.11	1361.90
248.33	1400.81
248.55	1376.24
248.77	1431.53
248.98	1359.85
249.20	1409.00
249.42	1406.95
249.64	1409.00
249.85	1406.95
250.07	1316.84
250.29	1384.43
250.50	1351.66
250.72	1341.42
250.94	1384.43
251.16	1495.02
251.37	1474.54
251.59	1464.30
251.81	1353.71
252.02	1363.95
252.24	1372.14
252.46	1429.48
252.68	1366.00
252.89	1361.90
253.11	1292.27
253.33	1413.10
253.54	1411.05
253.76	1263.60
253.98	1339.37
254.20	1400.81
254.41	1327.08
254.63	1363.95
254.85	1284.08
255.06	1359.85
255.28	1349.61
255.50	1337.32
255.71	1333.23
255.93	1298.41
256.15	1341.42
256.36	1359.85
256.58	1386.47
256.80	1421.29
257.02	1372.14
257.23	1388.52
257.45	1413.10
257.67	1462.25
257.88	1331.18
258.10	1376.24
258.32	1361.90
258.53	1335.28
258.75	1368.04
258.97	1343.47
259.18	1314.80
259.40	1374.19
259.62	1306.60
259.83	1388.52
260.05	1402.86
260.27	1578.98
260.48	1370.09
260.70	1335.28
260.92	1368.04
261.13	1341.42
261.35	1363.95
261.57	1419.24
261.78	1341.42
262.00	1339.37
262.22	1343.47
262.43	1390.57
262.65	1353.71
262.86	1329.13
263.08	1484.78
263.30	1339.37
263.51	1343.47
263.73	1325.04
263.95	1443.82
264.16	1384.43
264.38	1372.14
264.60	1347.56
264.81	1402.86
265.03	1392.62
265.25	1347.56
265.46	1300.46
265.68	1435.63
265.89	1419.24
266.11	1288.17
266.33	1415.15
266.54	1404.91
266.76	1388.52
266.98	1419.24
267.19	1447.91
267.41	1431.53
267.62	1282.03
267.84	1347.56
268.06	1429.48
268.27	1347.56
268.49	1322.99
268.70	1411.05
268.92	1443.82
269.14	1353.71
269.35	1318.89
269.57	1425.39
269.79	1419.24
270.00	1392.62
270.22	1380.33
270.43	1388.52
270.65	1282.03
270.87	1402.86
271.08	1402.86
271.30	1435.63
271.51	1361.90
271.73	1398.76
271.95	1396.71
272.16	1304.56
272.38	1366.00
272.59	1300.46
272.81	1353.71
273.02	1404.91
273.24	1406.95
273.46	1456.11
273.67	1269.74
273.89	1271.79
274.10	1345.52
274.32	1427.43
274.54	1343.47
274.75	1404.91
274.97	1316.84
275.18	1335.28
275.40	1382.38
275.61	1376.24
275.83	1384.43
276.05	1318.89
276.26	1388.52
276.48	1421.29
276.69	1390.57
276.91	1380.33
277.12	1370.09
277.34	1353.71
277.55	1396.71
277.77	1298.41
277.99	1376.24
278.20	1331.18
278.42	1345.52
278.63	1292.27
278.85	1337.32
279.06	1304.56
279.28	1296.36
279.49	1337.32
279.71	1415.15
279.93	1398.76
280.14	1349.61
280.36	1335.28
280.57	1435.63
280.79	1409.00
281.00	1384.43
281.22	1380.33
281.43	1476.59
281.65	1349.61
281.86	1404.91
282.08	1374.19
282.29	1472.49
282.51	1282.03
282.73	1298.41
282.94	1343.47
283.16	1404.91
283.37	1404.91
283.59	1419.24
283.80	1380.33
284.02	1306.60
284.23	1370.09
284.45	1411.05
284.66	1310.70
284.88	1347.56
285.09	1394.67
285.31	1417.19
285.52	1333.23
285.74	1292.27
285.95	1392.62
286.17	1335.28
286.38	1374.19
286.60	1347.56
286.81	1386.47
287.03	1339.37
287.24	1386.47
287.46	1400.81
287.67	1415.15
287.89	1492.97
288.10	1337.32
288.32	1415.15
288.53	1439.72
288.75	1337.32
288.96	1413.10
289.18	1384.43
289.39	1433.58
289.61	1361.90
289.82	1413.10
290.04	1425.39
290.25	1355.76
290.47	1339.37
290.68	1394.67
290.90	1427.43
291.11	1353.71
291.33	1361.90
291.54	1284.08
291.76	1294.32
291.97	1343.47
292.18	1363.95
292.40	1320.94
292.61	1314.80
292.83	1406.95
293.04	1443.82
293.26	1390.57
293.47	1390.57
293.69	1378.28
293.90	1372.14
294.12	1445.87
294.33	1396.71
294.55	1353.71
294.76	1433.58
294.97	1419.24
295.19	1386.47
295.40	1314.80
295.62	1351.66
295.83	1402.86
296.05	1351.66
296.26	1484.78
296.48	1318.89
296.69	1320.94
296.90	1343.47
297.12	1431.53
297.33	1462.25
297.55	1454.06
297.76	1390.57
297.98	1472.49
298.19	1343.47
298.41	1345.52
298.62	1374.19
298.83	1482.73
299.05	1386.47
299.26	1349.61
299.48	1396.71
299.69	1394.67
299.90	1404.91
300.12	1406.95
300.33	1335.28
300.55	1390.57
300.76	1413.10
300.98	1380.33
301.19	1353.71
301.40	1318.89
301.62	1443.82
301.83	1398.76
302.05	1325.04
302.26	1384.43
302.47	1396.71
302.69	1366.00
302.90	1417.19
303.12	1251.31
303.33	1404.91
303.54	1400.81
303.76	1320.94
303.97	1394.67
304.19	1374.19
304.40	1331.18
304.61	1363.95
304.83	1480.68
305.04	1353.71
305.26	1413.10
305.47	1382.38
305.68	1325.04
305.90	1320.94
306.11	1402.86
306.33	1353.71
306.54	1333.23
306.75	1314.80
306.97	1378.28
307.18	1411.05
307.39	1374.19
307.61	1394.67
307.82	1376.24
308.04	1384.43
308.25	1331.18
308.46	1380.33
308.68	1366.00
308.89	1476.59
309.10	1468.39
309.32	1429.48
309.53	1417.19
309.74	1396.71
309.96	1279.98
310.17	1388.52
310.39	1257.45
310.60	1314.80
310.81	1366.00
311.03	1390.57
311.24	1449.96
311.45	1333.23
311.67	1441.77
311.88	1345.52
312.09	1290.22
312.31	1368.04
312.52	1318.89
312.73	1435.63
312.95	1339.37
313.16	1355.76
313.37	1361.90
313.59	1404.91
313.80	1427.43
314.01	1376.24
314.23	1335.28
314.44	1388.52
314.65	1374.19
314.87	1390.57
315.08	1339.37
315.29	1382.38
315.51	1318.89
315.72	1384.43
315.93	1314.80
316.15	1476.59
316.36	1372.14
316.57	1411.05
316.79	1409.00
317.00	1347.56
317.21	1335.28
317.43	1294.32
317.64	1400.81
317.85	1368.04
318.07	1449.96
318.28	1492.97
318.49	1476.59
318.70	1636.33
318.92	1552.36
319.13	1437.67
319.34	1490.92
319.56	1411.05
319.77	1470.44
319.98	1476.59
320.20	1480.68
320.41	1394.67
320.62	1357.80
320.83	1320.94
321.05	1484.78
321.26	1353.71
321.47	1411.05
321.69	1359.85
321.90	1341.42
322.11	1322.99
322.32	1374.19
322.54	1396.71
322.75	1300.46
322.96	1474.54
323.18	1370.09
323.39	1261.55
323.60	1351.66
323.81	1421.29
324.03	1277.93
324.24	1325.04
324.45	1322.99
324.66	1292.27
324.88	1419.24
325.09	1351.66
325.30	1363.95
325.52	1368.04
325.73	1376.24
325.94	1318.89
326.15	1361.90
326.37	1378.28
326.58	1339.37
326.79	1402.86
327.00	1386.47
327.22	1282.03
327.43	1386.47
327.64	1298.41
327.85	1396.71
328.07	1415.15
328.28	1472.49
328.49	1306.60
328.70	1355.76
328.92	1398.76
329.13	1355.76
329.34	1413.10
329.55	1439.72
329.76	1398.76
329.98	1415.15
330.19	1386.47
330.40	1347.56
330.61	1449.96
330.83	1409.00
331.04	1370.09
331.25	1361.90
331.46	1345.52
331.68	1308.65
331.89	1431.53
332.10	1413.10
332.31	1347.56
332.52	1357.80
332.74	1460.20
332.95	1357.80
333.16	1355.76
333.37	1353.71
333.58	1310.70
333.80	1409.00
334.01	1357.80
334.22	1329.13
334.43	1343.47
334.64	1380.33
334.86	1241.07
335.07	1372.14
335.28	1484.78
335.49	1331.18
335.70	1384.43
335.92	1388.52
336.13	1411.05
336.34	1433.58
336.55	1378.28
336.76	1380.33
336.98	1363.95
337.19	1370.09
337.40	1396.71
337.61	1486.83
337.82	1386.47
338.04	1398.76
338.25	1329.13
338.46	1388.52
338.67	1325.04
338.88	1345.52
339.09	1382.38
339.31	1347.56
339.52	1333.23
339.73	1345.52
339.94	1359.85
340.15	1413.10
340.36	1388.52
340.58	1378.28
340.79	1288.17
341.00	1486.83
341.21	1306.60
341.42	1445.87
341.63	1378.28
341.85	1413.10
342.06	1353.71
342.27	1288.17
342.48	1290.22
342.69	1298.41
342.90	1339.37
343.12	1402.86
343.33	1400.81
343.54	1382.38
343.75	1402.86
343.96	1357.80
344.17	1357.80
344.38	1374.19
344.60	1378.28
344.81	1310.70
345.02	1357.80
345.23	1355.76
345.44	1468.39
345.65	1452.01
345.86	1460.20
346.07	1359.85
346.29	1376.24
346.50	1415.15
346.71	1351.66
346.92	1402.86
347.13	1452.01
347.34	1333.23
347.55	1378.28
347.76	1439.72
347.98	1382.38
348.19	1392.62
348.40	1413.10
348.61	1411.05
348.82	1392.62
349.03	1380.33
349.24	1419.24
349.45	1433.58
349.66	1245.16
349.88	1304.56
350.09	1355.76
350.30	1441.77
350.51	1421.29
350.72	1359.85
350.93	1415.15
351.14	1355.76
351.35	1409.00
351.56	1429.48
351.77	1370.09
351.99	1437.67
352.20	1402.86
352.41	1423.34
352.62	1284.08
352.83	1322.99
353.04	1353.71
353.25	1339.37
353.46	1368.04
353.67	1433.58
353.88	1341.42
354.09	1339.37
354.30	1329.13
354.52	1386.47
354.73	1390.57
354.94	1265.64
355.15	1372.14
355.36	1402.86
355.57	1384.43
355.78	1376.24
355.99	1312.75
356.20	1335.28
356.41	1378.28
356.62	1308.65
356.83	1390.57
357.04	1359.85
357.25	1325.04
357.46	1269.74
357.68	1290.22
357.89	1427.43
358.10	1333.23
358.31	1325.04
358.52	1404.91
358.73	1259.50
358.94	1318.89
359.15	1345.52
359.36	1372.14
359.57	1396.71
359.78	1357.80
359.99	1347.56
360.20	1232.88
360.41	1320.94
360.62	1413.10
360.83	1447.91
361.04	1390.57
361.25	1316.84
361.46	1452.01
361.67	1353.71
361.88	1384.43
362.09	1343.47
362.30	1470.44
362.51	1329.13
362.72	1349.61
362.93	1337.32
363.14	1380.33
363.35	1304.56
363.56	1347.56
363.78	1409.00
363.99	1449.96
364.20	1415.15
364.41	1388.52
364.62	1511.40
364.83	1304.56
365.04	1368.04
365.25	1380.33
365.46	1470.44
365.67	1359.85
365.88	1380.33
366.09	1406.95
366.30	1363.95
366.51	1447.91
366.72	1376.24
366.93	1419.24
367.14	1353.71
367.35	1396.71
367.56	1409.00
367.77	1472.49
367.98	1294.32
368.18	1411.05
368.39	1409.00
368.60	1396.71
368.81	1429.48
369.02	1355.76
369.23	1402.86
369.44	1361.90
369.65	1349.61
369.86	1417.19
370.07	1378.28
370.28	1404.91
370.49	1409.00
370.70	1421.29
370.91	1355.76
371.12	1331.18
371.33	1470.44
371.54	1341.42
371.75	1435.63
371.96	1353.71
372.17	1314.80
372.38	1394.67
372.59	1427.43
372.80	1347.56
373.01	1290.22
373.22	1271.79
373.43	1310.70
373.64	1300.46
373.85	1402.86
374.06	1433.58
374.26	1417.19
374.47	1339.37
374.68	1427.43
374.89	1413.10
375.10	1322.99
375.31	1396.71
375.52	1384.43
375.73	1417.19
375.94	1263.60
376.15	1359.85
376.36	1380.33
376.57	1376.24
376.78	1353.71
376.99	1325.04
377.20	1431.53
377.40	1341.42
377.61	1417.19
377.82	1302.51
378.03	1394.67
378.24	1372.14
378.45	1306.60
378.66	1402.86
378.87	1304.56
379.08	1361.90
379.29	1341.42
379.50	1490.92
379.71	1372.14
379.91	1376.24
380.12	1343.47
380.33	1339.37
380.54	1357.80
380.75	1374.19
380.96	1339.37
381.17	1429.48
381.38	1427.43
381.59	1380.33
381.80	1421.29
382.00	1497.07
382.21	1437.67
382.42	1447.91
382.63	1531.88
382.84	1423.34
383.05	1427.43
383.26	1449.96
383.47	1429.48
383.68	1386.47
383.88	1470.44
384.09	1390.57
384.30	1400.81
384.51	1361.90
384.72	1343.47
384.93	1277.93
385.14	1419.24
385.35	1445.87
385.55	1404.91
385.76	1437.67
385.97	1318.89
386.18	1363.95
386.39	1382.38
386.60	1476.59
386.81	1359.85
387.02	1366.00
387.22	1388.52
387.43	1497.07
387.64	1550.31
387.85	2316.25
388.06	5699.50
388.27	9367.41
388.48	11587.41
388.68	13004.60
388.89	13162.30
389.10	10532.70
389.31	8945.53
389.52	8296.32
389.73	7393.17
389.93	6799.26
390.14	6440.86
390.35	5842.85
390.56	5521.32
390.77	4732.86
390.98	3667.91
391.18	2809.81
391.39	2078.69
391.60	1726.44
391.81	1576.94
392.02	1359.85
392.23	1488.87
392.43	1376.24
392.64	1380.33
392.85	1382.38
393.06	1421.29
393.27	1468.39
393.47	1392.62
393.68	1433.58
393.89	1337.32
394.10	1421.29
394.31	1327.08
394.52	1329.13
394.72	1370.09
394.93	1445.87
395.14	1384.43
395.35	1419.24
395.56	1462.25
395.76	1497.07
395.97	1591.27
396.18	1591.27
396.39	1570.79
396.60	1626.09
396.80	1554.41
397.01	1576.94
397.22	1511.40
397.43	1454.06
397.64	1357.80
397.84	1517.54
398.05	1507.30
398.26	1445.87
398.47	1454.06
398.67	1398.76
398.88	1445.87
399.09	1376.24
399.30	1370.09
399.51	1361.90
399.71	1374.19
399.92	1357.80
400.13	1384.43
400.34	1386.47
400.54	1431.53
400.75	1439.72
400.96	1368.04
401.17	1425.39
401.37	1343.47
401.58	1402.86
401.79	1521.64
402.00	1751.01
402.21	1841.12
402.41	1777.64
402.62	1818.60
402.83	1771.49
403.04	1687.53
403.24	1710.05
403.45	1640.42
403.66	1548.26
403.87	1525.74
404.07	1533.93
404.28	1533.93
404.49	1513.45
404.70	1472.49
404.90	1554.41
405.11	1460.20
405.32	1368.04
405.52	1417.19
405.73	1390.57
405.94	1314.80
406.15	1361.90
406.35	1363.95
406.56	1404.91
406.77	1351.66
406.98	1456.11
407.18	1351.66
407.39	1427.43
407.60	1327.08
407.80	1402.86
408.01	1392.62
408.22	1417.19
408.43	1310.70
408.63	1396.71
408.84	1357.80
409.05	1394.67
409.25	1273.84
409.46	1423.34
409.67	1290.22
409.88	1325.04
410.08	1349.61
410.29	1361.90
410.50	1396.71
410.70	1402.86
410.91	1298.41
411.12	1433.58
411.32	1433.58
411.53	1390.57
411.74	1505.26
411.95	1343.47
412.15	1468.39
412.36	1495.02
412.57	1523.69
412.77	1540.07
412.98	1396.71
413.19	1372.14
413.39	1437.67
413.60	1433.58
413.81	1402.86
414.01	1357.80
414.22	1468.39
414.43	1462.25
414.63	1355.76
414.84	1374.19
415.05	1411.05
415.25	1341.42
415.46	1314.80
415.67	1419.24
415.87	1400.81
416.08	1353.71
416.29	1366.00
416.49	1333.23
416.70	1388.52
416.91	1396.71
417.11	1368.04
417.32	1366.00
417.53	1456.11
417.73	1419.24
417.94	1341.42
418.15	1380.33
418.35	1411.05
418.56	1396.71
418.77	1462.25
418.97	1363.95
419.18	1390.57
419.38	1333.23
419.59	1386.47
419.80	1361.90
420.00	1384.43
420.21	1394.67
420.42	1421.29
420.62	1290.22
420.83	1236.97
421.04	1337.32
421.24	1267.69
421.45	1390.57
421.65	1345.52
421.86	1347.56
422.07	1406.95
422.27	1347.56
422.48	1335.28
422.69	1388.52
422.89	1368.04
423.10	1402.86
423.30	1409.00
423.51	1359.85
423.72	1279.98
423.92	1310.70
424.13	1308.65
424.33	1366.00
424.54	1396.71
424.75	1290.22
424.95	1392.62
425.16	1380.33
425.36	1394.67
425.57	1421.29
425.78	1400.81
425.98	1388.52
426.19	1310.70
426.39	1372.14
426.60	1341.42
426.81	1437.67
427.01	1417.19
427.22	1329.13
427.42	1286.12
427.63	1390.57
427.83	1388.52
428.04	1456.11
428.25	1339.37
428.45	1386.47
428.66	1347.56
428.86	1302.51
429.07	1341.42
429.28	1349.61
429.48	1368.04
429.69	1329.13
429.89	1357.80
430.10	1316.84
430.30	1413.10
430.51	1378.28
430.71	1329.13
430.92	1402.86
431.13	1337.32
431.33	1386.47
431.54	1431.53
431.74	1415.15
431.95	1421.29
432.15	1339.37
432.36	1361.90
432.56	1368.04
432.77	1449.96
432.98	1400.81
433.18	1415.15
433.39	1351.66
433.59	1296.36
433.80	1382.38
434.00	1581.03
434.21	1302.51
434.41	1325.04
434.62	1501.16
434.82	1363.95
435.03	1333.23
435.23	1341.42
435.44	1363.95
435.64	1380.33
435.85	1433.58
436.06	1380.33
436.26	1449.96
436.47	1359.85
436.67	1351.66
436.88	1329.13
437.08	1419.24
437.29	1378.28
437.49	1396.71
437.70	1413.10
437.90	1486.83
438.11	1460.20
438.31	1462.25
438.52	1533.93
438.72	1601.51
438.93	1599.46
439.13	1425.39
439.34	1511.40
439.54	1392.62
439.75	1445.87
439.95	1382.38
440.16	1400.81
440.36	1499.11
440.57	1392.62
440.77	1472.49
440.98	1376.24
441.18	1378.28
441.39	1441.77
441.59	1409.00
441.80	1331.18
442.00	1402.86
442.21	1417.19
442.41	1363.95
442.62	1415.15
442.82	1327.08
443.02	1347.56
443.23	1431.53
443.43	1413.10
443.64	1464.30
443.84	1363.95
444.05	1417.19
444.25	1392.62
444.46	1380.33
444.66	1312.75
444.87	1423.34
445.07	1361.90
445.28	1327.08
445.48	1462.25
445.69	1419.24
445.89	1488.87
446.09	1525.74
446.30	2267.10
446.50	3698.63
446.71	4718.52
446.91	5355.44
447.12	5451.69
447.32	4970.42
447.53	4302.78
447.73	3758.02
447.93	3448.78
448.14	3160.02
448.34	2957.27
448.55	2826.20
448.75	2744.28
448.96	2707.41
449.16	2349.02
449.36	2183.13
449.57	1935.33
449.77	1746.92
449.98	1517.54
450.18	1484.78
450.39	1495.02
450.59	1429.48
450.79	1300.46
451.00	1351.66
451.20	1368.04
451.41	1345.52
451.61	1327.08
451.81	1452.01
452.02	1411.05
452.22	1378.28
452.43	1396.71
452.63	1409.00
