SpectraSuite Data File
++++++++++++++++++++++++++++++++++++
Date: Tue May 03 11:24:34 CEST 2016
User: root
Dark Spectrum Present: No
Reference Spectrum Present: No
Number of Sampled Component Spectra: 1
Spectrometers: USB4C02835
Integration Time (usec): 100000 (USB4C02835)
Spectra Averaged: 1 (USB4C02835)
Boxcar Smoothing: 0 (USB4C02835)
Correct for Electrical Dark: No (USB4C02835)
Strobe/Lamp Enabled: No (USB4C02835)
Correct for Detector Non-linearity: No (USB4C02835)
Correct for Stray Light: No (USB4C02835)
Number of Pixels in Processed Spectrum: 3648
>>>>>Begin Processed Spectral Data<<<<<
177.47	1200.11
177.69	1200.11
177.91	1200.11
178.13	1284.08
178.36	1185.77
178.58	1351.66
178.80	1327.08
179.02	1368.04
179.24	1294.32
179.46	1353.71
179.68	1392.62
179.90	1236.97
180.13	1374.19
180.35	1433.58
180.57	1341.42
180.79	1372.14
181.01	1390.57
181.23	1372.14
181.45	1417.19
181.67	1388.52
181.90	1355.76
182.12	1343.47
182.34	1361.90
182.56	1380.33
182.78	1417.19
183.00	1370.09
183.22	1392.62
183.44	1318.89
183.66	1419.24
183.89	1511.40
184.11	1441.77
184.33	1296.36
184.55	1384.43
184.77	1452.01
184.99	1435.63
185.21	1288.17
185.43	1388.52
185.65	1345.52
185.87	1345.52
186.10	1398.76
186.32	1427.43
186.54	1394.67
186.76	1372.14
186.98	1384.43
187.20	1329.13
187.42	1337.32
187.64	1476.59
187.86	1345.52
188.08	1390.57
188.30	1392.62
188.52	1388.52
188.75	1439.72
188.97	1370.09
189.19	1392.62
189.41	1361.90
189.63	1374.19
189.85	1359.85
190.07	1304.56
190.29	1380.33
190.51	1345.52
190.73	1298.41
190.95	1355.76
191.17	1357.80
191.39	1318.89
191.61	1265.64
191.84	1341.42
192.06	1351.66
192.28	1312.75
192.50	1415.15
192.72	1308.65
192.94	1341.42
193.16	1335.28
193.38	1380.33
193.60	1353.71
193.82	1380.33
194.04	1396.71
194.26	1374.19
194.48	1310.70
194.70	1343.47
194.92	1400.81
195.14	1380.33
195.36	1388.52
195.58	1284.08
195.80	1404.91
196.02	1329.13
196.24	1343.47
196.46	1419.24
196.69	1298.41
196.91	1472.49
197.13	1359.85
197.35	1306.60
197.57	1337.32
197.79	1396.71
198.01	1439.72
198.23	1476.59
198.45	1347.56
198.67	1347.56
198.89	1363.95
199.11	1429.48
199.33	1347.56
199.55	1314.80
199.77	1302.51
199.99	1413.10
200.21	1286.12
200.43	1406.95
200.65	1333.23
200.87	1327.08
201.09	1351.66
201.31	1384.43
201.53	1437.67
201.75	1396.71
201.97	1411.05
202.19	1296.36
202.41	1404.91
202.63	1339.37
202.85	1392.62
203.07	1353.71
203.29	1382.38
203.51	1345.52
203.73	1421.29
203.95	1505.26
204.17	1376.24
204.39	1390.57
204.61	1363.95
204.83	1325.04
205.05	1433.58
205.27	1370.09
205.49	1433.58
205.71	1347.56
205.93	1351.66
206.15	1306.60
206.37	1398.76
206.59	1345.52
206.81	1300.46
207.03	1363.95
207.25	1337.32
207.47	1382.38
207.69	1433.58
207.91	1415.15
208.13	1472.49
208.34	1316.84
208.56	1292.27
208.78	1341.42
209.00	1406.95
209.22	1370.09
209.44	1425.39
209.66	1325.04
209.88	1327.08
210.10	1273.84
210.32	1304.56
210.54	1404.91
210.76	1368.04
210.98	1431.53
211.20	1296.36
211.42	1382.38
211.64	1404.91
211.86	1380.33
212.08	1359.85
212.30	1306.60
212.52	1355.76
212.74	1341.42
212.96	1349.61
213.17	1396.71
213.39	1462.25
213.61	1474.54
213.83	1443.82
214.05	1306.60
214.27	1335.28
214.49	1329.13
214.71	1318.89
214.93	1411.05
215.15	1374.19
215.37	1363.95
215.59	1314.80
215.81	1474.54
216.03	1419.24
216.24	1368.04
216.46	1353.71
216.68	1351.66
216.90	1347.56
217.12	1396.71
217.34	1368.04
217.56	1325.04
217.78	1419.24
218.00	1372.14
218.22	1363.95
218.44	1419.24
218.66	1353.71
218.87	1419.24
219.09	1341.42
219.31	1449.96
219.53	1386.47
219.75	1386.47
219.97	1402.86
220.19	1462.25
220.41	1300.46
220.63	1402.86
220.85	1400.81
221.06	1372.14
221.28	1421.29
221.50	1384.43
221.72	1417.19
221.94	1366.00
222.16	1370.09
222.38	1433.58
222.60	1443.82
222.82	1361.90
223.03	1402.86
223.25	1286.12
223.47	1499.11
223.69	1443.82
223.91	1363.95
224.13	1400.81
224.35	1378.28
224.57	1398.76
224.78	1329.13
225.00	1282.03
225.22	1413.10
225.44	1329.13
225.66	1396.71
225.88	1372.14
226.10	1443.82
226.32	1372.14
226.53	1417.19
226.75	1322.99
226.97	1406.95
227.19	1310.70
227.41	1366.00
227.63	1394.67
227.85	1345.52
228.06	1296.36
228.28	1353.71
228.50	1458.15
228.72	1361.90
228.94	1361.90
229.16	1345.52
229.37	1343.47
229.59	1372.14
229.81	1388.52
230.03	1288.17
230.25	1296.36
230.47	1308.65
230.69	1320.94
230.90	1421.29
231.12	1378.28
231.34	1366.00
231.56	1409.00
231.78	1388.52
232.00	1351.66
232.21	1427.43
232.43	1363.95
232.65	1261.55
232.87	1392.62
233.09	1290.22
233.30	1376.24
233.52	1351.66
233.74	1329.13
233.96	1413.10
234.18	1320.94
234.40	1349.61
234.61	1390.57
234.83	1306.60
235.05	1284.08
235.27	1458.15
235.49	1439.72
235.70	1409.00
235.92	1411.05
236.14	1316.84
236.36	1382.38
236.58	1290.22
236.79	1331.18
237.01	1288.17
237.23	1343.47
237.45	1368.04
237.67	1384.43
237.88	1312.75
238.10	1404.91
238.32	1318.89
238.54	1345.52
238.76	1402.86
238.97	1378.28
239.19	1355.76
239.41	1363.95
239.63	1433.58
239.85	1435.63
240.06	1331.18
240.28	1384.43
240.50	1392.62
240.72	1388.52
240.93	1433.58
241.15	1347.56
241.37	1322.99
241.59	1505.26
241.81	1314.80
242.02	1363.95
242.24	1464.30
242.46	1351.66
242.68	1370.09
242.89	1366.00
243.11	1333.23
243.33	1361.90
243.55	1427.43
243.76	1468.39
243.98	1257.45
244.20	1423.34
244.42	1411.05
244.64	1404.91
244.85	1409.00
245.07	1292.27
245.29	1419.24
245.51	1331.18
245.72	1419.24
245.94	1296.36
246.16	1322.99
246.38	1415.15
246.59	1335.28
246.81	1347.56
247.03	1314.80
247.24	1357.80
247.46	1353.71
247.68	1402.86
247.90	1331.18
248.11	1325.04
248.33	1501.16
248.55	1421.29
248.77	1353.71
248.98	1386.47
249.20	1411.05
249.42	1337.32
249.64	1413.10
249.85	1363.95
250.07	1331.18
250.29	1400.81
250.50	1370.09
250.72	1411.05
250.94	1390.57
251.16	1433.58
251.37	1351.66
251.59	1423.34
251.81	1345.52
252.02	1288.17
252.24	1275.88
252.46	1400.81
252.68	1275.88
252.89	1366.00
253.11	1312.75
253.33	1466.35
253.54	1396.71
253.76	1316.84
253.98	1347.56
254.20	1406.95
254.41	1255.40
254.63	1341.42
254.85	1392.62
255.06	1368.04
255.28	1310.70
255.50	1318.89
255.71	1361.90
255.93	1316.84
256.15	1310.70
256.36	1413.10
256.58	1327.08
256.80	1396.71
257.02	1400.81
257.23	1402.86
257.45	1376.24
257.67	1366.00
257.88	1347.56
258.10	1431.53
258.32	1349.61
258.53	1368.04
258.75	1439.72
258.97	1320.94
259.18	1486.83
259.40	1404.91
259.62	1390.57
259.83	1374.19
260.05	1396.71
260.27	1482.73
260.48	1382.38
260.70	1290.22
260.92	1390.57
261.13	1431.53
261.35	1423.34
261.57	1290.22
261.78	1255.40
262.00	1357.80
262.22	1345.52
262.43	1335.28
262.65	1374.19
262.86	1382.38
263.08	1456.11
263.30	1337.32
263.51	1335.28
263.73	1345.52
263.95	1372.14
264.16	1331.18
264.38	1318.89
264.60	1337.32
264.81	1355.76
265.03	1378.28
265.25	1376.24
265.46	1382.38
265.68	1361.90
265.89	1345.52
266.11	1425.39
266.33	1361.90
266.54	1417.19
266.76	1351.66
266.98	1417.19
267.19	1372.14
267.41	1361.90
267.62	1380.33
267.84	1357.80
268.06	1435.63
268.27	1431.53
268.49	1357.80
268.70	1409.00
268.92	1333.23
269.14	1347.56
269.35	1378.28
269.57	1437.67
269.79	1392.62
270.00	1355.76
270.22	1454.06
270.43	1380.33
270.65	1273.84
270.87	1398.76
271.08	1411.05
271.30	1345.52
271.51	1351.66
271.73	1406.95
271.95	1454.06
272.16	1480.68
272.38	1355.76
272.59	1351.66
272.81	1320.94
273.02	1296.36
273.24	1384.43
273.46	1322.99
273.67	1325.04
273.89	1349.61
274.10	1314.80
274.32	1345.52
274.54	1370.09
274.75	1415.15
274.97	1382.38
275.18	1366.00
275.40	1327.08
275.61	1458.15
275.83	1372.14
276.05	1327.08
276.26	1406.95
276.48	1388.52
276.69	1357.80
276.91	1292.27
277.12	1404.91
277.34	1347.56
277.55	1421.29
277.77	1406.95
277.99	1359.85
278.20	1325.04
278.42	1366.00
278.63	1322.99
278.85	1380.33
279.06	1384.43
279.28	1374.19
279.49	1351.66
279.71	1374.19
279.93	1372.14
280.14	1411.05
280.36	1331.18
280.57	1316.84
280.79	1382.38
281.00	1374.19
281.22	1359.85
281.43	1419.24
281.65	1294.32
281.86	1277.93
282.08	1402.86
282.29	1361.90
282.51	1437.67
282.73	1310.70
282.94	1329.13
283.16	1398.76
283.37	1425.39
283.59	1357.80
283.80	1409.00
284.02	1331.18
284.23	1384.43
284.45	1388.52
284.66	1292.27
284.88	1275.88
285.09	1361.90
285.31	1322.99
285.52	1327.08
285.74	1306.60
285.95	1402.86
286.17	1347.56
286.38	1349.61
286.60	1304.56
286.81	1372.14
287.03	1396.71
287.24	1353.71
287.46	1394.67
287.67	1384.43
287.89	1462.25
288.10	1392.62
288.32	1368.04
288.53	1488.87
288.75	1427.43
288.96	1351.66
289.18	1363.95
289.39	1349.61
289.61	1400.81
289.82	1517.54
290.04	1437.67
290.25	1372.14
290.47	1376.24
290.68	1269.74
290.90	1370.09
291.11	1353.71
291.33	1470.44
291.54	1294.32
291.76	1329.13
291.97	1425.39
292.18	1355.76
292.40	1351.66
292.61	1413.10
292.83	1421.29
293.04	1435.63
293.26	1370.09
293.47	1312.75
293.69	1374.19
293.90	1372.14
294.12	1327.08
294.33	1378.28
294.55	1370.09
294.76	1406.95
294.97	1380.33
295.19	1472.49
295.40	1396.71
295.62	1392.62
295.83	1425.39
296.05	1355.76
296.26	1392.62
296.48	1316.84
296.69	1388.52
296.90	1388.52
297.12	1419.24
297.33	1370.09
297.55	1300.46
297.76	1390.57
297.98	1392.62
298.19	1314.80
298.41	1363.95
298.62	1372.14
298.83	1421.29
299.05	1329.13
299.26	1320.94
299.48	1396.71
299.69	1320.94
299.90	1396.71
300.12	1349.61
300.33	1443.82
300.55	1388.52
300.76	1404.91
300.98	1302.51
301.19	1331.18
301.40	1392.62
301.62	1308.65
301.83	1417.19
302.05	1349.61
302.26	1366.00
302.47	1368.04
302.69	1370.09
302.90	1368.04
303.12	1294.32
303.33	1470.44
303.54	1396.71
303.76	1372.14
303.97	1406.95
304.19	1404.91
304.40	1351.66
304.61	1388.52
304.83	1458.15
305.04	1435.63
305.26	1325.04
305.47	1357.80
305.68	1347.56
305.90	1333.23
306.11	1394.67
306.33	1318.89
306.54	1335.28
306.75	1316.84
306.97	1335.28
307.18	1335.28
307.39	1370.09
307.61	1372.14
307.82	1366.00
308.04	1378.28
308.25	1333.23
308.46	1329.13
308.68	1388.52
308.89	1341.42
309.10	1380.33
309.32	1316.84
309.53	1339.37
309.74	1361.90
309.96	1300.46
310.17	1402.86
310.39	1357.80
310.60	1363.95
310.81	1404.91
311.03	1345.52
311.24	1400.81
311.45	1335.28
311.67	1359.85
311.88	1370.09
312.09	1312.75
312.31	1345.52
312.52	1421.29
312.73	1316.84
312.95	1306.60
313.16	1368.04
313.37	1476.59
313.59	1413.10
313.80	1355.76
314.01	1398.76
314.23	1380.33
314.44	1341.42
314.65	1361.90
314.87	1335.28
315.08	1363.95
315.29	1327.08
315.51	1343.47
315.72	1337.32
315.93	1415.15
316.15	1302.51
316.36	1329.13
316.57	1347.56
316.79	1454.06
317.00	1320.94
317.21	1411.05
317.43	1425.39
317.64	1359.85
317.85	1435.63
318.07	1400.81
318.28	1591.27
318.49	1578.98
318.70	1656.81
318.92	1556.46
319.13	1492.97
319.34	1523.69
319.56	1431.53
319.77	1495.02
319.98	1464.30
320.20	1433.58
320.41	1423.34
320.62	1396.71
320.83	1372.14
321.05	1425.39
321.26	1337.32
321.47	1310.70
321.69	1351.66
321.90	1345.52
322.11	1366.00
322.32	1400.81
322.54	1396.71
322.75	1398.76
322.96	1421.29
323.18	1327.08
323.39	1349.61
323.60	1376.24
323.81	1357.80
324.03	1347.56
324.24	1359.85
324.45	1335.28
324.66	1349.61
324.88	1378.28
325.09	1417.19
325.30	1376.24
325.52	1370.09
325.73	1355.76
325.94	1290.22
326.15	1370.09
326.37	1296.36
326.58	1470.44
326.79	1396.71
327.00	1345.52
327.22	1404.91
327.43	1347.56
327.64	1271.79
327.85	1374.19
328.07	1421.29
328.28	1468.39
328.49	1419.24
328.70	1333.23
328.92	1394.67
329.13	1359.85
329.34	1386.47
329.55	1429.48
329.76	1380.33
329.98	1337.32
330.19	1409.00
330.40	1314.80
330.61	1353.71
330.83	1366.00
331.04	1366.00
331.25	1382.38
331.46	1349.61
331.68	1312.75
331.89	1435.63
332.10	1398.76
332.31	1312.75
332.52	1335.28
332.74	1402.86
332.95	1353.71
333.16	1398.76
333.37	1366.00
333.58	1372.14
333.80	1372.14
334.01	1353.71
334.22	1384.43
334.43	1300.46
334.64	1400.81
334.86	1312.75
335.07	1353.71
335.28	1394.67
335.49	1282.03
335.70	1396.71
335.92	1419.24
336.13	1423.34
336.34	1406.95
336.55	1439.72
336.76	1363.95
336.98	1372.14
337.19	1345.52
337.40	1437.67
337.61	1441.77
337.82	1337.32
338.04	1386.47
338.25	1331.18
338.46	1392.62
338.67	1306.60
338.88	1386.47
339.09	1378.28
339.31	1394.67
339.52	1296.36
339.73	1398.76
339.94	1402.86
340.15	1458.15
340.36	1423.34
340.58	1423.34
340.79	1306.60
341.00	1359.85
341.21	1378.28
341.42	1396.71
341.63	1396.71
341.85	1396.71
342.06	1357.80
342.27	1322.99
342.48	1343.47
342.69	1310.70
342.90	1370.09
343.12	1351.66
343.33	1374.19
343.54	1386.47
343.75	1443.82
343.96	1386.47
344.17	1390.57
344.38	1368.04
344.60	1388.52
344.81	1349.61
345.02	1327.08
345.23	1380.33
345.44	1478.63
345.65	1411.05
345.86	1413.10
346.07	1366.00
346.29	1335.28
346.50	1380.33
346.71	1296.36
346.92	1464.30
347.13	1404.91
347.34	1345.52
347.55	1392.62
347.76	1382.38
347.98	1345.52
348.19	1351.66
348.40	1478.63
348.61	1335.28
348.82	1409.00
349.03	1308.65
349.24	1333.23
349.45	1429.48
349.66	1318.89
349.88	1341.42
350.09	1337.32
350.30	1409.00
350.51	1445.87
350.72	1419.24
350.93	1419.24
351.14	1327.08
351.35	1380.33
351.56	1361.90
351.77	1372.14
351.99	1308.65
352.20	1404.91
352.41	1421.29
352.62	1316.84
352.83	1347.56
353.04	1339.37
353.25	1312.75
353.46	1386.47
353.67	1400.81
353.88	1236.97
354.09	1378.28
354.30	1275.88
354.52	1359.85
354.73	1320.94
354.94	1345.52
355.15	1380.33
355.36	1437.67
355.57	1277.93
355.78	1376.24
355.99	1325.04
356.20	1345.52
356.41	1431.53
356.62	1400.81
356.83	1347.56
357.04	1454.06
357.25	1378.28
357.46	1345.52
357.68	1316.84
357.89	1368.04
358.10	1386.47
358.31	1339.37
358.52	1398.76
358.73	1296.36
358.94	1366.00
359.15	1359.85
359.36	1361.90
359.57	1349.61
359.78	1380.33
359.99	1316.84
360.20	1363.95
360.41	1445.87
360.62	1427.43
360.83	1411.05
361.04	1400.81
361.25	1327.08
361.46	1509.35
361.67	1376.24
361.88	1431.53
362.09	1392.62
362.30	1384.43
362.51	1406.95
362.72	1353.71
362.93	1382.38
363.14	1398.76
363.35	1462.25
363.56	1304.56
363.78	1419.24
363.99	1384.43
364.20	1347.56
364.41	1409.00
364.62	1488.87
364.83	1433.58
365.04	1370.09
365.25	1345.52
365.46	1423.34
365.67	1292.27
365.88	1345.52
366.09	1396.71
366.30	1353.71
366.51	1421.29
366.72	1368.04
366.93	1353.71
367.14	1329.13
367.35	1363.95
367.56	1351.66
367.77	1433.58
367.98	1335.28
368.18	1390.57
368.39	1341.42
368.60	1400.81
368.81	1396.71
369.02	1374.19
369.23	1316.84
369.44	1370.09
369.65	1378.28
369.86	1370.09
370.07	1374.19
370.28	1382.38
370.49	1404.91
370.70	1443.82
370.91	1355.76
371.12	1341.42
371.33	1400.81
371.54	1384.43
371.75	1464.30
371.96	1298.41
372.17	1363.95
372.38	1327.08
372.59	1355.76
372.80	1294.32
373.01	1345.52
373.22	1249.26
373.43	1425.39
373.64	1343.47
373.85	1355.76
374.06	1435.63
374.26	1497.07
374.47	1415.15
374.68	1363.95
374.89	1378.28
375.10	1355.76
375.31	1454.06
375.52	1380.33
375.73	1460.20
375.94	1302.51
376.15	1447.91
376.36	1300.46
376.57	1394.67
376.78	1331.18
376.99	1349.61
377.20	1458.15
377.40	1308.65
377.61	1464.30
377.82	1322.99
378.03	1441.77
378.24	1406.95
378.45	1382.38
378.66	1454.06
378.87	1312.75
379.08	1271.79
379.29	1413.10
379.50	1378.28
379.71	1390.57
379.91	1353.71
380.12	1343.47
380.33	1400.81
380.54	1390.57
380.75	1335.28
380.96	1341.42
381.17	1470.44
381.38	1439.72
381.59	1492.97
381.80	1384.43
382.00	1552.36
382.21	1435.63
382.42	1411.05
382.63	1458.15
382.84	1474.54
383.05	1464.30
383.26	1452.01
383.47	1409.00
383.68	1421.29
383.88	1447.91
384.09	1357.80
384.30	1437.67
384.51	1378.28
384.72	1361.90
384.93	1390.57
385.14	1384.43
385.35	1400.81
385.55	1337.32
385.76	1437.67
385.97	1322.99
386.18	1353.71
386.39	1423.34
386.60	1454.06
386.81	1316.84
387.02	1441.77
387.22	1400.81
387.43	1460.20
387.64	1624.04
387.85	2346.97
388.06	5805.99
388.27	9449.33
388.48	11499.34
388.68	13209.40
388.89	13311.80
389.10	10686.30
389.31	9301.87
389.52	8363.90
389.73	7255.95
389.93	6875.03
390.14	6508.44
390.35	6025.12
390.56	5449.64
390.77	4597.69
390.98	3770.31
391.18	2842.58
391.39	2172.89
391.60	1697.77
391.81	1585.13
392.02	1423.34
392.23	1495.02
392.43	1429.48
392.64	1421.29
392.85	1357.80
393.06	1417.19
393.27	1370.09
393.47	1335.28
393.68	1396.71
393.89	1368.04
394.10	1392.62
394.31	1413.10
394.52	1417.19
394.72	1325.04
394.93	1462.25
395.14	1322.99
395.35	1359.85
395.56	1435.63
395.76	1544.17
395.97	1552.36
396.18	1581.03
396.39	1642.47
396.60	1789.92
396.80	1560.55
397.01	1509.35
397.22	1621.99
397.43	1558.50
397.64	1478.63
397.84	1474.54
398.05	1552.36
398.26	1439.72
398.47	1468.39
398.67	1509.35
398.88	1349.61
399.09	1456.11
399.30	1398.76
399.51	1368.04
399.71	1361.90
399.92	1349.61
400.13	1398.76
400.34	1380.33
400.54	1411.05
400.75	1468.39
400.96	1374.19
401.17	1343.47
401.37	1411.05
401.58	1372.14
401.79	1564.65
402.00	1708.01
402.21	1777.64
402.41	1783.78
402.62	1839.08
402.83	1689.57
403.04	1673.19
403.24	1734.63
403.45	1595.37
403.66	1617.90
403.87	1519.59
404.07	1548.26
404.28	1617.90
404.49	1583.08
404.70	1415.15
404.90	1419.24
405.11	1374.19
405.32	1460.20
405.52	1368.04
405.73	1363.95
405.94	1392.62
406.15	1372.14
406.35	1316.84
406.56	1435.63
406.77	1441.77
406.98	1370.09
407.18	1374.19
407.39	1380.33
407.60	1263.60
407.80	1304.56
408.01	1310.70
408.22	1361.90
408.43	1282.03
408.63	1341.42
408.84	1419.24
409.05	1439.72
409.25	1343.47
409.46	1404.91
409.67	1322.99
409.88	1318.89
410.08	1415.15
410.29	1384.43
410.50	1417.19
410.70	1372.14
410.91	1290.22
411.12	1431.53
411.32	1402.86
411.53	1388.52
411.74	1497.07
411.95	1429.48
412.15	1499.11
412.36	1511.40
412.57	1482.73
412.77	1474.54
412.98	1347.56
413.19	1380.33
413.39	1447.91
413.60	1380.33
413.81	1474.54
414.01	1429.48
414.22	1366.00
414.43	1462.25
414.63	1409.00
414.84	1353.71
415.05	1372.14
415.25	1318.89
415.46	1445.87
415.67	1413.10
415.87	1370.09
416.08	1419.24
416.29	1337.32
416.49	1386.47
416.70	1343.47
416.91	1370.09
417.11	1359.85
417.32	1376.24
417.53	1380.33
417.73	1415.15
417.94	1429.48
418.15	1345.52
418.35	1359.85
418.56	1409.00
418.77	1464.30
418.97	1372.14
419.18	1413.10
419.38	1284.08
419.59	1376.24
419.80	1462.25
420.00	1392.62
420.21	1355.76
420.42	1396.71
420.62	1433.58
420.83	1314.80
421.04	1353.71
421.24	1353.71
421.45	1355.76
421.65	1349.61
421.86	1286.12
422.07	1357.80
422.27	1314.80
422.48	1380.33
422.69	1370.09
422.89	1456.11
423.10	1320.94
423.30	1318.89
423.51	1374.19
423.72	1282.03
423.92	1413.10
424.13	1284.08
424.33	1419.24
424.54	1382.38
424.75	1347.56
424.95	1400.81
425.16	1394.67
425.36	1345.52
425.57	1388.52
425.78	1372.14
425.98	1447.91
426.19	1382.38
426.39	1349.61
426.60	1388.52
426.81	1445.87
427.01	1445.87
427.22	1345.52
427.42	1310.70
427.63	1345.52
427.83	1427.43
428.04	1472.49
428.25	1425.39
428.45	1394.67
428.66	1359.85
428.86	1368.04
429.07	1284.08
429.28	1363.95
429.48	1361.90
429.69	1337.32
429.89	1341.42
430.10	1329.13
430.30	1320.94
430.51	1361.90
430.71	1400.81
430.92	1339.37
431.13	1310.70
431.33	1370.09
431.54	1388.52
431.74	1492.97
431.95	1445.87
432.15	1370.09
432.36	1339.37
432.56	1419.24
432.77	1419.24
432.98	1509.35
433.18	1376.24
433.39	1386.47
433.59	1357.80
433.80	1404.91
434.00	1429.48
434.21	1353.71
434.41	1400.81
434.62	1482.73
434.82	1361.90
435.03	1271.79
435.23	1322.99
435.44	1396.71
435.64	1333.23
435.85	1339.37
436.06	1406.95
436.26	1417.19
436.47	1347.56
436.67	1316.84
436.88	1425.39
437.08	1398.76
437.29	1322.99
437.49	1402.86
437.70	1492.97
437.90	1427.43
438.11	1433.58
438.31	1413.10
438.52	1576.94
438.72	1484.78
438.93	1603.56
439.13	1507.30
439.34	1439.72
439.54	1445.87
439.75	1503.21
439.95	1390.57
440.16	1421.29
440.36	1484.78
440.57	1413.10
440.77	1390.57
440.98	1417.19
441.18	1431.53
441.39	1398.76
441.59	1308.65
441.80	1499.11
442.00	1372.14
442.21	1417.19
442.41	1363.95
442.62	1478.63
442.82	1335.28
443.02	1386.47
443.23	1382.38
443.43	1396.71
443.64	1409.00
443.84	1363.95
444.05	1478.63
444.25	1382.38
444.46	1413.10
444.66	1345.52
444.87	1466.35
445.07	1343.47
445.28	1380.33
445.48	1411.05
445.69	1437.67
445.89	1511.40
446.09	1533.93
446.30	2232.29
446.50	3594.19
446.71	4741.05
446.91	5306.29
447.12	5636.01
447.32	4863.93
447.53	4179.90
447.73	3835.85
447.93	3424.20
448.14	3092.43
448.34	3041.23
448.55	2770.90
448.75	2746.33
448.96	2641.88
449.16	2392.03
449.36	2246.62
449.57	1994.72
449.77	1710.05
449.98	1527.78
450.18	1535.98
450.39	1474.54
450.59	1415.15
450.79	1409.00
451.00	1372.14
451.20	1380.33
451.41	1396.71
451.61	1433.58
451.81	1419.24
452.02	1368.04
452.22	1386.47
452.43	1318.89
452.63	1384.43
