SpectraSuite Data File
++++++++++++++++++++++++++++++++++++
Date: Tue May 03 11:24:37 CEST 2016
User: root
Dark Spectrum Present: No
Reference Spectrum Present: No
Number of Sampled Component Spectra: 1
Spectrometers: USB4C02835
Integration Time (usec): 100000 (USB4C02835)
Spectra Averaged: 1 (USB4C02835)
Boxcar Smoothing: 0 (USB4C02835)
Correct for Electrical Dark: No (USB4C02835)
Strobe/Lamp Enabled: No (USB4C02835)
Correct for Detector Non-linearity: No (USB4C02835)
Correct for Stray Light: No (USB4C02835)
Number of Pixels in Processed Spectrum: 3648
>>>>>Begin Processed Spectral Data<<<<<
177.47	1243.12
177.69	1243.12
177.91	1243.12
178.13	1216.49
178.36	1279.98
178.58	1290.22
178.80	1361.90
179.02	1368.04
179.24	1310.70
179.46	1388.52
179.68	1396.71
179.90	1411.05
180.13	1449.96
180.35	1363.95
180.57	1398.76
180.79	1366.00
181.01	1382.38
181.23	1374.19
181.45	1415.15
181.67	1370.09
181.90	1347.56
182.12	1255.40
182.34	1327.08
182.56	1339.37
182.78	1378.28
183.00	1343.47
183.22	1296.36
183.44	1282.03
183.66	1384.43
183.89	1472.49
184.11	1423.34
184.33	1376.24
184.55	1363.95
184.77	1341.42
184.99	1394.67
185.21	1372.14
185.43	1443.82
185.65	1400.81
185.87	1345.52
186.10	1417.19
186.32	1490.92
186.54	1400.81
186.76	1419.24
186.98	1404.91
187.20	1372.14
187.42	1374.19
187.64	1427.43
187.86	1423.34
188.08	1409.00
188.30	1372.14
188.52	1386.47
188.75	1409.00
188.97	1413.10
189.19	1366.00
189.41	1386.47
189.63	1392.62
189.85	1370.09
190.07	1298.41
190.29	1314.80
190.51	1298.41
190.73	1275.88
190.95	1462.25
191.17	1400.81
191.39	1275.88
191.61	1308.65
191.84	1372.14
192.06	1392.62
192.28	1341.42
192.50	1478.63
192.72	1402.86
192.94	1349.61
193.16	1378.28
193.38	1392.62
193.60	1406.95
193.82	1337.32
194.04	1427.43
194.26	1329.13
194.48	1386.47
194.70	1292.27
194.92	1316.84
195.14	1411.05
195.36	1263.60
195.58	1349.61
195.80	1419.24
196.02	1314.80
196.24	1404.91
196.46	1331.18
196.69	1302.51
196.91	1454.06
197.13	1363.95
197.35	1394.67
197.57	1423.34
197.79	1421.29
198.01	1355.76
198.23	1349.61
198.45	1396.71
198.67	1363.95
198.89	1372.14
199.11	1372.14
199.33	1370.09
199.55	1304.56
199.77	1417.19
199.99	1347.56
200.21	1370.09
200.43	1361.90
200.65	1320.94
200.87	1351.66
201.09	1282.03
201.31	1376.24
201.53	1413.10
201.75	1327.08
201.97	1378.28
202.19	1318.89
202.41	1380.33
202.63	1476.59
202.85	1343.47
203.07	1310.70
203.29	1378.28
203.51	1310.70
203.73	1335.28
203.95	1476.59
204.17	1279.98
204.39	1419.24
204.61	1300.46
204.83	1345.52
205.05	1380.33
205.27	1380.33
205.49	1454.06
205.71	1306.60
205.93	1302.51
206.15	1300.46
206.37	1347.56
206.59	1339.37
206.81	1335.28
207.03	1318.89
207.25	1308.65
207.47	1419.24
207.69	1374.19
207.91	1415.15
208.13	1394.67
208.34	1400.81
208.56	1343.47
208.78	1429.48
209.00	1310.70
209.22	1302.51
209.44	1366.00
209.66	1361.90
209.88	1353.71
210.10	1343.47
210.32	1374.19
210.54	1456.11
210.76	1368.04
210.98	1443.82
211.20	1316.84
211.42	1363.95
211.64	1335.28
211.86	1347.56
212.08	1382.38
212.30	1363.95
212.52	1316.84
212.74	1390.57
212.96	1331.18
213.17	1458.15
213.39	1386.47
213.61	1402.86
213.83	1441.77
214.05	1349.61
214.27	1402.86
214.49	1296.36
214.71	1312.75
214.93	1406.95
215.15	1351.66
215.37	1374.19
215.59	1296.36
215.81	1333.23
216.03	1400.81
216.24	1361.90
216.46	1327.08
216.68	1351.66
216.90	1345.52
217.12	1394.67
217.34	1343.47
217.56	1343.47
217.78	1353.71
218.00	1355.76
218.22	1384.43
218.44	1380.33
218.66	1419.24
218.87	1449.96
219.09	1351.66
219.31	1445.87
219.53	1382.38
219.75	1376.24
219.97	1372.14
220.19	1374.19
220.41	1402.86
220.63	1402.86
220.85	1388.52
221.06	1273.84
221.28	1363.95
221.50	1409.00
221.72	1363.95
221.94	1363.95
222.16	1335.28
222.38	1435.63
222.60	1415.15
222.82	1355.76
223.03	1298.41
223.25	1404.91
223.47	1421.29
223.69	1497.07
223.91	1359.85
224.13	1361.90
224.35	1341.42
224.57	1361.90
224.78	1304.56
225.00	1312.75
225.22	1335.28
225.44	1425.39
225.66	1402.86
225.88	1351.66
226.10	1449.96
226.32	1476.59
226.53	1474.54
226.75	1402.86
226.97	1331.18
227.19	1355.76
227.41	1318.89
227.63	1396.71
227.85	1284.08
228.06	1339.37
228.28	1333.23
228.50	1406.95
228.72	1296.36
228.94	1290.22
229.16	1351.66
229.37	1355.76
229.59	1314.80
229.81	1449.96
230.03	1312.75
230.25	1331.18
230.47	1345.52
230.69	1335.28
230.90	1419.24
231.12	1359.85
231.34	1341.42
231.56	1357.80
231.78	1439.72
232.00	1368.04
232.21	1417.19
232.43	1335.28
232.65	1320.94
232.87	1409.00
233.09	1329.13
233.30	1351.66
233.52	1478.63
233.74	1329.13
233.96	1419.24
234.18	1396.71
234.40	1363.95
234.61	1472.49
234.83	1349.61
235.05	1331.18
235.27	1402.86
235.49	1419.24
235.70	1431.53
235.92	1404.91
236.14	1325.04
236.36	1462.25
236.58	1310.70
236.79	1370.09
237.01	1310.70
237.23	1411.05
237.45	1427.43
237.67	1339.37
237.88	1390.57
238.10	1433.58
238.32	1378.28
238.54	1359.85
238.76	1298.41
238.97	1372.14
239.19	1277.93
239.41	1402.86
239.63	1361.90
239.85	1327.08
240.06	1355.76
240.28	1361.90
240.50	1376.24
240.72	1312.75
240.93	1384.43
241.15	1415.15
241.37	1388.52
241.59	1400.81
241.81	1339.37
242.02	1331.18
242.24	1345.52
242.46	1331.18
242.68	1325.04
242.89	1363.95
243.11	1376.24
243.33	1357.80
243.55	1404.91
243.76	1339.37
243.98	1363.95
244.20	1394.67
244.42	1318.89
244.64	1427.43
244.85	1243.12
245.07	1331.18
245.29	1343.47
245.51	1347.56
245.72	1331.18
245.94	1458.15
246.16	1429.48
246.38	1406.95
246.59	1320.94
246.81	1314.80
247.03	1380.33
247.24	1355.76
247.46	1306.60
247.68	1417.19
247.90	1409.00
248.11	1253.36
248.33	1462.25
248.55	1261.55
248.77	1333.23
248.98	1345.52
249.20	1437.67
249.42	1361.90
249.64	1339.37
249.85	1427.43
250.07	1345.52
250.29	1374.19
250.50	1290.22
250.72	1277.93
250.94	1406.95
251.16	1366.00
251.37	1443.82
251.59	1409.00
251.81	1374.19
252.02	1452.01
252.24	1361.90
252.46	1421.29
252.68	1294.32
252.89	1331.18
253.11	1277.93
253.33	1462.25
253.54	1417.19
253.76	1396.71
253.98	1372.14
254.20	1296.36
254.41	1318.89
254.63	1378.28
254.85	1382.38
255.06	1411.05
255.28	1329.13
255.50	1355.76
255.71	1347.56
255.93	1419.24
256.15	1378.28
256.36	1419.24
256.58	1462.25
256.80	1419.24
257.02	1361.90
257.23	1351.66
257.45	1437.67
257.67	1345.52
257.88	1347.56
258.10	1419.24
258.32	1404.91
258.53	1449.96
258.75	1431.53
258.97	1318.89
259.18	1404.91
259.40	1386.47
259.62	1349.61
259.83	1413.10
260.05	1480.68
260.27	1585.13
260.48	1378.28
260.70	1388.52
260.92	1322.99
261.13	1411.05
261.35	1351.66
261.57	1357.80
261.78	1359.85
262.00	1339.37
262.22	1400.81
262.43	1314.80
262.65	1384.43
262.86	1363.95
263.08	1458.15
263.30	1306.60
263.51	1325.04
263.73	1452.01
263.95	1486.83
264.16	1349.61
264.38	1372.14
264.60	1363.95
264.81	1290.22
265.03	1306.60
265.25	1433.58
265.46	1380.33
265.68	1462.25
265.89	1439.72
266.11	1349.61
266.33	1339.37
266.54	1368.04
266.76	1380.33
266.98	1435.63
267.19	1454.06
267.41	1392.62
267.62	1347.56
267.84	1306.60
268.06	1370.09
268.27	1431.53
268.49	1400.81
268.70	1390.57
268.92	1353.71
269.14	1370.09
269.35	1318.89
269.57	1325.04
269.79	1458.15
270.00	1347.56
270.22	1417.19
270.43	1370.09
270.65	1247.21
270.87	1366.00
271.08	1392.62
271.30	1384.43
271.51	1318.89
271.73	1337.32
271.95	1402.86
272.16	1374.19
272.38	1380.33
272.59	1275.88
272.81	1351.66
273.02	1388.52
273.24	1445.87
273.46	1380.33
273.67	1339.37
273.89	1327.08
274.10	1290.22
274.32	1466.35
274.54	1345.52
274.75	1388.52
274.97	1390.57
275.18	1343.47
275.40	1415.15
275.61	1347.56
275.83	1347.56
276.05	1333.23
276.26	1380.33
276.48	1406.95
276.69	1378.28
276.91	1331.18
277.12	1470.44
277.34	1398.76
277.55	1382.38
277.77	1345.52
277.99	1333.23
278.20	1322.99
278.42	1320.94
278.63	1263.60
278.85	1413.10
279.06	1322.99
279.28	1337.32
279.49	1484.78
279.71	1427.43
279.93	1327.08
280.14	1392.62
280.36	1292.27
280.57	1392.62
280.79	1484.78
281.00	1390.57
281.22	1409.00
281.43	1425.39
281.65	1304.56
281.86	1370.09
282.08	1376.24
282.29	1394.67
282.51	1392.62
282.73	1396.71
282.94	1288.17
283.16	1355.76
283.37	1433.58
283.59	1413.10
283.80	1341.42
284.02	1386.47
284.23	1404.91
284.45	1415.15
284.66	1409.00
284.88	1292.27
285.09	1306.60
285.31	1378.28
285.52	1388.52
285.74	1372.14
285.95	1392.62
286.17	1322.99
286.38	1363.95
286.60	1306.60
286.81	1349.61
287.03	1327.08
287.24	1331.18
287.46	1402.86
287.67	1406.95
287.89	1406.95
288.10	1337.32
288.32	1351.66
288.53	1458.15
288.75	1357.80
288.96	1347.56
289.18	1300.46
289.39	1347.56
289.61	1355.76
289.82	1464.30
290.04	1337.32
290.25	1357.80
290.47	1368.04
290.68	1298.41
290.90	1406.95
291.11	1273.84
291.33	1419.24
291.54	1361.90
291.76	1306.60
291.97	1282.03
292.18	1363.95
292.40	1390.57
292.61	1372.14
292.83	1466.35
293.04	1343.47
293.26	1413.10
293.47	1456.11
293.69	1322.99
293.90	1251.31
294.12	1441.77
294.33	1355.76
294.55	1345.52
294.76	1411.05
294.97	1417.19
295.19	1411.05
295.40	1366.00
295.62	1411.05
295.83	1374.19
296.05	1273.84
296.26	1456.11
296.48	1304.56
296.69	1370.09
296.90	1374.19
297.12	1415.15
297.33	1384.43
297.55	1345.52
297.76	1335.28
297.98	1378.28
298.19	1421.29
298.41	1341.42
298.62	1394.67
298.83	1427.43
299.05	1363.95
299.26	1306.60
299.48	1359.85
299.69	1382.38
299.90	1357.80
300.12	1335.28
300.33	1488.87
300.55	1355.76
300.76	1343.47
300.98	1318.89
301.19	1402.86
301.40	1390.57
301.62	1302.51
301.83	1409.00
302.05	1409.00
302.26	1404.91
302.47	1322.99
302.69	1316.84
302.90	1355.76
303.12	1337.32
303.33	1345.52
303.54	1368.04
303.76	1325.04
303.97	1402.86
304.19	1425.39
304.40	1325.04
304.61	1349.61
304.83	1478.63
305.04	1318.89
305.26	1384.43
305.47	1374.19
305.68	1339.37
305.90	1366.00
306.11	1425.39
306.33	1394.67
306.54	1333.23
306.75	1327.08
306.97	1368.04
307.18	1302.51
307.39	1318.89
307.61	1384.43
307.82	1318.89
308.04	1359.85
308.25	1337.32
308.46	1413.10
308.68	1421.29
308.89	1425.39
309.10	1472.49
309.32	1421.29
309.53	1294.32
309.74	1363.95
309.96	1394.67
310.17	1433.58
310.39	1341.42
310.60	1333.23
310.81	1419.24
311.03	1351.66
311.24	1400.81
311.45	1327.08
311.67	1411.05
311.88	1288.17
312.09	1322.99
312.31	1349.61
312.52	1300.46
312.73	1384.43
312.95	1355.76
313.16	1359.85
313.37	1398.76
313.59	1437.67
313.80	1380.33
314.01	1425.39
314.23	1366.00
314.44	1400.81
314.65	1327.08
314.87	1296.36
315.08	1331.18
315.29	1335.28
315.51	1302.51
315.72	1378.28
315.93	1359.85
316.15	1396.71
316.36	1351.66
316.57	1290.22
316.79	1425.39
317.00	1357.80
317.21	1417.19
317.43	1380.33
317.64	1419.24
317.85	1409.00
318.07	1445.87
318.28	1501.16
318.49	1507.30
318.70	1642.47
318.92	1505.26
319.13	1609.70
319.34	1570.79
319.56	1429.48
319.77	1490.92
319.98	1447.91
320.20	1400.81
320.41	1398.76
320.62	1368.04
320.83	1314.80
321.05	1480.68
321.26	1388.52
321.47	1314.80
321.69	1392.62
321.90	1316.84
322.11	1322.99
322.32	1374.19
322.54	1386.47
322.75	1423.34
322.96	1441.77
323.18	1363.95
323.39	1345.52
323.60	1290.22
323.81	1359.85
324.03	1368.04
324.24	1429.48
324.45	1413.10
324.66	1390.57
324.88	1322.99
325.09	1419.24
325.30	1363.95
325.52	1349.61
325.73	1314.80
325.94	1292.27
326.15	1265.64
326.37	1329.13
326.58	1417.19
326.79	1392.62
327.00	1294.32
327.22	1396.71
327.43	1357.80
327.64	1347.56
327.85	1406.95
328.07	1437.67
328.28	1435.63
328.49	1333.23
328.70	1396.71
328.92	1361.90
329.13	1341.42
329.34	1372.14
329.55	1505.26
329.76	1478.63
329.98	1429.48
330.19	1394.67
330.40	1382.38
330.61	1392.62
330.83	1327.08
331.04	1331.18
331.25	1322.99
331.46	1359.85
331.68	1357.80
331.89	1413.10
332.10	1339.37
332.31	1296.36
332.52	1337.32
332.74	1388.52
332.95	1349.61
333.16	1390.57
333.37	1353.71
333.58	1322.99
333.80	1376.24
334.01	1368.04
334.22	1411.05
334.43	1370.09
334.64	1304.56
334.86	1443.82
335.07	1425.39
335.28	1390.57
335.49	1284.08
335.70	1429.48
335.92	1409.00
336.13	1427.43
336.34	1394.67
336.55	1415.15
336.76	1392.62
336.98	1320.94
337.19	1337.32
337.40	1503.21
337.61	1382.38
337.82	1439.72
338.04	1421.29
338.25	1298.41
338.46	1239.02
338.67	1298.41
338.88	1361.90
339.09	1351.66
339.31	1279.98
339.52	1380.33
339.73	1382.38
339.94	1445.87
340.15	1294.32
340.36	1372.14
340.58	1355.76
340.79	1265.64
341.00	1394.67
341.21	1296.36
341.42	1404.91
341.63	1398.76
341.85	1406.95
342.06	1386.47
342.27	1363.95
342.48	1351.66
342.69	1363.95
342.90	1374.19
343.12	1361.90
343.33	1394.67
343.54	1376.24
343.75	1484.78
343.96	1372.14
344.17	1396.71
344.38	1425.39
344.60	1374.19
344.81	1335.28
345.02	1361.90
345.23	1329.13
345.44	1425.39
345.65	1394.67
345.86	1339.37
346.07	1351.66
346.29	1374.19
346.50	1435.63
346.71	1415.15
346.92	1462.25
347.13	1431.53
347.34	1421.29
347.55	1404.91
347.76	1271.79
347.98	1318.89
348.19	1378.28
348.40	1517.54
348.61	1322.99
348.82	1370.09
349.03	1368.04
349.24	1366.00
349.45	1402.86
349.66	1312.75
349.88	1355.76
350.09	1363.95
350.30	1421.29
350.51	1394.67
350.72	1361.90
350.93	1396.71
351.14	1355.76
351.35	1411.05
351.56	1439.72
351.77	1374.19
351.99	1288.17
352.20	1402.86
352.41	1402.86
352.62	1306.60
352.83	1347.56
353.04	1404.91
353.25	1357.80
353.46	1390.57
353.67	1388.52
353.88	1300.46
354.09	1388.52
354.30	1331.18
354.52	1308.65
354.73	1390.57
354.94	1329.13
355.15	1341.42
355.36	1417.19
355.57	1320.94
355.78	1390.57
355.99	1308.65
356.20	1400.81
356.41	1370.09
356.62	1349.61
356.83	1378.28
357.04	1429.48
357.25	1372.14
357.46	1335.28
357.68	1341.42
357.89	1318.89
358.10	1343.47
358.31	1339.37
358.52	1386.47
358.73	1310.70
358.94	1273.84
359.15	1333.23
359.36	1361.90
359.57	1374.19
359.78	1454.06
359.99	1421.29
360.20	1325.04
360.41	1357.80
360.62	1392.62
360.83	1368.04
361.04	1370.09
361.25	1349.61
361.46	1411.05
361.67	1384.43
361.88	1374.19
362.09	1390.57
362.30	1425.39
362.51	1312.75
362.72	1357.80
362.93	1376.24
363.14	1394.67
363.35	1421.29
363.56	1349.61
363.78	1404.91
363.99	1347.56
364.20	1316.84
364.41	1325.04
364.62	1452.01
364.83	1363.95
365.04	1425.39
365.25	1277.93
365.46	1433.58
365.67	1404.91
365.88	1392.62
366.09	1363.95
366.30	1390.57
366.51	1279.98
366.72	1335.28
366.93	1388.52
367.14	1331.18
367.35	1472.49
367.56	1347.56
367.77	1472.49
367.98	1421.29
368.18	1386.47
368.39	1372.14
368.60	1445.87
368.81	1449.96
369.02	1470.44
369.23	1411.05
369.44	1314.80
369.65	1388.52
369.86	1413.10
370.07	1372.14
370.28	1351.66
370.49	1404.91
370.70	1406.95
370.91	1292.27
371.12	1376.24
371.33	1394.67
371.54	1335.28
371.75	1476.59
371.96	1310.70
372.17	1447.91
372.38	1386.47
372.59	1386.47
372.80	1380.33
373.01	1368.04
373.22	1296.36
373.43	1386.47
373.64	1286.12
373.85	1390.57
374.06	1474.54
374.26	1370.09
374.47	1427.43
374.68	1435.63
374.89	1349.61
375.10	1359.85
375.31	1470.44
375.52	1425.39
375.73	1392.62
375.94	1298.41
376.15	1474.54
376.36	1380.33
376.57	1402.86
376.78	1359.85
376.99	1339.37
377.20	1468.39
377.40	1306.60
377.61	1474.54
377.82	1310.70
378.03	1370.09
378.24	1382.38
378.45	1406.95
378.66	1312.75
378.87	1331.18
379.08	1247.21
379.29	1460.20
379.50	1415.15
379.71	1359.85
379.91	1396.71
380.12	1304.56
380.33	1386.47
380.54	1388.52
380.75	1343.47
380.96	1409.00
381.17	1402.86
381.38	1435.63
381.59	1445.87
381.80	1458.15
382.00	1472.49
382.21	1423.34
382.42	1443.82
382.63	1427.43
382.84	1460.20
383.05	1441.77
383.26	1417.19
383.47	1374.19
383.68	1419.24
383.88	1411.05
384.09	1400.81
384.30	1468.39
384.51	1374.19
384.72	1345.52
384.93	1374.19
385.14	1331.18
385.35	1454.06
385.55	1288.17
385.76	1470.44
385.97	1327.08
386.18	1343.47
386.39	1462.25
386.60	1499.11
386.81	1404.91
387.02	1421.29
387.22	1325.04
387.43	1447.91
387.64	1640.42
387.85	2328.54
388.06	5754.79
388.27	9647.98
388.48	11546.45
388.68	13172.54
388.89	13172.54
389.10	10620.77
389.31	9269.11
389.52	8427.39
389.73	7446.41
389.93	6934.42
390.14	6670.23
390.35	6102.95
390.56	5547.95
390.77	4571.07
390.98	3602.38
391.18	2799.57
391.39	2072.54
391.60	1716.20
391.81	1560.55
392.02	1431.53
392.23	1492.97
392.43	1374.19
392.64	1425.39
392.85	1433.58
393.06	1433.58
393.27	1406.95
393.47	1421.29
393.68	1353.71
393.89	1345.52
394.10	1452.01
394.31	1337.32
394.52	1359.85
394.72	1353.71
394.93	1406.95
395.14	1376.24
395.35	1370.09
395.56	1366.00
395.76	1476.59
395.97	1521.64
396.18	1581.03
396.39	1597.42
396.60	1650.66
396.80	1548.26
397.01	1519.59
397.22	1429.48
397.43	1495.02
397.64	1423.34
397.84	1492.97
398.05	1474.54
398.26	1429.48
398.47	1474.54
398.67	1462.25
398.88	1370.09
399.09	1396.71
399.30	1376.24
399.51	1402.86
399.71	1331.18
399.92	1392.62
400.13	1353.71
400.34	1329.13
400.54	1396.71
400.75	1462.25
400.96	1380.33
401.17	1466.35
401.37	1447.91
401.58	1433.58
401.79	1495.02
402.00	1708.01
402.21	1812.45
402.41	1761.25
402.62	1771.49
402.83	1734.63
403.04	1673.19
403.24	1759.21
403.45	1583.08
403.66	1654.76
403.87	1568.74
404.07	1538.02
404.28	1595.37
404.49	1527.78
404.70	1519.59
404.90	1458.15
405.11	1345.52
405.32	1429.48
405.52	1454.06
405.73	1318.89
405.94	1398.76
406.15	1452.01
406.35	1335.28
406.56	1394.67
406.77	1308.65
406.98	1378.28
407.18	1339.37
407.39	1347.56
407.60	1392.62
407.80	1339.37
408.01	1325.04
408.22	1380.33
408.43	1400.81
408.63	1363.95
408.84	1388.52
409.05	1374.19
409.25	1359.85
409.46	1409.00
409.67	1277.93
409.88	1441.77
410.08	1359.85
410.29	1308.65
410.50	1282.03
410.70	1374.19
410.91	1353.71
411.12	1462.25
411.32	1372.14
411.53	1370.09
411.74	1447.91
411.95	1441.77
412.15	1452.01
412.36	1386.47
412.57	1376.24
412.77	1464.30
412.98	1406.95
413.19	1341.42
413.39	1355.76
413.60	1447.91
413.81	1503.21
414.01	1398.76
414.22	1400.81
414.43	1439.72
414.63	1398.76
414.84	1419.24
415.05	1386.47
415.25	1363.95
415.46	1421.29
415.67	1404.91
415.87	1417.19
416.08	1419.24
416.29	1458.15
416.49	1388.52
416.70	1327.08
416.91	1370.09
417.11	1343.47
417.32	1396.71
417.53	1411.05
417.73	1454.06
417.94	1396.71
418.15	1398.76
418.35	1396.71
418.56	1386.47
418.77	1492.97
418.97	1312.75
419.18	1406.95
419.38	1265.64
419.59	1396.71
419.80	1417.19
420.00	1363.95
420.21	1402.86
420.42	1423.34
420.62	1322.99
420.83	1366.00
421.04	1288.17
421.24	1331.18
421.45	1376.24
421.65	1411.05
421.86	1429.48
422.07	1374.19
422.27	1398.76
422.48	1382.38
422.69	1337.32
422.89	1413.10
423.10	1417.19
423.30	1349.61
423.51	1413.10
423.72	1429.48
423.92	1363.95
424.13	1376.24
424.33	1337.32
424.54	1384.43
424.75	1347.56
424.95	1456.11
425.16	1423.34
425.36	1374.19
425.57	1406.95
425.78	1374.19
425.98	1353.71
426.19	1437.67
426.39	1398.76
426.60	1388.52
426.81	1449.96
427.01	1425.39
427.22	1388.52
427.42	1259.50
427.63	1316.84
427.83	1425.39
428.04	1425.39
428.25	1398.76
428.45	1392.62
428.66	1376.24
428.86	1353.71
429.07	1296.36
429.28	1380.33
429.48	1388.52
429.69	1265.64
429.89	1384.43
430.10	1275.88
430.30	1380.33
430.51	1337.32
430.71	1398.76
430.92	1337.32
431.13	1345.52
431.33	1337.32
431.54	1306.60
431.74	1402.86
431.95	1462.25
432.15	1318.89
432.36	1376.24
432.56	1398.76
432.77	1441.77
432.98	1480.68
433.18	1411.05
433.39	1370.09
433.59	1329.13
433.80	1406.95
434.00	1509.35
434.21	1312.75
434.41	1341.42
434.62	1437.67
434.82	1409.00
435.03	1409.00
435.23	1327.08
435.44	1306.60
435.64	1433.58
435.85	1419.24
436.06	1409.00
436.26	1382.38
436.47	1368.04
436.67	1386.47
436.88	1384.43
437.08	1339.37
437.29	1464.30
437.49	1382.38
437.70	1378.28
437.90	1468.39
438.11	1484.78
438.31	1548.26
438.52	1535.98
438.72	1460.20
438.93	1597.42
439.13	1388.52
439.34	1558.50
439.54	1406.95
439.75	1396.71
439.95	1421.29
440.16	1316.84
440.36	1376.24
440.57	1449.96
440.77	1380.33
440.98	1437.67
441.18	1417.19
441.39	1363.95
441.59	1353.71
441.80	1388.52
442.00	1349.61
442.21	1478.63
442.41	1320.94
442.62	1419.24
442.82	1359.85
443.02	1406.95
443.23	1470.44
443.43	1345.52
443.64	1462.25
443.84	1406.95
444.05	1478.63
444.25	1433.58
444.46	1345.52
444.66	1372.14
444.87	1443.82
445.07	1320.94
445.28	1384.43
445.48	1454.06
445.69	1468.39
445.89	1449.96
446.09	1501.16
446.30	2189.28
446.50	3665.86
446.71	4796.34
446.91	5380.01
447.12	5584.81
447.32	4974.52
447.53	4116.42
447.73	3862.47
447.93	3471.31
448.14	3123.15
448.34	3104.72
448.55	2883.54
448.75	2801.62
448.96	2629.59
449.16	2256.86
449.36	2215.90
449.57	1851.36
449.77	1648.61
449.98	1552.36
450.18	1507.30
450.39	1486.83
450.59	1378.28
450.79	1353.71
451.00	1386.47
451.20	1378.28
451.41	1349.61
451.61	1331.18
451.81	1331.18
452.02	1351.66
452.22	1415.15
452.43	1310.70
452.63	1372.14
