SpectraSuite Data File
++++++++++++++++++++++++++++++++++++
Date: Tue May 03 11:24:46 CEST 2016
User: root
Dark Spectrum Present: No
Reference Spectrum Present: No
Number of Sampled Component Spectra: 1
Spectrometers: USB4C02835
Integration Time (usec): 100000 (USB4C02835)
Spectra Averaged: 1 (USB4C02835)
Boxcar Smoothing: 0 (USB4C02835)
Correct for Electrical Dark: No (USB4C02835)
Strobe/Lamp Enabled: No (USB4C02835)
Correct for Detector Non-linearity: No (USB4C02835)
Correct for Stray Light: No (USB4C02835)
Number of Pixels in Processed Spectrum: 3648
>>>>>Begin Processed Spectral Data<<<<<
177.47	1132.53
177.69	1132.53
177.91	1132.53
178.13	1261.55
178.36	1191.92
178.58	1320.94
178.80	1368.04
179.02	1273.84
179.24	1394.67
179.46	1368.04
179.68	1456.11
179.90	1374.19
180.13	1343.47
180.35	1345.52
180.57	1359.85
180.79	1374.19
181.01	1394.67
181.23	1452.01
181.45	1353.71
181.67	1310.70
181.90	1353.71
182.12	1439.72
182.34	1304.56
182.56	1454.06
182.78	1374.19
183.00	1376.24
183.22	1341.42
183.44	1298.41
183.66	1515.50
183.89	1495.02
184.11	1390.57
184.33	1390.57
184.55	1347.56
184.77	1394.67
184.99	1376.24
185.21	1370.09
185.43	1398.76
185.65	1310.70
185.87	1411.05
186.10	1406.95
186.32	1474.54
186.54	1419.24
186.76	1337.32
186.98	1433.58
187.20	1386.47
187.42	1320.94
187.64	1474.54
187.86	1308.65
188.08	1363.95
188.30	1333.23
188.52	1409.00
188.75	1392.62
188.97	1409.00
189.19	1378.28
189.41	1392.62
189.63	1449.96
189.85	1277.93
190.07	1351.66
190.29	1224.69
190.51	1394.67
190.73	1327.08
190.95	1406.95
191.17	1400.81
191.39	1335.28
191.61	1355.76
191.84	1279.98
192.06	1384.43
192.28	1359.85
192.50	1460.20
192.72	1273.84
192.94	1288.17
193.16	1380.33
193.38	1454.06
193.60	1320.94
193.82	1314.80
194.04	1392.62
194.26	1345.52
194.48	1357.80
194.70	1361.90
194.92	1302.51
195.14	1380.33
195.36	1390.57
195.58	1398.76
195.80	1306.60
196.02	1290.22
196.24	1370.09
196.46	1415.15
196.69	1359.85
196.91	1503.21
197.13	1320.94
197.35	1402.86
197.57	1466.35
197.79	1361.90
198.01	1370.09
198.23	1409.00
198.45	1370.09
198.67	1337.32
198.89	1353.71
199.11	1370.09
199.33	1361.90
199.55	1269.74
199.77	1368.04
199.99	1370.09
200.21	1351.66
200.43	1380.33
200.65	1255.40
200.87	1279.98
201.09	1353.71
201.31	1322.99
201.53	1415.15
201.75	1404.91
201.97	1384.43
202.19	1382.38
202.41	1363.95
202.63	1497.07
202.85	1351.66
203.07	1368.04
203.29	1384.43
203.51	1357.80
203.73	1277.93
203.95	1441.77
204.17	1335.28
204.39	1296.36
204.61	1325.04
204.83	1316.84
205.05	1390.57
205.27	1366.00
205.49	1368.04
205.71	1388.52
205.93	1318.89
206.15	1318.89
206.37	1384.43
206.59	1333.23
206.81	1322.99
207.03	1329.13
207.25	1314.80
207.47	1331.18
207.69	1359.85
207.91	1460.20
208.13	1322.99
208.34	1374.19
208.56	1425.39
208.78	1419.24
209.00	1363.95
209.22	1331.18
209.44	1431.53
209.66	1335.28
209.88	1370.09
210.10	1349.61
210.32	1363.95
210.54	1484.78
210.76	1417.19
210.98	1398.76
211.20	1243.12
211.42	1394.67
211.64	1370.09
211.86	1402.86
212.08	1372.14
212.30	1382.38
212.52	1325.04
212.74	1357.80
212.96	1419.24
213.17	1345.52
213.39	1363.95
213.61	1357.80
213.83	1382.38
214.05	1308.65
214.27	1384.43
214.49	1325.04
214.71	1363.95
214.93	1437.67
215.15	1406.95
215.37	1363.95
215.59	1372.14
215.81	1355.76
216.03	1392.62
216.24	1392.62
216.46	1312.75
216.68	1333.23
216.90	1286.12
217.12	1427.43
217.34	1308.65
217.56	1390.57
217.78	1374.19
218.00	1384.43
218.22	1353.71
218.44	1406.95
218.66	1370.09
218.87	1411.05
219.09	1435.63
219.31	1361.90
219.53	1388.52
219.75	1380.33
219.97	1376.24
220.19	1353.71
220.41	1306.60
220.63	1413.10
220.85	1415.15
221.06	1312.75
221.28	1386.47
221.50	1419.24
221.72	1396.71
221.94	1378.28
222.16	1282.03
222.38	1355.76
222.60	1404.91
222.82	1335.28
223.03	1370.09
223.25	1273.84
223.47	1429.48
223.69	1488.87
223.91	1357.80
224.13	1378.28
224.35	1363.95
224.57	1394.67
224.78	1429.48
225.00	1386.47
225.22	1425.39
225.44	1357.80
225.66	1437.67
225.88	1355.76
226.10	1427.43
226.32	1392.62
226.53	1454.06
226.75	1361.90
226.97	1419.24
227.19	1357.80
227.41	1431.53
227.63	1273.84
227.85	1300.46
228.06	1351.66
228.28	1363.95
228.50	1382.38
228.72	1290.22
228.94	1380.33
229.16	1327.08
229.37	1353.71
229.59	1402.86
229.81	1345.52
230.03	1335.28
230.25	1353.71
230.47	1423.34
230.69	1349.61
230.90	1425.39
231.12	1339.37
231.34	1357.80
231.56	1437.67
231.78	1355.76
232.00	1341.42
232.21	1370.09
232.43	1370.09
232.65	1282.03
232.87	1404.91
233.09	1372.14
233.30	1308.65
233.52	1394.67
233.74	1417.19
233.96	1363.95
234.18	1390.57
234.40	1361.90
234.61	1427.43
234.83	1290.22
235.05	1322.99
235.27	1316.84
235.49	1402.86
235.70	1415.15
235.92	1509.35
236.14	1380.33
236.36	1452.01
236.58	1273.84
236.79	1386.47
237.01	1353.71
237.23	1361.90
237.45	1454.06
237.67	1386.47
237.88	1331.18
238.10	1454.06
238.32	1322.99
238.54	1400.81
238.76	1355.76
238.97	1316.84
239.19	1312.75
239.41	1357.80
239.63	1398.76
239.85	1372.14
240.06	1470.44
240.28	1456.11
240.50	1396.71
240.72	1353.71
240.93	1368.04
241.15	1392.62
241.37	1374.19
241.59	1392.62
241.81	1320.94
242.02	1355.76
242.24	1449.96
242.46	1378.28
242.68	1384.43
242.89	1357.80
243.11	1402.86
243.33	1466.35
243.55	1306.60
243.76	1363.95
243.98	1329.13
244.20	1376.24
244.42	1345.52
244.64	1439.72
244.85	1306.60
245.07	1288.17
245.29	1335.28
245.51	1409.00
245.72	1304.56
245.94	1388.52
246.16	1445.87
246.38	1411.05
246.59	1409.00
246.81	1298.41
247.03	1460.20
247.24	1296.36
247.46	1310.70
247.68	1357.80
247.90	1316.84
248.11	1322.99
248.33	1392.62
248.55	1318.89
248.77	1318.89
248.98	1427.43
249.20	1441.77
249.42	1347.56
249.64	1427.43
249.85	1378.28
250.07	1337.32
250.29	1413.10
250.50	1402.86
250.72	1423.34
250.94	1406.95
251.16	1460.20
251.37	1458.15
251.59	1423.34
251.81	1357.80
252.02	1349.61
252.24	1335.28
252.46	1437.67
252.68	1355.76
252.89	1310.70
253.11	1345.52
253.33	1484.78
253.54	1423.34
253.76	1382.38
253.98	1357.80
254.20	1345.52
254.41	1261.55
254.63	1378.28
254.85	1368.04
255.06	1361.90
255.28	1359.85
255.50	1306.60
255.71	1294.32
255.93	1386.47
256.15	1347.56
256.36	1427.43
256.58	1382.38
256.80	1439.72
257.02	1415.15
257.23	1431.53
257.45	1286.12
257.67	1404.91
257.88	1355.76
258.10	1396.71
258.32	1368.04
258.53	1376.24
258.75	1415.15
258.97	1361.90
259.18	1400.81
259.40	1361.90
259.62	1388.52
259.83	1458.15
260.05	1456.11
260.27	1552.36
260.48	1398.76
260.70	1314.80
260.92	1359.85
261.13	1361.90
261.35	1404.91
261.57	1347.56
261.78	1374.19
262.00	1402.86
262.22	1382.38
262.43	1259.50
262.65	1341.42
262.86	1406.95
263.08	1433.58
263.30	1359.85
263.51	1345.52
263.73	1275.88
263.95	1433.58
264.16	1384.43
264.38	1366.00
264.60	1363.95
264.81	1374.19
265.03	1394.67
265.25	1370.09
265.46	1288.17
265.68	1380.33
265.89	1306.60
266.11	1347.56
266.33	1366.00
266.54	1374.19
266.76	1488.87
266.98	1398.76
267.19	1392.62
267.41	1382.38
267.62	1423.34
267.84	1337.32
268.06	1431.53
268.27	1376.24
268.49	1411.05
268.70	1441.77
268.92	1314.80
269.14	1312.75
269.35	1288.17
269.57	1349.61
269.79	1411.05
270.00	1388.52
270.22	1384.43
270.43	1378.28
270.65	1357.80
270.87	1347.56
271.08	1357.80
271.30	1359.85
271.51	1390.57
271.73	1421.29
271.95	1423.34
272.16	1427.43
272.38	1423.34
272.59	1273.84
272.81	1366.00
273.02	1359.85
273.24	1378.28
273.46	1341.42
273.67	1304.56
273.89	1366.00
274.10	1370.09
274.32	1333.23
274.54	1421.29
274.75	1310.70
274.97	1413.10
275.18	1384.43
275.40	1363.95
275.61	1351.66
275.83	1370.09
276.05	1333.23
276.26	1368.04
276.48	1464.30
276.69	1304.56
276.91	1343.47
277.12	1415.15
277.34	1327.08
277.55	1394.67
277.77	1296.36
277.99	1396.71
278.20	1320.94
278.42	1337.32
278.63	1374.19
278.85	1329.13
279.06	1320.94
279.28	1427.43
279.49	1404.91
279.71	1433.58
279.93	1400.81
280.14	1339.37
280.36	1308.65
280.57	1429.48
280.79	1400.81
281.00	1384.43
281.22	1363.95
281.43	1327.08
281.65	1300.46
281.86	1314.80
282.08	1441.77
282.29	1409.00
282.51	1286.12
282.73	1302.51
282.94	1386.47
283.16	1402.86
283.37	1392.62
283.59	1380.33
283.80	1404.91
284.02	1318.89
284.23	1366.00
284.45	1355.76
284.66	1290.22
284.88	1302.51
285.09	1290.22
285.31	1429.48
285.52	1349.61
285.74	1314.80
285.95	1357.80
286.17	1396.71
286.38	1445.87
286.60	1282.03
286.81	1290.22
287.03	1347.56
287.24	1370.09
287.46	1339.37
287.67	1404.91
287.89	1394.67
288.10	1376.24
288.32	1386.47
288.53	1376.24
288.75	1314.80
288.96	1400.81
289.18	1349.61
289.39	1363.95
289.61	1398.76
289.82	1449.96
290.04	1366.00
290.25	1351.66
290.47	1347.56
290.68	1370.09
290.90	1386.47
291.11	1236.97
291.33	1349.61
291.54	1357.80
291.76	1400.81
291.97	1402.86
292.18	1433.58
292.40	1333.23
292.61	1400.81
292.83	1374.19
293.04	1400.81
293.26	1343.47
293.47	1333.23
293.69	1351.66
293.90	1337.32
294.12	1435.63
294.33	1361.90
294.55	1337.32
294.76	1447.91
294.97	1366.00
295.19	1443.82
295.40	1400.81
295.62	1411.05
295.83	1411.05
296.05	1372.14
296.26	1425.39
296.48	1337.32
296.69	1329.13
296.90	1411.05
297.12	1355.76
297.33	1390.57
297.55	1382.38
297.76	1382.38
297.98	1431.53
298.19	1372.14
298.41	1376.24
298.62	1277.93
298.83	1308.65
299.05	1398.76
299.26	1325.04
299.48	1398.76
299.69	1398.76
299.90	1404.91
300.12	1331.18
300.33	1378.28
300.55	1390.57
300.76	1347.56
300.98	1304.56
301.19	1406.95
301.40	1312.75
301.62	1331.18
301.83	1413.10
302.05	1406.95
302.26	1415.15
302.47	1384.43
302.69	1335.28
302.90	1337.32
303.12	1253.36
303.33	1449.96
303.54	1492.97
303.76	1415.15
303.97	1427.43
304.19	1452.01
304.40	1316.84
304.61	1394.67
304.83	1445.87
305.04	1415.15
305.26	1404.91
305.47	1304.56
305.68	1443.82
305.90	1361.90
306.11	1404.91
306.33	1322.99
306.54	1368.04
306.75	1359.85
306.97	1337.32
307.18	1306.60
307.39	1376.24
307.61	1456.11
307.82	1322.99
308.04	1406.95
308.25	1361.90
308.46	1329.13
308.68	1341.42
308.89	1376.24
309.10	1406.95
309.32	1402.86
309.53	1370.09
309.74	1327.08
309.96	1300.46
310.17	1423.34
310.39	1318.89
310.60	1411.05
310.81	1357.80
311.03	1327.08
311.24	1421.29
311.45	1341.42
311.67	1490.92
311.88	1396.71
312.09	1306.60
312.31	1339.37
312.52	1286.12
312.73	1372.14
312.95	1353.71
313.16	1310.70
313.37	1435.63
313.59	1380.33
313.80	1398.76
314.01	1443.82
314.23	1376.24
314.44	1396.71
314.65	1273.84
314.87	1273.84
315.08	1331.18
315.29	1388.52
315.51	1333.23
315.72	1353.71
315.93	1368.04
316.15	1396.71
316.36	1390.57
316.57	1331.18
316.79	1449.96
317.00	1443.82
317.21	1374.19
317.43	1318.89
317.64	1413.10
317.85	1433.58
318.07	1419.24
318.28	1531.88
318.49	1611.75
318.70	1683.43
318.92	1538.02
319.13	1505.26
319.34	1525.74
319.56	1490.92
319.77	1423.34
319.98	1445.87
320.20	1456.11
320.41	1445.87
320.62	1476.59
320.83	1327.08
321.05	1435.63
321.26	1402.86
321.47	1390.57
321.69	1419.24
321.90	1327.08
322.11	1351.66
322.32	1327.08
322.54	1363.95
322.75	1290.22
322.96	1409.00
323.18	1279.98
323.39	1282.03
323.60	1316.84
323.81	1425.39
324.03	1417.19
324.24	1353.71
324.45	1363.95
324.66	1388.52
324.88	1423.34
325.09	1515.50
325.30	1425.39
325.52	1359.85
325.73	1376.24
325.94	1380.33
326.15	1370.09
326.37	1370.09
326.58	1357.80
326.79	1421.29
327.00	1294.32
327.22	1413.10
327.43	1302.51
327.64	1345.52
327.85	1376.24
328.07	1320.94
328.28	1419.24
328.49	1347.56
328.70	1306.60
328.92	1413.10
329.13	1349.61
329.34	1406.95
329.55	1433.58
329.76	1349.61
329.98	1349.61
330.19	1445.87
330.40	1370.09
330.61	1378.28
330.83	1419.24
331.04	1339.37
331.25	1335.28
331.46	1314.80
331.68	1349.61
331.89	1388.52
332.10	1380.33
332.31	1296.36
332.52	1241.07
332.74	1347.56
332.95	1333.23
333.16	1355.76
333.37	1480.68
333.58	1380.33
333.80	1363.95
334.01	1320.94
334.22	1466.35
334.43	1345.52
334.64	1368.04
334.86	1292.27
335.07	1308.65
335.28	1372.14
335.49	1327.08
335.70	1402.86
335.92	1435.63
336.13	1431.53
336.34	1447.91
336.55	1347.56
336.76	1304.56
336.98	1316.84
337.19	1345.52
337.40	1368.04
337.61	1402.86
337.82	1386.47
338.04	1402.86
338.25	1370.09
338.46	1353.71
338.67	1325.04
338.88	1343.47
339.09	1413.10
339.31	1370.09
339.52	1368.04
339.73	1265.64
339.94	1296.36
340.15	1409.00
340.36	1347.56
340.58	1413.10
340.79	1335.28
341.00	1462.25
341.21	1329.13
341.42	1398.76
341.63	1327.08
341.85	1417.19
342.06	1357.80
342.27	1359.85
342.48	1370.09
342.69	1335.28
342.90	1370.09
343.12	1396.71
343.33	1320.94
343.54	1345.52
343.75	1421.29
343.96	1355.76
344.17	1380.33
344.38	1443.82
344.60	1263.60
344.81	1359.85
345.02	1421.29
345.23	1355.76
345.44	1341.42
345.65	1382.38
345.86	1396.71
346.07	1363.95
346.29	1376.24
346.50	1370.09
346.71	1441.77
346.92	1439.72
347.13	1443.82
347.34	1361.90
347.55	1333.23
347.76	1394.67
347.98	1372.14
348.19	1394.67
348.40	1470.44
348.61	1294.32
348.82	1425.39
349.03	1370.09
349.24	1327.08
349.45	1431.53
349.66	1343.47
349.88	1335.28
350.09	1382.38
350.30	1388.52
350.51	1353.71
350.72	1406.95
350.93	1429.48
351.14	1316.84
351.35	1335.28
351.56	1337.32
351.77	1335.28
351.99	1380.33
352.20	1380.33
352.41	1423.34
352.62	1257.45
352.83	1402.86
353.04	1329.13
353.25	1337.32
353.46	1468.39
353.67	1402.86
353.88	1314.80
354.09	1406.95
354.30	1363.95
354.52	1376.24
354.73	1284.08
354.94	1431.53
355.15	1382.38
355.36	1435.63
355.57	1302.51
355.78	1402.86
355.99	1372.14
356.20	1390.57
356.41	1419.24
356.62	1374.19
356.83	1329.13
357.04	1429.48
357.25	1347.56
357.46	1304.56
357.68	1341.42
357.89	1351.66
358.10	1363.95
358.31	1355.76
358.52	1318.89
358.73	1337.32
358.94	1349.61
359.15	1353.71
359.36	1429.48
359.57	1337.32
359.78	1345.52
359.99	1368.04
360.20	1294.32
360.41	1368.04
360.62	1402.86
360.83	1406.95
361.04	1433.58
361.25	1445.87
361.46	1441.77
361.67	1386.47
361.88	1441.77
362.09	1392.62
362.30	1363.95
362.51	1351.66
362.72	1363.95
362.93	1363.95
363.14	1443.82
363.35	1316.84
363.56	1327.08
363.78	1402.86
363.99	1400.81
364.20	1279.98
364.41	1372.14
364.62	1374.19
364.83	1449.96
365.04	1400.81
365.25	1411.05
365.46	1425.39
365.67	1353.71
365.88	1376.24
366.09	1361.90
366.30	1265.64
366.51	1437.67
366.72	1343.47
366.93	1349.61
367.14	1435.63
367.35	1363.95
367.56	1318.89
367.77	1413.10
367.98	1458.15
368.18	1363.95
368.39	1368.04
368.60	1259.50
368.81	1396.71
369.02	1380.33
369.23	1343.47
369.44	1376.24
369.65	1386.47
369.86	1374.19
370.07	1359.85
370.28	1394.67
370.49	1394.67
370.70	1402.86
370.91	1409.00
371.12	1331.18
371.33	1343.47
371.54	1314.80
371.75	1464.30
371.96	1310.70
372.17	1341.42
372.38	1372.14
372.59	1314.80
372.80	1308.65
373.01	1374.19
373.22	1402.86
373.43	1411.05
373.64	1376.24
373.85	1390.57
374.06	1417.19
374.26	1361.90
374.47	1449.96
374.68	1409.00
374.89	1361.90
375.10	1372.14
375.31	1394.67
375.52	1368.04
375.73	1380.33
375.94	1335.28
376.15	1486.83
376.36	1236.97
376.57	1372.14
376.78	1378.28
376.99	1343.47
377.20	1437.67
377.40	1421.29
377.61	1417.19
377.82	1374.19
378.03	1406.95
378.24	1415.15
378.45	1335.28
378.66	1343.47
378.87	1202.16
379.08	1370.09
379.29	1316.84
379.50	1409.00
379.71	1288.17
379.91	1359.85
380.12	1372.14
380.33	1413.10
380.54	1339.37
380.75	1382.38
380.96	1355.76
381.17	1425.39
381.38	1435.63
381.59	1511.40
381.80	1398.76
382.00	1550.31
382.21	1400.81
382.42	1495.02
382.63	1417.19
382.84	1392.62
383.05	1458.15
383.26	1427.43
383.47	1386.47
383.68	1427.43
383.88	1402.86
384.09	1370.09
384.30	1357.80
384.51	1413.10
384.72	1310.70
384.93	1345.52
385.14	1429.48
385.35	1396.71
385.55	1380.33
385.76	1433.58
385.97	1363.95
386.18	1325.04
386.39	1454.06
386.60	1419.24
386.81	1341.42
387.02	1370.09
387.22	1351.66
387.43	1468.39
387.64	1540.07
387.85	2285.53
388.06	5685.16
388.27	9422.70
388.48	11493.20
388.68	13129.53
388.89	13481.78
389.10	10618.72
389.31	9248.63
389.52	8368.00
389.73	7301.01
389.93	6965.14
390.14	6492.06
390.35	5994.40
390.56	5468.08
390.77	4483.00
390.98	3643.34
391.18	2822.10
391.39	2154.46
391.60	1734.63
391.81	1552.36
392.02	1382.38
392.23	1509.35
392.43	1480.68
392.64	1447.91
392.85	1445.87
393.06	1437.67
393.27	1406.95
393.47	1343.47
393.68	1388.52
393.89	1398.76
394.10	1384.43
394.31	1355.76
394.52	1396.71
394.72	1380.33
394.93	1394.67
395.14	1331.18
395.35	1394.67
395.56	1357.80
395.76	1570.79
395.97	1652.71
396.18	1619.94
396.39	1630.18
396.60	1640.42
396.80	1499.11
397.01	1488.87
397.22	1544.17
397.43	1492.97
397.64	1431.53
397.84	1525.74
398.05	1488.87
398.26	1425.39
398.47	1415.15
398.67	1454.06
398.88	1423.34
399.09	1345.52
399.30	1325.04
399.51	1353.71
399.71	1282.03
399.92	1310.70
400.13	1370.09
400.34	1294.32
400.54	1388.52
400.75	1454.06
400.96	1382.38
401.17	1464.30
401.37	1415.15
401.58	1269.74
401.79	1554.41
402.00	1744.87
402.21	1701.86
402.41	1820.64
402.62	1763.30
402.83	1697.77
403.04	1646.57
403.24	1644.52
403.45	1523.69
403.66	1591.27
403.87	1574.89
404.07	1519.59
404.28	1570.79
404.49	1515.50
404.70	1480.68
404.90	1460.20
405.11	1404.91
405.32	1415.15
405.52	1318.89
405.73	1294.32
405.94	1220.59
406.15	1390.57
406.35	1404.91
406.56	1370.09
406.77	1456.11
406.98	1435.63
407.18	1343.47
407.39	1427.43
407.60	1390.57
407.80	1400.81
408.01	1355.76
408.22	1310.70
408.43	1294.32
408.63	1316.84
408.84	1386.47
409.05	1349.61
409.25	1370.09
409.46	1320.94
409.67	1320.94
409.88	1282.03
410.08	1390.57
410.29	1357.80
410.50	1349.61
410.70	1462.25
410.91	1331.18
411.12	1409.00
411.32	1421.29
411.53	1462.25
411.74	1499.11
411.95	1470.44
412.15	1439.72
412.36	1437.67
412.57	1452.01
412.77	1540.07
412.98	1425.39
413.19	1370.09
413.39	1366.00
413.60	1413.10
413.81	1462.25
414.01	1366.00
414.22	1363.95
414.43	1322.99
414.63	1392.62
414.84	1415.15
415.05	1374.19
415.25	1292.27
415.46	1368.04
415.67	1384.43
415.87	1398.76
416.08	1257.45
416.29	1419.24
416.49	1392.62
416.70	1372.14
416.91	1392.62
417.11	1433.58
417.32	1318.89
417.53	1433.58
417.73	1404.91
417.94	1351.66
418.15	1406.95
418.35	1419.24
418.56	1335.28
418.77	1347.56
418.97	1425.39
419.18	1376.24
419.38	1267.69
419.59	1339.37
419.80	1386.47
420.00	1333.23
420.21	1392.62
420.42	1419.24
420.62	1355.76
420.83	1300.46
421.04	1372.14
421.24	1318.89
421.45	1322.99
421.65	1445.87
421.86	1392.62
422.07	1339.37
422.27	1406.95
422.48	1464.30
422.69	1310.70
422.89	1320.94
423.10	1409.00
423.30	1296.36
423.51	1409.00
423.72	1394.67
423.92	1427.43
424.13	1290.22
424.33	1341.42
424.54	1329.13
424.75	1359.85
424.95	1511.40
425.16	1380.33
425.36	1394.67
425.57	1292.27
425.78	1486.83
425.98	1456.11
426.19	1347.56
426.39	1308.65
426.60	1396.71
426.81	1454.06
427.01	1423.34
427.22	1394.67
427.42	1347.56
427.63	1359.85
427.83	1398.76
428.04	1355.76
428.25	1441.77
428.45	1392.62
428.66	1415.15
428.86	1357.80
429.07	1322.99
429.28	1429.48
429.48	1331.18
429.69	1351.66
429.89	1406.95
430.10	1269.74
430.30	1322.99
430.51	1421.29
430.71	1392.62
430.92	1335.28
431.13	1353.71
431.33	1427.43
431.54	1402.86
431.74	1425.39
431.95	1396.71
432.15	1357.80
432.36	1396.71
432.56	1404.91
432.77	1409.00
432.98	1464.30
433.18	1341.42
433.39	1322.99
433.59	1275.88
433.80	1443.82
434.00	1458.15
434.21	1384.43
434.41	1345.52
434.62	1460.20
434.82	1370.09
435.03	1353.71
435.23	1327.08
435.44	1294.32
435.64	1384.43
435.85	1296.36
436.06	1370.09
436.26	1472.49
436.47	1372.14
436.67	1443.82
436.88	1390.57
437.08	1466.35
437.29	1454.06
437.49	1400.81
437.70	1411.05
437.90	1388.52
438.11	1486.83
438.31	1507.30
438.52	1531.88
438.72	1525.74
438.93	1511.40
439.13	1441.77
439.34	1507.30
439.54	1390.57
439.75	1466.35
439.95	1361.90
440.16	1462.25
440.36	1462.25
440.57	1447.91
440.77	1402.86
440.98	1396.71
441.18	1415.15
441.39	1314.80
441.59	1425.39
441.80	1456.11
442.00	1415.15
442.21	1447.91
442.41	1298.41
442.62	1396.71
442.82	1322.99
443.02	1441.77
443.23	1406.95
443.43	1337.32
443.64	1439.72
443.84	1402.86
444.05	1404.91
444.25	1363.95
444.46	1370.09
444.66	1400.81
444.87	1390.57
445.07	1333.23
445.28	1404.91
445.48	1435.63
445.69	1392.62
445.89	1470.44
446.09	1482.73
446.30	2303.96
446.50	3772.36
446.71	4605.88
446.91	5384.11
447.12	5636.01
447.32	4929.46
447.53	4196.29
447.73	3739.59
447.93	3381.20
448.14	3198.93
448.34	3000.27
448.55	2721.75
448.75	2672.60
448.96	2699.22
449.16	2344.92
449.36	2238.43
449.57	2039.78
449.77	1720.29
449.98	1564.65
450.18	1611.75
450.39	1499.11
450.59	1431.53
450.79	1464.30
451.00	1423.34
451.20	1417.19
451.41	1419.24
451.61	1368.04
451.81	1380.33
452.02	1302.51
452.22	1386.47
452.43	1337.32
452.63	1349.61
