SpectraSuite Data File
++++++++++++++++++++++++++++++++++++
Date: Tue May 03 11:24:44 CEST 2016
User: root
Dark Spectrum Present: No
Reference Spectrum Present: No
Number of Sampled Component Spectra: 1
Spectrometers: USB4C02835
Integration Time (usec): 100000 (USB4C02835)
Spectra Averaged: 1 (USB4C02835)
Boxcar Smoothing: 0 (USB4C02835)
Correct for Electrical Dark: No (USB4C02835)
Strobe/Lamp Enabled: No (USB4C02835)
Correct for Detector Non-linearity: No (USB4C02835)
Correct for Stray Light: No (USB4C02835)
Number of Pixels in Processed Spectrum: 3648
>>>>>Begin Processed Spectral Data<<<<<
177.47	1234.93
177.69	1234.93
177.91	1234.93
178.13	1251.31
178.36	1216.49
178.58	1331.18
178.80	1445.87
179.02	1320.94
179.24	1327.08
179.46	1374.19
179.68	1413.10
179.90	1298.41
180.13	1335.28
180.35	1406.95
180.57	1335.28
180.79	1359.85
181.01	1392.62
181.23	1357.80
181.45	1425.39
181.67	1425.39
181.90	1341.42
182.12	1345.52
182.34	1320.94
182.56	1355.76
182.78	1353.71
183.00	1402.86
183.22	1386.47
183.44	1290.22
183.66	1419.24
183.89	1427.43
184.11	1419.24
184.33	1353.71
184.55	1437.67
184.77	1386.47
184.99	1380.33
185.21	1325.04
185.43	1435.63
185.65	1386.47
185.87	1402.86
186.10	1396.71
186.32	1443.82
186.54	1421.29
186.76	1306.60
186.98	1359.85
187.20	1343.47
187.42	1357.80
187.64	1427.43
187.86	1341.42
188.08	1376.24
188.30	1355.76
188.52	1355.76
188.75	1447.91
188.97	1437.67
189.19	1329.13
189.41	1449.96
189.63	1386.47
189.85	1329.13
190.07	1388.52
190.29	1273.84
190.51	1335.28
190.73	1351.66
190.95	1415.15
191.17	1343.47
191.39	1308.65
191.61	1337.32
191.84	1392.62
192.06	1427.43
192.28	1345.52
192.50	1470.44
192.72	1345.52
192.94	1400.81
193.16	1320.94
193.38	1347.56
193.60	1300.46
193.82	1425.39
194.04	1353.71
194.26	1411.05
194.48	1406.95
194.70	1347.56
194.92	1351.66
195.14	1466.35
195.36	1331.18
195.58	1406.95
195.80	1400.81
196.02	1275.88
196.24	1363.95
196.46	1380.33
196.69	1320.94
196.91	1394.67
197.13	1359.85
197.35	1388.52
197.57	1433.58
197.79	1388.52
198.01	1341.42
198.23	1361.90
198.45	1347.56
198.67	1292.27
198.89	1382.38
199.11	1325.04
199.33	1394.67
199.55	1331.18
199.77	1392.62
199.99	1374.19
200.21	1357.80
200.43	1382.38
200.65	1386.47
200.87	1247.21
201.09	1329.13
201.31	1357.80
201.53	1437.67
201.75	1431.53
201.97	1353.71
202.19	1331.18
202.41	1349.61
202.63	1431.53
202.85	1415.15
203.07	1337.32
203.29	1357.80
203.51	1339.37
203.73	1335.28
203.95	1413.10
204.17	1355.76
204.39	1347.56
204.61	1349.61
204.83	1409.00
205.05	1427.43
205.27	1325.04
205.49	1484.78
205.71	1372.14
205.93	1306.60
206.15	1271.79
206.37	1400.81
206.59	1310.70
206.81	1298.41
207.03	1357.80
207.25	1378.28
207.47	1486.83
207.69	1312.75
207.91	1400.81
208.13	1388.52
208.34	1288.17
208.56	1382.38
208.78	1396.71
209.00	1345.52
209.22	1333.23
209.44	1404.91
209.66	1396.71
209.88	1380.33
210.10	1361.90
210.32	1411.05
210.54	1501.16
210.76	1357.80
210.98	1454.06
211.20	1339.37
211.42	1361.90
211.64	1421.29
211.86	1415.15
212.08	1425.39
212.30	1380.33
212.52	1396.71
212.74	1363.95
212.96	1370.09
213.17	1382.38
213.39	1349.61
213.61	1386.47
213.83	1454.06
214.05	1363.95
214.27	1355.76
214.49	1404.91
214.71	1312.75
214.93	1386.47
215.15	1423.34
215.37	1357.80
215.59	1316.84
215.81	1394.67
216.03	1382.38
216.24	1421.29
216.46	1359.85
216.68	1415.15
216.90	1394.67
217.12	1417.19
217.34	1357.80
217.56	1437.67
217.78	1404.91
218.00	1409.00
218.22	1413.10
218.44	1363.95
218.66	1331.18
218.87	1492.97
219.09	1349.61
219.31	1310.70
219.53	1374.19
219.75	1325.04
219.97	1320.94
220.19	1366.00
220.41	1314.80
220.63	1439.72
220.85	1353.71
221.06	1374.19
221.28	1470.44
221.50	1406.95
221.72	1406.95
221.94	1363.95
222.16	1380.33
222.38	1400.81
222.60	1368.04
222.82	1398.76
223.03	1341.42
223.25	1298.41
223.47	1419.24
223.69	1486.83
223.91	1386.47
224.13	1351.66
224.35	1386.47
224.57	1349.61
224.78	1394.67
225.00	1390.57
225.22	1284.08
225.44	1355.76
225.66	1351.66
225.88	1370.09
226.10	1441.77
226.32	1320.94
226.53	1400.81
226.75	1351.66
226.97	1359.85
227.19	1363.95
227.41	1359.85
227.63	1325.04
227.85	1415.15
228.06	1386.47
228.28	1341.42
228.50	1409.00
228.72	1376.24
228.94	1404.91
229.16	1325.04
229.37	1343.47
229.59	1322.99
229.81	1368.04
230.03	1314.80
230.25	1353.71
230.47	1411.05
230.69	1325.04
230.90	1392.62
231.12	1376.24
231.34	1398.76
231.56	1396.71
231.78	1310.70
232.00	1359.85
232.21	1425.39
232.43	1368.04
232.65	1345.52
232.87	1409.00
233.09	1406.95
233.30	1363.95
233.52	1398.76
233.74	1462.25
233.96	1370.09
234.18	1404.91
234.40	1390.57
234.61	1333.23
234.83	1331.18
235.05	1394.67
235.27	1386.47
235.49	1419.24
235.70	1445.87
235.92	1452.01
236.14	1380.33
236.36	1460.20
236.58	1294.32
236.79	1435.63
237.01	1372.14
237.23	1363.95
237.45	1458.15
237.67	1363.95
237.88	1413.10
238.10	1359.85
238.32	1292.27
238.54	1368.04
238.76	1318.89
238.97	1345.52
239.19	1271.79
239.41	1452.01
239.63	1435.63
239.85	1361.90
240.06	1359.85
240.28	1390.57
240.50	1415.15
240.72	1376.24
240.93	1271.79
241.15	1437.67
241.37	1400.81
241.59	1366.00
241.81	1388.52
242.02	1329.13
242.24	1431.53
242.46	1443.82
242.68	1302.51
242.89	1425.39
243.11	1378.28
243.33	1413.10
243.55	1329.13
243.76	1396.71
243.98	1318.89
244.20	1296.36
244.42	1359.85
244.64	1380.33
244.85	1361.90
245.07	1296.36
245.29	1388.52
245.51	1353.71
245.72	1361.90
245.94	1390.57
246.16	1359.85
246.38	1466.35
246.59	1302.51
246.81	1361.90
247.03	1409.00
247.24	1298.41
247.46	1306.60
247.68	1327.08
247.90	1351.66
248.11	1404.91
248.33	1396.71
248.55	1355.76
248.77	1353.71
248.98	1445.87
249.20	1390.57
249.42	1402.86
249.64	1368.04
249.85	1441.77
250.07	1382.38
250.29	1286.12
250.50	1417.19
250.72	1347.56
250.94	1366.00
251.16	1447.91
251.37	1437.67
251.59	1445.87
251.81	1396.71
252.02	1392.62
252.24	1316.84
252.46	1345.52
252.68	1355.76
252.89	1380.33
253.11	1335.28
253.33	1449.96
253.54	1400.81
253.76	1343.47
253.98	1265.64
254.20	1435.63
254.41	1331.18
254.63	1398.76
254.85	1337.32
255.06	1351.66
255.28	1449.96
255.50	1318.89
255.71	1382.38
255.93	1327.08
256.15	1325.04
256.36	1363.95
256.58	1337.32
256.80	1404.91
257.02	1343.47
257.23	1331.18
257.45	1347.56
257.67	1372.14
257.88	1325.04
258.10	1343.47
258.32	1449.96
258.53	1402.86
258.75	1419.24
258.97	1284.08
259.18	1339.37
259.40	1337.32
259.62	1454.06
259.83	1370.09
260.05	1396.71
260.27	1511.40
260.48	1361.90
260.70	1329.13
260.92	1339.37
261.13	1396.71
261.35	1419.24
261.57	1423.34
261.78	1298.41
262.00	1318.89
262.22	1335.28
262.43	1349.61
262.65	1292.27
262.86	1355.76
263.08	1531.88
263.30	1400.81
263.51	1339.37
263.73	1349.61
263.95	1423.34
264.16	1343.47
264.38	1390.57
264.60	1345.52
264.81	1378.28
265.03	1411.05
265.25	1378.28
265.46	1378.28
265.68	1417.19
265.89	1417.19
266.11	1370.09
266.33	1480.68
266.54	1372.14
266.76	1427.43
266.98	1433.58
267.19	1421.29
267.41	1366.00
267.62	1288.17
267.84	1320.94
268.06	1372.14
268.27	1298.41
268.49	1431.53
268.70	1411.05
268.92	1288.17
269.14	1417.19
269.35	1292.27
269.57	1333.23
269.79	1335.28
270.00	1322.99
270.22	1361.90
270.43	1339.37
270.65	1345.52
270.87	1357.80
271.08	1359.85
271.30	1384.43
271.51	1433.58
271.73	1429.48
271.95	1388.52
272.16	1415.15
272.38	1333.23
272.59	1355.76
272.81	1374.19
273.02	1435.63
273.24	1390.57
273.46	1378.28
273.67	1341.42
273.89	1286.12
274.10	1310.70
274.32	1400.81
274.54	1460.20
274.75	1353.71
274.97	1316.84
275.18	1366.00
275.40	1370.09
275.61	1361.90
275.83	1404.91
276.05	1345.52
276.26	1339.37
276.48	1347.56
276.69	1396.71
276.91	1402.86
277.12	1415.15
277.34	1392.62
277.55	1384.43
277.77	1374.19
277.99	1398.76
278.20	1331.18
278.42	1310.70
278.63	1322.99
278.85	1277.93
279.06	1368.04
279.28	1376.24
279.49	1382.38
279.71	1445.87
279.93	1411.05
280.14	1355.76
280.36	1357.80
280.57	1382.38
280.79	1402.86
281.00	1396.71
281.22	1316.84
281.43	1431.53
281.65	1286.12
281.86	1363.95
282.08	1392.62
282.29	1419.24
282.51	1386.47
282.73	1394.67
282.94	1353.71
283.16	1279.98
283.37	1474.54
283.59	1501.16
283.80	1411.05
284.02	1351.66
284.23	1333.23
284.45	1431.53
284.66	1347.56
284.88	1314.80
285.09	1386.47
285.31	1363.95
285.52	1353.71
285.74	1331.18
285.95	1454.06
286.17	1411.05
286.38	1441.77
286.60	1374.19
286.81	1304.56
287.03	1337.32
287.24	1320.94
287.46	1462.25
287.67	1345.52
287.89	1484.78
288.10	1302.51
288.32	1392.62
288.53	1425.39
288.75	1335.28
288.96	1392.62
289.18	1341.42
289.39	1390.57
289.61	1427.43
289.82	1372.14
290.04	1421.29
290.25	1279.98
290.47	1363.95
290.68	1341.42
290.90	1466.35
291.11	1312.75
291.33	1437.67
291.54	1325.04
291.76	1345.52
291.97	1378.28
292.18	1327.08
292.40	1320.94
292.61	1333.23
292.83	1519.59
293.04	1402.86
293.26	1429.48
293.47	1347.56
293.69	1312.75
293.90	1392.62
294.12	1380.33
294.33	1355.76
294.55	1386.47
294.76	1380.33
294.97	1402.86
295.19	1378.28
295.40	1368.04
295.62	1421.29
295.83	1441.77
296.05	1236.97
296.26	1466.35
296.48	1376.24
296.69	1351.66
296.90	1363.95
297.12	1368.04
297.33	1366.00
297.55	1374.19
297.76	1384.43
297.98	1388.52
298.19	1304.56
298.41	1363.95
298.62	1417.19
298.83	1417.19
299.05	1312.75
299.26	1398.76
299.48	1239.02
299.69	1505.26
299.90	1355.76
300.12	1310.70
300.33	1419.24
300.55	1464.30
300.76	1320.94
300.98	1406.95
301.19	1488.87
301.40	1347.56
301.62	1386.47
301.83	1456.11
302.05	1396.71
302.26	1327.08
302.47	1433.58
302.69	1337.32
302.90	1366.00
303.12	1337.32
303.33	1384.43
303.54	1466.35
303.76	1419.24
303.97	1388.52
304.19	1388.52
304.40	1300.46
304.61	1347.56
304.83	1409.00
305.04	1431.53
305.26	1343.47
305.47	1318.89
305.68	1351.66
305.90	1286.12
306.11	1398.76
306.33	1466.35
306.54	1351.66
306.75	1298.41
306.97	1304.56
307.18	1331.18
307.39	1425.39
307.61	1357.80
307.82	1384.43
308.04	1386.47
308.25	1341.42
308.46	1433.58
308.68	1353.71
308.89	1386.47
309.10	1497.07
309.32	1388.52
309.53	1320.94
309.74	1415.15
309.96	1345.52
310.17	1411.05
310.39	1361.90
310.60	1404.91
310.81	1355.76
311.03	1361.90
311.24	1392.62
311.45	1398.76
311.67	1322.99
311.88	1312.75
312.09	1357.80
312.31	1329.13
312.52	1372.14
312.73	1460.20
312.95	1306.60
313.16	1380.33
313.37	1386.47
313.59	1384.43
313.80	1339.37
314.01	1404.91
314.23	1370.09
314.44	1329.13
314.65	1378.28
314.87	1339.37
315.08	1366.00
315.29	1335.28
315.51	1345.52
315.72	1298.41
315.93	1419.24
316.15	1400.81
316.36	1376.24
316.57	1376.24
316.79	1394.67
317.00	1329.13
317.21	1404.91
317.43	1339.37
317.64	1380.33
317.85	1458.15
318.07	1474.54
318.28	1511.40
318.49	1554.41
318.70	1724.39
318.92	1542.12
319.13	1460.20
319.34	1482.73
319.56	1427.43
319.77	1499.11
319.98	1480.68
320.20	1517.54
320.41	1404.91
320.62	1466.35
320.83	1363.95
321.05	1380.33
321.26	1359.85
321.47	1394.67
321.69	1425.39
321.90	1247.21
322.11	1382.38
322.32	1392.62
322.54	1488.87
322.75	1325.04
322.96	1388.52
323.18	1359.85
323.39	1380.33
323.60	1351.66
323.81	1404.91
324.03	1314.80
324.24	1486.83
324.45	1318.89
324.66	1329.13
324.88	1402.86
325.09	1392.62
325.30	1419.24
325.52	1394.67
325.73	1392.62
325.94	1331.18
326.15	1306.60
326.37	1419.24
326.58	1394.67
326.79	1415.15
327.00	1314.80
327.22	1318.89
327.43	1368.04
327.64	1325.04
327.85	1361.90
328.07	1339.37
328.28	1402.86
328.49	1406.95
328.70	1304.56
328.92	1318.89
329.13	1359.85
329.34	1388.52
329.55	1445.87
329.76	1384.43
329.98	1359.85
330.19	1357.80
330.40	1359.85
330.61	1388.52
330.83	1355.76
331.04	1378.28
331.25	1357.80
331.46	1337.32
331.68	1333.23
331.89	1372.14
332.10	1361.90
332.31	1331.18
332.52	1378.28
332.74	1376.24
332.95	1253.36
333.16	1378.28
333.37	1372.14
333.58	1294.32
333.80	1439.72
334.01	1370.09
334.22	1357.80
334.43	1380.33
334.64	1353.71
334.86	1247.21
335.07	1322.99
335.28	1400.81
335.49	1380.33
335.70	1409.00
335.92	1411.05
336.13	1443.82
336.34	1351.66
336.55	1347.56
336.76	1382.38
336.98	1314.80
337.19	1384.43
337.40	1449.96
337.61	1406.95
337.82	1345.52
338.04	1368.04
338.25	1341.42
338.46	1376.24
338.67	1388.52
338.88	1343.47
339.09	1372.14
339.31	1327.08
339.52	1331.18
339.73	1320.94
339.94	1402.86
340.15	1404.91
340.36	1304.56
340.58	1316.84
340.79	1361.90
341.00	1462.25
341.21	1306.60
341.42	1427.43
341.63	1314.80
341.85	1378.28
342.06	1331.18
342.27	1304.56
342.48	1396.71
342.69	1411.05
342.90	1392.62
343.12	1400.81
343.33	1386.47
343.54	1394.67
343.75	1413.10
343.96	1349.61
344.17	1370.09
344.38	1368.04
344.60	1349.61
344.81	1398.76
345.02	1353.71
345.23	1409.00
345.44	1478.63
345.65	1437.67
345.86	1327.08
346.07	1345.52
346.29	1298.41
346.50	1333.23
346.71	1343.47
346.92	1374.19
347.13	1449.96
347.34	1290.22
347.55	1388.52
347.76	1339.37
347.98	1312.75
348.19	1316.84
348.40	1406.95
348.61	1363.95
348.82	1413.10
349.03	1384.43
349.24	1337.32
349.45	1499.11
349.66	1318.89
349.88	1361.90
350.09	1390.57
350.30	1363.95
350.51	1445.87
350.72	1456.11
350.93	1363.95
351.14	1351.66
351.35	1341.42
351.56	1431.53
351.77	1380.33
351.99	1394.67
352.20	1376.24
352.41	1429.48
352.62	1333.23
352.83	1267.69
353.04	1396.71
353.25	1382.38
353.46	1378.28
353.67	1413.10
353.88	1257.45
354.09	1353.71
354.30	1384.43
354.52	1429.48
354.73	1390.57
354.94	1343.47
355.15	1388.52
355.36	1402.86
355.57	1288.17
355.78	1396.71
355.99	1366.00
356.20	1378.28
356.41	1437.67
356.62	1435.63
356.83	1376.24
357.04	1449.96
357.25	1331.18
357.46	1435.63
357.68	1316.84
357.89	1288.17
358.10	1372.14
358.31	1347.56
358.52	1353.71
358.73	1314.80
358.94	1390.57
359.15	1396.71
359.36	1413.10
359.57	1380.33
359.78	1359.85
359.99	1368.04
360.20	1359.85
360.41	1390.57
360.62	1363.95
360.83	1417.19
361.04	1392.62
361.25	1359.85
361.46	1507.30
361.67	1388.52
361.88	1413.10
362.09	1443.82
362.30	1431.53
362.51	1314.80
362.72	1435.63
362.93	1466.35
363.14	1435.63
363.35	1339.37
363.56	1337.32
363.78	1417.19
363.99	1396.71
364.20	1380.33
364.41	1335.28
364.62	1441.77
364.83	1363.95
365.04	1394.67
365.25	1431.53
365.46	1449.96
365.67	1337.32
365.88	1353.71
366.09	1390.57
366.30	1316.84
366.51	1288.17
366.72	1322.99
366.93	1370.09
367.14	1306.60
367.35	1404.91
367.56	1312.75
367.77	1437.67
367.98	1370.09
368.18	1435.63
368.39	1406.95
368.60	1347.56
368.81	1290.22
369.02	1316.84
369.23	1419.24
369.44	1394.67
369.65	1347.56
369.86	1406.95
370.07	1355.76
370.28	1394.67
370.49	1413.10
370.70	1433.58
370.91	1366.00
371.12	1337.32
371.33	1454.06
371.54	1304.56
371.75	1492.97
371.96	1290.22
372.17	1413.10
372.38	1325.04
372.59	1390.57
372.80	1316.84
373.01	1382.38
373.22	1361.90
373.43	1333.23
373.64	1363.95
373.85	1413.10
374.06	1447.91
374.26	1466.35
374.47	1421.29
374.68	1374.19
374.89	1359.85
375.10	1333.23
375.31	1388.52
375.52	1390.57
375.73	1396.71
375.94	1329.13
376.15	1384.43
376.36	1359.85
376.57	1411.05
376.78	1296.36
376.99	1396.71
377.20	1392.62
377.40	1378.28
377.61	1370.09
377.82	1327.08
378.03	1431.53
378.24	1406.95
378.45	1464.30
378.66	1333.23
378.87	1349.61
379.08	1290.22
379.29	1322.99
379.50	1458.15
379.71	1423.34
379.91	1394.67
380.12	1349.61
380.33	1327.08
380.54	1353.71
380.75	1370.09
380.96	1400.81
381.17	1429.48
381.38	1443.82
381.59	1538.02
381.80	1501.16
382.00	1488.87
382.21	1388.52
382.42	1476.59
382.63	1501.16
382.84	1421.29
383.05	1421.29
383.26	1464.30
383.47	1462.25
383.68	1435.63
383.88	1380.33
384.09	1404.91
384.30	1452.01
384.51	1402.86
384.72	1390.57
384.93	1343.47
385.14	1374.19
385.35	1415.15
385.55	1413.10
385.76	1427.43
385.97	1435.63
386.18	1318.89
386.39	1388.52
386.60	1339.37
386.81	1388.52
387.02	1433.58
387.22	1333.23
387.43	1490.92
387.64	1615.85
387.85	2260.96
388.06	5851.05
388.27	9314.16
388.48	11349.84
388.68	12992.31
388.89	13053.75
389.10	10471.26
389.31	9174.90
389.52	8163.20
389.73	7305.10
389.93	6950.81
390.14	6416.29
390.35	6199.20
390.56	5433.26
390.77	4628.41
390.98	3669.96
391.18	2803.67
391.39	2172.89
391.60	1718.25
391.81	1597.42
392.02	1404.91
392.23	1464.30
392.43	1355.76
392.64	1460.20
392.85	1396.71
393.06	1433.58
393.27	1384.43
393.47	1318.89
393.68	1386.47
393.89	1406.95
394.10	1411.05
394.31	1329.13
394.52	1411.05
394.72	1308.65
394.93	1372.14
395.14	1294.32
395.35	1370.09
395.56	1353.71
395.76	1560.55
395.97	1556.46
396.18	1595.37
396.39	1585.13
396.60	1671.14
396.80	1587.18
397.01	1495.02
397.22	1462.25
397.43	1470.44
397.64	1425.39
397.84	1501.16
398.05	1515.50
398.26	1402.86
398.47	1398.76
398.67	1519.59
398.88	1341.42
399.09	1370.09
399.30	1386.47
399.51	1335.28
399.71	1400.81
399.92	1374.19
400.13	1484.78
400.34	1382.38
400.54	1290.22
400.75	1464.30
400.96	1372.14
401.17	1495.02
401.37	1427.43
401.58	1439.72
401.79	1464.30
402.00	1693.67
402.21	1765.35
402.41	1789.92
402.62	1775.59
402.83	1722.34
403.04	1712.10
403.24	1734.63
403.45	1626.09
403.66	1585.13
403.87	1542.12
404.07	1544.17
404.28	1603.56
404.49	1505.26
404.70	1458.15
404.90	1398.76
405.11	1386.47
405.32	1355.76
405.52	1394.67
405.73	1392.62
405.94	1306.60
406.15	1376.24
406.35	1353.71
406.56	1419.24
406.77	1343.47
406.98	1431.53
407.18	1347.56
407.39	1427.43
407.60	1445.87
407.80	1404.91
408.01	1355.76
408.22	1425.39
408.43	1329.13
408.63	1406.95
408.84	1320.94
409.05	1447.91
409.25	1316.84
409.46	1325.04
409.67	1298.41
409.88	1337.32
410.08	1402.86
410.29	1382.38
410.50	1433.58
410.70	1443.82
410.91	1398.76
411.12	1374.19
411.32	1392.62
411.53	1380.33
411.74	1470.44
411.95	1382.38
412.15	1476.59
412.36	1429.48
412.57	1482.73
412.77	1396.71
412.98	1384.43
413.19	1378.28
413.39	1388.52
413.60	1417.19
413.81	1449.96
414.01	1361.90
414.22	1439.72
414.43	1404.91
414.63	1441.77
414.84	1478.63
415.05	1351.66
415.25	1374.19
415.46	1429.48
415.67	1325.04
415.87	1372.14
416.08	1404.91
416.29	1409.00
416.49	1400.81
416.70	1409.00
416.91	1411.05
417.11	1341.42
417.32	1421.29
417.53	1402.86
417.73	1441.77
417.94	1384.43
418.15	1347.56
418.35	1380.33
418.56	1337.32
418.77	1413.10
418.97	1361.90
419.18	1388.52
419.38	1261.55
419.59	1335.28
419.80	1427.43
420.00	1366.00
420.21	1380.33
420.42	1421.29
420.62	1282.03
420.83	1429.48
421.04	1388.52
421.24	1380.33
421.45	1386.47
421.65	1378.28
421.86	1406.95
422.07	1409.00
422.27	1363.95
422.48	1366.00
422.69	1404.91
422.89	1456.11
423.10	1361.90
423.30	1294.32
423.51	1316.84
423.72	1366.00
423.92	1325.04
424.13	1396.71
424.33	1329.13
424.54	1429.48
424.75	1341.42
424.95	1370.09
425.16	1382.38
425.36	1347.56
425.57	1482.73
425.78	1351.66
425.98	1435.63
426.19	1368.04
426.39	1396.71
426.60	1384.43
426.81	1398.76
427.01	1417.19
427.22	1396.71
427.42	1384.43
427.63	1386.47
427.83	1390.57
428.04	1392.62
428.25	1423.34
428.45	1429.48
428.66	1363.95
428.86	1384.43
429.07	1382.38
429.28	1431.53
429.48	1351.66
429.69	1388.52
429.89	1415.15
430.10	1351.66
430.30	1398.76
430.51	1384.43
430.71	1378.28
430.92	1333.23
431.13	1396.71
431.33	1386.47
431.54	1404.91
431.74	1433.58
431.95	1468.39
432.15	1331.18
432.36	1331.18
432.56	1411.05
432.77	1458.15
432.98	1423.34
433.18	1406.95
433.39	1423.34
433.59	1396.71
433.80	1345.52
434.00	1400.81
434.21	1409.00
434.41	1335.28
434.62	1435.63
434.82	1343.47
435.03	1290.22
435.23	1390.57
435.44	1273.84
435.64	1370.09
435.85	1445.87
436.06	1409.00
436.26	1423.34
436.47	1304.56
436.67	1349.61
436.88	1431.53
437.08	1404.91
437.29	1425.39
437.49	1304.56
437.70	1476.59
437.90	1431.53
438.11	1576.94
438.31	1476.59
438.52	1558.50
438.72	1564.65
438.93	1509.35
439.13	1421.29
439.34	1435.63
439.54	1452.01
439.75	1464.30
439.95	1443.82
440.16	1378.28
440.36	1474.54
440.57	1378.28
440.77	1492.97
440.98	1349.61
441.18	1322.99
441.39	1329.13
441.59	1341.42
441.80	1431.53
442.00	1337.32
442.21	1445.87
442.41	1343.47
442.62	1390.57
442.82	1329.13
443.02	1396.71
443.23	1431.53
443.43	1335.28
443.64	1452.01
443.84	1433.58
444.05	1486.83
444.25	1400.81
444.46	1345.52
444.66	1388.52
444.87	1392.62
445.07	1263.60
445.28	1339.37
445.48	1392.62
445.69	1378.28
445.89	1480.68
446.09	1529.83
446.30	2318.30
446.50	3696.58
446.71	4612.03
446.91	5261.23
447.12	5521.32
447.32	5095.35
447.53	4134.85
447.73	3782.60
447.93	3373.00
448.14	3205.07
448.34	3121.10
448.55	2824.15
448.75	2758.61
448.96	2725.85
449.16	2435.03
449.36	2197.47
449.57	1945.57
449.77	1708.01
449.98	1570.79
450.18	1454.06
450.39	1460.20
450.59	1449.96
450.79	1247.21
451.00	1339.37
451.20	1458.15
451.41	1406.95
451.61	1427.43
451.81	1314.80
452.02	1335.28
452.22	1370.09
452.43	1378.28
452.63	1406.95
