SpectraSuite Data File
++++++++++++++++++++++++++++++++++++
Date: Tue May 03 11:24:39 CEST 2016
User: root
Dark Spectrum Present: No
Reference Spectrum Present: No
Number of Sampled Component Spectra: 1
Spectrometers: USB4C02835
Integration Time (usec): 100000 (USB4C02835)
Spectra Averaged: 1 (USB4C02835)
Boxcar Smoothing: 0 (USB4C02835)
Correct for Electrical Dark: No (USB4C02835)
Strobe/Lamp Enabled: No (USB4C02835)
Correct for Detector Non-linearity: No (USB4C02835)
Correct for Stray Light: No (USB4C02835)
Number of Pixels in Processed Spectrum: 3648
>>>>>Begin Processed Spectral Data<<<<<
177.47	1243.12
177.69	1243.12
177.91	1243.12
178.13	1196.01
178.36	1236.97
178.58	1394.67
178.80	1335.28
179.02	1333.23
179.24	1376.24
179.46	1308.65
179.68	1378.28
179.90	1400.81
180.13	1427.43
180.35	1372.14
180.57	1337.32
180.79	1329.13
181.01	1372.14
181.23	1402.86
181.45	1425.39
181.67	1380.33
181.90	1361.90
182.12	1347.56
182.34	1341.42
182.56	1372.14
182.78	1316.84
183.00	1345.52
183.22	1355.76
183.44	1245.16
183.66	1447.91
183.89	1449.96
184.11	1361.90
184.33	1366.00
184.55	1413.10
184.77	1413.10
184.99	1290.22
185.21	1372.14
185.43	1439.72
185.65	1347.56
185.87	1400.81
186.10	1429.48
186.32	1456.11
186.54	1366.00
186.76	1345.52
186.98	1343.47
187.20	1378.28
187.42	1347.56
187.64	1406.95
187.86	1368.04
188.08	1402.86
188.30	1400.81
188.52	1390.57
188.75	1366.00
188.97	1386.47
189.19	1374.19
189.41	1382.38
189.63	1411.05
189.85	1376.24
190.07	1337.32
190.29	1333.23
190.51	1417.19
190.73	1333.23
190.95	1433.58
191.17	1445.87
191.39	1343.47
191.61	1335.28
191.84	1404.91
192.06	1318.89
192.28	1273.84
192.50	1490.92
192.72	1370.09
192.94	1359.85
193.16	1396.71
193.38	1320.94
193.60	1314.80
193.82	1368.04
194.04	1433.58
194.26	1458.15
194.48	1386.47
194.70	1380.33
194.92	1347.56
195.14	1347.56
195.36	1314.80
195.58	1402.86
195.80	1372.14
196.02	1366.00
196.24	1277.93
196.46	1310.70
196.69	1343.47
196.91	1437.67
197.13	1411.05
197.35	1325.04
197.57	1337.32
197.79	1406.95
198.01	1476.59
198.23	1396.71
198.45	1368.04
198.67	1386.47
198.89	1366.00
199.11	1368.04
199.33	1341.42
199.55	1284.08
199.77	1406.95
199.99	1394.67
200.21	1331.18
200.43	1384.43
200.65	1322.99
200.87	1312.75
201.09	1347.56
201.31	1284.08
201.53	1394.67
201.75	1435.63
201.97	1372.14
202.19	1322.99
202.41	1417.19
202.63	1431.53
202.85	1398.76
203.07	1404.91
203.29	1359.85
203.51	1322.99
203.73	1386.47
203.95	1429.48
204.17	1409.00
204.39	1372.14
204.61	1351.66
204.83	1308.65
205.05	1386.47
205.27	1384.43
205.49	1396.71
205.71	1413.10
205.93	1400.81
206.15	1337.32
206.37	1363.95
206.59	1327.08
206.81	1269.74
207.03	1392.62
207.25	1339.37
207.47	1404.91
207.69	1355.76
207.91	1347.56
208.13	1445.87
208.34	1327.08
208.56	1355.76
208.78	1458.15
209.00	1341.42
209.22	1394.67
209.44	1376.24
209.66	1386.47
209.88	1359.85
210.10	1329.13
210.32	1368.04
210.54	1384.43
210.76	1290.22
210.98	1320.94
211.20	1245.16
211.42	1378.28
211.64	1409.00
211.86	1353.71
212.08	1437.67
212.30	1318.89
212.52	1306.60
212.74	1394.67
212.96	1462.25
213.17	1409.00
213.39	1320.94
213.61	1437.67
213.83	1445.87
214.05	1370.09
214.27	1351.66
214.49	1300.46
214.71	1372.14
214.93	1388.52
215.15	1366.00
215.37	1443.82
215.59	1327.08
215.81	1421.29
216.03	1429.48
216.24	1306.60
216.46	1374.19
216.68	1464.30
216.90	1411.05
217.12	1429.48
217.34	1409.00
217.56	1404.91
217.78	1492.97
218.00	1310.70
218.22	1472.49
218.44	1378.28
218.66	1345.52
218.87	1449.96
219.09	1443.82
219.31	1361.90
219.53	1347.56
219.75	1361.90
219.97	1380.33
220.19	1411.05
220.41	1349.61
220.63	1331.18
220.85	1411.05
221.06	1396.71
221.28	1423.34
221.50	1384.43
221.72	1378.28
221.94	1402.86
222.16	1325.04
222.38	1402.86
222.60	1386.47
222.82	1349.61
223.03	1462.25
223.25	1263.60
223.47	1392.62
223.69	1404.91
223.91	1386.47
224.13	1363.95
224.35	1318.89
224.57	1337.32
224.78	1361.90
225.00	1300.46
225.22	1357.80
225.44	1337.32
225.66	1402.86
225.88	1320.94
226.10	1355.76
226.32	1392.62
226.53	1386.47
226.75	1355.76
226.97	1312.75
227.19	1396.71
227.41	1337.32
227.63	1282.03
227.85	1335.28
228.06	1458.15
228.28	1282.03
228.50	1458.15
228.72	1327.08
228.94	1331.18
229.16	1343.47
229.37	1312.75
229.59	1296.36
229.81	1486.83
230.03	1310.70
230.25	1306.60
230.47	1347.56
230.69	1329.13
230.90	1361.90
231.12	1294.32
231.34	1363.95
231.56	1396.71
231.78	1337.32
232.00	1345.52
232.21	1355.76
232.43	1318.89
232.65	1331.18
232.87	1388.52
233.09	1351.66
233.30	1357.80
233.52	1394.67
233.74	1390.57
233.96	1312.75
234.18	1363.95
234.40	1355.76
234.61	1429.48
234.83	1300.46
235.05	1325.04
235.27	1443.82
235.49	1411.05
235.70	1497.07
235.92	1409.00
236.14	1382.38
236.36	1435.63
236.58	1308.65
236.79	1521.64
237.01	1370.09
237.23	1417.19
237.45	1452.01
237.67	1331.18
237.88	1404.91
238.10	1409.00
238.32	1382.38
238.54	1331.18
238.76	1298.41
238.97	1343.47
239.19	1337.32
239.41	1390.57
239.63	1376.24
239.85	1376.24
240.06	1366.00
240.28	1325.04
240.50	1454.06
240.72	1372.14
240.93	1353.71
241.15	1409.00
241.37	1318.89
241.59	1486.83
241.81	1376.24
242.02	1351.66
242.24	1308.65
242.46	1380.33
242.68	1282.03
242.89	1339.37
243.11	1437.67
243.33	1355.76
243.55	1478.63
243.76	1331.18
243.98	1341.42
244.20	1355.76
244.42	1345.52
244.64	1423.34
244.85	1290.22
245.07	1312.75
245.29	1497.07
245.51	1441.77
245.72	1345.52
245.94	1499.11
246.16	1441.77
246.38	1400.81
246.59	1318.89
246.81	1314.80
247.03	1320.94
247.24	1325.04
247.46	1349.61
247.68	1353.71
247.90	1368.04
248.11	1370.09
248.33	1466.35
248.55	1343.47
248.77	1394.67
248.98	1439.72
249.20	1460.20
249.42	1306.60
249.64	1396.71
249.85	1376.24
250.07	1349.61
250.29	1378.28
250.50	1382.38
250.72	1363.95
250.94	1437.67
251.16	1425.39
251.37	1427.43
251.59	1345.52
251.81	1288.17
252.02	1488.87
252.24	1413.10
252.46	1435.63
252.68	1423.34
252.89	1322.99
253.11	1308.65
253.33	1386.47
253.54	1466.35
253.76	1275.88
253.98	1316.84
254.20	1312.75
254.41	1345.52
254.63	1351.66
254.85	1322.99
255.06	1382.38
255.28	1372.14
255.50	1331.18
255.71	1374.19
255.93	1417.19
256.15	1347.56
256.36	1404.91
256.58	1347.56
256.80	1443.82
257.02	1400.81
257.23	1411.05
257.45	1368.04
257.67	1384.43
257.88	1398.76
258.10	1415.15
258.32	1394.67
258.53	1386.47
258.75	1398.76
258.97	1384.43
259.18	1355.76
259.40	1400.81
259.62	1380.33
259.83	1372.14
260.05	1378.28
260.27	1441.77
260.48	1372.14
260.70	1333.23
260.92	1363.95
261.13	1435.63
261.35	1341.42
261.57	1419.24
261.78	1325.04
262.00	1359.85
262.22	1333.23
262.43	1363.95
262.65	1355.76
262.86	1300.46
263.08	1419.24
263.30	1392.62
263.51	1277.93
263.73	1341.42
263.95	1517.54
264.16	1417.19
264.38	1329.13
264.60	1316.84
264.81	1382.38
265.03	1345.52
265.25	1478.63
265.46	1447.91
265.68	1363.95
265.89	1351.66
266.11	1411.05
266.33	1370.09
266.54	1460.20
266.76	1406.95
266.98	1431.53
267.19	1454.06
267.41	1404.91
267.62	1406.95
267.84	1269.74
268.06	1355.76
268.27	1392.62
268.49	1427.43
268.70	1361.90
268.92	1347.56
269.14	1277.93
269.35	1316.84
269.57	1347.56
269.79	1390.57
270.00	1390.57
270.22	1492.97
270.43	1306.60
270.65	1298.41
270.87	1345.52
271.08	1341.42
271.30	1419.24
271.51	1341.42
271.73	1333.23
271.95	1376.24
272.16	1308.65
272.38	1392.62
272.59	1402.86
272.81	1400.81
273.02	1398.76
273.24	1384.43
273.46	1366.00
273.67	1361.90
273.89	1370.09
274.10	1302.51
274.32	1409.00
274.54	1390.57
274.75	1441.77
274.97	1355.76
275.18	1310.70
275.40	1353.71
275.61	1320.94
275.83	1392.62
276.05	1310.70
276.26	1464.30
276.48	1355.76
276.69	1345.52
276.91	1335.28
277.12	1433.58
277.34	1421.29
277.55	1386.47
277.77	1382.38
277.99	1378.28
278.20	1308.65
278.42	1308.65
278.63	1351.66
278.85	1351.66
279.06	1345.52
279.28	1347.56
279.49	1415.15
279.71	1419.24
279.93	1411.05
280.14	1396.71
280.36	1320.94
280.57	1353.71
280.79	1425.39
281.00	1331.18
281.22	1341.42
281.43	1322.99
281.65	1232.88
281.86	1298.41
282.08	1435.63
282.29	1380.33
282.51	1378.28
282.73	1335.28
282.94	1304.56
283.16	1378.28
283.37	1404.91
283.59	1335.28
283.80	1370.09
284.02	1325.04
284.23	1306.60
284.45	1347.56
284.66	1298.41
284.88	1390.57
285.09	1376.24
285.31	1353.71
285.52	1460.20
285.74	1310.70
285.95	1417.19
286.17	1409.00
286.38	1359.85
286.60	1308.65
286.81	1421.29
287.03	1439.72
287.24	1388.52
287.46	1376.24
287.67	1292.27
287.89	1423.34
288.10	1327.08
288.32	1318.89
288.53	1419.24
288.75	1366.00
288.96	1355.76
289.18	1298.41
289.39	1269.74
289.61	1456.11
289.82	1425.39
290.04	1427.43
290.25	1220.59
290.47	1357.80
290.68	1406.95
290.90	1400.81
291.11	1261.55
291.33	1396.71
291.54	1339.37
291.76	1320.94
291.97	1400.81
292.18	1437.67
292.40	1353.71
292.61	1355.76
292.83	1521.64
293.04	1433.58
293.26	1353.71
293.47	1431.53
293.69	1347.56
293.90	1331.18
294.12	1382.38
294.33	1361.90
294.55	1382.38
294.76	1396.71
294.97	1431.53
295.19	1454.06
295.40	1368.04
295.62	1427.43
295.83	1404.91
296.05	1316.84
296.26	1425.39
296.48	1302.51
296.69	1271.79
296.90	1353.71
297.12	1382.38
297.33	1347.56
297.55	1374.19
297.76	1347.56
297.98	1411.05
298.19	1429.48
298.41	1431.53
298.62	1396.71
298.83	1425.39
299.05	1378.28
299.26	1355.76
299.48	1376.24
299.69	1404.91
299.90	1394.67
300.12	1318.89
300.33	1361.90
300.55	1427.43
300.76	1372.14
300.98	1284.08
301.19	1376.24
301.40	1370.09
301.62	1363.95
301.83	1417.19
302.05	1370.09
302.26	1351.66
302.47	1316.84
302.69	1320.94
302.90	1374.19
303.12	1320.94
303.33	1402.86
303.54	1513.45
303.76	1386.47
303.97	1314.80
304.19	1443.82
304.40	1351.66
304.61	1372.14
304.83	1400.81
305.04	1355.76
305.26	1413.10
305.47	1353.71
305.68	1347.56
305.90	1228.78
306.11	1284.08
306.33	1329.13
306.54	1363.95
306.75	1284.08
306.97	1273.84
307.18	1343.47
307.39	1359.85
307.61	1396.71
307.82	1355.76
308.04	1409.00
308.25	1349.61
308.46	1400.81
308.68	1413.10
308.89	1370.09
309.10	1363.95
309.32	1435.63
309.53	1372.14
309.74	1413.10
309.96	1363.95
310.17	1415.15
310.39	1347.56
310.60	1374.19
310.81	1415.15
311.03	1249.26
311.24	1388.52
311.45	1312.75
311.67	1437.67
311.88	1368.04
312.09	1314.80
312.31	1286.12
312.52	1400.81
312.73	1341.42
312.95	1372.14
313.16	1322.99
313.37	1390.57
313.59	1394.67
313.80	1429.48
314.01	1402.86
314.23	1355.76
314.44	1325.04
314.65	1290.22
314.87	1320.94
315.08	1339.37
315.29	1333.23
315.51	1357.80
315.72	1322.99
315.93	1429.48
316.15	1427.43
316.36	1378.28
316.57	1304.56
316.79	1425.39
317.00	1372.14
317.21	1464.30
317.43	1318.89
317.64	1357.80
317.85	1402.86
318.07	1394.67
318.28	1492.97
318.49	1564.65
318.70	1662.95
318.92	1564.65
319.13	1519.59
319.34	1585.13
319.56	1454.06
319.77	1447.91
319.98	1488.87
320.20	1513.45
320.41	1429.48
320.62	1406.95
320.83	1341.42
321.05	1476.59
321.26	1337.32
321.47	1394.67
321.69	1388.52
321.90	1294.32
322.11	1411.05
322.32	1384.43
322.54	1456.11
322.75	1409.00
322.96	1372.14
323.18	1331.18
323.39	1349.61
323.60	1302.51
323.81	1388.52
324.03	1286.12
324.24	1363.95
324.45	1386.47
324.66	1345.52
324.88	1406.95
325.09	1370.09
325.30	1343.47
325.52	1345.52
325.73	1361.90
325.94	1361.90
326.15	1341.42
326.37	1466.35
326.58	1409.00
326.79	1327.08
327.00	1392.62
327.22	1331.18
327.43	1398.76
327.64	1337.32
327.85	1368.04
328.07	1308.65
328.28	1404.91
328.49	1359.85
328.70	1320.94
328.92	1351.66
329.13	1302.51
329.34	1413.10
329.55	1378.28
329.76	1449.96
329.98	1396.71
330.19	1382.38
330.40	1374.19
330.61	1320.94
330.83	1413.10
331.04	1396.71
331.25	1327.08
331.46	1417.19
331.68	1261.55
331.89	1394.67
332.10	1390.57
332.31	1345.52
332.52	1398.76
332.74	1419.24
332.95	1415.15
333.16	1382.38
333.37	1464.30
333.58	1345.52
333.80	1382.38
334.01	1359.85
334.22	1409.00
334.43	1312.75
334.64	1351.66
334.86	1306.60
335.07	1314.80
335.28	1413.10
335.49	1359.85
335.70	1380.33
335.92	1421.29
336.13	1521.64
336.34	1349.61
336.55	1386.47
336.76	1425.39
336.98	1335.28
337.19	1335.28
337.40	1392.62
337.61	1404.91
337.82	1392.62
338.04	1417.19
338.25	1361.90
338.46	1400.81
338.67	1363.95
338.88	1300.46
339.09	1331.18
339.31	1380.33
339.52	1343.47
339.73	1322.99
339.94	1411.05
340.15	1486.83
340.36	1355.76
340.58	1429.48
340.79	1325.04
341.00	1370.09
341.21	1361.90
341.42	1419.24
341.63	1306.60
341.85	1376.24
342.06	1368.04
342.27	1316.84
342.48	1466.35
342.69	1366.00
342.90	1380.33
343.12	1456.11
343.33	1380.33
343.54	1392.62
343.75	1482.73
343.96	1368.04
344.17	1404.91
344.38	1343.47
344.60	1419.24
344.81	1255.40
345.02	1468.39
345.23	1456.11
345.44	1488.87
345.65	1366.00
345.86	1370.09
346.07	1396.71
346.29	1370.09
346.50	1374.19
346.71	1400.81
346.92	1368.04
347.13	1406.95
347.34	1425.39
347.55	1421.29
347.76	1447.91
347.98	1374.19
348.19	1345.52
348.40	1449.96
348.61	1320.94
348.82	1486.83
349.03	1382.38
349.24	1316.84
349.45	1380.33
349.66	1355.76
349.88	1370.09
350.09	1322.99
350.30	1392.62
350.51	1390.57
350.72	1368.04
350.93	1337.32
351.14	1349.61
351.35	1406.95
351.56	1378.28
351.77	1419.24
351.99	1447.91
352.20	1443.82
352.41	1419.24
352.62	1392.62
352.83	1406.95
353.04	1357.80
353.25	1335.28
353.46	1380.33
353.67	1415.15
353.88	1288.17
354.09	1325.04
354.30	1441.77
354.52	1351.66
354.73	1366.00
354.94	1343.47
355.15	1347.56
355.36	1445.87
355.57	1396.71
355.78	1363.95
355.99	1331.18
356.20	1314.80
356.41	1349.61
356.62	1445.87
356.83	1361.90
357.04	1419.24
357.25	1335.28
357.46	1376.24
357.68	1355.76
357.89	1386.47
358.10	1320.94
358.31	1409.00
358.52	1353.71
358.73	1376.24
358.94	1452.01
359.15	1368.04
359.36	1417.19
359.57	1335.28
359.78	1376.24
359.99	1355.76
360.20	1402.86
360.41	1421.29
360.62	1413.10
360.83	1384.43
361.04	1470.44
361.25	1402.86
361.46	1398.76
361.67	1339.37
361.88	1443.82
362.09	1394.67
362.30	1437.67
362.51	1368.04
362.72	1409.00
362.93	1456.11
363.14	1423.34
363.35	1476.59
363.56	1298.41
363.78	1396.71
363.99	1425.39
364.20	1296.36
364.41	1372.14
364.62	1355.76
364.83	1384.43
365.04	1392.62
365.25	1376.24
365.46	1378.28
365.67	1359.85
365.88	1388.52
366.09	1298.41
366.30	1372.14
366.51	1355.76
366.72	1314.80
366.93	1312.75
367.14	1335.28
367.35	1427.43
367.56	1361.90
367.77	1441.77
367.98	1347.56
368.18	1386.47
368.39	1394.67
368.60	1394.67
368.81	1294.32
369.02	1345.52
369.23	1288.17
369.44	1288.17
369.65	1419.24
369.86	1404.91
370.07	1351.66
370.28	1388.52
370.49	1437.67
370.70	1335.28
370.91	1327.08
371.12	1359.85
371.33	1290.22
371.54	1335.28
371.75	1419.24
371.96	1370.09
372.17	1294.32
372.38	1361.90
372.59	1388.52
372.80	1368.04
373.01	1380.33
373.22	1306.60
373.43	1400.81
373.64	1327.08
373.85	1437.67
374.06	1390.57
374.26	1419.24
374.47	1345.52
374.68	1454.06
374.89	1384.43
375.10	1361.90
375.31	1429.48
375.52	1363.95
375.73	1394.67
375.94	1415.15
376.15	1378.28
376.36	1394.67
376.57	1363.95
376.78	1347.56
376.99	1343.47
377.20	1322.99
377.40	1339.37
377.61	1386.47
377.82	1288.17
378.03	1460.20
378.24	1386.47
378.45	1388.52
378.66	1370.09
378.87	1388.52
379.08	1333.23
379.29	1402.86
379.50	1325.04
379.71	1392.62
379.91	1443.82
380.12	1398.76
380.33	1415.15
380.54	1388.52
380.75	1380.33
380.96	1398.76
381.17	1425.39
381.38	1499.11
381.59	1452.01
381.80	1425.39
382.00	1513.45
382.21	1394.67
382.42	1392.62
382.63	1482.73
382.84	1472.49
383.05	1368.04
383.26	1503.21
383.47	1366.00
383.68	1404.91
383.88	1374.19
384.09	1392.62
384.30	1525.74
384.51	1339.37
384.72	1384.43
384.93	1333.23
385.14	1413.10
385.35	1449.96
385.55	1423.34
385.76	1447.91
385.97	1396.71
386.18	1384.43
386.39	1415.15
386.60	1402.86
386.81	1411.05
387.02	1376.24
387.22	1343.47
387.43	1404.91
387.64	1583.08
387.85	2236.38
388.06	5822.38
388.27	9455.47
388.48	11597.65
388.68	13109.05
388.89	13387.57
389.10	10772.32
389.31	9150.32
389.52	8376.19
389.73	7495.57
389.93	6907.80
390.14	6389.66
390.35	6139.81
390.56	5429.17
390.77	4607.93
390.98	3657.67
391.18	2811.86
391.39	2136.03
391.60	1806.31
391.81	1523.69
392.02	1449.96
392.23	1515.50
392.43	1445.87
392.64	1423.34
392.85	1355.76
393.06	1441.77
393.27	1351.66
393.47	1363.95
393.68	1402.86
393.89	1333.23
394.10	1378.28
394.31	1396.71
394.52	1345.52
394.72	1409.00
394.93	1478.63
395.14	1443.82
395.35	1431.53
395.56	1361.90
395.76	1519.59
395.97	1576.94
396.18	1619.94
396.39	1556.46
396.60	1718.25
396.80	1505.26
397.01	1509.35
397.22	1437.67
397.43	1552.36
397.64	1415.15
397.84	1411.05
398.05	1548.26
398.26	1449.96
398.47	1478.63
398.67	1441.77
398.88	1366.00
399.09	1390.57
399.30	1388.52
399.51	1435.63
399.71	1366.00
399.92	1368.04
400.13	1425.39
400.34	1353.71
400.54	1404.91
400.75	1449.96
400.96	1351.66
401.17	1445.87
401.37	1429.48
401.58	1400.81
401.79	1472.49
402.00	1740.77
402.21	1875.94
402.41	1822.69
402.62	1748.97
402.83	1742.82
403.04	1710.05
403.24	1650.66
403.45	1546.22
403.66	1601.51
403.87	1548.26
404.07	1667.05
404.28	1552.36
404.49	1548.26
404.70	1439.72
404.90	1474.54
405.11	1353.71
405.32	1441.77
405.52	1388.52
405.73	1335.28
405.94	1351.66
406.15	1331.18
406.35	1335.28
406.56	1355.76
406.77	1394.67
406.98	1298.41
407.18	1404.91
407.39	1402.86
407.60	1370.09
407.80	1372.14
408.01	1357.80
408.22	1372.14
408.43	1353.71
408.63	1378.28
408.84	1396.71
409.05	1409.00
409.25	1392.62
409.46	1370.09
409.67	1337.32
409.88	1357.80
410.08	1470.44
410.29	1396.71
410.50	1390.57
410.70	1337.32
410.91	1339.37
411.12	1349.61
411.32	1302.51
411.53	1349.61
411.74	1503.21
411.95	1456.11
412.15	1441.77
412.36	1435.63
412.57	1359.85
412.77	1470.44
412.98	1433.58
413.19	1374.19
413.39	1447.91
413.60	1423.34
413.81	1423.34
414.01	1435.63
414.22	1431.53
414.43	1347.56
414.63	1314.80
414.84	1427.43
415.05	1357.80
415.25	1452.01
415.46	1396.71
415.67	1404.91
415.87	1402.86
416.08	1339.37
416.29	1437.67
416.49	1394.67
416.70	1376.24
416.91	1361.90
417.11	1413.10
417.32	1521.64
417.53	1363.95
417.73	1380.33
417.94	1327.08
418.15	1366.00
418.35	1357.80
418.56	1370.09
418.77	1452.01
418.97	1359.85
419.18	1347.56
419.38	1366.00
419.59	1341.42
419.80	1404.91
420.00	1343.47
420.21	1357.80
420.42	1449.96
420.62	1427.43
420.83	1306.60
421.04	1374.19
421.24	1351.66
421.45	1372.14
421.65	1378.28
421.86	1355.76
422.07	1427.43
422.27	1427.43
422.48	1351.66
422.69	1372.14
422.89	1415.15
423.10	1337.32
423.30	1308.65
423.51	1308.65
423.72	1456.11
423.92	1435.63
424.13	1304.56
424.33	1312.75
424.54	1339.37
424.75	1382.38
424.95	1427.43
425.16	1392.62
425.36	1345.52
425.57	1449.96
425.78	1458.15
425.98	1396.71
426.19	1347.56
426.39	1271.79
426.60	1404.91
426.81	1394.67
427.01	1361.90
427.22	1447.91
427.42	1308.65
427.63	1349.61
427.83	1458.15
428.04	1439.72
428.25	1404.91
428.45	1445.87
428.66	1462.25
428.86	1347.56
429.07	1363.95
429.28	1378.28
429.48	1380.33
429.69	1349.61
429.89	1361.90
430.10	1335.28
430.30	1421.29
430.51	1402.86
430.71	1388.52
430.92	1345.52
431.13	1335.28
431.33	1374.19
431.54	1437.67
431.74	1495.02
431.95	1404.91
432.15	1322.99
432.36	1355.76
432.56	1376.24
432.77	1382.38
432.98	1392.62
433.18	1398.76
433.39	1331.18
433.59	1302.51
433.80	1449.96
434.00	1472.49
434.21	1296.36
434.41	1353.71
434.62	1482.73
434.82	1300.46
435.03	1302.51
435.23	1333.23
435.44	1310.70
435.64	1320.94
435.85	1368.04
436.06	1400.81
436.26	1374.19
436.47	1392.62
436.67	1378.28
436.88	1318.89
437.08	1404.91
437.29	1392.62
437.49	1376.24
437.70	1419.24
437.90	1417.19
438.11	1542.12
438.31	1474.54
438.52	1583.08
438.72	1570.79
438.93	1595.37
439.13	1421.29
439.34	1509.35
439.54	1437.67
439.75	1421.29
439.95	1423.34
440.16	1443.82
440.36	1411.05
440.57	1447.91
440.77	1523.69
440.98	1388.52
441.18	1390.57
441.39	1388.52
441.59	1345.52
441.80	1472.49
442.00	1409.00
442.21	1376.24
442.41	1361.90
442.62	1433.58
442.82	1345.52
443.02	1411.05
443.23	1335.28
443.43	1411.05
443.64	1460.20
443.84	1353.71
444.05	1480.68
444.25	1427.43
444.46	1351.66
444.66	1366.00
444.87	1468.39
445.07	1286.12
445.28	1380.33
445.48	1499.11
445.69	1419.24
445.89	1454.06
446.09	1578.98
446.30	2277.34
446.50	3600.33
446.71	4632.51
446.91	5265.33
447.12	5584.81
447.32	5068.72
447.53	4165.57
447.73	3667.91
447.93	3461.07
448.14	3211.22
448.34	3108.82
448.55	2789.33
448.75	2877.40
448.96	2652.12
449.16	2351.07
449.36	2254.81
449.57	1996.77
449.77	1742.82
449.98	1601.51
450.18	1535.98
450.39	1566.70
450.59	1452.01
450.79	1413.10
451.00	1331.18
451.20	1415.15
451.41	1394.67
451.61	1423.34
451.81	1347.56
452.02	1361.90
452.22	1388.52
452.43	1322.99
452.63	1314.80
