SpectraSuite Data File
++++++++++++++++++++++++++++++++++++
Date: Tue May 03 11:24:43 CEST 2016
User: root
Dark Spectrum Present: No
Reference Spectrum Present: No
Number of Sampled Component Spectra: 1
Spectrometers: USB4C02835
Integration Time (usec): 100000 (USB4C02835)
Spectra Averaged: 1 (USB4C02835)
Boxcar Smoothing: 0 (USB4C02835)
Correct for Electrical Dark: No (USB4C02835)
Strobe/Lamp Enabled: No (USB4C02835)
Correct for Detector Non-linearity: No (USB4C02835)
Correct for Stray Light: No (USB4C02835)
Number of Pixels in Processed Spectrum: 3648
>>>>>Begin Processed Spectral Data<<<<<
177.47	1189.87
177.69	1189.87
177.91	1189.87
178.13	1261.55
178.36	1159.15
178.58	1302.51
178.80	1372.14
179.02	1277.93
179.24	1394.67
179.46	1366.00
179.68	1449.96
179.90	1327.08
180.13	1452.01
180.35	1396.71
180.57	1396.71
180.79	1439.72
181.01	1435.63
181.23	1404.91
181.45	1398.76
181.67	1378.28
181.90	1417.19
182.12	1337.32
182.34	1331.18
182.56	1447.91
182.78	1359.85
183.00	1384.43
183.22	1325.04
183.44	1302.51
183.66	1406.95
183.89	1378.28
184.11	1320.94
184.33	1339.37
184.55	1378.28
184.77	1374.19
184.99	1368.04
185.21	1378.28
185.43	1443.82
185.65	1331.18
185.87	1318.89
186.10	1447.91
186.32	1413.10
186.54	1398.76
186.76	1343.47
186.98	1343.47
187.20	1368.04
187.42	1370.09
187.64	1433.58
187.86	1363.95
188.08	1380.33
188.30	1382.38
188.52	1396.71
188.75	1419.24
188.97	1433.58
189.19	1312.75
189.41	1411.05
189.63	1347.56
189.85	1351.66
190.07	1265.64
190.29	1329.13
190.51	1366.00
190.73	1288.17
190.95	1480.68
191.17	1359.85
191.39	1284.08
191.61	1382.38
191.84	1366.00
192.06	1404.91
192.28	1339.37
192.50	1476.59
192.72	1372.14
192.94	1361.90
193.16	1427.43
193.38	1409.00
193.60	1361.90
193.82	1333.23
194.04	1411.05
194.26	1370.09
194.48	1380.33
194.70	1374.19
194.92	1392.62
195.14	1427.43
195.36	1378.28
195.58	1398.76
195.80	1404.91
196.02	1343.47
196.24	1357.80
196.46	1400.81
196.69	1351.66
196.91	1443.82
197.13	1374.19
197.35	1370.09
197.57	1439.72
197.79	1343.47
198.01	1429.48
198.23	1398.76
198.45	1333.23
198.67	1378.28
198.89	1382.38
199.11	1370.09
199.33	1333.23
199.55	1349.61
199.77	1316.84
199.99	1433.58
200.21	1343.47
200.43	1292.27
200.65	1306.60
200.87	1306.60
201.09	1449.96
201.31	1431.53
201.53	1449.96
201.75	1378.28
201.97	1327.08
202.19	1363.95
202.41	1308.65
202.63	1452.01
202.85	1347.56
203.07	1470.44
203.29	1433.58
203.51	1355.76
203.73	1384.43
203.95	1449.96
204.17	1382.38
204.39	1331.18
204.61	1415.15
204.83	1294.32
205.05	1372.14
205.27	1419.24
205.49	1392.62
205.71	1359.85
205.93	1292.27
206.15	1388.52
206.37	1413.10
206.59	1460.20
206.81	1331.18
207.03	1331.18
207.25	1294.32
207.47	1423.34
207.69	1343.47
207.91	1439.72
208.13	1456.11
208.34	1345.52
208.56	1400.81
208.78	1417.19
209.00	1273.84
209.22	1355.76
209.44	1400.81
209.66	1335.28
209.88	1419.24
210.10	1327.08
210.32	1351.66
210.54	1409.00
210.76	1380.33
210.98	1413.10
211.20	1284.08
211.42	1482.73
211.64	1392.62
211.86	1363.95
212.08	1382.38
212.30	1325.04
212.52	1423.34
212.74	1380.33
212.96	1464.30
213.17	1464.30
213.39	1411.05
213.61	1474.54
213.83	1462.25
214.05	1325.04
214.27	1388.52
214.49	1239.02
214.71	1322.99
214.93	1419.24
215.15	1312.75
215.37	1384.43
215.59	1341.42
215.81	1376.24
216.03	1298.41
216.24	1394.67
216.46	1333.23
216.68	1388.52
216.90	1386.47
217.12	1357.80
217.34	1398.76
217.56	1380.33
217.78	1368.04
218.00	1345.52
218.22	1345.52
218.44	1359.85
218.66	1355.76
218.87	1439.72
219.09	1400.81
219.31	1488.87
219.53	1337.32
219.75	1320.94
219.97	1318.89
220.19	1368.04
220.41	1406.95
220.63	1415.15
220.85	1390.57
221.06	1327.08
221.28	1398.76
221.50	1445.87
221.72	1339.37
221.94	1394.67
222.16	1386.47
222.38	1456.11
222.60	1392.62
222.82	1454.06
223.03	1382.38
223.25	1267.69
223.47	1445.87
223.69	1437.67
223.91	1310.70
224.13	1415.15
224.35	1322.99
224.57	1413.10
224.78	1374.19
225.00	1245.16
225.22	1363.95
225.44	1404.91
225.66	1419.24
225.88	1411.05
226.10	1456.11
226.32	1337.32
226.53	1449.96
226.75	1306.60
226.97	1363.95
227.19	1351.66
227.41	1341.42
227.63	1298.41
227.85	1339.37
228.06	1339.37
228.28	1359.85
228.50	1417.19
228.72	1339.37
228.94	1304.56
229.16	1249.26
229.37	1302.51
229.59	1390.57
229.81	1343.47
230.03	1378.28
230.25	1320.94
230.47	1366.00
230.69	1384.43
230.90	1404.91
231.12	1322.99
231.34	1345.52
231.56	1390.57
231.78	1294.32
232.00	1351.66
232.21	1325.04
232.43	1341.42
232.65	1304.56
232.87	1427.43
233.09	1357.80
233.30	1310.70
233.52	1490.92
233.74	1402.86
233.96	1329.13
234.18	1347.56
234.40	1374.19
234.61	1439.72
234.83	1372.14
235.05	1370.09
235.27	1458.15
235.49	1357.80
235.70	1374.19
235.92	1505.26
236.14	1429.48
236.36	1345.52
236.58	1322.99
236.79	1370.09
237.01	1384.43
237.23	1331.18
237.45	1478.63
237.67	1372.14
237.88	1394.67
238.10	1355.76
238.32	1298.41
238.54	1359.85
238.76	1345.52
238.97	1449.96
239.19	1339.37
239.41	1484.78
239.63	1359.85
239.85	1333.23
240.06	1341.42
240.28	1351.66
240.50	1431.53
240.72	1351.66
240.93	1392.62
241.15	1447.91
241.37	1361.90
241.59	1404.91
241.81	1386.47
242.02	1306.60
242.24	1355.76
242.46	1322.99
242.68	1286.12
242.89	1351.66
243.11	1392.62
243.33	1329.13
243.55	1394.67
243.76	1366.00
243.98	1290.22
244.20	1384.43
244.42	1302.51
244.64	1322.99
244.85	1359.85
245.07	1308.65
245.29	1429.48
245.51	1345.52
245.72	1343.47
245.94	1409.00
246.16	1417.19
246.38	1378.28
246.59	1310.70
246.81	1331.18
247.03	1380.33
247.24	1339.37
247.46	1431.53
247.68	1312.75
247.90	1312.75
248.11	1343.47
248.33	1398.76
248.55	1439.72
248.77	1294.32
248.98	1417.19
249.20	1390.57
249.42	1392.62
249.64	1423.34
249.85	1394.67
250.07	1331.18
250.29	1304.56
250.50	1400.81
250.72	1366.00
250.94	1345.52
251.16	1501.16
251.37	1406.95
251.59	1404.91
251.81	1347.56
252.02	1423.34
252.24	1380.33
252.46	1402.86
252.68	1347.56
252.89	1361.90
253.11	1290.22
253.33	1501.16
253.54	1382.38
253.76	1288.17
253.98	1359.85
254.20	1374.19
254.41	1325.04
254.63	1318.89
254.85	1390.57
255.06	1351.66
255.28	1417.19
255.50	1325.04
255.71	1386.47
255.93	1335.28
256.15	1308.65
256.36	1333.23
256.58	1376.24
256.80	1353.71
257.02	1355.76
257.23	1347.56
257.45	1294.32
257.67	1370.09
257.88	1337.32
258.10	1353.71
258.32	1359.85
258.53	1363.95
258.75	1374.19
258.97	1347.56
259.18	1374.19
259.40	1396.71
259.62	1458.15
259.83	1402.86
260.05	1345.52
260.27	1624.04
260.48	1368.04
260.70	1388.52
260.92	1443.82
261.13	1300.46
261.35	1359.85
261.57	1351.66
261.78	1386.47
262.00	1353.71
262.22	1478.63
262.43	1327.08
262.65	1378.28
262.86	1347.56
263.08	1472.49
263.30	1452.01
263.51	1318.89
263.73	1409.00
263.95	1464.30
264.16	1382.38
264.38	1378.28
264.60	1345.52
264.81	1396.71
265.03	1310.70
265.25	1314.80
265.46	1419.24
265.68	1409.00
265.89	1370.09
266.11	1306.60
266.33	1466.35
266.54	1316.84
266.76	1374.19
266.98	1406.95
267.19	1411.05
267.41	1431.53
267.62	1347.56
267.84	1357.80
268.06	1392.62
268.27	1388.52
268.49	1380.33
268.70	1454.06
268.92	1339.37
269.14	1347.56
269.35	1335.28
269.57	1384.43
269.79	1492.97
270.00	1312.75
270.22	1431.53
270.43	1351.66
270.65	1265.64
270.87	1298.41
271.08	1343.47
271.30	1404.91
271.51	1347.56
271.73	1384.43
271.95	1425.39
272.16	1390.57
272.38	1378.28
272.59	1353.71
272.81	1443.82
273.02	1480.68
273.24	1427.43
273.46	1419.24
273.67	1284.08
273.89	1353.71
274.10	1363.95
274.32	1406.95
274.54	1396.71
274.75	1411.05
274.97	1361.90
275.18	1374.19
275.40	1378.28
275.61	1322.99
275.83	1374.19
276.05	1333.23
276.26	1394.67
276.48	1400.81
276.69	1406.95
276.91	1343.47
277.12	1331.18
277.34	1366.00
277.55	1402.86
277.77	1417.19
277.99	1296.36
278.20	1288.17
278.42	1331.18
278.63	1263.60
278.85	1458.15
279.06	1392.62
279.28	1351.66
279.49	1425.39
279.71	1349.61
279.93	1419.24
280.14	1415.15
280.36	1353.71
280.57	1392.62
280.79	1447.91
281.00	1380.33
281.22	1349.61
281.43	1468.39
281.65	1353.71
281.86	1353.71
282.08	1417.19
282.29	1445.87
282.51	1329.13
282.73	1331.18
282.94	1345.52
283.16	1417.19
283.37	1470.44
283.59	1331.18
283.80	1433.58
284.02	1398.76
284.23	1384.43
284.45	1341.42
284.66	1329.13
284.88	1292.27
285.09	1314.80
285.31	1411.05
285.52	1337.32
285.74	1275.88
285.95	1406.95
286.17	1343.47
286.38	1376.24
286.60	1306.60
286.81	1368.04
287.03	1335.28
287.24	1325.04
287.46	1366.00
287.67	1363.95
287.89	1423.34
288.10	1333.23
288.32	1423.34
288.53	1425.39
288.75	1398.76
288.96	1394.67
289.18	1429.48
289.39	1435.63
289.61	1456.11
289.82	1482.73
290.04	1460.20
290.25	1368.04
290.47	1347.56
290.68	1320.94
290.90	1413.10
291.11	1337.32
291.33	1456.11
291.54	1413.10
291.76	1241.07
291.97	1316.84
292.18	1396.71
292.40	1286.12
292.61	1384.43
292.83	1490.92
293.04	1374.19
293.26	1368.04
293.47	1292.27
293.69	1345.52
293.90	1413.10
294.12	1341.42
294.33	1302.51
294.55	1339.37
294.76	1468.39
294.97	1392.62
295.19	1441.77
295.40	1337.32
295.62	1333.23
295.83	1394.67
296.05	1331.18
296.26	1370.09
296.48	1370.09
296.69	1347.56
296.90	1318.89
297.12	1316.84
297.33	1415.15
297.55	1372.14
297.76	1433.58
297.98	1368.04
298.19	1288.17
298.41	1314.80
298.62	1353.71
298.83	1458.15
299.05	1392.62
299.26	1390.57
299.48	1370.09
299.69	1435.63
299.90	1327.08
300.12	1347.56
300.33	1419.24
300.55	1366.00
300.76	1388.52
300.98	1384.43
301.19	1390.57
301.40	1329.13
301.62	1349.61
301.83	1384.43
302.05	1402.86
302.26	1392.62
302.47	1411.05
302.69	1343.47
302.90	1322.99
303.12	1343.47
303.33	1433.58
303.54	1443.82
303.76	1329.13
303.97	1363.95
304.19	1372.14
304.40	1304.56
304.61	1361.90
304.83	1431.53
305.04	1355.76
305.26	1320.94
305.47	1359.85
305.68	1460.20
305.90	1372.14
306.11	1421.29
306.33	1341.42
306.54	1349.61
306.75	1288.17
306.97	1275.88
307.18	1279.98
307.39	1427.43
307.61	1376.24
307.82	1353.71
308.04	1370.09
308.25	1406.95
308.46	1392.62
308.68	1322.99
308.89	1327.08
309.10	1452.01
309.32	1366.00
309.53	1423.34
309.74	1361.90
309.96	1320.94
310.17	1345.52
310.39	1318.89
310.60	1439.72
310.81	1400.81
311.03	1271.79
311.24	1372.14
311.45	1341.42
311.67	1288.17
311.88	1411.05
312.09	1314.80
312.31	1275.88
312.52	1374.19
312.73	1392.62
312.95	1284.08
313.16	1327.08
313.37	1452.01
313.59	1429.48
313.80	1349.61
314.01	1398.76
314.23	1343.47
314.44	1370.09
314.65	1290.22
314.87	1388.52
315.08	1359.85
315.29	1384.43
315.51	1329.13
315.72	1320.94
315.93	1376.24
316.15	1396.71
316.36	1331.18
316.57	1370.09
316.79	1378.28
317.00	1349.61
317.21	1320.94
317.43	1331.18
317.64	1384.43
317.85	1427.43
318.07	1400.81
318.28	1515.50
318.49	1585.13
318.70	1624.04
318.92	1521.64
319.13	1497.07
319.34	1554.41
319.56	1488.87
319.77	1429.48
319.98	1540.07
320.20	1507.30
320.41	1449.96
320.62	1441.77
320.83	1335.28
321.05	1433.58
321.26	1476.59
321.47	1380.33
321.69	1402.86
321.90	1355.76
322.11	1374.19
322.32	1337.32
322.54	1447.91
322.75	1376.24
322.96	1447.91
323.18	1314.80
323.39	1306.60
323.60	1329.13
323.81	1409.00
324.03	1335.28
324.24	1343.47
324.45	1277.93
324.66	1306.60
324.88	1370.09
325.09	1441.77
325.30	1341.42
325.52	1320.94
325.73	1357.80
325.94	1286.12
326.15	1167.34
326.37	1372.14
326.58	1474.54
326.79	1357.80
327.00	1263.60
327.22	1404.91
327.43	1349.61
327.64	1269.74
327.85	1366.00
328.07	1341.42
328.28	1417.19
328.49	1353.71
328.70	1427.43
328.92	1396.71
329.13	1372.14
329.34	1384.43
329.55	1386.47
329.76	1366.00
329.98	1325.04
330.19	1366.00
330.40	1406.95
330.61	1329.13
330.83	1372.14
331.04	1400.81
331.25	1437.67
331.46	1335.28
331.68	1312.75
331.89	1398.76
332.10	1417.19
332.31	1366.00
332.52	1384.43
332.74	1478.63
332.95	1392.62
333.16	1310.70
333.37	1320.94
333.58	1308.65
333.80	1296.36
334.01	1308.65
334.22	1355.76
334.43	1372.14
334.64	1290.22
334.86	1236.97
335.07	1423.34
335.28	1411.05
335.49	1386.47
335.70	1331.18
335.92	1351.66
336.13	1409.00
336.34	1357.80
336.55	1419.24
336.76	1306.60
336.98	1370.09
337.19	1298.41
337.40	1470.44
337.61	1435.63
337.82	1327.08
338.04	1409.00
338.25	1341.42
338.46	1409.00
338.67	1368.04
338.88	1308.65
339.09	1341.42
339.31	1374.19
339.52	1341.42
339.73	1398.76
339.94	1427.43
340.15	1329.13
340.36	1345.52
340.58	1396.71
340.79	1415.15
341.00	1302.51
341.21	1361.90
341.42	1320.94
341.63	1413.10
341.85	1277.93
342.06	1370.09
342.27	1312.75
342.48	1359.85
342.69	1294.32
342.90	1370.09
343.12	1447.91
343.33	1351.66
343.54	1427.43
343.75	1376.24
343.96	1372.14
344.17	1277.93
344.38	1359.85
344.60	1339.37
344.81	1351.66
345.02	1351.66
345.23	1376.24
345.44	1421.29
345.65	1411.05
345.86	1384.43
346.07	1361.90
346.29	1363.95
346.50	1380.33
346.71	1368.04
346.92	1392.62
347.13	1431.53
347.34	1380.33
347.55	1374.19
347.76	1437.67
347.98	1306.60
348.19	1370.09
348.40	1404.91
348.61	1400.81
348.82	1406.95
349.03	1445.87
349.24	1279.98
349.45	1454.06
349.66	1277.93
349.88	1406.95
350.09	1396.71
350.30	1396.71
350.51	1415.15
350.72	1406.95
350.93	1361.90
351.14	1366.00
351.35	1429.48
351.56	1394.67
351.77	1363.95
351.99	1402.86
352.20	1423.34
352.41	1454.06
352.62	1325.04
352.83	1329.13
353.04	1355.76
353.25	1327.08
353.46	1429.48
353.67	1425.39
353.88	1308.65
354.09	1398.76
354.30	1396.71
354.52	1415.15
354.73	1339.37
354.94	1363.95
355.15	1423.34
355.36	1421.29
355.57	1384.43
355.78	1419.24
355.99	1353.71
356.20	1331.18
356.41	1439.72
356.62	1406.95
356.83	1318.89
357.04	1431.53
357.25	1382.38
357.46	1357.80
357.68	1345.52
357.89	1322.99
358.10	1429.48
358.31	1427.43
358.52	1390.57
358.73	1273.84
358.94	1290.22
359.15	1429.48
359.36	1343.47
359.57	1378.28
359.78	1468.39
359.99	1325.04
360.20	1316.84
360.41	1409.00
360.62	1409.00
360.83	1382.38
361.04	1501.16
361.25	1402.86
361.46	1464.30
361.67	1419.24
361.88	1267.69
362.09	1392.62
362.30	1343.47
362.51	1294.32
362.72	1366.00
362.93	1394.67
363.14	1417.19
363.35	1421.29
363.56	1396.71
363.78	1464.30
363.99	1454.06
364.20	1316.84
364.41	1384.43
364.62	1445.87
364.83	1345.52
365.04	1470.44
365.25	1341.42
365.46	1417.19
365.67	1396.71
365.88	1398.76
366.09	1345.52
366.30	1353.71
366.51	1406.95
366.72	1388.52
366.93	1337.32
367.14	1300.46
367.35	1439.72
367.56	1402.86
367.77	1378.28
367.98	1351.66
368.18	1337.32
368.39	1402.86
368.60	1320.94
368.81	1378.28
369.02	1312.75
369.23	1294.32
369.44	1343.47
369.65	1372.14
369.86	1314.80
370.07	1390.57
370.28	1376.24
370.49	1376.24
370.70	1429.48
370.91	1392.62
371.12	1304.56
371.33	1366.00
371.54	1329.13
371.75	1458.15
371.96	1212.40
372.17	1388.52
372.38	1390.57
372.59	1349.61
372.80	1349.61
373.01	1382.38
373.22	1421.29
373.43	1370.09
373.64	1347.56
373.85	1409.00
374.06	1402.86
374.26	1339.37
374.47	1378.28
374.68	1476.59
374.89	1396.71
375.10	1345.52
375.31	1347.56
375.52	1400.81
375.73	1423.34
375.94	1279.98
376.15	1437.67
376.36	1322.99
376.57	1370.09
376.78	1363.95
376.99	1417.19
377.20	1374.19
377.40	1345.52
377.61	1456.11
377.82	1333.23
378.03	1482.73
378.24	1376.24
378.45	1353.71
378.66	1460.20
378.87	1251.31
379.08	1306.60
379.29	1325.04
379.50	1456.11
379.71	1396.71
379.91	1388.52
380.12	1347.56
380.33	1423.34
380.54	1351.66
380.75	1349.61
380.96	1353.71
381.17	1411.05
381.38	1472.49
381.59	1406.95
381.80	1370.09
382.00	1523.69
382.21	1349.61
382.42	1441.77
382.63	1515.50
382.84	1417.19
383.05	1384.43
383.26	1433.58
383.47	1353.71
383.68	1452.01
383.88	1372.14
384.09	1333.23
384.30	1507.30
384.51	1413.10
384.72	1327.08
384.93	1322.99
385.14	1396.71
385.35	1472.49
385.55	1335.28
385.76	1372.14
385.97	1392.62
386.18	1349.61
386.39	1394.67
386.60	1417.19
386.81	1378.28
387.02	1359.85
387.22	1327.08
387.43	1437.67
387.64	1468.39
387.85	2308.06
388.06	5781.42
388.27	9488.24
388.48	11339.60
388.68	12973.88
388.89	13236.02
389.10	10551.14
389.31	9328.50
389.52	8347.52
389.73	7520.14
389.93	6893.46
390.14	6690.71
390.35	6068.13
390.56	5535.66
390.77	4560.83
390.98	3733.45
391.18	2711.51
391.39	2256.86
391.60	1753.06
391.81	1607.66
392.02	1454.06
392.23	1505.26
392.43	1421.29
392.64	1468.39
392.85	1400.81
393.06	1460.20
393.27	1310.70
393.47	1417.19
393.68	1333.23
393.89	1363.95
394.10	1445.87
394.31	1359.85
394.52	1388.52
394.72	1345.52
394.93	1380.33
395.14	1345.52
395.35	1400.81
395.56	1351.66
395.76	1490.92
395.97	1544.17
396.18	1562.60
396.39	1669.09
396.60	1712.10
396.80	1490.92
397.01	1527.78
397.22	1452.01
397.43	1499.11
397.64	1441.77
397.84	1484.78
398.05	1527.78
398.26	1427.43
398.47	1456.11
398.67	1464.30
398.88	1460.20
399.09	1359.85
399.30	1396.71
399.51	1398.76
399.71	1316.84
399.92	1376.24
400.13	1429.48
400.34	1361.90
400.54	1409.00
400.75	1406.95
400.96	1425.39
401.17	1488.87
401.37	1374.19
401.58	1433.58
401.79	1527.78
402.00	1689.57
402.21	1693.67
402.41	1910.75
402.62	1755.11
402.83	1744.87
403.04	1708.01
403.24	1728.49
403.45	1585.13
403.66	1529.83
403.87	1542.12
404.07	1540.07
404.28	1628.14
404.49	1531.88
404.70	1505.26
404.90	1482.73
405.11	1411.05
405.32	1480.68
405.52	1308.65
405.73	1366.00
405.94	1347.56
406.15	1380.33
406.35	1345.52
406.56	1437.67
406.77	1398.76
406.98	1372.14
407.18	1304.56
407.39	1454.06
407.60	1415.15
407.80	1382.38
408.01	1306.60
408.22	1341.42
408.43	1277.93
408.63	1386.47
408.84	1425.39
409.05	1439.72
409.25	1413.10
409.46	1341.42
409.67	1325.04
409.88	1320.94
410.08	1386.47
410.29	1382.38
410.50	1406.95
410.70	1376.24
410.91	1337.32
411.12	1443.82
411.32	1427.43
411.53	1357.80
411.74	1480.68
411.95	1488.87
412.15	1460.20
412.36	1501.16
412.57	1460.20
412.77	1511.40
412.98	1458.15
413.19	1441.77
413.39	1415.15
413.60	1431.53
413.81	1503.21
414.01	1351.66
414.22	1449.96
414.43	1396.71
414.63	1460.20
414.84	1404.91
415.05	1380.33
415.25	1357.80
415.46	1454.06
415.67	1322.99
415.87	1308.65
416.08	1411.05
416.29	1314.80
416.49	1435.63
416.70	1378.28
416.91	1378.28
417.11	1376.24
417.32	1476.59
417.53	1419.24
417.73	1368.04
417.94	1396.71
418.15	1390.57
418.35	1341.42
418.56	1347.56
418.77	1413.10
418.97	1366.00
419.18	1423.34
419.38	1357.80
419.59	1423.34
419.80	1562.60
420.00	1322.99
420.21	1423.34
420.42	1392.62
420.62	1357.80
420.83	1331.18
421.04	1370.09
421.24	1343.47
421.45	1394.67
421.65	1400.81
421.86	1261.55
422.07	1402.86
422.27	1370.09
422.48	1286.12
422.69	1347.56
422.89	1337.32
423.10	1329.13
423.30	1353.71
423.51	1370.09
423.72	1357.80
423.92	1339.37
424.13	1353.71
424.33	1423.34
424.54	1347.56
424.75	1409.00
424.95	1392.62
425.16	1396.71
425.36	1372.14
425.57	1478.63
425.78	1368.04
425.98	1380.33
426.19	1329.13
426.39	1300.46
426.60	1335.28
426.81	1404.91
427.01	1351.66
427.22	1411.05
427.42	1310.70
427.63	1368.04
427.83	1433.58
428.04	1388.52
428.25	1435.63
428.45	1443.82
428.66	1378.28
428.86	1337.32
429.07	1306.60
429.28	1286.12
429.48	1351.66
429.69	1392.62
429.89	1378.28
430.10	1411.05
430.30	1343.47
430.51	1411.05
430.71	1294.32
430.92	1400.81
431.13	1318.89
431.33	1370.09
431.54	1433.58
431.74	1390.57
431.95	1429.48
432.15	1355.76
432.36	1359.85
432.56	1419.24
432.77	1382.38
432.98	1404.91
433.18	1409.00
433.39	1415.15
433.59	1357.80
433.80	1468.39
434.00	1419.24
434.21	1329.13
434.41	1284.08
434.62	1490.92
434.82	1359.85
435.03	1413.10
435.23	1392.62
435.44	1351.66
435.64	1363.95
435.85	1284.08
436.06	1384.43
436.26	1390.57
436.47	1343.47
436.67	1382.38
436.88	1372.14
437.08	1361.90
437.29	1472.49
437.49	1374.19
437.70	1396.71
437.90	1378.28
438.11	1507.30
438.31	1527.78
438.52	1507.30
438.72	1648.61
438.93	1519.59
439.13	1394.67
439.34	1468.39
439.54	1415.15
439.75	1404.91
439.95	1359.85
440.16	1366.00
440.36	1443.82
440.57	1404.91
440.77	1327.08
440.98	1372.14
441.18	1388.52
441.39	1347.56
441.59	1357.80
441.80	1435.63
442.00	1343.47
442.21	1435.63
442.41	1400.81
442.62	1409.00
442.82	1318.89
443.02	1392.62
443.23	1443.82
443.43	1478.63
443.64	1454.06
443.84	1363.95
444.05	1441.77
444.25	1368.04
444.46	1333.23
444.66	1427.43
444.87	1474.54
445.07	1347.56
445.28	1419.24
445.48	1388.52
445.69	1400.81
445.89	1509.35
446.09	1454.06
446.30	2314.20
446.50	3696.58
446.71	4706.23
446.91	5373.87
447.12	5543.85
447.32	4960.18
447.53	4073.41
447.73	3772.36
447.93	3561.42
448.14	3147.73
448.34	3067.86
448.55	2705.37
448.75	2617.30
448.96	2766.81
449.16	2414.56
449.36	2201.57
449.57	1984.48
449.77	1695.72
449.98	1556.46
450.18	1460.20
450.39	1439.72
450.59	1490.92
450.79	1406.95
451.00	1374.19
451.20	1398.76
451.41	1320.94
451.61	1454.06
451.81	1329.13
452.02	1402.86
452.22	1306.60
452.43	1347.56
452.63	1370.09
