SpectraSuite Data File
++++++++++++++++++++++++++++++++++++
Date: Tue May 03 11:24:38 CEST 2016
User: root
Dark Spectrum Present: No
Reference Spectrum Present: No
Number of Sampled Component Spectra: 1
Spectrometers: USB4C02835
Integration Time (usec): 100000 (USB4C02835)
Spectra Averaged: 1 (USB4C02835)
Boxcar Smoothing: 0 (USB4C02835)
Correct for Electrical Dark: No (USB4C02835)
Strobe/Lamp Enabled: No (USB4C02835)
Correct for Detector Non-linearity: No (USB4C02835)
Correct for Stray Light: No (USB4C02835)
Number of Pixels in Processed Spectrum: 3648
>>>>>Begin Processed Spectral Data<<<<<
177.47	1150.96
177.69	1150.96
177.91	1150.96
178.13	1249.26
178.36	1249.26
178.58	1357.80
178.80	1419.24
179.02	1302.51
179.24	1294.32
179.46	1355.76
179.68	1372.14
179.90	1333.23
180.13	1462.25
180.35	1404.91
180.57	1386.47
180.79	1392.62
181.01	1329.13
181.23	1339.37
181.45	1421.29
181.67	1402.86
181.90	1411.05
182.12	1300.46
182.34	1366.00
182.56	1402.86
182.78	1361.90
183.00	1355.76
183.22	1404.91
183.44	1355.76
183.66	1474.54
183.89	1390.57
184.11	1368.04
184.33	1359.85
184.55	1363.95
184.77	1404.91
184.99	1398.76
185.21	1318.89
185.43	1421.29
185.65	1306.60
185.87	1419.24
186.10	1505.26
186.32	1474.54
186.54	1376.24
186.76	1390.57
186.98	1366.00
187.20	1318.89
187.42	1433.58
187.64	1347.56
187.86	1372.14
188.08	1419.24
188.30	1390.57
188.52	1353.71
188.75	1394.67
188.97	1404.91
189.19	1333.23
189.41	1339.37
189.63	1380.33
189.85	1339.37
190.07	1341.42
190.29	1363.95
190.51	1452.01
190.73	1329.13
190.95	1445.87
191.17	1392.62
191.39	1372.14
191.61	1337.32
191.84	1327.08
192.06	1359.85
192.28	1366.00
192.50	1435.63
192.72	1353.71
192.94	1308.65
193.16	1400.81
193.38	1345.52
193.60	1419.24
193.82	1327.08
194.04	1372.14
194.26	1372.14
194.48	1386.47
194.70	1306.60
194.92	1306.60
195.14	1411.05
195.36	1355.76
195.58	1292.27
195.80	1306.60
196.02	1404.91
196.24	1447.91
196.46	1415.15
196.69	1331.18
196.91	1486.83
197.13	1429.48
197.35	1308.65
197.57	1411.05
197.79	1380.33
198.01	1449.96
198.23	1351.66
198.45	1388.52
198.67	1343.47
198.89	1439.72
199.11	1419.24
199.33	1343.47
199.55	1378.28
199.77	1304.56
199.99	1378.28
200.21	1378.28
200.43	1384.43
200.65	1341.42
200.87	1345.52
201.09	1329.13
201.31	1341.42
201.53	1437.67
201.75	1318.89
201.97	1339.37
202.19	1372.14
202.41	1388.52
202.63	1521.64
202.85	1433.58
203.07	1296.36
203.29	1388.52
203.51	1273.84
203.73	1351.66
203.95	1392.62
204.17	1312.75
204.39	1378.28
204.61	1437.67
204.83	1404.91
205.05	1452.01
205.27	1419.24
205.49	1419.24
205.71	1384.43
205.93	1273.84
206.15	1433.58
206.37	1343.47
206.59	1374.19
206.81	1335.28
207.03	1419.24
207.25	1277.93
207.47	1386.47
207.69	1314.80
207.91	1427.43
208.13	1359.85
208.34	1423.34
208.56	1363.95
208.78	1316.84
209.00	1359.85
209.22	1347.56
209.44	1372.14
209.66	1372.14
209.88	1368.04
210.10	1310.70
210.32	1345.52
210.54	1443.82
210.76	1421.29
210.98	1439.72
211.20	1296.36
211.42	1429.48
211.64	1329.13
211.86	1413.10
212.08	1409.00
212.30	1460.20
212.52	1394.67
212.74	1366.00
212.96	1386.47
213.17	1454.06
213.39	1382.38
213.61	1370.09
213.83	1415.15
214.05	1320.94
214.27	1380.33
214.49	1337.32
214.71	1415.15
214.93	1318.89
215.15	1357.80
215.37	1404.91
215.59	1322.99
215.81	1404.91
216.03	1384.43
216.24	1380.33
216.46	1388.52
216.68	1327.08
216.90	1466.35
217.12	1404.91
217.34	1380.33
217.56	1331.18
217.78	1402.86
218.00	1425.39
218.22	1392.62
218.44	1337.32
218.66	1341.42
218.87	1449.96
219.09	1366.00
219.31	1445.87
219.53	1384.43
219.75	1339.37
219.97	1392.62
220.19	1433.58
220.41	1413.10
220.63	1421.29
220.85	1390.57
221.06	1357.80
221.28	1429.48
221.50	1335.28
221.72	1292.27
221.94	1368.04
222.16	1443.82
222.38	1423.34
222.60	1384.43
222.82	1384.43
223.03	1458.15
223.25	1351.66
223.47	1374.19
223.69	1437.67
223.91	1372.14
224.13	1404.91
224.35	1316.84
224.57	1406.95
224.78	1394.67
225.00	1337.32
225.22	1433.58
225.44	1314.80
225.66	1361.90
225.88	1337.32
226.10	1413.10
226.32	1282.03
226.53	1470.44
226.75	1335.28
226.97	1308.65
227.19	1388.52
227.41	1357.80
227.63	1322.99
227.85	1355.76
228.06	1345.52
228.28	1357.80
228.50	1380.33
228.72	1382.38
228.94	1273.84
229.16	1327.08
229.37	1382.38
229.59	1388.52
229.81	1456.11
230.03	1337.32
230.25	1372.14
230.47	1314.80
230.69	1331.18
230.90	1269.74
231.12	1261.55
231.34	1316.84
231.56	1409.00
231.78	1421.29
232.00	1286.12
232.21	1300.46
232.43	1304.56
232.65	1273.84
232.87	1421.29
233.09	1341.42
233.30	1314.80
233.52	1394.67
233.74	1337.32
233.96	1339.37
234.18	1376.24
234.40	1386.47
234.61	1406.95
234.83	1257.45
235.05	1327.08
235.27	1456.11
235.49	1419.24
235.70	1339.37
235.92	1413.10
236.14	1320.94
236.36	1411.05
236.58	1327.08
236.79	1415.15
237.01	1359.85
237.23	1368.04
237.45	1327.08
237.67	1363.95
237.88	1400.81
238.10	1454.06
238.32	1337.32
238.54	1298.41
238.76	1366.00
238.97	1312.75
239.19	1345.52
239.41	1419.24
239.63	1380.33
239.85	1333.23
240.06	1370.09
240.28	1296.36
240.50	1398.76
240.72	1329.13
240.93	1380.33
241.15	1402.86
241.37	1441.77
241.59	1400.81
241.81	1341.42
242.02	1361.90
242.24	1423.34
242.46	1351.66
242.68	1370.09
242.89	1376.24
243.11	1368.04
243.33	1341.42
243.55	1310.70
243.76	1380.33
243.98	1343.47
244.20	1437.67
244.42	1400.81
244.64	1402.86
244.85	1355.76
245.07	1366.00
245.29	1415.15
245.51	1411.05
245.72	1376.24
245.94	1316.84
246.16	1376.24
246.38	1423.34
246.59	1331.18
246.81	1402.86
247.03	1380.33
247.24	1316.84
247.46	1318.89
247.68	1290.22
247.90	1308.65
248.11	1347.56
248.33	1437.67
248.55	1331.18
248.77	1396.71
248.98	1361.90
249.20	1437.67
249.42	1363.95
249.64	1366.00
249.85	1345.52
250.07	1333.23
250.29	1460.20
250.50	1351.66
250.72	1316.84
250.94	1345.52
251.16	1394.67
251.37	1441.77
251.59	1357.80
251.81	1431.53
252.02	1411.05
252.24	1398.76
252.46	1460.20
252.68	1400.81
252.89	1263.60
253.11	1384.43
253.33	1419.24
253.54	1415.15
253.76	1343.47
253.98	1394.67
254.20	1366.00
254.41	1449.96
254.63	1366.00
254.85	1288.17
255.06	1341.42
255.28	1413.10
255.50	1374.19
255.71	1345.52
255.93	1325.04
256.15	1378.28
256.36	1337.32
256.58	1409.00
256.80	1351.66
257.02	1378.28
257.23	1290.22
257.45	1445.87
257.67	1353.71
257.88	1335.28
258.10	1347.56
258.32	1343.47
258.53	1423.34
258.75	1396.71
258.97	1306.60
259.18	1380.33
259.40	1392.62
259.62	1445.87
259.83	1421.29
260.05	1368.04
260.27	1515.50
260.48	1333.23
260.70	1296.36
260.92	1384.43
261.13	1361.90
261.35	1421.29
261.57	1415.15
261.78	1382.38
262.00	1316.84
262.22	1359.85
262.43	1402.86
262.65	1417.19
262.86	1417.19
263.08	1433.58
263.30	1388.52
263.51	1265.64
263.73	1368.04
263.95	1427.43
264.16	1279.98
264.38	1343.47
264.60	1462.25
264.81	1267.69
265.03	1419.24
265.25	1421.29
265.46	1343.47
265.68	1411.05
265.89	1409.00
266.11	1284.08
266.33	1415.15
266.54	1402.86
266.76	1413.10
266.98	1413.10
267.19	1433.58
267.41	1368.04
267.62	1374.19
267.84	1366.00
268.06	1394.67
268.27	1454.06
268.49	1361.90
268.70	1413.10
268.92	1351.66
269.14	1284.08
269.35	1316.84
269.57	1417.19
269.79	1404.91
270.00	1312.75
270.22	1378.28
270.43	1374.19
270.65	1251.31
270.87	1341.42
271.08	1376.24
271.30	1441.77
271.51	1380.33
271.73	1411.05
271.95	1331.18
272.16	1429.48
272.38	1357.80
272.59	1327.08
272.81	1347.56
273.02	1325.04
273.24	1394.67
273.46	1318.89
273.67	1318.89
273.89	1345.52
274.10	1341.42
274.32	1343.47
274.54	1398.76
274.75	1406.95
274.97	1345.52
275.18	1396.71
275.40	1439.72
275.61	1384.43
275.83	1404.91
276.05	1306.60
276.26	1300.46
276.48	1372.14
276.69	1427.43
276.91	1355.76
277.12	1415.15
277.34	1435.63
277.55	1394.67
277.77	1359.85
277.99	1382.38
278.20	1290.22
278.42	1341.42
278.63	1359.85
278.85	1345.52
279.06	1337.32
279.28	1318.89
279.49	1361.90
279.71	1417.19
279.93	1363.95
280.14	1337.32
280.36	1257.45
280.57	1449.96
280.79	1404.91
281.00	1363.95
281.22	1406.95
281.43	1347.56
281.65	1286.12
281.86	1349.61
282.08	1435.63
282.29	1443.82
282.51	1290.22
282.73	1314.80
282.94	1290.22
283.16	1343.47
283.37	1409.00
283.59	1388.52
283.80	1376.24
284.02	1402.86
284.23	1370.09
284.45	1415.15
284.66	1310.70
284.88	1384.43
285.09	1398.76
285.31	1320.94
285.52	1372.14
285.74	1349.61
285.95	1439.72
286.17	1421.29
286.38	1337.32
286.60	1322.99
286.81	1308.65
287.03	1361.90
287.24	1384.43
287.46	1443.82
287.67	1400.81
287.89	1447.91
288.10	1374.19
288.32	1331.18
288.53	1333.23
288.75	1392.62
288.96	1345.52
289.18	1361.90
289.39	1345.52
289.61	1421.29
289.82	1384.43
290.04	1466.35
290.25	1327.08
290.47	1406.95
290.68	1265.64
290.90	1415.15
291.11	1353.71
291.33	1427.43
291.54	1345.52
291.76	1304.56
291.97	1394.67
292.18	1390.57
292.40	1316.84
292.61	1329.13
292.83	1388.52
293.04	1380.33
293.26	1404.91
293.47	1322.99
293.69	1359.85
293.90	1306.60
294.12	1454.06
294.33	1355.76
294.55	1384.43
294.76	1443.82
294.97	1366.00
295.19	1452.01
295.40	1320.94
295.62	1363.95
295.83	1349.61
296.05	1425.39
296.26	1417.19
296.48	1316.84
296.69	1394.67
296.90	1351.66
297.12	1355.76
297.33	1392.62
297.55	1380.33
297.76	1425.39
297.98	1400.81
298.19	1419.24
298.41	1294.32
298.62	1341.42
298.83	1402.86
299.05	1306.60
299.26	1314.80
299.48	1411.05
299.69	1376.24
299.90	1437.67
300.12	1361.90
300.33	1421.29
300.55	1314.80
300.76	1380.33
300.98	1284.08
301.19	1429.48
301.40	1374.19
301.62	1345.52
301.83	1417.19
302.05	1380.33
302.26	1327.08
302.47	1320.94
302.69	1277.93
302.90	1464.30
303.12	1294.32
303.33	1372.14
303.54	1417.19
303.76	1372.14
303.97	1361.90
304.19	1462.25
304.40	1433.58
304.61	1345.52
304.83	1490.92
305.04	1439.72
305.26	1310.70
305.47	1392.62
305.68	1419.24
305.90	1368.04
306.11	1413.10
306.33	1386.47
306.54	1404.91
306.75	1333.23
306.97	1314.80
307.18	1404.91
307.39	1337.32
307.61	1376.24
307.82	1298.41
308.04	1409.00
308.25	1388.52
308.46	1290.22
308.68	1339.37
308.89	1357.80
309.10	1443.82
309.32	1363.95
309.53	1292.27
309.74	1380.33
309.96	1339.37
310.17	1380.33
310.39	1376.24
310.60	1423.34
310.81	1327.08
311.03	1343.47
311.24	1390.57
311.45	1312.75
311.67	1368.04
311.88	1460.20
312.09	1478.63
312.31	1400.81
312.52	1386.47
312.73	1339.37
312.95	1337.32
313.16	1349.61
313.37	1347.56
313.59	1308.65
313.80	1464.30
314.01	1425.39
314.23	1396.71
314.44	1411.05
314.65	1351.66
314.87	1366.00
315.08	1378.28
315.29	1357.80
315.51	1292.27
315.72	1329.13
315.93	1435.63
316.15	1347.56
316.36	1353.71
316.57	1429.48
316.79	1478.63
317.00	1396.71
317.21	1411.05
317.43	1351.66
317.64	1445.87
317.85	1411.05
318.07	1445.87
318.28	1542.12
318.49	1533.93
318.70	1708.01
318.92	1507.30
319.13	1503.21
319.34	1570.79
319.56	1433.58
319.77	1484.78
319.98	1484.78
320.20	1394.67
320.41	1435.63
320.62	1359.85
320.83	1339.37
321.05	1462.25
321.26	1353.71
321.47	1376.24
321.69	1392.62
321.90	1341.42
322.11	1284.08
322.32	1298.41
322.54	1484.78
322.75	1400.81
322.96	1478.63
323.18	1277.93
323.39	1378.28
323.60	1366.00
323.81	1417.19
324.03	1322.99
324.24	1353.71
324.45	1341.42
324.66	1331.18
324.88	1382.38
325.09	1443.82
325.30	1282.03
325.52	1368.04
325.73	1378.28
325.94	1372.14
326.15	1331.18
326.37	1363.95
326.58	1441.77
326.79	1447.91
327.00	1306.60
327.22	1492.97
327.43	1347.56
327.64	1282.03
327.85	1374.19
328.07	1361.90
328.28	1349.61
328.49	1411.05
328.70	1339.37
328.92	1329.13
329.13	1363.95
329.34	1380.33
329.55	1386.47
329.76	1415.15
329.98	1335.28
330.19	1359.85
330.40	1449.96
330.61	1384.43
330.83	1464.30
331.04	1288.17
331.25	1370.09
331.46	1271.79
331.68	1314.80
331.89	1394.67
332.10	1409.00
332.31	1345.52
332.52	1386.47
332.74	1357.80
332.95	1325.04
333.16	1396.71
333.37	1478.63
333.58	1306.60
333.80	1404.91
334.01	1282.03
334.22	1394.67
334.43	1333.23
334.64	1294.32
334.86	1343.47
335.07	1275.88
335.28	1454.06
335.49	1353.71
335.70	1370.09
335.92	1447.91
336.13	1437.67
336.34	1384.43
336.55	1415.15
336.76	1409.00
336.98	1312.75
337.19	1298.41
337.40	1468.39
337.61	1445.87
337.82	1386.47
338.04	1411.05
338.25	1325.04
338.46	1345.52
338.67	1437.67
338.88	1402.86
339.09	1320.94
339.31	1384.43
339.52	1370.09
339.73	1331.18
339.94	1417.19
340.15	1363.95
340.36	1320.94
340.58	1372.14
340.79	1345.52
341.00	1402.86
341.21	1396.71
341.42	1519.59
341.63	1370.09
341.85	1380.33
342.06	1427.43
342.27	1290.22
342.48	1382.38
342.69	1335.28
342.90	1327.08
343.12	1435.63
343.33	1351.66
343.54	1286.12
343.75	1398.76
343.96	1437.67
344.17	1308.65
344.38	1353.71
344.60	1288.17
344.81	1304.56
345.02	1331.18
345.23	1368.04
345.44	1484.78
345.65	1437.67
345.86	1441.77
346.07	1333.23
346.29	1271.79
346.50	1425.39
346.71	1411.05
346.92	1368.04
347.13	1415.15
347.34	1400.81
347.55	1351.66
347.76	1386.47
347.98	1325.04
348.19	1333.23
348.40	1392.62
348.61	1363.95
348.82	1484.78
349.03	1392.62
349.24	1337.32
349.45	1472.49
349.66	1318.89
349.88	1361.90
350.09	1392.62
350.30	1413.10
350.51	1445.87
350.72	1372.14
350.93	1388.52
351.14	1359.85
351.35	1406.95
351.56	1398.76
351.77	1355.76
351.99	1449.96
352.20	1470.44
352.41	1484.78
352.62	1337.32
352.83	1290.22
353.04	1392.62
353.25	1347.56
353.46	1435.63
353.67	1370.09
353.88	1269.74
354.09	1431.53
354.30	1310.70
354.52	1314.80
354.73	1337.32
354.94	1392.62
355.15	1380.33
355.36	1380.33
355.57	1380.33
355.78	1349.61
355.99	1329.13
356.20	1402.86
356.41	1411.05
356.62	1308.65
356.83	1380.33
357.04	1441.77
357.25	1337.32
357.46	1347.56
357.68	1327.08
357.89	1298.41
358.10	1359.85
358.31	1337.32
358.52	1380.33
358.73	1304.56
358.94	1300.46
359.15	1378.28
359.36	1421.29
359.57	1361.90
359.78	1331.18
359.99	1359.85
360.20	1267.69
360.41	1341.42
360.62	1316.84
360.83	1404.91
361.04	1406.95
361.25	1396.71
361.46	1456.11
361.67	1413.10
361.88	1394.67
362.09	1505.26
362.30	1374.19
362.51	1363.95
362.72	1335.28
362.93	1386.47
363.14	1409.00
363.35	1312.75
363.56	1349.61
363.78	1396.71
363.99	1394.67
364.20	1333.23
364.41	1413.10
364.62	1394.67
364.83	1437.67
365.04	1406.95
365.25	1392.62
365.46	1380.33
365.67	1306.60
365.88	1351.66
366.09	1368.04
366.30	1380.33
366.51	1357.80
366.72	1378.28
366.93	1361.90
367.14	1374.19
367.35	1435.63
367.56	1382.38
367.77	1366.00
367.98	1384.43
368.18	1374.19
368.39	1353.71
368.60	1343.47
368.81	1363.95
369.02	1423.34
369.23	1349.61
369.44	1294.32
369.65	1396.71
369.86	1329.13
370.07	1363.95
370.28	1363.95
370.49	1388.52
370.70	1480.68
370.91	1288.17
371.12	1331.18
371.33	1390.57
371.54	1402.86
371.75	1462.25
371.96	1312.75
372.17	1468.39
372.38	1333.23
372.59	1425.39
372.80	1349.61
373.01	1322.99
373.22	1312.75
373.43	1353.71
373.64	1282.03
373.85	1392.62
374.06	1427.43
374.26	1339.37
374.47	1361.90
374.68	1388.52
374.89	1370.09
375.10	1310.70
375.31	1331.18
375.52	1382.38
375.73	1353.71
375.94	1318.89
376.15	1394.67
376.36	1335.28
376.57	1361.90
376.78	1437.67
376.99	1310.70
377.20	1431.53
377.40	1296.36
377.61	1419.24
377.82	1435.63
378.03	1390.57
378.24	1425.39
378.45	1327.08
378.66	1337.32
378.87	1337.32
379.08	1349.61
379.29	1353.71
379.50	1353.71
379.71	1409.00
379.91	1404.91
380.12	1361.90
380.33	1396.71
380.54	1374.19
380.75	1392.62
380.96	1413.10
381.17	1376.24
381.38	1404.91
381.59	1445.87
381.80	1445.87
382.00	1492.97
382.21	1425.39
382.42	1484.78
382.63	1501.16
382.84	1460.20
383.05	1417.19
383.26	1478.63
383.47	1464.30
383.68	1400.81
383.88	1351.66
384.09	1394.67
384.30	1392.62
384.51	1347.56
384.72	1378.28
384.93	1406.95
385.14	1462.25
385.35	1468.39
385.55	1337.32
385.76	1421.29
385.97	1368.04
386.18	1308.65
386.39	1488.87
386.60	1392.62
386.81	1400.81
387.02	1396.71
387.22	1322.99
387.43	1462.25
387.64	1540.07
387.85	2336.73
388.06	5865.38
388.27	9455.47
388.48	11540.30
388.68	12975.93
388.89	13399.86
389.10	10549.09
389.31	9219.96
389.52	8253.31
389.73	7276.43
389.93	6899.61
390.14	6543.26
390.35	6055.84
390.56	5435.31
390.77	4509.63
390.98	3653.58
391.18	2781.14
391.39	2084.83
391.60	1673.19
391.81	1564.65
392.02	1540.07
392.23	1419.24
392.43	1458.15
392.64	1435.63
392.85	1355.76
393.06	1468.39
393.27	1386.47
393.47	1368.04
393.68	1419.24
393.89	1361.90
394.10	1388.52
394.31	1374.19
394.52	1374.19
394.72	1322.99
394.93	1331.18
395.14	1357.80
395.35	1390.57
395.56	1370.09
395.76	1488.87
395.97	1611.75
396.18	1615.85
396.39	1585.13
396.60	1671.14
396.80	1540.07
397.01	1546.22
397.22	1507.30
397.43	1456.11
397.64	1480.68
397.84	1454.06
398.05	1509.35
398.26	1501.16
398.47	1409.00
398.67	1513.45
398.88	1359.85
399.09	1386.47
399.30	1398.76
399.51	1396.71
399.71	1404.91
399.92	1396.71
400.13	1368.04
400.34	1421.29
400.54	1333.23
400.75	1499.11
400.96	1384.43
401.17	1404.91
401.37	1449.96
401.58	1386.47
401.79	1452.01
402.00	1718.25
402.21	1769.44
402.41	1814.50
402.62	1755.11
402.83	1767.40
403.04	1683.43
403.24	1736.68
403.45	1538.02
403.66	1617.90
403.87	1609.70
404.07	1521.64
404.28	1583.08
404.49	1488.87
404.70	1482.73
404.90	1484.78
405.11	1411.05
405.32	1347.56
405.52	1308.65
405.73	1429.48
405.94	1310.70
406.15	1386.47
406.35	1368.04
406.56	1411.05
406.77	1343.47
406.98	1419.24
407.18	1327.08
407.39	1386.47
407.60	1343.47
407.80	1357.80
408.01	1361.90
408.22	1363.95
408.43	1368.04
408.63	1411.05
408.84	1398.76
409.05	1378.28
409.25	1347.56
409.46	1314.80
409.67	1349.61
409.88	1431.53
410.08	1449.96
410.29	1376.24
410.50	1411.05
410.70	1427.43
410.91	1361.90
411.12	1359.85
411.32	1384.43
411.53	1425.39
411.74	1478.63
411.95	1415.15
412.15	1505.26
412.36	1417.19
412.57	1394.67
412.77	1460.20
412.98	1427.43
413.19	1376.24
413.39	1386.47
413.60	1372.14
413.81	1460.20
414.01	1443.82
414.22	1476.59
414.43	1437.67
414.63	1392.62
414.84	1386.47
415.05	1284.08
415.25	1331.18
415.46	1386.47
415.67	1353.71
415.87	1449.96
416.08	1402.86
416.29	1376.24
416.49	1406.95
416.70	1382.38
416.91	1443.82
417.11	1411.05
417.32	1337.32
417.53	1363.95
417.73	1355.76
417.94	1400.81
418.15	1427.43
418.35	1378.28
418.56	1390.57
418.77	1503.21
418.97	1386.47
419.18	1304.56
419.38	1259.50
419.59	1366.00
419.80	1478.63
420.00	1366.00
420.21	1363.95
420.42	1423.34
420.62	1406.95
420.83	1339.37
421.04	1427.43
421.24	1329.13
421.45	1345.52
421.65	1423.34
421.86	1335.28
422.07	1441.77
422.27	1417.19
422.48	1345.52
422.69	1304.56
422.89	1337.32
423.10	1337.32
423.30	1392.62
423.51	1419.24
423.72	1361.90
423.92	1394.67
424.13	1363.95
424.33	1378.28
424.54	1427.43
424.75	1284.08
424.95	1325.04
425.16	1404.91
425.36	1351.66
425.57	1449.96
425.78	1411.05
425.98	1382.38
426.19	1282.03
426.39	1351.66
426.60	1370.09
426.81	1423.34
427.01	1327.08
427.22	1306.60
427.42	1296.36
427.63	1363.95
427.83	1411.05
428.04	1443.82
428.25	1386.47
428.45	1394.67
428.66	1349.61
428.86	1355.76
429.07	1398.76
429.28	1402.86
429.48	1279.98
429.69	1382.38
429.89	1349.61
430.10	1333.23
430.30	1392.62
430.51	1429.48
430.71	1351.66
430.92	1359.85
431.13	1421.29
431.33	1374.19
431.54	1378.28
431.74	1462.25
431.95	1458.15
432.15	1308.65
432.36	1316.84
432.56	1409.00
432.77	1421.29
432.98	1472.49
433.18	1306.60
433.39	1351.66
433.59	1372.14
433.80	1409.00
434.00	1476.59
434.21	1312.75
434.41	1400.81
434.62	1419.24
434.82	1327.08
435.03	1353.71
435.23	1388.52
435.44	1343.47
435.64	1333.23
435.85	1380.33
436.06	1462.25
436.26	1472.49
436.47	1339.37
436.67	1398.76
436.88	1400.81
437.08	1290.22
437.29	1468.39
437.49	1368.04
437.70	1376.24
437.90	1368.04
438.11	1497.07
438.31	1509.35
438.52	1507.30
438.72	1490.92
438.93	1550.31
439.13	1417.19
439.34	1511.40
439.54	1480.68
439.75	1437.67
439.95	1411.05
440.16	1472.49
440.36	1302.51
440.57	1476.59
440.77	1347.56
440.98	1431.53
441.18	1359.85
441.39	1392.62
441.59	1380.33
441.80	1443.82
442.00	1359.85
442.21	1474.54
442.41	1312.75
442.62	1433.58
442.82	1308.65
443.02	1380.33
443.23	1406.95
443.43	1359.85
443.64	1396.71
443.84	1376.24
444.05	1370.09
444.25	1402.86
444.46	1337.32
444.66	1355.76
444.87	1423.34
445.07	1310.70
445.28	1435.63
445.48	1449.96
445.69	1445.87
445.89	1468.39
446.09	1538.02
446.30	2263.01
446.50	3710.92
446.71	4554.68
446.91	5261.23
447.12	5529.52
447.32	4880.31
447.53	4190.14
447.73	3776.45
447.93	3485.64
448.14	3141.58
448.34	3098.58
448.55	2756.57
448.75	2699.22
448.96	2754.52
449.16	2461.66
449.36	2199.52
449.57	1912.80
449.77	1724.39
449.98	1505.26
450.18	1370.09
450.39	1507.30
450.59	1458.15
450.79	1312.75
451.00	1368.04
451.20	1402.86
451.41	1353.71
451.61	1398.76
451.81	1372.14
452.02	1425.39
452.22	1392.62
452.43	1402.86
452.63	1337.32
