SpectraSuite Data File
++++++++++++++++++++++++++++++++++++
Date: Tue May 03 11:24:56 CEST 2016
User: root
Dark Spectrum Present: No
Reference Spectrum Present: No
Number of Sampled Component Spectra: 1
Spectrometers: USB4C02835
Integration Time (usec): 100000 (USB4C02835)
Spectra Averaged: 1 (USB4C02835)
Boxcar Smoothing: 0 (USB4C02835)
Correct for Electrical Dark: No (USB4C02835)
Strobe/Lamp Enabled: No (USB4C02835)
Correct for Detector Non-linearity: No (USB4C02835)
Correct for Stray Light: No (USB4C02835)
Number of Pixels in Processed Spectrum: 3648
>>>>>Begin Processed Spectral Data<<<<<
177.47	1234.93
177.69	1234.93
177.91	1234.93
178.13	1255.40
178.36	1200.11
178.58	1320.94
178.80	1384.43
179.02	1224.69
179.24	1279.98
179.46	1325.04
179.68	1392.62
179.90	1363.95
180.13	1298.41
180.35	1382.38
180.57	1366.00
180.79	1378.28
181.01	1404.91
181.23	1398.76
181.45	1443.82
181.67	1441.77
181.90	1413.10
182.12	1370.09
182.34	1320.94
182.56	1370.09
182.78	1376.24
183.00	1413.10
183.22	1380.33
183.44	1335.28
183.66	1413.10
183.89	1445.87
184.11	1304.56
184.33	1388.52
184.55	1411.05
184.77	1390.57
184.99	1425.39
185.21	1279.98
185.43	1476.59
185.65	1308.65
185.87	1462.25
186.10	1433.58
186.32	1425.39
186.54	1392.62
186.76	1449.96
186.98	1400.81
187.20	1439.72
187.42	1320.94
187.64	1347.56
187.86	1320.94
188.08	1402.86
188.30	1439.72
188.52	1337.32
188.75	1372.14
188.97	1456.11
189.19	1320.94
189.41	1382.38
189.63	1335.28
189.85	1366.00
190.07	1392.62
190.29	1279.98
190.51	1433.58
190.73	1335.28
190.95	1413.10
191.17	1413.10
191.39	1335.28
191.61	1271.79
191.84	1406.95
192.06	1372.14
192.28	1255.40
192.50	1501.16
192.72	1409.00
192.94	1318.89
193.16	1349.61
193.38	1320.94
193.60	1452.01
193.82	1296.36
194.04	1464.30
194.26	1296.36
194.48	1359.85
194.70	1347.56
194.92	1374.19
195.14	1390.57
195.36	1368.04
195.58	1398.76
195.80	1417.19
196.02	1372.14
196.24	1335.28
196.46	1355.76
196.69	1378.28
196.91	1564.65
197.13	1456.11
197.35	1421.29
197.57	1429.48
197.79	1396.71
198.01	1337.32
198.23	1318.89
198.45	1363.95
198.67	1339.37
198.89	1417.19
199.11	1370.09
199.33	1413.10
199.55	1294.32
199.77	1374.19
199.99	1398.76
200.21	1359.85
200.43	1306.60
200.65	1296.36
200.87	1320.94
201.09	1333.23
201.31	1298.41
201.53	1411.05
201.75	1478.63
201.97	1396.71
202.19	1427.43
202.41	1380.33
202.63	1478.63
202.85	1345.52
203.07	1363.95
203.29	1298.41
203.51	1429.48
203.73	1366.00
203.95	1476.59
204.17	1366.00
204.39	1304.56
204.61	1378.28
204.83	1349.61
205.05	1390.57
205.27	1386.47
205.49	1404.91
205.71	1429.48
205.93	1316.84
206.15	1351.66
206.37	1306.60
206.59	1370.09
206.81	1310.70
207.03	1349.61
207.25	1306.60
207.47	1390.57
207.69	1411.05
207.91	1462.25
208.13	1396.71
208.34	1329.13
208.56	1304.56
208.78	1378.28
209.00	1335.28
209.22	1331.18
209.44	1370.09
209.66	1308.65
209.88	1333.23
210.10	1374.19
210.32	1433.58
210.54	1413.10
210.76	1351.66
210.98	1380.33
211.20	1286.12
211.42	1392.62
211.64	1466.35
211.86	1402.86
212.08	1484.78
212.30	1427.43
212.52	1288.17
212.74	1343.47
212.96	1400.81
213.17	1443.82
213.39	1374.19
213.61	1458.15
213.83	1406.95
214.05	1404.91
214.27	1376.24
214.49	1290.22
214.71	1339.37
214.93	1411.05
215.15	1347.56
215.37	1310.70
215.59	1314.80
215.81	1404.91
216.03	1361.90
216.24	1454.06
216.46	1404.91
216.68	1357.80
216.90	1394.67
217.12	1447.91
217.34	1361.90
217.56	1396.71
217.78	1394.67
218.00	1343.47
218.22	1396.71
218.44	1333.23
218.66	1400.81
218.87	1396.71
219.09	1374.19
219.31	1409.00
219.53	1402.86
219.75	1349.61
219.97	1435.63
220.19	1329.13
220.41	1363.95
220.63	1247.21
220.85	1361.90
221.06	1325.04
221.28	1482.73
221.50	1357.80
221.72	1355.76
221.94	1380.33
222.16	1423.34
222.38	1437.67
222.60	1404.91
222.82	1320.94
223.03	1382.38
223.25	1306.60
223.47	1361.90
223.69	1421.29
223.91	1437.67
224.13	1361.90
224.35	1353.71
224.57	1409.00
224.78	1394.67
225.00	1298.41
225.22	1290.22
225.44	1384.43
225.66	1361.90
225.88	1331.18
226.10	1392.62
226.32	1404.91
226.53	1370.09
226.75	1374.19
226.97	1245.16
227.19	1435.63
227.41	1359.85
227.63	1394.67
227.85	1284.08
228.06	1374.19
228.28	1320.94
228.50	1396.71
228.72	1357.80
228.94	1345.52
229.16	1355.76
229.37	1329.13
229.59	1320.94
229.81	1341.42
230.03	1325.04
230.25	1304.56
230.47	1374.19
230.69	1337.32
230.90	1298.41
231.12	1404.91
231.34	1413.10
231.56	1425.39
231.78	1286.12
232.00	1382.38
232.21	1398.76
232.43	1355.76
232.65	1337.32
232.87	1421.29
233.09	1359.85
233.30	1363.95
233.52	1339.37
233.74	1417.19
233.96	1335.28
234.18	1359.85
234.40	1396.71
234.61	1470.44
234.83	1282.03
235.05	1347.56
235.27	1437.67
235.49	1409.00
235.70	1431.53
235.92	1484.78
236.14	1392.62
236.36	1488.87
236.58	1359.85
236.79	1435.63
237.01	1353.71
237.23	1402.86
237.45	1425.39
237.67	1363.95
237.88	1384.43
238.10	1452.01
238.32	1353.71
238.54	1347.56
238.76	1341.42
238.97	1308.65
239.19	1370.09
239.41	1388.52
239.63	1366.00
239.85	1343.47
240.06	1306.60
240.28	1355.76
240.50	1400.81
240.72	1396.71
240.93	1368.04
241.15	1439.72
241.37	1447.91
241.59	1404.91
241.81	1378.28
242.02	1366.00
242.24	1409.00
242.46	1445.87
242.68	1333.23
242.89	1402.86
243.11	1286.12
243.33	1349.61
243.55	1345.52
243.76	1413.10
243.98	1302.51
244.20	1406.95
244.42	1279.98
244.64	1368.04
244.85	1314.80
245.07	1431.53
245.29	1427.43
245.51	1370.09
245.72	1406.95
245.94	1478.63
246.16	1404.91
246.38	1363.95
246.59	1370.09
246.81	1282.03
247.03	1386.47
247.24	1372.14
247.46	1372.14
247.68	1435.63
247.90	1361.90
248.11	1359.85
248.33	1384.43
248.55	1370.09
248.77	1380.33
248.98	1411.05
249.20	1433.58
249.42	1329.13
249.64	1327.08
249.85	1349.61
250.07	1306.60
250.29	1359.85
250.50	1402.86
250.72	1363.95
250.94	1263.60
251.16	1368.04
251.37	1429.48
251.59	1431.53
251.81	1275.88
252.02	1445.87
252.24	1333.23
252.46	1335.28
252.68	1411.05
252.89	1382.38
253.11	1318.89
253.33	1396.71
253.54	1314.80
253.76	1359.85
253.98	1376.24
254.20	1361.90
254.41	1310.70
254.63	1329.13
254.85	1384.43
255.06	1374.19
255.28	1447.91
255.50	1456.11
255.71	1368.04
255.93	1396.71
256.15	1292.27
256.36	1359.85
256.58	1398.76
256.80	1398.76
257.02	1292.27
257.23	1353.71
257.45	1400.81
257.67	1413.10
257.88	1337.32
258.10	1413.10
258.32	1449.96
258.53	1386.47
258.75	1378.28
258.97	1331.18
259.18	1413.10
259.40	1363.95
259.62	1363.95
259.83	1380.33
260.05	1400.81
260.27	1583.08
260.48	1357.80
260.70	1376.24
260.92	1388.52
261.13	1347.56
261.35	1384.43
261.57	1392.62
261.78	1359.85
262.00	1312.75
262.22	1382.38
262.43	1243.12
262.65	1392.62
262.86	1298.41
263.08	1452.01
263.30	1372.14
263.51	1404.91
263.73	1320.94
263.95	1394.67
264.16	1292.27
264.38	1318.89
264.60	1392.62
264.81	1353.71
265.03	1357.80
265.25	1382.38
265.46	1388.52
265.68	1441.77
265.89	1380.33
266.11	1282.03
266.33	1435.63
266.54	1423.34
266.76	1355.76
266.98	1388.52
267.19	1482.73
267.41	1380.33
267.62	1400.81
267.84	1290.22
268.06	1347.56
268.27	1355.76
268.49	1441.77
268.70	1380.33
268.92	1357.80
269.14	1265.64
269.35	1273.84
269.57	1400.81
269.79	1318.89
270.00	1355.76
270.22	1411.05
270.43	1335.28
270.65	1271.79
270.87	1372.14
271.08	1349.61
271.30	1417.19
271.51	1320.94
271.73	1363.95
271.95	1482.73
272.16	1331.18
272.38	1331.18
272.59	1406.95
272.81	1329.13
273.02	1361.90
273.24	1380.33
273.46	1409.00
273.67	1378.28
273.89	1384.43
274.10	1353.71
274.32	1398.76
274.54	1279.98
274.75	1359.85
274.97	1366.00
275.18	1363.95
275.40	1341.42
275.61	1427.43
275.83	1394.67
276.05	1335.28
276.26	1390.57
276.48	1398.76
276.69	1343.47
276.91	1417.19
277.12	1425.39
277.34	1376.24
277.55	1349.61
277.77	1349.61
277.99	1406.95
278.20	1300.46
278.42	1355.76
278.63	1398.76
278.85	1378.28
279.06	1247.21
279.28	1357.80
279.49	1390.57
279.71	1368.04
279.93	1343.47
280.14	1368.04
280.36	1380.33
280.57	1449.96
280.79	1396.71
281.00	1349.61
281.22	1269.74
281.43	1351.66
281.65	1247.21
281.86	1314.80
282.08	1384.43
282.29	1470.44
282.51	1310.70
282.73	1359.85
282.94	1312.75
283.16	1359.85
283.37	1425.39
283.59	1394.67
283.80	1376.24
284.02	1277.93
284.23	1372.14
284.45	1345.52
284.66	1345.52
284.88	1392.62
285.09	1351.66
285.31	1363.95
285.52	1427.43
285.74	1312.75
285.95	1349.61
286.17	1312.75
286.38	1384.43
286.60	1353.71
286.81	1388.52
287.03	1310.70
287.24	1404.91
287.46	1339.37
287.67	1374.19
287.89	1415.15
288.10	1372.14
288.32	1349.61
288.53	1449.96
288.75	1351.66
288.96	1435.63
289.18	1341.42
289.39	1370.09
289.61	1437.67
289.82	1404.91
290.04	1378.28
290.25	1325.04
290.47	1382.38
290.68	1359.85
290.90	1533.93
291.11	1312.75
291.33	1357.80
291.54	1335.28
291.76	1322.99
291.97	1425.39
292.18	1366.00
292.40	1341.42
292.61	1380.33
292.83	1468.39
293.04	1372.14
293.26	1341.42
293.47	1368.04
293.69	1378.28
293.90	1368.04
294.12	1343.47
294.33	1304.56
294.55	1386.47
294.76	1460.20
294.97	1445.87
295.19	1406.95
295.40	1402.86
295.62	1392.62
295.83	1366.00
296.05	1376.24
296.26	1409.00
296.48	1349.61
296.69	1396.71
296.90	1363.95
297.12	1433.58
297.33	1396.71
297.55	1361.90
297.76	1417.19
297.98	1454.06
298.19	1388.52
298.41	1300.46
298.62	1380.33
298.83	1445.87
299.05	1390.57
299.26	1368.04
299.48	1402.86
299.69	1417.19
299.90	1325.04
300.12	1329.13
300.33	1400.81
300.55	1386.47
300.76	1441.77
300.98	1376.24
301.19	1386.47
301.40	1419.24
301.62	1374.19
301.83	1345.52
302.05	1435.63
302.26	1380.33
302.47	1409.00
302.69	1396.71
302.90	1361.90
303.12	1353.71
303.33	1380.33
303.54	1398.76
303.76	1366.00
303.97	1415.15
304.19	1378.28
304.40	1409.00
304.61	1322.99
304.83	1417.19
305.04	1394.67
305.26	1382.38
305.47	1402.86
305.68	1363.95
305.90	1384.43
306.11	1322.99
306.33	1304.56
306.54	1372.14
306.75	1310.70
306.97	1257.45
307.18	1372.14
307.39	1363.95
307.61	1376.24
307.82	1382.38
308.04	1406.95
308.25	1318.89
308.46	1388.52
308.68	1351.66
308.89	1327.08
309.10	1421.29
309.32	1349.61
309.53	1384.43
309.74	1388.52
309.96	1376.24
310.17	1417.19
310.39	1331.18
310.60	1325.04
310.81	1402.86
311.03	1357.80
311.24	1380.33
311.45	1378.28
311.67	1396.71
311.88	1402.86
312.09	1392.62
312.31	1361.90
312.52	1425.39
312.73	1421.29
312.95	1341.42
313.16	1312.75
313.37	1388.52
313.59	1388.52
313.80	1460.20
314.01	1359.85
314.23	1232.88
314.44	1312.75
314.65	1388.52
314.87	1294.32
315.08	1394.67
315.29	1329.13
315.51	1345.52
315.72	1331.18
315.93	1488.87
316.15	1314.80
316.36	1413.10
316.57	1402.86
316.79	1312.75
317.00	1374.19
317.21	1341.42
317.43	1322.99
317.64	1411.05
317.85	1437.67
318.07	1425.39
318.28	1527.78
318.49	1562.60
318.70	1630.18
318.92	1611.75
319.13	1476.59
319.34	1531.88
319.56	1452.01
319.77	1486.83
319.98	1441.77
320.20	1419.24
320.41	1474.54
320.62	1409.00
320.83	1335.28
321.05	1437.67
321.26	1380.33
321.47	1368.04
321.69	1357.80
321.90	1290.22
322.11	1402.86
322.32	1406.95
322.54	1501.16
322.75	1406.95
322.96	1368.04
323.18	1304.56
323.39	1275.88
323.60	1351.66
323.81	1329.13
324.03	1353.71
324.24	1380.33
324.45	1322.99
324.66	1347.56
324.88	1449.96
325.09	1411.05
325.30	1404.91
325.52	1376.24
325.73	1347.56
325.94	1335.28
326.15	1251.31
326.37	1384.43
326.58	1355.76
326.79	1363.95
327.00	1327.08
327.22	1357.80
327.43	1308.65
327.64	1318.89
327.85	1380.33
328.07	1359.85
328.28	1445.87
328.49	1361.90
328.70	1419.24
328.92	1353.71
329.13	1355.76
329.34	1372.14
329.55	1480.68
329.76	1351.66
329.98	1363.95
330.19	1470.44
330.40	1392.62
330.61	1366.00
330.83	1355.76
331.04	1318.89
331.25	1347.56
331.46	1359.85
331.68	1306.60
331.89	1490.92
332.10	1366.00
332.31	1349.61
332.52	1341.42
332.74	1384.43
332.95	1366.00
333.16	1327.08
333.37	1441.77
333.58	1327.08
333.80	1331.18
334.01	1376.24
334.22	1335.28
334.43	1339.37
334.64	1310.70
334.86	1331.18
335.07	1279.98
335.28	1402.86
335.49	1368.04
335.70	1394.67
335.92	1296.36
336.13	1400.81
336.34	1333.23
336.55	1384.43
336.76	1333.23
336.98	1282.03
337.19	1376.24
337.40	1449.96
337.61	1449.96
337.82	1359.85
338.04	1384.43
338.25	1212.40
338.46	1366.00
338.67	1396.71
338.88	1333.23
339.09	1310.70
339.31	1359.85
339.52	1355.76
339.73	1351.66
339.94	1335.28
340.15	1349.61
340.36	1417.19
340.58	1429.48
340.79	1302.51
341.00	1361.90
341.21	1372.14
341.42	1458.15
341.63	1474.54
341.85	1388.52
342.06	1355.76
342.27	1380.33
342.48	1380.33
342.69	1294.32
342.90	1396.71
343.12	1327.08
343.33	1474.54
343.54	1472.49
343.75	1345.52
343.96	1320.94
344.17	1341.42
344.38	1396.71
344.60	1292.27
344.81	1423.34
345.02	1302.51
345.23	1351.66
345.44	1390.57
345.65	1390.57
345.86	1409.00
346.07	1394.67
346.29	1376.24
346.50	1427.43
346.71	1390.57
346.92	1417.19
347.13	1429.48
347.34	1355.76
347.55	1380.33
347.76	1359.85
347.98	1361.90
348.19	1409.00
348.40	1413.10
348.61	1355.76
348.82	1370.09
349.03	1329.13
349.24	1374.19
349.45	1435.63
349.66	1392.62
349.88	1376.24
350.09	1431.53
350.30	1374.19
350.51	1433.58
350.72	1361.90
350.93	1382.38
351.14	1443.82
351.35	1370.09
351.56	1427.43
351.77	1386.47
351.99	1306.60
352.20	1452.01
352.41	1370.09
352.62	1335.28
352.83	1327.08
353.04	1271.79
353.25	1382.38
353.46	1443.82
353.67	1380.33
353.88	1228.78
354.09	1390.57
354.30	1380.33
354.52	1443.82
354.73	1357.80
354.94	1327.08
355.15	1337.32
355.36	1320.94
355.57	1322.99
355.78	1419.24
355.99	1468.39
356.20	1349.61
356.41	1388.52
356.62	1378.28
356.83	1333.23
357.04	1406.95
357.25	1345.52
357.46	1345.52
357.68	1288.17
357.89	1400.81
358.10	1341.42
358.31	1366.00
358.52	1417.19
358.73	1331.18
358.94	1343.47
359.15	1273.84
359.36	1433.58
359.57	1368.04
359.78	1298.41
359.99	1308.65
360.20	1294.32
360.41	1411.05
360.62	1435.63
360.83	1318.89
361.04	1456.11
361.25	1380.33
361.46	1417.19
361.67	1345.52
361.88	1458.15
362.09	1363.95
362.30	1404.91
362.51	1327.08
362.72	1398.76
362.93	1390.57
363.14	1312.75
363.35	1396.71
363.56	1355.76
363.78	1347.56
363.99	1386.47
364.20	1417.19
364.41	1409.00
364.62	1372.14
364.83	1388.52
365.04	1298.41
365.25	1384.43
365.46	1421.29
365.67	1277.93
365.88	1413.10
366.09	1355.76
366.30	1345.52
366.51	1402.86
366.72	1275.88
366.93	1351.66
367.14	1355.76
367.35	1372.14
367.56	1388.52
367.77	1388.52
367.98	1382.38
368.18	1363.95
368.39	1386.47
368.60	1224.69
368.81	1372.14
369.02	1402.86
369.23	1353.71
369.44	1331.18
369.65	1357.80
369.86	1429.48
370.07	1406.95
370.28	1341.42
370.49	1409.00
370.70	1370.09
370.91	1294.32
371.12	1314.80
371.33	1388.52
371.54	1318.89
371.75	1478.63
371.96	1349.61
372.17	1372.14
372.38	1329.13
372.59	1388.52
372.80	1345.52
373.01	1275.88
373.22	1380.33
373.43	1413.10
373.64	1279.98
373.85	1406.95
374.06	1435.63
374.26	1409.00
374.47	1284.08
374.68	1421.29
374.89	1339.37
375.10	1306.60
375.31	1368.04
375.52	1302.51
375.73	1357.80
375.94	1357.80
376.15	1464.30
376.36	1292.27
376.57	1378.28
376.78	1351.66
376.99	1380.33
377.20	1378.28
377.40	1226.73
377.61	1433.58
377.82	1292.27
378.03	1392.62
378.24	1349.61
378.45	1355.76
378.66	1310.70
378.87	1314.80
379.08	1277.93
379.29	1363.95
379.50	1447.91
379.71	1368.04
379.91	1415.15
380.12	1404.91
380.33	1372.14
380.54	1279.98
380.75	1339.37
380.96	1304.56
381.17	1443.82
381.38	1439.72
381.59	1445.87
381.80	1382.38
382.00	1474.54
382.21	1417.19
382.42	1452.01
382.63	1466.35
382.84	1449.96
383.05	1413.10
383.26	1439.72
383.47	1454.06
383.68	1423.34
383.88	1394.67
384.09	1447.91
384.30	1486.83
384.51	1404.91
384.72	1347.56
384.93	1261.55
385.14	1413.10
385.35	1394.67
385.55	1337.32
385.76	1447.91
385.97	1458.15
386.18	1318.89
386.39	1425.39
386.60	1386.47
386.81	1419.24
387.02	1349.61
387.22	1404.91
387.43	1458.15
387.64	1529.83
387.85	2310.11
388.06	5752.74
388.27	9269.11
388.48	11321.17
388.68	12783.42
388.89	13057.85
389.10	10397.54
389.31	9095.03
389.52	8062.85
389.73	7337.87
389.93	6893.46
390.14	6408.09
390.35	6252.45
390.56	5361.58
390.77	4562.87
390.98	3626.95
391.18	2766.81
391.39	2164.70
391.60	1763.30
391.81	1552.36
392.02	1439.72
392.23	1515.50
392.43	1363.95
392.64	1460.20
392.85	1404.91
393.06	1402.86
393.27	1404.91
393.47	1388.52
393.68	1447.91
393.89	1406.95
394.10	1392.62
394.31	1353.71
394.52	1470.44
394.72	1314.80
394.93	1433.58
395.14	1335.28
395.35	1429.48
395.56	1275.88
395.76	1554.41
395.97	1572.84
396.18	1652.71
396.39	1603.56
396.60	1626.09
396.80	1564.65
397.01	1525.74
397.22	1521.64
397.43	1523.69
397.64	1472.49
397.84	1490.92
398.05	1585.13
398.26	1357.80
398.47	1435.63
398.67	1505.26
398.88	1374.19
399.09	1429.48
399.30	1312.75
399.51	1419.24
399.71	1282.03
399.92	1288.17
400.13	1382.38
400.34	1413.10
400.54	1325.04
400.75	1449.96
400.96	1402.86
401.17	1460.20
401.37	1392.62
401.58	1404.91
401.79	1529.83
402.00	1701.86
402.21	1818.60
402.41	1806.31
402.62	1834.98
402.83	1675.24
403.04	1714.15
403.24	1675.24
403.45	1552.36
403.66	1617.90
403.87	1560.55
404.07	1628.14
404.28	1572.84
404.49	1523.69
404.70	1345.52
404.90	1449.96
405.11	1423.34
405.32	1392.62
405.52	1310.70
405.73	1343.47
405.94	1312.75
406.15	1349.61
406.35	1370.09
406.56	1433.58
406.77	1402.86
406.98	1404.91
407.18	1388.52
407.39	1409.00
407.60	1263.60
407.80	1447.91
408.01	1394.67
408.22	1331.18
408.43	1411.05
408.63	1409.00
408.84	1396.71
409.05	1409.00
409.25	1374.19
409.46	1245.16
409.67	1306.60
409.88	1290.22
410.08	1392.62
410.29	1282.03
410.50	1415.15
410.70	1343.47
410.91	1419.24
411.12	1386.47
411.32	1376.24
411.53	1458.15
411.74	1540.07
411.95	1507.30
412.15	1398.76
412.36	1427.43
412.57	1462.25
412.77	1447.91
412.98	1445.87
413.19	1404.91
413.39	1433.58
413.60	1425.39
413.81	1480.68
414.01	1445.87
414.22	1452.01
414.43	1548.26
414.63	1359.85
414.84	1460.20
415.05	1443.82
415.25	1275.88
415.46	1325.04
415.67	1351.66
415.87	1449.96
416.08	1443.82
416.29	1404.91
416.49	1351.66
416.70	1312.75
416.91	1308.65
417.11	1294.32
417.32	1361.90
417.53	1419.24
417.73	1349.61
417.94	1331.18
418.15	1370.09
418.35	1361.90
418.56	1419.24
418.77	1472.49
418.97	1427.43
419.18	1341.42
419.38	1343.47
419.59	1347.56
419.80	1443.82
420.00	1406.95
420.21	1363.95
420.42	1398.76
420.62	1433.58
420.83	1378.28
421.04	1322.99
421.24	1308.65
421.45	1368.04
421.65	1435.63
421.86	1329.13
422.07	1400.81
422.27	1386.47
422.48	1384.43
422.69	1359.85
422.89	1357.80
423.10	1386.47
423.30	1267.69
423.51	1341.42
423.72	1316.84
423.92	1404.91
424.13	1322.99
424.33	1359.85
424.54	1427.43
424.75	1404.91
424.95	1503.21
425.16	1351.66
425.36	1361.90
425.57	1396.71
425.78	1322.99
425.98	1386.47
426.19	1421.29
426.39	1284.08
426.60	1347.56
426.81	1409.00
427.01	1300.46
427.22	1411.05
427.42	1296.36
427.63	1339.37
427.83	1431.53
428.04	1437.67
428.25	1357.80
428.45	1404.91
428.66	1454.06
428.86	1300.46
429.07	1339.37
429.28	1431.53
429.48	1374.19
429.69	1431.53
429.89	1300.46
430.10	1378.28
430.30	1335.28
430.51	1435.63
430.71	1402.86
430.92	1343.47
431.13	1355.76
431.33	1368.04
431.54	1449.96
431.74	1415.15
431.95	1443.82
432.15	1279.98
432.36	1404.91
432.56	1390.57
432.77	1382.38
432.98	1402.86
433.18	1363.95
433.39	1308.65
433.59	1378.28
433.80	1396.71
434.00	1449.96
434.21	1363.95
434.41	1351.66
434.62	1445.87
434.82	1337.32
435.03	1306.60
435.23	1279.98
435.44	1314.80
435.64	1363.95
435.85	1441.77
436.06	1413.10
436.26	1382.38
436.47	1312.75
436.67	1296.36
436.88	1345.52
437.08	1363.95
437.29	1441.77
437.49	1339.37
437.70	1413.10
437.90	1415.15
438.11	1617.90
438.31	1505.26
438.52	1593.32
438.72	1544.17
438.93	1568.74
439.13	1419.24
439.34	1468.39
439.54	1411.05
439.75	1392.62
439.95	1423.34
440.16	1466.35
440.36	1368.04
440.57	1445.87
440.77	1476.59
440.98	1341.42
441.18	1406.95
441.39	1366.00
441.59	1372.14
441.80	1359.85
442.00	1429.48
442.21	1427.43
442.41	1374.19
442.62	1325.04
442.82	1329.13
443.02	1386.47
443.23	1380.33
443.43	1390.57
443.64	1388.52
443.84	1423.34
444.05	1366.00
444.25	1415.15
444.46	1368.04
444.66	1368.04
444.87	1447.91
445.07	1347.56
445.28	1417.19
445.48	1413.10
445.69	1404.91
445.89	1492.97
446.09	1445.87
446.30	2256.86
446.50	3710.92
446.71	4597.69
446.91	5132.21
447.12	5320.62
447.32	4990.90
447.53	4132.80
447.73	3723.21
447.93	3307.47
448.14	3217.36
448.34	2973.65
448.55	2797.53
448.75	2678.74
448.96	2719.70
449.16	2394.08
449.36	2164.70
449.57	1880.04
449.77	1675.24
449.98	1576.94
450.18	1474.54
450.39	1454.06
450.59	1431.53
450.79	1435.63
451.00	1363.95
451.20	1411.05
451.41	1388.52
451.61	1404.91
451.81	1269.74
452.02	1351.66
452.22	1339.37
452.43	1396.71
452.63	1378.28
