SpectraSuite Data File
++++++++++++++++++++++++++++++++++++
Date: Tue May 03 11:24:55 CEST 2016
User: root
Dark Spectrum Present: No
Reference Spectrum Present: No
Number of Sampled Component Spectra: 1
Spectrometers: USB4C02835
Integration Time (usec): 100000 (USB4C02835)
Spectra Averaged: 1 (USB4C02835)
Boxcar Smoothing: 0 (USB4C02835)
Correct for Electrical Dark: No (USB4C02835)
Strobe/Lamp Enabled: No (USB4C02835)
Correct for Detector Non-linearity: No (USB4C02835)
Correct for Stray Light: No (USB4C02835)
Number of Pixels in Processed Spectrum: 3648
>>>>>Begin Processed Spectral Data<<<<<
177.47	1279.98
177.69	1279.98
177.91	1279.98
178.13	1191.92
178.36	1249.26
178.58	1370.09
178.80	1347.56
179.02	1325.04
179.24	1355.76
179.46	1386.47
179.68	1431.53
179.90	1329.13
180.13	1333.23
180.35	1400.81
180.57	1331.18
180.79	1300.46
181.01	1396.71
181.23	1435.63
181.45	1411.05
181.67	1347.56
181.90	1341.42
182.12	1429.48
182.34	1331.18
182.56	1388.52
182.78	1392.62
183.00	1351.66
183.22	1372.14
183.44	1316.84
183.66	1466.35
183.89	1417.19
184.11	1394.67
184.33	1355.76
184.55	1423.34
184.77	1390.57
184.99	1339.37
185.21	1357.80
185.43	1454.06
185.65	1439.72
185.87	1411.05
186.10	1411.05
186.32	1484.78
186.54	1368.04
186.76	1406.95
186.98	1341.42
187.20	1312.75
187.42	1327.08
187.64	1355.76
187.86	1411.05
188.08	1447.91
188.30	1339.37
188.52	1312.75
188.75	1406.95
188.97	1329.13
189.19	1353.71
189.41	1284.08
189.63	1398.76
189.85	1368.04
190.07	1339.37
190.29	1306.60
190.51	1368.04
190.73	1363.95
190.95	1460.20
191.17	1314.80
191.39	1312.75
191.61	1361.90
191.84	1386.47
192.06	1413.10
192.28	1316.84
192.50	1429.48
192.72	1372.14
192.94	1345.52
193.16	1372.14
193.38	1363.95
193.60	1292.27
193.82	1443.82
194.04	1406.95
194.26	1413.10
194.48	1325.04
194.70	1351.66
194.92	1349.61
195.14	1404.91
195.36	1361.90
195.58	1355.76
195.80	1341.42
196.02	1341.42
196.24	1419.24
196.46	1339.37
196.69	1406.95
196.91	1482.73
197.13	1421.29
197.35	1394.67
197.57	1370.09
197.79	1419.24
198.01	1382.38
198.23	1402.86
198.45	1392.62
198.67	1290.22
198.89	1349.61
199.11	1351.66
199.33	1402.86
199.55	1357.80
199.77	1435.63
199.99	1386.47
200.21	1411.05
200.43	1290.22
200.65	1298.41
200.87	1329.13
201.09	1384.43
201.31	1284.08
201.53	1347.56
201.75	1355.76
201.97	1343.47
202.19	1335.28
202.41	1458.15
202.63	1429.48
202.85	1421.29
203.07	1384.43
203.29	1347.56
203.51	1366.00
203.73	1314.80
203.95	1482.73
204.17	1402.86
204.39	1306.60
204.61	1390.57
204.83	1314.80
205.05	1456.11
205.27	1398.76
205.49	1454.06
205.71	1355.76
205.93	1335.28
206.15	1386.47
206.37	1376.24
206.59	1431.53
206.81	1269.74
207.03	1294.32
207.25	1341.42
207.47	1361.90
207.69	1327.08
207.91	1368.04
208.13	1413.10
208.34	1310.70
208.56	1333.23
208.78	1445.87
209.00	1284.08
209.22	1402.86
209.44	1386.47
209.66	1275.88
209.88	1423.34
210.10	1382.38
210.32	1277.93
210.54	1413.10
210.76	1388.52
210.98	1380.33
211.20	1345.52
211.42	1394.67
211.64	1409.00
211.86	1431.53
212.08	1406.95
212.30	1406.95
212.52	1366.00
212.74	1325.04
212.96	1368.04
213.17	1382.38
213.39	1382.38
213.61	1488.87
213.83	1458.15
214.05	1288.17
214.27	1396.71
214.49	1339.37
214.71	1282.03
214.93	1361.90
215.15	1400.81
215.37	1392.62
215.59	1282.03
215.81	1333.23
216.03	1433.58
216.24	1288.17
216.46	1382.38
216.68	1392.62
216.90	1325.04
217.12	1384.43
217.34	1396.71
217.56	1392.62
217.78	1370.09
218.00	1325.04
218.22	1400.81
218.44	1390.57
218.66	1351.66
218.87	1452.01
219.09	1398.76
219.31	1478.63
219.53	1335.28
219.75	1402.86
219.97	1337.32
220.19	1355.76
220.41	1345.52
220.63	1495.02
220.85	1361.90
221.06	1331.18
221.28	1343.47
221.50	1298.41
221.72	1366.00
221.94	1396.71
222.16	1413.10
222.38	1394.67
222.60	1417.19
222.82	1396.71
223.03	1388.52
223.25	1386.47
223.47	1359.85
223.69	1347.56
223.91	1452.01
224.13	1357.80
224.35	1357.80
224.57	1402.86
224.78	1374.19
225.00	1372.14
225.22	1370.09
225.44	1351.66
225.66	1355.76
225.88	1331.18
226.10	1425.39
226.32	1400.81
226.53	1415.15
226.75	1382.38
226.97	1347.56
227.19	1353.71
227.41	1275.88
227.63	1357.80
227.85	1339.37
228.06	1431.53
228.28	1337.32
228.50	1366.00
228.72	1247.21
228.94	1372.14
229.16	1257.45
229.37	1388.52
229.59	1277.93
229.81	1386.47
230.03	1400.81
230.25	1329.13
230.47	1327.08
230.69	1331.18
230.90	1388.52
231.12	1265.64
231.34	1400.81
231.56	1374.19
231.78	1300.46
232.00	1382.38
232.21	1347.56
232.43	1339.37
232.65	1351.66
232.87	1327.08
233.09	1312.75
233.30	1372.14
233.52	1368.04
233.74	1343.47
233.96	1366.00
234.18	1345.52
234.40	1349.61
234.61	1413.10
234.83	1370.09
235.05	1339.37
235.27	1454.06
235.49	1404.91
235.70	1382.38
235.92	1490.92
236.14	1304.56
236.36	1427.43
236.58	1404.91
236.79	1347.56
237.01	1370.09
237.23	1398.76
237.45	1484.78
237.67	1361.90
237.88	1380.33
238.10	1341.42
238.32	1318.89
238.54	1443.82
238.76	1423.34
238.97	1355.76
239.19	1382.38
239.41	1394.67
239.63	1357.80
239.85	1302.51
240.06	1437.67
240.28	1421.29
240.50	1409.00
240.72	1449.96
240.93	1370.09
241.15	1427.43
241.37	1409.00
241.59	1409.00
241.81	1308.65
242.02	1331.18
242.24	1429.48
242.46	1351.66
242.68	1310.70
242.89	1384.43
243.11	1257.45
243.33	1425.39
243.55	1396.71
243.76	1421.29
243.98	1372.14
244.20	1374.19
244.42	1425.39
244.64	1372.14
244.85	1308.65
245.07	1347.56
245.29	1347.56
245.51	1384.43
245.72	1312.75
245.94	1396.71
246.16	1308.65
246.38	1386.47
246.59	1345.52
246.81	1359.85
247.03	1337.32
247.24	1341.42
247.46	1304.56
247.68	1343.47
247.90	1409.00
248.11	1372.14
248.33	1314.80
248.55	1409.00
248.77	1310.70
248.98	1382.38
249.20	1449.96
249.42	1380.33
249.64	1376.24
249.85	1312.75
250.07	1302.51
250.29	1429.48
250.50	1449.96
250.72	1368.04
250.94	1363.95
251.16	1425.39
251.37	1456.11
251.59	1366.00
251.81	1417.19
252.02	1433.58
252.24	1351.66
252.46	1394.67
252.68	1333.23
252.89	1409.00
253.11	1304.56
253.33	1398.76
253.54	1445.87
253.76	1402.86
253.98	1359.85
254.20	1343.47
254.41	1370.09
254.63	1288.17
254.85	1294.32
255.06	1400.81
255.28	1314.80
255.50	1343.47
255.71	1353.71
255.93	1394.67
256.15	1386.47
256.36	1431.53
256.58	1308.65
256.80	1445.87
257.02	1271.79
257.23	1380.33
257.45	1318.89
257.67	1427.43
257.88	1265.64
258.10	1437.67
258.32	1353.71
258.53	1402.86
258.75	1413.10
258.97	1329.13
259.18	1396.71
259.40	1380.33
259.62	1376.24
259.83	1347.56
260.05	1355.76
260.27	1525.74
260.48	1392.62
260.70	1265.64
260.92	1366.00
261.13	1302.51
261.35	1361.90
261.57	1347.56
261.78	1308.65
262.00	1363.95
262.22	1382.38
262.43	1394.67
262.65	1466.35
262.86	1392.62
263.08	1429.48
263.30	1345.52
263.51	1277.93
263.73	1347.56
263.95	1388.52
264.16	1349.61
264.38	1351.66
264.60	1392.62
264.81	1429.48
265.03	1363.95
265.25	1372.14
265.46	1396.71
265.68	1372.14
265.89	1347.56
266.11	1271.79
266.33	1398.76
266.54	1421.29
266.76	1347.56
266.98	1347.56
267.19	1427.43
267.41	1404.91
267.62	1329.13
267.84	1288.17
268.06	1366.00
268.27	1361.90
268.49	1370.09
268.70	1363.95
268.92	1435.63
269.14	1318.89
269.35	1304.56
269.57	1322.99
269.79	1452.01
270.00	1417.19
270.22	1415.15
270.43	1376.24
270.65	1320.94
270.87	1339.37
271.08	1337.32
271.30	1392.62
271.51	1378.28
271.73	1363.95
271.95	1331.18
272.16	1382.38
272.38	1359.85
272.59	1325.04
272.81	1413.10
273.02	1390.57
273.24	1392.62
273.46	1435.63
273.67	1355.76
273.89	1325.04
274.10	1394.67
274.32	1480.68
274.54	1351.66
274.75	1390.57
274.97	1411.05
275.18	1396.71
275.40	1413.10
275.61	1380.33
275.83	1413.10
276.05	1357.80
276.26	1298.41
276.48	1355.76
276.69	1343.47
276.91	1396.71
277.12	1470.44
277.34	1325.04
277.55	1404.91
277.77	1380.33
277.99	1345.52
278.20	1372.14
278.42	1345.52
278.63	1318.89
278.85	1325.04
279.06	1302.51
279.28	1366.00
279.49	1409.00
279.71	1409.00
279.93	1357.80
280.14	1331.18
280.36	1341.42
280.57	1337.32
280.79	1325.04
281.00	1314.80
281.22	1417.19
281.43	1394.67
281.65	1310.70
281.86	1306.60
282.08	1335.28
282.29	1439.72
282.51	1355.76
282.73	1316.84
282.94	1310.70
283.16	1388.52
283.37	1478.63
283.59	1363.95
283.80	1404.91
284.02	1394.67
284.23	1372.14
284.45	1368.04
284.66	1361.90
284.88	1347.56
285.09	1355.76
285.31	1366.00
285.52	1419.24
285.74	1353.71
285.95	1341.42
286.17	1380.33
286.38	1335.28
286.60	1402.86
286.81	1329.13
287.03	1331.18
287.24	1314.80
287.46	1337.32
287.67	1359.85
287.89	1402.86
288.10	1417.19
288.32	1402.86
288.53	1431.53
288.75	1392.62
288.96	1425.39
289.18	1310.70
289.39	1374.19
289.61	1425.39
289.82	1517.54
290.04	1413.10
290.25	1335.28
290.47	1384.43
290.68	1333.23
290.90	1447.91
291.11	1286.12
291.33	1357.80
291.54	1357.80
291.76	1366.00
291.97	1384.43
292.18	1382.38
292.40	1353.71
292.61	1314.80
292.83	1441.77
293.04	1329.13
293.26	1372.14
293.47	1355.76
293.69	1386.47
293.90	1392.62
294.12	1456.11
294.33	1312.75
294.55	1366.00
294.76	1341.42
294.97	1464.30
295.19	1394.67
295.40	1290.22
295.62	1372.14
295.83	1419.24
296.05	1302.51
296.26	1400.81
296.48	1312.75
296.69	1355.76
296.90	1331.18
297.12	1374.19
297.33	1406.95
297.55	1351.66
297.76	1380.33
297.98	1390.57
298.19	1390.57
298.41	1374.19
298.62	1247.21
298.83	1464.30
299.05	1400.81
299.26	1376.24
299.48	1376.24
299.69	1507.30
299.90	1320.94
300.12	1333.23
300.33	1415.15
300.55	1398.76
300.76	1486.83
300.98	1308.65
301.19	1376.24
301.40	1421.29
301.62	1378.28
301.83	1292.27
302.05	1380.33
302.26	1320.94
302.47	1468.39
302.69	1347.56
302.90	1333.23
303.12	1253.36
303.33	1499.11
303.54	1458.15
303.76	1357.80
303.97	1372.14
304.19	1443.82
304.40	1400.81
304.61	1349.61
304.83	1445.87
305.04	1306.60
305.26	1345.52
305.47	1409.00
305.68	1409.00
305.90	1322.99
306.11	1404.91
306.33	1218.54
306.54	1347.56
306.75	1400.81
306.97	1343.47
307.18	1341.42
307.39	1320.94
307.61	1402.86
307.82	1304.56
308.04	1413.10
308.25	1310.70
308.46	1335.28
308.68	1333.23
308.89	1384.43
309.10	1439.72
309.32	1404.91
309.53	1314.80
309.74	1359.85
309.96	1337.32
310.17	1363.95
310.39	1374.19
310.60	1370.09
310.81	1361.90
311.03	1284.08
311.24	1411.05
311.45	1396.71
311.67	1419.24
311.88	1353.71
312.09	1388.52
312.31	1322.99
312.52	1337.32
312.73	1341.42
312.95	1347.56
313.16	1357.80
313.37	1368.04
313.59	1380.33
313.80	1417.19
314.01	1366.00
314.23	1376.24
314.44	1314.80
314.65	1341.42
314.87	1353.71
315.08	1288.17
315.29	1308.65
315.51	1314.80
315.72	1329.13
315.93	1347.56
316.15	1413.10
316.36	1306.60
316.57	1361.90
316.79	1359.85
317.00	1361.90
317.21	1378.28
317.43	1421.29
317.64	1374.19
317.85	1394.67
318.07	1507.30
318.28	1558.50
318.49	1660.90
318.70	1665.00
318.92	1550.31
319.13	1488.87
319.34	1492.97
319.56	1531.88
319.77	1447.91
319.98	1462.25
320.20	1519.59
320.41	1421.29
320.62	1396.71
320.83	1368.04
321.05	1482.73
321.26	1394.67
321.47	1394.67
321.69	1404.91
321.90	1359.85
322.11	1292.27
322.32	1282.03
322.54	1404.91
322.75	1335.28
322.96	1464.30
323.18	1316.84
323.39	1341.42
323.60	1363.95
323.81	1437.67
324.03	1325.04
324.24	1388.52
324.45	1361.90
324.66	1318.89
324.88	1366.00
325.09	1441.77
325.30	1359.85
325.52	1425.39
325.73	1392.62
325.94	1357.80
326.15	1329.13
326.37	1306.60
326.58	1353.71
326.79	1394.67
327.00	1308.65
327.22	1386.47
327.43	1392.62
327.64	1312.75
327.85	1452.01
328.07	1392.62
328.28	1388.52
328.49	1368.04
328.70	1386.47
328.92	1503.21
329.13	1382.38
329.34	1359.85
329.55	1417.19
329.76	1388.52
329.98	1388.52
330.19	1417.19
330.40	1415.15
330.61	1388.52
330.83	1370.09
331.04	1384.43
331.25	1400.81
331.46	1310.70
331.68	1396.71
331.89	1427.43
332.10	1392.62
332.31	1318.89
332.52	1372.14
332.74	1404.91
332.95	1343.47
333.16	1351.66
333.37	1456.11
333.58	1370.09
333.80	1406.95
334.01	1292.27
334.22	1308.65
334.43	1361.90
334.64	1347.56
334.86	1382.38
335.07	1402.86
335.28	1454.06
335.49	1335.28
335.70	1355.76
335.92	1402.86
336.13	1443.82
336.34	1404.91
336.55	1345.52
336.76	1380.33
336.98	1206.25
337.19	1318.89
337.40	1380.33
337.61	1468.39
337.82	1304.56
338.04	1384.43
338.25	1290.22
338.46	1333.23
338.67	1435.63
338.88	1329.13
339.09	1331.18
339.31	1355.76
339.52	1331.18
339.73	1318.89
339.94	1355.76
340.15	1417.19
340.36	1327.08
340.58	1382.38
340.79	1298.41
341.00	1402.86
341.21	1302.51
341.42	1484.78
341.63	1339.37
341.85	1363.95
342.06	1390.57
342.27	1294.32
342.48	1357.80
342.69	1347.56
342.90	1380.33
343.12	1335.28
343.33	1322.99
343.54	1388.52
343.75	1339.37
343.96	1337.32
344.17	1322.99
344.38	1306.60
344.60	1355.76
344.81	1359.85
345.02	1286.12
345.23	1413.10
345.44	1441.77
345.65	1439.72
345.86	1355.76
346.07	1341.42
346.29	1349.61
346.50	1409.00
346.71	1370.09
346.92	1380.33
347.13	1439.72
347.34	1304.56
347.55	1384.43
347.76	1355.76
347.98	1378.28
348.19	1355.76
348.40	1390.57
348.61	1361.90
348.82	1384.43
349.03	1355.76
349.24	1339.37
349.45	1388.52
349.66	1261.55
349.88	1347.56
350.09	1335.28
350.30	1386.47
350.51	1423.34
350.72	1394.67
350.93	1404.91
351.14	1425.39
351.35	1431.53
351.56	1376.24
351.77	1351.66
351.99	1335.28
352.20	1437.67
352.41	1388.52
352.62	1316.84
352.83	1363.95
353.04	1441.77
353.25	1331.18
353.46	1390.57
353.67	1406.95
353.88	1318.89
354.09	1404.91
354.30	1394.67
354.52	1437.67
354.73	1310.70
354.94	1349.61
355.15	1384.43
355.36	1488.87
355.57	1351.66
355.78	1357.80
355.99	1318.89
356.20	1372.14
356.41	1411.05
356.62	1413.10
356.83	1347.56
357.04	1439.72
357.25	1347.56
357.46	1394.67
357.68	1366.00
357.89	1261.55
358.10	1349.61
358.31	1347.56
358.52	1341.42
358.73	1316.84
358.94	1269.74
359.15	1394.67
359.36	1439.72
359.57	1366.00
359.78	1378.28
359.99	1421.29
360.20	1380.33
360.41	1398.76
360.62	1474.54
360.83	1370.09
361.04	1341.42
361.25	1322.99
361.46	1429.48
361.67	1441.77
361.88	1361.90
362.09	1363.95
362.30	1312.75
362.51	1386.47
362.72	1339.37
362.93	1431.53
363.14	1411.05
363.35	1476.59
363.56	1361.90
363.78	1361.90
363.99	1443.82
364.20	1327.08
364.41	1353.71
364.62	1413.10
364.83	1384.43
365.04	1308.65
365.25	1341.42
365.46	1427.43
365.67	1345.52
365.88	1374.19
366.09	1409.00
366.30	1390.57
366.51	1372.14
366.72	1294.32
366.93	1335.28
367.14	1335.28
367.35	1445.87
367.56	1374.19
367.77	1452.01
367.98	1343.47
368.18	1355.76
368.39	1361.90
368.60	1372.14
368.81	1427.43
369.02	1300.46
369.23	1394.67
369.44	1353.71
369.65	1325.04
369.86	1357.80
370.07	1421.29
370.28	1396.71
370.49	1368.04
370.70	1429.48
370.91	1329.13
371.12	1308.65
371.33	1423.34
371.54	1341.42
371.75	1423.34
371.96	1380.33
372.17	1400.81
372.38	1339.37
372.59	1398.76
372.80	1351.66
373.01	1351.66
373.22	1404.91
373.43	1419.24
373.64	1357.80
373.85	1413.10
374.06	1415.15
374.26	1486.83
374.47	1406.95
374.68	1372.14
374.89	1341.42
375.10	1368.04
375.31	1390.57
375.52	1423.34
375.73	1333.23
375.94	1398.76
376.15	1447.91
376.36	1351.66
376.57	1347.56
376.78	1353.71
376.99	1378.28
377.20	1441.77
377.40	1417.19
377.61	1413.10
377.82	1320.94
378.03	1429.48
378.24	1406.95
378.45	1386.47
378.66	1411.05
378.87	1339.37
379.08	1337.32
379.29	1322.99
379.50	1449.96
379.71	1298.41
379.91	1347.56
380.12	1392.62
380.33	1357.80
380.54	1384.43
380.75	1359.85
380.96	1376.24
381.17	1404.91
381.38	1443.82
381.59	1492.97
381.80	1402.86
382.00	1476.59
382.21	1431.53
382.42	1484.78
382.63	1466.35
382.84	1392.62
383.05	1404.91
383.26	1478.63
383.47	1423.34
383.68	1421.29
383.88	1419.24
384.09	1384.43
384.30	1454.06
384.51	1417.19
384.72	1355.76
384.93	1361.90
385.14	1419.24
385.35	1327.08
385.55	1386.47
385.76	1402.86
385.97	1388.52
386.18	1318.89
386.39	1366.00
386.60	1322.99
386.81	1406.95
387.02	1374.19
387.22	1327.08
387.43	1527.78
387.64	1560.55
387.85	2273.25
388.06	5676.97
388.27	9275.25
388.48	11681.61
388.68	13023.03
388.89	13231.93
389.10	10622.81
389.31	9195.38
389.52	8404.86
389.73	7559.05
389.93	6832.02
390.14	6582.17
390.35	6125.47
390.56	5500.84
390.77	4577.21
390.98	3616.71
391.18	2805.72
391.39	2121.70
391.60	1763.30
391.81	1519.59
392.02	1431.53
392.23	1466.35
392.43	1429.48
392.64	1433.58
392.85	1404.91
393.06	1435.63
393.27	1378.28
393.47	1347.56
393.68	1423.34
393.89	1310.70
394.10	1417.19
394.31	1388.52
394.52	1427.43
394.72	1353.71
394.93	1419.24
395.14	1394.67
395.35	1376.24
395.56	1376.24
395.76	1585.13
395.97	1570.79
396.18	1570.79
396.39	1578.98
396.60	1679.33
396.80	1556.46
397.01	1556.46
397.22	1454.06
397.43	1556.46
397.64	1484.78
397.84	1480.68
398.05	1503.21
398.26	1449.96
398.47	1513.45
398.67	1480.68
398.88	1386.47
399.09	1382.38
399.30	1368.04
399.51	1429.48
399.71	1349.61
399.92	1359.85
400.13	1351.66
400.34	1378.28
400.54	1429.48
400.75	1458.15
400.96	1419.24
401.17	1333.23
401.37	1390.57
401.58	1388.52
401.79	1458.15
402.00	1757.16
402.21	1855.46
402.41	1892.32
402.62	1808.36
402.83	1705.96
403.04	1665.00
403.24	1638.38
403.45	1515.50
403.66	1619.94
403.87	1552.36
404.07	1572.84
404.28	1638.38
404.49	1576.94
404.70	1472.49
404.90	1454.06
405.11	1404.91
405.32	1398.76
405.52	1363.95
405.73	1337.32
405.94	1343.47
406.15	1378.28
406.35	1452.01
406.56	1384.43
406.77	1433.58
406.98	1347.56
407.18	1335.28
407.39	1470.44
407.60	1388.52
407.80	1363.95
408.01	1366.00
408.22	1435.63
408.43	1325.04
408.63	1423.34
408.84	1425.39
409.05	1423.34
409.25	1421.29
409.46	1296.36
409.67	1409.00
409.88	1372.14
410.08	1464.30
410.29	1421.29
410.50	1347.56
410.70	1427.43
410.91	1400.81
411.12	1374.19
411.32	1460.20
411.53	1374.19
411.74	1570.79
411.95	1445.87
412.15	1409.00
412.36	1421.29
412.57	1372.14
412.77	1470.44
412.98	1400.81
413.19	1392.62
413.39	1368.04
413.60	1419.24
413.81	1421.29
414.01	1372.14
414.22	1396.71
414.43	1449.96
414.63	1380.33
414.84	1409.00
415.05	1439.72
415.25	1347.56
415.46	1384.43
415.67	1370.09
415.87	1402.86
416.08	1382.38
416.29	1366.00
416.49	1462.25
416.70	1386.47
416.91	1425.39
417.11	1333.23
417.32	1409.00
417.53	1402.86
417.73	1409.00
417.94	1322.99
418.15	1431.53
418.35	1406.95
418.56	1349.61
418.77	1439.72
418.97	1404.91
419.18	1413.10
419.38	1265.64
419.59	1351.66
419.80	1392.62
420.00	1370.09
420.21	1392.62
420.42	1421.29
420.62	1374.19
420.83	1359.85
421.04	1406.95
421.24	1361.90
421.45	1366.00
421.65	1343.47
421.86	1347.56
422.07	1394.67
422.27	1337.32
422.48	1363.95
422.69	1327.08
422.89	1413.10
423.10	1316.84
423.30	1302.51
423.51	1421.29
423.72	1370.09
423.92	1400.81
424.13	1380.33
424.33	1384.43
424.54	1398.76
424.75	1327.08
424.95	1415.15
425.16	1320.94
425.36	1329.13
425.57	1384.43
425.78	1370.09
425.98	1404.91
426.19	1349.61
426.39	1394.67
426.60	1411.05
426.81	1413.10
427.01	1294.32
427.22	1306.60
427.42	1363.95
427.63	1372.14
427.83	1441.77
428.04	1464.30
428.25	1402.86
428.45	1484.78
428.66	1376.24
428.86	1318.89
429.07	1335.28
429.28	1394.67
429.48	1345.52
429.69	1417.19
429.89	1421.29
430.10	1296.36
430.30	1437.67
430.51	1394.67
430.71	1335.28
430.92	1345.52
431.13	1282.03
431.33	1452.01
431.54	1398.76
431.74	1413.10
431.95	1437.67
432.15	1382.38
432.36	1314.80
432.56	1427.43
432.77	1382.38
432.98	1433.58
433.18	1443.82
433.39	1415.15
433.59	1314.80
433.80	1388.52
434.00	1443.82
434.21	1234.93
434.41	1327.08
434.62	1544.17
434.82	1296.36
435.03	1372.14
435.23	1380.33
435.44	1298.41
435.64	1361.90
435.85	1368.04
436.06	1392.62
436.26	1333.23
436.47	1411.05
436.67	1318.89
436.88	1327.08
437.08	1339.37
437.29	1437.67
437.49	1337.32
437.70	1421.29
437.90	1388.52
438.11	1480.68
438.31	1452.01
438.52	1656.81
438.72	1619.94
438.93	1576.94
439.13	1499.11
439.34	1519.59
439.54	1462.25
439.75	1464.30
439.95	1392.62
440.16	1388.52
440.36	1480.68
440.57	1447.91
440.77	1376.24
440.98	1409.00
441.18	1406.95
441.39	1372.14
441.59	1322.99
441.80	1402.86
442.00	1429.48
442.21	1449.96
442.41	1368.04
442.62	1419.24
442.82	1361.90
443.02	1331.18
443.23	1392.62
443.43	1421.29
443.64	1423.34
443.84	1341.42
444.05	1456.11
444.25	1419.24
444.46	1386.47
444.66	1343.47
444.87	1427.43
445.07	1376.24
445.28	1433.58
445.48	1392.62
445.69	1361.90
445.89	1470.44
446.09	1593.32
446.30	2369.50
446.50	3723.21
446.71	4691.90
446.91	5236.66
447.12	5621.67
447.32	5128.11
447.53	4145.09
447.73	3846.09
447.93	3456.97
448.14	3223.50
448.34	3033.04
448.55	2818.00
448.75	2740.18
448.96	2627.54
449.16	2422.75
449.36	2211.81
449.57	1908.71
449.77	1662.95
449.98	1562.60
450.18	1535.98
450.39	1470.44
450.59	1441.77
450.79	1392.62
451.00	1329.13
451.20	1437.67
451.41	1378.28
451.61	1415.15
451.81	1353.71
452.02	1327.08
452.22	1411.05
452.43	1359.85
452.63	1394.67
