SpectraSuite Data File
++++++++++++++++++++++++++++++++++++
Date: Tue May 03 11:24:53 CEST 2016
User: root
Dark Spectrum Present: No
Reference Spectrum Present: No
Number of Sampled Component Spectra: 1
Spectrometers: USB4C02835
Integration Time (usec): 100000 (USB4C02835)
Spectra Averaged: 1 (USB4C02835)
Boxcar Smoothing: 0 (USB4C02835)
Correct for Electrical Dark: No (USB4C02835)
Strobe/Lamp Enabled: No (USB4C02835)
Correct for Detector Non-linearity: No (USB4C02835)
Correct for Stray Light: No (USB4C02835)
Number of Pixels in Processed Spectrum: 3648
>>>>>Begin Processed Spectral Data<<<<<
177.47	1204.21
177.69	1204.21
177.91	1204.21
178.13	1196.01
178.36	1222.64
178.58	1374.19
178.80	1320.94
179.02	1275.88
179.24	1347.56
179.46	1366.00
179.68	1441.77
179.90	1404.91
180.13	1290.22
180.35	1419.24
180.57	1421.29
180.79	1429.48
181.01	1341.42
181.23	1419.24
181.45	1472.49
181.67	1415.15
181.90	1327.08
182.12	1357.80
182.34	1220.59
182.56	1437.67
182.78	1347.56
183.00	1308.65
183.22	1404.91
183.44	1282.03
183.66	1419.24
183.89	1503.21
184.11	1368.04
184.33	1290.22
184.55	1392.62
184.77	1335.28
184.99	1378.28
185.21	1341.42
185.43	1511.40
185.65	1339.37
185.87	1376.24
186.10	1466.35
186.32	1443.82
186.54	1409.00
186.76	1333.23
186.98	1425.39
187.20	1398.76
187.42	1335.28
187.64	1325.04
187.86	1337.32
188.08	1413.10
188.30	1351.66
188.52	1347.56
188.75	1398.76
188.97	1372.14
189.19	1357.80
189.41	1296.36
189.63	1359.85
189.85	1304.56
190.07	1294.32
190.29	1347.56
190.51	1345.52
190.73	1310.70
190.95	1376.24
191.17	1368.04
191.39	1302.51
191.61	1370.09
191.84	1404.91
192.06	1361.90
192.28	1277.93
192.50	1466.35
192.72	1431.53
192.94	1251.31
193.16	1359.85
193.38	1376.24
193.60	1312.75
193.82	1409.00
194.04	1396.71
194.26	1337.32
194.48	1368.04
194.70	1404.91
194.92	1284.08
195.14	1423.34
195.36	1366.00
195.58	1353.71
195.80	1341.42
196.02	1363.95
196.24	1390.57
196.46	1415.15
196.69	1411.05
196.91	1372.14
197.13	1355.76
197.35	1341.42
197.57	1351.66
197.79	1402.86
198.01	1361.90
198.23	1413.10
198.45	1349.61
198.67	1335.28
198.89	1370.09
199.11	1419.24
199.33	1337.32
199.55	1212.40
199.77	1421.29
199.99	1454.06
200.21	1339.37
200.43	1449.96
200.65	1343.47
200.87	1345.52
201.09	1366.00
201.31	1394.67
201.53	1392.62
201.75	1447.91
201.97	1359.85
202.19	1380.33
202.41	1439.72
202.63	1548.26
202.85	1388.52
203.07	1353.71
203.29	1363.95
203.51	1282.03
203.73	1339.37
203.95	1400.81
204.17	1386.47
204.39	1402.86
204.61	1402.86
204.83	1378.28
205.05	1404.91
205.27	1372.14
205.49	1427.43
205.71	1372.14
205.93	1304.56
206.15	1290.22
206.37	1374.19
206.59	1382.38
206.81	1312.75
207.03	1390.57
207.25	1384.43
207.47	1417.19
207.69	1347.56
207.91	1411.05
208.13	1411.05
208.34	1378.28
208.56	1390.57
208.78	1390.57
209.00	1374.19
209.22	1355.76
209.44	1390.57
209.66	1325.04
209.88	1378.28
210.10	1308.65
210.32	1337.32
210.54	1462.25
210.76	1415.15
210.98	1384.43
211.20	1331.18
211.42	1363.95
211.64	1384.43
211.86	1429.48
212.08	1335.28
212.30	1386.47
212.52	1400.81
212.74	1339.37
212.96	1335.28
213.17	1484.78
213.39	1400.81
213.61	1466.35
213.83	1417.19
214.05	1400.81
214.27	1318.89
214.49	1382.38
214.71	1392.62
214.93	1419.24
215.15	1386.47
215.37	1345.52
215.59	1296.36
215.81	1400.81
216.03	1304.56
216.24	1396.71
216.46	1425.39
216.68	1337.32
216.90	1363.95
217.12	1345.52
217.34	1421.29
217.56	1445.87
217.78	1308.65
218.00	1394.67
218.22	1322.99
218.44	1378.28
218.66	1355.76
218.87	1382.38
219.09	1349.61
219.31	1427.43
219.53	1402.86
219.75	1357.80
219.97	1374.19
220.19	1454.06
220.41	1347.56
220.63	1474.54
220.85	1521.64
221.06	1392.62
221.28	1382.38
221.50	1380.33
221.72	1331.18
221.94	1347.56
222.16	1341.42
222.38	1378.28
222.60	1390.57
222.82	1337.32
223.03	1447.91
223.25	1400.81
223.47	1355.76
223.69	1404.91
223.91	1339.37
224.13	1312.75
224.35	1343.47
224.57	1386.47
224.78	1339.37
225.00	1372.14
225.22	1349.61
225.44	1370.09
225.66	1439.72
225.88	1353.71
226.10	1452.01
226.32	1359.85
226.53	1441.77
226.75	1402.86
226.97	1368.04
227.19	1394.67
227.41	1312.75
227.63	1347.56
227.85	1361.90
228.06	1312.75
228.28	1388.52
228.50	1388.52
228.72	1331.18
228.94	1343.47
229.16	1290.22
229.37	1333.23
229.59	1368.04
229.81	1396.71
230.03	1245.16
230.25	1310.70
230.47	1374.19
230.69	1343.47
230.90	1392.62
231.12	1331.18
231.34	1382.38
231.56	1386.47
231.78	1357.80
232.00	1415.15
232.21	1320.94
232.43	1361.90
232.65	1284.08
232.87	1445.87
233.09	1290.22
233.30	1306.60
233.52	1331.18
233.74	1353.71
233.96	1435.63
234.18	1376.24
234.40	1359.85
234.61	1437.67
234.83	1325.04
235.05	1337.32
235.27	1458.15
235.49	1474.54
235.70	1357.80
235.92	1435.63
236.14	1421.29
236.36	1499.11
236.58	1286.12
236.79	1366.00
237.01	1382.38
237.23	1357.80
237.45	1439.72
237.67	1279.98
237.88	1394.67
238.10	1404.91
238.32	1374.19
238.54	1368.04
238.76	1302.51
238.97	1306.60
239.19	1396.71
239.41	1400.81
239.63	1423.34
239.85	1398.76
240.06	1374.19
240.28	1359.85
240.50	1345.52
240.72	1275.88
240.93	1380.33
241.15	1431.53
241.37	1314.80
241.59	1370.09
241.81	1398.76
242.02	1359.85
242.24	1394.67
242.46	1357.80
242.68	1302.51
242.89	1386.47
243.11	1376.24
243.33	1320.94
243.55	1458.15
243.76	1454.06
243.98	1382.38
244.20	1378.28
244.42	1349.61
244.64	1345.52
244.85	1269.74
245.07	1351.66
245.29	1394.67
245.51	1329.13
245.72	1325.04
245.94	1376.24
246.16	1386.47
246.38	1384.43
246.59	1292.27
246.81	1355.76
247.03	1372.14
247.24	1290.22
247.46	1327.08
247.68	1411.05
247.90	1349.61
248.11	1288.17
248.33	1363.95
248.55	1392.62
248.77	1335.28
248.98	1335.28
249.20	1394.67
249.42	1392.62
249.64	1415.15
249.85	1374.19
250.07	1355.76
250.29	1415.15
250.50	1363.95
250.72	1374.19
250.94	1347.56
251.16	1429.48
251.37	1366.00
251.59	1353.71
251.81	1361.90
252.02	1349.61
252.24	1347.56
252.46	1484.78
252.68	1331.18
252.89	1392.62
253.11	1343.47
253.33	1507.30
253.54	1449.96
253.76	1363.95
253.98	1402.86
254.20	1349.61
254.41	1359.85
254.63	1355.76
254.85	1374.19
255.06	1292.27
255.28	1378.28
255.50	1312.75
255.71	1318.89
255.93	1259.50
256.15	1345.52
256.36	1337.32
256.58	1386.47
256.80	1433.58
257.02	1413.10
257.23	1402.86
257.45	1454.06
257.67	1427.43
257.88	1359.85
258.10	1359.85
258.32	1292.27
258.53	1314.80
258.75	1402.86
258.97	1396.71
259.18	1413.10
259.40	1417.19
259.62	1486.83
259.83	1429.48
260.05	1355.76
260.27	1525.74
260.48	1398.76
260.70	1386.47
260.92	1370.09
261.13	1411.05
261.35	1372.14
261.57	1335.28
261.78	1322.99
262.00	1282.03
262.22	1429.48
262.43	1370.09
262.65	1337.32
262.86	1314.80
263.08	1441.77
263.30	1372.14
263.51	1300.46
263.73	1423.34
263.95	1435.63
264.16	1382.38
264.38	1394.67
264.60	1437.67
264.81	1368.04
265.03	1452.01
265.25	1449.96
265.46	1411.05
265.68	1363.95
265.89	1355.76
266.11	1322.99
266.33	1476.59
266.54	1445.87
266.76	1302.51
266.98	1402.86
267.19	1466.35
267.41	1423.34
267.62	1372.14
267.84	1304.56
268.06	1386.47
268.27	1292.27
268.49	1394.67
268.70	1417.19
268.92	1331.18
269.14	1400.81
269.35	1331.18
269.57	1329.13
269.79	1409.00
270.00	1361.90
270.22	1443.82
270.43	1372.14
270.65	1267.69
270.87	1425.39
271.08	1409.00
271.30	1429.48
271.51	1447.91
271.73	1394.67
271.95	1443.82
272.16	1425.39
272.38	1427.43
272.59	1378.28
272.81	1406.95
273.02	1394.67
273.24	1388.52
273.46	1351.66
273.67	1378.28
273.89	1378.28
274.10	1437.67
274.32	1366.00
274.54	1374.19
274.75	1339.37
274.97	1363.95
275.18	1386.47
275.40	1388.52
275.61	1314.80
275.83	1357.80
276.05	1322.99
276.26	1368.04
276.48	1402.86
276.69	1363.95
276.91	1312.75
277.12	1452.01
277.34	1357.80
277.55	1431.53
277.77	1343.47
277.99	1335.28
278.20	1413.10
278.42	1286.12
278.63	1347.56
278.85	1396.71
279.06	1339.37
279.28	1341.42
279.49	1343.47
279.71	1361.90
279.93	1368.04
280.14	1396.71
280.36	1314.80
280.57	1380.33
280.79	1355.76
281.00	1335.28
281.22	1370.09
281.43	1439.72
281.65	1343.47
281.86	1392.62
282.08	1427.43
282.29	1431.53
282.51	1286.12
282.73	1251.31
282.94	1325.04
283.16	1406.95
283.37	1437.67
283.59	1329.13
283.80	1304.56
284.02	1359.85
284.23	1308.65
284.45	1386.47
284.66	1300.46
284.88	1374.19
285.09	1347.56
285.31	1419.24
285.52	1404.91
285.74	1331.18
285.95	1411.05
286.17	1349.61
286.38	1345.52
286.60	1343.47
286.81	1394.67
287.03	1378.28
287.24	1363.95
287.46	1409.00
287.67	1404.91
287.89	1503.21
288.10	1435.63
288.32	1366.00
288.53	1419.24
288.75	1355.76
288.96	1396.71
289.18	1322.99
289.39	1368.04
289.61	1468.39
289.82	1433.58
290.04	1411.05
290.25	1357.80
290.47	1363.95
290.68	1335.28
290.90	1351.66
291.11	1292.27
291.33	1406.95
291.54	1345.52
291.76	1290.22
291.97	1341.42
292.18	1386.47
292.40	1294.32
292.61	1372.14
292.83	1425.39
293.04	1347.56
293.26	1392.62
293.47	1380.33
293.69	1290.22
293.90	1349.61
294.12	1419.24
294.33	1402.86
294.55	1439.72
294.76	1429.48
294.97	1382.38
295.19	1427.43
295.40	1224.69
295.62	1363.95
295.83	1458.15
296.05	1392.62
296.26	1386.47
296.48	1331.18
296.69	1370.09
296.90	1380.33
297.12	1396.71
297.33	1404.91
297.55	1349.61
297.76	1378.28
297.98	1388.52
298.19	1300.46
298.41	1376.24
298.62	1292.27
298.83	1376.24
299.05	1394.67
299.26	1384.43
299.48	1335.28
299.69	1419.24
299.90	1374.19
300.12	1368.04
300.33	1419.24
300.55	1374.19
300.76	1409.00
300.98	1351.66
301.19	1419.24
301.40	1433.58
301.62	1411.05
301.83	1329.13
302.05	1378.28
302.26	1341.42
302.47	1308.65
302.69	1366.00
302.90	1396.71
303.12	1304.56
303.33	1355.76
303.54	1501.16
303.76	1349.61
303.97	1386.47
304.19	1464.30
304.40	1421.29
304.61	1396.71
304.83	1464.30
305.04	1439.72
305.26	1384.43
305.47	1357.80
305.68	1419.24
305.90	1329.13
306.11	1355.76
306.33	1322.99
306.54	1386.47
306.75	1345.52
306.97	1271.79
307.18	1290.22
307.39	1286.12
307.61	1333.23
307.82	1361.90
308.04	1349.61
308.25	1310.70
308.46	1460.20
308.68	1427.43
308.89	1372.14
309.10	1409.00
309.32	1423.34
309.53	1437.67
309.74	1458.15
309.96	1368.04
310.17	1370.09
310.39	1425.39
310.60	1341.42
310.81	1445.87
311.03	1331.18
311.24	1345.52
311.45	1380.33
311.67	1374.19
311.88	1292.27
312.09	1419.24
312.31	1329.13
312.52	1345.52
312.73	1339.37
312.95	1302.51
313.16	1345.52
313.37	1380.33
313.59	1394.67
313.80	1372.14
314.01	1402.86
314.23	1406.95
314.44	1337.32
314.65	1355.76
314.87	1320.94
315.08	1290.22
315.29	1325.04
315.51	1380.33
315.72	1316.84
315.93	1495.02
316.15	1331.18
316.36	1366.00
316.57	1394.67
316.79	1312.75
317.00	1349.61
317.21	1388.52
317.43	1411.05
317.64	1404.91
317.85	1380.33
318.07	1531.88
318.28	1576.94
318.49	1595.37
318.70	1611.75
318.92	1509.35
319.13	1591.27
319.34	1390.57
319.56	1445.87
319.77	1429.48
319.98	1429.48
320.20	1417.19
320.41	1474.54
320.62	1413.10
320.83	1372.14
321.05	1462.25
321.26	1359.85
321.47	1361.90
321.69	1409.00
321.90	1277.93
322.11	1331.18
322.32	1423.34
322.54	1441.77
322.75	1380.33
322.96	1419.24
323.18	1341.42
323.39	1304.56
323.60	1374.19
323.81	1390.57
324.03	1331.18
324.24	1394.67
324.45	1345.52
324.66	1343.47
324.88	1388.52
325.09	1435.63
325.30	1351.66
325.52	1390.57
325.73	1396.71
325.94	1415.15
326.15	1261.55
326.37	1380.33
326.58	1380.33
326.79	1349.61
327.00	1333.23
327.22	1374.19
327.43	1335.28
327.64	1372.14
327.85	1384.43
328.07	1419.24
328.28	1370.09
328.49	1286.12
328.70	1406.95
328.92	1361.90
329.13	1333.23
329.34	1327.08
329.55	1339.37
329.76	1402.86
329.98	1353.71
330.19	1417.19
330.40	1331.18
330.61	1314.80
330.83	1320.94
331.04	1398.76
331.25	1341.42
331.46	1355.76
331.68	1333.23
331.89	1419.24
332.10	1380.33
332.31	1331.18
332.52	1302.51
332.74	1449.96
332.95	1310.70
333.16	1378.28
333.37	1349.61
333.58	1376.24
333.80	1402.86
334.01	1306.60
334.22	1390.57
334.43	1312.75
334.64	1355.76
334.86	1345.52
335.07	1347.56
335.28	1417.19
335.49	1302.51
335.70	1439.72
335.92	1361.90
336.13	1470.44
336.34	1435.63
336.55	1396.71
336.76	1378.28
336.98	1335.28
337.19	1318.89
337.40	1423.34
337.61	1456.11
337.82	1286.12
338.04	1353.71
338.25	1314.80
338.46	1300.46
338.67	1363.95
338.88	1300.46
339.09	1341.42
339.31	1296.36
339.52	1374.19
339.73	1288.17
339.94	1380.33
340.15	1482.73
340.36	1402.86
340.58	1392.62
340.79	1329.13
341.00	1384.43
341.21	1355.76
341.42	1378.28
341.63	1406.95
341.85	1400.81
342.06	1343.47
342.27	1388.52
342.48	1376.24
342.69	1296.36
342.90	1370.09
343.12	1306.60
343.33	1331.18
343.54	1431.53
343.75	1388.52
343.96	1345.52
344.17	1380.33
344.38	1402.86
344.60	1335.28
344.81	1368.04
345.02	1290.22
345.23	1386.47
345.44	1419.24
345.65	1421.29
345.86	1421.29
346.07	1312.75
346.29	1329.13
346.50	1398.76
346.71	1357.80
346.92	1400.81
347.13	1464.30
347.34	1372.14
347.55	1337.32
347.76	1409.00
347.98	1298.41
348.19	1339.37
348.40	1439.72
348.61	1376.24
348.82	1525.74
349.03	1388.52
349.24	1296.36
349.45	1425.39
349.66	1351.66
349.88	1337.32
350.09	1359.85
350.30	1425.39
350.51	1433.58
350.72	1427.43
350.93	1363.95
351.14	1345.52
351.35	1441.77
351.56	1345.52
351.77	1312.75
351.99	1335.28
352.20	1409.00
352.41	1396.71
352.62	1353.71
352.83	1378.28
353.04	1341.42
353.25	1333.23
353.46	1310.70
353.67	1398.76
353.88	1339.37
354.09	1490.92
354.30	1411.05
354.52	1411.05
354.73	1337.32
354.94	1353.71
355.15	1372.14
355.36	1484.78
355.57	1302.51
355.78	1329.13
355.99	1304.56
356.20	1349.61
356.41	1474.54
356.62	1378.28
356.83	1413.10
357.04	1331.18
357.25	1386.47
357.46	1388.52
357.68	1322.99
357.89	1318.89
358.10	1331.18
358.31	1335.28
358.52	1396.71
358.73	1310.70
358.94	1337.32
359.15	1327.08
359.36	1417.19
359.57	1355.76
359.78	1316.84
359.99	1312.75
360.20	1304.56
360.41	1406.95
360.62	1347.56
360.83	1437.67
361.04	1474.54
361.25	1427.43
361.46	1343.47
361.67	1415.15
361.88	1476.59
362.09	1443.82
362.30	1327.08
362.51	1363.95
362.72	1290.22
362.93	1425.39
363.14	1359.85
363.35	1413.10
363.56	1382.38
363.78	1456.11
363.99	1398.76
364.20	1335.28
364.41	1400.81
364.62	1525.74
364.83	1384.43
365.04	1335.28
365.25	1337.32
365.46	1464.30
365.67	1372.14
365.88	1396.71
366.09	1427.43
366.30	1361.90
366.51	1363.95
366.72	1290.22
366.93	1392.62
367.14	1298.41
367.35	1415.15
367.56	1366.00
367.77	1376.24
367.98	1425.39
368.18	1361.90
368.39	1335.28
368.60	1282.03
368.81	1318.89
369.02	1345.52
369.23	1400.81
369.44	1363.95
369.65	1327.08
369.86	1304.56
370.07	1316.84
370.28	1366.00
370.49	1351.66
370.70	1402.86
370.91	1366.00
371.12	1304.56
371.33	1343.47
371.54	1386.47
371.75	1372.14
371.96	1325.04
372.17	1392.62
372.38	1277.93
372.59	1394.67
372.80	1366.00
373.01	1327.08
373.22	1409.00
373.43	1363.95
373.64	1425.39
373.85	1468.39
374.06	1421.29
374.26	1415.15
374.47	1376.24
374.68	1460.20
374.89	1310.70
375.10	1302.51
375.31	1398.76
375.52	1366.00
375.73	1345.52
375.94	1396.71
376.15	1329.13
376.36	1341.42
376.57	1404.91
376.78	1308.65
376.99	1341.42
377.20	1480.68
377.40	1359.85
377.61	1443.82
377.82	1265.64
378.03	1468.39
378.24	1382.38
378.45	1347.56
378.66	1409.00
378.87	1288.17
379.08	1327.08
379.29	1329.13
379.50	1431.53
379.71	1343.47
379.91	1347.56
380.12	1384.43
380.33	1445.87
380.54	1355.76
380.75	1361.90
380.96	1339.37
381.17	1425.39
381.38	1435.63
381.59	1495.02
381.80	1474.54
382.00	1509.35
382.21	1374.19
382.42	1480.68
382.63	1519.59
382.84	1378.28
383.05	1376.24
383.26	1396.71
383.47	1417.19
383.68	1392.62
383.88	1413.10
384.09	1411.05
384.30	1390.57
384.51	1415.15
384.72	1372.14
384.93	1310.70
385.14	1386.47
385.35	1406.95
385.55	1282.03
385.76	1404.91
385.97	1357.80
386.18	1380.33
386.39	1325.04
386.60	1429.48
386.81	1429.48
387.02	1421.29
387.22	1421.29
387.43	1423.34
387.64	1572.84
387.85	2197.47
388.06	5840.81
388.27	9525.10
388.48	11669.33
388.68	12980.03
388.89	13627.18
389.10	10661.73
389.31	9234.29
389.52	8406.91
389.73	7358.35
389.93	6956.95
390.14	6449.05
390.35	6107.04
390.56	5535.66
390.77	4628.41
390.98	3700.68
391.18	2801.62
391.39	2119.65
391.60	1677.29
391.81	1587.18
392.02	1392.62
392.23	1486.83
392.43	1406.95
392.64	1529.83
392.85	1447.91
393.06	1376.24
393.27	1452.01
393.47	1325.04
393.68	1347.56
393.89	1368.04
394.10	1456.11
394.31	1345.52
394.52	1394.67
394.72	1335.28
394.93	1386.47
395.14	1402.86
395.35	1443.82
395.56	1398.76
395.76	1628.14
395.97	1570.79
396.18	1570.79
396.39	1568.74
396.60	1624.04
396.80	1533.93
397.01	1529.83
397.22	1492.97
397.43	1507.30
397.64	1417.19
397.84	1568.74
398.05	1546.22
398.26	1423.34
398.47	1376.24
398.67	1452.01
398.88	1431.53
399.09	1419.24
399.30	1339.37
399.51	1341.42
399.71	1312.75
399.92	1351.66
400.13	1454.06
400.34	1292.27
400.54	1421.29
400.75	1466.35
400.96	1452.01
401.17	1452.01
401.37	1380.33
401.58	1359.85
401.79	1525.74
402.00	1671.14
402.21	1783.78
402.41	1722.34
402.62	1810.40
402.83	1646.57
403.04	1599.46
403.24	1703.91
403.45	1564.65
403.66	1572.84
403.87	1525.74
404.07	1619.94
404.28	1554.41
404.49	1480.68
404.70	1478.63
404.90	1492.97
405.11	1447.91
405.32	1437.67
405.52	1417.19
405.73	1386.47
405.94	1372.14
406.15	1378.28
406.35	1382.38
406.56	1372.14
406.77	1351.66
406.98	1392.62
407.18	1404.91
407.39	1400.81
407.60	1386.47
407.80	1384.43
408.01	1417.19
408.22	1329.13
408.43	1333.23
408.63	1382.38
408.84	1449.96
409.05	1447.91
409.25	1388.52
409.46	1322.99
409.67	1386.47
409.88	1462.25
410.08	1435.63
410.29	1390.57
410.50	1394.67
410.70	1396.71
410.91	1269.74
411.12	1372.14
411.32	1355.76
411.53	1406.95
411.74	1421.29
411.95	1517.54
412.15	1462.25
412.36	1447.91
412.57	1435.63
412.77	1429.48
412.98	1400.81
413.19	1390.57
413.39	1396.71
413.60	1421.29
413.81	1454.06
414.01	1480.68
414.22	1357.80
414.43	1499.11
414.63	1300.46
414.84	1417.19
415.05	1423.34
415.25	1337.32
415.46	1392.62
415.67	1325.04
415.87	1460.20
416.08	1417.19
416.29	1388.52
416.49	1404.91
416.70	1320.94
416.91	1347.56
417.11	1335.28
417.32	1290.22
417.53	1413.10
417.73	1306.60
417.94	1370.09
418.15	1398.76
418.35	1312.75
418.56	1351.66
418.77	1370.09
418.97	1363.95
419.18	1345.52
419.38	1255.40
419.59	1325.04
419.80	1372.14
420.00	1325.04
420.21	1300.46
420.42	1466.35
420.62	1398.76
420.83	1310.70
421.04	1353.71
421.24	1355.76
421.45	1445.87
421.65	1404.91
421.86	1355.76
422.07	1390.57
422.27	1419.24
422.48	1402.86
422.69	1282.03
422.89	1409.00
423.10	1433.58
423.30	1318.89
423.51	1484.78
423.72	1275.88
423.92	1306.60
424.13	1325.04
424.33	1361.90
424.54	1345.52
424.75	1413.10
424.95	1505.26
425.16	1308.65
425.36	1366.00
425.57	1345.52
425.78	1445.87
425.98	1406.95
426.19	1302.51
426.39	1331.18
426.60	1327.08
426.81	1400.81
427.01	1322.99
427.22	1376.24
427.42	1349.61
427.63	1300.46
427.83	1333.23
428.04	1357.80
428.25	1368.04
428.45	1441.77
428.66	1411.05
428.86	1425.39
429.07	1355.76
429.28	1337.32
429.48	1341.42
429.69	1404.91
429.89	1357.80
430.10	1212.40
430.30	1402.86
430.51	1413.10
430.71	1236.97
430.92	1366.00
431.13	1337.32
431.33	1370.09
431.54	1359.85
431.74	1429.48
431.95	1378.28
432.15	1368.04
432.36	1372.14
432.56	1421.29
432.77	1351.66
432.98	1427.43
433.18	1320.94
433.39	1363.95
433.59	1327.08
433.80	1449.96
434.00	1417.19
434.21	1351.66
434.41	1349.61
434.62	1449.96
434.82	1411.05
435.03	1310.70
435.23	1368.04
435.44	1331.18
435.64	1296.36
435.85	1396.71
436.06	1419.24
436.26	1417.19
436.47	1329.13
436.67	1411.05
436.88	1259.50
437.08	1331.18
437.29	1390.57
437.49	1400.81
437.70	1409.00
437.90	1349.61
438.11	1527.78
438.31	1503.21
438.52	1527.78
438.72	1544.17
438.93	1478.63
439.13	1462.25
439.34	1445.87
439.54	1398.76
439.75	1490.92
439.95	1413.10
440.16	1376.24
440.36	1359.85
440.57	1413.10
440.77	1478.63
440.98	1353.71
441.18	1345.52
441.39	1447.91
441.59	1318.89
441.80	1501.16
442.00	1441.77
442.21	1380.33
442.41	1306.60
442.62	1390.57
442.82	1357.80
443.02	1419.24
443.23	1421.29
443.43	1366.00
443.64	1449.96
443.84	1384.43
444.05	1435.63
444.25	1380.33
444.46	1370.09
444.66	1396.71
444.87	1437.67
445.07	1306.60
445.28	1306.60
445.48	1386.47
445.69	1527.78
445.89	1447.91
446.09	1515.50
446.30	2332.64
446.50	3620.81
446.71	4714.42
446.91	5355.44
447.12	5533.61
447.32	5064.63
447.53	4220.86
447.73	3819.46
447.93	3387.34
448.14	3155.92
448.34	3006.42
448.55	2979.79
448.75	2742.23
448.96	2688.98
449.16	2381.79
449.36	2234.33
449.57	1933.28
449.77	1724.39
449.98	1525.74
450.18	1492.97
450.39	1439.72
450.59	1429.48
450.79	1396.71
451.00	1304.56
451.20	1445.87
451.41	1411.05
451.61	1368.04
451.81	1402.86
452.02	1316.84
452.22	1343.47
452.43	1372.14
452.63	1306.60
