SpectraSuite Data File
++++++++++++++++++++++++++++++++++++
Date: Tue May 03 11:24:50 CEST 2016
User: root
Dark Spectrum Present: No
Reference Spectrum Present: No
Number of Sampled Component Spectra: 1
Spectrometers: USB4C02835
Integration Time (usec): 100000 (USB4C02835)
Spectra Averaged: 1 (USB4C02835)
Boxcar Smoothing: 0 (USB4C02835)
Correct for Electrical Dark: No (USB4C02835)
Strobe/Lamp Enabled: No (USB4C02835)
Correct for Detector Non-linearity: No (USB4C02835)
Correct for Stray Light: No (USB4C02835)
Number of Pixels in Processed Spectrum: 3648
>>>>>Begin Processed Spectral Data<<<<<
177.47	1200.11
177.69	1200.11
177.91	1200.11
178.13	1138.67
178.36	1239.02
178.58	1361.90
178.80	1480.68
179.02	1275.88
179.24	1368.04
179.46	1378.28
179.68	1314.80
179.90	1341.42
180.13	1421.29
180.35	1322.99
180.57	1353.71
180.79	1447.91
181.01	1335.28
181.23	1347.56
181.45	1447.91
181.67	1388.52
181.90	1361.90
182.12	1413.10
182.34	1325.04
182.56	1378.28
182.78	1339.37
183.00	1382.38
183.22	1363.95
183.44	1325.04
183.66	1495.02
183.89	1433.58
184.11	1411.05
184.33	1425.39
184.55	1398.76
184.77	1406.95
184.99	1437.67
185.21	1370.09
185.43	1470.44
185.65	1384.43
185.87	1374.19
186.10	1413.10
186.32	1402.86
186.54	1314.80
186.76	1452.01
186.98	1349.61
187.20	1345.52
187.42	1275.88
187.64	1439.72
187.86	1386.47
188.08	1353.71
188.30	1378.28
188.52	1329.13
188.75	1415.15
188.97	1544.17
189.19	1366.00
189.41	1288.17
189.63	1353.71
189.85	1359.85
190.07	1306.60
190.29	1431.53
190.51	1345.52
190.73	1339.37
190.95	1472.49
191.17	1372.14
191.39	1368.04
191.61	1327.08
191.84	1372.14
192.06	1376.24
192.28	1284.08
192.50	1482.73
192.72	1400.81
192.94	1363.95
193.16	1331.18
193.38	1314.80
193.60	1316.84
193.82	1378.28
194.04	1413.10
194.26	1378.28
194.48	1345.52
194.70	1337.32
194.92	1322.99
195.14	1376.24
195.36	1341.42
195.58	1372.14
195.80	1370.09
196.02	1355.76
196.24	1347.56
196.46	1349.61
196.69	1306.60
196.91	1462.25
197.13	1368.04
197.35	1392.62
197.57	1413.10
197.79	1425.39
198.01	1404.91
198.23	1349.61
198.45	1245.16
198.67	1329.13
198.89	1363.95
199.11	1380.33
199.33	1386.47
199.55	1337.32
199.77	1359.85
199.99	1402.86
200.21	1320.94
200.43	1380.33
200.65	1341.42
200.87	1380.33
201.09	1396.71
201.31	1409.00
201.53	1413.10
201.75	1411.05
201.97	1400.81
202.19	1284.08
202.41	1320.94
202.63	1492.97
202.85	1341.42
203.07	1439.72
203.29	1294.32
203.51	1433.58
203.73	1368.04
203.95	1456.11
204.17	1386.47
204.39	1411.05
204.61	1306.60
204.83	1337.32
205.05	1386.47
205.27	1396.71
205.49	1468.39
205.71	1331.18
205.93	1343.47
206.15	1279.98
206.37	1378.28
206.59	1363.95
206.81	1368.04
207.03	1314.80
207.25	1306.60
207.47	1400.81
207.69	1347.56
207.91	1390.57
208.13	1449.96
208.34	1325.04
208.56	1302.51
208.78	1382.38
209.00	1388.52
209.22	1386.47
209.44	1361.90
209.66	1304.56
209.88	1308.65
210.10	1390.57
210.32	1372.14
210.54	1392.62
210.76	1345.52
210.98	1345.52
211.20	1251.31
211.42	1443.82
211.64	1351.66
211.86	1423.34
212.08	1439.72
212.30	1390.57
212.52	1310.70
212.74	1398.76
212.96	1398.76
213.17	1394.67
213.39	1359.85
213.61	1380.33
213.83	1433.58
214.05	1294.32
214.27	1486.83
214.49	1386.47
214.71	1349.61
214.93	1427.43
215.15	1361.90
215.37	1320.94
215.59	1359.85
215.81	1452.01
216.03	1423.34
216.24	1386.47
216.46	1421.29
216.68	1425.39
216.90	1380.33
217.12	1333.23
217.34	1347.56
217.56	1372.14
217.78	1335.28
218.00	1402.86
218.22	1327.08
218.44	1402.86
218.66	1341.42
218.87	1409.00
219.09	1312.75
219.31	1380.33
219.53	1327.08
219.75	1284.08
219.97	1409.00
220.19	1447.91
220.41	1253.36
220.63	1409.00
220.85	1368.04
221.06	1339.37
221.28	1349.61
221.50	1361.90
221.72	1335.28
221.94	1441.77
222.16	1423.34
222.38	1429.48
222.60	1429.48
222.82	1376.24
223.03	1380.33
223.25	1269.74
223.47	1327.08
223.69	1447.91
223.91	1419.24
224.13	1351.66
224.35	1394.67
224.57	1372.14
224.78	1423.34
225.00	1421.29
225.22	1382.38
225.44	1429.48
225.66	1423.34
225.88	1296.36
226.10	1415.15
226.32	1433.58
226.53	1400.81
226.75	1388.52
226.97	1333.23
227.19	1355.76
227.41	1355.76
227.63	1306.60
227.85	1288.17
228.06	1378.28
228.28	1409.00
228.50	1335.28
228.72	1368.04
228.94	1329.13
229.16	1322.99
229.37	1312.75
229.59	1341.42
229.81	1411.05
230.03	1337.32
230.25	1310.70
230.47	1390.57
230.69	1374.19
230.90	1349.61
231.12	1353.71
231.34	1411.05
231.56	1392.62
231.78	1327.08
232.00	1361.90
232.21	1404.91
232.43	1372.14
232.65	1298.41
232.87	1351.66
233.09	1347.56
233.30	1224.69
233.52	1406.95
233.74	1417.19
233.96	1327.08
234.18	1353.71
234.40	1372.14
234.61	1433.58
234.83	1292.27
235.05	1339.37
235.27	1439.72
235.49	1472.49
235.70	1361.90
235.92	1411.05
236.14	1386.47
236.36	1425.39
236.58	1337.32
236.79	1376.24
237.01	1316.84
237.23	1333.23
237.45	1470.44
237.67	1388.52
237.88	1374.19
238.10	1404.91
238.32	1314.80
238.54	1372.14
238.76	1378.28
238.97	1349.61
239.19	1339.37
239.41	1476.59
239.63	1413.10
239.85	1380.33
240.06	1359.85
240.28	1380.33
240.50	1372.14
240.72	1386.47
240.93	1380.33
241.15	1413.10
241.37	1400.81
241.59	1460.20
241.81	1339.37
242.02	1353.71
242.24	1396.71
242.46	1339.37
242.68	1353.71
242.89	1359.85
243.11	1431.53
243.33	1331.18
243.55	1366.00
243.76	1398.76
243.98	1318.89
244.20	1366.00
244.42	1374.19
244.64	1386.47
244.85	1361.90
245.07	1347.56
245.29	1413.10
245.51	1386.47
245.72	1331.18
245.94	1366.00
246.16	1376.24
246.38	1343.47
246.59	1388.52
246.81	1331.18
247.03	1384.43
247.24	1380.33
247.46	1361.90
247.68	1308.65
247.90	1382.38
248.11	1366.00
248.33	1331.18
248.55	1325.04
248.77	1402.86
248.98	1449.96
249.20	1415.15
249.42	1398.76
249.64	1351.66
249.85	1394.67
250.07	1300.46
250.29	1269.74
250.50	1423.34
250.72	1263.60
250.94	1370.09
251.16	1466.35
251.37	1380.33
251.59	1366.00
251.81	1390.57
252.02	1390.57
252.24	1345.52
252.46	1449.96
252.68	1322.99
252.89	1359.85
253.11	1411.05
253.33	1411.05
253.54	1318.89
253.76	1296.36
253.98	1339.37
254.20	1386.47
254.41	1294.32
254.63	1347.56
254.85	1298.41
255.06	1404.91
255.28	1417.19
255.50	1406.95
255.71	1382.38
255.93	1339.37
256.15	1363.95
256.36	1386.47
256.58	1437.67
256.80	1402.86
257.02	1335.28
257.23	1298.41
257.45	1327.08
257.67	1409.00
257.88	1388.52
258.10	1349.61
258.32	1351.66
258.53	1355.76
258.75	1396.71
258.97	1310.70
259.18	1480.68
259.40	1374.19
259.62	1421.29
259.83	1452.01
260.05	1394.67
260.27	1535.98
260.48	1413.10
260.70	1380.33
260.92	1394.67
261.13	1425.39
261.35	1384.43
261.57	1376.24
261.78	1222.64
262.00	1361.90
262.22	1310.70
262.43	1322.99
262.65	1402.86
262.86	1370.09
263.08	1478.63
263.30	1355.76
263.51	1314.80
263.73	1396.71
263.95	1417.19
264.16	1370.09
264.38	1447.91
264.60	1443.82
264.81	1359.85
265.03	1406.95
265.25	1349.61
265.46	1343.47
265.68	1378.28
265.89	1445.87
266.11	1312.75
266.33	1439.72
266.54	1411.05
266.76	1384.43
266.98	1370.09
267.19	1406.95
267.41	1398.76
267.62	1425.39
267.84	1357.80
268.06	1363.95
268.27	1441.77
268.49	1390.57
268.70	1423.34
268.92	1341.42
269.14	1294.32
269.35	1286.12
269.57	1314.80
269.79	1376.24
270.00	1386.47
270.22	1409.00
270.43	1361.90
270.65	1320.94
270.87	1361.90
271.08	1376.24
271.30	1449.96
271.51	1404.91
271.73	1441.77
271.95	1400.81
272.16	1439.72
272.38	1384.43
272.59	1329.13
272.81	1429.48
273.02	1380.33
273.24	1363.95
273.46	1411.05
273.67	1333.23
273.89	1277.93
274.10	1347.56
274.32	1384.43
274.54	1329.13
274.75	1392.62
274.97	1400.81
275.18	1363.95
275.40	1437.67
275.61	1380.33
275.83	1384.43
276.05	1298.41
276.26	1296.36
276.48	1380.33
276.69	1314.80
276.91	1398.76
277.12	1390.57
277.34	1404.91
277.55	1353.71
277.77	1427.43
277.99	1355.76
278.20	1255.40
278.42	1345.52
278.63	1302.51
278.85	1347.56
279.06	1294.32
279.28	1290.22
279.49	1413.10
279.71	1355.76
279.93	1380.33
280.14	1458.15
280.36	1355.76
280.57	1376.24
280.79	1359.85
281.00	1277.93
281.22	1345.52
281.43	1349.61
281.65	1329.13
281.86	1376.24
282.08	1322.99
282.29	1374.19
282.51	1372.14
282.73	1325.04
282.94	1300.46
283.16	1378.28
283.37	1406.95
283.59	1357.80
283.80	1372.14
284.02	1435.63
284.23	1411.05
284.45	1417.19
284.66	1378.28
284.88	1372.14
285.09	1376.24
285.31	1361.90
285.52	1456.11
285.74	1322.99
285.95	1380.33
286.17	1404.91
286.38	1384.43
286.60	1363.95
286.81	1232.88
287.03	1337.32
287.24	1325.04
287.46	1429.48
287.67	1331.18
287.89	1404.91
288.10	1411.05
288.32	1421.29
288.53	1464.30
288.75	1431.53
288.96	1353.71
289.18	1406.95
289.39	1363.95
289.61	1443.82
289.82	1435.63
290.04	1507.30
290.25	1343.47
290.47	1359.85
290.68	1277.93
290.90	1447.91
291.11	1341.42
291.33	1404.91
291.54	1306.60
291.76	1312.75
291.97	1333.23
292.18	1447.91
292.40	1316.84
292.61	1370.09
292.83	1419.24
293.04	1327.08
293.26	1353.71
293.47	1366.00
293.69	1351.66
293.90	1409.00
294.12	1394.67
294.33	1335.28
294.55	1318.89
294.76	1409.00
294.97	1476.59
295.19	1398.76
295.40	1284.08
295.62	1443.82
295.83	1443.82
296.05	1361.90
296.26	1470.44
296.48	1267.69
296.69	1357.80
296.90	1376.24
297.12	1388.52
297.33	1394.67
297.55	1402.86
297.76	1310.70
297.98	1427.43
298.19	1398.76
298.41	1325.04
298.62	1320.94
298.83	1380.33
299.05	1316.84
299.26	1286.12
299.48	1316.84
299.69	1445.87
299.90	1472.49
300.12	1368.04
300.33	1327.08
300.55	1368.04
300.76	1314.80
300.98	1314.80
301.19	1413.10
301.40	1347.56
301.62	1314.80
301.83	1359.85
302.05	1409.00
302.26	1327.08
302.47	1363.95
302.69	1347.56
302.90	1374.19
303.12	1314.80
303.33	1366.00
303.54	1464.30
303.76	1318.89
303.97	1353.71
304.19	1331.18
304.40	1368.04
304.61	1404.91
304.83	1452.01
305.04	1419.24
305.26	1351.66
305.47	1372.14
305.68	1380.33
305.90	1267.69
306.11	1376.24
306.33	1312.75
306.54	1286.12
306.75	1404.91
306.97	1325.04
307.18	1308.65
307.39	1294.32
307.61	1425.39
307.82	1292.27
308.04	1353.71
308.25	1306.60
308.46	1392.62
308.68	1351.66
308.89	1370.09
309.10	1439.72
309.32	1339.37
309.53	1421.29
309.74	1392.62
309.96	1357.80
310.17	1380.33
310.39	1345.52
310.60	1372.14
310.81	1327.08
311.03	1325.04
311.24	1441.77
311.45	1361.90
311.67	1439.72
311.88	1363.95
312.09	1363.95
312.31	1304.56
312.52	1359.85
312.73	1368.04
312.95	1308.65
313.16	1351.66
313.37	1372.14
313.59	1304.56
313.80	1400.81
314.01	1425.39
314.23	1359.85
314.44	1337.32
314.65	1357.80
314.87	1306.60
315.08	1316.84
315.29	1302.51
315.51	1374.19
315.72	1353.71
315.93	1484.78
316.15	1462.25
316.36	1300.46
316.57	1337.32
316.79	1400.81
317.00	1394.67
317.21	1359.85
317.43	1382.38
317.64	1322.99
317.85	1460.20
318.07	1454.06
318.28	1529.83
318.49	1538.02
318.70	1638.38
318.92	1529.83
319.13	1466.35
319.34	1540.07
319.56	1476.59
319.77	1396.71
319.98	1503.21
320.20	1466.35
320.41	1449.96
320.62	1468.39
320.83	1329.13
321.05	1470.44
321.26	1392.62
321.47	1363.95
321.69	1394.67
321.90	1380.33
322.11	1388.52
322.32	1370.09
322.54	1429.48
322.75	1359.85
322.96	1484.78
323.18	1347.56
323.39	1312.75
323.60	1368.04
323.81	1347.56
324.03	1312.75
324.24	1374.19
324.45	1406.95
324.66	1384.43
324.88	1404.91
325.09	1329.13
325.30	1388.52
325.52	1388.52
325.73	1439.72
325.94	1345.52
326.15	1300.46
326.37	1298.41
326.58	1400.81
326.79	1413.10
327.00	1335.28
327.22	1421.29
327.43	1298.41
327.64	1339.37
327.85	1341.42
328.07	1347.56
328.28	1413.10
328.49	1400.81
328.70	1384.43
328.92	1435.63
329.13	1396.71
329.34	1363.95
329.55	1425.39
329.76	1402.86
329.98	1347.56
330.19	1470.44
330.40	1464.30
330.61	1394.67
330.83	1370.09
331.04	1333.23
331.25	1361.90
331.46	1331.18
331.68	1351.66
331.89	1392.62
332.10	1392.62
332.31	1404.91
332.52	1427.43
332.74	1460.20
332.95	1366.00
333.16	1396.71
333.37	1421.29
333.58	1390.57
333.80	1318.89
334.01	1296.36
334.22	1402.86
334.43	1353.71
334.64	1359.85
334.86	1288.17
335.07	1335.28
335.28	1404.91
335.49	1273.84
335.70	1404.91
335.92	1366.00
336.13	1454.06
336.34	1468.39
336.55	1380.33
336.76	1396.71
336.98	1282.03
337.19	1384.43
337.40	1431.53
337.61	1351.66
337.82	1445.87
338.04	1325.04
338.25	1261.55
338.46	1396.71
338.67	1363.95
338.88	1308.65
339.09	1329.13
339.31	1366.00
339.52	1269.74
339.73	1411.05
339.94	1404.91
340.15	1316.84
340.36	1292.27
340.58	1378.28
340.79	1290.22
341.00	1417.19
341.21	1284.08
341.42	1366.00
341.63	1302.51
341.85	1320.94
342.06	1366.00
342.27	1343.47
342.48	1396.71
342.69	1363.95
342.90	1398.76
343.12	1396.71
343.33	1327.08
343.54	1355.76
343.75	1417.19
343.96	1398.76
344.17	1372.14
344.38	1347.56
344.60	1286.12
344.81	1402.86
345.02	1396.71
345.23	1396.71
345.44	1464.30
345.65	1447.91
345.86	1400.81
346.07	1406.95
346.29	1363.95
346.50	1345.52
346.71	1314.80
346.92	1343.47
347.13	1378.28
347.34	1392.62
347.55	1370.09
347.76	1409.00
347.98	1337.32
348.19	1355.76
348.40	1388.52
348.61	1308.65
348.82	1445.87
349.03	1310.70
349.24	1318.89
349.45	1466.35
349.66	1271.79
349.88	1357.80
350.09	1351.66
350.30	1392.62
350.51	1355.76
350.72	1392.62
350.93	1390.57
351.14	1316.84
351.35	1378.28
351.56	1400.81
351.77	1339.37
351.99	1404.91
352.20	1435.63
352.41	1400.81
352.62	1306.60
352.83	1292.27
353.04	1333.23
353.25	1345.52
353.46	1390.57
353.67	1368.04
353.88	1368.04
354.09	1327.08
354.30	1353.71
354.52	1353.71
354.73	1312.75
354.94	1253.36
355.15	1437.67
355.36	1370.09
355.57	1445.87
355.78	1409.00
355.99	1402.86
356.20	1341.42
356.41	1433.58
356.62	1347.56
356.83	1396.71
357.04	1492.97
357.25	1345.52
357.46	1327.08
357.68	1286.12
357.89	1353.71
358.10	1421.29
358.31	1396.71
358.52	1310.70
358.73	1298.41
358.94	1298.41
359.15	1347.56
359.36	1351.66
359.57	1368.04
359.78	1304.56
359.99	1394.67
360.20	1349.61
360.41	1339.37
360.62	1411.05
360.83	1413.10
361.04	1359.85
361.25	1361.90
361.46	1425.39
361.67	1376.24
361.88	1312.75
362.09	1396.71
362.30	1329.13
362.51	1304.56
362.72	1435.63
362.93	1445.87
363.14	1429.48
363.35	1329.13
363.56	1388.52
363.78	1431.53
363.99	1404.91
364.20	1286.12
364.41	1445.87
364.62	1394.67
364.83	1398.76
365.04	1327.08
365.25	1470.44
365.46	1484.78
365.67	1419.24
365.88	1349.61
366.09	1411.05
366.30	1378.28
366.51	1398.76
366.72	1290.22
366.93	1349.61
367.14	1398.76
367.35	1363.95
367.56	1427.43
367.77	1488.87
367.98	1322.99
368.18	1382.38
368.39	1347.56
368.60	1366.00
368.81	1318.89
369.02	1429.48
369.23	1376.24
369.44	1333.23
369.65	1413.10
369.86	1441.77
370.07	1423.34
370.28	1368.04
370.49	1357.80
370.70	1398.76
370.91	1277.93
371.12	1390.57
371.33	1368.04
371.54	1382.38
371.75	1363.95
371.96	1181.68
372.17	1335.28
372.38	1331.18
372.59	1372.14
372.80	1378.28
373.01	1355.76
373.22	1378.28
373.43	1392.62
373.64	1349.61
373.85	1472.49
374.06	1505.26
374.26	1322.99
374.47	1329.13
374.68	1404.91
374.89	1456.11
375.10	1378.28
375.31	1419.24
375.52	1392.62
375.73	1325.04
375.94	1292.27
376.15	1402.86
376.36	1335.28
376.57	1345.52
376.78	1306.60
376.99	1376.24
377.20	1441.77
377.40	1335.28
377.61	1445.87
377.82	1335.28
378.03	1452.01
378.24	1386.47
378.45	1347.56
378.66	1378.28
378.87	1347.56
379.08	1372.14
379.29	1359.85
379.50	1400.81
379.71	1355.76
379.91	1427.43
380.12	1376.24
380.33	1370.09
380.54	1372.14
380.75	1359.85
380.96	1359.85
381.17	1439.72
381.38	1382.38
381.59	1452.01
381.80	1363.95
382.00	1562.60
382.21	1404.91
382.42	1472.49
382.63	1505.26
382.84	1394.67
383.05	1400.81
383.26	1458.15
383.47	1466.35
383.68	1492.97
383.88	1400.81
384.09	1425.39
384.30	1425.39
384.51	1376.24
384.72	1380.33
384.93	1314.80
385.14	1398.76
385.35	1419.24
385.55	1296.36
385.76	1458.15
385.97	1396.71
386.18	1390.57
386.39	1372.14
386.60	1339.37
386.81	1302.51
387.02	1366.00
387.22	1366.00
387.43	1417.19
387.64	1568.74
387.85	2267.10
388.06	5537.71
388.27	9308.02
388.48	11548.50
388.68	12951.35
388.89	13121.34
389.10	10440.54
389.31	9045.88
389.52	8378.24
389.73	7444.37
389.93	6739.87
390.14	6457.25
390.35	6068.13
390.56	5435.31
390.77	4585.40
390.98	3743.69
391.18	2758.61
391.39	2215.90
391.60	1697.77
391.81	1527.78
392.02	1431.53
392.23	1503.21
392.43	1456.11
392.64	1402.86
392.85	1411.05
393.06	1431.53
393.27	1335.28
393.47	1382.38
393.68	1398.76
393.89	1347.56
394.10	1400.81
394.31	1341.42
394.52	1370.09
394.72	1460.20
394.93	1456.11
395.14	1282.03
395.35	1400.81
395.56	1409.00
395.76	1449.96
395.97	1435.63
396.18	1589.22
396.39	1615.85
396.60	1607.66
396.80	1597.42
397.01	1521.64
397.22	1476.59
397.43	1511.40
397.64	1374.19
397.84	1456.11
398.05	1546.22
398.26	1454.06
398.47	1406.95
398.67	1476.59
398.88	1374.19
399.09	1376.24
399.30	1292.27
399.51	1433.58
399.71	1388.52
399.92	1402.86
400.13	1413.10
400.34	1411.05
400.54	1355.76
400.75	1511.40
400.96	1347.56
401.17	1460.20
401.37	1382.38
401.58	1423.34
401.79	1540.07
402.00	1740.77
402.21	1832.93
402.41	1775.59
402.62	1765.35
402.83	1712.10
403.04	1697.77
403.24	1705.96
403.45	1593.32
403.66	1630.18
403.87	1517.54
404.07	1601.51
404.28	1544.17
404.49	1501.16
404.70	1445.87
404.90	1527.78
405.11	1429.48
405.32	1390.57
405.52	1339.37
405.73	1368.04
405.94	1337.32
406.15	1378.28
406.35	1366.00
406.56	1417.19
406.77	1419.24
406.98	1380.33
407.18	1382.38
407.39	1413.10
407.60	1355.76
407.80	1406.95
408.01	1329.13
408.22	1404.91
408.43	1386.47
408.63	1366.00
408.84	1372.14
409.05	1429.48
409.25	1368.04
409.46	1388.52
409.67	1279.98
409.88	1390.57
410.08	1419.24
410.29	1286.12
410.50	1421.29
410.70	1372.14
410.91	1337.32
411.12	1368.04
411.32	1372.14
411.53	1376.24
411.74	1458.15
411.95	1415.15
412.15	1490.92
412.36	1492.97
412.57	1456.11
412.77	1495.02
412.98	1378.28
413.19	1388.52
413.39	1435.63
413.60	1480.68
413.81	1429.48
414.01	1452.01
414.22	1458.15
414.43	1417.19
414.63	1345.52
414.84	1462.25
415.05	1423.34
415.25	1308.65
415.46	1404.91
415.67	1456.11
415.87	1413.10
416.08	1402.86
416.29	1347.56
416.49	1320.94
416.70	1349.61
416.91	1335.28
417.11	1368.04
417.32	1380.33
417.53	1353.71
417.73	1398.76
417.94	1378.28
418.15	1325.04
418.35	1368.04
418.56	1351.66
418.77	1454.06
418.97	1443.82
419.18	1359.85
419.38	1312.75
419.59	1322.99
419.80	1449.96
420.00	1339.37
420.21	1370.09
420.42	1468.39
420.62	1396.71
420.83	1374.19
421.04	1396.71
421.24	1343.47
421.45	1331.18
421.65	1384.43
421.86	1413.10
422.07	1347.56
422.27	1363.95
422.48	1400.81
422.69	1325.04
422.89	1345.52
423.10	1376.24
423.30	1376.24
423.51	1275.88
423.72	1394.67
423.92	1370.09
424.13	1331.18
424.33	1394.67
424.54	1382.38
424.75	1351.66
424.95	1472.49
425.16	1427.43
425.36	1382.38
425.57	1441.77
425.78	1370.09
425.98	1458.15
426.19	1427.43
426.39	1376.24
426.60	1370.09
426.81	1429.48
427.01	1398.76
427.22	1345.52
427.42	1396.71
427.63	1294.32
427.83	1425.39
428.04	1400.81
428.25	1492.97
428.45	1413.10
428.66	1449.96
428.86	1456.11
429.07	1431.53
429.28	1421.29
429.48	1351.66
429.69	1349.61
429.89	1392.62
430.10	1357.80
430.30	1441.77
430.51	1421.29
430.71	1384.43
430.92	1396.71
431.13	1333.23
431.33	1400.81
431.54	1345.52
431.74	1454.06
431.95	1421.29
432.15	1382.38
432.36	1423.34
432.56	1419.24
432.77	1406.95
432.98	1322.99
433.18	1435.63
433.39	1345.52
433.59	1398.76
433.80	1439.72
434.00	1482.73
434.21	1372.14
434.41	1335.28
434.62	1431.53
434.82	1314.80
435.03	1294.32
435.23	1380.33
435.44	1382.38
435.64	1470.44
435.85	1372.14
436.06	1437.67
436.26	1359.85
436.47	1406.95
436.67	1343.47
436.88	1378.28
437.08	1361.90
437.29	1472.49
437.49	1423.34
437.70	1398.76
437.90	1386.47
438.11	1492.97
438.31	1486.83
438.52	1570.79
438.72	1589.22
438.93	1617.90
439.13	1495.02
439.34	1413.10
439.54	1443.82
439.75	1404.91
439.95	1460.20
440.16	1429.48
440.36	1460.20
440.57	1423.34
440.77	1490.92
440.98	1411.05
441.18	1441.77
441.39	1329.13
441.59	1368.04
441.80	1447.91
442.00	1398.76
442.21	1482.73
442.41	1322.99
442.62	1396.71
442.82	1384.43
443.02	1402.86
443.23	1470.44
443.43	1386.47
443.64	1370.09
443.84	1409.00
444.05	1478.63
444.25	1351.66
444.46	1329.13
444.66	1372.14
444.87	1476.59
445.07	1363.95
445.28	1468.39
445.48	1421.29
445.69	1464.30
445.89	1550.31
446.09	1566.70
446.30	2326.49
446.50	3696.58
446.71	4564.92
446.91	5175.22
447.12	5377.97
447.32	4767.67
447.53	4165.57
447.73	3770.31
447.93	3420.11
448.14	3168.21
448.34	3018.71
448.55	2740.18
448.75	2766.81
448.96	2582.49
449.16	2394.08
449.36	2205.66
449.57	1947.62
449.77	1681.38
449.98	1546.22
450.18	1476.59
450.39	1480.68
450.59	1437.67
450.79	1413.10
451.00	1292.27
451.20	1421.29
451.41	1335.28
451.61	1439.72
451.81	1427.43
452.02	1374.19
452.22	1396.71
452.43	1355.76
452.63	1370.09
