SpectraSuite Data File
++++++++++++++++++++++++++++++++++++
Date: Tue May 03 11:24:52 CEST 2016
User: root
Dark Spectrum Present: No
Reference Spectrum Present: No
Number of Sampled Component Spectra: 1
Spectrometers: USB4C02835
Integration Time (usec): 100000 (USB4C02835)
Spectra Averaged: 1 (USB4C02835)
Boxcar Smoothing: 0 (USB4C02835)
Correct for Electrical Dark: No (USB4C02835)
Strobe/Lamp Enabled: No (USB4C02835)
Correct for Detector Non-linearity: No (USB4C02835)
Correct for Stray Light: No (USB4C02835)
Number of Pixels in Processed Spectrum: 3648
>>>>>Begin Processed Spectral Data<<<<<
177.47	1212.40
177.69	1212.40
177.91	1212.40
178.13	1253.36
178.36	1247.21
178.58	1265.64
178.80	1392.62
179.02	1396.71
179.24	1329.13
179.46	1452.01
179.68	1425.39
179.90	1361.90
180.13	1329.13
180.35	1374.19
180.57	1359.85
180.79	1458.15
181.01	1370.09
181.23	1411.05
181.45	1413.10
181.67	1392.62
181.90	1449.96
182.12	1388.52
182.34	1378.28
182.56	1452.01
182.78	1372.14
183.00	1398.76
183.22	1409.00
183.44	1273.84
183.66	1488.87
183.89	1409.00
184.11	1406.95
184.33	1345.52
184.55	1468.39
184.77	1474.54
184.99	1357.80
185.21	1386.47
185.43	1400.81
185.65	1374.19
185.87	1466.35
186.10	1505.26
186.32	1476.59
186.54	1406.95
186.76	1359.85
186.98	1349.61
187.20	1339.37
187.42	1368.04
187.64	1359.85
187.86	1427.43
188.08	1392.62
188.30	1363.95
188.52	1388.52
188.75	1398.76
188.97	1398.76
189.19	1308.65
189.41	1437.67
189.63	1376.24
189.85	1273.84
190.07	1345.52
190.29	1357.80
190.51	1421.29
190.73	1279.98
190.95	1419.24
191.17	1282.03
191.39	1267.69
191.61	1390.57
191.84	1374.19
192.06	1445.87
192.28	1339.37
192.50	1433.58
192.72	1490.92
192.94	1314.80
193.16	1384.43
193.38	1327.08
193.60	1308.65
193.82	1312.75
194.04	1394.67
194.26	1376.24
194.48	1314.80
194.70	1368.04
194.92	1355.76
195.14	1406.95
195.36	1384.43
195.58	1372.14
195.80	1439.72
196.02	1343.47
196.24	1425.39
196.46	1400.81
196.69	1294.32
196.91	1456.11
197.13	1406.95
197.35	1316.84
197.57	1341.42
197.79	1427.43
198.01	1363.95
198.23	1370.09
198.45	1363.95
198.67	1298.41
198.89	1421.29
199.11	1290.22
199.33	1294.32
199.55	1320.94
199.77	1345.52
199.99	1462.25
200.21	1335.28
200.43	1343.47
200.65	1341.42
200.87	1320.94
201.09	1359.85
201.31	1347.56
201.53	1497.07
201.75	1392.62
201.97	1343.47
202.19	1314.80
202.41	1411.05
202.63	1521.64
202.85	1378.28
203.07	1419.24
203.29	1337.32
203.51	1331.18
203.73	1273.84
203.95	1437.67
204.17	1413.10
204.39	1351.66
204.61	1343.47
204.83	1363.95
205.05	1337.32
205.27	1464.30
205.49	1447.91
205.71	1382.38
205.93	1335.28
206.15	1382.38
206.37	1433.58
206.59	1288.17
206.81	1308.65
207.03	1363.95
207.25	1241.07
207.47	1429.48
207.69	1357.80
207.91	1359.85
208.13	1429.48
208.34	1361.90
208.56	1417.19
208.78	1413.10
209.00	1265.64
209.22	1482.73
209.44	1310.70
209.66	1380.33
209.88	1400.81
210.10	1302.51
210.32	1376.24
210.54	1357.80
210.76	1320.94
210.98	1425.39
211.20	1273.84
211.42	1404.91
211.64	1419.24
211.86	1339.37
212.08	1429.48
212.30	1337.32
212.52	1380.33
212.74	1392.62
212.96	1327.08
213.17	1386.47
213.39	1335.28
213.61	1345.52
213.83	1447.91
214.05	1335.28
214.27	1449.96
214.49	1308.65
214.71	1298.41
214.93	1435.63
215.15	1402.86
215.37	1400.81
215.59	1333.23
215.81	1384.43
216.03	1421.29
216.24	1322.99
216.46	1292.27
216.68	1396.71
216.90	1404.91
217.12	1384.43
217.34	1431.53
217.56	1376.24
217.78	1345.52
218.00	1484.78
218.22	1343.47
218.44	1417.19
218.66	1327.08
218.87	1413.10
219.09	1417.19
219.31	1386.47
219.53	1361.90
219.75	1292.27
219.97	1277.93
220.19	1320.94
220.41	1279.98
220.63	1427.43
220.85	1382.38
221.06	1355.76
221.28	1413.10
221.50	1302.51
221.72	1421.29
221.94	1433.58
222.16	1314.80
222.38	1419.24
222.60	1398.76
222.82	1327.08
223.03	1427.43
223.25	1402.86
223.47	1431.53
223.69	1466.35
223.91	1478.63
224.13	1429.48
224.35	1425.39
224.57	1384.43
224.78	1431.53
225.00	1372.14
225.22	1359.85
225.44	1462.25
225.66	1376.24
225.88	1308.65
226.10	1335.28
226.32	1378.28
226.53	1507.30
226.75	1308.65
226.97	1429.48
227.19	1308.65
227.41	1331.18
227.63	1316.84
227.85	1284.08
228.06	1423.34
228.28	1314.80
228.50	1390.57
228.72	1339.37
228.94	1437.67
229.16	1322.99
229.37	1380.33
229.59	1382.38
229.81	1396.71
230.03	1325.04
230.25	1329.13
230.47	1331.18
230.69	1359.85
230.90	1431.53
231.12	1292.27
231.34	1331.18
231.56	1361.90
231.78	1398.76
232.00	1325.04
232.21	1355.76
232.43	1363.95
232.65	1265.64
232.87	1445.87
233.09	1351.66
233.30	1376.24
233.52	1273.84
233.74	1411.05
233.96	1425.39
234.18	1411.05
234.40	1402.86
234.61	1406.95
234.83	1347.56
235.05	1331.18
235.27	1435.63
235.49	1464.30
235.70	1370.09
235.92	1345.52
236.14	1429.48
236.36	1411.05
236.58	1431.53
236.79	1386.47
237.01	1298.41
237.23	1435.63
237.45	1468.39
237.67	1322.99
237.88	1392.62
238.10	1458.15
238.32	1335.28
238.54	1322.99
238.76	1380.33
238.97	1411.05
239.19	1302.51
239.41	1366.00
239.63	1427.43
239.85	1347.56
240.06	1349.61
240.28	1351.66
240.50	1302.51
240.72	1363.95
240.93	1392.62
241.15	1470.44
241.37	1329.13
241.59	1372.14
241.81	1374.19
242.02	1355.76
242.24	1314.80
242.46	1384.43
242.68	1411.05
242.89	1392.62
243.11	1376.24
243.33	1417.19
243.55	1335.28
243.76	1357.80
243.98	1370.09
244.20	1286.12
244.42	1378.28
244.64	1427.43
244.85	1388.52
245.07	1380.33
245.29	1433.58
245.51	1402.86
245.72	1378.28
245.94	1447.91
246.16	1335.28
246.38	1386.47
246.59	1394.67
246.81	1349.61
247.03	1331.18
247.24	1290.22
247.46	1329.13
247.68	1366.00
247.90	1382.38
248.11	1378.28
248.33	1404.91
248.55	1429.48
248.77	1353.71
248.98	1368.04
249.20	1423.34
249.42	1279.98
249.64	1378.28
249.85	1351.66
250.07	1355.76
250.29	1355.76
250.50	1370.09
250.72	1310.70
250.94	1382.38
251.16	1515.50
251.37	1447.91
251.59	1325.04
251.81	1361.90
252.02	1370.09
252.24	1388.52
252.46	1370.09
252.68	1384.43
252.89	1368.04
253.11	1331.18
253.33	1478.63
253.54	1390.57
253.76	1357.80
253.98	1333.23
254.20	1347.56
254.41	1294.32
254.63	1341.42
254.85	1271.79
255.06	1302.51
255.28	1378.28
255.50	1386.47
255.71	1337.32
255.93	1282.03
256.15	1355.76
256.36	1388.52
256.58	1329.13
256.80	1484.78
257.02	1409.00
257.23	1361.90
257.45	1400.81
257.67	1402.86
257.88	1282.03
258.10	1482.73
258.32	1298.41
258.53	1394.67
258.75	1462.25
258.97	1337.32
259.18	1355.76
259.40	1398.76
259.62	1454.06
259.83	1380.33
260.05	1329.13
260.27	1538.02
260.48	1396.71
260.70	1331.18
260.92	1439.72
261.13	1314.80
261.35	1361.90
261.57	1382.38
261.78	1353.71
262.00	1394.67
262.22	1343.47
262.43	1310.70
262.65	1335.28
262.86	1345.52
263.08	1437.67
263.30	1366.00
263.51	1275.88
263.73	1380.33
263.95	1437.67
264.16	1306.60
264.38	1452.01
264.60	1439.72
264.81	1484.78
265.03	1361.90
265.25	1396.71
265.46	1370.09
265.68	1419.24
265.89	1445.87
266.11	1302.51
266.33	1392.62
266.54	1421.29
266.76	1361.90
266.98	1374.19
267.19	1437.67
267.41	1343.47
267.62	1333.23
267.84	1282.03
268.06	1394.67
268.27	1382.38
268.49	1406.95
268.70	1406.95
268.92	1372.14
269.14	1347.56
269.35	1337.32
269.57	1372.14
269.79	1361.90
270.00	1337.32
270.22	1392.62
270.43	1363.95
270.65	1288.17
270.87	1312.75
271.08	1415.15
271.30	1443.82
271.51	1368.04
271.73	1380.33
271.95	1386.47
272.16	1386.47
272.38	1380.33
272.59	1357.80
272.81	1368.04
273.02	1390.57
273.24	1376.24
273.46	1394.67
273.67	1355.76
273.89	1404.91
274.10	1353.71
274.32	1439.72
274.54	1322.99
274.75	1363.95
274.97	1318.89
275.18	1322.99
275.40	1378.28
275.61	1394.67
275.83	1380.33
276.05	1341.42
276.26	1345.52
276.48	1335.28
276.69	1351.66
276.91	1329.13
277.12	1404.91
277.34	1386.47
277.55	1464.30
277.77	1374.19
277.99	1343.47
278.20	1337.32
278.42	1372.14
278.63	1355.76
278.85	1355.76
279.06	1282.03
279.28	1337.32
279.49	1368.04
279.71	1447.91
279.93	1368.04
280.14	1325.04
280.36	1368.04
280.57	1378.28
280.79	1359.85
281.00	1339.37
281.22	1298.41
281.43	1390.57
281.65	1308.65
281.86	1341.42
282.08	1421.29
282.29	1476.59
282.51	1347.56
282.73	1355.76
282.94	1359.85
283.16	1343.47
283.37	1425.39
283.59	1400.81
283.80	1325.04
284.02	1337.32
284.23	1294.32
284.45	1304.56
284.66	1357.80
284.88	1380.33
285.09	1411.05
285.31	1462.25
285.52	1417.19
285.74	1320.94
285.95	1441.77
286.17	1310.70
286.38	1384.43
286.60	1306.60
286.81	1376.24
287.03	1380.33
287.24	1400.81
287.46	1376.24
287.67	1357.80
287.89	1478.63
288.10	1439.72
288.32	1437.67
288.53	1335.28
288.75	1396.71
288.96	1380.33
289.18	1351.66
289.39	1337.32
289.61	1423.34
289.82	1513.45
290.04	1452.01
290.25	1345.52
290.47	1335.28
290.68	1345.52
290.90	1443.82
291.11	1306.60
291.33	1331.18
291.54	1261.55
291.76	1331.18
291.97	1427.43
292.18	1331.18
292.40	1368.04
292.61	1277.93
292.83	1470.44
293.04	1394.67
293.26	1382.38
293.47	1382.38
293.69	1296.36
293.90	1400.81
294.12	1335.28
294.33	1382.38
294.55	1400.81
294.76	1312.75
294.97	1429.48
295.19	1409.00
295.40	1366.00
295.62	1386.47
295.83	1351.66
296.05	1349.61
296.26	1361.90
296.48	1351.66
296.69	1355.76
296.90	1359.85
297.12	1370.09
297.33	1423.34
297.55	1415.15
297.76	1449.96
297.98	1363.95
298.19	1331.18
298.41	1388.52
298.62	1349.61
298.83	1404.91
299.05	1341.42
299.26	1337.32
299.48	1394.67
299.69	1370.09
299.90	1355.76
300.12	1351.66
300.33	1341.42
300.55	1361.90
300.76	1404.91
300.98	1290.22
301.19	1464.30
301.40	1331.18
301.62	1370.09
301.83	1423.34
302.05	1292.27
302.26	1355.76
302.47	1435.63
302.69	1273.84
302.90	1404.91
303.12	1267.69
303.33	1396.71
303.54	1366.00
303.76	1374.19
303.97	1353.71
304.19	1380.33
304.40	1359.85
304.61	1406.95
304.83	1374.19
305.04	1439.72
305.26	1275.88
305.47	1363.95
305.68	1337.32
305.90	1339.37
306.11	1411.05
306.33	1357.80
306.54	1380.33
306.75	1347.56
306.97	1363.95
307.18	1353.71
307.39	1335.28
307.61	1398.76
307.82	1353.71
308.04	1380.33
308.25	1269.74
308.46	1394.67
308.68	1357.80
308.89	1343.47
309.10	1368.04
309.32	1304.56
309.53	1374.19
309.74	1355.76
309.96	1374.19
310.17	1476.59
310.39	1411.05
310.60	1337.32
310.81	1341.42
311.03	1333.23
311.24	1454.06
311.45	1320.94
311.67	1470.44
311.88	1312.75
312.09	1366.00
312.31	1376.24
312.52	1337.32
312.73	1329.13
312.95	1329.13
313.16	1286.12
313.37	1429.48
313.59	1357.80
313.80	1308.65
314.01	1441.77
314.23	1322.99
314.44	1363.95
314.65	1345.52
314.87	1314.80
315.08	1314.80
315.29	1325.04
315.51	1339.37
315.72	1376.24
315.93	1443.82
316.15	1400.81
316.36	1355.76
316.57	1415.15
316.79	1349.61
317.00	1312.75
317.21	1355.76
317.43	1353.71
317.64	1349.61
317.85	1355.76
318.07	1462.25
318.28	1542.12
318.49	1611.75
318.70	1591.27
318.92	1468.39
319.13	1495.02
319.34	1568.74
319.56	1466.35
319.77	1468.39
319.98	1349.61
320.20	1503.21
320.41	1441.77
320.62	1359.85
320.83	1294.32
321.05	1492.97
321.26	1361.90
321.47	1368.04
321.69	1437.67
321.90	1228.78
322.11	1333.23
322.32	1411.05
322.54	1380.33
322.75	1337.32
322.96	1470.44
323.18	1314.80
323.39	1273.84
323.60	1355.76
323.81	1363.95
324.03	1380.33
324.24	1359.85
324.45	1386.47
324.66	1359.85
324.88	1476.59
325.09	1429.48
325.30	1320.94
325.52	1433.58
325.73	1304.56
325.94	1325.04
326.15	1271.79
326.37	1359.85
326.58	1363.95
326.79	1478.63
327.00	1353.71
327.22	1464.30
327.43	1347.56
327.64	1298.41
327.85	1359.85
328.07	1322.99
328.28	1427.43
328.49	1290.22
328.70	1359.85
328.92	1398.76
329.13	1331.18
329.34	1433.58
329.55	1466.35
329.76	1378.28
329.98	1372.14
330.19	1417.19
330.40	1423.34
330.61	1378.28
330.83	1322.99
331.04	1265.64
331.25	1331.18
331.46	1363.95
331.68	1282.03
331.89	1476.59
332.10	1316.84
332.31	1460.20
332.52	1302.51
332.74	1429.48
332.95	1234.93
333.16	1372.14
333.37	1398.76
333.58	1353.71
333.80	1361.90
334.01	1302.51
334.22	1406.95
334.43	1331.18
334.64	1329.13
334.86	1308.65
335.07	1277.93
335.28	1386.47
335.49	1355.76
335.70	1378.28
335.92	1390.57
336.13	1476.59
336.34	1454.06
336.55	1355.76
336.76	1376.24
336.98	1296.36
337.19	1355.76
337.40	1392.62
337.61	1447.91
337.82	1341.42
338.04	1406.95
338.25	1314.80
338.46	1363.95
338.67	1398.76
338.88	1325.04
339.09	1353.71
339.31	1400.81
339.52	1398.76
339.73	1294.32
339.94	1366.00
340.15	1452.01
340.36	1312.75
340.58	1349.61
340.79	1384.43
341.00	1392.62
341.21	1366.00
341.42	1427.43
341.63	1404.91
341.85	1327.08
342.06	1417.19
342.27	1308.65
342.48	1413.10
342.69	1337.32
342.90	1325.04
343.12	1441.77
343.33	1368.04
343.54	1312.75
343.75	1419.24
343.96	1357.80
344.17	1294.32
344.38	1312.75
344.60	1349.61
344.81	1327.08
345.02	1398.76
345.23	1384.43
345.44	1548.26
345.65	1427.43
345.86	1333.23
346.07	1415.15
346.29	1308.65
346.50	1331.18
346.71	1345.52
346.92	1402.86
347.13	1472.49
347.34	1370.09
347.55	1411.05
347.76	1419.24
347.98	1355.76
348.19	1327.08
348.40	1310.70
348.61	1339.37
348.82	1478.63
349.03	1464.30
349.24	1349.61
349.45	1425.39
349.66	1290.22
349.88	1394.67
350.09	1421.29
350.30	1439.72
350.51	1423.34
350.72	1392.62
350.93	1294.32
351.14	1355.76
351.35	1415.15
351.56	1419.24
351.77	1335.28
351.99	1320.94
352.20	1411.05
352.41	1415.15
352.62	1378.28
352.83	1437.67
353.04	1372.14
353.25	1372.14
353.46	1411.05
353.67	1462.25
353.88	1269.74
354.09	1279.98
354.30	1413.10
354.52	1413.10
354.73	1339.37
354.94	1359.85
355.15	1286.12
355.36	1445.87
355.57	1404.91
355.78	1421.29
355.99	1394.67
356.20	1378.28
356.41	1394.67
356.62	1294.32
356.83	1363.95
357.04	1384.43
357.25	1265.64
357.46	1368.04
357.68	1296.36
357.89	1306.60
358.10	1331.18
358.31	1443.82
358.52	1335.28
358.73	1306.60
358.94	1294.32
359.15	1341.42
359.36	1435.63
359.57	1345.52
359.78	1302.51
359.99	1322.99
360.20	1361.90
360.41	1392.62
360.62	1447.91
360.83	1347.56
361.04	1421.29
361.25	1312.75
361.46	1466.35
361.67	1382.38
361.88	1398.76
362.09	1452.01
362.30	1349.61
362.51	1349.61
362.72	1417.19
362.93	1337.32
363.14	1417.19
363.35	1320.94
363.56	1306.60
363.78	1400.81
363.99	1439.72
364.20	1380.33
364.41	1325.04
364.62	1415.15
364.83	1380.33
365.04	1349.61
365.25	1322.99
365.46	1382.38
365.67	1347.56
365.88	1370.09
366.09	1355.76
366.30	1310.70
366.51	1339.37
366.72	1290.22
366.93	1316.84
367.14	1382.38
367.35	1437.67
367.56	1394.67
367.77	1425.39
367.98	1370.09
368.18	1421.29
368.39	1351.66
368.60	1322.99
368.81	1388.52
369.02	1445.87
369.23	1394.67
369.44	1290.22
369.65	1411.05
369.86	1394.67
370.07	1466.35
370.28	1341.42
370.49	1394.67
370.70	1327.08
370.91	1376.24
371.12	1372.14
371.33	1429.48
371.54	1404.91
371.75	1386.47
371.96	1304.56
372.17	1374.19
372.38	1417.19
372.59	1415.15
372.80	1363.95
373.01	1366.00
373.22	1390.57
373.43	1341.42
373.64	1261.55
373.85	1386.47
374.06	1380.33
374.26	1439.72
374.47	1417.19
374.68	1449.96
374.89	1413.10
375.10	1320.94
375.31	1425.39
375.52	1306.60
375.73	1411.05
375.94	1322.99
376.15	1376.24
376.36	1329.13
376.57	1384.43
376.78	1372.14
376.99	1384.43
377.20	1402.86
377.40	1372.14
377.61	1445.87
377.82	1386.47
378.03	1353.71
378.24	1331.18
378.45	1374.19
378.66	1339.37
378.87	1302.51
379.08	1306.60
379.29	1406.95
379.50	1503.21
379.71	1382.38
379.91	1439.72
380.12	1349.61
380.33	1443.82
380.54	1386.47
380.75	1327.08
380.96	1374.19
381.17	1431.53
381.38	1374.19
381.59	1404.91
381.80	1443.82
382.00	1501.16
382.21	1443.82
382.42	1423.34
382.63	1406.95
382.84	1429.48
383.05	1413.10
383.26	1404.91
383.47	1343.47
383.68	1413.10
383.88	1404.91
384.09	1470.44
384.30	1370.09
384.51	1402.86
384.72	1406.95
384.93	1363.95
385.14	1390.57
385.35	1435.63
385.55	1380.33
385.76	1378.28
385.97	1425.39
386.18	1368.04
386.39	1398.76
386.60	1359.85
386.81	1388.52
387.02	1435.63
387.22	1429.48
387.43	1488.87
387.64	1597.42
387.85	2265.05
388.06	5756.84
388.27	9406.32
388.48	11607.89
388.68	12986.17
388.89	13498.16
389.10	10706.78
389.31	9078.65
389.52	8218.50
389.73	7440.27
389.93	6997.91
390.14	6582.17
390.35	6049.70
390.56	5640.11
390.77	4614.07
390.98	3758.02
391.18	2783.19
391.39	2226.14
391.60	1685.48
391.81	1656.81
392.02	1470.44
392.23	1509.35
392.43	1409.00
392.64	1433.58
392.85	1361.90
393.06	1396.71
393.27	1357.80
393.47	1366.00
393.68	1339.37
393.89	1464.30
394.10	1372.14
394.31	1368.04
394.52	1359.85
394.72	1384.43
394.93	1458.15
395.14	1312.75
395.35	1345.52
395.56	1335.28
395.76	1503.21
395.97	1511.40
396.18	1605.61
396.39	1523.69
396.60	1611.75
396.80	1562.60
397.01	1474.54
397.22	1470.44
397.43	1558.50
397.64	1398.76
397.84	1445.87
398.05	1495.02
398.26	1396.71
398.47	1431.53
398.67	1466.35
398.88	1398.76
399.09	1449.96
399.30	1386.47
399.51	1409.00
399.71	1335.28
399.92	1372.14
400.13	1411.05
400.34	1351.66
400.54	1437.67
400.75	1439.72
400.96	1462.25
401.17	1351.66
401.37	1480.68
401.58	1441.77
401.79	1607.66
402.00	1689.57
402.21	1810.40
402.41	1777.64
402.62	1855.46
402.83	1701.86
403.04	1665.00
403.24	1740.77
403.45	1589.22
403.66	1583.08
403.87	1523.69
404.07	1566.70
404.28	1638.38
404.49	1513.45
404.70	1540.07
404.90	1460.20
405.11	1474.54
405.32	1402.86
405.52	1409.00
405.73	1353.71
405.94	1308.65
406.15	1396.71
406.35	1388.52
406.56	1488.87
406.77	1349.61
406.98	1359.85
407.18	1243.12
407.39	1347.56
407.60	1333.23
407.80	1413.10
408.01	1343.47
408.22	1329.13
408.43	1286.12
408.63	1351.66
408.84	1378.28
409.05	1406.95
409.25	1343.47
409.46	1349.61
409.67	1318.89
409.88	1390.57
410.08	1353.71
410.29	1314.80
410.50	1380.33
410.70	1419.24
410.91	1271.79
411.12	1368.04
411.32	1331.18
411.53	1478.63
411.74	1495.02
411.95	1478.63
412.15	1456.11
412.36	1454.06
412.57	1357.80
412.77	1464.30
412.98	1388.52
413.19	1357.80
413.39	1374.19
413.60	1460.20
413.81	1454.06
414.01	1435.63
414.22	1460.20
414.43	1402.86
414.63	1376.24
414.84	1384.43
415.05	1441.77
415.25	1341.42
415.46	1402.86
415.67	1357.80
415.87	1378.28
416.08	1370.09
416.29	1435.63
416.49	1335.28
416.70	1392.62
416.91	1263.60
417.11	1335.28
417.32	1353.71
417.53	1388.52
417.73	1368.04
417.94	1343.47
418.15	1298.41
418.35	1374.19
418.56	1370.09
418.77	1511.40
418.97	1366.00
419.18	1357.80
419.38	1327.08
419.59	1384.43
419.80	1398.76
420.00	1355.76
420.21	1331.18
420.42	1398.76
420.62	1423.34
420.83	1359.85
421.04	1273.84
421.24	1368.04
421.45	1441.77
421.65	1429.48
421.86	1384.43
422.07	1361.90
422.27	1411.05
422.48	1384.43
422.69	1353.71
422.89	1413.10
423.10	1265.64
423.30	1374.19
423.51	1372.14
423.72	1351.66
423.92	1370.09
424.13	1257.45
424.33	1337.32
424.54	1357.80
424.75	1404.91
424.95	1431.53
425.16	1476.59
425.36	1290.22
425.57	1474.54
425.78	1419.24
425.98	1398.76
426.19	1335.28
426.39	1296.36
426.60	1386.47
426.81	1482.73
427.01	1417.19
427.22	1316.84
427.42	1376.24
427.63	1372.14
427.83	1472.49
428.04	1398.76
428.25	1390.57
428.45	1458.15
428.66	1390.57
428.86	1318.89
429.07	1449.96
429.28	1341.42
429.48	1345.52
429.69	1419.24
429.89	1386.47
430.10	1320.94
430.30	1380.33
430.51	1476.59
430.71	1314.80
430.92	1404.91
431.13	1312.75
431.33	1320.94
431.54	1372.14
431.74	1482.73
431.95	1443.82
432.15	1351.66
432.36	1413.10
432.56	1495.02
432.77	1423.34
432.98	1452.01
433.18	1398.76
433.39	1322.99
433.59	1343.47
433.80	1357.80
434.00	1454.06
434.21	1312.75
434.41	1239.02
434.62	1429.48
434.82	1341.42
435.03	1306.60
435.23	1417.19
435.44	1304.56
435.64	1370.09
435.85	1425.39
436.06	1349.61
436.26	1390.57
436.47	1409.00
436.67	1402.86
436.88	1349.61
437.08	1437.67
437.29	1429.48
437.49	1355.76
437.70	1411.05
437.90	1368.04
438.11	1544.17
438.31	1554.41
438.52	1607.66
438.72	1497.07
438.93	1540.07
439.13	1503.21
439.34	1458.15
439.54	1431.53
439.75	1525.74
439.95	1427.43
440.16	1435.63
440.36	1419.24
440.57	1427.43
440.77	1419.24
440.98	1388.52
441.18	1456.11
441.39	1368.04
441.59	1351.66
441.80	1472.49
442.00	1394.67
442.21	1398.76
442.41	1322.99
442.62	1384.43
442.82	1441.77
443.02	1374.19
443.23	1398.76
443.43	1409.00
443.64	1468.39
443.84	1343.47
444.05	1425.39
444.25	1404.91
444.46	1378.28
444.66	1331.18
444.87	1388.52
445.07	1322.99
445.28	1470.44
445.48	1417.19
445.69	1425.39
445.89	1515.50
446.09	1521.64
446.30	2185.18
446.50	3618.76
446.71	4704.18
446.91	5365.68
447.12	5500.84
447.32	4988.85
447.53	4214.72
447.73	3796.93
447.93	3407.82
448.14	3217.36
448.34	2973.65
448.55	2742.23
448.75	2811.86
448.96	2650.07
449.16	2426.84
449.36	2195.42
449.57	1988.58
449.77	1779.68
449.98	1531.88
450.18	1484.78
450.39	1425.39
450.59	1363.95
450.79	1480.68
451.00	1351.66
451.20	1468.39
451.41	1423.34
451.61	1357.80
451.81	1355.76
452.02	1376.24
452.22	1378.28
452.43	1355.76
452.63	1337.32
