SpectraSuite Data File
++++++++++++++++++++++++++++++++++++
Date: Tue May 03 11:24:48 CEST 2016
User: root
Dark Spectrum Present: No
Reference Spectrum Present: No
Number of Sampled Component Spectra: 1
Spectrometers: USB4C02835
Integration Time (usec): 100000 (USB4C02835)
Spectra Averaged: 1 (USB4C02835)
Boxcar Smoothing: 0 (USB4C02835)
Correct for Electrical Dark: No (USB4C02835)
Strobe/Lamp Enabled: No (USB4C02835)
Correct for Detector Non-linearity: No (USB4C02835)
Correct for Stray Light: No (USB4C02835)
Number of Pixels in Processed Spectrum: 3648
>>>>>Begin Processed Spectral Data<<<<<
177.47	1214.45
177.69	1214.45
177.91	1214.45
178.13	1177.58
178.36	1155.05
178.58	1339.37
178.80	1386.47
179.02	1327.08
179.24	1359.85
179.46	1411.05
179.68	1443.82
179.90	1357.80
180.13	1335.28
180.35	1333.23
180.57	1411.05
180.79	1404.91
181.01	1376.24
181.23	1431.53
181.45	1339.37
181.67	1366.00
181.90	1368.04
182.12	1380.33
182.34	1277.93
182.56	1386.47
182.78	1445.87
183.00	1374.19
183.22	1413.10
183.44	1275.88
183.66	1398.76
183.89	1345.52
184.11	1312.75
184.33	1384.43
184.55	1400.81
184.77	1363.95
184.99	1314.80
185.21	1378.28
185.43	1435.63
185.65	1310.70
185.87	1363.95
186.10	1419.24
186.32	1511.40
186.54	1335.28
186.76	1384.43
186.98	1351.66
187.20	1351.66
187.42	1310.70
187.64	1374.19
187.86	1394.67
188.08	1363.95
188.30	1294.32
188.52	1372.14
188.75	1441.77
188.97	1406.95
189.19	1415.15
189.41	1337.32
189.63	1368.04
189.85	1277.93
190.07	1331.18
190.29	1349.61
190.51	1398.76
190.73	1357.80
190.95	1378.28
191.17	1398.76
191.39	1284.08
191.61	1279.98
191.84	1355.76
192.06	1433.58
192.28	1253.36
192.50	1466.35
192.72	1386.47
192.94	1417.19
193.16	1441.77
193.38	1411.05
193.60	1355.76
193.82	1322.99
194.04	1417.19
194.26	1415.15
194.48	1425.39
194.70	1366.00
194.92	1243.12
195.14	1390.57
195.36	1288.17
195.58	1331.18
195.80	1347.56
196.02	1335.28
196.24	1368.04
196.46	1443.82
196.69	1292.27
196.91	1441.77
197.13	1409.00
197.35	1300.46
197.57	1370.09
197.79	1382.38
198.01	1396.71
198.23	1370.09
198.45	1386.47
198.67	1386.47
198.89	1427.43
199.11	1339.37
199.33	1298.41
199.55	1253.36
199.77	1374.19
199.99	1437.67
200.21	1312.75
200.43	1384.43
200.65	1310.70
200.87	1316.84
201.09	1421.29
201.31	1337.32
201.53	1363.95
201.75	1386.47
201.97	1423.34
202.19	1366.00
202.41	1402.86
202.63	1431.53
202.85	1345.52
203.07	1341.42
203.29	1306.60
203.51	1363.95
203.73	1396.71
203.95	1517.54
204.17	1433.58
204.39	1417.19
204.61	1374.19
204.83	1341.42
205.05	1427.43
205.27	1431.53
205.49	1449.96
205.71	1359.85
205.93	1306.60
206.15	1345.52
206.37	1372.14
206.59	1443.82
206.81	1327.08
207.03	1351.66
207.25	1355.76
207.47	1441.77
207.69	1327.08
207.91	1345.52
208.13	1417.19
208.34	1335.28
208.56	1343.47
208.78	1421.29
209.00	1406.95
209.22	1374.19
209.44	1378.28
209.66	1388.52
209.88	1366.00
210.10	1417.19
210.32	1425.39
210.54	1398.76
210.76	1439.72
210.98	1458.15
211.20	1312.75
211.42	1443.82
211.64	1376.24
211.86	1415.15
212.08	1409.00
212.30	1419.24
212.52	1392.62
212.74	1402.86
212.96	1390.57
213.17	1413.10
213.39	1423.34
213.61	1322.99
213.83	1413.10
214.05	1374.19
214.27	1357.80
214.49	1300.46
214.71	1359.85
214.93	1413.10
215.15	1349.61
215.37	1380.33
215.59	1298.41
215.81	1409.00
216.03	1384.43
216.24	1366.00
216.46	1368.04
216.68	1429.48
216.90	1388.52
217.12	1425.39
217.34	1368.04
217.56	1363.95
217.78	1372.14
218.00	1427.43
218.22	1400.81
218.44	1308.65
218.66	1419.24
218.87	1443.82
219.09	1363.95
219.31	1368.04
219.53	1374.19
219.75	1318.89
219.97	1445.87
220.19	1366.00
220.41	1359.85
220.63	1404.91
220.85	1398.76
221.06	1437.67
221.28	1413.10
221.50	1386.47
221.72	1406.95
221.94	1347.56
222.16	1347.56
222.38	1402.86
222.60	1361.90
222.82	1357.80
223.03	1329.13
223.25	1325.04
223.47	1368.04
223.69	1492.97
223.91	1402.86
224.13	1421.29
224.35	1372.14
224.57	1431.53
224.78	1376.24
225.00	1345.52
225.22	1452.01
225.44	1396.71
225.66	1402.86
225.88	1339.37
226.10	1454.06
226.32	1355.76
226.53	1382.38
226.75	1423.34
226.97	1396.71
227.19	1347.56
227.41	1406.95
227.63	1406.95
227.85	1300.46
228.06	1298.41
228.28	1337.32
228.50	1447.91
228.72	1337.32
228.94	1411.05
229.16	1298.41
229.37	1339.37
229.59	1363.95
229.81	1341.42
230.03	1366.00
230.25	1275.88
230.47	1372.14
230.69	1306.60
230.90	1351.66
231.12	1288.17
231.34	1372.14
231.56	1423.34
231.78	1275.88
232.00	1439.72
232.21	1413.10
232.43	1376.24
232.65	1359.85
232.87	1380.33
233.09	1370.09
233.30	1394.67
233.52	1419.24
233.74	1388.52
233.96	1351.66
234.18	1384.43
234.40	1404.91
234.61	1394.67
234.83	1347.56
235.05	1335.28
235.27	1501.16
235.49	1447.91
235.70	1380.33
235.92	1470.44
236.14	1388.52
236.36	1449.96
236.58	1335.28
236.79	1478.63
237.01	1347.56
237.23	1349.61
237.45	1478.63
237.67	1337.32
237.88	1345.52
238.10	1427.43
238.32	1341.42
238.54	1396.71
238.76	1353.71
238.97	1376.24
239.19	1366.00
239.41	1466.35
239.63	1349.61
239.85	1372.14
240.06	1318.89
240.28	1404.91
240.50	1439.72
240.72	1286.12
240.93	1355.76
241.15	1468.39
241.37	1452.01
241.59	1372.14
241.81	1413.10
242.02	1312.75
242.24	1417.19
242.46	1355.76
242.68	1413.10
242.89	1402.86
243.11	1433.58
243.33	1345.52
243.55	1370.09
243.76	1363.95
243.98	1312.75
244.20	1431.53
244.42	1347.56
244.64	1402.86
244.85	1304.56
245.07	1341.42
245.29	1357.80
245.51	1310.70
245.72	1361.90
245.94	1378.28
246.16	1384.43
246.38	1400.81
246.59	1361.90
246.81	1368.04
247.03	1382.38
247.24	1234.93
247.46	1394.67
247.68	1386.47
247.90	1337.32
248.11	1363.95
248.33	1404.91
248.55	1390.57
248.77	1378.28
248.98	1421.29
249.20	1474.54
249.42	1443.82
249.64	1415.15
249.85	1386.47
250.07	1343.47
250.29	1460.20
250.50	1384.43
250.72	1271.79
250.94	1372.14
251.16	1423.34
251.37	1419.24
251.59	1355.76
251.81	1374.19
252.02	1353.71
252.24	1314.80
252.46	1411.05
252.68	1343.47
252.89	1277.93
253.11	1394.67
253.33	1474.54
253.54	1423.34
253.76	1357.80
253.98	1333.23
254.20	1335.28
254.41	1208.30
254.63	1343.47
254.85	1236.97
255.06	1284.08
255.28	1345.52
255.50	1286.12
255.71	1322.99
255.93	1386.47
256.15	1322.99
256.36	1361.90
256.58	1329.13
256.80	1392.62
257.02	1359.85
257.23	1396.71
257.45	1363.95
257.67	1380.33
257.88	1378.28
258.10	1423.34
258.32	1429.48
258.53	1351.66
258.75	1384.43
258.97	1308.65
259.18	1302.51
259.40	1366.00
259.62	1378.28
259.83	1347.56
260.05	1363.95
260.27	1544.17
260.48	1388.52
260.70	1327.08
260.92	1351.66
261.13	1361.90
261.35	1339.37
261.57	1378.28
261.78	1257.45
262.00	1329.13
262.22	1392.62
262.43	1304.56
262.65	1325.04
262.86	1374.19
263.08	1413.10
263.30	1359.85
263.51	1296.36
263.73	1421.29
263.95	1472.49
264.16	1327.08
264.38	1335.28
264.60	1437.67
264.81	1310.70
265.03	1359.85
265.25	1363.95
265.46	1398.76
265.68	1390.57
265.89	1363.95
266.11	1271.79
266.33	1441.77
266.54	1316.84
266.76	1372.14
266.98	1288.17
267.19	1544.17
267.41	1415.15
267.62	1335.28
267.84	1290.22
268.06	1378.28
268.27	1318.89
268.49	1411.05
268.70	1400.81
268.92	1306.60
269.14	1376.24
269.35	1368.04
269.57	1343.47
269.79	1388.52
270.00	1370.09
270.22	1402.86
270.43	1298.41
270.65	1282.03
270.87	1404.91
271.08	1396.71
271.30	1306.60
271.51	1372.14
271.73	1370.09
271.95	1415.15
272.16	1394.67
272.38	1423.34
272.59	1380.33
272.81	1376.24
273.02	1363.95
273.24	1374.19
273.46	1417.19
273.67	1322.99
273.89	1384.43
274.10	1331.18
274.32	1501.16
274.54	1419.24
274.75	1376.24
274.97	1345.52
275.18	1402.86
275.40	1370.09
275.61	1413.10
275.83	1443.82
276.05	1296.36
276.26	1322.99
276.48	1400.81
276.69	1363.95
276.91	1325.04
277.12	1468.39
277.34	1363.95
277.55	1449.96
277.77	1337.32
277.99	1351.66
278.20	1312.75
278.42	1312.75
278.63	1366.00
278.85	1341.42
279.06	1421.29
279.28	1384.43
279.49	1366.00
279.71	1394.67
279.93	1378.28
280.14	1394.67
280.36	1390.57
280.57	1437.67
280.79	1466.35
281.00	1296.36
281.22	1415.15
281.43	1353.71
281.65	1331.18
281.86	1335.28
282.08	1380.33
282.29	1386.47
282.51	1347.56
282.73	1361.90
282.94	1259.50
283.16	1384.43
283.37	1402.86
283.59	1417.19
283.80	1347.56
284.02	1372.14
284.23	1353.71
284.45	1322.99
284.66	1384.43
284.88	1421.29
285.09	1355.76
285.31	1441.77
285.52	1400.81
285.74	1341.42
285.95	1411.05
286.17	1411.05
286.38	1355.76
286.60	1325.04
286.81	1341.42
287.03	1390.57
287.24	1400.81
287.46	1378.28
287.67	1374.19
287.89	1402.86
288.10	1388.52
288.32	1394.67
288.53	1433.58
288.75	1366.00
288.96	1396.71
289.18	1314.80
289.39	1404.91
289.61	1372.14
289.82	1409.00
290.04	1454.06
290.25	1325.04
290.47	1359.85
290.68	1380.33
290.90	1392.62
291.11	1398.76
291.33	1427.43
291.54	1347.56
291.76	1427.43
291.97	1388.52
292.18	1404.91
292.40	1351.66
292.61	1355.76
292.83	1460.20
293.04	1394.67
293.26	1329.13
293.47	1294.32
293.69	1312.75
293.90	1384.43
294.12	1417.19
294.33	1359.85
294.55	1386.47
294.76	1394.67
294.97	1413.10
295.19	1400.81
295.40	1380.33
295.62	1386.47
295.83	1435.63
296.05	1347.56
296.26	1460.20
296.48	1419.24
296.69	1376.24
296.90	1378.28
297.12	1361.90
297.33	1404.91
297.55	1376.24
297.76	1429.48
297.98	1355.76
298.19	1384.43
298.41	1304.56
298.62	1415.15
298.83	1384.43
299.05	1343.47
299.26	1275.88
299.48	1341.42
299.69	1411.05
299.90	1378.28
300.12	1271.79
300.33	1345.52
300.55	1290.22
300.76	1382.38
300.98	1339.37
301.19	1406.95
301.40	1392.62
301.62	1351.66
301.83	1308.65
302.05	1271.79
302.26	1400.81
302.47	1361.90
302.69	1312.75
302.90	1269.74
303.12	1302.51
303.33	1456.11
303.54	1439.72
303.76	1347.56
303.97	1413.10
304.19	1447.91
304.40	1267.69
304.61	1304.56
304.83	1443.82
305.04	1382.38
305.26	1372.14
305.47	1376.24
305.68	1298.41
305.90	1341.42
306.11	1384.43
306.33	1347.56
306.54	1279.98
306.75	1347.56
306.97	1327.08
307.18	1302.51
307.39	1351.66
307.61	1386.47
307.82	1349.61
308.04	1439.72
308.25	1351.66
308.46	1400.81
308.68	1345.52
308.89	1417.19
309.10	1363.95
309.32	1366.00
309.53	1343.47
309.74	1329.13
309.96	1343.47
310.17	1486.83
310.39	1294.32
310.60	1425.39
310.81	1382.38
311.03	1335.28
311.24	1486.83
311.45	1376.24
311.67	1404.91
311.88	1396.71
312.09	1347.56
312.31	1347.56
312.52	1443.82
312.73	1409.00
312.95	1310.70
313.16	1288.17
313.37	1464.30
313.59	1372.14
313.80	1419.24
314.01	1433.58
314.23	1312.75
314.44	1390.57
314.65	1427.43
314.87	1322.99
315.08	1361.90
315.29	1361.90
315.51	1304.56
315.72	1331.18
315.93	1458.15
316.15	1380.33
316.36	1363.95
316.57	1265.64
316.79	1372.14
317.00	1310.70
317.21	1370.09
317.43	1353.71
317.64	1355.76
317.85	1445.87
318.07	1478.63
318.28	1439.72
318.49	1562.60
318.70	1628.14
318.92	1554.41
319.13	1458.15
319.34	1533.93
319.56	1490.92
319.77	1476.59
319.98	1468.39
320.20	1523.69
320.41	1427.43
320.62	1452.01
320.83	1347.56
321.05	1472.49
321.26	1370.09
321.47	1452.01
321.69	1435.63
321.90	1320.94
322.11	1290.22
322.32	1351.66
322.54	1439.72
322.75	1396.71
322.96	1419.24
323.18	1251.31
323.39	1355.76
323.60	1359.85
323.81	1363.95
324.03	1345.52
324.24	1333.23
324.45	1349.61
324.66	1361.90
324.88	1449.96
325.09	1476.59
325.30	1363.95
325.52	1347.56
325.73	1417.19
325.94	1359.85
326.15	1361.90
326.37	1294.32
326.58	1443.82
326.79	1490.92
327.00	1302.51
327.22	1409.00
327.43	1335.28
327.64	1351.66
327.85	1345.52
328.07	1361.90
328.28	1396.71
328.49	1361.90
328.70	1304.56
328.92	1392.62
329.13	1351.66
329.34	1411.05
329.55	1462.25
329.76	1347.56
329.98	1394.67
330.19	1339.37
330.40	1394.67
330.61	1429.48
330.83	1366.00
331.04	1327.08
331.25	1413.10
331.46	1279.98
331.68	1314.80
331.89	1419.24
332.10	1337.32
332.31	1378.28
332.52	1343.47
332.74	1409.00
332.95	1345.52
333.16	1378.28
333.37	1374.19
333.58	1429.48
333.80	1415.15
334.01	1253.36
334.22	1337.32
334.43	1310.70
334.64	1363.95
334.86	1339.37
335.07	1337.32
335.28	1462.25
335.49	1347.56
335.70	1335.28
335.92	1392.62
336.13	1443.82
336.34	1376.24
336.55	1380.33
336.76	1386.47
336.98	1388.52
337.19	1363.95
337.40	1372.14
337.61	1441.77
337.82	1370.09
338.04	1384.43
338.25	1294.32
338.46	1429.48
338.67	1343.47
338.88	1363.95
339.09	1413.10
339.31	1370.09
339.52	1347.56
339.73	1351.66
339.94	1343.47
340.15	1370.09
340.36	1396.71
340.58	1314.80
340.79	1335.28
341.00	1304.56
341.21	1380.33
341.42	1460.20
341.63	1333.23
341.85	1368.04
342.06	1386.47
342.27	1390.57
342.48	1394.67
342.69	1224.69
342.90	1372.14
343.12	1390.57
343.33	1347.56
343.54	1396.71
343.75	1394.67
343.96	1304.56
344.17	1300.46
344.38	1363.95
344.60	1398.76
344.81	1294.32
345.02	1394.67
345.23	1396.71
345.44	1521.64
345.65	1437.67
345.86	1460.20
346.07	1378.28
346.29	1380.33
346.50	1370.09
346.71	1445.87
346.92	1361.90
347.13	1517.54
347.34	1331.18
347.55	1394.67
347.76	1374.19
347.98	1312.75
348.19	1361.90
348.40	1384.43
348.61	1347.56
348.82	1390.57
349.03	1368.04
349.24	1353.71
349.45	1454.06
349.66	1300.46
349.88	1335.28
350.09	1413.10
350.30	1445.87
350.51	1359.85
350.72	1423.34
350.93	1370.09
351.14	1329.13
351.35	1423.34
351.56	1347.56
351.77	1347.56
351.99	1355.76
352.20	1456.11
352.41	1370.09
352.62	1347.56
352.83	1421.29
353.04	1390.57
353.25	1388.52
353.46	1429.48
353.67	1322.99
353.88	1271.79
354.09	1361.90
354.30	1374.19
354.52	1361.90
354.73	1429.48
354.94	1341.42
355.15	1320.94
355.36	1439.72
355.57	1445.87
355.78	1384.43
355.99	1310.70
356.20	1419.24
356.41	1404.91
356.62	1419.24
356.83	1343.47
357.04	1515.50
357.25	1282.03
357.46	1423.34
357.68	1277.93
357.89	1343.47
358.10	1384.43
358.31	1372.14
358.52	1400.81
358.73	1353.71
358.94	1288.17
359.15	1384.43
359.36	1423.34
359.57	1339.37
359.78	1355.76
359.99	1392.62
360.20	1372.14
360.41	1388.52
360.62	1402.86
360.83	1437.67
361.04	1386.47
361.25	1398.76
361.46	1456.11
361.67	1366.00
361.88	1347.56
362.09	1370.09
362.30	1380.33
362.51	1349.61
362.72	1376.24
362.93	1347.56
363.14	1433.58
363.35	1394.67
363.56	1347.56
363.78	1378.28
363.99	1415.15
364.20	1306.60
364.41	1394.67
364.62	1413.10
364.83	1370.09
365.04	1415.15
365.25	1322.99
365.46	1505.26
365.67	1304.56
365.88	1378.28
366.09	1310.70
366.30	1292.27
366.51	1314.80
366.72	1402.86
366.93	1398.76
367.14	1484.78
367.35	1396.71
367.56	1349.61
367.77	1439.72
367.98	1316.84
368.18	1423.34
368.39	1366.00
368.60	1318.89
368.81	1425.39
369.02	1308.65
369.23	1392.62
369.44	1320.94
369.65	1347.56
369.86	1445.87
370.07	1337.32
370.28	1359.85
370.49	1425.39
370.70	1517.54
370.91	1374.19
371.12	1320.94
371.33	1374.19
371.54	1413.10
371.75	1394.67
371.96	1265.64
372.17	1388.52
372.38	1392.62
372.59	1402.86
372.80	1376.24
373.01	1433.58
373.22	1347.56
373.43	1357.80
373.64	1333.23
373.85	1310.70
374.06	1488.87
374.26	1386.47
374.47	1392.62
374.68	1421.29
374.89	1349.61
375.10	1361.90
375.31	1390.57
375.52	1441.77
375.73	1449.96
375.94	1345.52
376.15	1445.87
376.36	1318.89
376.57	1314.80
376.78	1419.24
376.99	1355.76
377.20	1339.37
377.40	1382.38
377.61	1435.63
377.82	1402.86
378.03	1380.33
378.24	1386.47
378.45	1402.86
378.66	1363.95
378.87	1314.80
379.08	1327.08
379.29	1421.29
379.50	1345.52
379.71	1380.33
379.91	1402.86
380.12	1312.75
380.33	1411.05
380.54	1353.71
380.75	1361.90
380.96	1394.67
381.17	1464.30
381.38	1380.33
381.59	1427.43
381.80	1411.05
382.00	1452.01
382.21	1404.91
382.42	1449.96
382.63	1517.54
382.84	1376.24
383.05	1433.58
383.26	1454.06
383.47	1380.33
383.68	1368.04
383.88	1474.54
384.09	1400.81
384.30	1486.83
384.51	1368.04
384.72	1374.19
384.93	1372.14
385.14	1368.04
385.35	1470.44
385.55	1382.38
385.76	1441.77
385.97	1441.77
386.18	1388.52
386.39	1380.33
386.60	1357.80
386.81	1406.95
387.02	1452.01
387.22	1388.52
387.43	1495.02
387.64	1513.45
387.85	2246.62
388.06	5738.41
388.27	9490.29
388.48	11401.04
388.68	13160.25
388.89	13436.72
389.10	10583.90
389.31	9258.87
389.52	8179.59
389.73	7321.49
389.93	7016.34
390.14	6500.25
390.35	6197.15
390.56	5531.56
390.77	4497.34
390.98	3475.40
391.18	2951.12
391.39	2107.36
391.60	1699.81
391.81	1562.60
392.02	1431.53
392.23	1488.87
392.43	1329.13
392.64	1402.86
392.85	1363.95
393.06	1374.19
393.27	1353.71
393.47	1400.81
393.68	1443.82
393.89	1304.56
394.10	1411.05
394.31	1355.76
394.52	1361.90
394.72	1347.56
394.93	1427.43
395.14	1343.47
395.35	1431.53
395.56	1396.71
395.76	1519.59
395.97	1587.18
396.18	1615.85
396.39	1558.50
396.60	1695.72
396.80	1497.07
397.01	1466.35
397.22	1593.32
397.43	1435.63
397.64	1482.73
397.84	1517.54
398.05	1476.59
398.26	1501.16
398.47	1466.35
398.67	1456.11
398.88	1474.54
399.09	1347.56
399.30	1314.80
399.51	1374.19
399.71	1290.22
399.92	1329.13
400.13	1452.01
400.34	1396.71
400.54	1314.80
400.75	1411.05
400.96	1390.57
401.17	1359.85
401.37	1425.39
401.58	1384.43
401.79	1585.13
402.00	1675.24
402.21	1732.58
402.41	1785.83
402.62	1785.83
402.83	1744.87
403.04	1675.24
403.24	1722.34
403.45	1599.46
403.66	1576.94
403.87	1503.21
404.07	1619.94
404.28	1566.70
404.49	1540.07
404.70	1476.59
404.90	1406.95
405.11	1447.91
405.32	1368.04
405.52	1374.19
405.73	1322.99
405.94	1277.93
406.15	1425.39
406.35	1382.38
406.56	1361.90
406.77	1396.71
406.98	1345.52
407.18	1347.56
407.39	1417.19
407.60	1400.81
407.80	1378.28
408.01	1404.91
408.22	1406.95
408.43	1316.84
408.63	1363.95
408.84	1406.95
409.05	1411.05
409.25	1400.81
409.46	1325.04
409.67	1363.95
409.88	1329.13
410.08	1363.95
410.29	1396.71
410.50	1355.76
410.70	1462.25
410.91	1363.95
411.12	1363.95
411.32	1370.09
411.53	1449.96
411.74	1404.91
411.95	1466.35
412.15	1492.97
412.36	1492.97
412.57	1335.28
412.77	1484.78
412.98	1445.87
413.19	1368.04
413.39	1425.39
413.60	1468.39
413.81	1404.91
414.01	1394.67
414.22	1382.38
414.43	1402.86
414.63	1380.33
414.84	1357.80
415.05	1347.56
415.25	1370.09
415.46	1402.86
415.67	1339.37
415.87	1482.73
416.08	1411.05
416.29	1345.52
416.49	1482.73
416.70	1402.86
416.91	1413.10
417.11	1390.57
417.32	1392.62
417.53	1472.49
417.73	1312.75
417.94	1368.04
418.15	1394.67
418.35	1363.95
418.56	1355.76
418.77	1466.35
418.97	1335.28
419.18	1388.52
419.38	1296.36
419.59	1390.57
419.80	1435.63
420.00	1376.24
420.21	1347.56
420.42	1449.96
420.62	1411.05
420.83	1341.42
421.04	1353.71
421.24	1351.66
421.45	1417.19
421.65	1378.28
421.86	1376.24
422.07	1370.09
422.27	1325.04
422.48	1445.87
422.69	1263.60
422.89	1357.80
423.10	1337.32
423.30	1380.33
423.51	1443.82
423.72	1355.76
423.92	1378.28
424.13	1331.18
424.33	1331.18
424.54	1361.90
424.75	1400.81
424.95	1427.43
425.16	1423.34
425.36	1341.42
425.57	1380.33
425.78	1386.47
425.98	1452.01
426.19	1409.00
426.39	1298.41
426.60	1376.24
426.81	1443.82
427.01	1322.99
427.22	1337.32
427.42	1458.15
427.63	1380.33
427.83	1368.04
428.04	1431.53
428.25	1374.19
428.45	1404.91
428.66	1402.86
428.86	1347.56
429.07	1396.71
429.28	1394.67
429.48	1394.67
429.69	1380.33
429.89	1400.81
430.10	1331.18
430.30	1384.43
430.51	1384.43
430.71	1316.84
430.92	1411.05
431.13	1359.85
431.33	1331.18
431.54	1359.85
431.74	1482.73
431.95	1456.11
432.15	1357.80
432.36	1390.57
432.56	1320.94
432.77	1468.39
432.98	1468.39
433.18	1318.89
433.39	1372.14
433.59	1355.76
433.80	1363.95
434.00	1470.44
434.21	1404.91
434.41	1269.74
434.62	1406.95
434.82	1298.41
435.03	1312.75
435.23	1359.85
435.44	1347.56
435.64	1378.28
435.85	1353.71
436.06	1359.85
436.26	1429.48
436.47	1357.80
436.67	1353.71
436.88	1318.89
437.08	1443.82
437.29	1431.53
437.49	1421.29
437.70	1437.67
437.90	1449.96
438.11	1531.88
438.31	1423.34
438.52	1546.22
438.72	1570.79
438.93	1554.41
439.13	1486.83
439.34	1572.84
439.54	1394.67
439.75	1390.57
439.95	1523.69
440.16	1409.00
440.36	1482.73
440.57	1374.19
440.77	1470.44
440.98	1421.29
441.18	1404.91
441.39	1417.19
441.59	1361.90
441.80	1454.06
442.00	1337.32
442.21	1441.77
442.41	1363.95
442.62	1409.00
442.82	1304.56
443.02	1370.09
443.23	1370.09
443.43	1359.85
443.64	1394.67
443.84	1413.10
444.05	1509.35
444.25	1368.04
444.46	1343.47
444.66	1456.11
444.87	1445.87
445.07	1347.56
445.28	1357.80
445.48	1476.59
445.69	1419.24
445.89	1503.21
446.09	1517.54
446.30	2295.77
446.50	3682.25
446.71	4702.14
446.91	5418.93
447.12	5388.21
447.32	5078.96
447.53	4298.69
447.73	3739.59
447.93	3540.94
448.14	3239.89
448.34	3051.47
448.55	2838.48
448.75	2809.81
448.96	2666.46
449.16	2408.41
449.36	2207.71
449.57	1949.67
449.77	1677.29
449.98	1554.41
450.18	1480.68
450.39	1503.21
450.59	1402.86
450.79	1404.91
451.00	1376.24
451.20	1392.62
451.41	1433.58
451.61	1398.76
451.81	1374.19
452.02	1302.51
452.22	1402.86
452.43	1294.32
452.63	1402.86
