SpectraSuite Data File
++++++++++++++++++++++++++++++++++++
Date: Tue May 03 11:24:54 CEST 2016
User: root
Dark Spectrum Present: No
Reference Spectrum Present: No
Number of Sampled Component Spectra: 1
Spectrometers: USB4C02835
Integration Time (usec): 100000 (USB4C02835)
Spectra Averaged: 1 (USB4C02835)
Boxcar Smoothing: 0 (USB4C02835)
Correct for Electrical Dark: No (USB4C02835)
Strobe/Lamp Enabled: No (USB4C02835)
Correct for Detector Non-linearity: No (USB4C02835)
Correct for Stray Light: No (USB4C02835)
Number of Pixels in Processed Spectrum: 3648
>>>>>Begin Processed Spectral Data<<<<<
177.47	1189.87
177.69	1189.87
177.91	1189.87
178.13	1224.69
178.36	1222.64
178.58	1353.71
178.80	1409.00
179.02	1320.94
179.24	1359.85
179.46	1370.09
179.68	1437.67
179.90	1349.61
180.13	1339.37
180.35	1374.19
180.57	1376.24
180.79	1384.43
181.01	1413.10
181.23	1478.63
181.45	1470.44
181.67	1368.04
181.90	1314.80
182.12	1318.89
182.34	1359.85
182.56	1398.76
182.78	1402.86
183.00	1374.19
183.22	1454.06
183.44	1257.45
183.66	1484.78
183.89	1439.72
184.11	1429.48
184.33	1353.71
184.55	1357.80
184.77	1472.49
184.99	1353.71
185.21	1394.67
185.43	1482.73
185.65	1359.85
185.87	1427.43
186.10	1431.53
186.32	1423.34
186.54	1361.90
186.76	1380.33
186.98	1411.05
187.20	1404.91
187.42	1359.85
187.64	1406.95
187.86	1363.95
188.08	1353.71
188.30	1294.32
188.52	1380.33
188.75	1421.29
188.97	1376.24
189.19	1349.61
189.41	1380.33
189.63	1361.90
189.85	1320.94
190.07	1300.46
190.29	1294.32
190.51	1392.62
190.73	1398.76
190.95	1421.29
191.17	1306.60
191.39	1349.61
191.61	1392.62
191.84	1406.95
192.06	1452.01
192.28	1366.00
192.50	1490.92
192.72	1400.81
192.94	1435.63
193.16	1441.77
193.38	1376.24
193.60	1304.56
193.82	1339.37
194.04	1359.85
194.26	1353.71
194.48	1398.76
194.70	1351.66
194.92	1415.15
195.14	1363.95
195.36	1327.08
195.58	1411.05
195.80	1286.12
196.02	1335.28
196.24	1409.00
196.46	1402.86
196.69	1357.80
196.91	1376.24
197.13	1341.42
197.35	1388.52
197.57	1458.15
197.79	1384.43
198.01	1335.28
198.23	1439.72
198.45	1343.47
198.67	1345.52
198.89	1339.37
199.11	1388.52
199.33	1419.24
199.55	1279.98
199.77	1376.24
199.99	1449.96
200.21	1341.42
200.43	1320.94
200.65	1345.52
200.87	1267.69
201.09	1394.67
201.31	1406.95
201.53	1392.62
201.75	1339.37
201.97	1300.46
202.19	1406.95
202.41	1400.81
202.63	1492.97
202.85	1290.22
203.07	1409.00
203.29	1351.66
203.51	1312.75
203.73	1318.89
203.95	1488.87
204.17	1333.23
204.39	1325.04
204.61	1361.90
204.83	1404.91
205.05	1421.29
205.27	1400.81
205.49	1435.63
205.71	1339.37
205.93	1343.47
206.15	1370.09
206.37	1388.52
206.59	1413.10
206.81	1368.04
207.03	1413.10
207.25	1380.33
207.47	1415.15
207.69	1353.71
207.91	1404.91
208.13	1394.67
208.34	1320.94
208.56	1398.76
208.78	1394.67
209.00	1322.99
209.22	1337.32
209.44	1402.86
209.66	1380.33
209.88	1380.33
210.10	1374.19
210.32	1380.33
210.54	1402.86
210.76	1390.57
210.98	1413.10
211.20	1218.54
211.42	1404.91
211.64	1382.38
211.86	1363.95
212.08	1454.06
212.30	1353.71
212.52	1357.80
212.74	1421.29
212.96	1349.61
213.17	1447.91
213.39	1337.32
213.61	1458.15
213.83	1474.54
214.05	1341.42
214.27	1355.76
214.49	1322.99
214.71	1382.38
214.93	1327.08
215.15	1370.09
215.37	1384.43
215.59	1335.28
215.81	1363.95
216.03	1396.71
216.24	1382.38
216.46	1343.47
216.68	1380.33
216.90	1396.71
217.12	1388.52
217.34	1425.39
217.56	1314.80
217.78	1441.77
218.00	1359.85
218.22	1406.95
218.44	1409.00
218.66	1390.57
218.87	1392.62
219.09	1363.95
219.31	1429.48
219.53	1443.82
219.75	1353.71
219.97	1433.58
220.19	1388.52
220.41	1406.95
220.63	1409.00
220.85	1441.77
221.06	1370.09
221.28	1431.53
221.50	1394.67
221.72	1318.89
221.94	1421.29
222.16	1345.52
222.38	1380.33
222.60	1386.47
222.82	1353.71
223.03	1433.58
223.25	1396.71
223.47	1431.53
223.69	1419.24
223.91	1353.71
224.13	1357.80
224.35	1382.38
224.57	1363.95
224.78	1361.90
225.00	1437.67
225.22	1284.08
225.44	1343.47
225.66	1339.37
225.88	1433.58
226.10	1322.99
226.32	1402.86
226.53	1454.06
226.75	1374.19
226.97	1400.81
227.19	1392.62
227.41	1345.52
227.63	1331.18
227.85	1304.56
228.06	1294.32
228.28	1339.37
228.50	1290.22
228.72	1363.95
228.94	1378.28
229.16	1290.22
229.37	1329.13
229.59	1386.47
229.81	1431.53
230.03	1353.71
230.25	1345.52
230.47	1345.52
230.69	1269.74
230.90	1417.19
231.12	1413.10
231.34	1429.48
231.56	1417.19
231.78	1310.70
232.00	1279.98
232.21	1372.14
232.43	1298.41
232.65	1265.64
232.87	1419.24
233.09	1343.47
233.30	1378.28
233.52	1353.71
233.74	1322.99
233.96	1361.90
234.18	1363.95
234.40	1355.76
234.61	1417.19
234.83	1298.41
235.05	1312.75
235.27	1406.95
235.49	1454.06
235.70	1357.80
235.92	1464.30
236.14	1419.24
236.36	1398.76
236.58	1302.51
236.79	1349.61
237.01	1368.04
237.23	1437.67
237.45	1452.01
237.67	1353.71
237.88	1370.09
238.10	1413.10
238.32	1353.71
238.54	1355.76
238.76	1343.47
238.97	1390.57
239.19	1329.13
239.41	1413.10
239.63	1427.43
239.85	1370.09
240.06	1357.80
240.28	1351.66
240.50	1318.89
240.72	1292.27
240.93	1351.66
241.15	1419.24
241.37	1355.76
241.59	1478.63
241.81	1429.48
242.02	1370.09
242.24	1343.47
242.46	1316.84
242.68	1431.53
242.89	1300.46
243.11	1449.96
243.33	1388.52
243.55	1374.19
243.76	1419.24
243.98	1349.61
244.20	1398.76
244.42	1320.94
244.64	1415.15
244.85	1329.13
245.07	1325.04
245.29	1386.47
245.51	1380.33
245.72	1351.66
245.94	1361.90
246.16	1366.00
246.38	1443.82
246.59	1427.43
246.81	1341.42
247.03	1279.98
247.24	1302.51
247.46	1335.28
247.68	1396.71
247.90	1390.57
248.11	1341.42
248.33	1372.14
248.55	1413.10
248.77	1376.24
248.98	1421.29
249.20	1409.00
249.42	1406.95
249.64	1439.72
249.85	1353.71
250.07	1333.23
250.29	1382.38
250.50	1429.48
250.72	1353.71
250.94	1331.18
251.16	1456.11
251.37	1521.64
251.59	1423.34
251.81	1415.15
252.02	1425.39
252.24	1329.13
252.46	1359.85
252.68	1341.42
252.89	1282.03
253.11	1363.95
253.33	1419.24
253.54	1429.48
253.76	1398.76
253.98	1404.91
254.20	1404.91
254.41	1302.51
254.63	1357.80
254.85	1335.28
255.06	1265.64
255.28	1320.94
255.50	1341.42
255.71	1347.56
255.93	1306.60
256.15	1312.75
256.36	1460.20
256.58	1339.37
256.80	1495.02
257.02	1282.03
257.23	1316.84
257.45	1343.47
257.67	1398.76
257.88	1382.38
258.10	1327.08
258.32	1320.94
258.53	1386.47
258.75	1435.63
258.97	1366.00
259.18	1355.76
259.40	1363.95
259.62	1431.53
259.83	1435.63
260.05	1347.56
260.27	1546.22
260.48	1372.14
260.70	1288.17
260.92	1417.19
261.13	1361.90
261.35	1411.05
261.57	1427.43
261.78	1335.28
262.00	1249.26
262.22	1380.33
262.43	1347.56
262.65	1384.43
262.86	1386.47
263.08	1433.58
263.30	1390.57
263.51	1380.33
263.73	1400.81
263.95	1337.32
264.16	1308.65
264.38	1402.86
264.60	1505.26
264.81	1374.19
265.03	1437.67
265.25	1437.67
265.46	1370.09
265.68	1345.52
265.89	1441.77
266.11	1363.95
266.33	1398.76
266.54	1384.43
266.76	1331.18
266.98	1445.87
267.19	1472.49
267.41	1417.19
267.62	1398.76
267.84	1347.56
268.06	1366.00
268.27	1413.10
268.49	1396.71
268.70	1411.05
268.92	1417.19
269.14	1349.61
269.35	1359.85
269.57	1318.89
269.79	1419.24
270.00	1384.43
270.22	1515.50
270.43	1351.66
270.65	1273.84
270.87	1345.52
271.08	1384.43
271.30	1366.00
271.51	1363.95
271.73	1339.37
271.95	1378.28
272.16	1353.71
272.38	1415.15
272.59	1310.70
272.81	1277.93
273.02	1357.80
273.24	1417.19
273.46	1423.34
273.67	1312.75
273.89	1386.47
274.10	1300.46
274.32	1449.96
274.54	1423.34
274.75	1337.32
274.97	1404.91
275.18	1302.51
275.40	1347.56
275.61	1425.39
275.83	1396.71
276.05	1374.19
276.26	1304.56
276.48	1396.71
276.69	1322.99
276.91	1353.71
277.12	1435.63
277.34	1349.61
277.55	1372.14
277.77	1386.47
277.99	1349.61
278.20	1394.67
278.42	1427.43
278.63	1300.46
278.85	1347.56
279.06	1355.76
279.28	1366.00
279.49	1423.34
279.71	1366.00
279.93	1398.76
280.14	1349.61
280.36	1366.00
280.57	1456.11
280.79	1398.76
281.00	1298.41
281.22	1253.36
281.43	1437.67
281.65	1370.09
281.86	1390.57
282.08	1300.46
282.29	1396.71
282.51	1333.23
282.73	1318.89
282.94	1314.80
283.16	1431.53
283.37	1464.30
283.59	1372.14
283.80	1378.28
284.02	1392.62
284.23	1394.67
284.45	1331.18
284.66	1366.00
284.88	1298.41
285.09	1404.91
285.31	1447.91
285.52	1368.04
285.74	1255.40
285.95	1353.71
286.17	1386.47
286.38	1378.28
286.60	1372.14
286.81	1353.71
287.03	1400.81
287.24	1404.91
287.46	1468.39
287.67	1425.39
287.89	1380.33
288.10	1357.80
288.32	1386.47
288.53	1419.24
288.75	1380.33
288.96	1386.47
289.18	1337.32
289.39	1370.09
289.61	1382.38
289.82	1413.10
290.04	1486.83
290.25	1368.04
290.47	1329.13
290.68	1443.82
290.90	1486.83
291.11	1325.04
291.33	1359.85
291.54	1318.89
291.76	1327.08
291.97	1345.52
292.18	1368.04
292.40	1357.80
292.61	1314.80
292.83	1390.57
293.04	1390.57
293.26	1392.62
293.47	1347.56
293.69	1333.23
293.90	1380.33
294.12	1394.67
294.33	1351.66
294.55	1409.00
294.76	1433.58
294.97	1515.50
295.19	1425.39
295.40	1347.56
295.62	1310.70
295.83	1355.76
296.05	1361.90
296.26	1357.80
296.48	1392.62
296.69	1300.46
296.90	1355.76
297.12	1363.95
297.33	1404.91
297.55	1431.53
297.76	1384.43
297.98	1437.67
298.19	1345.52
298.41	1335.28
298.62	1325.04
298.83	1417.19
299.05	1363.95
299.26	1304.56
299.48	1345.52
299.69	1361.90
299.90	1310.70
300.12	1337.32
300.33	1351.66
300.55	1343.47
300.76	1431.53
300.98	1355.76
301.19	1347.56
301.40	1286.12
301.62	1380.33
301.83	1347.56
302.05	1413.10
302.26	1415.15
302.47	1376.24
302.69	1318.89
302.90	1312.75
303.12	1304.56
303.33	1404.91
303.54	1370.09
303.76	1282.03
303.97	1472.49
304.19	1388.52
304.40	1300.46
304.61	1435.63
304.83	1439.72
305.04	1443.82
305.26	1417.19
305.47	1413.10
305.68	1417.19
305.90	1288.17
306.11	1394.67
306.33	1333.23
306.54	1386.47
306.75	1370.09
306.97	1333.23
307.18	1331.18
307.39	1331.18
307.61	1359.85
307.82	1394.67
308.04	1400.81
308.25	1357.80
308.46	1402.86
308.68	1361.90
308.89	1318.89
309.10	1359.85
309.32	1355.76
309.53	1361.90
309.74	1404.91
309.96	1406.95
310.17	1415.15
310.39	1335.28
310.60	1396.71
310.81	1443.82
311.03	1337.32
311.24	1396.71
311.45	1290.22
311.67	1419.24
311.88	1392.62
312.09	1341.42
312.31	1300.46
312.52	1284.08
312.73	1296.36
312.95	1359.85
313.16	1353.71
313.37	1437.67
313.59	1366.00
313.80	1439.72
314.01	1437.67
314.23	1322.99
314.44	1320.94
314.65	1347.56
314.87	1355.76
315.08	1378.28
315.29	1366.00
315.51	1357.80
315.72	1335.28
315.93	1423.34
316.15	1359.85
316.36	1429.48
316.57	1339.37
316.79	1404.91
317.00	1427.43
317.21	1396.71
317.43	1406.95
317.64	1417.19
317.85	1400.81
318.07	1488.87
318.28	1533.93
318.49	1597.42
318.70	1675.24
318.92	1503.21
319.13	1421.29
319.34	1513.45
319.56	1492.97
319.77	1513.45
319.98	1402.86
320.20	1492.97
320.41	1474.54
320.62	1490.92
320.83	1329.13
321.05	1456.11
321.26	1343.47
321.47	1347.56
321.69	1363.95
321.90	1279.98
322.11	1343.47
322.32	1329.13
322.54	1349.61
322.75	1277.93
322.96	1449.96
323.18	1308.65
323.39	1312.75
323.60	1253.36
323.81	1445.87
324.03	1284.08
324.24	1288.17
324.45	1368.04
324.66	1402.86
324.88	1439.72
325.09	1468.39
325.30	1308.65
325.52	1331.18
325.73	1355.76
325.94	1388.52
326.15	1355.76
326.37	1343.47
326.58	1351.66
326.79	1421.29
327.00	1304.56
327.22	1398.76
327.43	1431.53
327.64	1331.18
327.85	1400.81
328.07	1392.62
328.28	1390.57
328.49	1288.17
328.70	1406.95
328.92	1423.34
329.13	1251.31
329.34	1382.38
329.55	1388.52
329.76	1406.95
329.98	1361.90
330.19	1376.24
330.40	1380.33
330.61	1388.52
330.83	1384.43
331.04	1439.72
331.25	1331.18
331.46	1290.22
331.68	1308.65
331.89	1382.38
332.10	1409.00
332.31	1335.28
332.52	1427.43
332.74	1404.91
332.95	1290.22
333.16	1288.17
333.37	1355.76
333.58	1386.47
333.80	1398.76
334.01	1220.59
334.22	1314.80
334.43	1425.39
334.64	1312.75
334.86	1320.94
335.07	1302.51
335.28	1409.00
335.49	1363.95
335.70	1390.57
335.92	1449.96
336.13	1419.24
336.34	1390.57
336.55	1302.51
336.76	1411.05
336.98	1308.65
337.19	1368.04
337.40	1413.10
337.61	1462.25
337.82	1294.32
338.04	1302.51
338.25	1310.70
338.46	1396.71
338.67	1355.76
338.88	1351.66
339.09	1351.66
339.31	1325.04
339.52	1353.71
339.73	1286.12
339.94	1447.91
340.15	1419.24
340.36	1411.05
340.58	1337.32
340.79	1376.24
341.00	1392.62
341.21	1374.19
341.42	1458.15
341.63	1347.56
341.85	1388.52
342.06	1380.33
342.27	1306.60
342.48	1421.29
342.69	1320.94
342.90	1372.14
343.12	1331.18
343.33	1327.08
343.54	1345.52
343.75	1425.39
343.96	1404.91
344.17	1296.36
344.38	1392.62
344.60	1374.19
344.81	1320.94
345.02	1361.90
345.23	1372.14
345.44	1495.02
345.65	1447.91
345.86	1392.62
346.07	1353.71
346.29	1322.99
346.50	1304.56
346.71	1429.48
346.92	1439.72
347.13	1456.11
347.34	1322.99
347.55	1413.10
347.76	1372.14
347.98	1302.51
348.19	1325.04
348.40	1454.06
348.61	1415.15
348.82	1429.48
349.03	1437.67
349.24	1296.36
349.45	1394.67
349.66	1355.76
349.88	1325.04
350.09	1411.05
350.30	1402.86
350.51	1333.23
350.72	1347.56
350.93	1359.85
351.14	1382.38
351.35	1339.37
351.56	1259.50
351.77	1404.91
351.99	1429.48
352.20	1433.58
352.41	1402.86
352.62	1322.99
352.83	1355.76
353.04	1343.47
353.25	1390.57
353.46	1396.71
353.67	1394.67
353.88	1279.98
354.09	1411.05
354.30	1290.22
354.52	1370.09
354.73	1294.32
354.94	1343.47
355.15	1357.80
355.36	1425.39
355.57	1413.10
355.78	1388.52
355.99	1355.76
356.20	1417.19
356.41	1398.76
356.62	1384.43
356.83	1400.81
357.04	1439.72
357.25	1282.03
357.46	1386.47
357.68	1282.03
357.89	1279.98
358.10	1263.60
358.31	1325.04
358.52	1331.18
358.73	1337.32
358.94	1320.94
359.15	1396.71
359.36	1378.28
359.57	1351.66
359.78	1357.80
359.99	1368.04
360.20	1325.04
360.41	1306.60
360.62	1437.67
360.83	1419.24
361.04	1329.13
361.25	1316.84
361.46	1462.25
361.67	1404.91
361.88	1390.57
362.09	1339.37
362.30	1441.77
362.51	1331.18
362.72	1394.67
362.93	1359.85
363.14	1460.20
363.35	1370.09
363.56	1320.94
363.78	1353.71
363.99	1339.37
364.20	1316.84
364.41	1345.52
364.62	1435.63
364.83	1339.37
365.04	1404.91
365.25	1353.71
365.46	1386.47
365.67	1286.12
365.88	1425.39
366.09	1345.52
366.30	1376.24
366.51	1433.58
366.72	1343.47
366.93	1380.33
367.14	1363.95
367.35	1488.87
367.56	1363.95
367.77	1454.06
367.98	1400.81
368.18	1388.52
368.39	1409.00
368.60	1247.21
368.81	1316.84
369.02	1388.52
369.23	1349.61
369.44	1249.26
369.65	1355.76
369.86	1339.37
370.07	1318.89
370.28	1292.27
370.49	1423.34
370.70	1353.71
370.91	1312.75
371.12	1339.37
371.33	1378.28
371.54	1413.10
371.75	1492.97
371.96	1255.40
372.17	1384.43
372.38	1327.08
372.59	1382.38
372.80	1386.47
373.01	1343.47
373.22	1314.80
373.43	1357.80
373.64	1314.80
373.85	1347.56
374.06	1394.67
374.26	1378.28
374.47	1372.14
374.68	1327.08
374.89	1435.63
375.10	1376.24
375.31	1409.00
375.52	1359.85
375.73	1433.58
375.94	1335.28
376.15	1488.87
376.36	1351.66
376.57	1361.90
376.78	1331.18
376.99	1396.71
377.20	1390.57
377.40	1304.56
377.61	1423.34
377.82	1320.94
378.03	1378.28
378.24	1413.10
378.45	1366.00
378.66	1388.52
378.87	1363.95
379.08	1366.00
379.29	1386.47
379.50	1396.71
379.71	1374.19
379.91	1464.30
380.12	1347.56
380.33	1435.63
380.54	1341.42
380.75	1331.18
380.96	1372.14
381.17	1480.68
381.38	1400.81
381.59	1535.98
381.80	1492.97
382.00	1521.64
382.21	1390.57
382.42	1519.59
382.63	1468.39
382.84	1435.63
383.05	1443.82
383.26	1462.25
383.47	1406.95
383.68	1374.19
383.88	1460.20
384.09	1363.95
384.30	1439.72
384.51	1447.91
384.72	1341.42
384.93	1400.81
385.14	1351.66
385.35	1474.54
385.55	1318.89
385.76	1374.19
385.97	1429.48
386.18	1419.24
386.39	1327.08
386.60	1415.15
386.81	1433.58
387.02	1363.95
387.22	1396.71
387.43	1419.24
387.64	1548.26
387.85	2322.40
388.06	5769.13
388.27	9465.71
388.48	11482.96
388.68	13037.37
388.89	13262.65
389.10	10481.50
389.31	8955.77
389.52	8101.76
389.73	7331.73
389.93	6799.26
390.14	6625.18
390.35	6014.88
390.56	5603.24
390.77	4634.55
390.98	3651.53
391.18	2869.20
391.39	2058.21
391.60	1710.05
391.81	1581.03
392.02	1435.63
392.23	1503.21
392.43	1378.28
392.64	1419.24
392.85	1417.19
393.06	1441.77
393.27	1394.67
393.47	1333.23
393.68	1382.38
393.89	1357.80
394.10	1439.72
394.31	1384.43
394.52	1384.43
394.72	1357.80
394.93	1411.05
395.14	1327.08
395.35	1394.67
395.56	1406.95
395.76	1437.67
395.97	1490.92
396.18	1617.90
396.39	1626.09
396.60	1697.77
396.80	1597.42
397.01	1507.30
397.22	1452.01
397.43	1527.78
397.64	1478.63
397.84	1474.54
398.05	1482.73
398.26	1497.07
398.47	1415.15
398.67	1374.19
398.88	1388.52
399.09	1345.52
399.30	1384.43
399.51	1396.71
399.71	1347.56
399.92	1359.85
400.13	1361.90
400.34	1343.47
400.54	1368.04
400.75	1431.53
400.96	1429.48
401.17	1517.54
401.37	1327.08
401.58	1390.57
401.79	1542.12
402.00	1710.05
402.21	1775.59
402.41	1849.32
402.62	1785.83
402.83	1705.96
403.04	1683.43
403.24	1703.91
403.45	1499.11
403.66	1533.93
403.87	1562.60
404.07	1585.13
404.28	1560.55
404.49	1484.78
404.70	1409.00
404.90	1460.20
405.11	1370.09
405.32	1343.47
405.52	1382.38
405.73	1368.04
405.94	1378.28
406.15	1441.77
406.35	1341.42
406.56	1314.80
406.77	1400.81
406.98	1368.04
407.18	1337.32
407.39	1429.48
407.60	1380.33
407.80	1296.36
408.01	1376.24
408.22	1411.05
408.43	1349.61
408.63	1439.72
408.84	1337.32
409.05	1472.49
409.25	1304.56
409.46	1363.95
409.67	1341.42
409.88	1347.56
410.08	1464.30
410.29	1370.09
410.50	1302.51
410.70	1413.10
410.91	1236.97
411.12	1366.00
411.32	1347.56
411.53	1370.09
411.74	1613.80
411.95	1460.20
412.15	1472.49
412.36	1443.82
412.57	1392.62
412.77	1449.96
412.98	1462.25
413.19	1396.71
413.39	1400.81
413.60	1417.19
413.81	1474.54
414.01	1378.28
414.22	1441.77
414.43	1380.33
414.63	1327.08
414.84	1388.52
415.05	1404.91
415.25	1341.42
415.46	1384.43
415.67	1320.94
415.87	1398.76
416.08	1339.37
416.29	1327.08
416.49	1341.42
416.70	1322.99
416.91	1359.85
417.11	1337.32
417.32	1460.20
417.53	1386.47
417.73	1406.95
417.94	1384.43
418.15	1380.33
418.35	1376.24
418.56	1427.43
418.77	1468.39
418.97	1335.28
419.18	1406.95
419.38	1308.65
419.59	1343.47
419.80	1452.01
420.00	1409.00
420.21	1316.84
420.42	1454.06
420.62	1347.56
420.83	1370.09
421.04	1353.71
421.24	1341.42
421.45	1386.47
421.65	1363.95
421.86	1382.38
422.07	1429.48
422.27	1320.94
422.48	1363.95
422.69	1359.85
422.89	1349.61
423.10	1353.71
423.30	1372.14
423.51	1327.08
423.72	1368.04
423.92	1386.47
424.13	1275.88
424.33	1368.04
424.54	1452.01
424.75	1310.70
424.95	1474.54
425.16	1392.62
425.36	1347.56
425.57	1419.24
425.78	1402.86
425.98	1423.34
426.19	1300.46
426.39	1329.13
426.60	1368.04
426.81	1388.52
427.01	1435.63
427.22	1325.04
427.42	1415.15
427.63	1366.00
427.83	1433.58
428.04	1419.24
428.25	1347.56
428.45	1392.62
428.66	1421.29
428.86	1368.04
429.07	1337.32
429.28	1343.47
429.48	1347.56
429.69	1320.94
429.89	1376.24
430.10	1339.37
430.30	1396.71
430.51	1396.71
430.71	1322.99
430.92	1357.80
431.13	1366.00
431.33	1437.67
431.54	1376.24
431.74	1404.91
431.95	1413.10
432.15	1353.71
432.36	1366.00
432.56	1376.24
432.77	1474.54
432.98	1476.59
433.18	1409.00
433.39	1341.42
433.59	1316.84
433.80	1427.43
434.00	1470.44
434.21	1378.28
434.41	1318.89
434.62	1505.26
434.82	1302.51
435.03	1347.56
435.23	1329.13
435.44	1372.14
435.64	1378.28
435.85	1353.71
436.06	1400.81
436.26	1388.52
436.47	1378.28
436.67	1345.52
436.88	1398.76
437.08	1339.37
437.29	1398.76
437.49	1374.19
437.70	1404.91
437.90	1382.38
438.11	1519.59
438.31	1435.63
438.52	1589.22
438.72	1517.54
438.93	1576.94
439.13	1531.88
439.34	1423.34
439.54	1398.76
439.75	1384.43
439.95	1419.24
440.16	1357.80
440.36	1366.00
440.57	1458.15
440.77	1472.49
440.98	1419.24
441.18	1396.71
441.39	1304.56
441.59	1368.04
441.80	1400.81
442.00	1413.10
442.21	1472.49
442.41	1361.90
442.62	1423.34
442.82	1415.15
443.02	1415.15
443.23	1423.34
443.43	1378.28
443.64	1394.67
443.84	1320.94
444.05	1521.64
444.25	1505.26
444.46	1382.38
444.66	1359.85
444.87	1417.19
445.07	1417.19
445.28	1384.43
445.48	1413.10
445.69	1443.82
445.89	1515.50
446.09	1458.15
446.30	2230.24
446.50	3663.82
446.71	4616.12
446.91	5115.83
447.12	5504.94
447.32	4886.45
447.53	4155.33
447.73	3655.62
447.93	3418.06
448.14	3149.78
448.34	3024.85
448.55	2787.29
448.75	2754.52
448.96	2707.41
449.16	2336.73
449.36	2125.79
449.57	1929.19
449.77	1701.86
449.98	1552.36
450.18	1458.15
450.39	1429.48
450.59	1396.71
450.79	1361.90
451.00	1456.11
451.20	1429.48
451.41	1359.85
451.61	1378.28
451.81	1374.19
452.02	1394.67
452.22	1337.32
452.43	1429.48
452.63	1345.52
