SpectraSuite Data File
++++++++++++++++++++++++++++++++++++
Date: Tue May 03 11:24:49 CEST 2016
User: root
Dark Spectrum Present: No
Reference Spectrum Present: No
Number of Sampled Component Spectra: 1
Spectrometers: USB4C02835
Integration Time (usec): 100000 (USB4C02835)
Spectra Averaged: 1 (USB4C02835)
Boxcar Smoothing: 0 (USB4C02835)
Correct for Electrical Dark: No (USB4C02835)
Strobe/Lamp Enabled: No (USB4C02835)
Correct for Detector Non-linearity: No (USB4C02835)
Correct for Stray Light: No (USB4C02835)
Number of Pixels in Processed Spectrum: 3648
>>>>>Begin Processed Spectral Data<<<<<
177.47	1193.97
177.69	1193.97
177.91	1193.97
178.13	1198.06
178.36	1230.83
178.58	1335.28
178.80	1357.80
179.02	1282.03
179.24	1388.52
179.46	1390.57
179.68	1482.73
179.90	1382.38
180.13	1292.27
180.35	1341.42
180.57	1322.99
180.79	1366.00
181.01	1394.67
181.23	1382.38
181.45	1378.28
181.67	1335.28
181.90	1406.95
182.12	1320.94
182.34	1335.28
182.56	1394.67
182.78	1374.19
183.00	1368.04
183.22	1406.95
183.44	1269.74
183.66	1515.50
183.89	1495.02
184.11	1320.94
184.33	1368.04
184.55	1372.14
184.77	1357.80
184.99	1380.33
185.21	1349.61
185.43	1501.16
185.65	1347.56
185.87	1421.29
186.10	1447.91
186.32	1427.43
186.54	1411.05
186.76	1400.81
186.98	1394.67
187.20	1327.08
187.42	1351.66
187.64	1388.52
187.86	1343.47
188.08	1343.47
188.30	1347.56
188.52	1337.32
188.75	1402.86
188.97	1425.39
189.19	1425.39
189.41	1331.18
189.63	1335.28
189.85	1304.56
190.07	1335.28
190.29	1320.94
190.51	1355.76
190.73	1273.84
190.95	1437.67
191.17	1325.04
191.39	1249.26
191.61	1363.95
191.84	1347.56
192.06	1325.04
192.28	1318.89
192.50	1427.43
192.72	1370.09
192.94	1411.05
193.16	1406.95
193.38	1322.99
193.60	1425.39
193.82	1310.70
194.04	1396.71
194.26	1370.09
194.48	1378.28
194.70	1357.80
194.92	1267.69
195.14	1347.56
195.36	1376.24
195.58	1370.09
195.80	1366.00
196.02	1308.65
196.24	1411.05
196.46	1374.19
196.69	1396.71
196.91	1431.53
197.13	1349.61
197.35	1310.70
197.57	1421.29
197.79	1361.90
198.01	1355.76
198.23	1406.95
198.45	1359.85
198.67	1382.38
198.89	1390.57
199.11	1335.28
199.33	1294.32
199.55	1292.27
199.77	1372.14
199.99	1384.43
200.21	1327.08
200.43	1370.09
200.65	1298.41
200.87	1282.03
201.09	1445.87
201.31	1359.85
201.53	1400.81
201.75	1423.34
201.97	1421.29
202.19	1351.66
202.41	1454.06
202.63	1425.39
202.85	1427.43
203.07	1353.71
203.29	1337.32
203.51	1286.12
203.73	1322.99
203.95	1470.44
204.17	1374.19
204.39	1374.19
204.61	1290.22
204.83	1378.28
205.05	1380.33
205.27	1445.87
205.49	1425.39
205.71	1368.04
205.93	1341.42
206.15	1380.33
206.37	1341.42
206.59	1380.33
206.81	1290.22
207.03	1343.47
207.25	1314.80
207.47	1452.01
207.69	1411.05
207.91	1476.59
208.13	1396.71
208.34	1394.67
208.56	1406.95
208.78	1402.86
209.00	1366.00
209.22	1368.04
209.44	1345.52
209.66	1339.37
209.88	1421.29
210.10	1349.61
210.32	1339.37
210.54	1396.71
210.76	1339.37
210.98	1390.57
211.20	1232.88
211.42	1423.34
211.64	1443.82
211.86	1431.53
212.08	1386.47
212.30	1370.09
212.52	1404.91
212.74	1363.95
212.96	1376.24
213.17	1443.82
213.39	1349.61
213.61	1327.08
213.83	1390.57
214.05	1345.52
214.27	1368.04
214.49	1380.33
214.71	1376.24
214.93	1353.71
215.15	1320.94
215.37	1413.10
215.59	1290.22
215.81	1452.01
216.03	1357.80
216.24	1347.56
216.46	1386.47
216.68	1343.47
216.90	1388.52
217.12	1449.96
217.34	1353.71
217.56	1335.28
217.78	1404.91
218.00	1409.00
218.22	1427.43
218.44	1363.95
218.66	1355.76
218.87	1409.00
219.09	1388.52
219.31	1429.48
219.53	1382.38
219.75	1368.04
219.97	1357.80
220.19	1380.33
220.41	1353.71
220.63	1417.19
220.85	1402.86
221.06	1359.85
221.28	1355.76
221.50	1439.72
221.72	1370.09
221.94	1382.38
222.16	1456.11
222.38	1439.72
222.60	1427.43
222.82	1310.70
223.03	1314.80
223.25	1294.32
223.47	1423.34
223.69	1486.83
223.91	1449.96
224.13	1363.95
224.35	1337.32
224.57	1472.49
224.78	1400.81
225.00	1329.13
225.22	1294.32
225.44	1353.71
225.66	1472.49
225.88	1322.99
226.10	1423.34
226.32	1351.66
226.53	1417.19
226.75	1363.95
226.97	1318.89
227.19	1347.56
227.41	1288.17
227.63	1275.88
227.85	1388.52
228.06	1286.12
228.28	1341.42
228.50	1421.29
228.72	1261.55
228.94	1331.18
229.16	1257.45
229.37	1366.00
229.59	1347.56
229.81	1402.86
230.03	1282.03
230.25	1361.90
230.47	1322.99
230.69	1337.32
230.90	1366.00
231.12	1382.38
231.34	1304.56
231.56	1435.63
231.78	1353.71
232.00	1370.09
232.21	1396.71
232.43	1329.13
232.65	1376.24
232.87	1337.32
233.09	1271.79
233.30	1304.56
233.52	1427.43
233.74	1368.04
233.96	1382.38
234.18	1447.91
234.40	1409.00
234.61	1468.39
234.83	1363.95
235.05	1335.28
235.27	1406.95
235.49	1347.56
235.70	1368.04
235.92	1417.19
236.14	1474.54
236.36	1458.15
236.58	1359.85
236.79	1419.24
237.01	1349.61
237.23	1349.61
237.45	1402.86
237.67	1361.90
237.88	1380.33
238.10	1445.87
238.32	1310.70
238.54	1343.47
238.76	1361.90
238.97	1400.81
239.19	1327.08
239.41	1384.43
239.63	1366.00
239.85	1320.94
240.06	1273.84
240.28	1337.32
240.50	1427.43
240.72	1376.24
240.93	1363.95
241.15	1357.80
241.37	1343.47
241.59	1355.76
241.81	1384.43
242.02	1331.18
242.24	1374.19
242.46	1417.19
242.68	1406.95
242.89	1378.28
243.11	1355.76
243.33	1374.19
243.55	1353.71
243.76	1378.28
243.98	1329.13
244.20	1357.80
244.42	1390.57
244.64	1322.99
244.85	1331.18
245.07	1292.27
245.29	1406.95
245.51	1314.80
245.72	1404.91
245.94	1357.80
246.16	1421.29
246.38	1456.11
246.59	1374.19
246.81	1282.03
247.03	1337.32
247.24	1341.42
247.46	1327.08
247.68	1353.71
247.90	1427.43
248.11	1402.86
248.33	1449.96
248.55	1361.90
248.77	1290.22
248.98	1386.47
249.20	1486.83
249.42	1384.43
249.64	1449.96
249.85	1400.81
250.07	1329.13
250.29	1351.66
250.50	1433.58
250.72	1339.37
250.94	1476.59
251.16	1429.48
251.37	1396.71
251.59	1343.47
251.81	1361.90
252.02	1517.54
252.24	1368.04
252.46	1417.19
252.68	1339.37
252.89	1351.66
253.11	1263.60
253.33	1411.05
253.54	1380.33
253.76	1277.93
253.98	1366.00
254.20	1384.43
254.41	1257.45
254.63	1322.99
254.85	1286.12
255.06	1333.23
255.28	1304.56
255.50	1335.28
255.71	1433.58
255.93	1409.00
256.15	1355.76
256.36	1431.53
256.58	1382.38
256.80	1394.67
257.02	1370.09
257.23	1441.77
257.45	1351.66
257.67	1454.06
257.88	1318.89
258.10	1366.00
258.32	1402.86
258.53	1376.24
258.75	1378.28
258.97	1329.13
259.18	1347.56
259.40	1345.52
259.62	1413.10
259.83	1443.82
260.05	1421.29
260.27	1558.50
260.48	1374.19
260.70	1345.52
260.92	1316.84
261.13	1374.19
261.35	1347.56
261.57	1409.00
261.78	1331.18
262.00	1322.99
262.22	1374.19
262.43	1339.37
262.65	1345.52
262.86	1347.56
263.08	1476.59
263.30	1357.80
263.51	1302.51
263.73	1302.51
263.95	1435.63
264.16	1376.24
264.38	1363.95
264.60	1413.10
264.81	1404.91
265.03	1335.28
265.25	1415.15
265.46	1411.05
265.68	1458.15
265.89	1437.67
266.11	1273.84
266.33	1460.20
266.54	1359.85
266.76	1347.56
266.98	1411.05
267.19	1376.24
267.41	1388.52
267.62	1458.15
267.84	1331.18
268.06	1413.10
268.27	1386.47
268.49	1415.15
268.70	1429.48
268.92	1406.95
269.14	1322.99
269.35	1361.90
269.57	1335.28
269.79	1376.24
270.00	1300.46
270.22	1341.42
270.43	1376.24
270.65	1374.19
270.87	1392.62
271.08	1406.95
271.30	1427.43
271.51	1468.39
271.73	1396.71
271.95	1443.82
272.16	1335.28
272.38	1392.62
272.59	1312.75
272.81	1394.67
273.02	1406.95
273.24	1331.18
273.46	1370.09
273.67	1363.95
273.89	1296.36
274.10	1337.32
274.32	1417.19
274.54	1349.61
274.75	1333.23
274.97	1409.00
275.18	1425.39
275.40	1357.80
275.61	1343.47
275.83	1374.19
276.05	1355.76
276.26	1363.95
276.48	1388.52
276.69	1404.91
276.91	1394.67
277.12	1372.14
277.34	1396.71
277.55	1353.71
277.77	1392.62
277.99	1343.47
278.20	1335.28
278.42	1282.03
278.63	1304.56
278.85	1417.19
279.06	1337.32
279.28	1396.71
279.49	1370.09
279.71	1361.90
279.93	1368.04
280.14	1286.12
280.36	1306.60
280.57	1394.67
280.79	1368.04
281.00	1376.24
281.22	1415.15
281.43	1411.05
281.65	1284.08
281.86	1361.90
282.08	1339.37
282.29	1429.48
282.51	1368.04
282.73	1296.36
282.94	1320.94
283.16	1349.61
283.37	1472.49
283.59	1337.32
283.80	1331.18
284.02	1316.84
284.23	1312.75
284.45	1368.04
284.66	1398.76
284.88	1382.38
285.09	1359.85
285.31	1402.86
285.52	1402.86
285.74	1363.95
285.95	1406.95
286.17	1406.95
286.38	1351.66
286.60	1425.39
286.81	1353.71
287.03	1370.09
287.24	1372.14
287.46	1384.43
287.67	1333.23
287.89	1413.10
288.10	1318.89
288.32	1347.56
288.53	1400.81
288.75	1439.72
288.96	1357.80
289.18	1329.13
289.39	1347.56
289.61	1425.39
289.82	1409.00
290.04	1476.59
290.25	1384.43
290.47	1372.14
290.68	1372.14
290.90	1390.57
291.11	1290.22
291.33	1374.19
291.54	1347.56
291.76	1351.66
291.97	1386.47
292.18	1384.43
292.40	1343.47
292.61	1269.74
292.83	1388.52
293.04	1388.52
293.26	1388.52
293.47	1296.36
293.69	1394.67
293.90	1322.99
294.12	1380.33
294.33	1374.19
294.55	1325.04
294.76	1421.29
294.97	1478.63
295.19	1462.25
295.40	1343.47
295.62	1325.04
295.83	1445.87
296.05	1359.85
296.26	1421.29
296.48	1345.52
296.69	1294.32
296.90	1396.71
297.12	1441.77
297.33	1357.80
297.55	1286.12
297.76	1382.38
297.98	1529.83
298.19	1329.13
298.41	1343.47
298.62	1306.60
298.83	1341.42
299.05	1372.14
299.26	1341.42
299.48	1245.16
299.69	1368.04
299.90	1355.76
300.12	1294.32
300.33	1355.76
300.55	1298.41
300.76	1456.11
300.98	1320.94
301.19	1404.91
301.40	1337.32
301.62	1337.32
301.83	1431.53
302.05	1363.95
302.26	1337.32
302.47	1372.14
302.69	1294.32
302.90	1468.39
303.12	1333.23
303.33	1423.34
303.54	1398.76
303.76	1361.90
303.97	1402.86
304.19	1378.28
304.40	1271.79
304.61	1462.25
304.83	1388.52
305.04	1423.34
305.26	1368.04
305.47	1357.80
305.68	1402.86
305.90	1308.65
306.11	1376.24
306.33	1327.08
306.54	1409.00
306.75	1368.04
306.97	1294.32
307.18	1296.36
307.39	1374.19
307.61	1345.52
307.82	1335.28
308.04	1413.10
308.25	1439.72
308.46	1492.97
308.68	1310.70
308.89	1347.56
309.10	1392.62
309.32	1406.95
309.53	1325.04
309.74	1388.52
309.96	1382.38
310.17	1396.71
310.39	1292.27
310.60	1376.24
310.81	1423.34
311.03	1282.03
311.24	1347.56
311.45	1400.81
311.67	1423.34
311.88	1445.87
312.09	1343.47
312.31	1355.76
312.52	1374.19
312.73	1286.12
312.95	1347.56
313.16	1306.60
313.37	1382.38
313.59	1429.48
313.80	1316.84
314.01	1523.69
314.23	1349.61
314.44	1419.24
314.65	1322.99
314.87	1335.28
315.08	1347.56
315.29	1372.14
315.51	1409.00
315.72	1376.24
315.93	1443.82
316.15	1394.67
316.36	1406.95
316.57	1380.33
316.79	1447.91
317.00	1368.04
317.21	1390.57
317.43	1296.36
317.64	1335.28
317.85	1384.43
318.07	1513.45
318.28	1488.87
318.49	1589.22
318.70	1619.94
318.92	1509.35
319.13	1497.07
319.34	1511.40
319.56	1466.35
319.77	1521.64
319.98	1417.19
320.20	1441.77
320.41	1425.39
320.62	1404.91
320.83	1300.46
321.05	1466.35
321.26	1372.14
321.47	1409.00
321.69	1421.29
321.90	1329.13
322.11	1368.04
322.32	1345.52
322.54	1417.19
322.75	1318.89
322.96	1490.92
323.18	1329.13
323.39	1286.12
323.60	1296.36
323.81	1390.57
324.03	1370.09
324.24	1290.22
324.45	1378.28
324.66	1314.80
324.88	1359.85
325.09	1501.16
325.30	1376.24
325.52	1310.70
325.73	1447.91
325.94	1378.28
326.15	1366.00
326.37	1320.94
326.58	1333.23
326.79	1419.24
327.00	1298.41
327.22	1284.08
327.43	1314.80
327.64	1335.28
327.85	1447.91
328.07	1304.56
328.28	1370.09
328.49	1310.70
328.70	1400.81
328.92	1333.23
329.13	1380.33
329.34	1382.38
329.55	1435.63
329.76	1392.62
329.98	1351.66
330.19	1363.95
330.40	1423.34
330.61	1312.75
330.83	1341.42
331.04	1296.36
331.25	1382.38
331.46	1355.76
331.68	1339.37
331.89	1329.13
332.10	1345.52
332.31	1333.23
332.52	1304.56
332.74	1478.63
332.95	1333.23
333.16	1419.24
333.37	1378.28
333.58	1382.38
333.80	1359.85
334.01	1353.71
334.22	1351.66
334.43	1394.67
334.64	1349.61
334.86	1329.13
335.07	1361.90
335.28	1421.29
335.49	1304.56
335.70	1386.47
335.92	1400.81
336.13	1423.34
336.34	1441.77
336.55	1363.95
336.76	1347.56
336.98	1335.28
337.19	1394.67
337.40	1439.72
337.61	1486.83
337.82	1386.47
338.04	1325.04
338.25	1372.14
338.46	1355.76
338.67	1409.00
338.88	1437.67
339.09	1353.71
339.31	1409.00
339.52	1357.80
339.73	1279.98
339.94	1353.71
340.15	1341.42
340.36	1302.51
340.58	1421.29
340.79	1353.71
341.00	1370.09
341.21	1437.67
341.42	1394.67
341.63	1411.05
341.85	1439.72
342.06	1359.85
342.27	1388.52
342.48	1404.91
342.69	1327.08
342.90	1345.52
343.12	1515.50
343.33	1306.60
343.54	1353.71
343.75	1304.56
343.96	1372.14
344.17	1366.00
344.38	1390.57
344.60	1392.62
344.81	1353.71
345.02	1339.37
345.23	1411.05
345.44	1478.63
345.65	1382.38
345.86	1335.28
346.07	1347.56
346.29	1392.62
346.50	1374.19
346.71	1429.48
346.92	1398.76
347.13	1402.86
347.34	1476.59
347.55	1349.61
347.76	1320.94
347.98	1241.07
348.19	1394.67
348.40	1351.66
348.61	1425.39
348.82	1406.95
349.03	1427.43
349.24	1333.23
349.45	1396.71
349.66	1392.62
349.88	1443.82
350.09	1337.32
350.30	1376.24
350.51	1413.10
350.72	1349.61
350.93	1427.43
351.14	1322.99
351.35	1413.10
351.56	1380.33
351.77	1361.90
351.99	1417.19
352.20	1460.20
352.41	1376.24
352.62	1329.13
352.83	1335.28
353.04	1480.68
353.25	1400.81
353.46	1398.76
353.67	1417.19
353.88	1300.46
354.09	1423.34
354.30	1296.36
354.52	1392.62
354.73	1357.80
354.94	1347.56
355.15	1368.04
355.36	1464.30
355.57	1378.28
355.78	1415.15
355.99	1359.85
356.20	1298.41
356.41	1376.24
356.62	1382.38
356.83	1345.52
357.04	1452.01
357.25	1290.22
357.46	1331.18
357.68	1343.47
357.89	1306.60
358.10	1314.80
358.31	1329.13
358.52	1304.56
358.73	1345.52
358.94	1331.18
359.15	1411.05
359.36	1404.91
359.57	1322.99
359.78	1411.05
359.99	1359.85
360.20	1269.74
360.41	1400.81
360.62	1396.71
360.83	1388.52
361.04	1411.05
361.25	1447.91
361.46	1400.81
361.67	1427.43
361.88	1392.62
362.09	1423.34
362.30	1392.62
362.51	1339.37
362.72	1398.76
362.93	1337.32
363.14	1398.76
363.35	1370.09
363.56	1327.08
363.78	1384.43
363.99	1413.10
364.20	1382.38
364.41	1374.19
364.62	1441.77
364.83	1359.85
365.04	1374.19
365.25	1363.95
365.46	1431.53
365.67	1351.66
365.88	1359.85
366.09	1335.28
366.30	1427.43
366.51	1343.47
366.72	1312.75
366.93	1390.57
367.14	1343.47
367.35	1443.82
367.56	1335.28
367.77	1429.48
367.98	1308.65
368.18	1333.23
368.39	1417.19
368.60	1359.85
368.81	1435.63
369.02	1320.94
369.23	1353.71
369.44	1359.85
369.65	1308.65
369.86	1351.66
370.07	1452.01
370.28	1347.56
370.49	1363.95
370.70	1427.43
370.91	1417.19
371.12	1378.28
371.33	1413.10
371.54	1388.52
371.75	1478.63
371.96	1359.85
372.17	1337.32
372.38	1370.09
372.59	1359.85
372.80	1320.94
373.01	1398.76
373.22	1423.34
373.43	1380.33
373.64	1398.76
373.85	1495.02
374.06	1390.57
374.26	1441.77
374.47	1431.53
374.68	1474.54
374.89	1310.70
375.10	1374.19
375.31	1368.04
375.52	1363.95
375.73	1384.43
375.94	1337.32
376.15	1419.24
376.36	1325.04
376.57	1322.99
376.78	1333.23
376.99	1347.56
377.20	1361.90
377.40	1333.23
377.61	1454.06
377.82	1413.10
378.03	1363.95
378.24	1423.34
378.45	1347.56
378.66	1441.77
378.87	1304.56
379.08	1327.08
379.29	1376.24
379.50	1404.91
379.71	1316.84
379.91	1431.53
380.12	1331.18
380.33	1374.19
380.54	1361.90
380.75	1409.00
380.96	1329.13
381.17	1452.01
381.38	1368.04
381.59	1400.81
381.80	1482.73
382.00	1466.35
382.21	1449.96
382.42	1445.87
382.63	1497.07
382.84	1445.87
383.05	1343.47
383.26	1466.35
383.47	1421.29
383.68	1406.95
383.88	1402.86
384.09	1361.90
384.30	1501.16
384.51	1458.15
384.72	1372.14
384.93	1339.37
385.14	1302.51
385.35	1492.97
385.55	1343.47
385.76	1413.10
385.97	1402.86
386.18	1337.32
386.39	1431.53
386.60	1464.30
386.81	1400.81
387.02	1396.71
387.22	1345.52
387.43	1404.91
387.64	1560.55
387.85	2283.49
388.06	5722.02
388.27	9592.69
388.48	11511.63
388.68	13268.79
388.89	13324.08
389.10	10639.20
389.31	9267.06
389.52	8454.02
389.73	7335.82
389.93	7100.31
390.14	6565.79
390.35	6043.56
390.56	5642.15
390.77	4476.86
390.98	3651.53
391.18	2822.10
391.39	2068.45
391.60	1699.81
391.81	1488.87
392.02	1380.33
392.23	1501.16
392.43	1443.82
392.64	1462.25
392.85	1419.24
393.06	1435.63
393.27	1437.67
393.47	1359.85
393.68	1409.00
393.89	1413.10
394.10	1398.76
394.31	1314.80
394.52	1359.85
394.72	1331.18
394.93	1454.06
395.14	1396.71
395.35	1374.19
395.56	1349.61
395.76	1486.83
395.97	1558.50
396.18	1611.75
396.39	1572.84
396.60	1626.09
396.80	1572.84
397.01	1503.21
397.22	1435.63
397.43	1486.83
397.64	1435.63
397.84	1435.63
398.05	1462.25
398.26	1437.67
398.47	1531.88
398.67	1421.29
398.88	1456.11
399.09	1411.05
399.30	1366.00
399.51	1421.29
399.71	1351.66
399.92	1423.34
400.13	1386.47
400.34	1327.08
400.54	1396.71
400.75	1345.52
400.96	1402.86
401.17	1435.63
401.37	1406.95
401.58	1361.90
401.79	1572.84
402.00	1703.91
402.21	1820.64
402.41	1820.64
402.62	1796.07
402.83	1751.01
403.04	1583.08
403.24	1740.77
403.45	1568.74
403.66	1638.38
403.87	1531.88
404.07	1593.32
404.28	1562.60
404.49	1601.51
404.70	1519.59
404.90	1402.86
405.11	1435.63
405.32	1390.57
405.52	1419.24
405.73	1331.18
405.94	1320.94
406.15	1339.37
406.35	1429.48
406.56	1337.32
406.77	1466.35
406.98	1417.19
407.18	1277.93
407.39	1431.53
407.60	1363.95
407.80	1437.67
408.01	1376.24
408.22	1396.71
408.43	1325.04
408.63	1380.33
408.84	1376.24
409.05	1437.67
409.25	1376.24
409.46	1325.04
409.67	1370.09
409.88	1392.62
410.08	1357.80
410.29	1404.91
410.50	1411.05
410.70	1413.10
410.91	1306.60
411.12	1363.95
411.32	1439.72
411.53	1390.57
411.74	1488.87
411.95	1456.11
412.15	1423.34
412.36	1400.81
412.57	1402.86
412.77	1523.69
412.98	1402.86
413.19	1431.53
413.39	1533.93
413.60	1433.58
413.81	1511.40
414.01	1372.14
414.22	1456.11
414.43	1490.92
414.63	1425.39
414.84	1396.71
415.05	1347.56
415.25	1372.14
415.46	1439.72
415.67	1439.72
415.87	1406.95
416.08	1376.24
416.29	1343.47
416.49	1423.34
416.70	1388.52
416.91	1210.35
417.11	1318.89
417.32	1372.14
417.53	1306.60
417.73	1388.52
417.94	1351.66
418.15	1435.63
418.35	1404.91
418.56	1435.63
418.77	1404.91
418.97	1363.95
419.18	1413.10
419.38	1329.13
419.59	1378.28
419.80	1370.09
420.00	1335.28
420.21	1363.95
420.42	1421.29
420.62	1361.90
420.83	1322.99
421.04	1351.66
421.24	1429.48
421.45	1413.10
421.65	1419.24
421.86	1327.08
422.07	1353.71
422.27	1361.90
422.48	1363.95
422.69	1304.56
422.89	1394.67
423.10	1312.75
423.30	1341.42
423.51	1308.65
423.72	1380.33
423.92	1411.05
424.13	1300.46
424.33	1370.09
424.54	1452.01
424.75	1316.84
424.95	1439.72
425.16	1378.28
425.36	1345.52
425.57	1318.89
425.78	1421.29
425.98	1337.32
426.19	1394.67
426.39	1382.38
426.60	1411.05
426.81	1447.91
427.01	1382.38
427.22	1396.71
427.42	1277.93
427.63	1417.19
427.83	1400.81
428.04	1435.63
428.25	1388.52
428.45	1449.96
428.66	1413.10
428.86	1406.95
429.07	1392.62
429.28	1345.52
429.48	1419.24
429.69	1306.60
429.89	1366.00
430.10	1396.71
430.30	1404.91
430.51	1302.51
430.71	1335.28
430.92	1322.99
431.13	1335.28
431.33	1378.28
431.54	1275.88
431.74	1398.76
431.95	1439.72
432.15	1355.76
432.36	1423.34
432.56	1314.80
432.77	1374.19
432.98	1415.15
433.18	1445.87
433.39	1376.24
433.59	1351.66
433.80	1406.95
434.00	1470.44
434.21	1310.70
434.41	1333.23
434.62	1427.43
434.82	1361.90
435.03	1304.56
435.23	1370.09
435.44	1359.85
435.64	1374.19
435.85	1366.00
436.06	1413.10
436.26	1382.38
436.47	1316.84
436.67	1382.38
436.88	1439.72
437.08	1423.34
437.29	1427.43
437.49	1413.10
437.70	1396.71
437.90	1468.39
438.11	1564.65
438.31	1503.21
438.52	1605.61
438.72	1544.17
438.93	1574.89
439.13	1437.67
439.34	1398.76
439.54	1419.24
439.75	1468.39
439.95	1495.02
440.16	1333.23
440.36	1349.61
440.57	1382.38
440.77	1380.33
440.98	1380.33
441.18	1421.29
441.39	1386.47
441.59	1349.61
441.80	1419.24
442.00	1368.04
442.21	1382.38
442.41	1304.56
442.62	1380.33
442.82	1411.05
443.02	1423.34
443.23	1564.65
443.43	1423.34
443.64	1462.25
443.84	1320.94
444.05	1380.33
444.25	1359.85
444.46	1394.67
444.66	1384.43
444.87	1460.20
445.07	1366.00
445.28	1351.66
445.48	1484.78
445.69	1382.38
445.89	1501.16
446.09	1499.11
446.30	2236.38
446.50	3770.31
446.71	4671.42
446.91	5396.40
447.12	5545.90
447.32	5066.67
447.53	4188.10
447.73	3702.73
447.93	3571.66
448.14	3221.45
448.34	2947.03
448.55	2713.56
448.75	2811.86
448.96	2678.74
449.16	2490.33
449.36	2207.71
449.57	1890.28
449.77	1722.34
449.98	1597.42
450.18	1482.73
450.39	1464.30
450.59	1419.24
450.79	1433.58
451.00	1431.53
451.20	1435.63
451.41	1464.30
451.61	1415.15
451.81	1347.56
452.02	1394.67
452.22	1320.94
452.43	1435.63
452.63	1279.98
