SpectraSuite Data File
++++++++++++++++++++++++++++++++++++
Date: Tue May 03 11:24:57 CEST 2016
User: root
Dark Spectrum Present: No
Reference Spectrum Present: No
Number of Sampled Component Spectra: 1
Spectrometers: USB4C02835
Integration Time (usec): 100000 (USB4C02835)
Spectra Averaged: 1 (USB4C02835)
Boxcar Smoothing: 0 (USB4C02835)
Correct for Electrical Dark: No (USB4C02835)
Strobe/Lamp Enabled: No (USB4C02835)
Correct for Detector Non-linearity: No (USB4C02835)
Correct for Stray Light: No (USB4C02835)
Number of Pixels in Processed Spectrum: 3648
>>>>>Begin Processed Spectral Data<<<<<
177.47	1177.58
177.69	1177.58
177.91	1177.58
178.13	1228.78
178.36	1249.26
178.58	1290.22
178.80	1427.43
179.02	1302.51
179.24	1351.66
179.46	1349.61
179.68	1429.48
179.90	1333.23
180.13	1382.38
180.35	1398.76
180.57	1404.91
180.79	1382.38
181.01	1398.76
181.23	1345.52
181.45	1478.63
181.67	1394.67
181.90	1370.09
182.12	1343.47
182.34	1337.32
182.56	1421.29
182.78	1368.04
183.00	1454.06
183.22	1370.09
183.44	1263.60
183.66	1400.81
183.89	1462.25
184.11	1314.80
184.33	1404.91
184.55	1376.24
184.77	1402.86
184.99	1318.89
185.21	1306.60
185.43	1445.87
185.65	1380.33
185.87	1452.01
186.10	1439.72
186.32	1509.35
186.54	1425.39
186.76	1419.24
186.98	1370.09
187.20	1370.09
187.42	1368.04
187.64	1423.34
187.86	1402.86
188.08	1449.96
188.30	1349.61
188.52	1359.85
188.75	1333.23
188.97	1368.04
189.19	1327.08
189.41	1370.09
189.63	1413.10
189.85	1386.47
190.07	1271.79
190.29	1368.04
190.51	1374.19
190.73	1312.75
190.95	1398.76
191.17	1329.13
191.39	1331.18
191.61	1294.32
191.84	1398.76
192.06	1415.15
192.28	1273.84
192.50	1396.71
192.72	1425.39
192.94	1370.09
193.16	1349.61
193.38	1366.00
193.60	1417.19
193.82	1398.76
194.04	1421.29
194.26	1425.39
194.48	1318.89
194.70	1374.19
194.92	1345.52
195.14	1437.67
195.36	1462.25
195.58	1314.80
195.80	1366.00
196.02	1378.28
196.24	1304.56
196.46	1366.00
196.69	1308.65
196.91	1452.01
197.13	1404.91
197.35	1351.66
197.57	1402.86
197.79	1345.52
198.01	1368.04
198.23	1382.38
198.45	1447.91
198.67	1327.08
198.89	1394.67
199.11	1370.09
199.33	1366.00
199.55	1339.37
199.77	1390.57
199.99	1384.43
200.21	1341.42
200.43	1374.19
200.65	1322.99
200.87	1322.99
201.09	1386.47
201.31	1308.65
201.53	1488.87
201.75	1341.42
201.97	1353.71
202.19	1396.71
202.41	1382.38
202.63	1466.35
202.85	1380.33
203.07	1314.80
203.29	1259.50
203.51	1300.46
203.73	1337.32
203.95	1501.16
204.17	1443.82
204.39	1347.56
204.61	1269.74
204.83	1355.76
205.05	1341.42
205.27	1341.42
205.49	1470.44
205.71	1337.32
205.93	1357.80
206.15	1341.42
206.37	1406.95
206.59	1361.90
206.81	1353.71
207.03	1349.61
207.25	1396.71
207.47	1452.01
207.69	1368.04
207.91	1406.95
208.13	1437.67
208.34	1351.66
208.56	1366.00
208.78	1458.15
209.00	1349.61
209.22	1409.00
209.44	1339.37
209.66	1413.10
209.88	1337.32
210.10	1316.84
210.32	1327.08
210.54	1368.04
210.76	1380.33
210.98	1409.00
211.20	1322.99
211.42	1349.61
211.64	1421.29
211.86	1316.84
212.08	1409.00
212.30	1343.47
212.52	1351.66
212.74	1409.00
212.96	1396.71
213.17	1325.04
213.39	1333.23
213.61	1429.48
213.83	1443.82
214.05	1320.94
214.27	1331.18
214.49	1318.89
214.71	1347.56
214.93	1382.38
215.15	1292.27
215.37	1390.57
215.59	1355.76
215.81	1474.54
216.03	1388.52
216.24	1355.76
216.46	1318.89
216.68	1335.28
216.90	1388.52
217.12	1370.09
217.34	1400.81
217.56	1392.62
217.78	1372.14
218.00	1374.19
218.22	1392.62
218.44	1433.58
218.66	1359.85
218.87	1492.97
219.09	1335.28
219.31	1458.15
219.53	1374.19
219.75	1273.84
219.97	1417.19
220.19	1368.04
220.41	1425.39
220.63	1419.24
220.85	1363.95
221.06	1341.42
221.28	1409.00
221.50	1390.57
221.72	1386.47
221.94	1376.24
222.16	1363.95
222.38	1443.82
222.60	1398.76
222.82	1384.43
223.03	1339.37
223.25	1372.14
223.47	1409.00
223.69	1421.29
223.91	1384.43
224.13	1337.32
224.35	1370.09
224.57	1392.62
224.78	1316.84
225.00	1386.47
225.22	1355.76
225.44	1351.66
225.66	1423.34
225.88	1310.70
226.10	1404.91
226.32	1386.47
226.53	1464.30
226.75	1384.43
226.97	1380.33
227.19	1441.77
227.41	1368.04
227.63	1298.41
227.85	1345.52
228.06	1345.52
228.28	1320.94
228.50	1441.77
228.72	1318.89
228.94	1372.14
229.16	1296.36
229.37	1310.70
229.59	1357.80
229.81	1370.09
230.03	1318.89
230.25	1384.43
230.47	1417.19
230.69	1310.70
230.90	1302.51
231.12	1296.36
231.34	1404.91
231.56	1449.96
231.78	1292.27
232.00	1325.04
232.21	1372.14
232.43	1382.38
232.65	1345.52
232.87	1404.91
233.09	1339.37
233.30	1380.33
233.52	1351.66
233.74	1406.95
233.96	1361.90
234.18	1404.91
234.40	1439.72
234.61	1357.80
234.83	1363.95
235.05	1318.89
235.27	1466.35
235.49	1431.53
235.70	1345.52
235.92	1435.63
236.14	1376.24
236.36	1458.15
236.58	1234.93
236.79	1413.10
237.01	1390.57
237.23	1378.28
237.45	1404.91
237.67	1359.85
237.88	1359.85
238.10	1441.77
238.32	1388.52
238.54	1382.38
238.76	1347.56
238.97	1368.04
239.19	1370.09
239.41	1329.13
239.63	1390.57
239.85	1337.32
240.06	1374.19
240.28	1394.67
240.50	1372.14
240.72	1386.47
240.93	1415.15
241.15	1423.34
241.37	1398.76
241.59	1427.43
241.81	1368.04
242.02	1351.66
242.24	1396.71
242.46	1368.04
242.68	1392.62
242.89	1413.10
243.11	1411.05
243.33	1361.90
243.55	1386.47
243.76	1376.24
243.98	1327.08
244.20	1359.85
244.42	1398.76
244.64	1380.33
244.85	1333.23
245.07	1290.22
245.29	1392.62
245.51	1402.86
245.72	1345.52
245.94	1458.15
246.16	1224.69
246.38	1458.15
246.59	1370.09
246.81	1353.71
247.03	1335.28
247.24	1318.89
247.46	1337.32
247.68	1392.62
247.90	1402.86
248.11	1366.00
248.33	1380.33
248.55	1349.61
248.77	1359.85
248.98	1378.28
249.20	1386.47
249.42	1337.32
249.64	1384.43
249.85	1427.43
250.07	1462.25
250.29	1372.14
250.50	1482.73
250.72	1351.66
250.94	1370.09
251.16	1388.52
251.37	1386.47
251.59	1304.56
251.81	1337.32
252.02	1458.15
252.24	1341.42
252.46	1376.24
252.68	1359.85
252.89	1288.17
253.11	1337.32
253.33	1423.34
253.54	1466.35
253.76	1232.88
253.98	1320.94
254.20	1402.86
254.41	1269.74
254.63	1425.39
254.85	1347.56
255.06	1406.95
255.28	1411.05
255.50	1310.70
255.71	1345.52
255.93	1279.98
256.15	1382.38
256.36	1439.72
256.58	1382.38
256.80	1413.10
257.02	1271.79
257.23	1378.28
257.45	1406.95
257.67	1396.71
257.88	1359.85
258.10	1382.38
258.32	1304.56
258.53	1363.95
258.75	1400.81
258.97	1345.52
259.18	1372.14
259.40	1421.29
259.62	1404.91
259.83	1386.47
260.05	1398.76
260.27	1562.60
260.48	1351.66
260.70	1386.47
260.92	1394.67
261.13	1320.94
261.35	1388.52
261.57	1359.85
261.78	1298.41
262.00	1357.80
262.22	1425.39
262.43	1357.80
262.65	1396.71
262.86	1372.14
263.08	1429.48
263.30	1339.37
263.51	1318.89
263.73	1394.67
263.95	1445.87
264.16	1312.75
264.38	1327.08
264.60	1349.61
264.81	1396.71
265.03	1343.47
265.25	1388.52
265.46	1423.34
265.68	1337.32
265.89	1351.66
266.11	1320.94
266.33	1421.29
266.54	1359.85
266.76	1413.10
266.98	1417.19
267.19	1460.20
267.41	1386.47
267.62	1345.52
267.84	1329.13
268.06	1404.91
268.27	1357.80
268.49	1409.00
268.70	1402.86
268.92	1468.39
269.14	1306.60
269.35	1249.26
269.57	1355.76
269.79	1368.04
270.00	1314.80
270.22	1452.01
270.43	1329.13
270.65	1329.13
270.87	1456.11
271.08	1417.19
271.30	1419.24
271.51	1304.56
271.73	1435.63
271.95	1423.34
272.16	1452.01
272.38	1273.84
272.59	1366.00
272.81	1347.56
273.02	1392.62
273.24	1394.67
273.46	1433.58
273.67	1378.28
273.89	1337.32
274.10	1296.36
274.32	1394.67
274.54	1402.86
274.75	1376.24
274.97	1394.67
275.18	1372.14
275.40	1370.09
275.61	1310.70
275.83	1374.19
276.05	1288.17
276.26	1386.47
276.48	1314.80
276.69	1372.14
276.91	1370.09
277.12	1386.47
277.34	1370.09
277.55	1462.25
277.77	1376.24
277.99	1331.18
278.20	1351.66
278.42	1292.27
278.63	1292.27
278.85	1372.14
279.06	1349.61
279.28	1361.90
279.49	1372.14
279.71	1390.57
279.93	1374.19
280.14	1380.33
280.36	1380.33
280.57	1355.76
280.79	1353.71
281.00	1316.84
281.22	1308.65
281.43	1384.43
281.65	1257.45
281.86	1361.90
282.08	1376.24
282.29	1406.95
282.51	1404.91
282.73	1351.66
282.94	1298.41
283.16	1384.43
283.37	1425.39
283.59	1312.75
283.80	1351.66
284.02	1363.95
284.23	1406.95
284.45	1286.12
284.66	1322.99
284.88	1320.94
285.09	1406.95
285.31	1378.28
285.52	1458.15
285.74	1263.60
285.95	1388.52
286.17	1409.00
286.38	1458.15
286.60	1411.05
286.81	1402.86
287.03	1370.09
287.24	1331.18
287.46	1382.38
287.67	1333.23
287.89	1411.05
288.10	1351.66
288.32	1341.42
288.53	1331.18
288.75	1388.52
288.96	1298.41
289.18	1400.81
289.39	1345.52
289.61	1423.34
289.82	1486.83
290.04	1431.53
290.25	1370.09
290.47	1415.15
290.68	1378.28
290.90	1382.38
291.11	1296.36
291.33	1363.95
291.54	1337.32
291.76	1384.43
291.97	1335.28
292.18	1386.47
292.40	1392.62
292.61	1361.90
292.83	1470.44
293.04	1290.22
293.26	1341.42
293.47	1355.76
293.69	1312.75
293.90	1361.90
294.12	1482.73
294.33	1363.95
294.55	1306.60
294.76	1417.19
294.97	1435.63
295.19	1361.90
295.40	1363.95
295.62	1400.81
295.83	1335.28
296.05	1370.09
296.26	1464.30
296.48	1304.56
296.69	1339.37
296.90	1343.47
297.12	1359.85
297.33	1388.52
297.55	1368.04
297.76	1310.70
297.98	1427.43
298.19	1325.04
298.41	1351.66
298.62	1335.28
298.83	1435.63
299.05	1353.71
299.26	1322.99
299.48	1337.32
299.69	1417.19
299.90	1277.93
300.12	1355.76
300.33	1361.90
300.55	1314.80
300.76	1400.81
300.98	1224.69
301.19	1441.77
301.40	1366.00
301.62	1404.91
301.83	1402.86
302.05	1376.24
302.26	1415.15
302.47	1359.85
302.69	1306.60
302.90	1400.81
303.12	1259.50
303.33	1402.86
303.54	1499.11
303.76	1386.47
303.97	1392.62
304.19	1462.25
304.40	1368.04
304.61	1464.30
304.83	1478.63
305.04	1464.30
305.26	1376.24
305.47	1312.75
305.68	1402.86
305.90	1353.71
306.11	1370.09
306.33	1390.57
306.54	1388.52
306.75	1331.18
306.97	1366.00
307.18	1314.80
307.39	1355.76
307.61	1406.95
307.82	1435.63
308.04	1421.29
308.25	1290.22
308.46	1370.09
308.68	1366.00
308.89	1398.76
309.10	1439.72
309.32	1374.19
309.53	1443.82
309.74	1368.04
309.96	1433.58
310.17	1415.15
310.39	1349.61
310.60	1361.90
310.81	1337.32
311.03	1353.71
311.24	1357.80
311.45	1390.57
311.67	1423.34
311.88	1394.67
312.09	1292.27
312.31	1347.56
312.52	1335.28
312.73	1331.18
312.95	1390.57
313.16	1275.88
313.37	1357.80
313.59	1363.95
313.80	1409.00
314.01	1390.57
314.23	1363.95
314.44	1331.18
314.65	1308.65
314.87	1404.91
315.08	1322.99
315.29	1441.77
315.51	1355.76
315.72	1353.71
315.93	1433.58
316.15	1396.71
316.36	1347.56
316.57	1325.04
316.79	1351.66
317.00	1361.90
317.21	1400.81
317.43	1359.85
317.64	1335.28
317.85	1382.38
318.07	1488.87
318.28	1535.98
318.49	1550.31
318.70	1667.05
318.92	1581.03
319.13	1466.35
319.34	1474.54
319.56	1413.10
319.77	1519.59
319.98	1437.67
320.20	1486.83
320.41	1404.91
320.62	1425.39
320.83	1347.56
321.05	1525.74
321.26	1372.14
321.47	1298.41
321.69	1396.71
321.90	1409.00
322.11	1333.23
322.32	1325.04
322.54	1404.91
322.75	1339.37
322.96	1382.38
323.18	1310.70
323.39	1304.56
323.60	1357.80
323.81	1396.71
324.03	1333.23
324.24	1236.97
324.45	1454.06
324.66	1353.71
324.88	1449.96
325.09	1464.30
325.30	1314.80
325.52	1374.19
325.73	1433.58
325.94	1384.43
326.15	1273.84
326.37	1353.71
326.58	1419.24
326.79	1513.45
327.00	1333.23
327.22	1421.29
327.43	1415.15
327.64	1243.12
327.85	1474.54
328.07	1388.52
328.28	1468.39
328.49	1378.28
328.70	1341.42
328.92	1316.84
329.13	1398.76
329.34	1370.09
329.55	1454.06
329.76	1478.63
329.98	1433.58
330.19	1363.95
330.40	1394.67
330.61	1306.60
330.83	1343.47
331.04	1429.48
331.25	1394.67
331.46	1331.18
331.68	1259.50
331.89	1366.00
332.10	1370.09
332.31	1355.76
332.52	1380.33
332.74	1419.24
332.95	1312.75
333.16	1429.48
333.37	1388.52
333.58	1304.56
333.80	1347.56
334.01	1322.99
334.22	1325.04
334.43	1390.57
334.64	1357.80
334.86	1331.18
335.07	1351.66
335.28	1396.71
335.49	1243.12
335.70	1300.46
335.92	1417.19
336.13	1443.82
336.34	1347.56
336.55	1419.24
336.76	1382.38
336.98	1261.55
337.19	1314.80
337.40	1433.58
337.61	1509.35
337.82	1329.13
338.04	1421.29
338.25	1366.00
338.46	1325.04
338.67	1406.95
338.88	1435.63
339.09	1368.04
339.31	1322.99
339.52	1333.23
339.73	1318.89
339.94	1411.05
340.15	1361.90
340.36	1290.22
340.58	1359.85
340.79	1419.24
341.00	1400.81
341.21	1327.08
341.42	1394.67
341.63	1398.76
341.85	1380.33
342.06	1421.29
342.27	1357.80
342.48	1435.63
342.69	1310.70
342.90	1386.47
343.12	1454.06
343.33	1273.84
343.54	1345.52
343.75	1429.48
343.96	1290.22
344.17	1343.47
344.38	1411.05
344.60	1318.89
344.81	1314.80
345.02	1314.80
345.23	1353.71
345.44	1464.30
345.65	1304.56
345.86	1460.20
346.07	1400.81
346.29	1277.93
346.50	1380.33
346.71	1437.67
346.92	1380.33
347.13	1445.87
347.34	1361.90
347.55	1363.95
347.76	1353.71
347.98	1357.80
348.19	1368.04
348.40	1429.48
348.61	1380.33
348.82	1486.83
349.03	1370.09
349.24	1425.39
349.45	1406.95
349.66	1271.79
349.88	1357.80
350.09	1306.60
350.30	1411.05
350.51	1353.71
350.72	1339.37
350.93	1368.04
351.14	1322.99
351.35	1439.72
351.56	1349.61
351.77	1431.53
351.99	1366.00
352.20	1357.80
352.41	1388.52
352.62	1320.94
352.83	1329.13
353.04	1347.56
353.25	1372.14
353.46	1353.71
353.67	1390.57
353.88	1318.89
354.09	1398.76
354.30	1329.13
354.52	1361.90
354.73	1413.10
354.94	1298.41
355.15	1357.80
355.36	1495.02
355.57	1363.95
355.78	1396.71
355.99	1380.33
356.20	1304.56
356.41	1427.43
356.62	1335.28
356.83	1382.38
357.04	1482.73
357.25	1329.13
357.46	1415.15
357.68	1351.66
357.89	1316.84
358.10	1382.38
358.31	1343.47
358.52	1449.96
358.73	1353.71
358.94	1355.76
359.15	1282.03
359.36	1411.05
359.57	1343.47
359.78	1378.28
359.99	1347.56
360.20	1325.04
360.41	1409.00
360.62	1427.43
360.83	1449.96
361.04	1378.28
361.25	1394.67
361.46	1484.78
361.67	1427.43
361.88	1374.19
362.09	1421.29
362.30	1417.19
362.51	1392.62
362.72	1357.80
362.93	1376.24
363.14	1394.67
363.35	1316.84
363.56	1419.24
363.78	1456.11
363.99	1419.24
364.20	1355.76
364.41	1386.47
364.62	1488.87
364.83	1386.47
365.04	1329.13
365.25	1304.56
365.46	1458.15
365.67	1294.32
365.88	1388.52
366.09	1310.70
366.30	1417.19
366.51	1359.85
366.72	1353.71
366.93	1366.00
367.14	1300.46
367.35	1458.15
367.56	1374.19
367.77	1380.33
367.98	1335.28
368.18	1429.48
368.39	1396.71
368.60	1300.46
368.81	1431.53
369.02	1306.60
369.23	1333.23
369.44	1284.08
369.65	1322.99
369.86	1314.80
370.07	1454.06
370.28	1361.90
370.49	1431.53
370.70	1347.56
370.91	1292.27
371.12	1320.94
371.33	1402.86
371.54	1386.47
371.75	1398.76
371.96	1322.99
372.17	1415.15
372.38	1374.19
372.59	1466.35
372.80	1372.14
373.01	1361.90
373.22	1449.96
373.43	1329.13
373.64	1341.42
373.85	1421.29
374.06	1386.47
374.26	1390.57
374.47	1476.59
374.68	1468.39
374.89	1372.14
375.10	1355.76
375.31	1435.63
375.52	1472.49
375.73	1382.38
375.94	1337.32
376.15	1411.05
376.36	1361.90
376.57	1345.52
376.78	1421.29
376.99	1331.18
377.20	1460.20
377.40	1306.60
377.61	1417.19
377.82	1339.37
378.03	1400.81
378.24	1427.43
378.45	1417.19
378.66	1402.86
378.87	1355.76
379.08	1359.85
379.29	1406.95
379.50	1449.96
379.71	1433.58
379.91	1411.05
380.12	1394.67
380.33	1398.76
380.54	1417.19
380.75	1380.33
380.96	1349.61
381.17	1454.06
381.38	1452.01
381.59	1419.24
381.80	1411.05
382.00	1517.54
382.21	1376.24
382.42	1417.19
382.63	1517.54
382.84	1441.77
383.05	1443.82
383.26	1507.30
383.47	1437.67
383.68	1370.09
383.88	1390.57
384.09	1345.52
384.30	1398.76
384.51	1322.99
384.72	1380.33
384.93	1333.23
385.14	1421.29
385.35	1441.77
385.55	1310.70
385.76	1433.58
385.97	1322.99
386.18	1378.28
386.39	1378.28
386.60	1372.14
386.81	1374.19
387.02	1406.95
387.22	1388.52
387.43	1527.78
387.64	1583.08
387.85	2217.95
388.06	5687.21
388.27	9521.01
388.48	11413.33
388.68	13178.68
388.89	13356.85
389.10	10714.97
389.31	9236.34
389.52	8249.22
389.73	7374.74
389.93	6877.08
390.14	6471.58
390.35	5918.63
390.56	5429.17
390.77	4657.08
390.98	3674.06
391.18	2752.47
391.39	2142.18
391.60	1753.06
391.81	1535.98
392.02	1361.90
392.23	1529.83
392.43	1437.67
392.64	1427.43
392.85	1464.30
393.06	1452.01
393.27	1411.05
393.47	1331.18
393.68	1329.13
393.89	1386.47
394.10	1370.09
394.31	1290.22
394.52	1390.57
394.72	1366.00
394.93	1398.76
395.14	1341.42
395.35	1376.24
395.56	1415.15
395.76	1527.78
395.97	1605.61
396.18	1558.50
396.39	1710.05
396.60	1767.40
396.80	1574.89
397.01	1533.93
397.22	1521.64
397.43	1568.74
397.64	1427.43
397.84	1454.06
398.05	1550.31
398.26	1474.54
398.47	1417.19
398.67	1470.44
398.88	1353.71
399.09	1460.20
399.30	1394.67
399.51	1345.52
399.71	1353.71
399.92	1390.57
400.13	1249.26
400.34	1359.85
400.54	1347.56
400.75	1486.83
400.96	1384.43
401.17	1396.71
401.37	1400.81
401.58	1347.56
401.79	1617.90
402.00	1726.44
402.21	1865.70
402.41	1777.64
402.62	1812.45
402.83	1748.97
403.04	1636.33
403.24	1679.33
403.45	1529.83
403.66	1628.14
403.87	1587.18
404.07	1589.22
404.28	1632.23
404.49	1499.11
404.70	1476.59
404.90	1425.39
405.11	1429.48
405.32	1380.33
405.52	1370.09
405.73	1337.32
405.94	1333.23
406.15	1347.56
406.35	1415.15
406.56	1388.52
406.77	1452.01
406.98	1370.09
407.18	1366.00
407.39	1386.47
407.60	1322.99
407.80	1337.32
408.01	1335.28
408.22	1417.19
408.43	1404.91
408.63	1347.56
408.84	1437.67
409.05	1347.56
409.25	1355.76
409.46	1396.71
409.67	1329.13
409.88	1349.61
410.08	1372.14
410.29	1310.70
410.50	1368.04
410.70	1366.00
410.91	1366.00
411.12	1388.52
411.32	1443.82
411.53	1454.06
411.74	1466.35
411.95	1505.26
412.15	1415.15
412.36	1429.48
412.57	1435.63
412.77	1435.63
412.98	1429.48
413.19	1406.95
413.39	1404.91
413.60	1468.39
413.81	1505.26
414.01	1441.77
414.22	1458.15
414.43	1396.71
414.63	1314.80
414.84	1495.02
415.05	1411.05
415.25	1325.04
415.46	1468.39
415.67	1388.52
415.87	1429.48
416.08	1384.43
416.29	1368.04
416.49	1402.86
416.70	1355.76
416.91	1357.80
417.11	1390.57
417.32	1431.53
417.53	1347.56
417.73	1396.71
417.94	1355.76
418.15	1347.56
418.35	1398.76
418.56	1363.95
418.77	1411.05
418.97	1310.70
419.18	1390.57
419.38	1304.56
419.59	1263.60
419.80	1439.72
420.00	1294.32
420.21	1366.00
420.42	1349.61
420.62	1468.39
420.83	1318.89
421.04	1355.76
421.24	1460.20
421.45	1353.71
421.65	1361.90
421.86	1335.28
422.07	1390.57
422.27	1368.04
422.48	1386.47
422.69	1286.12
422.89	1400.81
423.10	1386.47
423.30	1286.12
423.51	1452.01
423.72	1386.47
423.92	1400.81
424.13	1320.94
424.33	1359.85
424.54	1425.39
424.75	1327.08
424.95	1519.59
425.16	1396.71
425.36	1325.04
425.57	1386.47
425.78	1384.43
425.98	1398.76
426.19	1325.04
426.39	1359.85
426.60	1470.44
426.81	1425.39
427.01	1437.67
427.22	1363.95
427.42	1302.51
427.63	1353.71
427.83	1427.43
428.04	1388.52
428.25	1427.43
428.45	1435.63
428.66	1380.33
428.86	1400.81
429.07	1378.28
429.28	1288.17
429.48	1306.60
429.69	1427.43
429.89	1376.24
430.10	1322.99
430.30	1398.76
430.51	1464.30
430.71	1325.04
430.92	1480.68
431.13	1374.19
431.33	1353.71
431.54	1413.10
431.74	1484.78
431.95	1433.58
432.15	1363.95
432.36	1335.28
432.56	1404.91
432.77	1429.48
432.98	1470.44
433.18	1378.28
433.39	1374.19
433.59	1380.33
433.80	1392.62
434.00	1476.59
434.21	1355.76
434.41	1335.28
434.62	1449.96
434.82	1359.85
435.03	1267.69
435.23	1374.19
435.44	1402.86
435.64	1396.71
435.85	1447.91
436.06	1441.77
436.26	1380.33
436.47	1353.71
436.67	1376.24
436.88	1390.57
437.08	1398.76
437.29	1460.20
437.49	1394.67
437.70	1357.80
437.90	1427.43
438.11	1505.26
438.31	1560.55
438.52	1533.93
438.72	1517.54
438.93	1554.41
439.13	1527.78
439.34	1478.63
439.54	1429.48
439.75	1460.20
439.95	1406.95
440.16	1458.15
440.36	1419.24
440.57	1392.62
440.77	1437.67
440.98	1384.43
441.18	1462.25
441.39	1372.14
441.59	1247.21
441.80	1402.86
442.00	1349.61
442.21	1361.90
442.41	1333.23
442.62	1495.02
442.82	1343.47
443.02	1304.56
443.23	1423.34
443.43	1392.62
443.64	1441.77
443.84	1396.71
444.05	1429.48
444.25	1320.94
444.46	1390.57
444.66	1382.38
444.87	1456.11
445.07	1398.76
445.28	1400.81
445.48	1443.82
445.69	1478.63
445.89	1464.30
446.09	1617.90
446.30	2277.34
446.50	3727.30
446.71	4650.94
446.91	5291.95
447.12	5693.35
447.32	4865.97
447.53	4192.19
447.73	3710.92
447.93	3391.44
448.14	3008.47
448.34	3143.63
448.55	2850.77
448.75	2813.91
448.96	2643.93
449.16	2324.44
449.36	2199.52
449.57	1908.71
449.77	1673.19
449.98	1523.69
450.18	1519.59
450.39	1427.43
450.59	1474.54
450.79	1386.47
451.00	1320.94
451.20	1384.43
451.41	1310.70
451.61	1406.95
451.81	1404.91
452.02	1409.00
452.22	1402.86
452.43	1460.20
452.63	1363.95
