SpectraSuite Data File
++++++++++++++++++++++++++++++++++++
Date: Fri May 06 09:29:17 CEST 2016
User: root
Dark Spectrum Present: No
Reference Spectrum Present: No
Number of Sampled Component Spectra: 1
Spectrometers: USB4C02835
Integration Time (usec): 100000 (USB4C02835)
Spectra Averaged: 1 (USB4C02835)
Boxcar Smoothing: 0 (USB4C02835)
Correct for Electrical Dark: No (USB4C02835)
Strobe/Lamp Enabled: No (USB4C02835)
Correct for Detector Non-linearity: No (USB4C02835)
Correct for Stray Light: No (USB4C02835)
Number of Pixels in Processed Spectrum: 3648
>>>>>Begin Processed Spectral Data<<<<<
177.47	2322.40
177.69	2322.40
177.91	2322.40
178.13	2373.60
178.36	2289.63
178.58	3219.41
178.80	3282.89
179.02	3155.92
179.24	3332.05
179.46	2891.73
179.68	2867.16
179.90	3434.44
180.13	3461.07
180.35	2795.48
180.57	2869.20
180.79	3590.09
181.01	3436.49
181.23	2959.31
181.45	3117.01
181.67	3557.32
181.90	3674.06
182.12	3051.47
182.34	2738.13
182.56	3622.86
182.78	3526.60
183.00	2828.24
183.22	2924.50
183.44	3069.91
183.66	4153.28
183.89	3182.54
184.11	2963.41
184.33	3635.14
184.55	3721.16
184.77	2979.79
184.99	2885.59
185.21	3370.96
185.43	3971.01
185.65	2942.93
185.87	2953.17
186.10	3905.48
186.32	4026.31
186.54	3121.10
186.76	3092.43
186.98	3704.78
187.20	3418.06
187.42	3020.75
187.64	2938.84
187.86	3526.60
188.08	3786.69
188.30	2797.53
188.52	2981.84
188.75	3792.84
188.97	3774.41
189.19	2893.78
189.41	2904.02
189.63	3549.13
189.85	3366.86
190.07	2779.09
190.29	2820.05
190.51	3549.13
190.73	3184.59
190.95	3188.69
191.17	2992.08
191.39	3147.73
191.61	3370.96
191.84	2947.03
192.06	3106.77
192.28	3102.67
192.50	4118.47
192.72	3112.91
192.94	3076.05
193.16	3790.79
193.38	3592.14
193.60	2889.68
193.82	3180.50
194.04	3690.44
194.26	3624.90
194.48	2957.27
194.70	2981.84
194.92	3399.63
195.14	3700.68
195.36	3039.19
195.58	3098.58
195.80	3401.68
196.02	3313.61
196.24	2885.59
196.46	3100.62
196.69	3344.33
196.91	4073.41
197.13	2992.08
197.35	3053.52
197.57	3844.04
197.79	3585.99
198.01	3018.71
198.23	2983.89
198.45	3686.34
198.67	3205.07
198.89	2832.34
199.11	3016.66
199.33	3293.13
199.55	3006.42
199.77	2901.97
199.99	3141.58
200.21	3389.39
200.43	3583.95
200.65	2791.38
200.87	2729.94
201.09	3454.92
201.31	3489.74
201.53	2965.46
201.75	3010.51
201.97	3477.45
202.19	3385.29
202.41	3074.00
202.63	3016.66
202.85	3545.03
203.07	3581.90
203.29	3098.58
203.51	2836.44
203.73	3268.56
203.95	4067.27
204.17	2889.68
204.39	3104.72
204.61	3401.68
204.83	3370.96
205.05	3096.53
205.27	2990.03
205.49	3925.96
205.71	3452.88
205.93	2863.06
206.15	2897.88
206.37	3454.92
206.59	3420.11
206.81	2746.33
207.03	2852.82
207.25	3319.76
207.47	3639.24
207.69	3039.19
207.91	3231.69
208.13	3833.80
208.34	3237.84
208.56	2904.02
208.78	2983.89
209.00	3411.92
209.22	3368.91
209.44	3020.75
209.66	2930.64
209.88	3497.93
210.10	3387.34
210.32	3000.27
210.54	3043.28
210.76	3346.38
210.98	3700.68
211.20	2846.68
211.42	3084.24
211.64	3772.36
211.86	3565.51
212.08	3082.19
212.30	2975.70
212.52	3348.43
212.74	3577.80
212.96	3053.52
213.17	3065.81
213.39	3639.24
213.61	3815.37
213.83	2906.07
214.05	2809.81
214.27	3729.35
214.49	3164.11
214.71	2947.03
214.93	3051.47
215.15	3456.97
215.37	3516.36
215.59	2850.77
215.81	3018.71
216.03	3846.09
216.24	3409.87
216.46	2928.60
216.68	3028.95
216.90	3682.25
217.12	3762.12
217.34	2914.26
217.56	3123.15
217.78	3790.79
218.00	3610.57
218.22	3088.34
218.44	3127.25
218.66	3567.56
218.87	3815.37
219.09	3084.24
219.31	2912.21
219.53	3502.03
219.75	3278.80
219.97	3039.19
220.19	3028.95
220.41	3418.06
220.63	3762.12
220.85	3030.99
221.06	3055.57
221.28	3790.79
221.50	3596.23
221.72	3006.42
221.94	2861.01
222.16	3477.45
222.38	3598.28
222.60	2906.07
222.82	3024.85
223.03	3633.10
223.25	3196.88
223.47	2951.12
223.69	3229.65
223.91	3585.99
224.13	3393.48
224.35	2838.48
224.57	3192.78
224.78	3592.14
225.00	3225.55
225.22	3127.25
225.44	2959.31
225.66	3680.20
225.88	3297.23
226.10	3057.62
226.32	2940.88
226.53	3766.21
226.75	3393.48
226.97	3094.48
227.19	2961.36
227.41	3344.33
227.63	3330.00
227.85	2787.29
228.06	3041.23
228.28	3522.51
228.50	3688.39
228.72	2840.53
228.94	2906.07
229.16	3059.67
229.37	3176.40
229.59	2830.29
229.81	3248.08
230.03	3424.20
230.25	3082.19
230.47	2795.48
230.69	2994.13
230.90	3647.43
231.12	3330.00
231.34	3065.81
231.56	3063.76
231.78	3196.88
232.00	3516.36
232.21	3026.90
232.43	3033.04
232.65	3041.23
232.87	3524.55
233.09	2793.43
233.30	2906.07
233.52	3643.34
233.74	3442.64
233.96	2910.16
234.18	3174.35
234.40	3481.55
234.61	4018.11
234.83	2852.82
235.05	2994.13
235.27	4079.55
235.49	3674.06
235.70	2818.00
235.92	3002.32
236.14	3610.57
236.36	3993.54
236.58	2852.82
236.79	3092.43
237.01	3325.90
237.23	3467.21
237.45	3229.65
237.67	2983.89
237.88	3542.99
238.10	3831.75
238.32	2815.96
238.54	2910.16
238.76	3506.12
238.97	3354.57
239.19	2883.54
239.41	3053.52
239.63	3755.97
239.85	3397.58
240.06	3035.09
240.28	2871.25
240.50	3721.16
240.72	3389.39
240.93	2807.77
241.15	3114.96
241.37	3475.40
241.59	3712.97
241.81	3020.75
242.02	3098.58
242.24	3469.26
242.46	3573.71
242.68	2836.44
242.89	2912.21
243.11	3596.23
243.33	3416.01
243.55	2910.16
243.76	2967.51
243.98	3389.39
244.20	3442.64
244.42	2924.50
244.64	2944.98
244.85	3016.66
245.07	3258.32
245.29	2947.03
245.51	3008.47
245.72	3528.65
245.94	3643.34
246.16	2906.07
246.38	3002.32
246.59	3319.76
246.81	3254.22
247.03	2887.64
247.24	2865.11
247.46	3330.00
247.68	3491.79
247.90	2926.55
248.11	3026.90
248.33	3618.76
248.55	3387.34
248.77	2996.18
248.98	3059.67
249.20	3868.61
249.42	3508.17
249.64	2938.84
249.85	2975.70
250.07	3321.81
250.29	3540.94
250.50	3014.61
250.72	2883.54
250.94	3540.94
251.16	3966.92
251.37	2987.99
251.59	3059.67
251.81	3672.01
252.02	3796.93
252.24	2852.82
252.46	3096.53
252.68	3344.33
252.89	3262.41
253.11	2828.24
253.33	3172.30
253.54	3786.69
253.76	3229.65
253.98	2904.02
254.20	2938.84
254.41	3174.35
254.63	3446.73
254.85	2709.46
255.06	3098.58
255.28	3590.09
255.50	3401.68
255.71	2983.89
255.93	2770.90
256.15	3422.16
256.36	3614.66
256.58	2815.96
256.80	2877.40
257.02	3354.57
257.23	3360.72
257.45	2967.51
257.67	3139.54
257.88	3307.47
258.10	3598.28
258.32	3002.32
258.53	3047.38
258.75	3803.08
258.97	3266.51
259.18	2832.34
259.40	2887.64
259.62	3850.18
259.83	3729.35
260.05	2979.79
260.27	3999.68
260.48	3602.38
260.70	3280.85
260.92	2865.11
261.13	3037.14
261.35	3477.45
261.57	3559.37
261.78	2885.59
262.00	2920.40
262.22	3497.93
262.43	3291.09
262.65	2975.70
262.86	2977.75
263.08	3921.86
263.30	3463.12
263.51	2832.34
263.73	2930.64
263.95	3880.90
264.16	3291.09
264.38	2904.02
264.60	2848.72
264.81	3405.77
265.03	3631.05
265.25	3422.16
265.46	2926.55
265.68	3717.06
265.89	3624.90
266.11	2875.35
266.33	2934.74
266.54	3737.54
266.76	3506.12
266.98	3080.14
267.19	3194.83
267.41	3704.78
267.62	3409.87
267.84	2717.65
268.06	3043.28
268.27	3590.09
268.49	3721.16
268.70	3020.75
268.92	2975.70
269.14	3243.98
269.35	3172.30
269.57	3078.10
269.79	3076.05
270.00	3354.57
270.22	3837.89
270.43	2881.49
270.65	2869.20
270.87	3542.99
271.08	3676.10
271.30	3057.62
271.51	2965.46
271.73	3622.86
271.95	3841.99
272.16	2926.55
272.38	3049.43
272.59	3377.10
272.81	3598.28
273.02	2861.01
273.24	3000.27
273.46	3729.35
273.67	3221.45
273.89	2815.96
274.10	2975.70
274.32	3762.12
274.54	3493.83
274.75	3114.96
274.97	3033.04
275.18	3618.76
275.40	3456.97
275.61	3051.47
275.83	3213.26
276.05	3276.75
276.26	3463.12
276.48	3121.10
276.69	3157.97
276.91	3297.23
277.12	3815.37
277.34	3139.54
277.55	3241.93
277.77	3360.72
277.99	3434.44
278.20	3139.54
278.42	2983.89
278.63	3317.71
278.85	3262.41
279.06	3123.15
279.28	3184.59
279.49	3653.58
279.71	3571.66
279.93	3168.21
280.14	3168.21
280.36	3319.76
280.57	3696.58
280.79	3074.00
281.00	3000.27
281.22	3334.09
281.43	3805.13
281.65	2930.64
281.86	3084.24
282.08	3559.37
282.29	3917.76
282.51	3041.23
282.73	3010.51
282.94	3106.77
283.16	3678.15
283.37	3088.34
283.59	3106.77
283.80	3555.27
284.02	3373.00
284.23	3114.96
284.45	3100.62
284.66	3266.51
284.88	3344.33
285.09	3041.23
285.31	3176.40
285.52	3467.21
285.74	3147.73
285.95	3352.52
286.17	3102.67
286.38	3639.24
286.60	3272.65
286.81	3061.71
287.03	3057.62
287.24	3413.96
287.46	3614.66
287.67	3246.03
287.89	3348.43
288.10	3491.79
288.32	3518.41
288.53	3209.17
288.75	3074.00
288.96	3575.75
289.18	3272.65
289.39	3035.09
289.61	3151.82
289.82	3960.77
290.04	3880.90
290.25	2977.75
290.47	3170.26
290.68	3385.29
290.90	3704.78
291.11	2856.92
291.33	3268.56
291.54	3368.91
291.76	3319.76
291.97	3305.42
292.18	3160.02
292.40	3381.20
292.61	3209.17
292.83	3373.00
293.04	3166.16
293.26	3585.99
293.47	3424.20
293.69	3016.66
293.90	2998.23
294.12	3727.30
294.33	3502.03
294.55	3164.11
294.76	3319.76
294.97	3819.46
295.19	3833.80
295.40	3110.86
295.62	3168.21
295.83	3692.49
296.05	3352.52
296.26	3364.81
296.48	3133.39
296.69	3407.82
296.90	3473.36
297.12	3237.84
297.33	3225.55
297.55	3489.74
297.76	3575.75
297.98	3205.07
298.19	3305.42
298.41	3452.88
298.62	3313.61
298.83	3303.37
299.05	3280.85
299.26	3352.52
299.48	3299.28
299.69	3241.93
299.90	3067.86
300.12	3362.76
300.33	3643.34
300.55	3114.96
300.76	3157.97
300.98	3246.03
301.19	3635.14
301.40	3049.43
301.62	3045.33
301.83	3590.09
302.05	3395.53
302.26	3008.47
302.47	3229.65
302.69	3231.69
302.90	3508.17
303.12	2983.89
303.33	3164.11
303.54	3880.90
303.76	3366.86
303.97	3024.85
304.19	3266.51
304.40	3307.47
304.61	3606.47
304.83	3225.55
305.04	3192.78
305.26	3608.52
305.47	3397.58
305.68	3059.67
305.90	2994.13
306.11	3768.26
306.33	3510.22
306.54	2928.60
306.75	3045.33
306.97	3125.20
307.18	3205.07
307.39	3051.47
307.61	3157.97
307.82	3405.77
308.04	3663.82
308.25	2979.79
308.46	3291.09
308.68	3487.69
308.89	3532.75
309.10	3196.88
309.32	3065.81
309.53	3461.07
309.74	3565.51
309.96	3037.14
310.17	3164.11
310.39	3352.52
310.60	3559.37
310.81	3160.02
311.03	2994.13
311.24	3690.44
311.45	3368.91
311.67	3354.57
311.88	3123.15
312.09	3416.01
312.31	3303.37
312.52	2955.22
312.73	2985.94
312.95	3221.45
313.16	3209.17
313.37	3274.70
313.59	3317.71
313.80	3661.77
314.01	3702.73
314.23	3139.54
314.44	3004.37
314.65	3180.50
314.87	3311.57
315.08	3074.00
315.29	3198.93
315.51	3301.33
315.72	3051.47
315.93	3168.21
316.15	3155.92
316.36	3356.62
316.57	3481.55
316.79	3086.29
317.00	3024.85
317.21	3534.79
317.43	3315.66
317.64	3207.12
317.85	3026.90
318.07	3381.20
318.28	3383.24
318.49	3166.16
318.70	3295.18
318.92	3514.31
319.13	3483.59
319.34	3262.41
319.56	3035.09
319.77	3549.13
319.98	3495.88
320.20	3379.15
320.41	3278.80
320.62	3700.68
320.83	3168.21
321.05	3311.57
321.26	3153.87
321.47	3459.02
321.69	3790.79
321.90	3059.67
322.11	3084.24
322.32	3524.55
322.54	3749.83
322.75	3186.64
322.96	4222.91
323.18	3153.87
323.39	3069.91
323.60	2981.84
323.81	3131.34
324.03	3276.75
324.24	3426.25
324.45	3235.79
324.66	3037.14
324.88	3712.97
325.09	3788.74
325.30	3051.47
325.52	3016.66
325.73	3549.13
325.94	3291.09
326.15	3020.75
326.37	2975.70
326.58	3631.05
326.79	3852.23
327.00	3067.86
327.22	2983.89
327.43	3385.29
327.64	3239.89
327.85	3348.43
328.07	3131.34
328.28	3864.52
328.49	3352.52
328.70	3141.58
328.92	3082.19
329.13	3475.40
329.34	3575.75
329.55	3286.99
329.76	3272.65
329.98	3323.85
330.19	3786.69
330.40	3246.03
330.61	3256.27
330.83	3616.71
331.04	3270.61
331.25	3182.54
331.46	3221.45
331.68	3196.88
331.89	3647.43
332.10	3121.10
332.31	2969.55
332.52	3454.92
332.74	3678.15
332.95	2971.60
333.16	3121.10
333.37	3579.85
333.58	3313.61
333.80	3098.58
334.01	2924.50
334.22	3444.68
334.43	3354.57
334.64	3033.04
334.86	3045.33
335.07	3213.26
335.28	3778.50
335.49	3024.85
335.70	3172.30
335.92	3715.02
336.13	3997.64
336.34	3114.96
336.55	3067.86
336.76	3526.60
336.98	2985.94
337.19	3119.06
337.40	3164.11
337.61	4011.97
337.82	3399.63
338.04	3219.41
338.25	2901.97
338.46	3506.12
338.67	3522.51
338.88	3033.04
339.09	2996.18
339.31	3358.67
339.52	3278.80
339.73	3028.95
339.94	3182.54
340.15	3563.47
340.36	3340.24
340.58	3164.11
340.79	2959.31
341.00	3598.28
341.21	3151.82
341.42	3383.24
341.63	3106.77
341.85	3639.24
342.06	3463.12
342.27	3039.19
342.48	3270.61
342.69	3133.39
342.90	3602.38
343.12	3522.51
343.33	3010.51
343.54	3653.58
343.75	3782.60
343.96	3235.79
344.17	2967.51
344.38	3461.07
344.60	3274.70
344.81	3166.16
345.02	3092.43
345.23	3712.97
345.44	4044.74
345.65	3147.73
345.86	3182.54
346.07	3497.93
346.29	3307.47
346.50	3305.42
346.71	3108.82
346.92	3667.91
347.13	3901.38
347.34	3250.13
347.55	3033.04
347.76	3616.71
347.98	3211.22
348.19	3143.63
348.40	3254.22
348.61	3303.37
348.82	3778.50
349.03	3182.54
349.24	3061.71
349.45	3860.42
349.66	3033.04
349.88	3127.25
350.09	2961.36
350.30	3831.75
350.51	3682.25
350.72	3387.34
350.93	3090.38
351.14	3280.85
351.35	3438.54
351.56	3098.58
351.77	3155.92
351.99	3565.51
352.20	3751.88
352.41	3188.69
352.62	2920.40
352.83	3520.46
353.04	3426.25
353.25	3090.38
353.46	3129.30
353.67	3704.78
353.88	2996.18
354.09	3020.75
354.30	3170.26
354.52	3567.56
354.73	3370.96
354.94	3117.01
355.15	3192.78
355.36	3860.42
355.57	3282.89
355.78	3030.99
355.99	3016.66
356.20	3536.84
356.41	3698.63
356.62	3153.87
356.83	3092.43
357.04	3649.48
357.25	3155.92
357.46	3022.80
357.68	2932.69
357.89	3315.66
358.10	3393.48
358.31	3041.23
358.52	3123.15
358.73	3160.02
358.94	3196.88
359.15	3166.16
359.36	3178.45
359.57	3489.74
359.78	3467.21
359.99	3268.56
360.20	2975.70
360.41	3373.00
360.62	3557.32
360.83	3250.13
361.04	3160.02
361.25	3563.47
361.46	3786.69
361.67	3278.80
361.88	3102.67
362.09	3694.54
362.30	3594.19
362.51	3110.86
362.72	3192.78
362.93	3612.62
363.14	3495.88
363.35	3274.70
363.56	3061.71
363.78	3672.01
363.99	3614.66
364.20	3102.67
364.41	3139.54
364.62	3909.57
364.83	3516.36
365.04	3164.11
365.25	3108.82
365.46	3913.67
365.67	3280.85
365.88	3379.15
366.09	3053.52
366.30	3403.72
366.51	3391.44
366.72	3059.67
366.93	3026.90
367.14	3483.59
367.35	3698.63
367.56	3100.62
367.77	3153.87
367.98	3473.36
368.18	3499.98
368.39	3205.07
368.60	3049.43
368.81	3663.82
369.02	3577.80
369.23	3024.85
369.44	2953.17
369.65	3461.07
369.86	3585.99
370.07	3192.78
370.28	3018.71
370.49	3526.60
370.70	3512.27
370.91	3028.95
371.12	2979.79
371.33	3684.30
371.54	3327.95
371.75	3270.61
371.96	2881.49
372.17	3467.21
372.38	3426.25
372.59	3203.02
372.80	3041.23
373.01	3373.00
373.22	3639.24
373.43	3057.62
373.64	2990.03
373.85	3715.02
374.06	3774.41
374.26	3303.37
374.47	3274.70
374.68	3784.65
374.89	3495.88
375.10	3035.09
375.31	3252.17
375.52	3475.40
375.73	3395.53
375.94	2967.51
376.15	3217.36
376.36	3198.93
376.57	3315.66
376.78	3147.73
376.99	3182.54
377.20	3741.64
377.40	3330.00
377.61	3350.48
377.82	3131.34
378.03	3796.93
378.24	3542.99
378.45	3205.07
378.66	3266.51
378.87	3074.00
379.08	3074.00
379.29	3094.48
379.50	3237.84
379.71	3463.12
379.91	3557.32
380.12	3049.43
380.33	3198.93
380.54	3426.25
380.75	3430.35
380.96	3229.65
381.17	3131.34
381.38	3422.16
381.59	3393.48
381.80	3151.82
382.00	3254.22
382.21	3510.22
382.42	3753.93
382.63	3487.69
382.84	3248.08
383.05	3655.62
383.26	3702.73
383.47	3213.26
383.68	3061.71
383.88	3598.28
384.09	3502.03
384.30	3348.43
384.51	3223.50
384.72	3381.20
384.93	3203.02
385.14	3188.69
385.35	3379.15
385.55	3082.19
385.76	3657.67
385.97	3170.26
386.18	2996.18
386.39	3336.14
386.60	3330.00
386.81	3090.38
387.02	2998.23
387.22	3166.16
387.43	3594.19
387.64	3188.69
387.85	3358.67
388.06	3418.06
388.27	4403.13
388.48	7169.94
388.68	10809.18
388.89	13502.26
389.10	14538.53
389.31	14282.53
389.52	11714.38
389.73	10319.71
389.93	9443.18
390.14	8437.63
390.35	7909.26
390.56	7372.69
390.77	6141.86
390.98	4671.42
391.18	4007.87
391.39	3989.44
391.60	3436.49
391.81	3385.29
392.02	3125.20
392.23	3876.80
392.43	3512.27
392.64	3217.36
392.85	3235.79
393.06	3749.83
393.27	3444.68
393.47	3090.38
393.68	3147.73
393.89	3370.96
394.10	3721.16
394.31	3157.97
394.52	3024.85
394.72	3377.10
394.93	3819.46
395.14	2994.13
395.35	3196.88
395.56	3293.13
395.76	3346.38
395.97	3020.75
396.18	3315.66
396.39	3393.48
396.60	4108.23
396.80	3510.22
397.01	3344.33
397.22	3758.02
397.43	3667.91
397.64	3086.29
397.84	3196.88
398.05	3829.70
398.26	3385.29
398.47	3227.60
398.67	3436.49
398.88	3477.45
399.09	3600.33
399.30	3069.91
399.51	3160.02
399.71	3266.51
399.92	3459.02
400.13	3215.31
400.34	3149.78
400.54	3459.02
400.75	3680.20
400.96	3176.40
401.17	3452.88
401.37	3606.47
401.58	3418.06
401.79	3041.23
402.00	3237.84
402.21	3925.96
402.41	3588.04
402.62	3418.06
402.83	3553.23
403.04	3770.31
403.24	4229.06
403.45	3243.98
403.66	3428.30
403.87	3704.78
404.07	3809.22
404.28	3336.14
404.49	3491.79
404.70	3596.23
404.90	3551.18
405.11	3108.82
405.32	3239.89
405.52	3264.46
405.73	3256.27
405.94	3069.91
406.15	3256.27
406.35	3491.79
406.56	3594.19
406.77	3217.36
406.98	3131.34
407.18	3303.37
407.39	3794.89
407.60	3139.54
407.80	3233.74
408.01	3284.94
408.22	3629.00
408.43	3110.86
408.63	3215.31
408.84	3659.72
409.05	3674.06
409.25	3078.10
409.46	3205.07
409.67	3319.76
409.88	3207.12
410.08	3131.34
410.29	3094.48
410.50	3772.36
410.70	3612.62
410.91	3090.38
411.12	3205.07
411.32	3465.16
411.53	3276.75
411.74	3102.67
411.95	3223.50
412.15	3547.08
412.36	3592.14
412.57	3334.09
412.77	3295.18
412.98	3377.10
413.19	3330.00
413.39	3229.65
413.60	3157.97
413.81	3643.34
414.01	3188.69
414.22	3102.67
414.43	3428.30
414.63	3334.09
414.84	3588.04
415.05	3094.48
415.25	3090.38
415.46	3653.58
415.67	3284.94
415.87	3114.96
416.08	3139.54
416.29	3368.91
416.49	3579.85
416.70	3104.72
416.91	3137.49
417.11	3385.29
417.32	3669.96
417.53	3203.02
417.73	3266.51
417.94	3506.12
418.15	3565.51
418.35	3264.46
418.56	3209.17
418.77	3909.57
418.97	3549.13
419.18	3250.13
419.38	2820.05
419.59	3418.06
419.80	3862.47
420.00	3018.71
420.21	3131.34
420.42	3758.02
420.62	3561.42
420.83	3170.26
421.04	3117.01
421.24	3434.44
421.45	3567.56
421.65	3137.49
421.86	3221.45
422.07	3696.58
422.27	3594.19
422.48	3145.68
422.69	3002.32
422.89	3520.46
423.10	3446.73
423.30	3090.38
423.51	3164.11
423.72	3549.13
423.92	3657.67
424.13	3020.75
424.33	3209.17
424.54	3647.43
424.75	3469.26
424.95	3389.39
425.16	3127.25
425.36	3401.68
425.57	3708.87
425.78	3354.57
425.98	3215.31
426.19	3391.44
426.39	3250.13
426.60	3221.45
426.81	3297.23
427.01	3502.03
427.22	3289.04
427.42	2967.51
427.63	3114.96
427.83	3688.39
428.04	3788.74
428.25	3266.51
428.45	3311.57
428.66	3710.92
428.86	3409.87
429.07	3231.69
429.28	3209.17
429.48	3438.54
429.69	3344.33
429.89	3297.23
430.10	3090.38
430.30	3573.71
430.51	3684.30
430.71	3125.20
430.92	3198.93
431.13	3338.19
431.33	3618.76
431.54	3225.55
431.74	3344.33
431.95	3966.92
432.15	3301.33
432.36	3153.87
432.56	3147.73
432.77	3930.05
432.98	3805.13
433.18	3180.50
433.39	3055.57
433.59	3370.96
433.80	3981.25
434.00	3338.19
434.21	3203.02
434.41	3235.79
434.62	3983.30
434.82	2992.08
435.03	3108.82
435.23	3551.18
435.44	3129.30
435.64	3102.67
435.85	3209.17
436.06	3616.71
436.26	3629.00
436.47	3147.73
436.67	3106.77
436.88	3286.99
437.08	3715.02
437.29	3293.13
437.49	3254.22
437.70	3790.79
437.90	3481.55
438.11	3432.40
438.31	3221.45
438.52	3694.54
438.72	3676.10
438.93	3346.38
439.13	3319.76
439.34	3616.71
439.54	3301.33
439.75	3231.69
439.95	3280.85
440.16	3248.08
440.36	3481.55
440.57	3139.54
440.77	3131.34
440.98	3461.07
441.18	3557.32
441.39	3092.43
441.59	3092.43
441.80	3844.04
442.00	3370.96
442.21	3295.18
442.41	3008.47
442.62	3712.97
442.82	3246.03
443.02	3168.21
443.23	3205.07
443.43	3373.00
443.64	3633.10
443.84	3018.71
444.05	3213.26
444.25	3483.59
444.46	3284.94
444.66	3192.78
444.87	3358.67
445.07	3131.34
445.28	3395.53
445.48	3413.96
445.69	3131.34
445.89	4048.83
446.09	3444.68
446.30	3405.77
446.50	3540.94
446.71	5009.33
446.91	6123.43
447.12	6821.78
447.32	7239.57
447.53	7247.76
447.73	6213.54
447.93	5271.47
448.14	5207.98
448.34	5410.73
448.55	4274.11
448.75	4493.24
448.96	4075.46
449.16	4048.83
449.36	3995.59
449.57	3397.58
449.77	3215.31
449.98	3286.99
450.18	3528.65
450.39	3112.91
450.59	3397.58
450.79	3450.83
451.00	3303.37
451.20	3403.72
451.41	3149.78
451.61	3602.38
451.81	3409.87
452.02	3102.67
452.22	3207.12
452.43	3303.37
