SpectraSuite Data File
++++++++++++++++++++++++++++++++++++
Date: Fri May 06 09:28:43 CEST 2016
User: root
Dark Spectrum Present: No
Reference Spectrum Present: No
Number of Sampled Component Spectra: 1
Spectrometers: USB4C02835
Integration Time (usec): 100000 (USB4C02835)
Spectra Averaged: 1 (USB4C02835)
Boxcar Smoothing: 0 (USB4C02835)
Correct for Electrical Dark: No (USB4C02835)
Strobe/Lamp Enabled: No (USB4C02835)
Correct for Detector Non-linearity: No (USB4C02835)
Correct for Stray Light: No (USB4C02835)
Number of Pixels in Processed Spectrum: 3648
>>>>>Begin Processed Spectral Data<<<<<
177.47	2326.49
177.69	2326.49
177.91	2326.49
178.13	2308.06
178.36	2340.83
178.58	3176.40
178.80	3246.03
179.02	3155.92
179.24	3155.92
179.46	2846.68
179.68	2871.25
179.90	3356.62
180.13	3499.98
180.35	2779.09
180.57	2871.25
180.79	3649.48
181.01	3387.34
181.23	2930.64
181.45	3114.96
181.67	3655.62
181.90	3698.63
182.12	3024.85
182.34	2838.48
182.56	3557.32
182.78	3499.98
183.00	2897.88
183.22	3035.09
183.44	3127.25
183.66	4036.55
183.89	3151.82
184.11	3039.19
184.33	3643.34
184.55	3682.25
184.77	2940.88
184.99	2914.26
185.21	3254.22
185.43	4073.41
185.65	2992.08
185.87	2875.35
186.10	3975.11
186.32	3954.63
186.54	3055.57
186.76	3041.23
186.98	3661.77
187.20	3428.30
187.42	3069.91
187.64	2955.22
187.86	3497.93
188.08	3661.77
188.30	2885.59
188.52	3067.86
188.75	3790.79
188.97	3819.46
189.19	2934.74
189.41	2879.44
189.63	3598.28
189.85	3387.34
190.07	2865.11
190.29	2764.76
190.51	3569.61
190.73	3194.83
190.95	3123.15
191.17	2928.60
191.39	3123.15
191.61	3377.10
191.84	2942.93
192.06	3102.67
192.28	3127.25
192.50	4270.01
192.72	3155.92
192.94	3076.05
193.16	3674.06
193.38	3575.75
193.60	2910.16
193.82	3209.17
194.04	3704.78
194.26	3479.50
194.48	2987.99
194.70	3018.71
194.92	3356.62
195.14	3674.06
195.36	2926.55
195.58	3008.47
195.80	3377.10
196.02	3336.14
196.24	2893.78
196.46	3035.09
196.69	3330.00
196.91	3917.76
197.13	3020.75
197.35	3059.67
197.57	3823.56
197.79	3622.86
198.01	3016.66
198.23	2994.13
198.45	3674.06
198.67	3125.20
198.89	2805.72
199.11	3078.10
199.33	3354.57
199.55	2983.89
199.77	2877.40
199.99	3061.71
200.21	3284.94
200.43	3641.29
200.65	2928.60
200.87	2832.34
201.09	3463.12
201.31	3422.16
201.53	2975.70
201.75	2951.12
201.97	3499.98
202.19	3508.17
202.41	3065.81
202.63	3030.99
202.85	3608.52
203.07	3540.94
203.29	3055.57
203.51	2889.68
203.73	3299.28
203.95	4145.09
204.17	2967.51
204.39	3090.38
204.61	3428.30
204.83	3336.14
205.05	3241.93
205.27	2985.94
205.49	3956.68
205.71	3459.02
205.93	2846.68
206.15	2887.64
206.37	3420.11
206.59	3405.77
206.81	2807.77
207.03	2815.96
207.25	3270.61
207.47	3504.07
207.69	2871.25
207.91	3215.31
208.13	3790.79
208.34	3377.10
208.56	2914.26
208.78	2953.17
209.00	3379.15
209.22	3319.76
209.44	3020.75
209.66	2875.35
209.88	3512.27
210.10	3313.61
210.32	2942.93
210.54	3053.52
210.76	3350.48
210.98	3633.10
211.20	2713.56
211.42	3108.82
211.64	3835.85
211.86	3508.17
212.08	2963.41
212.30	3035.09
212.52	3373.00
212.74	3592.14
212.96	3063.76
213.17	3037.14
213.39	3729.35
213.61	3934.15
213.83	2885.59
214.05	2799.57
214.27	3618.76
214.49	3207.12
214.71	2914.26
214.93	3127.25
215.15	3479.50
215.37	3680.20
215.59	2838.48
215.81	2979.79
216.03	3702.73
216.24	3434.44
216.46	2979.79
216.68	2979.79
216.90	3678.15
217.12	3616.71
217.34	2910.16
217.56	3229.65
217.78	3790.79
218.00	3565.51
218.22	3045.33
218.44	3061.71
218.66	3499.98
218.87	3887.04
219.09	2975.70
219.31	3024.85
219.53	3565.51
219.75	3391.44
219.97	2985.94
220.19	3037.14
220.41	3403.72
220.63	3823.56
220.85	2992.08
221.06	2967.51
221.28	3833.80
221.50	3594.19
221.72	2961.36
221.94	2904.02
222.16	3534.79
222.38	3712.97
222.60	2977.75
222.82	2990.03
223.03	3600.33
223.25	3241.93
223.47	2928.60
223.69	3194.83
223.91	3549.13
224.13	3555.27
224.35	2838.48
224.57	3164.11
224.78	3585.99
225.00	3225.55
225.22	3067.86
225.44	2906.07
225.66	3508.17
225.88	3330.00
226.10	3094.48
226.32	2944.98
226.53	3835.85
226.75	3346.38
226.97	3088.34
227.19	2971.60
227.41	3336.14
227.63	3381.20
227.85	2775.00
228.06	3026.90
228.28	3540.94
228.50	3624.90
228.72	2764.76
228.94	3047.38
229.16	2959.31
229.37	3256.27
229.59	2836.44
229.81	3221.45
230.03	3289.04
230.25	3258.32
230.47	2807.77
230.69	2920.40
230.90	3594.19
231.12	3246.03
231.34	3098.58
231.56	2992.08
231.78	3147.73
232.00	3557.32
232.21	3047.38
232.43	2994.13
232.65	3035.09
232.87	3499.98
233.09	2871.25
233.30	2906.07
233.52	3747.78
233.74	3327.95
233.96	2893.78
234.18	3139.54
234.40	3434.44
234.61	4061.12
234.83	2881.49
235.05	3020.75
235.27	3995.59
235.49	3661.77
235.70	2820.05
235.92	3074.00
236.14	3557.32
236.36	4036.55
236.58	2838.48
236.79	3074.00
237.01	3442.64
237.23	3383.24
237.45	3268.56
237.67	2994.13
237.88	3585.99
238.10	3938.24
238.32	2901.97
238.54	2852.82
238.76	3477.45
238.97	3166.16
239.19	2834.39
239.41	2985.94
239.63	3723.21
239.85	3411.92
240.06	3049.43
240.28	2910.16
240.50	3729.35
240.72	3549.13
240.93	2889.68
241.15	3131.34
241.37	3422.16
241.59	3811.27
241.81	2998.23
242.02	2985.94
242.24	3545.03
242.46	3590.09
242.68	2766.81
242.89	2895.83
243.11	3688.39
243.33	3495.88
243.55	3000.27
243.76	2973.65
243.98	3280.85
244.20	3413.96
244.42	2996.18
244.64	2906.07
244.85	3098.58
245.07	3254.22
245.29	2955.22
245.51	3080.14
245.72	3561.42
245.94	3694.54
246.16	2963.41
246.38	3051.47
246.59	3323.85
246.81	3286.99
247.03	2887.64
247.24	2846.68
247.46	3385.29
247.68	3553.23
247.90	2869.20
248.11	2922.45
248.33	3626.95
248.55	3442.64
248.77	3000.27
248.98	3137.49
249.20	3770.31
249.42	3506.12
249.64	2947.03
249.85	2934.74
250.07	3321.81
250.29	3565.51
250.50	3063.76
250.72	2906.07
250.94	3532.75
251.16	3903.43
251.37	2922.45
251.59	3114.96
251.81	3557.32
252.02	3698.63
252.24	2844.63
252.46	3110.86
252.68	3311.57
252.89	3272.65
253.11	2777.05
253.33	3071.95
253.54	3764.17
253.76	3270.61
253.98	2957.27
254.20	2893.78
254.41	3209.17
254.63	3409.87
254.85	2775.00
255.06	3061.71
255.28	3538.89
255.50	3397.58
255.71	2944.98
255.93	2764.76
256.15	3436.49
256.36	3612.62
256.58	2805.72
256.80	2795.48
257.02	3467.21
257.23	3424.20
257.45	3014.61
257.67	3004.37
257.88	3364.81
258.10	3592.14
258.32	3012.56
258.53	3024.85
258.75	3854.28
258.97	3295.18
259.18	2910.16
259.40	2852.82
259.62	3798.98
259.83	3741.64
260.05	3014.61
260.27	3973.06
260.48	3629.00
260.70	3258.32
260.92	2815.96
261.13	3000.27
261.35	3588.04
261.57	3635.14
261.78	2877.40
262.00	2901.97
262.22	3624.90
262.43	3272.65
262.65	2965.46
262.86	3049.43
263.08	4067.27
263.30	3481.55
263.51	2754.52
263.73	2932.69
263.95	3833.80
264.16	3250.13
264.38	2887.64
264.60	2899.92
264.81	3407.82
265.03	3747.78
265.25	3393.48
265.46	2944.98
265.68	3739.59
265.89	3618.76
266.11	2830.29
266.33	2873.30
266.54	3651.53
266.76	3497.93
266.98	3145.68
267.19	3139.54
267.41	3696.58
267.62	3323.85
267.84	2777.05
268.06	3092.43
268.27	3436.49
268.49	3698.63
268.70	2957.27
268.92	2963.41
269.14	3317.71
269.35	3170.26
269.57	3121.10
269.79	3000.27
270.00	3338.19
270.22	3835.85
270.43	2887.64
270.65	2848.72
270.87	3506.12
271.08	3704.78
271.30	3143.63
271.51	2934.74
271.73	3585.99
271.95	3749.83
272.16	2926.55
272.38	3137.49
272.59	3426.25
272.81	3653.58
273.02	2844.63
273.24	3024.85
273.46	3762.12
273.67	3225.55
273.89	2852.82
274.10	2930.64
274.32	3729.35
274.54	3522.51
274.75	3092.43
274.97	3100.62
275.18	3577.80
275.40	3592.14
275.61	2975.70
275.83	3117.01
276.05	3221.45
276.26	3401.68
276.48	3094.48
276.69	3071.95
276.91	3368.91
277.12	3846.09
277.34	3155.92
277.55	3211.22
277.77	3508.17
277.99	3434.44
278.20	3065.81
278.42	2951.12
278.63	3325.90
278.85	3327.95
279.06	3074.00
279.28	3188.69
279.49	3739.59
279.71	3610.57
279.93	3149.78
280.14	3217.36
280.36	3280.85
280.57	3602.38
280.79	3254.22
281.00	3024.85
281.22	3295.18
281.43	3680.20
281.65	2856.92
281.86	3074.00
282.08	3504.07
282.29	3882.95
282.51	2981.84
282.73	3008.47
282.94	3211.22
283.16	3692.49
283.37	3143.63
283.59	3084.24
283.80	3585.99
284.02	3395.53
284.23	3127.25
284.45	3215.31
284.66	3266.51
284.88	3256.27
285.09	2992.08
285.31	3137.49
285.52	3561.42
285.74	3139.54
285.95	3254.22
286.17	3057.62
286.38	3520.46
286.60	3330.00
286.81	3053.52
287.03	3047.38
287.24	3420.11
287.46	3669.96
287.67	3250.13
287.89	3364.81
288.10	3430.35
288.32	3534.79
288.53	3149.78
288.75	3194.83
288.96	3549.13
289.18	3379.15
289.39	3010.51
289.61	3217.36
289.82	3932.10
290.04	3887.04
290.25	2955.22
290.47	3182.54
290.68	3479.50
290.90	3581.90
291.11	2891.73
291.33	3332.05
291.54	3237.84
291.76	3258.32
291.97	3231.69
292.18	3194.83
292.40	3364.81
292.61	3325.90
292.83	3325.90
293.04	3106.77
293.26	3536.84
293.47	3422.16
293.69	3004.37
293.90	3018.71
294.12	3815.37
294.33	3413.96
294.55	3133.39
294.76	3299.28
294.97	3766.21
295.19	3903.43
295.40	3160.02
295.62	3196.88
295.83	3573.71
296.05	3305.42
296.26	3407.82
296.48	3137.49
296.69	3463.12
296.90	3413.96
297.12	3221.45
297.33	3200.98
297.55	3502.03
297.76	3547.08
297.98	3239.89
298.19	3325.90
298.41	3377.10
298.62	3203.02
298.83	3307.47
299.05	3184.59
299.26	3411.92
299.48	3170.26
299.69	3141.58
299.90	3067.86
300.12	3260.37
300.33	3606.47
300.55	3145.68
300.76	3100.62
300.98	3256.27
301.19	3534.79
301.40	3139.54
301.62	3067.86
301.83	3624.90
302.05	3483.59
302.26	3028.95
302.47	3141.58
302.69	3139.54
302.90	3436.49
303.12	3002.32
303.33	3225.55
303.54	3784.65
303.76	3348.43
303.97	3086.29
304.19	3282.89
304.40	3297.23
304.61	3598.28
304.83	3270.61
305.04	3139.54
305.26	3585.99
305.47	3307.47
305.68	3196.88
305.90	2951.12
306.11	3721.16
306.33	3401.68
306.54	2959.31
306.75	3100.62
306.97	3098.58
307.18	3260.37
307.39	3096.53
307.61	3172.30
307.82	3420.11
308.04	3585.99
308.25	2926.55
308.46	3221.45
308.68	3426.25
308.89	3409.87
309.10	3190.74
309.32	3106.77
309.53	3397.58
309.74	3641.29
309.96	2983.89
310.17	3243.98
310.39	3332.05
310.60	3532.75
310.81	3131.34
311.03	2967.51
311.24	3567.56
311.45	3409.87
311.67	3438.54
311.88	3250.13
312.09	3409.87
312.31	3348.43
312.52	3078.10
312.73	3002.32
312.95	3149.78
313.16	3297.23
313.37	3303.37
313.59	3307.47
313.80	3585.99
314.01	3813.32
314.23	3170.26
314.44	3047.38
314.65	3172.30
314.87	3180.50
315.08	3108.82
315.29	3090.38
315.51	3270.61
315.72	3086.29
315.93	3186.64
316.15	3182.54
316.36	3346.38
316.57	3432.40
316.79	3180.50
317.00	2977.75
317.21	3590.09
317.43	3241.93
317.64	3084.24
317.85	2961.36
318.07	3268.56
318.28	3364.81
318.49	3127.25
318.70	3334.09
318.92	3469.26
319.13	3461.07
319.34	3221.45
319.56	3100.62
319.77	3491.79
319.98	3545.03
320.20	3311.57
320.41	3233.74
320.62	3553.23
320.83	3102.67
321.05	3282.89
321.26	3174.35
321.47	3475.40
321.69	3727.30
321.90	2969.55
322.11	3061.71
322.32	3499.98
322.54	3819.46
322.75	3168.21
322.96	4157.38
323.18	3145.68
323.39	3100.62
323.60	2965.46
323.81	3188.69
324.03	3377.10
324.24	3356.62
324.45	3248.08
324.66	3006.42
324.88	3690.44
325.09	3850.18
325.30	3106.77
325.52	2926.55
325.73	3569.61
325.94	3246.03
326.15	3002.32
326.37	2975.70
326.58	3565.51
326.79	3815.37
327.00	3006.42
327.22	3098.58
327.43	3295.18
327.64	3276.75
327.85	3241.93
328.07	3155.92
328.28	3878.85
328.49	3364.81
328.70	3170.26
328.92	3059.67
329.13	3436.49
329.34	3624.90
329.55	3338.19
329.76	3278.80
329.98	3303.37
330.19	3649.48
330.40	3200.98
330.61	3297.23
330.83	3649.48
331.04	3237.84
331.25	3268.56
331.46	3155.92
331.68	3198.93
331.89	3616.71
332.10	3133.39
332.31	3067.86
332.52	3440.59
332.74	3737.54
332.95	2924.50
333.16	3114.96
333.37	3622.86
333.58	3336.14
333.80	3129.30
334.01	2848.72
334.22	3368.91
334.43	3344.33
334.64	3014.61
334.86	3033.04
335.07	3262.41
335.28	3719.11
335.49	2969.55
335.70	3106.77
335.92	3725.26
336.13	3903.43
336.34	3147.73
336.55	3065.81
336.76	3571.66
336.98	3000.27
337.19	3153.87
337.40	3213.26
337.61	3985.35
337.82	3364.81
338.04	3164.11
338.25	2863.06
338.46	3481.55
338.67	3284.94
338.88	2985.94
339.09	2914.26
339.31	3362.76
339.52	3207.12
339.73	3024.85
339.94	3121.10
340.15	3590.09
340.36	3434.44
340.58	3162.06
340.79	2990.03
341.00	3524.55
341.21	3235.79
341.42	3330.00
341.63	3162.06
341.85	3659.72
342.06	3522.51
342.27	3123.15
342.48	3248.08
342.69	3155.92
342.90	3565.51
343.12	3532.75
343.33	3035.09
343.54	3733.45
343.75	3739.59
343.96	3188.69
344.17	2992.08
344.38	3403.72
344.60	3274.70
344.81	3047.38
345.02	3074.00
345.23	3710.92
345.44	4083.65
345.65	3121.10
345.86	3114.96
346.07	3514.31
346.29	3346.38
346.50	3131.34
346.71	3225.55
346.92	3686.34
347.13	3885.00
347.34	3221.45
347.55	2985.94
347.76	3551.18
347.98	3117.01
348.19	3123.15
348.40	3313.61
348.61	3385.29
348.82	3807.17
349.03	3127.25
349.24	3049.43
349.45	3934.15
349.66	3065.81
349.88	3022.80
350.09	3065.81
350.30	3729.35
350.51	3725.26
350.72	3305.42
350.93	3090.38
351.14	3344.33
351.35	3581.90
351.56	3125.20
351.77	3196.88
351.99	3553.23
352.20	3774.41
352.41	3248.08
352.62	2887.64
352.83	3495.88
353.04	3395.53
353.25	3041.23
353.46	3065.81
353.67	3692.49
353.88	3037.14
354.09	3063.76
354.30	3129.30
354.52	3565.51
354.73	3391.44
354.94	3104.72
355.15	3186.64
355.36	3811.27
355.57	3295.18
355.78	3020.75
355.99	3059.67
356.20	3381.20
356.41	3616.71
356.62	3162.06
356.83	3186.64
357.04	3727.30
357.25	3059.67
357.46	3014.61
357.68	2889.68
357.89	3387.34
358.10	3428.30
358.31	3098.58
358.52	3225.55
358.73	3250.13
358.94	3286.99
359.15	3143.63
359.36	3147.73
359.57	3489.74
359.78	3477.45
359.99	3284.94
360.20	3061.71
360.41	3420.11
360.62	3567.56
360.83	3172.30
361.04	3168.21
361.25	3594.19
361.46	3782.60
361.67	3203.02
361.88	3131.34
362.09	3631.05
362.30	3524.55
362.51	3053.52
362.72	3164.11
362.93	3569.61
363.14	3493.83
363.35	3276.75
363.56	3004.37
363.78	3747.78
363.99	3680.20
364.20	3074.00
364.41	3188.69
364.62	3817.41
364.83	3487.69
365.04	3139.54
365.25	3162.06
365.46	3958.72
365.67	3301.33
365.88	3327.95
366.09	3143.63
366.30	3332.05
366.51	3485.64
366.72	3086.29
366.93	3016.66
367.14	3434.44
367.35	3764.17
367.56	2994.13
367.77	3207.12
367.98	3434.44
368.18	3524.55
368.39	3248.08
368.60	3035.09
368.81	3639.24
369.02	3479.50
369.23	3110.86
369.44	2959.31
369.65	3297.23
369.86	3590.09
370.07	3157.97
370.28	3055.57
370.49	3475.40
370.70	3536.84
370.91	3012.56
371.12	3018.71
371.33	3725.26
371.54	3268.56
371.75	3180.50
371.96	2836.44
372.17	3473.36
372.38	3491.79
372.59	3092.43
372.80	3076.05
373.01	3327.95
373.22	3518.41
373.43	3131.34
373.64	2992.08
373.85	3729.35
374.06	3846.09
374.26	3278.80
374.47	3270.61
374.68	3798.98
374.89	3475.40
375.10	3008.47
375.31	3225.55
375.52	3411.92
375.73	3526.60
375.94	3016.66
376.15	3200.98
376.36	3315.66
376.57	3379.15
376.78	3196.88
376.99	3207.12
377.20	3755.97
377.40	3442.64
377.61	3409.87
377.82	3090.38
378.03	3706.82
378.24	3577.80
378.45	3237.84
378.66	3170.26
378.87	3147.73
379.08	3174.35
379.29	3133.39
379.50	3207.12
379.71	3366.86
379.91	3516.36
380.12	3131.34
380.33	3147.73
380.54	3442.64
380.75	3426.25
380.96	3069.91
381.17	3123.15
381.38	3350.48
381.59	3403.72
381.80	3176.40
382.00	3334.09
382.21	3448.78
382.42	3678.15
382.63	3532.75
382.84	3323.85
383.05	3622.86
383.26	3786.69
383.47	3385.29
383.68	3028.95
383.88	3549.13
384.09	3477.45
384.30	3319.76
384.51	3198.93
384.72	3360.72
384.93	3188.69
385.14	3147.73
385.35	3385.29
385.55	3200.98
385.76	3719.11
385.97	3178.45
386.18	3012.56
386.39	3196.88
386.60	3332.05
386.81	3053.52
387.02	3037.14
387.22	3151.82
387.43	3547.08
387.64	3174.35
387.85	3334.09
388.06	3512.27
388.27	4415.42
388.48	7341.97
388.68	10786.65
388.89	13764.40
389.10	14878.49
389.31	14569.25
389.52	11712.33
389.73	10350.43
389.93	9598.83
390.14	8523.65
390.35	7985.03
390.56	7448.46
390.77	6264.74
390.98	4876.21
391.18	4050.88
391.39	3966.92
391.60	3493.83
391.81	3370.96
392.02	3190.74
392.23	3964.87
392.43	3508.17
392.64	3149.78
392.85	3190.74
393.06	3813.32
393.27	3477.45
393.47	3145.68
393.68	3203.02
393.89	3377.10
394.10	3678.15
394.31	3121.10
394.52	3076.05
394.72	3317.71
394.93	3788.74
395.14	3012.56
395.35	3246.03
395.56	3317.71
395.76	3373.00
395.97	3133.39
396.18	3252.17
396.39	3338.19
396.60	4077.51
396.80	3522.51
397.01	3340.24
397.22	3661.77
397.43	3725.26
397.64	3217.36
397.84	3205.07
398.05	3909.57
398.26	3463.12
398.47	3237.84
398.67	3370.96
398.88	3446.73
399.09	3633.10
399.30	3131.34
399.51	3256.27
399.71	3295.18
399.92	3475.40
400.13	3217.36
400.34	3123.15
400.54	3532.75
400.75	3739.59
400.96	3223.50
401.17	3475.40
401.37	3553.23
401.58	3379.15
401.79	3092.43
402.00	3282.89
402.21	3928.00
402.41	3565.51
402.62	3420.11
402.83	3467.21
403.04	3821.51
403.24	4212.67
403.45	3223.50
403.66	3475.40
403.87	3631.05
404.07	3733.45
404.28	3368.91
404.49	3454.92
404.70	3581.90
404.90	3565.51
405.11	3084.24
405.32	3239.89
405.52	3340.24
405.73	3325.90
405.94	3041.23
406.15	3184.59
406.35	3614.66
406.56	3614.66
406.77	3172.30
406.98	3110.86
407.18	3280.85
407.39	3778.50
407.60	3180.50
407.80	3289.04
408.01	3325.90
408.22	3575.75
408.43	2996.18
408.63	3286.99
408.84	3663.82
409.05	3706.82
409.25	3076.05
409.46	3184.59
409.67	3286.99
409.88	3348.43
410.08	3135.44
410.29	3104.72
410.50	3725.26
410.70	3508.17
410.91	3082.19
411.12	3217.36
411.32	3491.79
411.53	3307.47
411.74	3074.00
411.95	3280.85
412.15	3442.64
412.36	3561.42
412.57	3284.94
412.77	3352.52
412.98	3422.16
413.19	3401.68
413.39	3205.07
413.60	3217.36
413.81	3745.73
414.01	3180.50
414.22	3176.40
414.43	3284.94
414.63	3315.66
414.84	3639.24
415.05	3221.45
415.25	3035.09
415.46	3528.65
415.67	3344.33
415.87	3143.63
416.08	3164.11
416.29	3360.72
416.49	3532.75
416.70	3184.59
416.91	3205.07
417.11	3377.10
417.32	3637.19
417.53	3260.37
417.73	3213.26
417.94	3418.06
418.15	3516.36
418.35	3223.50
418.56	3237.84
418.77	3991.49
418.97	3522.51
419.18	3280.85
419.38	2848.72
419.59	3471.31
419.80	3764.17
420.00	3039.19
420.21	3166.16
420.42	3725.26
420.62	3545.03
420.83	3176.40
421.04	3123.15
421.24	3510.22
421.45	3629.00
421.65	3131.34
421.86	3168.21
422.07	3585.99
422.27	3577.80
422.48	3051.47
422.69	2914.26
422.89	3403.72
423.10	3368.91
423.30	3047.38
423.51	3192.78
423.72	3567.56
423.92	3641.29
424.13	3024.85
424.33	3229.65
424.54	3647.43
424.75	3430.35
424.95	3284.94
425.16	3055.57
425.36	3446.73
425.57	3772.36
425.78	3309.52
425.98	3264.46
426.19	3336.14
426.39	3231.69
426.60	3205.07
426.81	3321.81
427.01	3612.62
427.22	3250.13
427.42	2942.93
427.63	3100.62
427.83	3594.19
428.04	3835.85
428.25	3211.22
428.45	3264.46
428.66	3743.69
428.86	3389.39
429.07	3192.78
429.28	3184.59
429.48	3381.20
429.69	3286.99
429.89	3264.46
430.10	3123.15
430.30	3565.51
430.51	3698.63
430.71	3108.82
430.92	3207.12
431.13	3307.47
431.33	3485.64
431.54	3272.65
431.74	3373.00
431.95	3985.35
432.15	3250.13
432.36	3157.97
432.56	3209.17
432.77	3903.43
432.98	3788.74
433.18	3186.64
433.39	3033.04
433.59	3483.59
433.80	3878.85
434.00	3348.43
434.21	3325.90
434.41	3295.18
434.62	3985.35
434.82	2953.17
435.03	3168.21
435.23	3631.05
435.44	3143.63
435.64	3119.06
435.85	3264.46
436.06	3614.66
436.26	3649.48
436.47	3143.63
436.67	3071.95
436.88	3436.49
437.08	3631.05
437.29	3274.70
437.49	3289.04
437.70	3739.59
437.90	3446.73
438.11	3336.14
438.31	3229.65
438.52	3735.50
438.72	3637.19
438.93	3559.37
439.13	3246.03
439.34	3557.32
439.54	3295.18
439.75	3280.85
439.95	3262.41
440.16	3264.46
440.36	3459.02
440.57	3094.48
440.77	3127.25
440.98	3430.35
441.18	3518.41
441.39	2996.18
441.59	3061.71
441.80	3934.15
442.00	3401.68
442.21	3229.65
442.41	2979.79
442.62	3672.01
442.82	3276.75
443.02	3153.87
443.23	3221.45
443.43	3299.28
443.64	3680.20
443.84	3035.09
444.05	3215.31
444.25	3538.89
444.46	3346.38
444.66	3131.34
444.87	3381.20
445.07	3155.92
445.28	3366.86
445.48	3430.35
445.69	3190.74
445.89	4048.83
446.09	3377.10
446.30	3497.93
446.50	3565.51
446.71	5052.34
446.91	6141.86
447.12	6879.13
447.32	7309.20
447.53	7485.33
447.73	6152.10
447.93	5328.81
448.14	5306.29
448.34	5466.03
448.55	4374.46
448.75	4378.56
448.96	4249.54
449.16	4044.74
449.36	4110.27
449.57	3403.72
449.77	3219.41
449.98	3262.41
450.18	3518.41
450.39	3092.43
450.59	3407.82
450.79	3399.63
451.00	3295.18
451.20	3370.96
451.41	3147.73
451.61	3438.54
451.81	3350.48
452.02	3063.76
452.22	3180.50
452.43	3362.76
