SpectraSuite Data File
++++++++++++++++++++++++++++++++++++
Date: Fri May 06 09:28:58 CEST 2016
User: root
Dark Spectrum Present: No
Reference Spectrum Present: No
Number of Sampled Component Spectra: 1
Spectrometers: USB4C02835
Integration Time (usec): 100000 (USB4C02835)
Spectra Averaged: 1 (USB4C02835)
Boxcar Smoothing: 0 (USB4C02835)
Correct for Electrical Dark: No (USB4C02835)
Strobe/Lamp Enabled: No (USB4C02835)
Correct for Detector Non-linearity: No (USB4C02835)
Correct for Stray Light: No (USB4C02835)
Number of Pixels in Processed Spectrum: 3648
>>>>>Begin Processed Spectral Data<<<<<
177.47	2342.88
177.69	2342.88
177.91	2342.88
178.13	2371.55
178.36	2344.92
178.58	3164.11
178.80	3192.78
179.02	3119.06
179.24	3254.22
179.46	2863.06
179.68	2942.93
179.90	3356.62
180.13	3444.68
180.35	2754.52
180.57	2914.26
180.79	3581.90
181.01	3344.33
181.23	2967.51
181.45	3037.14
181.67	3569.61
181.90	3690.44
182.12	3026.90
182.34	2795.48
182.56	3674.06
182.78	3547.08
183.00	2934.74
183.22	3028.95
183.44	3002.32
183.66	4106.18
183.89	3102.67
184.11	2990.03
184.33	3583.95
184.55	3755.97
184.77	2926.55
184.99	3000.27
185.21	3401.68
185.43	4071.36
185.65	2979.79
185.87	2959.31
186.10	3917.76
186.32	3991.49
186.54	3047.38
186.76	3102.67
186.98	3723.21
187.20	3360.72
187.42	3000.27
187.64	2834.39
187.86	3516.36
188.08	3753.93
188.30	2904.02
188.52	2977.75
188.75	3723.21
188.97	3749.83
189.19	2944.98
189.41	2963.41
189.63	3588.04
189.85	3327.95
190.07	2906.07
190.29	2824.15
190.51	3555.27
190.73	3215.31
190.95	3094.48
191.17	2959.31
191.39	3131.34
191.61	3389.39
191.84	3002.32
192.06	3112.91
192.28	3157.97
192.50	4208.58
192.72	3221.45
192.94	3139.54
193.16	3729.35
193.38	3633.10
193.60	2916.31
193.82	3172.30
194.04	3698.63
194.26	3569.61
194.48	2947.03
194.70	2942.93
194.92	3368.91
195.14	3667.91
195.36	2928.60
195.58	3051.47
195.80	3405.77
196.02	3280.85
196.24	2893.78
196.46	3035.09
196.69	3327.95
196.91	4007.87
197.13	3035.09
197.35	3082.19
197.57	3764.17
197.79	3676.10
198.01	3080.14
198.23	3006.42
198.45	3590.09
198.67	3166.16
198.89	2736.09
199.11	3114.96
199.33	3330.00
199.55	2938.84
199.77	2971.60
199.99	3139.54
200.21	3352.52
200.43	3577.80
200.65	2895.83
200.87	2783.19
201.09	3465.16
201.31	3340.24
201.53	2940.88
201.75	2979.79
201.97	3600.33
202.19	3368.91
202.41	2893.78
202.63	3061.71
202.85	3512.27
203.07	3481.55
203.29	3123.15
203.51	2873.30
203.73	3381.20
203.95	4075.46
204.17	2906.07
204.39	3182.54
204.61	3452.88
204.83	3262.41
205.05	3166.16
205.27	2992.08
205.49	3983.30
205.71	3428.30
205.93	2750.42
206.15	2824.15
206.37	3532.75
206.59	3461.07
206.81	2754.52
207.03	2801.62
207.25	3282.89
207.47	3553.23
207.69	2969.55
207.91	3205.07
208.13	3829.70
208.34	3266.51
208.56	2934.74
208.78	3016.66
209.00	3385.29
209.22	3364.81
209.44	3020.75
209.66	2959.31
209.88	3538.89
210.10	3411.92
210.32	2967.51
210.54	3108.82
210.76	3364.81
210.98	3680.20
211.20	2793.43
211.42	3092.43
211.64	3696.58
211.86	3565.51
212.08	3026.90
212.30	2979.79
212.52	3422.16
212.74	3667.91
212.96	3039.19
213.17	3018.71
213.39	3708.87
213.61	3839.94
213.83	2918.36
214.05	2893.78
214.27	3651.53
214.49	3338.19
214.71	2910.16
214.93	3135.44
215.15	3524.55
215.37	3645.38
215.59	2793.43
215.81	3012.56
216.03	3737.54
216.24	3403.72
216.46	2951.12
216.68	3018.71
216.90	3600.33
217.12	3719.11
217.34	2955.22
217.56	3125.20
217.78	3729.35
218.00	3590.09
218.22	3061.71
218.44	3055.57
218.66	3516.36
218.87	3887.04
219.09	3030.99
219.31	3016.66
219.53	3542.99
219.75	3360.72
219.97	2979.79
220.19	2975.70
220.41	3409.87
220.63	3784.65
220.85	2967.51
221.06	2998.23
221.28	3733.45
221.50	3614.66
221.72	2959.31
221.94	2901.97
222.16	3553.23
222.38	3672.01
222.60	2918.36
222.82	3045.33
223.03	3641.29
223.25	3190.74
223.47	2869.20
223.69	3213.26
223.91	3596.23
224.13	3499.98
224.35	2877.40
224.57	3129.30
224.78	3647.43
225.00	3272.65
225.22	3057.62
225.44	2869.20
225.66	3655.62
225.88	3311.57
226.10	3141.58
226.32	2824.15
226.53	3745.73
226.75	3319.76
226.97	3074.00
227.19	3012.56
227.41	3237.84
227.63	3319.76
227.85	2803.67
228.06	2944.98
228.28	3459.02
228.50	3600.33
228.72	2791.38
228.94	2969.55
229.16	3117.01
229.37	3172.30
229.59	2832.34
229.81	3278.80
230.03	3450.83
230.25	3155.92
230.47	2822.10
230.69	2910.16
230.90	3639.24
231.12	3282.89
231.34	3065.81
231.56	3090.38
231.78	3258.32
232.00	3454.92
232.21	2987.99
232.43	3065.81
232.65	3082.19
232.87	3606.47
233.09	2779.09
233.30	2852.82
233.52	3674.06
233.74	3471.31
233.96	2877.40
234.18	3094.48
234.40	3454.92
234.61	3997.64
234.83	2850.77
235.05	2934.74
235.27	3971.01
235.49	3715.02
235.70	2910.16
235.92	2959.31
236.14	3575.75
236.36	4007.87
236.58	2861.01
236.79	2996.18
237.01	3450.83
237.23	3452.88
237.45	3209.17
237.67	2992.08
237.88	3516.36
238.10	3868.61
238.32	2877.40
238.54	2944.98
238.76	3383.24
238.97	3231.69
239.19	2861.01
239.41	3059.67
239.63	3733.45
239.85	3350.48
240.06	3016.66
240.28	2910.16
240.50	3700.68
240.72	3542.99
240.93	2852.82
241.15	3129.30
241.37	3471.31
241.59	3741.64
241.81	3022.80
242.02	2967.51
242.24	3524.55
242.46	3643.34
242.68	2770.90
242.89	2897.88
243.11	3672.01
243.33	3407.82
243.55	2987.99
243.76	2979.79
243.98	3254.22
244.20	3424.20
244.42	2928.60
244.64	2928.60
244.85	3141.58
245.07	3311.57
245.29	2910.16
245.51	3045.33
245.72	3590.09
245.94	3665.86
246.16	2949.08
246.38	3051.47
246.59	3321.81
246.81	3272.65
247.03	2906.07
247.24	2842.58
247.46	3360.72
247.68	3434.44
247.90	2922.45
248.11	3094.48
248.33	3643.34
248.55	3418.06
248.77	2992.08
248.98	3061.71
249.20	3807.17
249.42	3502.03
249.64	2947.03
249.85	2942.93
250.07	3387.34
250.29	3606.47
250.50	3012.56
250.72	2947.03
250.94	3561.42
251.16	4018.11
251.37	2936.79
251.59	3018.71
251.81	3528.65
252.02	3839.94
252.24	2820.05
252.46	3078.10
252.68	3346.38
252.89	3289.04
253.11	2758.61
253.33	3160.02
253.54	3796.93
253.76	3205.07
253.98	3055.57
254.20	2891.73
254.41	3196.88
254.63	3459.02
254.85	2842.58
255.06	3082.19
255.28	3549.13
255.50	3428.30
255.71	2908.12
255.93	2844.63
256.15	3426.25
256.36	3585.99
256.58	2828.24
256.80	2887.64
257.02	3377.10
257.23	3334.09
257.45	3086.29
257.67	3090.38
257.88	3303.37
258.10	3598.28
258.32	2922.45
258.53	3082.19
258.75	3831.75
258.97	3344.33
259.18	2914.26
259.40	2955.22
259.62	3878.85
259.83	3860.42
260.05	2977.75
260.27	3968.96
260.48	3614.66
260.70	3262.41
260.92	2820.05
261.13	3041.23
261.35	3475.40
261.57	3571.66
261.78	2842.58
262.00	2953.17
262.22	3495.88
262.43	3284.94
262.65	2926.55
262.86	2951.12
263.08	3950.53
263.30	3524.55
263.51	2779.09
263.73	2887.64
263.95	3891.14
264.16	3196.88
264.38	2828.24
264.60	2840.53
264.81	3377.10
265.03	3831.75
265.25	3438.54
265.46	2934.74
265.68	3819.46
265.89	3622.86
266.11	2842.58
266.33	2971.60
266.54	3688.39
266.76	3542.99
266.98	3016.66
267.19	3110.86
267.41	3631.05
267.62	3424.20
267.84	2779.09
268.06	3074.00
268.27	3491.79
268.49	3698.63
268.70	3028.95
268.92	3037.14
269.14	3282.89
269.35	3133.39
269.57	3155.92
269.79	3051.47
270.00	3332.05
270.22	3823.56
270.43	2914.26
270.65	2822.10
270.87	3440.59
271.08	3633.10
271.30	3071.95
271.51	2975.70
271.73	3559.37
271.95	3758.02
272.16	2881.49
272.38	3168.21
272.59	3358.67
272.81	3581.90
273.02	2826.20
273.24	2998.23
273.46	3729.35
273.67	3250.13
273.89	2815.96
274.10	2852.82
274.32	3760.07
274.54	3516.36
274.75	3012.56
274.97	3069.91
275.18	3729.35
275.40	3532.75
275.61	3014.61
275.83	3164.11
276.05	3151.82
276.26	3463.12
276.48	3102.67
276.69	3172.30
276.91	3317.71
277.12	3760.07
277.34	3131.34
277.55	3207.12
277.77	3502.03
277.99	3350.48
278.20	3090.38
278.42	2936.79
278.63	3315.66
278.85	3274.70
279.06	3090.38
279.28	3139.54
279.49	3624.90
279.71	3575.75
279.93	3129.30
280.14	3215.31
280.36	3172.30
280.57	3596.23
280.79	3213.26
281.00	2951.12
281.22	3309.52
281.43	3725.26
281.65	2877.40
281.86	2969.55
282.08	3583.95
282.29	3839.94
282.51	2955.22
282.73	3024.85
282.94	3192.78
283.16	3622.86
283.37	3157.97
283.59	3123.15
283.80	3678.15
284.02	3426.25
284.23	3157.97
284.45	3071.95
284.66	3203.02
284.88	3295.18
285.09	2967.51
285.31	3205.07
285.52	3495.88
285.74	3153.87
285.95	3307.47
286.17	3160.02
286.38	3672.01
286.60	3340.24
286.81	3045.33
287.03	3061.71
287.24	3536.84
287.46	3553.23
287.67	3229.65
287.89	3309.52
288.10	3514.31
288.32	3495.88
288.53	3184.59
288.75	3264.46
288.96	3569.61
289.18	3258.32
289.39	3016.66
289.61	3153.87
289.82	3979.20
290.04	3966.92
290.25	3004.37
290.47	3196.88
290.68	3438.54
290.90	3622.86
291.11	2858.96
291.33	3233.74
291.54	3155.92
291.76	3270.61
291.97	3276.75
292.18	3114.96
292.40	3430.35
292.61	3319.76
292.83	3375.05
293.04	3071.95
293.26	3518.41
293.47	3411.92
293.69	3065.81
293.90	3014.61
294.12	3706.82
294.33	3422.16
294.55	3229.65
294.76	3278.80
294.97	3788.74
295.19	4009.92
295.40	3141.58
295.62	3182.54
295.83	3626.95
296.05	3289.04
296.26	3352.52
296.48	3024.85
296.69	3436.49
296.90	3366.86
297.12	3221.45
297.33	3303.37
297.55	3436.49
297.76	3616.71
297.98	3168.21
298.19	3262.41
298.41	3534.79
298.62	3323.85
298.83	3334.09
299.05	3225.55
299.26	3391.44
299.48	3354.57
299.69	3254.22
299.90	3129.30
300.12	3270.61
300.33	3624.90
300.55	3076.05
300.76	3203.02
300.98	3229.65
301.19	3516.36
301.40	3125.20
301.62	3076.05
301.83	3598.28
302.05	3483.59
302.26	3024.85
302.47	3149.78
302.69	3196.88
302.90	3424.20
303.12	2930.64
303.33	3264.46
303.54	3862.47
303.76	3225.55
303.97	3078.10
304.19	3237.84
304.40	3192.78
304.61	3590.09
304.83	3160.02
305.04	3196.88
305.26	3639.24
305.47	3393.48
305.68	3102.67
305.90	3002.32
306.11	3729.35
306.33	3401.68
306.54	2965.46
306.75	3051.47
306.97	3121.10
307.18	3180.50
307.39	3065.81
307.61	3246.03
307.82	3434.44
308.04	3510.22
308.25	2938.84
308.46	3362.76
308.68	3395.53
308.89	3395.53
309.10	3186.64
309.32	3155.92
309.53	3450.83
309.74	3661.77
309.96	3043.28
310.17	3174.35
310.39	3317.71
310.60	3626.95
310.81	3143.63
311.03	3028.95
311.24	3581.90
311.45	3444.68
311.67	3368.91
311.88	3192.78
312.09	3475.40
312.31	3295.18
312.52	2953.17
312.73	3041.23
312.95	3131.34
313.16	3270.61
313.37	3237.84
313.59	3311.57
313.80	3618.76
314.01	3753.93
314.23	3157.97
314.44	3071.95
314.65	3213.26
314.87	3188.69
315.08	3043.28
315.29	3106.77
315.51	3258.32
315.72	3133.39
315.93	3131.34
316.15	3125.20
316.36	3272.65
316.57	3491.79
316.79	3119.06
317.00	3045.33
317.21	3559.37
317.43	3295.18
317.64	3162.06
317.85	3041.23
318.07	3286.99
318.28	3364.81
318.49	3188.69
318.70	3291.09
318.92	3477.45
319.13	3454.92
319.34	3270.61
319.56	3028.95
319.77	3551.18
319.98	3518.41
320.20	3420.11
320.41	3344.33
320.62	3549.13
320.83	3321.81
321.05	3311.57
321.26	3166.16
321.47	3430.35
321.69	3717.06
321.90	2998.23
322.11	3082.19
322.32	3491.79
322.54	3780.55
322.75	3067.86
322.96	4331.45
323.18	3133.39
323.39	3102.67
323.60	3002.32
323.81	3223.50
324.03	3352.52
324.24	3471.31
324.45	3264.46
324.66	3127.25
324.88	3708.87
325.09	3803.08
325.30	3172.30
325.52	3002.32
325.73	3471.31
325.94	3205.07
326.15	3002.32
326.37	2936.79
326.58	3579.85
326.79	3827.65
327.00	2979.79
327.22	3074.00
327.43	3346.38
327.64	3217.36
327.85	3262.41
328.07	3166.16
328.28	3901.38
328.49	3297.23
328.70	3096.53
328.92	3127.25
329.13	3428.30
329.34	3545.03
329.55	3307.47
329.76	3254.22
329.98	3340.24
330.19	3739.59
330.40	3233.74
330.61	3284.94
330.83	3602.38
331.04	3327.95
331.25	3229.65
331.46	3205.07
331.68	3239.89
331.89	3631.05
332.10	3114.96
332.31	3006.42
332.52	3465.16
332.74	3647.43
332.95	2951.12
333.16	3160.02
333.37	3620.81
333.58	3330.00
333.80	3147.73
334.01	2944.98
334.22	3413.96
334.43	3323.85
334.64	3002.32
334.86	3063.76
335.07	3289.04
335.28	3696.58
335.49	2975.70
335.70	3219.41
335.92	3753.93
336.13	3999.68
336.34	3110.86
336.55	3074.00
336.76	3508.17
336.98	3010.51
337.19	3125.20
337.40	3200.98
337.61	3930.05
337.82	3420.11
338.04	3219.41
338.25	2908.12
338.46	3467.21
338.67	3397.58
338.88	3000.27
339.09	2926.55
339.31	3332.05
339.52	3180.50
339.73	3035.09
339.94	3139.54
340.15	3602.38
340.36	3418.06
340.58	3168.21
340.79	3096.53
341.00	3594.19
341.21	3164.11
341.42	3360.72
341.63	3149.78
341.85	3686.34
342.06	3551.18
342.27	3090.38
342.48	3286.99
342.69	3131.34
342.90	3588.04
343.12	3547.08
343.33	2994.13
343.54	3608.52
343.75	3745.73
343.96	3358.67
344.17	3051.47
344.38	3409.87
344.60	3243.98
344.81	3063.76
345.02	3065.81
345.23	3643.34
345.44	3962.82
345.65	3227.60
345.86	3188.69
346.07	3497.93
346.29	3338.19
346.50	3254.22
346.71	3205.07
346.92	3743.69
347.13	3868.61
347.34	3237.84
347.55	2875.35
347.76	3549.13
347.98	3184.59
348.19	3164.11
348.40	3311.57
348.61	3307.47
348.82	3717.06
349.03	3252.17
349.24	2983.89
349.45	3835.85
349.66	3016.66
349.88	3135.44
350.09	3063.76
350.30	3770.31
350.51	3643.34
350.72	3338.19
350.93	3106.77
351.14	3299.28
351.35	3526.60
351.56	3125.20
351.77	3229.65
351.99	3508.17
352.20	3745.73
352.41	3258.32
352.62	2981.84
352.83	3373.00
353.04	3471.31
353.25	3010.51
353.46	3069.91
353.67	3655.62
353.88	3012.56
354.09	3000.27
354.30	3200.98
354.52	3622.86
354.73	3385.29
354.94	3117.01
355.15	3207.12
355.36	3876.80
355.57	3264.46
355.78	3039.19
355.99	3047.38
356.20	3309.52
356.41	3790.79
356.62	3164.11
356.83	3172.30
357.04	3688.39
357.25	3071.95
357.46	3063.76
357.68	2992.08
357.89	3286.99
358.10	3459.02
358.31	3082.19
358.52	3211.22
358.73	3205.07
358.94	3254.22
359.15	3162.06
359.36	3123.15
359.57	3444.68
359.78	3459.02
359.99	3313.61
360.20	2979.79
360.41	3360.72
360.62	3540.94
360.83	3209.17
361.04	3082.19
361.25	3612.62
361.46	3848.13
361.67	3239.89
361.88	3076.05
362.09	3657.67
362.30	3573.71
362.51	3076.05
362.72	3196.88
362.93	3624.90
363.14	3641.29
363.35	3225.55
363.56	3000.27
363.78	3655.62
363.99	3661.77
364.20	3133.39
364.41	3182.54
364.62	3792.84
364.83	3534.79
365.04	3155.92
365.25	3160.02
365.46	3901.38
365.67	3301.33
365.88	3262.41
366.09	3117.01
366.30	3354.57
366.51	3459.02
366.72	3106.77
366.93	3074.00
367.14	3442.64
367.35	3807.17
367.56	3067.86
367.77	3205.07
367.98	3440.59
368.18	3514.31
368.39	3317.71
368.60	3088.34
368.81	3667.91
369.02	3502.03
369.23	3078.10
369.44	2947.03
369.65	3354.57
369.86	3663.82
370.07	3235.79
370.28	3016.66
370.49	3538.89
370.70	3524.55
370.91	3018.71
371.12	3043.28
371.33	3620.81
371.54	3291.09
371.75	3200.98
371.96	2779.09
372.17	3483.59
372.38	3475.40
372.59	3119.06
372.80	2981.84
373.01	3409.87
373.22	3485.64
373.43	3114.96
373.64	3047.38
373.85	3790.79
374.06	3825.61
374.26	3317.71
374.47	3209.17
374.68	3760.07
374.89	3516.36
375.10	3033.04
375.31	3248.08
375.52	3516.36
375.73	3426.25
375.94	2901.97
376.15	3272.65
376.36	3221.45
376.57	3344.33
376.78	3182.54
376.99	3200.98
377.20	3784.65
377.40	3317.71
377.61	3446.73
377.82	3094.48
378.03	3803.08
378.24	3524.55
378.45	3223.50
378.66	3254.22
378.87	3125.20
379.08	3196.88
379.29	3123.15
379.50	3221.45
379.71	3379.15
379.91	3682.25
380.12	3028.95
380.33	3225.55
380.54	3391.44
380.75	3465.16
380.96	3100.62
381.17	3188.69
381.38	3440.59
381.59	3530.70
381.80	3135.44
382.00	3282.89
382.21	3516.36
382.42	3719.11
382.63	3471.31
382.84	3252.17
383.05	3596.23
383.26	3717.06
383.47	3330.00
383.68	3053.52
383.88	3545.03
384.09	3385.29
384.30	3334.09
384.51	3254.22
384.72	3397.58
384.93	3235.79
385.14	3194.83
385.35	3422.16
385.55	3090.38
385.76	3680.20
385.97	3174.35
386.18	3018.71
386.39	3237.84
386.60	3370.96
386.81	3057.62
387.02	2975.70
387.22	3153.87
387.43	3614.66
387.64	3137.49
387.85	3442.64
388.06	3520.46
388.27	4407.23
388.48	7276.43
388.68	10905.43
388.89	13768.49
389.10	14741.28
389.31	14511.91
389.52	11693.90
389.73	10368.87
389.93	9541.49
390.14	8478.59
390.35	7948.17
390.56	7481.23
390.77	6277.02
390.98	4786.10
391.18	4067.27
391.39	4026.31
391.60	3516.36
391.81	3352.52
392.02	3198.93
392.23	3958.72
392.43	3516.36
392.64	3219.41
392.85	3229.65
393.06	3852.23
393.27	3409.87
393.47	3106.77
393.68	3252.17
393.89	3315.66
394.10	3846.09
394.31	3061.71
394.52	3076.05
394.72	3248.08
394.93	3708.87
395.14	2967.51
395.35	3200.98
395.56	3375.05
395.76	3401.68
395.97	3139.54
396.18	3307.47
396.39	3383.24
396.60	4073.41
396.80	3485.64
397.01	3368.91
397.22	3583.95
397.43	3606.47
397.64	3207.12
397.84	3200.98
398.05	3950.53
398.26	3389.39
398.47	3231.69
398.67	3395.53
398.88	3438.54
399.09	3657.67
399.30	3094.48
399.51	3223.50
399.71	3221.45
399.92	3434.44
400.13	3286.99
400.34	3117.01
400.54	3450.83
400.75	3850.18
400.96	3246.03
401.17	3538.89
401.37	3600.33
401.58	3409.87
401.79	3147.73
402.00	3262.41
402.21	4030.40
402.41	3571.66
402.62	3438.54
402.83	3463.12
403.04	3743.69
403.24	4181.95
403.45	3274.70
403.66	3452.88
403.87	3696.58
404.07	3788.74
404.28	3418.06
404.49	3518.41
404.70	3461.07
404.90	3592.14
405.11	3110.86
405.32	3262.41
405.52	3274.70
405.73	3264.46
405.94	3071.95
406.15	3223.50
406.35	3669.96
406.56	3592.14
406.77	3168.21
406.98	3135.44
407.18	3282.89
407.39	3745.73
407.60	3172.30
407.80	3203.02
408.01	3307.47
408.22	3651.53
408.43	3016.66
408.63	3246.03
408.84	3655.62
409.05	3710.92
409.25	3139.54
409.46	3198.93
409.67	3340.24
409.88	3305.42
410.08	3192.78
410.29	3106.77
410.50	3641.29
410.70	3512.27
410.91	2987.99
411.12	3233.74
411.32	3502.03
411.53	3297.23
411.74	3182.54
411.95	3237.84
412.15	3481.55
412.36	3549.13
412.57	3289.04
412.77	3395.53
412.98	3307.47
413.19	3303.37
413.39	3176.40
413.60	3170.26
413.81	3784.65
414.01	3215.31
414.22	3123.15
414.43	3403.72
414.63	3403.72
414.84	3592.14
415.05	3164.11
415.25	3010.51
415.46	3680.20
415.67	3389.39
415.87	3209.17
416.08	3200.98
416.29	3446.73
416.49	3608.52
416.70	3227.60
416.91	3215.31
417.11	3346.38
417.32	3778.50
417.53	3237.84
417.73	3250.13
417.94	3487.69
418.15	3442.64
418.35	3213.26
418.56	3205.07
418.77	4016.07
418.97	3534.79
419.18	3213.26
419.38	2852.82
419.59	3452.88
419.80	3747.78
420.00	3112.91
420.21	3174.35
420.42	3733.45
420.62	3459.02
420.83	3086.29
421.04	3153.87
421.24	3452.88
421.45	3559.37
421.65	3188.69
421.86	3188.69
422.07	3620.81
422.27	3565.51
422.48	3037.14
422.69	2914.26
422.89	3487.69
423.10	3389.39
423.30	3119.06
423.51	3239.89
423.72	3479.50
423.92	3645.38
424.13	3014.61
424.33	3229.65
424.54	3592.14
424.75	3473.36
424.95	3411.92
425.16	3155.92
425.36	3434.44
425.57	3674.06
425.78	3377.10
425.98	3198.93
426.19	3397.58
426.39	3270.61
426.60	3327.95
426.81	3360.72
427.01	3532.75
427.22	3293.13
427.42	3074.00
427.63	3123.15
427.83	3561.42
428.04	3854.28
428.25	3205.07
428.45	3225.55
428.66	3678.15
428.86	3463.12
429.07	3229.65
429.28	3166.16
429.48	3450.83
429.69	3188.69
429.89	3272.65
430.10	3110.86
430.30	3616.71
430.51	3639.24
430.71	3106.77
430.92	3233.74
431.13	3334.09
431.33	3592.14
431.54	3272.65
431.74	3399.63
431.95	3915.72
432.15	3170.26
432.36	3125.20
432.56	3248.08
432.77	3936.20
432.98	3846.09
433.18	3217.36
433.39	3010.51
433.59	3313.61
433.80	3913.67
434.00	3350.48
434.21	3303.37
434.41	3330.00
434.62	3880.90
434.82	3033.04
435.03	3164.11
435.23	3528.65
435.44	3047.38
435.64	3100.62
435.85	3239.89
436.06	3680.20
436.26	3624.90
436.47	3155.92
436.67	3151.82
436.88	3405.77
437.08	3753.93
437.29	3270.61
437.49	3274.70
437.70	3764.17
437.90	3428.30
438.11	3383.24
438.31	3215.31
438.52	3741.64
438.72	3676.10
438.93	3463.12
439.13	3264.46
439.34	3663.82
439.54	3325.90
439.75	3280.85
439.95	3205.07
440.16	3200.98
440.36	3393.48
440.57	3125.20
440.77	3164.11
440.98	3454.92
441.18	3526.60
441.39	3096.53
441.59	2998.23
441.80	3966.92
442.00	3418.06
442.21	3262.41
442.41	3010.51
442.62	3639.24
442.82	3336.14
443.02	3119.06
443.23	3174.35
443.43	3354.57
443.64	3739.59
443.84	3024.85
444.05	3205.07
444.25	3413.96
444.46	3272.65
444.66	3172.30
444.87	3338.19
445.07	3053.52
445.28	3321.81
445.48	3401.68
445.69	3164.11
445.89	4069.31
446.09	3389.39
446.30	3430.35
446.50	3524.55
446.71	5048.24
446.91	6098.85
447.12	6776.73
447.32	7337.87
447.53	7450.51
447.73	6168.48
447.93	5402.54
448.14	5281.71
448.34	5423.02
448.55	4384.70
448.75	4392.89
448.96	4204.48
449.16	4044.74
449.36	4036.55
449.57	3375.05
449.77	3209.17
449.98	3262.41
450.18	3469.26
450.39	3016.66
450.59	3368.91
450.79	3409.87
451.00	3286.99
451.20	3348.43
451.41	3184.59
451.61	3581.90
451.81	3346.38
452.02	3106.77
452.22	3205.07
452.43	3373.00
