SpectraSuite Data File
++++++++++++++++++++++++++++++++++++
Date: Fri May 06 09:28:56 CEST 2016
User: root
Dark Spectrum Present: No
Reference Spectrum Present: No
Number of Sampled Component Spectra: 1
Spectrometers: USB4C02835
Integration Time (usec): 100000 (USB4C02835)
Spectra Averaged: 1 (USB4C02835)
Boxcar Smoothing: 0 (USB4C02835)
Correct for Electrical Dark: No (USB4C02835)
Strobe/Lamp Enabled: No (USB4C02835)
Correct for Detector Non-linearity: No (USB4C02835)
Correct for Stray Light: No (USB4C02835)
Number of Pixels in Processed Spectrum: 3648
>>>>>Begin Processed Spectral Data<<<<<
177.47	2361.31
177.69	2361.31
177.91	2361.31
178.13	2340.83
178.36	2369.50
178.58	3121.10
178.80	3233.74
179.02	3117.01
179.24	3139.54
179.46	2836.44
179.68	2922.45
179.90	3409.87
180.13	3448.78
180.35	2746.33
180.57	2869.20
180.79	3549.13
181.01	3338.19
181.23	2985.94
181.45	3018.71
181.67	3635.14
181.90	3684.30
182.12	3086.29
182.34	2811.86
182.56	3661.77
182.78	3514.31
183.00	2912.21
183.22	2996.18
183.44	3061.71
183.66	4118.47
183.89	3114.96
184.11	2916.31
184.33	3499.98
184.55	3764.17
184.77	3020.75
184.99	2953.17
185.21	3291.09
185.43	4048.83
185.65	2955.22
185.87	2906.07
186.10	3991.49
186.32	3991.49
186.54	3133.39
186.76	3100.62
186.98	3698.63
187.20	3350.48
187.42	2971.60
187.64	2920.40
187.86	3467.21
188.08	3655.62
188.30	2881.49
188.52	3000.27
188.75	3674.06
188.97	3692.49
189.19	2949.08
189.41	2930.64
189.63	3622.86
189.85	3256.27
190.07	2822.10
190.29	2795.48
190.51	3571.66
190.73	3108.82
190.95	3176.40
191.17	3049.43
191.39	3037.14
191.61	3368.91
191.84	2973.65
192.06	3108.82
192.28	3121.10
192.50	4315.07
192.72	3078.10
192.94	3106.77
193.16	3659.72
193.38	3487.69
193.60	2889.68
193.82	3117.01
194.04	3651.53
194.26	3573.71
194.48	2983.89
194.70	2990.03
194.92	3405.77
195.14	3622.86
195.36	2955.22
195.58	2990.03
195.80	3387.34
196.02	3332.05
196.24	2873.30
196.46	3051.47
196.69	3334.09
196.91	4110.27
197.13	2820.05
197.35	3055.57
197.57	3768.26
197.79	3692.49
198.01	3026.90
198.23	3033.04
198.45	3606.47
198.67	3180.50
198.89	2787.29
199.11	3102.67
199.33	3360.72
199.55	3051.47
199.77	2967.51
199.99	3121.10
200.21	3379.15
200.43	3497.93
200.65	2881.49
200.87	2795.48
201.09	3381.20
201.31	3366.86
201.53	3035.09
201.75	2983.89
201.97	3389.39
202.19	3461.07
202.41	3041.23
202.63	3061.71
202.85	3610.57
203.07	3520.46
203.29	3110.86
203.51	2875.35
203.73	3315.66
203.95	4147.14
204.17	3004.37
204.39	3098.58
204.61	3401.68
204.83	3311.57
205.05	3117.01
205.27	2930.64
205.49	3964.87
205.71	3528.65
205.93	2873.30
206.15	2897.88
206.37	3442.64
206.59	3422.16
206.81	2852.82
207.03	2852.82
207.25	3299.28
207.47	3616.71
207.69	2910.16
207.91	3254.22
208.13	3844.04
208.34	3315.66
208.56	2928.60
208.78	2910.16
209.00	3385.29
209.22	3377.10
209.44	2957.27
209.66	2906.07
209.88	3483.59
210.10	3266.51
210.32	2885.59
210.54	3090.38
210.76	3313.61
210.98	3626.95
211.20	2834.39
211.42	3110.86
211.64	3768.26
211.86	3645.38
212.08	3045.33
212.30	2985.94
212.52	3360.72
212.74	3565.51
212.96	3104.72
213.17	3063.76
213.39	3661.77
213.61	3860.42
213.83	2875.35
214.05	2916.31
214.27	3645.38
214.49	3235.79
214.71	2942.93
214.93	3061.71
215.15	3452.88
215.37	3663.82
215.59	2777.05
215.81	3043.28
216.03	3819.46
216.24	3475.40
216.46	2877.40
216.68	2971.60
216.90	3614.66
217.12	3682.25
217.34	2901.97
217.56	3166.16
217.78	3725.26
218.00	3655.62
218.22	3067.86
218.44	3053.52
218.66	3493.83
218.87	3835.85
219.09	3055.57
219.31	2934.74
219.53	3549.13
219.75	3428.30
219.97	3016.66
220.19	2951.12
220.41	3418.06
220.63	3827.65
220.85	2887.64
221.06	2975.70
221.28	3751.88
221.50	3590.09
221.72	2957.27
221.94	2846.68
222.16	3379.15
222.38	3637.19
222.60	2967.51
222.82	3049.43
223.03	3682.25
223.25	3256.27
223.47	2877.40
223.69	3207.12
223.91	3577.80
224.13	3504.07
224.35	2842.58
224.57	3100.62
224.78	3581.90
225.00	3209.17
225.22	3043.28
225.44	2848.72
225.66	3590.09
225.88	3321.81
226.10	3135.44
226.32	2963.41
226.53	3751.88
226.75	3370.96
226.97	3088.34
227.19	2961.36
227.41	3352.52
227.63	3426.25
227.85	2832.34
228.06	3018.71
228.28	3567.56
228.50	3665.86
228.72	2906.07
228.94	2930.64
229.16	3074.00
229.37	3221.45
229.59	2879.44
229.81	3227.60
230.03	3342.28
230.25	3192.78
230.47	2836.44
230.69	2965.46
230.90	3585.99
231.12	3286.99
231.34	3024.85
231.56	3000.27
231.78	3170.26
232.00	3485.64
232.21	3024.85
232.43	3006.42
232.65	2994.13
232.87	3518.41
233.09	2820.05
233.30	2873.30
233.52	3659.72
233.74	3411.92
233.96	2885.59
234.18	3256.27
234.40	3393.48
234.61	4016.07
234.83	2871.25
235.05	2924.50
235.27	3966.92
235.49	3704.78
235.70	2842.58
235.92	3024.85
236.14	3633.10
236.36	4050.88
236.58	2869.20
236.79	3065.81
237.01	3459.02
237.23	3360.72
237.45	3256.27
237.67	3043.28
237.88	3545.03
238.10	3852.23
238.32	2912.21
238.54	2930.64
238.76	3420.11
238.97	3272.65
239.19	2850.77
239.41	3012.56
239.63	3614.66
239.85	3409.87
240.06	3084.24
240.28	2928.60
240.50	3780.55
240.72	3413.96
240.93	2875.35
241.15	3090.38
241.37	3364.81
241.59	3682.25
241.81	2912.21
242.02	3102.67
242.24	3547.08
242.46	3579.85
242.68	2775.00
242.89	2869.20
243.11	3542.99
243.33	3434.44
243.55	2951.12
243.76	3024.85
243.98	3370.96
244.20	3524.55
244.42	2936.79
244.64	2965.46
244.85	3243.98
245.07	3332.05
245.29	2953.17
245.51	2957.27
245.72	3528.65
245.94	3708.87
246.16	2936.79
246.38	3024.85
246.59	3305.42
246.81	3295.18
247.03	2869.20
247.24	2893.78
247.46	3422.16
247.68	3475.40
247.90	2906.07
248.11	2901.97
248.33	3583.95
248.55	3481.55
248.77	3041.23
248.98	3096.53
249.20	3796.93
249.42	3467.21
249.64	2992.08
249.85	2861.01
250.07	3325.90
250.29	3608.52
250.50	3086.29
250.72	2920.40
250.94	3575.75
251.16	3942.34
251.37	2953.17
251.59	3045.33
251.81	3624.90
252.02	3844.04
252.24	2928.60
252.46	3098.58
252.68	3284.94
252.89	3342.28
253.11	2738.13
253.33	3137.49
253.54	3780.55
253.76	3166.16
253.98	2977.75
254.20	2926.55
254.41	3233.74
254.63	3411.92
254.85	2811.86
255.06	3155.92
255.28	3540.94
255.50	3387.34
255.71	2930.64
255.93	2772.95
256.15	3426.25
256.36	3526.60
256.58	2801.62
256.80	2963.41
257.02	3426.25
257.23	3303.37
257.45	2996.18
257.67	3139.54
257.88	3426.25
258.10	3549.13
258.32	2961.36
258.53	3037.14
258.75	3889.09
258.97	3225.55
259.18	2850.77
259.40	2910.16
259.62	3917.76
259.83	3811.27
260.05	2990.03
260.27	3966.92
260.48	3622.86
260.70	3350.48
260.92	2820.05
261.13	3028.95
261.35	3581.90
261.57	3555.27
261.78	2852.82
262.00	2850.77
262.22	3594.19
262.43	3209.17
262.65	2912.21
262.86	2985.94
263.08	4069.31
263.30	3407.82
263.51	2809.81
263.73	2863.06
263.95	3856.33
264.16	3223.50
264.38	2822.10
264.60	2908.12
264.81	3301.33
265.03	3715.02
265.25	3516.36
265.46	2975.70
265.68	3758.02
265.89	3622.86
266.11	2908.12
266.33	2938.84
266.54	3792.84
266.76	3618.76
266.98	3002.32
267.19	3147.73
267.41	3696.58
267.62	3413.96
267.84	2813.91
268.06	3203.02
268.27	3485.64
268.49	3690.44
268.70	3014.61
268.92	2983.89
269.14	3256.27
269.35	3225.55
269.57	3112.91
269.79	3071.95
270.00	3346.38
270.22	3925.96
270.43	2867.16
270.65	2836.44
270.87	3540.94
271.08	3622.86
271.30	3082.19
271.51	2977.75
271.73	3594.19
271.95	3649.48
272.16	2893.78
272.38	3082.19
272.59	3418.06
272.81	3545.03
273.02	2908.12
273.24	2987.99
273.46	3760.07
273.67	3123.15
273.89	2787.29
274.10	2893.78
274.32	3639.24
274.54	3510.22
274.75	3094.48
274.97	3057.62
275.18	3590.09
275.40	3536.84
275.61	2979.79
275.83	3092.43
276.05	3131.34
276.26	3477.45
276.48	3014.61
276.69	3172.30
276.91	3348.43
277.12	3717.06
277.34	3098.58
277.55	3272.65
277.77	3495.88
277.99	3403.72
278.20	3166.16
278.42	2973.65
278.63	3340.24
278.85	3172.30
279.06	3010.51
279.28	3221.45
279.49	3739.59
279.71	3641.29
279.93	3217.36
280.14	3221.45
280.36	3282.89
280.57	3700.68
280.79	3258.32
281.00	2969.55
281.22	3358.67
281.43	3690.44
281.65	2861.01
281.86	3020.75
282.08	3545.03
282.29	3932.10
282.51	2904.02
282.73	3016.66
282.94	3168.21
283.16	3592.14
283.37	3205.07
283.59	3108.82
283.80	3522.51
284.02	3416.01
284.23	3133.39
284.45	3141.58
284.66	3231.69
284.88	3313.61
285.09	3024.85
285.31	3205.07
285.52	3516.36
285.74	3078.10
285.95	3340.24
286.17	3082.19
286.38	3663.82
286.60	3403.72
286.81	2998.23
287.03	3051.47
287.24	3487.69
287.46	3585.99
287.67	3188.69
287.89	3340.24
288.10	3362.76
288.32	3520.46
288.53	3295.18
288.75	3172.30
288.96	3534.79
289.18	3332.05
289.39	3071.95
289.61	3110.86
289.82	3962.82
290.04	3798.98
290.25	2951.12
290.47	3207.12
290.68	3381.20
290.90	3659.72
291.11	2865.11
291.33	3166.16
291.54	3295.18
291.76	3291.09
291.97	3223.50
292.18	3164.11
292.40	3401.68
292.61	3309.52
292.83	3403.72
293.04	3180.50
293.26	3477.45
293.47	3475.40
293.69	3024.85
293.90	3059.67
294.12	3758.02
294.33	3456.97
294.55	3141.58
294.76	3307.47
294.97	3667.91
295.19	3919.81
295.40	3057.62
295.62	3229.65
295.83	3608.52
296.05	3373.00
296.26	3342.28
296.48	3112.91
296.69	3405.77
296.90	3434.44
297.12	3203.02
297.33	3260.37
297.55	3463.12
297.76	3551.18
297.98	3233.74
298.19	3297.23
298.41	3506.12
298.62	3305.42
298.83	3282.89
299.05	3256.27
299.26	3321.81
299.48	3297.23
299.69	3219.41
299.90	3061.71
300.12	3272.65
300.33	3483.59
300.55	3078.10
300.76	3108.82
300.98	3164.11
301.19	3583.95
301.40	3076.05
301.62	3137.49
301.83	3559.37
302.05	3555.27
302.26	3059.67
302.47	3110.86
302.69	3194.83
302.90	3461.07
303.12	2918.36
303.33	3260.37
303.54	3880.90
303.76	3282.89
303.97	3106.77
304.19	3301.33
304.40	3243.98
304.61	3510.22
304.83	3184.59
305.04	3151.82
305.26	3624.90
305.47	3381.20
305.68	3143.63
305.90	3057.62
306.11	3755.97
306.33	3420.11
306.54	2873.30
306.75	3028.95
306.97	3100.62
307.18	3241.93
307.39	3069.91
307.61	3196.88
307.82	3391.44
308.04	3592.14
308.25	2951.12
308.46	3239.89
308.68	3418.06
308.89	3442.64
309.10	3164.11
309.32	3143.63
309.53	3430.35
309.74	3559.37
309.96	3018.71
310.17	3209.17
310.39	3364.81
310.60	3561.42
310.81	3119.06
311.03	3082.19
311.24	3557.32
311.45	3489.74
311.67	3364.81
311.88	3266.51
312.09	3354.57
312.31	3350.48
312.52	3092.43
312.73	2992.08
312.95	3119.06
313.16	3215.31
313.37	3307.47
313.59	3282.89
313.80	3680.20
314.01	3715.02
314.23	3139.54
314.44	3100.62
314.65	3102.67
314.87	3317.71
315.08	3035.09
315.29	3155.92
315.51	3211.22
315.72	3069.91
315.93	3135.44
316.15	3188.69
316.36	3262.41
316.57	3477.45
316.79	3112.91
317.00	3000.27
317.21	3575.75
317.43	3205.07
317.64	3119.06
317.85	3020.75
318.07	3385.29
318.28	3454.92
318.49	3200.98
318.70	3299.28
318.92	3520.46
319.13	3434.44
319.34	3186.64
319.56	3090.38
319.77	3549.13
319.98	3551.18
320.20	3327.95
320.41	3289.04
320.62	3547.08
320.83	3254.22
321.05	3297.23
321.26	3125.20
321.47	3465.16
321.69	3723.21
321.90	3041.23
322.11	2996.18
322.32	3471.31
322.54	3887.04
322.75	3157.97
322.96	4259.78
323.18	3102.67
323.39	3043.28
323.60	2996.18
323.81	3237.84
324.03	3291.09
324.24	3487.69
324.45	3186.64
324.66	3047.38
324.88	3592.14
325.09	3768.26
325.30	3059.67
325.52	3074.00
325.73	3606.47
325.94	3278.80
326.15	3008.47
326.37	2936.79
326.58	3684.30
326.79	3788.74
327.00	3037.14
327.22	3071.95
327.43	3348.43
327.64	3241.93
327.85	3280.85
328.07	3067.86
328.28	3813.32
328.49	3276.75
328.70	3098.58
328.92	3133.39
329.13	3418.06
329.34	3573.71
329.55	3401.68
329.76	3237.84
329.98	3422.16
330.19	3688.39
330.40	3192.78
330.61	3278.80
330.83	3639.24
331.04	3289.04
331.25	3221.45
331.46	3157.97
331.68	3278.80
331.89	3721.16
332.10	3098.58
332.31	2901.97
332.52	3436.49
332.74	3700.68
332.95	2936.79
333.16	3069.91
333.37	3610.57
333.58	3338.19
333.80	3141.58
334.01	2901.97
334.22	3387.34
334.43	3332.05
334.64	3069.91
334.86	3127.25
335.07	3241.93
335.28	3747.78
335.49	3022.80
335.70	3198.93
335.92	3700.68
336.13	3889.09
336.34	3094.48
336.55	3076.05
336.76	3538.89
336.98	3074.00
337.19	3135.44
337.40	3209.17
337.61	3954.63
337.82	3340.24
338.04	3223.50
338.25	2906.07
338.46	3393.48
338.67	3418.06
338.88	3059.67
339.09	3002.32
339.31	3373.00
339.52	3160.02
339.73	3074.00
339.94	3190.74
340.15	3616.71
340.36	3411.92
340.58	3262.41
340.79	3018.71
341.00	3639.24
341.21	3137.49
341.42	3379.15
341.63	3045.33
341.85	3557.32
342.06	3465.16
342.27	3022.80
342.48	3258.32
342.69	3155.92
342.90	3495.88
343.12	3622.86
343.33	3051.47
343.54	3717.06
343.75	3798.98
343.96	3229.65
344.17	2992.08
344.38	3385.29
344.60	3270.61
344.81	3063.76
345.02	3069.91
345.23	3635.14
345.44	3983.30
345.65	3065.81
345.86	3196.88
346.07	3364.81
346.29	3280.85
346.50	3215.31
346.71	3176.40
346.92	3782.60
347.13	3934.15
347.34	3176.40
347.55	2951.12
347.76	3616.71
347.98	3090.38
348.19	3194.83
348.40	3305.42
348.61	3373.00
348.82	3782.60
349.03	3106.77
349.24	2985.94
349.45	3995.59
349.66	3067.86
349.88	3076.05
350.09	3012.56
350.30	3866.56
350.51	3758.02
350.72	3311.57
350.93	3063.76
351.14	3368.91
351.35	3526.60
351.56	3114.96
351.77	3160.02
351.99	3551.18
352.20	3770.31
352.41	3143.63
352.62	3043.28
352.83	3411.92
353.04	3358.67
353.25	3151.82
353.46	3125.20
353.67	3655.62
353.88	3016.66
354.09	3016.66
354.30	3223.50
354.52	3567.56
354.73	3407.82
354.94	3084.24
355.15	3141.58
355.36	3923.91
355.57	3383.24
355.78	3080.14
355.99	3182.54
356.20	3366.86
356.41	3649.48
356.62	3205.07
356.83	3160.02
357.04	3776.45
357.25	3129.30
357.46	3020.75
357.68	3006.42
357.89	3211.22
358.10	3411.92
358.31	3080.14
358.52	3108.82
358.73	3231.69
358.94	3217.36
359.15	3131.34
359.36	3092.43
359.57	3479.50
359.78	3411.92
359.99	3231.69
360.20	3057.62
360.41	3321.81
360.62	3504.07
360.83	3200.98
361.04	3157.97
361.25	3577.80
361.46	3807.17
361.67	3246.03
361.88	3043.28
362.09	3655.62
362.30	3467.21
362.51	3008.47
362.72	3174.35
362.93	3635.14
363.14	3545.03
363.35	3188.69
363.56	2955.22
363.78	3686.34
363.99	3622.86
364.20	3143.63
364.41	3182.54
364.62	3825.61
364.83	3549.13
365.04	3176.40
365.25	3145.68
365.46	3885.00
365.67	3264.46
365.88	3340.24
366.09	3141.58
366.30	3465.16
366.51	3409.87
366.72	3121.10
366.93	3039.19
367.14	3452.88
367.35	3715.02
367.56	3074.00
367.77	3274.70
367.98	3426.25
368.18	3606.47
368.39	3278.80
368.60	3092.43
368.81	3649.48
369.02	3508.17
369.23	3133.39
369.44	2967.51
369.65	3411.92
369.86	3602.38
370.07	3186.64
370.28	3026.90
370.49	3497.93
370.70	3518.41
370.91	2944.98
371.12	3035.09
371.33	3745.73
371.54	3334.09
371.75	3250.13
371.96	2893.78
372.17	3545.03
372.38	3485.64
372.59	3147.73
372.80	3069.91
373.01	3395.53
373.22	3373.00
373.43	3127.25
373.64	2967.51
373.85	3766.21
374.06	3844.04
374.26	3305.42
374.47	3229.65
374.68	3805.13
374.89	3475.40
375.10	3035.09
375.31	3266.51
375.52	3409.87
375.73	3391.44
375.94	2985.94
376.15	3129.30
376.36	3315.66
376.57	3284.94
376.78	3100.62
376.99	3145.68
377.20	3698.63
377.40	3350.48
377.61	3360.72
377.82	3186.64
378.03	3741.64
378.24	3686.34
378.45	3235.79
378.66	3160.02
378.87	3098.58
379.08	3149.78
379.29	3131.34
379.50	3327.95
379.71	3397.58
379.91	3514.31
380.12	3114.96
380.33	3110.86
380.54	3403.72
380.75	3434.44
380.96	3102.67
381.17	3135.44
381.38	3379.15
381.59	3502.03
381.80	3164.11
382.00	3270.61
382.21	3538.89
382.42	3794.89
382.63	3499.98
382.84	3286.99
383.05	3612.62
383.26	3669.96
383.47	3346.38
383.68	3061.71
383.88	3540.94
384.09	3438.54
384.30	3377.10
384.51	3256.27
384.72	3401.68
384.93	3250.13
385.14	3184.59
385.35	3438.54
385.55	3151.82
385.76	3717.06
385.97	3129.30
386.18	2914.26
386.39	3190.74
386.60	3323.85
386.81	3024.85
387.02	3094.48
387.22	3151.82
387.43	3524.55
387.64	3119.06
387.85	3401.68
388.06	3405.77
388.27	4450.24
388.48	7393.17
388.68	10870.62
388.89	13743.92
389.10	14786.33
389.31	14376.74
389.52	11784.01
389.73	10344.29
389.93	9480.05
390.14	8589.18
390.35	7921.54
390.56	7495.57
390.77	6238.11
390.98	4786.10
391.18	4018.11
391.39	3962.82
391.60	3547.08
391.81	3383.24
392.02	3250.13
392.23	3997.64
392.43	3506.12
392.64	3219.41
392.85	3217.36
393.06	3729.35
393.27	3436.49
393.47	3117.01
393.68	3180.50
393.89	3438.54
394.10	3770.31
394.31	3067.86
394.52	3094.48
394.72	3346.38
394.93	3745.73
395.14	3030.99
395.35	3188.69
395.56	3377.10
395.76	3325.90
395.97	3026.90
396.18	3350.48
396.39	3413.96
396.60	4171.71
396.80	3631.05
397.01	3377.10
397.22	3606.47
397.43	3618.76
397.64	3065.81
397.84	3241.93
398.05	3876.80
398.26	3459.02
398.47	3299.28
398.67	3389.39
398.88	3446.73
399.09	3579.85
399.30	3117.01
399.51	3196.88
399.71	3295.18
399.92	3395.53
400.13	3162.06
400.34	3141.58
400.54	3469.26
400.75	3788.74
400.96	3207.12
401.17	3510.22
401.37	3530.70
401.58	3487.69
401.79	3155.92
402.00	3246.03
402.21	3917.76
402.41	3540.94
402.62	3340.24
402.83	3459.02
403.04	3803.08
403.24	4206.53
403.45	3215.31
403.66	3467.21
403.87	3610.57
404.07	3766.21
404.28	3389.39
404.49	3452.88
404.70	3555.27
404.90	3590.09
405.11	3102.67
405.32	3221.45
405.52	3358.67
405.73	3307.47
405.94	3012.56
406.15	3246.03
406.35	3571.66
406.56	3672.01
406.77	3221.45
406.98	3084.24
407.18	3262.41
407.39	3766.21
407.60	3254.22
407.80	3231.69
408.01	3291.09
408.22	3649.48
408.43	3106.77
408.63	3311.57
408.84	3645.38
409.05	3610.57
409.25	3045.33
409.46	3162.06
409.67	3303.37
409.88	3352.52
410.08	3196.88
410.29	3117.01
410.50	3653.58
410.70	3569.61
410.91	3061.71
411.12	3182.54
411.32	3483.59
411.53	3239.89
411.74	3110.86
411.95	3239.89
412.15	3416.01
412.36	3659.72
412.57	3291.09
412.77	3418.06
412.98	3459.02
413.19	3366.86
413.39	3141.58
413.60	3229.65
413.81	3663.82
414.01	3194.83
414.22	3186.64
414.43	3440.59
414.63	3420.11
414.84	3592.14
415.05	3217.36
415.25	2992.08
415.46	3573.71
415.67	3231.69
415.87	3180.50
416.08	3092.43
416.29	3327.95
416.49	3528.65
416.70	3241.93
416.91	3164.11
417.11	3416.01
417.32	3631.05
417.53	3155.92
417.73	3258.32
417.94	3434.44
418.15	3514.31
418.35	3229.65
418.56	3182.54
418.77	3983.30
418.97	3512.27
419.18	3305.42
419.38	2959.31
419.59	3489.74
419.80	3770.31
420.00	3061.71
420.21	3184.59
420.42	3737.54
420.62	3497.93
420.83	3100.62
421.04	3114.96
421.24	3405.77
421.45	3565.51
421.65	3106.77
421.86	3196.88
422.07	3629.00
422.27	3542.99
422.48	3049.43
422.69	2965.46
422.89	3495.88
423.10	3352.52
423.30	3168.21
423.51	3233.74
423.72	3553.23
423.92	3610.57
424.13	3088.34
424.33	3198.93
424.54	3600.33
424.75	3518.41
424.95	3284.94
425.16	3112.91
425.36	3356.62
425.57	3626.95
425.78	3330.00
425.98	3319.76
426.19	3426.25
426.39	3243.98
426.60	3262.41
426.81	3327.95
427.01	3518.41
427.22	3362.76
427.42	2942.93
427.63	3098.58
427.83	3606.47
428.04	3839.94
428.25	3166.16
428.45	3256.27
428.66	3729.35
428.86	3395.53
429.07	3188.69
429.28	3139.54
429.48	3426.25
429.69	3344.33
429.89	3270.61
430.10	3149.78
430.30	3545.03
430.51	3698.63
430.71	3094.48
430.92	3219.41
431.13	3399.63
431.33	3508.17
431.54	3155.92
431.74	3403.72
431.95	3909.57
432.15	3254.22
432.36	3180.50
432.56	3153.87
432.77	3938.24
432.98	3807.17
433.18	3207.12
433.39	2975.70
433.59	3418.06
433.80	3911.62
434.00	3198.93
434.21	3172.30
434.41	3395.53
434.62	3928.00
434.82	3074.00
435.03	3157.97
435.23	3614.66
435.44	3106.77
435.64	3119.06
435.85	3180.50
436.06	3745.73
436.26	3680.20
436.47	3084.24
436.67	3133.39
436.88	3389.39
437.08	3753.93
437.29	3362.76
437.49	3332.05
437.70	3667.91
437.90	3444.68
438.11	3354.57
438.31	3147.73
438.52	3723.21
438.72	3626.95
438.93	3479.50
439.13	3301.33
439.34	3624.90
439.54	3377.10
439.75	3266.51
439.95	3190.74
440.16	3225.55
440.36	3336.14
440.57	3135.44
440.77	3131.34
440.98	3418.06
441.18	3565.51
441.39	3078.10
441.59	3004.37
441.80	3880.90
442.00	3577.80
442.21	3252.17
442.41	2975.70
442.62	3631.05
442.82	3305.42
443.02	3143.63
443.23	3119.06
443.43	3352.52
443.64	3665.86
443.84	3024.85
444.05	3278.80
444.25	3491.79
444.46	3330.00
444.66	3108.82
444.87	3411.92
445.07	3207.12
445.28	3385.29
445.48	3295.18
445.69	3209.17
445.89	3995.59
446.09	3336.14
446.30	3499.98
446.50	3583.95
446.71	4986.80
446.91	6057.89
447.12	6850.46
447.32	7387.02
447.53	7432.08
447.73	6174.63
447.93	5318.57
448.14	5156.79
448.34	5445.55
448.55	4485.05
448.75	4374.46
448.96	4243.39
449.16	4120.51
449.36	4085.70
449.57	3395.53
449.77	3239.89
449.98	3237.84
450.18	3547.08
450.39	3172.30
450.59	3409.87
450.79	3393.48
451.00	3354.57
451.20	3456.97
451.41	3166.16
451.61	3538.89
451.81	3403.72
452.02	3121.10
452.22	3174.35
452.43	3377.10
