SpectraSuite Data File
++++++++++++++++++++++++++++++++++++
Date: Fri May 06 09:28:34 CEST 2016
User: root
Dark Spectrum Present: No
Reference Spectrum Present: No
Number of Sampled Component Spectra: 1
Spectrometers: USB4C02835
Integration Time (usec): 100000 (USB4C02835)
Spectra Averaged: 1 (USB4C02835)
Boxcar Smoothing: 0 (USB4C02835)
Correct for Electrical Dark: No (USB4C02835)
Strobe/Lamp Enabled: No (USB4C02835)
Correct for Detector Non-linearity: No (USB4C02835)
Correct for Stray Light: No (USB4C02835)
Number of Pixels in Processed Spectrum: 3648
>>>>>Begin Processed Spectral Data<<<<<
177.47	2336.73
177.69	2336.73
177.91	2336.73
178.13	2295.77
178.36	2318.30
178.58	3119.06
178.80	3278.80
179.02	3256.27
179.24	3209.17
179.46	2901.97
179.68	2926.55
179.90	3356.62
180.13	3483.59
180.35	2815.96
180.57	3000.27
180.79	3645.38
181.01	3487.69
181.23	2912.21
181.45	3119.06
181.67	3663.82
181.90	3610.57
182.12	3090.38
182.34	2770.90
182.56	3622.86
182.78	3506.12
183.00	2910.16
183.22	2951.12
183.44	3055.57
183.66	4100.03
183.89	3071.95
184.11	2959.31
184.33	3667.91
184.55	3678.15
184.77	2906.07
184.99	3033.04
185.21	3373.00
185.43	3983.30
185.65	2947.03
185.87	2942.93
186.10	3975.11
186.32	4028.35
186.54	3153.87
186.76	3049.43
186.98	3602.38
187.20	3381.20
187.42	3006.42
187.64	2928.60
187.86	3536.84
188.08	3729.35
188.30	2883.54
188.52	3041.23
188.75	3811.27
188.97	3698.63
189.19	3008.47
189.41	2983.89
189.63	3631.05
189.85	3409.87
190.07	2832.34
190.29	2863.06
190.51	3524.55
190.73	3219.41
190.95	3184.59
191.17	3024.85
191.39	3037.14
191.61	3354.57
191.84	2969.55
192.06	3069.91
192.28	3131.34
192.50	4069.31
192.72	3149.78
192.94	3063.76
193.16	3692.49
193.38	3618.76
193.60	2887.64
193.82	3090.38
194.04	3735.50
194.26	3549.13
194.48	2936.79
194.70	3014.61
194.92	3405.77
195.14	3639.24
195.36	2932.69
195.58	3016.66
195.80	3422.16
196.02	3289.04
196.24	2873.30
196.46	3076.05
196.69	3368.91
196.91	4026.31
197.13	3053.52
197.35	3010.51
197.57	3801.03
197.79	3618.76
198.01	3053.52
198.23	2961.36
198.45	3557.32
198.67	3145.68
198.89	2820.05
199.11	3028.95
199.33	3278.80
199.55	3039.19
199.77	2848.72
199.99	3162.06
200.21	3403.72
200.43	3534.79
200.65	2813.91
200.87	2852.82
201.09	3459.02
201.31	3413.96
201.53	2912.21
201.75	3020.75
201.97	3481.55
202.19	3495.88
202.41	3067.86
202.63	3092.43
202.85	3612.62
203.07	3532.75
203.29	3053.52
203.51	2887.64
203.73	3360.72
203.95	4122.56
204.17	2963.41
204.39	3117.01
204.61	3389.39
204.83	3344.33
205.05	3182.54
205.27	2955.22
205.49	4089.79
205.71	3461.07
205.93	2787.29
206.15	2758.61
206.37	3461.07
206.59	3459.02
206.81	2772.95
207.03	2908.12
207.25	3303.37
207.47	3588.04
207.69	3006.42
207.91	3260.37
208.13	3745.73
208.34	3256.27
208.56	2885.59
208.78	2910.16
209.00	3426.25
209.22	3405.77
209.44	2994.13
209.66	2871.25
209.88	3479.50
210.10	3428.30
210.32	2979.79
210.54	3028.95
210.76	3327.95
210.98	3659.72
211.20	2861.01
211.42	3096.53
211.64	3708.87
211.86	3571.66
212.08	3082.19
212.30	2934.74
212.52	3422.16
212.74	3499.98
212.96	3092.43
213.17	3041.23
213.39	3680.20
213.61	3841.99
213.83	2908.12
214.05	2824.15
214.27	3723.21
214.49	3264.46
214.71	2975.70
214.93	3074.00
215.15	3534.79
215.37	3641.29
215.59	2848.72
215.81	2990.03
216.03	3758.02
216.24	3395.53
216.46	3026.90
216.68	3000.27
216.90	3663.82
217.12	3706.82
217.34	2883.54
217.56	3123.15
217.78	3719.11
218.00	3467.21
218.22	3057.62
218.44	3078.10
218.66	3506.12
218.87	3958.72
219.09	3000.27
219.31	2967.51
219.53	3598.28
219.75	3381.20
219.97	3028.95
220.19	2967.51
220.41	3413.96
220.63	3903.43
220.85	2959.31
221.06	2987.99
221.28	3794.89
221.50	3534.79
221.72	3000.27
221.94	2805.72
222.16	3510.22
222.38	3622.86
222.60	2951.12
222.82	2949.08
223.03	3665.86
223.25	3254.22
223.47	2983.89
223.69	3178.45
223.91	3606.47
224.13	3502.03
224.35	2822.10
224.57	3217.36
224.78	3598.28
225.00	3223.50
225.22	3051.47
225.44	2838.48
225.66	3561.42
225.88	3301.33
226.10	3131.34
226.32	2983.89
226.53	3874.76
226.75	3401.68
226.97	3084.24
227.19	2959.31
227.41	3295.18
227.63	3336.14
227.85	2781.14
228.06	3065.81
228.28	3524.55
228.50	3710.92
228.72	2791.38
228.94	2877.40
229.16	3082.19
229.37	3166.16
229.59	2918.36
229.81	3233.74
230.03	3430.35
230.25	3170.26
230.47	2822.10
230.69	2914.26
230.90	3651.53
231.12	3229.65
231.34	3084.24
231.56	3090.38
231.78	3221.45
232.00	3395.53
232.21	3051.47
232.43	3010.51
232.65	3041.23
232.87	3559.37
233.09	2807.77
233.30	2893.78
233.52	3573.71
233.74	3420.11
233.96	2942.93
234.18	3205.07
234.40	3442.64
234.61	3841.99
234.83	2844.63
235.05	2971.60
235.27	4036.55
235.49	3686.34
235.70	2813.91
235.92	2924.50
236.14	3555.27
236.36	3962.82
236.58	2795.48
236.79	2961.36
237.01	3358.67
237.23	3381.20
237.45	3172.30
237.67	3049.43
237.88	3624.90
238.10	3893.19
238.32	2811.86
238.54	2963.41
238.76	3377.10
238.97	3336.14
239.19	2924.50
239.41	3024.85
239.63	3735.50
239.85	3426.25
240.06	3065.81
240.28	3033.04
240.50	3655.62
240.72	3481.55
240.93	2826.20
241.15	3016.66
241.37	3344.33
241.59	3721.16
241.81	2953.17
242.02	3139.54
242.24	3485.64
242.46	3667.91
242.68	2791.38
242.89	2938.84
243.11	3710.92
243.33	3411.92
243.55	2942.93
243.76	2983.89
243.98	3270.61
244.20	3465.16
244.42	2971.60
244.64	2965.46
244.85	3145.68
245.07	3262.41
245.29	2910.16
245.51	3008.47
245.72	3557.32
245.94	3733.45
246.16	2942.93
246.38	3094.48
246.59	3358.67
246.81	3282.89
247.03	2840.53
247.24	2830.29
247.46	3426.25
247.68	3489.74
247.90	2897.88
248.11	2963.41
248.33	3614.66
248.55	3461.07
248.77	2990.03
248.98	3069.91
249.20	3827.65
249.42	3481.55
249.64	2910.16
249.85	2877.40
250.07	3264.46
250.29	3641.29
250.50	3067.86
250.72	2865.11
250.94	3620.81
251.16	3913.67
251.37	2994.13
251.59	3133.39
251.81	3516.36
252.02	3762.12
252.24	2875.35
252.46	3035.09
252.68	3336.14
252.89	3336.14
253.11	2807.77
253.33	3188.69
253.54	3798.98
253.76	3207.12
253.98	2967.51
254.20	2957.27
254.41	3196.88
254.63	3370.96
254.85	2863.06
255.06	3131.34
255.28	3542.99
255.50	3379.15
255.71	2885.59
255.93	2770.90
256.15	3401.68
256.36	3565.51
256.58	2795.48
256.80	2901.97
257.02	3344.33
257.23	3377.10
257.45	3026.90
257.67	3098.58
257.88	3336.14
258.10	3545.03
258.32	2969.55
258.53	3065.81
258.75	3778.50
258.97	3305.42
259.18	2828.24
259.40	2863.06
259.62	3858.37
259.83	3762.12
260.05	2914.26
260.27	3930.05
260.48	3624.90
260.70	3194.83
260.92	2873.30
261.13	3012.56
261.35	3493.83
261.57	3573.71
261.78	2922.45
262.00	2953.17
262.22	3563.47
262.43	3231.69
262.65	2983.89
262.86	2977.75
263.08	4018.11
263.30	3473.36
263.51	2762.71
263.73	2887.64
263.95	3782.60
264.16	3272.65
264.38	2877.40
264.60	2889.68
264.81	3352.52
265.03	3766.21
265.25	3465.16
265.46	2914.26
265.68	3798.98
265.89	3704.78
266.11	2830.29
266.33	2901.97
266.54	3721.16
266.76	3606.47
266.98	3037.14
267.19	3047.38
267.41	3680.20
267.62	3360.72
267.84	2754.52
268.06	3065.81
268.27	3499.98
268.49	3684.30
268.70	3063.76
268.92	2926.55
269.14	3243.98
269.35	3074.00
269.57	3100.62
269.79	3010.51
270.00	3272.65
270.22	3901.38
270.43	2797.53
270.65	2875.35
270.87	3518.41
271.08	3645.38
271.30	3076.05
271.51	3059.67
271.73	3581.90
271.95	3813.32
272.16	2901.97
272.38	3131.34
272.59	3360.72
272.81	3612.62
273.02	2867.16
273.24	2996.18
273.46	3760.07
273.67	3203.02
273.89	2789.33
274.10	2951.12
274.32	3774.41
274.54	3504.07
274.75	3065.81
274.97	3051.47
275.18	3616.71
275.40	3516.36
275.61	2961.36
275.83	3182.54
276.05	3278.80
276.26	3407.82
276.48	3065.81
276.69	3088.34
276.91	3313.61
277.12	3811.27
277.34	3164.11
277.55	3147.73
277.77	3459.02
277.99	3327.95
278.20	3090.38
278.42	3008.47
278.63	3346.38
278.85	3213.26
279.06	3018.71
279.28	3186.64
279.49	3753.93
279.71	3553.23
279.93	3143.63
280.14	3176.40
280.36	3346.38
280.57	3708.87
280.79	3162.06
281.00	2985.94
281.22	3291.09
281.43	3704.78
281.65	2826.20
281.86	2994.13
282.08	3639.24
282.29	3819.46
282.51	2992.08
282.73	2977.75
282.94	3139.54
283.16	3489.74
283.37	3178.45
283.59	3141.58
283.80	3512.27
284.02	3430.35
284.23	3182.54
284.45	3106.77
284.66	3311.57
284.88	3315.66
285.09	3014.61
285.31	3106.77
285.52	3561.42
285.74	3215.31
285.95	3336.14
286.17	3147.73
286.38	3694.54
286.60	3268.56
286.81	3022.80
287.03	3098.58
287.24	3354.57
287.46	3631.05
287.67	3223.50
287.89	3336.14
288.10	3387.34
288.32	3401.68
288.53	3248.08
288.75	3174.35
288.96	3733.45
289.18	3370.96
289.39	3078.10
289.61	3168.21
289.82	3919.81
290.04	3801.03
290.25	3012.56
290.47	3182.54
290.68	3420.11
290.90	3606.47
291.11	2901.97
291.33	3250.13
291.54	3299.28
291.76	3370.96
291.97	3223.50
292.18	3217.36
292.40	3405.77
292.61	3323.85
292.83	3364.81
293.04	3104.72
293.26	3477.45
293.47	3344.33
293.69	3014.61
293.90	2901.97
294.12	3678.15
294.33	3370.96
294.55	3166.16
294.76	3254.22
294.97	3708.87
295.19	3940.29
295.40	3053.52
295.62	3219.41
295.83	3657.67
296.05	3254.22
296.26	3413.96
296.48	3151.82
296.69	3418.06
296.90	3379.15
297.12	3299.28
297.33	3231.69
297.55	3483.59
297.76	3545.03
297.98	3153.87
298.19	3278.80
298.41	3483.59
298.62	3254.22
298.83	3313.61
299.05	3231.69
299.26	3381.20
299.48	3200.98
299.69	3160.02
299.90	3047.38
300.12	3229.65
300.33	3645.38
300.55	3180.50
300.76	3221.45
300.98	3272.65
301.19	3557.32
301.40	3090.38
301.62	3078.10
301.83	3520.46
302.05	3411.92
302.26	3117.01
302.47	3184.59
302.69	3235.79
302.90	3401.68
303.12	2969.55
303.33	3325.90
303.54	3815.37
303.76	3262.41
303.97	3086.29
304.19	3286.99
304.40	3325.90
304.61	3532.75
304.83	3248.08
305.04	3151.82
305.26	3626.95
305.47	3397.58
305.68	3137.49
305.90	2983.89
306.11	3682.25
306.33	3383.24
306.54	2975.70
306.75	3069.91
306.97	3178.45
307.18	3188.69
307.39	3047.38
307.61	3291.09
307.82	3344.33
308.04	3508.17
308.25	2961.36
308.46	3303.37
308.68	3426.25
308.89	3452.88
309.10	3160.02
309.32	3108.82
309.53	3442.64
309.74	3532.75
309.96	2955.22
310.17	3196.88
310.39	3319.76
310.60	3610.57
310.81	3061.71
311.03	3057.62
311.24	3555.27
311.45	3456.97
311.67	3479.50
311.88	3254.22
312.09	3350.48
312.31	3368.91
312.52	3051.47
312.73	3049.43
312.95	3178.45
313.16	3256.27
313.37	3237.84
313.59	3262.41
313.80	3667.91
314.01	3803.08
314.23	3141.58
314.44	3086.29
314.65	3194.83
314.87	3297.23
315.08	3096.53
315.29	3078.10
315.51	3307.47
315.72	3084.24
315.93	3180.50
316.15	3082.19
316.36	3346.38
316.57	3481.55
316.79	3119.06
317.00	2983.89
317.21	3624.90
317.43	3289.04
317.64	3119.06
317.85	3057.62
318.07	3286.99
318.28	3313.61
318.49	3172.30
318.70	3188.69
318.92	3422.16
319.13	3524.55
319.34	3221.45
319.56	3030.99
319.77	3524.55
319.98	3495.88
320.20	3360.72
320.41	3215.31
320.62	3575.75
320.83	3213.26
321.05	3346.38
321.26	3139.54
321.47	3459.02
321.69	3702.73
321.90	2992.08
322.11	3057.62
322.32	3495.88
322.54	3733.45
322.75	3194.83
322.96	4198.34
323.18	3166.16
323.39	3045.33
323.60	2934.74
323.81	3223.50
324.03	3325.90
324.24	3403.72
324.45	3215.31
324.66	3074.00
324.88	3733.45
325.09	3725.26
325.30	3086.29
325.52	2998.23
325.73	3459.02
325.94	3332.05
326.15	3012.56
326.37	2865.11
326.58	3655.62
326.79	3753.93
327.00	3067.86
327.22	3155.92
327.43	3418.06
327.64	3233.74
327.85	3303.37
328.07	3149.78
328.28	3919.81
328.49	3377.10
328.70	3090.38
328.92	3123.15
329.13	3303.37
329.34	3459.02
329.55	3379.15
329.76	3354.57
329.98	3405.77
330.19	3721.16
330.40	3207.12
330.61	3246.03
330.83	3729.35
331.04	3229.65
331.25	3219.41
331.46	3174.35
331.68	3203.02
331.89	3749.83
332.10	3127.25
332.31	2938.84
332.52	3467.21
332.74	3735.50
332.95	2947.03
333.16	3082.19
333.37	3557.32
333.58	3213.26
333.80	3059.67
334.01	2922.45
334.22	3338.19
334.43	3286.99
334.64	2971.60
334.86	3164.11
335.07	3237.84
335.28	3729.35
335.49	2971.60
335.70	3143.63
335.92	3753.93
336.13	3950.53
336.34	3110.86
336.55	3057.62
336.76	3542.99
336.98	3016.66
337.19	3051.47
337.40	3229.65
337.61	4065.22
337.82	3344.33
338.04	3254.22
338.25	2918.36
338.46	3483.59
338.67	3411.92
338.88	2990.03
339.09	3092.43
339.31	3272.65
339.52	3188.69
339.73	3108.82
339.94	3196.88
340.15	3577.80
340.36	3401.68
340.58	3123.15
340.79	3067.86
341.00	3635.14
341.21	3160.02
341.42	3289.04
341.63	3117.01
341.85	3686.34
342.06	3485.64
342.27	2996.18
342.48	3268.56
342.69	3153.87
342.90	3557.32
343.12	3413.96
343.33	3057.62
343.54	3643.34
343.75	3786.69
343.96	3299.28
344.17	2996.18
344.38	3309.52
344.60	3188.69
344.81	3016.66
345.02	3164.11
345.23	3676.10
345.44	4059.07
345.65	3157.97
345.86	3209.17
346.07	3493.83
346.29	3303.37
346.50	3229.65
346.71	3164.11
346.92	3762.12
347.13	3966.92
347.34	3205.07
347.55	2944.98
347.76	3565.51
347.98	3133.39
348.19	3203.02
348.40	3284.94
348.61	3315.66
348.82	3737.54
349.03	3139.54
349.24	3010.51
349.45	3887.04
349.66	3057.62
349.88	3108.82
350.09	3010.51
350.30	3641.29
350.51	3747.78
350.72	3426.25
350.93	3078.10
351.14	3403.72
351.35	3606.47
351.56	3112.91
351.77	3135.44
351.99	3647.43
352.20	3794.89
352.41	3268.56
352.62	2899.92
352.83	3430.35
353.04	3459.02
353.25	3127.25
353.46	3125.20
353.67	3737.54
353.88	3057.62
354.09	3045.33
354.30	3112.91
354.52	3559.37
354.73	3389.39
354.94	2930.64
355.15	3215.31
355.36	3891.14
355.57	3231.69
355.78	3030.99
355.99	3147.73
356.20	3311.57
356.41	3792.84
356.62	3194.83
356.83	3051.47
357.04	3706.82
357.25	3098.58
357.46	3059.67
357.68	2955.22
357.89	3207.12
358.10	3399.63
358.31	3049.43
358.52	3166.16
358.73	3200.98
358.94	3211.22
359.15	3178.45
359.36	3168.21
359.57	3549.13
359.78	3362.76
359.99	3262.41
360.20	3004.37
360.41	3467.21
360.62	3571.66
360.83	3205.07
361.04	3176.40
361.25	3469.26
361.46	3790.79
361.67	3250.13
361.88	3045.33
362.09	3659.72
362.30	3547.08
362.51	3028.95
362.72	3213.26
362.93	3635.14
363.14	3512.27
363.35	3250.13
363.56	3043.28
363.78	3563.47
363.99	3631.05
364.20	3074.00
364.41	3110.86
364.62	3770.31
364.83	3606.47
365.04	3135.44
365.25	3172.30
365.46	3950.53
365.67	3207.12
365.88	3319.76
366.09	3028.95
366.30	3368.91
366.51	3495.88
366.72	3100.62
366.93	3131.34
367.14	3444.68
367.35	3762.12
367.56	3057.62
367.77	3278.80
367.98	3442.64
368.18	3567.56
368.39	3225.55
368.60	3082.19
368.81	3592.14
369.02	3483.59
369.23	3125.20
369.44	2947.03
369.65	3321.81
369.86	3483.59
370.07	3307.47
370.28	2990.03
370.49	3581.90
370.70	3479.50
370.91	3030.99
371.12	2981.84
371.33	3678.15
371.54	3389.39
371.75	3164.11
371.96	2793.43
372.17	3454.92
372.38	3428.30
372.59	3033.04
372.80	3090.38
373.01	3411.92
373.22	3536.84
373.43	3157.97
373.64	2981.84
373.85	3784.65
374.06	3882.95
374.26	3282.89
374.47	3282.89
374.68	3780.55
374.89	3499.98
375.10	3094.48
375.31	3227.60
375.52	3549.13
375.73	3420.11
375.94	2906.07
376.15	3231.69
376.36	3250.13
376.57	3319.76
376.78	3123.15
376.99	3188.69
377.20	3727.30
377.40	3493.83
377.61	3428.30
377.82	3074.00
378.03	3753.93
378.24	3557.32
378.45	3213.26
378.66	3221.45
378.87	3114.96
379.08	3164.11
379.29	3143.63
379.50	3321.81
379.71	3364.81
379.91	3532.75
380.12	2996.18
380.33	3184.59
380.54	3440.59
380.75	3403.72
380.96	3121.10
381.17	3153.87
381.38	3401.68
381.59	3454.92
381.80	3215.31
382.00	3276.75
382.21	3407.82
382.42	3731.40
382.63	3489.74
382.84	3291.09
383.05	3622.86
383.26	3770.31
383.47	3260.37
383.68	3074.00
383.88	3641.29
384.09	3426.25
384.30	3301.33
384.51	3254.22
384.72	3373.00
384.93	3190.74
385.14	3270.61
385.35	3370.96
385.55	3106.77
385.76	3708.87
385.97	3090.38
386.18	3055.57
386.39	3219.41
386.60	3368.91
386.81	3090.38
387.02	3057.62
387.22	3205.07
387.43	3563.47
387.64	3254.22
387.85	3442.64
388.06	3499.98
388.27	4388.80
388.48	7296.91
388.68	10905.43
388.89	13563.70
389.10	14661.41
389.31	14145.32
389.52	11626.32
389.73	10415.97
389.93	9566.06
390.14	8275.84
390.35	7997.32
390.56	7403.41
390.77	6285.22
390.98	4765.62
391.18	4081.60
391.39	4054.98
391.60	3416.01
391.81	3424.20
392.02	3147.73
392.23	3975.11
392.43	3518.41
392.64	3192.78
392.85	3250.13
393.06	3803.08
393.27	3475.40
393.47	3157.97
393.68	3188.69
393.89	3346.38
394.10	3635.14
394.31	3196.88
394.52	3106.77
394.72	3289.04
394.93	3753.93
395.14	3039.19
395.35	3246.03
395.56	3370.96
395.76	3362.76
395.97	3133.39
396.18	3311.57
396.39	3491.79
396.60	3989.44
396.80	3538.89
397.01	3352.52
397.22	3641.29
397.43	3557.32
397.64	3090.38
397.84	3225.55
398.05	3831.75
398.26	3379.15
398.47	3317.71
398.67	3413.96
398.88	3463.12
399.09	3594.19
399.30	3049.43
399.51	3172.30
399.71	3254.22
399.92	3489.74
400.13	3221.45
400.34	3133.39
400.54	3409.87
400.75	3811.27
400.96	3182.54
401.17	3475.40
401.37	3585.99
401.58	3334.09
401.79	3074.00
402.00	3291.09
402.21	3954.63
402.41	3542.99
402.62	3274.70
402.83	3514.31
403.04	3844.04
403.24	4294.59
403.45	3225.55
403.66	3432.40
403.87	3669.96
404.07	3770.31
404.28	3368.91
404.49	3463.12
404.70	3563.47
404.90	3600.33
405.11	3090.38
405.32	3182.54
405.52	3348.43
405.73	3266.51
405.94	3049.43
406.15	3250.13
406.35	3614.66
406.56	3565.51
406.77	3162.06
406.98	3049.43
407.18	3256.27
407.39	3762.12
407.60	3127.25
407.80	3256.27
408.01	3375.05
408.22	3567.56
408.43	3045.33
408.63	3221.45
408.84	3647.43
409.05	3629.00
409.25	3026.90
409.46	3237.84
409.67	3250.13
409.88	3354.57
410.08	3196.88
410.29	3114.96
410.50	3667.91
410.70	3604.42
410.91	3051.47
411.12	3170.26
411.32	3547.08
411.53	3270.61
411.74	3213.26
411.95	3227.60
412.15	3518.41
412.36	3532.75
412.57	3385.29
412.77	3303.37
412.98	3436.49
413.19	3352.52
413.39	3157.97
413.60	3264.46
413.81	3778.50
414.01	3235.79
414.22	3164.11
414.43	3305.42
414.63	3358.67
414.84	3598.28
415.05	3262.41
415.25	2961.36
415.46	3571.66
415.67	3375.05
415.87	3225.55
416.08	3106.77
416.29	3420.11
416.49	3577.80
416.70	3250.13
416.91	3086.29
417.11	3430.35
417.32	3663.82
417.53	3268.56
417.73	3252.17
417.94	3442.64
418.15	3428.30
418.35	3207.12
418.56	3166.16
418.77	3971.01
418.97	3522.51
419.18	3248.08
419.38	2897.88
419.59	3442.64
419.80	3739.59
420.00	3098.58
420.21	3139.54
420.42	3737.54
420.62	3547.08
420.83	3237.84
421.04	3160.02
421.24	3420.11
421.45	3600.33
421.65	3149.78
421.86	3192.78
422.07	3647.43
422.27	3495.88
422.48	3125.20
422.69	2961.36
422.89	3377.10
423.10	3377.10
423.30	3114.96
423.51	3172.30
423.72	3602.38
423.92	3616.71
424.13	3000.27
424.33	3203.02
424.54	3622.86
424.75	3465.16
424.95	3422.16
425.16	3119.06
425.36	3403.72
425.57	3694.54
425.78	3352.52
425.98	3239.89
426.19	3428.30
426.39	3262.41
426.60	3284.94
426.81	3305.42
427.01	3516.36
427.22	3270.61
427.42	3026.90
427.63	3127.25
427.83	3643.34
428.04	3823.56
428.25	3262.41
428.45	3225.55
428.66	3690.44
428.86	3403.72
429.07	3174.35
429.28	3225.55
429.48	3477.45
429.69	3231.69
429.89	3278.80
430.10	3098.58
430.30	3655.62
430.51	3645.38
430.71	3092.43
430.92	3280.85
431.13	3344.33
431.33	3612.62
431.54	3274.70
431.74	3338.19
431.95	3966.92
432.15	3246.03
432.36	3184.59
432.56	3237.84
432.77	3885.00
432.98	3862.47
433.18	3229.65
433.39	3012.56
433.59	3407.82
433.80	3878.85
434.00	3354.57
434.21	3141.58
434.41	3364.81
434.62	4003.78
434.82	2971.60
435.03	3053.52
435.23	3536.84
435.44	2979.79
435.64	3164.11
435.85	3272.65
436.06	3538.89
436.26	3674.06
436.47	3196.88
436.67	3123.15
436.88	3469.26
437.08	3629.00
437.29	3274.70
437.49	3370.96
437.70	3706.82
437.90	3479.50
438.11	3467.21
438.31	3229.65
438.52	3737.54
438.72	3565.51
438.93	3557.32
439.13	3264.46
439.34	3641.29
439.54	3313.61
439.75	3250.13
439.95	3280.85
440.16	3256.27
440.36	3485.64
440.57	3217.36
440.77	3198.93
440.98	3383.24
441.18	3540.94
441.39	3012.56
441.59	3067.86
441.80	3958.72
442.00	3448.78
442.21	3194.83
442.41	3121.10
442.62	3663.82
442.82	3319.76
443.02	3088.34
443.23	3221.45
443.43	3291.09
443.64	3702.73
443.84	3024.85
444.05	3235.79
444.25	3426.25
444.46	3409.87
444.66	3106.77
444.87	3325.90
445.07	3088.34
445.28	3389.39
445.48	3325.90
445.69	3246.03
445.89	4032.45
446.09	3348.43
446.30	3489.74
446.50	3483.59
446.71	5054.39
446.91	5957.54
447.12	6815.64
447.32	7096.21
447.53	7370.64
447.73	6176.67
447.93	5359.53
448.14	5115.83
448.34	5334.96
448.55	4384.70
448.75	4474.81
448.96	4210.62
449.16	4167.62
449.36	4016.07
449.57	3360.72
449.77	3207.12
449.98	3346.38
450.18	3438.54
450.39	3067.86
450.59	3434.44
450.79	3420.11
451.00	3213.26
451.20	3332.05
451.41	3114.96
451.61	3590.09
451.81	3442.64
452.02	3112.91
452.22	3166.16
452.43	3332.05
