SpectraSuite Data File
++++++++++++++++++++++++++++++++++++
Date: Fri May 06 09:28:44 CEST 2016
User: root
Dark Spectrum Present: No
Reference Spectrum Present: No
Number of Sampled Component Spectra: 1
Spectrometers: USB4C02835
Integration Time (usec): 100000 (USB4C02835)
Spectra Averaged: 1 (USB4C02835)
Boxcar Smoothing: 0 (USB4C02835)
Correct for Electrical Dark: No (USB4C02835)
Strobe/Lamp Enabled: No (USB4C02835)
Correct for Detector Non-linearity: No (USB4C02835)
Correct for Stray Light: No (USB4C02835)
Number of Pixels in Processed Spectrum: 3648
>>>>>Begin Processed Spectral Data<<<<<
177.47	2312.16
177.69	2312.16
177.91	2312.16
178.13	2260.96
178.36	2318.30
178.58	3119.06
178.80	3270.61
179.02	3174.35
179.24	3164.11
179.46	2777.05
179.68	2936.79
179.90	3375.05
180.13	3442.64
180.35	2678.74
180.57	2764.76
180.79	3657.67
181.01	3430.35
181.23	2926.55
181.45	3059.67
181.67	3622.86
181.90	3592.14
182.12	2992.08
182.34	2779.09
182.56	3530.70
182.78	3557.32
183.00	2928.60
183.22	2969.55
183.44	3071.95
183.66	4016.07
183.89	3139.54
184.11	2963.41
184.33	3614.66
184.55	3723.21
184.77	2885.59
184.99	3008.47
185.21	3448.78
185.43	4026.31
185.65	3000.27
185.87	2942.93
186.10	3991.49
186.32	3956.68
186.54	3049.43
186.76	3022.80
186.98	3717.06
187.20	3471.31
187.42	3020.75
187.64	2961.36
187.86	3571.66
188.08	3690.44
188.30	2881.49
188.52	3014.61
188.75	3844.04
188.97	3749.83
189.19	2936.79
189.41	2912.21
189.63	3641.29
189.85	3385.29
190.07	2834.39
190.29	2768.85
190.51	3467.21
190.73	3178.45
190.95	3164.11
191.17	3055.57
191.39	3121.10
191.61	3426.25
191.84	3024.85
192.06	3039.19
192.28	3104.72
192.50	4229.06
192.72	3196.88
192.94	3065.81
193.16	3659.72
193.38	3463.12
193.60	2893.78
193.82	3198.93
194.04	3684.30
194.26	3526.60
194.48	3020.75
194.70	2977.75
194.92	3409.87
195.14	3614.66
195.36	2899.92
195.58	3024.85
195.80	3375.05
196.02	3317.71
196.24	2914.26
196.46	3106.77
196.69	3385.29
196.91	4052.93
197.13	3004.37
197.35	3018.71
197.57	3794.89
197.79	3532.75
198.01	3188.69
198.23	3014.61
198.45	3608.52
198.67	3172.30
198.89	2783.19
199.11	3037.14
199.33	3303.37
199.55	3067.86
199.77	2842.58
199.99	3127.25
200.21	3319.76
200.43	3471.31
200.65	2881.49
200.87	2836.44
201.09	3465.16
201.31	3432.40
201.53	2920.40
201.75	3100.62
201.97	3499.98
202.19	3559.37
202.41	3024.85
202.63	3051.47
202.85	3581.90
203.07	3452.88
203.29	3102.67
203.51	2912.21
203.73	3276.75
203.95	4167.62
204.17	2965.46
204.39	3172.30
204.61	3461.07
204.83	3264.46
205.05	3098.58
205.27	2967.51
205.49	3944.39
205.71	3381.20
205.93	2850.77
206.15	2873.30
206.37	3504.07
206.59	3413.96
206.81	2775.00
207.03	2770.90
207.25	3260.37
207.47	3479.50
207.69	2955.22
207.91	3164.11
208.13	3835.85
208.34	3397.58
208.56	3002.32
208.78	2987.99
209.00	3467.21
209.22	3405.77
209.44	2944.98
209.66	2912.21
209.88	3532.75
210.10	3401.68
210.32	2932.69
210.54	3057.62
210.76	3364.81
210.98	3731.40
211.20	2858.96
211.42	3082.19
211.64	3768.26
211.86	3569.61
212.08	2977.75
212.30	2942.93
212.52	3510.22
212.74	3610.57
212.96	3074.00
213.17	2969.55
213.39	3571.66
213.61	3872.71
213.83	2951.12
214.05	2844.63
214.27	3747.78
214.49	3227.60
214.71	2901.97
214.93	3098.58
215.15	3434.44
215.37	3641.29
215.59	2811.86
215.81	3051.47
216.03	3725.26
216.24	3436.49
216.46	2951.12
216.68	3053.52
216.90	3641.29
217.12	3620.81
217.34	2858.96
217.56	3157.97
217.78	3725.26
218.00	3499.98
218.22	3090.38
218.44	3059.67
218.66	3426.25
218.87	3837.89
219.09	3024.85
219.31	3016.66
219.53	3540.94
219.75	3360.72
219.97	3018.71
220.19	3051.47
220.41	3389.39
220.63	3839.94
220.85	3016.66
221.06	2928.60
221.28	3813.32
221.50	3612.62
221.72	3065.81
221.94	2940.88
222.16	3452.88
222.38	3751.88
222.60	2879.44
222.82	3016.66
223.03	3717.06
223.25	3178.45
223.47	2969.55
223.69	3207.12
223.91	3635.14
224.13	3538.89
224.35	2865.11
224.57	3110.86
224.78	3721.16
225.00	3194.83
225.22	3139.54
225.44	2848.72
225.66	3635.14
225.88	3301.33
226.10	3125.20
226.32	2955.22
226.53	3803.08
226.75	3311.57
226.97	3035.09
227.19	2992.08
227.41	3332.05
227.63	3368.91
227.85	2787.29
228.06	3012.56
228.28	3592.14
228.50	3704.78
228.72	2803.67
228.94	2914.26
229.16	3108.82
229.37	3229.65
229.59	2856.92
229.81	3262.41
230.03	3309.52
230.25	3286.99
230.47	2801.62
230.69	2920.40
230.90	3692.49
231.12	3311.57
231.34	2992.08
231.56	3041.23
231.78	3213.26
232.00	3528.65
232.21	2975.70
232.43	2975.70
232.65	2977.75
232.87	3567.56
233.09	2775.00
233.30	2908.12
233.52	3706.82
233.74	3438.54
233.96	2914.26
234.18	3125.20
234.40	3442.64
234.61	4048.83
234.83	2828.24
235.05	2901.97
235.27	3975.11
235.49	3721.16
235.70	2754.52
235.92	3026.90
236.14	3465.16
236.36	4020.16
236.58	2881.49
236.79	3082.19
237.01	3436.49
237.23	3385.29
237.45	3231.69
237.67	3000.27
237.88	3538.89
238.10	3971.01
238.32	2856.92
238.54	2963.41
238.76	3413.96
238.97	3252.17
239.19	2975.70
239.41	3006.42
239.63	3708.87
239.85	3332.05
240.06	3000.27
240.28	3016.66
240.50	3700.68
240.72	3436.49
240.93	2885.59
241.15	3086.29
241.37	3434.44
241.59	3758.02
241.81	2971.60
242.02	3026.90
242.24	3534.79
242.46	3502.03
242.68	2822.10
242.89	2865.11
243.11	3622.86
243.33	3411.92
243.55	2963.41
243.76	2967.51
243.98	3321.81
244.20	3385.29
244.42	2877.40
244.64	2912.21
244.85	3157.97
245.07	3188.69
245.29	2951.12
245.51	2987.99
245.72	3473.36
245.94	3637.19
246.16	2914.26
246.38	2957.27
246.59	3323.85
246.81	3280.85
247.03	2789.33
247.24	2877.40
247.46	3330.00
247.68	3469.26
247.90	2801.62
248.11	2969.55
248.33	3530.70
248.55	3375.05
248.77	2996.18
248.98	3020.75
249.20	3721.16
249.42	3502.03
249.64	2965.46
249.85	2897.88
250.07	3348.43
250.29	3549.13
250.50	3053.52
250.72	2828.24
250.94	3569.61
251.16	3903.43
251.37	2912.21
251.59	3074.00
251.81	3495.88
252.02	3839.94
252.24	2893.78
252.46	3069.91
252.68	3213.26
252.89	3334.09
253.11	2754.52
253.33	3168.21
253.54	3846.09
253.76	3211.22
253.98	2953.17
254.20	2901.97
254.41	3221.45
254.63	3370.96
254.85	2848.72
255.06	3090.38
255.28	3420.11
255.50	3393.48
255.71	2887.64
255.93	2877.40
256.15	3393.48
256.36	3524.55
256.58	2811.86
256.80	2895.83
257.02	3422.16
257.23	3418.06
257.45	3028.95
257.67	3127.25
257.88	3315.66
258.10	3614.66
258.32	2979.79
258.53	3061.71
258.75	3801.03
258.97	3311.57
259.18	2906.07
259.40	2861.01
259.62	3854.28
259.83	3796.93
260.05	3014.61
260.27	3950.53
260.48	3641.29
260.70	3239.89
260.92	2813.91
261.13	3057.62
261.35	3577.80
261.57	3590.09
261.78	2861.01
262.00	2916.31
262.22	3516.36
262.43	3209.17
262.65	2969.55
262.86	3016.66
263.08	3925.96
263.30	3520.46
263.51	2842.58
263.73	2901.97
263.95	3798.98
264.16	3237.84
264.38	2852.82
264.60	2897.88
264.81	3430.35
265.03	3749.83
265.25	3528.65
265.46	2918.36
265.68	3708.87
265.89	3600.33
266.11	2828.24
266.33	2936.79
266.54	3741.64
266.76	3536.84
266.98	2990.03
267.19	3157.97
267.41	3778.50
267.62	3426.25
267.84	2779.09
268.06	3114.96
268.27	3471.31
268.49	3749.83
268.70	3024.85
268.92	2975.70
269.14	3241.93
269.35	3180.50
269.57	3096.53
269.79	3035.09
270.00	3315.66
270.22	3817.41
270.43	2815.96
270.65	2861.01
270.87	3495.88
271.08	3565.51
271.30	3112.91
271.51	2926.55
271.73	3614.66
271.95	3829.70
272.16	2840.53
272.38	3151.82
272.59	3379.15
272.81	3588.04
273.02	2867.16
273.24	3008.47
273.46	3614.66
273.67	3258.32
273.89	2846.68
274.10	2942.93
274.32	3712.97
274.54	3555.27
274.75	3147.73
274.97	3033.04
275.18	3692.49
275.40	3504.07
275.61	3022.80
275.83	3067.86
276.05	3264.46
276.26	3399.63
276.48	3020.75
276.69	3057.62
276.91	3303.37
277.12	3751.88
277.34	3139.54
277.55	3344.33
277.77	3524.55
277.99	3391.44
278.20	3143.63
278.42	3020.75
278.63	3276.75
278.85	3237.84
279.06	3121.10
279.28	3209.17
279.49	3606.47
279.71	3637.19
279.93	3174.35
280.14	3155.92
280.36	3323.85
280.57	3680.20
280.79	3143.63
281.00	2975.70
281.22	3377.10
281.43	3672.01
281.65	2832.34
281.86	3037.14
282.08	3588.04
282.29	3905.48
282.51	3051.47
282.73	2983.89
282.94	3110.86
283.16	3555.27
283.37	3153.87
283.59	3147.73
283.80	3592.14
284.02	3360.72
284.23	3178.45
284.45	3114.96
284.66	3336.14
284.88	3293.13
285.09	3020.75
285.31	3155.92
285.52	3514.31
285.74	3196.88
285.95	3225.55
286.17	3106.77
286.38	3573.71
286.60	3313.61
286.81	2981.84
287.03	3059.67
287.24	3491.79
287.46	3696.58
287.67	3241.93
287.89	3272.65
288.10	3436.49
288.32	3446.73
288.53	3280.85
288.75	3106.77
288.96	3608.52
289.18	3352.52
289.39	3074.00
289.61	3153.87
289.82	3895.24
290.04	3872.71
290.25	2924.50
290.47	3160.02
290.68	3297.23
290.90	3659.72
291.11	2926.55
291.33	3268.56
291.54	3268.56
291.76	3434.44
291.97	3237.84
292.18	3221.45
292.40	3295.18
292.61	3286.99
292.83	3360.72
293.04	3164.11
293.26	3473.36
293.47	3362.76
293.69	3100.62
293.90	2955.22
294.12	3725.26
294.33	3434.44
294.55	3200.98
294.76	3360.72
294.97	3715.02
295.19	3901.38
295.40	3086.29
295.62	3196.88
295.83	3686.34
296.05	3297.23
296.26	3327.95
296.48	3149.78
296.69	3454.92
296.90	3352.52
297.12	3274.70
297.33	3241.93
297.55	3432.40
297.76	3563.47
297.98	3149.78
298.19	3327.95
298.41	3409.87
298.62	3229.65
298.83	3305.42
299.05	3307.47
299.26	3323.85
299.48	3262.41
299.69	3184.59
299.90	3078.10
300.12	3217.36
300.33	3602.38
300.55	3180.50
300.76	3157.97
300.98	3311.57
301.19	3606.47
301.40	3059.67
301.62	3022.80
301.83	3542.99
302.05	3475.40
302.26	3018.71
302.47	3190.74
302.69	3209.17
302.90	3469.26
303.12	2932.69
303.33	3250.13
303.54	3860.42
303.76	3272.65
303.97	3039.19
304.19	3334.09
304.40	3278.80
304.61	3542.99
304.83	3270.61
305.04	3139.54
305.26	3563.47
305.47	3278.80
305.68	3164.11
305.90	2959.31
306.11	3766.21
306.33	3383.24
306.54	2936.79
306.75	3106.77
306.97	3069.91
307.18	3262.41
307.39	3078.10
307.61	3155.92
307.82	3389.39
308.04	3573.71
308.25	2957.27
308.46	3270.61
308.68	3409.87
308.89	3393.48
309.10	3231.69
309.32	3133.39
309.53	3426.25
309.74	3520.46
309.96	2992.08
310.17	3205.07
310.39	3409.87
310.60	3545.03
310.81	3061.71
311.03	3024.85
311.24	3590.09
311.45	3368.91
311.67	3311.57
311.88	3235.79
312.09	3360.72
312.31	3332.05
312.52	2983.89
312.73	3059.67
312.95	3164.11
313.16	3270.61
313.37	3301.33
313.59	3262.41
313.80	3602.38
314.01	3680.20
314.23	3131.34
314.44	3004.37
314.65	3246.03
314.87	3205.07
315.08	3041.23
315.29	3114.96
315.51	3262.41
315.72	3100.62
315.93	3217.36
316.15	3094.48
316.36	3379.15
316.57	3444.68
316.79	3151.82
317.00	3057.62
317.21	3534.79
317.43	3360.72
317.64	3108.82
317.85	3055.57
318.07	3235.79
318.28	3467.21
318.49	3106.77
318.70	3344.33
318.92	3532.75
319.13	3461.07
319.34	3278.80
319.56	3006.42
319.77	3426.25
319.98	3612.62
320.20	3325.90
320.41	3231.69
320.62	3557.32
320.83	3192.78
321.05	3268.56
321.26	3053.52
321.47	3542.99
321.69	3704.78
321.90	2963.41
322.11	3123.15
322.32	3598.28
322.54	3731.40
322.75	3133.39
322.96	4239.30
323.18	3123.15
323.39	2996.18
323.60	3028.95
323.81	3139.54
324.03	3274.70
324.24	3401.68
324.45	3188.69
324.66	3043.28
324.88	3712.97
325.09	3829.70
325.30	3096.53
325.52	2975.70
325.73	3565.51
325.94	3246.03
326.15	2987.99
326.37	2871.25
326.58	3674.06
326.79	3827.65
327.00	3033.04
327.22	3092.43
327.43	3430.35
327.64	3213.26
327.85	3270.61
328.07	3096.53
328.28	3911.62
328.49	3278.80
328.70	3088.34
328.92	3119.06
329.13	3303.37
329.34	3633.10
329.55	3381.20
329.76	3262.41
329.98	3348.43
330.19	3815.37
330.40	3217.36
330.61	3315.66
330.83	3688.39
331.04	3254.22
331.25	3200.98
331.46	3215.31
331.68	3180.50
331.89	3727.30
332.10	3211.22
332.31	2922.45
332.52	3483.59
332.74	3729.35
332.95	2906.07
333.16	3051.47
333.37	3600.33
333.58	3303.37
333.80	3108.82
334.01	2871.25
334.22	3346.38
334.43	3278.80
334.64	3041.23
334.86	3061.71
335.07	3334.09
335.28	3856.33
335.49	2930.64
335.70	3184.59
335.92	3798.98
336.13	4014.02
336.34	3164.11
336.55	3065.81
336.76	3516.36
336.98	3057.62
337.19	3112.91
337.40	3143.63
337.61	3960.77
337.82	3409.87
338.04	3188.69
338.25	2942.93
338.46	3440.59
338.67	3350.48
338.88	2985.94
339.09	2994.13
339.31	3356.62
339.52	3147.73
339.73	2953.17
339.94	3192.78
340.15	3579.85
340.36	3364.81
340.58	3198.93
340.79	3049.43
341.00	3665.86
341.21	3174.35
341.42	3260.37
341.63	3127.25
341.85	3624.90
342.06	3499.98
342.27	3131.34
342.48	3258.32
342.69	3174.35
342.90	3581.90
343.12	3561.42
343.33	2940.88
343.54	3649.48
343.75	3807.17
343.96	3211.22
344.17	3049.43
344.38	3370.96
344.60	3139.54
344.81	3020.75
345.02	3205.07
345.23	3708.87
345.44	3977.16
345.65	3121.10
345.86	3188.69
346.07	3567.56
346.29	3297.23
346.50	3209.17
346.71	3178.45
346.92	3794.89
347.13	3889.09
347.34	3209.17
347.55	3030.99
347.76	3526.60
347.98	3176.40
348.19	3168.21
348.40	3340.24
348.61	3346.38
348.82	3743.69
349.03	3131.34
349.24	2983.89
349.45	3919.81
349.66	2983.89
349.88	3018.71
350.09	3026.90
350.30	3792.84
350.51	3717.06
350.72	3319.76
350.93	3049.43
351.14	3325.90
351.35	3551.18
351.56	3194.83
351.77	3295.18
351.99	3602.38
352.20	3776.45
352.41	3243.98
352.62	2926.55
352.83	3477.45
353.04	3504.07
353.25	3127.25
353.46	3129.30
353.67	3579.85
353.88	3016.66
354.09	2996.18
354.30	3190.74
354.52	3655.62
354.73	3438.54
354.94	3057.62
355.15	3135.44
355.36	3803.08
355.57	3397.58
355.78	3000.27
355.99	3082.19
356.20	3342.28
356.41	3700.68
356.62	3157.97
356.83	3180.50
357.04	3729.35
357.25	3030.99
357.46	3119.06
357.68	3024.85
357.89	3254.22
358.10	3418.06
358.31	3141.58
358.52	3166.16
358.73	3262.41
358.94	3143.63
359.15	3155.92
359.36	3049.43
359.57	3422.16
359.78	3381.20
359.99	3243.98
360.20	2975.70
360.41	3381.20
360.62	3635.14
360.83	3180.50
361.04	3198.93
361.25	3538.89
361.46	3878.85
361.67	3235.79
361.88	3055.57
362.09	3686.34
362.30	3614.66
362.51	3004.37
362.72	3176.40
362.93	3598.28
363.14	3594.19
363.35	3186.64
363.56	3008.47
363.78	3712.97
363.99	3764.17
364.20	3061.71
364.41	3143.63
364.62	3762.12
364.83	3510.22
365.04	3160.02
365.25	3147.73
365.46	3885.00
365.67	3282.89
365.88	3280.85
366.09	3082.19
366.30	3340.24
366.51	3407.82
366.72	3067.86
366.93	3078.10
367.14	3520.46
367.35	3743.69
367.56	3096.53
367.77	3250.13
367.98	3504.07
368.18	3538.89
368.39	3291.09
368.60	3012.56
368.81	3639.24
369.02	3530.70
369.23	3176.40
369.44	2981.84
369.65	3450.83
369.86	3557.32
370.07	3196.88
370.28	3033.04
370.49	3461.07
370.70	3561.42
370.91	3014.61
371.12	2944.98
371.33	3639.24
371.54	3385.29
371.75	3200.98
371.96	2897.88
372.17	3454.92
372.38	3375.05
372.59	3041.23
372.80	3010.51
373.01	3422.16
373.22	3526.60
373.43	3164.11
373.64	3002.32
373.85	3801.03
374.06	3895.24
374.26	3303.37
374.47	3227.60
374.68	3764.17
374.89	3471.31
375.10	3022.80
375.31	3188.69
375.52	3405.77
375.73	3526.60
375.94	2930.64
376.15	3188.69
376.36	3373.00
376.57	3344.33
376.78	3209.17
376.99	3157.97
377.20	3745.73
377.40	3297.23
377.61	3366.86
377.82	3067.86
378.03	3895.24
378.24	3600.33
378.45	3172.30
378.66	3280.85
378.87	3135.44
379.08	3063.76
379.29	3121.10
379.50	3258.32
379.71	3362.76
379.91	3526.60
380.12	3129.30
380.33	3172.30
380.54	3401.68
380.75	3483.59
380.96	3071.95
381.17	3137.49
381.38	3420.11
381.59	3403.72
381.80	3157.97
382.00	3176.40
382.21	3532.75
382.42	3745.73
382.63	3442.64
382.84	3303.37
383.05	3598.28
383.26	3774.41
383.47	3315.66
383.68	3078.10
383.88	3573.71
384.09	3413.96
384.30	3360.72
384.51	3133.39
384.72	3375.05
384.93	3196.88
385.14	3215.31
385.35	3413.96
385.55	3106.77
385.76	3700.68
385.97	3176.40
386.18	3049.43
386.39	3239.89
386.60	3323.85
386.81	3074.00
387.02	3030.99
387.22	3160.02
387.43	3510.22
387.64	3168.21
387.85	3340.24
388.06	3452.88
388.27	4427.71
388.48	7317.39
388.68	10739.55
388.89	13469.49
389.10	14673.70
389.31	14470.95
389.52	11747.15
389.73	10151.78
389.93	9430.90
390.14	8400.77
390.35	7858.06
390.56	7454.61
390.77	6268.83
390.98	4810.68
391.18	4016.07
391.39	3917.76
391.60	3481.55
391.81	3362.76
392.02	3239.89
392.23	3889.09
392.43	3461.07
392.64	3209.17
392.85	3250.13
393.06	3700.68
393.27	3487.69
393.47	3123.15
393.68	3254.22
393.89	3356.62
394.10	3747.78
394.31	3018.71
394.52	3102.67
394.72	3270.61
394.93	3794.89
395.14	3057.62
395.35	3291.09
395.56	3297.23
395.76	3467.21
395.97	3088.34
396.18	3321.81
396.39	3407.82
396.60	4159.42
396.80	3473.36
397.01	3393.48
397.22	3622.86
397.43	3643.34
397.64	3184.59
397.84	3241.93
398.05	3815.37
398.26	3385.29
398.47	3207.12
398.67	3422.16
398.88	3434.44
399.09	3526.60
399.30	3147.73
399.51	3188.69
399.71	3311.57
399.92	3428.30
400.13	3207.12
400.34	3178.45
400.54	3418.06
400.75	3753.93
400.96	3276.75
401.17	3383.24
401.37	3536.84
401.58	3383.24
401.79	3098.58
402.00	3264.46
402.21	3962.82
402.41	3598.28
402.62	3338.19
402.83	3526.60
403.04	3885.00
403.24	4274.11
403.45	3307.47
403.66	3516.36
403.87	3602.38
404.07	3786.69
404.28	3282.89
404.49	3430.35
404.70	3518.41
404.90	3547.08
405.11	3166.16
405.32	3286.99
405.52	3325.90
405.73	3205.07
405.94	3098.58
406.15	3252.17
406.35	3655.62
406.56	3596.23
406.77	3213.26
406.98	3125.20
407.18	3289.04
407.39	3782.60
407.60	3241.93
407.80	3198.93
408.01	3342.28
408.22	3618.76
408.43	3008.47
408.63	3303.37
408.84	3674.06
409.05	3583.95
409.25	3102.67
409.46	3164.11
409.67	3354.57
409.88	3383.24
410.08	3182.54
410.29	3035.09
410.50	3676.10
410.70	3604.42
410.91	3059.67
411.12	3237.84
411.32	3502.03
411.53	3225.55
411.74	3117.01
411.95	3153.87
412.15	3459.02
412.36	3569.61
412.57	3291.09
412.77	3264.46
412.98	3393.48
413.19	3346.38
413.39	3200.98
413.60	3213.26
413.81	3872.71
414.01	3209.17
414.22	3100.62
414.43	3422.16
414.63	3293.13
414.84	3585.99
415.05	3217.36
415.25	2971.60
415.46	3600.33
415.67	3360.72
415.87	3174.35
416.08	3117.01
416.29	3479.50
416.49	3655.62
416.70	3182.54
416.91	3080.14
417.11	3452.88
417.32	3631.05
417.53	3237.84
417.73	3239.89
417.94	3405.77
418.15	3477.45
418.35	3176.40
418.56	3229.65
418.77	4026.31
418.97	3450.83
419.18	3303.37
419.38	2873.30
419.59	3516.36
419.80	3731.40
420.00	3053.52
420.21	3198.93
420.42	3698.63
420.62	3608.52
420.83	3096.53
421.04	3057.62
421.24	3358.67
421.45	3633.10
421.65	3217.36
421.86	3137.49
422.07	3696.58
422.27	3514.31
422.48	3043.28
422.69	3000.27
422.89	3377.10
423.10	3446.73
423.30	3125.20
423.51	3176.40
423.72	3520.46
423.92	3600.33
424.13	3086.29
424.33	3205.07
424.54	3669.96
424.75	3407.82
424.95	3338.19
425.16	3055.57
425.36	3446.73
425.57	3637.19
425.78	3338.19
425.98	3205.07
426.19	3393.48
426.39	3276.75
426.60	3332.05
426.81	3282.89
427.01	3477.45
427.22	3192.78
427.42	2987.99
427.63	3151.82
427.83	3661.77
428.04	3815.37
428.25	3213.26
428.45	3289.04
428.66	3608.52
428.86	3321.81
429.07	3194.83
429.28	3147.73
429.48	3514.31
429.69	3256.27
429.89	3213.26
430.10	3133.39
430.30	3620.81
430.51	3715.02
430.71	3114.96
430.92	3182.54
431.13	3299.28
431.33	3641.29
431.54	3223.50
431.74	3399.63
431.95	3930.05
432.15	3196.88
432.36	3225.55
432.56	3207.12
432.77	3817.41
432.98	3782.60
433.18	3205.07
433.39	3057.62
433.59	3450.83
433.80	3901.38
434.00	3313.61
434.21	3157.97
434.41	3313.61
434.62	3987.40
434.82	3078.10
435.03	3143.63
435.23	3542.99
435.44	3104.72
435.64	3067.86
435.85	3217.36
436.06	3737.54
436.26	3737.54
436.47	3114.96
436.67	3074.00
436.88	3352.52
437.08	3696.58
437.29	3246.03
437.49	3219.41
437.70	3745.73
437.90	3385.29
438.11	3411.92
438.31	3243.98
438.52	3698.63
438.72	3727.30
438.93	3454.92
439.13	3280.85
439.34	3581.90
439.54	3411.92
439.75	3270.61
439.95	3231.69
440.16	3207.12
440.36	3485.64
440.57	3160.02
440.77	3215.31
440.98	3442.64
441.18	3555.27
441.39	3084.24
441.59	3016.66
441.80	3893.19
442.00	3454.92
442.21	3196.88
442.41	2926.55
442.62	3604.42
442.82	3307.47
443.02	3080.14
443.23	3129.30
443.43	3381.20
443.64	3739.59
443.84	3074.00
444.05	3278.80
444.25	3461.07
444.46	3332.05
444.66	3145.68
444.87	3413.96
445.07	3137.49
445.28	3454.92
445.48	3385.29
445.69	3213.26
445.89	4016.07
446.09	3444.68
446.30	3497.93
446.50	3555.27
446.71	5115.83
446.91	6109.09
447.12	6733.72
447.32	7331.73
447.53	7391.12
447.73	6061.99
447.93	5353.39
448.14	5162.93
448.34	5558.19
448.55	4491.20
448.75	4368.32
448.96	4044.74
449.16	4194.24
449.36	4024.26
449.57	3450.83
449.77	3262.41
449.98	3276.75
450.18	3575.75
450.39	3041.23
450.59	3434.44
450.79	3375.05
451.00	3229.65
451.20	3360.72
451.41	3172.30
451.61	3557.32
451.81	3397.58
452.02	3106.77
452.22	3198.93
452.43	3375.05
