SpectraSuite Data File
++++++++++++++++++++++++++++++++++++
Date: Fri May 06 09:29:03 CEST 2016
User: root
Dark Spectrum Present: No
Reference Spectrum Present: No
Number of Sampled Component Spectra: 1
Spectrometers: USB4C02835
Integration Time (usec): 100000 (USB4C02835)
Spectra Averaged: 1 (USB4C02835)
Boxcar Smoothing: 0 (USB4C02835)
Correct for Electrical Dark: No (USB4C02835)
Strobe/Lamp Enabled: No (USB4C02835)
Correct for Detector Non-linearity: No (USB4C02835)
Correct for Stray Light: No (USB4C02835)
Number of Pixels in Processed Spectrum: 3648
>>>>>Begin Processed Spectral Data<<<<<
177.47	2330.59
177.69	2330.59
177.91	2330.59
178.13	2258.91
178.36	2344.92
178.58	3180.50
178.80	3258.32
179.02	3207.12
179.24	3254.22
179.46	2815.96
179.68	2889.68
179.90	3467.21
180.13	3442.64
180.35	2781.14
180.57	2901.97
180.79	3674.06
181.01	3516.36
181.23	3008.47
181.45	3117.01
181.67	3616.71
181.90	3649.48
182.12	3108.82
182.34	2770.90
182.56	3551.18
182.78	3549.13
183.00	2938.84
183.22	2983.89
183.44	3086.29
183.66	4079.55
183.89	3065.81
184.11	3014.61
184.33	3585.99
184.55	3758.02
184.77	2953.17
184.99	3000.27
185.21	3403.72
185.43	3928.00
185.65	2926.55
185.87	2901.97
186.10	3936.20
186.32	3999.68
186.54	3030.99
186.76	3033.04
186.98	3667.91
187.20	3422.16
187.42	2881.49
187.64	2971.60
187.86	3547.08
188.08	3684.30
188.30	2815.96
188.52	2926.55
188.75	3794.89
188.97	3768.26
189.19	2928.60
189.41	2893.78
189.63	3547.08
189.85	3332.05
190.07	2813.91
190.29	2783.19
190.51	3545.03
190.73	3155.92
190.95	3155.92
191.17	2996.18
191.39	3076.05
191.61	3348.43
191.84	3006.42
192.06	3088.34
192.28	3100.62
192.50	4134.85
192.72	3143.63
192.94	3035.09
193.16	3659.72
193.38	3639.24
193.60	2881.49
193.82	3168.21
194.04	3669.96
194.26	3592.14
194.48	3004.37
194.70	2994.13
194.92	3409.87
195.14	3665.86
195.36	2938.84
195.58	3108.82
195.80	3389.39
196.02	3356.62
196.24	2920.40
196.46	3057.62
196.69	3338.19
196.91	3989.44
197.13	2906.07
197.35	2955.22
197.57	3882.95
197.79	3612.62
198.01	3043.28
198.23	3012.56
198.45	3661.77
198.67	3239.89
198.89	2820.05
199.11	3121.10
199.33	3336.14
199.55	2957.27
199.77	2959.31
199.99	3114.96
200.21	3344.33
200.43	3524.55
200.65	2770.90
200.87	2777.05
201.09	3459.02
201.31	3393.48
201.53	3010.51
201.75	3008.47
201.97	3538.89
202.19	3473.36
202.41	3033.04
202.63	3080.14
202.85	3522.51
203.07	3559.37
203.29	3100.62
203.51	2887.64
203.73	3305.42
203.95	4116.42
204.17	3000.27
204.39	3178.45
204.61	3373.00
204.83	3327.95
205.05	3121.10
205.27	2985.94
205.49	3983.30
205.71	3444.68
205.93	2834.39
206.15	2832.34
206.37	3469.26
206.59	3362.76
206.81	2856.92
207.03	2805.72
207.25	3262.41
207.47	3696.58
207.69	2981.84
207.91	3237.84
208.13	3801.03
208.34	3334.09
208.56	2934.74
208.78	3030.99
209.00	3370.96
209.22	3260.37
209.44	2969.55
209.66	2971.60
209.88	3459.02
210.10	3475.40
210.32	2901.97
210.54	3004.37
210.76	3276.75
210.98	3694.54
211.20	2830.29
211.42	3080.14
211.64	3760.07
211.86	3551.18
212.08	2969.55
212.30	2936.79
212.52	3422.16
212.74	3542.99
212.96	3084.24
213.17	3006.42
213.39	3663.82
213.61	3852.23
213.83	2904.02
214.05	2766.81
214.27	3678.15
214.49	3229.65
214.71	2936.79
214.93	3067.86
215.15	3430.35
215.37	3698.63
215.59	2795.48
215.81	3028.95
216.03	3747.78
216.24	3432.40
216.46	2959.31
216.68	3026.90
216.90	3694.54
217.12	3700.68
217.34	2965.46
217.56	3147.73
217.78	3825.61
218.00	3559.37
218.22	3082.19
218.44	3051.47
218.66	3545.03
218.87	3817.41
219.09	3020.75
219.31	2942.93
219.53	3538.89
219.75	3323.85
219.97	3065.81
220.19	3022.80
220.41	3528.65
220.63	3786.69
220.85	3012.56
221.06	2926.55
221.28	3700.68
221.50	3540.94
221.72	2893.78
221.94	2846.68
222.16	3483.59
222.38	3721.16
222.60	2936.79
222.82	3082.19
223.03	3688.39
223.25	3196.88
223.47	2820.05
223.69	3213.26
223.91	3573.71
224.13	3473.36
224.35	2871.25
224.57	3149.78
224.78	3639.24
225.00	3213.26
225.22	3045.33
225.44	2942.93
225.66	3540.94
225.88	3250.13
226.10	3217.36
226.32	2918.36
226.53	3741.64
226.75	3411.92
226.97	3090.38
227.19	2926.55
227.41	3289.04
227.63	3389.39
227.85	2674.65
228.06	2971.60
228.28	3471.31
228.50	3659.72
228.72	2752.47
228.94	2869.20
229.16	3051.47
229.37	3229.65
229.59	2846.68
229.81	3278.80
230.03	3397.58
230.25	3188.69
230.47	2840.53
230.69	2887.64
230.90	3641.29
231.12	3252.17
231.34	3041.23
231.56	3035.09
231.78	3254.22
232.00	3467.21
232.21	3059.67
232.43	3082.19
232.65	3000.27
232.87	3567.56
233.09	2822.10
233.30	2887.64
233.52	3680.20
233.74	3418.06
233.96	2924.50
234.18	3123.15
234.40	3354.57
234.61	3962.82
234.83	2932.69
235.05	2895.83
235.27	4069.31
235.49	3764.17
235.70	2750.42
235.92	3008.47
236.14	3639.24
236.36	3911.62
236.58	2846.68
236.79	3071.95
237.01	3526.60
237.23	3465.16
237.45	3227.60
237.67	2975.70
237.88	3479.50
238.10	3895.24
238.32	2922.45
238.54	2901.97
238.76	3497.93
238.97	3295.18
239.19	2830.29
239.41	3014.61
239.63	3721.16
239.85	3327.95
240.06	3020.75
240.28	2975.70
240.50	3604.42
240.72	3446.73
240.93	2916.31
241.15	3137.49
241.37	3373.00
241.59	3764.17
241.81	3030.99
242.02	3041.23
242.24	3518.41
242.46	3590.09
242.68	2815.96
242.89	2912.21
243.11	3618.76
243.33	3418.06
243.55	2930.64
243.76	2971.60
243.98	3373.00
244.20	3405.77
244.42	3026.90
244.64	2942.93
244.85	3203.02
245.07	3246.03
245.29	3018.71
245.51	2973.65
245.72	3475.40
245.94	3639.24
246.16	2926.55
246.38	3000.27
246.59	3409.87
246.81	3286.99
247.03	2828.24
247.24	2791.38
247.46	3368.91
247.68	3530.70
247.90	2865.11
248.11	2957.27
248.33	3631.05
248.55	3436.49
248.77	3047.38
248.98	3030.99
249.20	3885.00
249.42	3479.50
249.64	2975.70
249.85	2887.64
250.07	3385.29
250.29	3571.66
250.50	3096.53
250.72	2924.50
250.94	3520.46
251.16	3983.30
251.37	2897.88
251.59	3084.24
251.81	3577.80
252.02	3788.74
252.24	2830.29
252.46	3123.15
252.68	3282.89
252.89	3342.28
253.11	2854.87
253.33	3098.58
253.54	3792.84
253.76	3248.08
253.98	2928.60
254.20	2930.64
254.41	3131.34
254.63	3416.01
254.85	2830.29
255.06	3084.24
255.28	3594.19
255.50	3307.47
255.71	2858.96
255.93	2783.19
256.15	3381.20
256.36	3680.20
256.58	2834.39
256.80	2813.91
257.02	3489.74
257.23	3360.72
257.45	3030.99
257.67	3125.20
257.88	3352.52
258.10	3481.55
258.32	2920.40
258.53	3098.58
258.75	3764.17
258.97	3317.71
259.18	2883.54
259.40	2846.68
259.62	3827.65
259.83	3780.55
260.05	2987.99
260.27	3917.76
260.48	3766.21
260.70	3264.46
260.92	2852.82
261.13	2967.51
261.35	3510.22
261.57	3551.18
261.78	2809.81
262.00	2836.44
262.22	3557.32
262.43	3299.28
262.65	2928.60
262.86	2983.89
263.08	3975.11
263.30	3438.54
263.51	2838.48
263.73	2914.26
263.95	3811.27
264.16	3239.89
264.38	2854.87
264.60	2848.72
264.81	3493.83
265.03	3682.25
265.25	3422.16
265.46	2899.92
265.68	3735.50
265.89	3551.18
266.11	2895.83
266.33	2848.72
266.54	3721.16
266.76	3567.56
266.98	3102.67
267.19	3237.84
267.41	3727.30
267.62	3387.34
267.84	2772.95
268.06	3096.53
268.27	3563.47
268.49	3684.30
268.70	2979.79
268.92	2971.60
269.14	3233.74
269.35	3131.34
269.57	3129.30
269.79	3037.14
270.00	3309.52
270.22	3878.85
270.43	2920.40
270.65	2770.90
270.87	3489.74
271.08	3661.77
271.30	3153.87
271.51	2996.18
271.73	3516.36
271.95	3766.21
272.16	2865.11
272.38	3106.77
272.59	3278.80
272.81	3577.80
273.02	2840.53
273.24	3030.99
273.46	3745.73
273.67	3125.20
273.89	2875.35
274.10	2955.22
274.32	3653.58
274.54	3409.87
274.75	3100.62
274.97	3076.05
275.18	3618.76
275.40	3565.51
275.61	2914.26
275.83	3184.59
276.05	3227.60
276.26	3510.22
276.48	3051.47
276.69	3209.17
276.91	3315.66
277.12	3827.65
277.34	3170.26
277.55	3301.33
277.77	3430.35
277.99	3350.48
278.20	3141.58
278.42	3010.51
278.63	3311.57
278.85	3264.46
279.06	3030.99
279.28	3207.12
279.49	3721.16
279.71	3583.95
279.93	3164.11
280.14	3186.64
280.36	3342.28
280.57	3674.06
280.79	3168.21
281.00	2949.08
281.22	3377.10
281.43	3708.87
281.65	2961.36
281.86	2996.18
282.08	3583.95
282.29	3848.13
282.51	3022.80
282.73	2963.41
282.94	3176.40
283.16	3524.55
283.37	3198.93
283.59	3125.20
283.80	3430.35
284.02	3383.24
284.23	3110.86
284.45	3143.63
284.66	3254.22
284.88	3291.09
285.09	2992.08
285.31	3127.25
285.52	3518.41
285.74	3147.73
285.95	3332.05
286.17	3188.69
286.38	3712.97
286.60	3352.52
286.81	3051.47
287.03	3123.15
287.24	3422.16
287.46	3559.37
287.67	3284.94
287.89	3250.13
288.10	3432.40
288.32	3456.97
288.53	3229.65
288.75	3082.19
288.96	3598.28
289.18	3254.22
289.39	3010.51
289.61	3160.02
289.82	3930.05
290.04	3811.27
290.25	2971.60
290.47	3145.68
290.68	3389.39
290.90	3655.62
291.11	2865.11
291.33	3284.94
291.54	3299.28
291.76	3395.53
291.97	3239.89
292.18	3239.89
292.40	3416.01
292.61	3317.71
292.83	3409.87
293.04	3004.37
293.26	3469.26
293.47	3313.61
293.69	3090.38
293.90	3035.09
294.12	3698.63
294.33	3418.06
294.55	3162.06
294.76	3295.18
294.97	3733.45
295.19	3954.63
295.40	3102.67
295.62	3209.17
295.83	3626.95
296.05	3262.41
296.26	3366.86
296.48	3190.74
296.69	3512.27
296.90	3450.83
297.12	3250.13
297.33	3293.13
297.55	3528.65
297.76	3549.13
297.98	3174.35
298.19	3299.28
298.41	3424.20
298.62	3286.99
298.83	3291.09
299.05	3221.45
299.26	3321.81
299.48	3315.66
299.69	3192.78
299.90	3063.76
300.12	3145.68
300.33	3657.67
300.55	3258.32
300.76	3215.31
300.98	3209.17
301.19	3647.43
301.40	3088.34
301.62	3147.73
301.83	3540.94
302.05	3405.77
302.26	3108.82
302.47	3147.73
302.69	3176.40
302.90	3401.68
303.12	2906.07
303.33	3231.69
303.54	3946.44
303.76	3381.20
303.97	2987.99
304.19	3368.91
304.40	3211.22
304.61	3622.86
304.83	3205.07
305.04	3176.40
305.26	3555.27
305.47	3344.33
305.68	3123.15
305.90	3047.38
306.11	3766.21
306.33	3370.96
306.54	2942.93
306.75	3082.19
306.97	3155.92
307.18	3336.14
307.39	2967.51
307.61	3248.08
307.82	3512.27
308.04	3626.95
308.25	2959.31
308.46	3266.51
308.68	3459.02
308.89	3385.29
309.10	3192.78
309.32	3268.56
309.53	3430.35
309.74	3532.75
309.96	3004.37
310.17	3229.65
310.39	3387.34
310.60	3655.62
310.81	3106.77
311.03	3016.66
311.24	3569.61
311.45	3401.68
311.67	3332.05
311.88	3274.70
312.09	3338.19
312.31	3323.85
312.52	3082.19
312.73	2983.89
312.95	3100.62
313.16	3260.37
313.37	3317.71
313.59	3286.99
313.80	3614.66
314.01	3688.39
314.23	3069.91
314.44	3051.47
314.65	3100.62
314.87	3266.51
315.08	3067.86
315.29	3080.14
315.51	3229.65
315.72	3180.50
315.93	3129.30
316.15	3026.90
316.36	3284.94
316.57	3405.77
316.79	3098.58
317.00	3110.86
317.21	3684.30
317.43	3362.76
317.64	3098.58
317.85	3063.76
318.07	3315.66
318.28	3385.29
318.49	3198.93
318.70	3295.18
318.92	3487.69
319.13	3416.01
319.34	3325.90
319.56	3065.81
319.77	3588.04
319.98	3538.89
320.20	3418.06
320.41	3286.99
320.62	3542.99
320.83	3141.58
321.05	3336.14
321.26	3131.34
321.47	3434.44
321.69	3684.30
321.90	2955.22
322.11	2979.79
322.32	3545.03
322.54	3788.74
322.75	3121.10
322.96	4184.00
323.18	3178.45
323.39	3065.81
323.60	3018.71
323.81	3194.83
324.03	3358.67
324.24	3459.02
324.45	3248.08
324.66	3084.24
324.88	3618.76
325.09	3835.85
325.30	3057.62
325.52	3026.90
325.73	3542.99
325.94	3291.09
326.15	2934.74
326.37	2901.97
326.58	3592.14
326.79	3803.08
327.00	3065.81
327.22	3041.23
327.43	3373.00
327.64	3241.93
327.85	3303.37
328.07	3110.86
328.28	3856.33
328.49	3340.24
328.70	3125.20
328.92	3096.53
329.13	3391.44
329.34	3520.46
329.55	3387.34
329.76	3254.22
329.98	3413.96
330.19	3649.48
330.40	3168.21
330.61	3260.37
330.83	3696.58
331.04	3241.93
331.25	3200.98
331.46	3139.54
331.68	3213.26
331.89	3614.66
332.10	3141.58
332.31	2992.08
332.52	3467.21
332.74	3801.03
332.95	2928.60
333.16	3076.05
333.37	3598.28
333.58	3348.43
333.80	3119.06
334.01	2838.48
334.22	3321.81
334.43	3325.90
334.64	3014.61
334.86	3086.29
335.07	3225.55
335.28	3753.93
335.49	2987.99
335.70	3157.97
335.92	3747.78
336.13	3968.96
336.34	3082.19
336.55	3094.48
336.76	3512.27
336.98	3020.75
337.19	3123.15
337.40	3264.46
337.61	4009.92
337.82	3379.15
338.04	3246.03
338.25	2930.64
338.46	3409.87
338.67	3319.76
338.88	3041.23
339.09	3039.19
339.31	3313.61
339.52	3176.40
339.73	3090.38
339.94	3074.00
340.15	3536.84
340.36	3323.85
340.58	3098.58
340.79	2992.08
341.00	3530.70
341.21	3160.02
341.42	3477.45
341.63	3147.73
341.85	3688.39
342.06	3448.78
342.27	3045.33
342.48	3276.75
342.69	3182.54
342.90	3651.53
343.12	3518.41
343.33	3074.00
343.54	3600.33
343.75	3733.45
343.96	3194.83
344.17	2998.23
344.38	3303.37
344.60	3248.08
344.81	3057.62
345.02	3200.98
345.23	3667.91
345.44	3936.20
345.65	3147.73
345.86	3135.44
346.07	3540.94
346.29	3264.46
346.50	3250.13
346.71	3151.82
346.92	3708.87
347.13	3952.58
347.34	3139.54
347.55	2992.08
347.76	3520.46
347.98	3170.26
348.19	3086.29
348.40	3286.99
348.61	3377.10
348.82	3831.75
349.03	3143.63
349.24	2994.13
349.45	3835.85
349.66	2994.13
349.88	3121.10
350.09	2992.08
350.30	3805.13
350.51	3741.64
350.72	3321.81
350.93	3176.40
351.14	3391.44
351.35	3459.02
351.56	3147.73
351.77	3194.83
351.99	3575.75
352.20	3749.83
352.41	3243.98
352.62	2983.89
352.83	3413.96
353.04	3401.68
353.25	3155.92
353.46	3174.35
353.67	3678.15
353.88	3041.23
354.09	3012.56
354.30	3235.79
354.52	3626.95
354.73	3368.91
354.94	3076.05
355.15	3147.73
355.36	3823.56
355.57	3297.23
355.78	3022.80
355.99	3078.10
356.20	3411.92
356.41	3774.41
356.62	3198.93
356.83	3102.67
357.04	3751.88
357.25	3071.95
357.46	3033.04
357.68	3076.05
357.89	3139.54
358.10	3428.30
358.31	2940.88
358.52	3139.54
358.73	3207.12
358.94	3221.45
359.15	3196.88
359.36	3151.82
359.57	3432.40
359.78	3344.33
359.99	3264.46
360.20	3014.61
360.41	3393.48
360.62	3696.58
360.83	3145.68
361.04	3094.48
361.25	3579.85
361.46	3778.50
361.67	3155.92
361.88	3063.76
362.09	3573.71
362.30	3600.33
362.51	3024.85
362.72	3205.07
362.93	3547.08
363.14	3637.19
363.35	3182.54
363.56	3018.71
363.78	3659.72
363.99	3592.14
364.20	3100.62
364.41	3198.93
364.62	3897.28
364.83	3483.59
365.04	3129.30
365.25	3178.45
365.46	3952.58
365.67	3301.33
365.88	3344.33
366.09	3071.95
366.30	3364.81
366.51	3418.06
366.72	2971.60
366.93	3061.71
367.14	3428.30
367.35	3762.12
367.56	2987.99
367.77	3278.80
367.98	3479.50
368.18	3483.59
368.39	3282.89
368.60	3043.28
368.81	3631.05
369.02	3520.46
369.23	3110.86
369.44	3035.09
369.65	3459.02
369.86	3557.32
370.07	3180.50
370.28	2971.60
370.49	3504.07
370.70	3614.66
370.91	2938.84
371.12	3035.09
371.33	3622.86
371.54	3237.84
371.75	3219.41
371.96	2815.96
372.17	3481.55
372.38	3407.82
372.59	3149.78
372.80	2996.18
373.01	3426.25
373.22	3452.88
373.43	3102.67
373.64	2922.45
373.85	3655.62
374.06	3874.76
374.26	3289.04
374.47	3307.47
374.68	3823.56
374.89	3534.79
375.10	3069.91
375.31	3278.80
375.52	3514.31
375.73	3489.74
375.94	2959.31
376.15	3188.69
376.36	3348.43
376.57	3301.33
376.78	3176.40
376.99	3057.62
377.20	3764.17
377.40	3325.90
377.61	3420.11
377.82	3170.26
378.03	3733.45
378.24	3604.42
378.45	3221.45
378.66	3235.79
378.87	3082.19
379.08	3053.52
379.29	3106.77
379.50	3303.37
379.71	3311.57
379.91	3545.03
380.12	3059.67
380.33	3237.84
380.54	3409.87
380.75	3401.68
380.96	3082.19
381.17	3164.11
381.38	3448.78
381.59	3352.52
381.80	3121.10
382.00	3266.51
382.21	3454.92
382.42	3710.92
382.63	3538.89
382.84	3330.00
383.05	3622.86
383.26	3831.75
383.47	3342.28
383.68	2977.75
383.88	3622.86
384.09	3516.36
384.30	3336.14
384.51	3196.88
384.72	3370.96
384.93	3196.88
385.14	3256.27
385.35	3375.05
385.55	3131.34
385.76	3708.87
385.97	3082.19
386.18	2971.60
386.39	3278.80
386.60	3332.05
386.81	3123.15
387.02	2918.36
387.22	3157.97
387.43	3510.22
387.64	3127.25
387.85	3422.16
388.06	3426.25
388.27	4343.74
388.48	7311.25
388.68	10915.67
388.89	13586.22
389.10	14788.38
389.31	14417.70
389.52	11640.65
389.73	10272.61
389.93	9434.99
390.14	8388.48
390.35	7921.54
390.56	7335.82
390.77	6197.15
390.98	4745.14
391.18	4065.22
391.39	3932.10
391.60	3459.02
391.81	3344.33
392.02	3237.84
392.23	3923.91
392.43	3469.26
392.64	3303.37
392.85	3237.84
393.06	3915.72
393.27	3424.20
393.47	3155.92
393.68	3160.02
393.89	3416.01
394.10	3751.88
394.31	3143.63
394.52	3155.92
394.72	3319.76
394.93	3782.60
395.14	3035.09
395.35	3274.70
395.56	3323.85
395.76	3373.00
395.97	3129.30
396.18	3203.02
396.39	3391.44
396.60	4073.41
396.80	3571.66
397.01	3393.48
397.22	3504.07
397.43	3684.30
397.64	3153.87
397.84	3209.17
398.05	3872.71
398.26	3409.87
398.47	3190.74
398.67	3416.01
398.88	3463.12
399.09	3581.90
399.30	3155.92
399.51	3198.93
399.71	3368.91
399.92	3444.68
400.13	3301.33
400.34	3168.21
400.54	3502.03
400.75	3841.99
400.96	3205.07
401.17	3489.74
401.37	3575.75
401.58	3344.33
401.79	3096.53
402.00	3231.69
402.21	3925.96
402.41	3540.94
402.62	3319.76
402.83	3479.50
403.04	3807.17
403.24	4278.21
403.45	3190.74
403.66	3360.72
403.87	3639.24
404.07	3712.97
404.28	3454.92
404.49	3444.68
404.70	3549.13
404.90	3672.01
405.11	3121.10
405.32	3305.42
405.52	3264.46
405.73	3198.93
405.94	3078.10
406.15	3262.41
406.35	3594.19
406.56	3567.56
406.77	3198.93
406.98	3188.69
407.18	3366.86
407.39	3819.46
407.60	3166.16
407.80	3200.98
408.01	3360.72
408.22	3569.61
408.43	3047.38
408.63	3270.61
408.84	3563.47
409.05	3672.01
409.25	3117.01
409.46	3178.45
409.67	3446.73
409.88	3373.00
410.08	3153.87
410.29	3049.43
410.50	3682.25
410.70	3540.94
410.91	3069.91
411.12	3225.55
411.32	3506.12
411.53	3319.76
411.74	3166.16
411.95	3182.54
412.15	3432.40
412.36	3620.81
412.57	3260.37
412.77	3272.65
412.98	3420.11
413.19	3344.33
413.39	3176.40
413.60	3184.59
413.81	3702.73
414.01	3196.88
414.22	3221.45
414.43	3352.52
414.63	3299.28
414.84	3700.68
415.05	3157.97
415.25	3026.90
415.46	3651.53
415.67	3319.76
415.87	3157.97
416.08	3102.67
416.29	3459.02
416.49	3473.36
416.70	3215.31
416.91	3145.68
417.11	3422.16
417.32	3626.95
417.53	3270.61
417.73	3264.46
417.94	3452.88
418.15	3565.51
418.35	3241.93
418.56	3164.11
418.77	3991.49
418.97	3395.53
419.18	3315.66
419.38	2799.57
419.59	3450.83
419.80	3764.17
420.00	3016.66
420.21	3200.98
420.42	3651.53
420.62	3506.12
420.83	3155.92
421.04	3119.06
421.24	3383.24
421.45	3532.75
421.65	3168.21
421.86	3190.74
422.07	3569.61
422.27	3672.01
422.48	3028.95
422.69	3092.43
422.89	3434.44
423.10	3424.20
423.30	3215.31
423.51	3166.16
423.72	3573.71
423.92	3610.57
424.13	3092.43
424.33	3301.33
424.54	3649.48
424.75	3385.29
424.95	3434.44
425.16	3086.29
425.36	3418.06
425.57	3749.83
425.78	3360.72
425.98	3268.56
426.19	3420.11
426.39	3291.09
426.60	3198.93
426.81	3254.22
427.01	3534.79
427.22	3213.26
427.42	2998.23
427.63	3114.96
427.83	3678.15
428.04	3897.28
428.25	3217.36
428.45	3268.56
428.66	3762.12
428.86	3446.73
429.07	3207.12
429.28	3176.40
429.48	3399.63
429.69	3305.42
429.89	3221.45
430.10	3131.34
430.30	3672.01
430.51	3598.28
430.71	3030.99
430.92	3215.31
431.13	3274.70
431.33	3553.23
431.54	3272.65
431.74	3356.62
431.95	3870.66
432.15	3241.93
432.36	3180.50
432.56	3182.54
432.77	3895.24
432.98	3788.74
433.18	3274.70
433.39	3037.14
433.59	3387.34
433.80	3985.35
434.00	3305.42
434.21	3231.69
434.41	3274.70
434.62	3874.76
434.82	3010.51
435.03	3102.67
435.23	3446.73
435.44	3002.32
435.64	3090.38
435.85	3231.69
436.06	3651.53
436.26	3663.82
436.47	3211.22
436.67	3106.77
436.88	3401.68
437.08	3641.29
437.29	3299.28
437.49	3284.94
437.70	3667.91
437.90	3403.72
438.11	3368.91
438.31	3268.56
438.52	3733.45
438.72	3684.30
438.93	3516.36
439.13	3342.28
439.34	3633.10
439.54	3325.90
439.75	3250.13
439.95	3303.37
440.16	3225.55
440.36	3475.40
440.57	3135.44
440.77	3176.40
440.98	3497.93
441.18	3540.94
441.39	3043.28
441.59	3084.24
441.80	3878.85
442.00	3416.01
442.21	3223.50
442.41	2961.36
442.62	3610.57
442.82	3260.37
443.02	3129.30
443.23	3162.06
443.43	3356.62
443.64	3737.54
443.84	3045.33
444.05	3282.89
444.25	3444.68
444.46	3309.52
444.66	3186.64
444.87	3258.32
445.07	3143.63
445.28	3442.64
445.48	3393.48
445.69	3205.07
445.89	3932.10
446.09	3364.81
446.30	3430.35
446.50	3518.41
446.71	5089.20
446.91	6199.20
447.12	6885.27
447.32	7333.78
447.53	7270.29
447.73	6209.44
447.93	5425.07
448.14	5197.74
448.34	5408.69
448.55	4519.87
448.75	4370.37
448.96	4138.94
449.16	4124.61
449.36	3960.77
449.57	3495.88
449.77	3233.74
449.98	3346.38
450.18	3618.76
450.39	3088.34
450.59	3393.48
450.79	3385.29
451.00	3336.14
451.20	3411.92
451.41	3151.82
451.61	3477.45
451.81	3397.58
452.02	3131.34
452.22	3139.54
452.43	3358.67
