SpectraSuite Data File
++++++++++++++++++++++++++++++++++++
Date: Fri May 06 09:28:53 CEST 2016
User: root
Dark Spectrum Present: No
Reference Spectrum Present: No
Number of Sampled Component Spectra: 1
Spectrometers: USB4C02835
Integration Time (usec): 100000 (USB4C02835)
Spectra Averaged: 1 (USB4C02835)
Boxcar Smoothing: 0 (USB4C02835)
Correct for Electrical Dark: No (USB4C02835)
Strobe/Lamp Enabled: No (USB4C02835)
Correct for Detector Non-linearity: No (USB4C02835)
Correct for Stray Light: No (USB4C02835)
Number of Pixels in Processed Spectrum: 3648
>>>>>Begin Processed Spectral Data<<<<<
177.47	2342.88
177.69	2342.88
177.91	2342.88
178.13	2330.59
178.36	2258.91
178.58	3106.77
178.80	3172.30
179.02	3094.48
179.24	3166.16
179.46	2883.54
179.68	2936.79
179.90	3356.62
180.13	3430.35
180.35	2723.80
180.57	2893.78
180.79	3575.75
181.01	3444.68
181.23	3000.27
181.45	3205.07
181.67	3581.90
181.90	3633.10
182.12	3037.14
182.34	2738.13
182.56	3606.47
182.78	3549.13
183.00	2961.36
183.22	2910.16
183.44	3039.19
183.66	4134.85
183.89	3123.15
184.11	2979.79
184.33	3676.10
184.55	3801.03
184.77	2985.94
184.99	2969.55
185.21	3260.37
185.43	4116.42
185.65	2920.40
185.87	2969.55
186.10	3944.39
186.32	3999.68
186.54	3110.86
186.76	3061.71
186.98	3696.58
187.20	3354.57
187.42	2942.93
187.64	2889.68
187.86	3610.57
188.08	3684.30
188.30	2867.16
188.52	3051.47
188.75	3801.03
188.97	3708.87
189.19	2936.79
189.41	2887.64
189.63	3649.48
189.85	3409.87
190.07	2975.70
190.29	2805.72
190.51	3510.22
190.73	3166.16
190.95	3264.46
191.17	3051.47
191.39	3065.81
191.61	3397.58
191.84	2930.64
192.06	3160.02
192.28	3100.62
192.50	4151.23
192.72	3178.45
192.94	3006.42
193.16	3641.29
193.38	3602.38
193.60	2904.02
193.82	3182.54
194.04	3712.97
194.26	3475.40
194.48	2979.79
194.70	2879.44
194.92	3387.34
195.14	3590.09
195.36	2930.64
195.58	3010.51
195.80	3399.63
196.02	3241.93
196.24	2865.11
196.46	3110.86
196.69	3319.76
196.91	4042.69
197.13	3035.09
197.35	2963.41
197.57	3762.12
197.79	3553.23
198.01	3131.34
198.23	3004.37
198.45	3600.33
198.67	3205.07
198.89	2799.57
199.11	3114.96
199.33	3303.37
199.55	2983.89
199.77	2861.01
199.99	3084.24
200.21	3395.53
200.43	3575.75
200.65	2873.30
200.87	2867.16
201.09	3471.31
201.31	3413.96
201.53	3061.71
201.75	3074.00
201.97	3581.90
202.19	3475.40
202.41	3028.95
202.63	3114.96
202.85	3561.42
203.07	3444.68
203.29	3088.34
203.51	2928.60
203.73	3221.45
203.95	3966.92
204.17	2973.65
204.39	3149.78
204.61	3399.63
204.83	3330.00
205.05	3129.30
205.27	3039.19
205.49	3919.81
205.71	3393.48
205.93	2848.72
206.15	2844.63
206.37	3416.01
206.59	3450.83
206.81	2791.38
207.03	2901.97
207.25	3250.13
207.47	3635.14
207.69	2942.93
207.91	3192.78
208.13	3876.80
208.34	3350.48
208.56	2938.84
208.78	3014.61
209.00	3332.05
209.22	3375.05
209.44	3022.80
209.66	2863.06
209.88	3624.90
210.10	3399.63
210.32	2914.26
210.54	3051.47
210.76	3348.43
210.98	3659.72
211.20	2895.83
211.42	3067.86
211.64	3770.31
211.86	3598.28
212.08	3078.10
212.30	2940.88
212.52	3317.71
212.74	3604.42
212.96	3125.20
213.17	3018.71
213.39	3672.01
213.61	3848.13
213.83	2897.88
214.05	2815.96
214.27	3667.91
214.49	3157.97
214.71	2977.75
214.93	3047.38
215.15	3495.88
215.37	3639.24
215.59	2856.92
215.81	3074.00
216.03	3815.37
216.24	3491.79
216.46	2922.45
216.68	3016.66
216.90	3577.80
217.12	3702.73
217.34	2975.70
217.56	3151.82
217.78	3712.97
218.00	3622.86
218.22	3082.19
218.44	3033.04
218.66	3454.92
218.87	3885.00
219.09	3045.33
219.31	2951.12
219.53	3542.99
219.75	3360.72
219.97	3082.19
220.19	2983.89
220.41	3499.98
220.63	3729.35
220.85	2965.46
221.06	2951.12
221.28	3731.40
221.50	3581.90
221.72	2942.93
221.94	2912.21
222.16	3387.34
222.38	3663.82
222.60	2932.69
222.82	3026.90
223.03	3655.62
223.25	3190.74
223.47	2922.45
223.69	3286.99
223.91	3579.85
224.13	3485.64
224.35	2828.24
224.57	3074.00
224.78	3616.71
225.00	3295.18
225.22	3088.34
225.44	2897.88
225.66	3635.14
225.88	3307.47
226.10	3137.49
226.32	2967.51
226.53	3741.64
226.75	3434.44
226.97	3139.54
227.19	2967.51
227.41	3168.21
227.63	3330.00
227.85	2787.29
228.06	3049.43
228.28	3573.71
228.50	3708.87
228.72	2838.48
228.94	2881.49
229.16	3082.19
229.37	3164.11
229.59	2867.16
229.81	3207.12
230.03	3477.45
230.25	3164.11
230.47	2844.63
230.69	2895.83
230.90	3588.04
231.12	3342.28
231.34	3008.47
231.56	3018.71
231.78	3184.59
232.00	3440.59
232.21	3002.32
232.43	3053.52
232.65	2967.51
232.87	3571.66
233.09	2783.19
233.30	2865.11
233.52	3631.05
233.74	3430.35
233.96	2881.49
234.18	3106.77
234.40	3465.16
234.61	4063.17
234.83	2885.59
235.05	2877.40
235.27	4073.41
235.49	3702.73
235.70	2826.20
235.92	3004.37
236.14	3563.47
236.36	3960.77
236.58	2889.68
236.79	3117.01
237.01	3395.53
237.23	3469.26
237.45	3141.58
237.67	3096.53
237.88	3518.41
238.10	3854.28
238.32	2885.59
238.54	2979.79
238.76	3409.87
238.97	3205.07
239.19	2836.44
239.41	2983.89
239.63	3735.50
239.85	3352.52
240.06	2987.99
240.28	2934.74
240.50	3721.16
240.72	3446.73
240.93	2881.49
241.15	3129.30
241.37	3411.92
241.59	3770.31
241.81	3067.86
242.02	3061.71
242.24	3454.92
242.46	3565.51
242.68	2826.20
242.89	2856.92
243.11	3704.78
243.33	3426.25
243.55	2961.36
243.76	2985.94
243.98	3278.80
244.20	3465.16
244.42	2979.79
244.64	2910.16
244.85	3082.19
245.07	3278.80
245.29	3004.37
245.51	2975.70
245.72	3497.93
245.94	3745.73
246.16	2949.08
246.38	2979.79
246.59	3293.13
246.81	3252.17
247.03	2858.96
247.24	2854.87
247.46	3319.76
247.68	3428.30
247.90	2869.20
248.11	2942.93
248.33	3512.27
248.55	3475.40
248.77	2981.84
248.98	3127.25
249.20	3897.28
249.42	3438.54
249.64	2969.55
249.85	2994.13
250.07	3319.76
250.29	3663.82
250.50	2967.51
250.72	2803.67
250.94	3588.04
251.16	4005.83
251.37	2914.26
251.59	3074.00
251.81	3557.32
252.02	3760.07
252.24	2824.15
252.46	3125.20
252.68	3301.33
252.89	3258.32
253.11	2750.42
253.33	3168.21
253.54	3782.60
253.76	3225.55
253.98	3008.47
254.20	2975.70
254.41	3188.69
254.63	3502.03
254.85	2852.82
255.06	3053.52
255.28	3559.37
255.50	3422.16
255.71	2910.16
255.93	2820.05
256.15	3405.77
256.36	3612.62
256.58	2818.00
256.80	2920.40
257.02	3409.87
257.23	3370.96
257.45	2951.12
257.67	3114.96
257.88	3340.24
258.10	3573.71
258.32	2940.88
258.53	3102.67
258.75	3878.85
258.97	3350.48
259.18	2895.83
259.40	2875.35
259.62	3839.94
259.83	3762.12
260.05	2947.03
260.27	3862.47
260.48	3737.54
260.70	3276.75
260.92	2848.72
261.13	3016.66
261.35	3524.55
261.57	3516.36
261.78	2811.86
262.00	2904.02
262.22	3575.75
262.43	3203.02
262.65	2924.50
262.86	2973.65
263.08	3954.63
263.30	3487.69
263.51	2781.14
263.73	2818.00
263.95	3852.23
264.16	3209.17
264.38	2861.01
264.60	2850.77
264.81	3381.20
265.03	3645.38
265.25	3401.68
265.46	2852.82
265.68	3682.25
265.89	3569.61
266.11	2906.07
266.33	2889.68
266.54	3764.17
266.76	3532.75
266.98	3047.38
267.19	3127.25
267.41	3751.88
267.62	3461.07
267.84	2795.48
268.06	3067.86
268.27	3456.97
268.49	3753.93
268.70	3026.90
268.92	3010.51
269.14	3246.03
269.35	3067.86
269.57	3071.95
269.79	3049.43
270.00	3358.67
270.22	3858.37
270.43	2891.73
270.65	2811.86
270.87	3520.46
271.08	3561.42
271.30	3041.23
271.51	2959.31
271.73	3602.38
271.95	3774.41
272.16	2846.68
272.38	3088.34
272.59	3409.87
272.81	3518.41
273.02	2865.11
273.24	3045.33
273.46	3657.67
273.67	3219.41
273.89	2832.34
274.10	2926.55
274.32	3690.44
274.54	3520.46
274.75	3018.71
274.97	3053.52
275.18	3594.19
275.40	3581.90
275.61	2942.93
275.83	3127.25
276.05	3215.31
276.26	3293.13
276.48	3065.81
276.69	3135.44
276.91	3362.76
277.12	3782.60
277.34	3086.29
277.55	3276.75
277.77	3532.75
277.99	3327.95
278.20	3160.02
278.42	3008.47
278.63	3295.18
278.85	3213.26
279.06	2961.36
279.28	3188.69
279.49	3762.12
279.71	3585.99
279.93	3188.69
280.14	3100.62
280.36	3309.52
280.57	3741.64
280.79	3168.21
281.00	3008.47
281.22	3368.91
281.43	3674.06
281.65	2951.12
281.86	3057.62
282.08	3604.42
282.29	3846.09
282.51	2979.79
282.73	2897.88
282.94	3188.69
283.16	3567.56
283.37	3162.06
283.59	3172.30
283.80	3600.33
284.02	3545.03
284.23	3114.96
284.45	3139.54
284.66	3254.22
284.88	3278.80
285.09	2977.75
285.31	3166.16
285.52	3499.98
285.74	3067.86
285.95	3299.28
286.17	3131.34
286.38	3721.16
286.60	3409.87
286.81	3102.67
287.03	3071.95
287.24	3483.59
287.46	3604.42
287.67	3293.13
287.89	3377.10
288.10	3383.24
288.32	3463.12
288.53	3231.69
288.75	3227.60
288.96	3561.42
289.18	3346.38
289.39	3065.81
289.61	3131.34
289.82	3952.58
290.04	3870.66
290.25	2914.26
290.47	3209.17
290.68	3389.39
290.90	3694.54
291.11	2844.63
291.33	3282.89
291.54	3270.61
291.76	3321.81
291.97	3266.51
292.18	3192.78
292.40	3303.37
292.61	3319.76
292.83	3432.40
293.04	3074.00
293.26	3524.55
293.47	3403.72
293.69	3012.56
293.90	2967.51
294.12	3706.82
294.33	3362.76
294.55	3153.87
294.76	3286.99
294.97	3770.31
295.19	3885.00
295.40	3069.91
295.62	3176.40
295.83	3610.57
296.05	3188.69
296.26	3387.34
296.48	3100.62
296.69	3483.59
296.90	3461.07
297.12	3252.17
297.33	3319.76
297.55	3461.07
297.76	3643.34
297.98	3192.78
298.19	3291.09
298.41	3368.91
298.62	3243.98
298.83	3272.65
299.05	3221.45
299.26	3377.10
299.48	3213.26
299.69	3174.35
299.90	3074.00
300.12	3268.56
300.33	3532.75
300.55	3133.39
300.76	3178.45
300.98	3231.69
301.19	3575.75
301.40	3155.92
301.62	3153.87
301.83	3502.03
302.05	3409.87
302.26	3033.04
302.47	3190.74
302.69	3198.93
302.90	3428.30
303.12	2953.17
303.33	3225.55
303.54	3923.91
303.76	3362.76
303.97	2994.13
304.19	3295.18
304.40	3334.09
304.61	3575.75
304.83	3178.45
305.04	3147.73
305.26	3637.19
305.47	3344.33
305.68	3024.85
305.90	2975.70
306.11	3753.93
306.33	3405.77
306.54	2969.55
306.75	3102.67
306.97	3110.86
307.18	3190.74
307.39	3057.62
307.61	3233.74
307.82	3418.06
308.04	3530.70
308.25	2971.60
308.46	3200.98
308.68	3403.72
308.89	3473.36
309.10	3162.06
309.32	3141.58
309.53	3434.44
309.74	3610.57
309.96	3067.86
310.17	3219.41
310.39	3346.38
310.60	3540.94
310.81	3149.78
311.03	3061.71
311.24	3581.90
311.45	3401.68
311.67	3352.52
311.88	3270.61
312.09	3239.89
312.31	3332.05
312.52	3012.56
312.73	3059.67
312.95	3168.21
313.16	3315.66
313.37	3270.61
313.59	3344.33
313.80	3674.06
314.01	3686.34
314.23	3194.83
314.44	3028.95
314.65	3188.69
314.87	3301.33
315.08	3074.00
315.29	3223.50
315.51	3270.61
315.72	3119.06
315.93	3211.22
316.15	3207.12
316.36	3360.72
316.57	3493.83
316.79	3053.52
317.00	3002.32
317.21	3579.85
317.43	3155.92
317.64	3151.82
317.85	3012.56
318.07	3241.93
318.28	3366.86
318.49	3151.82
318.70	3332.05
318.92	3342.28
319.13	3549.13
319.34	3239.89
319.56	3110.86
319.77	3516.36
319.98	3540.94
320.20	3377.10
320.41	3207.12
320.62	3542.99
320.83	3254.22
321.05	3330.00
321.26	3135.44
321.47	3467.21
321.69	3782.60
321.90	2926.55
322.11	3059.67
322.32	3528.65
322.54	3770.31
322.75	3069.91
322.96	4243.39
323.18	3125.20
323.39	3024.85
323.60	2947.03
323.81	3250.13
324.03	3289.04
324.24	3391.44
324.45	3164.11
324.66	3033.04
324.88	3610.57
325.09	3862.47
325.30	3139.54
325.52	2983.89
325.73	3547.08
325.94	3147.73
326.15	3067.86
326.37	3002.32
326.58	3624.90
326.79	3811.27
327.00	2969.55
327.22	3139.54
327.43	3434.44
327.64	3147.73
327.85	3305.42
328.07	3114.96
328.28	3878.85
328.49	3334.09
328.70	3127.25
328.92	3033.04
329.13	3381.20
329.34	3540.94
329.55	3348.43
329.76	3264.46
329.98	3448.78
330.19	3706.82
330.40	3170.26
330.61	3223.50
330.83	3635.14
331.04	3336.14
331.25	3157.97
331.46	3168.21
331.68	3211.22
331.89	3667.91
332.10	3110.86
332.31	3020.75
332.52	3358.67
332.74	3786.69
332.95	2940.88
333.16	3086.29
333.37	3637.19
333.58	3327.95
333.80	3168.21
334.01	2934.74
334.22	3389.39
334.43	3225.55
334.64	2983.89
334.86	3051.47
335.07	3262.41
335.28	3631.05
335.49	3030.99
335.70	3211.22
335.92	3831.75
336.13	3815.37
336.34	3108.82
336.55	3069.91
336.76	3542.99
336.98	3065.81
337.19	3108.82
337.40	3119.06
337.61	3962.82
337.82	3428.30
338.04	3209.17
338.25	2934.74
338.46	3385.29
338.67	3471.31
338.88	2994.13
339.09	2947.03
339.31	3311.57
339.52	3190.74
339.73	3024.85
339.94	3160.02
340.15	3581.90
340.36	3373.00
340.58	3188.69
340.79	2971.60
341.00	3622.86
341.21	3217.36
341.42	3344.33
341.63	3102.67
341.85	3694.54
342.06	3450.83
342.27	3080.14
342.48	3243.98
342.69	3139.54
342.90	3598.28
343.12	3559.37
343.33	2975.70
343.54	3659.72
343.75	3856.33
343.96	3241.93
344.17	3129.30
344.38	3373.00
344.60	3305.42
344.81	3102.67
345.02	3114.96
345.23	3639.24
345.44	4048.83
345.65	3145.68
345.86	3223.50
346.07	3444.68
346.29	3248.08
346.50	3295.18
346.71	3211.22
346.92	3770.31
347.13	3962.82
347.34	3223.50
347.55	2967.51
347.76	3540.94
347.98	3188.69
348.19	3121.10
348.40	3315.66
348.61	3342.28
348.82	3743.69
349.03	3143.63
349.24	3008.47
349.45	3915.72
349.66	3069.91
349.88	3114.96
350.09	2951.12
350.30	3721.16
350.51	3719.11
350.72	3375.05
350.93	3008.47
351.14	3373.00
351.35	3528.65
351.56	3174.35
351.77	3200.98
351.99	3479.50
352.20	3655.62
352.41	3205.07
352.62	2901.97
352.83	3360.72
353.04	3395.53
353.25	3090.38
353.46	3117.01
353.67	3715.02
353.88	3117.01
354.09	3063.76
354.30	3174.35
354.52	3540.94
354.73	3454.92
354.94	3100.62
355.15	3170.26
355.36	3942.34
355.57	3327.95
355.78	2992.08
355.99	3059.67
356.20	3334.09
356.41	3712.97
356.62	3209.17
356.83	3112.91
357.04	3653.58
357.25	3074.00
357.46	3145.68
357.68	3006.42
357.89	3256.27
358.10	3438.54
358.31	3041.23
358.52	3198.93
358.73	3190.74
358.94	3262.41
359.15	3174.35
359.36	3143.63
359.57	3557.32
359.78	3475.40
359.99	3276.75
360.20	2899.92
360.41	3467.21
360.62	3649.48
360.83	3221.45
361.04	3049.43
361.25	3571.66
361.46	3723.21
361.67	3184.59
361.88	3266.51
362.09	3688.39
362.30	3504.07
362.51	3061.71
362.72	3203.02
362.93	3624.90
363.14	3557.32
363.35	3246.03
363.56	2971.60
363.78	3719.11
363.99	3626.95
364.20	3082.19
364.41	3151.82
364.62	3885.00
364.83	3567.56
365.04	3082.19
365.25	3123.15
365.46	3950.53
365.67	3221.45
365.88	3295.18
366.09	3164.11
366.30	3360.72
366.51	3450.83
366.72	3084.24
366.93	3028.95
367.14	3481.55
367.35	3641.29
367.56	3061.71
367.77	3209.17
367.98	3444.68
368.18	3516.36
368.39	3262.41
368.60	3028.95
368.81	3565.51
369.02	3440.59
369.23	3180.50
369.44	2994.13
369.65	3327.95
369.86	3598.28
370.07	3221.45
370.28	3022.80
370.49	3461.07
370.70	3510.22
370.91	3018.71
371.12	2975.70
371.33	3715.02
371.54	3264.46
371.75	3284.94
371.96	2885.59
372.17	3504.07
372.38	3385.29
372.59	3147.73
372.80	3002.32
373.01	3385.29
373.22	3491.79
373.43	3004.37
373.64	3000.27
373.85	3698.63
374.06	3870.66
374.26	3256.27
374.47	3227.60
374.68	3807.17
374.89	3467.21
375.10	2973.65
375.31	3192.78
375.52	3483.59
375.73	3461.07
375.94	2944.98
376.15	3149.78
376.36	3338.19
376.57	3362.76
376.78	3168.21
376.99	3219.41
377.20	3712.97
377.40	3342.28
377.61	3352.52
377.82	3135.44
378.03	3897.28
378.24	3555.27
378.45	3225.55
378.66	3182.54
378.87	3061.71
379.08	3135.44
379.29	3123.15
379.50	3235.79
379.71	3459.02
379.91	3641.29
380.12	3010.51
380.33	3280.85
380.54	3413.96
380.75	3442.64
380.96	3143.63
381.17	3051.47
381.38	3413.96
381.59	3426.25
381.80	3227.60
382.00	3243.98
382.21	3397.58
382.42	3733.45
382.63	3440.59
382.84	3221.45
383.05	3555.27
383.26	3721.16
383.47	3213.26
383.68	3084.24
383.88	3602.38
384.09	3430.35
384.30	3315.66
384.51	3291.09
384.72	3311.57
384.93	3289.04
385.14	3262.41
385.35	3426.25
385.55	3114.96
385.76	3717.06
385.97	3110.86
386.18	2983.89
386.39	3260.37
386.60	3303.37
386.81	3090.38
387.02	2959.31
387.22	3213.26
387.43	3633.10
387.64	3246.03
387.85	3368.91
388.06	3471.31
388.27	4325.31
388.48	7262.10
388.68	10913.63
388.89	13700.91
389.10	14946.08
389.31	14577.44
389.52	11689.81
389.73	10442.59
389.93	9539.44
390.14	8466.30
390.35	7982.98
390.56	7442.32
390.77	6369.18
390.98	4775.86
391.18	4022.21
391.39	3903.43
391.60	3352.52
391.81	3405.77
392.02	3227.60
392.23	3932.10
392.43	3502.03
392.64	3182.54
392.85	3297.23
393.06	3764.17
393.27	3454.92
393.47	3121.10
393.68	3241.93
393.89	3411.92
394.10	3796.93
394.31	3176.40
394.52	3078.10
394.72	3338.19
394.93	3688.39
395.14	2953.17
395.35	3205.07
395.56	3297.23
395.76	3422.16
395.97	3114.96
396.18	3299.28
396.39	3266.51
396.60	4052.93
396.80	3579.85
397.01	3346.38
397.22	3534.79
397.43	3676.10
397.64	3098.58
397.84	3248.08
398.05	3796.93
398.26	3487.69
398.47	3229.65
398.67	3352.52
398.88	3499.98
399.09	3686.34
399.30	3172.30
399.51	3164.11
399.71	3299.28
399.92	3440.59
400.13	3258.32
400.34	3117.01
400.54	3532.75
400.75	3770.31
400.96	3178.45
401.17	3493.83
401.37	3516.36
401.58	3459.02
401.79	3123.15
402.00	3258.32
402.21	3968.96
402.41	3590.09
402.62	3327.95
402.83	3557.32
403.04	3833.80
403.24	4280.25
403.45	3354.57
403.66	3479.50
403.87	3616.71
404.07	3737.54
404.28	3407.82
404.49	3461.07
404.70	3561.42
404.90	3606.47
405.11	3157.97
405.32	3360.72
405.52	3348.43
405.73	3211.22
405.94	3033.04
406.15	3241.93
406.35	3606.47
406.56	3573.71
406.77	3200.98
406.98	3133.39
407.18	3278.80
407.39	3733.45
407.60	3121.10
407.80	3194.83
408.01	3319.76
408.22	3657.67
408.43	2967.51
408.63	3254.22
408.84	3692.49
409.05	3676.10
409.25	3164.11
409.46	3235.79
409.67	3356.62
409.88	3313.61
410.08	3207.12
410.29	3147.73
410.50	3678.15
410.70	3483.59
410.91	3037.14
411.12	3157.97
411.32	3467.21
411.53	3252.17
411.74	3162.06
411.95	3205.07
412.15	3370.96
412.36	3606.47
412.57	3303.37
412.77	3362.76
412.98	3377.10
413.19	3428.30
413.39	3221.45
413.60	3182.54
413.81	3780.55
414.01	3182.54
414.22	3094.48
414.43	3377.10
414.63	3231.69
414.84	3635.14
415.05	3190.74
415.25	3057.62
415.46	3620.81
415.67	3307.47
415.87	3182.54
416.08	3080.14
416.29	3368.91
416.49	3573.71
416.70	3233.74
416.91	3131.34
417.11	3475.40
417.32	3753.93
417.53	3237.84
417.73	3246.03
417.94	3530.70
418.15	3557.32
418.35	3074.00
418.56	3104.72
418.77	3907.52
418.97	3436.49
419.18	3282.89
419.38	2881.49
419.59	3477.45
419.80	3848.13
420.00	3065.81
420.21	3139.54
420.42	3762.12
420.62	3569.61
420.83	3151.82
421.04	3157.97
421.24	3430.35
421.45	3639.24
421.65	3157.97
421.86	3213.26
422.07	3655.62
422.27	3592.14
422.48	3026.90
422.69	2918.36
422.89	3401.68
423.10	3346.38
423.30	3172.30
423.51	3192.78
423.72	3573.71
423.92	3633.10
424.13	3035.09
424.33	3213.26
424.54	3624.90
424.75	3409.87
424.95	3346.38
425.16	3045.33
425.36	3409.87
425.57	3663.82
425.78	3274.70
425.98	3215.31
426.19	3497.93
426.39	3239.89
426.60	3237.84
426.81	3299.28
427.01	3573.71
427.22	3258.32
427.42	3041.23
427.63	3076.05
427.83	3667.91
428.04	3901.38
428.25	3157.97
428.45	3262.41
428.66	3753.93
428.86	3487.69
429.07	3231.69
429.28	3215.31
429.48	3499.98
429.69	3196.88
429.89	3301.33
430.10	3119.06
430.30	3618.76
430.51	3684.30
430.71	3100.62
430.92	3297.23
431.13	3297.23
431.33	3592.14
431.54	3233.74
431.74	3379.15
431.95	3975.11
432.15	3207.12
432.36	3121.10
432.56	3192.78
432.77	3921.86
432.98	3827.65
433.18	3229.65
433.39	3026.90
433.59	3377.10
433.80	3839.94
434.00	3295.18
434.21	3217.36
434.41	3373.00
434.62	3940.29
434.82	3033.04
435.03	3123.15
435.23	3491.79
435.44	3110.86
435.64	3172.30
435.85	3282.89
436.06	3762.12
436.26	3719.11
436.47	3213.26
436.67	3098.58
436.88	3368.91
437.08	3672.01
437.29	3284.94
437.49	3299.28
437.70	3796.93
437.90	3403.72
438.11	3344.33
438.31	3196.88
438.52	3704.78
438.72	3604.42
438.93	3571.66
439.13	3217.36
439.34	3655.62
439.54	3411.92
439.75	3268.56
439.95	3262.41
440.16	3250.13
440.36	3450.83
440.57	3229.65
440.77	3205.07
440.98	3456.97
441.18	3534.79
441.39	3045.33
441.59	3002.32
441.80	3889.09
442.00	3428.30
442.21	3278.80
442.41	3020.75
442.62	3647.43
442.82	3297.23
443.02	3143.63
443.23	3205.07
443.43	3342.28
443.64	3753.93
443.84	3028.95
444.05	3254.22
444.25	3397.58
444.46	3293.13
444.66	3180.50
444.87	3407.82
445.07	3053.52
445.28	3354.57
445.48	3477.45
445.69	3254.22
445.89	4005.83
446.09	3430.35
446.30	3440.59
446.50	3551.18
446.71	4999.09
446.91	6123.43
447.12	6887.32
447.32	7212.95
447.53	7358.35
447.73	6186.91
447.93	5435.31
448.14	5150.64
448.34	5472.17
448.55	4552.63
448.75	4394.94
448.96	4173.76
449.16	4169.66
449.36	4048.83
449.57	3387.34
449.77	3217.36
449.98	3340.24
450.18	3502.03
450.39	3119.06
450.59	3422.16
450.79	3362.76
451.00	3348.43
451.20	3379.15
451.41	3160.02
451.61	3608.52
451.81	3397.58
452.02	3041.23
452.22	3180.50
452.43	3336.14
