SpectraSuite Data File
++++++++++++++++++++++++++++++++++++
Date: Fri May 06 09:28:23 CEST 2016
User: root
Dark Spectrum Present: No
Reference Spectrum Present: No
Number of Sampled Component Spectra: 1
Spectrometers: USB4C02835
Integration Time (usec): 100000 (USB4C02835)
Spectra Averaged: 1 (USB4C02835)
Boxcar Smoothing: 0 (USB4C02835)
Correct for Electrical Dark: No (USB4C02835)
Strobe/Lamp Enabled: No (USB4C02835)
Correct for Detector Non-linearity: No (USB4C02835)
Correct for Stray Light: No (USB4C02835)
Number of Pixels in Processed Spectrum: 3648
>>>>>Begin Processed Spectral Data<<<<<
177.47	2361.31
177.69	2361.31
177.91	2361.31
178.13	2295.77
178.36	2285.53
178.58	3078.10
178.80	3305.42
179.02	2987.99
179.24	3172.30
179.46	2818.00
179.68	2934.74
179.90	3401.68
180.13	3444.68
180.35	2779.09
180.57	2775.00
180.79	3653.58
181.01	3370.96
181.23	2928.60
181.45	3055.57
181.67	3590.09
181.90	3508.17
182.12	3139.54
182.34	2797.53
182.56	3598.28
182.78	3557.32
183.00	2981.84
183.22	2940.88
183.44	3117.01
183.66	4151.23
183.89	3088.34
184.11	2926.55
184.33	3649.48
184.55	3692.49
184.77	2932.69
184.99	2969.55
185.21	3334.09
185.43	4100.03
185.65	2963.41
185.87	2955.22
186.10	3997.64
186.32	4042.69
186.54	3207.12
186.76	3074.00
186.98	3706.82
187.20	3368.91
187.42	2975.70
187.64	2959.31
187.86	3516.36
188.08	3796.93
188.30	2787.29
188.52	3000.27
188.75	3672.01
188.97	3794.89
189.19	2942.93
189.41	2881.49
189.63	3622.86
189.85	3452.88
190.07	2793.43
190.29	2881.49
190.51	3590.09
190.73	3151.82
190.95	3211.22
191.17	2944.98
191.39	3121.10
191.61	3250.13
191.84	2994.13
192.06	3098.58
192.28	3182.54
192.50	4188.10
192.72	3207.12
192.94	2987.99
193.16	3723.21
193.38	3485.64
193.60	2867.16
193.82	3157.97
194.04	3655.62
194.26	3612.62
194.48	2957.27
194.70	2926.55
194.92	3362.76
195.14	3598.28
195.36	2854.87
195.58	3057.62
195.80	3397.58
196.02	3356.62
196.24	2910.16
196.46	3008.47
196.69	3450.83
196.91	3882.95
197.13	3010.51
197.35	3041.23
197.57	3774.41
197.79	3680.20
198.01	3033.04
198.23	2987.99
198.45	3555.27
198.67	3207.12
198.89	2842.58
199.11	3090.38
199.33	3276.75
199.55	2975.70
199.77	2887.64
199.99	3063.76
200.21	3428.30
200.43	3635.14
200.65	2889.68
200.87	2709.46
201.09	3534.79
201.31	3418.06
201.53	3057.62
201.75	2998.23
201.97	3463.12
202.19	3452.88
202.41	3125.20
202.63	3049.43
202.85	3600.33
203.07	3561.42
203.29	3114.96
203.51	2861.01
203.73	3274.70
203.95	4093.89
204.17	2955.22
204.39	3188.69
204.61	3477.45
204.83	3336.14
205.05	3186.64
205.27	2959.31
205.49	3977.16
205.71	3497.93
205.93	2770.90
206.15	2901.97
206.37	3471.31
206.59	3456.97
206.81	2770.90
207.03	2861.01
207.25	3352.52
207.47	3633.10
207.69	2932.69
207.91	3147.73
208.13	3788.74
208.34	3282.89
208.56	2994.13
208.78	3008.47
209.00	3352.52
209.22	3366.86
209.44	3024.85
209.66	2926.55
209.88	3508.17
210.10	3368.91
210.32	2922.45
210.54	3018.71
210.76	3311.57
210.98	3690.44
211.20	2858.96
211.42	3117.01
211.64	3772.36
211.86	3565.51
212.08	2981.84
212.30	3010.51
212.52	3428.30
212.74	3555.27
212.96	3106.77
213.17	3090.38
213.39	3590.09
213.61	3917.76
213.83	2967.51
214.05	2932.69
214.27	3631.05
214.49	3282.89
214.71	2934.74
214.93	3098.58
215.15	3495.88
215.37	3723.21
215.59	2799.57
215.81	3041.23
216.03	3784.65
216.24	3452.88
216.46	3016.66
216.68	2971.60
216.90	3643.34
217.12	3739.59
217.34	2889.68
217.56	3243.98
217.78	3792.84
218.00	3629.00
218.22	3037.14
218.44	3016.66
218.66	3514.31
218.87	3866.56
219.09	3035.09
219.31	3008.47
219.53	3549.13
219.75	3360.72
219.97	3082.19
220.19	3010.51
220.41	3395.53
220.63	3753.93
220.85	2914.26
221.06	2940.88
221.28	3864.52
221.50	3575.75
221.72	2936.79
221.94	2858.96
222.16	3459.02
222.38	3620.81
222.60	2971.60
222.82	3008.47
223.03	3585.99
223.25	3196.88
223.47	2918.36
223.69	3203.02
223.91	3604.42
224.13	3450.83
224.35	2848.72
224.57	3192.78
224.78	3622.86
225.00	3119.06
225.22	3014.61
225.44	2908.12
225.66	3608.52
225.88	3342.28
226.10	3069.91
226.32	3024.85
226.53	3819.46
226.75	3358.67
226.97	3049.43
227.19	2893.78
227.41	3303.37
227.63	3393.48
227.85	2752.47
228.06	3020.75
228.28	3508.17
228.50	3706.82
228.72	2791.38
228.94	2924.50
229.16	3100.62
229.37	3176.40
229.59	2883.54
229.81	3188.69
230.03	3448.78
230.25	3139.54
230.47	2811.86
230.69	2992.08
230.90	3594.19
231.12	3256.27
231.34	3033.04
231.56	3028.95
231.78	3268.56
232.00	3426.25
232.21	3067.86
232.43	3020.75
232.65	2987.99
232.87	3549.13
233.09	2813.91
233.30	2854.87
233.52	3676.10
233.74	3426.25
233.96	2985.94
234.18	3145.68
234.40	3403.72
234.61	3964.87
234.83	2746.33
235.05	3041.23
235.27	4054.98
235.49	3743.69
235.70	2844.63
235.92	2942.93
236.14	3588.04
236.36	4034.50
236.58	2908.12
236.79	3008.47
237.01	3491.79
237.23	3413.96
237.45	3196.88
237.67	3110.86
237.88	3606.47
238.10	3712.97
238.32	2877.40
238.54	2914.26
238.76	3469.26
238.97	3227.60
239.19	2832.34
239.41	3051.47
239.63	3733.45
239.85	3356.62
240.06	2961.36
240.28	2942.93
240.50	3665.86
240.72	3508.17
240.93	2881.49
241.15	3086.29
241.37	3411.92
241.59	3860.42
241.81	2994.13
242.02	3045.33
242.24	3551.18
242.46	3620.81
242.68	2828.24
242.89	2895.83
243.11	3641.29
243.33	3452.88
243.55	2965.46
243.76	2926.55
243.98	3295.18
244.20	3362.76
244.42	3016.66
244.64	2928.60
244.85	3239.89
245.07	3233.74
245.29	3016.66
245.51	3045.33
245.72	3530.70
245.94	3629.00
246.16	2883.54
246.38	2983.89
246.59	3377.10
246.81	3264.46
247.03	2772.95
247.24	2799.57
247.46	3332.05
247.68	3532.75
247.90	2891.73
248.11	3039.19
248.33	3532.75
248.55	3411.92
248.77	2981.84
248.98	3102.67
249.20	3862.47
249.42	3502.03
249.64	2944.98
249.85	2947.03
250.07	3420.11
250.29	3573.71
250.50	3071.95
250.72	2861.01
250.94	3530.70
251.16	3960.77
251.37	3006.42
251.59	3022.80
251.81	3536.84
252.02	3686.34
252.24	2856.92
252.46	3106.77
252.68	3340.24
252.89	3274.70
253.11	2807.77
253.33	3137.49
253.54	3831.75
253.76	3139.54
253.98	2975.70
254.20	2975.70
254.41	3155.92
254.63	3444.68
254.85	2869.20
255.06	3100.62
255.28	3551.18
255.50	3364.81
255.71	2918.36
255.93	2883.54
256.15	3385.29
256.36	3635.14
256.58	2856.92
256.80	2934.74
257.02	3370.96
257.23	3428.30
257.45	2951.12
257.67	3112.91
257.88	3383.24
258.10	3598.28
258.32	2940.88
258.53	3020.75
258.75	3811.27
258.97	3280.85
259.18	2844.63
259.40	2926.55
259.62	3819.46
259.83	3774.41
260.05	2985.94
260.27	3921.86
260.48	3645.38
260.70	3350.48
260.92	2789.33
261.13	3059.67
261.35	3540.94
261.57	3514.31
261.78	2799.57
262.00	2961.36
262.22	3680.20
262.43	3299.28
262.65	2926.55
262.86	3000.27
263.08	3973.06
263.30	3362.76
263.51	2777.05
263.73	2961.36
263.95	3837.89
264.16	3223.50
264.38	2879.44
264.60	2893.78
264.81	3413.96
265.03	3778.50
265.25	3448.78
265.46	2934.74
265.68	3704.78
265.89	3581.90
266.11	2803.67
266.33	2924.50
266.54	3688.39
266.76	3549.13
266.98	3059.67
267.19	3149.78
267.41	3672.01
267.62	3397.58
267.84	2768.85
268.06	3139.54
268.27	3479.50
268.49	3688.39
268.70	2996.18
268.92	2961.36
269.14	3243.98
269.35	3180.50
269.57	3131.34
269.79	3008.47
270.00	3338.19
270.22	3866.56
270.43	2881.49
270.65	2877.40
270.87	3493.83
271.08	3592.14
271.30	2977.75
271.51	2928.60
271.73	3688.39
271.95	3792.84
272.16	2893.78
272.38	3141.58
272.59	3383.24
272.81	3643.34
273.02	2881.49
273.24	3035.09
273.46	3739.59
273.67	3147.73
273.89	2793.43
274.10	2934.74
274.32	3637.19
274.54	3557.32
274.75	2973.65
274.97	3033.04
275.18	3684.30
275.40	3559.37
275.61	3024.85
275.83	3139.54
276.05	3239.89
276.26	3387.34
276.48	3117.01
276.69	3180.50
276.91	3344.33
277.12	3696.58
277.34	3139.54
277.55	3198.93
277.77	3444.68
277.99	3399.63
278.20	3102.67
278.42	2963.41
278.63	3307.47
278.85	3254.22
279.06	3049.43
279.28	3102.67
279.49	3606.47
279.71	3657.67
279.93	3061.71
280.14	3098.58
280.36	3164.11
280.57	3639.24
280.79	3174.35
281.00	2930.64
281.22	3301.33
281.43	3657.67
281.65	2965.46
281.86	2985.94
282.08	3569.61
282.29	3876.80
282.51	2959.31
282.73	3076.05
282.94	3098.58
283.16	3592.14
283.37	3194.83
283.59	3090.38
283.80	3493.83
284.02	3454.92
284.23	3215.31
284.45	3215.31
284.66	3332.05
284.88	3194.83
285.09	3067.86
285.31	3102.67
285.52	3540.94
285.74	3178.45
285.95	3266.51
286.17	3135.44
286.38	3712.97
286.60	3313.61
286.81	3086.29
287.03	3043.28
287.24	3456.97
287.46	3655.62
287.67	3237.84
287.89	3258.32
288.10	3495.88
288.32	3526.60
288.53	3207.12
288.75	3205.07
288.96	3585.99
289.18	3282.89
289.39	3020.75
289.61	3205.07
289.82	3878.85
290.04	3850.18
290.25	3012.56
290.47	3237.84
290.68	3373.00
290.90	3682.25
291.11	2918.36
291.33	3246.03
291.54	3340.24
291.76	3358.67
291.97	3309.52
292.18	3080.14
292.40	3350.48
292.61	3344.33
292.83	3434.44
293.04	3125.20
293.26	3559.37
293.47	3401.68
293.69	3014.61
293.90	2932.69
294.12	3688.39
294.33	3434.44
294.55	3223.50
294.76	3319.76
294.97	3786.69
295.19	3897.28
295.40	3117.01
295.62	3153.87
295.83	3663.82
296.05	3262.41
296.26	3336.14
296.48	3104.72
296.69	3432.40
296.90	3393.48
297.12	3203.02
297.33	3258.32
297.55	3438.54
297.76	3565.51
297.98	3205.07
298.19	3323.85
298.41	3465.16
298.62	3192.78
298.83	3330.00
299.05	3221.45
299.26	3364.81
299.48	3188.69
299.69	3166.16
299.90	3043.28
300.12	3340.24
300.33	3577.80
300.55	3114.96
300.76	3129.30
300.98	3231.69
301.19	3569.61
301.40	3051.47
301.62	3067.86
301.83	3540.94
302.05	3504.07
302.26	3039.19
302.47	3282.89
302.69	3256.27
302.90	3461.07
303.12	3020.75
303.33	3319.76
303.54	3891.14
303.76	3393.48
303.97	3028.95
304.19	3362.76
304.40	3241.93
304.61	3555.27
304.83	3203.02
305.04	3166.16
305.26	3567.56
305.47	3346.38
305.68	3149.78
305.90	2940.88
306.11	3694.54
306.33	3352.52
306.54	2926.55
306.75	3086.29
306.97	3090.38
307.18	3239.89
307.39	3053.52
307.61	3207.12
307.82	3463.12
308.04	3585.99
308.25	2928.60
308.46	3243.98
308.68	3440.59
308.89	3487.69
309.10	3229.65
309.32	3100.62
309.53	3381.20
309.74	3504.07
309.96	3057.62
310.17	3205.07
310.39	3291.09
310.60	3626.95
310.81	3200.98
311.03	2996.18
311.24	3629.00
311.45	3506.12
311.67	3348.43
311.88	3301.33
312.09	3360.72
312.31	3229.65
312.52	3047.38
312.73	3059.67
312.95	3157.97
313.16	3243.98
313.37	3225.55
313.59	3295.18
313.80	3606.47
314.01	3848.13
314.23	3028.95
314.44	3004.37
314.65	3223.50
314.87	3311.57
315.08	3076.05
315.29	3131.34
315.51	3237.84
315.72	3117.01
315.93	3100.62
316.15	3170.26
316.36	3354.57
316.57	3485.64
316.79	3061.71
317.00	2992.08
317.21	3661.77
317.43	3295.18
317.64	3131.34
317.85	3008.47
318.07	3330.00
318.28	3272.65
318.49	3180.50
318.70	3305.42
318.92	3448.78
319.13	3512.27
319.34	3280.85
319.56	3055.57
319.77	3452.88
319.98	3635.14
320.20	3323.85
320.41	3270.61
320.62	3622.86
320.83	3176.40
321.05	3370.96
321.26	3200.98
321.47	3436.49
321.69	3708.87
321.90	2914.26
322.11	3014.61
322.32	3506.12
322.54	3841.99
322.75	3174.35
322.96	4319.17
323.18	3074.00
323.39	3033.04
323.60	3000.27
323.81	3239.89
324.03	3381.20
324.24	3502.03
324.45	3241.93
324.66	3067.86
324.88	3690.44
325.09	3878.85
325.30	3082.19
325.52	3000.27
325.73	3536.84
325.94	3229.65
326.15	2940.88
326.37	2967.51
326.58	3616.71
326.79	3907.52
327.00	3067.86
327.22	3041.23
327.43	3385.29
327.64	3264.46
327.85	3221.45
328.07	3049.43
328.28	3899.33
328.49	3323.85
328.70	3086.29
328.92	3043.28
329.13	3356.62
329.34	3565.51
329.55	3362.76
329.76	3239.89
329.98	3377.10
330.19	3659.72
330.40	3213.26
330.61	3248.08
330.83	3604.42
331.04	3246.03
331.25	3168.21
331.46	3209.17
331.68	3139.54
331.89	3712.97
332.10	3131.34
332.31	2932.69
332.52	3506.12
332.74	3755.97
332.95	2951.12
333.16	3164.11
333.37	3588.04
333.58	3280.85
333.80	3082.19
334.01	2891.73
334.22	3422.16
334.43	3330.00
334.64	3004.37
334.86	3043.28
335.07	3256.27
335.28	3721.16
335.49	3008.47
335.70	3188.69
335.92	3745.73
336.13	3915.72
336.34	3065.81
336.55	3035.09
336.76	3590.09
336.98	2967.51
337.19	3182.54
337.40	3215.31
337.61	4057.03
337.82	3383.24
338.04	3223.50
338.25	2879.44
338.46	3450.83
338.67	3391.44
338.88	2942.93
339.09	3039.19
339.31	3354.57
339.52	3125.20
339.73	2992.08
339.94	3147.73
340.15	3590.09
340.36	3319.76
340.58	3102.67
340.79	3039.19
341.00	3629.00
341.21	3180.50
341.42	3348.43
341.63	3065.81
341.85	3614.66
342.06	3475.40
342.27	2987.99
342.48	3250.13
342.69	3176.40
342.90	3547.08
343.12	3526.60
343.33	2992.08
343.54	3618.76
343.75	3827.65
343.96	3260.37
344.17	3004.37
344.38	3330.00
344.60	3215.31
344.81	3078.10
345.02	3180.50
345.23	3733.45
345.44	4011.97
345.65	3176.40
345.86	3170.26
346.07	3344.33
346.29	3301.33
346.50	3229.65
346.71	3225.55
346.92	3712.97
347.13	3993.54
347.34	3164.11
347.55	2942.93
347.76	3626.95
347.98	3233.74
348.19	3254.22
348.40	3350.48
348.61	3321.81
348.82	3782.60
349.03	3241.93
349.24	3020.75
349.45	3786.69
349.66	3008.47
349.88	3074.00
350.09	2987.99
350.30	3811.27
350.51	3739.59
350.72	3309.52
350.93	3024.85
351.14	3336.14
351.35	3504.07
351.56	3104.72
351.77	3164.11
351.99	3524.55
352.20	3739.59
352.41	3260.37
352.62	2934.74
352.83	3368.91
353.04	3409.87
353.25	3110.86
353.46	3157.97
353.67	3663.82
353.88	3028.95
354.09	2979.79
354.30	3231.69
354.52	3696.58
354.73	3368.91
354.94	3018.71
355.15	3114.96
355.36	3960.77
355.57	3336.14
355.78	3067.86
355.99	3119.06
356.20	3368.91
356.41	3665.86
356.62	3270.61
356.83	3157.97
357.04	3739.59
357.25	3074.00
357.46	3086.29
357.68	3030.99
357.89	3194.83
358.10	3422.16
358.31	3139.54
358.52	3174.35
358.73	3243.98
358.94	3176.40
359.15	3106.77
359.36	3100.62
359.57	3354.57
359.78	3295.18
359.99	3354.57
360.20	2951.12
360.41	3409.87
360.62	3606.47
360.83	3184.59
361.04	3100.62
361.25	3573.71
361.46	3809.22
361.67	3213.26
361.88	3082.19
362.09	3692.49
362.30	3518.41
362.51	3033.04
362.72	3168.21
362.93	3555.27
363.14	3483.59
363.35	3190.74
363.56	2998.23
363.78	3735.50
363.99	3577.80
364.20	3086.29
364.41	3157.97
364.62	3786.69
364.83	3518.41
365.04	3114.96
365.25	3153.87
365.46	3954.63
365.67	3295.18
365.88	3352.52
366.09	3020.75
366.30	3319.76
366.51	3459.02
366.72	3008.47
366.93	3004.37
367.14	3471.31
367.35	3704.78
367.56	3024.85
367.77	3248.08
367.98	3487.69
368.18	3504.07
368.39	3295.18
368.60	3080.14
368.81	3614.66
369.02	3592.14
369.23	3100.62
369.44	3002.32
369.65	3387.34
369.86	3469.26
370.07	3258.32
370.28	3004.37
370.49	3432.40
370.70	3532.75
370.91	3014.61
371.12	2955.22
371.33	3778.50
371.54	3270.61
371.75	3233.74
371.96	2824.15
372.17	3555.27
372.38	3360.72
372.59	3117.01
372.80	3071.95
373.01	3418.06
373.22	3475.40
373.43	3061.71
373.64	2975.70
373.85	3758.02
374.06	3758.02
374.26	3280.85
374.47	3194.83
374.68	3821.51
374.89	3438.54
375.10	3086.29
375.31	3211.22
375.52	3467.21
375.73	3469.26
375.94	2969.55
376.15	3207.12
376.36	3252.17
376.57	3250.13
376.78	3207.12
376.99	3174.35
377.20	3737.54
377.40	3321.81
377.61	3409.87
377.82	3092.43
378.03	3792.84
378.24	3585.99
378.45	3248.08
378.66	3258.32
378.87	3143.63
379.08	3117.01
379.29	3108.82
379.50	3286.99
379.71	3479.50
379.91	3545.03
380.12	3139.54
380.33	3205.07
380.54	3395.53
380.75	3436.49
380.96	3176.40
381.17	3119.06
381.38	3467.21
381.59	3342.28
381.80	3192.78
382.00	3295.18
382.21	3428.30
382.42	3725.26
382.63	3434.44
382.84	3248.08
383.05	3598.28
383.26	3741.64
383.47	3344.33
383.68	3010.51
383.88	3540.94
384.09	3473.36
384.30	3340.24
384.51	3237.84
384.72	3409.87
384.93	3182.54
385.14	3203.02
385.35	3407.82
385.55	3071.95
385.76	3690.44
385.97	3037.14
386.18	2963.41
386.39	3274.70
386.60	3282.89
386.81	3092.43
387.02	3020.75
387.22	3184.59
387.43	3585.99
387.64	3221.45
387.85	3332.05
388.06	3477.45
388.27	4444.09
388.48	7309.20
388.68	10962.78
388.89	13524.79
389.10	14892.83
389.31	14241.57
389.52	11880.27
389.73	10217.32
389.93	9406.32
390.14	8417.15
390.35	7729.03
390.56	7391.12
390.77	6324.13
390.98	4732.86
391.18	4044.74
391.39	3975.11
391.60	3434.44
391.81	3424.20
392.02	3225.55
392.23	4020.16
392.43	3487.69
392.64	3211.22
392.85	3192.78
393.06	3760.07
393.27	3454.92
393.47	3133.39
393.68	3117.01
393.89	3364.81
394.10	3661.77
394.31	3102.67
394.52	2983.89
394.72	3305.42
394.93	3772.36
395.14	3002.32
395.35	3282.89
395.56	3401.68
395.76	3317.71
395.97	3200.98
396.18	3262.41
396.39	3459.02
396.60	4083.65
396.80	3532.75
397.01	3377.10
397.22	3573.71
397.43	3649.48
397.64	3074.00
397.84	3225.55
398.05	3807.17
398.26	3340.24
398.47	3264.46
398.67	3377.10
398.88	3436.49
399.09	3620.81
399.30	3114.96
399.51	3221.45
399.71	3307.47
399.92	3430.35
400.13	3198.93
400.34	3172.30
400.54	3475.40
400.75	3803.08
400.96	3092.43
401.17	3418.06
401.37	3491.79
401.58	3426.25
401.79	3088.34
402.00	3182.54
402.21	3921.86
402.41	3581.90
402.62	3366.86
402.83	3514.31
403.04	3821.51
403.24	4257.73
403.45	3160.02
403.66	3454.92
403.87	3641.29
404.07	3774.41
404.28	3436.49
404.49	3499.98
404.70	3555.27
404.90	3510.22
405.11	3106.77
405.32	3205.07
405.52	3258.32
405.73	3246.03
405.94	3139.54
406.15	3299.28
406.35	3610.57
406.56	3602.38
406.77	3200.98
406.98	3182.54
407.18	3246.03
407.39	3680.20
407.60	3162.06
407.80	3235.79
408.01	3323.85
408.22	3524.55
408.43	3024.85
408.63	3321.81
408.84	3610.57
409.05	3616.71
409.25	3051.47
409.46	3147.73
409.67	3461.07
409.88	3250.13
410.08	3172.30
410.29	3080.14
410.50	3631.05
410.70	3565.51
410.91	3057.62
411.12	3200.98
411.32	3465.16
411.53	3203.02
411.74	3192.78
411.95	3217.36
412.15	3373.00
412.36	3600.33
412.57	3286.99
412.77	3379.15
412.98	3434.44
413.19	3418.06
413.39	3188.69
413.60	3196.88
413.81	3758.02
414.01	3243.98
414.22	3180.50
414.43	3352.52
414.63	3305.42
414.84	3661.77
415.05	3194.83
415.25	3033.04
415.46	3536.84
415.67	3389.39
415.87	3114.96
416.08	3196.88
416.29	3409.87
416.49	3588.04
416.70	3172.30
416.91	3176.40
417.11	3338.19
417.32	3739.59
417.53	3229.65
417.73	3270.61
417.94	3475.40
418.15	3542.99
418.35	3188.69
418.56	3190.74
418.77	3956.68
418.97	3471.31
419.18	3284.94
419.38	2861.01
419.59	3452.88
419.80	3749.83
420.00	3074.00
420.21	3194.83
420.42	3788.74
420.62	3489.74
420.83	3151.82
421.04	3069.91
421.24	3403.72
421.45	3618.76
421.65	3084.24
421.86	3133.39
422.07	3639.24
422.27	3547.08
422.48	3051.47
422.69	2981.84
422.89	3508.17
423.10	3348.43
423.30	3172.30
423.51	3205.07
423.72	3485.64
423.92	3616.71
424.13	3065.81
424.33	3205.07
424.54	3649.48
424.75	3465.16
424.95	3387.34
425.16	3135.44
425.36	3418.06
425.57	3663.82
425.78	3260.37
425.98	3207.12
426.19	3391.44
426.39	3321.81
426.60	3209.17
426.81	3377.10
427.01	3547.08
427.22	3225.55
427.42	2928.60
427.63	3117.01
427.83	3676.10
428.04	3893.19
428.25	3289.04
428.45	3258.32
428.66	3700.68
428.86	3442.64
429.07	3221.45
429.28	3188.69
429.48	3442.64
429.69	3278.80
429.89	3211.22
430.10	3018.71
430.30	3581.90
430.51	3649.48
430.71	3051.47
430.92	3307.47
431.13	3375.05
431.33	3567.56
431.54	3282.89
431.74	3346.38
431.95	3975.11
432.15	3252.17
432.36	3164.11
432.56	3248.08
432.77	3940.29
432.98	3841.99
433.18	3258.32
433.39	3024.85
433.59	3405.77
433.80	3831.75
434.00	3317.71
434.21	3229.65
434.41	3282.89
434.62	4001.73
434.82	3018.71
435.03	3026.90
435.23	3592.14
435.44	3106.77
435.64	3092.43
435.85	3278.80
436.06	3635.14
436.26	3694.54
436.47	3254.22
436.67	3100.62
436.88	3424.20
437.08	3717.06
437.29	3260.37
437.49	3284.94
437.70	3780.55
437.90	3403.72
438.11	3358.67
438.31	3182.54
438.52	3700.68
438.72	3592.14
438.93	3483.59
439.13	3278.80
439.34	3631.05
439.54	3258.32
439.75	3246.03
439.95	3262.41
440.16	3258.32
440.36	3422.16
440.57	3190.74
440.77	3176.40
440.98	3418.06
441.18	3510.22
441.39	3045.33
441.59	3117.01
441.80	3893.19
442.00	3432.40
442.21	3209.17
442.41	3069.91
442.62	3592.14
442.82	3340.24
443.02	3225.55
443.23	3274.70
443.43	3397.58
443.64	3835.85
443.84	2994.13
444.05	3225.55
444.25	3432.40
444.46	3235.79
444.66	3082.19
444.87	3280.85
445.07	3049.43
445.28	3332.05
445.48	3254.22
445.69	3198.93
445.89	3968.96
446.09	3403.72
446.30	3452.88
446.50	3530.70
446.71	5070.77
446.91	6158.24
447.12	6836.12
447.32	7131.03
447.53	7198.61
447.73	6182.82
447.93	5320.62
448.14	5244.85
448.34	5463.98
448.55	4460.48
448.75	4327.36
448.96	4081.60
449.16	4136.90
449.36	4026.31
449.57	3430.35
449.77	3280.85
449.98	3303.37
450.18	3516.36
450.39	2990.03
450.59	3313.61
450.79	3524.55
451.00	3217.36
451.20	3364.81
451.41	3127.25
451.61	3606.47
451.81	3530.70
452.02	3100.62
452.22	3180.50
452.43	3323.85
