SpectraSuite Data File
++++++++++++++++++++++++++++++++++++
Date: Fri May 06 09:29:01 CEST 2016
User: root
Dark Spectrum Present: No
Reference Spectrum Present: No
Number of Sampled Component Spectra: 1
Spectrometers: USB4C02835
Integration Time (usec): 100000 (USB4C02835)
Spectra Averaged: 1 (USB4C02835)
Boxcar Smoothing: 0 (USB4C02835)
Correct for Electrical Dark: No (USB4C02835)
Strobe/Lamp Enabled: No (USB4C02835)
Correct for Detector Non-linearity: No (USB4C02835)
Correct for Stray Light: No (USB4C02835)
Number of Pixels in Processed Spectrum: 3648
>>>>>Begin Processed Spectral Data<<<<<
177.47	2306.01
177.69	2306.01
177.91	2306.01
178.13	2336.73
178.36	2363.36
178.58	3172.30
178.80	3221.45
179.02	3119.06
179.24	3223.50
179.46	2838.48
179.68	2934.74
179.90	3399.63
180.13	3555.27
180.35	2803.67
180.57	2938.84
180.79	3551.18
181.01	3377.10
181.23	3030.99
181.45	3188.69
181.67	3608.52
181.90	3622.86
182.12	2998.23
182.34	2856.92
182.56	3592.14
182.78	3641.29
183.00	2889.68
183.22	2879.44
183.44	3119.06
183.66	4036.55
183.89	3057.62
184.11	3014.61
184.33	3581.90
184.55	3688.39
184.77	2863.06
184.99	2899.92
185.21	3321.81
185.43	4044.74
185.65	2992.08
185.87	2965.46
186.10	3991.49
186.32	4007.87
186.54	3094.48
186.76	3016.66
186.98	3643.34
187.20	3434.44
187.42	2930.64
187.64	2910.16
187.86	3602.38
188.08	3725.26
188.30	2926.55
188.52	3004.37
188.75	3831.75
188.97	3696.58
189.19	2971.60
189.41	2940.88
189.63	3516.36
189.85	3358.67
190.07	2807.77
190.29	2770.90
190.51	3483.59
190.73	3082.19
190.95	3127.25
191.17	3010.51
191.39	3043.28
191.61	3401.68
191.84	2953.17
192.06	3227.60
192.28	3028.95
192.50	4179.90
192.72	3125.20
192.94	3090.38
193.16	3665.86
193.38	3555.27
193.60	2824.15
193.82	3176.40
194.04	3618.76
194.26	3477.45
194.48	3018.71
194.70	2971.60
194.92	3413.96
195.14	3608.52
195.36	2889.68
195.58	3067.86
195.80	3397.58
196.02	3274.70
196.24	2957.27
196.46	3004.37
196.69	3391.44
196.91	4014.02
197.13	2875.35
197.35	3049.43
197.57	3813.32
197.79	3639.24
198.01	3022.80
198.23	2944.98
198.45	3581.90
198.67	3264.46
198.89	2805.72
199.11	3049.43
199.33	3311.57
199.55	3045.33
199.77	2949.08
199.99	3067.86
200.21	3375.05
200.43	3631.05
200.65	2887.64
200.87	2867.16
201.09	3506.12
201.31	3389.39
201.53	3010.51
201.75	3076.05
201.97	3491.79
202.19	3506.12
202.41	3026.90
202.63	3008.47
202.85	3676.10
203.07	3481.55
203.29	3055.57
203.51	2852.82
203.73	3307.47
203.95	4093.89
204.17	2930.64
204.39	3094.48
204.61	3379.15
204.83	3327.95
205.05	3205.07
205.27	3035.09
205.49	3958.72
205.71	3370.96
205.93	2852.82
206.15	2895.83
206.37	3463.12
206.59	3506.12
206.81	2832.34
207.03	2840.53
207.25	3205.07
207.47	3653.58
207.69	2955.22
207.91	3172.30
208.13	3889.09
208.34	3323.85
208.56	2920.40
208.78	3022.80
209.00	3332.05
209.22	3330.00
209.44	2975.70
209.66	2904.02
209.88	3514.31
210.10	3389.39
210.32	2879.44
210.54	3033.04
210.76	3364.81
210.98	3665.86
211.20	2813.91
211.42	3084.24
211.64	3753.93
211.86	3614.66
212.08	3084.24
212.30	2971.60
212.52	3336.14
212.74	3575.75
212.96	3114.96
213.17	3074.00
213.39	3610.57
213.61	3784.65
213.83	2926.55
214.05	2850.77
214.27	3624.90
214.49	3274.70
214.71	2844.63
214.93	3117.01
215.15	3477.45
215.37	3547.08
215.59	2828.24
215.81	3067.86
216.03	3780.55
216.24	3381.20
216.46	2963.41
216.68	2977.75
216.90	3608.52
217.12	3762.12
217.34	2918.36
217.56	3114.96
217.78	3852.23
218.00	3551.18
218.22	3067.86
218.44	3090.38
218.66	3459.02
218.87	3833.80
219.09	3024.85
219.31	2934.74
219.53	3549.13
219.75	3356.62
219.97	2979.79
220.19	2963.41
220.41	3459.02
220.63	3889.09
220.85	3000.27
221.06	2992.08
221.28	3710.92
221.50	3618.76
221.72	2869.20
221.94	2807.77
222.16	3561.42
222.38	3674.06
222.60	2938.84
222.82	3024.85
223.03	3639.24
223.25	3237.84
223.47	2938.84
223.69	3180.50
223.91	3631.05
224.13	3459.02
224.35	2840.53
224.57	3172.30
224.78	3600.33
225.00	3243.98
225.22	2955.22
225.44	2893.78
225.66	3626.95
225.88	3389.39
226.10	3123.15
226.32	3018.71
226.53	3780.55
226.75	3362.76
226.97	3057.62
227.19	2977.75
227.41	3278.80
227.63	3340.24
227.85	2770.90
228.06	3002.32
228.28	3495.88
228.50	3631.05
228.72	2779.09
228.94	2893.78
229.16	3053.52
229.37	3198.93
229.59	2766.81
229.81	3254.22
230.03	3360.72
230.25	3254.22
230.47	2895.83
230.69	2965.46
230.90	3682.25
231.12	3233.74
231.34	3033.04
231.56	3008.47
231.78	3264.46
232.00	3471.31
232.21	3045.33
232.43	3041.23
232.65	2987.99
232.87	3545.03
233.09	2901.97
233.30	2852.82
233.52	3618.76
233.74	3430.35
233.96	2826.20
234.18	3104.72
234.40	3456.97
234.61	4036.55
234.83	2891.73
235.05	3045.33
235.27	3997.64
235.49	3803.08
235.70	2861.01
235.92	2983.89
236.14	3592.14
236.36	4036.55
236.58	2830.29
236.79	3053.52
237.01	3405.77
237.23	3430.35
237.45	3260.37
237.67	3024.85
237.88	3639.24
238.10	3815.37
238.32	2899.92
238.54	2914.26
238.76	3416.01
238.97	3274.70
239.19	2811.86
239.41	2953.17
239.63	3626.95
239.85	3338.19
240.06	2951.12
240.28	3061.71
240.50	3659.72
240.72	3442.64
240.93	2844.63
241.15	3053.52
241.37	3409.87
241.59	3704.78
241.81	3051.47
242.02	3082.19
242.24	3467.21
242.46	3577.80
242.68	2856.92
242.89	2836.44
243.11	3688.39
243.33	3426.25
243.55	2926.55
243.76	2949.08
243.98	3319.76
244.20	3450.83
244.42	2942.93
244.64	2891.73
244.85	3194.83
245.07	3237.84
245.29	2930.64
245.51	3039.19
245.72	3524.55
245.94	3688.39
246.16	2904.02
246.38	2967.51
246.59	3307.47
246.81	3305.42
247.03	2861.01
247.24	2807.77
247.46	3375.05
247.68	3532.75
247.90	2824.15
248.11	2967.51
248.33	3510.22
248.55	3434.44
248.77	3108.82
248.98	3139.54
249.20	3841.99
249.42	3477.45
249.64	2926.55
249.85	2848.72
250.07	3246.03
250.29	3606.47
250.50	3014.61
250.72	2871.25
250.94	3647.43
251.16	3932.10
251.37	2938.84
251.59	3063.76
251.81	3483.59
252.02	3727.30
252.24	2938.84
252.46	3078.10
252.68	3246.03
252.89	3356.62
253.11	2770.90
253.33	3188.69
253.54	3764.17
253.76	3207.12
253.98	2904.02
254.20	2951.12
254.41	3196.88
254.63	3381.20
254.85	2822.10
255.06	3221.45
255.28	3547.08
255.50	3409.87
255.71	2942.93
255.93	2791.38
256.15	3348.43
256.36	3475.40
256.58	2867.16
256.80	2901.97
257.02	3344.33
257.23	3389.39
257.45	3026.90
257.67	3151.82
257.88	3373.00
258.10	3581.90
258.32	2885.59
258.53	3078.10
258.75	3944.39
258.97	3344.33
259.18	2844.63
259.40	2992.08
259.62	3911.62
259.83	3829.70
260.05	2996.18
260.27	3950.53
260.48	3629.00
260.70	3205.07
260.92	2871.25
261.13	2983.89
261.35	3418.06
261.57	3532.75
261.78	2803.67
262.00	2838.48
262.22	3651.53
262.43	3270.61
262.65	2985.94
262.86	3069.91
263.08	4050.88
263.30	3387.34
263.51	2770.90
263.73	2928.60
263.95	3835.85
264.16	3243.98
264.38	2908.12
264.60	2975.70
264.81	3442.64
265.03	3751.88
265.25	3463.12
265.46	2942.93
265.68	3710.92
265.89	3614.66
266.11	2873.30
266.33	2949.08
266.54	3690.44
266.76	3473.36
266.98	2955.22
267.19	3164.11
267.41	3674.06
267.62	3487.69
267.84	2770.90
268.06	3018.71
268.27	3524.55
268.49	3717.06
268.70	2942.93
268.92	2985.94
269.14	3268.56
269.35	3184.59
269.57	3131.34
269.79	3018.71
270.00	3237.84
270.22	3852.23
270.43	2850.77
270.65	2889.68
270.87	3512.27
271.08	3631.05
271.30	3074.00
271.51	2938.84
271.73	3583.95
271.95	3809.22
272.16	2916.31
272.38	3092.43
272.59	3446.73
272.81	3536.84
273.02	2815.96
273.24	3051.47
273.46	3678.15
273.67	3223.50
273.89	2922.45
274.10	2865.11
274.32	3745.73
274.54	3565.51
274.75	3092.43
274.97	2994.13
275.18	3532.75
275.40	3526.60
275.61	2932.69
275.83	3174.35
276.05	3153.87
276.26	3440.59
276.48	3117.01
276.69	3117.01
276.91	3327.95
277.12	3866.56
277.34	3180.50
277.55	3223.50
277.77	3477.45
277.99	3375.05
278.20	3117.01
278.42	3012.56
278.63	3297.23
278.85	3278.80
279.06	3145.68
279.28	3162.06
279.49	3663.82
279.71	3663.82
279.93	3125.20
280.14	3147.73
280.36	3266.51
280.57	3602.38
280.79	3192.78
281.00	2967.51
281.22	3274.70
281.43	3659.72
281.65	2869.20
281.86	3016.66
282.08	3598.28
282.29	3846.09
282.51	3004.37
282.73	2969.55
282.94	3178.45
283.16	3661.77
283.37	3225.55
283.59	3088.34
283.80	3606.47
284.02	3416.01
284.23	3069.91
284.45	3141.58
284.66	3227.60
284.88	3284.94
285.09	3012.56
285.31	3082.19
285.52	3585.99
285.74	3043.28
285.95	3434.44
286.17	3143.63
286.38	3737.54
286.60	3266.51
286.81	2973.65
287.03	3002.32
287.24	3510.22
287.46	3629.00
287.67	3198.93
287.89	3387.34
288.10	3399.63
288.32	3395.53
288.53	3172.30
288.75	3182.54
288.96	3579.85
289.18	3301.33
289.39	3057.62
289.61	3102.67
289.82	3930.05
290.04	3839.94
290.25	3004.37
290.47	3139.54
290.68	3508.17
290.90	3676.10
291.11	2951.12
291.33	3293.13
291.54	3307.47
291.76	3330.00
291.97	3215.31
292.18	3166.16
292.40	3352.52
292.61	3307.47
292.83	3389.39
293.04	3088.34
293.26	3461.07
293.47	3368.91
293.69	3049.43
293.90	3014.61
294.12	3731.40
294.33	3409.87
294.55	3110.86
294.76	3286.99
294.97	3772.36
295.19	3979.20
295.40	3104.72
295.62	3196.88
295.83	3633.10
296.05	3315.66
296.26	3420.11
296.48	3104.72
296.69	3485.64
296.90	3418.06
297.12	3241.93
297.33	3215.31
297.55	3512.27
297.76	3491.79
297.98	3196.88
298.19	3311.57
298.41	3393.48
298.62	3305.42
298.83	3358.67
299.05	3258.32
299.26	3364.81
299.48	3254.22
299.69	3239.89
299.90	3155.92
300.12	3252.17
300.33	3651.53
300.55	3157.97
300.76	3135.44
300.98	3303.37
301.19	3520.46
301.40	3030.99
301.62	3108.82
301.83	3606.47
302.05	3405.77
302.26	3112.91
302.47	3221.45
302.69	3278.80
302.90	3452.88
303.12	2953.17
303.33	3207.12
303.54	3909.57
303.76	3315.66
303.97	3112.91
304.19	3241.93
304.40	3311.57
304.61	3502.03
304.83	3190.74
305.04	3196.88
305.26	3608.52
305.47	3344.33
305.68	3170.26
305.90	3041.23
306.11	3712.97
306.33	3307.47
306.54	2951.12
306.75	3157.97
306.97	3172.30
307.18	3258.32
307.39	3041.23
307.61	3254.22
307.82	3409.87
308.04	3508.17
308.25	2961.36
308.46	3262.41
308.68	3473.36
308.89	3389.39
309.10	3186.64
309.32	3209.17
309.53	3456.97
309.74	3655.62
309.96	3016.66
310.17	3168.21
310.39	3325.90
310.60	3585.99
310.81	3065.81
311.03	3026.90
311.24	3592.14
311.45	3389.39
311.67	3276.75
311.88	3276.75
312.09	3336.14
312.31	3442.64
312.52	2994.13
312.73	3024.85
312.95	3176.40
313.16	3286.99
313.37	3325.90
313.59	3241.93
313.80	3563.47
314.01	3694.54
314.23	3086.29
314.44	3000.27
314.65	3180.50
314.87	3303.37
315.08	3092.43
315.29	3117.01
315.51	3246.03
315.72	3141.58
315.93	3110.86
316.15	3084.24
316.36	3319.76
316.57	3467.21
316.79	3026.90
317.00	3016.66
317.21	3604.42
317.43	3258.32
317.64	3080.14
317.85	3006.42
318.07	3303.37
318.28	3352.52
318.49	3137.49
318.70	3366.86
318.92	3442.64
319.13	3483.59
319.34	3237.84
319.56	3065.81
319.77	3465.16
319.98	3483.59
320.20	3385.29
320.41	3303.37
320.62	3590.09
320.83	3188.69
321.05	3284.94
321.26	3055.57
321.47	3430.35
321.69	3639.24
321.90	3014.61
322.11	3153.87
322.32	3456.97
322.54	3729.35
322.75	3239.89
322.96	4196.29
323.18	3104.72
323.39	2996.18
323.60	2942.93
323.81	3211.22
324.03	3289.04
324.24	3450.83
324.45	3221.45
324.66	3051.47
324.88	3637.19
325.09	3772.36
325.30	3121.10
325.52	3035.09
325.73	3471.31
325.94	3254.22
326.15	3008.47
326.37	3018.71
326.58	3622.86
326.79	3852.23
327.00	3039.19
327.22	3071.95
327.43	3426.25
327.64	3172.30
327.85	3203.02
328.07	3127.25
328.28	3901.38
328.49	3459.02
328.70	3203.02
328.92	3074.00
329.13	3405.77
329.34	3526.60
329.55	3260.37
329.76	3286.99
329.98	3389.39
330.19	3819.46
330.40	3155.92
330.61	3262.41
330.83	3659.72
331.04	3178.45
331.25	3219.41
331.46	3094.48
331.68	3188.69
331.89	3557.32
332.10	3106.77
332.31	3045.33
332.52	3389.39
332.74	3717.06
332.95	2881.49
333.16	3059.67
333.37	3598.28
333.58	3346.38
333.80	3121.10
334.01	2901.97
334.22	3397.58
334.43	3336.14
334.64	3049.43
334.86	3024.85
335.07	3282.89
335.28	3790.79
335.49	3000.27
335.70	3157.97
335.92	3858.37
336.13	3876.80
336.34	3074.00
336.55	3145.68
336.76	3532.75
336.98	3022.80
337.19	3157.97
337.40	3194.83
337.61	4048.83
337.82	3407.82
338.04	3176.40
338.25	3024.85
338.46	3342.28
338.67	3327.95
338.88	2973.65
339.09	3067.86
339.31	3454.92
339.52	3174.35
339.73	2928.60
339.94	3151.82
340.15	3622.86
340.36	3352.52
340.58	3174.35
340.79	3018.71
341.00	3547.08
341.21	3286.99
341.42	3375.05
341.63	3108.82
341.85	3651.53
342.06	3426.25
342.27	3020.75
342.48	3229.65
342.69	3241.93
342.90	3520.46
343.12	3571.66
343.33	3002.32
343.54	3639.24
343.75	3895.24
343.96	3235.79
344.17	3043.28
344.38	3434.44
344.60	3237.84
344.81	3065.81
345.02	3082.19
345.23	3706.82
345.44	4016.07
345.65	3196.88
345.86	3229.65
346.07	3594.19
346.29	3301.33
346.50	3223.50
346.71	3119.06
346.92	3809.22
347.13	3991.49
347.34	3180.50
347.55	2951.12
347.76	3528.65
347.98	3180.50
348.19	3119.06
348.40	3330.00
348.61	3401.68
348.82	3762.12
349.03	3184.59
349.24	2967.51
349.45	3911.62
349.66	3041.23
349.88	3086.29
350.09	3078.10
350.30	3807.17
350.51	3731.40
350.72	3307.47
350.93	3033.04
351.14	3418.06
351.35	3598.28
351.56	3119.06
351.77	3262.41
351.99	3653.58
352.20	3774.41
352.41	3258.32
352.62	2932.69
352.83	3463.12
353.04	3475.40
353.25	3131.34
353.46	3157.97
353.67	3639.24
353.88	2969.55
354.09	3098.58
354.30	3215.31
354.52	3626.95
354.73	3393.48
354.94	3086.29
355.15	3090.38
355.36	3942.34
355.57	3293.13
355.78	2987.99
355.99	3088.34
356.20	3397.58
356.41	3710.92
356.62	3135.44
356.83	3088.34
357.04	3712.97
357.25	3090.38
357.46	3041.23
357.68	2985.94
357.89	3182.54
358.10	3495.88
358.31	3078.10
358.52	3176.40
358.73	3207.12
358.94	3299.28
359.15	3088.34
359.36	3123.15
359.57	3450.83
359.78	3385.29
359.99	3315.66
360.20	2944.98
360.41	3489.74
360.62	3475.40
360.83	3209.17
361.04	3127.25
361.25	3532.75
361.46	3739.59
361.67	3209.17
361.88	3100.62
362.09	3629.00
362.30	3502.03
362.51	3069.91
362.72	3172.30
362.93	3626.95
363.14	3688.39
363.35	3241.93
363.56	3088.34
363.78	3643.34
363.99	3735.50
364.20	3172.30
364.41	3264.46
364.62	3860.42
364.83	3534.79
365.04	3133.39
365.25	3151.82
365.46	3909.57
365.67	3282.89
365.88	3315.66
366.09	3051.47
366.30	3332.05
366.51	3401.68
366.72	3016.66
366.93	3057.62
367.14	3510.22
367.35	3678.15
367.56	3049.43
367.77	3190.74
367.98	3528.65
368.18	3502.03
368.39	3286.99
368.60	2981.84
368.81	3598.28
369.02	3485.64
369.23	3033.04
369.44	3018.71
369.65	3430.35
369.86	3534.79
370.07	3200.98
370.28	3035.09
370.49	3585.99
370.70	3524.55
370.91	3012.56
371.12	3039.19
371.33	3672.01
371.54	3356.62
371.75	3229.65
371.96	2910.16
372.17	3430.35
372.38	3426.25
372.59	3143.63
372.80	3004.37
373.01	3409.87
373.22	3448.78
373.43	3086.29
373.64	3104.72
373.85	3815.37
374.06	3837.89
374.26	3282.89
374.47	3215.31
374.68	3790.79
374.89	3506.12
375.10	2987.99
375.31	3225.55
375.52	3491.79
375.73	3432.40
375.94	2904.02
376.15	3200.98
376.36	3250.13
376.57	3360.72
376.78	3106.77
376.99	3127.25
377.20	3698.63
377.40	3264.46
377.61	3395.53
377.82	3096.53
378.03	3835.85
378.24	3633.10
378.45	3139.54
378.66	3207.12
378.87	3143.63
379.08	3125.20
379.29	3121.10
379.50	3262.41
379.71	3434.44
379.91	3590.09
380.12	3117.01
380.33	3246.03
380.54	3364.81
380.75	3473.36
380.96	3110.86
381.17	3129.30
381.38	3524.55
381.59	3481.55
381.80	3151.82
382.00	3338.19
382.21	3422.16
382.42	3770.31
382.63	3508.17
382.84	3231.69
383.05	3631.05
383.26	3725.26
383.47	3233.74
383.68	3106.77
383.88	3606.47
384.09	3522.51
384.30	3340.24
384.51	3200.98
384.72	3340.24
384.93	3172.30
385.14	3174.35
385.35	3368.91
385.55	3076.05
385.76	3672.01
385.97	3153.87
386.18	3039.19
386.39	3248.08
386.60	3344.33
386.81	3049.43
387.02	3106.77
387.22	3160.02
387.43	3577.80
387.64	3164.11
387.85	3434.44
388.06	3502.03
388.27	4413.37
388.48	7274.38
388.68	10932.06
388.89	13743.92
389.10	14903.07
389.31	14239.53
389.52	11753.29
389.73	10289.00
389.93	9391.98
390.14	8365.95
390.35	7819.14
390.56	7391.12
390.77	6256.54
390.98	4624.31
391.18	4118.47
391.39	3954.63
391.60	3536.84
391.81	3317.71
392.02	3184.59
392.23	3942.34
392.43	3426.25
392.64	3227.60
392.85	3270.61
393.06	3815.37
393.27	3448.78
393.47	3139.54
393.68	3157.97
393.89	3338.19
394.10	3717.06
394.31	3129.30
394.52	3067.86
394.72	3280.85
394.93	3712.97
395.14	2998.23
395.35	3274.70
395.56	3358.67
395.76	3356.62
395.97	3131.34
396.18	3246.03
396.39	3387.34
396.60	4106.18
396.80	3524.55
397.01	3375.05
397.22	3643.34
397.43	3557.32
397.64	3094.48
397.84	3227.60
398.05	3872.71
398.26	3385.29
398.47	3184.59
398.67	3364.81
398.88	3471.31
399.09	3581.90
399.30	3106.77
399.51	3280.85
399.71	3198.93
399.92	3487.69
400.13	3168.21
400.34	3090.38
400.54	3434.44
400.75	3770.31
400.96	3172.30
401.17	3393.48
401.37	3557.32
401.58	3475.40
401.79	3112.91
402.00	3270.61
402.21	3997.64
402.41	3530.70
402.62	3409.87
402.83	3590.09
403.04	3839.94
403.24	4157.38
403.45	3258.32
403.66	3461.07
403.87	3542.99
404.07	3803.08
404.28	3409.87
404.49	3434.44
404.70	3614.66
404.90	3485.64
405.11	3184.59
405.32	3272.65
405.52	3241.93
405.73	3237.84
405.94	3127.25
406.15	3286.99
406.35	3612.62
406.56	3577.80
406.77	3166.16
406.98	3084.24
407.18	3248.08
407.39	3739.59
407.60	3151.82
407.80	3248.08
408.01	3360.72
408.22	3631.05
408.43	3078.10
408.63	3305.42
408.84	3594.19
409.05	3635.14
409.25	3104.72
409.46	3237.84
409.67	3377.10
409.88	3327.95
410.08	3213.26
410.29	3196.88
410.50	3643.34
410.70	3573.71
410.91	3149.78
411.12	3225.55
411.32	3420.11
411.53	3164.11
411.74	3147.73
411.95	3213.26
412.15	3483.59
412.36	3504.07
412.57	3241.93
412.77	3403.72
412.98	3346.38
413.19	3405.77
413.39	3182.54
413.60	3141.58
413.81	3758.02
414.01	3299.28
414.22	3147.73
414.43	3395.53
414.63	3362.76
414.84	3639.24
415.05	3186.64
415.25	3053.52
415.46	3647.43
415.67	3354.57
415.87	3160.02
416.08	3078.10
416.29	3385.29
416.49	3571.66
416.70	3241.93
416.91	3108.82
417.11	3397.58
417.32	3569.61
417.53	3205.07
417.73	3221.45
417.94	3508.17
418.15	3508.17
418.35	3237.84
418.56	3196.88
418.77	3983.30
418.97	3475.40
419.18	3248.08
419.38	2906.07
419.59	3397.58
419.80	3786.69
420.00	3094.48
420.21	3282.89
420.42	3633.10
420.62	3510.22
420.83	3117.01
421.04	3123.15
421.24	3381.20
421.45	3606.47
421.65	3157.97
421.86	3229.65
422.07	3655.62
422.27	3545.03
422.48	3035.09
422.69	2975.70
422.89	3428.30
423.10	3338.19
423.30	3149.78
423.51	3180.50
423.72	3588.04
423.92	3612.62
424.13	2942.93
424.33	3278.80
424.54	3694.54
424.75	3559.37
424.95	3401.68
425.16	3133.39
425.36	3385.29
425.57	3706.82
425.78	3229.65
425.98	3282.89
426.19	3465.16
426.39	3295.18
426.60	3291.09
426.81	3266.51
427.01	3522.51
427.22	3241.93
427.42	3092.43
427.63	3131.34
427.83	3663.82
428.04	3835.85
428.25	3166.16
428.45	3209.17
428.66	3676.10
428.86	3393.48
429.07	3176.40
429.28	3225.55
429.48	3483.59
429.69	3315.66
429.89	3319.76
430.10	3127.25
430.30	3688.39
430.51	3651.53
430.71	3098.58
430.92	3186.64
431.13	3237.84
431.33	3542.99
431.54	3280.85
431.74	3385.29
431.95	3835.85
432.15	3239.89
432.36	3098.58
432.56	3323.85
432.77	3841.99
432.98	3737.54
433.18	3272.65
433.39	2985.94
433.59	3428.30
433.80	3930.05
434.00	3356.62
434.21	3203.02
434.41	3358.67
434.62	3864.52
434.82	3057.62
435.03	3076.05
435.23	3450.83
435.44	3049.43
435.64	3155.92
435.85	3151.82
436.06	3616.71
436.26	3639.24
436.47	3256.27
436.67	3135.44
436.88	3358.67
437.08	3639.24
437.29	3235.79
437.49	3307.47
437.70	3700.68
437.90	3409.87
438.11	3381.20
438.31	3268.56
438.52	3760.07
438.72	3729.35
438.93	3465.16
439.13	3305.42
439.34	3616.71
439.54	3323.85
439.75	3229.65
439.95	3217.36
440.16	3239.89
440.36	3395.53
440.57	3184.59
440.77	3164.11
440.98	3581.90
441.18	3522.51
441.39	3086.29
441.59	3069.91
441.80	3821.51
442.00	3430.35
442.21	3272.65
442.41	3039.19
442.62	3659.72
442.82	3295.18
443.02	3172.30
443.23	3205.07
443.43	3299.28
443.64	3702.73
443.84	2967.51
444.05	3221.45
444.25	3540.94
444.46	3352.52
444.66	3139.54
444.87	3391.44
445.07	3188.69
445.28	3364.81
445.48	3344.33
445.69	3176.40
445.89	3993.54
446.09	3426.25
446.30	3446.73
446.50	3532.75
446.71	5130.16
446.91	6154.15
447.12	6717.34
447.32	7137.17
447.53	7354.26
447.73	6244.26
447.93	5408.69
448.14	5199.79
448.34	5283.76
448.55	4523.96
448.75	4423.61
448.96	4274.11
449.16	4087.75
449.36	4007.87
449.57	3354.57
449.77	3180.50
449.98	3321.81
450.18	3491.79
450.39	3094.48
450.59	3370.96
450.79	3463.12
451.00	3250.13
451.20	3348.43
451.41	3155.92
451.61	3532.75
451.81	3444.68
452.02	3092.43
452.22	3196.88
452.43	3330.00
