SpectraSuite Data File
++++++++++++++++++++++++++++++++++++
Date: Fri May 06 09:29:07 CEST 2016
User: root
Dark Spectrum Present: No
Reference Spectrum Present: No
Number of Sampled Component Spectra: 1
Spectrometers: USB4C02835
Integration Time (usec): 100000 (USB4C02835)
Spectra Averaged: 1 (USB4C02835)
Boxcar Smoothing: 0 (USB4C02835)
Correct for Electrical Dark: No (USB4C02835)
Strobe/Lamp Enabled: No (USB4C02835)
Correct for Detector Non-linearity: No (USB4C02835)
Correct for Stray Light: No (USB4C02835)
Number of Pixels in Processed Spectrum: 3648
>>>>>Begin Processed Spectral Data<<<<<
177.47	2340.83
177.69	2340.83
177.91	2340.83
178.13	2340.83
178.36	2375.64
178.58	3078.10
178.80	3229.65
179.02	3184.59
179.24	3168.21
179.46	2877.40
179.68	2910.16
179.90	3430.35
180.13	3395.53
180.35	2762.71
180.57	2844.63
180.79	3651.53
181.01	3508.17
181.23	2944.98
181.45	3178.45
181.67	3559.37
181.90	3559.37
182.12	3057.62
182.34	2824.15
182.56	3579.85
182.78	3467.21
183.00	2871.25
183.22	2961.36
183.44	3082.19
183.66	4014.02
183.89	3071.95
184.11	2992.08
184.33	3661.77
184.55	3659.72
184.77	2918.36
184.99	3018.71
185.21	3321.81
185.43	4007.87
185.65	2906.07
185.87	2994.13
186.10	4032.45
186.32	4024.26
186.54	3123.15
186.76	3086.29
186.98	3680.20
187.20	3467.21
187.42	2957.27
187.64	2971.60
187.86	3491.79
188.08	3774.41
188.30	2887.64
188.52	2977.75
188.75	3766.21
188.97	3712.97
189.19	2926.55
189.41	2916.31
189.63	3585.99
189.85	3330.00
190.07	2762.71
190.29	2791.38
190.51	3477.45
190.73	3155.92
190.95	3172.30
191.17	2947.03
191.39	3160.02
191.61	3389.39
191.84	2953.17
192.06	3131.34
192.28	3160.02
192.50	4093.89
192.72	3123.15
192.94	3141.58
193.16	3676.10
193.38	3493.83
193.60	2926.55
193.82	3129.30
194.04	3698.63
194.26	3604.42
194.48	2973.65
194.70	2908.12
194.92	3352.52
195.14	3608.52
195.36	2924.50
195.58	3018.71
195.80	3387.34
196.02	3377.10
196.24	2856.92
196.46	2967.51
196.69	3352.52
196.91	4007.87
197.13	2930.64
197.35	3057.62
197.57	3741.64
197.79	3585.99
198.01	3006.42
198.23	2977.75
198.45	3569.61
198.67	3237.84
198.89	2727.89
199.11	3074.00
199.33	3344.33
199.55	2963.41
199.77	2924.50
199.99	3151.82
200.21	3401.68
200.43	3608.52
200.65	2844.63
200.87	2822.10
201.09	3485.64
201.31	3352.52
201.53	2977.75
201.75	3153.87
201.97	3528.65
202.19	3532.75
202.41	3016.66
202.63	3086.29
202.85	3575.75
203.07	3504.07
203.29	3078.10
203.51	2873.30
203.73	3276.75
203.95	4024.26
204.17	2926.55
204.39	3135.44
204.61	3411.92
204.83	3311.57
205.05	3061.71
205.27	2971.60
205.49	4075.46
205.71	3391.44
205.93	2832.34
206.15	2877.40
206.37	3493.83
206.59	3405.77
206.81	2770.90
207.03	2901.97
207.25	3260.37
207.47	3678.15
207.69	3065.81
207.91	3196.88
208.13	3876.80
208.34	3282.89
208.56	2918.36
208.78	2992.08
209.00	3393.48
209.22	3346.38
209.44	2906.07
209.66	2904.02
209.88	3481.55
210.10	3364.81
210.32	2947.03
210.54	3039.19
210.76	3389.39
210.98	3624.90
211.20	2846.68
211.42	3114.96
211.64	3782.60
211.86	3569.61
212.08	3051.47
212.30	2920.40
212.52	3352.52
212.74	3561.42
212.96	2996.18
213.17	3008.47
213.39	3635.14
213.61	3870.66
213.83	2969.55
214.05	2789.33
214.27	3637.19
214.49	3239.89
214.71	2951.12
214.93	3045.33
215.15	3477.45
215.37	3672.01
215.59	2772.95
215.81	3145.68
216.03	3782.60
216.24	3401.68
216.46	2944.98
216.68	3026.90
216.90	3624.90
217.12	3692.49
217.34	2920.40
217.56	3112.91
217.78	3794.89
218.00	3629.00
218.22	3078.10
218.44	3131.34
218.66	3467.21
218.87	3891.14
219.09	2979.79
219.31	2961.36
219.53	3561.42
219.75	3409.87
219.97	2975.70
220.19	3092.43
220.41	3418.06
220.63	3829.70
220.85	3008.47
221.06	2990.03
221.28	3755.97
221.50	3635.14
221.72	2949.08
221.94	2934.74
222.16	3547.08
222.38	3680.20
222.60	2944.98
222.82	3051.47
223.03	3710.92
223.25	3166.16
223.47	2854.87
223.69	3139.54
223.91	3516.36
224.13	3532.75
224.35	2863.06
224.57	3164.11
224.78	3596.23
225.00	3205.07
225.22	3074.00
225.44	2852.82
225.66	3704.78
225.88	3393.48
226.10	3119.06
226.32	2987.99
226.53	3780.55
226.75	3340.24
226.97	3121.10
227.19	2914.26
227.41	3295.18
227.63	3254.22
227.85	2783.19
228.06	3114.96
228.28	3467.21
228.50	3758.02
228.72	2844.63
228.94	2926.55
229.16	3057.62
229.37	3149.78
229.59	2848.72
229.81	3241.93
230.03	3434.44
230.25	3194.83
230.47	2865.11
230.69	3041.23
230.90	3706.82
231.12	3207.12
231.34	3076.05
231.56	2979.79
231.78	3200.98
232.00	3518.41
232.21	3057.62
232.43	3057.62
232.65	3014.61
232.87	3485.64
233.09	2881.49
233.30	2942.93
233.52	3647.43
233.74	3483.59
233.96	2875.35
234.18	3123.15
234.40	3444.68
234.61	4050.88
234.83	2828.24
235.05	2932.69
235.27	4077.51
235.49	3821.51
235.70	2832.34
235.92	3024.85
236.14	3561.42
236.36	3991.49
236.58	2832.34
236.79	3090.38
237.01	3405.77
237.23	3450.83
237.45	3184.59
237.67	3080.14
237.88	3561.42
238.10	3952.58
238.32	2885.59
238.54	2904.02
238.76	3428.30
238.97	3321.81
239.19	2861.01
239.41	3106.77
239.63	3739.59
239.85	3229.65
240.06	2942.93
240.28	2992.08
240.50	3782.60
240.72	3454.92
240.93	2877.40
241.15	3088.34
241.37	3516.36
241.59	3712.97
241.81	3010.51
242.02	3086.29
242.24	3495.88
242.46	3604.42
242.68	2828.24
242.89	2934.74
243.11	3653.58
243.33	3467.21
243.55	2944.98
243.76	2977.75
243.98	3321.81
244.20	3446.73
244.42	2951.12
244.64	2916.31
244.85	3190.74
245.07	3272.65
245.29	2951.12
245.51	3174.35
245.72	3495.88
245.94	3663.82
246.16	2879.44
246.38	3008.47
246.59	3243.98
246.81	3319.76
247.03	2914.26
247.24	2879.44
247.46	3389.39
247.68	3524.55
247.90	2858.96
248.11	2967.51
248.33	3641.29
248.55	3502.03
248.77	2961.36
248.98	2987.99
249.20	3737.54
249.42	3508.17
249.64	2940.88
249.85	2926.55
250.07	3325.90
250.29	3686.34
250.50	2975.70
250.72	2901.97
250.94	3565.51
251.16	3909.57
251.37	2963.41
251.59	3008.47
251.81	3579.85
252.02	3794.89
252.24	2887.64
252.46	3057.62
252.68	3293.13
252.89	3336.14
253.11	2807.77
253.33	3157.97
253.54	3762.12
253.76	3190.74
253.98	3002.32
254.20	2975.70
254.41	3123.15
254.63	3317.71
254.85	2875.35
255.06	3127.25
255.28	3502.03
255.50	3418.06
255.71	2930.64
255.93	2756.57
256.15	3436.49
256.36	3547.08
256.58	2865.11
256.80	2885.59
257.02	3463.12
257.23	3373.00
257.45	2975.70
257.67	3160.02
257.88	3330.00
258.10	3645.38
258.32	2912.21
258.53	3016.66
258.75	3819.46
258.97	3317.71
259.18	2887.64
259.40	2912.21
259.62	3872.71
259.83	3782.60
260.05	2987.99
260.27	4001.73
260.48	3629.00
260.70	3223.50
260.92	2856.92
261.13	3008.47
261.35	3516.36
261.57	3483.59
261.78	2793.43
262.00	2944.98
262.22	3528.65
262.43	3252.17
262.65	3006.42
262.86	3008.47
263.08	3962.82
263.30	3422.16
263.51	2781.14
263.73	2854.87
263.95	3905.48
264.16	3256.27
264.38	2895.83
264.60	2881.49
264.81	3411.92
265.03	3653.58
265.25	3493.83
265.46	2844.63
265.68	3745.73
265.89	3663.82
266.11	2881.49
266.33	2975.70
266.54	3747.78
266.76	3571.66
266.98	2987.99
267.19	3209.17
267.41	3749.83
267.62	3491.79
267.84	2789.33
268.06	3057.62
268.27	3487.69
268.49	3737.54
268.70	3065.81
268.92	3006.42
269.14	3260.37
269.35	3112.91
269.57	3108.82
269.79	3000.27
270.00	3368.91
270.22	3819.46
270.43	2906.07
270.65	2811.86
270.87	3510.22
271.08	3633.10
271.30	3078.10
271.51	3049.43
271.73	3598.28
271.95	3805.13
272.16	2940.88
272.38	3147.73
272.59	3413.96
272.81	3602.38
273.02	2963.41
273.24	2994.13
273.46	3733.45
273.67	3254.22
273.89	2809.81
274.10	2955.22
274.32	3717.06
274.54	3481.55
274.75	3090.38
274.97	3090.38
275.18	3598.28
275.40	3606.47
275.61	2996.18
275.83	3092.43
276.05	3246.03
276.26	3418.06
276.48	3155.92
276.69	3069.91
276.91	3325.90
277.12	3794.89
277.34	3198.93
277.55	3198.93
277.77	3420.11
277.99	3264.46
278.20	3121.10
278.42	2998.23
278.63	3262.41
278.85	3262.41
279.06	3057.62
279.28	3186.64
279.49	3639.24
279.71	3571.66
279.93	3114.96
280.14	3172.30
280.36	3227.60
280.57	3678.15
280.79	3198.93
281.00	3035.09
281.22	3352.52
281.43	3721.16
281.65	2883.54
281.86	2985.94
282.08	3635.14
282.29	3835.85
282.51	2947.03
282.73	2985.94
282.94	3166.16
283.16	3598.28
283.37	3188.69
283.59	3133.39
283.80	3547.08
284.02	3438.54
284.23	3102.67
284.45	3088.34
284.66	3303.37
284.88	3241.93
285.09	2961.36
285.31	3151.82
285.52	3536.84
285.74	3205.07
285.95	3289.04
286.17	3121.10
286.38	3753.93
286.60	3446.73
286.81	3039.19
287.03	3098.58
287.24	3499.98
287.46	3581.90
287.67	3209.17
287.89	3276.75
288.10	3387.34
288.32	3502.03
288.53	3243.98
288.75	3131.34
288.96	3581.90
289.18	3270.61
289.39	3047.38
289.61	3160.02
289.82	3940.29
290.04	3870.66
290.25	2973.65
290.47	3209.17
290.68	3401.68
290.90	3688.39
291.11	2889.68
291.33	3317.71
291.54	3246.03
291.76	3215.31
291.97	3286.99
292.18	3196.88
292.40	3379.15
292.61	3297.23
292.83	3397.58
293.04	3131.34
293.26	3495.88
293.47	3424.20
293.69	3057.62
293.90	2979.79
294.12	3729.35
294.33	3370.96
294.55	3196.88
294.76	3330.00
294.97	3764.17
295.19	3901.38
295.40	3100.62
295.62	3211.22
295.83	3626.95
296.05	3229.65
296.26	3416.01
296.48	3092.43
296.69	3391.44
296.90	3403.72
297.12	3299.28
297.33	3291.09
297.55	3461.07
297.76	3598.28
297.98	3221.45
298.19	3266.51
298.41	3440.59
298.62	3170.26
298.83	3342.28
299.05	3203.02
299.26	3397.58
299.48	3203.02
299.69	3213.26
299.90	3061.71
300.12	3192.78
300.33	3614.66
300.55	3127.25
300.76	3205.07
300.98	3262.41
301.19	3614.66
301.40	3071.95
301.62	3153.87
301.83	3606.47
302.05	3454.92
302.26	3026.90
302.47	3219.41
302.69	3153.87
302.90	3381.20
303.12	2971.60
303.33	3227.60
303.54	3917.76
303.76	3332.05
303.97	3010.51
304.19	3332.05
304.40	3246.03
304.61	3491.79
304.83	3221.45
305.04	3084.24
305.26	3629.00
305.47	3305.42
305.68	3076.05
305.90	3016.66
306.11	3739.59
306.33	3393.48
306.54	2987.99
306.75	2957.27
306.97	3209.17
307.18	3319.76
307.39	3067.86
307.61	3215.31
307.82	3418.06
308.04	3538.89
308.25	2936.79
308.46	3270.61
308.68	3373.00
308.89	3426.25
309.10	3229.65
309.32	3133.39
309.53	3510.22
309.74	3667.91
309.96	3045.33
310.17	3135.44
310.39	3332.05
310.60	3549.13
310.81	3149.78
311.03	3065.81
311.24	3647.43
311.45	3532.75
311.67	3416.01
311.88	3250.13
312.09	3346.38
312.31	3229.65
312.52	3004.37
312.73	3074.00
312.95	3104.72
313.16	3266.51
313.37	3309.52
313.59	3295.18
313.80	3610.57
314.01	3868.61
314.23	3082.19
314.44	3024.85
314.65	3172.30
314.87	3223.50
315.08	3069.91
315.29	3102.67
315.51	3198.93
315.72	3117.01
315.93	3137.49
316.15	3133.39
316.36	3258.32
316.57	3420.11
316.79	3041.23
317.00	3067.86
317.21	3534.79
317.43	3207.12
317.64	3069.91
317.85	3057.62
318.07	3295.18
318.28	3387.34
318.49	3114.96
318.70	3319.76
318.92	3534.79
319.13	3377.10
319.34	3229.65
319.56	3082.19
319.77	3555.27
319.98	3588.04
320.20	3366.86
320.41	3321.81
320.62	3524.55
320.83	3170.26
321.05	3303.37
321.26	3160.02
321.47	3475.40
321.69	3651.53
321.90	3008.47
322.11	3094.48
322.32	3432.40
322.54	3745.73
322.75	3092.43
322.96	4190.14
323.18	3139.54
323.39	3041.23
323.60	3049.43
323.81	3188.69
324.03	3395.53
324.24	3411.92
324.45	3237.84
324.66	3028.95
324.88	3667.91
325.09	3848.13
325.30	3037.14
325.52	2990.03
325.73	3532.75
325.94	3336.14
326.15	2975.70
326.37	2918.36
326.58	3557.32
326.79	3860.42
327.00	2967.51
327.22	3106.77
327.43	3264.46
327.64	3192.78
327.85	3168.21
328.07	3139.54
328.28	3885.00
328.49	3295.18
328.70	3110.86
328.92	3010.51
329.13	3483.59
329.34	3530.70
329.55	3413.96
329.76	3334.09
329.98	3426.25
330.19	3680.20
330.40	3139.54
330.61	3246.03
330.83	3667.91
331.04	3241.93
331.25	3178.45
331.46	3186.64
331.68	3270.61
331.89	3590.09
332.10	3102.67
332.31	2942.93
332.52	3481.55
332.74	3667.91
332.95	2949.08
333.16	3090.38
333.37	3614.66
333.58	3309.52
333.80	3143.63
334.01	2994.13
334.22	3373.00
334.43	3323.85
334.64	3049.43
334.86	3069.91
335.07	3264.46
335.28	3811.27
335.49	3033.04
335.70	3176.40
335.92	3870.66
336.13	3887.04
336.34	3170.26
336.55	3090.38
336.76	3569.61
336.98	3057.62
337.19	3125.20
337.40	3172.30
337.61	4112.32
337.82	3356.62
338.04	3200.98
338.25	2930.64
338.46	3356.62
338.67	3407.82
338.88	3028.95
339.09	2965.46
339.31	3413.96
339.52	3205.07
339.73	3119.06
339.94	3303.37
340.15	3594.19
340.36	3336.14
340.58	3133.39
340.79	3037.14
341.00	3569.61
341.21	3205.07
341.42	3381.20
341.63	3074.00
341.85	3663.82
342.06	3420.11
342.27	3033.04
342.48	3276.75
342.69	3123.15
342.90	3592.14
343.12	3528.65
343.33	3059.67
343.54	3667.91
343.75	3768.26
343.96	3192.78
344.17	3008.47
344.38	3338.19
344.60	3315.66
344.81	3098.58
345.02	3041.23
345.23	3680.20
345.44	4018.11
345.65	3172.30
345.86	3190.74
346.07	3450.83
346.29	3262.41
346.50	3213.26
346.71	3180.50
346.92	3788.74
347.13	3860.42
347.34	3270.61
347.55	2947.03
347.76	3551.18
347.98	3188.69
348.19	3151.82
348.40	3295.18
348.61	3373.00
348.82	3762.12
349.03	3147.73
349.24	3028.95
349.45	3936.20
349.66	3030.99
349.88	3016.66
350.09	3000.27
350.30	3725.26
350.51	3672.01
350.72	3321.81
350.93	3129.30
351.14	3336.14
351.35	3526.60
351.56	3092.43
351.77	3139.54
351.99	3557.32
352.20	3692.49
352.41	3194.83
352.62	2920.40
352.83	3418.06
353.04	3278.80
353.25	3127.25
353.46	3108.82
353.67	3680.20
353.88	3024.85
354.09	3010.51
354.30	3125.20
354.52	3581.90
354.73	3475.40
354.94	3141.58
355.15	3141.58
355.36	3850.18
355.57	3346.38
355.78	3000.27
355.99	3102.67
356.20	3401.68
356.41	3749.83
356.62	3127.25
356.83	3166.16
357.04	3758.02
357.25	3053.52
357.46	3049.43
357.68	2973.65
357.89	3248.08
358.10	3420.11
358.31	3020.75
358.52	3112.91
358.73	3231.69
358.94	3217.36
359.15	3131.34
359.36	3155.92
359.57	3459.02
359.78	3334.09
359.99	3321.81
360.20	2947.03
360.41	3409.87
360.62	3618.76
360.83	3082.19
361.04	3065.81
361.25	3563.47
361.46	3815.37
361.67	3254.22
361.88	3108.82
362.09	3622.86
362.30	3532.75
362.51	3041.23
362.72	3141.58
362.93	3557.32
363.14	3631.05
363.35	3127.25
363.56	3084.24
363.78	3674.06
363.99	3696.58
364.20	3100.62
364.41	3233.74
364.62	3868.61
364.83	3526.60
365.04	3090.38
365.25	3207.12
365.46	3893.19
365.67	3221.45
365.88	3364.81
366.09	3123.15
366.30	3373.00
366.51	3491.79
366.72	3041.23
366.93	3076.05
367.14	3485.64
367.35	3760.07
367.56	3061.71
367.77	3237.84
367.98	3438.54
368.18	3475.40
368.39	3229.65
368.60	3020.75
368.81	3581.90
369.02	3467.21
369.23	3094.48
369.44	2996.18
369.65	3405.77
369.86	3497.93
370.07	3174.35
370.28	3059.67
370.49	3516.36
370.70	3540.94
370.91	2994.13
371.12	2947.03
371.33	3710.92
371.54	3291.09
371.75	3239.89
371.96	2828.24
372.17	3512.27
372.38	3477.45
372.59	3051.47
372.80	3131.34
373.01	3418.06
373.22	3483.59
373.43	3043.28
373.64	2953.17
373.85	3647.43
374.06	3798.98
374.26	3235.79
374.47	3243.98
374.68	3841.99
374.89	3534.79
375.10	3112.91
375.31	3139.54
375.52	3411.92
375.73	3489.74
375.94	2959.31
376.15	3188.69
376.36	3299.28
376.57	3362.76
376.78	3176.40
376.99	3221.45
377.20	3721.16
377.40	3307.47
377.61	3418.06
377.82	3127.25
378.03	3729.35
378.24	3526.60
378.45	3205.07
378.66	3139.54
378.87	3108.82
379.08	3098.58
379.29	3227.60
379.50	3237.84
379.71	3422.16
379.91	3643.34
380.12	3082.19
380.33	3174.35
380.54	3381.20
380.75	3346.38
380.96	3141.58
381.17	3149.78
381.38	3473.36
381.59	3385.29
381.80	3213.26
382.00	3397.58
382.21	3444.68
382.42	3835.85
382.63	3471.31
382.84	3237.84
383.05	3616.71
383.26	3790.79
383.47	3295.18
383.68	3082.19
383.88	3528.65
384.09	3452.88
384.30	3319.76
384.51	3248.08
384.72	3307.47
384.93	3147.73
385.14	3227.60
385.35	3508.17
385.55	3155.92
385.76	3706.82
385.97	3160.02
386.18	3010.51
386.39	3317.71
386.60	3274.70
386.81	3086.29
387.02	3037.14
387.22	3184.59
387.43	3581.90
387.64	3252.17
387.85	3338.19
388.06	3385.29
388.27	4321.21
388.48	7266.19
388.68	10921.82
388.89	13952.81
389.10	14915.36
389.31	14460.71
389.52	11788.11
389.73	10352.48
389.93	9527.15
390.14	8554.37
390.35	7962.50
390.56	7313.30
390.77	6238.11
390.98	4698.04
391.18	4026.31
391.39	3934.15
391.60	3493.83
391.81	3360.72
392.02	3147.73
392.23	3979.20
392.43	3440.59
392.64	3221.45
392.85	3174.35
393.06	3815.37
393.27	3418.06
393.47	3145.68
393.68	3250.13
393.89	3284.94
394.10	3704.78
394.31	3143.63
394.52	3106.77
394.72	3284.94
394.93	3747.78
395.14	3053.52
395.35	3196.88
395.56	3270.61
395.76	3385.29
395.97	3102.67
396.18	3205.07
396.39	3401.68
396.60	4138.94
396.80	3491.79
397.01	3399.63
397.22	3606.47
397.43	3696.58
397.64	3155.92
397.84	3272.65
398.05	3850.18
398.26	3370.96
398.47	3256.27
398.67	3332.05
398.88	3493.83
399.09	3655.62
399.30	3090.38
399.51	3205.07
399.71	3264.46
399.92	3489.74
400.13	3235.79
400.34	3131.34
400.54	3479.50
400.75	3745.73
400.96	3227.60
401.17	3557.32
401.37	3571.66
401.58	3325.90
401.79	3155.92
402.00	3223.50
402.21	3897.28
402.41	3590.09
402.62	3368.91
402.83	3459.02
403.04	3772.36
403.24	4263.87
403.45	3198.93
403.66	3397.58
403.87	3596.23
404.07	3774.41
404.28	3336.14
404.49	3438.54
404.70	3551.18
404.90	3635.14
405.11	3114.96
405.32	3225.55
405.52	3248.08
405.73	3254.22
405.94	3133.39
406.15	3188.69
406.35	3626.95
406.56	3551.18
406.77	3160.02
406.98	3139.54
407.18	3352.52
407.39	3835.85
407.60	3125.20
407.80	3231.69
408.01	3377.10
408.22	3540.94
408.43	2992.08
408.63	3295.18
408.84	3680.20
409.05	3647.43
409.25	3080.14
409.46	3221.45
409.67	3352.52
409.88	3352.52
410.08	3205.07
410.29	3104.72
410.50	3620.81
410.70	3499.98
410.91	3024.85
411.12	3211.22
411.32	3471.31
411.53	3219.41
411.74	3239.89
411.95	3213.26
412.15	3422.16
412.36	3651.53
412.57	3327.95
412.77	3346.38
412.98	3370.96
413.19	3356.62
413.39	3172.30
413.60	3196.88
413.81	3721.16
414.01	3270.61
414.22	3205.07
414.43	3358.67
414.63	3340.24
414.84	3614.66
415.05	3143.63
415.25	3004.37
415.46	3600.33
415.67	3327.95
415.87	3264.46
416.08	3098.58
416.29	3346.38
416.49	3557.32
416.70	3162.06
416.91	3186.64
417.11	3323.85
417.32	3729.35
417.53	3252.17
417.73	3278.80
417.94	3436.49
418.15	3524.55
418.35	3229.65
418.56	3180.50
418.77	3973.06
418.97	3422.16
419.18	3315.66
419.38	2779.09
419.59	3497.93
419.80	3807.17
420.00	3104.72
420.21	3184.59
420.42	3721.16
420.62	3542.99
420.83	3098.58
421.04	3149.78
421.24	3418.06
421.45	3598.28
421.65	3221.45
421.86	3129.30
422.07	3680.20
422.27	3545.03
422.48	3053.52
422.69	2983.89
422.89	3405.77
423.10	3467.21
423.30	3174.35
423.51	3231.69
423.72	3520.46
423.92	3528.65
424.13	3090.38
424.33	3174.35
424.54	3631.05
424.75	3459.02
424.95	3383.24
425.16	3098.58
425.36	3336.14
425.57	3674.06
425.78	3352.52
425.98	3327.95
426.19	3389.39
426.39	3291.09
426.60	3252.17
426.81	3295.18
427.01	3620.81
427.22	3264.46
427.42	2949.08
427.63	3112.91
427.83	3631.05
428.04	3807.17
428.25	3194.83
428.45	3207.12
428.66	3672.01
428.86	3452.88
429.07	3184.59
429.28	3223.50
429.48	3452.88
429.69	3344.33
429.89	3278.80
430.10	3092.43
430.30	3528.65
430.51	3741.64
430.71	3071.95
430.92	3182.54
431.13	3356.62
431.33	3594.19
431.54	3286.99
431.74	3403.72
431.95	3901.38
432.15	3227.60
432.36	3096.53
432.56	3221.45
432.77	3911.62
432.98	3846.09
433.18	3182.54
433.39	3016.66
433.59	3495.88
433.80	3805.13
434.00	3327.95
434.21	3188.69
434.41	3309.52
434.62	3844.04
434.82	2951.12
435.03	3074.00
435.23	3579.85
435.44	3096.53
435.64	3129.30
435.85	3166.16
436.06	3692.49
436.26	3637.19
436.47	3133.39
436.67	3084.24
436.88	3428.30
437.08	3620.81
437.29	3305.42
437.49	3231.69
437.70	3731.40
437.90	3354.57
438.11	3426.25
438.31	3289.04
438.52	3704.78
438.72	3676.10
438.93	3459.02
439.13	3248.08
439.34	3688.39
439.54	3323.85
439.75	3272.65
439.95	3278.80
440.16	3282.89
440.36	3426.25
440.57	3176.40
440.77	3100.62
440.98	3438.54
441.18	3520.46
441.39	3123.15
441.59	3057.62
441.80	3841.99
442.00	3444.68
442.21	3229.65
442.41	3012.56
442.62	3743.69
442.82	3327.95
443.02	3176.40
443.23	3217.36
443.43	3389.39
443.64	3723.21
443.84	2977.75
444.05	3254.22
444.25	3430.35
444.46	3315.66
444.66	3157.97
444.87	3430.35
445.07	3147.73
445.28	3352.52
445.48	3381.20
445.69	3215.31
445.89	4018.11
446.09	3354.57
446.30	3416.01
446.50	3569.61
446.71	5013.43
446.91	6133.67
447.12	6971.29
447.32	7202.71
447.53	7468.94
447.73	6098.85
447.93	5230.51
448.14	5087.15
448.34	5443.50
448.55	4411.32
448.75	4351.93
448.96	4190.14
449.16	4173.76
449.36	3946.44
449.57	3407.82
449.77	3190.74
449.98	3336.14
450.18	3518.41
450.39	3076.05
450.59	3385.29
450.79	3442.64
451.00	3327.95
451.20	3381.20
451.41	3229.65
451.61	3553.23
451.81	3370.96
452.02	3094.48
452.22	3143.63
452.43	3272.65
