SpectraSuite Data File
++++++++++++++++++++++++++++++++++++
Date: Fri May 06 09:29:14 CEST 2016
User: root
Dark Spectrum Present: No
Reference Spectrum Present: No
Number of Sampled Component Spectra: 1
Spectrometers: USB4C02835
Integration Time (usec): 100000 (USB4C02835)
Spectra Averaged: 1 (USB4C02835)
Boxcar Smoothing: 0 (USB4C02835)
Correct for Electrical Dark: No (USB4C02835)
Strobe/Lamp Enabled: No (USB4C02835)
Correct for Detector Non-linearity: No (USB4C02835)
Correct for Stray Light: No (USB4C02835)
Number of Pixels in Processed Spectrum: 3648
>>>>>Begin Processed Spectral Data<<<<<
177.47	2373.60
177.69	2373.60
177.91	2373.60
178.13	2293.72
178.36	2349.02
178.58	3131.34
178.80	3243.98
179.02	3114.96
179.24	3209.17
179.46	2824.15
179.68	3071.95
179.90	3430.35
180.13	3485.64
180.35	2748.37
180.57	2947.03
180.79	3567.56
181.01	3438.54
181.23	3033.04
181.45	3114.96
181.67	3557.32
181.90	3614.66
182.12	2985.94
182.34	2852.82
182.56	3497.93
182.78	3573.71
183.00	2967.51
183.22	2904.02
183.44	3069.91
183.66	4108.23
183.89	3069.91
184.11	2926.55
184.33	3598.28
184.55	3540.94
184.77	2940.88
184.99	3004.37
185.21	3356.62
185.43	4116.42
185.65	3041.23
185.87	2926.55
186.10	4052.93
186.32	3948.48
186.54	2955.22
186.76	3096.53
186.98	3680.20
187.20	3467.21
187.42	3002.32
187.64	2938.84
187.86	3592.14
188.08	3676.10
188.30	2914.26
188.52	3026.90
188.75	3803.08
188.97	3674.06
189.19	2922.45
189.41	2854.87
189.63	3567.56
189.85	3389.39
190.07	2869.20
190.29	2838.48
190.51	3485.64
190.73	3198.93
190.95	3270.61
191.17	3018.71
191.39	3108.82
191.61	3330.00
191.84	3016.66
192.06	3129.30
192.28	3145.68
192.50	4175.81
192.72	3180.50
192.94	3076.05
193.16	3723.21
193.38	3549.13
193.60	2910.16
193.82	3057.62
194.04	3669.96
194.26	3471.31
194.48	3012.56
194.70	2942.93
194.92	3338.19
195.14	3592.14
195.36	2910.16
195.58	3057.62
195.80	3426.25
196.02	3274.70
196.24	2953.17
196.46	3028.95
196.69	3393.48
196.91	4050.88
197.13	2920.40
197.35	3049.43
197.57	3813.32
197.79	3563.47
198.01	3100.62
198.23	2979.79
198.45	3575.75
198.67	3125.20
198.89	2830.29
199.11	3035.09
199.33	3295.18
199.55	3008.47
199.77	2934.74
199.99	3160.02
200.21	3368.91
200.43	3549.13
200.65	2820.05
200.87	2781.14
201.09	3446.73
201.31	3430.35
201.53	2938.84
201.75	3074.00
201.97	3491.79
202.19	3479.50
202.41	3141.58
202.63	3033.04
202.85	3585.99
203.07	3495.88
203.29	3020.75
203.51	2850.77
203.73	3338.19
203.95	4024.26
204.17	2906.07
204.39	3133.39
204.61	3504.07
204.83	3354.57
205.05	3160.02
205.27	2992.08
205.49	3968.96
205.71	3444.68
205.93	2772.95
206.15	2918.36
206.37	3485.64
206.59	3430.35
206.81	2760.66
207.03	2850.77
207.25	3299.28
207.47	3655.62
207.69	3047.38
207.91	3188.69
208.13	3856.33
208.34	3344.33
208.56	2910.16
208.78	3057.62
209.00	3385.29
209.22	3368.91
209.44	2985.94
209.66	2926.55
209.88	3422.16
210.10	3436.49
210.32	2977.75
210.54	3004.37
210.76	3383.24
210.98	3682.25
211.20	2852.82
211.42	3059.67
211.64	3801.03
211.86	3579.85
212.08	3057.62
212.30	3016.66
212.52	3352.52
212.74	3532.75
212.96	3123.15
213.17	3106.77
213.39	3645.38
213.61	3897.28
213.83	2910.16
214.05	2781.14
214.27	3733.45
214.49	3172.30
214.71	2897.88
214.93	3086.29
215.15	3399.63
215.37	3583.95
215.59	2791.38
215.81	3016.66
216.03	3837.89
216.24	3495.88
216.46	2965.46
216.68	2967.51
216.90	3571.66
217.12	3641.29
217.34	2899.92
217.56	3172.30
217.78	3817.41
218.00	3598.28
218.22	3045.33
218.44	3055.57
218.66	3491.79
218.87	3805.13
219.09	3028.95
219.31	2942.93
219.53	3510.22
219.75	3332.05
219.97	3022.80
220.19	2944.98
220.41	3475.40
220.63	3700.68
220.85	3004.37
221.06	2953.17
221.28	3790.79
221.50	3649.48
221.72	2918.36
221.94	2863.06
222.16	3553.23
222.38	3766.21
222.60	2910.16
222.82	3049.43
223.03	3606.47
223.25	3155.92
223.47	2836.44
223.69	3157.97
223.91	3508.17
224.13	3475.40
224.35	2879.44
224.57	3184.59
224.78	3661.77
225.00	3188.69
225.22	3088.34
225.44	2969.55
225.66	3561.42
225.88	3303.37
226.10	3123.15
226.32	3000.27
226.53	3805.13
226.75	3366.86
226.97	3051.47
227.19	2969.55
227.41	3309.52
227.63	3395.53
227.85	2781.14
228.06	3000.27
228.28	3504.07
228.50	3620.81
228.72	2836.44
228.94	2887.64
229.16	3018.71
229.37	3205.07
229.59	2885.59
229.81	3211.22
230.03	3381.20
230.25	3233.74
230.47	2795.48
230.69	2959.31
230.90	3624.90
231.12	3264.46
231.34	3102.67
231.56	3045.33
231.78	3196.88
232.00	3483.59
232.21	3016.66
232.43	3022.80
232.65	3014.61
232.87	3551.18
233.09	2805.72
233.30	2850.77
233.52	3676.10
233.74	3403.72
233.96	2867.16
234.18	3147.73
234.40	3401.68
234.61	3897.28
234.83	2861.01
235.05	2967.51
235.27	4030.40
235.49	3762.12
235.70	2842.58
235.92	2983.89
236.14	3608.52
236.36	4020.16
236.58	2908.12
236.79	2975.70
237.01	3405.77
237.23	3461.07
237.45	3164.11
237.67	3100.62
237.88	3618.76
238.10	3770.31
238.32	2889.68
238.54	2869.20
238.76	3440.59
238.97	3213.26
239.19	2893.78
239.41	3014.61
239.63	3653.58
239.85	3366.86
240.06	3028.95
240.28	2918.36
240.50	3684.30
240.72	3491.79
240.93	2779.09
241.15	3102.67
241.37	3454.92
241.59	3663.82
241.81	2994.13
242.02	3018.71
242.24	3573.71
242.46	3530.70
242.68	2770.90
242.89	3000.27
243.11	3610.57
243.33	3442.64
243.55	2979.79
243.76	2936.79
243.98	3297.23
244.20	3428.30
244.42	2983.89
244.64	2910.16
244.85	3164.11
245.07	3262.41
245.29	3004.37
245.51	3043.28
245.72	3499.98
245.94	3672.01
246.16	2947.03
246.38	3018.71
246.59	3241.93
246.81	3254.22
247.03	2914.26
247.24	2772.95
247.46	3385.29
247.68	3481.55
247.90	2865.11
248.11	3041.23
248.33	3614.66
248.55	3456.97
248.77	3020.75
248.98	3074.00
249.20	3805.13
249.42	3491.79
249.64	2963.41
249.85	2910.16
250.07	3360.72
250.29	3688.39
250.50	3131.34
250.72	2877.40
250.94	3528.65
251.16	3966.92
251.37	2914.26
251.59	3069.91
251.81	3493.83
252.02	3784.65
252.24	2852.82
252.46	3047.38
252.68	3282.89
252.89	3370.96
253.11	2795.48
253.33	3147.73
253.54	3780.55
253.76	3248.08
253.98	2959.31
254.20	2942.93
254.41	3143.63
254.63	3413.96
254.85	2815.96
255.06	3041.23
255.28	3512.27
255.50	3315.66
255.71	2877.40
255.93	2805.72
256.15	3407.82
256.36	3600.33
256.58	2914.26
256.80	2926.55
257.02	3375.05
257.23	3354.57
257.45	2992.08
257.67	3057.62
257.88	3346.38
258.10	3524.55
258.32	2983.89
258.53	3002.32
258.75	3784.65
258.97	3354.57
259.18	2856.92
259.40	2965.46
259.62	3823.56
259.83	3762.12
260.05	3018.71
260.27	3905.48
260.48	3631.05
260.70	3180.50
260.92	2848.72
261.13	2983.89
261.35	3504.07
261.57	3534.79
261.78	2772.95
262.00	2887.64
262.22	3534.79
262.43	3360.72
262.65	2987.99
262.86	2983.89
263.08	4042.69
263.30	3495.88
263.51	2699.22
263.73	2942.93
263.95	3848.13
264.16	3256.27
264.38	2811.86
264.60	2906.07
264.81	3473.36
265.03	3639.24
265.25	3467.21
265.46	2897.88
265.68	3737.54
265.89	3706.82
266.11	2867.16
266.33	2930.64
266.54	3727.30
266.76	3594.19
266.98	3010.51
267.19	3078.10
267.41	3749.83
267.62	3434.44
267.84	2781.14
268.06	3045.33
268.27	3528.65
268.49	3762.12
268.70	3061.71
268.92	2977.75
269.14	3366.86
269.35	3129.30
269.57	3106.77
269.79	2971.60
270.00	3307.47
270.22	3805.13
270.43	2801.62
270.65	2842.58
270.87	3477.45
271.08	3661.77
271.30	3147.73
271.51	2942.93
271.73	3567.56
271.95	3827.65
272.16	2928.60
272.38	3112.91
272.59	3389.39
272.81	3608.52
273.02	2828.24
273.24	3016.66
273.46	3684.30
273.67	3155.92
273.89	2852.82
274.10	2914.26
274.32	3606.47
274.54	3551.18
274.75	3076.05
274.97	3147.73
275.18	3622.86
275.40	3604.42
275.61	2938.84
275.83	3168.21
276.05	3235.79
276.26	3405.77
276.48	3061.71
276.69	3121.10
276.91	3237.84
277.12	3678.15
277.34	3141.58
277.55	3205.07
277.77	3540.94
277.99	3463.12
278.20	3119.06
278.42	2985.94
278.63	3227.60
278.85	3219.41
279.06	3055.57
279.28	3180.50
279.49	3745.73
279.71	3577.80
279.93	3108.82
280.14	3200.98
280.36	3323.85
280.57	3573.71
280.79	3272.65
281.00	2996.18
281.22	3342.28
281.43	3745.73
281.65	2885.59
281.86	2996.18
282.08	3624.90
282.29	3917.76
282.51	2985.94
282.73	3000.27
282.94	3188.69
283.16	3626.95
283.37	3278.80
283.59	3172.30
283.80	3577.80
284.02	3467.21
284.23	3160.02
284.45	3133.39
284.66	3278.80
284.88	3366.86
285.09	3043.28
285.31	3223.50
285.52	3510.22
285.74	3076.05
285.95	3321.81
286.17	3096.53
286.38	3622.86
286.60	3403.72
286.81	3090.38
287.03	3051.47
287.24	3418.06
287.46	3604.42
287.67	3262.41
287.89	3297.23
288.10	3360.72
288.32	3508.17
288.53	3262.41
288.75	3200.98
288.96	3618.76
289.18	3221.45
289.39	3098.58
289.61	3217.36
289.82	3948.48
290.04	3876.80
290.25	2967.51
290.47	3127.25
290.68	3463.12
290.90	3672.01
291.11	2910.16
291.33	3274.70
291.54	3241.93
291.76	3379.15
291.97	3246.03
292.18	3250.13
292.40	3342.28
292.61	3327.95
292.83	3440.59
293.04	3141.58
293.26	3526.60
293.47	3389.39
293.69	3092.43
293.90	3026.90
294.12	3829.70
294.33	3420.11
294.55	3078.10
294.76	3282.89
294.97	3803.08
295.19	3985.35
295.40	3030.99
295.62	3227.60
295.83	3649.48
296.05	3276.75
296.26	3401.68
296.48	3102.67
296.69	3450.83
296.90	3487.69
297.12	3221.45
297.33	3217.36
297.55	3504.07
297.76	3508.17
297.98	3137.49
298.19	3274.70
298.41	3428.30
298.62	3221.45
298.83	3260.37
299.05	3303.37
299.26	3397.58
299.48	3362.76
299.69	3180.50
299.90	2992.08
300.12	3248.08
300.33	3633.10
300.55	3198.93
300.76	3198.93
300.98	3164.11
301.19	3600.33
301.40	3063.76
301.62	3076.05
301.83	3573.71
302.05	3454.92
302.26	3104.72
302.47	3217.36
302.69	3205.07
302.90	3422.16
303.12	2961.36
303.33	3254.22
303.54	3860.42
303.76	3344.33
303.97	3084.24
304.19	3352.52
304.40	3291.09
304.61	3606.47
304.83	3239.89
305.04	3149.78
305.26	3631.05
305.47	3305.42
305.68	3078.10
305.90	2985.94
306.11	3704.78
306.33	3502.03
306.54	3039.19
306.75	3063.76
306.97	3119.06
307.18	3291.09
307.39	3117.01
307.61	3215.31
307.82	3407.82
308.04	3452.88
308.25	3000.27
308.46	3215.31
308.68	3444.68
308.89	3461.07
309.10	3270.61
309.32	3102.67
309.53	3499.98
309.74	3555.27
309.96	3082.19
310.17	3207.12
310.39	3430.35
310.60	3649.48
310.81	3147.73
311.03	3010.51
311.24	3600.33
311.45	3467.21
311.67	3426.25
311.88	3164.11
312.09	3311.57
312.31	3278.80
312.52	2987.99
312.73	2959.31
312.95	3153.87
313.16	3225.55
313.37	3295.18
313.59	3334.09
313.80	3602.38
314.01	3696.58
314.23	3139.54
314.44	3037.14
314.65	3086.29
314.87	3291.09
315.08	3127.25
315.29	3127.25
315.51	3280.85
315.72	3084.24
315.93	3200.98
316.15	3172.30
316.36	3428.30
316.57	3444.68
316.79	3112.91
317.00	3096.53
317.21	3512.27
317.43	3305.42
317.64	3223.50
317.85	2975.70
318.07	3332.05
318.28	3344.33
318.49	3170.26
318.70	3280.85
318.92	3436.49
319.13	3477.45
319.34	3182.54
319.56	3067.86
319.77	3555.27
319.98	3583.95
320.20	3373.00
320.41	3317.71
320.62	3620.81
320.83	3223.50
321.05	3315.66
321.26	3182.54
321.47	3506.12
321.69	3717.06
321.90	3000.27
322.11	3043.28
322.32	3508.17
322.54	3749.83
322.75	3074.00
322.96	4282.30
323.18	3117.01
323.39	3041.23
323.60	2965.46
323.81	3168.21
324.03	3280.85
324.24	3452.88
324.45	3268.56
324.66	3061.71
324.88	3571.66
325.09	3872.71
325.30	3030.99
325.52	2944.98
325.73	3536.84
325.94	3250.13
326.15	3008.47
326.37	2983.89
326.58	3624.90
326.79	3829.70
327.00	3024.85
327.22	3123.15
327.43	3344.33
327.64	3151.82
327.85	3221.45
328.07	3100.62
328.28	3848.13
328.49	3418.06
328.70	3084.24
328.92	3063.76
329.13	3481.55
329.34	3606.47
329.55	3301.33
329.76	3278.80
329.98	3342.28
330.19	3807.17
330.40	3172.30
330.61	3209.17
330.83	3635.14
331.04	3252.17
331.25	3227.60
331.46	3196.88
331.68	3205.07
331.89	3674.06
332.10	3176.40
332.31	2926.55
332.52	3413.96
332.74	3721.16
332.95	2934.74
333.16	3098.58
333.37	3639.24
333.58	3348.43
333.80	3092.43
334.01	2848.72
334.22	3409.87
334.43	3250.13
334.64	2981.84
334.86	3082.19
335.07	3309.52
335.28	3782.60
335.49	2981.84
335.70	3215.31
335.92	3798.98
336.13	3981.25
336.34	3121.10
336.55	3086.29
336.76	3475.40
336.98	3016.66
337.19	3123.15
337.40	3198.93
337.61	4042.69
337.82	3428.30
338.04	3246.03
338.25	3028.95
338.46	3389.39
338.67	3405.77
338.88	3037.14
339.09	2973.65
339.31	3366.86
339.52	3237.84
339.73	3053.52
339.94	3176.40
340.15	3590.09
340.36	3297.23
340.58	3110.86
340.79	3067.86
341.00	3583.95
341.21	3217.36
341.42	3444.68
341.63	3123.15
341.85	3737.54
342.06	3428.30
342.27	3090.38
342.48	3246.03
342.69	3217.36
342.90	3516.36
343.12	3514.31
343.33	3020.75
343.54	3725.26
343.75	3692.49
343.96	3225.55
344.17	3051.47
344.38	3352.52
344.60	3270.61
344.81	2983.89
345.02	3137.49
345.23	3626.95
345.44	4034.50
345.65	3131.34
345.86	3121.10
346.07	3461.07
346.29	3323.85
346.50	3186.64
346.71	3192.78
346.92	3708.87
347.13	3854.28
347.34	3268.56
347.55	2967.51
347.76	3549.13
347.98	3164.11
348.19	3141.58
348.40	3272.65
348.61	3321.81
348.82	3762.12
349.03	3176.40
349.24	3035.09
349.45	3878.85
349.66	3057.62
349.88	3067.86
350.09	3037.14
350.30	3766.21
350.51	3682.25
350.72	3352.52
350.93	3131.34
351.14	3286.99
351.35	3598.28
351.56	3069.91
351.77	3151.82
351.99	3545.03
352.20	3762.12
352.41	3270.61
352.62	2926.55
352.83	3471.31
353.04	3411.92
353.25	3098.58
353.46	3139.54
353.67	3772.36
353.88	3030.99
354.09	2990.03
354.30	3135.44
354.52	3674.06
354.73	3405.77
354.94	3037.14
355.15	3155.92
355.36	3895.24
355.57	3262.41
355.78	3000.27
355.99	3155.92
356.20	3352.52
356.41	3735.50
356.62	3153.87
356.83	3078.10
357.04	3639.24
357.25	3086.29
357.46	3137.49
357.68	2992.08
357.89	3190.74
358.10	3446.73
358.31	3004.37
358.52	3117.01
358.73	3252.17
358.94	3176.40
359.15	3137.49
359.36	3168.21
359.57	3430.35
359.78	3397.58
359.99	3385.29
360.20	2992.08
360.41	3440.59
360.62	3618.76
360.83	3227.60
361.04	3123.15
361.25	3510.22
361.46	3807.17
361.67	3223.50
361.88	3155.92
362.09	3684.30
362.30	3528.65
362.51	2994.13
362.72	3160.02
362.93	3590.09
363.14	3551.18
363.35	3243.98
363.56	3016.66
363.78	3712.97
363.99	3635.14
364.20	3155.92
364.41	3172.30
364.62	3891.14
364.83	3512.27
365.04	3053.52
365.25	3160.02
365.46	3981.25
365.67	3274.70
365.88	3282.89
366.09	3131.34
366.30	3334.09
366.51	3485.64
366.72	3041.23
366.93	3024.85
367.14	3483.59
367.35	3776.45
367.56	2998.23
367.77	3231.69
367.98	3456.97
368.18	3581.90
368.39	3299.28
368.60	3088.34
368.81	3608.52
369.02	3530.70
369.23	3108.82
369.44	3020.75
369.65	3407.82
369.86	3559.37
370.07	3254.22
370.28	3018.71
370.49	3495.88
370.70	3594.19
370.91	3055.57
371.12	2967.51
371.33	3667.91
371.54	3295.18
371.75	3229.65
371.96	2785.24
372.17	3532.75
372.38	3475.40
372.59	3100.62
372.80	3071.95
373.01	3375.05
373.22	3461.07
373.43	3121.10
373.64	2975.70
373.85	3735.50
374.06	3819.46
374.26	3276.75
374.47	3205.07
374.68	3788.74
374.89	3524.55
375.10	3051.47
375.31	3139.54
375.52	3456.97
375.73	3510.22
375.94	2936.79
376.15	3250.13
376.36	3342.28
376.57	3332.05
376.78	3092.43
376.99	3188.69
377.20	3751.88
377.40	3344.33
377.61	3465.16
377.82	3127.25
378.03	3747.78
378.24	3567.56
378.45	3258.32
378.66	3205.07
378.87	3147.73
379.08	3129.30
379.29	3114.96
379.50	3274.70
379.71	3479.50
379.91	3684.30
380.12	3123.15
380.33	3190.74
380.54	3461.07
380.75	3348.43
380.96	3100.62
381.17	3198.93
381.38	3409.87
381.59	3518.41
381.80	3237.84
382.00	3352.52
382.21	3493.83
382.42	3778.50
382.63	3481.55
382.84	3295.18
383.05	3600.33
383.26	3745.73
383.47	3231.69
383.68	3004.37
383.88	3549.13
384.09	3426.25
384.30	3303.37
384.51	3282.89
384.72	3385.29
384.93	3178.45
385.14	3276.75
385.35	3323.85
385.55	3172.30
385.76	3778.50
385.97	3131.34
386.18	2994.13
386.39	3270.61
386.60	3237.84
386.81	3153.87
387.02	2985.94
387.22	3209.17
387.43	3575.75
387.64	3180.50
387.85	3373.00
388.06	3516.36
388.27	4460.48
388.48	7337.87
388.68	10837.85
388.89	13678.38
389.10	14778.14
389.31	14391.08
389.52	11636.56
389.73	10362.72
389.93	9512.81
390.14	8578.94
390.35	7989.13
390.56	7405.46
390.77	6076.32
390.98	4812.73
391.18	3977.16
391.39	3946.44
391.60	3516.36
391.81	3409.87
392.02	3196.88
392.23	3905.48
392.43	3579.85
392.64	3229.65
392.85	3176.40
393.06	3829.70
393.27	3430.35
393.47	3071.95
393.68	3141.58
393.89	3319.76
394.10	3772.36
394.31	3076.05
394.52	3049.43
394.72	3364.81
394.93	3698.63
395.14	3030.99
395.35	3221.45
395.56	3344.33
395.76	3352.52
395.97	3049.43
396.18	3155.92
396.39	3405.77
396.60	4081.60
396.80	3508.17
397.01	3411.92
397.22	3563.47
397.43	3633.10
397.64	3117.01
397.84	3239.89
398.05	3891.14
398.26	3373.00
398.47	3217.36
398.67	3332.05
398.88	3364.81
399.09	3600.33
399.30	3172.30
399.51	3207.12
399.71	3299.28
399.92	3444.68
400.13	3225.55
400.34	3094.48
400.54	3532.75
400.75	3692.49
400.96	3186.64
401.17	3477.45
401.37	3583.95
401.58	3358.67
401.79	3086.29
402.00	3248.08
402.21	3891.14
402.41	3516.36
402.62	3418.06
402.83	3526.60
403.04	3889.09
403.24	4267.97
403.45	3274.70
403.66	3409.87
403.87	3680.20
404.07	3770.31
404.28	3411.92
404.49	3373.00
404.70	3557.32
404.90	3614.66
405.11	3155.92
405.32	3198.93
405.52	3248.08
405.73	3352.52
405.94	3131.34
406.15	3246.03
406.35	3553.23
406.56	3624.90
406.77	3157.97
406.98	3125.20
407.18	3344.33
407.39	3780.55
407.60	3147.73
407.80	3256.27
408.01	3338.19
408.22	3633.10
408.43	3127.25
408.63	3332.05
408.84	3649.48
409.05	3622.86
409.25	3065.81
409.46	3198.93
409.67	3295.18
409.88	3219.41
410.08	3190.74
410.29	3133.39
410.50	3735.50
410.70	3549.13
410.91	3092.43
411.12	3225.55
411.32	3575.75
411.53	3262.41
411.74	3155.92
411.95	3133.39
412.15	3469.26
412.36	3508.17
412.57	3342.28
412.77	3336.14
412.98	3401.68
413.19	3350.48
413.39	3227.60
413.60	3215.31
413.81	3778.50
414.01	3123.15
414.22	3127.25
414.43	3401.68
414.63	3313.61
414.84	3512.27
415.05	3182.54
415.25	3002.32
415.46	3616.71
415.67	3289.04
415.87	3254.22
416.08	3125.20
416.29	3467.21
416.49	3577.80
416.70	3182.54
416.91	3117.01
417.11	3377.10
417.32	3651.53
417.53	3252.17
417.73	3213.26
417.94	3403.72
418.15	3483.59
418.35	3207.12
418.56	3252.17
418.77	3968.96
418.97	3487.69
419.18	3340.24
419.38	2828.24
419.59	3428.30
419.80	3672.01
420.00	3094.48
420.21	3157.97
420.42	3751.88
420.62	3551.18
420.83	3149.78
421.04	3188.69
421.24	3411.92
421.45	3620.81
421.65	3248.08
421.86	3155.92
422.07	3643.34
422.27	3557.32
422.48	3145.68
422.69	2971.60
422.89	3348.43
423.10	3442.64
423.30	3137.49
423.51	3231.69
423.72	3532.75
423.92	3649.48
424.13	2994.13
424.33	3205.07
424.54	3610.57
424.75	3467.21
424.95	3438.54
425.16	3080.14
425.36	3383.24
425.57	3659.72
425.78	3282.89
425.98	3262.41
426.19	3391.44
426.39	3217.36
426.60	3327.95
426.81	3360.72
427.01	3434.44
427.22	3188.69
427.42	3065.81
427.63	3053.52
427.83	3612.62
428.04	3778.50
428.25	3190.74
428.45	3198.93
428.66	3661.77
428.86	3391.44
429.07	3213.26
429.28	3264.46
429.48	3446.73
429.69	3256.27
429.89	3243.98
430.10	3069.91
430.30	3577.80
430.51	3594.19
430.71	3129.30
430.92	3209.17
431.13	3276.75
431.33	3561.42
431.54	3270.61
431.74	3317.71
431.95	3995.59
432.15	3223.50
432.36	3229.65
432.56	3250.13
432.77	3917.76
432.98	3885.00
433.18	3243.98
433.39	3041.23
433.59	3373.00
433.80	3921.86
434.00	3323.85
434.21	3278.80
434.41	3327.95
434.62	3944.39
434.82	2990.03
435.03	3100.62
435.23	3512.27
435.44	3110.86
435.64	3098.58
435.85	3209.17
436.06	3680.20
436.26	3657.67
436.47	3147.73
436.67	3086.29
436.88	3373.00
437.08	3729.35
437.29	3301.33
437.49	3289.04
437.70	3729.35
437.90	3401.68
438.11	3348.43
438.31	3274.70
438.52	3692.49
438.72	3624.90
438.93	3473.36
439.13	3237.84
439.34	3635.14
439.54	3360.72
439.75	3233.74
439.95	3174.35
440.16	3295.18
440.36	3368.91
440.57	3184.59
440.77	3155.92
440.98	3452.88
441.18	3499.98
441.39	3102.67
441.59	3090.38
441.80	3788.74
442.00	3442.64
442.21	3209.17
442.41	3035.09
442.62	3803.08
442.82	3278.80
443.02	3082.19
443.23	3180.50
443.43	3305.42
443.64	3782.60
443.84	2998.23
444.05	3270.61
444.25	3438.54
444.46	3286.99
444.66	3074.00
444.87	3397.58
445.07	3235.79
445.28	3354.57
445.48	3278.80
445.69	3260.37
445.89	4040.64
446.09	3395.53
446.30	3438.54
446.50	3532.75
446.71	5005.24
446.91	6051.75
447.12	6819.74
447.32	7163.79
447.53	7305.10
447.73	6174.63
447.93	5304.24
448.14	5244.85
448.34	5339.05
448.55	4491.20
448.75	4452.28
448.96	4184.00
449.16	4331.45
449.36	4108.23
449.57	3444.68
449.77	3254.22
449.98	3391.44
450.18	3618.76
450.39	3086.29
450.59	3473.36
450.79	3409.87
451.00	3254.22
451.20	3401.68
451.41	3207.12
451.61	3602.38
451.81	3448.78
452.02	3145.68
452.22	3127.25
452.43	3356.62
