SpectraSuite Data File
++++++++++++++++++++++++++++++++++++
Date: Fri May 06 09:29:10 CEST 2016
User: root
Dark Spectrum Present: No
Reference Spectrum Present: No
Number of Sampled Component Spectra: 1
Spectrometers: USB4C02835
Integration Time (usec): 100000 (USB4C02835)
Spectra Averaged: 1 (USB4C02835)
Boxcar Smoothing: 0 (USB4C02835)
Correct for Electrical Dark: No (USB4C02835)
Strobe/Lamp Enabled: No (USB4C02835)
Correct for Detector Non-linearity: No (USB4C02835)
Correct for Stray Light: No (USB4C02835)
Number of Pixels in Processed Spectrum: 3648
>>>>>Begin Processed Spectral Data<<<<<
177.47	2291.68
177.69	2291.68
177.91	2291.68
178.13	2308.06
178.36	2316.25
178.58	3172.30
178.80	3207.12
179.02	3178.45
179.24	3278.80
179.46	2846.68
179.68	2901.97
179.90	3403.72
180.13	3352.52
180.35	2850.77
180.57	2824.15
180.79	3579.85
181.01	3368.91
181.23	3000.27
181.45	3098.58
181.67	3608.52
181.90	3590.09
182.12	3090.38
182.34	2750.42
182.56	3602.38
182.78	3479.50
183.00	2901.97
183.22	2953.17
183.44	3043.28
183.66	4007.87
183.89	3080.14
184.11	2971.60
184.33	3542.99
184.55	3731.40
184.77	2961.36
184.99	2955.22
185.21	3426.25
185.43	4024.26
185.65	3010.51
185.87	2873.30
186.10	3991.49
186.32	4024.26
186.54	3117.01
186.76	3151.82
186.98	3686.34
187.20	3387.34
187.42	3053.52
187.64	2942.93
187.86	3532.75
188.08	3649.48
188.30	2844.63
188.52	2990.03
188.75	3792.84
188.97	3729.35
189.19	3014.61
189.41	2908.12
189.63	3626.95
189.85	3348.43
190.07	2777.05
190.29	2799.57
190.51	3639.24
190.73	3186.64
190.95	3233.74
191.17	3033.04
191.39	3094.48
191.61	3368.91
191.84	3002.32
192.06	3108.82
192.28	3102.67
192.50	4204.48
192.72	3123.15
192.94	3090.38
193.16	3743.69
193.38	3631.05
193.60	2928.60
193.82	3248.08
194.04	3758.02
194.26	3577.80
194.48	2932.69
194.70	3061.71
194.92	3344.33
195.14	3676.10
195.36	2942.93
195.58	3008.47
195.80	3444.68
196.02	3323.85
196.24	2877.40
196.46	3020.75
196.69	3377.10
196.91	3952.58
197.13	2918.36
197.35	3082.19
197.57	3733.45
197.79	3647.43
198.01	3033.04
198.23	3037.14
198.45	3645.38
198.67	3221.45
198.89	2807.77
199.11	3092.43
199.33	3301.33
199.55	2963.41
199.77	2914.26
199.99	3094.48
200.21	3246.03
200.43	3499.98
200.65	2858.96
200.87	2846.68
201.09	3467.21
201.31	3377.10
201.53	3006.42
201.75	3061.71
201.97	3575.75
202.19	3532.75
202.41	3082.19
202.63	3037.14
202.85	3602.38
203.07	3631.05
203.29	3000.27
203.51	2944.98
203.73	3235.79
203.95	4065.22
204.17	2971.60
204.39	3223.50
204.61	3454.92
204.83	3426.25
205.05	3164.11
205.27	2918.36
205.49	4095.94
205.71	3428.30
205.93	2830.29
206.15	2885.59
206.37	3418.06
206.59	3442.64
206.81	2752.47
207.03	2787.29
207.25	3250.13
207.47	3649.48
207.69	2947.03
207.91	3164.11
208.13	3751.88
208.34	3403.72
208.56	2861.01
208.78	3000.27
209.00	3360.72
209.22	3352.52
209.44	2899.92
209.66	2912.21
209.88	3491.79
210.10	3368.91
210.32	2912.21
210.54	3033.04
210.76	3338.19
210.98	3739.59
211.20	2824.15
211.42	3123.15
211.64	3747.78
211.86	3569.61
212.08	3051.47
212.30	3012.56
212.52	3377.10
212.74	3555.27
212.96	3065.81
213.17	2969.55
213.39	3706.82
213.61	3917.76
213.83	2893.78
214.05	2871.25
214.27	3729.35
214.49	3241.93
214.71	2938.84
214.93	3100.62
215.15	3459.02
215.37	3565.51
215.59	2858.96
215.81	2967.51
216.03	3772.36
216.24	3446.73
216.46	2983.89
216.68	3069.91
216.90	3663.82
217.12	3706.82
217.34	2901.97
217.56	3205.07
217.78	3827.65
218.00	3565.51
218.22	3051.47
218.44	3067.86
218.66	3538.89
218.87	3788.74
219.09	3045.33
219.31	2926.55
219.53	3608.52
219.75	3401.68
219.97	2992.08
220.19	3084.24
220.41	3352.52
220.63	3796.93
220.85	3024.85
221.06	2897.88
221.28	3766.21
221.50	3592.14
221.72	2906.07
221.94	2867.16
222.16	3465.16
222.38	3672.01
222.60	2959.31
222.82	3022.80
223.03	3661.77
223.25	3276.75
223.47	2854.87
223.69	3237.84
223.91	3577.80
224.13	3446.73
224.35	2811.86
224.57	3149.78
224.78	3688.39
225.00	3293.13
225.22	3104.72
225.44	2891.73
225.66	3667.91
225.88	3379.15
226.10	3088.34
226.32	2994.13
226.53	3807.17
226.75	3348.43
226.97	3065.81
227.19	2985.94
227.41	3237.84
227.63	3319.76
227.85	2740.18
228.06	3065.81
228.28	3487.69
228.50	3624.90
228.72	2893.78
228.94	2934.74
229.16	3084.24
229.37	3198.93
229.59	2856.92
229.81	3147.73
230.03	3379.15
230.25	3147.73
230.47	2803.67
230.69	2881.49
230.90	3598.28
231.12	3336.14
231.34	3069.91
231.56	3039.19
231.78	3258.32
232.00	3483.59
232.21	3092.43
232.43	3035.09
232.65	3057.62
232.87	3549.13
233.09	2803.67
233.30	2901.97
233.52	3606.47
233.74	3405.77
233.96	2838.48
234.18	3127.25
234.40	3442.64
234.61	4011.97
234.83	2856.92
235.05	2983.89
235.27	4028.35
235.49	3721.16
235.70	2834.39
235.92	3035.09
236.14	3633.10
236.36	4028.35
236.58	2803.67
236.79	3092.43
237.01	3430.35
237.23	3434.44
237.45	3106.77
237.67	3002.32
237.88	3545.03
238.10	3764.17
238.32	2891.73
238.54	2914.26
238.76	3395.53
238.97	3248.08
239.19	2906.07
239.41	2936.79
239.63	3751.88
239.85	3293.13
240.06	3024.85
240.28	2897.88
240.50	3745.73
240.72	3459.02
240.93	2836.44
241.15	3063.76
241.37	3489.74
241.59	3864.52
241.81	2942.93
242.02	3053.52
242.24	3428.30
242.46	3528.65
242.68	2789.33
242.89	2899.92
243.11	3657.67
243.33	3430.35
243.55	2942.93
243.76	2983.89
243.98	3327.95
244.20	3426.25
244.42	3014.61
244.64	2871.25
244.85	3180.50
245.07	3282.89
245.29	2990.03
245.51	3074.00
245.72	3479.50
245.94	3659.72
246.16	2895.83
246.38	2957.27
246.59	3393.48
246.81	3278.80
247.03	2869.20
247.24	2805.72
247.46	3313.61
247.68	3473.36
247.90	2906.07
248.11	2971.60
248.33	3538.89
248.55	3352.52
248.77	2932.69
248.98	3047.38
249.20	3803.08
249.42	3483.59
249.64	2899.92
249.85	2844.63
250.07	3348.43
250.29	3667.91
250.50	2967.51
250.72	2883.54
250.94	3516.36
251.16	3975.11
251.37	2940.88
251.59	3033.04
251.81	3571.66
252.02	3803.08
252.24	2846.68
252.46	3196.88
252.68	3346.38
252.89	3278.80
253.11	2723.80
253.33	3088.34
253.54	3774.41
253.76	3215.31
253.98	2951.12
254.20	2961.36
254.41	3094.48
254.63	3459.02
254.85	2811.86
255.06	3045.33
255.28	3606.47
255.50	3383.24
255.71	2912.21
255.93	2766.81
256.15	3407.82
256.36	3618.76
256.58	2797.53
256.80	2832.34
257.02	3416.01
257.23	3354.57
257.45	2912.21
257.67	3057.62
257.88	3362.76
258.10	3491.79
258.32	2914.26
258.53	3039.19
258.75	3805.13
258.97	3319.76
259.18	2850.77
259.40	2926.55
259.62	3854.28
259.83	3780.55
260.05	3016.66
260.27	4057.03
260.48	3760.07
260.70	3274.70
260.92	2795.48
261.13	3008.47
261.35	3407.82
261.57	3585.99
261.78	2844.63
262.00	2899.92
262.22	3631.05
262.43	3262.41
262.65	2938.84
262.86	2887.64
263.08	3993.54
263.30	3475.40
263.51	2828.24
263.73	2889.68
263.95	3803.08
264.16	3200.98
264.38	2820.05
264.60	2926.55
264.81	3444.68
265.03	3655.62
265.25	3393.48
265.46	2893.78
265.68	3768.26
265.89	3571.66
266.11	2852.82
266.33	2969.55
266.54	3655.62
266.76	3557.32
266.98	2967.51
267.19	3135.44
267.41	3760.07
267.62	3487.69
267.84	2813.91
268.06	2985.94
268.27	3463.12
268.49	3641.29
268.70	3065.81
268.92	2918.36
269.14	3262.41
269.35	3157.97
269.57	3049.43
269.79	3020.75
270.00	3303.37
270.22	3940.29
270.43	2910.16
270.65	2887.64
270.87	3524.55
271.08	3614.66
271.30	3082.19
271.51	2906.07
271.73	3536.84
271.95	3805.13
272.16	2963.41
272.38	3098.58
272.59	3354.57
272.81	3583.95
273.02	2871.25
273.24	3008.47
273.46	3729.35
273.67	3180.50
273.89	2856.92
274.10	2990.03
274.32	3747.78
274.54	3504.07
274.75	3102.67
274.97	3045.33
275.18	3590.09
275.40	3549.13
275.61	2967.51
275.83	3180.50
276.05	3141.58
276.26	3448.78
276.48	3051.47
276.69	3127.25
276.91	3430.35
277.12	3850.18
277.34	3119.06
277.55	3307.47
277.77	3461.07
277.99	3366.86
278.20	3164.11
278.42	3002.32
278.63	3286.99
278.85	3262.41
279.06	3082.19
279.28	3221.45
279.49	3672.01
279.71	3672.01
279.93	3188.69
280.14	3188.69
280.36	3307.47
280.57	3770.31
280.79	3139.54
281.00	3065.81
281.22	3278.80
281.43	3725.26
281.65	2901.97
281.86	2906.07
282.08	3499.98
282.29	3915.72
282.51	3018.71
282.73	2938.84
282.94	3055.57
283.16	3643.34
283.37	3254.22
283.59	3096.53
283.80	3567.56
284.02	3430.35
284.23	3162.06
284.45	3121.10
284.66	3250.13
284.88	3325.90
285.09	3041.23
285.31	3219.41
285.52	3540.94
285.74	3155.92
285.95	3207.12
286.17	3135.44
286.38	3704.78
286.60	3299.28
286.81	3086.29
287.03	3065.81
287.24	3434.44
287.46	3547.08
287.67	3217.36
287.89	3309.52
288.10	3452.88
288.32	3364.81
288.53	3219.41
288.75	3119.06
288.96	3583.95
289.18	3297.23
289.39	2994.13
289.61	3184.59
289.82	3999.68
290.04	3870.66
290.25	3026.90
290.47	3219.41
290.68	3330.00
290.90	3696.58
291.11	2934.74
291.33	3297.23
291.54	3270.61
291.76	3256.27
291.97	3254.22
292.18	3155.92
292.40	3395.53
292.61	3297.23
292.83	3413.96
293.04	3112.91
293.26	3434.44
293.47	3325.90
293.69	3016.66
293.90	2944.98
294.12	3743.69
294.33	3436.49
294.55	3194.83
294.76	3379.15
294.97	3721.16
295.19	3950.53
295.40	3051.47
295.62	3209.17
295.83	3641.29
296.05	3264.46
296.26	3330.00
296.48	3086.29
296.69	3442.64
296.90	3428.30
297.12	3311.57
297.33	3229.65
297.55	3512.27
297.76	3557.32
297.98	3211.22
298.19	3260.37
298.41	3426.25
298.62	3393.48
298.83	3352.52
299.05	3139.54
299.26	3332.05
299.48	3286.99
299.69	3229.65
299.90	3024.85
300.12	3217.36
300.33	3610.57
300.55	3133.39
300.76	3186.64
300.98	3233.74
301.19	3631.05
301.40	3092.43
301.62	3119.06
301.83	3512.27
302.05	3528.65
302.26	3080.14
302.47	3141.58
302.69	3241.93
302.90	3467.21
303.12	2957.27
303.33	3317.71
303.54	3885.00
303.76	3327.95
303.97	3020.75
304.19	3346.38
304.40	3330.00
304.61	3483.59
304.83	3205.07
305.04	3209.17
305.26	3653.58
305.47	3381.20
305.68	3106.77
305.90	2963.41
306.11	3729.35
306.33	3444.68
306.54	2940.88
306.75	3123.15
306.97	3117.01
307.18	3327.95
307.39	3151.82
307.61	3213.26
307.82	3383.24
308.04	3489.74
308.25	2942.93
308.46	3284.94
308.68	3413.96
308.89	3491.79
309.10	3209.17
309.32	3127.25
309.53	3469.26
309.74	3610.57
309.96	3053.52
310.17	3262.41
310.39	3282.89
310.60	3551.18
310.81	3188.69
311.03	2951.12
311.24	3674.06
311.45	3434.44
311.67	3381.20
311.88	3184.59
312.09	3344.33
312.31	3260.37
312.52	2969.55
312.73	3112.91
312.95	3233.74
313.16	3295.18
313.37	3256.27
313.59	3321.81
313.80	3649.48
314.01	3835.85
314.23	3092.43
314.44	3123.15
314.65	3145.68
314.87	3252.17
315.08	3084.24
315.29	3063.76
315.51	3272.65
315.72	3145.68
315.93	3172.30
316.15	3194.83
316.36	3360.72
316.57	3452.88
316.79	3106.77
317.00	2963.41
317.21	3565.51
317.43	3262.41
317.64	3121.10
317.85	3039.19
318.07	3311.57
318.28	3375.05
318.49	3198.93
318.70	3366.86
318.92	3454.92
319.13	3436.49
319.34	3182.54
319.56	3117.01
319.77	3526.60
319.98	3624.90
320.20	3330.00
320.41	3225.55
320.62	3631.05
320.83	3180.50
321.05	3364.81
321.26	3082.19
321.47	3456.97
321.69	3647.43
321.90	2961.36
322.11	3131.34
322.32	3506.12
322.54	3872.71
322.75	3108.82
322.96	4229.06
323.18	3147.73
323.39	3057.62
323.60	2953.17
323.81	3196.88
324.03	3338.19
324.24	3370.96
324.45	3289.04
324.66	3016.66
324.88	3682.25
325.09	3774.41
325.30	3139.54
325.52	3033.04
325.73	3526.60
325.94	3295.18
326.15	2994.13
326.37	2904.02
326.58	3504.07
326.79	3831.75
327.00	2985.94
327.22	3098.58
327.43	3278.80
327.64	3307.47
327.85	3313.61
328.07	3266.51
328.28	3858.37
328.49	3377.10
328.70	3061.71
328.92	3102.67
329.13	3430.35
329.34	3526.60
329.55	3270.61
329.76	3252.17
329.98	3311.57
330.19	3663.82
330.40	3215.31
330.61	3198.93
330.83	3663.82
331.04	3268.56
331.25	3268.56
331.46	3106.77
331.68	3194.83
331.89	3622.86
332.10	3078.10
332.31	2885.59
332.52	3444.68
332.74	3712.97
332.95	2924.50
333.16	3102.67
333.37	3669.96
333.58	3350.48
333.80	3063.76
334.01	2916.31
334.22	3340.24
334.43	3270.61
334.64	3012.56
334.86	3112.91
335.07	3270.61
335.28	3731.40
335.49	2951.12
335.70	3131.34
335.92	3737.54
336.13	3983.30
336.34	3108.82
336.55	3106.77
336.76	3504.07
336.98	3012.56
337.19	3096.53
337.40	3217.36
337.61	4050.88
337.82	3426.25
338.04	3237.84
338.25	2944.98
338.46	3418.06
338.67	3411.92
338.88	3045.33
339.09	2969.55
339.31	3307.47
339.52	3239.89
339.73	2985.94
339.94	3188.69
340.15	3581.90
340.36	3221.45
340.58	3209.17
340.79	3047.38
341.00	3483.59
341.21	3117.01
341.42	3338.19
341.63	3092.43
341.85	3647.43
342.06	3502.03
342.27	3024.85
342.48	3303.37
342.69	3086.29
342.90	3540.94
343.12	3659.72
343.33	2916.31
343.54	3631.05
343.75	3774.41
343.96	3190.74
344.17	2979.79
344.38	3356.62
344.60	3260.37
344.81	3090.38
345.02	3133.39
345.23	3663.82
345.44	3950.53
345.65	3149.78
345.86	3090.38
346.07	3446.73
346.29	3327.95
346.50	3358.67
346.71	3231.69
346.92	3739.59
347.13	3905.48
347.34	3241.93
347.55	2951.12
347.76	3665.86
347.98	3114.96
348.19	3168.21
348.40	3215.31
348.61	3377.10
348.82	3772.36
349.03	3100.62
349.24	2983.89
349.45	3934.15
349.66	3028.95
349.88	3086.29
350.09	3004.37
350.30	3813.32
350.51	3739.59
350.72	3352.52
350.93	3041.23
351.14	3336.14
351.35	3557.32
351.56	3149.78
351.77	3119.06
351.99	3454.92
352.20	3717.06
352.41	3262.41
352.62	2949.08
352.83	3465.16
353.04	3454.92
353.25	3188.69
353.46	3127.25
353.67	3712.97
353.88	3067.86
354.09	2951.12
354.30	3186.64
354.52	3616.71
354.73	3459.02
354.94	3104.72
355.15	3229.65
355.36	3891.14
355.57	3377.10
355.78	3018.71
355.99	3198.93
356.20	3381.20
356.41	3727.30
356.62	3139.54
356.83	3151.82
357.04	3715.02
357.25	3096.53
357.46	3129.30
357.68	2981.84
357.89	3182.54
358.10	3350.48
358.31	3016.66
358.52	3166.16
358.73	3299.28
358.94	3184.59
359.15	3092.43
359.36	3155.92
359.57	3469.26
359.78	3377.10
359.99	3305.42
360.20	2951.12
360.41	3407.82
360.62	3604.42
360.83	3178.45
361.04	3100.62
361.25	3481.55
361.46	3813.32
361.67	3213.26
361.88	3168.21
362.09	3600.33
362.30	3493.83
362.51	2983.89
362.72	3182.54
362.93	3741.64
363.14	3491.79
363.35	3215.31
363.56	2922.45
363.78	3686.34
363.99	3622.86
364.20	3127.25
364.41	3155.92
364.62	3860.42
364.83	3512.27
365.04	3123.15
365.25	3192.78
365.46	3968.96
365.67	3237.84
365.88	3266.51
366.09	3117.01
366.30	3377.10
366.51	3442.64
366.72	3092.43
366.93	3090.38
367.14	3424.20
367.35	3792.84
367.56	3006.42
367.77	3213.26
367.98	3497.93
368.18	3606.47
368.39	3221.45
368.60	3041.23
368.81	3592.14
369.02	3497.93
369.23	3098.58
369.44	2969.55
369.65	3391.44
369.86	3610.57
370.07	3252.17
370.28	3047.38
370.49	3557.32
370.70	3524.55
370.91	3037.14
371.12	2955.22
371.33	3674.06
371.54	3266.51
371.75	3264.46
371.96	2811.86
372.17	3456.97
372.38	3377.10
372.59	3098.58
372.80	3000.27
373.01	3418.06
373.22	3473.36
373.43	3098.58
373.64	3078.10
373.85	3839.94
374.06	3782.60
374.26	3332.05
374.47	3262.41
374.68	3743.69
374.89	3553.23
375.10	3028.95
375.31	3248.08
375.52	3487.69
375.73	3508.17
375.94	2975.70
376.15	3162.06
376.36	3375.05
376.57	3403.72
376.78	3178.45
376.99	3166.16
377.20	3766.21
377.40	3420.11
377.61	3340.24
377.82	3123.15
378.03	3796.93
378.24	3524.55
378.45	3194.83
378.66	3170.26
378.87	3047.38
379.08	3125.20
379.29	3151.82
379.50	3301.33
379.71	3348.43
379.91	3602.38
380.12	3069.91
380.33	3217.36
380.54	3373.00
380.75	3407.82
380.96	3084.24
381.17	3139.54
381.38	3481.55
381.59	3499.98
381.80	3200.98
382.00	3282.89
382.21	3516.36
382.42	3745.73
382.63	3495.88
382.84	3350.48
383.05	3557.32
383.26	3782.60
383.47	3264.46
383.68	3063.76
383.88	3610.57
384.09	3459.02
384.30	3389.39
384.51	3254.22
384.72	3368.91
384.93	3217.36
385.14	3231.69
385.35	3389.39
385.55	3086.29
385.76	3651.53
385.97	3213.26
386.18	2955.22
386.39	3264.46
386.60	3266.51
386.81	3092.43
387.02	3098.58
387.22	3127.25
387.43	3653.58
387.64	3160.02
387.85	3405.77
388.06	3450.83
388.27	4427.71
388.48	7264.15
388.68	10776.41
388.89	13752.11
389.10	14935.84
389.31	14325.54
389.52	11802.44
389.73	10383.20
389.93	9496.43
390.14	8451.97
390.35	7958.41
390.56	7491.47
390.77	6162.34
390.98	4759.48
391.18	4081.60
391.39	3995.59
391.60	3493.83
391.81	3432.40
392.02	3131.34
392.23	3919.81
392.43	3506.12
392.64	3248.08
392.85	3305.42
393.06	3729.35
393.27	3389.39
393.47	3162.06
393.68	3219.41
393.89	3397.58
394.10	3737.54
394.31	3041.23
394.52	3084.24
394.72	3284.94
394.93	3737.54
395.14	2975.70
395.35	3293.13
395.56	3346.38
395.76	3383.24
395.97	3053.52
396.18	3291.09
396.39	3379.15
396.60	4118.47
396.80	3502.03
397.01	3352.52
397.22	3647.43
397.43	3602.38
397.64	3184.59
397.84	3213.26
398.05	3854.28
398.26	3413.96
398.47	3272.65
398.67	3291.09
398.88	3549.13
399.09	3674.06
399.30	3151.82
399.51	3129.30
399.71	3319.76
399.92	3426.25
400.13	3227.60
400.34	3090.38
400.54	3413.96
400.75	3745.73
400.96	3223.50
401.17	3459.02
401.37	3649.48
401.58	3403.72
401.79	3082.19
402.00	3272.65
402.21	3958.72
402.41	3516.36
402.62	3411.92
402.83	3540.94
403.04	3823.56
403.24	4323.26
403.45	3305.42
403.66	3403.72
403.87	3567.56
404.07	3801.03
404.28	3395.53
404.49	3444.68
404.70	3573.71
404.90	3588.04
405.11	3157.97
405.32	3297.23
405.52	3313.61
405.73	3348.43
405.94	2996.18
406.15	3225.55
406.35	3598.28
406.56	3596.23
406.77	3205.07
406.98	3145.68
407.18	3246.03
407.39	3778.50
407.60	3205.07
407.80	3235.79
408.01	3325.90
408.22	3600.33
408.43	3002.32
408.63	3270.61
408.84	3661.77
409.05	3665.86
409.25	3076.05
409.46	3117.01
409.67	3319.76
409.88	3309.52
410.08	3200.98
410.29	3110.86
410.50	3598.28
410.70	3555.27
410.91	3059.67
411.12	3211.22
411.32	3446.73
411.53	3286.99
411.74	3078.10
411.95	3229.65
412.15	3452.88
412.36	3493.83
412.57	3334.09
412.77	3311.57
412.98	3356.62
413.19	3319.76
413.39	3237.84
413.60	3180.50
413.81	3676.10
414.01	3198.93
414.22	3209.17
414.43	3368.91
414.63	3334.09
414.84	3592.14
415.05	3205.07
415.25	2942.93
415.46	3651.53
415.67	3295.18
415.87	3160.02
416.08	3166.16
416.29	3348.43
416.49	3561.42
416.70	3229.65
416.91	3090.38
417.11	3319.76
417.32	3708.87
417.53	3254.22
417.73	3243.98
417.94	3401.68
418.15	3504.07
418.35	3291.09
418.56	3198.93
418.77	3989.44
418.97	3495.88
419.18	3254.22
419.38	2844.63
419.59	3436.49
419.80	3708.87
420.00	3063.76
420.21	3205.07
420.42	3737.54
420.62	3538.89
420.83	3088.34
421.04	3106.77
421.24	3391.44
421.45	3606.47
421.65	3180.50
421.86	3166.16
422.07	3631.05
422.27	3575.75
422.48	3047.38
422.69	3004.37
422.89	3471.31
423.10	3350.48
423.30	3110.86
423.51	3196.88
423.72	3626.95
423.92	3573.71
424.13	3084.24
424.33	3229.65
424.54	3667.91
424.75	3520.46
424.95	3403.72
425.16	3139.54
425.36	3364.81
425.57	3643.34
425.78	3274.70
425.98	3233.74
426.19	3317.71
426.39	3233.74
426.60	3319.76
426.81	3231.69
427.01	3512.27
427.22	3207.12
427.42	3059.67
427.63	3143.63
427.83	3633.10
428.04	3815.37
428.25	3229.65
428.45	3278.80
428.66	3682.25
428.86	3373.00
429.07	3246.03
429.28	3225.55
429.48	3467.21
429.69	3221.45
429.89	3315.66
430.10	3082.19
430.30	3518.41
430.51	3678.15
430.71	3135.44
430.92	3313.61
431.13	3262.41
431.33	3540.94
431.54	3319.76
431.74	3368.91
431.95	3977.16
432.15	3237.84
432.36	3172.30
432.56	3295.18
432.77	3805.13
432.98	3831.75
433.18	3147.73
433.39	3098.58
433.59	3411.92
433.80	3999.68
434.00	3223.50
434.21	3180.50
434.41	3262.41
434.62	4024.26
434.82	3086.29
435.03	3074.00
435.23	3528.65
435.44	3196.88
435.64	3119.06
435.85	3211.22
436.06	3624.90
436.26	3721.16
436.47	3125.20
436.67	3078.10
436.88	3375.05
437.08	3665.86
437.29	3278.80
437.49	3293.13
437.70	3755.97
437.90	3485.64
438.11	3264.46
438.31	3254.22
438.52	3622.86
438.72	3661.77
438.93	3512.27
439.13	3266.51
439.34	3575.75
439.54	3368.91
439.75	3266.51
439.95	3293.13
440.16	3258.32
440.36	3422.16
440.57	3188.69
440.77	3225.55
440.98	3360.72
441.18	3532.75
441.39	3112.91
441.59	2985.94
441.80	3844.04
442.00	3407.82
442.21	3213.26
442.41	3000.27
442.62	3729.35
442.82	3270.61
443.02	3149.78
443.23	3205.07
443.43	3315.66
443.64	3672.01
443.84	2975.70
444.05	3229.65
444.25	3387.34
444.46	3434.44
444.66	3092.43
444.87	3434.44
445.07	3135.44
445.28	3358.67
445.48	3436.49
445.69	3237.84
445.89	3999.68
446.09	3354.57
446.30	3364.81
446.50	3592.14
446.71	5070.77
446.91	6137.76
447.12	6717.34
447.32	7239.57
447.53	7378.83
447.73	6178.72
447.93	5373.87
448.14	5226.42
448.34	5388.21
448.55	4517.82
448.75	4302.78
448.96	4167.62
449.16	4077.51
449.36	4009.92
449.57	3416.01
449.77	3229.65
449.98	3297.23
450.18	3534.79
450.39	3033.04
450.59	3407.82
450.79	3426.25
451.00	3235.79
451.20	3385.29
451.41	3119.06
451.61	3510.22
451.81	3385.29
452.02	3067.86
452.22	3155.92
452.43	3438.54
