SpectraSuite Data File
++++++++++++++++++++++++++++++++++++
Date: Fri May 06 09:28:46 CEST 2016
User: root
Dark Spectrum Present: No
Reference Spectrum Present: No
Number of Sampled Component Spectra: 1
Spectrometers: USB4C02835
Integration Time (usec): 100000 (USB4C02835)
Spectra Averaged: 1 (USB4C02835)
Boxcar Smoothing: 0 (USB4C02835)
Correct for Electrical Dark: No (USB4C02835)
Strobe/Lamp Enabled: No (USB4C02835)
Correct for Detector Non-linearity: No (USB4C02835)
Correct for Stray Light: No (USB4C02835)
Number of Pixels in Processed Spectrum: 3648
>>>>>Begin Processed Spectral Data<<<<<
177.47	2396.12
177.69	2396.12
177.91	2396.12
178.13	2324.44
178.36	2277.34
178.58	3143.63
178.80	3274.70
179.02	3106.77
179.24	3229.65
179.46	2848.72
179.68	2940.88
179.90	3428.30
180.13	3448.78
180.35	2772.95
180.57	2856.92
180.79	3616.71
181.01	3375.05
181.23	3012.56
181.45	3125.20
181.67	3585.99
181.90	3559.37
182.12	3020.75
182.34	2846.68
182.56	3575.75
182.78	3629.00
183.00	3000.27
183.22	2977.75
183.44	3151.82
183.66	4120.51
183.89	3090.38
184.11	2969.55
184.33	3659.72
184.55	3657.67
184.77	2938.84
184.99	2983.89
185.21	3340.24
185.43	4016.07
185.65	3030.99
185.87	2963.41
186.10	3962.82
186.32	4026.31
186.54	3108.82
186.76	3123.15
186.98	3639.24
187.20	3389.39
187.42	2987.99
187.64	2910.16
187.86	3680.20
188.08	3637.19
188.30	2901.97
188.52	2967.51
188.75	3782.60
188.97	3702.73
189.19	2887.64
189.41	2854.87
189.63	3594.19
189.85	3450.83
190.07	2848.72
190.29	2842.58
190.51	3575.75
190.73	3117.01
190.95	3080.14
191.17	3039.19
191.39	3102.67
191.61	3426.25
191.84	2975.70
192.06	3078.10
192.28	3147.73
192.50	4220.86
192.72	3051.47
192.94	3092.43
193.16	3688.39
193.38	3528.65
193.60	2918.36
193.82	3082.19
194.04	3694.54
194.26	3618.76
194.48	3006.42
194.70	2983.89
194.92	3319.76
195.14	3590.09
195.36	2920.40
195.58	3043.28
195.80	3413.96
196.02	3297.23
196.24	2918.36
196.46	3041.23
196.69	3399.63
196.91	4003.78
197.13	2949.08
197.35	3102.67
197.57	3678.15
197.79	3575.75
198.01	3074.00
198.23	3022.80
198.45	3575.75
198.67	3141.58
198.89	2764.76
199.11	2969.55
199.33	3278.80
199.55	3028.95
199.77	2885.59
199.99	3155.92
200.21	3330.00
200.43	3676.10
200.65	2842.58
200.87	2799.57
201.09	3450.83
201.31	3434.44
201.53	3024.85
201.75	3016.66
201.97	3502.03
202.19	3407.82
202.41	3061.71
202.63	3067.86
202.85	3618.76
203.07	3514.31
203.29	2994.13
203.51	2879.44
203.73	3272.65
203.95	4018.11
204.17	2947.03
204.39	3207.12
204.61	3479.50
204.83	3373.00
205.05	3076.05
205.27	2992.08
205.49	3911.62
205.71	3436.49
205.93	2787.29
206.15	2885.59
206.37	3493.83
206.59	3475.40
206.81	2815.96
207.03	2881.49
207.25	3254.22
207.47	3592.14
207.69	2963.41
207.91	3131.34
208.13	3874.76
208.34	3366.86
208.56	2936.79
208.78	2967.51
209.00	3413.96
209.22	3311.57
209.44	2924.50
209.66	2885.59
209.88	3514.31
210.10	3375.05
210.32	2953.17
210.54	3114.96
210.76	3385.29
210.98	3708.87
211.20	2854.87
211.42	3067.86
211.64	3747.78
211.86	3594.19
212.08	3030.99
212.30	3002.32
212.52	3424.20
212.74	3575.75
212.96	3090.38
213.17	3028.95
213.39	3577.80
213.61	3841.99
213.83	2893.78
214.05	2834.39
214.27	3692.49
214.49	3213.26
214.71	2844.63
214.93	3100.62
215.15	3428.30
215.37	3618.76
215.59	2867.16
215.81	3041.23
216.03	3739.59
216.24	3473.36
216.46	2938.84
216.68	3000.27
216.90	3682.25
217.12	3708.87
217.34	2953.17
217.56	3182.54
217.78	3768.26
218.00	3520.46
218.22	3082.19
218.44	3039.19
218.66	3522.51
218.87	3925.96
219.09	2959.31
219.31	2973.65
219.53	3397.58
219.75	3385.29
219.97	2975.70
220.19	3037.14
220.41	3438.54
220.63	3753.93
220.85	2996.18
221.06	3037.14
221.28	3739.59
221.50	3633.10
221.72	2887.64
221.94	2813.91
222.16	3491.79
222.38	3708.87
222.60	2947.03
222.82	3008.47
223.03	3635.14
223.25	3184.59
223.47	2830.29
223.69	3207.12
223.91	3577.80
224.13	3506.12
224.35	2861.01
224.57	3180.50
224.78	3647.43
225.00	3225.55
225.22	3086.29
225.44	2904.02
225.66	3588.04
225.88	3467.21
226.10	3147.73
226.32	2908.12
226.53	3868.61
226.75	3317.71
226.97	3157.97
227.19	3049.43
227.41	3307.47
227.63	3336.14
227.85	2799.57
228.06	3039.19
228.28	3450.83
228.50	3620.81
228.72	2828.24
228.94	2963.41
229.16	3065.81
229.37	3198.93
229.59	2881.49
229.81	3299.28
230.03	3258.32
230.25	3133.39
230.47	2854.87
230.69	2994.13
230.90	3735.50
231.12	3260.37
231.34	3067.86
231.56	3053.52
231.78	3198.93
232.00	3526.60
232.21	3098.58
232.43	2936.79
232.65	3041.23
232.87	3618.76
233.09	2846.68
233.30	2842.58
233.52	3639.24
233.74	3459.02
233.96	2885.59
234.18	3174.35
234.40	3469.26
234.61	4016.07
234.83	2879.44
235.05	2928.60
235.27	4011.97
235.49	3631.05
235.70	2772.95
235.92	3037.14
236.14	3573.71
236.36	4040.64
236.58	2877.40
236.79	3086.29
237.01	3387.34
237.23	3395.53
237.45	3172.30
237.67	2951.12
237.88	3551.18
238.10	3835.85
238.32	2854.87
238.54	2926.55
238.76	3491.79
238.97	3209.17
239.19	2848.72
239.41	3016.66
239.63	3696.58
239.85	3399.63
240.06	2969.55
240.28	2934.74
240.50	3592.14
240.72	3373.00
240.93	2836.44
241.15	3018.71
241.37	3405.77
241.59	3846.09
241.81	3026.90
242.02	3000.27
242.24	3524.55
242.46	3643.34
242.68	2781.14
242.89	2883.54
243.11	3620.81
243.33	3340.24
243.55	2953.17
243.76	3059.67
243.98	3299.28
244.20	3475.40
244.42	2957.27
244.64	2879.44
244.85	3123.15
245.07	3258.32
245.29	3014.61
245.51	3006.42
245.72	3508.17
245.94	3710.92
246.16	2924.50
246.38	2975.70
246.59	3246.03
246.81	3336.14
247.03	2852.82
247.24	2861.01
247.46	3383.24
247.68	3487.69
247.90	2787.29
248.11	3020.75
248.33	3565.51
248.55	3483.59
248.77	2971.60
248.98	3080.14
249.20	3753.93
249.42	3518.41
249.64	2928.60
249.85	2922.45
250.07	3387.34
250.29	3614.66
250.50	3004.37
250.72	2947.03
250.94	3565.51
251.16	3923.91
251.37	2924.50
251.59	3041.23
251.81	3553.23
252.02	3815.37
252.24	2873.30
252.46	3106.77
252.68	3256.27
252.89	3254.22
253.11	2775.00
253.33	3141.58
253.54	3749.83
253.76	3229.65
253.98	2994.13
254.20	3033.04
254.41	3250.13
254.63	3364.81
254.85	2820.05
255.06	3074.00
255.28	3522.51
255.50	3344.33
255.71	3030.99
255.93	2717.65
256.15	3438.54
256.36	3532.75
256.58	2836.44
256.80	2901.97
257.02	3403.72
257.23	3370.96
257.45	3006.42
257.67	3135.44
257.88	3346.38
258.10	3553.23
258.32	2979.79
258.53	3082.19
258.75	3798.98
258.97	3354.57
259.18	2906.07
259.40	2926.55
259.62	3827.65
259.83	3768.26
260.05	2996.18
260.27	3936.20
260.48	3631.05
260.70	3231.69
260.92	2781.14
261.13	3033.04
261.35	3471.31
261.57	3448.78
261.78	2875.35
262.00	2832.34
262.22	3553.23
262.43	3299.28
262.65	2922.45
262.86	2928.60
263.08	4024.26
263.30	3528.65
263.51	2844.63
263.73	2969.55
263.95	3915.72
264.16	3264.46
264.38	2842.58
264.60	2987.99
264.81	3499.98
265.03	3751.88
265.25	3450.83
265.46	2955.22
265.68	3696.58
265.89	3641.29
266.11	2799.57
266.33	2994.13
266.54	3674.06
266.76	3481.55
266.98	3037.14
267.19	3229.65
267.41	3631.05
267.62	3426.25
267.84	2762.71
268.06	3127.25
268.27	3542.99
268.49	3704.78
268.70	2944.98
268.92	2973.65
269.14	3368.91
269.35	3155.92
269.57	3071.95
269.79	2977.75
270.00	3299.28
270.22	3801.03
270.43	2799.57
270.65	2834.39
270.87	3524.55
271.08	3602.38
271.30	3106.77
271.51	2959.31
271.73	3598.28
271.95	3819.46
272.16	2869.20
272.38	3160.02
272.59	3409.87
272.81	3567.56
273.02	2897.88
273.24	3061.71
273.46	3684.30
273.67	3143.63
273.89	2848.72
274.10	2979.79
274.32	3706.82
274.54	3565.51
274.75	3014.61
274.97	3043.28
275.18	3596.23
275.40	3518.41
275.61	2932.69
275.83	3196.88
276.05	3143.63
276.26	3448.78
276.48	3022.80
276.69	3147.73
276.91	3364.81
277.12	3737.54
277.34	3067.86
277.55	3274.70
277.77	3461.07
277.99	3327.95
278.20	3123.15
278.42	3020.75
278.63	3311.57
278.85	3327.95
279.06	3135.44
279.28	3194.83
279.49	3680.20
279.71	3577.80
279.93	3205.07
280.14	3082.19
280.36	3289.04
280.57	3708.87
280.79	3256.27
281.00	2992.08
281.22	3264.46
281.43	3663.82
281.65	2949.08
281.86	3020.75
282.08	3635.14
282.29	3878.85
282.51	2940.88
282.73	2969.55
282.94	3102.67
283.16	3641.29
283.37	3135.44
283.59	3164.11
283.80	3522.51
284.02	3444.68
284.23	3168.21
284.45	3094.48
284.66	3162.06
284.88	3291.09
285.09	2979.79
285.31	3180.50
285.52	3495.88
285.74	3123.15
285.95	3237.84
286.17	3160.02
286.38	3678.15
286.60	3305.42
286.81	3076.05
287.03	3057.62
287.24	3497.93
287.46	3557.32
287.67	3270.61
287.89	3278.80
288.10	3459.02
288.32	3512.27
288.53	3254.22
288.75	3188.69
288.96	3639.24
289.18	3342.28
289.39	3041.23
289.61	3192.78
289.82	3964.87
290.04	3805.13
290.25	2959.31
290.47	3239.89
290.68	3459.02
290.90	3727.30
291.11	2854.87
291.33	3307.47
291.54	3307.47
291.76	3286.99
291.97	3172.30
292.18	3162.06
292.40	3450.83
292.61	3264.46
292.83	3418.06
293.04	3119.06
293.26	3469.26
293.47	3383.24
293.69	3074.00
293.90	3035.09
294.12	3729.35
294.33	3387.34
294.55	3127.25
294.76	3350.48
294.97	3737.54
295.19	3846.09
295.40	3162.06
295.62	3137.49
295.83	3622.86
296.05	3297.23
296.26	3393.48
296.48	3108.82
296.69	3387.34
296.90	3434.44
297.12	3200.98
297.33	3200.98
297.55	3588.04
297.76	3583.95
297.98	3205.07
298.19	3295.18
298.41	3452.88
298.62	3241.93
298.83	3227.60
299.05	3149.78
299.26	3317.71
299.48	3233.74
299.69	3149.78
299.90	3082.19
300.12	3246.03
300.33	3604.42
300.55	3182.54
300.76	3149.78
300.98	3286.99
301.19	3614.66
301.40	3114.96
301.62	3112.91
301.83	3569.61
302.05	3514.31
302.26	3078.10
302.47	3239.89
302.69	3125.20
302.90	3397.58
303.12	2906.07
303.33	3252.17
303.54	3968.96
303.76	3356.62
303.97	3063.76
304.19	3352.52
304.40	3155.92
304.61	3577.80
304.83	3127.25
305.04	3157.97
305.26	3653.58
305.47	3313.61
305.68	3088.34
305.90	3088.34
306.11	3669.96
306.33	3340.24
306.54	2981.84
306.75	3129.30
306.97	3145.68
307.18	3254.22
307.39	3012.56
307.61	3217.36
307.82	3526.60
308.04	3557.32
308.25	2983.89
308.46	3205.07
308.68	3401.68
308.89	3383.24
309.10	3233.74
309.32	3172.30
309.53	3446.73
309.74	3508.17
309.96	3012.56
310.17	3250.13
310.39	3377.10
310.60	3606.47
310.81	3172.30
311.03	2994.13
311.24	3624.90
311.45	3491.79
311.67	3403.72
311.88	3239.89
312.09	3221.45
312.31	3289.04
312.52	3047.38
312.73	3045.33
312.95	3223.50
313.16	3293.13
313.37	3223.50
313.59	3260.37
313.80	3715.02
314.01	3778.50
314.23	3157.97
314.44	2985.94
314.65	3157.97
314.87	3346.38
315.08	3051.47
315.29	3112.91
315.51	3317.71
315.72	3205.07
315.93	3164.11
316.15	3188.69
316.36	3428.30
316.57	3459.02
316.79	3069.91
317.00	3026.90
317.21	3606.47
317.43	3260.37
317.64	3164.11
317.85	3041.23
318.07	3323.85
318.28	3395.53
318.49	3151.82
318.70	3309.52
318.92	3497.93
319.13	3397.58
319.34	3225.55
319.56	3119.06
319.77	3545.03
319.98	3534.79
320.20	3366.86
320.41	3327.95
320.62	3540.94
320.83	3233.74
321.05	3280.85
321.26	3147.73
321.47	3430.35
321.69	3766.21
321.90	2961.36
322.11	2992.08
322.32	3569.61
322.54	3819.46
322.75	3065.81
322.96	4186.05
323.18	3137.49
323.39	3098.58
323.60	2985.94
323.81	3291.09
324.03	3313.61
324.24	3397.58
324.45	3264.46
324.66	3010.51
324.88	3729.35
325.09	3805.13
325.30	3074.00
325.52	3026.90
325.73	3516.36
325.94	3313.61
326.15	2955.22
326.37	2926.55
326.58	3626.95
326.79	3737.54
327.00	2979.79
327.22	3082.19
327.43	3452.88
327.64	3192.78
327.85	3207.12
328.07	3170.26
328.28	3794.89
328.49	3325.90
328.70	3104.72
328.92	3166.16
329.13	3434.44
329.34	3493.83
329.55	3336.14
329.76	3276.75
329.98	3358.67
330.19	3700.68
330.40	3176.40
330.61	3301.33
330.83	3639.24
331.04	3196.88
331.25	3184.59
331.46	3205.07
331.68	3168.21
331.89	3723.21
332.10	3139.54
332.31	2977.75
332.52	3487.69
332.74	3715.02
332.95	2975.70
333.16	3129.30
333.37	3594.19
333.58	3237.84
333.80	3100.62
334.01	2818.00
334.22	3407.82
334.43	3375.05
334.64	2975.70
334.86	3033.04
335.07	3303.37
335.28	3745.73
335.49	3024.85
335.70	3162.06
335.92	3760.07
336.13	3930.05
336.34	3104.72
336.55	3082.19
336.76	3499.98
336.98	3028.95
337.19	3090.38
337.40	3192.78
337.61	3999.68
337.82	3450.83
338.04	3188.69
338.25	3035.09
338.46	3368.91
338.67	3358.67
338.88	3041.23
339.09	3022.80
339.31	3364.81
339.52	3205.07
339.73	3043.28
339.94	3098.58
340.15	3542.99
340.36	3416.01
340.58	3151.82
340.79	2992.08
341.00	3569.61
341.21	3207.12
341.42	3336.14
341.63	3117.01
341.85	3663.82
342.06	3487.69
342.27	3053.52
342.48	3336.14
342.69	3190.74
342.90	3624.90
343.12	3461.07
343.33	3047.38
343.54	3606.47
343.75	3753.93
343.96	3313.61
344.17	3020.75
344.38	3413.96
344.60	3196.88
344.81	3055.57
345.02	3098.58
345.23	3747.78
345.44	3983.30
345.65	3200.98
345.86	3207.12
346.07	3626.95
346.29	3295.18
346.50	3319.76
346.71	3229.65
346.92	3801.03
347.13	3878.85
347.34	3211.22
347.55	2983.89
347.76	3467.21
347.98	3074.00
348.19	3121.10
348.40	3327.95
348.61	3346.38
348.82	3784.65
349.03	3096.53
349.24	3010.51
349.45	3874.76
349.66	3026.90
349.88	3057.62
350.09	2967.51
350.30	3723.21
350.51	3708.87
350.72	3317.71
350.93	3080.14
351.14	3360.72
351.35	3461.07
351.56	3106.77
351.77	3155.92
351.99	3565.51
352.20	3758.02
352.41	3260.37
352.62	2940.88
352.83	3450.83
353.04	3532.75
353.25	3065.81
353.46	3149.78
353.67	3731.40
353.88	3000.27
354.09	3008.47
354.30	3172.30
354.52	3598.28
354.73	3403.72
354.94	3065.81
355.15	3227.60
355.36	3876.80
355.57	3297.23
355.78	2963.41
355.99	3106.77
356.20	3272.65
356.41	3794.89
356.62	3149.78
356.83	3106.77
357.04	3698.63
357.25	3110.86
357.46	3096.53
357.68	3051.47
357.89	3237.84
358.10	3479.50
358.31	3131.34
358.52	3153.87
358.73	3221.45
358.94	3213.26
359.15	3082.19
359.36	3063.76
359.57	3467.21
359.78	3436.49
359.99	3332.05
360.20	3041.23
360.41	3364.81
360.62	3545.03
360.83	3248.08
361.04	3164.11
361.25	3542.99
361.46	3764.17
361.67	3278.80
361.88	3098.58
362.09	3712.97
362.30	3567.56
362.51	3102.67
362.72	3186.64
362.93	3614.66
363.14	3508.17
363.35	3221.45
363.56	3041.23
363.78	3692.49
363.99	3565.51
364.20	3125.20
364.41	3164.11
364.62	3903.43
364.83	3469.26
365.04	3094.48
365.25	3196.88
365.46	3989.44
365.67	3291.09
365.88	3330.00
366.09	3082.19
366.30	3342.28
366.51	3534.79
366.72	3078.10
366.93	3084.24
367.14	3416.01
367.35	3702.73
367.56	3043.28
367.77	3215.31
367.98	3448.78
368.18	3473.36
368.39	3205.07
368.60	3080.14
368.81	3522.51
369.02	3497.93
369.23	3090.38
369.44	2926.55
369.65	3516.36
369.86	3618.76
370.07	3155.92
370.28	3035.09
370.49	3524.55
370.70	3403.72
370.91	2971.60
371.12	3018.71
371.33	3606.47
371.54	3256.27
371.75	3164.11
371.96	2772.95
372.17	3483.59
372.38	3411.92
372.59	3168.21
372.80	3059.67
373.01	3332.05
373.22	3454.92
373.43	3061.71
373.64	2994.13
373.85	3708.87
374.06	3866.56
374.26	3289.04
374.47	3291.09
374.68	3692.49
374.89	3559.37
375.10	3080.14
375.31	3157.97
375.52	3444.68
375.73	3450.83
375.94	2936.79
376.15	3174.35
376.36	3340.24
376.57	3313.61
376.78	3155.92
376.99	3141.58
377.20	3682.25
377.40	3350.48
377.61	3399.63
377.82	3110.86
378.03	3801.03
378.24	3614.66
378.45	3246.03
378.66	3200.98
378.87	3106.77
379.08	3043.28
379.29	3110.86
379.50	3254.22
379.71	3430.35
379.91	3577.80
380.12	3059.67
380.33	3180.50
380.54	3401.68
380.75	3373.00
380.96	3170.26
381.17	3096.53
381.38	3303.37
381.59	3461.07
381.80	3166.16
382.00	3311.57
382.21	3483.59
382.42	3770.31
382.63	3559.37
382.84	3305.42
383.05	3712.97
383.26	3774.41
383.47	3139.54
383.68	3141.58
383.88	3612.62
384.09	3420.11
384.30	3393.48
384.51	3196.88
384.72	3405.77
384.93	3166.16
385.14	3207.12
385.35	3389.39
385.55	3119.06
385.76	3749.83
385.97	3145.68
386.18	2961.36
386.39	3237.84
386.60	3303.37
386.81	3049.43
387.02	3049.43
387.22	3260.37
387.43	3598.28
387.64	3229.65
387.85	3342.28
388.06	3370.96
388.27	4341.69
388.48	7159.70
388.68	10870.62
388.89	13711.15
389.10	14788.38
389.31	14473.00
389.52	11605.84
389.73	10348.39
389.93	9322.35
390.14	8636.28
390.35	7972.74
390.56	7425.93
390.77	6227.87
390.98	4640.70
391.18	4138.94
391.39	3966.92
391.60	3465.16
391.81	3405.77
392.02	3237.84
392.23	4022.21
392.43	3418.06
392.64	3239.89
392.85	3246.03
393.06	3790.79
393.27	3389.39
393.47	3133.39
393.68	3200.98
393.89	3325.90
394.10	3706.82
394.31	3082.19
394.52	3084.24
394.72	3293.13
394.93	3700.68
395.14	2994.13
395.35	3237.84
395.56	3327.95
395.76	3430.35
395.97	3119.06
396.18	3231.69
396.39	3350.48
396.60	3966.92
396.80	3526.60
397.01	3409.87
397.22	3635.14
397.43	3704.78
397.64	3110.86
397.84	3135.44
398.05	3876.80
398.26	3330.00
398.47	3303.37
398.67	3368.91
398.88	3481.55
399.09	3682.25
399.30	3094.48
399.51	3104.72
399.71	3303.37
399.92	3409.87
400.13	3262.41
400.34	3160.02
400.54	3450.83
400.75	3893.19
400.96	3205.07
401.17	3542.99
401.37	3577.80
401.58	3536.84
401.79	3057.62
402.00	3303.37
402.21	3848.13
402.41	3545.03
402.62	3377.10
402.83	3497.93
403.04	3844.04
403.24	4280.25
403.45	3205.07
403.66	3430.35
403.87	3600.33
404.07	3774.41
404.28	3461.07
404.49	3520.46
404.70	3542.99
404.90	3635.14
405.11	3108.82
405.32	3180.50
405.52	3342.28
405.73	3231.69
405.94	3033.04
406.15	3145.68
406.35	3549.13
406.56	3655.62
406.77	3225.55
406.98	3114.96
407.18	3256.27
407.39	3837.89
407.60	3172.30
407.80	3289.04
408.01	3280.85
408.22	3542.99
408.43	3045.33
408.63	3182.54
408.84	3633.10
409.05	3633.10
409.25	3041.23
409.46	3233.74
409.67	3446.73
409.88	3215.31
410.08	3157.97
410.29	3067.86
410.50	3674.06
410.70	3532.75
410.91	2996.18
411.12	3172.30
411.32	3459.02
411.53	3157.97
411.74	3180.50
411.95	3284.94
412.15	3409.87
412.36	3631.05
412.57	3278.80
412.77	3311.57
412.98	3403.72
413.19	3270.61
413.39	3246.03
413.60	3123.15
413.81	3739.59
414.01	3166.16
414.22	3117.01
414.43	3350.48
414.63	3295.18
414.84	3604.42
415.05	3252.17
415.25	3030.99
415.46	3571.66
415.67	3350.48
415.87	3196.88
416.08	3147.73
416.29	3356.62
416.49	3588.04
416.70	3248.08
416.91	3194.83
417.11	3426.25
417.32	3678.15
417.53	3276.75
417.73	3215.31
417.94	3405.77
418.15	3547.08
418.35	3188.69
418.56	3168.21
418.77	4003.78
418.97	3461.07
419.18	3258.32
419.38	2832.34
419.59	3467.21
419.80	3817.41
420.00	3119.06
420.21	3141.58
420.42	3717.06
420.62	3479.50
420.83	3143.63
421.04	3106.77
421.24	3465.16
421.45	3583.95
421.65	3205.07
421.86	3270.61
422.07	3559.37
422.27	3495.88
422.48	3112.91
422.69	3016.66
422.89	3485.64
423.10	3332.05
423.30	3098.58
423.51	3196.88
423.72	3526.60
423.92	3567.56
424.13	3069.91
424.33	3323.85
424.54	3633.10
424.75	3524.55
424.95	3465.16
425.16	3117.01
425.36	3444.68
425.57	3665.86
425.78	3336.14
425.98	3252.17
426.19	3360.72
426.39	3291.09
426.60	3250.13
426.81	3278.80
427.01	3506.12
427.22	3258.32
427.42	2977.75
427.63	3141.58
427.83	3727.30
428.04	3895.24
428.25	3172.30
428.45	3217.36
428.66	3700.68
428.86	3325.90
429.07	3219.41
429.28	3102.67
429.48	3442.64
429.69	3241.93
429.89	3221.45
430.10	3094.48
430.30	3663.82
430.51	3598.28
430.71	3078.10
430.92	3286.99
431.13	3334.09
431.33	3608.52
431.54	3205.07
431.74	3442.64
431.95	3993.54
432.15	3260.37
432.36	3137.49
432.56	3217.36
432.77	3917.76
432.98	3827.65
433.18	3297.23
433.39	3086.29
433.59	3391.44
433.80	3897.28
434.00	3295.18
434.21	3239.89
434.41	3299.28
434.62	3942.34
434.82	3051.47
435.03	3139.54
435.23	3524.55
435.44	3094.48
435.64	3086.29
435.85	3180.50
436.06	3540.94
436.26	3698.63
436.47	3172.30
436.67	3033.04
436.88	3237.84
437.08	3686.34
437.29	3213.26
437.49	3344.33
437.70	3684.30
437.90	3434.44
438.11	3370.96
438.31	3229.65
438.52	3762.12
438.72	3614.66
438.93	3510.22
439.13	3303.37
439.34	3643.34
439.54	3340.24
439.75	3264.46
439.95	3131.34
440.16	3223.50
440.36	3487.69
440.57	3200.98
440.77	3143.63
440.98	3411.92
441.18	3499.98
441.39	3063.76
441.59	3020.75
441.80	3885.00
442.00	3370.96
442.21	3280.85
442.41	3039.19
442.62	3702.73
442.82	3284.94
443.02	3082.19
443.23	3231.69
443.43	3299.28
443.64	3852.23
443.84	3033.04
444.05	3246.03
444.25	3448.78
444.46	3430.35
444.66	3186.64
444.87	3295.18
445.07	3071.95
445.28	3358.67
445.48	3303.37
445.69	3266.51
445.89	4034.50
446.09	3330.00
446.30	3456.97
446.50	3530.70
446.71	5058.48
446.91	6254.50
447.12	6946.71
447.32	7225.23
447.53	7427.98
447.73	6135.71
447.93	5439.40
448.14	5158.83
448.34	5515.18
448.55	4456.38
448.75	4462.52
448.96	4184.00
449.16	4212.67
449.36	4057.03
449.57	3354.57
449.77	3274.70
449.98	3354.57
450.18	3536.84
450.39	3139.54
450.59	3387.34
450.79	3475.40
451.00	3248.08
451.20	3295.18
451.41	3084.24
451.61	3545.03
451.81	3403.72
452.02	3084.24
452.22	3143.63
452.43	3397.58
