SpectraSuite Data File
++++++++++++++++++++++++++++++++++++
Date: Fri May 06 09:28:28 CEST 2016
User: root
Dark Spectrum Present: No
Reference Spectrum Present: No
Number of Sampled Component Spectra: 1
Spectrometers: USB4C02835
Integration Time (usec): 100000 (USB4C02835)
Spectra Averaged: 1 (USB4C02835)
Boxcar Smoothing: 0 (USB4C02835)
Correct for Electrical Dark: No (USB4C02835)
Strobe/Lamp Enabled: No (USB4C02835)
Correct for Detector Non-linearity: No (USB4C02835)
Correct for Stray Light: No (USB4C02835)
Number of Pixels in Processed Spectrum: 3648
>>>>>Begin Processed Spectral Data<<<<<
177.47	2269.15
177.69	2269.15
177.91	2269.15
178.13	2297.82
178.36	2299.87
178.58	3094.48
178.80	3239.89
179.02	3239.89
179.24	3168.21
179.46	2871.25
179.68	2983.89
179.90	3424.20
180.13	3459.02
180.35	2731.99
180.57	2848.72
180.79	3600.33
181.01	3401.68
181.23	3008.47
181.45	3106.77
181.67	3588.04
181.90	3614.66
182.12	2971.60
182.34	2738.13
182.56	3547.08
182.78	3555.27
183.00	2875.35
183.22	2969.55
183.44	3076.05
183.66	4214.72
183.89	3074.00
184.11	3028.95
184.33	3631.05
184.55	3663.82
184.77	2969.55
184.99	2983.89
185.21	3495.88
185.43	4009.92
185.65	2934.74
185.87	2967.51
186.10	3887.04
186.32	3934.15
186.54	3078.10
186.76	3065.81
186.98	3622.86
187.20	3286.99
187.42	3000.27
187.64	2867.16
187.86	3495.88
188.08	3715.02
188.30	2906.07
188.52	3010.51
188.75	3760.07
188.97	3784.65
189.19	3010.51
189.41	2910.16
189.63	3518.41
189.85	3319.76
190.07	2826.20
190.29	2758.61
190.51	3610.57
190.73	3184.59
190.95	3225.55
191.17	3020.75
191.39	3043.28
191.61	3373.00
191.84	3022.80
192.06	3053.52
192.28	3143.63
192.50	4194.24
192.72	3190.74
192.94	3104.72
193.16	3710.92
193.38	3530.70
193.60	2875.35
193.82	3137.49
194.04	3733.45
194.26	3536.84
194.48	2961.36
194.70	2987.99
194.92	3393.48
195.14	3639.24
195.36	2951.12
195.58	3078.10
195.80	3381.20
196.02	3248.08
196.24	2977.75
196.46	2981.84
196.69	3278.80
196.91	4100.03
197.13	3106.77
197.35	2994.13
197.57	3735.50
197.79	3647.43
198.01	3053.52
198.23	3024.85
198.45	3508.17
198.67	3180.50
198.89	2781.14
199.11	3117.01
199.33	3307.47
199.55	2967.51
199.77	2877.40
199.99	3086.29
200.21	3393.48
200.43	3581.90
200.65	2959.31
200.87	2758.61
201.09	3430.35
201.31	3366.86
201.53	2969.55
201.75	3067.86
201.97	3483.59
202.19	3473.36
202.41	3057.62
202.63	3008.47
202.85	3598.28
203.07	3563.47
203.29	3026.90
203.51	2895.83
203.73	3286.99
203.95	4122.56
204.17	2910.16
204.39	3196.88
204.61	3418.06
204.83	3368.91
205.05	3178.45
205.27	2951.12
205.49	4030.40
205.71	3409.87
205.93	2844.63
206.15	2828.24
206.37	3450.83
206.59	3411.92
206.81	2809.81
207.03	2844.63
207.25	3307.47
207.47	3626.95
207.69	3039.19
207.91	3307.47
208.13	3772.36
208.34	3241.93
208.56	2869.20
208.78	3059.67
209.00	3323.85
209.22	3327.95
209.44	3024.85
209.66	2865.11
209.88	3499.98
210.10	3428.30
210.32	2914.26
210.54	3063.76
210.76	3362.76
210.98	3712.97
211.20	2871.25
211.42	3110.86
211.64	3710.92
211.86	3559.37
212.08	3108.82
212.30	3069.91
212.52	3348.43
212.74	3532.75
212.96	3084.24
213.17	3006.42
213.39	3588.04
213.61	3909.57
213.83	2879.44
214.05	2813.91
214.27	3719.11
214.49	3293.13
214.71	2916.31
214.93	3164.11
215.15	3420.11
215.37	3672.01
215.59	2832.34
215.81	3074.00
216.03	3643.34
216.24	3495.88
216.46	2926.55
216.68	2996.18
216.90	3614.66
217.12	3575.75
217.34	2893.78
217.56	3164.11
217.78	3715.02
218.00	3561.42
218.22	3123.15
218.44	3000.27
218.66	3424.20
218.87	3837.89
219.09	3033.04
219.31	3033.04
219.53	3499.98
219.75	3313.61
219.97	3020.75
220.19	3078.10
220.41	3436.49
220.63	3835.85
220.85	3110.86
221.06	2992.08
221.28	3743.69
221.50	3655.62
221.72	2951.12
221.94	2840.53
222.16	3506.12
222.38	3637.19
222.60	2992.08
222.82	2971.60
223.03	3733.45
223.25	3286.99
223.47	2879.44
223.69	3272.65
223.91	3565.51
224.13	3495.88
224.35	2869.20
224.57	3141.58
224.78	3667.91
225.00	3192.78
225.22	3045.33
225.44	2865.11
225.66	3565.51
225.88	3327.95
226.10	3114.96
226.32	2977.75
226.53	3831.75
226.75	3413.96
226.97	3014.61
227.19	2981.84
227.41	3385.29
227.63	3370.96
227.85	2795.48
228.06	3037.14
228.28	3553.23
228.50	3696.58
228.72	2815.96
228.94	2901.97
229.16	3057.62
229.37	3192.78
229.59	2926.55
229.81	3229.65
230.03	3338.19
230.25	3205.07
230.47	2813.91
230.69	2936.79
230.90	3663.82
231.12	3246.03
231.34	3039.19
231.56	3160.02
231.78	3194.83
232.00	3504.07
232.21	3004.37
232.43	2934.74
232.65	3041.23
232.87	3649.48
233.09	2820.05
233.30	2838.48
233.52	3538.89
233.74	3360.72
233.96	2844.63
234.18	3211.22
234.40	3428.30
234.61	4085.70
234.83	2906.07
235.05	2940.88
235.27	3897.28
235.49	3616.71
235.70	2824.15
235.92	3035.09
236.14	3629.00
236.36	4028.35
236.58	2904.02
236.79	3080.14
237.01	3438.54
237.23	3442.64
237.45	3155.92
237.67	3119.06
237.88	3614.66
238.10	3872.71
238.32	2836.44
238.54	2918.36
238.76	3420.11
238.97	3227.60
239.19	2914.26
239.41	3053.52
239.63	3696.58
239.85	3364.81
240.06	3043.28
240.28	3071.95
240.50	3678.15
240.72	3524.55
240.93	2813.91
241.15	3102.67
241.37	3473.36
241.59	3735.50
241.81	3043.28
242.02	3074.00
242.24	3442.64
242.46	3604.42
242.68	2758.61
242.89	2918.36
243.11	3665.86
243.33	3461.07
243.55	2926.55
243.76	2930.64
243.98	3323.85
244.20	3336.14
244.42	2973.65
244.64	2877.40
244.85	3131.34
245.07	3172.30
245.29	2910.16
245.51	2959.31
245.72	3530.70
245.94	3790.79
246.16	2901.97
246.38	3018.71
246.59	3317.71
246.81	3309.52
247.03	2791.38
247.24	2848.72
247.46	3348.43
247.68	3422.16
247.90	2985.94
248.11	3037.14
248.33	3567.56
248.55	3450.83
248.77	2977.75
248.98	2979.79
249.20	3819.46
249.42	3489.74
249.64	2906.07
249.85	2963.41
250.07	3323.85
250.29	3534.79
250.50	3004.37
250.72	2850.77
250.94	3565.51
251.16	4014.02
251.37	2836.44
251.59	3096.53
251.81	3516.36
252.02	3751.88
252.24	2887.64
252.46	3057.62
252.68	3368.91
252.89	3330.00
253.11	2803.67
253.33	3114.96
253.54	3741.64
253.76	3184.59
253.98	2920.40
254.20	2901.97
254.41	3200.98
254.63	3450.83
254.85	2869.20
255.06	3030.99
255.28	3565.51
255.50	3393.48
255.71	2922.45
255.93	2779.09
256.15	3391.44
256.36	3567.56
256.58	2840.53
256.80	2897.88
257.02	3422.16
257.23	3319.76
257.45	2975.70
257.67	3153.87
257.88	3426.25
258.10	3590.09
258.32	2920.40
258.53	2897.88
258.75	3770.31
258.97	3266.51
259.18	2879.44
259.40	2893.78
259.62	3864.52
259.83	3739.59
260.05	3012.56
260.27	3979.20
260.48	3637.19
260.70	3190.74
260.92	2852.82
261.13	3000.27
261.35	3508.17
261.57	3491.79
261.78	2877.40
262.00	2940.88
262.22	3561.42
262.43	3289.04
262.65	2846.68
262.86	3024.85
263.08	3962.82
263.30	3467.21
263.51	2805.72
263.73	2934.74
263.95	3930.05
264.16	3239.89
264.38	2865.11
264.60	2926.55
264.81	3315.66
265.03	3712.97
265.25	3520.46
265.46	2920.40
265.68	3733.45
265.89	3635.14
266.11	2836.44
266.33	2957.27
266.54	3696.58
266.76	3616.71
266.98	3071.95
267.19	3155.92
267.41	3669.96
267.62	3399.63
267.84	2785.24
268.06	3098.58
268.27	3459.02
268.49	3762.12
268.70	3004.37
268.92	3004.37
269.14	3307.47
269.35	3129.30
269.57	3149.78
269.79	3069.91
270.00	3270.61
270.22	3790.79
270.43	2828.24
270.65	2811.86
270.87	3520.46
271.08	3618.76
271.30	3004.37
271.51	3026.90
271.73	3678.15
271.95	3786.69
272.16	2869.20
272.38	3194.83
272.59	3385.29
272.81	3606.47
273.02	2899.92
273.24	3071.95
273.46	3733.45
273.67	3186.64
273.89	2799.57
274.10	2858.96
274.32	3778.50
274.54	3528.65
274.75	3051.47
274.97	3117.01
275.18	3688.39
275.40	3508.17
275.61	2916.31
275.83	3182.54
276.05	3258.32
276.26	3426.25
276.48	3141.58
276.69	3151.82
276.91	3360.72
277.12	3796.93
277.34	3151.82
277.55	3227.60
277.77	3436.49
277.99	3344.33
278.20	3147.73
278.42	2975.70
278.63	3233.74
278.85	3223.50
279.06	3121.10
279.28	3188.69
279.49	3807.17
279.71	3526.60
279.93	3074.00
280.14	3090.38
280.36	3262.41
280.57	3729.35
280.79	3151.82
281.00	2955.22
281.22	3407.82
281.43	3682.25
281.65	2930.64
281.86	3065.81
282.08	3495.88
282.29	3874.76
282.51	2914.26
282.73	2992.08
282.94	3018.71
283.16	3608.52
283.37	3147.73
283.59	3164.11
283.80	3585.99
284.02	3428.30
284.23	3153.87
284.45	3172.30
284.66	3262.41
284.88	3286.99
285.09	3002.32
285.31	3198.93
285.52	3610.57
285.74	3180.50
285.95	3313.61
286.17	3198.93
286.38	3721.16
286.60	3284.94
286.81	3057.62
287.03	3035.09
287.24	3373.00
287.46	3536.84
287.67	3297.23
287.89	3284.94
288.10	3436.49
288.32	3508.17
288.53	3225.55
288.75	3145.68
288.96	3639.24
289.18	3348.43
289.39	2959.31
289.61	3180.50
289.82	3923.91
290.04	3944.39
290.25	2963.41
290.47	3196.88
290.68	3459.02
290.90	3585.99
291.11	2899.92
291.33	3233.74
291.54	3332.05
291.76	3313.61
291.97	3327.95
292.18	3205.07
292.40	3356.62
292.61	3286.99
292.83	3432.40
293.04	3100.62
293.26	3510.22
293.47	3393.48
293.69	3098.58
293.90	2918.36
294.12	3692.49
294.33	3330.00
294.55	3149.78
294.76	3352.52
294.97	3733.45
295.19	3893.19
295.40	3117.01
295.62	3129.30
295.83	3663.82
296.05	3237.84
296.26	3373.00
296.48	3074.00
296.69	3413.96
296.90	3403.72
297.12	3258.32
297.33	3258.32
297.55	3420.11
297.76	3559.37
297.98	3186.64
298.19	3289.04
298.41	3352.52
298.62	3299.28
298.83	3262.41
299.05	3213.26
299.26	3356.62
299.48	3250.13
299.69	3178.45
299.90	3110.86
300.12	3221.45
300.33	3661.77
300.55	3125.20
300.76	3180.50
300.98	3168.21
301.19	3598.28
301.40	3147.73
301.62	3135.44
301.83	3614.66
302.05	3479.50
302.26	3074.00
302.47	3174.35
302.69	3205.07
302.90	3389.39
303.12	2996.18
303.33	3207.12
303.54	3864.52
303.76	3264.46
303.97	3041.23
304.19	3293.13
304.40	3248.08
304.61	3508.17
304.83	3176.40
305.04	3164.11
305.26	3633.10
305.47	3233.74
305.68	3074.00
305.90	2942.93
306.11	3733.45
306.33	3428.30
306.54	2947.03
306.75	3094.48
306.97	3094.48
307.18	3221.45
307.39	3061.71
307.61	3182.54
307.82	3499.98
308.04	3549.13
308.25	3018.71
308.46	3250.13
308.68	3436.49
308.89	3461.07
309.10	3223.50
309.32	3166.16
309.53	3418.06
309.74	3518.41
309.96	3030.99
310.17	3190.74
310.39	3278.80
310.60	3536.84
310.81	3065.81
311.03	3063.76
311.24	3575.75
311.45	3463.12
311.67	3303.37
311.88	3223.50
312.09	3346.38
312.31	3352.52
312.52	3080.14
312.73	3098.58
312.95	3184.59
313.16	3250.13
313.37	3307.47
313.59	3350.48
313.80	3579.85
314.01	3821.51
314.23	3110.86
314.44	3043.28
314.65	3184.59
314.87	3264.46
315.08	3098.58
315.29	3121.10
315.51	3289.04
315.72	3053.52
315.93	3112.91
316.15	3135.44
316.36	3346.38
316.57	3524.55
316.79	3110.86
317.00	3002.32
317.21	3571.66
317.43	3299.28
317.64	3180.50
317.85	3045.33
318.07	3295.18
318.28	3313.61
318.49	3213.26
318.70	3315.66
318.92	3446.73
319.13	3428.30
319.34	3176.40
319.56	3092.43
319.77	3475.40
319.98	3477.45
320.20	3360.72
320.41	3319.76
320.62	3573.71
320.83	3192.78
321.05	3321.81
321.26	3194.83
321.47	3454.92
321.69	3731.40
321.90	3053.52
322.11	2959.31
322.32	3514.31
322.54	3749.83
322.75	3123.15
322.96	4345.79
323.18	3180.50
323.39	3127.25
323.60	3018.71
323.81	3147.73
324.03	3319.76
324.24	3520.46
324.45	3278.80
324.66	3067.86
324.88	3729.35
325.09	3870.66
325.30	3026.90
325.52	2973.65
325.73	3452.88
325.94	3274.70
326.15	3055.57
326.37	2914.26
326.58	3616.71
326.79	3866.56
327.00	2977.75
327.22	3065.81
327.43	3364.81
327.64	3194.83
327.85	3215.31
328.07	3088.34
328.28	3893.19
328.49	3381.20
328.70	3098.58
328.92	3074.00
329.13	3360.72
329.34	3585.99
329.55	3262.41
329.76	3239.89
329.98	3362.76
330.19	3680.20
330.40	3207.12
330.61	3223.50
330.83	3581.90
331.04	3229.65
331.25	3157.97
331.46	3200.98
331.68	3205.07
331.89	3616.71
332.10	3090.38
332.31	2930.64
332.52	3340.24
332.74	3700.68
332.95	2930.64
333.16	3067.86
333.37	3622.86
333.58	3405.77
333.80	3162.06
334.01	2844.63
334.22	3479.50
334.43	3254.22
334.64	3035.09
334.86	3059.67
335.07	3211.22
335.28	3815.37
335.49	3012.56
335.70	3131.34
335.92	3739.59
336.13	3893.19
336.34	3090.38
336.55	3061.71
336.76	3504.07
336.98	3071.95
337.19	3149.78
337.40	3137.49
337.61	3948.48
337.82	3407.82
338.04	3237.84
338.25	2901.97
338.46	3401.68
338.67	3430.35
338.88	2987.99
339.09	2977.75
339.31	3327.95
339.52	3170.26
339.73	3063.76
339.94	3092.43
340.15	3622.86
340.36	3340.24
340.58	3098.58
340.79	3098.58
341.00	3637.19
341.21	3188.69
341.42	3358.67
341.63	3084.24
341.85	3717.06
342.06	3409.87
342.27	3043.28
342.48	3223.50
342.69	3176.40
342.90	3596.23
343.12	3477.45
343.33	2971.60
343.54	3643.34
343.75	3717.06
343.96	3198.93
344.17	3033.04
344.38	3416.01
344.60	3207.12
344.81	3006.42
345.02	3192.78
345.23	3645.38
345.44	4042.69
345.65	3106.77
345.86	3157.97
346.07	3610.57
346.29	3250.13
346.50	3254.22
346.71	3207.12
346.92	3723.21
347.13	3979.20
347.34	3205.07
347.55	2979.79
347.76	3588.04
347.98	3188.69
348.19	3149.78
348.40	3307.47
348.61	3336.14
348.82	3803.08
349.03	3155.92
349.24	3020.75
349.45	3852.23
349.66	3008.47
349.88	3088.34
350.09	3012.56
350.30	3858.37
350.51	3674.06
350.72	3385.29
350.93	3049.43
351.14	3319.76
351.35	3481.55
351.56	3018.71
351.77	3205.07
351.99	3526.60
352.20	3758.02
352.41	3246.03
352.62	2967.51
352.83	3373.00
353.04	3450.83
353.25	3151.82
353.46	3147.73
353.67	3698.63
353.88	3024.85
354.09	3016.66
354.30	3162.06
354.52	3610.57
354.73	3364.81
354.94	3096.53
355.15	3135.44
355.36	3971.01
355.57	3368.91
355.78	3074.00
355.99	3125.20
356.20	3334.09
356.41	3602.38
356.62	3200.98
356.83	3127.25
357.04	3641.29
357.25	3033.04
357.46	3016.66
357.68	2961.36
357.89	3274.70
358.10	3424.20
358.31	3108.82
358.52	3141.58
358.73	3235.79
358.94	3260.37
359.15	3135.44
359.36	3098.58
359.57	3469.26
359.78	3395.53
359.99	3286.99
360.20	2971.60
360.41	3430.35
360.62	3594.19
360.83	3178.45
361.04	3170.26
361.25	3518.41
361.46	3868.61
361.67	3141.58
361.88	3121.10
362.09	3672.01
362.30	3418.06
362.51	3055.57
362.72	3155.92
362.93	3626.95
363.14	3542.99
363.35	3221.45
363.56	3084.24
363.78	3639.24
363.99	3639.24
364.20	3125.20
364.41	3184.59
364.62	3846.09
364.83	3502.03
365.04	3096.53
365.25	3151.82
365.46	3930.05
365.67	3311.57
365.88	3340.24
366.09	3067.86
366.30	3426.25
366.51	3526.60
366.72	3000.27
366.93	2985.94
367.14	3420.11
367.35	3715.02
367.56	3000.27
367.77	3196.88
367.98	3409.87
368.18	3581.90
368.39	3311.57
368.60	3084.24
368.81	3590.09
369.02	3499.98
369.23	3102.67
369.44	2979.79
369.65	3397.58
369.86	3571.66
370.07	3256.27
370.28	3053.52
370.49	3524.55
370.70	3508.17
370.91	2955.22
371.12	2975.70
371.33	3667.91
371.54	3299.28
371.75	3145.68
371.96	2856.92
372.17	3571.66
372.38	3356.62
372.59	3141.58
372.80	3000.27
373.01	3360.72
373.22	3444.68
373.43	3067.86
373.64	3024.85
373.85	3739.59
374.06	3794.89
374.26	3223.50
374.47	3317.71
374.68	3776.45
374.89	3409.87
375.10	3074.00
375.31	3172.30
375.52	3450.83
375.73	3430.35
375.94	2863.06
376.15	3248.08
376.36	3321.81
376.57	3323.85
376.78	3254.22
376.99	3092.43
377.20	3788.74
377.40	3321.81
377.61	3387.34
377.82	3145.68
378.03	3864.52
378.24	3585.99
378.45	3254.22
378.66	3155.92
378.87	3129.30
379.08	3117.01
379.29	3170.26
379.50	3295.18
379.71	3356.62
379.91	3616.71
380.12	3092.43
380.33	3250.13
380.54	3516.36
380.75	3426.25
380.96	3094.48
381.17	3145.68
381.38	3491.79
381.59	3459.02
381.80	3141.58
382.00	3227.60
382.21	3426.25
382.42	3741.64
382.63	3448.78
382.84	3231.69
383.05	3651.53
383.26	3778.50
383.47	3319.76
383.68	3067.86
383.88	3524.55
384.09	3424.20
384.30	3430.35
384.51	3262.41
384.72	3321.81
384.93	3205.07
385.14	3233.74
385.35	3418.06
385.55	3139.54
385.76	3827.65
385.97	3141.58
386.18	2983.89
386.39	3229.65
386.60	3313.61
386.81	3166.16
387.02	3033.04
387.22	3209.17
387.43	3585.99
387.64	3198.93
387.85	3366.86
388.06	3407.82
388.27	4417.47
388.48	7208.85
388.68	10735.45
388.89	13598.51
389.10	14599.97
389.31	14206.76
389.52	11523.92
389.73	10192.74
389.93	9385.84
390.14	8558.46
390.35	7847.82
390.56	7335.82
390.77	6264.74
390.98	4749.24
391.18	4075.46
391.39	3854.28
391.60	3362.76
391.81	3397.58
392.02	3178.45
392.23	4005.83
392.43	3612.62
392.64	3184.59
392.85	3346.38
393.06	3782.60
393.27	3454.92
393.47	3114.96
393.68	3262.41
393.89	3385.29
394.10	3612.62
394.31	3176.40
394.52	3033.04
394.72	3336.14
394.93	3729.35
395.14	3008.47
395.35	3303.37
395.56	3352.52
395.76	3381.20
395.97	3157.97
396.18	3250.13
396.39	3393.48
396.60	4005.83
396.80	3540.94
397.01	3430.35
397.22	3655.62
397.43	3655.62
397.64	3119.06
397.84	3241.93
398.05	3889.09
398.26	3368.91
398.47	3270.61
398.67	3319.76
398.88	3491.79
399.09	3600.33
399.30	3110.86
399.51	3178.45
399.71	3321.81
399.92	3448.78
400.13	3286.99
400.34	3100.62
400.54	3401.68
400.75	3788.74
400.96	3262.41
401.17	3428.30
401.37	3510.22
401.58	3387.34
401.79	3100.62
402.00	3241.93
402.21	3983.30
402.41	3547.08
402.62	3391.44
402.83	3477.45
403.04	3766.21
403.24	4175.81
403.45	3315.66
403.66	3422.16
403.87	3708.87
404.07	3796.93
404.28	3403.72
404.49	3481.55
404.70	3528.65
404.90	3684.30
405.11	3182.54
405.32	3157.97
405.52	3301.33
405.73	3266.51
405.94	3133.39
406.15	3237.84
406.35	3579.85
406.56	3583.95
406.77	3213.26
406.98	3225.55
407.18	3319.76
407.39	3823.56
407.60	3143.63
407.80	3246.03
408.01	3262.41
408.22	3561.42
408.43	3078.10
408.63	3278.80
408.84	3655.62
409.05	3657.67
409.25	3084.24
409.46	3168.21
409.67	3413.96
409.88	3239.89
410.08	3143.63
410.29	3141.58
410.50	3647.43
410.70	3557.32
410.91	3059.67
411.12	3151.82
411.32	3469.26
411.53	3178.45
411.74	3133.39
411.95	3252.17
412.15	3510.22
412.36	3528.65
412.57	3295.18
412.77	3377.10
412.98	3440.59
413.19	3360.72
413.39	3172.30
413.60	3110.86
413.81	3796.93
414.01	3241.93
414.22	3207.12
414.43	3389.39
414.63	3379.15
414.84	3696.58
415.05	3246.03
415.25	3039.19
415.46	3530.70
415.67	3327.95
415.87	3143.63
416.08	3110.86
416.29	3393.48
416.49	3481.55
416.70	3246.03
416.91	3215.31
417.11	3485.64
417.32	3592.14
417.53	3166.16
417.73	3219.41
417.94	3434.44
418.15	3508.17
418.35	3184.59
418.56	3274.70
418.77	3958.72
418.97	3481.55
419.18	3293.13
419.38	2836.44
419.59	3352.52
419.80	3792.84
420.00	3096.53
420.21	3170.26
420.42	3723.21
420.62	3551.18
420.83	3192.78
421.04	3117.01
421.24	3452.88
421.45	3608.52
421.65	3127.25
421.86	3221.45
422.07	3637.19
422.27	3520.46
422.48	3037.14
422.69	2992.08
422.89	3375.05
423.10	3327.95
423.30	3129.30
423.51	3157.97
423.72	3592.14
423.92	3594.19
424.13	3053.52
424.33	3278.80
424.54	3608.52
424.75	3450.83
424.95	3411.92
425.16	3074.00
425.36	3405.77
425.57	3594.19
425.78	3338.19
425.98	3209.17
426.19	3438.54
426.39	3262.41
426.60	3225.55
426.81	3311.57
427.01	3663.82
427.22	3155.92
427.42	2959.31
427.63	3121.10
427.83	3667.91
428.04	3813.32
428.25	3196.88
428.45	3350.48
428.66	3631.05
428.86	3413.96
429.07	3286.99
429.28	3186.64
429.48	3430.35
429.69	3237.84
429.89	3223.50
430.10	3102.67
430.30	3610.57
430.51	3700.68
430.71	3071.95
430.92	3211.22
431.13	3350.48
431.33	3616.71
431.54	3305.42
431.74	3391.44
431.95	3954.63
432.15	3215.31
432.36	3139.54
432.56	3213.26
432.77	3909.57
432.98	3827.65
433.18	3180.50
433.39	2996.18
433.59	3391.44
433.80	3944.39
434.00	3286.99
434.21	3188.69
434.41	3330.00
434.62	3997.64
434.82	3033.04
435.03	3059.67
435.23	3520.46
435.44	3149.78
435.64	3135.44
435.85	3237.84
436.06	3622.86
436.26	3618.76
436.47	3155.92
436.67	3082.19
436.88	3377.10
437.08	3669.96
437.29	3307.47
437.49	3262.41
437.70	3565.51
437.90	3399.63
438.11	3309.52
438.31	3248.08
438.52	3618.76
438.72	3704.78
438.93	3520.46
439.13	3289.04
439.34	3534.79
439.54	3336.14
439.75	3272.65
439.95	3256.27
440.16	3243.98
440.36	3475.40
440.57	3196.88
440.77	3168.21
440.98	3471.31
441.18	3495.88
441.39	3069.91
441.59	3061.71
441.80	3899.33
442.00	3385.29
442.21	3207.12
442.41	3065.81
442.62	3682.25
442.82	3393.48
443.02	3139.54
443.23	3215.31
443.43	3393.48
443.64	3708.87
443.84	3055.57
444.05	3219.41
444.25	3508.17
444.46	3375.05
444.66	3100.62
444.87	3399.63
445.07	3131.34
445.28	3377.10
445.48	3383.24
445.69	3176.40
445.89	4046.79
446.09	3270.61
446.30	3434.44
446.50	3508.17
446.71	4984.76
446.91	6104.99
447.12	6772.63
447.32	7182.23
447.53	7249.81
447.73	6137.76
447.93	5283.76
448.14	5105.59
448.34	5476.27
448.55	4446.14
448.75	4435.90
448.96	4147.14
449.16	4067.27
449.36	4048.83
449.57	3352.52
449.77	3332.05
449.98	3360.72
450.18	3508.17
450.39	3090.38
450.59	3334.09
450.79	3413.96
451.00	3264.46
451.20	3420.11
451.41	3086.29
451.61	3551.18
451.81	3432.40
452.02	3114.96
452.22	3143.63
452.43	3330.00
