SpectraSuite Data File
++++++++++++++++++++++++++++++++++++
Date: Fri May 06 09:28:40 CEST 2016
User: root
Dark Spectrum Present: No
Reference Spectrum Present: No
Number of Sampled Component Spectra: 1
Spectrometers: USB4C02835
Integration Time (usec): 100000 (USB4C02835)
Spectra Averaged: 1 (USB4C02835)
Boxcar Smoothing: 0 (USB4C02835)
Correct for Electrical Dark: No (USB4C02835)
Strobe/Lamp Enabled: No (USB4C02835)
Correct for Detector Non-linearity: No (USB4C02835)
Correct for Stray Light: No (USB4C02835)
Number of Pixels in Processed Spectrum: 3648
>>>>>Begin Processed Spectral Data<<<<<
177.47	2230.24
177.69	2230.24
177.91	2230.24
178.13	2381.79
178.36	2402.27
178.58	3084.24
178.80	3237.84
179.02	3190.74
179.24	3139.54
179.46	2830.29
179.68	2973.65
179.90	3336.14
180.13	3426.25
180.35	2721.75
180.57	2926.55
180.79	3608.52
181.01	3403.72
181.23	2955.22
181.45	3102.67
181.67	3641.29
181.90	3690.44
182.12	3020.75
182.34	2844.63
182.56	3667.91
182.78	3551.18
183.00	2867.16
183.22	3014.61
183.44	3069.91
183.66	4157.38
183.89	3139.54
184.11	2944.98
184.33	3633.10
184.55	3723.21
184.77	2885.59
184.99	2985.94
185.21	3336.14
185.43	4020.16
185.65	3018.71
185.87	2969.55
186.10	4016.07
186.32	4011.97
186.54	3102.67
186.76	3063.76
186.98	3665.86
187.20	3504.07
187.42	2998.23
187.64	2969.55
187.86	3532.75
188.08	3696.58
188.30	2797.53
188.52	3041.23
188.75	3729.35
188.97	3747.78
189.19	2979.79
189.41	2875.35
189.63	3545.03
189.85	3385.29
190.07	2758.61
190.29	2844.63
190.51	3512.27
190.73	3166.16
190.95	3139.54
191.17	2928.60
191.39	3086.29
191.61	3368.91
191.84	3024.85
192.06	3131.34
192.28	3059.67
192.50	4143.04
192.72	3200.98
192.94	3039.19
193.16	3704.78
193.38	3602.38
193.60	2906.07
193.82	3147.73
194.04	3680.20
194.26	3579.85
194.48	2934.74
194.70	2992.08
194.92	3338.19
195.14	3706.82
195.36	2914.26
195.58	3016.66
195.80	3452.88
196.02	3334.09
196.24	2940.88
196.46	3016.66
196.69	3270.61
196.91	4018.11
197.13	3135.44
197.35	3102.67
197.57	3854.28
197.79	3569.61
198.01	3053.52
198.23	2983.89
198.45	3569.61
198.67	3198.93
198.89	2734.04
199.11	3010.51
199.33	3301.33
199.55	2977.75
199.77	2979.79
199.99	3131.34
200.21	3338.19
200.43	3461.07
200.65	2797.53
200.87	2858.96
201.09	3467.21
201.31	3344.33
201.53	2961.36
201.75	2985.94
201.97	3520.46
202.19	3542.99
202.41	3024.85
202.63	3110.86
202.85	3536.84
203.07	3397.58
203.29	3086.29
203.51	2920.40
203.73	3319.76
203.95	4034.50
204.17	2963.41
204.39	3125.20
204.61	3413.96
204.83	3364.81
205.05	3215.31
205.27	2957.27
205.49	3954.63
205.71	3493.83
205.93	2781.14
206.15	2762.71
206.37	3491.79
206.59	3436.49
206.81	2764.76
207.03	2885.59
207.25	3358.67
207.47	3565.51
207.69	2975.70
207.91	3190.74
208.13	3782.60
208.34	3362.76
208.56	2879.44
208.78	2975.70
209.00	3389.39
209.22	3276.75
209.44	3006.42
209.66	2975.70
209.88	3461.07
210.10	3342.28
210.32	2922.45
210.54	3059.67
210.76	3289.04
210.98	3612.62
211.20	2785.24
211.42	3119.06
211.64	3753.93
211.86	3506.12
212.08	3037.14
212.30	3043.28
212.52	3440.59
212.74	3663.82
212.96	3059.67
213.17	2994.13
213.39	3700.68
213.61	3876.80
213.83	2883.54
214.05	2854.87
214.27	3698.63
214.49	3278.80
214.71	2901.97
214.93	3018.71
215.15	3479.50
215.37	3581.90
215.59	2818.00
215.81	3035.09
216.03	3692.49
216.24	3364.81
216.46	3000.27
216.68	3049.43
216.90	3688.39
217.12	3753.93
217.34	2936.79
217.56	3248.08
217.78	3780.55
218.00	3532.75
218.22	3106.77
218.44	3059.67
218.66	3491.79
218.87	3803.08
219.09	3123.15
219.31	2912.21
219.53	3579.85
219.75	3430.35
219.97	3065.81
220.19	3084.24
220.41	3432.40
220.63	3813.32
220.85	3010.51
221.06	2944.98
221.28	3796.93
221.50	3647.43
221.72	2955.22
221.94	2963.41
222.16	3569.61
222.38	3704.78
222.60	2936.79
222.82	2944.98
223.03	3712.97
223.25	3209.17
223.47	2922.45
223.69	3217.36
223.91	3620.81
224.13	3463.12
224.35	2811.86
224.57	3119.06
224.78	3592.14
225.00	3246.03
225.22	3074.00
225.44	2918.36
225.66	3710.92
225.88	3323.85
226.10	3164.11
226.32	2910.16
226.53	3794.89
226.75	3336.14
226.97	3090.38
227.19	2979.79
227.41	3317.71
227.63	3254.22
227.85	2789.33
228.06	2977.75
228.28	3461.07
228.50	3680.20
228.72	2844.63
228.94	2906.07
229.16	3123.15
229.37	3215.31
229.59	2879.44
229.81	3184.59
230.03	3387.34
230.25	3147.73
230.47	2762.71
230.69	2979.79
230.90	3698.63
231.12	3368.91
231.34	3016.66
231.56	3028.95
231.78	3168.21
232.00	3411.92
232.21	3012.56
232.43	2987.99
232.65	3090.38
232.87	3530.70
233.09	2811.86
233.30	2914.26
233.52	3733.45
233.74	3430.35
233.96	2938.84
234.18	3252.17
234.40	3452.88
234.61	4034.50
234.83	2844.63
235.05	2926.55
235.27	3925.96
235.49	3700.68
235.70	2893.78
235.92	2922.45
236.14	3663.82
236.36	3995.59
236.58	2869.20
236.79	3076.05
237.01	3616.71
237.23	3463.12
237.45	3219.41
237.67	3069.91
237.88	3487.69
238.10	3745.73
238.32	2967.51
238.54	2875.35
238.76	3446.73
238.97	3278.80
239.19	2836.44
239.41	3000.27
239.63	3667.91
239.85	3342.28
240.06	2959.31
240.28	3000.27
240.50	3692.49
240.72	3450.83
240.93	2893.78
241.15	3114.96
241.37	3305.42
241.59	3796.93
241.81	2930.64
242.02	3024.85
242.24	3545.03
242.46	3549.13
242.68	2729.94
242.89	2895.83
243.11	3622.86
243.33	3330.00
243.55	3016.66
243.76	2944.98
243.98	3383.24
244.20	3418.06
244.42	2901.97
244.64	2895.83
244.85	3155.92
245.07	3305.42
245.29	2938.84
245.51	3069.91
245.72	3495.88
245.94	3631.05
246.16	2912.21
246.38	3024.85
246.59	3409.87
246.81	3297.23
247.03	2838.48
247.24	2871.25
247.46	3385.29
247.68	3528.65
247.90	2897.88
248.11	2942.93
248.33	3551.18
248.55	3424.20
248.77	2969.55
248.98	3074.00
249.20	3819.46
249.42	3516.36
249.64	2955.22
249.85	2883.54
250.07	3336.14
250.29	3590.09
250.50	3028.95
250.72	2897.88
250.94	3624.90
251.16	3835.85
251.37	2916.31
251.59	3123.15
251.81	3618.76
252.02	3897.28
252.24	2838.48
252.46	3039.19
252.68	3295.18
252.89	3254.22
253.11	2840.53
253.33	3133.39
253.54	3774.41
253.76	3110.86
253.98	3018.71
254.20	2953.17
254.41	3092.43
254.63	3393.48
254.85	2756.57
255.06	3100.62
255.28	3553.23
255.50	3393.48
255.71	2850.77
255.93	2820.05
256.15	3432.40
256.36	3569.61
256.58	2852.82
256.80	2854.87
257.02	3438.54
257.23	3336.14
257.45	2930.64
257.67	3106.77
257.88	3401.68
258.10	3506.12
258.32	3008.47
258.53	3043.28
258.75	3833.80
258.97	3274.70
259.18	2928.60
259.40	2912.21
259.62	3897.28
259.83	3747.78
260.05	3006.42
260.27	3971.01
260.48	3674.06
260.70	3313.61
260.92	2820.05
261.13	3020.75
261.35	3434.44
261.57	3532.75
261.78	2738.13
262.00	2920.40
262.22	3565.51
262.43	3309.52
262.65	2975.70
262.86	3008.47
263.08	3993.54
263.30	3375.05
263.51	2772.95
263.73	2848.72
263.95	3831.75
264.16	3235.79
264.38	2858.96
264.60	2897.88
264.81	3418.06
265.03	3764.17
265.25	3397.58
265.46	2854.87
265.68	3762.12
265.89	3690.44
266.11	2848.72
266.33	2922.45
266.54	3684.30
266.76	3477.45
266.98	3051.47
267.19	3194.83
267.41	3825.61
267.62	3385.29
267.84	2744.28
268.06	3065.81
268.27	3522.51
268.49	3737.54
268.70	3067.86
268.92	3020.75
269.14	3237.84
269.35	3205.07
269.57	3084.24
269.79	3092.43
270.00	3346.38
270.22	3749.83
270.43	2828.24
270.65	2805.72
270.87	3481.55
271.08	3616.71
271.30	3051.47
271.51	2897.88
271.73	3598.28
271.95	3739.59
272.16	2869.20
272.38	3131.34
272.59	3315.66
272.81	3565.51
273.02	2818.00
273.24	3026.90
273.46	3764.17
273.67	3157.97
273.89	2795.48
274.10	2963.41
274.32	3835.85
274.54	3481.55
274.75	3037.14
274.97	3035.09
275.18	3657.67
275.40	3516.36
275.61	2971.60
275.83	3145.68
276.05	3252.17
276.26	3334.09
276.48	3084.24
276.69	3223.50
276.91	3301.33
277.12	3788.74
277.34	3168.21
277.55	3278.80
277.77	3442.64
277.99	3344.33
278.20	3110.86
278.42	2914.26
278.63	3176.40
278.85	3295.18
279.06	3069.91
279.28	3114.96
279.49	3647.43
279.71	3704.78
279.93	3141.58
280.14	3174.35
280.36	3323.85
280.57	3649.48
280.79	3155.92
281.00	2944.98
281.22	3354.57
281.43	3676.10
281.65	2764.76
281.86	3002.32
282.08	3542.99
282.29	3901.38
282.51	2979.79
282.73	2904.02
282.94	3186.64
283.16	3631.05
283.37	3243.98
283.59	3162.06
283.80	3588.04
284.02	3368.91
284.23	3151.82
284.45	3090.38
284.66	3293.13
284.88	3272.65
285.09	2975.70
285.31	3235.79
285.52	3416.01
285.74	3160.02
285.95	3272.65
286.17	3119.06
286.38	3694.54
286.60	3336.14
286.81	2979.79
287.03	3086.29
287.24	3413.96
287.46	3581.90
287.67	3176.40
287.89	3289.04
288.10	3516.36
288.32	3532.75
288.53	3243.98
288.75	3209.17
288.96	3661.77
289.18	3377.10
289.39	3014.61
289.61	3151.82
289.82	3805.13
290.04	3897.28
290.25	2955.22
290.47	3188.69
290.68	3391.44
290.90	3706.82
291.11	2926.55
291.33	3248.08
291.54	3330.00
291.76	3358.67
291.97	3180.50
292.18	3225.55
292.40	3342.28
292.61	3321.81
292.83	3426.25
293.04	3121.10
293.26	3483.59
293.47	3426.25
293.69	3082.19
293.90	3082.19
294.12	3755.97
294.33	3385.29
294.55	3143.63
294.76	3330.00
294.97	3745.73
295.19	3954.63
295.40	3069.91
295.62	3211.22
295.83	3657.67
296.05	3352.52
296.26	3323.85
296.48	3121.10
296.69	3434.44
296.90	3411.92
297.12	3270.61
297.33	3198.93
297.55	3499.98
297.76	3526.60
297.98	3213.26
298.19	3338.19
298.41	3499.98
298.62	3256.27
298.83	3258.32
299.05	3272.65
299.26	3391.44
299.48	3215.31
299.69	3160.02
299.90	3084.24
300.12	3258.32
300.33	3612.62
300.55	3151.82
300.76	3221.45
300.98	3223.50
301.19	3647.43
301.40	3151.82
301.62	3108.82
301.83	3536.84
302.05	3459.02
302.26	3106.77
302.47	3188.69
302.69	3246.03
302.90	3383.24
303.12	2912.21
303.33	3186.64
303.54	3944.39
303.76	3284.94
303.97	3071.95
304.19	3246.03
304.40	3241.93
304.61	3567.56
304.83	3147.73
305.04	3168.21
305.26	3672.01
305.47	3233.74
305.68	3086.29
305.90	3100.62
306.11	3647.43
306.33	3442.64
306.54	2916.31
306.75	3133.39
306.97	3123.15
307.18	3303.37
307.39	3133.39
307.61	3233.74
307.82	3420.11
308.04	3547.08
308.25	2985.94
308.46	3248.08
308.68	3413.96
308.89	3463.12
309.10	3252.17
309.32	3219.41
309.53	3444.68
309.74	3633.10
309.96	3061.71
310.17	3153.87
310.39	3323.85
310.60	3569.61
310.81	3147.73
311.03	3061.71
311.24	3682.25
311.45	3491.79
311.67	3301.33
311.88	3151.82
312.09	3436.49
312.31	3270.61
312.52	3049.43
312.73	3065.81
312.95	3098.58
313.16	3246.03
313.37	3221.45
313.59	3205.07
313.80	3702.73
314.01	3762.12
314.23	3069.91
314.44	2996.18
314.65	3237.84
314.87	3225.55
315.08	3164.11
315.29	3098.58
315.51	3180.50
315.72	3145.68
315.93	3127.25
316.15	3182.54
316.36	3356.62
316.57	3426.25
316.79	3074.00
317.00	3049.43
317.21	3559.37
317.43	3319.76
317.64	3071.95
317.85	2994.13
318.07	3387.34
318.28	3319.76
318.49	3127.25
318.70	3358.67
318.92	3493.83
319.13	3483.59
319.34	3250.13
319.56	3151.82
319.77	3448.78
319.98	3491.79
320.20	3399.63
320.41	3286.99
320.62	3510.22
320.83	3284.94
321.05	3301.33
321.26	3155.92
321.47	3499.98
321.69	3682.25
321.90	2992.08
322.11	3102.67
322.32	3471.31
322.54	3745.73
322.75	3106.77
322.96	4196.29
323.18	3188.69
323.39	3061.71
323.60	3033.04
323.81	3174.35
324.03	3282.89
324.24	3471.31
324.45	3252.17
324.66	3012.56
324.88	3682.25
325.09	3862.47
325.30	3100.62
325.52	2996.18
325.73	3485.64
325.94	3286.99
326.15	3049.43
326.37	2854.87
326.58	3606.47
326.79	3854.28
327.00	3012.56
327.22	3078.10
327.43	3389.39
327.64	3196.88
327.85	3217.36
328.07	3209.17
328.28	3893.19
328.49	3313.61
328.70	3084.24
328.92	3145.68
329.13	3420.11
329.34	3538.89
329.55	3254.22
329.76	3276.75
329.98	3362.76
330.19	3651.53
330.40	3178.45
330.61	3311.57
330.83	3678.15
331.04	3305.42
331.25	3119.06
331.46	3153.87
331.68	3186.64
331.89	3700.68
332.10	3137.49
332.31	2979.79
332.52	3418.06
332.74	3669.96
332.95	2967.51
333.16	3112.91
333.37	3608.52
333.58	3360.72
333.80	3082.19
334.01	2928.60
334.22	3430.35
334.43	3313.61
334.64	3057.62
334.86	3018.71
335.07	3284.94
335.28	3762.12
335.49	3041.23
335.70	3250.13
335.92	3745.73
336.13	3788.74
336.34	3074.00
336.55	3076.05
336.76	3489.74
336.98	3030.99
337.19	3164.11
337.40	3223.50
337.61	3960.77
337.82	3409.87
338.04	3233.74
338.25	2969.55
338.46	3379.15
338.67	3338.19
338.88	3018.71
339.09	3114.96
339.31	3323.85
339.52	3200.98
339.73	3092.43
339.94	3086.29
340.15	3637.19
340.36	3295.18
340.58	3190.74
340.79	2967.51
341.00	3508.17
341.21	3162.06
341.42	3327.95
341.63	3094.48
341.85	3663.82
342.06	3479.50
342.27	3012.56
342.48	3213.26
342.69	3194.83
342.90	3575.75
343.12	3522.51
343.33	3035.09
343.54	3649.48
343.75	3723.21
343.96	3241.93
344.17	3010.51
344.38	3463.12
344.60	3274.70
344.81	3033.04
345.02	3067.86
345.23	3743.69
345.44	3868.61
345.65	3196.88
345.86	3186.64
346.07	3461.07
346.29	3284.94
346.50	3311.57
346.71	3147.73
346.92	3778.50
347.13	3973.06
347.34	3129.30
347.55	2953.17
347.76	3534.79
347.98	3217.36
348.19	3114.96
348.40	3299.28
348.61	3303.37
348.82	3735.50
349.03	3153.87
349.24	2998.23
349.45	3827.65
349.66	3028.95
349.88	2983.89
350.09	3080.14
350.30	3794.89
350.51	3712.97
350.72	3352.52
350.93	3110.86
351.14	3385.29
351.35	3440.59
351.56	3112.91
351.77	3203.02
351.99	3532.75
352.20	3778.50
352.41	3229.65
352.62	3020.75
352.83	3381.20
353.04	3416.01
353.25	3143.63
353.46	3114.96
353.67	3561.42
353.88	3033.04
354.09	3014.61
354.30	3229.65
354.52	3600.33
354.73	3373.00
354.94	3071.95
355.15	3157.97
355.36	3925.96
355.57	3303.37
355.78	3012.56
355.99	3067.86
356.20	3387.34
356.41	3794.89
356.62	3172.30
356.83	3127.25
357.04	3706.82
357.25	3067.86
357.46	3106.77
357.68	3069.91
357.89	3248.08
358.10	3469.26
358.31	3082.19
358.52	3184.59
358.73	3168.21
358.94	3241.93
359.15	3074.00
359.36	3188.69
359.57	3366.86
359.78	3403.72
359.99	3352.52
360.20	2942.93
360.41	3444.68
360.62	3538.89
360.83	3184.59
361.04	3110.86
361.25	3610.57
361.46	3778.50
361.67	3223.50
361.88	3100.62
362.09	3747.78
362.30	3516.36
362.51	3041.23
362.72	3207.12
362.93	3557.32
363.14	3461.07
363.35	3229.65
363.56	3008.47
363.78	3762.12
363.99	3676.10
364.20	3127.25
364.41	3192.78
364.62	3887.04
364.83	3520.46
365.04	3174.35
365.25	3088.34
365.46	3895.24
365.67	3276.75
365.88	3350.48
366.09	3045.33
366.30	3397.58
366.51	3428.30
366.72	3061.71
366.93	3018.71
367.14	3440.59
367.35	3807.17
367.56	3035.09
367.77	3166.16
367.98	3461.07
368.18	3481.55
368.39	3303.37
368.60	3014.61
368.81	3583.95
369.02	3602.38
369.23	3174.35
369.44	3033.04
369.65	3377.10
369.86	3438.54
370.07	3155.92
370.28	2963.41
370.49	3493.83
370.70	3481.55
370.91	2990.03
371.12	2947.03
371.33	3727.30
371.54	3307.47
371.75	3090.38
371.96	2795.48
372.17	3522.51
372.38	3459.02
372.59	3108.82
372.80	3033.04
373.01	3444.68
373.22	3512.27
373.43	3082.19
373.64	2922.45
373.85	3753.93
374.06	3837.89
374.26	3278.80
374.47	3219.41
374.68	3741.64
374.89	3436.49
375.10	3000.27
375.31	3233.74
375.52	3450.83
375.73	3512.27
375.94	2920.40
376.15	3227.60
376.36	3211.22
376.57	3301.33
376.78	3096.53
376.99	3223.50
377.20	3747.78
377.40	3381.20
377.61	3377.10
377.82	3151.82
378.03	3758.02
378.24	3596.23
378.45	3266.51
378.66	3272.65
378.87	3160.02
379.08	3119.06
379.29	3086.29
379.50	3256.27
379.71	3391.44
379.91	3606.47
380.12	3076.05
380.33	3139.54
380.54	3473.36
380.75	3385.29
380.96	3139.54
381.17	3100.62
381.38	3440.59
381.59	3436.49
381.80	3207.12
382.00	3256.27
382.21	3485.64
382.42	3774.41
382.63	3411.92
382.84	3252.17
383.05	3667.91
383.26	3745.73
383.47	3243.98
383.68	3067.86
383.88	3512.27
384.09	3538.89
384.30	3313.61
384.51	3291.09
384.72	3428.30
384.93	3205.07
385.14	3076.05
385.35	3452.88
385.55	3196.88
385.76	3649.48
385.97	3164.11
386.18	2912.21
386.39	3225.55
386.60	3311.57
386.81	3106.77
387.02	2963.41
387.22	3164.11
387.43	3547.08
387.64	3176.40
387.85	3360.72
388.06	3418.06
388.27	4380.61
388.48	7243.67
388.68	10852.19
388.89	13541.17
389.10	14561.06
389.31	14204.71
389.52	11382.61
389.73	10209.12
389.93	9355.12
390.14	8443.78
390.35	7884.68
390.56	7356.30
390.77	6209.44
390.98	4679.61
391.18	4100.03
391.39	3885.00
391.60	3475.40
391.81	3383.24
392.02	3192.78
392.23	3915.72
392.43	3536.84
392.64	3172.30
392.85	3258.32
393.06	3805.13
393.27	3401.68
393.47	3047.38
393.68	3262.41
393.89	3373.00
394.10	3682.25
394.31	3162.06
394.52	3155.92
394.72	3276.75
394.93	3755.97
395.14	3008.47
395.35	3243.98
395.56	3364.81
395.76	3418.06
395.97	3125.20
396.18	3252.17
396.39	3467.21
396.60	4059.07
396.80	3483.59
397.01	3330.00
397.22	3532.75
397.43	3626.95
397.64	3151.82
397.84	3229.65
398.05	3856.33
398.26	3352.52
398.47	3278.80
398.67	3373.00
398.88	3456.97
399.09	3606.47
399.30	3125.20
399.51	3229.65
399.71	3299.28
399.92	3469.26
400.13	3250.13
400.34	3143.63
400.54	3430.35
400.75	3819.46
400.96	3157.97
401.17	3493.83
401.37	3577.80
401.58	3336.14
401.79	3143.63
402.00	3270.61
402.21	3966.92
402.41	3569.61
402.62	3387.34
402.83	3590.09
403.04	3844.04
403.24	4212.67
403.45	3229.65
403.66	3430.35
403.87	3506.12
404.07	3758.02
404.28	3389.39
404.49	3430.35
404.70	3555.27
404.90	3606.47
405.11	3149.78
405.32	3209.17
405.52	3293.13
405.73	3346.38
405.94	3008.47
406.15	3217.36
406.35	3512.27
406.56	3700.68
406.77	3184.59
406.98	3188.69
407.18	3307.47
407.39	3768.26
407.60	3188.69
407.80	3182.54
408.01	3393.48
408.22	3545.03
408.43	3074.00
408.63	3266.51
408.84	3524.55
409.05	3702.73
409.25	3114.96
409.46	3211.22
409.67	3397.58
409.88	3303.37
410.08	3176.40
410.29	3104.72
410.50	3608.52
410.70	3499.98
410.91	3137.49
411.12	3221.45
411.32	3426.25
411.53	3196.88
411.74	3074.00
411.95	3137.49
412.15	3487.69
412.36	3567.56
412.57	3295.18
412.77	3315.66
412.98	3389.39
413.19	3366.86
413.39	3147.73
413.60	3229.65
413.81	3688.39
414.01	3086.29
414.22	3160.02
414.43	3319.76
414.63	3377.10
414.84	3649.48
415.05	3143.63
415.25	2940.88
415.46	3506.12
415.67	3391.44
415.87	3162.06
416.08	3196.88
416.29	3418.06
416.49	3616.71
416.70	3196.88
416.91	3176.40
417.11	3399.63
417.32	3684.30
417.53	3219.41
417.73	3401.68
417.94	3424.20
418.15	3565.51
418.35	3137.49
418.56	3286.99
418.77	3989.44
418.97	3536.84
419.18	3237.84
419.38	2832.34
419.59	3508.17
419.80	3782.60
420.00	3067.86
420.21	3243.98
420.42	3786.69
420.62	3495.88
420.83	3164.11
421.04	3174.35
421.24	3387.34
421.45	3622.86
421.65	3176.40
421.86	3141.58
422.07	3577.80
422.27	3573.71
422.48	3024.85
422.69	2971.60
422.89	3446.73
423.10	3291.09
423.30	3196.88
423.51	3254.22
423.72	3518.41
423.92	3655.62
424.13	3047.38
424.33	3184.59
424.54	3633.10
424.75	3588.04
424.95	3395.53
425.16	3049.43
425.36	3448.78
425.57	3618.76
425.78	3289.04
425.98	3278.80
426.19	3393.48
426.39	3221.45
426.60	3319.76
426.81	3297.23
427.01	3487.69
427.22	3254.22
427.42	3020.75
427.63	3049.43
427.83	3583.95
428.04	3872.71
428.25	3182.54
428.45	3221.45
428.66	3622.86
428.86	3389.39
429.07	3186.64
429.28	3178.45
429.48	3403.72
429.69	3246.03
429.89	3356.62
430.10	3090.38
430.30	3647.43
430.51	3672.01
430.71	3160.02
430.92	3258.32
431.13	3272.65
431.33	3549.13
431.54	3217.36
431.74	3346.38
431.95	3987.40
432.15	3221.45
432.36	3211.22
432.56	3227.60
432.77	3954.63
432.98	3745.73
433.18	3227.60
433.39	3078.10
433.59	3489.74
433.80	3844.04
434.00	3330.00
434.21	3231.69
434.41	3313.61
434.62	4040.64
434.82	3057.62
435.03	3090.38
435.23	3522.51
435.44	3094.48
435.64	3067.86
435.85	3168.21
436.06	3651.53
436.26	3629.00
436.47	3192.78
436.67	3114.96
436.88	3373.00
437.08	3643.34
437.29	3307.47
437.49	3278.80
437.70	3745.73
437.90	3393.48
438.11	3401.68
438.31	3262.41
438.52	3647.43
438.72	3616.71
438.93	3502.03
439.13	3297.23
439.34	3624.90
439.54	3319.76
439.75	3217.36
439.95	3297.23
440.16	3229.65
440.36	3411.92
440.57	3133.39
440.77	3190.74
440.98	3430.35
441.18	3567.56
441.39	3045.33
441.59	3024.85
441.80	3915.72
442.00	3424.20
442.21	3223.50
442.41	3090.38
442.62	3659.72
442.82	3248.08
443.02	3207.12
443.23	3213.26
443.43	3352.52
443.64	3721.16
443.84	3012.56
444.05	3241.93
444.25	3465.16
444.46	3286.99
444.66	3112.91
444.87	3323.85
445.07	3096.53
445.28	3344.33
445.48	3409.87
445.69	3215.31
445.89	3989.44
446.09	3438.54
446.30	3442.64
446.50	3551.18
446.71	4984.76
446.91	6156.19
447.12	6729.63
447.32	7286.67
447.53	7305.10
447.73	6199.20
447.93	5392.30
448.14	5197.74
448.34	5441.45
448.55	4378.56
448.75	4509.63
448.96	4192.19
449.16	4059.07
449.36	4001.73
449.57	3459.02
449.77	3174.35
449.98	3317.71
450.18	3575.75
450.39	3051.47
450.59	3327.95
450.79	3420.11
451.00	3323.85
451.20	3395.53
451.41	3262.41
451.61	3467.21
451.81	3418.06
452.02	3043.28
452.22	3153.87
452.43	3297.23
