SpectraSuite Data File
++++++++++++++++++++++++++++++++++++
Date: Fri May 06 09:28:45 CEST 2016
User: root
Dark Spectrum Present: No
Reference Spectrum Present: No
Number of Sampled Component Spectra: 1
Spectrometers: USB4C02835
Integration Time (usec): 100000 (USB4C02835)
Spectra Averaged: 1 (USB4C02835)
Boxcar Smoothing: 0 (USB4C02835)
Correct for Electrical Dark: No (USB4C02835)
Strobe/Lamp Enabled: No (USB4C02835)
Correct for Detector Non-linearity: No (USB4C02835)
Correct for Stray Light: No (USB4C02835)
Number of Pixels in Processed Spectrum: 3648
>>>>>Begin Processed Spectral Data<<<<<
177.47	2373.60
177.69	2373.60
177.91	2373.60
178.13	2336.73
178.36	2306.01
178.58	3127.25
178.80	3229.65
179.02	3059.67
179.24	3229.65
179.46	2766.81
179.68	2906.07
179.90	3311.57
180.13	3438.54
180.35	2815.96
180.57	2844.63
180.79	3581.90
181.01	3405.77
181.23	2926.55
181.45	3180.50
181.67	3604.42
181.90	3575.75
182.12	3106.77
182.34	2795.48
182.56	3545.03
182.78	3567.56
183.00	2856.92
183.22	2942.93
183.44	3086.29
183.66	4067.27
183.89	3110.86
184.11	2908.12
184.33	3563.47
184.55	3706.82
184.77	2918.36
184.99	2926.55
185.21	3348.43
185.43	3975.11
185.65	3016.66
185.87	2969.55
186.10	3975.11
186.32	4022.21
186.54	3098.58
186.76	3131.34
186.98	3639.24
187.20	3454.92
187.42	3016.66
187.64	2914.26
187.86	3606.47
188.08	3780.55
188.30	2969.55
188.52	3016.66
188.75	3778.50
188.97	3657.67
189.19	2963.41
189.41	2947.03
189.63	3547.08
189.85	3383.24
190.07	2844.63
190.29	2836.44
190.51	3491.79
190.73	3067.86
190.95	3172.30
191.17	2967.51
191.39	3151.82
191.61	3389.39
191.84	2994.13
192.06	3049.43
192.28	3153.87
192.50	4128.70
192.72	3104.72
192.94	2981.84
193.16	3663.82
193.38	3547.08
193.60	2877.40
193.82	3186.64
194.04	3620.81
194.26	3471.31
194.48	2987.99
194.70	2987.99
194.92	3409.87
195.14	3672.01
195.36	2906.07
195.58	2971.60
195.80	3381.20
196.02	3264.46
196.24	2942.93
196.46	3065.81
196.69	3401.68
196.91	3917.76
197.13	2912.21
197.35	3024.85
197.57	3819.46
197.79	3596.23
198.01	3016.66
198.23	3018.71
198.45	3622.86
198.67	3147.73
198.89	2793.43
199.11	3071.95
199.33	3325.90
199.55	2955.22
199.77	2904.02
199.99	3205.07
200.21	3397.58
200.43	3573.71
200.65	2873.30
200.87	2740.18
201.09	3499.98
201.31	3436.49
201.53	2969.55
201.75	3061.71
201.97	3489.74
202.19	3336.14
202.41	3035.09
202.63	3057.62
202.85	3491.79
203.07	3512.27
203.29	3114.96
203.51	2852.82
203.73	3217.36
203.95	4136.90
204.17	2961.36
204.39	3166.16
204.61	3467.21
204.83	3303.37
205.05	3170.26
205.27	2924.50
205.49	3874.76
205.71	3424.20
205.93	2772.95
206.15	2891.73
206.37	3526.60
206.59	3385.29
206.81	2795.48
207.03	2852.82
207.25	3254.22
207.47	3598.28
207.69	2922.45
207.91	3205.07
208.13	3778.50
208.34	3209.17
208.56	2983.89
208.78	2990.03
209.00	3405.77
209.22	3391.44
209.44	2971.60
209.66	2852.82
209.88	3487.69
210.10	3377.10
210.32	2947.03
210.54	2953.17
210.76	3307.47
210.98	3626.95
211.20	2781.14
211.42	3094.48
211.64	3641.29
211.86	3557.32
212.08	3067.86
212.30	3010.51
212.52	3426.25
212.74	3508.17
212.96	3100.62
213.17	3018.71
213.39	3661.77
213.61	3831.75
213.83	2893.78
214.05	2838.48
214.27	3704.78
214.49	3264.46
214.71	2930.64
214.93	3016.66
215.15	3444.68
215.37	3633.10
215.59	2820.05
215.81	3119.06
216.03	3706.82
216.24	3395.53
216.46	3008.47
216.68	3014.61
216.90	3616.71
217.12	3696.58
217.34	2961.36
217.56	3117.01
217.78	3712.97
218.00	3551.18
218.22	3014.61
218.44	2990.03
218.66	3520.46
218.87	3837.89
219.09	2934.74
219.31	3000.27
219.53	3467.21
219.75	3377.10
219.97	3043.28
220.19	3035.09
220.41	3401.68
220.63	3768.26
220.85	3033.04
221.06	2967.51
221.28	3733.45
221.50	3598.28
221.72	2920.40
221.94	2789.33
222.16	3483.59
222.38	3729.35
222.60	2904.02
222.82	2983.89
223.03	3721.16
223.25	3205.07
223.47	2951.12
223.69	3282.89
223.91	3549.13
224.13	3436.49
224.35	2893.78
224.57	3131.34
224.78	3565.51
225.00	3252.17
225.22	3057.62
225.44	2885.59
225.66	3563.47
225.88	3315.66
226.10	3104.72
226.32	2994.13
226.53	3803.08
226.75	3395.53
226.97	3018.71
227.19	3022.80
227.41	3332.05
227.63	3428.30
227.85	2820.05
228.06	3065.81
228.28	3573.71
228.50	3704.78
228.72	2775.00
228.94	2940.88
229.16	3051.47
229.37	3200.98
229.59	2838.48
229.81	3268.56
230.03	3377.10
230.25	3123.15
230.47	2740.18
230.69	2961.36
230.90	3692.49
231.12	3266.51
231.34	3065.81
231.56	2992.08
231.78	3157.97
232.00	3545.03
232.21	3063.76
232.43	2961.36
232.65	3022.80
232.87	3491.79
233.09	2891.73
233.30	2930.64
233.52	3569.61
233.74	3469.26
233.96	2979.79
234.18	3174.35
234.40	3520.46
234.61	3989.44
234.83	2914.26
235.05	2838.48
235.27	4132.80
235.49	3700.68
235.70	2809.81
235.92	2994.13
236.14	3618.76
236.36	4007.87
236.58	2893.78
236.79	3119.06
237.01	3395.53
237.23	3348.43
237.45	3188.69
237.67	3028.95
237.88	3608.52
238.10	3823.56
238.32	2848.72
238.54	2863.06
238.76	3426.25
238.97	3268.56
239.19	2926.55
239.41	3061.71
239.63	3762.12
239.85	3262.41
240.06	3006.42
240.28	2947.03
240.50	3721.16
240.72	3459.02
240.93	2871.25
241.15	3090.38
241.37	3440.59
241.59	3755.97
241.81	3039.19
242.02	3086.29
242.24	3510.22
242.46	3608.52
242.68	2731.99
242.89	2983.89
243.11	3645.38
243.33	3456.97
243.55	2959.31
243.76	2965.46
243.98	3276.75
244.20	3344.33
244.42	2955.22
244.64	2910.16
244.85	3145.68
245.07	3233.74
245.29	3006.42
245.51	3049.43
245.72	3551.18
245.94	3721.16
246.16	2910.16
246.38	2969.55
246.59	3391.44
246.81	3225.55
247.03	2811.86
247.24	2760.66
247.46	3266.51
247.68	3381.20
247.90	2910.16
248.11	2998.23
248.33	3598.28
248.55	3428.30
248.77	2967.51
248.98	3008.47
249.20	3780.55
249.42	3491.79
249.64	2963.41
249.85	2889.68
250.07	3393.48
250.29	3565.51
250.50	3082.19
250.72	2924.50
250.94	3487.69
251.16	3932.10
251.37	2949.08
251.59	3018.71
251.81	3536.84
252.02	3770.31
252.24	2895.83
252.46	3090.38
252.68	3383.24
252.89	3297.23
253.11	2807.77
253.33	3090.38
253.54	3786.69
253.76	3270.61
253.98	3012.56
254.20	2904.02
254.41	3131.34
254.63	3424.20
254.85	2815.96
255.06	3137.49
255.28	3579.85
255.50	3364.81
255.71	2944.98
255.93	2715.61
256.15	3465.16
256.36	3602.38
256.58	2926.55
256.80	2807.77
257.02	3344.33
257.23	3289.04
257.45	2994.13
257.67	3100.62
257.88	3268.56
258.10	3504.07
258.32	2973.65
258.53	3090.38
258.75	3811.27
258.97	3262.41
259.18	2848.72
259.40	2930.64
259.62	3923.91
259.83	3737.54
260.05	2967.51
260.27	4040.64
260.48	3694.54
260.70	3254.22
260.92	2838.48
261.13	3008.47
261.35	3626.95
261.57	3590.09
261.78	2787.29
262.00	2932.69
262.22	3594.19
262.43	3336.14
262.65	2973.65
262.86	2961.36
263.08	4005.83
263.30	3450.83
263.51	2779.09
263.73	2955.22
263.95	3680.20
264.16	3270.61
264.38	2844.63
264.60	2840.53
264.81	3459.02
265.03	3852.23
265.25	3397.58
265.46	2906.07
265.68	3729.35
265.89	3674.06
266.11	2820.05
266.33	2873.30
266.54	3614.66
266.76	3540.94
266.98	3084.24
267.19	3137.49
267.41	3727.30
267.62	3438.54
267.84	2738.13
268.06	3106.77
268.27	3465.16
268.49	3680.20
268.70	3055.57
268.92	2979.79
269.14	3286.99
269.35	3065.81
269.57	3155.92
269.79	3078.10
270.00	3268.56
270.22	3885.00
270.43	2836.44
270.65	2787.29
270.87	3499.98
271.08	3618.76
271.30	3033.04
271.51	3012.56
271.73	3608.52
271.95	3772.36
272.16	2959.31
272.38	3147.73
272.59	3289.04
272.81	3504.07
273.02	2928.60
273.24	3024.85
273.46	3805.13
273.67	3155.92
273.89	2799.57
274.10	2875.35
274.32	3753.93
274.54	3581.90
274.75	3127.25
274.97	3094.48
275.18	3569.61
275.40	3606.47
275.61	3006.42
275.83	3094.48
276.05	3180.50
276.26	3297.23
276.48	3074.00
276.69	3153.87
276.91	3362.76
277.12	3803.08
277.34	3127.25
277.55	3178.45
277.77	3448.78
277.99	3278.80
278.20	3209.17
278.42	3028.95
278.63	3323.85
278.85	3260.37
279.06	3028.95
279.28	3241.93
279.49	3661.77
279.71	3647.43
279.93	3180.50
280.14	3190.74
280.36	3323.85
280.57	3618.76
280.79	3143.63
281.00	3024.85
281.22	3348.43
281.43	3751.88
281.65	2947.03
281.86	3016.66
282.08	3524.55
282.29	3944.39
282.51	2977.75
282.73	2930.64
282.94	3119.06
283.16	3626.95
283.37	3170.26
283.59	3139.54
283.80	3594.19
284.02	3463.12
284.23	3067.86
284.45	3186.64
284.66	3217.36
284.88	3233.74
285.09	2959.31
285.31	3198.93
285.52	3536.84
285.74	3080.14
285.95	3315.66
286.17	3123.15
286.38	3778.50
286.60	3264.46
286.81	3065.81
287.03	3131.34
287.24	3422.16
287.46	3518.41
287.67	3180.50
287.89	3305.42
288.10	3461.07
288.32	3422.16
288.53	3237.84
288.75	3186.64
288.96	3692.49
289.18	3262.41
289.39	3074.00
289.61	3133.39
289.82	3852.23
290.04	3841.99
290.25	2944.98
290.47	3104.72
290.68	3469.26
290.90	3682.25
291.11	2879.44
291.33	3272.65
291.54	3205.07
291.76	3403.72
291.97	3246.03
292.18	3209.17
292.40	3303.37
292.61	3293.13
292.83	3381.20
293.04	3102.67
293.26	3471.31
293.47	3395.53
293.69	3098.58
293.90	2983.89
294.12	3678.15
294.33	3461.07
294.55	3182.54
294.76	3213.26
294.97	3712.97
295.19	3913.67
295.40	3061.71
295.62	3243.98
295.83	3635.14
296.05	3227.60
296.26	3346.38
296.48	3129.30
296.69	3344.33
296.90	3450.83
297.12	3225.55
297.33	3250.13
297.55	3495.88
297.76	3463.12
297.98	3176.40
298.19	3284.94
298.41	3454.92
298.62	3213.26
298.83	3358.67
299.05	3168.21
299.26	3342.28
299.48	3274.70
299.69	3221.45
299.90	3004.37
300.12	3323.85
300.33	3616.71
300.55	3096.53
300.76	3205.07
300.98	3229.65
301.19	3606.47
301.40	3061.71
301.62	3098.58
301.83	3641.29
302.05	3416.01
302.26	3057.62
302.47	3160.02
302.69	3176.40
302.90	3532.75
303.12	3033.04
303.33	3149.78
303.54	3942.34
303.76	3272.65
303.97	3076.05
304.19	3323.85
304.40	3358.67
304.61	3516.36
304.83	3213.26
305.04	3211.22
305.26	3643.34
305.47	3364.81
305.68	3110.86
305.90	3008.47
306.11	3686.34
306.33	3428.30
306.54	2887.64
306.75	3022.80
306.97	3147.73
307.18	3246.03
307.39	3053.52
307.61	3213.26
307.82	3323.85
308.04	3624.90
308.25	2934.74
308.46	3266.51
308.68	3467.21
308.89	3375.05
309.10	3233.74
309.32	3088.34
309.53	3434.44
309.74	3612.62
309.96	3049.43
310.17	3184.59
310.39	3289.04
310.60	3516.36
310.81	3190.74
311.03	3041.23
311.24	3573.71
311.45	3475.40
311.67	3360.72
311.88	3301.33
312.09	3352.52
312.31	3360.72
312.52	3059.67
312.73	3045.33
312.95	3180.50
313.16	3264.46
313.37	3284.94
313.59	3233.74
313.80	3614.66
314.01	3766.21
314.23	3063.76
314.44	3002.32
314.65	3157.97
314.87	3289.04
315.08	3104.72
315.29	3155.92
315.51	3192.78
315.72	3117.01
315.93	3215.31
316.15	3149.78
316.36	3354.57
316.57	3430.35
316.79	3069.91
317.00	3008.47
317.21	3577.80
317.43	3203.02
317.64	3143.63
317.85	3043.28
318.07	3305.42
318.28	3309.52
318.49	3213.26
318.70	3385.29
318.92	3459.02
319.13	3598.28
319.34	3209.17
319.56	2979.79
319.77	3534.79
319.98	3559.37
320.20	3418.06
320.41	3205.07
320.62	3442.64
320.83	3192.78
321.05	3319.76
321.26	3137.49
321.47	3540.94
321.69	3766.21
321.90	2934.74
322.11	3016.66
322.32	3461.07
322.54	3774.41
322.75	3098.58
322.96	4282.30
323.18	3147.73
323.39	2967.51
323.60	3022.80
323.81	3196.88
324.03	3330.00
324.24	3454.92
324.45	3200.98
324.66	3041.23
324.88	3596.23
325.09	3794.89
325.30	3141.58
325.52	3020.75
325.73	3489.74
325.94	3239.89
326.15	2994.13
326.37	2920.40
326.58	3633.10
326.79	3852.23
327.00	3037.14
327.22	3047.38
327.43	3401.68
327.64	3229.65
327.85	3297.23
328.07	3203.02
328.28	3878.85
328.49	3407.82
328.70	3117.01
328.92	3123.15
329.13	3338.19
329.34	3512.27
329.55	3262.41
329.76	3241.93
329.98	3327.95
330.19	3764.17
330.40	3237.84
330.61	3198.93
330.83	3557.32
331.04	3225.55
331.25	3180.50
331.46	3160.02
331.68	3180.50
331.89	3692.49
332.10	3145.68
332.31	2944.98
332.52	3354.57
332.74	3704.78
332.95	2924.50
333.16	3086.29
333.37	3612.62
333.58	3280.85
333.80	3147.73
334.01	2877.40
334.22	3422.16
334.43	3315.66
334.64	2979.79
334.86	3106.77
335.07	3221.45
335.28	3811.27
335.49	2981.84
335.70	3110.86
335.92	3770.31
336.13	3960.77
336.34	3098.58
336.55	3024.85
336.76	3534.79
336.98	3069.91
337.19	3069.91
337.40	3166.16
337.61	4097.99
337.82	3330.00
338.04	3139.54
338.25	2944.98
338.46	3385.29
338.67	3379.15
338.88	3057.62
339.09	3076.05
339.31	3352.52
339.52	3155.92
339.73	3069.91
339.94	3168.21
340.15	3622.86
340.36	3330.00
340.58	3129.30
340.79	3063.76
341.00	3499.98
341.21	3250.13
341.42	3442.64
341.63	3139.54
341.85	3639.24
342.06	3436.49
342.27	3035.09
342.48	3229.65
342.69	3061.71
342.90	3489.74
343.12	3622.86
343.33	3024.85
343.54	3684.30
343.75	3727.30
343.96	3315.66
344.17	3024.85
344.38	3346.38
344.60	3237.84
344.81	3030.99
345.02	3157.97
345.23	3735.50
345.44	4036.55
345.65	3108.82
345.86	3231.69
346.07	3485.64
346.29	3332.05
346.50	3270.61
346.71	3127.25
346.92	3815.37
347.13	4026.31
347.34	3241.93
347.55	2981.84
347.76	3524.55
347.98	3145.68
348.19	3174.35
348.40	3262.41
348.61	3379.15
348.82	3766.21
349.03	3121.10
349.24	3028.95
349.45	3958.72
349.66	3022.80
349.88	3071.95
350.09	3020.75
350.30	3753.93
350.51	3704.78
350.72	3330.00
350.93	2969.55
351.14	3342.28
351.35	3524.55
351.56	3074.00
351.77	3121.10
351.99	3520.46
352.20	3706.82
352.41	3205.07
352.62	2967.51
352.83	3430.35
353.04	3446.73
353.25	3065.81
353.46	3153.87
353.67	3672.01
353.88	3067.86
354.09	2944.98
354.30	3123.15
354.52	3696.58
354.73	3416.01
354.94	3026.90
355.15	3119.06
355.36	3919.81
355.57	3321.81
355.78	3051.47
355.99	3143.63
356.20	3459.02
356.41	3811.27
356.62	3143.63
356.83	3125.20
357.04	3643.34
357.25	3057.62
357.46	3069.91
357.68	3012.56
357.89	3182.54
358.10	3452.88
358.31	2996.18
358.52	3129.30
358.73	3176.40
358.94	3276.75
359.15	3166.16
359.36	3131.34
359.57	3479.50
359.78	3321.81
359.99	3239.89
360.20	3092.43
360.41	3424.20
360.62	3557.32
360.83	3192.78
361.04	3108.82
361.25	3534.79
361.46	3805.13
361.67	3205.07
361.88	3139.54
362.09	3598.28
362.30	3540.94
362.51	3059.67
362.72	3139.54
362.93	3618.76
363.14	3491.79
363.35	3299.28
363.56	2934.74
363.78	3729.35
363.99	3706.82
364.20	3168.21
364.41	3203.02
364.62	3876.80
364.83	3510.22
365.04	3108.82
365.25	3141.58
365.46	3952.58
365.67	3305.42
365.88	3280.85
366.09	3125.20
366.30	3377.10
366.51	3401.68
366.72	3151.82
366.93	3090.38
367.14	3532.75
367.35	3606.47
367.56	3026.90
367.77	3176.40
367.98	3473.36
368.18	3532.75
368.39	3155.92
368.60	3053.52
368.81	3688.39
369.02	3479.50
369.23	3104.72
369.44	2955.22
369.65	3469.26
369.86	3616.71
370.07	3198.93
370.28	2996.18
370.49	3551.18
370.70	3577.80
370.91	3039.19
371.12	2938.84
371.33	3715.02
371.54	3336.14
371.75	3239.89
371.96	2770.90
372.17	3547.08
372.38	3342.28
372.59	3141.58
372.80	3078.10
373.01	3340.24
373.22	3473.36
373.43	3100.62
373.64	2987.99
373.85	3639.24
374.06	3790.79
374.26	3250.13
374.47	3180.50
374.68	3809.22
374.89	3512.27
375.10	3057.62
375.31	3127.25
375.52	3463.12
375.73	3473.36
375.94	2940.88
376.15	3190.74
376.36	3209.17
376.57	3373.00
376.78	3215.31
376.99	3237.84
377.20	3725.26
377.40	3305.42
377.61	3465.16
377.82	3037.14
378.03	3776.45
378.24	3590.09
378.45	3133.39
378.66	3198.93
378.87	3082.19
379.08	3108.82
379.29	3102.67
379.50	3284.94
379.71	3450.83
379.91	3598.28
380.12	3100.62
380.33	3196.88
380.54	3467.21
380.75	3448.78
380.96	3090.38
381.17	3174.35
381.38	3391.44
381.59	3368.91
381.80	3174.35
382.00	3313.61
382.21	3483.59
382.42	3743.69
382.63	3518.41
382.84	3270.61
383.05	3696.58
383.26	3749.83
383.47	3321.81
383.68	3106.77
383.88	3471.31
384.09	3483.59
384.30	3366.86
384.51	3250.13
384.72	3346.38
384.93	3241.93
385.14	3127.25
385.35	3401.68
385.55	3166.16
385.76	3717.06
385.97	3055.57
386.18	2967.51
386.39	3262.41
386.60	3272.65
386.81	3110.86
387.02	3041.23
387.22	3184.59
387.43	3659.72
387.64	3205.07
387.85	3395.53
388.06	3397.58
388.27	4378.56
388.48	7368.59
388.68	10981.21
388.89	13690.67
389.10	15013.66
389.31	14468.90
389.52	11796.30
389.73	10409.83
389.93	9650.03
390.14	8419.20
390.35	7968.65
390.56	7483.28
390.77	6350.75
390.98	4853.69
391.18	4083.65
391.39	3952.58
391.60	3444.68
391.81	3297.23
392.02	3123.15
392.23	4028.35
392.43	3499.98
392.64	3176.40
392.85	3278.80
393.06	3798.98
393.27	3442.64
393.47	3057.62
393.68	3198.93
393.89	3370.96
394.10	3635.14
394.31	3125.20
394.52	3088.34
394.72	3272.65
394.93	3762.12
395.14	3053.52
395.35	3184.59
395.56	3332.05
395.76	3393.48
395.97	3137.49
396.18	3256.27
396.39	3413.96
396.60	4132.80
396.80	3518.41
397.01	3336.14
397.22	3508.17
397.43	3657.67
397.64	3094.48
397.84	3180.50
398.05	3827.65
398.26	3387.34
398.47	3301.33
398.67	3377.10
398.88	3450.83
399.09	3561.42
399.30	3047.38
399.51	3235.79
399.71	3313.61
399.92	3450.83
400.13	3266.51
400.34	3155.92
400.54	3420.11
400.75	3768.26
400.96	3192.78
401.17	3465.16
401.37	3583.95
401.58	3473.36
401.79	3180.50
402.00	3305.42
402.21	3960.77
402.41	3616.71
402.62	3377.10
402.83	3559.37
403.04	3819.46
403.24	4179.90
403.45	3250.13
403.66	3522.51
403.87	3712.97
404.07	3786.69
404.28	3418.06
404.49	3450.83
404.70	3467.21
404.90	3655.62
405.11	3170.26
405.32	3227.60
405.52	3311.57
405.73	3319.76
405.94	3102.67
406.15	3231.69
406.35	3547.08
406.56	3647.43
406.77	3186.64
406.98	3143.63
407.18	3291.09
407.39	3805.13
407.60	3155.92
407.80	3252.17
408.01	3334.09
408.22	3573.71
408.43	3133.39
408.63	3258.32
408.84	3639.24
409.05	3657.67
409.25	3074.00
409.46	3147.73
409.67	3311.57
409.88	3303.37
410.08	3168.21
410.29	3069.91
410.50	3721.16
410.70	3594.19
410.91	3090.38
411.12	3209.17
411.32	3549.13
411.53	3254.22
411.74	3157.97
411.95	3180.50
412.15	3428.30
412.36	3579.85
412.57	3305.42
412.77	3338.19
412.98	3348.43
413.19	3315.66
413.39	3221.45
413.60	3149.78
413.81	3719.11
414.01	3170.26
414.22	3157.97
414.43	3430.35
414.63	3309.52
414.84	3618.76
415.05	3174.35
415.25	3037.14
415.46	3600.33
415.67	3286.99
415.87	3198.93
416.08	3127.25
416.29	3403.72
416.49	3561.42
416.70	3184.59
416.91	3168.21
417.11	3342.28
417.32	3635.14
417.53	3243.98
417.73	3250.13
417.94	3487.69
418.15	3452.88
418.35	3217.36
418.56	3231.69
418.77	3923.91
418.97	3377.10
419.18	3268.56
419.38	2879.44
419.59	3463.12
419.80	3753.93
420.00	2990.03
420.21	3131.34
420.42	3723.21
420.62	3583.95
420.83	3182.54
421.04	3174.35
421.24	3389.39
421.45	3606.47
421.65	3239.89
421.86	3194.83
422.07	3698.63
422.27	3479.50
422.48	3080.14
422.69	2994.13
422.89	3420.11
423.10	3413.96
423.30	3186.64
423.51	3254.22
423.72	3604.42
423.92	3604.42
424.13	3051.47
424.33	3272.65
424.54	3579.85
424.75	3495.88
424.95	3418.06
425.16	3117.01
425.36	3479.50
425.57	3686.34
425.78	3264.46
425.98	3286.99
426.19	3352.52
426.39	3340.24
426.60	3278.80
426.81	3327.95
427.01	3573.71
427.22	3282.89
427.42	3000.27
427.63	3196.88
427.83	3606.47
428.04	3821.51
428.25	3213.26
428.45	3295.18
428.66	3663.82
428.86	3319.76
429.07	3166.16
429.28	3139.54
429.48	3497.93
429.69	3309.52
429.89	3221.45
430.10	3104.72
430.30	3590.09
430.51	3661.77
430.71	3114.96
430.92	3160.02
431.13	3364.81
431.33	3547.08
431.54	3241.93
431.74	3323.85
431.95	3852.23
432.15	3221.45
432.36	3153.87
432.56	3223.50
432.77	3909.57
432.98	3827.65
433.18	3260.37
433.39	3012.56
433.59	3434.44
433.80	3928.00
434.00	3280.85
434.21	3223.50
434.41	3297.23
434.62	4018.11
434.82	3024.85
435.03	3026.90
435.23	3532.75
435.44	3078.10
435.64	3049.43
435.85	3133.39
436.06	3672.01
436.26	3696.58
436.47	3170.26
436.67	3039.19
436.88	3409.87
437.08	3696.58
437.29	3250.13
437.49	3352.52
437.70	3676.10
437.90	3434.44
438.11	3375.05
438.31	3211.22
438.52	3653.58
438.72	3686.34
438.93	3473.36
439.13	3299.28
439.34	3608.52
439.54	3360.72
439.75	3254.22
439.95	3188.69
440.16	3264.46
440.36	3321.81
440.57	3125.20
440.77	3139.54
440.98	3405.77
441.18	3557.32
441.39	3076.05
441.59	3080.14
441.80	3889.09
442.00	3391.44
442.21	3256.27
442.41	3016.66
442.62	3680.20
442.82	3299.28
443.02	3131.34
443.23	3184.59
443.43	3336.14
443.64	3682.25
443.84	3012.56
444.05	3203.02
444.25	3491.79
444.46	3368.91
444.66	3104.72
444.87	3375.05
445.07	3147.73
445.28	3362.76
445.48	3360.72
445.69	3254.22
445.89	3997.64
446.09	3424.20
446.30	3420.11
446.50	3487.69
446.71	5042.10
446.91	6109.09
447.12	6961.05
447.32	7161.75
447.53	7423.89
447.73	6293.41
447.93	5351.34
448.14	5191.60
448.34	5455.79
448.55	4511.68
448.75	4384.70
448.96	4204.48
449.16	4102.08
449.36	3966.92
449.57	3426.25
449.77	3205.07
449.98	3436.49
450.18	3581.90
450.39	3059.67
450.59	3319.76
450.79	3346.38
451.00	3246.03
451.20	3311.57
451.41	3149.78
451.61	3502.03
451.81	3418.06
452.02	3102.67
452.22	3205.07
452.43	3360.72
