SpectraSuite Data File
++++++++++++++++++++++++++++++++++++
Date: Fri May 06 09:28:25 CEST 2016
User: root
Dark Spectrum Present: No
Reference Spectrum Present: No
Number of Sampled Component Spectra: 1
Spectrometers: USB4C02835
Integration Time (usec): 100000 (USB4C02835)
Spectra Averaged: 1 (USB4C02835)
Boxcar Smoothing: 0 (USB4C02835)
Correct for Electrical Dark: No (USB4C02835)
Strobe/Lamp Enabled: No (USB4C02835)
Correct for Detector Non-linearity: No (USB4C02835)
Correct for Stray Light: No (USB4C02835)
Number of Pixels in Processed Spectrum: 3648
>>>>>Begin Processed Spectral Data<<<<<
177.47	2303.96
177.69	2303.96
177.91	2303.96
178.13	2297.82
178.36	2340.83
178.58	3119.06
178.80	3307.47
179.02	3102.67
179.24	3237.84
179.46	2856.92
179.68	2975.70
179.90	3428.30
180.13	3424.20
180.35	2725.85
180.57	2854.87
180.79	3551.18
181.01	3385.29
181.23	2949.08
181.45	3106.77
181.67	3633.10
181.90	3622.86
182.12	3014.61
182.34	2871.25
182.56	3581.90
182.78	3581.90
183.00	2877.40
183.22	2977.75
183.44	3043.28
183.66	4085.70
183.89	3114.96
184.11	3008.47
184.33	3647.43
184.55	3708.87
184.77	2938.84
184.99	2965.46
185.21	3377.10
185.43	4032.45
185.65	2877.40
185.87	2955.22
186.10	4038.59
186.32	3934.15
186.54	3065.81
186.76	2949.08
186.98	3612.62
187.20	3381.20
187.42	3033.04
187.64	2951.12
187.86	3610.57
188.08	3616.71
188.30	2875.35
188.52	2996.18
188.75	3702.73
188.97	3753.93
189.19	2934.74
189.41	2930.64
189.63	3553.23
189.85	3395.53
190.07	2877.40
190.29	2785.24
190.51	3553.23
190.73	3157.97
190.95	3196.88
191.17	2942.93
191.39	3049.43
191.61	3340.24
191.84	2938.84
192.06	3117.01
192.28	3139.54
192.50	4118.47
192.72	3094.48
192.94	3100.62
193.16	3686.34
193.38	3438.54
193.60	2912.21
193.82	3155.92
194.04	3651.53
194.26	3579.85
194.48	2951.12
194.70	2992.08
194.92	3352.52
195.14	3647.43
195.36	2914.26
195.58	3088.34
195.80	3434.44
196.02	3340.24
196.24	2916.31
196.46	2985.94
196.69	3295.18
196.91	3993.54
197.13	2910.16
197.35	2985.94
197.57	3786.69
197.79	3557.32
198.01	3006.42
198.23	3049.43
198.45	3489.74
198.67	3217.36
198.89	2805.72
199.11	3112.91
199.33	3319.76
199.55	3035.09
199.77	2949.08
199.99	3188.69
200.21	3409.87
200.43	3481.55
200.65	2885.59
200.87	2797.53
201.09	3526.60
201.31	3323.85
201.53	2953.17
201.75	3057.62
201.97	3473.36
202.19	3370.96
202.41	3030.99
202.63	3074.00
202.85	3665.86
203.07	3538.89
203.29	3090.38
203.51	2840.53
203.73	3303.37
203.95	4005.83
204.17	2901.97
204.39	3135.44
204.61	3426.25
204.83	3379.15
205.05	3059.67
205.27	3006.42
205.49	3917.76
205.71	3461.07
205.93	2668.50
206.15	2869.20
206.37	3481.55
206.59	3454.92
206.81	2793.43
207.03	2836.44
207.25	3303.37
207.47	3610.57
207.69	3004.37
207.91	3170.26
208.13	3803.08
208.34	3289.04
208.56	2850.77
208.78	2955.22
209.00	3307.47
209.22	3373.00
209.44	2979.79
209.66	2920.40
209.88	3557.32
210.10	3387.34
210.32	2936.79
210.54	3016.66
210.76	3348.43
210.98	3731.40
211.20	2803.67
211.42	3045.33
211.64	3745.73
211.86	3598.28
212.08	3035.09
212.30	2967.51
212.52	3387.34
212.74	3534.79
212.96	3084.24
213.17	3051.47
213.39	3706.82
213.61	3835.85
213.83	2910.16
214.05	2791.38
214.27	3672.01
214.49	3276.75
214.71	2957.27
214.93	2990.03
215.15	3465.16
215.37	3567.56
215.59	2848.72
215.81	3057.62
216.03	3739.59
216.24	3420.11
216.46	2992.08
216.68	3069.91
216.90	3614.66
217.12	3680.20
217.34	2887.64
217.56	3100.62
217.78	3844.04
218.00	3704.78
218.22	3018.71
218.44	3045.33
218.66	3532.75
218.87	3870.66
219.09	2985.94
219.31	2942.93
219.53	3602.38
219.75	3352.52
219.97	3008.47
220.19	3008.47
220.41	3493.83
220.63	3778.50
220.85	3057.62
221.06	2918.36
221.28	3790.79
221.50	3575.75
221.72	2854.87
221.94	2885.59
222.16	3534.79
222.38	3559.37
222.60	2918.36
222.82	2998.23
223.03	3672.01
223.25	3200.98
223.47	2951.12
223.69	3172.30
223.91	3612.62
224.13	3422.16
224.35	2805.72
224.57	3088.34
224.78	3581.90
225.00	3215.31
225.22	3100.62
225.44	2846.68
225.66	3598.28
225.88	3352.52
226.10	3172.30
226.32	2904.02
226.53	3846.09
226.75	3313.61
226.97	3016.66
227.19	2992.08
227.41	3258.32
227.63	3338.19
227.85	2803.67
228.06	3016.66
228.28	3561.42
228.50	3665.86
228.72	2836.44
228.94	2949.08
229.16	3088.34
229.37	3188.69
229.59	2865.11
229.81	3246.03
230.03	3360.72
230.25	3168.21
230.47	2787.29
230.69	2922.45
230.90	3614.66
231.12	3254.22
231.34	3088.34
231.56	2996.18
231.78	3170.26
232.00	3479.50
232.21	3106.77
232.43	3028.95
232.65	3010.51
232.87	3495.88
233.09	2836.44
233.30	2879.44
233.52	3733.45
233.74	3434.44
233.96	2996.18
234.18	3104.72
234.40	3399.63
234.61	3975.11
234.83	2824.15
235.05	2951.12
235.27	3983.30
235.49	3653.58
235.70	2854.87
235.92	2965.46
236.14	3581.90
236.36	4048.83
236.58	2885.59
236.79	2987.99
237.01	3436.49
237.23	3467.21
237.45	3297.23
237.67	2963.41
237.88	3569.61
238.10	3825.61
238.32	2879.44
238.54	2936.79
238.76	3459.02
238.97	3254.22
239.19	2885.59
239.41	3020.75
239.63	3712.97
239.85	3411.92
240.06	2916.31
240.28	2961.36
240.50	3626.95
240.72	3479.50
240.93	2838.48
241.15	3059.67
241.37	3403.72
241.59	3850.18
241.81	2873.30
242.02	2994.13
242.24	3514.31
242.46	3551.18
242.68	2787.29
242.89	2865.11
243.11	3721.16
243.33	3456.97
243.55	2871.25
243.76	2838.48
243.98	3284.94
244.20	3370.96
244.42	2969.55
244.64	2926.55
244.85	3106.77
245.07	3311.57
245.29	2947.03
245.51	3045.33
245.72	3631.05
245.94	3704.78
246.16	2959.31
246.38	3000.27
246.59	3368.91
246.81	3209.17
247.03	2910.16
247.24	2924.50
247.46	3368.91
247.68	3551.18
247.90	2863.06
248.11	2992.08
248.33	3690.44
248.55	3473.36
248.77	2912.21
248.98	3131.34
249.20	3796.93
249.42	3495.88
249.64	2867.16
249.85	2887.64
250.07	3373.00
250.29	3663.82
250.50	3035.09
250.72	2901.97
250.94	3602.38
251.16	3903.43
251.37	2891.73
251.59	3012.56
251.81	3596.23
252.02	3776.45
252.24	2834.39
252.46	3098.58
252.68	3332.05
252.89	3278.80
253.11	2877.40
253.33	3117.01
253.54	3860.42
253.76	3192.78
253.98	2920.40
254.20	2955.22
254.41	3155.92
254.63	3463.12
254.85	2799.57
255.06	3069.91
255.28	3540.94
255.50	3332.05
255.71	2938.84
255.93	2779.09
256.15	3373.00
256.36	3573.71
256.58	2820.05
256.80	2904.02
257.02	3428.30
257.23	3350.48
257.45	2985.94
257.67	3074.00
257.88	3325.90
258.10	3569.61
258.32	2885.59
258.53	3000.27
258.75	3887.04
258.97	3268.56
259.18	2828.24
259.40	2893.78
259.62	3846.09
259.83	3852.23
260.05	2973.65
260.27	4024.26
260.48	3669.96
260.70	3098.58
260.92	2877.40
261.13	3000.27
261.35	3471.31
261.57	3493.83
261.78	2830.29
262.00	2887.64
262.22	3696.58
262.43	3315.66
262.65	2959.31
262.86	2934.74
263.08	3950.53
263.30	3502.03
263.51	2836.44
263.73	2910.16
263.95	3827.65
264.16	3282.89
264.38	2803.67
264.60	2832.34
264.81	3493.83
265.03	3680.20
265.25	3459.02
265.46	2949.08
265.68	3657.67
265.89	3635.14
266.11	2854.87
266.33	2875.35
266.54	3737.54
266.76	3563.47
266.98	3037.14
267.19	3119.06
267.41	3669.96
267.62	3364.81
267.84	2795.48
268.06	3096.53
268.27	3536.84
268.49	3667.91
268.70	2983.89
268.92	3002.32
269.14	3246.03
269.35	3133.39
269.57	3170.26
269.79	3037.14
270.00	3330.00
270.22	3762.12
270.43	2844.63
270.65	2875.35
270.87	3485.64
271.08	3665.86
271.30	3059.67
271.51	2992.08
271.73	3555.27
271.95	3815.37
272.16	2848.72
272.38	3139.54
272.59	3452.88
272.81	3542.99
273.02	2844.63
273.24	3024.85
273.46	3725.26
273.67	3133.39
273.89	2787.29
274.10	2912.21
274.32	3729.35
274.54	3565.51
274.75	3067.86
274.97	3166.16
275.18	3618.76
275.40	3557.32
275.61	2969.55
275.83	3053.52
276.05	3233.74
276.26	3391.44
276.48	3084.24
276.69	3143.63
276.91	3336.14
277.12	3774.41
277.34	3172.30
277.55	3176.40
277.77	3489.74
277.99	3370.96
278.20	3182.54
278.42	2965.46
278.63	3272.65
278.85	3198.93
279.06	3104.72
279.28	3151.82
279.49	3698.63
279.71	3624.90
279.93	3119.06
280.14	3205.07
280.36	3313.61
280.57	3743.69
280.79	3108.82
281.00	3026.90
281.22	3409.87
281.43	3739.59
281.65	2844.63
281.86	3014.61
282.08	3540.94
282.29	3770.31
282.51	2981.84
282.73	2983.89
282.94	3143.63
283.16	3626.95
283.37	3217.36
283.59	3164.11
283.80	3532.75
284.02	3409.87
284.23	3155.92
284.45	3086.29
284.66	3282.89
284.88	3393.48
285.09	3045.33
285.31	3246.03
285.52	3495.88
285.74	3139.54
285.95	3311.57
286.17	3108.82
286.38	3676.10
286.60	3385.29
286.81	3100.62
287.03	3112.91
287.24	3362.76
287.46	3592.14
287.67	3213.26
287.89	3344.33
288.10	3405.77
288.32	3426.25
288.53	3264.46
288.75	3233.74
288.96	3594.19
289.18	3258.32
289.39	2932.69
289.61	3162.06
289.82	3932.10
290.04	3958.72
290.25	3000.27
290.47	3164.11
290.68	3446.73
290.90	3682.25
291.11	2916.31
291.33	3286.99
291.54	3262.41
291.76	3389.39
291.97	3205.07
292.18	3184.59
292.40	3319.76
292.61	3274.70
292.83	3397.58
293.04	3145.68
293.26	3481.55
293.47	3346.38
293.69	3108.82
293.90	2983.89
294.12	3745.73
294.33	3340.24
294.55	3155.92
294.76	3293.13
294.97	3721.16
295.19	3815.37
295.40	3098.58
295.62	3127.25
295.83	3612.62
296.05	3266.51
296.26	3360.72
296.48	3110.86
296.69	3407.82
296.90	3426.25
297.12	3282.89
297.33	3385.29
297.55	3467.21
297.76	3581.90
297.98	3182.54
298.19	3319.76
298.41	3375.05
298.62	3248.08
298.83	3295.18
299.05	3215.31
299.26	3385.29
299.48	3272.65
299.69	3217.36
299.90	3047.38
300.12	3305.42
300.33	3585.99
300.55	3155.92
300.76	3164.11
300.98	3205.07
301.19	3608.52
301.40	3067.86
301.62	3039.19
301.83	3465.16
302.05	3405.77
302.26	2994.13
302.47	3160.02
302.69	3172.30
302.90	3436.49
303.12	2934.74
303.33	3231.69
303.54	3790.79
303.76	3315.66
303.97	3063.76
304.19	3352.52
304.40	3344.33
304.61	3563.47
304.83	3233.74
305.04	3196.88
305.26	3542.99
305.47	3309.52
305.68	3080.14
305.90	2998.23
306.11	3690.44
306.33	3428.30
306.54	2922.45
306.75	3104.72
306.97	3205.07
307.18	3223.50
307.39	3092.43
307.61	3153.87
307.82	3416.01
308.04	3565.51
308.25	2971.60
308.46	3268.56
308.68	3430.35
308.89	3403.72
309.10	3211.22
309.32	3180.50
309.53	3434.44
309.74	3596.23
309.96	3004.37
310.17	3166.16
310.39	3385.29
310.60	3581.90
310.81	3190.74
311.03	3002.32
311.24	3651.53
311.45	3442.64
311.67	3368.91
311.88	3237.84
312.09	3354.57
312.31	3256.27
312.52	3004.37
312.73	3024.85
312.95	3174.35
313.16	3280.85
313.37	3231.69
313.59	3295.18
313.80	3600.33
314.01	3739.59
314.23	3108.82
314.44	3041.23
314.65	3231.69
314.87	3188.69
315.08	3041.23
315.29	3131.34
315.51	3223.50
315.72	3131.34
315.93	3164.11
316.15	3084.24
316.36	3346.38
316.57	3471.31
316.79	3074.00
317.00	3016.66
317.21	3542.99
317.43	3225.55
317.64	3200.98
317.85	2990.03
318.07	3254.22
318.28	3397.58
318.49	3094.48
318.70	3321.81
318.92	3485.64
319.13	3428.30
319.34	3248.08
319.56	3053.52
319.77	3491.79
319.98	3635.14
320.20	3370.96
320.41	3272.65
320.62	3524.55
320.83	3188.69
321.05	3284.94
321.26	3098.58
321.47	3557.32
321.69	3692.49
321.90	3059.67
322.11	3061.71
322.32	3418.06
322.54	3770.31
322.75	3131.34
322.96	4140.99
323.18	3090.38
323.39	2961.36
323.60	2973.65
323.81	3133.39
324.03	3344.33
324.24	3416.01
324.45	3250.13
324.66	3041.23
324.88	3708.87
325.09	3885.00
325.30	3110.86
325.52	3008.47
325.73	3499.98
325.94	3188.69
326.15	2963.41
326.37	2936.79
326.58	3604.42
326.79	3903.43
327.00	3022.80
327.22	3092.43
327.43	3428.30
327.64	3215.31
327.85	3178.45
328.07	3114.96
328.28	3913.67
328.49	3289.04
328.70	3166.16
328.92	3074.00
329.13	3475.40
329.34	3477.45
329.55	3373.00
329.76	3262.41
329.98	3373.00
330.19	3696.58
330.40	3145.68
330.61	3164.11
330.83	3604.42
331.04	3297.23
331.25	3217.36
331.46	3123.15
331.68	3223.50
331.89	3706.82
332.10	3102.67
332.31	3016.66
332.52	3444.68
332.74	3635.14
332.95	2926.55
333.16	3043.28
333.37	3684.30
333.58	3389.39
333.80	3174.35
334.01	2869.20
334.22	3422.16
334.43	3389.39
334.64	3016.66
334.86	3086.29
335.07	3188.69
335.28	3731.40
335.49	2942.93
335.70	3219.41
335.92	3733.45
336.13	3889.09
336.34	3033.04
336.55	3172.30
336.76	3645.38
336.98	2979.79
337.19	3086.29
337.40	3188.69
337.61	3983.30
337.82	3428.30
338.04	3131.34
338.25	2975.70
338.46	3385.29
338.67	3385.29
338.88	2951.12
339.09	3018.71
339.31	3373.00
339.52	3182.54
339.73	3028.95
339.94	3170.26
340.15	3596.23
340.36	3327.95
340.58	3180.50
340.79	3030.99
341.00	3526.60
341.21	3168.21
341.42	3434.44
341.63	3088.34
341.85	3647.43
342.06	3469.26
342.27	3094.48
342.48	3362.76
342.69	3168.21
342.90	3542.99
343.12	3485.64
343.33	3065.81
343.54	3655.62
343.75	3782.60
343.96	3332.05
344.17	3039.19
344.38	3420.11
344.60	3258.32
344.81	3119.06
345.02	3063.76
345.23	3760.07
345.44	4018.11
345.65	3133.39
345.86	3211.22
346.07	3610.57
346.29	3321.81
346.50	3256.27
346.71	3198.93
346.92	3747.78
347.13	3952.58
347.34	3190.74
347.55	2944.98
347.76	3569.61
347.98	3133.39
348.19	3119.06
348.40	3233.74
348.61	3293.13
348.82	3788.74
349.03	3182.54
349.24	3022.80
349.45	3792.84
349.66	3008.47
349.88	3018.71
350.09	3047.38
350.30	3788.74
350.51	3680.20
350.72	3299.28
350.93	3127.25
351.14	3266.51
351.35	3573.71
351.56	3174.35
351.77	3205.07
351.99	3614.66
352.20	3798.98
352.41	3137.49
352.62	2920.40
352.83	3418.06
353.04	3387.34
353.25	3174.35
353.46	3055.57
353.67	3604.42
353.88	3018.71
354.09	3086.29
354.30	3182.54
354.52	3604.42
354.73	3338.19
354.94	3106.77
355.15	3164.11
355.36	3878.85
355.57	3278.80
355.78	3018.71
355.99	3094.48
356.20	3356.62
356.41	3682.25
356.62	3117.01
356.83	3168.21
357.04	3741.64
357.25	3098.58
357.46	3026.90
357.68	3010.51
357.89	3254.22
358.10	3352.52
358.31	3117.01
358.52	3125.20
358.73	3325.90
358.94	3182.54
359.15	3049.43
359.36	3084.24
359.57	3448.78
359.78	3428.30
359.99	3336.14
360.20	2967.51
360.41	3381.20
360.62	3633.10
360.83	3166.16
361.04	3057.62
361.25	3489.74
361.46	3782.60
361.67	3229.65
361.88	3127.25
362.09	3651.53
362.30	3528.65
362.51	3022.80
362.72	3217.36
362.93	3598.28
363.14	3485.64
363.35	3211.22
363.56	3016.66
363.78	3737.54
363.99	3608.52
364.20	3129.30
364.41	3151.82
364.62	3930.05
364.83	3536.84
365.04	3125.20
365.25	3190.74
365.46	3897.28
365.67	3297.23
365.88	3327.95
366.09	3096.53
366.30	3344.33
366.51	3364.81
366.72	3018.71
366.93	3096.53
367.14	3497.93
367.35	3733.45
367.56	3002.32
367.77	3264.46
367.98	3366.86
368.18	3473.36
368.39	3354.57
368.60	3024.85
368.81	3553.23
369.02	3479.50
369.23	3155.92
369.44	3002.32
369.65	3360.72
369.86	3540.94
370.07	3270.61
370.28	3059.67
370.49	3518.41
370.70	3459.02
370.91	3004.37
371.12	2957.27
371.33	3672.01
371.54	3332.05
371.75	3182.54
371.96	2838.48
372.17	3467.21
372.38	3413.96
372.59	3106.77
372.80	3071.95
373.01	3395.53
373.22	3497.93
373.43	3067.86
373.64	2934.74
373.85	3798.98
374.06	3811.27
374.26	3338.19
374.47	3182.54
374.68	3796.93
374.89	3465.16
375.10	3078.10
375.31	3178.45
375.52	3416.01
375.73	3547.08
375.94	2947.03
376.15	3221.45
376.36	3311.57
376.57	3270.61
376.78	3180.50
376.99	3200.98
377.20	3823.56
377.40	3344.33
377.61	3442.64
377.82	3125.20
378.03	3768.26
378.24	3475.40
378.45	3252.17
378.66	3229.65
378.87	3076.05
379.08	3125.20
379.29	3155.92
379.50	3229.65
379.71	3495.88
379.91	3493.83
380.12	3104.72
380.33	3241.93
380.54	3434.44
380.75	3368.91
380.96	3094.48
381.17	3178.45
381.38	3536.84
381.59	3481.55
381.80	3231.69
382.00	3227.60
382.21	3403.72
382.42	3782.60
382.63	3545.03
382.84	3342.28
383.05	3727.30
383.26	3698.63
383.47	3303.37
383.68	3026.90
383.88	3573.71
384.09	3446.73
384.30	3413.96
384.51	3262.41
384.72	3362.76
384.93	3149.78
385.14	3168.21
385.35	3286.99
385.55	3182.54
385.76	3704.78
385.97	3221.45
386.18	3045.33
386.39	3237.84
386.60	3291.09
386.81	3172.30
387.02	3045.33
387.22	3155.92
387.43	3645.38
387.64	3182.54
387.85	3385.29
388.06	3442.64
388.27	4356.03
388.48	7260.05
388.68	10884.95
388.89	13760.30
389.10	14780.19
389.31	14475.04
389.52	11786.06
389.73	10205.03
389.93	9531.25
390.14	8562.56
390.35	8005.51
390.56	7423.89
390.77	6193.06
390.98	4773.82
391.18	4077.51
391.39	3854.28
391.60	3467.21
391.81	3422.16
392.02	3135.44
392.23	3891.14
392.43	3512.27
392.64	3229.65
392.85	3248.08
393.06	3790.79
393.27	3409.87
393.47	3051.47
393.68	3190.74
393.89	3411.92
394.10	3684.30
394.31	3125.20
394.52	3049.43
394.72	3250.13
394.93	3770.31
395.14	3018.71
395.35	3180.50
395.56	3297.23
395.76	3434.44
395.97	3121.10
396.18	3336.14
396.39	3373.00
396.60	4050.88
396.80	3606.47
397.01	3270.61
397.22	3606.47
397.43	3585.99
397.64	3162.06
397.84	3209.17
398.05	3889.09
398.26	3422.16
398.47	3264.46
398.67	3301.33
398.88	3391.44
399.09	3585.99
399.30	3153.87
399.51	3207.12
399.71	3313.61
399.92	3409.87
400.13	3248.08
400.34	3141.58
400.54	3491.79
400.75	3772.36
400.96	3153.87
401.17	3522.51
401.37	3532.75
401.58	3469.26
401.79	3069.91
402.00	3166.16
402.21	3964.87
402.41	3661.77
402.62	3424.20
402.83	3557.32
403.04	3708.87
403.24	4284.35
403.45	3219.41
403.66	3475.40
403.87	3602.38
404.07	3815.37
404.28	3454.92
404.49	3422.16
404.70	3585.99
404.90	3633.10
405.11	3086.29
405.32	3303.37
405.52	3354.57
405.73	3237.84
405.94	2990.03
406.15	3266.51
406.35	3612.62
406.56	3645.38
406.77	3196.88
406.98	3168.21
407.18	3282.89
407.39	3770.31
407.60	3178.45
407.80	3219.41
408.01	3368.91
408.22	3655.62
408.43	3063.76
408.63	3307.47
408.84	3766.21
409.05	3653.58
409.25	3049.43
409.46	3147.73
409.67	3301.33
409.88	3346.38
410.08	3114.96
410.29	3041.23
410.50	3680.20
410.70	3590.09
410.91	3057.62
411.12	3278.80
411.32	3481.55
411.53	3282.89
411.74	3207.12
411.95	3196.88
412.15	3346.38
412.36	3516.36
412.57	3346.38
412.77	3366.86
412.98	3401.68
413.19	3352.52
413.39	3186.64
413.60	3133.39
413.81	3780.55
414.01	3207.12
414.22	3139.54
414.43	3293.13
414.63	3446.73
414.84	3598.28
415.05	3143.63
415.25	3065.81
415.46	3516.36
415.67	3350.48
415.87	3129.30
416.08	3137.49
416.29	3334.09
416.49	3553.23
416.70	3221.45
416.91	3151.82
417.11	3434.44
417.32	3669.96
417.53	3207.12
417.73	3350.48
417.94	3440.59
418.15	3477.45
418.35	3168.21
418.56	3180.50
418.77	3985.35
418.97	3524.55
419.18	3297.23
419.38	2893.78
419.59	3508.17
419.80	3778.50
420.00	3033.04
420.21	3176.40
420.42	3745.73
420.62	3499.98
420.83	3114.96
421.04	3106.77
421.24	3551.18
421.45	3577.80
421.65	3117.01
421.86	3131.34
422.07	3706.82
422.27	3573.71
422.48	3074.00
422.69	2914.26
422.89	3420.11
423.10	3323.85
423.30	3162.06
423.51	3256.27
423.72	3565.51
423.92	3620.81
424.13	3010.51
424.33	3194.83
424.54	3583.95
424.75	3471.31
424.95	3389.39
425.16	3018.71
425.36	3397.58
425.57	3631.05
425.78	3260.37
425.98	3248.08
426.19	3397.58
426.39	3301.33
426.60	3260.37
426.81	3307.47
427.01	3442.64
427.22	3264.46
427.42	2904.02
427.63	3110.86
427.83	3577.80
428.04	3733.45
428.25	3147.73
428.45	3196.88
428.66	3725.26
428.86	3401.68
429.07	3215.31
429.28	3172.30
429.48	3311.57
429.69	3282.89
429.89	3246.03
430.10	3106.77
430.30	3631.05
430.51	3663.82
430.71	3145.68
430.92	3200.98
431.13	3284.94
431.33	3446.73
431.54	3243.98
431.74	3344.33
431.95	3911.62
432.15	3293.13
432.36	3086.29
432.56	3211.22
432.77	3909.57
432.98	3835.85
433.18	3190.74
433.39	3057.62
433.59	3409.87
433.80	3903.43
434.00	3297.23
434.21	3311.57
434.41	3274.70
434.62	3893.19
434.82	3004.37
435.03	3174.35
435.23	3450.83
435.44	3100.62
435.64	3110.86
435.85	3186.64
436.06	3577.80
436.26	3725.26
436.47	3131.34
436.67	3121.10
436.88	3469.26
437.08	3655.62
437.29	3295.18
437.49	3352.52
437.70	3733.45
437.90	3426.25
438.11	3383.24
438.31	3282.89
438.52	3690.44
438.72	3626.95
438.93	3430.35
439.13	3213.26
439.34	3538.89
439.54	3291.09
439.75	3241.93
439.95	3200.98
440.16	3221.45
440.36	3418.06
440.57	3221.45
440.77	3188.69
440.98	3465.16
441.18	3542.99
441.39	3045.33
441.59	3016.66
441.80	3895.24
442.00	3438.54
442.21	3246.03
442.41	2963.41
442.62	3676.10
442.82	3262.41
443.02	3160.02
443.23	3174.35
443.43	3327.95
443.64	3739.59
443.84	3057.62
444.05	3186.64
444.25	3393.48
444.46	3393.48
444.66	3106.77
444.87	3368.91
445.07	3074.00
445.28	3358.67
445.48	3291.09
445.69	3182.54
445.89	4011.97
446.09	3344.33
446.30	3469.26
446.50	3540.94
446.71	5031.86
446.91	6238.11
447.12	6836.12
447.32	7247.76
447.53	7202.71
447.73	6283.17
447.93	5390.25
448.14	5218.22
448.34	5337.01
448.55	4444.09
448.75	4460.48
448.96	4181.95
449.16	4151.23
449.36	4042.69
449.57	3442.64
449.77	3252.17
449.98	3418.06
450.18	3377.10
450.39	3014.61
450.59	3350.48
450.79	3428.30
451.00	3323.85
451.20	3407.82
451.41	3188.69
451.61	3493.83
451.81	3393.48
452.02	3086.29
452.22	3213.26
452.43	3387.34
