SpectraSuite Data File
++++++++++++++++++++++++++++++++++++
Date: Fri May 06 09:28:47 CEST 2016
User: root
Dark Spectrum Present: No
Reference Spectrum Present: No
Number of Sampled Component Spectra: 1
Spectrometers: USB4C02835
Integration Time (usec): 100000 (USB4C02835)
Spectra Averaged: 1 (USB4C02835)
Boxcar Smoothing: 0 (USB4C02835)
Correct for Electrical Dark: No (USB4C02835)
Strobe/Lamp Enabled: No (USB4C02835)
Correct for Detector Non-linearity: No (USB4C02835)
Correct for Stray Light: No (USB4C02835)
Number of Pixels in Processed Spectrum: 3648
>>>>>Begin Processed Spectral Data<<<<<
177.47	2336.73
177.69	2336.73
177.91	2336.73
178.13	2326.49
178.36	2299.87
178.58	3225.55
178.80	3246.03
179.02	3141.58
179.24	3286.99
179.46	2840.53
179.68	2828.24
179.90	3340.24
180.13	3559.37
180.35	2729.94
180.57	2897.88
180.79	3639.24
181.01	3397.58
181.23	2955.22
181.45	3137.49
181.67	3581.90
181.90	3633.10
182.12	3074.00
182.34	2832.34
182.56	3600.33
182.78	3483.59
183.00	2944.98
183.22	2910.16
183.44	3090.38
183.66	4057.03
183.89	3127.25
184.11	2901.97
184.33	3565.51
184.55	3604.42
184.77	2955.22
184.99	2914.26
185.21	3352.52
185.43	4147.14
185.65	3012.56
185.87	2906.07
186.10	4014.02
186.32	3999.68
186.54	3151.82
186.76	3014.61
186.98	3704.78
187.20	3434.44
187.42	2992.08
187.64	2906.07
187.86	3565.51
188.08	3737.54
188.30	2883.54
188.52	2990.03
188.75	3751.88
188.97	3682.25
189.19	2836.44
189.41	2914.26
189.63	3545.03
189.85	3368.91
190.07	2895.83
190.29	2824.15
190.51	3459.02
190.73	3192.78
190.95	3157.97
191.17	3016.66
191.39	3069.91
191.61	3346.38
191.84	2944.98
192.06	3086.29
192.28	3178.45
192.50	4157.38
192.72	3098.58
192.94	3022.80
193.16	3758.02
193.38	3618.76
193.60	2799.57
193.82	3196.88
194.04	3686.34
194.26	3463.12
194.48	3022.80
194.70	2904.02
194.92	3459.02
195.14	3786.69
195.36	2887.64
195.58	3049.43
195.80	3418.06
196.02	3309.52
196.24	2928.60
196.46	3076.05
196.69	3321.81
196.91	3846.09
197.13	2990.03
197.35	2951.12
197.57	3809.22
197.79	3663.82
198.01	3024.85
198.23	3041.23
198.45	3592.14
198.67	3215.31
198.89	2740.18
199.11	3127.25
199.33	3278.80
199.55	3000.27
199.77	2924.50
199.99	3139.54
200.21	3368.91
200.43	3506.12
200.65	2789.33
200.87	2746.33
201.09	3479.50
201.31	3409.87
201.53	3024.85
201.75	3049.43
201.97	3549.13
202.19	3512.27
202.41	3026.90
202.63	3024.85
202.85	3616.71
203.07	3516.36
203.29	3139.54
203.51	2772.95
203.73	3274.70
203.95	4032.45
204.17	2838.48
204.39	3047.38
204.61	3434.44
204.83	3401.68
205.05	3076.05
205.27	2947.03
205.49	3925.96
205.71	3387.34
205.93	2830.29
206.15	2904.02
206.37	3418.06
206.59	3391.44
206.81	2807.77
207.03	2881.49
207.25	3268.56
207.47	3655.62
207.69	2914.26
207.91	3172.30
208.13	3850.18
208.34	3336.14
208.56	2914.26
208.78	3037.14
209.00	3354.57
209.22	3297.23
209.44	3041.23
209.66	2916.31
209.88	3475.40
210.10	3479.50
210.32	3006.42
210.54	3092.43
210.76	3307.47
210.98	3706.82
211.20	2811.86
211.42	3082.19
211.64	3708.87
211.86	3585.99
212.08	3033.04
212.30	2987.99
212.52	3313.61
212.74	3540.94
212.96	3059.67
213.17	3033.04
213.39	3678.15
213.61	3889.09
213.83	2934.74
214.05	2813.91
214.27	3780.55
214.49	3319.76
214.71	2881.49
214.93	3082.19
215.15	3522.51
215.37	3637.19
215.59	2764.76
215.81	2983.89
216.03	3692.49
216.24	3352.52
216.46	2959.31
216.68	2985.94
216.90	3567.56
217.12	3686.34
217.34	2875.35
217.56	3246.03
217.78	3876.80
218.00	3606.47
218.22	3030.99
218.44	3041.23
218.66	3516.36
218.87	3788.74
219.09	3084.24
219.31	3008.47
219.53	3598.28
219.75	3317.71
219.97	2961.36
220.19	2979.79
220.41	3416.01
220.63	3819.46
220.85	3012.56
221.06	2983.89
221.28	3753.93
221.50	3583.95
221.72	2922.45
221.94	2852.82
222.16	3442.64
222.38	3581.90
222.60	3022.80
222.82	3004.37
223.03	3606.47
223.25	3170.26
223.47	2959.31
223.69	3168.21
223.91	3622.86
224.13	3456.97
224.35	2840.53
224.57	3086.29
224.78	3557.32
225.00	3182.54
225.22	3133.39
225.44	2828.24
225.66	3504.07
225.88	3356.62
226.10	3059.67
226.32	3004.37
226.53	3848.13
226.75	3426.25
226.97	3074.00
227.19	2985.94
227.41	3246.03
227.63	3344.33
227.85	2818.00
228.06	2983.89
228.28	3459.02
228.50	3698.63
228.72	2793.43
228.94	2912.21
229.16	3016.66
229.37	3278.80
229.59	2867.16
229.81	3252.17
230.03	3434.44
230.25	3145.68
230.47	2783.19
230.69	2949.08
230.90	3606.47
231.12	3262.41
231.34	3043.28
231.56	3049.43
231.78	3227.60
232.00	3450.83
232.21	3033.04
232.43	2996.18
232.65	2947.03
232.87	3542.99
233.09	2803.67
233.30	2875.35
233.52	3760.07
233.74	3430.35
233.96	2858.96
234.18	3211.22
234.40	3424.20
234.61	3983.30
234.83	2824.15
235.05	2930.64
235.27	3987.40
235.49	3649.48
235.70	2852.82
235.92	3012.56
236.14	3526.60
236.36	4020.16
236.58	2836.44
236.79	2975.70
237.01	3479.50
237.23	3477.45
237.45	3139.54
237.67	2885.59
237.88	3577.80
238.10	3839.94
238.32	2879.44
238.54	2983.89
238.76	3409.87
238.97	3278.80
239.19	2879.44
239.41	2983.89
239.63	3725.26
239.85	3356.62
240.06	2996.18
240.28	2926.55
240.50	3680.20
240.72	3475.40
240.93	2893.78
241.15	3035.09
241.37	3422.16
241.59	3798.98
241.81	3037.14
242.02	3041.23
242.24	3471.31
242.46	3555.27
242.68	2799.57
242.89	2820.05
243.11	3676.10
243.33	3352.52
243.55	2906.07
243.76	2957.27
243.98	3213.26
244.20	3454.92
244.42	2942.93
244.64	2920.40
244.85	3133.39
245.07	3270.61
245.29	2985.94
245.51	2992.08
245.72	3540.94
245.94	3631.05
246.16	2951.12
246.38	3008.47
246.59	3319.76
246.81	3213.26
247.03	2803.67
247.24	2807.77
247.46	3375.05
247.68	3491.79
247.90	2889.68
248.11	2951.12
248.33	3540.94
248.55	3399.63
248.77	2987.99
248.98	3102.67
249.20	3770.31
249.42	3440.59
249.64	2914.26
249.85	2885.59
250.07	3418.06
250.29	3559.37
250.50	2977.75
250.72	2873.30
250.94	3557.32
251.16	3942.34
251.37	2893.78
251.59	3067.86
251.81	3571.66
252.02	3780.55
252.24	2838.48
252.46	3137.49
252.68	3289.04
252.89	3344.33
253.11	2820.05
253.33	3149.78
253.54	3782.60
253.76	3246.03
253.98	2955.22
254.20	2912.21
254.41	3194.83
254.63	3430.35
254.85	2787.29
255.06	3106.77
255.28	3551.18
255.50	3393.48
255.71	2957.27
255.93	2723.80
256.15	3422.16
256.36	3577.80
256.58	2852.82
256.80	2889.68
257.02	3563.47
257.23	3379.15
257.45	2959.31
257.67	3041.23
257.88	3375.05
258.10	3614.66
258.32	2959.31
258.53	2930.64
258.75	3803.08
258.97	3340.24
259.18	2951.12
259.40	2879.44
259.62	3917.76
259.83	3901.38
260.05	2924.50
260.27	4003.78
260.48	3669.96
260.70	3264.46
260.92	2877.40
261.13	3033.04
261.35	3444.68
261.57	3583.95
261.78	2871.25
262.00	2889.68
262.22	3585.99
262.43	3295.18
262.65	2990.03
262.86	2992.08
263.08	4003.78
263.30	3467.21
263.51	2828.24
263.73	3012.56
263.95	3823.56
264.16	3258.32
264.38	2818.00
264.60	2942.93
264.81	3330.00
265.03	3739.59
265.25	3495.88
265.46	2979.79
265.68	3647.43
265.89	3680.20
266.11	2875.35
266.33	2942.93
266.54	3788.74
266.76	3606.47
266.98	3059.67
267.19	3164.11
267.41	3706.82
267.62	3481.55
267.84	2756.57
268.06	3092.43
268.27	3491.79
268.49	3680.20
268.70	3012.56
268.92	2985.94
269.14	3227.60
269.35	3088.34
269.57	3094.48
269.79	3082.19
270.00	3289.04
270.22	3880.90
270.43	2807.77
270.65	2834.39
270.87	3518.41
271.08	3610.57
271.30	3028.95
271.51	2965.46
271.73	3590.09
271.95	3721.16
272.16	2928.60
272.38	3147.73
272.59	3342.28
272.81	3518.41
273.02	2893.78
273.24	3041.23
273.46	3727.30
273.67	3200.98
273.89	2820.05
274.10	2979.79
274.32	3696.58
274.54	3485.64
274.75	3067.86
274.97	3108.82
275.18	3594.19
275.40	3436.49
275.61	2963.41
275.83	3106.77
276.05	3178.45
276.26	3426.25
276.48	3061.71
276.69	3190.74
276.91	3315.66
277.12	3811.27
277.34	3131.34
277.55	3248.08
277.77	3411.92
277.99	3368.91
278.20	3135.44
278.42	2971.60
278.63	3370.96
278.85	3225.55
279.06	3143.63
279.28	3211.22
279.49	3719.11
279.71	3614.66
279.93	3100.62
280.14	3168.21
280.36	3270.61
280.57	3690.44
280.79	3254.22
281.00	3030.99
281.22	3280.85
281.43	3715.02
281.65	2883.54
281.86	3030.99
282.08	3575.75
282.29	3876.80
282.51	3010.51
282.73	2996.18
282.94	3033.04
283.16	3600.33
283.37	3176.40
283.59	3059.67
283.80	3577.80
284.02	3530.70
284.23	3065.81
284.45	3098.58
284.66	3225.55
284.88	3282.89
285.09	2977.75
285.31	3209.17
285.52	3536.84
285.74	3147.73
285.95	3295.18
286.17	3151.82
286.38	3725.26
286.60	3354.57
286.81	2959.31
287.03	3041.23
287.24	3393.48
287.46	3618.76
287.67	3299.28
287.89	3274.70
288.10	3420.11
288.32	3434.44
288.53	3266.51
288.75	3102.67
288.96	3647.43
289.18	3405.77
289.39	3043.28
289.61	3157.97
289.82	3868.61
290.04	3887.04
290.25	3028.95
290.47	3172.30
290.68	3405.77
290.90	3626.95
291.11	2877.40
291.33	3286.99
291.54	3317.71
291.76	3303.37
291.97	3270.61
292.18	3192.78
292.40	3291.09
292.61	3305.42
292.83	3405.77
293.04	3080.14
293.26	3491.79
293.47	3434.44
293.69	3069.91
293.90	2987.99
294.12	3624.90
294.33	3456.97
294.55	3196.88
294.76	3293.13
294.97	3719.11
295.19	3862.47
295.40	3071.95
295.62	3157.97
295.83	3598.28
296.05	3258.32
296.26	3307.47
296.48	3147.73
296.69	3467.21
296.90	3475.40
297.12	3166.16
297.33	3227.60
297.55	3461.07
297.76	3528.65
297.98	3147.73
298.19	3325.90
298.41	3471.31
298.62	3325.90
298.83	3274.70
299.05	3268.56
299.26	3420.11
299.48	3307.47
299.69	3227.60
299.90	3098.58
300.12	3229.65
300.33	3651.53
300.55	3190.74
300.76	3143.63
300.98	3256.27
301.19	3661.77
301.40	3119.06
301.62	3108.82
301.83	3602.38
302.05	3479.50
302.26	3020.75
302.47	3262.41
302.69	3182.54
302.90	3438.54
303.12	2953.17
303.33	3200.98
303.54	3841.99
303.76	3323.85
303.97	3041.23
304.19	3336.14
304.40	3196.88
304.61	3590.09
304.83	3225.55
305.04	3125.20
305.26	3590.09
305.47	3237.84
305.68	2994.13
305.90	2910.16
306.11	3821.51
306.33	3409.87
306.54	2961.36
306.75	3084.24
306.97	3131.34
307.18	3239.89
307.39	3074.00
307.61	3254.22
307.82	3420.11
308.04	3522.51
308.25	2918.36
308.46	3272.65
308.68	3420.11
308.89	3438.54
309.10	3160.02
309.32	3098.58
309.53	3434.44
309.74	3583.95
309.96	3035.09
310.17	3207.12
310.39	3381.20
310.60	3565.51
310.81	3166.16
311.03	3024.85
311.24	3635.14
311.45	3551.18
311.67	3237.84
311.88	3276.75
312.09	3370.96
312.31	3375.05
312.52	3086.29
312.73	3074.00
312.95	3155.92
313.16	3254.22
313.37	3301.33
313.59	3313.61
313.80	3694.54
314.01	3839.94
314.23	3133.39
314.44	3030.99
314.65	3192.78
314.87	3323.85
315.08	3053.52
315.29	3114.96
315.51	3229.65
315.72	3164.11
315.93	3180.50
316.15	3084.24
316.36	3350.48
316.57	3436.49
316.79	2955.22
317.00	3059.67
317.21	3598.28
317.43	3221.45
317.64	3172.30
317.85	3053.52
318.07	3297.23
318.28	3356.62
318.49	3119.06
318.70	3280.85
318.92	3512.27
319.13	3491.79
319.34	3260.37
319.56	3090.38
319.77	3471.31
319.98	3536.84
320.20	3338.19
320.41	3344.33
320.62	3545.03
320.83	3262.41
321.05	3303.37
321.26	3155.92
321.47	3526.60
321.69	3758.02
321.90	3035.09
322.11	3100.62
322.32	3551.18
322.54	3833.80
322.75	3100.62
322.96	4190.14
323.18	3106.77
323.39	3028.95
323.60	3039.19
323.81	3174.35
324.03	3315.66
324.24	3450.83
324.45	3209.17
324.66	3020.75
324.88	3657.67
325.09	3835.85
325.30	2969.55
325.52	2987.99
325.73	3581.90
325.94	3174.35
326.15	2979.79
326.37	2932.69
326.58	3614.66
326.79	3776.45
327.00	3008.47
327.22	3047.38
327.43	3344.33
327.64	3237.84
327.85	3223.50
328.07	3155.92
328.28	3803.08
328.49	3221.45
328.70	3139.54
328.92	3094.48
329.13	3409.87
329.34	3518.41
329.55	3293.13
329.76	3254.22
329.98	3338.19
330.19	3655.62
330.40	3157.97
330.61	3217.36
330.83	3606.47
331.04	3280.85
331.25	3203.02
331.46	3248.08
331.68	3157.97
331.89	3565.51
332.10	3147.73
332.31	3002.32
332.52	3436.49
332.74	3649.48
332.95	2934.74
333.16	3088.34
333.37	3588.04
333.58	3403.72
333.80	3147.73
334.01	2957.27
334.22	3432.40
334.43	3303.37
334.64	3065.81
334.86	3059.67
335.07	3276.75
335.28	3721.16
335.49	2969.55
335.70	3123.15
335.92	3774.41
336.13	3950.53
336.34	3117.01
336.55	3082.19
336.76	3573.71
336.98	3049.43
337.19	3102.67
337.40	3174.35
337.61	3983.30
337.82	3373.00
338.04	3176.40
338.25	2875.35
338.46	3381.20
338.67	3360.72
338.88	2990.03
339.09	3055.57
339.31	3303.37
339.52	3186.64
339.73	3000.27
339.94	3139.54
340.15	3604.42
340.36	3303.37
340.58	3135.44
340.79	3006.42
341.00	3559.37
341.21	3155.92
341.42	3377.10
341.63	3129.30
341.85	3649.48
342.06	3471.31
342.27	3065.81
342.48	3264.46
342.69	3221.45
342.90	3493.83
343.12	3551.18
343.33	2992.08
343.54	3688.39
343.75	3776.45
343.96	3303.37
344.17	2998.23
344.38	3401.68
344.60	3248.08
344.81	3071.95
345.02	3082.19
345.23	3715.02
345.44	3999.68
345.65	3112.91
345.86	3114.96
346.07	3510.22
346.29	3278.80
346.50	3246.03
346.71	3252.17
346.92	3749.83
347.13	3919.81
347.34	3235.79
347.55	2924.50
347.76	3606.47
347.98	3100.62
348.19	3196.88
348.40	3303.37
348.61	3368.91
348.82	3733.45
349.03	3153.87
349.24	3006.42
349.45	3819.46
349.66	3051.47
349.88	3131.34
350.09	3053.52
350.30	3807.17
350.51	3739.59
350.72	3342.28
350.93	3090.38
351.14	3280.85
351.35	3553.23
351.56	3123.15
351.77	3196.88
351.99	3549.13
352.20	3721.16
352.41	3233.74
352.62	2961.36
352.83	3573.71
353.04	3504.07
353.25	3104.72
353.46	3188.69
353.67	3696.58
353.88	3059.67
354.09	2981.84
354.30	3274.70
354.52	3635.14
354.73	3405.77
354.94	3098.58
355.15	3149.78
355.36	3958.72
355.57	3293.13
355.78	3030.99
355.99	3041.23
356.20	3342.28
356.41	3717.06
356.62	3149.78
356.83	3110.86
357.04	3651.53
357.25	3114.96
357.46	3094.48
357.68	3008.47
357.89	3313.61
358.10	3420.11
358.31	3074.00
358.52	3176.40
358.73	3264.46
358.94	3190.74
359.15	3233.74
359.36	3162.06
359.57	3469.26
359.78	3264.46
359.99	3254.22
360.20	2957.27
360.41	3397.58
360.62	3598.28
360.83	3143.63
361.04	3139.54
361.25	3590.09
361.46	3792.84
361.67	3246.03
361.88	3139.54
362.09	3592.14
362.30	3647.43
362.51	2981.84
362.72	3200.98
362.93	3657.67
363.14	3506.12
363.35	3178.45
363.56	3133.39
363.78	3733.45
363.99	3590.09
364.20	3108.82
364.41	3160.02
364.62	3856.33
364.83	3534.79
365.04	3123.15
365.25	3098.58
365.46	3936.20
365.67	3348.43
365.88	3280.85
366.09	3057.62
366.30	3297.23
366.51	3481.55
366.72	3121.10
366.93	3061.71
367.14	3440.59
367.35	3712.97
367.56	3004.37
367.77	3190.74
367.98	3409.87
368.18	3495.88
368.39	3237.84
368.60	3065.81
368.81	3598.28
369.02	3561.42
369.23	3090.38
369.44	2944.98
369.65	3354.57
369.86	3598.28
370.07	3198.93
370.28	3035.09
370.49	3497.93
370.70	3534.79
370.91	3047.38
371.12	3035.09
371.33	3772.36
371.54	3280.85
371.75	3207.12
371.96	2795.48
372.17	3493.83
372.38	3393.48
372.59	3157.97
372.80	3084.24
373.01	3344.33
373.22	3454.92
373.43	3065.81
373.64	3000.27
373.85	3698.63
374.06	3807.17
374.26	3270.61
374.47	3323.85
374.68	3708.87
374.89	3475.40
375.10	3033.04
375.31	3162.06
375.52	3506.12
375.73	3442.64
375.94	2926.55
376.15	3198.93
376.36	3299.28
376.57	3362.76
376.78	3157.97
376.99	3196.88
377.20	3672.01
377.40	3348.43
377.61	3424.20
377.82	3106.77
378.03	3729.35
378.24	3641.29
378.45	3182.54
378.66	3151.82
378.87	3094.48
379.08	3119.06
379.29	3153.87
379.50	3229.65
379.71	3422.16
379.91	3672.01
380.12	3090.38
380.33	3243.98
380.54	3483.59
380.75	3442.64
380.96	3166.16
381.17	3147.73
381.38	3360.72
381.59	3397.58
381.80	3243.98
382.00	3336.14
382.21	3489.74
382.42	3772.36
382.63	3508.17
382.84	3190.74
383.05	3710.92
383.26	3803.08
383.47	3276.75
383.68	3045.33
383.88	3475.40
384.09	3465.16
384.30	3352.52
384.51	3299.28
384.72	3338.19
384.93	3135.44
385.14	3205.07
385.35	3411.92
385.55	3198.93
385.76	3747.78
385.97	3074.00
386.18	3086.29
386.39	3311.57
386.60	3260.37
386.81	3082.19
387.02	3053.52
387.22	3147.73
387.43	3569.61
387.64	3166.16
387.85	3319.76
388.06	3407.82
388.27	4405.18
388.48	7253.91
388.68	10856.28
388.89	13649.71
389.10	14825.25
389.31	14604.07
389.52	11802.44
389.73	10254.18
389.93	9719.66
390.14	8441.73
390.35	7974.79
390.56	7452.56
390.77	6242.21
390.98	4757.43
391.18	4044.74
391.39	3895.24
391.60	3514.31
391.81	3389.39
392.02	3166.16
392.23	3921.86
392.43	3446.73
392.64	3213.26
392.85	3213.26
393.06	3864.52
393.27	3485.64
393.47	3061.71
393.68	3256.27
393.89	3385.29
394.10	3758.02
394.31	3176.40
394.52	3139.54
394.72	3319.76
394.93	3766.21
395.14	2971.60
395.35	3207.12
395.56	3385.29
395.76	3420.11
395.97	3123.15
396.18	3336.14
396.39	3418.06
396.60	4067.27
396.80	3508.17
397.01	3358.67
397.22	3575.75
397.43	3649.48
397.64	3028.95
397.84	3229.65
398.05	3919.81
398.26	3420.11
398.47	3297.23
398.67	3346.38
398.88	3395.53
399.09	3643.34
399.30	3110.86
399.51	3229.65
399.71	3278.80
399.92	3407.82
400.13	3184.59
400.34	3119.06
400.54	3483.59
400.75	3743.69
400.96	3182.54
401.17	3491.79
401.37	3565.51
401.58	3434.44
401.79	3065.81
402.00	3254.22
402.21	3971.01
402.41	3526.60
402.62	3354.57
402.83	3571.66
403.04	3692.49
403.24	4270.01
403.45	3264.46
403.66	3434.44
403.87	3569.61
404.07	3704.78
404.28	3340.24
404.49	3383.24
404.70	3481.55
404.90	3651.53
405.11	3147.73
405.32	3205.07
405.52	3360.72
405.73	3248.08
405.94	3114.96
406.15	3190.74
406.35	3620.81
406.56	3561.42
406.77	3254.22
406.98	3151.82
407.18	3289.04
407.39	3745.73
407.60	3143.63
407.80	3293.13
408.01	3389.39
408.22	3598.28
408.43	3033.04
408.63	3280.85
408.84	3696.58
409.05	3667.91
409.25	3080.14
409.46	3133.39
409.67	3401.68
409.88	3198.93
410.08	3117.01
410.29	3051.47
410.50	3641.29
410.70	3622.86
410.91	3074.00
411.12	3231.69
411.32	3508.17
411.53	3280.85
411.74	3104.72
411.95	3133.39
412.15	3399.63
412.36	3573.71
412.57	3252.17
412.77	3317.71
412.98	3454.92
413.19	3346.38
413.39	3139.54
413.60	3147.73
413.81	3770.31
414.01	3180.50
414.22	3149.78
414.43	3393.48
414.63	3332.05
414.84	3581.90
415.05	3229.65
415.25	3026.90
415.46	3530.70
415.67	3356.62
415.87	3209.17
416.08	3184.59
416.29	3420.11
416.49	3608.52
416.70	3184.59
416.91	3149.78
417.11	3395.53
417.32	3594.19
417.53	3225.55
417.73	3272.65
417.94	3467.21
418.15	3526.60
418.35	3180.50
418.56	3180.50
418.77	4134.85
418.97	3420.11
419.18	3237.84
419.38	2885.59
419.59	3434.44
419.80	3762.12
420.00	3041.23
420.21	3114.96
420.42	3731.40
420.62	3553.23
420.83	3153.87
421.04	3063.76
421.24	3403.72
421.45	3594.19
421.65	3250.13
421.86	3166.16
422.07	3626.95
422.27	3651.53
422.48	3051.47
422.69	2938.84
422.89	3373.00
423.10	3381.20
423.30	3133.39
423.51	3209.17
423.72	3534.79
423.92	3590.09
424.13	3026.90
424.33	3205.07
424.54	3653.58
424.75	3516.36
424.95	3440.59
425.16	3076.05
425.36	3399.63
425.57	3588.04
425.78	3297.23
425.98	3268.56
426.19	3387.34
426.39	3338.19
426.60	3268.56
426.81	3323.85
427.01	3518.41
427.22	3297.23
427.42	2969.55
427.63	3166.16
427.83	3643.34
428.04	3770.31
428.25	3131.34
428.45	3192.78
428.66	3712.97
428.86	3368.91
429.07	3200.98
429.28	3217.36
429.48	3456.97
429.69	3295.18
429.89	3258.32
430.10	3217.36
430.30	3559.37
430.51	3629.00
430.71	3059.67
430.92	3262.41
431.13	3364.81
431.33	3602.38
431.54	3268.56
431.74	3262.41
431.95	3901.38
432.15	3327.95
432.36	3166.16
432.56	3196.88
432.77	3852.23
432.98	3897.28
433.18	3266.51
433.39	3074.00
433.59	3377.10
433.80	3872.71
434.00	3309.52
434.21	3246.03
434.41	3280.85
434.62	3952.58
434.82	3004.37
435.03	3143.63
435.23	3569.61
435.44	3061.71
435.64	3102.67
435.85	3215.31
436.06	3614.66
436.26	3690.44
436.47	3157.97
436.67	3166.16
436.88	3426.25
437.08	3712.97
437.29	3215.31
437.49	3338.19
437.70	3694.54
437.90	3475.40
438.11	3336.14
438.31	3190.74
438.52	3696.58
438.72	3647.43
438.93	3520.46
439.13	3270.61
439.34	3573.71
439.54	3260.37
439.75	3270.61
439.95	3264.46
440.16	3213.26
440.36	3467.21
440.57	3205.07
440.77	3164.11
440.98	3499.98
441.18	3534.79
441.39	3065.81
441.59	3026.90
441.80	3880.90
442.00	3461.07
442.21	3248.08
442.41	3051.47
442.62	3667.91
442.82	3264.46
443.02	3155.92
443.23	3182.54
443.43	3352.52
443.64	3803.08
443.84	3000.27
444.05	3241.93
444.25	3428.30
444.46	3395.53
444.66	3065.81
444.87	3340.24
445.07	3078.10
445.28	3436.49
445.48	3368.91
445.69	3231.69
445.89	4003.78
446.09	3301.33
446.30	3403.72
446.50	3577.80
446.71	5097.39
446.91	6143.91
447.12	6883.22
447.32	7292.82
447.53	7286.67
447.73	6162.34
447.93	5435.31
448.14	5144.50
448.34	5373.87
448.55	4523.96
448.75	4335.55
448.96	4173.76
449.16	4163.52
449.36	4007.87
449.57	3473.36
449.77	3299.28
449.98	3321.81
450.18	3561.42
450.39	3180.50
450.59	3459.02
450.79	3399.63
451.00	3350.48
451.20	3401.68
451.41	3119.06
451.61	3559.37
451.81	3428.30
452.02	3119.06
452.22	3200.98
452.43	3428.30
