SpectraSuite Data File
++++++++++++++++++++++++++++++++++++
Date: Fri May 06 09:28:38 CEST 2016
User: root
Dark Spectrum Present: No
Reference Spectrum Present: No
Number of Sampled Component Spectra: 1
Spectrometers: USB4C02835
Integration Time (usec): 100000 (USB4C02835)
Spectra Averaged: 1 (USB4C02835)
Boxcar Smoothing: 0 (USB4C02835)
Correct for Electrical Dark: No (USB4C02835)
Strobe/Lamp Enabled: No (USB4C02835)
Correct for Detector Non-linearity: No (USB4C02835)
Correct for Stray Light: No (USB4C02835)
Number of Pixels in Processed Spectrum: 3648
>>>>>Begin Processed Spectral Data<<<<<
177.47	2363.36
177.69	2363.36
177.91	2363.36
178.13	2301.92
178.36	2265.05
178.58	3098.58
178.80	3293.13
179.02	3094.48
179.24	3160.02
179.46	2820.05
179.68	2975.70
179.90	3377.10
180.13	3436.49
180.35	2740.18
180.57	2904.02
180.79	3549.13
181.01	3426.25
181.23	3035.09
181.45	3076.05
181.67	3532.75
181.90	3608.52
182.12	3016.66
182.34	2752.47
182.56	3622.86
182.78	3561.42
183.00	2873.30
183.22	2877.40
183.44	3020.75
183.66	4106.18
183.89	2998.23
184.11	2973.65
184.33	3585.99
184.55	3758.02
184.77	3061.71
184.99	2975.70
185.21	3321.81
185.43	4083.65
185.65	3000.27
185.87	2889.68
186.10	3991.49
186.32	4009.92
186.54	3102.67
186.76	3131.34
186.98	3715.02
187.20	3362.76
187.42	3024.85
187.64	2944.98
187.86	3557.32
188.08	3657.67
188.30	2942.93
188.52	3004.37
188.75	3725.26
188.97	3729.35
189.19	2979.79
189.41	2951.12
189.63	3600.33
189.85	3319.76
190.07	2783.19
190.29	2840.53
190.51	3579.85
190.73	3164.11
190.95	3086.29
191.17	3059.67
191.39	3104.72
191.61	3383.24
191.84	2981.84
192.06	3090.38
192.28	3127.25
192.50	4167.62
192.72	3151.82
192.94	2975.70
193.16	3692.49
193.38	3557.32
193.60	2832.34
193.82	3164.11
194.04	3688.39
194.26	3549.13
194.48	3086.29
194.70	2893.78
194.92	3413.96
195.14	3649.48
195.36	2906.07
195.58	2987.99
195.80	3473.36
196.02	3362.76
196.24	2965.46
196.46	3028.95
196.69	3416.01
196.91	3891.14
197.13	2971.60
197.35	2992.08
197.57	3809.22
197.79	3565.51
198.01	2992.08
198.23	3028.95
198.45	3559.37
198.67	3223.50
198.89	2772.95
199.11	3100.62
199.33	3293.13
199.55	2955.22
199.77	2926.55
199.99	3129.30
200.21	3373.00
200.43	3430.35
200.65	2830.29
200.87	2772.95
201.09	3477.45
201.31	3424.20
201.53	2926.55
201.75	3030.99
201.97	3481.55
202.19	3434.44
202.41	3065.81
202.63	3057.62
202.85	3551.18
203.07	3508.17
203.29	3069.91
203.51	2897.88
203.73	3250.13
203.95	4069.31
204.17	3045.33
204.39	3164.11
204.61	3459.02
204.83	3354.57
205.05	3143.63
205.27	2922.45
205.49	4026.31
205.71	3461.07
205.93	2770.90
206.15	2881.49
206.37	3426.25
206.59	3446.73
206.81	2775.00
207.03	2848.72
207.25	3270.61
207.47	3608.52
207.69	2910.16
207.91	3200.98
208.13	3846.09
208.34	3327.95
208.56	2977.75
208.78	2955.22
209.00	3381.20
209.22	3330.00
209.44	2975.70
209.66	2922.45
209.88	3532.75
210.10	3397.58
210.32	2951.12
210.54	2959.31
210.76	3340.24
210.98	3669.96
211.20	2807.77
211.42	3192.78
211.64	3803.08
211.86	3592.14
212.08	3033.04
212.30	3008.47
212.52	3340.24
212.74	3536.84
212.96	3071.95
213.17	3082.19
213.39	3696.58
213.61	3784.65
213.83	2906.07
214.05	2828.24
214.27	3657.67
214.49	3233.74
214.71	2924.50
214.93	3047.38
215.15	3450.83
215.37	3633.10
215.59	2805.72
215.81	3063.76
216.03	3737.54
216.24	3469.26
216.46	2944.98
216.68	3074.00
216.90	3618.76
217.12	3659.72
217.34	2934.74
217.56	3198.93
217.78	3715.02
218.00	3647.43
218.22	3121.10
218.44	3061.71
218.66	3469.26
218.87	3817.41
219.09	2979.79
219.31	2965.46
219.53	3471.31
219.75	3344.33
219.97	3123.15
220.19	2996.18
220.41	3438.54
220.63	3762.12
220.85	3028.95
221.06	3012.56
221.28	3712.97
221.50	3561.42
221.72	2971.60
221.94	2856.92
222.16	3409.87
222.38	3715.02
222.60	2936.79
222.82	3041.23
223.03	3719.11
223.25	3229.65
223.47	2895.83
223.69	3307.47
223.91	3559.37
224.13	3467.21
224.35	2858.96
224.57	3092.43
224.78	3651.53
225.00	3219.41
225.22	3065.81
225.44	2844.63
225.66	3585.99
225.88	3344.33
226.10	3160.02
226.32	2934.74
226.53	3749.83
226.75	3315.66
226.97	3057.62
227.19	2983.89
227.41	3303.37
227.63	3403.72
227.85	2840.53
228.06	3020.75
228.28	3475.40
228.50	3631.05
228.72	2797.53
228.94	3002.32
229.16	3074.00
229.37	3194.83
229.59	2940.88
229.81	3270.61
230.03	3360.72
230.25	3100.62
230.47	2822.10
230.69	2951.12
230.90	3528.65
231.12	3289.04
231.34	3112.91
231.56	3006.42
231.78	3168.21
232.00	3520.46
232.21	3061.71
232.43	3059.67
232.65	2990.03
232.87	3471.31
233.09	2818.00
233.30	2922.45
233.52	3616.71
233.74	3475.40
233.96	2926.55
234.18	3211.22
234.40	3434.44
234.61	4001.73
234.83	2875.35
235.05	2889.68
235.27	4052.93
235.49	3710.92
235.70	2836.44
235.92	3004.37
236.14	3606.47
236.36	4110.27
236.58	2867.16
236.79	3008.47
237.01	3407.82
237.23	3448.78
237.45	3166.16
237.67	3090.38
237.88	3540.94
238.10	3936.20
238.32	2920.40
238.54	2914.26
238.76	3526.60
238.97	3278.80
239.19	2858.96
239.41	2996.18
239.63	3663.82
239.85	3246.03
240.06	2992.08
240.28	2934.74
240.50	3694.54
240.72	3508.17
240.93	2873.30
241.15	3061.71
241.37	3340.24
241.59	3715.02
241.81	3000.27
242.02	3059.67
242.24	3504.07
242.46	3624.90
242.68	2815.96
242.89	2861.01
243.11	3667.91
243.33	3391.44
243.55	2926.55
243.76	2940.88
243.98	3303.37
244.20	3459.02
244.42	2936.79
244.64	2906.07
244.85	3176.40
245.07	3286.99
245.29	2928.60
245.51	3022.80
245.72	3499.98
245.94	3676.10
246.16	2887.64
246.38	2951.12
246.59	3330.00
246.81	3350.48
247.03	2893.78
247.24	2795.48
247.46	3393.48
247.68	3452.88
247.90	2830.29
248.11	3041.23
248.33	3542.99
248.55	3420.11
248.77	2918.36
248.98	3086.29
249.20	3815.37
249.42	3465.16
249.64	2959.31
249.85	2844.63
250.07	3352.52
250.29	3583.95
250.50	3033.04
250.72	2897.88
250.94	3499.98
251.16	3952.58
251.37	2965.46
251.59	3114.96
251.81	3526.60
252.02	3852.23
252.24	2811.86
252.46	3057.62
252.68	3188.69
252.89	3278.80
253.11	2754.52
253.33	3090.38
253.54	3794.89
253.76	3155.92
253.98	3053.52
254.20	2940.88
254.41	3170.26
254.63	3387.34
254.85	2811.86
255.06	3049.43
255.28	3577.80
255.50	3373.00
255.71	2932.69
255.93	2832.34
256.15	3463.12
256.36	3565.51
256.58	2793.43
256.80	2820.05
257.02	3428.30
257.23	3319.76
257.45	3043.28
257.67	3086.29
257.88	3303.37
258.10	3471.31
258.32	2901.97
258.53	3104.72
258.75	3862.47
258.97	3274.70
259.18	2865.11
259.40	2854.87
259.62	3852.23
259.83	3811.27
260.05	2975.70
260.27	3960.77
260.48	3735.50
260.70	3205.07
260.92	2895.83
261.13	3047.38
261.35	3459.02
261.57	3622.86
261.78	2815.96
262.00	3000.27
262.22	3569.61
262.43	3344.33
262.65	2975.70
262.86	2936.79
263.08	3960.77
263.30	3493.83
263.51	2795.48
263.73	2901.97
263.95	3801.03
264.16	3237.84
264.38	2877.40
264.60	2912.21
264.81	3465.16
265.03	3762.12
265.25	3436.49
265.46	2877.40
265.68	3723.21
265.89	3567.56
266.11	2832.34
266.33	2930.64
266.54	3700.68
266.76	3452.88
266.98	3000.27
267.19	3190.74
267.41	3688.39
267.62	3411.92
267.84	2764.76
268.06	3086.29
268.27	3522.51
268.49	3706.82
268.70	2965.46
268.92	2975.70
269.14	3203.02
269.35	3123.15
269.57	3104.72
269.79	3006.42
270.00	3321.81
270.22	3885.00
270.43	2809.81
270.65	2854.87
270.87	3545.03
271.08	3594.19
271.30	3123.15
271.51	2930.64
271.73	3659.72
271.95	3778.50
272.16	2936.79
272.38	3051.47
272.59	3452.88
272.81	3676.10
273.02	2953.17
273.24	3024.85
273.46	3633.10
273.67	3207.12
273.89	2926.55
274.10	2938.84
274.32	3745.73
274.54	3497.93
274.75	3102.67
274.97	3100.62
275.18	3631.05
275.40	3516.36
275.61	2959.31
275.83	3174.35
276.05	3227.60
276.26	3409.87
276.48	3135.44
276.69	3180.50
276.91	3373.00
277.12	3798.98
277.34	3147.73
277.55	3225.55
277.77	3444.68
277.99	3307.47
278.20	3078.10
278.42	3016.66
278.63	3260.37
278.85	3313.61
279.06	3051.47
279.28	3131.34
279.49	3704.78
279.71	3590.09
279.93	3172.30
280.14	3190.74
280.36	3303.37
280.57	3729.35
280.79	3131.34
281.00	2938.84
281.22	3403.72
281.43	3651.53
281.65	2930.64
281.86	3039.19
282.08	3602.38
282.29	3755.97
282.51	2994.13
282.73	3008.47
282.94	3172.30
283.16	3647.43
283.37	3186.64
283.59	3162.06
283.80	3459.02
284.02	3411.92
284.23	3139.54
284.45	3172.30
284.66	3301.33
284.88	3334.09
285.09	2990.03
285.31	3188.69
285.52	3499.98
285.74	3092.43
285.95	3336.14
286.17	3106.77
286.38	3690.44
286.60	3313.61
286.81	3041.23
287.03	3018.71
287.24	3428.30
287.46	3641.29
287.67	3215.31
287.89	3276.75
288.10	3375.05
288.32	3530.70
288.53	3196.88
288.75	3178.45
288.96	3551.18
289.18	3313.61
289.39	2990.03
289.61	3143.63
289.82	3958.72
290.04	3903.43
290.25	2985.94
290.47	3147.73
290.68	3334.09
290.90	3694.54
291.11	2879.44
291.33	3213.26
291.54	3307.47
291.76	3377.10
291.97	3215.31
292.18	3149.78
292.40	3393.48
292.61	3338.19
292.83	3432.40
293.04	3033.04
293.26	3481.55
293.47	3452.88
293.69	3049.43
293.90	2981.84
294.12	3747.78
294.33	3377.10
294.55	3198.93
294.76	3280.85
294.97	3647.43
295.19	3944.39
295.40	3098.58
295.62	3112.91
295.83	3594.19
296.05	3278.80
296.26	3356.62
296.48	3102.67
296.69	3366.86
296.90	3422.16
297.12	3274.70
297.33	3344.33
297.55	3459.02
297.76	3547.08
297.98	3256.27
298.19	3278.80
298.41	3409.87
298.62	3198.93
298.83	3315.66
299.05	3233.74
299.26	3305.42
299.48	3409.87
299.69	3237.84
299.90	3141.58
300.12	3311.57
300.33	3606.47
300.55	3157.97
300.76	3180.50
300.98	3176.40
301.19	3588.04
301.40	3053.52
301.62	3082.19
301.83	3594.19
302.05	3440.59
302.26	3092.43
302.47	3164.11
302.69	3248.08
302.90	3346.38
303.12	2924.50
303.33	3180.50
303.54	3872.71
303.76	3336.14
303.97	3016.66
304.19	3252.17
304.40	3319.76
304.61	3565.51
304.83	3213.26
305.04	3149.78
305.26	3524.55
305.47	3274.70
305.68	3092.43
305.90	3022.80
306.11	3700.68
306.33	3436.49
306.54	2994.13
306.75	3022.80
306.97	3160.02
307.18	3231.69
307.39	3047.38
307.61	3172.30
307.82	3424.20
308.04	3614.66
308.25	2969.55
308.46	3221.45
308.68	3493.83
308.89	3373.00
309.10	3205.07
309.32	3153.87
309.53	3489.74
309.74	3622.86
309.96	3018.71
310.17	3198.93
310.39	3344.33
310.60	3680.20
310.81	3018.71
311.03	3012.56
311.24	3557.32
311.45	3467.21
311.67	3317.71
311.88	3252.17
312.09	3395.53
312.31	3411.92
312.52	2987.99
312.73	2990.03
312.95	3141.58
313.16	3250.13
313.37	3264.46
313.59	3297.23
313.80	3637.19
314.01	3792.84
314.23	3114.96
314.44	3020.75
314.65	3200.98
314.87	3278.80
315.08	3096.53
315.29	3119.06
315.51	3235.79
315.72	3160.02
315.93	3162.06
316.15	3104.72
316.36	3282.89
316.57	3426.25
316.79	3143.63
317.00	3071.95
317.21	3502.03
317.43	3227.60
317.64	3114.96
317.85	3020.75
318.07	3289.04
318.28	3278.80
318.49	3151.82
318.70	3330.00
318.92	3426.25
319.13	3403.72
319.34	3289.04
319.56	3102.67
319.77	3497.93
319.98	3600.33
320.20	3422.16
320.41	3246.03
320.62	3540.94
320.83	3268.56
321.05	3229.65
321.26	3184.59
321.47	3493.83
321.69	3739.59
321.90	2994.13
322.11	3053.52
322.32	3495.88
322.54	3704.78
322.75	3131.34
322.96	4151.23
323.18	3114.96
323.39	3024.85
323.60	2994.13
323.81	3262.41
324.03	3305.42
324.24	3434.44
324.45	3188.69
324.66	3086.29
324.88	3803.08
325.09	3856.33
325.30	3063.76
325.52	3016.66
325.73	3577.80
325.94	3217.36
326.15	2953.17
326.37	2934.74
326.58	3755.97
326.79	3837.89
327.00	3076.05
327.22	3139.54
327.43	3395.53
327.64	3180.50
327.85	3313.61
328.07	3172.30
328.28	3940.29
328.49	3340.24
328.70	3092.43
328.92	3127.25
329.13	3434.44
329.34	3526.60
329.55	3346.38
329.76	3330.00
329.98	3401.68
330.19	3674.06
330.40	3211.22
330.61	3260.37
330.83	3674.06
331.04	3311.57
331.25	3223.50
331.46	3172.30
331.68	3200.98
331.89	3631.05
332.10	3162.06
332.31	3030.99
332.52	3450.83
332.74	3762.12
332.95	2977.75
333.16	3037.14
333.37	3540.94
333.58	3307.47
333.80	3196.88
334.01	2930.64
334.22	3438.54
334.43	3377.10
334.64	3069.91
334.86	3024.85
335.07	3327.95
335.28	3846.09
335.49	2987.99
335.70	3233.74
335.92	3801.03
336.13	3860.42
336.34	3155.92
336.55	2996.18
336.76	3526.60
336.98	3010.51
337.19	3188.69
337.40	3205.07
337.61	4030.40
337.82	3395.53
338.04	3194.83
338.25	3051.47
338.46	3438.54
338.67	3332.05
338.88	3033.04
339.09	2953.17
339.31	3393.48
339.52	3160.02
339.73	3065.81
339.94	3209.17
340.15	3526.60
340.36	3375.05
340.58	3145.68
340.79	3055.57
341.00	3551.18
341.21	3198.93
341.42	3418.06
341.63	3139.54
341.85	3669.96
342.06	3448.78
342.27	3080.14
342.48	3237.84
342.69	3188.69
342.90	3510.22
343.12	3504.07
343.33	3045.33
343.54	3665.86
343.75	3715.02
343.96	3254.22
344.17	3016.66
344.38	3358.67
344.60	3231.69
344.81	3035.09
345.02	3067.86
345.23	3731.40
345.44	4032.45
345.65	3143.63
345.86	3217.36
346.07	3475.40
346.29	3358.67
346.50	3303.37
346.71	3149.78
346.92	3682.25
347.13	3794.89
347.34	3211.22
347.55	2910.16
347.76	3534.79
347.98	3069.91
348.19	3172.30
348.40	3286.99
348.61	3440.59
348.82	3798.98
349.03	3145.68
349.24	2963.41
349.45	3893.19
349.66	3057.62
349.88	3049.43
350.09	3030.99
350.30	3696.58
350.51	3688.39
350.72	3373.00
350.93	3067.86
351.14	3315.66
351.35	3467.21
351.56	3043.28
351.77	3180.50
351.99	3602.38
352.20	3684.30
352.41	3235.79
352.62	2942.93
352.83	3473.36
353.04	3385.29
353.25	3069.91
353.46	3094.48
353.67	3719.11
353.88	3045.33
354.09	2949.08
354.30	3127.25
354.52	3606.47
354.73	3401.68
354.94	3100.62
355.15	3188.69
355.36	3903.43
355.57	3282.89
355.78	2983.89
355.99	3106.77
356.20	3438.54
356.41	3723.21
356.62	3180.50
356.83	3157.97
357.04	3735.50
357.25	3088.34
357.46	3106.77
357.68	3010.51
357.89	3174.35
358.10	3422.16
358.31	3035.09
358.52	3180.50
358.73	3151.82
358.94	3186.64
359.15	3160.02
359.36	3110.86
359.57	3502.03
359.78	3311.57
359.99	3311.57
360.20	3010.51
360.41	3446.73
360.62	3499.98
360.83	3188.69
361.04	3145.68
361.25	3547.08
361.46	3794.89
361.67	3229.65
361.88	3090.38
362.09	3598.28
362.30	3489.74
362.51	3002.32
362.72	3205.07
362.93	3618.76
363.14	3547.08
363.35	3286.99
363.56	2967.51
363.78	3704.78
363.99	3622.86
364.20	3016.66
364.41	3221.45
364.62	3872.71
364.83	3518.41
365.04	3065.81
365.25	3108.82
365.46	3872.71
365.67	3145.68
365.88	3336.14
366.09	3155.92
366.30	3385.29
366.51	3454.92
366.72	2992.08
366.93	3004.37
367.14	3499.98
367.35	3739.59
367.56	3035.09
367.77	3225.55
367.98	3409.87
368.18	3540.94
368.39	3278.80
368.60	3086.29
368.81	3688.39
369.02	3575.75
369.23	3151.82
369.44	2942.93
369.65	3377.10
369.86	3561.42
370.07	3280.85
370.28	2975.70
370.49	3553.23
370.70	3491.79
370.91	2996.18
371.12	2973.65
371.33	3643.34
371.54	3313.61
371.75	3162.06
371.96	2906.07
372.17	3532.75
372.38	3389.39
372.59	3143.63
372.80	3024.85
373.01	3344.33
373.22	3438.54
373.43	3094.48
373.64	2963.41
373.85	3721.16
374.06	3770.31
374.26	3350.48
374.47	3217.36
374.68	3741.64
374.89	3512.27
375.10	2983.89
375.31	3188.69
375.52	3499.98
375.73	3446.73
375.94	2967.51
376.15	3219.41
376.36	3237.84
376.57	3289.04
376.78	3121.10
376.99	3155.92
377.20	3758.02
377.40	3321.81
377.61	3383.24
377.82	3088.34
378.03	3796.93
378.24	3518.41
378.45	3233.74
378.66	3198.93
378.87	3102.67
379.08	3106.77
379.29	3133.39
379.50	3317.71
379.71	3442.64
379.91	3594.19
380.12	3071.95
380.33	3239.89
380.54	3383.24
380.75	3463.12
380.96	2985.94
381.17	3145.68
381.38	3444.68
381.59	3450.83
381.80	3153.87
382.00	3262.41
382.21	3522.51
382.42	3846.09
382.63	3538.89
382.84	3246.03
383.05	3717.06
383.26	3819.46
383.47	3157.97
383.68	3071.95
383.88	3557.32
384.09	3444.68
384.30	3334.09
384.51	3266.51
384.72	3344.33
384.93	3182.54
385.14	3209.17
385.35	3461.07
385.55	3131.34
385.76	3680.20
385.97	3147.73
386.18	2916.31
386.39	3301.33
386.60	3358.67
386.81	3098.58
387.02	2971.60
387.22	3231.69
387.43	3643.34
387.64	3106.77
387.85	3332.05
388.06	3422.16
388.27	4405.18
388.48	7210.90
388.68	10698.59
388.89	13416.24
389.10	14501.67
389.31	14051.11
389.52	11380.56
389.73	10155.88
389.93	9312.11
390.14	8288.13
390.35	7643.02
390.56	7501.71
390.77	6195.11
390.98	4812.73
391.18	4073.41
391.39	4093.89
391.60	3471.31
391.81	3422.16
392.02	3149.78
392.23	3960.77
392.43	3471.31
392.64	3248.08
392.85	3291.09
393.06	3841.99
393.27	3375.05
393.47	3082.19
393.68	3348.43
393.89	3467.21
394.10	3753.93
394.31	3160.02
394.52	3067.86
394.72	3194.83
394.93	3762.12
395.14	3049.43
395.35	3215.31
395.56	3352.52
395.76	3393.48
395.97	3143.63
396.18	3272.65
396.39	3327.95
396.60	4095.94
396.80	3444.68
397.01	3432.40
397.22	3575.75
397.43	3583.95
397.64	3160.02
397.84	3205.07
398.05	3782.60
398.26	3489.74
398.47	3297.23
398.67	3379.15
398.88	3522.51
399.09	3614.66
399.30	3139.54
399.51	3194.83
399.71	3327.95
399.92	3479.50
400.13	3270.61
400.34	3213.26
400.54	3463.12
400.75	3784.65
400.96	3188.69
401.17	3475.40
401.37	3506.12
401.58	3356.62
401.79	3151.82
402.00	3264.46
402.21	3872.71
402.41	3538.89
402.62	3391.44
402.83	3469.26
403.04	3755.97
403.24	4255.68
403.45	3311.57
403.66	3467.21
403.87	3651.53
404.07	3688.39
404.28	3381.20
404.49	3487.69
404.70	3489.74
404.90	3651.53
405.11	3188.69
405.32	3254.22
405.52	3291.09
405.73	3313.61
405.94	3016.66
406.15	3117.01
406.35	3563.47
406.56	3606.47
406.77	3188.69
406.98	3117.01
407.18	3323.85
407.39	3690.44
407.60	3196.88
407.80	3248.08
408.01	3377.10
408.22	3547.08
408.43	3102.67
408.63	3303.37
408.84	3622.86
409.05	3622.86
409.25	3121.10
409.46	3209.17
409.67	3280.85
409.88	3301.33
410.08	3200.98
410.29	3082.19
410.50	3651.53
410.70	3475.40
410.91	3059.67
411.12	3190.74
411.32	3401.68
411.53	3254.22
411.74	3184.59
411.95	3135.44
412.15	3461.07
412.36	3606.47
412.57	3305.42
412.77	3305.42
412.98	3352.52
413.19	3311.57
413.39	3182.54
413.60	3180.50
413.81	3688.39
414.01	3217.36
414.22	3151.82
414.43	3362.76
414.63	3416.01
414.84	3696.58
415.05	3225.55
415.25	2938.84
415.46	3516.36
415.67	3323.85
415.87	3164.11
416.08	3121.10
416.29	3336.14
416.49	3569.61
416.70	3217.36
416.91	3164.11
417.11	3387.34
417.32	3735.50
417.53	3209.17
417.73	3270.61
417.94	3413.96
418.15	3465.16
418.35	3225.55
418.56	3145.68
418.77	3991.49
418.97	3426.25
419.18	3305.42
419.38	2840.53
419.59	3467.21
419.80	3786.69
420.00	3061.71
420.21	3225.55
420.42	3682.25
420.62	3477.45
420.83	3157.97
421.04	3151.82
421.24	3434.44
421.45	3694.54
421.65	3192.78
421.86	3174.35
422.07	3581.90
422.27	3559.37
422.48	3074.00
422.69	2947.03
422.89	3477.45
423.10	3340.24
423.30	3129.30
423.51	3139.54
423.72	3596.23
423.92	3569.61
424.13	3008.47
424.33	3235.79
424.54	3639.24
424.75	3454.92
424.95	3401.68
425.16	3043.28
425.36	3448.78
425.57	3694.54
425.78	3356.62
425.98	3264.46
426.19	3362.76
426.39	3291.09
426.60	3205.07
426.81	3309.52
427.01	3538.89
427.22	3264.46
427.42	3024.85
427.63	3108.82
427.83	3598.28
428.04	3770.31
428.25	3168.21
428.45	3235.79
428.66	3653.58
428.86	3336.14
429.07	3270.61
429.28	3215.31
429.48	3418.06
429.69	3295.18
429.89	3274.70
430.10	3104.72
430.30	3608.52
430.51	3616.71
430.71	3022.80
430.92	3205.07
431.13	3289.04
431.33	3536.84
431.54	3229.65
431.74	3330.00
431.95	3936.20
432.15	3264.46
432.36	3053.52
432.56	3260.37
432.77	3958.72
432.98	3772.36
433.18	3286.99
433.39	3041.23
433.59	3393.48
433.80	3891.14
434.00	3270.61
434.21	3221.45
434.41	3262.41
434.62	3999.68
434.82	3008.47
435.03	3137.49
435.23	3602.38
435.44	3117.01
435.64	3135.44
435.85	3192.78
436.06	3667.91
436.26	3700.68
436.47	3141.58
436.67	3014.61
436.88	3319.76
437.08	3641.29
437.29	3262.41
437.49	3295.18
437.70	3698.63
437.90	3428.30
438.11	3413.96
438.31	3182.54
438.52	3725.26
438.72	3672.01
438.93	3436.49
439.13	3264.46
439.34	3577.80
439.54	3309.52
439.75	3213.26
439.95	3221.45
440.16	3282.89
440.36	3532.75
440.57	3141.58
440.77	3198.93
440.98	3370.96
441.18	3622.86
441.39	3045.33
441.59	2998.23
441.80	3930.05
442.00	3370.96
442.21	3305.42
442.41	2981.84
442.62	3676.10
442.82	3350.48
443.02	3143.63
443.23	3139.54
443.43	3471.31
443.64	3669.96
443.84	2994.13
444.05	3162.06
444.25	3442.64
444.46	3297.23
444.66	3164.11
444.87	3430.35
445.07	3160.02
445.28	3350.48
445.48	3344.33
445.69	3286.99
445.89	3995.59
446.09	3465.16
446.30	3387.34
446.50	3575.75
446.71	5099.44
446.91	5994.40
447.12	6741.91
447.32	7069.59
447.53	7346.06
447.73	6162.34
447.93	5267.38
448.14	4988.85
448.34	5429.17
448.55	4421.56
448.75	4442.04
448.96	4057.03
449.16	4208.58
449.36	4050.88
449.57	3366.86
449.77	3334.09
449.98	3356.62
450.18	3502.03
450.39	3088.34
450.59	3420.11
450.79	3368.91
451.00	3270.61
451.20	3409.87
451.41	3184.59
451.61	3551.18
451.81	3471.31
452.02	3137.49
452.22	3188.69
452.43	3266.51
