SpectraSuite Data File
++++++++++++++++++++++++++++++++++++
Date: Fri May 06 09:28:24 CEST 2016
User: root
Dark Spectrum Present: No
Reference Spectrum Present: No
Number of Sampled Component Spectra: 1
Spectrometers: USB4C02835
Integration Time (usec): 100000 (USB4C02835)
Spectra Averaged: 1 (USB4C02835)
Boxcar Smoothing: 0 (USB4C02835)
Correct for Electrical Dark: No (USB4C02835)
Strobe/Lamp Enabled: No (USB4C02835)
Correct for Detector Non-linearity: No (USB4C02835)
Correct for Stray Light: No (USB4C02835)
Number of Pixels in Processed Spectrum: 3648
>>>>>Begin Processed Spectral Data<<<<<
177.47	2346.97
177.69	2346.97
177.91	2346.97
178.13	2340.83
178.36	2365.40
178.58	3155.92
178.80	3266.51
179.02	3198.93
179.24	3135.44
179.46	2824.15
179.68	2883.54
179.90	3350.48
180.13	3520.46
180.35	2697.17
180.57	2887.64
180.79	3555.27
181.01	3434.44
181.23	2967.51
181.45	3098.58
181.67	3618.76
181.90	3657.67
182.12	3106.77
182.34	2865.11
182.56	3682.25
182.78	3475.40
183.00	2910.16
183.22	2963.41
183.44	3051.47
183.66	4075.46
183.89	3035.09
184.11	2951.12
184.33	3602.38
184.55	3721.16
184.77	2914.26
184.99	2961.36
185.21	3364.81
185.43	4081.60
185.65	2951.12
185.87	2944.98
186.10	4003.78
186.32	4040.64
186.54	3110.86
186.76	3082.19
186.98	3651.53
187.20	3389.39
187.42	3053.52
187.64	2967.51
187.86	3588.04
188.08	3682.25
188.30	2873.30
188.52	3043.28
188.75	3780.55
188.97	3829.70
189.19	2959.31
189.41	2940.88
189.63	3577.80
189.85	3444.68
190.07	2910.16
190.29	2844.63
190.51	3545.03
190.73	3213.26
190.95	3139.54
191.17	3002.32
191.39	3090.38
191.61	3344.33
191.84	2934.74
192.06	3035.09
192.28	3074.00
192.50	4157.38
192.72	3076.05
192.94	3074.00
193.16	3737.54
193.38	3588.04
193.60	2858.96
193.82	3053.52
194.04	3647.43
194.26	3594.19
194.48	2987.99
194.70	2936.79
194.92	3385.29
195.14	3633.10
195.36	2951.12
195.58	3028.95
195.80	3411.92
196.02	3352.52
196.24	2875.35
196.46	3033.04
196.69	3375.05
196.91	4085.70
197.13	3018.71
197.35	2996.18
197.57	3788.74
197.79	3631.05
198.01	3061.71
198.23	2971.60
198.45	3479.50
198.67	3178.45
198.89	2740.18
199.11	3096.53
199.33	3248.08
199.55	3016.66
199.77	2916.31
199.99	3125.20
200.21	3338.19
200.43	3573.71
200.65	2856.92
200.87	2803.67
201.09	3473.36
201.31	3411.92
201.53	3016.66
201.75	3069.91
201.97	3516.36
202.19	3502.03
202.41	3065.81
202.63	3100.62
202.85	3620.81
203.07	3555.27
203.29	3033.04
203.51	2992.08
203.73	3352.52
203.95	4057.03
204.17	3012.56
204.39	3125.20
204.61	3538.89
204.83	3426.25
205.05	3207.12
205.27	3000.27
205.49	3960.77
205.71	3461.07
205.93	2822.10
206.15	2852.82
206.37	3499.98
206.59	3436.49
206.81	2762.71
207.03	2910.16
207.25	3260.37
207.47	3653.58
207.69	2981.84
207.91	3188.69
208.13	3882.95
208.34	3327.95
208.56	2863.06
208.78	2975.70
209.00	3338.19
209.22	3397.58
209.44	3014.61
209.66	2885.59
209.88	3477.45
210.10	3387.34
210.32	2947.03
210.54	3043.28
210.76	3344.33
210.98	3676.10
211.20	2822.10
211.42	3028.95
211.64	3721.16
211.86	3571.66
212.08	2979.79
212.30	3037.14
212.52	3373.00
212.74	3569.61
212.96	3106.77
213.17	3033.04
213.39	3694.54
213.61	3876.80
213.83	2920.40
214.05	2818.00
214.27	3659.72
214.49	3229.65
214.71	2951.12
214.93	3084.24
215.15	3422.16
215.37	3629.00
215.59	2793.43
215.81	3061.71
216.03	3680.20
216.24	3393.48
216.46	2863.06
216.68	3039.19
216.90	3571.66
217.12	3680.20
217.34	2926.55
217.56	3135.44
217.78	3813.32
218.00	3608.52
218.22	3082.19
218.44	3131.34
218.66	3450.83
218.87	3762.12
219.09	3024.85
219.31	2889.68
219.53	3479.50
219.75	3350.48
219.97	3000.27
220.19	3033.04
220.41	3397.58
220.63	3790.79
220.85	2987.99
221.06	2990.03
221.28	3848.13
221.50	3569.61
221.72	2953.17
221.94	2799.57
222.16	3471.31
222.38	3665.86
222.60	2947.03
222.82	3065.81
223.03	3655.62
223.25	3231.69
223.47	2910.16
223.69	3145.68
223.91	3583.95
224.13	3504.07
224.35	2877.40
224.57	3153.87
224.78	3622.86
225.00	3213.26
225.22	3078.10
225.44	2869.20
225.66	3614.66
225.88	3297.23
226.10	3108.82
226.32	3026.90
226.53	3755.97
226.75	3352.52
226.97	3028.95
227.19	2985.94
227.41	3348.43
227.63	3432.40
227.85	2760.66
228.06	3008.47
228.28	3459.02
228.50	3665.86
228.72	2836.44
228.94	2863.06
229.16	3127.25
229.37	3207.12
229.59	2834.39
229.81	3180.50
230.03	3379.15
230.25	3250.13
230.47	2772.95
230.69	2981.84
230.90	3688.39
231.12	3217.36
231.34	3098.58
231.56	3028.95
231.78	3254.22
232.00	3411.92
232.21	2985.94
232.43	3028.95
232.65	3074.00
232.87	3540.94
233.09	2836.44
233.30	2959.31
233.52	3717.06
233.74	3291.09
233.96	2863.06
234.18	3155.92
234.40	3459.02
234.61	3901.38
234.83	2815.96
235.05	2881.49
235.27	3962.82
235.49	3694.54
235.70	2838.48
235.92	3061.71
236.14	3639.24
236.36	4007.87
236.58	2879.44
236.79	3043.28
237.01	3409.87
237.23	3467.21
237.45	3198.93
237.67	2985.94
237.88	3522.51
238.10	3780.55
238.32	2856.92
238.54	2951.12
238.76	3491.79
238.97	3235.79
239.19	2916.31
239.41	3047.38
239.63	3696.58
239.85	3299.28
240.06	2944.98
240.28	2994.13
240.50	3729.35
240.72	3502.03
240.93	2873.30
241.15	3033.04
241.37	3407.82
241.59	3770.31
241.81	2985.94
242.02	3000.27
242.24	3557.32
242.46	3606.47
242.68	2820.05
242.89	2934.74
243.11	3669.96
243.33	3403.72
243.55	2951.12
243.76	3010.51
243.98	3330.00
244.20	3364.81
244.42	2983.89
244.64	2955.22
244.85	3235.79
245.07	3221.45
245.29	2891.73
245.51	3037.14
245.72	3534.79
245.94	3622.86
246.16	2959.31
246.38	2965.46
246.59	3282.89
246.81	3274.70
247.03	2811.86
247.24	2887.64
247.46	3301.33
247.68	3491.79
247.90	2926.55
248.11	3014.61
248.33	3622.86
248.55	3454.92
248.77	2998.23
248.98	3053.52
249.20	3772.36
249.42	3452.88
249.64	2916.31
249.85	2908.12
250.07	3362.76
250.29	3567.56
250.50	3057.62
250.72	2871.25
250.94	3643.34
251.16	4016.07
251.37	2922.45
251.59	3033.04
251.81	3616.71
252.02	3778.50
252.24	2832.34
252.46	3069.91
252.68	3264.46
252.89	3303.37
253.11	2795.48
253.33	3123.15
253.54	3786.69
253.76	3184.59
253.98	2885.59
254.20	2928.60
254.41	3239.89
254.63	3383.24
254.85	2897.88
255.06	3149.78
255.28	3565.51
255.50	3393.48
255.71	2926.55
255.93	2721.75
256.15	3368.91
256.36	3665.86
256.58	2795.48
256.80	2828.24
257.02	3422.16
257.23	3299.28
257.45	3026.90
257.67	3133.39
257.88	3305.42
258.10	3526.60
258.32	2914.26
258.53	3041.23
258.75	3805.13
258.97	3221.45
259.18	2865.11
259.40	2979.79
259.62	3796.93
259.83	3876.80
260.05	3020.75
260.27	3966.92
260.48	3612.62
260.70	3186.64
260.92	2854.87
261.13	2947.03
261.35	3618.76
261.57	3553.23
261.78	2809.81
262.00	2924.50
262.22	3575.75
262.43	3272.65
262.65	2922.45
262.86	3008.47
263.08	3964.87
263.30	3499.98
263.51	2824.15
263.73	2949.08
263.95	3844.04
264.16	3248.08
264.38	2885.59
264.60	2934.74
264.81	3434.44
265.03	3766.21
265.25	3434.44
265.46	2881.49
265.68	3706.82
265.89	3680.20
266.11	2820.05
266.33	2965.46
266.54	3733.45
266.76	3540.94
266.98	3026.90
267.19	3104.72
267.41	3741.64
267.62	3393.48
267.84	2830.29
268.06	3045.33
268.27	3526.60
268.49	3649.48
268.70	3061.71
268.92	3049.43
269.14	3282.89
269.35	3123.15
269.57	3139.54
269.79	3098.58
270.00	3370.96
270.22	3856.33
270.43	2746.33
270.65	2805.72
270.87	3448.78
271.08	3622.86
271.30	3114.96
271.51	2924.50
271.73	3575.75
271.95	3803.08
272.16	2914.26
272.38	3080.14
272.59	3428.30
272.81	3602.38
273.02	2877.40
273.24	3030.99
273.46	3631.05
273.67	3200.98
273.89	2869.20
274.10	2863.06
274.32	3815.37
274.54	3540.94
274.75	3090.38
274.97	3033.04
275.18	3588.04
275.40	3588.04
275.61	2963.41
275.83	3135.44
276.05	3141.58
276.26	3467.21
276.48	3090.38
276.69	3188.69
276.91	3301.33
277.12	3780.55
277.34	3184.59
277.55	3254.22
277.77	3430.35
277.99	3370.96
278.20	3131.34
278.42	3006.42
278.63	3225.55
278.85	3248.08
279.06	3139.54
279.28	3180.50
279.49	3684.30
279.71	3581.90
279.93	3104.72
280.14	3096.53
280.36	3301.33
280.57	3639.24
280.79	3186.64
281.00	2992.08
281.22	3332.05
281.43	3682.25
281.65	2883.54
281.86	3024.85
282.08	3551.18
282.29	3852.23
282.51	2942.93
282.73	3012.56
282.94	3092.43
283.16	3688.39
283.37	3160.02
283.59	3172.30
283.80	3604.42
284.02	3448.78
284.23	3149.78
284.45	3170.26
284.66	3252.17
284.88	3207.12
285.09	2985.94
285.31	3153.87
285.52	3542.99
285.74	3119.06
285.95	3297.23
286.17	3139.54
286.38	3792.84
286.60	3327.95
286.81	3002.32
287.03	3088.34
287.24	3459.02
287.46	3657.67
287.67	3233.74
287.89	3340.24
288.10	3397.58
288.32	3514.31
288.53	3221.45
288.75	3207.12
288.96	3626.95
289.18	3311.57
289.39	3033.04
289.61	3213.26
289.82	3966.92
290.04	3934.15
290.25	2930.64
290.47	3229.65
290.68	3426.25
290.90	3631.05
291.11	2959.31
291.33	3237.84
291.54	3319.76
291.76	3313.61
291.97	3198.93
292.18	3188.69
292.40	3293.13
292.61	3272.65
292.83	3280.85
293.04	3119.06
293.26	3401.68
293.47	3395.53
293.69	3131.34
293.90	3059.67
294.12	3774.41
294.33	3416.01
294.55	3129.30
294.76	3330.00
294.97	3725.26
295.19	3862.47
295.40	3069.91
295.62	3114.96
295.83	3588.04
296.05	3377.10
296.26	3387.34
296.48	3141.58
296.69	3399.63
296.90	3510.22
297.12	3323.85
297.33	3192.78
297.55	3463.12
297.76	3585.99
297.98	3135.44
298.19	3344.33
298.41	3422.16
298.62	3200.98
298.83	3319.76
299.05	3172.30
299.26	3319.76
299.48	3270.61
299.69	3143.63
299.90	3100.62
300.12	3289.04
300.33	3557.32
300.55	3155.92
300.76	3123.15
300.98	3237.84
301.19	3618.76
301.40	3069.91
301.62	3106.77
301.83	3563.47
302.05	3446.73
302.26	3082.19
302.47	3190.74
302.69	3178.45
302.90	3387.34
303.12	2861.01
303.33	3164.11
303.54	3952.58
303.76	3325.90
303.97	3057.62
304.19	3330.00
304.40	3237.84
304.61	3532.75
304.83	3221.45
305.04	3067.86
305.26	3598.28
305.47	3266.51
305.68	3043.28
305.90	3004.37
306.11	3792.84
306.33	3360.72
306.54	2930.64
306.75	3061.71
306.97	3098.58
307.18	3282.89
307.39	3053.52
307.61	3286.99
307.82	3375.05
308.04	3663.82
308.25	2971.60
308.46	3237.84
308.68	3418.06
308.89	3475.40
309.10	3221.45
309.32	3084.24
309.53	3411.92
309.74	3575.75
309.96	2942.93
310.17	3188.69
310.39	3309.52
310.60	3651.53
310.81	3151.82
311.03	3002.32
311.24	3622.86
311.45	3459.02
311.67	3327.95
311.88	3186.64
312.09	3362.76
312.31	3313.61
312.52	3059.67
312.73	3000.27
312.95	3155.92
313.16	3293.13
313.37	3321.81
313.59	3284.94
313.80	3610.57
314.01	3848.13
314.23	3123.15
314.44	2947.03
314.65	3262.41
314.87	3262.41
315.08	3123.15
315.29	3184.59
315.51	3196.88
315.72	3069.91
315.93	3123.15
316.15	3127.25
316.36	3323.85
316.57	3395.53
316.79	3098.58
317.00	3012.56
317.21	3516.36
317.43	3239.89
317.64	3121.10
317.85	3014.61
318.07	3303.37
318.28	3350.48
318.49	3098.58
318.70	3393.48
318.92	3436.49
319.13	3485.64
319.34	3221.45
319.56	3106.77
319.77	3506.12
319.98	3608.52
320.20	3397.58
320.41	3250.13
320.62	3524.55
320.83	3164.11
321.05	3364.81
321.26	3176.40
321.47	3485.64
321.69	3581.90
321.90	3045.33
322.11	2985.94
322.32	3459.02
322.54	3864.52
322.75	3121.10
322.96	4339.65
323.18	3157.97
323.39	3127.25
323.60	3053.52
323.81	3149.78
324.03	3336.14
324.24	3344.33
324.45	3176.40
324.66	3018.71
324.88	3588.04
325.09	3764.17
325.30	3074.00
325.52	3000.27
325.73	3444.68
325.94	3239.89
326.15	3065.81
326.37	2969.55
326.58	3667.91
326.79	3835.85
327.00	3055.57
327.22	3104.72
327.43	3375.05
327.64	3225.55
327.85	3237.84
328.07	3184.59
328.28	3893.19
328.49	3356.62
328.70	3026.90
328.92	3082.19
329.13	3352.52
329.34	3571.66
329.55	3307.47
329.76	3303.37
329.98	3313.61
330.19	3723.21
330.40	3198.93
330.61	3270.61
330.83	3655.62
331.04	3286.99
331.25	3207.12
331.46	3135.44
331.68	3174.35
331.89	3606.47
332.10	3076.05
332.31	2959.31
332.52	3395.53
332.74	3729.35
332.95	2930.64
333.16	3090.38
333.37	3602.38
333.58	3293.13
333.80	3184.59
334.01	2920.40
334.22	3389.39
334.43	3362.76
334.64	3043.28
334.86	3094.48
335.07	3176.40
335.28	3672.01
335.49	2985.94
335.70	3127.25
335.92	3753.93
336.13	3977.16
336.34	3033.04
336.55	3061.71
336.76	3551.18
336.98	3026.90
337.19	3170.26
337.40	3166.16
337.61	3891.14
337.82	3416.01
338.04	3127.25
338.25	2910.16
338.46	3391.44
338.67	3459.02
338.88	3033.04
339.09	2955.22
339.31	3422.16
339.52	3188.69
339.73	2951.12
339.94	3147.73
340.15	3557.32
340.36	3360.72
340.58	3164.11
340.79	2979.79
341.00	3645.38
341.21	3143.63
341.42	3368.91
341.63	3094.48
341.85	3649.48
342.06	3471.31
342.27	3082.19
342.48	3237.84
342.69	3157.97
342.90	3559.37
343.12	3616.71
343.33	3000.27
343.54	3635.14
343.75	3739.59
343.96	3280.85
344.17	3106.77
344.38	3377.10
344.60	3155.92
344.81	3028.95
345.02	3053.52
345.23	3643.34
345.44	4034.50
345.65	3125.20
345.86	3092.43
346.07	3487.69
346.29	3305.42
346.50	3289.04
346.71	3141.58
346.92	3809.22
347.13	3866.56
347.34	3205.07
347.55	2987.99
347.76	3663.82
347.98	3125.20
348.19	3145.68
348.40	3213.26
348.61	3375.05
348.82	3819.46
349.03	3180.50
349.24	2959.31
349.45	3848.13
349.66	3016.66
349.88	3037.14
350.09	3022.80
350.30	3784.65
350.51	3796.93
350.72	3368.91
350.93	3051.47
351.14	3399.63
351.35	3520.46
351.56	3137.49
351.77	3235.79
351.99	3581.90
352.20	3672.01
352.41	3254.22
352.62	2955.22
352.83	3454.92
353.04	3381.20
353.25	3086.29
353.46	3127.25
353.67	3725.26
353.88	3000.27
354.09	3059.67
354.30	3188.69
354.52	3602.38
354.73	3411.92
354.94	3108.82
355.15	3121.10
355.36	3893.19
355.57	3260.37
355.78	2961.36
355.99	3059.67
356.20	3360.72
356.41	3686.34
356.62	3215.31
356.83	3190.74
357.04	3758.02
357.25	3151.82
357.46	3086.29
357.68	2969.55
357.89	3293.13
358.10	3481.55
358.31	3028.95
358.52	3114.96
358.73	3194.83
358.94	3170.26
359.15	3110.86
359.36	3065.81
359.57	3489.74
359.78	3389.39
359.99	3418.06
360.20	2967.51
360.41	3465.16
360.62	3706.82
360.83	3114.96
361.04	3131.34
361.25	3579.85
361.46	3848.13
361.67	3203.02
361.88	3123.15
362.09	3661.77
362.30	3477.45
362.51	2953.17
362.72	3100.62
362.93	3622.86
363.14	3532.75
363.35	3215.31
363.56	3008.47
363.78	3725.26
363.99	3680.20
364.20	3133.39
364.41	3157.97
364.62	3874.76
364.83	3510.22
365.04	3117.01
365.25	3157.97
365.46	3925.96
365.67	3254.22
365.88	3295.18
366.09	3018.71
366.30	3356.62
366.51	3469.26
366.72	3020.75
366.93	3057.62
367.14	3508.17
367.35	3700.68
367.56	3000.27
367.77	3114.96
367.98	3354.57
368.18	3565.51
368.39	3250.13
368.60	3024.85
368.81	3657.67
369.02	3538.89
369.23	3133.39
369.44	2947.03
369.65	3426.25
369.86	3649.48
370.07	3286.99
370.28	3002.32
370.49	3540.94
370.70	3491.79
370.91	3063.76
371.12	3014.61
371.33	3647.43
371.54	3317.71
371.75	3225.55
371.96	2854.87
372.17	3481.55
372.38	3461.07
372.59	3149.78
372.80	3076.05
373.01	3438.54
373.22	3483.59
373.43	3135.44
373.64	3030.99
373.85	3719.11
374.06	3731.40
374.26	3336.14
374.47	3231.69
374.68	3764.17
374.89	3475.40
375.10	3033.04
375.31	3215.31
375.52	3510.22
375.73	3426.25
375.94	2875.35
376.15	3213.26
376.36	3268.56
376.57	3354.57
376.78	3172.30
376.99	3176.40
377.20	3704.78
377.40	3360.72
377.61	3430.35
377.82	3098.58
378.03	3749.83
378.24	3610.57
378.45	3270.61
378.66	3215.31
378.87	3043.28
379.08	3080.14
379.29	3104.72
379.50	3227.60
379.71	3379.15
379.91	3600.33
380.12	3084.24
380.33	3207.12
380.54	3334.09
380.75	3434.44
380.96	3123.15
381.17	3155.92
381.38	3393.48
381.59	3467.21
381.80	3205.07
382.00	3319.76
382.21	3397.58
382.42	3747.78
382.63	3475.40
382.84	3342.28
383.05	3647.43
383.26	3770.31
383.47	3309.52
383.68	3057.62
383.88	3672.01
384.09	3454.92
384.30	3348.43
384.51	3268.56
384.72	3387.34
384.93	3200.98
385.14	3180.50
385.35	3461.07
385.55	3180.50
385.76	3727.30
385.97	3084.24
386.18	2965.46
386.39	3295.18
386.60	3305.42
386.81	3065.81
387.02	3012.56
387.22	3149.78
387.43	3592.14
387.64	3121.10
387.85	3354.57
388.06	3461.07
388.27	4450.24
388.48	7315.34
388.68	10925.91
388.89	13872.94
389.10	14982.94
389.31	14456.61
389.52	11644.75
389.73	10295.14
389.93	9408.37
390.14	8415.10
390.35	7989.13
390.56	7374.74
390.77	6166.43
390.98	4818.87
391.18	4083.65
391.39	3946.44
391.60	3452.88
391.81	3373.00
392.02	3162.06
392.23	3856.33
392.43	3491.79
392.64	3198.93
392.85	3225.55
393.06	3850.18
393.27	3434.44
393.47	3088.34
393.68	3182.54
393.89	3366.86
394.10	3737.54
394.31	3119.06
394.52	3084.24
394.72	3323.85
394.93	3778.50
395.14	3020.75
395.35	3295.18
395.56	3346.38
395.76	3426.25
395.97	3035.09
396.18	3297.23
396.39	3452.88
396.60	4136.90
396.80	3536.84
397.01	3336.14
397.22	3620.81
397.43	3655.62
397.64	3117.01
397.84	3133.39
398.05	3925.96
398.26	3393.48
398.47	3297.23
398.67	3266.51
398.88	3461.07
399.09	3616.71
399.30	3151.82
399.51	3205.07
399.71	3309.52
399.92	3430.35
400.13	3323.85
400.34	3090.38
400.54	3545.03
400.75	3796.93
400.96	3217.36
401.17	3413.96
401.37	3575.75
401.58	3440.59
401.79	3188.69
402.00	3293.13
402.21	3991.49
402.41	3606.47
402.62	3411.92
402.83	3549.13
403.04	3819.46
403.24	4184.00
403.45	3229.65
403.66	3409.87
403.87	3602.38
404.07	3786.69
404.28	3389.39
404.49	3446.73
404.70	3518.41
404.90	3661.77
405.11	3184.59
405.32	3219.41
405.52	3299.28
405.73	3311.57
405.94	3086.29
406.15	3229.65
406.35	3499.98
406.56	3647.43
406.77	3190.74
406.98	3203.02
407.18	3256.27
407.39	3708.87
407.60	3174.35
407.80	3284.94
408.01	3319.76
408.22	3581.90
408.43	3094.48
408.63	3254.22
408.84	3645.38
409.05	3592.14
409.25	3063.76
409.46	3133.39
409.67	3254.22
409.88	3254.22
410.08	3127.25
410.29	3143.63
410.50	3626.95
410.70	3524.55
410.91	3043.28
411.12	3252.17
411.32	3469.26
411.53	3309.52
411.74	3086.29
411.95	3227.60
412.15	3508.17
412.36	3598.28
412.57	3299.28
412.77	3368.91
412.98	3434.44
413.19	3272.65
413.39	3178.45
413.60	3209.17
413.81	3803.08
414.01	3248.08
414.22	3164.11
414.43	3327.95
414.63	3344.33
414.84	3629.00
415.05	3213.26
415.25	2959.31
415.46	3542.99
415.67	3311.57
415.87	3172.30
416.08	3157.97
416.29	3446.73
416.49	3598.28
416.70	3254.22
416.91	3190.74
417.11	3393.48
417.32	3608.52
417.53	3196.88
417.73	3190.74
417.94	3418.06
418.15	3508.17
418.35	3231.69
418.56	3338.19
418.77	3973.06
418.97	3452.88
419.18	3286.99
419.38	2875.35
419.59	3442.64
419.80	3792.84
420.00	2998.23
420.21	3243.98
420.42	3747.78
420.62	3583.95
420.83	3157.97
421.04	3139.54
421.24	3487.69
421.45	3608.52
421.65	3151.82
421.86	3153.87
422.07	3637.19
422.27	3614.66
422.48	3049.43
422.69	3006.42
422.89	3450.83
423.10	3360.72
423.30	3100.62
423.51	3246.03
423.72	3557.32
423.92	3637.19
424.13	3018.71
424.33	3235.79
424.54	3610.57
424.75	3553.23
424.95	3356.62
425.16	3094.48
425.36	3354.57
425.57	3674.06
425.78	3280.85
425.98	3321.81
426.19	3450.83
426.39	3270.61
426.60	3268.56
426.81	3327.95
427.01	3549.13
427.22	3217.36
427.42	3043.28
427.63	3096.53
427.83	3657.67
428.04	3784.65
428.25	3164.11
428.45	3229.65
428.66	3686.34
428.86	3393.48
429.07	3194.83
429.28	3135.44
429.48	3436.49
429.69	3321.81
429.89	3237.84
430.10	3098.58
430.30	3649.48
430.51	3729.35
430.71	3133.39
430.92	3223.50
431.13	3368.91
431.33	3567.56
431.54	3225.55
431.74	3356.62
431.95	3891.14
432.15	3139.54
432.36	3123.15
432.56	3248.08
432.77	3919.81
432.98	3819.46
433.18	3246.03
433.39	2996.18
433.59	3364.81
433.80	3913.67
434.00	3452.88
434.21	3231.69
434.41	3299.28
434.62	3934.15
434.82	3026.90
435.03	3149.78
435.23	3469.26
435.44	3131.34
435.64	3102.67
435.85	3278.80
436.06	3618.76
436.26	3710.92
436.47	3147.73
436.67	3069.91
436.88	3354.57
437.08	3624.90
437.29	3246.03
437.49	3352.52
437.70	3665.86
437.90	3452.88
438.11	3358.67
438.31	3272.65
438.52	3725.26
438.72	3616.71
438.93	3448.78
439.13	3241.93
439.34	3596.23
439.54	3293.13
439.75	3309.52
439.95	3235.79
440.16	3241.93
440.36	3493.83
440.57	3157.97
440.77	3172.30
440.98	3344.33
441.18	3567.56
441.39	3074.00
441.59	3039.19
441.80	3917.76
442.00	3409.87
442.21	3205.07
442.41	3049.43
442.62	3694.54
442.82	3305.42
443.02	3090.38
443.23	3215.31
443.43	3293.13
443.64	3723.21
443.84	3041.23
444.05	3196.88
444.25	3428.30
444.46	3319.76
444.66	3082.19
444.87	3360.72
445.07	3149.78
445.28	3399.63
445.48	3315.66
445.69	3237.84
445.89	4003.78
446.09	3428.30
446.30	3487.69
446.50	3579.85
446.71	5025.72
446.91	6068.13
447.12	6791.06
447.32	7229.33
447.53	7307.15
447.73	6127.52
447.93	5461.93
448.14	5228.46
448.34	5466.03
448.55	4452.28
448.75	4313.02
448.96	4102.08
449.16	4171.71
449.36	4001.73
449.57	3391.44
449.77	3200.98
449.98	3456.97
450.18	3559.37
450.39	3160.02
450.59	3334.09
450.79	3391.44
451.00	3317.71
451.20	3428.30
451.41	3239.89
451.61	3563.47
451.81	3327.95
452.02	3096.53
452.22	3172.30
452.43	3381.20
