SpectraSuite Data File
++++++++++++++++++++++++++++++++++++
Date: Fri May 06 09:28:51 CEST 2016
User: root
Dark Spectrum Present: No
Reference Spectrum Present: No
Number of Sampled Component Spectra: 1
Spectrometers: USB4C02835
Integration Time (usec): 100000 (USB4C02835)
Spectra Averaged: 1 (USB4C02835)
Boxcar Smoothing: 0 (USB4C02835)
Correct for Electrical Dark: No (USB4C02835)
Strobe/Lamp Enabled: No (USB4C02835)
Correct for Detector Non-linearity: No (USB4C02835)
Correct for Stray Light: No (USB4C02835)
Number of Pixels in Processed Spectrum: 3648
>>>>>Begin Processed Spectral Data<<<<<
177.47	2320.35
177.69	2320.35
177.91	2320.35
178.13	2340.83
178.36	2330.59
178.58	3102.67
178.80	3278.80
179.02	3123.15
179.24	3188.69
179.46	2807.77
179.68	2947.03
179.90	3395.53
180.13	3467.21
180.35	2781.14
180.57	2901.97
180.79	3669.96
181.01	3370.96
181.23	2910.16
181.45	3117.01
181.67	3581.90
181.90	3651.53
182.12	2969.55
182.34	2807.77
182.56	3581.90
182.78	3561.42
183.00	2893.78
183.22	3026.90
183.44	3080.14
183.66	4124.61
183.89	3104.72
184.11	2951.12
184.33	3565.51
184.55	3758.02
184.77	2893.78
184.99	2981.84
185.21	3387.34
185.43	3968.96
185.65	3004.37
185.87	2963.41
186.10	3973.06
186.32	4024.26
186.54	3180.50
186.76	3012.56
186.98	3694.54
187.20	3362.76
187.42	3020.75
187.64	2910.16
187.86	3561.42
188.08	3676.10
188.30	2844.63
188.52	3014.61
188.75	3846.09
188.97	3776.45
189.19	2957.27
189.41	2951.12
189.63	3555.27
189.85	3348.43
190.07	2781.14
190.29	2832.34
190.51	3520.46
190.73	3205.07
190.95	3246.03
191.17	3002.32
191.39	3080.14
191.61	3368.91
191.84	3014.61
192.06	3145.68
192.28	3129.30
192.50	4204.48
192.72	3168.21
192.94	2938.84
193.16	3710.92
193.38	3475.40
193.60	2869.20
193.82	3104.72
194.04	3620.81
194.26	3520.46
194.48	2998.23
194.70	2934.74
194.92	3385.29
195.14	3631.05
195.36	2932.69
195.58	3018.71
195.80	3481.55
196.02	3268.56
196.24	2928.60
196.46	3057.62
196.69	3346.38
196.91	4005.83
197.13	3065.81
197.35	3076.05
197.57	3803.08
197.79	3583.95
198.01	3014.61
198.23	2981.84
198.45	3512.27
198.67	3121.10
198.89	2731.99
199.11	3039.19
199.33	3366.86
199.55	2971.60
199.77	2869.20
199.99	3131.34
200.21	3387.34
200.43	3454.92
200.65	2940.88
200.87	2783.19
201.09	3526.60
201.31	3395.53
201.53	2996.18
201.75	3037.14
201.97	3547.08
202.19	3450.83
202.41	2983.89
202.63	3063.76
202.85	3643.34
203.07	3526.60
203.29	3043.28
203.51	2828.24
203.73	3307.47
203.95	4034.50
204.17	2926.55
204.39	3084.24
204.61	3405.77
204.83	3340.24
205.05	3143.63
205.27	2910.16
205.49	3903.43
205.71	3434.44
205.93	2842.58
206.15	2836.44
206.37	3518.41
206.59	3370.96
206.81	2742.23
207.03	2854.87
207.25	3286.99
207.47	3565.51
207.69	2985.94
207.91	3200.98
208.13	3868.61
208.34	3303.37
208.56	2887.64
208.78	2928.60
209.00	3395.53
209.22	3368.91
209.44	2928.60
209.66	2922.45
209.88	3512.27
210.10	3362.76
210.32	2987.99
210.54	3047.38
210.76	3364.81
210.98	3682.25
211.20	2852.82
211.42	3033.04
211.64	3778.50
211.86	3682.25
212.08	3000.27
212.30	2936.79
212.52	3424.20
212.74	3626.95
212.96	3057.62
213.17	3016.66
213.39	3641.29
213.61	3737.54
213.83	2922.45
214.05	2824.15
214.27	3743.69
214.49	3211.22
214.71	2928.60
214.93	3133.39
215.15	3532.75
215.37	3643.34
215.59	2873.30
215.81	3045.33
216.03	3801.03
216.24	3426.25
216.46	2983.89
216.68	3024.85
216.90	3536.84
217.12	3794.89
217.34	2979.79
217.56	3076.05
217.78	3700.68
218.00	3608.52
218.22	3129.30
218.44	3037.14
218.66	3450.83
218.87	3860.42
219.09	2992.08
219.31	2963.41
219.53	3542.99
219.75	3401.68
219.97	3074.00
220.19	2967.51
220.41	3413.96
220.63	3778.50
220.85	2947.03
221.06	2975.70
221.28	3764.17
221.50	3631.05
221.72	3012.56
221.94	2742.23
222.16	3485.64
222.38	3653.58
222.60	2926.55
222.82	2951.12
223.03	3684.30
223.25	3231.69
223.47	2918.36
223.69	3172.30
223.91	3514.31
224.13	3434.44
224.35	2910.16
224.57	3223.50
224.78	3680.20
225.00	3307.47
225.22	3098.58
225.44	2869.20
225.66	3657.67
225.88	3311.57
226.10	3074.00
226.32	2992.08
226.53	3764.17
226.75	3342.28
226.97	3008.47
227.19	2955.22
227.41	3286.99
227.63	3379.15
227.85	2750.42
228.06	3078.10
228.28	3440.59
228.50	3610.57
228.72	2715.61
228.94	2965.46
229.16	3051.47
229.37	3196.88
229.59	2858.96
229.81	3282.89
230.03	3282.89
230.25	3139.54
230.47	2897.88
230.69	2955.22
230.90	3581.90
231.12	3319.76
231.34	3078.10
231.56	3053.52
231.78	3198.93
232.00	3485.64
232.21	2955.22
232.43	2965.46
232.65	2987.99
232.87	3540.94
233.09	2842.58
233.30	2926.55
233.52	3655.62
233.74	3481.55
233.96	2953.17
234.18	3139.54
234.40	3364.81
234.61	3960.77
234.83	2869.20
235.05	2930.64
235.27	4083.65
235.49	3790.79
235.70	2803.67
235.92	3092.43
236.14	3581.90
236.36	3991.49
236.58	2836.44
236.79	3074.00
237.01	3407.82
237.23	3381.20
237.45	3209.17
237.67	2977.75
237.88	3577.80
238.10	3868.61
238.32	2897.88
238.54	3016.66
238.76	3506.12
238.97	3235.79
239.19	2842.58
239.41	3008.47
239.63	3694.54
239.85	3373.00
240.06	2953.17
240.28	2983.89
240.50	3766.21
240.72	3379.15
240.93	2893.78
241.15	3069.91
241.37	3592.14
241.59	3770.31
241.81	2994.13
242.02	3030.99
242.24	3471.31
242.46	3676.10
242.68	2805.72
242.89	2901.97
243.11	3747.78
243.33	3405.77
243.55	2955.22
243.76	2947.03
243.98	3282.89
244.20	3502.03
244.42	2953.17
244.64	2951.12
244.85	3215.31
245.07	3313.61
245.29	2979.79
245.51	2981.84
245.72	3614.66
245.94	3696.58
246.16	2918.36
246.38	3016.66
246.59	3346.38
246.81	3346.38
247.03	2871.25
247.24	2805.72
247.46	3344.33
247.68	3526.60
247.90	2936.79
248.11	2977.75
248.33	3682.25
248.55	3487.69
248.77	2987.99
248.98	3123.15
249.20	3710.92
249.42	3485.64
249.64	2895.83
249.85	2940.88
250.07	3368.91
250.29	3684.30
250.50	3049.43
250.72	2930.64
250.94	3600.33
251.16	3997.64
251.37	2881.49
251.59	3033.04
251.81	3555.27
252.02	3706.82
252.24	2836.44
252.46	3172.30
252.68	3284.94
252.89	3254.22
253.11	2729.94
253.33	3112.91
253.54	3784.65
253.76	3164.11
253.98	3016.66
254.20	2940.88
254.41	3213.26
254.63	3430.35
254.85	2803.67
255.06	3074.00
255.28	3575.75
255.50	3352.52
255.71	2897.88
255.93	2807.77
256.15	3469.26
256.36	3594.19
256.58	2766.81
256.80	2910.16
257.02	3454.92
257.23	3321.81
257.45	2977.75
257.67	3119.06
257.88	3375.05
258.10	3493.83
258.32	2910.16
258.53	3069.91
258.75	3895.24
258.97	3332.05
259.18	2893.78
259.40	2863.06
259.62	3870.66
259.83	3817.41
260.05	3000.27
260.27	3981.25
260.48	3651.53
260.70	3248.08
260.92	2904.02
261.13	3004.37
261.35	3573.71
261.57	3502.03
261.78	2813.91
262.00	2901.97
262.22	3610.57
262.43	3276.75
262.65	2934.74
262.86	2996.18
263.08	3934.15
263.30	3428.30
263.51	2791.38
263.73	2897.88
263.95	3813.32
264.16	3260.37
264.38	2805.72
264.60	2916.31
264.81	3514.31
265.03	3741.64
265.25	3485.64
265.46	2951.12
265.68	3704.78
265.89	3512.27
266.11	2856.92
266.33	2928.60
266.54	3680.20
266.76	3612.62
266.98	3076.05
267.19	3207.12
267.41	3669.96
267.62	3508.17
267.84	2783.19
268.06	3028.95
268.27	3581.90
268.49	3733.45
268.70	2944.98
268.92	2977.75
269.14	3295.18
269.35	3188.69
269.57	3098.58
269.79	3016.66
270.00	3413.96
270.22	3878.85
270.43	2916.31
270.65	2799.57
270.87	3508.17
271.08	3610.57
271.30	3135.44
271.51	2985.94
271.73	3583.95
271.95	3790.79
272.16	2889.68
272.38	3108.82
272.59	3323.85
272.81	3545.03
273.02	2865.11
273.24	3039.19
273.46	3626.95
273.67	3164.11
273.89	2844.63
274.10	2961.36
274.32	3723.21
274.54	3526.60
274.75	3086.29
274.97	3104.72
275.18	3680.20
275.40	3594.19
275.61	2938.84
275.83	3164.11
276.05	3219.41
276.26	3403.72
276.48	3078.10
276.69	3121.10
276.91	3340.24
277.12	3825.61
277.34	3117.01
277.55	3213.26
277.77	3450.83
277.99	3381.20
278.20	3141.58
278.42	3061.71
278.63	3325.90
278.85	3217.36
279.06	3043.28
279.28	3129.30
279.49	3704.78
279.71	3573.71
279.93	3143.63
280.14	3209.17
280.36	3286.99
280.57	3665.86
280.79	3225.55
281.00	3002.32
281.22	3338.19
281.43	3672.01
281.65	2828.24
281.86	2955.22
282.08	3545.03
282.29	3837.89
282.51	2996.18
282.73	2987.99
282.94	3157.97
283.16	3585.99
283.37	3186.64
283.59	3104.72
283.80	3520.46
284.02	3401.68
284.23	3121.10
284.45	3100.62
284.66	3303.37
284.88	3291.09
285.09	2932.69
285.31	3239.89
285.52	3510.22
285.74	3061.71
285.95	3266.51
286.17	3188.69
286.38	3858.37
286.60	3319.76
286.81	3033.04
287.03	3080.14
287.24	3471.31
287.46	3635.14
287.67	3227.60
287.89	3319.76
288.10	3440.59
288.32	3495.88
288.53	3213.26
288.75	3127.25
288.96	3612.62
289.18	3344.33
289.39	3059.67
289.61	3155.92
289.82	3968.96
290.04	3911.62
290.25	2992.08
290.47	3217.36
290.68	3446.73
290.90	3557.32
291.11	2869.20
291.33	3155.92
291.54	3235.79
291.76	3381.20
291.97	3295.18
292.18	3217.36
292.40	3375.05
292.61	3282.89
292.83	3395.53
293.04	3139.54
293.26	3553.23
293.47	3377.10
293.69	3057.62
293.90	2934.74
294.12	3751.88
294.33	3526.60
294.55	3162.06
294.76	3280.85
294.97	3770.31
295.19	3938.24
295.40	3078.10
295.62	3106.77
295.83	3641.29
296.05	3325.90
296.26	3340.24
296.48	3096.53
296.69	3454.92
296.90	3362.76
297.12	3295.18
297.33	3239.89
297.55	3379.15
297.76	3577.80
297.98	3157.97
298.19	3293.13
298.41	3430.35
298.62	3221.45
298.83	3311.57
299.05	3215.31
299.26	3430.35
299.48	3289.04
299.69	3174.35
299.90	3067.86
300.12	3180.50
300.33	3639.24
300.55	3117.01
300.76	3137.49
300.98	3166.16
301.19	3559.37
301.40	3096.53
301.62	3084.24
301.83	3471.31
302.05	3467.21
302.26	3041.23
302.47	3160.02
302.69	3196.88
302.90	3381.20
303.12	2852.82
303.33	3174.35
303.54	3893.19
303.76	3395.53
303.97	3055.57
304.19	3303.37
304.40	3174.35
304.61	3573.71
304.83	3196.88
305.04	3114.96
305.26	3708.87
305.47	3338.19
305.68	3133.39
305.90	2973.65
306.11	3753.93
306.33	3442.64
306.54	2990.03
306.75	3172.30
306.97	3092.43
307.18	3155.92
307.39	3026.90
307.61	3174.35
307.82	3387.34
308.04	3504.07
308.25	2953.17
308.46	3237.84
308.68	3491.79
308.89	3502.03
309.10	3213.26
309.32	3168.21
309.53	3454.92
309.74	3522.51
309.96	3074.00
310.17	3241.93
310.39	3264.46
310.60	3590.09
310.81	3221.45
311.03	2926.55
311.24	3563.47
311.45	3479.50
311.67	3377.10
311.88	3229.65
312.09	3356.62
312.31	3352.52
312.52	2977.75
312.73	3049.43
312.95	3180.50
313.16	3229.65
313.37	3270.61
313.59	3332.05
313.80	3629.00
314.01	3794.89
314.23	3069.91
314.44	2981.84
314.65	3223.50
314.87	3248.08
315.08	3117.01
315.29	3133.39
315.51	3227.60
315.72	3194.83
315.93	3139.54
316.15	3106.77
316.36	3334.09
316.57	3430.35
316.79	3067.86
317.00	3071.95
317.21	3588.04
317.43	3248.08
317.64	3172.30
317.85	3051.47
318.07	3207.12
318.28	3299.28
318.49	3106.77
318.70	3315.66
318.92	3450.83
319.13	3440.59
319.34	3254.22
319.56	3024.85
319.77	3475.40
319.98	3573.71
320.20	3381.20
320.41	3260.37
320.62	3532.75
320.83	3166.16
321.05	3289.04
321.26	3133.39
321.47	3444.68
321.69	3725.26
321.90	3039.19
322.11	3084.24
322.32	3463.12
322.54	3835.85
322.75	3170.26
322.96	4276.16
323.18	3074.00
323.39	3051.47
323.60	3092.43
323.81	3258.32
324.03	3373.00
324.24	3444.68
324.45	3254.22
324.66	3043.28
324.88	3794.89
325.09	3897.28
325.30	3051.47
325.52	2983.89
325.73	3598.28
325.94	3289.04
326.15	2942.93
326.37	2942.93
326.58	3569.61
326.79	3753.93
327.00	3016.66
327.22	3106.77
327.43	3426.25
327.64	3176.40
327.85	3323.85
328.07	3194.83
328.28	3856.33
328.49	3221.45
328.70	3127.25
328.92	3084.24
329.13	3424.20
329.34	3563.47
329.55	3370.96
329.76	3231.69
329.98	3399.63
330.19	3649.48
330.40	3182.54
330.61	3291.09
330.83	3657.67
331.04	3229.65
331.25	3293.13
331.46	3196.88
331.68	3203.02
331.89	3692.49
332.10	3166.16
332.31	2967.51
332.52	3434.44
332.74	3807.17
332.95	2867.16
333.16	3074.00
333.37	3612.62
333.58	3334.09
333.80	3166.16
334.01	2959.31
334.22	3391.44
334.43	3305.42
334.64	3002.32
334.86	3121.10
335.07	3270.61
335.28	3735.50
335.49	2961.36
335.70	3119.06
335.92	3801.03
336.13	3837.89
336.34	3074.00
336.55	3051.47
336.76	3528.65
336.98	3074.00
337.19	3125.20
337.40	3180.50
337.61	4042.69
337.82	3375.05
338.04	3170.26
338.25	2955.22
338.46	3403.72
338.67	3430.35
338.88	3010.51
339.09	2951.12
339.31	3293.13
339.52	3211.22
339.73	3039.19
339.94	3084.24
340.15	3631.05
340.36	3264.46
340.58	3192.78
340.79	3061.71
341.00	3553.23
341.21	3164.11
341.42	3409.87
341.63	3131.34
341.85	3667.91
342.06	3516.36
342.27	3045.33
342.48	3217.36
342.69	3211.22
342.90	3502.03
343.12	3463.12
343.33	3010.51
343.54	3678.15
343.75	3827.65
343.96	3233.74
344.17	3016.66
344.38	3385.29
344.60	3211.22
344.81	3049.43
345.02	3092.43
345.23	3672.01
345.44	3983.30
345.65	3213.26
345.86	3131.34
346.07	3524.55
346.29	3352.52
346.50	3256.27
346.71	3114.96
346.92	3792.84
347.13	3911.62
347.34	3231.69
347.55	3008.47
347.76	3557.32
347.98	3100.62
348.19	3135.44
348.40	3344.33
348.61	3370.96
348.82	3772.36
349.03	3248.08
349.24	3002.32
349.45	3919.81
349.66	3028.95
349.88	3080.14
350.09	3063.76
350.30	3796.93
350.51	3684.30
350.72	3327.95
350.93	3059.67
351.14	3352.52
351.35	3618.76
351.56	3164.11
351.77	3123.15
351.99	3481.55
352.20	3739.59
352.41	3147.73
352.62	2967.51
352.83	3483.59
353.04	3442.64
353.25	3147.73
353.46	3104.72
353.67	3766.21
353.88	3014.61
354.09	3026.90
354.30	3207.12
354.52	3553.23
354.73	3381.20
354.94	3133.39
355.15	3192.78
355.36	3887.04
355.57	3352.52
355.78	2985.94
355.99	3041.23
356.20	3493.83
356.41	3782.60
356.62	3098.58
356.83	3190.74
357.04	3755.97
357.25	3110.86
357.46	3098.58
357.68	2990.03
357.89	3215.31
358.10	3416.01
358.31	3039.19
358.52	3153.87
358.73	3170.26
358.94	3143.63
359.15	3141.58
359.36	3106.77
359.57	3411.92
359.78	3411.92
359.99	3338.19
360.20	2979.79
360.41	3362.76
360.62	3602.38
360.83	3205.07
361.04	3133.39
361.25	3530.70
361.46	3760.07
361.67	3209.17
361.88	3139.54
362.09	3690.44
362.30	3493.83
362.51	3076.05
362.72	3137.49
362.93	3583.95
363.14	3518.41
363.35	3207.12
363.56	3112.91
363.78	3706.82
363.99	3655.62
364.20	3176.40
364.41	3205.07
364.62	3831.75
364.83	3571.66
365.04	3071.95
365.25	3135.44
365.46	3882.95
365.67	3299.28
365.88	3280.85
366.09	3106.77
366.30	3350.48
366.51	3434.44
366.72	3063.76
366.93	3030.99
367.14	3475.40
367.35	3684.30
367.56	3080.14
367.77	3215.31
367.98	3475.40
368.18	3551.18
368.39	3278.80
368.60	3028.95
368.81	3676.10
369.02	3545.03
369.23	3071.95
369.44	2957.27
369.65	3418.06
369.86	3581.90
370.07	3221.45
370.28	2967.51
370.49	3467.21
370.70	3510.22
370.91	3047.38
371.12	2981.84
371.33	3692.49
371.54	3430.35
371.75	3229.65
371.96	2897.88
372.17	3428.30
372.38	3362.76
372.59	3127.25
372.80	3061.71
373.01	3403.72
373.22	3502.03
373.43	3110.86
373.64	2998.23
373.85	3669.96
374.06	3882.95
374.26	3262.41
374.47	3280.85
374.68	3813.32
374.89	3436.49
375.10	3014.61
375.31	3274.70
375.52	3516.36
375.73	3538.89
375.94	2955.22
376.15	3178.45
376.36	3297.23
376.57	3358.67
376.78	3096.53
376.99	3155.92
377.20	3680.20
377.40	3389.39
377.61	3346.38
377.82	3121.10
378.03	3747.78
378.24	3534.79
378.45	3229.65
378.66	3223.50
378.87	3147.73
379.08	3061.71
379.29	3178.45
379.50	3323.85
379.71	3420.11
379.91	3575.75
380.12	3043.28
380.33	3272.65
380.54	3444.68
380.75	3389.39
380.96	3125.20
381.17	3143.63
381.38	3416.01
381.59	3368.91
381.80	3186.64
382.00	3286.99
382.21	3463.12
382.42	3792.84
382.63	3483.59
382.84	3405.77
383.05	3604.42
383.26	3768.26
383.47	3282.89
383.68	3090.38
383.88	3614.66
384.09	3467.21
384.30	3352.52
384.51	3327.95
384.72	3280.85
384.93	3147.73
385.14	3200.98
385.35	3467.21
385.55	3157.97
385.76	3764.17
385.97	3151.82
386.18	3037.14
386.39	3256.27
386.60	3348.43
386.81	3090.38
387.02	3002.32
387.22	3162.06
387.43	3571.66
387.64	3209.17
387.85	3346.38
388.06	3409.87
388.27	4372.41
388.48	7214.99
388.68	10923.87
388.89	13782.83
389.10	14892.83
389.31	14223.14
389.52	11743.05
389.73	10323.81
389.93	9480.05
390.14	8484.73
390.35	7903.11
390.56	7382.93
390.77	6203.30
390.98	4847.54
391.18	4124.61
391.39	3938.24
391.60	3446.73
391.81	3387.34
392.02	3203.02
392.23	4007.87
392.43	3463.12
392.64	3180.50
392.85	3221.45
393.06	3819.46
393.27	3430.35
393.47	3057.62
393.68	3237.84
393.89	3401.68
394.10	3772.36
394.31	3170.26
394.52	3100.62
394.72	3311.57
394.93	3782.60
395.14	3004.37
395.35	3258.32
395.56	3276.75
395.76	3405.77
395.97	3139.54
396.18	3207.12
396.39	3319.76
396.60	4138.94
396.80	3495.88
397.01	3397.58
397.22	3532.75
397.43	3649.48
397.64	3057.62
397.84	3278.80
398.05	3780.55
398.26	3387.34
398.47	3225.55
398.67	3434.44
398.88	3428.30
399.09	3633.10
399.30	3123.15
399.51	3174.35
399.71	3266.51
399.92	3411.92
400.13	3274.70
400.34	3119.06
400.54	3385.29
400.75	3809.22
400.96	3260.37
401.17	3430.35
401.37	3510.22
401.58	3422.16
401.79	3166.16
402.00	3289.04
402.21	3911.62
402.41	3598.28
402.62	3383.24
402.83	3479.50
403.04	3786.69
403.24	4216.77
403.45	3213.26
403.66	3450.83
403.87	3649.48
404.07	3827.65
404.28	3362.76
404.49	3483.59
404.70	3559.37
404.90	3524.55
405.11	3196.88
405.32	3286.99
405.52	3307.47
405.73	3289.04
405.94	3022.80
406.15	3227.60
406.35	3508.17
406.56	3575.75
406.77	3211.22
406.98	3205.07
407.18	3395.53
407.39	3837.89
407.60	3188.69
407.80	3215.31
408.01	3375.05
408.22	3483.59
408.43	3024.85
408.63	3272.65
408.84	3680.20
409.05	3690.44
409.25	3078.10
409.46	3246.03
409.67	3307.47
409.88	3368.91
410.08	3231.69
410.29	3133.39
410.50	3622.86
410.70	3467.21
410.91	3039.19
411.12	3188.69
411.32	3436.49
411.53	3330.00
411.74	3188.69
411.95	3233.74
412.15	3383.24
412.36	3598.28
412.57	3311.57
412.77	3315.66
412.98	3452.88
413.19	3370.96
413.39	3248.08
413.60	3239.89
413.81	3717.06
414.01	3205.07
414.22	3147.73
414.43	3321.81
414.63	3393.48
414.84	3647.43
415.05	3264.46
415.25	3026.90
415.46	3647.43
415.67	3303.37
415.87	3180.50
416.08	3037.14
416.29	3364.81
416.49	3508.17
416.70	3213.26
416.91	3188.69
417.11	3370.96
417.32	3710.92
417.53	3301.33
417.73	3315.66
417.94	3471.31
418.15	3454.92
418.35	3237.84
418.56	3127.25
418.77	3909.57
418.97	3534.79
419.18	3278.80
419.38	2887.64
419.59	3508.17
419.80	3831.75
420.00	3074.00
420.21	3117.01
420.42	3760.07
420.62	3545.03
420.83	3155.92
421.04	3153.87
421.24	3483.59
421.45	3624.90
421.65	3194.83
421.86	3149.78
422.07	3702.73
422.27	3588.04
422.48	3074.00
422.69	3002.32
422.89	3483.59
423.10	3403.72
423.30	3127.25
423.51	3196.88
423.72	3553.23
423.92	3631.05
424.13	3084.24
424.33	3286.99
424.54	3606.47
424.75	3545.03
424.95	3323.85
425.16	3117.01
425.36	3418.06
425.57	3706.82
425.78	3323.85
425.98	3252.17
426.19	3465.16
426.39	3338.19
426.60	3221.45
426.81	3403.72
427.01	3499.98
427.22	3274.70
427.42	3030.99
427.63	3102.67
427.83	3708.87
428.04	3839.94
428.25	3172.30
428.45	3250.13
428.66	3719.11
428.86	3467.21
429.07	3172.30
429.28	3078.10
429.48	3463.12
429.69	3303.37
429.89	3262.41
430.10	3139.54
430.30	3604.42
430.51	3549.13
430.71	3104.72
430.92	3237.84
431.13	3375.05
431.33	3600.33
431.54	3274.70
431.74	3411.92
431.95	4020.16
432.15	3246.03
432.36	3121.10
432.56	3162.06
432.77	3866.56
432.98	3878.85
433.18	3278.80
433.39	2969.55
433.59	3450.83
433.80	3866.56
434.00	3284.94
434.21	3237.84
434.41	3278.80
434.62	3999.68
434.82	2959.31
435.03	3157.97
435.23	3549.13
435.44	3041.23
435.64	3096.53
435.85	3327.95
436.06	3614.66
436.26	3622.86
436.47	3164.11
436.67	3133.39
436.88	3401.68
437.08	3700.68
437.29	3233.74
437.49	3368.91
437.70	3657.67
437.90	3391.44
438.11	3399.63
438.31	3256.27
438.52	3696.58
438.72	3733.45
438.93	3418.06
439.13	3330.00
439.34	3659.72
439.54	3321.81
439.75	3270.61
439.95	3143.63
440.16	3211.22
440.36	3422.16
440.57	3176.40
440.77	3174.35
440.98	3370.96
441.18	3530.70
441.39	3076.05
441.59	2994.13
441.80	3885.00
442.00	3346.38
442.21	3276.75
442.41	3012.56
442.62	3622.86
442.82	3284.94
443.02	3174.35
443.23	3129.30
443.43	3303.37
443.64	3645.38
443.84	3037.14
444.05	3252.17
444.25	3366.86
444.46	3264.46
444.66	3119.06
444.87	3309.52
445.07	3141.58
445.28	3430.35
445.48	3334.09
445.69	3223.50
445.89	4020.16
446.09	3381.20
446.30	3538.89
446.50	3542.99
446.71	4970.42
446.91	6143.91
447.12	6711.19
447.32	7217.04
447.53	7294.86
447.73	6279.07
447.93	5445.55
448.14	5201.84
448.34	5443.50
448.55	4489.15
448.75	4337.60
448.96	4081.60
449.16	4184.00
449.36	4079.55
449.57	3332.05
449.77	3317.71
449.98	3311.57
450.18	3596.23
450.39	3078.10
450.59	3393.48
450.79	3461.07
451.00	3364.81
451.20	3327.95
451.41	3127.25
451.61	3547.08
451.81	3454.92
452.02	3100.62
452.22	3157.97
452.43	3342.28
