SpectraSuite Data File
++++++++++++++++++++++++++++++++++++
Date: Fri May 06 09:29:20 CEST 2016
User: root
Dark Spectrum Present: No
Reference Spectrum Present: No
Number of Sampled Component Spectra: 1
Spectrometers: USB4C02835
Integration Time (usec): 100000 (USB4C02835)
Spectra Averaged: 1 (USB4C02835)
Boxcar Smoothing: 0 (USB4C02835)
Correct for Electrical Dark: No (USB4C02835)
Strobe/Lamp Enabled: No (USB4C02835)
Correct for Detector Non-linearity: No (USB4C02835)
Correct for Stray Light: No (USB4C02835)
Number of Pixels in Processed Spectrum: 3648
>>>>>Begin Processed Spectral Data<<<<<
177.47	2269.15
177.69	2269.15
177.91	2269.15
178.13	2320.35
178.36	2330.59
178.58	3108.82
178.80	3188.69
179.02	3149.78
179.24	3170.26
179.46	2795.48
179.68	2865.11
179.90	3422.16
180.13	3434.44
180.35	2846.68
180.57	2914.26
180.79	3608.52
181.01	3368.91
181.23	2928.60
181.45	3094.48
181.67	3504.07
181.90	3583.95
182.12	3045.33
182.34	2822.10
182.56	3608.52
182.78	3616.71
183.00	2961.36
183.22	2912.21
183.44	3076.05
183.66	4024.26
183.89	3088.34
184.11	2951.12
184.33	3549.13
184.55	3749.83
184.77	2938.84
184.99	2930.64
185.21	3393.48
185.43	4009.92
185.65	2908.12
185.87	2942.93
186.10	3952.58
186.32	3946.44
186.54	3129.30
186.76	3041.23
186.98	3751.88
187.20	3479.50
187.42	3006.42
187.64	2877.40
187.86	3540.94
188.08	3684.30
188.30	2844.63
188.52	3049.43
188.75	3694.54
188.97	3706.82
189.19	2922.45
189.41	2942.93
189.63	3590.09
189.85	3395.53
190.07	2820.05
190.29	2783.19
190.51	3557.32
190.73	3192.78
190.95	3260.37
191.17	3045.33
191.39	3131.34
191.61	3432.40
191.84	2918.36
192.06	3155.92
192.28	3086.29
192.50	4122.56
192.72	3145.68
192.94	3082.19
193.16	3626.95
193.38	3585.99
193.60	2858.96
193.82	3213.26
194.04	3692.49
194.26	3594.19
194.48	3006.42
194.70	2983.89
194.92	3327.95
195.14	3626.95
195.36	2899.92
195.58	3055.57
195.80	3446.73
196.02	3373.00
196.24	2930.64
196.46	2990.03
196.69	3274.70
196.91	4009.92
197.13	2992.08
197.35	3082.19
197.57	3817.41
197.79	3669.96
198.01	3055.57
198.23	3002.32
198.45	3536.84
198.67	3209.17
198.89	2826.20
199.11	3074.00
199.33	3272.65
199.55	3006.42
199.77	2873.30
199.99	3166.16
200.21	3373.00
200.43	3520.46
200.65	2897.88
200.87	2844.63
201.09	3340.24
201.31	3387.34
201.53	2955.22
201.75	3016.66
201.97	3499.98
202.19	3454.92
202.41	3067.86
202.63	3033.04
202.85	3553.23
203.07	3469.26
203.29	3045.33
203.51	2867.16
203.73	3344.33
203.95	4050.88
204.17	2973.65
204.39	3233.74
204.61	3452.88
204.83	3393.48
205.05	3182.54
205.27	2940.88
205.49	3932.10
205.71	3454.92
205.93	2881.49
206.15	2824.15
206.37	3395.53
206.59	3401.68
206.81	2795.48
207.03	2838.48
207.25	3225.55
207.47	3596.23
207.69	2940.88
207.91	3231.69
208.13	3885.00
208.34	3368.91
208.56	2916.31
208.78	2992.08
209.00	3407.82
209.22	3319.76
209.44	3000.27
209.66	2944.98
209.88	3485.64
210.10	3418.06
210.32	2996.18
210.54	3041.23
210.76	3344.33
210.98	3827.65
211.20	2873.30
211.42	3106.77
211.64	3737.54
211.86	3606.47
212.08	3078.10
212.30	3012.56
212.52	3389.39
212.74	3602.38
212.96	3127.25
213.17	3026.90
213.39	3618.76
213.61	3798.98
213.83	2875.35
214.05	2758.61
214.27	3672.01
214.49	3239.89
214.71	2955.22
214.93	3125.20
215.15	3473.36
215.37	3739.59
215.59	2803.67
215.81	2959.31
216.03	3792.84
216.24	3450.83
216.46	2985.94
216.68	2959.31
216.90	3614.66
217.12	3762.12
217.34	2963.41
217.56	3149.78
217.78	3764.17
218.00	3502.03
218.22	3057.62
218.44	3096.53
218.66	3508.17
218.87	3919.81
219.09	2971.60
219.31	2990.03
219.53	3577.80
219.75	3368.91
219.97	3030.99
220.19	3002.32
220.41	3491.79
220.63	3811.27
220.85	2959.31
221.06	3024.85
221.28	3725.26
221.50	3538.89
221.72	2965.46
221.94	2875.35
222.16	3459.02
222.38	3622.86
222.60	2947.03
222.82	3020.75
223.03	3688.39
223.25	3250.13
223.47	2885.59
223.69	3205.07
223.91	3530.70
224.13	3475.40
224.35	2897.88
224.57	3133.39
224.78	3659.72
225.00	3282.89
225.22	3088.34
225.44	2938.84
225.66	3663.82
225.88	3387.34
226.10	3088.34
226.32	2928.60
226.53	3731.40
226.75	3325.90
226.97	3114.96
227.19	2928.60
227.41	3315.66
227.63	3307.47
227.85	2793.43
228.06	3133.39
228.28	3485.64
228.50	3653.58
228.72	2783.19
228.94	2983.89
229.16	3030.99
229.37	3172.30
229.59	2869.20
229.81	3260.37
230.03	3448.78
230.25	3209.17
230.47	2877.40
230.69	2975.70
230.90	3604.42
231.12	3297.23
231.34	3045.33
231.56	3037.14
231.78	3151.82
232.00	3536.84
232.21	3104.72
232.43	3057.62
232.65	3035.09
232.87	3434.44
233.09	2846.68
233.30	2861.01
233.52	3629.00
233.74	3522.51
233.96	2889.68
234.18	3215.31
234.40	3399.63
234.61	3968.96
234.83	2889.68
235.05	2910.16
235.27	4001.73
235.49	3770.31
235.70	2914.26
235.92	2920.40
236.14	3540.94
236.36	3923.91
236.58	2852.82
236.79	3002.32
237.01	3461.07
237.23	3540.94
237.45	3254.22
237.67	3024.85
237.88	3592.14
238.10	3944.39
238.32	2797.53
238.54	2883.54
238.76	3461.07
238.97	3278.80
239.19	2936.79
239.41	2975.70
239.63	3696.58
239.85	3315.66
240.06	3049.43
240.28	2947.03
240.50	3768.26
240.72	3510.22
240.93	2809.81
241.15	3180.50
241.37	3444.68
241.59	3616.71
241.81	2959.31
242.02	3049.43
242.24	3401.68
242.46	3598.28
242.68	2750.42
242.89	2861.01
243.11	3569.61
243.33	3362.76
243.55	2983.89
243.76	2985.94
243.98	3336.14
244.20	3463.12
244.42	2916.31
244.64	2893.78
244.85	3141.58
245.07	3266.51
245.29	2979.79
245.51	2994.13
245.72	3493.83
245.94	3700.68
246.16	2895.83
246.38	3028.95
246.59	3317.71
246.81	3225.55
247.03	2803.67
247.24	2877.40
247.46	3278.80
247.68	3604.42
247.90	2957.27
248.11	2969.55
248.33	3565.51
248.55	3405.77
248.77	2992.08
248.98	3028.95
249.20	3866.56
249.42	3477.45
249.64	2916.31
249.85	3022.80
250.07	3368.91
250.29	3669.96
250.50	3129.30
250.72	2875.35
250.94	3569.61
251.16	3958.72
251.37	2918.36
251.59	3000.27
251.81	3592.14
252.02	3758.02
252.24	2869.20
252.46	3131.34
252.68	3260.37
252.89	3321.81
253.11	2828.24
253.33	3200.98
253.54	3839.94
253.76	3246.03
253.98	3004.37
254.20	2934.74
254.41	3239.89
254.63	3422.16
254.85	2865.11
255.06	3078.10
255.28	3547.08
255.50	3409.87
255.71	2899.92
255.93	2830.29
256.15	3405.77
256.36	3536.84
256.58	2795.48
256.80	2871.25
257.02	3422.16
257.23	3346.38
257.45	2977.75
257.67	3164.11
257.88	3373.00
258.10	3594.19
258.32	3006.42
258.53	2965.46
258.75	3774.41
258.97	3278.80
259.18	2844.63
259.40	2926.55
259.62	3882.95
259.83	3794.89
260.05	3043.28
260.27	3837.89
260.48	3624.90
260.70	3178.45
260.92	2910.16
261.13	3020.75
261.35	3551.18
261.57	3567.56
261.78	2789.33
262.00	2850.77
262.22	3612.62
262.43	3256.27
262.65	2938.84
262.86	2977.75
263.08	3995.59
263.30	3434.44
263.51	2793.43
263.73	2889.68
263.95	3831.75
264.16	3266.51
264.38	2830.29
264.60	2883.54
264.81	3487.69
265.03	3715.02
265.25	3444.68
265.46	2934.74
265.68	3704.78
265.89	3579.85
266.11	2840.53
266.33	2824.15
266.54	3676.10
266.76	3495.88
266.98	3041.23
267.19	3147.73
267.41	3715.02
267.62	3364.81
267.84	2832.34
268.06	3065.81
268.27	3442.64
268.49	3616.71
268.70	3057.62
268.92	2934.74
269.14	3209.17
269.35	3215.31
269.57	3041.23
269.79	3155.92
270.00	3315.66
270.22	3837.89
270.43	2787.29
270.65	2846.68
270.87	3481.55
271.08	3592.14
271.30	3137.49
271.51	2914.26
271.73	3524.55
271.95	3852.23
272.16	2942.93
272.38	3184.59
272.59	3338.19
272.81	3643.34
273.02	2875.35
273.24	3039.19
273.46	3639.24
273.67	3221.45
273.89	2809.81
274.10	2934.74
274.32	3663.82
274.54	3485.64
274.75	3014.61
274.97	3125.20
275.18	3594.19
275.40	3536.84
275.61	2957.27
275.83	3162.06
276.05	3303.37
276.26	3409.87
276.48	3090.38
276.69	3106.77
276.91	3344.33
277.12	3762.12
277.34	3127.25
277.55	3205.07
277.77	3434.44
277.99	3387.34
278.20	3100.62
278.42	3012.56
278.63	3237.84
278.85	3297.23
279.06	3035.09
279.28	3200.98
279.49	3727.30
279.71	3608.52
279.93	3074.00
280.14	3172.30
280.36	3340.24
280.57	3647.43
280.79	3188.69
281.00	3067.86
281.22	3221.45
281.43	3712.97
281.65	2877.40
281.86	2975.70
282.08	3565.51
282.29	3903.43
282.51	2990.03
282.73	2949.08
282.94	3119.06
283.16	3682.25
283.37	3223.50
283.59	3096.53
283.80	3579.85
284.02	3461.07
284.23	3108.82
284.45	3172.30
284.66	3278.80
284.88	3377.10
285.09	3008.47
285.31	3180.50
285.52	3495.88
285.74	3123.15
285.95	3293.13
286.17	3188.69
286.38	3686.34
286.60	3461.07
286.81	3024.85
287.03	3102.67
287.24	3469.26
287.46	3545.03
287.67	3307.47
287.89	3278.80
288.10	3420.11
288.32	3465.16
288.53	3221.45
288.75	3180.50
288.96	3624.90
289.18	3327.95
289.39	2985.94
289.61	3172.30
289.82	3977.16
290.04	3848.13
290.25	2953.17
290.47	3188.69
290.68	3428.30
290.90	3702.73
291.11	2912.21
291.33	3332.05
291.54	3377.10
291.76	3346.38
291.97	3188.69
292.18	3203.02
292.40	3346.38
292.61	3254.22
292.83	3346.38
293.04	3127.25
293.26	3538.89
293.47	3471.31
293.69	2975.70
293.90	3024.85
294.12	3829.70
294.33	3463.12
294.55	3119.06
294.76	3282.89
294.97	3813.32
295.19	3848.13
295.40	3106.77
295.62	3198.93
295.83	3612.62
296.05	3243.98
296.26	3383.24
296.48	3131.34
296.69	3461.07
296.90	3428.30
297.12	3274.70
297.33	3278.80
297.55	3461.07
297.76	3467.21
297.98	3157.97
298.19	3246.03
298.41	3442.64
298.62	3217.36
298.83	3325.90
299.05	3217.36
299.26	3395.53
299.48	3227.60
299.69	3157.97
299.90	2987.99
300.12	3260.37
300.33	3579.85
300.55	3114.96
300.76	3145.68
300.98	3205.07
301.19	3610.57
301.40	3121.10
301.62	3059.67
301.83	3530.70
302.05	3477.45
302.26	3033.04
302.47	3235.79
302.69	3254.22
302.90	3387.34
303.12	2910.16
303.33	3192.78
303.54	3880.90
303.76	3330.00
303.97	3028.95
304.19	3334.09
304.40	3227.60
304.61	3604.42
304.83	3143.63
305.04	3213.26
305.26	3672.01
305.47	3303.37
305.68	3110.86
305.90	3028.95
306.11	3792.84
306.33	3489.74
306.54	2959.31
306.75	3051.47
306.97	3223.50
307.18	3225.55
307.39	3049.43
307.61	3235.79
307.82	3377.10
308.04	3629.00
308.25	3008.47
308.46	3237.84
308.68	3499.98
308.89	3469.26
309.10	3211.22
309.32	3125.20
309.53	3444.68
309.74	3663.82
309.96	3039.19
310.17	3205.07
310.39	3356.62
310.60	3600.33
310.81	3157.97
311.03	3104.72
311.24	3563.47
311.45	3362.76
311.67	3330.00
311.88	3237.84
312.09	3352.52
312.31	3262.41
312.52	3033.04
312.73	3065.81
312.95	3139.54
313.16	3295.18
313.37	3233.74
313.59	3319.76
313.80	3612.62
314.01	3852.23
314.23	3059.67
314.44	3033.04
314.65	3213.26
314.87	3313.61
315.08	3129.30
315.29	3090.38
315.51	3239.89
315.72	3168.21
315.93	3094.48
316.15	3137.49
316.36	3305.42
316.57	3422.16
316.79	3016.66
317.00	3084.24
317.21	3553.23
317.43	3401.68
317.64	3139.54
317.85	2971.60
318.07	3340.24
318.28	3430.35
318.49	3233.74
318.70	3284.94
318.92	3483.59
319.13	3454.92
319.34	3246.03
319.56	3020.75
319.77	3536.84
319.98	3553.23
320.20	3368.91
320.41	3241.93
320.62	3502.03
320.83	3188.69
321.05	3368.91
321.26	3061.71
321.47	3459.02
321.69	3743.69
321.90	3012.56
322.11	3020.75
322.32	3592.14
322.54	3753.93
322.75	3162.06
322.96	4241.34
323.18	3149.78
323.39	3057.62
323.60	2977.75
323.81	3182.54
324.03	3241.93
324.24	3405.77
324.45	3352.52
324.66	3117.01
324.88	3635.14
325.09	3796.93
325.30	3041.23
325.52	2951.12
325.73	3547.08
325.94	3291.09
326.15	3006.42
326.37	2953.17
326.58	3663.82
326.79	3866.56
327.00	3094.48
327.22	3028.95
327.43	3368.91
327.64	3203.02
327.85	3262.41
328.07	3164.11
328.28	3876.80
328.49	3409.87
328.70	3098.58
328.92	3065.81
329.13	3387.34
329.34	3592.14
329.55	3332.05
329.76	3280.85
329.98	3266.51
330.19	3698.63
330.40	3241.93
330.61	3237.84
330.83	3516.36
331.04	3356.62
331.25	3139.54
331.46	3114.96
331.68	3125.20
331.89	3725.26
332.10	3104.72
332.31	3045.33
332.52	3452.88
332.74	3725.26
332.95	2932.69
333.16	3041.23
333.37	3622.86
333.58	3305.42
333.80	3114.96
334.01	2904.02
334.22	3481.55
334.43	3346.38
334.64	3055.57
334.86	3074.00
335.07	3205.07
335.28	3782.60
335.49	2994.13
335.70	3162.06
335.92	3749.83
336.13	3917.76
336.34	3067.86
336.55	3157.97
336.76	3510.22
336.98	2979.79
337.19	3104.72
337.40	3147.73
337.61	3991.49
337.82	3387.34
338.04	3215.31
338.25	2920.40
338.46	3450.83
338.67	3401.68
338.88	3026.90
339.09	3028.95
339.31	3366.86
339.52	3188.69
339.73	3063.76
339.94	3213.26
340.15	3633.10
340.36	3352.52
340.58	3135.44
340.79	3051.47
341.00	3518.41
341.21	3221.45
341.42	3377.10
341.63	3090.38
341.85	3557.32
342.06	3418.06
342.27	3051.47
342.48	3327.95
342.69	3223.50
342.90	3547.08
343.12	3540.94
343.33	3041.23
343.54	3641.29
343.75	3819.46
343.96	3246.03
344.17	2955.22
344.38	3368.91
344.60	3313.61
344.81	3057.62
345.02	3172.30
345.23	3661.77
345.44	4061.12
345.65	3151.82
345.86	3188.69
346.07	3540.94
346.29	3327.95
346.50	3289.04
346.71	3139.54
346.92	3852.23
347.13	3950.53
347.34	3178.45
347.55	3004.37
347.76	3518.41
347.98	3160.02
348.19	3205.07
348.40	3319.76
348.61	3321.81
348.82	3696.58
349.03	3145.68
349.24	3016.66
349.45	3864.52
349.66	2967.51
349.88	3028.95
350.09	3082.19
350.30	3753.93
350.51	3702.73
350.72	3225.55
350.93	3098.58
351.14	3413.96
351.35	3622.86
351.56	3186.64
351.77	3110.86
351.99	3561.42
352.20	3708.87
352.41	3233.74
352.62	2975.70
352.83	3461.07
353.04	3479.50
353.25	3123.15
353.46	3188.69
353.67	3629.00
353.88	3018.71
354.09	2942.93
354.30	3243.98
354.52	3663.82
354.73	3432.40
354.94	3078.10
355.15	3151.82
355.36	3962.82
355.57	3286.99
355.78	3020.75
355.99	3022.80
356.20	3354.57
356.41	3735.50
356.62	3160.02
356.83	3147.73
357.04	3729.35
357.25	3100.62
357.46	3061.71
357.68	3028.95
357.89	3248.08
358.10	3436.49
358.31	3108.82
358.52	3203.02
358.73	3164.11
358.94	3260.37
359.15	3119.06
359.36	3090.38
359.57	3377.10
359.78	3409.87
359.99	3325.90
360.20	2955.22
360.41	3330.00
360.62	3614.66
360.83	3164.11
361.04	3149.78
361.25	3528.65
361.46	3749.83
361.67	3145.68
361.88	3164.11
362.09	3710.92
362.30	3557.32
362.51	3061.71
362.72	3205.07
362.93	3647.43
363.14	3561.42
363.35	3184.59
363.56	3004.37
363.78	3682.25
363.99	3612.62
364.20	3012.56
364.41	3221.45
364.62	3901.38
364.83	3545.03
365.04	3114.96
365.25	3168.21
365.46	4007.87
365.67	3235.79
365.88	3321.81
366.09	3123.15
366.30	3358.67
366.51	3479.50
366.72	3041.23
366.93	2969.55
367.14	3514.31
367.35	3741.64
367.56	3018.71
367.77	3151.82
367.98	3450.83
368.18	3545.03
368.39	3293.13
368.60	3065.81
368.81	3561.42
369.02	3530.70
369.23	3153.87
369.44	3024.85
369.65	3356.62
369.86	3598.28
370.07	3241.93
370.28	2955.22
370.49	3567.56
370.70	3532.75
370.91	2992.08
371.12	3020.75
371.33	3624.90
371.54	3248.08
371.75	3231.69
371.96	2885.59
372.17	3483.59
372.38	3387.34
372.59	3151.82
372.80	3039.19
373.01	3442.64
373.22	3502.03
373.43	3084.24
373.64	2955.22
373.85	3741.64
374.06	3833.80
374.26	3235.79
374.47	3192.78
374.68	3782.60
374.89	3565.51
375.10	3074.00
375.31	3188.69
375.52	3450.83
375.73	3499.98
375.94	2942.93
376.15	3180.50
376.36	3274.70
376.57	3332.05
376.78	3067.86
376.99	3094.48
377.20	3622.86
377.40	3362.76
377.61	3418.06
377.82	3174.35
378.03	3778.50
378.24	3557.32
378.45	3133.39
378.66	3209.17
378.87	3149.78
379.08	3153.87
379.29	3092.43
379.50	3270.61
379.71	3489.74
379.91	3631.05
380.12	3131.34
380.33	3241.93
380.54	3438.54
380.75	3487.69
380.96	3117.01
381.17	3131.34
381.38	3454.92
381.59	3420.11
381.80	3155.92
382.00	3258.32
382.21	3463.12
382.42	3807.17
382.63	3493.83
382.84	3258.32
383.05	3594.19
383.26	3704.78
383.47	3203.02
383.68	3090.38
383.88	3594.19
384.09	3469.26
384.30	3370.96
384.51	3256.27
384.72	3379.15
384.93	3155.92
385.14	3250.13
385.35	3440.59
385.55	3100.62
385.76	3647.43
385.97	3110.86
386.18	2969.55
386.39	3325.90
386.60	3360.72
386.81	3088.34
387.02	2940.88
387.22	3166.16
387.43	3551.18
387.64	3237.84
387.85	3377.10
388.06	3397.58
388.27	4286.40
388.48	7106.45
388.68	10956.63
388.89	13739.82
389.10	14679.84
389.31	14329.64
389.52	11589.46
389.73	10100.58
389.93	9566.06
390.14	8396.67
390.35	8005.51
390.56	7368.59
390.77	6236.06
390.98	4878.26
391.18	4003.78
391.39	3960.77
391.60	3467.21
391.81	3299.28
392.02	3217.36
392.23	3981.25
392.43	3540.94
392.64	3209.17
392.85	3205.07
393.06	3764.17
393.27	3395.53
393.47	3131.34
393.68	3160.02
393.89	3344.33
394.10	3661.77
394.31	3020.75
394.52	3067.86
394.72	3303.37
394.93	3749.83
395.14	2994.13
395.35	3270.61
395.56	3321.81
395.76	3434.44
395.97	3153.87
396.18	3264.46
396.39	3461.07
396.60	4044.74
396.80	3524.55
397.01	3379.15
397.22	3606.47
397.43	3659.72
397.64	3014.61
397.84	3147.73
398.05	3880.90
398.26	3411.92
398.47	3246.03
398.67	3397.58
398.88	3364.81
399.09	3637.19
399.30	3117.01
399.51	3141.58
399.71	3360.72
399.92	3393.48
400.13	3180.50
400.34	3192.78
400.54	3495.88
400.75	3780.55
400.96	3233.74
401.17	3438.54
401.37	3581.90
401.58	3354.57
401.79	3114.96
402.00	3246.03
402.21	3876.80
402.41	3542.99
402.62	3403.72
402.83	3526.60
403.04	3831.75
403.24	4108.23
403.45	3223.50
403.66	3413.96
403.87	3641.29
404.07	3725.26
404.28	3495.88
404.49	3422.16
404.70	3557.32
404.90	3633.10
405.11	3186.64
405.32	3235.79
405.52	3360.72
405.73	3366.86
405.94	2983.89
406.15	3250.13
406.35	3583.95
406.56	3629.00
406.77	3223.50
406.98	3217.36
407.18	3319.76
407.39	3749.83
407.60	3221.45
407.80	3250.13
408.01	3356.62
408.22	3559.37
408.43	3098.58
408.63	3270.61
408.84	3667.91
409.05	3618.76
409.25	3074.00
409.46	3213.26
409.67	3389.39
409.88	3330.00
410.08	3254.22
410.29	3108.82
410.50	3647.43
410.70	3555.27
410.91	3084.24
411.12	3094.48
411.32	3463.12
411.53	3198.93
411.74	3131.34
411.95	3264.46
412.15	3456.97
412.36	3551.18
412.57	3254.22
412.77	3346.38
412.98	3315.66
413.19	3315.66
413.39	3317.71
413.60	3190.74
413.81	3741.64
414.01	3223.50
414.22	3170.26
414.43	3387.34
414.63	3356.62
414.84	3518.41
415.05	3129.30
415.25	2942.93
415.46	3649.48
415.67	3393.48
415.87	3176.40
416.08	3143.63
416.29	3327.95
416.49	3649.48
416.70	3241.93
416.91	3074.00
417.11	3393.48
417.32	3737.54
417.53	3256.27
417.73	3278.80
417.94	3491.79
418.15	3551.18
418.35	3221.45
418.56	3129.30
418.77	3911.62
418.97	3518.41
419.18	3313.61
419.38	2826.20
419.59	3416.01
419.80	3760.07
420.00	3135.44
420.21	3196.88
420.42	3803.08
420.62	3606.47
420.83	3157.97
421.04	3131.34
421.24	3481.55
421.45	3608.52
421.65	3196.88
421.86	3172.30
422.07	3694.54
422.27	3661.77
422.48	3076.05
422.69	2951.12
422.89	3461.07
423.10	3368.91
423.30	3094.48
423.51	3147.73
423.72	3569.61
423.92	3645.38
424.13	3000.27
424.33	3262.41
424.54	3694.54
424.75	3467.21
424.95	3397.58
425.16	3037.14
425.36	3401.68
425.57	3600.33
425.78	3282.89
425.98	3225.55
426.19	3385.29
426.39	3286.99
426.60	3248.08
426.81	3203.02
427.01	3475.40
427.22	3286.99
427.42	2904.02
427.63	3141.58
427.83	3710.92
428.04	3807.17
428.25	3235.79
428.45	3256.27
428.66	3663.82
428.86	3452.88
429.07	3221.45
429.28	3178.45
429.48	3358.67
429.69	3286.99
429.89	3342.28
430.10	3123.15
430.30	3604.42
430.51	3735.50
430.71	3051.47
430.92	3270.61
431.13	3319.76
431.33	3575.75
431.54	3270.61
431.74	3330.00
431.95	3952.58
432.15	3274.70
432.36	3100.62
432.56	3194.83
432.77	3852.23
432.98	3899.33
433.18	3237.84
433.39	2916.31
433.59	3452.88
433.80	3837.89
434.00	3264.46
434.21	3231.69
434.41	3309.52
434.62	3913.67
434.82	3084.24
435.03	3057.62
435.23	3497.93
435.44	3033.04
435.64	3090.38
435.85	3168.21
436.06	3665.86
436.26	3672.01
436.47	3139.54
436.67	3184.59
436.88	3405.77
437.08	3680.20
437.29	3350.48
437.49	3352.52
437.70	3680.20
437.90	3432.40
438.11	3346.38
438.31	3280.85
438.52	3755.97
438.72	3692.49
438.93	3499.98
439.13	3272.65
439.34	3672.01
439.54	3327.95
439.75	3286.99
439.95	3190.74
440.16	3266.51
440.36	3432.40
440.57	3055.57
440.77	3172.30
440.98	3467.21
441.18	3516.36
441.39	3049.43
441.59	3030.99
441.80	3909.57
442.00	3444.68
442.21	3225.55
442.41	3088.34
442.62	3684.30
442.82	3307.47
443.02	3145.68
443.23	3160.02
443.43	3340.24
443.64	3672.01
443.84	3082.19
444.05	3233.74
444.25	3348.43
444.46	3334.09
444.66	3086.29
444.87	3327.95
445.07	3102.67
445.28	3352.52
445.48	3295.18
445.69	3270.61
445.89	4054.98
446.09	3321.81
446.30	3395.53
446.50	3545.03
446.71	5136.31
446.91	6004.64
447.12	6883.22
447.32	7272.34
447.53	7276.43
447.73	6129.57
447.93	5359.53
448.14	5177.26
448.34	5380.01
448.55	4446.14
448.75	4388.80
448.96	4089.79
449.16	4186.05
449.36	4046.79
449.57	3459.02
449.77	3235.79
449.98	3379.15
450.18	3514.31
450.39	3092.43
450.59	3334.09
450.79	3479.50
451.00	3311.57
451.20	3377.10
451.41	3225.55
451.61	3516.36
451.81	3459.02
452.02	3135.44
452.22	3147.73
452.43	3342.28
