SpectraSuite Data File
++++++++++++++++++++++++++++++++++++
Date: Fri May 06 09:28:49 CEST 2016
User: root
Dark Spectrum Present: No
Reference Spectrum Present: No
Number of Sampled Component Spectra: 1
Spectrometers: USB4C02835
Integration Time (usec): 100000 (USB4C02835)
Spectra Averaged: 1 (USB4C02835)
Boxcar Smoothing: 0 (USB4C02835)
Correct for Electrical Dark: No (USB4C02835)
Strobe/Lamp Enabled: No (USB4C02835)
Correct for Detector Non-linearity: No (USB4C02835)
Correct for Stray Light: No (USB4C02835)
Number of Pixels in Processed Spectrum: 3648
>>>>>Begin Processed Spectral Data<<<<<
177.47	2402.27
177.69	2402.27
177.91	2402.27
178.13	2299.87
178.36	2303.96
178.58	3190.74
178.80	3176.40
179.02	3151.82
179.24	3207.12
179.46	2869.20
179.68	2947.03
179.90	3309.52
180.13	3463.12
180.35	2797.53
180.57	2889.68
180.79	3602.38
181.01	3459.02
181.23	2848.72
181.45	3084.24
181.67	3545.03
181.90	3643.34
182.12	3000.27
182.34	2779.09
182.56	3612.62
182.78	3569.61
183.00	2910.16
183.22	3043.28
183.44	3123.15
183.66	4052.93
183.89	3090.38
184.11	2944.98
184.33	3577.80
184.55	3749.83
184.77	2959.31
184.99	2942.93
185.21	3297.23
185.43	3993.54
185.65	2885.59
185.87	2953.17
186.10	3956.68
186.32	4005.83
186.54	3026.90
186.76	3053.52
186.98	3571.66
187.20	3456.97
187.42	3012.56
187.64	2920.40
187.86	3502.03
188.08	3717.06
188.30	2885.59
188.52	3076.05
188.75	3798.98
188.97	3698.63
189.19	2965.46
189.41	2947.03
189.63	3534.79
189.85	3366.86
190.07	2807.77
190.29	2838.48
190.51	3475.40
190.73	3196.88
190.95	3125.20
191.17	2983.89
191.39	3065.81
191.61	3274.70
191.84	2932.69
192.06	3117.01
192.28	3135.44
192.50	4097.99
192.72	3180.50
192.94	3000.27
193.16	3798.98
193.38	3614.66
193.60	2875.35
193.82	3213.26
194.04	3698.63
194.26	3563.47
194.48	2961.36
194.70	2897.88
194.92	3444.68
195.14	3710.92
195.36	2891.73
195.58	3065.81
195.80	3409.87
196.02	3346.38
196.24	2873.30
196.46	3024.85
196.69	3256.27
196.91	4036.55
197.13	3000.27
197.35	3067.86
197.57	3844.04
197.79	3600.33
198.01	3010.51
198.23	3090.38
198.45	3608.52
198.67	3190.74
198.89	2762.71
199.11	3016.66
199.33	3311.57
199.55	3074.00
199.77	2813.91
199.99	3100.62
200.21	3368.91
200.43	3600.33
200.65	2840.53
200.87	2803.67
201.09	3446.73
201.31	3377.10
201.53	2996.18
201.75	3002.32
201.97	3520.46
202.19	3352.52
202.41	3035.09
202.63	3117.01
202.85	3532.75
203.07	3575.75
203.29	2994.13
203.51	2818.00
203.73	3295.18
203.95	3991.49
204.17	2971.60
204.39	3178.45
204.61	3379.15
204.83	3391.44
205.05	3221.45
205.27	2926.55
205.49	3991.49
205.71	3397.58
205.93	2805.72
206.15	2863.06
206.37	3456.97
206.59	3389.39
206.81	2844.63
207.03	2912.21
207.25	3282.89
207.47	3588.04
207.69	3053.52
207.91	3131.34
208.13	3848.13
208.34	3336.14
208.56	2920.40
208.78	2983.89
209.00	3360.72
209.22	3370.96
209.44	2908.12
209.66	2922.45
209.88	3493.83
210.10	3463.12
210.32	2910.16
210.54	3041.23
210.76	3327.95
210.98	3645.38
211.20	2738.13
211.42	3139.54
211.64	3768.26
211.86	3569.61
212.08	3033.04
212.30	3067.86
212.52	3370.96
212.74	3555.27
212.96	3108.82
213.17	3069.91
213.39	3696.58
213.61	3786.69
213.83	2895.83
214.05	2756.57
214.27	3753.93
214.49	3151.82
214.71	2961.36
214.93	3076.05
215.15	3411.92
215.37	3635.14
215.59	2770.90
215.81	2981.84
216.03	3657.67
216.24	3571.66
216.46	2942.93
216.68	3010.51
216.90	3569.61
217.12	3727.30
217.34	2914.26
217.56	3102.67
217.78	3708.87
218.00	3631.05
218.22	2987.99
218.44	3037.14
218.66	3504.07
218.87	3901.38
219.09	3026.90
219.31	2985.94
219.53	3520.46
219.75	3297.23
219.97	3039.19
220.19	3018.71
220.41	3469.26
220.63	3811.27
220.85	2977.75
221.06	3051.47
221.28	3778.50
221.50	3588.04
221.72	2957.27
221.94	2852.82
222.16	3467.21
222.38	3542.99
222.60	2861.01
222.82	3012.56
223.03	3719.11
223.25	3311.57
223.47	2912.21
223.69	3168.21
223.91	3604.42
224.13	3467.21
224.35	2863.06
224.57	3168.21
224.78	3592.14
225.00	3239.89
225.22	3098.58
225.44	2885.59
225.66	3655.62
225.88	3409.87
226.10	3133.39
226.32	2977.75
226.53	3776.45
226.75	3360.72
226.97	3086.29
227.19	2955.22
227.41	3340.24
227.63	3323.85
227.85	2830.29
228.06	3022.80
228.28	3483.59
228.50	3655.62
228.72	2861.01
228.94	2940.88
229.16	3098.58
229.37	3239.89
229.59	2861.01
229.81	3246.03
230.03	3362.76
230.25	3233.74
230.47	2811.86
230.69	2922.45
230.90	3622.86
231.12	3291.09
231.34	3049.43
231.56	2994.13
231.78	3192.78
232.00	3370.96
232.21	3090.38
232.43	2983.89
232.65	3006.42
232.87	3545.03
233.09	2830.29
233.30	2901.97
233.52	3651.53
233.74	3536.84
233.96	2912.21
234.18	3194.83
234.40	3444.68
234.61	4003.78
234.83	2813.91
235.05	2971.60
235.27	4001.73
235.49	3725.26
235.70	2799.57
235.92	3002.32
236.14	3590.09
236.36	4061.12
236.58	2856.92
236.79	3063.76
237.01	3475.40
237.23	3549.13
237.45	3248.08
237.67	3078.10
237.88	3567.56
238.10	3862.47
238.32	2813.91
238.54	2983.89
238.76	3397.58
238.97	3305.42
239.19	2830.29
239.41	2981.84
239.63	3762.12
239.85	3280.85
240.06	2996.18
240.28	2963.41
240.50	3624.90
240.72	3491.79
240.93	2883.54
241.15	3047.38
241.37	3440.59
241.59	3784.65
241.81	2944.98
242.02	3008.47
242.24	3608.52
242.46	3653.58
242.68	2840.53
242.89	2901.97
243.11	3643.34
243.33	3379.15
243.55	2947.03
243.76	2955.22
243.98	3221.45
244.20	3467.21
244.42	2967.51
244.64	2955.22
244.85	3108.82
245.07	3270.61
245.29	2932.69
245.51	2981.84
245.72	3499.98
245.94	3674.06
246.16	2947.03
246.38	2959.31
246.59	3327.95
246.81	3291.09
247.03	2885.59
247.24	2889.68
247.46	3358.67
247.68	3461.07
247.90	2795.48
248.11	2981.84
248.33	3549.13
248.55	3438.54
248.77	3004.37
248.98	3082.19
249.20	3764.17
249.42	3522.51
249.64	2906.07
249.85	2912.21
250.07	3366.86
250.29	3561.42
250.50	2979.79
250.72	2881.49
250.94	3569.61
251.16	4042.69
251.37	2955.22
251.59	2959.31
251.81	3508.17
252.02	3841.99
252.24	2879.44
252.46	3119.06
252.68	3264.46
252.89	3309.52
253.11	2830.29
253.33	3119.06
253.54	3741.64
253.76	3213.26
253.98	2936.79
254.20	2881.49
254.41	3149.78
254.63	3368.91
254.85	2789.33
255.06	3059.67
255.28	3606.47
255.50	3370.96
255.71	2965.46
255.93	2811.86
256.15	3342.28
256.36	3557.32
256.58	2789.33
256.80	2881.49
257.02	3373.00
257.23	3448.78
257.45	2985.94
257.67	3049.43
257.88	3405.77
258.10	3569.61
258.32	2975.70
258.53	2942.93
258.75	3895.24
258.97	3260.37
259.18	2840.53
259.40	2891.73
259.62	3901.38
259.83	3788.74
260.05	2998.23
260.27	3868.61
260.48	3665.86
260.70	3278.80
260.92	2818.00
261.13	3000.27
261.35	3538.89
261.57	3633.10
261.78	2901.97
262.00	2930.64
262.22	3592.14
262.43	3264.46
262.65	2924.50
262.86	3030.99
263.08	3995.59
263.30	3469.26
263.51	2832.34
263.73	2932.69
263.95	3882.95
264.16	3254.22
264.38	2918.36
264.60	2951.12
264.81	3467.21
265.03	3766.21
265.25	3391.44
265.46	2942.93
265.68	3780.55
265.89	3577.80
266.11	2901.97
266.33	2934.74
266.54	3674.06
266.76	3598.28
266.98	3028.95
267.19	3209.17
267.41	3694.54
267.62	3534.79
267.84	2705.37
268.06	3119.06
268.27	3588.04
268.49	3755.97
268.70	3129.30
268.92	2955.22
269.14	3262.41
269.35	3119.06
269.57	3186.64
269.79	3069.91
270.00	3342.28
270.22	3885.00
270.43	2852.82
270.65	2826.20
270.87	3432.40
271.08	3602.38
271.30	3143.63
271.51	3000.27
271.73	3583.95
271.95	3725.26
272.16	2904.02
272.38	3114.96
272.59	3360.72
272.81	3563.47
273.02	2844.63
273.24	3000.27
273.46	3602.38
273.67	3235.79
273.89	2813.91
274.10	2942.93
274.32	3674.06
274.54	3493.83
274.75	3157.97
274.97	3088.34
275.18	3649.48
275.40	3532.75
275.61	3018.71
275.83	3221.45
276.05	3178.45
276.26	3475.40
276.48	3217.36
276.69	3264.46
276.91	3262.41
277.12	3729.35
277.34	3127.25
277.55	3203.02
277.77	3385.29
277.99	3456.97
278.20	3069.91
278.42	3059.67
278.63	3332.05
278.85	3223.50
279.06	3051.47
279.28	3188.69
279.49	3778.50
279.71	3573.71
279.93	3168.21
280.14	3112.91
280.36	3377.10
280.57	3696.58
280.79	3246.03
281.00	2987.99
281.22	3379.15
281.43	3737.54
281.65	2910.16
281.86	3000.27
282.08	3446.73
282.29	3966.92
282.51	2998.23
282.73	2992.08
282.94	3051.47
283.16	3631.05
283.37	3188.69
283.59	3117.01
283.80	3510.22
284.02	3391.44
284.23	3143.63
284.45	3125.20
284.66	3299.28
284.88	3286.99
285.09	3010.51
285.31	3188.69
285.52	3459.02
285.74	3112.91
285.95	3356.62
286.17	3143.63
286.38	3626.95
286.60	3278.80
286.81	3012.56
287.03	3002.32
287.24	3370.96
287.46	3600.33
287.67	3186.64
287.89	3346.38
288.10	3385.29
288.32	3467.21
288.53	3225.55
288.75	3223.50
288.96	3622.86
289.18	3291.09
289.39	3059.67
289.61	3229.65
289.82	3882.95
290.04	3985.35
290.25	3035.09
290.47	3188.69
290.68	3389.39
290.90	3692.49
291.11	2893.78
291.33	3223.50
291.54	3319.76
291.76	3330.00
291.97	3258.32
292.18	3157.97
292.40	3379.15
292.61	3311.57
292.83	3393.48
293.04	3166.16
293.26	3502.03
293.47	3344.33
293.69	3022.80
293.90	2975.70
294.12	3737.54
294.33	3428.30
294.55	3088.34
294.76	3237.84
294.97	3762.12
295.19	3897.28
295.40	3149.78
295.62	3141.58
295.83	3669.96
296.05	3336.14
296.26	3389.39
296.48	3074.00
296.69	3416.01
296.90	3430.35
297.12	3229.65
297.33	3286.99
297.55	3463.12
297.76	3506.12
297.98	3196.88
298.19	3284.94
298.41	3377.10
298.62	3254.22
298.83	3346.38
299.05	3237.84
299.26	3344.33
299.48	3262.41
299.69	3227.60
299.90	3059.67
300.12	3196.88
300.33	3567.56
300.55	3143.63
300.76	3143.63
300.98	3180.50
301.19	3559.37
301.40	3106.77
301.62	3086.29
301.83	3534.79
302.05	3446.73
302.26	3055.57
302.47	3223.50
302.69	3203.02
302.90	3362.76
303.12	2908.12
303.33	3256.27
303.54	3848.13
303.76	3370.96
303.97	2977.75
304.19	3291.09
304.40	3262.41
304.61	3508.17
304.83	3112.91
305.04	3180.50
305.26	3610.57
305.47	3358.67
305.68	3076.05
305.90	2957.27
306.11	3686.34
306.33	3364.81
306.54	2998.23
306.75	3104.72
306.97	3084.24
307.18	3268.56
307.39	3106.77
307.61	3250.13
307.82	3330.00
308.04	3575.75
308.25	3004.37
308.46	3315.66
308.68	3440.59
308.89	3483.59
309.10	3254.22
309.32	3180.50
309.53	3407.82
309.74	3581.90
309.96	3022.80
310.17	3200.98
310.39	3336.14
310.60	3549.13
310.81	3045.33
311.03	2938.84
311.24	3516.36
311.45	3477.45
311.67	3338.19
311.88	3217.36
312.09	3295.18
312.31	3321.81
312.52	2983.89
312.73	3078.10
312.95	3137.49
313.16	3194.83
313.37	3233.74
313.59	3291.09
313.80	3528.65
314.01	3794.89
314.23	3041.23
314.44	2996.18
314.65	3233.74
314.87	3305.42
315.08	3078.10
315.29	3069.91
315.51	3239.89
315.72	3160.02
315.93	3131.34
316.15	3114.96
316.36	3336.14
316.57	3485.64
316.79	3090.38
317.00	3053.52
317.21	3549.13
317.43	3278.80
317.64	3143.63
317.85	2947.03
318.07	3217.36
318.28	3327.95
318.49	3162.06
318.70	3239.89
318.92	3432.40
319.13	3418.06
319.34	3311.57
319.56	3026.90
319.77	3473.36
319.98	3493.83
320.20	3401.68
320.41	3291.09
320.62	3577.80
320.83	3270.61
321.05	3379.15
321.26	3157.97
321.47	3545.03
321.69	3745.73
321.90	3026.90
322.11	3016.66
322.32	3516.36
322.54	3790.79
322.75	3121.10
322.96	4163.52
323.18	3139.54
323.39	3069.91
323.60	2994.13
323.81	3233.74
324.03	3319.76
324.24	3411.92
324.45	3235.79
324.66	3037.14
324.88	3690.44
325.09	3733.45
325.30	3033.04
325.52	3057.62
325.73	3592.14
325.94	3311.57
326.15	3049.43
326.37	2936.79
326.58	3643.34
326.79	3755.97
327.00	3108.82
327.22	3024.85
327.43	3479.50
327.64	3180.50
327.85	3209.17
328.07	3221.45
328.28	3841.99
328.49	3385.29
328.70	3078.10
328.92	3082.19
329.13	3395.53
329.34	3583.95
329.55	3377.10
329.76	3315.66
329.98	3405.77
330.19	3772.36
330.40	3243.98
330.61	3248.08
330.83	3590.09
331.04	3268.56
331.25	3241.93
331.46	3174.35
331.68	3155.92
331.89	3680.20
332.10	3135.44
332.31	2983.89
332.52	3485.64
332.74	3766.21
332.95	2920.40
333.16	3135.44
333.37	3565.51
333.58	3270.61
333.80	3102.67
334.01	2822.10
334.22	3465.16
334.43	3272.65
334.64	3035.09
334.86	3090.38
335.07	3237.84
335.28	3762.12
335.49	3016.66
335.70	3186.64
335.92	3782.60
336.13	3891.14
336.34	3057.62
336.55	3082.19
336.76	3604.42
336.98	3057.62
337.19	3112.91
337.40	3221.45
337.61	3991.49
337.82	3338.19
338.04	3252.17
338.25	2932.69
338.46	3452.88
338.67	3442.64
338.88	3051.47
339.09	3004.37
339.31	3330.00
339.52	3149.78
339.73	2990.03
339.94	3160.02
340.15	3608.52
340.36	3385.29
340.58	3121.10
340.79	3010.51
341.00	3545.03
341.21	3205.07
341.42	3389.39
341.63	3121.10
341.85	3610.57
342.06	3459.02
342.27	3055.57
342.48	3227.60
342.69	3090.38
342.90	3573.71
343.12	3510.22
343.33	3086.29
343.54	3663.82
343.75	3774.41
343.96	3262.41
344.17	3065.81
344.38	3364.81
344.60	3180.50
344.81	3045.33
345.02	3080.14
345.23	3669.96
345.44	4032.45
345.65	3180.50
345.86	3182.54
346.07	3522.51
346.29	3237.84
346.50	3266.51
346.71	3239.89
346.92	3758.02
347.13	3928.00
347.34	3256.27
347.55	2963.41
347.76	3547.08
347.98	3147.73
348.19	3188.69
348.40	3229.65
348.61	3385.29
348.82	3725.26
349.03	3151.82
349.24	3026.90
349.45	3768.26
349.66	3033.04
349.88	3127.25
350.09	3102.67
350.30	3696.58
350.51	3747.78
350.72	3356.62
350.93	3102.67
351.14	3411.92
351.35	3510.22
351.56	3145.68
351.77	3180.50
351.99	3487.69
352.20	3745.73
352.41	3229.65
352.62	2887.64
352.83	3512.27
353.04	3516.36
353.25	3162.06
353.46	3051.47
353.67	3676.10
353.88	3127.25
354.09	2981.84
354.30	3170.26
354.52	3616.71
354.73	3454.92
354.94	2994.13
355.15	3209.17
355.36	3948.48
355.57	3280.85
355.78	3041.23
355.99	3092.43
356.20	3465.16
356.41	3637.19
356.62	3155.92
356.83	3164.11
357.04	3741.64
357.25	3133.39
357.46	3139.54
357.68	3057.62
357.89	3231.69
358.10	3495.88
358.31	3024.85
358.52	3076.05
358.73	3180.50
358.94	3188.69
359.15	3143.63
359.36	3217.36
359.57	3522.51
359.78	3319.76
359.99	3340.24
360.20	2967.51
360.41	3373.00
360.62	3626.95
360.83	3227.60
361.04	3141.58
361.25	3553.23
361.46	3844.04
361.67	3266.51
361.88	3096.53
362.09	3651.53
362.30	3493.83
362.51	2987.99
362.72	3186.64
362.93	3626.95
363.14	3581.90
363.35	3276.75
363.56	3055.57
363.78	3715.02
363.99	3676.10
364.20	3098.58
364.41	3235.79
364.62	3844.04
364.83	3549.13
365.04	3135.44
365.25	3061.71
365.46	3942.34
365.67	3311.57
365.88	3356.62
366.09	3102.67
366.30	3246.03
366.51	3481.55
366.72	3100.62
366.93	3026.90
367.14	3459.02
367.35	3704.78
367.56	3045.33
367.77	3213.26
367.98	3440.59
368.18	3577.80
368.39	3233.74
368.60	3119.06
368.81	3647.43
369.02	3483.59
369.23	3061.71
369.44	2944.98
369.65	3401.68
369.86	3532.75
370.07	3248.08
370.28	2973.65
370.49	3549.13
370.70	3469.26
370.91	3053.52
371.12	2942.93
371.33	3672.01
371.54	3319.76
371.75	3182.54
371.96	2856.92
372.17	3528.65
372.38	3428.30
372.59	3030.99
372.80	3065.81
373.01	3401.68
373.22	3454.92
373.43	3061.71
373.64	2965.46
373.85	3659.72
374.06	3833.80
374.26	3264.46
374.47	3221.45
374.68	3715.02
374.89	3483.59
375.10	3035.09
375.31	3125.20
375.52	3483.59
375.73	3532.75
375.94	2951.12
376.15	3170.26
376.36	3217.36
376.57	3352.52
376.78	3180.50
376.99	3125.20
377.20	3766.21
377.40	3387.34
377.61	3440.59
377.82	3074.00
378.03	3809.22
378.24	3639.24
378.45	3241.93
378.66	3162.06
378.87	3065.81
379.08	3135.44
379.29	3131.34
379.50	3227.60
379.71	3373.00
379.91	3542.99
380.12	3127.25
380.33	3332.05
380.54	3418.06
380.75	3504.07
380.96	3178.45
381.17	3166.16
381.38	3403.72
381.59	3459.02
381.80	3151.82
382.00	3272.65
382.21	3491.79
382.42	3794.89
382.63	3565.51
382.84	3268.56
383.05	3657.67
383.26	3762.12
383.47	3280.85
383.68	3014.61
383.88	3581.90
384.09	3436.49
384.30	3317.71
384.51	3239.89
384.72	3395.53
384.93	3153.87
385.14	3274.70
385.35	3436.49
385.55	3139.54
385.76	3655.62
385.97	3192.78
386.18	2959.31
386.39	3178.45
386.60	3352.52
386.81	3162.06
387.02	2951.12
387.22	3125.20
387.43	3592.14
387.64	3094.48
387.85	3405.77
388.06	3524.55
388.27	4390.84
388.48	7157.65
388.68	10887.00
388.89	13684.53
389.10	14870.30
389.31	14456.61
389.52	11634.51
389.73	10106.73
389.93	9543.53
390.14	8521.60
390.35	7944.07
390.56	7278.48
390.77	6236.06
390.98	4724.66
391.18	4079.55
391.39	3952.58
391.60	3426.25
391.81	3465.16
392.02	3098.58
392.23	3903.43
392.43	3436.49
392.64	3268.56
392.85	3256.27
393.06	3762.12
393.27	3481.55
393.47	3041.23
393.68	3239.89
393.89	3325.90
394.10	3739.59
394.31	3143.63
394.52	3030.99
394.72	3297.23
394.93	3684.30
395.14	2967.51
395.35	3250.13
395.56	3254.22
395.76	3446.73
395.97	3106.77
396.18	3332.05
396.39	3438.54
396.60	4116.42
396.80	3557.32
397.01	3393.48
397.22	3563.47
397.43	3542.99
397.64	3059.67
397.84	3164.11
398.05	3860.42
398.26	3315.66
398.47	3307.47
398.67	3424.20
398.88	3479.50
399.09	3600.33
399.30	3065.81
399.51	3168.21
399.71	3266.51
399.92	3526.60
400.13	3297.23
400.34	3190.74
400.54	3555.27
400.75	3688.39
400.96	3172.30
401.17	3459.02
401.37	3551.18
401.58	3362.76
401.79	3092.43
402.00	3239.89
402.21	4034.50
402.41	3540.94
402.62	3409.87
402.83	3545.03
403.04	3739.59
403.24	4241.34
403.45	3256.27
403.66	3422.16
403.87	3639.24
404.07	3712.97
404.28	3409.87
404.49	3385.29
404.70	3493.83
404.90	3553.23
405.11	3192.78
405.32	3221.45
405.52	3276.75
405.73	3266.51
405.94	3143.63
406.15	3325.90
406.35	3522.51
406.56	3639.24
406.77	3221.45
406.98	3160.02
407.18	3229.65
407.39	3749.83
407.60	3190.74
407.80	3211.22
408.01	3338.19
408.22	3647.43
408.43	3057.62
408.63	3233.74
408.84	3653.58
409.05	3633.10
409.25	3104.72
409.46	3200.98
409.67	3325.90
409.88	3303.37
410.08	3139.54
410.29	3160.02
410.50	3606.47
410.70	3542.99
410.91	3035.09
411.12	3284.94
411.32	3401.68
411.53	3225.55
411.74	3141.58
411.95	3246.03
412.15	3450.83
412.36	3555.27
412.57	3305.42
412.77	3237.84
412.98	3438.54
413.19	3286.99
413.39	3213.26
413.60	3104.72
413.81	3620.81
414.01	3215.31
414.22	3143.63
414.43	3407.82
414.63	3317.71
414.84	3659.72
415.05	3235.79
415.25	2967.51
415.46	3571.66
415.67	3299.28
415.87	3194.83
416.08	3049.43
416.29	3375.05
416.49	3604.42
416.70	3266.51
416.91	3133.39
417.11	3311.57
417.32	3686.34
417.53	3157.97
417.73	3252.17
417.94	3413.96
418.15	3444.68
418.35	3248.08
418.56	3149.78
418.77	3932.10
418.97	3456.97
419.18	3250.13
419.38	2844.63
419.59	3477.45
419.80	3706.82
420.00	3090.38
420.21	3200.98
420.42	3774.41
420.62	3522.51
420.83	3155.92
421.04	3166.16
421.24	3463.12
421.45	3594.19
421.65	3133.39
421.86	3164.11
422.07	3694.54
422.27	3588.04
422.48	3051.47
422.69	2965.46
422.89	3467.21
423.10	3344.33
423.30	3104.72
423.51	3256.27
423.72	3540.94
423.92	3592.14
424.13	3088.34
424.33	3309.52
424.54	3598.28
424.75	3465.16
424.95	3381.20
425.16	3088.34
425.36	3344.33
425.57	3717.06
425.78	3282.89
425.98	3303.37
426.19	3483.59
426.39	3248.08
426.60	3368.91
426.81	3344.33
427.01	3479.50
427.22	3270.61
427.42	3024.85
427.63	3131.34
427.83	3655.62
428.04	3768.26
428.25	3194.83
428.45	3252.17
428.66	3655.62
428.86	3442.64
429.07	3194.83
429.28	3198.93
429.48	3446.73
429.69	3274.70
429.89	3293.13
430.10	3168.21
430.30	3579.85
430.51	3637.19
430.71	3092.43
430.92	3299.28
431.13	3452.88
431.33	3569.61
431.54	3254.22
431.74	3305.42
431.95	3944.39
432.15	3278.80
432.36	3117.01
432.56	3254.22
432.77	3864.52
432.98	3721.16
433.18	3289.04
433.39	3010.51
433.59	3430.35
433.80	3928.00
434.00	3225.55
434.21	3262.41
434.41	3295.18
434.62	3973.06
434.82	3000.27
435.03	3112.91
435.23	3463.12
435.44	3030.99
435.64	3033.04
435.85	3211.22
436.06	3600.33
436.26	3608.52
436.47	3155.92
436.67	3098.58
436.88	3456.97
437.08	3672.01
437.29	3295.18
437.49	3334.09
437.70	3766.21
437.90	3407.82
438.11	3352.52
438.31	3143.63
438.52	3710.92
438.72	3700.68
438.93	3436.49
439.13	3254.22
439.34	3573.71
439.54	3286.99
439.75	3276.75
439.95	3237.84
440.16	3338.19
440.36	3475.40
440.57	3174.35
440.77	3180.50
440.98	3522.51
441.18	3629.00
441.39	3094.48
441.59	3008.47
441.80	3895.24
442.00	3411.92
442.21	3239.89
442.41	2996.18
442.62	3708.87
442.82	3321.81
443.02	3139.54
443.23	3176.40
443.43	3305.42
443.64	3635.14
443.84	3014.61
444.05	3246.03
444.25	3516.36
444.46	3260.37
444.66	3147.73
444.87	3424.20
445.07	3057.62
445.28	3383.24
445.48	3346.38
445.69	3180.50
445.89	4005.83
446.09	3350.48
446.30	3430.35
446.50	3553.23
446.71	5074.87
446.91	6023.08
447.12	6842.26
447.32	7253.91
447.53	7362.45
447.73	6145.95
447.93	5302.19
448.14	5261.23
448.34	5488.56
448.55	4411.32
448.75	4421.56
448.96	4143.04
449.16	4093.89
449.36	4081.60
449.57	3393.48
449.77	3289.04
449.98	3344.33
450.18	3569.61
450.39	3053.52
450.59	3373.00
450.79	3395.53
451.00	3360.72
451.20	3438.54
451.41	3147.73
451.61	3579.85
451.81	3397.58
452.02	3104.72
452.22	3125.20
452.43	3317.71
