SpectraSuite Data File
++++++++++++++++++++++++++++++++++++
Date: Fri May 06 09:28:39 CEST 2016
User: root
Dark Spectrum Present: No
Reference Spectrum Present: No
Number of Sampled Component Spectra: 1
Spectrometers: USB4C02835
Integration Time (usec): 100000 (USB4C02835)
Spectra Averaged: 1 (USB4C02835)
Boxcar Smoothing: 0 (USB4C02835)
Correct for Electrical Dark: No (USB4C02835)
Strobe/Lamp Enabled: No (USB4C02835)
Correct for Detector Non-linearity: No (USB4C02835)
Correct for Stray Light: No (USB4C02835)
Number of Pixels in Processed Spectrum: 3648
>>>>>Begin Processed Spectral Data<<<<<
177.47	2330.59
177.69	2330.59
177.91	2330.59
178.13	2240.48
178.36	2328.54
178.58	3155.92
178.80	3190.74
179.02	3184.59
179.24	3192.78
179.46	2822.10
179.68	2947.03
179.90	3389.39
180.13	3366.86
180.35	2807.77
180.57	2865.11
180.79	3585.99
181.01	3409.87
181.23	2947.03
181.45	3110.86
181.67	3606.47
181.90	3766.21
182.12	3065.81
182.34	2789.33
182.56	3637.19
182.78	3477.45
183.00	2963.41
183.22	2971.60
183.44	3076.05
183.66	4077.51
183.89	3057.62
184.11	3004.37
184.33	3614.66
184.55	3665.86
184.77	2877.40
184.99	2918.36
185.21	3321.81
185.43	3991.49
185.65	2893.78
185.87	2926.55
186.10	4001.73
186.32	4003.78
186.54	3127.25
186.76	2985.94
186.98	3735.50
187.20	3397.58
187.42	2918.36
187.64	2805.72
187.86	3485.64
188.08	3682.25
188.30	2869.20
188.52	3004.37
188.75	3841.99
188.97	3737.54
189.19	2930.64
189.41	2930.64
189.63	3561.42
189.85	3342.28
190.07	2901.97
190.29	2748.37
190.51	3534.79
190.73	3172.30
190.95	3188.69
191.17	2983.89
191.39	3074.00
191.61	3276.75
191.84	3028.95
192.06	3174.35
192.28	3119.06
192.50	4194.24
192.72	3182.54
192.94	3074.00
193.16	3712.97
193.38	3565.51
193.60	2981.84
193.82	3106.77
194.04	3733.45
194.26	3516.36
194.48	3010.51
194.70	2987.99
194.92	3377.10
195.14	3649.48
195.36	2924.50
195.58	3041.23
195.80	3358.67
196.02	3399.63
196.24	2879.44
196.46	3024.85
196.69	3362.76
196.91	4011.97
197.13	2926.55
197.35	2955.22
197.57	3815.37
197.79	3649.48
198.01	3043.28
198.23	2979.79
198.45	3598.28
198.67	3233.74
198.89	2785.24
199.11	3108.82
199.33	3270.61
199.55	3016.66
199.77	2901.97
199.99	3147.73
200.21	3352.52
200.43	3504.07
200.65	2820.05
200.87	2844.63
201.09	3456.97
201.31	3368.91
201.53	2947.03
201.75	3065.81
201.97	3600.33
202.19	3438.54
202.41	3059.67
202.63	3045.33
202.85	3596.23
203.07	3526.60
203.29	3117.01
203.51	2904.02
203.73	3383.24
203.95	4032.45
204.17	2955.22
204.39	3151.82
204.61	3481.55
204.83	3430.35
205.05	3137.49
205.27	2963.41
205.49	4165.57
205.71	3446.73
205.93	2873.30
206.15	2844.63
206.37	3553.23
206.59	3409.87
206.81	2779.09
207.03	2883.54
207.25	3258.32
207.47	3573.71
207.69	2975.70
207.91	3217.36
208.13	3864.52
208.34	3381.20
208.56	2924.50
208.78	3014.61
209.00	3399.63
209.22	3393.48
209.44	3037.14
209.66	2875.35
209.88	3579.85
210.10	3409.87
210.32	2887.64
210.54	3026.90
210.76	3327.95
210.98	3645.38
211.20	2830.29
211.42	3106.77
211.64	3735.50
211.86	3608.52
212.08	3000.27
212.30	3051.47
212.52	3360.72
212.74	3534.79
212.96	3157.97
213.17	3078.10
213.39	3639.24
213.61	3772.36
213.83	2955.22
214.05	2838.48
214.27	3678.15
214.49	3252.17
214.71	2959.31
214.93	3127.25
215.15	3528.65
215.37	3641.29
215.59	2875.35
215.81	3061.71
216.03	3737.54
216.24	3418.06
216.46	2957.27
216.68	3004.37
216.90	3614.66
217.12	3649.48
217.34	2940.88
217.56	3182.54
217.78	3755.97
218.00	3604.42
218.22	3071.95
218.44	3020.75
218.66	3434.44
218.87	3817.41
219.09	3018.71
219.31	2904.02
219.53	3502.03
219.75	3397.58
219.97	3008.47
220.19	3084.24
220.41	3483.59
220.63	3788.74
220.85	2990.03
221.06	2904.02
221.28	3780.55
221.50	3639.24
221.72	2944.98
221.94	2912.21
222.16	3530.70
222.38	3639.24
222.60	2887.64
222.82	3041.23
223.03	3696.58
223.25	3139.54
223.47	2908.12
223.69	3198.93
223.91	3485.64
224.13	3454.92
224.35	2904.02
224.57	3100.62
224.78	3598.28
225.00	3223.50
225.22	3082.19
225.44	2850.77
225.66	3643.34
225.88	3342.28
226.10	3135.44
226.32	2932.69
226.53	3817.41
226.75	3338.19
226.97	3106.77
227.19	2975.70
227.41	3373.00
227.63	3352.52
227.85	2787.29
228.06	3016.66
228.28	3475.40
228.50	3606.47
228.72	2893.78
228.94	2955.22
229.16	3049.43
229.37	3227.60
229.59	2908.12
229.81	3248.08
230.03	3430.35
230.25	3164.11
230.47	2873.30
230.69	2904.02
230.90	3569.61
231.12	3401.68
231.34	3051.47
231.56	3004.37
231.78	3192.78
232.00	3448.78
232.21	3074.00
232.43	2967.51
232.65	3002.32
232.87	3495.88
233.09	2842.58
233.30	2822.10
233.52	3606.47
233.74	3420.11
233.96	2914.26
234.18	3235.79
234.40	3434.44
234.61	3960.77
234.83	2904.02
235.05	2969.55
235.27	3964.87
235.49	3721.16
235.70	2791.38
235.92	2979.79
236.14	3551.18
236.36	3925.96
236.58	2803.67
236.79	3086.29
237.01	3434.44
237.23	3475.40
237.45	3174.35
237.67	3008.47
237.88	3610.57
238.10	3831.75
238.32	2779.09
238.54	2920.40
238.76	3467.21
238.97	3209.17
239.19	2848.72
239.41	3039.19
239.63	3721.16
239.85	3368.91
240.06	3008.47
240.28	2967.51
240.50	3737.54
240.72	3475.40
240.93	2887.64
241.15	3080.14
241.37	3475.40
241.59	3811.27
241.81	3000.27
242.02	3061.71
242.24	3516.36
242.46	3606.47
242.68	2781.14
242.89	2895.83
243.11	3674.06
243.33	3401.68
243.55	2901.97
243.76	2983.89
243.98	3325.90
244.20	3381.20
244.42	2942.93
244.64	2947.03
244.85	3213.26
245.07	3270.61
245.29	2981.84
245.51	2990.03
245.72	3409.87
245.94	3731.40
246.16	2897.88
246.38	2951.12
246.59	3327.95
246.81	3327.95
247.03	2844.63
247.24	2815.96
247.46	3362.76
247.68	3510.22
247.90	2959.31
248.11	2985.94
248.33	3622.86
248.55	3428.30
248.77	3028.95
248.98	3045.33
249.20	3813.32
249.42	3514.31
249.64	2936.79
249.85	2930.64
250.07	3352.52
250.29	3692.49
250.50	2987.99
250.72	2824.15
250.94	3534.79
251.16	3958.72
251.37	2953.17
251.59	3014.61
251.81	3528.65
252.02	3831.75
252.24	2807.77
252.46	3141.58
252.68	3276.75
252.89	3297.23
253.11	2809.81
253.33	3229.65
253.54	3876.80
253.76	3231.69
253.98	3008.47
254.20	2969.55
254.41	3231.69
254.63	3450.83
254.85	2822.10
255.06	2990.03
255.28	3542.99
255.50	3399.63
255.71	2879.44
255.93	2813.91
256.15	3362.76
256.36	3508.17
256.58	2856.92
256.80	2951.12
257.02	3430.35
257.23	3403.72
257.45	3030.99
257.67	3094.48
257.88	3377.10
258.10	3590.09
258.32	3078.10
258.53	3090.38
258.75	3844.04
258.97	3389.39
259.18	2951.12
259.40	2865.11
259.62	3798.98
259.83	3751.88
260.05	2998.23
260.27	4089.79
260.48	3645.38
260.70	3280.85
260.92	2822.10
261.13	2942.93
261.35	3491.79
261.57	3540.94
261.78	2906.07
262.00	2899.92
262.22	3577.80
262.43	3282.89
262.65	2951.12
262.86	3033.04
263.08	4075.46
263.30	3502.03
263.51	2832.34
263.73	2967.51
263.95	3774.41
264.16	3358.67
264.38	2930.64
264.60	3000.27
264.81	3434.44
265.03	3737.54
265.25	3393.48
265.46	2912.21
265.68	3667.91
265.89	3551.18
266.11	2885.59
266.33	2920.40
266.54	3672.01
266.76	3614.66
266.98	3176.40
267.19	3233.74
267.41	3690.44
267.62	3407.82
267.84	2699.22
268.06	3053.52
268.27	3565.51
268.49	3635.14
268.70	3069.91
268.92	3000.27
269.14	3223.50
269.35	3207.12
269.57	3090.38
269.79	3016.66
270.00	3297.23
270.22	3839.94
270.43	2869.20
270.65	2840.53
270.87	3495.88
271.08	3659.72
271.30	3065.81
271.51	2930.64
271.73	3598.28
271.95	3723.21
272.16	2834.39
272.38	3033.04
272.59	3311.57
272.81	3612.62
273.02	2977.75
273.24	2987.99
273.46	3680.20
273.67	3262.41
273.89	2901.97
274.10	2979.79
274.32	3647.43
274.54	3469.26
274.75	3104.72
274.97	3053.52
275.18	3516.36
275.40	3622.86
275.61	2977.75
275.83	3139.54
276.05	3225.55
276.26	3393.48
276.48	3084.24
276.69	3229.65
276.91	3387.34
277.12	3860.42
277.34	3139.54
277.55	3270.61
277.77	3518.41
277.99	3385.29
278.20	3010.51
278.42	3035.09
278.63	3260.37
278.85	3239.89
279.06	3143.63
279.28	3215.31
279.49	3741.64
279.71	3542.99
279.93	3045.33
280.14	3223.50
280.36	3235.79
280.57	3745.73
280.79	3098.58
281.00	3012.56
281.22	3346.38
281.43	3770.31
281.65	2850.77
281.86	2967.51
282.08	3616.71
282.29	3891.14
282.51	3002.32
282.73	2895.83
282.94	3223.50
283.16	3606.47
283.37	3260.37
283.59	3114.96
283.80	3590.09
284.02	3389.39
284.23	3211.22
284.45	3196.88
284.66	3379.15
284.88	3282.89
285.09	3049.43
285.31	3121.10
285.52	3559.37
285.74	3035.09
285.95	3317.71
286.17	3084.24
286.38	3702.73
286.60	3317.71
286.81	2998.23
287.03	3098.58
287.24	3418.06
287.46	3590.09
287.67	3284.94
287.89	3346.38
288.10	3467.21
288.32	3424.20
288.53	3217.36
288.75	3209.17
288.96	3612.62
289.18	3321.81
289.39	3012.56
289.61	3112.91
289.82	3866.56
290.04	3860.42
290.25	2947.03
290.47	3170.26
290.68	3352.52
290.90	3610.57
291.11	2881.49
291.33	3276.75
291.54	3338.19
291.76	3237.84
291.97	3299.28
292.18	3196.88
292.40	3348.43
292.61	3270.61
292.83	3338.19
293.04	3149.78
293.26	3436.49
293.47	3393.48
293.69	2969.55
293.90	2922.45
294.12	3717.06
294.33	3436.49
294.55	3174.35
294.76	3403.72
294.97	3735.50
295.19	3909.57
295.40	3102.67
295.62	3231.69
295.83	3663.82
296.05	3344.33
296.26	3327.95
296.48	3110.86
296.69	3416.01
296.90	3450.83
297.12	3323.85
297.33	3188.69
297.55	3528.65
297.76	3536.84
297.98	3145.68
298.19	3252.17
298.41	3368.91
298.62	3248.08
298.83	3321.81
299.05	3192.78
299.26	3356.62
299.48	3217.36
299.69	3139.54
299.90	3041.23
300.12	3213.26
300.33	3565.51
300.55	3147.73
300.76	3188.69
300.98	3184.59
301.19	3528.65
301.40	3117.01
301.62	3164.11
301.83	3635.14
302.05	3467.21
302.26	3090.38
302.47	3215.31
302.69	3215.31
302.90	3436.49
303.12	2901.97
303.33	3233.74
303.54	3946.44
303.76	3340.24
303.97	3112.91
304.19	3336.14
304.40	3211.22
304.61	3538.89
304.83	3221.45
305.04	3055.57
305.26	3567.56
305.47	3313.61
305.68	3133.39
305.90	3000.27
306.11	3631.05
306.33	3436.49
306.54	2957.27
306.75	3065.81
306.97	3100.62
307.18	3178.45
307.39	3104.72
307.61	3139.54
307.82	3317.71
308.04	3508.17
308.25	2990.03
308.46	3258.32
308.68	3426.25
308.89	3450.83
309.10	3176.40
309.32	3020.75
309.53	3469.26
309.74	3575.75
309.96	2983.89
310.17	3106.77
310.39	3379.15
310.60	3553.23
310.81	3149.78
311.03	3041.23
311.24	3577.80
311.45	3436.49
311.67	3334.09
311.88	3229.65
312.09	3350.48
312.31	3282.89
312.52	3035.09
312.73	3014.61
312.95	3291.09
313.16	3188.69
313.37	3188.69
313.59	3286.99
313.80	3624.90
314.01	3704.78
314.23	3071.95
314.44	3037.14
314.65	3166.16
314.87	3323.85
315.08	3024.85
315.29	3043.28
315.51	3241.93
315.72	3153.87
315.93	3160.02
316.15	3155.92
316.36	3364.81
316.57	3569.61
316.79	3131.34
317.00	3074.00
317.21	3641.29
317.43	3180.50
317.64	3074.00
317.85	3018.71
318.07	3315.66
318.28	3368.91
318.49	3221.45
318.70	3270.61
318.92	3475.40
319.13	3463.12
319.34	3237.84
319.56	3026.90
319.77	3461.07
319.98	3557.32
320.20	3434.44
320.41	3286.99
320.62	3553.23
320.83	3239.89
321.05	3293.13
321.26	3155.92
321.47	3516.36
321.69	3669.96
321.90	3180.50
322.11	3076.05
322.32	3465.16
322.54	3766.21
322.75	3135.44
322.96	4110.27
323.18	3149.78
323.39	3043.28
323.60	2985.94
323.81	3188.69
324.03	3352.52
324.24	3405.77
324.45	3241.93
324.66	2963.41
324.88	3678.15
325.09	3807.17
325.30	3106.77
325.52	2957.27
325.73	3557.32
325.94	3209.17
326.15	2885.59
326.37	2951.12
326.58	3708.87
326.79	3856.33
327.00	3123.15
327.22	3061.71
327.43	3346.38
327.64	3207.12
327.85	3225.55
328.07	3155.92
328.28	3885.00
328.49	3444.68
328.70	3051.47
328.92	3100.62
329.13	3481.55
329.34	3588.04
329.55	3358.67
329.76	3315.66
329.98	3424.20
330.19	3762.12
330.40	3123.15
330.61	3209.17
330.83	3608.52
331.04	3233.74
331.25	3262.41
331.46	3139.54
331.68	3252.17
331.89	3647.43
332.10	3221.45
332.31	2854.87
332.52	3440.59
332.74	3737.54
332.95	3028.95
333.16	3067.86
333.37	3626.95
333.58	3344.33
333.80	3104.72
334.01	2869.20
334.22	3442.64
334.43	3295.18
334.64	2975.70
334.86	3074.00
335.07	3289.04
335.28	3821.51
335.49	3012.56
335.70	3196.88
335.92	3780.55
336.13	3993.54
336.34	3041.23
336.55	3035.09
336.76	3553.23
336.98	3004.37
337.19	3074.00
337.40	3155.92
337.61	3958.72
337.82	3323.85
338.04	3119.06
338.25	2967.51
338.46	3459.02
338.67	3364.81
338.88	2965.46
339.09	2996.18
339.31	3360.72
339.52	3147.73
339.73	3020.75
339.94	3194.83
340.15	3532.75
340.36	3381.20
340.58	3131.34
340.79	3010.51
341.00	3485.64
341.21	3223.50
341.42	3387.34
341.63	3164.11
341.85	3602.38
342.06	3530.70
342.27	3063.76
342.48	3211.22
342.69	3096.53
342.90	3477.45
343.12	3540.94
343.33	3010.51
343.54	3629.00
343.75	3827.65
343.96	3190.74
344.17	2992.08
344.38	3362.76
344.60	3155.92
344.81	3088.34
345.02	3106.77
345.23	3747.78
345.44	3971.01
345.65	3084.24
345.86	3219.41
346.07	3518.41
346.29	3248.08
346.50	3262.41
346.71	3160.02
346.92	3790.79
347.13	3811.27
347.34	3209.17
347.55	2983.89
347.76	3504.07
347.98	3094.48
348.19	3155.92
348.40	3336.14
348.61	3364.81
348.82	3649.48
349.03	3168.21
349.24	2994.13
349.45	3835.85
349.66	3028.95
349.88	3051.47
350.09	2994.13
350.30	3762.12
350.51	3674.06
350.72	3348.43
350.93	3061.71
351.14	3313.61
351.35	3590.09
351.56	3141.58
351.77	3149.78
351.99	3567.56
352.20	3733.45
352.41	3196.88
352.62	2926.55
352.83	3422.16
353.04	3483.59
353.25	3041.23
353.46	3131.34
353.67	3706.82
353.88	3065.81
354.09	2975.70
354.30	3174.35
354.52	3516.36
354.73	3393.48
354.94	3016.66
355.15	3106.77
355.36	3940.29
355.57	3278.80
355.78	2981.84
355.99	3084.24
356.20	3436.49
356.41	3723.21
356.62	3164.11
356.83	3149.78
357.04	3698.63
357.25	3063.76
357.46	3110.86
357.68	2953.17
357.89	3338.19
358.10	3424.20
358.31	3106.77
358.52	3180.50
358.73	3155.92
358.94	3143.63
359.15	3076.05
359.36	3125.20
359.57	3403.72
359.78	3405.77
359.99	3246.03
360.20	2969.55
360.41	3346.38
360.62	3626.95
360.83	3209.17
361.04	3168.21
361.25	3512.27
361.46	3764.17
361.67	3225.55
361.88	3133.39
362.09	3626.95
362.30	3508.17
362.51	3053.52
362.72	3127.25
362.93	3545.03
363.14	3614.66
363.35	3301.33
363.56	3028.95
363.78	3708.87
363.99	3631.05
364.20	3090.38
364.41	3090.38
364.62	3831.75
364.83	3459.02
365.04	3096.53
365.25	3131.34
365.46	3944.39
365.67	3334.09
365.88	3258.32
366.09	3108.82
366.30	3366.86
366.51	3418.06
366.72	3049.43
366.93	3090.38
367.14	3467.21
367.35	3721.16
367.56	3006.42
367.77	3209.17
367.98	3549.13
368.18	3606.47
368.39	3229.65
368.60	3082.19
368.81	3682.25
369.02	3565.51
369.23	3041.23
369.44	2938.84
369.65	3360.72
369.86	3491.79
370.07	3213.26
370.28	2992.08
370.49	3467.21
370.70	3522.51
370.91	3010.51
371.12	2961.36
371.33	3723.21
371.54	3317.71
371.75	3178.45
371.96	2848.72
372.17	3471.31
372.38	3377.10
372.59	3100.62
372.80	3063.76
373.01	3403.72
373.22	3545.03
373.43	3149.78
373.64	2942.93
373.85	3708.87
374.06	3839.94
374.26	3330.00
374.47	3198.93
374.68	3682.25
374.89	3532.75
375.10	3071.95
375.31	3194.83
375.52	3450.83
375.73	3467.21
375.94	2967.51
376.15	3176.40
376.36	3315.66
376.57	3385.29
376.78	3157.97
376.99	3092.43
377.20	3692.49
377.40	3270.61
377.61	3399.63
377.82	3084.24
378.03	3813.32
378.24	3557.32
378.45	3184.59
378.66	3207.12
378.87	3104.72
379.08	3186.64
379.29	3047.38
379.50	3276.75
379.71	3387.34
379.91	3672.01
380.12	3063.76
380.33	3213.26
380.54	3387.34
380.75	3383.24
380.96	3157.97
381.17	3162.06
381.38	3399.63
381.59	3532.75
381.80	3147.73
382.00	3352.52
382.21	3375.05
382.42	3819.46
382.63	3495.88
382.84	3307.47
383.05	3641.29
383.26	3733.45
383.47	3311.57
383.68	3004.37
383.88	3567.56
384.09	3497.93
384.30	3418.06
384.51	3211.22
384.72	3418.06
384.93	3170.26
385.14	3237.84
385.35	3385.29
385.55	3127.25
385.76	3704.78
385.97	3102.67
386.18	3043.28
386.39	3233.74
386.60	3387.34
386.81	3092.43
387.02	2987.99
387.22	3119.06
387.43	3540.94
387.64	3166.16
387.85	3336.14
388.06	3450.83
388.27	4349.89
388.48	7276.43
388.68	10811.23
388.89	13666.10
389.10	14808.86
389.31	14284.58
389.52	11532.11
389.73	10211.17
389.93	9471.86
390.14	8431.49
390.35	7804.81
390.56	7307.15
390.77	6279.07
390.98	4769.72
391.18	4087.75
391.39	3944.39
391.60	3450.83
391.81	3377.10
392.02	3186.64
392.23	4007.87
392.43	3528.65
392.64	3166.16
392.85	3209.17
393.06	3786.69
393.27	3459.02
393.47	3164.11
393.68	3280.85
393.89	3375.05
394.10	3811.27
394.31	3143.63
394.52	3055.57
394.72	3307.47
394.93	3725.26
395.14	3090.38
395.35	3213.26
395.56	3375.05
395.76	3334.09
395.97	3123.15
396.18	3221.45
396.39	3483.59
396.60	4020.16
396.80	3567.56
397.01	3373.00
397.22	3485.64
397.43	3655.62
397.64	3080.14
397.84	3190.74
398.05	3821.51
398.26	3403.72
398.47	3284.94
398.67	3411.92
398.88	3471.31
399.09	3643.34
399.30	3088.34
399.51	3149.78
399.71	3272.65
399.92	3465.16
400.13	3239.89
400.34	3190.74
400.54	3461.07
400.75	3841.99
400.96	3270.61
401.17	3487.69
401.37	3430.35
401.58	3330.00
401.79	3129.30
402.00	3221.45
402.21	4026.31
402.41	3645.38
402.62	3356.62
402.83	3485.64
403.04	3831.75
403.24	4190.14
403.45	3332.05
403.66	3385.29
403.87	3573.71
404.07	3762.12
404.28	3364.81
404.49	3487.69
404.70	3512.27
404.90	3561.42
405.11	3127.25
405.32	3246.03
405.52	3299.28
405.73	3297.23
405.94	3041.23
406.15	3241.93
406.35	3534.79
406.56	3577.80
406.77	3200.98
406.98	3213.26
407.18	3274.70
407.39	3796.93
407.60	3096.53
407.80	3262.41
408.01	3317.71
408.22	3657.67
408.43	3078.10
408.63	3260.37
408.84	3641.29
409.05	3626.95
409.25	3110.86
409.46	3192.78
409.67	3332.05
409.88	3305.42
410.08	3147.73
410.29	3082.19
410.50	3649.48
410.70	3581.90
410.91	3057.62
411.12	3256.27
411.32	3393.48
411.53	3166.16
411.74	3106.77
411.95	3196.88
412.15	3459.02
412.36	3577.80
412.57	3297.23
412.77	3350.48
412.98	3442.64
413.19	3344.33
413.39	3198.93
413.60	3157.97
413.81	3768.26
414.01	3153.87
414.22	3131.34
414.43	3356.62
414.63	3321.81
414.84	3614.66
415.05	3151.82
415.25	2944.98
415.46	3669.96
415.67	3264.46
415.87	3149.78
416.08	3129.30
416.29	3325.90
416.49	3520.46
416.70	3229.65
416.91	3117.01
417.11	3327.95
417.32	3749.83
417.53	3231.69
417.73	3258.32
417.94	3409.87
418.15	3459.02
418.35	3260.37
418.56	3184.59
418.77	3979.20
418.97	3450.83
419.18	3264.46
419.38	2893.78
419.59	3481.55
419.80	3839.94
420.00	3114.96
420.21	3147.73
420.42	3747.78
420.62	3542.99
420.83	3135.44
421.04	3069.91
421.24	3454.92
421.45	3637.19
421.65	3246.03
421.86	3176.40
422.07	3635.14
422.27	3608.52
422.48	3037.14
422.69	2942.93
422.89	3450.83
423.10	3403.72
423.30	3184.59
423.51	3227.60
423.72	3555.27
423.92	3549.13
424.13	3098.58
424.33	3268.56
424.54	3549.13
424.75	3540.94
424.95	3456.97
425.16	3098.58
425.36	3407.82
425.57	3663.82
425.78	3338.19
425.98	3239.89
426.19	3448.78
426.39	3207.12
426.60	3246.03
426.81	3303.37
427.01	3553.23
427.22	3239.89
427.42	2957.27
427.63	3135.44
427.83	3686.34
428.04	3786.69
428.25	3207.12
428.45	3213.26
428.66	3682.25
428.86	3403.72
429.07	3246.03
429.28	3186.64
429.48	3360.72
429.69	3250.13
429.89	3264.46
430.10	3129.30
430.30	3600.33
430.51	3655.62
430.71	3051.47
430.92	3289.04
431.13	3311.57
431.33	3635.14
431.54	3190.74
431.74	3334.09
431.95	3964.87
432.15	3184.59
432.36	3098.58
432.56	3229.65
432.77	3854.28
432.98	3729.35
433.18	3239.89
433.39	3006.42
433.59	3481.55
433.80	3928.00
434.00	3303.37
434.21	3307.47
434.41	3278.80
434.62	3852.23
434.82	3010.51
435.03	3125.20
435.23	3538.89
435.44	3065.81
435.64	3170.26
435.85	3198.93
436.06	3557.32
436.26	3663.82
436.47	3194.83
436.67	3016.66
436.88	3379.15
437.08	3686.34
437.29	3293.13
437.49	3313.61
437.70	3712.97
437.90	3305.42
438.11	3471.31
438.31	3254.22
438.52	3655.62
438.72	3635.14
438.93	3491.79
439.13	3254.22
439.34	3667.91
439.54	3342.28
439.75	3293.13
439.95	3207.12
440.16	3311.57
440.36	3395.53
440.57	3168.21
440.77	3155.92
440.98	3506.12
441.18	3577.80
441.39	3098.58
441.59	3008.47
441.80	4030.40
442.00	3467.21
442.21	3276.75
442.41	2969.55
442.62	3635.14
442.82	3289.04
443.02	3147.73
443.23	3188.69
443.43	3401.68
443.64	3678.15
443.84	3022.80
444.05	3258.32
444.25	3465.16
444.46	3327.95
444.66	3157.97
444.87	3426.25
445.07	3114.96
445.28	3375.05
445.48	3377.10
445.69	3221.45
445.89	4009.92
446.09	3407.82
446.30	3459.02
446.50	3561.42
446.71	5011.38
446.91	6061.99
447.12	6807.45
447.32	7251.86
447.53	7290.77
447.73	6051.75
447.93	5281.71
448.14	5259.18
448.34	5408.69
448.55	4497.34
448.75	4466.62
448.96	4155.33
449.16	4149.18
449.36	4003.78
449.57	3442.64
449.77	3250.13
449.98	3354.57
450.18	3590.09
450.39	3112.91
450.59	3373.00
450.79	3375.05
451.00	3332.05
451.20	3356.62
451.41	3131.34
451.61	3616.71
451.81	3413.96
452.02	3106.77
452.22	3237.84
452.43	3389.39
