SpectraSuite Data File
++++++++++++++++++++++++++++++++++++
Date: Fri May 06 09:29:12 CEST 2016
User: root
Dark Spectrum Present: No
Reference Spectrum Present: No
Number of Sampled Component Spectra: 1
Spectrometers: USB4C02835
Integration Time (usec): 100000 (USB4C02835)
Spectra Averaged: 1 (USB4C02835)
Boxcar Smoothing: 0 (USB4C02835)
Correct for Electrical Dark: No (USB4C02835)
Strobe/Lamp Enabled: No (USB4C02835)
Correct for Detector Non-linearity: No (USB4C02835)
Correct for Stray Light: No (USB4C02835)
Number of Pixels in Processed Spectrum: 3648
>>>>>Begin Processed Spectral Data<<<<<
177.47	2340.83
177.69	2340.83
177.91	2340.83
178.13	2359.26
178.36	2324.44
178.58	3157.97
178.80	3264.46
179.02	3155.92
179.24	3250.13
179.46	2867.16
179.68	2932.69
179.90	3350.48
180.13	3426.25
180.35	2795.48
180.57	2918.36
180.79	3581.90
181.01	3428.30
181.23	2953.17
181.45	3162.06
181.67	3598.28
181.90	3602.38
182.12	3026.90
182.34	2803.67
182.56	3602.38
182.78	3520.46
183.00	2936.79
183.22	3039.19
183.44	3078.10
183.66	4204.48
183.89	3053.52
184.11	2934.74
184.33	3588.04
184.55	3651.53
184.77	2873.30
184.99	2987.99
185.21	3262.41
185.43	3983.30
185.65	2975.70
185.87	2961.36
186.10	4075.46
186.32	4042.69
186.54	3041.23
186.76	3098.58
186.98	3723.21
187.20	3436.49
187.42	3018.71
187.64	2885.59
187.86	3555.27
188.08	3710.92
188.30	2822.10
188.52	2975.70
188.75	3676.10
188.97	3764.17
189.19	2949.08
189.41	2852.82
189.63	3610.57
189.85	3348.43
190.07	2805.72
190.29	2777.05
190.51	3555.27
190.73	3153.87
190.95	3205.07
191.17	3030.99
191.39	3117.01
191.61	3444.68
191.84	2887.64
192.06	3172.30
192.28	3117.01
192.50	4206.53
192.72	3098.58
192.94	3043.28
193.16	3727.30
193.38	3549.13
193.60	2897.88
193.82	3200.98
194.04	3631.05
194.26	3573.71
194.48	2944.98
194.70	2967.51
194.92	3342.28
195.14	3547.08
195.36	2928.60
195.58	3100.62
195.80	3442.64
196.02	3229.65
196.24	2914.26
196.46	3098.58
196.69	3381.20
196.91	3989.44
197.13	3045.33
197.35	2961.36
197.57	3772.36
197.79	3655.62
198.01	2987.99
198.23	3022.80
198.45	3506.12
198.67	3174.35
198.89	2822.10
199.11	3102.67
199.33	3243.98
199.55	2969.55
199.77	2942.93
199.99	3102.67
200.21	3327.95
200.43	3600.33
200.65	2848.72
200.87	2820.05
201.09	3542.99
201.31	3471.31
201.53	2904.02
201.75	3078.10
201.97	3456.97
202.19	3508.17
202.41	3112.91
202.63	3086.29
202.85	3663.82
203.07	3512.27
203.29	3043.28
203.51	2920.40
203.73	3405.77
203.95	4016.07
204.17	2930.64
204.39	3123.15
204.61	3418.06
204.83	3272.65
205.05	3205.07
205.27	2904.02
205.49	4179.90
205.71	3491.79
205.93	2797.53
206.15	2813.91
206.37	3512.27
206.59	3383.24
206.81	2779.09
207.03	2820.05
207.25	3278.80
207.47	3600.33
207.69	2992.08
207.91	3256.27
208.13	3835.85
208.34	3305.42
208.56	2908.12
208.78	2981.84
209.00	3418.06
209.22	3430.35
209.44	2961.36
209.66	2936.79
209.88	3499.98
210.10	3416.01
210.32	2940.88
210.54	3078.10
210.76	3401.68
210.98	3751.88
211.20	2783.19
211.42	2983.89
211.64	3792.84
211.86	3549.13
212.08	3069.91
212.30	2936.79
212.52	3440.59
212.74	3508.17
212.96	3104.72
213.17	3002.32
213.39	3602.38
213.61	3821.51
213.83	2901.97
214.05	2922.45
214.27	3581.90
214.49	3262.41
214.71	2926.55
214.93	3049.43
215.15	3473.36
215.37	3774.41
215.59	2863.06
215.81	3024.85
216.03	3735.50
216.24	3430.35
216.46	2942.93
216.68	3033.04
216.90	3588.04
217.12	3649.48
217.34	2992.08
217.56	3186.64
217.78	3788.74
218.00	3549.13
218.22	3098.58
218.44	3074.00
218.66	3487.69
218.87	3928.00
219.09	3004.37
219.31	2992.08
219.53	3542.99
219.75	3360.72
219.97	2957.27
220.19	2949.08
220.41	3495.88
220.63	3821.51
220.85	3016.66
221.06	2987.99
221.28	3813.32
221.50	3561.42
221.72	2985.94
221.94	2811.86
222.16	3489.74
222.38	3778.50
222.60	2879.44
222.82	3000.27
223.03	3682.25
223.25	3266.51
223.47	2912.21
223.69	3233.74
223.91	3620.81
224.13	3532.75
224.35	2869.20
224.57	3147.73
224.78	3604.42
225.00	3225.55
225.22	3108.82
225.44	2926.55
225.66	3688.39
225.88	3229.65
226.10	3090.38
226.32	3002.32
226.53	3770.31
226.75	3360.72
226.97	3016.66
227.19	3008.47
227.41	3291.09
227.63	3454.92
227.85	2797.53
228.06	2975.70
228.28	3585.99
228.50	3577.80
228.72	2789.33
228.94	2914.26
229.16	3082.19
229.37	3221.45
229.59	2783.19
229.81	3221.45
230.03	3360.72
230.25	3182.54
230.47	2820.05
230.69	2992.08
230.90	3678.15
231.12	3254.22
231.34	3092.43
231.56	3110.86
231.78	3160.02
232.00	3442.64
232.21	2987.99
232.43	3008.47
232.65	2928.60
232.87	3592.14
233.09	2801.62
233.30	2930.64
233.52	3710.92
233.74	3446.73
233.96	2944.98
234.18	3131.34
234.40	3338.19
234.61	3966.92
234.83	2830.29
235.05	2971.60
235.27	4110.27
235.49	3655.62
235.70	2820.05
235.92	3047.38
236.14	3592.14
236.36	4044.74
236.58	2836.44
236.79	3067.86
237.01	3397.58
237.23	3405.77
237.45	3172.30
237.67	3012.56
237.88	3573.71
238.10	3928.00
238.32	2916.31
238.54	2836.44
238.76	3430.35
238.97	3223.50
239.19	2848.72
239.41	3010.51
239.63	3725.26
239.85	3327.95
240.06	3041.23
240.28	3022.80
240.50	3647.43
240.72	3420.11
240.93	2836.44
241.15	3178.45
241.37	3485.64
241.59	3780.55
241.81	2983.89
242.02	3045.33
242.24	3573.71
242.46	3629.00
242.68	2846.68
242.89	2891.73
243.11	3631.05
243.33	3506.12
243.55	2985.94
243.76	2965.46
243.98	3352.52
244.20	3452.88
244.42	2992.08
244.64	2887.64
244.85	3080.14
245.07	3237.84
245.29	2975.70
245.51	3012.56
245.72	3508.17
245.94	3721.16
246.16	2936.79
246.38	3014.61
246.59	3430.35
246.81	3307.47
247.03	2908.12
247.24	2836.44
247.46	3352.52
247.68	3373.00
247.90	2893.78
248.11	2973.65
248.33	3585.99
248.55	3487.69
248.77	3045.33
248.98	3041.23
249.20	3837.89
249.42	3510.22
249.64	2910.16
249.85	2893.78
250.07	3340.24
250.29	3561.42
250.50	3065.81
250.72	2879.44
250.94	3549.13
251.16	4026.31
251.37	2947.03
251.59	3010.51
251.81	3596.23
252.02	3792.84
252.24	2887.64
252.46	3119.06
252.68	3291.09
252.89	3327.95
253.11	2717.65
253.33	3147.73
253.54	3780.55
253.76	3151.82
253.98	2942.93
254.20	2914.26
254.41	3176.40
254.63	3385.29
254.85	2818.00
255.06	3076.05
255.28	3534.79
255.50	3373.00
255.71	2881.49
255.93	2805.72
256.15	3471.31
256.36	3594.19
256.58	2840.53
256.80	2844.63
257.02	3446.73
257.23	3401.68
257.45	3112.91
257.67	3065.81
257.88	3362.76
258.10	3555.27
258.32	2942.93
258.53	3033.04
258.75	3841.99
258.97	3262.41
259.18	2922.45
259.40	2942.93
259.62	3864.52
259.83	3770.31
260.05	2967.51
260.27	4001.73
260.48	3661.77
260.70	3225.55
260.92	2820.05
261.13	3028.95
261.35	3508.17
261.57	3532.75
261.78	2863.06
262.00	3020.75
262.22	3592.14
262.43	3286.99
262.65	2922.45
262.86	2994.13
263.08	4059.07
263.30	3426.25
263.51	2828.24
263.73	2928.60
263.95	3825.61
264.16	3248.08
264.38	2811.86
264.60	2961.36
264.81	3459.02
265.03	3749.83
265.25	3508.17
265.46	2942.93
265.68	3651.53
265.89	3694.54
266.11	2815.96
266.33	2930.64
266.54	3706.82
266.76	3606.47
266.98	3102.67
267.19	3172.30
267.41	3665.86
267.62	3352.52
267.84	2742.23
268.06	3076.05
268.27	3534.79
268.49	3635.14
268.70	2975.70
268.92	2899.92
269.14	3278.80
269.35	3135.44
269.57	3037.14
269.79	3041.23
270.00	3332.05
270.22	3846.09
270.43	2873.30
270.65	2861.01
270.87	3444.68
271.08	3565.51
271.30	3092.43
271.51	2854.87
271.73	3604.42
271.95	3815.37
272.16	2961.36
272.38	3067.86
272.59	3307.47
272.81	3553.23
273.02	2934.74
273.24	2975.70
273.46	3672.01
273.67	3166.16
273.89	2838.48
274.10	2996.18
274.32	3772.36
274.54	3440.59
274.75	3043.28
274.97	3039.19
275.18	3557.32
275.40	3614.66
275.61	2992.08
275.83	3100.62
276.05	3200.98
276.26	3426.25
276.48	3049.43
276.69	3114.96
276.91	3409.87
277.12	3864.52
277.34	3123.15
277.55	3178.45
277.77	3524.55
277.99	3375.05
278.20	3098.58
278.42	2918.36
278.63	3286.99
278.85	3254.22
279.06	3086.29
279.28	3110.86
279.49	3717.06
279.71	3559.37
279.93	3123.15
280.14	3123.15
280.36	3248.08
280.57	3680.20
280.79	3127.25
281.00	2969.55
281.22	3377.10
281.43	3600.33
281.65	2844.63
281.86	3041.23
282.08	3493.83
282.29	3911.62
282.51	2992.08
282.73	2994.13
282.94	3082.19
283.16	3614.66
283.37	3147.73
283.59	3110.86
283.80	3575.75
284.02	3401.68
284.23	3162.06
284.45	3153.87
284.66	3278.80
284.88	3305.42
285.09	3061.71
285.31	3172.30
285.52	3495.88
285.74	3114.96
285.95	3321.81
286.17	3166.16
286.38	3747.78
286.60	3295.18
286.81	3065.81
287.03	3086.29
287.24	3440.59
287.46	3583.95
287.67	3270.61
287.89	3289.04
288.10	3436.49
288.32	3420.11
288.53	3229.65
288.75	3182.54
288.96	3588.04
289.18	3360.72
289.39	3102.67
289.61	3176.40
289.82	3958.72
290.04	3901.38
290.25	2983.89
290.47	3227.60
290.68	3405.77
290.90	3659.72
291.11	2914.26
291.33	3311.57
291.54	3286.99
291.76	3231.69
291.97	3205.07
292.18	3256.27
292.40	3450.83
292.61	3303.37
292.83	3362.76
293.04	3063.76
293.26	3442.64
293.47	3377.10
293.69	3088.34
293.90	2979.79
294.12	3749.83
294.33	3299.28
294.55	3211.22
294.76	3301.33
294.97	3755.97
295.19	3983.30
295.40	3176.40
295.62	3092.43
295.83	3624.90
296.05	3289.04
296.26	3411.92
296.48	3043.28
296.69	3452.88
296.90	3434.44
297.12	3237.84
297.33	3178.45
297.55	3461.07
297.76	3581.90
297.98	3180.50
298.19	3346.38
298.41	3438.54
298.62	3219.41
298.83	3315.66
299.05	3248.08
299.26	3373.00
299.48	3289.04
299.69	3205.07
299.90	2973.65
300.12	3205.07
300.33	3651.53
300.55	3153.87
300.76	3133.39
300.98	3209.17
301.19	3629.00
301.40	3110.86
301.62	3065.81
301.83	3532.75
302.05	3545.03
302.26	3024.85
302.47	3168.21
302.69	3243.98
302.90	3469.26
303.12	2895.83
303.33	3229.65
303.54	3839.94
303.76	3319.76
303.97	3043.28
304.19	3262.41
304.40	3205.07
304.61	3610.57
304.83	3149.78
305.04	3184.59
305.26	3635.14
305.47	3348.43
305.68	3084.24
305.90	3010.51
306.11	3710.92
306.33	3508.17
306.54	2881.49
306.75	3098.58
306.97	3061.71
307.18	3237.84
307.39	3045.33
307.61	3260.37
307.82	3377.10
308.04	3614.66
308.25	2961.36
308.46	3211.22
308.68	3452.88
308.89	3499.98
309.10	3252.17
309.32	3147.73
309.53	3465.16
309.74	3596.23
309.96	3010.51
310.17	3217.36
310.39	3409.87
310.60	3502.03
310.81	3065.81
311.03	3059.67
311.24	3659.72
311.45	3418.06
311.67	3332.05
311.88	3241.93
312.09	3403.72
312.31	3348.43
312.52	3071.95
312.73	2963.41
312.95	3139.54
313.16	3184.59
313.37	3250.13
313.59	3299.28
313.80	3598.28
314.01	3819.46
314.23	3117.01
314.44	3004.37
314.65	3188.69
314.87	3254.22
315.08	3088.34
315.29	3114.96
315.51	3270.61
315.72	3084.24
315.93	3176.40
316.15	3084.24
316.36	3311.57
316.57	3454.92
316.79	3078.10
317.00	3010.51
317.21	3532.75
317.43	3262.41
317.64	3082.19
317.85	2940.88
318.07	3321.81
318.28	3348.43
318.49	3178.45
318.70	3309.52
318.92	3454.92
319.13	3508.17
319.34	3256.27
319.56	3065.81
319.77	3610.57
319.98	3600.33
320.20	3422.16
320.41	3272.65
320.62	3510.22
320.83	3184.59
321.05	3256.27
321.26	3172.30
321.47	3471.31
321.69	3686.34
321.90	3039.19
322.11	3037.14
322.32	3456.97
322.54	3813.32
322.75	3180.50
322.96	4229.06
323.18	3141.58
323.39	3084.24
323.60	2965.46
323.81	3182.54
324.03	3319.76
324.24	3481.55
324.45	3274.70
324.66	3045.33
324.88	3774.41
325.09	3835.85
325.30	3135.44
325.52	3067.86
325.73	3561.42
325.94	3237.84
326.15	3055.57
326.37	2975.70
326.58	3569.61
326.79	3844.04
327.00	3008.47
327.22	3096.53
327.43	3434.44
327.64	3286.99
327.85	3209.17
328.07	3078.10
328.28	3786.69
328.49	3405.77
328.70	3145.68
328.92	3172.30
329.13	3403.72
329.34	3674.06
329.55	3332.05
329.76	3299.28
329.98	3346.38
330.19	3696.58
330.40	3243.98
330.61	3264.46
330.83	3665.86
331.04	3262.41
331.25	3125.20
331.46	3192.78
331.68	3209.17
331.89	3639.24
332.10	3098.58
332.31	3035.09
332.52	3401.68
332.74	3696.58
332.95	2969.55
333.16	3071.95
333.37	3592.14
333.58	3354.57
333.80	3123.15
334.01	2936.79
334.22	3397.58
334.43	3305.42
334.64	3063.76
334.86	3033.04
335.07	3174.35
335.28	3751.88
335.49	2983.89
335.70	3223.50
335.92	3751.88
336.13	3948.48
336.34	3098.58
336.55	3082.19
336.76	3540.94
336.98	3014.61
337.19	3094.48
337.40	3221.45
337.61	3956.68
337.82	3399.63
338.04	3219.41
338.25	2947.03
338.46	3420.11
338.67	3424.20
338.88	2910.16
339.09	2981.84
339.31	3327.95
339.52	3153.87
339.73	3051.47
339.94	3205.07
340.15	3604.42
340.36	3381.20
340.58	3151.82
340.79	3037.14
341.00	3567.56
341.21	3143.63
341.42	3358.67
341.63	3108.82
341.85	3725.26
342.06	3473.36
342.27	3016.66
342.48	3274.70
342.69	3157.97
342.90	3614.66
343.12	3502.03
343.33	2998.23
343.54	3674.06
343.75	3772.36
343.96	3239.89
344.17	3033.04
344.38	3373.00
344.60	3237.84
344.81	3024.85
345.02	3078.10
345.23	3647.43
345.44	4024.26
345.65	3209.17
345.86	3166.16
346.07	3508.17
346.29	3289.04
346.50	3295.18
346.71	3153.87
346.92	3721.16
347.13	3966.92
347.34	3225.55
347.55	2912.21
347.76	3569.61
347.98	3157.97
348.19	3076.05
348.40	3289.04
348.61	3297.23
348.82	3774.41
349.03	3184.59
349.24	2971.60
349.45	3862.47
349.66	3028.95
349.88	3053.52
350.09	3002.32
350.30	3782.60
350.51	3680.20
350.72	3319.76
350.93	3147.73
351.14	3383.24
351.35	3502.03
351.56	3088.34
351.77	3104.72
351.99	3514.31
352.20	3815.37
352.41	3190.74
352.62	2912.21
352.83	3432.40
353.04	3332.05
353.25	3114.96
353.46	3178.45
353.67	3788.74
353.88	3022.80
354.09	3063.76
354.30	3147.73
354.52	3551.18
354.73	3411.92
354.94	3000.27
355.15	3270.61
355.36	3942.34
355.57	3262.41
355.78	3047.38
355.99	3108.82
356.20	3495.88
356.41	3725.26
356.62	3123.15
356.83	3203.02
357.04	3766.21
357.25	3086.29
357.46	3061.71
357.68	2928.60
357.89	3262.41
358.10	3397.58
358.31	3071.95
358.52	3147.73
358.73	3217.36
358.94	3213.26
359.15	3155.92
359.36	3053.52
359.57	3493.83
359.78	3293.13
359.99	3237.84
360.20	2983.89
360.41	3426.25
360.62	3588.04
360.83	3264.46
361.04	3145.68
361.25	3659.72
361.46	3807.17
361.67	3221.45
361.88	3123.15
362.09	3629.00
362.30	3524.55
362.51	3020.75
362.72	3184.59
362.93	3614.66
363.14	3485.64
363.35	3223.50
363.56	3110.86
363.78	3651.53
363.99	3672.01
364.20	3135.44
364.41	3196.88
364.62	3852.23
364.83	3545.03
365.04	3082.19
365.25	3135.44
365.46	3870.66
365.67	3250.13
365.88	3258.32
366.09	3061.71
366.30	3381.20
366.51	3518.41
366.72	3059.67
366.93	3094.48
367.14	3493.83
367.35	3725.26
367.56	3041.23
367.77	3231.69
367.98	3499.98
368.18	3493.83
368.39	3319.76
368.60	3051.47
368.81	3647.43
369.02	3520.46
369.23	3067.86
369.44	2955.22
369.65	3395.53
369.86	3524.55
370.07	3184.59
370.28	3012.56
370.49	3534.79
370.70	3456.97
370.91	2963.41
371.12	3063.76
371.33	3604.42
371.54	3286.99
371.75	3213.26
371.96	2926.55
372.17	3528.65
372.38	3330.00
372.59	3125.20
372.80	3086.29
373.01	3377.10
373.22	3461.07
373.43	3053.52
373.64	3020.75
373.85	3753.93
374.06	3821.51
374.26	3334.09
374.47	3276.75
374.68	3737.54
374.89	3499.98
375.10	3035.09
375.31	3256.27
375.52	3483.59
375.73	3413.96
375.94	2947.03
376.15	3207.12
376.36	3237.84
376.57	3360.72
376.78	3106.77
376.99	3213.26
377.20	3712.97
377.40	3362.76
377.61	3383.24
377.82	3121.10
378.03	3735.50
378.24	3553.23
378.45	3270.61
378.66	3164.11
378.87	3106.77
379.08	3131.34
379.29	3094.48
379.50	3211.22
379.71	3416.01
379.91	3606.47
380.12	3053.52
380.33	3217.36
380.54	3389.39
380.75	3405.77
380.96	3131.34
381.17	3141.58
381.38	3540.94
381.59	3483.59
381.80	3143.63
382.00	3319.76
382.21	3385.29
382.42	3893.19
382.63	3450.83
382.84	3325.90
383.05	3592.14
383.26	3792.84
383.47	3254.22
383.68	2987.99
383.88	3573.71
384.09	3436.49
384.30	3342.28
384.51	3215.31
384.72	3426.25
384.93	3215.31
385.14	3237.84
385.35	3475.40
385.55	3149.78
385.76	3731.40
385.97	3137.49
386.18	2975.70
386.39	3174.35
386.60	3309.52
386.81	3114.96
387.02	2996.18
387.22	3147.73
387.43	3516.36
387.64	3194.83
387.85	3391.44
388.06	3397.58
388.27	4419.52
388.48	7116.69
388.68	10739.55
388.89	13313.84
389.10	14616.35
389.31	14233.38
389.52	11523.92
389.73	10192.74
389.93	9267.06
390.14	8329.09
390.35	7802.76
390.56	7522.19
390.77	6121.38
390.98	4704.18
391.18	4097.99
391.39	3966.92
391.60	3520.46
391.81	3491.79
392.02	3180.50
392.23	4028.35
392.43	3450.83
392.64	3182.54
392.85	3254.22
393.06	3809.22
393.27	3461.07
393.47	3086.29
393.68	3188.69
393.89	3459.02
394.10	3751.88
394.31	3215.31
394.52	3090.38
394.72	3264.46
394.93	3729.35
395.14	3018.71
395.35	3209.17
395.56	3330.00
395.76	3411.92
395.97	3121.10
396.18	3305.42
396.39	3356.62
396.60	4110.27
396.80	3577.80
397.01	3385.29
397.22	3516.36
397.43	3575.75
397.64	3131.34
397.84	3215.31
398.05	3915.72
398.26	3395.53
398.47	3162.06
398.67	3377.10
398.88	3403.72
399.09	3598.28
399.30	3135.44
399.51	3184.59
399.71	3342.28
399.92	3467.21
400.13	3198.93
400.34	3135.44
400.54	3475.40
400.75	3858.37
400.96	3180.50
401.17	3508.17
401.37	3602.38
401.58	3446.73
401.79	3143.63
402.00	3225.55
402.21	3989.44
402.41	3540.94
402.62	3350.48
402.83	3426.25
403.04	3837.89
403.24	4181.95
403.45	3248.08
403.66	3475.40
403.87	3608.52
404.07	3725.26
404.28	3360.72
404.49	3463.12
404.70	3540.94
404.90	3606.47
405.11	3119.06
405.32	3286.99
405.52	3325.90
405.73	3309.52
405.94	3139.54
406.15	3194.83
406.35	3655.62
406.56	3575.75
406.77	3135.44
406.98	3160.02
407.18	3223.50
407.39	3788.74
407.60	3155.92
407.80	3192.78
408.01	3379.15
408.22	3540.94
408.43	3143.63
408.63	3270.61
408.84	3692.49
409.05	3637.19
409.25	3108.82
409.46	3094.48
409.67	3307.47
409.88	3297.23
410.08	3231.69
410.29	3141.58
410.50	3704.78
410.70	3530.70
410.91	3155.92
411.12	3266.51
411.32	3491.79
411.53	3315.66
411.74	3170.26
411.95	3153.87
412.15	3483.59
412.36	3528.65
412.57	3248.08
412.77	3311.57
412.98	3385.29
413.19	3278.80
413.39	3125.20
413.60	3172.30
413.81	3733.45
414.01	3254.22
414.22	3141.58
414.43	3340.24
414.63	3241.93
414.84	3647.43
415.05	3235.79
415.25	3045.33
415.46	3581.90
415.67	3360.72
415.87	3182.54
416.08	3217.36
416.29	3436.49
416.49	3497.93
416.70	3182.54
416.91	3196.88
417.11	3393.48
417.32	3602.38
417.53	3207.12
417.73	3323.85
417.94	3411.92
418.15	3538.89
418.35	3243.98
418.56	3184.59
418.77	3893.19
418.97	3569.61
419.18	3272.65
419.38	2822.10
419.59	3495.88
419.80	3786.69
420.00	3049.43
420.21	3221.45
420.42	3682.25
420.62	3528.65
420.83	3059.67
421.04	3131.34
421.24	3438.54
421.45	3610.57
421.65	3301.33
421.86	3149.78
422.07	3727.30
422.27	3561.42
422.48	3057.62
422.69	2996.18
422.89	3356.62
423.10	3368.91
423.30	3155.92
423.51	3155.92
423.72	3528.65
423.92	3526.60
424.13	2987.99
424.33	3227.60
424.54	3651.53
424.75	3524.55
424.95	3413.96
425.16	3000.27
425.36	3549.13
425.57	3692.49
425.78	3266.51
425.98	3243.98
426.19	3391.44
426.39	3295.18
426.60	3192.78
426.81	3315.66
427.01	3565.51
427.22	3233.74
427.42	2926.55
427.63	3051.47
427.83	3616.71
428.04	3878.85
428.25	3192.78
428.45	3217.36
428.66	3710.92
428.86	3346.38
429.07	3184.59
429.28	3123.15
429.48	3485.64
429.69	3305.42
429.89	3286.99
430.10	3131.34
430.30	3561.42
430.51	3745.73
430.71	3114.96
430.92	3174.35
431.13	3297.23
431.33	3581.90
431.54	3297.23
431.74	3368.91
431.95	3975.11
432.15	3196.88
432.36	3121.10
432.56	3246.03
432.77	3893.19
432.98	3880.90
433.18	3266.51
433.39	3041.23
433.59	3436.49
433.80	3938.24
434.00	3319.76
434.21	3184.59
434.41	3289.04
434.62	4011.97
434.82	3033.04
435.03	3084.24
435.23	3547.08
435.44	3133.39
435.64	3030.99
435.85	3176.40
436.06	3659.72
436.26	3667.91
436.47	3182.54
436.67	3018.71
436.88	3356.62
437.08	3667.91
437.29	3205.07
437.49	3278.80
437.70	3755.97
437.90	3426.25
438.11	3356.62
438.31	3280.85
438.52	3672.01
438.72	3684.30
438.93	3497.93
439.13	3280.85
439.34	3590.09
439.54	3280.85
439.75	3309.52
439.95	3295.18
440.16	3319.76
440.36	3444.68
440.57	3164.11
440.77	3143.63
440.98	3477.45
441.18	3575.75
441.39	3043.28
441.59	2985.94
441.80	3860.42
442.00	3430.35
442.21	3217.36
442.41	3074.00
442.62	3602.38
442.82	3340.24
443.02	3164.11
443.23	3131.34
443.43	3401.68
443.64	3672.01
443.84	3061.71
444.05	3248.08
444.25	3424.20
444.46	3270.61
444.66	3168.21
444.87	3438.54
445.07	3102.67
445.28	3463.12
445.48	3350.48
445.69	3266.51
445.89	4138.94
446.09	3360.72
446.30	3418.06
446.50	3512.27
446.71	4997.04
446.91	6076.32
447.12	6733.72
447.32	7096.21
447.53	7221.14
447.73	6143.91
447.93	5363.63
448.14	5130.16
448.34	5398.45
448.55	4435.90
448.75	4396.99
448.96	4124.61
449.16	4157.38
449.36	3997.64
449.57	3438.54
449.77	3205.07
449.98	3420.11
450.18	3581.90
450.39	3078.10
450.59	3340.24
450.79	3407.82
451.00	3264.46
451.20	3426.25
451.41	3172.30
451.61	3491.79
451.81	3409.87
452.02	3084.24
452.22	3092.43
452.43	3315.66
