SpectraSuite Data File
++++++++++++++++++++++++++++++++++++
Date: Fri May 06 09:28:29 CEST 2016
User: root
Dark Spectrum Present: No
Reference Spectrum Present: No
Number of Sampled Component Spectra: 1
Spectrometers: USB4C02835
Integration Time (usec): 100000 (USB4C02835)
Spectra Averaged: 1 (USB4C02835)
Boxcar Smoothing: 0 (USB4C02835)
Correct for Electrical Dark: No (USB4C02835)
Strobe/Lamp Enabled: No (USB4C02835)
Correct for Detector Non-linearity: No (USB4C02835)
Correct for Stray Light: No (USB4C02835)
Number of Pixels in Processed Spectrum: 3648
>>>>>Begin Processed Spectral Data<<<<<
177.47	2330.59
177.69	2330.59
177.91	2330.59
178.13	2400.22
178.36	2344.92
178.58	3123.15
178.80	3229.65
179.02	3117.01
179.24	3239.89
179.46	2928.60
179.68	2944.98
179.90	3420.11
180.13	3440.59
180.35	2748.37
180.57	2881.49
180.79	3641.29
181.01	3467.21
181.23	2934.74
181.45	3143.63
181.67	3581.90
181.90	3631.05
182.12	3033.04
182.34	2760.66
182.56	3639.24
182.78	3602.38
183.00	2920.40
183.22	2940.88
183.44	3090.38
183.66	4052.93
183.89	3094.48
184.11	2959.31
184.33	3565.51
184.55	3733.45
184.77	2951.12
184.99	3010.51
185.21	3375.05
185.43	4136.90
185.65	2877.40
185.87	2914.26
186.10	4005.83
186.32	4020.16
186.54	3135.44
186.76	3074.00
186.98	3678.15
187.20	3420.11
187.42	2996.18
187.64	2918.36
187.86	3598.28
188.08	3688.39
188.30	2901.97
188.52	3006.42
188.75	3753.93
188.97	3708.87
189.19	2969.55
189.41	2967.51
189.63	3559.37
189.85	3393.48
190.07	2830.29
190.29	2824.15
190.51	3483.59
190.73	3143.63
190.95	3192.78
191.17	3035.09
191.39	3153.87
191.61	3440.59
191.84	2947.03
192.06	3180.50
192.28	3162.06
192.50	4089.79
192.72	3096.53
192.94	3008.47
193.16	3798.98
193.38	3545.03
193.60	2947.03
193.82	3143.63
194.04	3637.19
194.26	3573.71
194.48	3016.66
194.70	2955.22
194.92	3467.21
195.14	3696.58
195.36	2951.12
195.58	3041.23
195.80	3446.73
196.02	3325.90
196.24	2881.49
196.46	3028.95
196.69	3362.76
196.91	3987.40
197.13	3037.14
197.35	3033.04
197.57	3803.08
197.79	3602.38
198.01	3004.37
198.23	3002.32
198.45	3575.75
198.67	3162.06
198.89	2840.53
199.11	3147.73
199.33	3307.47
199.55	2944.98
199.77	2910.16
199.99	3180.50
200.21	3469.26
200.43	3565.51
200.65	2873.30
200.87	2811.86
201.09	3481.55
201.31	3368.91
201.53	3049.43
201.75	2977.75
201.97	3518.41
202.19	3430.35
202.41	3030.99
202.63	3166.16
202.85	3645.38
203.07	3514.31
203.29	3065.81
203.51	2906.07
203.73	3286.99
203.95	4040.64
204.17	2953.17
204.39	3117.01
204.61	3418.06
204.83	3295.18
205.05	3067.86
205.27	2955.22
205.49	3928.00
205.71	3442.64
205.93	2818.00
206.15	2861.01
206.37	3506.12
206.59	3504.07
206.81	2803.67
207.03	2861.01
207.25	3225.55
207.47	3581.90
207.69	3014.61
207.91	3188.69
208.13	3809.22
208.34	3420.11
208.56	2856.92
208.78	2936.79
209.00	3448.78
209.22	3330.00
209.44	2949.08
209.66	2914.26
209.88	3508.17
210.10	3477.45
210.32	2936.79
210.54	3098.58
210.76	3377.10
210.98	3739.59
211.20	2807.77
211.42	3137.49
211.64	3747.78
211.86	3573.71
212.08	3049.43
212.30	2992.08
212.52	3416.01
212.74	3563.47
212.96	3196.88
213.17	3016.66
213.39	3672.01
213.61	3897.28
213.83	2914.26
214.05	2844.63
214.27	3694.54
214.49	3299.28
214.71	2901.97
214.93	3065.81
215.15	3583.95
215.37	3590.09
215.59	2795.48
215.81	3030.99
216.03	3721.16
216.24	3483.59
216.46	3008.47
216.68	2992.08
216.90	3592.14
217.12	3684.30
217.34	2932.69
217.56	3160.02
217.78	3698.63
218.00	3575.75
218.22	3125.20
218.44	3143.63
218.66	3516.36
218.87	3923.91
219.09	2983.89
219.31	2967.51
219.53	3555.27
219.75	3409.87
219.97	3012.56
220.19	3000.27
220.41	3508.17
220.63	3846.09
220.85	3049.43
221.06	2981.84
221.28	3678.15
221.50	3622.86
221.72	2854.87
221.94	2799.57
222.16	3526.60
222.38	3688.39
222.60	2959.31
222.82	3035.09
223.03	3590.09
223.25	3246.03
223.47	2924.50
223.69	3131.34
223.91	3620.81
224.13	3485.64
224.35	2873.30
224.57	3160.02
224.78	3622.86
225.00	3311.57
225.22	3016.66
225.44	2901.97
225.66	3712.97
225.88	3364.81
226.10	3108.82
226.32	2889.68
226.53	3860.42
226.75	3360.72
226.97	3026.90
227.19	3010.51
227.41	3268.56
227.63	3440.59
227.85	2795.48
228.06	3028.95
228.28	3428.30
228.50	3706.82
228.72	2779.09
228.94	2850.77
229.16	3123.15
229.37	3209.17
229.59	2914.26
229.81	3229.65
230.03	3383.24
230.25	3194.83
230.47	2811.86
230.69	2985.94
230.90	3657.67
231.12	3289.04
231.34	3123.15
231.56	3016.66
231.78	3213.26
232.00	3526.60
232.21	3098.58
232.43	3039.19
232.65	3024.85
232.87	3495.88
233.09	2803.67
233.30	2881.49
233.52	3676.10
233.74	3442.64
233.96	2922.45
234.18	3172.30
234.40	3393.48
234.61	3944.39
234.83	2885.59
235.05	3026.90
235.27	4052.93
235.49	3637.19
235.70	2863.06
235.92	3026.90
236.14	3547.08
236.36	4034.50
236.58	2873.30
236.79	3098.58
237.01	3463.12
237.23	3444.68
237.45	3196.88
237.67	3022.80
237.88	3536.84
238.10	3798.98
238.32	2934.74
238.54	2944.98
238.76	3370.96
238.97	3295.18
239.19	2873.30
239.41	3139.54
239.63	3674.06
239.85	3420.11
240.06	3024.85
240.28	2967.51
240.50	3567.56
240.72	3399.63
240.93	2875.35
241.15	3069.91
241.37	3463.12
241.59	3827.65
241.81	3012.56
242.02	3024.85
242.24	3516.36
242.46	3622.86
242.68	2770.90
242.89	2908.12
243.11	3622.86
243.33	3430.35
243.55	2918.36
243.76	2885.59
243.98	3297.23
244.20	3418.06
244.42	3000.27
244.64	2910.16
244.85	3172.30
245.07	3168.21
245.29	2918.36
245.51	2975.70
245.72	3557.32
245.94	3727.30
246.16	2918.36
246.38	2920.40
246.59	3280.85
246.81	3325.90
247.03	2883.54
247.24	2867.16
247.46	3334.09
247.68	3536.84
247.90	2959.31
248.11	2961.36
248.33	3645.38
248.55	3395.53
248.77	3037.14
248.98	3084.24
249.20	3868.61
249.42	3481.55
249.64	2934.74
249.85	2938.84
250.07	3354.57
250.29	3647.43
250.50	3069.91
250.72	2936.79
250.94	3522.51
251.16	3921.86
251.37	2879.44
251.59	3008.47
251.81	3651.53
252.02	3786.69
252.24	2822.10
252.46	3184.59
252.68	3311.57
252.89	3303.37
253.11	2762.71
253.33	3145.68
253.54	3766.21
253.76	3270.61
253.98	2920.40
254.20	2938.84
254.41	3119.06
254.63	3393.48
254.85	2877.40
255.06	3096.53
255.28	3590.09
255.50	3342.28
255.71	2904.02
255.93	2881.49
256.15	3426.25
256.36	3526.60
256.58	2842.58
256.80	2883.54
257.02	3452.88
257.23	3340.24
257.45	2983.89
257.67	3078.10
257.88	3246.03
258.10	3604.42
258.32	2951.12
258.53	3082.19
258.75	3860.42
258.97	3356.62
259.18	2783.19
259.40	2967.51
259.62	3880.90
259.83	3753.93
260.05	2955.22
260.27	3928.00
260.48	3682.25
260.70	3301.33
260.92	2787.29
261.13	2998.23
261.35	3545.03
261.57	3590.09
261.78	2863.06
262.00	2942.93
262.22	3610.57
262.43	3246.03
262.65	2985.94
262.86	3008.47
263.08	3991.49
263.30	3461.07
263.51	2777.05
263.73	2861.01
263.95	3917.76
264.16	3274.70
264.38	2824.15
264.60	2895.83
264.81	3444.68
265.03	3762.12
265.25	3497.93
265.46	2885.59
265.68	3710.92
265.89	3590.09
266.11	2820.05
266.33	2944.98
266.54	3768.26
266.76	3481.55
266.98	3102.67
267.19	3176.40
267.41	3712.97
267.62	3405.77
267.84	2764.76
268.06	3035.09
268.27	3463.12
268.49	3676.10
268.70	2942.93
268.92	2947.03
269.14	3235.79
269.35	3117.01
269.57	3153.87
269.79	3022.80
270.00	3311.57
270.22	3870.66
270.43	2920.40
270.65	2840.53
270.87	3477.45
271.08	3540.94
271.30	3104.72
271.51	2987.99
271.73	3624.90
271.95	3747.78
272.16	2899.92
272.38	3071.95
272.59	3282.89
272.81	3575.75
273.02	2820.05
273.24	3051.47
273.46	3737.54
273.67	3268.56
273.89	2858.96
274.10	2955.22
274.32	3788.74
274.54	3467.21
274.75	3033.04
274.97	3117.01
275.18	3571.66
275.40	3524.55
275.61	2973.65
275.83	3139.54
276.05	3229.65
276.26	3456.97
276.48	3086.29
276.69	3129.30
276.91	3381.20
277.12	3745.73
277.34	3180.50
277.55	3239.89
277.77	3442.64
277.99	3422.16
278.20	3110.86
278.42	2969.55
278.63	3256.27
278.85	3278.80
279.06	3112.91
279.28	3264.46
279.49	3717.06
279.71	3518.41
279.93	3182.54
280.14	3102.67
280.36	3346.38
280.57	3690.44
280.79	3149.78
281.00	3000.27
281.22	3362.76
281.43	3686.34
281.65	2881.49
281.86	2963.41
282.08	3502.03
282.29	3854.28
282.51	2959.31
282.73	2922.45
282.94	3098.58
283.16	3749.83
283.37	3164.11
283.59	3106.77
283.80	3526.60
284.02	3489.74
284.23	3106.77
284.45	3139.54
284.66	3278.80
284.88	3295.18
285.09	2977.75
285.31	3237.84
285.52	3491.79
285.74	3170.26
285.95	3243.98
286.17	3143.63
286.38	3655.62
286.60	3385.29
286.81	3043.28
287.03	3051.47
287.24	3444.68
287.46	3596.23
287.67	3225.55
287.89	3299.28
288.10	3420.11
288.32	3444.68
288.53	3250.13
288.75	3160.02
288.96	3676.10
289.18	3280.85
289.39	3078.10
289.61	3078.10
289.82	3962.82
290.04	3907.52
290.25	3000.27
290.47	3198.93
290.68	3356.62
290.90	3678.15
291.11	2830.29
291.33	3309.52
291.54	3286.99
291.76	3311.57
291.97	3264.46
292.18	3239.89
292.40	3405.77
292.61	3266.51
292.83	3401.68
293.04	3157.97
293.26	3508.17
293.47	3395.53
293.69	3110.86
293.90	2953.17
294.12	3661.77
294.33	3436.49
294.55	3114.96
294.76	3311.57
294.97	3755.97
295.19	3909.57
295.40	3080.14
295.62	3229.65
295.83	3598.28
296.05	3276.75
296.26	3352.52
296.48	3086.29
296.69	3442.64
296.90	3469.26
297.12	3221.45
297.33	3274.70
297.55	3502.03
297.76	3594.19
297.98	3190.74
298.19	3303.37
298.41	3469.26
298.62	3250.13
298.83	3278.80
299.05	3225.55
299.26	3411.92
299.48	3229.65
299.69	3291.09
299.90	3018.71
300.12	3250.13
300.33	3512.27
300.55	3176.40
300.76	3172.30
300.98	3213.26
301.19	3612.62
301.40	3141.58
301.62	3096.53
301.83	3614.66
302.05	3436.49
302.26	3018.71
302.47	3205.07
302.69	3166.16
302.90	3393.48
303.12	2936.79
303.33	3205.07
303.54	3876.80
303.76	3368.91
303.97	3049.43
304.19	3262.41
304.40	3196.88
304.61	3598.28
304.83	3176.40
305.04	3127.25
305.26	3563.47
305.47	3336.14
305.68	3102.67
305.90	2961.36
306.11	3669.96
306.33	3362.76
306.54	2967.51
306.75	3028.95
306.97	3207.12
307.18	3215.31
307.39	3028.95
307.61	3194.83
307.82	3370.96
308.04	3579.85
308.25	2977.75
308.46	3168.21
308.68	3467.21
308.89	3473.36
309.10	3194.83
309.32	3157.97
309.53	3459.02
309.74	3669.96
309.96	2936.79
310.17	3190.74
310.39	3323.85
310.60	3618.76
310.81	3145.68
311.03	3004.37
311.24	3688.39
311.45	3463.12
311.67	3344.33
311.88	3243.98
312.09	3340.24
312.31	3237.84
312.52	3004.37
312.73	3063.76
312.95	3160.02
313.16	3237.84
313.37	3323.85
313.59	3299.28
313.80	3592.14
314.01	3715.02
314.23	3117.01
314.44	3033.04
314.65	3119.06
314.87	3196.88
315.08	3045.33
315.29	3200.98
315.51	3221.45
315.72	3119.06
315.93	3133.39
316.15	3168.21
316.36	3299.28
316.57	3461.07
316.79	3043.28
317.00	3016.66
317.21	3518.41
317.43	3217.36
317.64	3135.44
317.85	3028.95
318.07	3315.66
318.28	3391.44
318.49	3092.43
318.70	3323.85
318.92	3413.96
319.13	3518.41
319.34	3385.29
319.56	3076.05
319.77	3518.41
319.98	3610.57
320.20	3370.96
320.41	3233.74
320.62	3559.37
320.83	3129.30
321.05	3360.72
321.26	3135.44
321.47	3360.72
321.69	3635.14
321.90	3074.00
322.11	3069.91
322.32	3542.99
322.54	3747.78
322.75	3143.63
322.96	4214.72
323.18	3127.25
323.39	3108.82
323.60	2996.18
323.81	3186.64
324.03	3282.89
324.24	3403.72
324.45	3190.74
324.66	3061.71
324.88	3690.44
325.09	3837.89
325.30	3088.34
325.52	2951.12
325.73	3542.99
325.94	3284.94
326.15	3071.95
326.37	2961.36
326.58	3641.29
326.79	3854.28
327.00	2985.94
327.22	3026.90
327.43	3413.96
327.64	3188.69
327.85	3221.45
328.07	3221.45
328.28	3917.76
328.49	3323.85
328.70	3094.48
328.92	3133.39
329.13	3438.54
329.34	3594.19
329.55	3338.19
329.76	3286.99
329.98	3387.34
330.19	3694.54
330.40	3217.36
330.61	3280.85
330.83	3665.86
331.04	3207.12
331.25	3104.72
331.46	3082.19
331.68	3237.84
331.89	3633.10
332.10	3110.86
332.31	2904.02
332.52	3438.54
332.74	3663.82
332.95	2959.31
333.16	3225.55
333.37	3708.87
333.58	3286.99
333.80	3196.88
334.01	2832.34
334.22	3368.91
334.43	3315.66
334.64	3004.37
334.86	3086.29
335.07	3270.61
335.28	3844.04
335.49	3096.53
335.70	3137.49
335.92	3766.21
336.13	3940.29
336.34	3147.73
336.55	3065.81
336.76	3487.69
336.98	3026.90
337.19	3129.30
337.40	3149.78
337.61	3964.87
337.82	3360.72
338.04	3172.30
338.25	2973.65
338.46	3393.48
338.67	3409.87
338.88	3022.80
339.09	3033.04
339.31	3350.48
339.52	3119.06
339.73	3026.90
339.94	3110.86
340.15	3592.14
340.36	3327.95
340.58	3129.30
340.79	3053.52
341.00	3590.09
341.21	3108.82
341.42	3385.29
341.63	3123.15
341.85	3620.81
342.06	3487.69
342.27	3057.62
342.48	3254.22
342.69	3209.17
342.90	3508.17
343.12	3514.31
343.33	3049.43
343.54	3698.63
343.75	3778.50
343.96	3270.61
344.17	2981.84
344.38	3444.68
344.60	3239.89
344.81	3020.75
345.02	3174.35
345.23	3667.91
345.44	3975.11
345.65	3215.31
345.86	3155.92
346.07	3426.25
346.29	3293.13
346.50	3235.79
346.71	3139.54
346.92	3710.92
347.13	3911.62
347.34	3217.36
347.55	2983.89
347.76	3540.94
347.98	3133.39
348.19	3151.82
348.40	3233.74
348.61	3258.32
348.82	3790.79
349.03	3117.01
349.24	2990.03
349.45	3911.62
349.66	2938.84
349.88	3018.71
350.09	2977.75
350.30	3741.64
350.51	3708.87
350.72	3282.89
350.93	3057.62
351.14	3295.18
351.35	3585.99
351.56	3164.11
351.77	3198.93
351.99	3575.75
352.20	3782.60
352.41	3270.61
352.62	2971.60
352.83	3456.97
353.04	3395.53
353.25	3196.88
353.46	3086.29
353.67	3659.72
353.88	3012.56
354.09	2977.75
354.30	3194.83
354.52	3561.42
354.73	3319.76
354.94	3000.27
355.15	3172.30
355.36	3960.77
355.57	3270.61
355.78	3008.47
355.99	3131.34
356.20	3321.81
356.41	3774.41
356.62	3129.30
356.83	3121.10
357.04	3727.30
357.25	3088.34
357.46	3102.67
357.68	2977.75
357.89	3213.26
358.10	3508.17
358.31	2977.75
358.52	3145.68
358.73	3157.97
358.94	3213.26
359.15	3143.63
359.36	3078.10
359.57	3434.44
359.78	3366.86
359.99	3274.70
360.20	2977.75
360.41	3413.96
360.62	3669.96
360.83	3166.16
361.04	3237.84
361.25	3516.36
361.46	3839.94
361.67	3213.26
361.88	3168.21
362.09	3565.51
362.30	3547.08
362.51	3067.86
362.72	3143.63
362.93	3614.66
363.14	3549.13
363.35	3172.30
363.56	3039.19
363.78	3674.06
363.99	3715.02
364.20	3117.01
364.41	3141.58
364.62	3839.94
364.83	3481.55
365.04	3174.35
365.25	3172.30
365.46	4036.55
365.67	3278.80
365.88	3330.00
366.09	3041.23
366.30	3356.62
366.51	3438.54
366.72	3016.66
366.93	3114.96
367.14	3463.12
367.35	3758.02
367.56	3033.04
367.77	3243.98
367.98	3426.25
368.18	3651.53
368.39	3315.66
368.60	3043.28
368.81	3604.42
369.02	3641.29
369.23	3096.53
369.44	2944.98
369.65	3426.25
369.86	3547.08
370.07	3209.17
370.28	3106.77
370.49	3510.22
370.70	3506.12
370.91	3024.85
371.12	2944.98
371.33	3725.26
371.54	3274.70
371.75	3213.26
371.96	2861.01
372.17	3493.83
372.38	3426.25
372.59	3071.95
372.80	3045.33
373.01	3338.19
373.22	3549.13
373.43	3092.43
373.64	2938.84
373.85	3758.02
374.06	3833.80
374.26	3207.12
374.47	3239.89
374.68	3770.31
374.89	3549.13
375.10	3006.42
375.31	3194.83
375.52	3426.25
375.73	3399.63
375.94	2838.48
376.15	3170.26
376.36	3309.52
376.57	3311.57
376.78	3172.30
376.99	3129.30
377.20	3741.64
377.40	3418.06
377.61	3452.88
377.82	3092.43
378.03	3772.36
378.24	3495.88
378.45	3227.60
378.66	3250.13
378.87	3053.52
379.08	3223.50
379.29	3196.88
379.50	3291.09
379.71	3438.54
379.91	3577.80
380.12	3190.74
380.33	3127.25
380.54	3344.33
380.75	3401.68
380.96	3086.29
381.17	3157.97
381.38	3346.38
381.59	3407.82
381.80	3143.63
382.00	3278.80
382.21	3459.02
382.42	3813.32
382.63	3551.18
382.84	3278.80
383.05	3639.24
383.26	3780.55
383.47	3268.56
383.68	3166.16
383.88	3524.55
384.09	3475.40
384.30	3315.66
384.51	3258.32
384.72	3364.81
384.93	3180.50
385.14	3172.30
385.35	3428.30
385.55	3147.73
385.76	3751.88
385.97	3098.58
386.18	2979.79
386.39	3231.69
386.60	3330.00
386.81	3094.48
387.02	3006.42
387.22	3209.17
387.43	3590.09
387.64	3190.74
387.85	3299.28
388.06	3395.53
388.27	4429.76
388.48	7303.06
388.68	10762.08
388.89	13543.22
389.10	14800.67
389.31	14137.13
389.52	11482.96
389.73	10094.44
389.93	9422.70
390.14	8306.56
390.35	7868.30
390.56	7366.54
390.77	6178.72
390.98	4724.66
391.18	4077.51
391.39	3960.77
391.60	3504.07
391.81	3352.52
392.02	3137.49
392.23	3983.30
392.43	3561.42
392.64	3260.37
392.85	3278.80
393.06	3813.32
393.27	3360.72
393.47	3098.58
393.68	3297.23
393.89	3389.39
394.10	3585.99
394.31	3139.54
394.52	3133.39
394.72	3375.05
394.93	3854.28
395.14	2916.31
395.35	3170.26
395.56	3354.57
395.76	3450.83
395.97	3094.48
396.18	3276.75
396.39	3311.57
396.60	4050.88
396.80	3502.03
397.01	3422.16
397.22	3520.46
397.43	3706.82
397.64	3125.20
397.84	3295.18
398.05	3770.31
398.26	3426.25
398.47	3280.85
398.67	3346.38
398.88	3428.30
399.09	3598.28
399.30	3133.39
399.51	3205.07
399.71	3348.43
399.92	3444.68
400.13	3164.11
400.34	3131.34
400.54	3465.16
400.75	3813.32
400.96	3114.96
401.17	3475.40
401.37	3575.75
401.58	3327.95
401.79	3028.95
402.00	3237.84
402.21	3903.43
402.41	3581.90
402.62	3362.76
402.83	3477.45
403.04	3805.13
403.24	4169.66
403.45	3319.76
403.66	3467.21
403.87	3641.29
404.07	3751.88
404.28	3344.33
404.49	3534.79
404.70	3461.07
404.90	3557.32
405.11	3119.06
405.32	3297.23
405.52	3332.05
405.73	3356.62
405.94	3045.33
406.15	3278.80
406.35	3624.90
406.56	3641.29
406.77	3227.60
406.98	3114.96
407.18	3358.67
407.39	3682.25
407.60	3188.69
407.80	3227.60
408.01	3315.66
408.22	3516.36
408.43	3096.53
408.63	3338.19
408.84	3706.82
409.05	3639.24
409.25	3016.66
409.46	3211.22
409.67	3360.72
409.88	3356.62
410.08	3250.13
410.29	3184.59
410.50	3622.86
410.70	3598.28
410.91	3069.91
411.12	3188.69
411.32	3403.72
411.53	3307.47
411.74	3151.82
411.95	3155.92
412.15	3403.72
412.36	3555.27
412.57	3366.86
412.77	3327.95
412.98	3440.59
413.19	3348.43
413.39	3196.88
413.60	3164.11
413.81	3655.62
414.01	3258.32
414.22	3123.15
414.43	3307.47
414.63	3303.37
414.84	3618.76
415.05	3082.19
415.25	3004.37
415.46	3614.66
415.67	3330.00
415.87	3184.59
416.08	3166.16
416.29	3403.72
416.49	3540.94
416.70	3205.07
416.91	3221.45
417.11	3385.29
417.32	3655.62
417.53	3274.70
417.73	3295.18
417.94	3360.72
418.15	3424.20
418.35	3217.36
418.56	3186.64
418.77	3893.19
418.97	3510.22
419.18	3266.51
419.38	2852.82
419.59	3409.87
419.80	3749.83
420.00	3049.43
420.21	3094.48
420.42	3702.73
420.62	3459.02
420.83	3141.58
421.04	3094.48
421.24	3403.72
421.45	3542.99
421.65	3176.40
421.86	3200.98
422.07	3803.08
422.27	3583.95
422.48	3139.54
422.69	2926.55
422.89	3393.48
423.10	3332.05
423.30	3051.47
423.51	3153.87
423.72	3465.16
423.92	3481.55
424.13	3000.27
424.33	3231.69
424.54	3581.90
424.75	3499.98
424.95	3487.69
425.16	3092.43
425.36	3477.45
425.57	3663.82
425.78	3362.76
425.98	3266.51
426.19	3393.48
426.39	3319.76
426.60	3286.99
426.81	3327.95
427.01	3502.03
427.22	3264.46
427.42	2942.93
427.63	3114.96
427.83	3643.34
428.04	3749.83
428.25	3215.31
428.45	3209.17
428.66	3659.72
428.86	3346.38
429.07	3157.97
429.28	3160.02
429.48	3397.58
429.69	3254.22
429.89	3213.26
430.10	3030.99
430.30	3590.09
430.51	3758.02
430.71	3080.14
430.92	3239.89
431.13	3409.87
431.33	3647.43
431.54	3213.26
431.74	3327.95
431.95	3983.30
432.15	3321.81
432.36	3215.31
432.56	3176.40
432.77	3876.80
432.98	3801.03
433.18	3256.27
433.39	3043.28
433.59	3465.16
433.80	3837.89
434.00	3282.89
434.21	3246.03
434.41	3315.66
434.62	3966.92
434.82	3065.81
435.03	3092.43
435.23	3479.50
435.44	3184.59
435.64	3061.71
435.85	3190.74
436.06	3598.28
436.26	3549.13
436.47	3082.19
436.67	3100.62
436.88	3344.33
437.08	3674.06
437.29	3268.56
437.49	3334.09
437.70	3737.54
437.90	3418.06
438.11	3495.88
438.31	3223.50
438.52	3702.73
438.72	3665.86
438.93	3493.83
439.13	3270.61
439.34	3573.71
439.54	3327.95
439.75	3227.60
439.95	3192.78
440.16	3182.54
440.36	3499.98
440.57	3143.63
440.77	3205.07
440.98	3403.72
441.18	3573.71
441.39	3033.04
441.59	3084.24
441.80	3966.92
442.00	3413.96
442.21	3213.26
442.41	3000.27
442.62	3684.30
442.82	3280.85
443.02	3145.68
443.23	3147.73
443.43	3356.62
443.64	3672.01
443.84	2971.60
444.05	3231.69
444.25	3409.87
444.46	3373.00
444.66	3141.58
444.87	3379.15
445.07	3043.28
445.28	3278.80
445.48	3364.81
445.69	3219.41
445.89	4042.69
446.09	3358.67
446.30	3485.64
446.50	3532.75
446.71	4974.52
446.91	6033.32
447.12	6887.32
447.32	7139.22
447.53	7311.25
447.73	6258.59
447.93	5267.38
448.14	5175.22
448.34	5531.56
448.55	4450.24
448.75	4360.13
448.96	4194.24
449.16	4126.66
449.36	4116.42
449.57	3405.77
449.77	3209.17
449.98	3348.43
450.18	3510.22
450.39	3041.23
450.59	3377.10
450.79	3481.55
451.00	3319.76
451.20	3407.82
451.41	3184.59
451.61	3506.12
451.81	3348.43
452.02	3078.10
452.22	3190.74
452.43	3393.48
