SpectraSuite Data File
++++++++++++++++++++++++++++++++++++
Date: Fri May 06 09:29:16 CEST 2016
User: root
Dark Spectrum Present: No
Reference Spectrum Present: No
Number of Sampled Component Spectra: 1
Spectrometers: USB4C02835
Integration Time (usec): 100000 (USB4C02835)
Spectra Averaged: 1 (USB4C02835)
Boxcar Smoothing: 0 (USB4C02835)
Correct for Electrical Dark: No (USB4C02835)
Strobe/Lamp Enabled: No (USB4C02835)
Correct for Detector Non-linearity: No (USB4C02835)
Correct for Stray Light: No (USB4C02835)
Number of Pixels in Processed Spectrum: 3648
>>>>>Begin Processed Spectral Data<<<<<
177.47	2375.64
177.69	2375.64
177.91	2375.64
178.13	2324.44
178.36	2330.59
178.58	3127.25
178.80	3286.99
179.02	3137.49
179.24	3229.65
179.46	2936.79
179.68	2920.40
179.90	3409.87
180.13	3540.94
180.35	2803.67
180.57	2861.01
180.79	3606.47
181.01	3395.53
181.23	2912.21
181.45	3145.68
181.67	3629.00
181.90	3610.57
182.12	3102.67
182.34	2797.53
182.56	3698.63
182.78	3520.46
183.00	2914.26
183.22	2928.60
183.44	3049.43
183.66	4194.24
183.89	3022.80
184.11	3014.61
184.33	3657.67
184.55	3651.53
184.77	2871.25
184.99	2998.23
185.21	3373.00
185.43	3950.53
185.65	2977.75
185.87	2955.22
186.10	3991.49
186.32	4050.88
186.54	3106.77
186.76	3039.19
186.98	3684.30
187.20	3450.83
187.42	3024.85
187.64	2990.03
187.86	3530.70
188.08	3725.26
188.30	2912.21
188.52	2942.93
188.75	3764.17
188.97	3780.55
189.19	2963.41
189.41	2850.77
189.63	3522.51
189.85	3383.24
190.07	2840.53
190.29	2818.00
190.51	3575.75
190.73	3162.06
190.95	3157.97
191.17	3035.09
191.39	3090.38
191.61	3327.95
191.84	3016.66
192.06	3213.26
192.28	3149.78
192.50	4089.79
192.72	3198.93
192.94	2971.60
193.16	3676.10
193.38	3534.79
193.60	2881.49
193.82	3166.16
194.04	3579.85
194.26	3534.79
194.48	2998.23
194.70	2963.41
194.92	3340.24
195.14	3616.71
195.36	2959.31
195.58	3000.27
195.80	3411.92
196.02	3291.09
196.24	2910.16
196.46	3051.47
196.69	3180.50
196.91	3991.49
197.13	3084.24
197.35	3008.47
197.57	3805.13
197.79	3633.10
198.01	3047.38
198.23	3000.27
198.45	3590.09
198.67	3203.02
198.89	2783.19
199.11	3026.90
199.33	3327.95
199.55	2957.27
199.77	2856.92
199.99	3153.87
200.21	3370.96
200.43	3491.79
200.65	2777.05
200.87	2815.96
201.09	3463.12
201.31	3409.87
201.53	2924.50
201.75	3067.86
201.97	3440.59
202.19	3399.63
202.41	3008.47
202.63	3125.20
202.85	3639.24
203.07	3452.88
203.29	3028.95
203.51	2885.59
203.73	3307.47
203.95	4077.51
204.17	3000.27
204.39	3076.05
204.61	3434.44
204.83	3389.39
205.05	3114.96
205.27	2996.18
205.49	3913.67
205.71	3475.40
205.93	2856.92
206.15	2844.63
206.37	3536.84
206.59	3391.44
206.81	2729.94
207.03	2906.07
207.25	3315.66
207.47	3598.28
207.69	2977.75
207.91	3262.41
208.13	3844.04
208.34	3393.48
208.56	3016.66
208.78	2983.89
209.00	3373.00
209.22	3356.62
209.44	2996.18
209.66	2971.60
209.88	3471.31
210.10	3426.25
210.32	2934.74
210.54	3033.04
210.76	3395.53
210.98	3690.44
211.20	2863.06
211.42	3135.44
211.64	3733.45
211.86	3581.90
212.08	3078.10
212.30	2996.18
212.52	3391.44
212.74	3502.03
212.96	3069.91
213.17	3020.75
213.39	3610.57
213.61	3827.65
213.83	2922.45
214.05	2832.34
214.27	3715.02
214.49	3237.84
214.71	2912.21
214.93	3030.99
215.15	3352.52
215.37	3626.95
215.59	2809.81
215.81	2994.13
216.03	3850.18
216.24	3481.55
216.46	2977.75
216.68	3004.37
216.90	3588.04
217.12	3674.06
217.34	2924.50
217.56	3196.88
217.78	3751.88
218.00	3606.47
218.22	3035.09
218.44	3080.14
218.66	3573.71
218.87	3770.31
219.09	3114.96
219.31	2967.51
219.53	3502.03
219.75	3481.55
219.97	3061.71
220.19	3067.86
220.41	3485.64
220.63	3805.13
220.85	3080.14
221.06	3008.47
221.28	3805.13
221.50	3577.80
221.72	2934.74
221.94	2869.20
222.16	3506.12
222.38	3684.30
222.60	2914.26
222.82	2969.55
223.03	3710.92
223.25	3248.08
223.47	2840.53
223.69	3268.56
223.91	3542.99
224.13	3430.35
224.35	2844.63
224.57	3190.74
224.78	3573.71
225.00	3295.18
225.22	3053.52
225.44	2885.59
225.66	3622.86
225.88	3401.68
226.10	3069.91
226.32	3002.32
226.53	3712.97
226.75	3370.96
226.97	3125.20
227.19	3004.37
227.41	3262.41
227.63	3426.25
227.85	2811.86
228.06	3086.29
228.28	3479.50
228.50	3696.58
228.72	2772.95
228.94	2953.17
229.16	3026.90
229.37	3188.69
229.59	2977.75
229.81	3217.36
230.03	3332.05
230.25	3174.35
230.47	2799.57
230.69	2940.88
230.90	3678.15
231.12	3354.57
231.34	3067.86
231.56	3000.27
231.78	3282.89
232.00	3506.12
232.21	3039.19
232.43	3067.86
232.65	3037.14
232.87	3483.59
233.09	2895.83
233.30	2854.87
233.52	3639.24
233.74	3391.44
233.96	2893.78
234.18	3164.11
234.40	3430.35
234.61	4050.88
234.83	2836.44
235.05	2979.79
235.27	3991.49
235.49	3770.31
235.70	2852.82
235.92	2942.93
236.14	3573.71
236.36	4026.31
236.58	2901.97
236.79	3004.37
237.01	3512.27
237.23	3434.44
237.45	3180.50
237.67	3024.85
237.88	3471.31
238.10	3819.46
238.32	2893.78
238.54	2979.79
238.76	3411.92
238.97	3207.12
239.19	2867.16
239.41	3065.81
239.63	3643.34
239.85	3338.19
240.06	2942.93
240.28	3014.61
240.50	3667.91
240.72	3434.44
240.93	2854.87
241.15	3149.78
241.37	3452.88
241.59	3839.94
241.81	3096.53
242.02	3061.71
242.24	3471.31
242.46	3635.14
242.68	2811.86
242.89	2906.07
243.11	3758.02
243.33	3471.31
243.55	3002.32
243.76	2910.16
243.98	3393.48
244.20	3442.64
244.42	2953.17
244.64	2953.17
244.85	3211.22
245.07	3172.30
245.29	3030.99
245.51	2953.17
245.72	3516.36
245.94	3643.34
246.16	2977.75
246.38	3008.47
246.59	3311.57
246.81	3299.28
247.03	2854.87
247.24	2846.68
247.46	3311.57
247.68	3444.68
247.90	2920.40
248.11	2977.75
248.33	3557.32
248.55	3450.83
248.77	3000.27
248.98	3074.00
249.20	3745.73
249.42	3504.07
249.64	2906.07
249.85	2887.64
250.07	3352.52
250.29	3565.51
250.50	3051.47
250.72	2901.97
250.94	3483.59
251.16	4018.11
251.37	2901.97
251.59	3028.95
251.81	3602.38
252.02	3745.73
252.24	2832.34
252.46	3051.47
252.68	3299.28
252.89	3297.23
253.11	2797.53
253.33	3164.11
253.54	3809.22
253.76	3291.09
253.98	2928.60
254.20	2869.20
254.41	3180.50
254.63	3409.87
254.85	2764.76
255.06	3131.34
255.28	3495.88
255.50	3401.68
255.71	2910.16
255.93	2793.43
256.15	3432.40
256.36	3614.66
256.58	2738.13
256.80	2934.74
257.02	3397.58
257.23	3368.91
257.45	2947.03
257.67	3076.05
257.88	3373.00
258.10	3549.13
258.32	2881.49
258.53	2973.65
258.75	3825.61
258.97	3295.18
259.18	2820.05
259.40	2813.91
259.62	3944.39
259.83	3805.13
260.05	2955.22
260.27	3952.58
260.48	3602.38
260.70	3233.74
260.92	2787.29
261.13	3018.71
261.35	3614.66
261.57	3542.99
261.78	2820.05
262.00	2922.45
262.22	3559.37
262.43	3233.74
262.65	2955.22
262.86	2994.13
263.08	3999.68
263.30	3502.03
263.51	2787.29
263.73	2844.63
263.95	3839.94
264.16	3213.26
264.38	2805.72
264.60	2873.30
264.81	3456.97
265.03	3614.66
265.25	3471.31
265.46	2934.74
265.68	3712.97
265.89	3598.28
266.11	2828.24
266.33	2940.88
266.54	3784.65
266.76	3626.95
266.98	3022.80
267.19	3149.78
267.41	3782.60
267.62	3510.22
267.84	2807.77
268.06	2996.18
268.27	3450.83
268.49	3641.29
268.70	3088.34
268.92	3010.51
269.14	3307.47
269.35	3114.96
269.57	3041.23
269.79	3057.62
270.00	3389.39
270.22	3870.66
270.43	2799.57
270.65	2795.48
270.87	3530.70
271.08	3583.95
271.30	3076.05
271.51	3002.32
271.73	3549.13
271.95	3837.89
272.16	2947.03
272.38	3110.86
272.59	3379.15
272.81	3600.33
273.02	2873.30
273.24	2977.75
273.46	3796.93
273.67	3123.15
273.89	2869.20
274.10	2963.41
274.32	3696.58
274.54	3450.83
274.75	3008.47
274.97	3020.75
275.18	3569.61
275.40	3547.08
275.61	2992.08
275.83	3241.93
276.05	3260.37
276.26	3489.74
276.48	3053.52
276.69	3180.50
276.91	3289.04
277.12	3760.07
277.34	3125.20
277.55	3231.69
277.77	3448.78
277.99	3352.52
278.20	3053.52
278.42	2975.70
278.63	3295.18
278.85	3289.04
279.06	3092.43
279.28	3239.89
279.49	3631.05
279.71	3629.00
279.93	3096.53
280.14	3176.40
280.36	3291.09
280.57	3633.10
280.79	3127.25
281.00	3002.32
281.22	3342.28
281.43	3690.44
281.65	2922.45
281.86	3006.42
282.08	3532.75
282.29	3885.00
282.51	2936.79
282.73	2969.55
282.94	3106.77
283.16	3618.76
283.37	3217.36
283.59	3125.20
283.80	3590.09
284.02	3393.48
284.23	3117.01
284.45	3192.78
284.66	3276.75
284.88	3272.65
285.09	2949.08
285.31	3200.98
285.52	3493.83
285.74	3137.49
285.95	3317.71
286.17	3221.45
286.38	3653.58
286.60	3268.56
286.81	3082.19
287.03	3082.19
287.24	3430.35
287.46	3635.14
287.67	3166.16
287.89	3321.81
288.10	3426.25
288.32	3411.92
288.53	3307.47
288.75	3196.88
288.96	3647.43
289.18	3256.27
289.39	2979.79
289.61	3108.82
289.82	4007.87
290.04	3876.80
290.25	2990.03
290.47	3286.99
290.68	3497.93
290.90	3622.86
291.11	2879.44
291.33	3284.94
291.54	3301.33
291.76	3305.42
291.97	3215.31
292.18	3147.73
292.40	3305.42
292.61	3297.23
292.83	3397.58
293.04	3119.06
293.26	3567.56
293.47	3385.29
293.69	3033.04
293.90	3028.95
294.12	3712.97
294.33	3516.36
294.55	3180.50
294.76	3293.13
294.97	3786.69
295.19	3887.04
295.40	3125.20
295.62	3203.02
295.83	3635.14
296.05	3315.66
296.26	3336.14
296.48	3100.62
296.69	3442.64
296.90	3381.20
297.12	3235.79
297.33	3321.81
297.55	3499.98
297.76	3532.75
297.98	3180.50
298.19	3330.00
298.41	3442.64
298.62	3289.04
298.83	3289.04
299.05	3184.59
299.26	3385.29
299.48	3254.22
299.69	3131.34
299.90	2981.84
300.12	3237.84
300.33	3629.00
300.55	3145.68
300.76	3174.35
300.98	3217.36
301.19	3524.55
301.40	3076.05
301.62	3006.42
301.83	3567.56
302.05	3401.68
302.26	3033.04
302.47	3141.58
302.69	3203.02
302.90	3387.34
303.12	2934.74
303.33	3127.25
303.54	3872.71
303.76	3377.10
303.97	2967.51
304.19	3215.31
304.40	3258.32
304.61	3600.33
304.83	3155.92
305.04	3147.73
305.26	3659.72
305.47	3350.48
305.68	3137.49
305.90	3041.23
306.11	3753.93
306.33	3444.68
306.54	2928.60
306.75	3114.96
306.97	3080.14
307.18	3266.51
307.39	3094.48
307.61	3256.27
307.82	3426.25
308.04	3518.41
308.25	2985.94
308.46	3270.61
308.68	3459.02
308.89	3510.22
309.10	3194.83
309.32	3127.25
309.53	3418.06
309.74	3573.71
309.96	3006.42
310.17	3213.26
310.39	3368.91
310.60	3612.62
310.81	3106.77
311.03	3074.00
311.24	3614.66
311.45	3477.45
311.67	3360.72
311.88	3180.50
312.09	3284.94
312.31	3313.61
312.52	2922.45
312.73	3090.38
312.95	3209.17
313.16	3213.26
313.37	3258.32
313.59	3237.84
313.80	3590.09
314.01	3747.78
314.23	3110.86
314.44	3028.95
314.65	3110.86
314.87	3319.76
315.08	3198.93
315.29	3035.09
315.51	3256.27
315.72	3131.34
315.93	3090.38
316.15	3203.02
316.36	3442.64
316.57	3475.40
316.79	3096.53
317.00	3033.04
317.21	3635.14
317.43	3289.04
317.64	3164.11
317.85	2994.13
318.07	3274.70
318.28	3452.88
318.49	3147.73
318.70	3299.28
318.92	3428.30
319.13	3483.59
319.34	3174.35
319.56	3063.76
319.77	3532.75
319.98	3588.04
320.20	3360.72
320.41	3266.51
320.62	3567.56
320.83	3246.03
321.05	3256.27
321.26	3182.54
321.47	3469.26
321.69	3702.73
321.90	2992.08
322.11	3047.38
322.32	3526.60
322.54	3903.43
322.75	3137.49
322.96	4202.43
323.18	3151.82
323.39	3063.76
323.60	2975.70
323.81	3205.07
324.03	3381.20
324.24	3430.35
324.45	3237.84
324.66	2971.60
324.88	3674.06
325.09	3864.52
325.30	3123.15
325.52	3074.00
325.73	3538.89
325.94	3254.22
326.15	3088.34
326.37	2916.31
326.58	3618.76
326.79	3772.36
327.00	3057.62
327.22	3035.09
327.43	3334.09
327.64	3278.80
327.85	3303.37
328.07	3170.26
328.28	4020.16
328.49	3317.71
328.70	3174.35
328.92	3131.34
329.13	3405.77
329.34	3536.84
329.55	3350.48
329.76	3305.42
329.98	3360.72
330.19	3706.82
330.40	3125.20
330.61	3225.55
330.83	3723.21
331.04	3157.97
331.25	3207.12
331.46	3188.69
331.68	3135.44
331.89	3653.58
332.10	3104.72
332.31	2957.27
332.52	3409.87
332.74	3788.74
332.95	2973.65
333.16	3065.81
333.37	3590.09
333.58	3325.90
333.80	3121.10
334.01	2906.07
334.22	3454.92
334.43	3311.57
334.64	3016.66
334.86	3065.81
335.07	3237.84
335.28	3745.73
335.49	2996.18
335.70	3104.72
335.92	3684.30
336.13	3944.39
336.34	3155.92
336.55	3049.43
336.76	3610.57
336.98	3026.90
337.19	3104.72
337.40	3166.16
337.61	4071.36
337.82	3299.28
338.04	3155.92
338.25	2908.12
338.46	3407.82
338.67	3358.67
338.88	3033.04
339.09	3053.52
339.31	3311.57
339.52	3151.82
339.73	3080.14
339.94	3149.78
340.15	3549.13
340.36	3303.37
340.58	3147.73
340.79	2951.12
341.00	3565.51
341.21	3166.16
341.42	3387.34
341.63	3106.77
341.85	3706.82
342.06	3573.71
342.27	3065.81
342.48	3243.98
342.69	3157.97
342.90	3573.71
343.12	3592.14
343.33	3035.09
343.54	3647.43
343.75	3704.78
343.96	3217.36
344.17	3067.86
344.38	3422.16
344.60	3311.57
344.81	3106.77
345.02	3039.19
345.23	3676.10
345.44	4087.75
345.65	3127.25
345.86	3123.15
346.07	3549.13
346.29	3358.67
346.50	3358.67
346.71	3196.88
346.92	3792.84
347.13	3885.00
347.34	3215.31
347.55	2994.13
347.76	3536.84
347.98	3051.47
348.19	3186.64
348.40	3250.13
348.61	3262.41
348.82	3823.56
349.03	3186.64
349.24	2971.60
349.45	3860.42
349.66	2891.73
349.88	2994.13
350.09	2944.98
350.30	3708.87
350.51	3667.91
350.72	3373.00
350.93	3078.10
351.14	3299.28
351.35	3657.67
351.56	3092.43
351.77	3180.50
351.99	3577.80
352.20	3690.44
352.41	3213.26
352.62	3020.75
352.83	3471.31
353.04	3438.54
353.25	3166.16
353.46	3131.34
353.67	3674.06
353.88	3004.37
354.09	3004.37
354.30	3207.12
354.52	3661.77
354.73	3424.20
354.94	3037.14
355.15	3200.98
355.36	3821.51
355.57	3311.57
355.78	3016.66
355.99	3000.27
356.20	3442.64
356.41	3770.31
356.62	3219.41
356.83	3151.82
357.04	3704.78
357.25	3076.05
357.46	3092.43
357.68	2967.51
357.89	3252.17
358.10	3452.88
358.31	3043.28
358.52	3143.63
358.73	3209.17
358.94	3233.74
359.15	3114.96
359.36	3137.49
359.57	3409.87
359.78	3370.96
359.99	3268.56
360.20	3037.14
360.41	3364.81
360.62	3592.14
360.83	3200.98
361.04	3225.55
361.25	3553.23
361.46	3823.56
361.67	3231.69
361.88	3153.87
362.09	3686.34
362.30	3440.59
362.51	3129.30
362.72	3147.73
362.93	3620.81
363.14	3569.61
363.35	3246.03
363.56	3067.86
363.78	3729.35
363.99	3622.86
364.20	3164.11
364.41	3200.98
364.62	3934.15
364.83	3518.41
365.04	3114.96
365.25	3174.35
365.46	3987.40
365.67	3229.65
365.88	3307.47
366.09	3090.38
366.30	3303.37
366.51	3422.16
366.72	3071.95
366.93	3059.67
367.14	3385.29
367.35	3667.91
367.56	2944.98
367.77	3262.41
367.98	3467.21
368.18	3524.55
368.39	3188.69
368.60	3059.67
368.81	3565.51
369.02	3438.54
369.23	3131.34
369.44	2975.70
369.65	3362.76
369.86	3590.09
370.07	3190.74
370.28	3069.91
370.49	3475.40
370.70	3573.71
370.91	3055.57
371.12	3033.04
371.33	3758.02
371.54	3289.04
371.75	3196.88
371.96	2772.95
372.17	3487.69
372.38	3393.48
372.59	3174.35
372.80	3024.85
373.01	3393.48
373.22	3420.11
373.43	3092.43
373.64	2990.03
373.85	3780.55
374.06	3899.33
374.26	3327.95
374.47	3211.22
374.68	3796.93
374.89	3452.88
375.10	3065.81
375.31	3246.03
375.52	3438.54
375.73	3471.31
375.94	2951.12
376.15	3229.65
376.36	3348.43
376.57	3323.85
376.78	3114.96
376.99	3176.40
377.20	3721.16
377.40	3258.32
377.61	3383.24
377.82	3074.00
378.03	3735.50
378.24	3534.79
378.45	3246.03
378.66	3215.31
378.87	3186.64
379.08	3143.63
379.29	3094.48
379.50	3299.28
379.71	3323.85
379.91	3631.05
380.12	3098.58
380.33	3246.03
380.54	3360.72
380.75	3354.57
380.96	3086.29
381.17	3157.97
381.38	3465.16
381.59	3481.55
381.80	3170.26
382.00	3321.81
382.21	3426.25
382.42	3790.79
382.63	3506.12
382.84	3286.99
383.05	3655.62
383.26	3676.10
383.47	3264.46
383.68	3024.85
383.88	3553.23
384.09	3459.02
384.30	3307.47
384.51	3262.41
384.72	3381.20
384.93	3194.83
385.14	3207.12
385.35	3450.83
385.55	3164.11
385.76	3729.35
385.97	3137.49
386.18	2901.97
386.39	3239.89
386.60	3360.72
386.81	3094.48
387.02	3004.37
387.22	3160.02
387.43	3581.90
387.64	3196.88
387.85	3286.99
388.06	3516.36
388.27	4396.99
388.48	7321.49
388.68	10870.62
388.89	13524.79
389.10	14718.75
389.31	14534.43
389.52	11603.79
389.73	10215.27
389.93	9609.07
390.14	8355.71
390.35	7882.63
390.56	7223.19
390.77	6244.26
390.98	4777.91
391.18	4114.37
391.39	3903.43
391.60	3467.21
391.81	3330.00
392.02	3180.50
392.23	4016.07
392.43	3454.92
392.64	3297.23
392.85	3311.57
393.06	3803.08
393.27	3373.00
393.47	3098.58
393.68	3164.11
393.89	3393.48
394.10	3753.93
394.31	3147.73
394.52	3037.14
394.72	3254.22
394.93	3749.83
395.14	2983.89
395.35	3311.57
395.56	3354.57
395.76	3454.92
395.97	3026.90
396.18	3311.57
396.39	3360.72
396.60	4007.87
396.80	3506.12
397.01	3338.19
397.22	3719.11
397.43	3602.38
397.64	3094.48
397.84	3207.12
398.05	3860.42
398.26	3403.72
398.47	3237.84
398.67	3319.76
398.88	3499.98
399.09	3602.38
399.30	3092.43
399.51	3196.88
399.71	3268.56
399.92	3438.54
400.13	3157.97
400.34	3170.26
400.54	3483.59
400.75	3770.31
400.96	3227.60
401.17	3577.80
401.37	3571.66
401.58	3420.11
401.79	3074.00
402.00	3239.89
402.21	3975.11
402.41	3545.03
402.62	3307.47
402.83	3532.75
403.04	3784.65
403.24	4263.87
403.45	3237.84
403.66	3428.30
403.87	3647.43
404.07	3778.50
404.28	3418.06
404.49	3424.20
404.70	3557.32
404.90	3663.82
405.11	3143.63
405.32	3266.51
405.52	3295.18
405.73	3229.65
405.94	3086.29
406.15	3256.27
406.35	3604.42
406.56	3565.51
406.77	3221.45
406.98	3215.31
407.18	3301.33
407.39	3778.50
407.60	3155.92
407.80	3268.56
408.01	3348.43
408.22	3569.61
408.43	3057.62
408.63	3282.89
408.84	3637.19
409.05	3735.50
409.25	3080.14
409.46	3217.36
409.67	3405.77
409.88	3278.80
410.08	3184.59
410.29	3114.96
410.50	3635.14
410.70	3581.90
410.91	3039.19
411.12	3250.13
411.32	3481.55
411.53	3295.18
411.74	3209.17
411.95	3141.58
412.15	3465.16
412.36	3518.41
412.57	3237.84
412.77	3389.39
412.98	3522.51
413.19	3358.67
413.39	3170.26
413.60	3190.74
413.81	3739.59
414.01	3270.61
414.22	3137.49
414.43	3327.95
414.63	3334.09
414.84	3608.52
415.05	3211.22
415.25	3051.47
415.46	3696.58
415.67	3336.14
415.87	3209.17
416.08	3155.92
416.29	3430.35
416.49	3561.42
416.70	3241.93
416.91	3174.35
417.11	3368.91
417.32	3602.38
417.53	3254.22
417.73	3248.08
417.94	3467.21
418.15	3524.55
418.35	3229.65
418.56	3182.54
418.77	3991.49
418.97	3495.88
419.18	3297.23
419.38	2885.59
419.59	3426.25
419.80	3801.03
420.00	2996.18
420.21	3157.97
420.42	3741.64
420.62	3647.43
420.83	3192.78
421.04	3131.34
421.24	3450.83
421.45	3688.39
421.65	3217.36
421.86	3190.74
422.07	3641.29
422.27	3524.55
422.48	3114.96
422.69	2979.79
422.89	3352.52
423.10	3336.14
423.30	3090.38
423.51	3207.12
423.72	3536.84
423.92	3583.95
424.13	3086.29
424.33	3364.81
424.54	3565.51
424.75	3440.59
424.95	3407.82
425.16	3139.54
425.36	3444.68
425.57	3645.38
425.78	3336.14
425.98	3235.79
426.19	3389.39
426.39	3311.57
426.60	3284.94
426.81	3340.24
427.01	3491.79
427.22	3299.28
427.42	3049.43
427.63	3039.19
427.83	3600.33
428.04	3854.28
428.25	3243.98
428.45	3274.70
428.66	3770.31
428.86	3377.10
429.07	3149.78
429.28	3170.26
429.48	3409.87
429.69	3235.79
429.89	3301.33
430.10	3106.77
430.30	3549.13
430.51	3678.15
430.71	3098.58
430.92	3239.89
431.13	3282.89
431.33	3594.19
431.54	3250.13
431.74	3340.24
431.95	3897.28
432.15	3209.17
432.36	3137.49
432.56	3282.89
432.77	3944.39
432.98	3887.04
433.18	3289.04
433.39	3059.67
433.59	3375.05
433.80	3903.43
434.00	3264.46
434.21	3194.83
434.41	3282.89
434.62	3887.04
434.82	3014.61
435.03	3071.95
435.23	3608.52
435.44	3117.01
435.64	3082.19
435.85	3211.22
436.06	3585.99
436.26	3696.58
436.47	3213.26
436.67	3086.29
436.88	3381.20
437.08	3688.39
437.29	3266.51
437.49	3323.85
437.70	3737.54
437.90	3430.35
438.11	3356.62
438.31	3286.99
438.52	3749.83
438.72	3618.76
438.93	3467.21
439.13	3295.18
439.34	3473.36
439.54	3348.43
439.75	3321.81
439.95	3160.02
440.16	3252.17
440.36	3502.03
440.57	3164.11
440.77	3155.92
440.98	3442.64
441.18	3567.56
441.39	3041.23
441.59	3082.19
441.80	3923.91
442.00	3360.72
442.21	3307.47
442.41	3014.61
442.62	3680.20
442.82	3370.96
443.02	3157.97
443.23	3082.19
443.43	3395.53
443.64	3729.35
443.84	2996.18
444.05	3229.65
444.25	3446.73
444.46	3342.28
444.66	3196.88
444.87	3332.05
445.07	3065.81
445.28	3354.57
445.48	3360.72
445.69	3207.12
445.89	4095.94
446.09	3426.25
446.30	3456.97
446.50	3471.31
446.71	5091.25
446.91	6281.12
447.12	6827.93
447.32	7237.52
447.53	7282.58
447.73	6031.27
447.93	5279.66
448.14	5179.31
448.34	5468.08
448.55	4476.86
448.75	4347.84
448.96	4212.67
449.16	4167.62
449.36	4001.73
449.57	3403.72
449.77	3239.89
449.98	3364.81
450.18	3504.07
450.39	3078.10
450.59	3436.49
450.79	3387.34
451.00	3360.72
451.20	3397.58
451.41	3246.03
451.61	3446.73
451.81	3549.13
452.02	3143.63
452.22	3172.30
452.43	3413.96
