SpectraSuite Data File
++++++++++++++++++++++++++++++++++++
Date: Fri May 06 09:28:42 CEST 2016
User: root
Dark Spectrum Present: No
Reference Spectrum Present: No
Number of Sampled Component Spectra: 1
Spectrometers: USB4C02835
Integration Time (usec): 100000 (USB4C02835)
Spectra Averaged: 1 (USB4C02835)
Boxcar Smoothing: 0 (USB4C02835)
Correct for Electrical Dark: No (USB4C02835)
Strobe/Lamp Enabled: No (USB4C02835)
Correct for Detector Non-linearity: No (USB4C02835)
Correct for Stray Light: No (USB4C02835)
Number of Pixels in Processed Spectrum: 3648
>>>>>Begin Processed Spectral Data<<<<<
177.47	2312.16
177.69	2312.16
177.91	2312.16
178.13	2287.58
178.36	2385.88
178.58	3137.49
178.80	3246.03
179.02	3157.97
179.24	3205.07
179.46	2889.68
179.68	2938.84
179.90	3387.34
180.13	3467.21
180.35	2705.37
180.57	2928.60
180.79	3602.38
181.01	3461.07
181.23	2998.23
181.45	3110.86
181.67	3585.99
181.90	3698.63
182.12	3059.67
182.34	2901.97
182.56	3563.47
182.78	3510.22
183.00	2914.26
183.22	2996.18
183.44	3074.00
183.66	4102.08
183.89	3125.20
184.11	2996.18
184.33	3639.24
184.55	3663.82
184.77	2848.72
184.99	2904.02
185.21	3348.43
185.43	4036.55
185.65	2918.36
185.87	2920.40
186.10	3979.20
186.32	3950.53
186.54	3117.01
186.76	3061.71
186.98	3688.39
187.20	3475.40
187.42	2985.94
187.64	2936.79
187.86	3545.03
188.08	3729.35
188.30	2869.20
188.52	3010.51
188.75	3710.92
188.97	3788.74
189.19	3024.85
189.41	2867.16
189.63	3563.47
189.85	3403.72
190.07	2824.15
190.29	2805.72
190.51	3495.88
190.73	3123.15
190.95	3030.99
191.17	2955.22
191.39	3129.30
191.61	3307.47
191.84	2990.03
192.06	3162.06
192.28	3071.95
192.50	4210.62
192.72	3059.67
192.94	3084.24
193.16	3774.41
193.38	3536.84
193.60	2893.78
193.82	3151.82
194.04	3624.90
194.26	3573.71
194.48	2990.03
194.70	2987.99
194.92	3334.09
195.14	3579.85
195.36	2869.20
195.58	3055.57
195.80	3452.88
196.02	3327.95
196.24	2975.70
196.46	3049.43
196.69	3346.38
196.91	4024.26
197.13	2869.20
197.35	3024.85
197.57	3782.60
197.79	3565.51
198.01	3065.81
198.23	2983.89
198.45	3631.05
198.67	3221.45
198.89	2721.75
199.11	3108.82
199.33	3256.27
199.55	3024.85
199.77	2889.68
199.99	3098.58
200.21	3346.38
200.43	3575.75
200.65	2787.29
200.87	2854.87
201.09	3432.40
201.31	3428.30
201.53	2975.70
201.75	3012.56
201.97	3606.47
202.19	3538.89
202.41	3051.47
202.63	3033.04
202.85	3530.70
203.07	3454.92
203.29	3057.62
203.51	2906.07
203.73	3336.14
203.95	3958.72
204.17	2873.30
204.39	3168.21
204.61	3467.21
204.83	3315.66
205.05	3098.58
205.27	2947.03
205.49	3915.72
205.71	3442.64
205.93	2861.01
206.15	2713.56
206.37	3569.61
206.59	3409.87
206.81	2803.67
207.03	2830.29
207.25	3270.61
207.47	3620.81
207.69	2996.18
207.91	3205.07
208.13	3880.90
208.34	3321.81
208.56	2914.26
208.78	2934.74
209.00	3330.00
209.22	3362.76
209.44	3033.04
209.66	2873.30
209.88	3506.12
210.10	3352.52
210.32	2975.70
210.54	3065.81
210.76	3401.68
210.98	3575.75
211.20	2795.48
211.42	3022.80
211.64	3725.26
211.86	3657.67
212.08	3061.71
212.30	2944.98
212.52	3469.26
212.74	3633.10
212.96	3045.33
213.17	3094.48
213.39	3573.71
213.61	3885.00
213.83	2904.02
214.05	2836.44
214.27	3639.24
214.49	3264.46
214.71	2854.87
214.93	3069.91
215.15	3436.49
215.37	3667.91
215.59	2842.58
215.81	2979.79
216.03	3837.89
216.24	3401.68
216.46	3010.51
216.68	3053.52
216.90	3577.80
217.12	3655.62
217.34	2914.26
217.56	3174.35
217.78	3823.56
218.00	3573.71
218.22	3059.67
218.44	3059.67
218.66	3555.27
218.87	3788.74
219.09	3071.95
219.31	3051.47
219.53	3571.66
219.75	3336.14
219.97	3051.47
220.19	3080.14
220.41	3442.64
220.63	3796.93
220.85	3037.14
221.06	3002.32
221.28	3688.39
221.50	3557.32
221.72	2959.31
221.94	2936.79
222.16	3434.44
222.38	3682.25
222.60	2985.94
222.82	2975.70
223.03	3659.72
223.25	3141.58
223.47	2971.60
223.69	3250.13
223.91	3573.71
224.13	3473.36
224.35	2809.81
224.57	3174.35
224.78	3624.90
225.00	3246.03
225.22	3069.91
225.44	2895.83
225.66	3618.76
225.88	3299.28
226.10	3155.92
226.32	2992.08
226.53	3831.75
226.75	3336.14
226.97	3098.58
227.19	2975.70
227.41	3325.90
227.63	3379.15
227.85	2705.37
228.06	3065.81
228.28	3456.97
228.50	3624.90
228.72	2887.64
228.94	3037.14
229.16	3080.14
229.37	3223.50
229.59	2955.22
229.81	3168.21
230.03	3264.46
230.25	3166.16
230.47	2836.44
230.69	2990.03
230.90	3647.43
231.12	3297.23
231.34	3151.82
231.56	3065.81
231.78	3291.09
232.00	3389.39
232.21	3065.81
232.43	3057.62
232.65	2965.46
232.87	3483.59
233.09	2836.44
233.30	2932.69
233.52	3723.21
233.74	3483.59
233.96	2930.64
234.18	3207.12
234.40	3461.07
234.61	4048.83
234.83	2869.20
235.05	2938.84
235.27	4009.92
235.49	3631.05
235.70	2809.81
235.92	2992.08
236.14	3672.01
236.36	3993.54
236.58	2897.88
236.79	3104.72
237.01	3467.21
237.23	3416.01
237.45	3157.97
237.67	3061.71
237.88	3538.89
238.10	3885.00
238.32	2922.45
238.54	2836.44
238.76	3416.01
238.97	3258.32
239.19	2873.30
239.41	2996.18
239.63	3635.14
239.85	3393.48
240.06	3069.91
240.28	2934.74
240.50	3659.72
240.72	3452.88
240.93	2836.44
241.15	3018.71
241.37	3389.39
241.59	3672.01
241.81	3055.57
242.02	3074.00
242.24	3565.51
242.46	3510.22
242.68	2838.48
242.89	2828.24
243.11	3633.10
243.33	3432.40
243.55	3004.37
243.76	2987.99
243.98	3229.65
244.20	3375.05
244.42	2957.27
244.64	2879.44
244.85	3151.82
245.07	3192.78
245.29	2914.26
245.51	2996.18
245.72	3518.41
245.94	3641.29
246.16	2926.55
246.38	2955.22
246.59	3403.72
246.81	3284.94
247.03	2830.29
247.24	2740.18
247.46	3407.82
247.68	3450.83
247.90	2893.78
248.11	3012.56
248.33	3538.89
248.55	3397.58
248.77	3063.76
248.98	3030.99
249.20	3776.45
249.42	3532.75
249.64	2938.84
249.85	2869.20
250.07	3409.87
250.29	3674.06
250.50	3014.61
250.72	2922.45
250.94	3598.28
251.16	3862.47
251.37	2873.30
251.59	3024.85
251.81	3545.03
252.02	3772.36
252.24	2883.54
252.46	3074.00
252.68	3301.33
252.89	3303.37
253.11	2791.38
253.33	3149.78
253.54	3866.56
253.76	3178.45
253.98	2996.18
254.20	2912.21
254.41	3157.97
254.63	3348.43
254.85	2779.09
255.06	3125.20
255.28	3514.31
255.50	3426.25
255.71	2904.02
255.93	2766.81
256.15	3323.85
256.36	3557.32
256.58	2869.20
256.80	2873.30
257.02	3383.24
257.23	3315.66
257.45	3035.09
257.67	3117.01
257.88	3340.24
258.10	3448.78
258.32	2949.08
258.53	3059.67
258.75	3798.98
258.97	3284.94
259.18	2863.06
259.40	2891.73
259.62	3839.94
259.83	3825.61
260.05	2983.89
260.27	3925.96
260.48	3698.63
260.70	3246.03
260.92	2836.44
261.13	2969.55
261.35	3418.06
261.57	3540.94
261.78	2852.82
262.00	2846.68
262.22	3610.57
262.43	3262.41
262.65	3012.56
262.86	2987.99
263.08	4059.07
263.30	3530.70
263.51	2772.95
263.73	2983.89
263.95	3776.45
264.16	3223.50
264.38	2832.34
264.60	2840.53
264.81	3450.83
265.03	3721.16
265.25	3426.25
265.46	2889.68
265.68	3751.88
265.89	3592.14
266.11	2828.24
266.33	2973.65
266.54	3721.16
266.76	3487.69
266.98	3104.72
267.19	3164.11
267.41	3661.77
267.62	3467.21
267.84	2738.13
268.06	3033.04
268.27	3514.31
268.49	3805.13
268.70	2994.13
268.92	3010.51
269.14	3289.04
269.35	3160.02
269.57	3110.86
269.79	3010.51
270.00	3319.76
270.22	3766.21
270.43	2842.58
270.65	2785.24
270.87	3446.73
271.08	3663.82
271.30	3041.23
271.51	2975.70
271.73	3684.30
271.95	3835.85
272.16	2875.35
272.38	3139.54
272.59	3338.19
272.81	3571.66
273.02	2926.55
273.24	3057.62
273.46	3684.30
273.67	3192.78
273.89	2781.14
274.10	2951.12
274.32	3729.35
274.54	3581.90
274.75	3024.85
274.97	3102.67
275.18	3583.95
275.40	3565.51
275.61	3082.19
275.83	3100.62
276.05	3149.78
276.26	3332.05
276.48	3041.23
276.69	3123.15
276.91	3282.89
277.12	3821.51
277.34	3104.72
277.55	3231.69
277.77	3418.06
277.99	3327.95
278.20	3121.10
278.42	3008.47
278.63	3282.89
278.85	3221.45
279.06	3030.99
279.28	3274.70
279.49	3712.97
279.71	3569.61
279.93	3117.01
280.14	3119.06
280.36	3344.33
280.57	3715.02
280.79	3143.63
281.00	2965.46
281.22	3338.19
281.43	3710.92
281.65	2877.40
281.86	2979.79
282.08	3583.95
282.29	3930.05
282.51	2973.65
282.73	3043.28
282.94	3129.30
283.16	3661.77
283.37	3182.54
283.59	3125.20
283.80	3585.99
284.02	3418.06
284.23	3188.69
284.45	3225.55
284.66	3278.80
284.88	3278.80
285.09	2979.79
285.31	3250.13
285.52	3561.42
285.74	3084.24
285.95	3327.95
286.17	3182.54
286.38	3712.97
286.60	3278.80
286.81	3080.14
287.03	3090.38
287.24	3428.30
287.46	3461.07
287.67	3309.52
287.89	3289.04
288.10	3504.07
288.32	3495.88
288.53	3299.28
288.75	3143.63
288.96	3659.72
289.18	3364.81
289.39	3043.28
289.61	3137.49
289.82	3893.19
290.04	3913.67
290.25	2928.60
290.47	3145.68
290.68	3401.68
290.90	3686.34
291.11	2844.63
291.33	3200.98
291.54	3352.52
291.76	3323.85
291.97	3278.80
292.18	3213.26
292.40	3395.53
292.61	3274.70
292.83	3434.44
293.04	3119.06
293.26	3557.32
293.47	3403.72
293.69	3065.81
293.90	3061.71
294.12	3753.93
294.33	3459.02
294.55	3125.20
294.76	3284.94
294.97	3809.22
295.19	3950.53
295.40	3074.00
295.62	3139.54
295.83	3647.43
296.05	3217.36
296.26	3321.81
296.48	3139.54
296.69	3319.76
296.90	3473.36
297.12	3217.36
297.33	3198.93
297.55	3540.94
297.76	3479.50
297.98	3198.93
298.19	3364.81
298.41	3434.44
298.62	3272.65
298.83	3393.48
299.05	3250.13
299.26	3434.44
299.48	3330.00
299.69	3102.67
299.90	3071.95
300.12	3282.89
300.33	3573.71
300.55	3104.72
300.76	3254.22
300.98	3192.78
301.19	3577.80
301.40	3139.54
301.62	3028.95
301.83	3626.95
302.05	3368.91
302.26	3026.90
302.47	3262.41
302.69	3237.84
302.90	3477.45
303.12	2969.55
303.33	3233.74
303.54	3966.92
303.76	3311.57
303.97	3080.14
304.19	3231.69
304.40	3313.61
304.61	3518.41
304.83	3198.93
305.04	3127.25
305.26	3700.68
305.47	3352.52
305.68	3155.92
305.90	2947.03
306.11	3831.75
306.33	3385.29
306.54	2955.22
306.75	3067.86
306.97	3149.78
307.18	3194.83
307.39	3151.82
307.61	3205.07
307.82	3391.44
308.04	3526.60
308.25	2938.84
308.46	3215.31
308.68	3438.54
308.89	3428.30
309.10	3209.17
309.32	3123.15
309.53	3448.78
309.74	3526.60
309.96	2981.84
310.17	3114.96
310.39	3422.16
310.60	3610.57
310.81	3088.34
311.03	3014.61
311.24	3555.27
311.45	3463.12
311.67	3348.43
311.88	3278.80
312.09	3342.28
312.31	3401.68
312.52	2992.08
312.73	3000.27
312.95	3180.50
313.16	3205.07
313.37	3260.37
313.59	3221.45
313.80	3618.76
314.01	3846.09
314.23	3057.62
314.44	3049.43
314.65	3100.62
314.87	3237.84
315.08	3112.91
315.29	3186.64
315.51	3330.00
315.72	3106.77
315.93	3164.11
316.15	3076.05
316.36	3286.99
316.57	3491.79
316.79	3145.68
317.00	3084.24
317.21	3672.01
317.43	3289.04
317.64	3133.39
317.85	2959.31
318.07	3301.33
318.28	3362.76
318.49	3192.78
318.70	3299.28
318.92	3446.73
319.13	3473.36
319.34	3282.89
319.56	3063.76
319.77	3506.12
319.98	3561.42
320.20	3407.82
320.41	3303.37
320.62	3614.66
320.83	3153.87
321.05	3237.84
321.26	3129.30
321.47	3475.40
321.69	3755.97
321.90	3071.95
322.11	3045.33
322.32	3612.62
322.54	3747.78
322.75	3184.59
322.96	4200.38
323.18	3125.20
323.39	2990.03
323.60	3010.51
323.81	3198.93
324.03	3362.76
324.24	3383.24
324.45	3233.74
324.66	3047.38
324.88	3796.93
325.09	3796.93
325.30	3125.20
325.52	3008.47
325.73	3581.90
325.94	3233.74
326.15	3010.51
326.37	2967.51
326.58	3672.01
326.79	3827.65
327.00	2975.70
327.22	3125.20
327.43	3411.92
327.64	3280.85
327.85	3293.13
328.07	3112.91
328.28	3889.09
328.49	3405.77
328.70	3227.60
328.92	3039.19
329.13	3389.39
329.34	3516.36
329.55	3342.28
329.76	3270.61
329.98	3305.42
330.19	3655.62
330.40	3184.59
330.61	3149.78
330.83	3606.47
331.04	3231.69
331.25	3227.60
331.46	3217.36
331.68	3207.12
331.89	3651.53
332.10	3219.41
332.31	2987.99
332.52	3348.43
332.74	3663.82
332.95	3069.91
333.16	3110.86
333.37	3637.19
333.58	3258.32
333.80	3121.10
334.01	2889.68
334.22	3491.79
334.43	3168.21
334.64	2963.41
334.86	3057.62
335.07	3258.32
335.28	3710.92
335.49	3000.27
335.70	3172.30
335.92	3649.48
336.13	3962.82
336.34	3127.25
336.55	3057.62
336.76	3483.59
336.98	2973.65
337.19	3094.48
337.40	3149.78
337.61	3968.96
337.82	3368.91
338.04	3196.88
338.25	2979.79
338.46	3407.82
338.67	3381.20
338.88	3045.33
339.09	3008.47
339.31	3332.05
339.52	3278.80
339.73	3104.72
339.94	3129.30
340.15	3540.94
340.36	3356.62
340.58	3145.68
340.79	3049.43
341.00	3512.27
341.21	3174.35
341.42	3319.76
341.63	3035.09
341.85	3620.81
342.06	3577.80
342.27	3057.62
342.48	3280.85
342.69	3237.84
342.90	3602.38
343.12	3581.90
343.33	3065.81
343.54	3667.91
343.75	3758.02
343.96	3229.65
344.17	3043.28
344.38	3401.68
344.60	3264.46
344.81	3049.43
345.02	3065.81
345.23	3622.86
345.44	4046.79
345.65	3194.83
345.86	3102.67
346.07	3477.45
346.29	3327.95
346.50	3235.79
346.71	3119.06
346.92	3710.92
347.13	3917.76
347.34	3250.13
347.55	3004.37
347.76	3561.42
347.98	3215.31
348.19	3123.15
348.40	3237.84
348.61	3401.68
348.82	3770.31
349.03	3094.48
349.24	2979.79
349.45	3807.17
349.66	3016.66
349.88	3102.67
350.09	3094.48
350.30	3823.56
350.51	3620.81
350.72	3264.46
350.93	3094.48
351.14	3391.44
351.35	3557.32
351.56	3123.15
351.77	3139.54
351.99	3536.84
352.20	3676.10
352.41	3172.30
352.62	2904.02
352.83	3348.43
353.04	3377.10
353.25	3147.73
353.46	3151.82
353.67	3643.34
353.88	3033.04
354.09	3014.61
354.30	3092.43
354.52	3598.28
354.73	3348.43
354.94	3078.10
355.15	3209.17
355.36	3860.42
355.57	3393.48
355.78	3080.14
355.99	3037.14
356.20	3379.15
356.41	3817.41
356.62	3205.07
356.83	3198.93
357.04	3626.95
357.25	3123.15
357.46	3051.47
357.68	2985.94
357.89	3246.03
358.10	3524.55
358.31	3098.58
358.52	3094.48
358.73	3209.17
358.94	3254.22
359.15	3117.01
359.36	3127.25
359.57	3459.02
359.78	3364.81
359.99	3282.89
360.20	2996.18
360.41	3399.63
360.62	3631.05
360.83	3176.40
361.04	3074.00
361.25	3594.19
361.46	3708.87
361.67	3215.31
361.88	3094.48
362.09	3696.58
362.30	3596.23
362.51	3030.99
362.72	3131.34
362.93	3669.96
363.14	3631.05
363.35	3229.65
363.56	3090.38
363.78	3749.83
363.99	3690.44
364.20	3082.19
364.41	3180.50
364.62	3878.85
364.83	3493.83
365.04	3125.20
365.25	3254.22
365.46	3876.80
365.67	3278.80
365.88	3301.33
366.09	3119.06
366.30	3368.91
366.51	3432.40
366.72	3016.66
366.93	3143.63
367.14	3497.93
367.35	3803.08
367.56	3104.72
367.77	3239.89
367.98	3428.30
368.18	3547.08
368.39	3264.46
368.60	3090.38
368.81	3594.19
369.02	3524.55
369.23	3117.01
369.44	3016.66
369.65	3459.02
369.86	3573.71
370.07	3178.45
370.28	2977.75
370.49	3547.08
370.70	3473.36
370.91	2975.70
371.12	2947.03
371.33	3618.76
371.54	3379.15
371.75	3225.55
371.96	2828.24
372.17	3438.54
372.38	3325.90
372.59	3188.69
372.80	3090.38
373.01	3344.33
373.22	3469.26
373.43	3112.91
373.64	2940.88
373.85	3762.12
374.06	3835.85
374.26	3184.59
374.47	3186.64
374.68	3846.09
374.89	3483.59
375.10	3014.61
375.31	3200.98
375.52	3516.36
375.73	3471.31
375.94	2926.55
376.15	3198.93
376.36	3321.81
376.57	3362.76
376.78	3151.82
376.99	3157.97
377.20	3712.97
377.40	3360.72
377.61	3358.67
377.82	3178.45
378.03	3721.16
378.24	3610.57
378.45	3123.15
378.66	3203.02
378.87	3114.96
379.08	3065.81
379.29	3104.72
379.50	3248.08
379.71	3448.78
379.91	3614.66
380.12	3145.68
380.33	3155.92
380.54	3510.22
380.75	3411.92
380.96	3133.39
381.17	3182.54
381.38	3399.63
381.59	3485.64
381.80	3223.50
382.00	3323.85
382.21	3405.77
382.42	3737.54
382.63	3456.97
382.84	3286.99
383.05	3590.09
383.26	3741.64
383.47	3327.95
383.68	3065.81
383.88	3547.08
384.09	3512.27
384.30	3373.00
384.51	3340.24
384.72	3364.81
384.93	3203.02
385.14	3241.93
385.35	3389.39
385.55	3053.52
385.76	3805.13
385.97	3121.10
386.18	2951.12
386.39	3289.04
386.60	3237.84
386.81	3065.81
387.02	3000.27
387.22	3162.06
387.43	3571.66
387.64	3237.84
387.85	3422.16
388.06	3477.45
388.27	4433.85
388.48	7184.27
388.68	10719.07
388.89	13582.13
389.10	14774.05
389.31	14413.60
389.52	11663.18
389.73	10000.23
389.93	9441.14
390.14	8460.16
390.35	7884.68
390.56	7524.24
390.77	6326.18
390.98	4599.74
391.18	4128.70
391.39	3952.58
391.60	3497.93
391.81	3430.35
392.02	3250.13
392.23	3946.44
392.43	3530.70
392.64	3248.08
392.85	3282.89
393.06	3749.83
393.27	3479.50
393.47	3114.96
393.68	3157.97
393.89	3430.35
394.10	3755.97
394.31	3110.86
394.52	3086.29
394.72	3350.48
394.93	3751.88
395.14	3033.04
395.35	3233.74
395.56	3327.95
395.76	3426.25
395.97	3000.27
396.18	3299.28
396.39	3395.53
396.60	4067.27
396.80	3510.22
397.01	3297.23
397.22	3557.32
397.43	3590.09
397.64	3160.02
397.84	3135.44
398.05	3866.56
398.26	3387.34
398.47	3217.36
398.67	3338.19
398.88	3428.30
399.09	3581.90
399.30	3090.38
399.51	3123.15
399.71	3246.03
399.92	3346.38
400.13	3225.55
400.34	3117.01
400.54	3463.12
400.75	3776.45
400.96	3176.40
401.17	3450.83
401.37	3549.13
401.58	3411.92
401.79	3080.14
402.00	3313.61
402.21	3917.76
402.41	3518.41
402.62	3387.34
402.83	3508.17
403.04	3792.84
403.24	4200.38
403.45	3227.60
403.66	3485.64
403.87	3733.45
404.07	3913.67
404.28	3418.06
404.49	3405.77
404.70	3612.62
404.90	3594.19
405.11	3160.02
405.32	3278.80
405.52	3311.57
405.73	3299.28
405.94	3076.05
406.15	3196.88
406.35	3680.20
406.56	3606.47
406.77	3143.63
406.98	3123.15
407.18	3338.19
407.39	3829.70
407.60	3215.31
407.80	3258.32
408.01	3432.40
408.22	3575.75
408.43	3014.61
408.63	3262.41
408.84	3676.10
409.05	3600.33
409.25	3114.96
409.46	3139.54
409.67	3409.87
409.88	3334.09
410.08	3166.16
410.29	3157.97
410.50	3694.54
410.70	3489.74
410.91	3100.62
411.12	3149.78
411.32	3442.64
411.53	3235.79
411.74	3127.25
411.95	3235.79
412.15	3459.02
412.36	3573.71
412.57	3270.61
412.77	3373.00
412.98	3352.52
413.19	3434.44
413.39	3229.65
413.60	3217.36
413.81	3741.64
414.01	3262.41
414.22	3205.07
414.43	3364.81
414.63	3344.33
414.84	3614.66
415.05	3168.21
415.25	3002.32
415.46	3610.57
415.67	3319.76
415.87	3188.69
416.08	3035.09
416.29	3311.57
416.49	3551.18
416.70	3172.30
416.91	3196.88
417.11	3399.63
417.32	3643.34
417.53	3215.31
417.73	3231.69
417.94	3389.39
418.15	3516.36
418.35	3192.78
418.56	3155.92
418.77	3960.77
418.97	3569.61
419.18	3297.23
419.38	2887.64
419.59	3448.78
419.80	3874.76
420.00	3063.76
420.21	3182.54
420.42	3745.73
420.62	3442.64
420.83	3153.87
421.04	3123.15
421.24	3473.36
421.45	3585.99
421.65	3080.14
421.86	3133.39
422.07	3733.45
422.27	3612.62
422.48	3133.39
422.69	2879.44
422.89	3504.07
423.10	3426.25
423.30	3119.06
423.51	3203.02
423.72	3530.70
423.92	3581.90
424.13	3010.51
424.33	3188.69
424.54	3692.49
424.75	3467.21
424.95	3362.76
425.16	3127.25
425.36	3358.67
425.57	3706.82
425.78	3297.23
425.98	3289.04
426.19	3323.85
426.39	3280.85
426.60	3223.50
426.81	3258.32
427.01	3555.27
427.22	3229.65
427.42	2977.75
427.63	3180.50
427.83	3608.52
428.04	3794.89
428.25	3205.07
428.45	3278.80
428.66	3719.11
428.86	3338.19
429.07	3149.78
429.28	3229.65
429.48	3479.50
429.69	3256.27
429.89	3192.78
430.10	3108.82
430.30	3602.38
430.51	3702.73
430.71	3139.54
430.92	3231.69
431.13	3291.09
431.33	3575.75
431.54	3186.64
431.74	3436.49
431.95	3968.96
432.15	3250.13
432.36	3190.74
432.56	3200.98
432.77	3901.38
432.98	3844.04
433.18	3209.17
433.39	2971.60
433.59	3362.76
433.80	4024.26
434.00	3403.72
434.21	3143.63
434.41	3299.28
434.62	3909.57
434.82	3067.86
435.03	3123.15
435.23	3481.55
435.44	3117.01
435.64	3137.49
435.85	3160.02
436.06	3712.97
436.26	3723.21
436.47	3139.54
436.67	3119.06
436.88	3405.77
437.08	3680.20
437.29	3332.05
437.49	3340.24
437.70	3712.97
437.90	3459.02
438.11	3393.48
438.31	3344.33
438.52	3715.02
438.72	3647.43
438.93	3463.12
439.13	3241.93
439.34	3608.52
439.54	3344.33
439.75	3262.41
439.95	3258.32
440.16	3313.61
440.36	3434.44
440.57	3168.21
440.77	3110.86
440.98	3313.61
441.18	3559.37
441.39	3024.85
441.59	3002.32
441.80	3901.38
442.00	3426.25
442.21	3207.12
442.41	2983.89
442.62	3635.14
442.82	3313.61
443.02	3151.82
443.23	3164.11
443.43	3272.65
443.64	3755.97
443.84	3045.33
444.05	3237.84
444.25	3467.21
444.46	3344.33
444.66	3139.54
444.87	3469.26
445.07	3108.82
445.28	3366.86
445.48	3321.81
445.69	3155.92
445.89	3987.40
446.09	3426.25
446.30	3467.21
446.50	3504.07
446.71	5050.29
446.91	6178.72
447.12	6719.39
447.32	7217.04
447.53	7253.91
447.73	6223.78
447.93	5353.39
448.14	5140.40
448.34	5334.96
448.55	4558.78
448.75	4327.36
448.96	4108.23
449.16	4110.27
449.36	4050.88
449.57	3387.34
449.77	3231.69
449.98	3362.76
450.18	3551.18
450.39	3127.25
450.59	3454.92
450.79	3465.16
451.00	3280.85
451.20	3364.81
451.41	3209.17
451.61	3512.27
451.81	3411.92
452.02	3086.29
452.22	3127.25
452.43	3352.52
