SpectraSuite Data File
++++++++++++++++++++++++++++++++++++
Date: Fri May 06 09:28:59 CEST 2016
User: root
Dark Spectrum Present: No
Reference Spectrum Present: No
Number of Sampled Component Spectra: 1
Spectrometers: USB4C02835
Integration Time (usec): 100000 (USB4C02835)
Spectra Averaged: 1 (USB4C02835)
Boxcar Smoothing: 0 (USB4C02835)
Correct for Electrical Dark: No (USB4C02835)
Strobe/Lamp Enabled: No (USB4C02835)
Correct for Detector Non-linearity: No (USB4C02835)
Correct for Stray Light: No (USB4C02835)
Number of Pixels in Processed Spectrum: 3648
>>>>>Begin Processed Spectral Data<<<<<
177.47	2371.55
177.69	2371.55
177.91	2371.55
178.13	2369.50
178.36	2330.59
178.58	3198.93
178.80	3311.57
179.02	3141.58
179.24	3225.55
179.46	2910.16
179.68	2932.69
179.90	3295.18
180.13	3477.45
180.35	2768.85
180.57	2838.48
180.79	3606.47
181.01	3321.81
181.23	2971.60
181.45	3162.06
181.67	3551.18
181.90	3639.24
182.12	3078.10
182.34	2830.29
182.56	3641.29
182.78	3592.14
183.00	2912.21
183.22	2914.26
183.44	3008.47
183.66	4132.80
183.89	3174.35
184.11	2963.41
184.33	3606.47
184.55	3706.82
184.77	2881.49
184.99	2983.89
185.21	3393.48
185.43	3971.01
185.65	2936.79
185.87	2951.12
186.10	3991.49
186.32	3987.40
186.54	3110.86
186.76	3012.56
186.98	3717.06
187.20	3401.68
187.42	3004.37
187.64	2930.64
187.86	3540.94
188.08	3655.62
188.30	2926.55
188.52	3006.42
188.75	3688.39
188.97	3698.63
189.19	2899.92
189.41	2906.07
189.63	3518.41
189.85	3360.72
190.07	2797.53
190.29	2801.62
190.51	3633.10
190.73	3209.17
190.95	3219.41
191.17	3000.27
191.39	3157.97
191.61	3416.01
191.84	3053.52
192.06	3080.14
192.28	3108.82
192.50	4249.54
192.72	3112.91
192.94	3104.72
193.16	3719.11
193.38	3502.03
193.60	2883.54
193.82	3270.61
194.04	3635.14
194.26	3475.40
194.48	2973.65
194.70	3024.85
194.92	3442.64
195.14	3606.47
195.36	2863.06
195.58	2985.94
195.80	3430.35
196.02	3313.61
196.24	2953.17
196.46	3016.66
196.69	3352.52
196.91	3940.29
197.13	3119.06
197.35	3035.09
197.57	3778.50
197.79	3608.52
198.01	3016.66
198.23	3002.32
198.45	3602.38
198.67	3207.12
198.89	2762.71
199.11	3160.02
199.33	3282.89
199.55	2959.31
199.77	2918.36
199.99	3094.48
200.21	3303.37
200.43	3542.99
200.65	2828.24
200.87	2809.81
201.09	3459.02
201.31	3438.54
201.53	2975.70
201.75	3192.78
201.97	3532.75
202.19	3387.34
202.41	3057.62
202.63	3018.71
202.85	3600.33
203.07	3459.02
203.29	3104.72
203.51	2828.24
203.73	3395.53
203.95	4104.13
204.17	2918.36
204.39	3182.54
204.61	3426.25
204.83	3295.18
205.05	3190.74
205.27	3018.71
205.49	3866.56
205.71	3426.25
205.93	2815.96
206.15	2787.29
206.37	3516.36
206.59	3411.92
206.81	2766.81
207.03	2820.05
207.25	3272.65
207.47	3633.10
207.69	2959.31
207.91	3237.84
208.13	3893.19
208.34	3256.27
208.56	2877.40
208.78	3000.27
209.00	3448.78
209.22	3299.28
209.44	2987.99
209.66	2936.79
209.88	3497.93
210.10	3411.92
210.32	2912.21
210.54	3065.81
210.76	3409.87
210.98	3610.57
211.20	2828.24
211.42	3092.43
211.64	3702.73
211.86	3594.19
212.08	3004.37
212.30	2936.79
212.52	3352.52
212.74	3647.43
212.96	3110.86
213.17	3024.85
213.39	3522.51
213.61	3831.75
213.83	2916.31
214.05	2844.63
214.27	3655.62
214.49	3166.16
214.71	2914.26
214.93	3135.44
215.15	3497.93
215.37	3723.21
215.59	2867.16
215.81	3020.75
216.03	3825.61
216.24	3436.49
216.46	3024.85
216.68	3035.09
216.90	3676.10
217.12	3747.78
217.34	2904.02
217.56	3180.50
217.78	3803.08
218.00	3573.71
218.22	3108.82
218.44	3092.43
218.66	3559.37
218.87	3798.98
219.09	3053.52
219.31	2994.13
219.53	3497.93
219.75	3352.52
219.97	3000.27
220.19	3059.67
220.41	3385.29
220.63	3745.73
220.85	3030.99
221.06	3002.32
221.28	3778.50
221.50	3614.66
221.72	2959.31
221.94	2854.87
222.16	3450.83
222.38	3684.30
222.60	3000.27
222.82	3117.01
223.03	3733.45
223.25	3153.87
223.47	2885.59
223.69	3200.98
223.91	3549.13
224.13	3452.88
224.35	2912.21
224.57	3160.02
224.78	3717.06
225.00	3205.07
225.22	3026.90
225.44	2879.44
225.66	3614.66
225.88	3305.42
226.10	3215.31
226.32	2947.03
226.53	3770.31
226.75	3303.37
226.97	3094.48
227.19	2926.55
227.41	3270.61
227.63	3459.02
227.85	2785.24
228.06	3065.81
228.28	3450.83
228.50	3647.43
228.72	2805.72
228.94	2883.54
229.16	3102.67
229.37	3100.62
229.59	2858.96
229.81	3262.41
230.03	3373.00
230.25	3246.03
230.47	2791.38
230.69	2947.03
230.90	3633.10
231.12	3368.91
231.34	3043.28
231.56	3014.61
231.78	3268.56
232.00	3411.92
232.21	3084.24
232.43	2955.22
232.65	3018.71
232.87	3508.17
233.09	2813.91
233.30	2930.64
233.52	3669.96
233.74	3469.26
233.96	2910.16
234.18	3205.07
234.40	3321.81
234.61	4016.07
234.83	2869.20
235.05	2844.63
235.27	3997.64
235.49	3813.32
235.70	2840.53
235.92	3053.52
236.14	3620.81
236.36	3944.39
236.58	2885.59
236.79	3035.09
237.01	3383.24
237.23	3409.87
237.45	3194.83
237.67	3080.14
237.88	3540.94
238.10	3928.00
238.32	2873.30
238.54	2881.49
238.76	3407.82
238.97	3198.93
239.19	2885.59
239.41	3106.77
239.63	3758.02
239.85	3385.29
240.06	3071.95
240.28	2975.70
240.50	3706.82
240.72	3440.59
240.93	2899.92
241.15	3119.06
241.37	3485.64
241.59	3809.22
241.81	3008.47
242.02	3037.14
242.24	3512.27
242.46	3678.15
242.68	2775.00
242.89	2887.64
243.11	3649.48
243.33	3418.06
243.55	2998.23
243.76	2940.88
243.98	3360.72
244.20	3436.49
244.42	2922.45
244.64	2922.45
244.85	3223.50
245.07	3225.55
245.29	2951.12
245.51	3035.09
245.72	3532.75
245.94	3598.28
246.16	2867.16
246.38	2930.64
246.59	3362.76
246.81	3362.76
247.03	2834.39
247.24	2781.14
247.46	3477.45
247.68	3577.80
247.90	2893.78
248.11	2895.83
248.33	3631.05
248.55	3395.53
248.77	2967.51
248.98	3065.81
249.20	3878.85
249.42	3475.40
249.64	2861.01
249.85	2940.88
250.07	3413.96
250.29	3663.82
250.50	3053.52
250.72	2908.12
250.94	3526.60
251.16	3956.68
251.37	2926.55
251.59	3098.58
251.81	3489.74
252.02	3743.69
252.24	2922.45
252.46	3123.15
252.68	3311.57
252.89	3284.94
253.11	2783.19
253.33	3164.11
253.54	3819.46
253.76	3262.41
253.98	2959.31
254.20	2994.13
254.41	3147.73
254.63	3379.15
254.85	2852.82
255.06	3108.82
255.28	3604.42
255.50	3459.02
255.71	2971.60
255.93	2822.10
256.15	3459.02
256.36	3631.05
256.58	2895.83
256.80	2869.20
257.02	3424.20
257.23	3360.72
257.45	3008.47
257.67	3069.91
257.88	3338.19
258.10	3553.23
258.32	3000.27
258.53	3051.47
258.75	3889.09
258.97	3278.80
259.18	2897.88
259.40	2930.64
259.62	3860.42
259.83	3739.59
260.05	2963.41
260.27	3946.44
260.48	3686.34
260.70	3172.30
260.92	2824.15
261.13	3018.71
261.35	3426.25
261.57	3524.55
261.78	2863.06
262.00	2936.79
262.22	3667.91
262.43	3268.56
262.65	2951.12
262.86	3065.81
263.08	4112.32
263.30	3446.73
263.51	2818.00
263.73	2928.60
263.95	3706.82
264.16	3280.85
264.38	2834.39
264.60	2922.45
264.81	3364.81
265.03	3762.12
265.25	3465.16
265.46	2920.40
265.68	3723.21
265.89	3536.84
266.11	2846.68
266.33	2955.22
266.54	3745.73
266.76	3565.51
266.98	3049.43
267.19	3188.69
267.41	3698.63
267.62	3340.24
267.84	2754.52
268.06	3074.00
268.27	3549.13
268.49	3686.34
268.70	2987.99
268.92	2979.79
269.14	3246.03
269.35	3190.74
269.57	3059.67
269.79	3051.47
270.00	3291.09
270.22	3784.65
270.43	2875.35
270.65	2813.91
270.87	3430.35
271.08	3655.62
271.30	3071.95
271.51	2969.55
271.73	3581.90
271.95	3717.06
272.16	2889.68
272.38	3090.38
272.59	3315.66
272.81	3528.65
273.02	2918.36
273.24	3051.47
273.46	3686.34
273.67	3284.94
273.89	2801.62
274.10	3000.27
274.32	3702.73
274.54	3532.75
274.75	3123.15
274.97	3090.38
275.18	3614.66
275.40	3567.56
275.61	2947.03
275.83	3141.58
276.05	3157.97
276.26	3317.71
276.48	3080.14
276.69	3125.20
276.91	3274.70
277.12	3747.78
277.34	3139.54
277.55	3172.30
277.77	3440.59
277.99	3340.24
278.20	3139.54
278.42	2985.94
278.63	3303.37
278.85	3303.37
279.06	3117.01
279.28	3182.54
279.49	3674.06
279.71	3475.40
279.93	3190.74
280.14	3059.67
280.36	3229.65
280.57	3682.25
280.79	3135.44
281.00	3000.27
281.22	3387.34
281.43	3667.91
281.65	2969.55
281.86	2983.89
282.08	3577.80
282.29	3882.95
282.51	2924.50
282.73	2983.89
282.94	3131.34
283.16	3624.90
283.37	3145.68
283.59	3076.05
283.80	3444.68
284.02	3358.67
284.23	3176.40
284.45	3131.34
284.66	3266.51
284.88	3295.18
285.09	2992.08
285.31	3168.21
285.52	3516.36
285.74	3119.06
285.95	3307.47
286.17	3131.34
286.38	3686.34
286.60	3317.71
286.81	3047.38
287.03	3055.57
287.24	3506.12
287.46	3602.38
287.67	3241.93
287.89	3313.61
288.10	3473.36
288.32	3434.44
288.53	3207.12
288.75	3162.06
288.96	3674.06
289.18	3305.42
289.39	3020.75
289.61	3164.11
289.82	3907.52
290.04	3846.09
290.25	2975.70
290.47	3190.74
290.68	3452.88
290.90	3684.30
291.11	2920.40
291.33	3215.31
291.54	3268.56
291.76	3303.37
291.97	3194.83
292.18	3151.82
292.40	3274.70
292.61	3295.18
292.83	3407.82
293.04	3125.20
293.26	3526.60
293.47	3313.61
293.69	3045.33
293.90	2877.40
294.12	3770.31
294.33	3463.12
294.55	3141.58
294.76	3284.94
294.97	3690.44
295.19	3950.53
295.40	3106.77
295.62	3174.35
295.83	3692.49
296.05	3256.27
296.26	3346.38
296.48	3074.00
296.69	3387.34
296.90	3403.72
297.12	3231.69
297.33	3239.89
297.55	3508.17
297.76	3545.03
297.98	3205.07
298.19	3327.95
298.41	3434.44
298.62	3254.22
298.83	3278.80
299.05	3227.60
299.26	3270.61
299.48	3321.81
299.69	3129.30
299.90	3069.91
300.12	3319.76
300.33	3532.75
300.55	3176.40
300.76	3246.03
300.98	3239.89
301.19	3608.52
301.40	3106.77
301.62	3143.63
301.83	3598.28
302.05	3362.76
302.26	3098.58
302.47	3217.36
302.69	3227.60
302.90	3469.26
303.12	2904.02
303.33	3237.84
303.54	3899.33
303.76	3301.33
303.97	2987.99
304.19	3303.37
304.40	3323.85
304.61	3516.36
304.83	3135.44
305.04	3174.35
305.26	3540.94
305.47	3321.81
305.68	3092.43
305.90	3049.43
306.11	3854.28
306.33	3348.43
306.54	2953.17
306.75	2992.08
306.97	3215.31
307.18	3248.08
307.39	3037.14
307.61	3225.55
307.82	3483.59
308.04	3551.18
308.25	2955.22
308.46	3198.93
308.68	3518.41
308.89	3508.17
309.10	3178.45
309.32	3129.30
309.53	3504.07
309.74	3569.61
309.96	3065.81
310.17	3192.78
310.39	3362.76
310.60	3692.49
310.81	3053.52
311.03	2959.31
311.24	3596.23
311.45	3444.68
311.67	3405.77
311.88	3262.41
312.09	3311.57
312.31	3356.62
312.52	2957.27
312.73	3094.48
312.95	3149.78
313.16	3268.56
313.37	3262.41
313.59	3293.13
313.80	3694.54
314.01	3684.30
314.23	3147.73
314.44	3047.38
314.65	3168.21
314.87	3319.76
315.08	3065.81
315.29	3061.71
315.51	3295.18
315.72	3135.44
315.93	3164.11
316.15	3139.54
316.36	3323.85
316.57	3428.30
316.79	3045.33
317.00	3028.95
317.21	3530.70
317.43	3213.26
317.64	3117.01
317.85	3016.66
318.07	3200.98
318.28	3346.38
318.49	3198.93
318.70	3364.81
318.92	3545.03
319.13	3426.25
319.34	3248.08
319.56	3043.28
319.77	3551.18
319.98	3553.23
320.20	3364.81
320.41	3248.08
320.62	3585.99
320.83	3246.03
321.05	3299.28
321.26	3141.58
321.47	3542.99
321.69	3737.54
321.90	3065.81
322.11	3024.85
322.32	3534.79
322.54	3805.13
322.75	3131.34
322.96	4272.06
323.18	3237.84
323.39	2994.13
323.60	2959.31
323.81	3254.22
324.03	3264.46
324.24	3461.07
324.45	3221.45
324.66	3049.43
324.88	3600.33
325.09	3737.54
325.30	3063.76
325.52	3016.66
325.73	3459.02
325.94	3330.00
326.15	2926.55
326.37	2973.65
326.58	3592.14
326.79	3827.65
327.00	2994.13
327.22	3049.43
327.43	3385.29
327.64	3295.18
327.85	3200.98
328.07	3184.59
328.28	3962.82
328.49	3246.03
328.70	3121.10
328.92	3209.17
329.13	3461.07
329.34	3663.82
329.55	3360.72
329.76	3258.32
329.98	3356.62
330.19	3764.17
330.40	3166.16
330.61	3301.33
330.83	3555.27
331.04	3225.55
331.25	3198.93
331.46	3121.10
331.68	3213.26
331.89	3649.48
332.10	3174.35
332.31	2936.79
332.52	3368.91
332.74	3733.45
332.95	2938.84
333.16	3139.54
333.37	3616.71
333.58	3301.33
333.80	3090.38
334.01	2885.59
334.22	3465.16
334.43	3327.95
334.64	3010.51
334.86	3198.93
335.07	3315.66
335.28	3729.35
335.49	3000.27
335.70	3157.97
335.92	3815.37
336.13	3860.42
336.34	3155.92
336.55	3119.06
336.76	3438.54
336.98	3022.80
337.19	3071.95
337.40	3198.93
337.61	4028.35
337.82	3364.81
338.04	3149.78
338.25	2975.70
338.46	3397.58
338.67	3518.41
338.88	3086.29
339.09	3018.71
339.31	3344.33
339.52	3219.41
339.73	3008.47
339.94	3174.35
340.15	3674.06
340.36	3229.65
340.58	3303.37
340.79	3106.77
341.00	3559.37
341.21	3137.49
341.42	3364.81
341.63	2987.99
341.85	3715.02
342.06	3491.79
342.27	3082.19
342.48	3250.13
342.69	3123.15
342.90	3573.71
343.12	3583.95
343.33	3020.75
343.54	3680.20
343.75	3753.93
343.96	3284.94
344.17	3045.33
344.38	3434.44
344.60	3141.58
344.81	3074.00
345.02	3131.34
345.23	3633.10
345.44	3936.20
345.65	3157.97
345.86	3164.11
346.07	3561.42
346.29	3241.93
346.50	3213.26
346.71	3231.69
346.92	3696.58
347.13	3948.48
347.34	3209.17
347.55	2977.75
347.76	3545.03
347.98	3203.02
348.19	3170.26
348.40	3286.99
348.61	3297.23
348.82	3690.44
349.03	3176.40
349.24	3069.91
349.45	3850.18
349.66	3008.47
349.88	3035.09
350.09	3014.61
350.30	3794.89
350.51	3692.49
350.72	3368.91
350.93	3149.78
351.14	3332.05
351.35	3590.09
351.56	3106.77
351.77	3117.01
351.99	3526.60
352.20	3891.14
352.41	3186.64
352.62	2977.75
352.83	3444.68
353.04	3459.02
353.25	3035.09
353.46	3160.02
353.67	3641.29
353.88	3043.28
354.09	2977.75
354.30	3213.26
354.52	3661.77
354.73	3395.53
354.94	3110.86
355.15	3219.41
355.36	3897.28
355.57	3307.47
355.78	3028.95
355.99	3090.38
356.20	3395.53
356.41	3698.63
356.62	3149.78
356.83	3055.57
357.04	3719.11
357.25	3209.17
357.46	3035.09
357.68	3004.37
357.89	3264.46
358.10	3448.78
358.31	3127.25
358.52	3211.22
358.73	3225.55
358.94	3188.69
359.15	3147.73
359.36	3098.58
359.57	3327.95
359.78	3299.28
359.99	3354.57
360.20	2979.79
360.41	3434.44
360.62	3592.14
360.83	3151.82
361.04	3174.35
361.25	3624.90
361.46	3798.98
361.67	3235.79
361.88	3108.82
362.09	3573.71
362.30	3594.19
362.51	3063.76
362.72	3145.68
362.93	3487.69
363.14	3575.75
363.35	3219.41
363.56	3041.23
363.78	3715.02
363.99	3680.20
364.20	3117.01
364.41	3137.49
364.62	3796.93
364.83	3502.03
365.04	3114.96
365.25	3164.11
365.46	3911.62
365.67	3303.37
365.88	3350.48
366.09	3090.38
366.30	3405.77
366.51	3450.83
366.72	3028.95
366.93	2994.13
367.14	3506.12
367.35	3710.92
367.56	3049.43
367.77	3233.74
367.98	3370.96
368.18	3631.05
368.39	3266.51
368.60	3084.24
368.81	3598.28
369.02	3522.51
369.23	3188.69
369.44	2963.41
369.65	3432.40
369.86	3618.76
370.07	3147.73
370.28	2983.89
370.49	3520.46
370.70	3493.83
370.91	2981.84
371.12	2967.51
371.33	3669.96
371.54	3241.93
371.75	3149.78
371.96	2836.44
372.17	3405.77
372.38	3420.11
372.59	3110.86
372.80	3008.47
373.01	3325.90
373.22	3471.31
373.43	3055.57
373.64	2951.12
373.85	3790.79
374.06	3813.32
374.26	3319.76
374.47	3225.55
374.68	3778.50
374.89	3487.69
375.10	3086.29
375.31	3217.36
375.52	3461.07
375.73	3469.26
375.94	2994.13
376.15	3219.41
376.36	3311.57
376.57	3420.11
376.78	3168.21
376.99	3207.12
377.20	3712.97
377.40	3317.71
377.61	3424.20
377.82	3123.15
378.03	3893.19
378.24	3590.09
378.45	3336.14
378.66	3166.16
378.87	3065.81
379.08	3114.96
379.29	3104.72
379.50	3254.22
379.71	3420.11
379.91	3557.32
380.12	3024.85
380.33	3237.84
380.54	3409.87
380.75	3422.16
380.96	3147.73
381.17	3180.50
381.38	3485.64
381.59	3475.40
381.80	3174.35
382.00	3227.60
382.21	3459.02
382.42	3731.40
382.63	3360.72
382.84	3295.18
383.05	3633.10
383.26	3706.82
383.47	3237.84
383.68	3053.52
383.88	3497.93
384.09	3442.64
384.30	3282.89
384.51	3250.13
384.72	3334.09
384.93	3135.44
385.14	3229.65
385.35	3434.44
385.55	3119.06
385.76	3753.93
385.97	3176.40
386.18	2953.17
386.39	3233.74
386.60	3297.23
386.81	3020.75
387.02	3028.95
387.22	3252.17
387.43	3583.95
387.64	3246.03
387.85	3373.00
388.06	3418.06
388.27	4396.99
388.48	7325.58
388.68	11114.33
388.89	13930.28
389.10	14720.80
389.31	14503.71
389.52	11765.58
389.73	10325.86
389.93	9654.12
390.14	8484.73
390.35	8066.95
390.56	7440.27
390.77	6344.61
390.98	4863.93
391.18	3993.54
391.39	3936.20
391.60	3508.17
391.81	3377.10
392.02	3074.00
392.23	4069.31
392.43	3418.06
392.64	3223.50
392.85	3180.50
393.06	3889.09
393.27	3502.03
393.47	3164.11
393.68	3219.41
393.89	3385.29
394.10	3663.82
394.31	3076.05
394.52	3098.58
394.72	3323.85
394.93	3735.50
395.14	2990.03
395.35	3254.22
395.56	3368.91
395.76	3381.20
395.97	3178.45
396.18	3270.61
396.39	3467.21
396.60	4061.12
396.80	3477.45
397.01	3385.29
397.22	3485.64
397.43	3635.14
397.64	3123.15
397.84	3217.36
398.05	3844.04
398.26	3360.72
398.47	3243.98
398.67	3366.86
398.88	3444.68
399.09	3600.33
399.30	3143.63
399.51	3229.65
399.71	3246.03
399.92	3401.68
400.13	3203.02
400.34	3133.39
400.54	3504.07
400.75	3835.85
400.96	3196.88
401.17	3459.02
401.37	3540.94
401.58	3409.87
401.79	3102.67
402.00	3352.52
402.21	3979.20
402.41	3594.19
402.62	3385.29
402.83	3446.73
403.04	3729.35
403.24	4220.86
403.45	3272.65
403.66	3416.01
403.87	3659.72
404.07	3721.16
404.28	3387.34
404.49	3405.77
404.70	3567.56
404.90	3622.86
405.11	3119.06
405.32	3254.22
405.52	3299.28
405.73	3309.52
405.94	3096.53
406.15	3262.41
406.35	3612.62
406.56	3649.48
406.77	3254.22
406.98	3110.86
407.18	3282.89
407.39	3692.49
407.60	3096.53
407.80	3198.93
408.01	3334.09
408.22	3567.56
408.43	3024.85
408.63	3258.32
408.84	3602.38
409.05	3655.62
409.25	3059.67
409.46	3172.30
409.67	3334.09
409.88	3319.76
410.08	3262.41
410.29	3110.86
410.50	3590.09
410.70	3620.81
410.91	3117.01
411.12	3252.17
411.32	3450.83
411.53	3309.52
411.74	3143.63
411.95	3227.60
412.15	3432.40
412.36	3569.61
412.57	3370.96
412.77	3295.18
412.98	3395.53
413.19	3311.57
413.39	3258.32
413.60	3180.50
413.81	3672.01
414.01	3196.88
414.22	3137.49
414.43	3348.43
414.63	3338.19
414.84	3629.00
415.05	3243.98
415.25	3057.62
415.46	3575.75
415.67	3305.42
415.87	3174.35
416.08	3155.92
416.29	3297.23
416.49	3540.94
416.70	3174.35
416.91	3172.30
417.11	3424.20
417.32	3678.15
417.53	3293.13
417.73	3225.55
417.94	3440.59
418.15	3528.65
418.35	3153.87
418.56	3147.73
418.77	3835.85
418.97	3409.87
419.18	3327.95
419.38	2803.67
419.59	3499.98
419.80	3794.89
420.00	3074.00
420.21	3106.77
420.42	3774.41
420.62	3577.80
420.83	3164.11
421.04	3141.58
421.24	3463.12
421.45	3557.32
421.65	3196.88
421.86	3112.91
422.07	3581.90
422.27	3536.84
422.48	3067.86
422.69	3016.66
422.89	3385.29
423.10	3373.00
423.30	3100.62
423.51	3221.45
423.72	3639.24
423.92	3639.24
424.13	3043.28
424.33	3246.03
424.54	3612.62
424.75	3516.36
424.95	3393.48
425.16	3057.62
425.36	3377.10
425.57	3655.62
425.78	3289.04
425.98	3336.14
426.19	3504.07
426.39	3286.99
426.60	3340.24
426.81	3311.57
427.01	3477.45
427.22	3289.04
427.42	2969.55
427.63	3074.00
427.83	3669.96
428.04	3821.51
428.25	3254.22
428.45	3262.41
428.66	3796.93
428.86	3385.29
429.07	3246.03
429.28	3192.78
429.48	3516.36
429.69	3272.65
429.89	3227.60
430.10	3110.86
430.30	3708.87
430.51	3674.06
430.71	3098.58
430.92	3186.64
431.13	3358.67
431.33	3471.31
431.54	3307.47
431.74	3354.57
431.95	3891.14
432.15	3188.69
432.36	3135.44
432.56	3155.92
432.77	3901.38
432.98	3786.69
433.18	3237.84
433.39	2992.08
433.59	3352.52
433.80	3903.43
434.00	3323.85
434.21	3235.79
434.41	3258.32
434.62	3899.33
434.82	3033.04
435.03	3074.00
435.23	3508.17
435.44	3127.25
435.64	3069.91
435.85	3219.41
436.06	3633.10
436.26	3649.48
436.47	3143.63
436.67	3139.54
436.88	3477.45
437.08	3684.30
437.29	3373.00
437.49	3348.43
437.70	3710.92
437.90	3403.72
438.11	3360.72
438.31	3280.85
438.52	3692.49
438.72	3682.25
438.93	3555.27
439.13	3252.17
439.34	3549.13
439.54	3377.10
439.75	3233.74
439.95	3270.61
440.16	3231.69
440.36	3434.44
440.57	3139.54
440.77	3160.02
440.98	3442.64
441.18	3542.99
441.39	3108.82
441.59	3076.05
441.80	3870.66
442.00	3420.11
442.21	3256.27
442.41	2985.94
442.62	3588.04
442.82	3311.57
443.02	3135.44
443.23	3135.44
443.43	3375.05
443.64	3762.12
443.84	3092.43
444.05	3241.93
444.25	3491.79
444.46	3336.14
444.66	3112.91
444.87	3368.91
445.07	3119.06
445.28	3307.47
445.48	3327.95
445.69	3262.41
445.89	3962.82
446.09	3483.59
446.30	3491.79
446.50	3581.90
446.71	4970.42
446.91	6094.76
447.12	6852.50
447.32	7370.64
447.53	7362.45
447.73	6100.90
447.93	5228.46
448.14	5130.16
448.34	5425.07
448.55	4466.62
448.75	4339.65
448.96	4132.80
449.16	4265.92
449.36	4030.40
449.57	3327.95
449.77	3149.78
449.98	3289.04
450.18	3547.08
450.39	3049.43
450.59	3428.30
450.79	3454.92
451.00	3311.57
451.20	3370.96
451.41	3100.62
451.61	3559.37
451.81	3444.68
452.02	3110.86
452.22	3119.06
452.43	3241.93
