SpectraSuite Data File
++++++++++++++++++++++++++++++++++++
Date: Fri May 06 09:28:33 CEST 2016
User: root
Dark Spectrum Present: No
Reference Spectrum Present: No
Number of Sampled Component Spectra: 1
Spectrometers: USB4C02835
Integration Time (usec): 100000 (USB4C02835)
Spectra Averaged: 1 (USB4C02835)
Boxcar Smoothing: 0 (USB4C02835)
Correct for Electrical Dark: No (USB4C02835)
Strobe/Lamp Enabled: No (USB4C02835)
Correct for Detector Non-linearity: No (USB4C02835)
Correct for Stray Light: No (USB4C02835)
Number of Pixels in Processed Spectrum: 3648
>>>>>Begin Processed Spectral Data<<<<<
177.47	2392.03
177.69	2392.03
177.91	2392.03
178.13	2357.21
178.36	2310.11
178.58	3104.72
178.80	3289.04
179.02	3176.40
179.24	3248.08
179.46	2885.59
179.68	2918.36
179.90	3311.57
180.13	3483.59
180.35	2731.99
180.57	2912.21
180.79	3545.03
181.01	3567.56
181.23	3012.56
181.45	3131.34
181.67	3590.09
181.90	3608.52
182.12	3102.67
182.34	2891.73
182.56	3618.76
182.78	3542.99
183.00	2836.44
183.22	2985.94
183.44	3078.10
183.66	4194.24
183.89	3061.71
184.11	2951.12
184.33	3692.49
184.55	3717.06
184.77	2961.36
184.99	3008.47
185.21	3313.61
185.43	4016.07
185.65	2959.31
185.87	2824.15
186.10	3913.67
186.32	4038.59
186.54	3074.00
186.76	3071.95
186.98	3674.06
187.20	3360.72
187.42	3018.71
187.64	2947.03
187.86	3553.23
188.08	3618.76
188.30	2881.49
188.52	2951.12
188.75	3819.46
188.97	3655.62
189.19	2990.03
189.41	2891.73
189.63	3596.23
189.85	3325.90
190.07	2832.34
190.29	2791.38
190.51	3549.13
190.73	3223.50
190.95	3225.55
191.17	3008.47
191.39	3026.90
191.61	3389.39
191.84	3049.43
192.06	3078.10
192.28	3045.33
192.50	4018.11
192.72	3141.58
192.94	3055.57
193.16	3688.39
193.38	3561.42
193.60	2838.48
193.82	3155.92
194.04	3669.96
194.26	3502.03
194.48	2987.99
194.70	2940.88
194.92	3348.43
195.14	3663.82
195.36	2887.64
195.58	3030.99
195.80	3497.93
196.02	3262.41
196.24	2908.12
196.46	3026.90
196.69	3289.04
196.91	3987.40
197.13	2951.12
197.35	3090.38
197.57	3860.42
197.79	3643.34
198.01	3061.71
198.23	2920.40
198.45	3540.94
198.67	3260.37
198.89	2758.61
199.11	3090.38
199.33	3252.17
199.55	3033.04
199.77	2877.40
199.99	3108.82
200.21	3340.24
200.43	3612.62
200.65	2881.49
200.87	2795.48
201.09	3393.48
201.31	3389.39
201.53	3035.09
201.75	3035.09
201.97	3553.23
202.19	3420.11
202.41	3057.62
202.63	3074.00
202.85	3534.79
203.07	3442.64
203.29	3108.82
203.51	2842.58
203.73	3307.47
203.95	4026.31
204.17	2959.31
204.39	3092.43
204.61	3409.87
204.83	3409.87
205.05	3221.45
205.27	3047.38
205.49	4044.74
205.71	3409.87
205.93	2889.68
206.15	2854.87
206.37	3493.83
206.59	3452.88
206.81	2822.10
207.03	2838.48
207.25	3229.65
207.47	3639.24
207.69	2955.22
207.91	3217.36
208.13	3882.95
208.34	3381.20
208.56	2918.36
208.78	3028.95
209.00	3360.72
209.22	3442.64
209.44	2963.41
209.66	2961.36
209.88	3499.98
210.10	3389.39
210.32	2992.08
210.54	3067.86
210.76	3346.38
210.98	3667.91
211.20	2805.72
211.42	3082.19
211.64	3770.31
211.86	3551.18
212.08	3129.30
212.30	2928.60
212.52	3368.91
212.74	3481.55
212.96	3123.15
213.17	2987.99
213.39	3649.48
213.61	3827.65
213.83	2938.84
214.05	2869.20
214.27	3712.97
214.49	3131.34
214.71	2942.93
214.93	3117.01
215.15	3407.82
215.37	3704.78
215.59	2725.85
215.81	3037.14
216.03	3715.02
216.24	3516.36
216.46	2940.88
216.68	2992.08
216.90	3639.24
217.12	3614.66
217.34	2947.03
217.56	3123.15
217.78	3774.41
218.00	3635.14
218.22	3041.23
218.44	3055.57
218.66	3573.71
218.87	3831.75
219.09	2983.89
219.31	3069.91
219.53	3536.84
219.75	3358.67
219.97	3074.00
220.19	3100.62
220.41	3463.12
220.63	3796.93
220.85	2983.89
221.06	2961.36
221.28	3776.45
221.50	3688.39
221.72	2981.84
221.94	2844.63
222.16	3461.07
222.38	3598.28
222.60	2975.70
222.82	2996.18
223.03	3715.02
223.25	3205.07
223.47	2926.55
223.69	3211.22
223.91	3598.28
224.13	3426.25
224.35	2918.36
224.57	3160.02
224.78	3698.63
225.00	3280.85
225.22	3071.95
225.44	2858.96
225.66	3692.49
225.88	3370.96
226.10	3207.12
226.32	2951.12
226.53	3813.32
226.75	3364.81
226.97	3049.43
227.19	3043.28
227.41	3299.28
227.63	3323.85
227.85	2756.57
228.06	3065.81
228.28	3491.79
228.50	3624.90
228.72	2809.81
228.94	2861.01
229.16	3022.80
229.37	3219.41
229.59	2869.20
229.81	3241.93
230.03	3416.01
230.25	3174.35
230.47	2850.77
230.69	2998.23
230.90	3655.62
231.12	3319.76
231.34	3057.62
231.56	2967.51
231.78	3213.26
232.00	3545.03
232.21	3020.75
232.43	2940.88
232.65	2928.60
232.87	3598.28
233.09	2811.86
233.30	2912.21
233.52	3641.29
233.74	3450.83
233.96	2922.45
234.18	3203.02
234.40	3418.06
234.61	3983.30
234.83	2803.67
235.05	3018.71
235.27	4075.46
235.49	3667.91
235.70	2877.40
235.92	2955.22
236.14	3606.47
236.36	3987.40
236.58	2904.02
236.79	3082.19
237.01	3418.06
237.23	3422.16
237.45	3149.78
237.67	3049.43
237.88	3530.70
238.10	3893.19
238.32	2867.16
238.54	2889.68
238.76	3459.02
238.97	3172.30
239.19	2861.01
239.41	3020.75
239.63	3682.25
239.85	3289.04
240.06	2947.03
240.28	2910.16
240.50	3770.31
240.72	3448.78
240.93	2840.53
241.15	3086.29
241.37	3393.48
241.59	3737.54
241.81	2979.79
242.02	3000.27
242.24	3483.59
242.46	3647.43
242.68	2813.91
242.89	2930.64
243.11	3694.54
243.33	3368.91
243.55	2963.41
243.76	2983.89
243.98	3293.13
244.20	3475.40
244.42	2955.22
244.64	2947.03
244.85	3207.12
245.07	3196.88
245.29	3063.76
245.51	2963.41
245.72	3532.75
245.94	3606.47
246.16	2897.88
246.38	3037.14
246.59	3319.76
246.81	3196.88
247.03	2846.68
247.24	2877.40
247.46	3336.14
247.68	3459.02
247.90	2914.26
248.11	2967.51
248.33	3573.71
248.55	3454.92
248.77	2992.08
248.98	3082.19
249.20	3776.45
249.42	3483.59
249.64	2916.31
249.85	2955.22
250.07	3327.95
250.29	3651.53
250.50	2983.89
250.72	2879.44
250.94	3596.23
251.16	4048.83
251.37	2901.97
251.59	3004.37
251.81	3553.23
252.02	3837.89
252.24	2873.30
252.46	3108.82
252.68	3354.57
252.89	3264.46
253.11	2787.29
253.33	3141.58
253.54	3743.69
253.76	3166.16
253.98	3014.61
254.20	2914.26
254.41	3137.49
254.63	3416.01
254.85	2805.72
255.06	3131.34
255.28	3540.94
255.50	3389.39
255.71	2889.68
255.93	2826.20
256.15	3387.34
256.36	3614.66
256.58	2789.33
256.80	2904.02
257.02	3434.44
257.23	3354.57
257.45	3000.27
257.67	3100.62
257.88	3307.47
258.10	3483.59
258.32	2994.13
258.53	3094.48
258.75	3813.32
258.97	3239.89
259.18	2844.63
259.40	2934.74
259.62	3915.72
259.83	3798.98
260.05	2959.31
260.27	3925.96
260.48	3631.05
260.70	3307.47
260.92	2811.86
261.13	3028.95
261.35	3534.79
261.57	3549.13
261.78	2824.15
262.00	2854.87
262.22	3583.95
262.43	3248.08
262.65	3006.42
262.86	3000.27
263.08	4016.07
263.30	3540.94
263.51	2777.05
263.73	2885.59
263.95	3858.37
264.16	3207.12
264.38	2906.07
264.60	2869.20
264.81	3454.92
265.03	3688.39
265.25	3477.45
265.46	2908.12
265.68	3737.54
265.89	3684.30
266.11	2854.87
266.33	2910.16
266.54	3831.75
266.76	3563.47
266.98	3053.52
267.19	3151.82
267.41	3659.72
267.62	3379.15
267.84	2850.77
268.06	3035.09
268.27	3524.55
268.49	3663.82
268.70	3065.81
268.92	2934.74
269.14	3280.85
269.35	3209.17
269.57	3112.91
269.79	3049.43
270.00	3325.90
270.22	3801.03
270.43	2809.81
270.65	2838.48
270.87	3536.84
271.08	3581.90
271.30	3053.52
271.51	2967.51
271.73	3567.56
271.95	3704.78
272.16	2877.40
272.38	3098.58
272.59	3356.62
272.81	3444.68
273.02	2889.68
273.24	3022.80
273.46	3721.16
273.67	3225.55
273.89	2889.68
274.10	2942.93
274.32	3753.93
274.54	3487.69
274.75	3106.77
274.97	3067.86
275.18	3573.71
275.40	3561.42
275.61	2944.98
275.83	3133.39
276.05	3272.65
276.26	3346.38
276.48	3028.95
276.69	3108.82
276.91	3295.18
277.12	3829.70
277.34	3090.38
277.55	3248.08
277.77	3489.74
277.99	3493.83
278.20	3182.54
278.42	3024.85
278.63	3346.38
278.85	3147.73
279.06	3125.20
279.28	3143.63
279.49	3696.58
279.71	3585.99
279.93	3172.30
280.14	3112.91
280.36	3295.18
280.57	3684.30
280.79	3174.35
281.00	2985.94
281.22	3422.16
281.43	3745.73
281.65	2887.64
281.86	2996.18
282.08	3559.37
282.29	3839.94
282.51	2879.44
282.73	2916.31
282.94	3131.34
283.16	3583.95
283.37	3186.64
283.59	3145.68
283.80	3485.64
284.02	3428.30
284.23	3172.30
284.45	3133.39
284.66	3289.04
284.88	3233.74
285.09	3086.29
285.31	3164.11
285.52	3518.41
285.74	3164.11
285.95	3278.80
286.17	3076.05
286.38	3729.35
286.60	3323.85
286.81	3041.23
287.03	3053.52
287.24	3393.48
287.46	3534.79
287.67	3207.12
287.89	3303.37
288.10	3477.45
288.32	3493.83
288.53	3266.51
288.75	3114.96
288.96	3504.07
289.18	3321.81
289.39	2983.89
289.61	3100.62
289.82	3942.34
290.04	3798.98
290.25	2965.46
290.47	3186.64
290.68	3354.57
290.90	3631.05
291.11	2934.74
291.33	3299.28
291.54	3268.56
291.76	3405.77
291.97	3143.63
292.18	3153.87
292.40	3284.94
292.61	3307.47
292.83	3485.64
293.04	3049.43
293.26	3487.69
293.47	3356.62
293.69	3049.43
293.90	2932.69
294.12	3712.97
294.33	3348.43
294.55	3188.69
294.76	3278.80
294.97	3710.92
295.19	3846.09
295.40	3065.81
295.62	3133.39
295.83	3672.01
296.05	3233.74
296.26	3307.47
296.48	2994.13
296.69	3405.77
296.90	3495.88
297.12	3241.93
297.33	3254.22
297.55	3428.30
297.76	3534.79
297.98	3160.02
298.19	3344.33
298.41	3510.22
298.62	3174.35
298.83	3286.99
299.05	3254.22
299.26	3418.06
299.48	3295.18
299.69	3174.35
299.90	3092.43
300.12	3315.66
300.33	3565.51
300.55	3207.12
300.76	3149.78
300.98	3297.23
301.19	3598.28
301.40	3164.11
301.62	3065.81
301.83	3579.85
302.05	3518.41
302.26	3090.38
302.47	3108.82
302.69	3270.61
302.90	3420.11
303.12	2955.22
303.33	3176.40
303.54	3807.17
303.76	3344.33
303.97	3028.95
304.19	3278.80
304.40	3200.98
304.61	3504.07
304.83	3205.07
305.04	3196.88
305.26	3569.61
305.47	3280.85
305.68	3053.52
305.90	2985.94
306.11	3680.20
306.33	3346.38
306.54	2975.70
306.75	3045.33
306.97	3127.25
307.18	3258.32
307.39	3182.54
307.61	3155.92
307.82	3346.38
308.04	3598.28
308.25	2934.74
308.46	3280.85
308.68	3420.11
308.89	3487.69
309.10	3276.75
309.32	3114.96
309.53	3418.06
309.74	3526.60
309.96	2977.75
310.17	3270.61
310.39	3473.36
310.60	3606.47
310.81	3141.58
311.03	3014.61
311.24	3669.96
311.45	3549.13
311.67	3405.77
311.88	3246.03
312.09	3315.66
312.31	3276.75
312.52	3080.14
312.73	3051.47
312.95	3213.26
313.16	3215.31
313.37	3270.61
313.59	3264.46
313.80	3624.90
314.01	3712.97
314.23	3135.44
314.44	3039.19
314.65	3129.30
314.87	3297.23
315.08	3098.58
315.29	3106.77
315.51	3252.17
315.72	3155.92
315.93	3198.93
316.15	3096.53
316.36	3231.69
316.57	3461.07
316.79	3092.43
317.00	3012.56
317.21	3581.90
317.43	3225.55
317.64	3053.52
317.85	2953.17
318.07	3207.12
318.28	3397.58
318.49	3196.88
318.70	3330.00
318.92	3485.64
319.13	3491.79
319.34	3239.89
319.56	3131.34
319.77	3514.31
319.98	3530.70
320.20	3370.96
320.41	3282.89
320.62	3532.75
320.83	3157.97
321.05	3399.63
321.26	3174.35
321.47	3459.02
321.69	3772.36
321.90	3018.71
322.11	3100.62
322.32	3551.18
322.54	3731.40
322.75	3117.01
322.96	4128.70
323.18	3127.25
323.39	3051.47
323.60	2967.51
323.81	3164.11
324.03	3336.14
324.24	3411.92
324.45	3225.55
324.66	3106.77
324.88	3700.68
325.09	3782.60
325.30	3041.23
325.52	2938.84
325.73	3581.90
325.94	3229.65
326.15	3033.04
326.37	2951.12
326.58	3727.30
326.79	3788.74
327.00	3012.56
327.22	3043.28
327.43	3420.11
327.64	3233.74
327.85	3327.95
328.07	3098.58
328.28	3928.00
328.49	3360.72
328.70	3164.11
328.92	3061.71
329.13	3368.91
329.34	3575.75
329.55	3305.42
329.76	3278.80
329.98	3413.96
330.19	3712.97
330.40	3139.54
330.61	3213.26
330.83	3606.47
331.04	3297.23
331.25	3172.30
331.46	3143.63
331.68	3166.16
331.89	3624.90
332.10	3106.77
332.31	2979.79
332.52	3430.35
332.74	3739.59
332.95	2944.98
333.16	3039.19
333.37	3542.99
333.58	3342.28
333.80	3166.16
334.01	2901.97
334.22	3342.28
334.43	3366.86
334.64	3037.14
334.86	3008.47
335.07	3262.41
335.28	3766.21
335.49	3033.04
335.70	3188.69
335.92	3809.22
336.13	3889.09
336.34	3127.25
336.55	3106.77
336.76	3528.65
336.98	2975.70
337.19	3137.49
337.40	3168.21
337.61	3960.77
337.82	3385.29
338.04	3194.83
338.25	2897.88
338.46	3411.92
338.67	3395.53
338.88	3004.37
339.09	3022.80
339.31	3330.00
339.52	3219.41
339.73	3051.47
339.94	3160.02
340.15	3600.33
340.36	3299.28
340.58	3162.06
340.79	2985.94
341.00	3522.51
341.21	3217.36
341.42	3334.09
341.63	3067.86
341.85	3594.19
342.06	3493.83
342.27	3039.19
342.48	3289.04
342.69	3170.26
342.90	3559.37
343.12	3520.46
343.33	3041.23
343.54	3715.02
343.75	3762.12
343.96	3219.41
344.17	3002.32
344.38	3366.86
344.60	3184.59
344.81	3049.43
345.02	3092.43
345.23	3753.93
345.44	4011.97
345.65	3110.86
345.86	3135.44
346.07	3516.36
346.29	3368.91
346.50	3225.55
346.71	3282.89
346.92	3786.69
347.13	3909.57
347.34	3223.50
347.55	3008.47
347.76	3598.28
347.98	3092.43
348.19	3213.26
348.40	3317.71
348.61	3342.28
348.82	3796.93
349.03	3184.59
349.24	3012.56
349.45	3913.67
349.66	3035.09
349.88	3094.48
350.09	2957.27
350.30	3766.21
350.51	3704.78
350.72	3334.09
350.93	3045.33
351.14	3246.03
351.35	3518.41
351.56	3127.25
351.77	3139.54
351.99	3471.31
352.20	3786.69
352.41	3164.11
352.62	2959.31
352.83	3438.54
353.04	3327.95
353.25	3125.20
353.46	3117.01
353.67	3655.62
353.88	3037.14
354.09	3033.04
354.30	3196.88
354.52	3592.14
354.73	3422.16
354.94	3092.43
355.15	3123.15
355.36	3885.00
355.57	3270.61
355.78	2977.75
355.99	3153.87
356.20	3422.16
356.41	3737.54
356.62	3194.83
356.83	3180.50
357.04	3686.34
357.25	3129.30
357.46	3045.33
357.68	2996.18
357.89	3262.41
358.10	3403.72
358.31	3106.77
358.52	3182.54
358.73	3205.07
358.94	3188.69
359.15	3147.73
359.36	3080.14
359.57	3467.21
359.78	3332.05
359.99	3229.65
360.20	3033.04
360.41	3354.57
360.62	3600.33
360.83	3155.92
361.04	3164.11
361.25	3608.52
361.46	3829.70
361.67	3114.96
361.88	3055.57
362.09	3663.82
362.30	3583.95
362.51	3039.19
362.72	3155.92
362.93	3598.28
363.14	3561.42
363.35	3258.32
363.56	3000.27
363.78	3678.15
363.99	3620.81
364.20	3033.04
364.41	3149.78
364.62	3868.61
364.83	3446.73
365.04	3074.00
365.25	3125.20
365.46	3964.87
365.67	3235.79
365.88	3295.18
366.09	3051.47
366.30	3311.57
366.51	3491.79
366.72	3000.27
366.93	3074.00
367.14	3459.02
367.35	3827.65
367.56	3024.85
367.77	3194.83
367.98	3569.61
368.18	3594.19
368.39	3260.37
368.60	3098.58
368.81	3557.32
369.02	3549.13
369.23	3049.43
369.44	2963.41
369.65	3479.50
369.86	3598.28
370.07	3311.57
370.28	3030.99
370.49	3536.84
370.70	3557.32
370.91	2977.75
371.12	2992.08
371.33	3612.62
371.54	3352.52
371.75	3213.26
371.96	2791.38
372.17	3459.02
372.38	3491.79
372.59	3051.47
372.80	3026.90
373.01	3413.96
373.22	3489.74
373.43	3145.68
373.64	2961.36
373.85	3749.83
374.06	3829.70
374.26	3217.36
374.47	3205.07
374.68	3792.84
374.89	3479.50
375.10	3082.19
375.31	3198.93
375.52	3493.83
375.73	3448.78
375.94	2996.18
376.15	3178.45
376.36	3366.86
376.57	3350.48
376.78	3117.01
376.99	3090.38
377.20	3669.96
377.40	3399.63
377.61	3321.81
377.82	3059.67
378.03	3749.83
378.24	3542.99
378.45	3123.15
378.66	3225.55
378.87	3049.43
379.08	3119.06
379.29	3108.82
379.50	3250.13
379.71	3436.49
379.91	3526.60
380.12	3082.19
380.33	3246.03
380.54	3424.20
380.75	3389.39
380.96	3123.15
381.17	3164.11
381.38	3471.31
381.59	3387.34
381.80	3297.23
382.00	3340.24
382.21	3444.68
382.42	3782.60
382.63	3459.02
382.84	3317.71
383.05	3604.42
383.26	3657.67
383.47	3307.47
383.68	3071.95
383.88	3495.88
384.09	3493.83
384.30	3330.00
384.51	3203.02
384.72	3354.57
384.93	3143.63
385.14	3284.94
385.35	3405.77
385.55	3074.00
385.76	3739.59
385.97	3108.82
386.18	2951.12
386.39	3225.55
386.60	3233.74
386.81	3090.38
387.02	3078.10
387.22	3196.88
387.43	3583.95
387.64	3205.07
387.85	3438.54
388.06	3526.60
388.27	4376.51
388.48	7294.86
388.68	10987.35
388.89	13504.31
389.10	14755.61
389.31	14184.23
389.52	11534.16
389.73	10135.40
389.93	9387.89
390.14	8390.53
390.35	7743.37
390.56	7518.09
390.77	6201.25
390.98	4818.87
391.18	4020.16
391.39	3993.54
391.60	3438.54
391.81	3387.34
392.02	3170.26
392.23	3930.05
392.43	3540.94
392.64	3166.16
392.85	3258.32
393.06	3809.22
393.27	3364.81
393.47	3108.82
393.68	3237.84
393.89	3377.10
394.10	3692.49
394.31	3131.34
394.52	3155.92
394.72	3332.05
394.93	3778.50
395.14	3010.51
395.35	3200.98
395.56	3231.69
395.76	3420.11
395.97	3114.96
396.18	3317.71
396.39	3467.21
396.60	4081.60
396.80	3442.64
397.01	3395.53
397.22	3639.24
397.43	3633.10
397.64	3180.50
397.84	3213.26
398.05	3827.65
398.26	3465.16
398.47	3262.41
398.67	3401.68
398.88	3383.24
399.09	3631.05
399.30	3059.67
399.51	3252.17
399.71	3237.84
399.92	3491.79
400.13	3278.80
400.34	3119.06
400.54	3430.35
400.75	3772.36
400.96	3229.65
401.17	3510.22
401.37	3667.91
401.58	3364.81
401.79	3139.54
402.00	3221.45
402.21	3993.54
402.41	3475.40
402.62	3377.10
402.83	3557.32
403.04	3846.09
403.24	4202.43
403.45	3276.75
403.66	3461.07
403.87	3624.90
404.07	3672.01
404.28	3364.81
404.49	3452.88
404.70	3477.45
404.90	3641.29
405.11	3149.78
405.32	3295.18
405.52	3348.43
405.73	3311.57
405.94	3125.20
406.15	3223.50
406.35	3590.09
406.56	3573.71
406.77	3250.13
406.98	3129.30
407.18	3323.85
407.39	3835.85
407.60	3155.92
407.80	3233.74
408.01	3360.72
408.22	3565.51
408.43	3065.81
408.63	3282.89
408.84	3647.43
409.05	3663.82
409.25	3024.85
409.46	3194.83
409.67	3301.33
409.88	3368.91
410.08	3215.31
410.29	3217.36
410.50	3600.33
410.70	3512.27
410.91	3033.04
411.12	3176.40
411.32	3442.64
411.53	3219.41
411.74	3182.54
411.95	3229.65
412.15	3454.92
412.36	3446.73
412.57	3313.61
412.77	3377.10
412.98	3342.28
413.19	3373.00
413.39	3233.74
413.60	3200.98
413.81	3682.25
414.01	3168.21
414.22	3117.01
414.43	3375.05
414.63	3313.61
414.84	3665.86
415.05	3180.50
415.25	3051.47
415.46	3559.37
415.67	3301.33
415.87	3166.16
416.08	3129.30
416.29	3405.77
416.49	3569.61
416.70	3243.98
416.91	3270.61
417.11	3370.96
417.32	3737.54
417.53	3219.41
417.73	3213.26
417.94	3418.06
418.15	3487.69
418.35	3225.55
418.56	3162.06
418.77	3925.96
418.97	3444.68
419.18	3252.17
419.38	2844.63
419.59	3483.59
419.80	3729.35
420.00	3035.09
420.21	3147.73
420.42	3778.50
420.62	3524.55
420.83	3225.55
421.04	3172.30
421.24	3379.15
421.45	3614.66
421.65	3155.92
421.86	3176.40
422.07	3637.19
422.27	3475.40
422.48	3082.19
422.69	2924.50
422.89	3416.01
423.10	3370.96
423.30	3155.92
423.51	3194.83
423.72	3506.12
423.92	3592.14
424.13	2996.18
424.33	3286.99
424.54	3590.09
424.75	3510.22
424.95	3393.48
425.16	3119.06
425.36	3348.43
425.57	3680.20
425.78	3362.76
425.98	3239.89
426.19	3456.97
426.39	3243.98
426.60	3237.84
426.81	3282.89
427.01	3547.08
427.22	3262.41
427.42	3022.80
427.63	3188.69
427.83	3637.19
428.04	3811.27
428.25	3229.65
428.45	3250.13
428.66	3749.83
428.86	3461.07
429.07	3215.31
429.28	3303.37
429.48	3481.55
429.69	3305.42
429.89	3270.61
430.10	3147.73
430.30	3598.28
430.51	3696.58
430.71	3121.10
430.92	3237.84
431.13	3262.41
431.33	3575.75
431.54	3274.70
431.74	3387.34
431.95	3868.61
432.15	3233.74
432.36	3162.06
432.56	3223.50
432.77	3903.43
432.98	3794.89
433.18	3274.70
433.39	3018.71
433.59	3420.11
433.80	3919.81
434.00	3336.14
434.21	3258.32
434.41	3233.74
434.62	4001.73
434.82	3033.04
435.03	3067.86
435.23	3479.50
435.44	3098.58
435.64	3076.05
435.85	3262.41
436.06	3588.04
436.26	3745.73
436.47	3106.77
436.67	3143.63
436.88	3413.96
437.08	3762.12
437.29	3227.60
437.49	3354.57
437.70	3649.48
437.90	3436.49
438.11	3303.37
438.31	3239.89
438.52	3655.62
438.72	3770.31
438.93	3463.12
439.13	3233.74
439.34	3602.38
439.54	3344.33
439.75	3286.99
439.95	3313.61
440.16	3237.84
440.36	3354.57
440.57	3106.77
440.77	3196.88
440.98	3463.12
441.18	3508.17
441.39	3112.91
441.59	2971.60
441.80	3909.57
442.00	3383.24
442.21	3231.69
442.41	2985.94
442.62	3622.86
442.82	3209.17
443.02	3131.34
443.23	3153.87
443.43	3311.57
443.64	3731.40
443.84	3010.51
444.05	3188.69
444.25	3508.17
444.46	3332.05
444.66	3131.34
444.87	3274.70
445.07	3082.19
445.28	3338.19
445.48	3370.96
445.69	3200.98
445.89	3981.25
446.09	3377.10
446.30	3424.20
446.50	3491.79
446.71	5099.44
446.91	6178.72
447.12	6795.16
447.32	7133.08
447.53	7155.60
447.73	6215.59
447.93	5324.72
448.14	5140.40
448.34	5564.33
448.55	4573.11
448.75	4368.32
448.96	4222.91
449.16	4114.37
449.36	4073.41
449.57	3428.30
449.77	3180.50
449.98	3416.01
450.18	3508.17
450.39	3114.96
450.59	3424.20
450.79	3360.72
451.00	3270.61
451.20	3366.86
451.41	3205.07
451.61	3551.18
451.81	3389.39
452.02	3065.81
452.22	3205.07
452.43	3321.81
