SpectraSuite Data File
++++++++++++++++++++++++++++++++++++
Date: Fri May 06 09:29:00 CEST 2016
User: root
Dark Spectrum Present: No
Reference Spectrum Present: No
Number of Sampled Component Spectra: 1
Spectrometers: USB4C02835
Integration Time (usec): 100000 (USB4C02835)
Spectra Averaged: 1 (USB4C02835)
Boxcar Smoothing: 0 (USB4C02835)
Correct for Electrical Dark: No (USB4C02835)
Strobe/Lamp Enabled: No (USB4C02835)
Correct for Detector Non-linearity: No (USB4C02835)
Correct for Stray Light: No (USB4C02835)
Number of Pixels in Processed Spectrum: 3648
>>>>>Begin Processed Spectral Data<<<<<
177.47	2326.49
177.69	2326.49
177.91	2326.49
178.13	2289.63
178.36	2332.64
178.58	3108.82
178.80	3209.17
179.02	3155.92
179.24	3258.32
179.46	2928.60
179.68	2901.97
179.90	3401.68
180.13	3475.40
180.35	2727.89
180.57	2920.40
180.79	3612.62
181.01	3424.20
181.23	2928.60
181.45	3172.30
181.67	3561.42
181.90	3581.90
182.12	3061.71
182.34	2865.11
182.56	3504.07
182.78	3590.09
183.00	2936.79
183.22	3106.77
183.44	3078.10
183.66	4079.55
183.89	3131.34
184.11	3022.80
184.33	3563.47
184.55	3702.73
184.77	2879.44
184.99	2971.60
185.21	3375.05
185.43	4032.45
185.65	2936.79
185.87	2844.63
186.10	3919.81
186.32	3944.39
186.54	3172.30
186.76	3090.38
186.98	3639.24
187.20	3409.87
187.42	3026.90
187.64	2850.77
187.86	3538.89
188.08	3737.54
188.30	2863.06
188.52	2961.36
188.75	3715.02
188.97	3829.70
189.19	2893.78
189.41	2942.93
189.63	3622.86
189.85	3395.53
190.07	2805.72
190.29	2889.68
190.51	3522.51
190.73	3190.74
190.95	3155.92
191.17	3069.91
191.39	3090.38
191.61	3383.24
191.84	2912.21
192.06	3186.64
192.28	3127.25
192.50	4231.10
192.72	3129.30
192.94	3045.33
193.16	3680.20
193.38	3561.42
193.60	2887.64
193.82	3094.48
194.04	3639.24
194.26	3475.40
194.48	2967.51
194.70	3008.47
194.92	3364.81
195.14	3639.24
195.36	2971.60
195.58	3071.95
195.80	3411.92
196.02	3313.61
196.24	2949.08
196.46	3069.91
196.69	3504.07
196.91	3991.49
197.13	3041.23
197.35	2983.89
197.57	3833.80
197.79	3721.16
198.01	3117.01
198.23	2967.51
198.45	3491.79
198.67	3188.69
198.89	2815.96
199.11	3014.61
199.33	3344.33
199.55	3018.71
199.77	2842.58
199.99	3127.25
200.21	3377.10
200.43	3596.23
200.65	2885.59
200.87	2885.59
201.09	3522.51
201.31	3428.30
201.53	2987.99
201.75	3078.10
201.97	3575.75
202.19	3426.25
202.41	3100.62
202.63	3106.77
202.85	3553.23
203.07	3444.68
203.29	3061.71
203.51	2879.44
203.73	3344.33
203.95	3993.54
204.17	2873.30
204.39	3119.06
204.61	3342.28
204.83	3350.48
205.05	3192.78
205.27	2953.17
205.49	4009.92
205.71	3413.96
205.93	2818.00
206.15	2791.38
206.37	3475.40
206.59	3428.30
206.81	2818.00
207.03	2895.83
207.25	3319.76
207.47	3565.51
207.69	2944.98
207.91	3190.74
208.13	3827.65
208.34	3289.04
208.56	2938.84
208.78	3024.85
209.00	3438.54
209.22	3395.53
209.44	2996.18
209.66	2936.79
209.88	3549.13
210.10	3444.68
210.32	3010.51
210.54	3069.91
210.76	3309.52
210.98	3696.58
211.20	2781.14
211.42	3131.34
211.64	3708.87
211.86	3606.47
212.08	3028.95
212.30	3041.23
212.52	3348.43
212.74	3518.41
212.96	3131.34
213.17	3041.23
213.39	3620.81
213.61	3745.73
213.83	2883.54
214.05	2752.47
214.27	3737.54
214.49	3286.99
214.71	2906.07
214.93	3065.81
215.15	3434.44
215.37	3583.95
215.59	2852.82
215.81	3016.66
216.03	3790.79
216.24	3467.21
216.46	2934.74
216.68	3033.04
216.90	3553.23
217.12	3700.68
217.34	2865.11
217.56	3184.59
217.78	3868.61
218.00	3540.94
218.22	3076.05
218.44	3172.30
218.66	3456.97
218.87	3846.09
219.09	3043.28
219.31	2998.23
219.53	3549.13
219.75	3428.30
219.97	3018.71
220.19	2979.79
220.41	3381.20
220.63	3747.78
220.85	2990.03
221.06	3004.37
221.28	3700.68
221.50	3614.66
221.72	2951.12
221.94	2885.59
222.16	3407.82
222.38	3680.20
222.60	2840.53
222.82	3020.75
223.03	3643.34
223.25	3205.07
223.47	2928.60
223.69	3188.69
223.91	3571.66
224.13	3596.23
224.35	2879.44
224.57	3114.96
224.78	3633.10
225.00	3196.88
225.22	3119.06
225.44	2881.49
225.66	3594.19
225.88	3375.05
226.10	3139.54
226.32	2951.12
226.53	3741.64
226.75	3344.33
226.97	3065.81
227.19	2959.31
227.41	3332.05
227.63	3373.00
227.85	2729.94
228.06	3010.51
228.28	3508.17
228.50	3588.04
228.72	2766.81
228.94	2906.07
229.16	3020.75
229.37	3231.69
229.59	2899.92
229.81	3231.69
230.03	3330.00
230.25	3127.25
230.47	2848.72
230.69	2826.20
230.90	3604.42
231.12	3336.14
231.34	3196.88
231.56	2951.12
231.78	3196.88
232.00	3518.41
232.21	3010.51
232.43	2979.79
232.65	2963.41
232.87	3567.56
233.09	2846.68
233.30	2920.40
233.52	3645.38
233.74	3397.58
233.96	2799.57
234.18	3065.81
234.40	3346.38
234.61	3971.01
234.83	2850.77
235.05	2951.12
235.27	4030.40
235.49	3790.79
235.70	2852.82
235.92	2897.88
236.14	3581.90
236.36	4009.92
236.58	2854.87
236.79	3022.80
237.01	3409.87
237.23	3409.87
237.45	3227.60
237.67	2930.64
237.88	3532.75
238.10	3878.85
238.32	2875.35
238.54	2865.11
238.76	3514.31
238.97	3233.74
239.19	2834.39
239.41	3037.14
239.63	3755.97
239.85	3327.95
240.06	2983.89
240.28	2912.21
240.50	3622.86
240.72	3522.51
240.93	2852.82
241.15	3024.85
241.37	3434.44
241.59	3772.36
241.81	3008.47
242.02	3018.71
242.24	3430.35
242.46	3567.56
242.68	2809.81
242.89	2901.97
243.11	3604.42
243.33	3434.44
243.55	2947.03
243.76	2877.40
243.98	3299.28
244.20	3522.51
244.42	2910.16
244.64	2889.68
244.85	3186.64
245.07	3319.76
245.29	2992.08
245.51	3037.14
245.72	3518.41
245.94	3733.45
246.16	2861.01
246.38	2916.31
246.59	3336.14
246.81	3307.47
247.03	2869.20
247.24	2824.15
247.46	3373.00
247.68	3585.99
247.90	2940.88
248.11	2985.94
248.33	3575.75
248.55	3430.35
248.77	2953.17
248.98	3086.29
249.20	3764.17
249.42	3516.36
249.64	2942.93
249.85	2918.36
250.07	3297.23
250.29	3606.47
250.50	3088.34
250.72	2924.50
250.94	3579.85
251.16	3946.44
251.37	2887.64
251.59	2947.03
251.81	3461.07
252.02	3766.21
252.24	2877.40
252.46	3114.96
252.68	3256.27
252.89	3274.70
253.11	2822.10
253.33	3188.69
253.54	3792.84
253.76	3272.65
253.98	2977.75
254.20	2969.55
254.41	3166.16
254.63	3321.81
254.85	2791.38
255.06	3051.47
255.28	3463.12
255.50	3315.66
255.71	2975.70
255.93	2805.72
256.15	3471.31
256.36	3524.55
256.58	2844.63
256.80	2897.88
257.02	3399.63
257.23	3282.89
257.45	2992.08
257.67	3123.15
257.88	3358.67
258.10	3542.99
258.32	2959.31
258.53	3078.10
258.75	3794.89
258.97	3239.89
259.18	2824.15
259.40	2856.92
259.62	3821.51
259.83	3829.70
260.05	2955.22
260.27	4007.87
260.48	3635.14
260.70	3221.45
260.92	2789.33
261.13	2973.65
261.35	3559.37
261.57	3585.99
261.78	2910.16
262.00	2822.10
262.22	3647.43
262.43	3235.79
262.65	3039.19
262.86	2963.41
263.08	3995.59
263.30	3444.68
263.51	2844.63
263.73	2938.84
263.95	3762.12
264.16	3305.42
264.38	2861.01
264.60	2916.31
264.81	3418.06
265.03	3592.14
265.25	3452.88
265.46	2883.54
265.68	3770.31
265.89	3583.95
266.11	2807.77
266.33	2996.18
266.54	3710.92
266.76	3577.80
266.98	2971.60
267.19	3188.69
267.41	3717.06
267.62	3461.07
267.84	2754.52
268.06	3061.71
268.27	3477.45
268.49	3684.30
268.70	2983.89
268.92	2985.94
269.14	3200.98
269.35	3108.82
269.57	3063.76
269.79	3014.61
270.00	3248.08
270.22	3700.68
270.43	2793.43
270.65	2838.48
270.87	3547.08
271.08	3712.97
271.30	3026.90
271.51	3123.15
271.73	3549.13
271.95	3719.11
272.16	2887.64
272.38	3127.25
272.59	3459.02
272.81	3583.95
273.02	2959.31
273.24	3049.43
273.46	3821.51
273.67	3198.93
273.89	2852.82
274.10	2979.79
274.32	3657.67
274.54	3463.12
274.75	3061.71
274.97	3000.27
275.18	3600.33
275.40	3612.62
275.61	3059.67
275.83	3196.88
276.05	3239.89
276.26	3456.97
276.48	3108.82
276.69	3125.20
276.91	3403.72
277.12	3762.12
277.34	3217.36
277.55	3221.45
277.77	3420.11
277.99	3346.38
278.20	3078.10
278.42	2938.84
278.63	3266.51
278.85	3213.26
279.06	3065.81
279.28	3229.65
279.49	3676.10
279.71	3600.33
279.93	3090.38
280.14	3131.34
280.36	3334.09
280.57	3688.39
280.79	3231.69
281.00	2961.36
281.22	3325.90
281.43	3686.34
281.65	2910.16
281.86	2981.84
282.08	3542.99
282.29	3798.98
282.51	3016.66
282.73	3004.37
282.94	3147.73
283.16	3639.24
283.37	3221.45
283.59	3151.82
283.80	3590.09
284.02	3422.16
284.23	3106.77
284.45	3157.97
284.66	3338.19
284.88	3196.88
285.09	3016.66
285.31	3151.82
285.52	3461.07
285.74	3147.73
285.95	3301.33
286.17	3149.78
286.38	3647.43
286.60	3360.72
286.81	3123.15
287.03	3074.00
287.24	3432.40
287.46	3590.09
287.67	3229.65
287.89	3305.42
288.10	3479.50
288.32	3469.26
288.53	3248.08
288.75	3147.73
288.96	3526.60
289.18	3338.19
289.39	2979.79
289.61	3198.93
289.82	3878.85
290.04	3887.04
290.25	2940.88
290.47	3211.22
290.68	3422.16
290.90	3651.53
291.11	2871.25
291.33	3229.65
291.54	3221.45
291.76	3352.52
291.97	3272.65
292.18	3168.21
292.40	3313.61
292.61	3237.84
292.83	3352.52
293.04	3094.48
293.26	3520.46
293.47	3407.82
293.69	3008.47
293.90	2951.12
294.12	3733.45
294.33	3469.26
294.55	3141.58
294.76	3278.80
294.97	3688.39
295.19	3915.72
295.40	2983.89
295.62	3141.58
295.83	3620.81
296.05	3315.66
296.26	3364.81
296.48	3151.82
296.69	3375.05
296.90	3393.48
297.12	3264.46
297.33	3278.80
297.55	3514.31
297.76	3516.36
297.98	3168.21
298.19	3276.75
298.41	3473.36
298.62	3184.59
298.83	3303.37
299.05	3196.88
299.26	3368.91
299.48	3307.47
299.69	3166.16
299.90	3033.04
300.12	3299.28
300.33	3669.96
300.55	3076.05
300.76	3123.15
300.98	3233.74
301.19	3565.51
301.40	3102.67
301.62	3100.62
301.83	3485.64
302.05	3387.34
302.26	3084.24
302.47	3157.97
302.69	3186.64
302.90	3440.59
303.12	2953.17
303.33	3227.60
303.54	3893.19
303.76	3295.18
303.97	3008.47
304.19	3246.03
304.40	3299.28
304.61	3444.68
304.83	3166.16
305.04	3112.91
305.26	3637.19
305.47	3301.33
305.68	3086.29
305.90	2963.41
306.11	3680.20
306.33	3327.95
306.54	2916.31
306.75	3061.71
306.97	3151.82
307.18	3205.07
307.39	3112.91
307.61	3164.11
307.82	3387.34
308.04	3512.27
308.25	2975.70
308.46	3276.75
308.68	3395.53
308.89	3375.05
309.10	3246.03
309.32	3192.78
309.53	3391.44
309.74	3524.55
309.96	3049.43
310.17	3180.50
310.39	3266.51
310.60	3485.64
310.81	3141.58
311.03	3108.82
311.24	3547.08
311.45	3434.44
311.67	3352.52
311.88	3321.81
312.09	3344.33
312.31	3258.32
312.52	2975.70
312.73	2977.75
312.95	3164.11
313.16	3252.17
313.37	3229.65
313.59	3321.81
313.80	3674.06
314.01	3817.41
314.23	3137.49
314.44	3012.56
314.65	3211.22
314.87	3321.81
315.08	3088.34
315.29	3059.67
315.51	3256.27
315.72	3141.58
315.93	3170.26
316.15	3198.93
316.36	3416.01
316.57	3493.83
316.79	2994.13
317.00	3018.71
317.21	3633.10
317.43	3346.38
317.64	3121.10
317.85	3045.33
318.07	3229.65
318.28	3409.87
318.49	3172.30
318.70	3301.33
318.92	3358.67
319.13	3422.16
319.34	3254.22
319.56	3010.51
319.77	3522.51
319.98	3526.60
320.20	3409.87
320.41	3233.74
320.62	3577.80
320.83	3213.26
321.05	3344.33
321.26	3074.00
321.47	3508.17
321.69	3774.41
321.90	3028.95
322.11	3043.28
322.32	3422.16
322.54	3735.50
322.75	3155.92
322.96	4159.42
323.18	3164.11
323.39	3086.29
323.60	3043.28
323.81	3157.97
324.03	3282.89
324.24	3387.34
324.45	3213.26
324.66	3094.48
324.88	3696.58
325.09	3786.69
325.30	3041.23
325.52	3110.86
325.73	3524.55
325.94	3250.13
326.15	2965.46
326.37	2955.22
326.58	3678.15
326.79	3774.41
327.00	3053.52
327.22	3065.81
327.43	3344.33
327.64	3262.41
327.85	3239.89
328.07	3127.25
328.28	3868.61
328.49	3377.10
328.70	3098.58
328.92	3030.99
329.13	3377.10
329.34	3530.70
329.55	3356.62
329.76	3325.90
329.98	3342.28
330.19	3747.78
330.40	3239.89
330.61	3198.93
330.83	3647.43
331.04	3266.51
331.25	3205.07
331.46	3168.21
331.68	3157.97
331.89	3721.16
332.10	3114.96
332.31	2951.12
332.52	3471.31
332.74	3672.01
332.95	2906.07
333.16	3065.81
333.37	3569.61
333.58	3336.14
333.80	3147.73
334.01	2918.36
334.22	3540.94
334.43	3289.04
334.64	3088.34
334.86	2992.08
335.07	3200.98
335.28	3870.66
335.49	2959.31
335.70	3286.99
335.92	3755.97
336.13	3979.20
336.34	3164.11
336.55	3059.67
336.76	3585.99
336.98	2996.18
337.19	3098.58
337.40	3254.22
337.61	4020.16
337.82	3397.58
338.04	3217.36
338.25	2908.12
338.46	3397.58
338.67	3387.34
338.88	3098.58
339.09	2938.84
339.31	3360.72
339.52	3291.09
339.73	3010.51
339.94	3104.72
340.15	3618.76
340.36	3291.09
340.58	3223.50
340.79	3035.09
341.00	3622.86
341.21	3104.72
341.42	3377.10
341.63	3086.29
341.85	3723.21
342.06	3553.23
342.27	3094.48
342.48	3346.38
342.69	3151.82
342.90	3530.70
343.12	3573.71
343.33	3016.66
343.54	3739.59
343.75	3846.09
343.96	3203.02
344.17	3016.66
344.38	3489.74
344.60	3307.47
344.81	3002.32
345.02	3098.58
345.23	3700.68
345.44	3930.05
345.65	3145.68
345.86	3229.65
346.07	3542.99
346.29	3325.90
346.50	3237.84
346.71	3168.21
346.92	3657.67
347.13	3839.94
347.34	3274.70
347.55	2975.70
347.76	3540.94
347.98	3164.11
348.19	3186.64
348.40	3258.32
348.61	3403.72
348.82	3844.04
349.03	3190.74
349.24	3067.86
349.45	3882.95
349.66	3008.47
349.88	3071.95
350.09	3026.90
350.30	3809.22
350.51	3715.02
350.72	3270.61
350.93	3049.43
351.14	3295.18
351.35	3459.02
351.56	3143.63
351.77	3143.63
351.99	3606.47
352.20	3708.87
352.41	3180.50
352.62	2936.79
352.83	3479.50
353.04	3411.92
353.25	3194.83
353.46	3178.45
353.67	3733.45
353.88	2996.18
354.09	3026.90
354.30	3151.82
354.52	3729.35
354.73	3368.91
354.94	3043.28
355.15	3137.49
355.36	3852.23
355.57	3280.85
355.78	3012.56
355.99	3082.19
356.20	3395.53
356.41	3743.69
356.62	3213.26
356.83	3102.67
357.04	3626.95
357.25	3114.96
357.46	3035.09
357.68	3045.33
357.89	3241.93
358.10	3409.87
358.31	3147.73
358.52	3172.30
358.73	3266.51
358.94	3205.07
359.15	3063.76
359.36	3143.63
359.57	3452.88
359.78	3325.90
359.99	3266.51
360.20	2944.98
360.41	3395.53
360.62	3512.27
360.83	3182.54
361.04	3166.16
361.25	3577.80
361.46	3798.98
361.67	3205.07
361.88	3112.91
362.09	3618.76
362.30	3483.59
362.51	3006.42
362.72	3098.58
362.93	3579.85
363.14	3526.60
363.35	3174.35
363.56	3016.66
363.78	3715.02
363.99	3674.06
364.20	3106.77
364.41	3133.39
364.62	3745.73
364.83	3491.79
365.04	3090.38
365.25	3121.10
365.46	3880.90
365.67	3340.24
365.88	3264.46
366.09	3059.67
366.30	3368.91
366.51	3479.50
366.72	3076.05
366.93	3094.48
367.14	3473.36
367.35	3762.12
367.56	3035.09
367.77	3246.03
367.98	3465.16
368.18	3655.62
368.39	3260.37
368.60	3063.76
368.81	3647.43
369.02	3532.75
369.23	3088.34
369.44	2944.98
369.65	3336.14
369.86	3526.60
370.07	3319.76
370.28	3000.27
370.49	3514.31
370.70	3561.42
370.91	2971.60
371.12	3033.04
371.33	3680.20
371.54	3330.00
371.75	3188.69
371.96	2820.05
372.17	3475.40
372.38	3330.00
372.59	3182.54
372.80	3065.81
373.01	3438.54
373.22	3573.71
373.43	3069.91
373.64	2977.75
373.85	3672.01
374.06	3770.31
374.26	3266.51
374.47	3239.89
374.68	3776.45
374.89	3559.37
375.10	2934.74
375.31	3205.07
375.52	3536.84
375.73	3467.21
375.94	3008.47
376.15	3162.06
376.36	3330.00
376.57	3315.66
376.78	3164.11
376.99	3192.78
377.20	3729.35
377.40	3231.69
377.61	3426.25
377.82	3006.42
378.03	3796.93
378.24	3649.48
378.45	3188.69
378.66	3200.98
378.87	3092.43
379.08	3139.54
379.29	3100.62
379.50	3217.36
379.71	3389.39
379.91	3602.38
380.12	3145.68
380.33	3295.18
380.54	3428.30
380.75	3401.68
380.96	3102.67
381.17	3074.00
381.38	3459.02
381.59	3459.02
381.80	3164.11
382.00	3252.17
382.21	3434.44
382.42	3749.83
382.63	3454.92
382.84	3278.80
383.05	3575.75
383.26	3712.97
383.47	3311.57
383.68	3092.43
383.88	3518.41
384.09	3456.97
384.30	3387.34
384.51	3317.71
384.72	3362.76
384.93	3110.86
385.14	3262.41
385.35	3362.76
385.55	3143.63
385.76	3676.10
385.97	3133.39
386.18	2944.98
386.39	3286.99
386.60	3317.71
386.81	3051.47
387.02	2977.75
387.22	3223.50
387.43	3614.66
387.64	3221.45
387.85	3364.81
388.06	3426.25
388.27	4321.21
388.48	7186.32
388.68	10946.39
388.89	13584.18
389.10	14538.53
389.31	14356.26
389.52	11523.92
389.73	10428.26
389.93	9391.98
390.14	8421.25
390.35	7747.47
390.56	7413.65
390.77	6223.78
390.98	4808.63
391.18	4181.95
391.39	3917.76
391.60	3495.88
391.81	3452.88
392.02	3166.16
392.23	3950.53
392.43	3473.36
392.64	3155.92
392.85	3229.65
393.06	3819.46
393.27	3487.69
393.47	3090.38
393.68	3203.02
393.89	3401.68
394.10	3700.68
394.31	3112.91
394.52	3133.39
394.72	3278.80
394.93	3821.51
395.14	3024.85
395.35	3239.89
395.56	3270.61
395.76	3411.92
395.97	3168.21
396.18	3305.42
396.39	3391.44
396.60	4083.65
396.80	3452.88
397.01	3401.68
397.22	3663.82
397.43	3643.34
397.64	3151.82
397.84	3188.69
398.05	3835.85
398.26	3362.76
398.47	3278.80
398.67	3481.55
398.88	3483.59
399.09	3567.56
399.30	3084.24
399.51	3188.69
399.71	3309.52
399.92	3456.97
400.13	3192.78
400.34	3123.15
400.54	3528.65
400.75	3745.73
400.96	3307.47
401.17	3407.82
401.37	3475.40
401.58	3393.48
401.79	3071.95
402.00	3239.89
402.21	3991.49
402.41	3612.62
402.62	3348.43
402.83	3518.41
403.04	3715.02
403.24	4310.97
403.45	3215.31
403.66	3502.03
403.87	3657.67
404.07	3801.03
404.28	3413.96
404.49	3471.31
404.70	3467.21
404.90	3516.36
405.11	3076.05
405.32	3250.13
405.52	3317.71
405.73	3299.28
405.94	3110.86
406.15	3213.26
406.35	3538.89
406.56	3667.91
406.77	3223.50
406.98	3151.82
407.18	3327.95
407.39	3846.09
407.60	3114.96
407.80	3190.74
408.01	3246.03
408.22	3620.81
408.43	2979.79
408.63	3256.27
408.84	3641.29
409.05	3538.89
409.25	3035.09
409.46	3237.84
409.67	3391.44
409.88	3280.85
410.08	3176.40
410.29	3082.19
410.50	3608.52
410.70	3555.27
410.91	3078.10
411.12	3164.11
411.32	3409.87
411.53	3276.75
411.74	3196.88
411.95	3272.65
412.15	3489.74
412.36	3594.19
412.57	3266.51
412.77	3291.09
412.98	3330.00
413.19	3340.24
413.39	3162.06
413.60	3125.20
413.81	3708.87
414.01	3178.45
414.22	3207.12
414.43	3393.48
414.63	3323.85
414.84	3598.28
415.05	3213.26
415.25	3012.56
415.46	3633.10
415.67	3286.99
415.87	3174.35
416.08	3106.77
416.29	3289.04
416.49	3581.90
416.70	3246.03
416.91	3188.69
417.11	3282.89
417.32	3649.48
417.53	3278.80
417.73	3203.02
417.94	3446.73
418.15	3397.58
418.35	3207.12
418.56	3168.21
418.77	3942.34
418.97	3516.36
419.18	3307.47
419.38	2848.72
419.59	3397.58
419.80	3758.02
420.00	3026.90
420.21	3123.15
420.42	3704.78
420.62	3530.70
420.83	3135.44
421.04	3102.67
421.24	3356.62
421.45	3547.08
421.65	3188.69
421.86	3215.31
422.07	3753.93
422.27	3557.32
422.48	3088.34
422.69	3067.86
422.89	3366.86
423.10	3303.37
423.30	3074.00
423.51	3172.30
423.72	3624.90
423.92	3629.00
424.13	3069.91
424.33	3272.65
424.54	3657.67
424.75	3401.68
424.95	3358.67
425.16	3053.52
425.36	3385.29
425.57	3669.96
425.78	3303.37
425.98	3237.84
426.19	3370.96
426.39	3205.07
426.60	3280.85
426.81	3239.89
427.01	3493.83
427.22	3293.13
427.42	3045.33
427.63	3119.06
427.83	3655.62
428.04	3817.41
428.25	3168.21
428.45	3215.31
428.66	3762.12
428.86	3399.63
429.07	3147.73
429.28	3192.78
429.48	3520.46
429.69	3303.37
429.89	3258.32
430.10	3117.01
430.30	3620.81
430.51	3700.68
430.71	3119.06
430.92	3237.84
431.13	3338.19
431.33	3565.51
431.54	3254.22
431.74	3289.04
431.95	3932.10
432.15	3166.16
432.36	3147.73
432.56	3256.27
432.77	3827.65
432.98	3885.00
433.18	3194.83
433.39	3010.51
433.59	3459.02
433.80	3887.04
434.00	3282.89
434.21	3264.46
434.41	3307.47
434.62	3958.72
434.82	2992.08
435.03	3067.86
435.23	3522.51
435.44	3106.77
435.64	3127.25
435.85	3209.17
436.06	3672.01
436.26	3653.58
436.47	3188.69
436.67	3117.01
436.88	3330.00
437.08	3647.43
437.29	3260.37
437.49	3323.85
437.70	3659.72
437.90	3360.72
438.11	3338.19
438.31	3256.27
438.52	3801.03
438.72	3729.35
438.93	3420.11
439.13	3348.43
439.34	3598.28
439.54	3344.33
439.75	3262.41
439.95	3170.26
440.16	3258.32
440.36	3483.59
440.57	3166.16
440.77	3102.67
440.98	3450.83
441.18	3547.08
441.39	2992.08
441.59	3020.75
441.80	3979.20
442.00	3459.02
442.21	3213.26
442.41	3033.04
442.62	3715.02
442.82	3264.46
443.02	3192.78
443.23	3172.30
443.43	3338.19
443.64	3762.12
443.84	3049.43
444.05	3282.89
444.25	3442.64
444.46	3344.33
444.66	3162.06
444.87	3409.87
445.07	3106.77
445.28	3418.06
445.48	3254.22
445.69	3192.78
445.89	4009.92
446.09	3381.20
446.30	3456.97
446.50	3534.79
446.71	5017.52
446.91	6104.99
447.12	6731.67
447.32	7237.52
447.53	7292.82
447.73	6150.05
447.93	5291.95
448.14	5205.94
448.34	5408.69
448.55	4466.62
448.75	4417.47
448.96	4036.55
449.16	4114.37
449.36	4052.93
449.57	3409.87
449.77	3295.18
449.98	3340.24
450.18	3520.46
450.39	3205.07
450.59	3370.96
450.79	3401.68
451.00	3303.37
451.20	3352.52
451.41	3063.76
451.61	3473.36
451.81	3456.97
452.02	3096.53
452.22	3110.86
452.43	3428.30
