SpectraSuite Data File
++++++++++++++++++++++++++++++++++++
Date: Fri May 06 09:29:13 CEST 2016
User: root
Dark Spectrum Present: No
Reference Spectrum Present: No
Number of Sampled Component Spectra: 1
Spectrometers: USB4C02835
Integration Time (usec): 100000 (USB4C02835)
Spectra Averaged: 1 (USB4C02835)
Boxcar Smoothing: 0 (USB4C02835)
Correct for Electrical Dark: No (USB4C02835)
Strobe/Lamp Enabled: No (USB4C02835)
Correct for Detector Non-linearity: No (USB4C02835)
Correct for Stray Light: No (USB4C02835)
Number of Pixels in Processed Spectrum: 3648
>>>>>Begin Processed Spectral Data<<<<<
177.47	2277.34
177.69	2277.34
177.91	2277.34
178.13	2361.31
178.36	2344.92
178.58	3088.34
178.80	3215.31
179.02	3069.91
179.24	3141.58
179.46	2848.72
179.68	2949.08
179.90	3397.58
180.13	3424.20
180.35	2828.24
180.57	2924.50
180.79	3633.10
181.01	3473.36
181.23	3006.42
181.45	3035.09
181.67	3608.52
181.90	3575.75
182.12	3022.80
182.34	2772.95
182.56	3514.31
182.78	3575.75
183.00	2924.50
183.22	3000.27
183.44	3045.33
183.66	4145.09
183.89	3094.48
184.11	3043.28
184.33	3616.71
184.55	3794.89
184.77	2953.17
184.99	2918.36
185.21	3278.80
185.43	4095.94
185.65	2971.60
185.87	3030.99
186.10	4057.03
186.32	4030.40
186.54	3127.25
186.76	3110.86
186.98	3635.14
187.20	3377.10
187.42	3039.19
187.64	2963.41
187.86	3561.42
188.08	3700.68
188.30	2895.83
188.52	2959.31
188.75	3667.91
188.97	3712.97
189.19	2828.24
189.41	2895.83
189.63	3645.38
189.85	3393.48
190.07	2854.87
190.29	2844.63
190.51	3495.88
190.73	3049.43
190.95	3188.69
191.17	3000.27
191.39	3078.10
191.61	3373.00
191.84	2912.21
192.06	3080.14
192.28	3200.98
192.50	4198.34
192.72	3026.90
192.94	3098.58
193.16	3708.87
193.38	3561.42
193.60	2936.79
193.82	3172.30
194.04	3663.82
194.26	3581.90
194.48	3014.61
194.70	2922.45
194.92	3336.14
195.14	3639.24
195.36	2904.02
195.58	3086.29
195.80	3385.29
196.02	3364.81
196.24	2922.45
196.46	3084.24
196.69	3360.72
196.91	4063.17
197.13	2971.60
197.35	3067.86
197.57	3792.84
197.79	3594.19
198.01	3045.33
198.23	2967.51
198.45	3600.33
198.67	3172.30
198.89	2762.71
199.11	3033.04
199.33	3389.39
199.55	2940.88
199.77	2887.64
199.99	3063.76
200.21	3381.20
200.43	3542.99
200.65	2824.15
200.87	2777.05
201.09	3495.88
201.31	3426.25
201.53	2992.08
201.75	2985.94
201.97	3508.17
202.19	3475.40
202.41	3084.24
202.63	3153.87
202.85	3561.42
203.07	3469.26
203.29	3045.33
203.51	2951.12
203.73	3266.51
203.95	4097.99
204.17	2953.17
204.39	3139.54
204.61	3444.68
204.83	3356.62
205.05	3074.00
205.27	2959.31
205.49	3905.48
205.71	3389.39
205.93	2863.06
206.15	2834.39
206.37	3477.45
206.59	3368.91
206.81	2803.67
207.03	2813.91
207.25	3268.56
207.47	3610.57
207.69	3065.81
207.91	3223.50
208.13	3823.56
208.34	3317.71
208.56	2906.07
208.78	2889.68
209.00	3456.97
209.22	3366.86
209.44	3045.33
209.66	2918.36
209.88	3454.92
210.10	3383.24
210.32	2942.93
210.54	3088.34
210.76	3395.53
210.98	3659.72
211.20	2840.53
211.42	3094.48
211.64	3794.89
211.86	3577.80
212.08	3022.80
212.30	2959.31
212.52	3403.72
212.74	3479.50
212.96	3059.67
213.17	3086.29
213.39	3626.95
213.61	3885.00
213.83	2912.21
214.05	2861.01
214.27	3672.01
214.49	3227.60
214.71	2918.36
214.93	3047.38
215.15	3454.92
215.37	3622.86
215.59	2852.82
215.81	3139.54
216.03	3665.86
216.24	3471.31
216.46	2967.51
216.68	3041.23
216.90	3647.43
217.12	3645.38
217.34	2879.44
217.56	3065.81
217.78	3688.39
218.00	3618.76
218.22	3100.62
218.44	3098.58
218.66	3524.55
218.87	3925.96
219.09	3020.75
219.31	2924.50
219.53	3518.41
219.75	3286.99
219.97	3008.47
220.19	2996.18
220.41	3426.25
220.63	3766.21
220.85	2967.51
221.06	2891.73
221.28	3768.26
221.50	3575.75
221.72	2899.92
221.94	2838.48
222.16	3499.98
222.38	3760.07
222.60	2942.93
222.82	3094.48
223.03	3637.19
223.25	3215.31
223.47	2924.50
223.69	3180.50
223.91	3520.46
224.13	3561.42
224.35	2789.33
224.57	3108.82
224.78	3692.49
225.00	3205.07
225.22	3137.49
225.44	2889.68
225.66	3649.48
225.88	3327.95
226.10	3057.62
226.32	2920.40
226.53	3895.24
226.75	3370.96
226.97	3024.85
227.19	2983.89
227.41	3282.89
227.63	3434.44
227.85	2779.09
228.06	3000.27
228.28	3483.59
228.50	3688.39
228.72	2834.39
228.94	2887.64
229.16	3092.43
229.37	3182.54
229.59	2836.44
229.81	3221.45
230.03	3393.48
230.25	3135.44
230.47	2813.91
230.69	3008.47
230.90	3606.47
231.12	3289.04
231.34	3049.43
231.56	3102.67
231.78	3196.88
232.00	3520.46
232.21	3090.38
232.43	2965.46
232.65	2985.94
232.87	3555.27
233.09	2838.48
233.30	2836.44
233.52	3622.86
233.74	3354.57
233.96	2955.22
234.18	3131.34
234.40	3430.35
234.61	4034.50
234.83	2813.91
235.05	2916.31
235.27	3981.25
235.49	3768.26
235.70	2805.72
235.92	3002.32
236.14	3561.42
236.36	4151.23
236.58	2871.25
236.79	3092.43
237.01	3362.76
237.23	3278.80
237.45	3219.41
237.67	3035.09
237.88	3585.99
238.10	3852.23
238.32	2848.72
238.54	2949.08
238.76	3440.59
238.97	3213.26
239.19	2811.86
239.41	2998.23
239.63	3725.26
239.85	3368.91
240.06	3002.32
240.28	2959.31
240.50	3801.03
240.72	3434.44
240.93	2920.40
241.15	3063.76
241.37	3467.21
241.59	3768.26
241.81	3018.71
242.02	3024.85
242.24	3540.94
242.46	3590.09
242.68	2834.39
242.89	2959.31
243.11	3674.06
243.33	3428.30
243.55	2990.03
243.76	3006.42
243.98	3297.23
244.20	3512.27
244.42	3016.66
244.64	2967.51
244.85	3170.26
245.07	3264.46
245.29	2957.27
245.51	3000.27
245.72	3473.36
245.94	3805.13
246.16	2940.88
246.38	3004.37
246.59	3416.01
246.81	3229.65
247.03	2918.36
247.24	2770.90
247.46	3434.44
247.68	3469.26
247.90	2885.59
248.11	2996.18
248.33	3565.51
248.55	3385.29
248.77	3008.47
248.98	3096.53
249.20	3778.50
249.42	3538.89
249.64	2858.96
249.85	2963.41
250.07	3375.05
250.29	3614.66
250.50	2955.22
250.72	2938.84
250.94	3487.69
251.16	3958.72
251.37	2910.16
251.59	3071.95
251.81	3653.58
252.02	3745.73
252.24	2899.92
252.46	3172.30
252.68	3227.60
252.89	3397.58
253.11	2797.53
253.33	3176.40
253.54	3837.89
253.76	3266.51
253.98	2938.84
254.20	2901.97
254.41	3157.97
254.63	3325.90
254.85	2813.91
255.06	3188.69
255.28	3596.23
255.50	3401.68
255.71	2949.08
255.93	2822.10
256.15	3391.44
256.36	3622.86
256.58	2789.33
256.80	2936.79
257.02	3393.48
257.23	3428.30
257.45	2951.12
257.67	3102.67
257.88	3319.76
258.10	3620.81
258.32	2971.60
258.53	3049.43
258.75	3895.24
258.97	3256.27
259.18	2871.25
259.40	2959.31
259.62	3858.37
259.83	3704.78
260.05	2975.70
260.27	3948.48
260.48	3723.21
260.70	3221.45
260.92	2856.92
261.13	2944.98
261.35	3499.98
261.57	3534.79
261.78	2889.68
262.00	2963.41
262.22	3581.90
262.43	3252.17
262.65	2967.51
262.86	2953.17
263.08	4087.75
263.30	3528.65
263.51	2795.48
263.73	2944.98
263.95	3858.37
264.16	3246.03
264.38	2906.07
264.60	2836.44
264.81	3426.25
265.03	3805.13
265.25	3456.97
265.46	2885.59
265.68	3805.13
265.89	3637.19
266.11	2893.78
266.33	2895.83
266.54	3741.64
266.76	3573.71
266.98	3047.38
267.19	3207.12
267.41	3682.25
267.62	3336.14
267.84	2789.33
268.06	3057.62
268.27	3471.31
268.49	3719.11
268.70	2998.23
268.92	2975.70
269.14	3276.75
269.35	3139.54
269.57	3145.68
269.79	2987.99
270.00	3352.52
270.22	3876.80
270.43	2910.16
270.65	2752.47
270.87	3540.94
271.08	3622.86
271.30	3057.62
271.51	2975.70
271.73	3581.90
271.95	3809.22
272.16	2893.78
272.38	3125.20
272.59	3413.96
272.81	3598.28
273.02	2846.68
273.24	2938.84
273.46	3694.54
273.67	3264.46
273.89	2840.53
274.10	2922.45
274.32	3712.97
274.54	3577.80
274.75	3016.66
274.97	3059.67
275.18	3649.48
275.40	3516.36
275.61	3033.04
275.83	3143.63
276.05	3139.54
276.26	3424.20
276.48	3096.53
276.69	3110.86
276.91	3309.52
277.12	3835.85
277.34	3155.92
277.55	3223.50
277.77	3432.40
277.99	3471.31
278.20	3160.02
278.42	2977.75
278.63	3270.61
278.85	3239.89
279.06	3086.29
279.28	3125.20
279.49	3743.69
279.71	3633.10
279.93	3196.88
280.14	3127.25
280.36	3258.32
280.57	3729.35
280.79	3278.80
281.00	3018.71
281.22	3323.85
281.43	3651.53
281.65	2846.68
281.86	2963.41
282.08	3624.90
282.29	3876.80
282.51	2916.31
282.73	2936.79
282.94	3237.84
283.16	3663.82
283.37	3149.78
283.59	3164.11
283.80	3540.94
284.02	3504.07
284.23	3143.63
284.45	3139.54
284.66	3254.22
284.88	3350.48
285.09	2957.27
285.31	3182.54
285.52	3573.71
285.74	3145.68
285.95	3366.86
286.17	3102.67
286.38	3690.44
286.60	3330.00
286.81	3076.05
287.03	3098.58
287.24	3434.44
287.46	3598.28
287.67	3241.93
287.89	3286.99
288.10	3444.68
288.32	3428.30
288.53	3196.88
288.75	3184.59
288.96	3631.05
289.18	3313.61
289.39	2944.98
289.61	3155.92
289.82	3868.61
290.04	3870.66
290.25	2942.93
290.47	3205.07
290.68	3389.39
290.90	3579.85
291.11	2850.77
291.33	3262.41
291.54	3291.09
291.76	3368.91
291.97	3280.85
292.18	3198.93
292.40	3332.05
292.61	3336.14
292.83	3397.58
293.04	3114.96
293.26	3549.13
293.47	3422.16
293.69	3110.86
293.90	2955.22
294.12	3741.64
294.33	3430.35
294.55	3153.87
294.76	3330.00
294.97	3809.22
295.19	3928.00
295.40	3131.34
295.62	3229.65
295.83	3641.29
296.05	3334.09
296.26	3393.48
296.48	3133.39
296.69	3467.21
296.90	3352.52
297.12	3254.22
297.33	3262.41
297.55	3502.03
297.76	3553.23
297.98	3194.83
298.19	3303.37
298.41	3450.83
298.62	3241.93
298.83	3237.84
299.05	3237.84
299.26	3426.25
299.48	3274.70
299.69	3182.54
299.90	3059.67
300.12	3237.84
300.33	3545.03
300.55	3137.49
300.76	3149.78
300.98	3217.36
301.19	3485.64
301.40	3114.96
301.62	3157.97
301.83	3573.71
302.05	3418.06
302.26	3061.71
302.47	3182.54
302.69	3260.37
302.90	3397.58
303.12	2994.13
303.33	3207.12
303.54	3915.72
303.76	3323.85
303.97	3057.62
304.19	3246.03
304.40	3196.88
304.61	3477.45
304.83	3254.22
305.04	3182.54
305.26	3596.23
305.47	3286.99
305.68	3102.67
305.90	2893.78
306.11	3622.86
306.33	3377.10
306.54	2861.01
306.75	3047.38
306.97	3215.31
307.18	3266.51
307.39	3045.33
307.61	3241.93
307.82	3399.63
308.04	3596.23
308.25	2977.75
308.46	3291.09
308.68	3413.96
308.89	3401.68
309.10	3258.32
309.32	3117.01
309.53	3428.30
309.74	3551.18
309.96	3039.19
310.17	3174.35
310.39	3393.48
310.60	3635.14
310.81	3065.81
311.03	3041.23
311.24	3590.09
311.45	3442.64
311.67	3420.11
311.88	3192.78
312.09	3340.24
312.31	3299.28
312.52	2928.60
312.73	3096.53
312.95	3139.54
313.16	3157.97
313.37	3274.70
313.59	3264.46
313.80	3645.38
314.01	3762.12
314.23	3049.43
314.44	2983.89
314.65	3315.66
314.87	3256.27
315.08	3033.04
315.29	3108.82
315.51	3188.69
315.72	3188.69
315.93	3184.59
316.15	3229.65
316.36	3317.71
316.57	3512.27
316.79	3131.34
317.00	3018.71
317.21	3616.71
317.43	3266.51
317.64	3098.58
317.85	3014.61
318.07	3295.18
318.28	3373.00
318.49	3133.39
318.70	3342.28
318.92	3518.41
319.13	3483.59
319.34	3229.65
319.56	3039.19
319.77	3606.47
319.98	3590.09
320.20	3344.33
320.41	3229.65
320.62	3538.89
320.83	3248.08
321.05	3350.48
321.26	3110.86
321.47	3461.07
321.69	3774.41
321.90	3078.10
322.11	3008.47
322.32	3481.55
322.54	3745.73
322.75	3131.34
322.96	4218.82
323.18	3127.25
323.39	3067.86
323.60	3018.71
323.81	3209.17
324.03	3286.99
324.24	3405.77
324.45	3233.74
324.66	2971.60
324.88	3659.72
325.09	3774.41
325.30	3135.44
325.52	3018.71
325.73	3524.55
325.94	3147.73
326.15	3000.27
326.37	2975.70
326.58	3622.86
326.79	3909.57
327.00	3024.85
327.22	3098.58
327.43	3350.48
327.64	3299.28
327.85	3252.17
328.07	3229.65
328.28	3854.28
328.49	3280.85
328.70	3098.58
328.92	3100.62
329.13	3436.49
329.34	3592.14
329.55	3330.00
329.76	3241.93
329.98	3330.00
330.19	3624.90
330.40	3114.96
330.61	3168.21
330.83	3585.99
331.04	3254.22
331.25	3125.20
331.46	3180.50
331.68	3188.69
331.89	3721.16
332.10	3123.15
332.31	2967.51
332.52	3403.72
332.74	3686.34
332.95	2932.69
333.16	3082.19
333.37	3633.10
333.58	3272.65
333.80	3096.53
334.01	2871.25
334.22	3420.11
334.43	3266.51
334.64	3045.33
334.86	3098.58
335.07	3307.47
335.28	3721.16
335.49	3014.61
335.70	3205.07
335.92	3774.41
336.13	4003.78
336.34	3160.02
336.55	3127.25
336.76	3526.60
336.98	3108.82
337.19	3102.67
337.40	3180.50
337.61	4081.60
337.82	3397.58
338.04	3221.45
338.25	2957.27
338.46	3438.54
338.67	3444.68
338.88	2961.36
339.09	3074.00
339.31	3356.62
339.52	3180.50
339.73	3008.47
339.94	3196.88
340.15	3620.81
340.36	3424.20
340.58	3180.50
340.79	3074.00
341.00	3592.14
341.21	3151.82
341.42	3370.96
341.63	3061.71
341.85	3688.39
342.06	3434.44
342.27	3030.99
342.48	3311.57
342.69	3164.11
342.90	3502.03
343.12	3483.59
343.33	3035.09
343.54	3747.78
343.75	3819.46
343.96	3190.74
344.17	2947.03
344.38	3368.91
344.60	3209.17
344.81	3022.80
345.02	3143.63
345.23	3655.62
345.44	3993.54
345.65	3110.86
345.86	3192.78
346.07	3542.99
346.29	3354.57
346.50	3246.03
346.71	3172.30
346.92	3755.97
347.13	3913.67
347.34	3205.07
347.55	2957.27
347.76	3577.80
347.98	3121.10
348.19	3184.59
348.40	3246.03
348.61	3264.46
348.82	3811.27
349.03	3114.96
349.24	2977.75
349.45	3989.44
349.66	2985.94
349.88	3008.47
350.09	3043.28
350.30	3741.64
350.51	3749.83
350.72	3348.43
350.93	3000.27
351.14	3342.28
351.35	3581.90
351.56	3078.10
351.77	3114.96
351.99	3499.98
352.20	3778.50
352.41	3160.02
352.62	2854.87
352.83	3493.83
353.04	3438.54
353.25	3086.29
353.46	3139.54
353.67	3696.58
353.88	3057.62
354.09	3004.37
354.30	3160.02
354.52	3667.91
354.73	3440.59
354.94	3049.43
355.15	3174.35
355.36	3897.28
355.57	3291.09
355.78	2998.23
355.99	3082.19
356.20	3313.61
356.41	3698.63
356.62	3225.55
356.83	3168.21
357.04	3753.93
357.25	3119.06
357.46	3049.43
357.68	3010.51
357.89	3221.45
358.10	3381.20
358.31	3051.47
358.52	3160.02
358.73	3209.17
358.94	3147.73
359.15	3155.92
359.36	3155.92
359.57	3430.35
359.78	3399.63
359.99	3289.04
360.20	3008.47
360.41	3346.38
360.62	3553.23
360.83	3188.69
361.04	3090.38
361.25	3590.09
361.46	3841.99
361.67	3274.70
361.88	3094.48
362.09	3647.43
362.30	3536.84
362.51	3012.56
362.72	3186.64
362.93	3661.77
363.14	3518.41
363.35	3157.97
363.56	3074.00
363.78	3672.01
363.99	3721.16
364.20	3096.53
364.41	3160.02
364.62	3821.51
364.83	3491.79
365.04	3035.09
365.25	3151.82
365.46	3944.39
365.67	3246.03
365.88	3327.95
366.09	3088.34
366.30	3373.00
366.51	3475.40
366.72	3119.06
366.93	3033.04
367.14	3469.26
367.35	3827.65
367.56	3037.14
367.77	3213.26
367.98	3467.21
368.18	3565.51
368.39	3248.08
368.60	3114.96
368.81	3579.85
369.02	3610.57
369.23	3117.01
369.44	2934.74
369.65	3424.20
369.86	3563.47
370.07	3221.45
370.28	3012.56
370.49	3647.43
370.70	3569.61
370.91	2971.60
371.12	2996.18
371.33	3733.45
371.54	3299.28
371.75	3243.98
371.96	2768.85
372.17	3508.17
372.38	3385.29
372.59	3155.92
372.80	3131.34
373.01	3319.76
373.22	3452.88
373.43	3074.00
373.64	2987.99
373.85	3770.31
374.06	3782.60
374.26	3274.70
374.47	3338.19
374.68	3749.83
374.89	3477.45
375.10	3082.19
375.31	3162.06
375.52	3547.08
375.73	3542.99
375.94	2938.84
376.15	3160.02
376.36	3342.28
376.57	3407.82
376.78	3157.97
376.99	3108.82
377.20	3710.92
377.40	3405.77
377.61	3459.02
377.82	3151.82
378.03	3786.69
378.24	3622.86
378.45	3231.69
378.66	3190.74
378.87	3049.43
379.08	3119.06
379.29	3139.54
379.50	3293.13
379.71	3280.85
379.91	3559.37
380.12	3092.43
380.33	3280.85
380.54	3452.88
380.75	3418.06
380.96	3106.77
381.17	3170.26
381.38	3444.68
381.59	3471.31
381.80	3223.50
382.00	3248.08
382.21	3436.49
382.42	3764.17
382.63	3467.21
382.84	3260.37
383.05	3633.10
383.26	3801.03
383.47	3252.17
383.68	3078.10
383.88	3559.37
384.09	3450.83
384.30	3360.72
384.51	3246.03
384.72	3387.34
384.93	3172.30
385.14	3194.83
385.35	3362.76
385.55	3092.43
385.76	3684.30
385.97	3090.38
386.18	3047.38
386.39	3149.78
386.60	3336.14
386.81	3024.85
387.02	2994.13
387.22	3188.69
387.43	3567.56
387.64	3182.54
387.85	3430.35
388.06	3483.59
388.27	4339.65
388.48	7313.30
388.68	10678.11
388.89	13473.59
389.10	14683.94
389.31	14341.93
389.52	11700.05
389.73	10051.43
389.93	9428.85
390.14	8386.43
390.35	7972.74
390.56	7362.45
390.77	6176.67
390.98	4786.10
391.18	4093.89
391.39	3891.14
391.60	3434.44
391.81	3354.57
392.02	3192.78
392.23	4003.78
392.43	3526.60
392.64	3270.61
392.85	3239.89
393.06	3737.54
393.27	3426.25
393.47	3125.20
393.68	3237.84
393.89	3418.06
394.10	3667.91
394.31	3172.30
394.52	3125.20
394.72	3332.05
394.93	3768.26
395.14	3057.62
395.35	3272.65
395.56	3332.05
395.76	3461.07
395.97	3108.82
396.18	3282.89
396.39	3385.29
396.60	4140.99
396.80	3463.12
397.01	3411.92
397.22	3606.47
397.43	3588.04
397.64	3196.88
397.84	3211.22
398.05	3925.96
398.26	3336.14
398.47	3305.42
398.67	3413.96
398.88	3422.16
399.09	3672.01
399.30	3069.91
399.51	3256.27
399.71	3211.22
399.92	3469.26
400.13	3184.59
400.34	3114.96
400.54	3428.30
400.75	3766.21
400.96	3229.65
401.17	3444.68
401.37	3495.88
401.58	3434.44
401.79	3117.01
402.00	3274.70
402.21	3895.24
402.41	3518.41
402.62	3418.06
402.83	3483.59
403.04	3794.89
403.24	4184.00
403.45	3272.65
403.66	3393.48
403.87	3649.48
404.07	3801.03
404.28	3399.63
404.49	3467.21
404.70	3514.31
404.90	3631.05
405.11	3127.25
405.32	3237.84
405.52	3325.90
405.73	3284.94
405.94	3074.00
406.15	3147.73
406.35	3598.28
406.56	3606.47
406.77	3168.21
406.98	3180.50
407.18	3352.52
407.39	3901.38
407.60	3157.97
407.80	3258.32
408.01	3229.65
408.22	3631.05
408.43	3092.43
408.63	3291.09
408.84	3690.44
409.05	3684.30
409.25	3143.63
409.46	3145.68
409.67	3297.23
409.88	3307.47
410.08	3176.40
410.29	3223.50
410.50	3729.35
410.70	3508.17
410.91	2985.94
411.12	3211.22
411.32	3434.44
411.53	3293.13
411.74	3157.97
411.95	3196.88
412.15	3487.69
412.36	3614.66
412.57	3256.27
412.77	3336.14
412.98	3342.28
413.19	3411.92
413.39	3190.74
413.60	3147.73
413.81	3854.28
414.01	3264.46
414.22	3200.98
414.43	3436.49
414.63	3377.10
414.84	3643.34
415.05	3198.93
415.25	3024.85
415.46	3565.51
415.67	3315.66
415.87	3145.68
416.08	3096.53
416.29	3358.67
416.49	3583.95
416.70	3205.07
416.91	3194.83
417.11	3426.25
417.32	3698.63
417.53	3164.11
417.73	3233.74
417.94	3465.16
418.15	3469.26
418.35	3182.54
418.56	3192.78
418.77	3944.39
418.97	3469.26
419.18	3276.75
419.38	2901.97
419.59	3424.20
419.80	3729.35
420.00	3065.81
420.21	3250.13
420.42	3721.16
420.62	3551.18
420.83	3086.29
421.04	3180.50
421.24	3401.68
421.45	3672.01
421.65	3168.21
421.86	3221.45
422.07	3686.34
422.27	3592.14
422.48	3123.15
422.69	2990.03
422.89	3416.01
423.10	3383.24
423.30	3067.86
423.51	3153.87
423.72	3520.46
423.92	3596.23
424.13	3018.71
424.33	3258.32
424.54	3659.72
424.75	3438.54
424.95	3360.72
425.16	3069.91
425.36	3432.40
425.57	3631.05
425.78	3301.33
425.98	3262.41
426.19	3420.11
426.39	3254.22
426.60	3268.56
426.81	3401.68
427.01	3508.17
427.22	3270.61
427.42	2901.97
427.63	3051.47
427.83	3665.86
428.04	3856.33
428.25	3164.11
428.45	3264.46
428.66	3721.16
428.86	3420.11
429.07	3131.34
429.28	3215.31
429.48	3379.15
429.69	3235.79
429.89	3299.28
430.10	3074.00
430.30	3549.13
430.51	3700.68
430.71	3125.20
430.92	3246.03
431.13	3315.66
431.33	3551.18
431.54	3246.03
431.74	3340.24
431.95	3860.42
432.15	3297.23
432.36	3162.06
432.56	3198.93
432.77	3885.00
432.98	3809.22
433.18	3229.65
433.39	2906.07
433.59	3465.16
433.80	3905.48
434.00	3370.96
434.21	3229.65
434.41	3358.67
434.62	3991.49
434.82	2990.03
435.03	3164.11
435.23	3598.28
435.44	3131.34
435.64	3147.73
435.85	3266.51
436.06	3495.88
436.26	3590.09
436.47	3110.86
436.67	3100.62
436.88	3352.52
437.08	3731.40
437.29	3338.19
437.49	3284.94
437.70	3794.89
437.90	3332.05
438.11	3379.15
438.31	3270.61
438.52	3649.48
438.72	3649.48
438.93	3436.49
439.13	3258.32
439.34	3581.90
439.54	3303.37
439.75	3299.28
439.95	3286.99
440.16	3266.51
440.36	3514.31
440.57	3149.78
440.77	3164.11
440.98	3434.44
441.18	3504.07
441.39	3063.76
441.59	2985.94
441.80	3893.19
442.00	3475.40
442.21	3225.55
442.41	3018.71
442.62	3735.50
442.82	3303.37
443.02	3125.20
443.23	3139.54
443.43	3344.33
443.64	3659.72
443.84	3053.52
444.05	3270.61
444.25	3454.92
444.46	3334.09
444.66	3157.97
444.87	3440.59
445.07	3162.06
445.28	3438.54
445.48	3327.95
445.69	3231.69
445.89	3983.30
446.09	3407.82
446.30	3409.87
446.50	3538.89
446.71	4935.60
446.91	6088.61
447.12	6678.43
447.32	7214.99
447.53	7296.91
447.73	6309.79
447.93	5367.73
448.14	5171.12
448.34	5416.88
448.55	4409.28
448.75	4347.84
448.96	4184.00
449.16	4186.05
449.36	3960.77
449.57	3401.68
449.77	3209.17
449.98	3389.39
450.18	3532.75
450.39	3127.25
450.59	3340.24
450.79	3401.68
451.00	3266.51
451.20	3336.14
451.41	3147.73
451.61	3563.47
451.81	3467.21
452.02	3108.82
452.22	3198.93
452.43	3258.32
