SpectraSuite Data File
++++++++++++++++++++++++++++++++++++
Date: Fri May 06 09:28:50 CEST 2016
User: root
Dark Spectrum Present: No
Reference Spectrum Present: No
Number of Sampled Component Spectra: 1
Spectrometers: USB4C02835
Integration Time (usec): 100000 (USB4C02835)
Spectra Averaged: 1 (USB4C02835)
Boxcar Smoothing: 0 (USB4C02835)
Correct for Electrical Dark: No (USB4C02835)
Strobe/Lamp Enabled: No (USB4C02835)
Correct for Detector Non-linearity: No (USB4C02835)
Correct for Stray Light: No (USB4C02835)
Number of Pixels in Processed Spectrum: 3648
>>>>>Begin Processed Spectral Data<<<<<
177.47	2332.64
177.69	2332.64
177.91	2332.64
178.13	2324.44
178.36	2303.96
178.58	3143.63
178.80	3256.27
179.02	3123.15
179.24	3237.84
179.46	2885.59
179.68	2899.92
179.90	3442.64
180.13	3418.06
180.35	2717.65
180.57	2910.16
180.79	3624.90
181.01	3456.97
181.23	2910.16
181.45	3043.28
181.67	3629.00
181.90	3616.71
182.12	3000.27
182.34	2815.96
182.56	3635.14
182.78	3508.17
183.00	2924.50
183.22	3035.09
183.44	3051.47
183.66	4128.70
183.89	3004.37
184.11	3059.67
184.33	3549.13
184.55	3741.64
184.77	2893.78
184.99	2975.70
185.21	3323.85
185.43	3903.43
185.65	2985.94
185.87	3008.47
186.10	4040.64
186.32	4061.12
186.54	3151.82
186.76	3047.38
186.98	3706.82
187.20	3499.98
187.42	2936.79
187.64	2924.50
187.86	3567.56
188.08	3717.06
188.30	2914.26
188.52	3061.71
188.75	3712.97
188.97	3680.20
189.19	2959.31
189.41	2897.88
189.63	3616.71
189.85	3366.86
190.07	2881.49
190.29	2861.01
190.51	3502.03
190.73	3284.94
190.95	3160.02
191.17	2901.97
191.39	3104.72
191.61	3389.39
191.84	3016.66
192.06	3129.30
192.28	3182.54
192.50	4184.00
192.72	3149.78
192.94	3028.95
193.16	3776.45
193.38	3526.60
193.60	2914.26
193.82	3127.25
194.04	3655.62
194.26	3510.22
194.48	3037.14
194.70	2998.23
194.92	3405.77
195.14	3692.49
195.36	2873.30
195.58	3092.43
195.80	3401.68
196.02	3311.57
196.24	2867.16
196.46	3049.43
196.69	3385.29
196.91	4091.84
197.13	3106.77
197.35	3090.38
197.57	3801.03
197.79	3604.42
198.01	3035.09
198.23	2953.17
198.45	3520.46
198.67	3209.17
198.89	2803.67
199.11	3106.77
199.33	3250.13
199.55	2949.08
199.77	2924.50
199.99	3100.62
200.21	3364.81
200.43	3549.13
200.65	2869.20
200.87	2779.09
201.09	3471.31
201.31	3450.83
201.53	3008.47
201.75	3049.43
201.97	3606.47
202.19	3467.21
202.41	3127.25
202.63	3063.76
202.85	3575.75
203.07	3506.12
203.29	3080.14
203.51	2895.83
203.73	3209.17
203.95	4061.12
204.17	2881.49
204.39	3219.41
204.61	3379.15
204.83	3289.04
205.05	3108.82
205.27	2951.12
205.49	4007.87
205.71	3413.96
205.93	2775.00
206.15	2873.30
206.37	3491.79
206.59	3428.30
206.81	2781.14
207.03	2793.43
207.25	3227.60
207.47	3594.19
207.69	2918.36
207.91	3180.50
208.13	3825.61
208.34	3309.52
208.56	2899.92
208.78	2998.23
209.00	3506.12
209.22	3403.72
209.44	2992.08
209.66	2904.02
209.88	3454.92
210.10	3409.87
210.32	2963.41
210.54	3065.81
210.76	3354.57
210.98	3690.44
211.20	2824.15
211.42	3061.71
211.64	3749.83
211.86	3561.42
212.08	3008.47
212.30	2983.89
212.52	3409.87
212.74	3526.60
212.96	3053.52
213.17	3035.09
213.39	3618.76
213.61	3909.57
213.83	2926.55
214.05	2838.48
214.27	3620.81
214.49	3330.00
214.71	2873.30
214.93	3045.33
215.15	3518.41
215.37	3567.56
215.59	2766.81
215.81	3078.10
216.03	3831.75
216.24	3508.17
216.46	2965.46
216.68	3012.56
216.90	3590.09
217.12	3651.53
217.34	2881.49
217.56	3213.26
217.78	3835.85
218.00	3622.86
218.22	3094.48
218.44	3012.56
218.66	3514.31
218.87	3866.56
219.09	2994.13
219.31	2901.97
219.53	3598.28
219.75	3330.00
219.97	2979.79
220.19	3065.81
220.41	3407.82
220.63	3762.12
220.85	3008.47
221.06	3024.85
221.28	3844.04
221.50	3545.03
221.72	2990.03
221.94	2863.06
222.16	3473.36
222.38	3641.29
222.60	2953.17
222.82	3022.80
223.03	3755.97
223.25	3157.97
223.47	2979.79
223.69	3274.70
223.91	3614.66
224.13	3524.55
224.35	2832.34
224.57	3196.88
224.78	3643.34
225.00	3266.51
225.22	3143.63
225.44	2926.55
225.66	3614.66
225.88	3291.09
226.10	3119.06
226.32	2949.08
226.53	3753.93
226.75	3354.57
226.97	3098.58
227.19	2971.60
227.41	3237.84
227.63	3381.20
227.85	2811.86
228.06	3026.90
228.28	3485.64
228.50	3655.62
228.72	2803.67
228.94	2901.97
229.16	3074.00
229.37	3313.61
229.59	2756.57
229.81	3289.04
230.03	3315.66
230.25	3147.73
230.47	2850.77
230.69	2985.94
230.90	3688.39
231.12	3395.53
231.34	3041.23
231.56	3008.47
231.78	3229.65
232.00	3477.45
232.21	3016.66
232.43	3028.95
232.65	3002.32
232.87	3573.71
233.09	2779.09
233.30	2920.40
233.52	3653.58
233.74	3430.35
233.96	2867.16
234.18	3180.50
234.40	3495.88
234.61	3968.96
234.83	2916.31
235.05	2904.02
235.27	4073.41
235.49	3719.11
235.70	2807.77
235.92	2867.16
236.14	3518.41
236.36	4003.78
236.58	2879.44
236.79	2977.75
237.01	3368.91
237.23	3430.35
237.45	3200.98
237.67	3094.48
237.88	3573.71
238.10	3864.52
238.32	2879.44
238.54	2883.54
238.76	3440.59
238.97	3284.94
239.19	2809.81
239.41	2963.41
239.63	3731.40
239.85	3315.66
240.06	2906.07
240.28	2955.22
240.50	3676.10
240.72	3516.36
240.93	2811.86
241.15	3117.01
241.37	3385.29
241.59	3706.82
241.81	2979.79
242.02	3082.19
242.24	3606.47
242.46	3659.72
242.68	2754.52
242.89	2906.07
243.11	3696.58
243.33	3450.83
243.55	2955.22
243.76	2942.93
243.98	3278.80
244.20	3397.58
244.42	2977.75
244.64	2842.58
244.85	3151.82
245.07	3248.08
245.29	2922.45
245.51	3051.47
245.72	3571.66
245.94	3737.54
246.16	2928.60
246.38	3012.56
246.59	3330.00
246.81	3280.85
247.03	2818.00
247.24	2873.30
247.46	3342.28
247.68	3481.55
247.90	2811.86
248.11	2967.51
248.33	3592.14
248.55	3479.50
248.77	3037.14
248.98	3033.04
249.20	3794.89
249.42	3540.94
249.64	2944.98
249.85	2918.36
250.07	3420.11
250.29	3655.62
250.50	2987.99
250.72	2901.97
250.94	3616.71
251.16	3878.85
251.37	2928.60
251.59	3043.28
251.81	3573.71
252.02	3704.78
252.24	2873.30
252.46	3106.77
252.68	3248.08
252.89	3297.23
253.11	2826.20
253.33	3182.54
253.54	3876.80
253.76	3192.78
253.98	3002.32
254.20	2983.89
254.41	3223.50
254.63	3454.92
254.85	2789.33
255.06	3078.10
255.28	3567.56
255.50	3420.11
255.71	2820.05
255.93	2830.29
256.15	3393.48
256.36	3616.71
256.58	2764.76
256.80	2873.30
257.02	3483.59
257.23	3418.06
257.45	2928.60
257.67	3061.71
257.88	3330.00
258.10	3557.32
258.32	2938.84
258.53	3074.00
258.75	3901.38
258.97	3315.66
259.18	2922.45
259.40	2852.82
259.62	3813.32
259.83	3788.74
260.05	3024.85
260.27	3893.19
260.48	3674.06
260.70	3321.81
260.92	2852.82
261.13	3057.62
261.35	3538.89
261.57	3602.38
261.78	2820.05
262.00	2940.88
262.22	3487.69
262.43	3272.65
262.65	2955.22
262.86	2992.08
263.08	3983.30
263.30	3360.72
263.51	2867.16
263.73	2910.16
263.95	3792.84
264.16	3297.23
264.38	2787.29
264.60	2873.30
264.81	3448.78
265.03	3686.34
265.25	3403.72
265.46	2906.07
265.68	3661.77
265.89	3655.62
266.11	2838.48
266.33	2955.22
266.54	3696.58
266.76	3674.06
266.98	3059.67
267.19	3278.80
267.41	3667.91
267.62	3399.63
267.84	2789.33
268.06	3063.76
268.27	3540.94
268.49	3641.29
268.70	3061.71
268.92	3028.95
269.14	3192.78
269.35	3180.50
269.57	3059.67
269.79	2994.13
270.00	3264.46
270.22	3813.32
270.43	2856.92
270.65	2873.30
270.87	3577.80
271.08	3518.41
271.30	3133.39
271.51	2963.41
271.73	3553.23
271.95	3768.26
272.16	2869.20
272.38	3065.81
272.59	3336.14
272.81	3528.65
273.02	2912.21
273.24	2987.99
273.46	3696.58
273.67	3239.89
273.89	2807.77
274.10	2953.17
274.32	3684.30
274.54	3499.98
274.75	2967.51
274.97	3053.52
275.18	3647.43
275.40	3499.98
275.61	2955.22
275.83	3172.30
276.05	3180.50
276.26	3440.59
276.48	3059.67
276.69	3172.30
276.91	3364.81
277.12	3794.89
277.34	3155.92
277.55	3196.88
277.77	3516.36
277.99	3360.72
278.20	3172.30
278.42	3000.27
278.63	3370.96
278.85	3211.22
279.06	3018.71
279.28	3182.54
279.49	3641.29
279.71	3600.33
279.93	3155.92
280.14	3117.01
280.36	3336.14
280.57	3688.39
280.79	3147.73
281.00	2959.31
281.22	3295.18
281.43	3665.86
281.65	2805.72
281.86	2992.08
282.08	3561.42
282.29	3872.71
282.51	3030.99
282.73	3016.66
282.94	3129.30
283.16	3637.19
283.37	3203.02
283.59	3123.15
283.80	3561.42
284.02	3430.35
284.23	3123.15
284.45	3063.76
284.66	3299.28
284.88	3360.72
285.09	3037.14
285.31	3180.50
285.52	3551.18
285.74	3141.58
285.95	3338.19
286.17	3170.26
286.38	3592.14
286.60	3272.65
286.81	2996.18
287.03	3020.75
287.24	3418.06
287.46	3516.36
287.67	3121.10
287.89	3243.98
288.10	3424.20
288.32	3428.30
288.53	3284.94
288.75	3143.63
288.96	3686.34
289.18	3352.52
289.39	2971.60
289.61	3219.41
289.82	3946.44
290.04	3862.47
290.25	2914.26
290.47	3196.88
290.68	3483.59
290.90	3690.44
291.11	2885.59
291.33	3186.64
291.54	3282.89
291.76	3270.61
291.97	3155.92
292.18	3188.69
292.40	3342.28
292.61	3319.76
292.83	3438.54
293.04	3037.14
293.26	3532.75
293.47	3377.10
293.69	3069.91
293.90	2977.75
294.12	3721.16
294.33	3442.64
294.55	3086.29
294.76	3303.37
294.97	3760.07
295.19	3944.39
295.40	3076.05
295.62	3131.34
295.83	3684.30
296.05	3325.90
296.26	3368.91
296.48	3133.39
296.69	3381.20
296.90	3405.77
297.12	3241.93
297.33	3262.41
297.55	3475.40
297.76	3522.51
297.98	3241.93
298.19	3256.27
298.41	3411.92
298.62	3264.46
298.83	3307.47
299.05	3260.37
299.26	3327.95
299.48	3264.46
299.69	3254.22
299.90	3010.51
300.12	3350.48
300.33	3575.75
300.55	3100.62
300.76	3205.07
300.98	3262.41
301.19	3641.29
301.40	3141.58
301.62	3059.67
301.83	3629.00
302.05	3385.29
302.26	3092.43
302.47	3213.26
302.69	3254.22
302.90	3450.83
303.12	2996.18
303.33	3188.69
303.54	3766.21
303.76	3276.75
303.97	2996.18
304.19	3231.69
304.40	3289.04
304.61	3590.09
304.83	3213.26
305.04	3225.55
305.26	3602.38
305.47	3307.47
305.68	3117.01
305.90	2975.70
306.11	3706.82
306.33	3385.29
306.54	2940.88
306.75	3098.58
306.97	3090.38
307.18	3248.08
307.39	3100.62
307.61	3237.84
307.82	3354.57
308.04	3522.51
308.25	2959.31
308.46	3170.26
308.68	3381.20
308.89	3356.62
309.10	3129.30
309.32	3164.11
309.53	3436.49
309.74	3583.95
309.96	2998.23
310.17	3223.50
310.39	3327.95
310.60	3557.32
310.81	3065.81
311.03	2967.51
311.24	3626.95
311.45	3456.97
311.67	3319.76
311.88	3168.21
312.09	3336.14
312.31	3330.00
312.52	2932.69
312.73	2967.51
312.95	3114.96
313.16	3166.16
313.37	3192.78
313.59	3239.89
313.80	3653.58
314.01	3850.18
314.23	3164.11
314.44	3008.47
314.65	3235.79
314.87	3196.88
315.08	3096.53
315.29	3082.19
315.51	3248.08
315.72	3076.05
315.93	3135.44
316.15	3110.86
316.36	3327.95
316.57	3555.27
316.79	3100.62
317.00	3020.75
317.21	3610.57
317.43	3284.94
317.64	3065.81
317.85	3045.33
318.07	3297.23
318.28	3311.57
318.49	3114.96
318.70	3262.41
318.92	3495.88
319.13	3434.44
319.34	3235.79
319.56	3098.58
319.77	3448.78
319.98	3629.00
320.20	3444.68
320.41	3346.38
320.62	3528.65
320.83	3182.54
321.05	3243.98
321.26	3127.25
321.47	3528.65
321.69	3710.92
321.90	3057.62
322.11	3076.05
322.32	3545.03
322.54	3848.13
322.75	3094.48
322.96	4249.54
323.18	3160.02
323.39	3033.04
323.60	3010.51
323.81	3250.13
324.03	3241.93
324.24	3477.45
324.45	3229.65
324.66	3008.47
324.88	3696.58
325.09	3786.69
325.30	3108.82
325.52	2985.94
325.73	3559.37
325.94	3229.65
326.15	3022.80
326.37	2975.70
326.58	3624.90
326.79	3809.22
327.00	3045.33
327.22	3080.14
327.43	3315.66
327.64	3254.22
327.85	3340.24
328.07	3119.06
328.28	3870.66
328.49	3291.09
328.70	3135.44
328.92	3110.86
329.13	3418.06
329.34	3561.42
329.55	3344.33
329.76	3237.84
329.98	3344.33
330.19	3737.54
330.40	3190.74
330.61	3248.08
330.83	3631.05
331.04	3207.12
331.25	3237.84
331.46	3207.12
331.68	3133.39
331.89	3758.02
332.10	3041.23
332.31	3008.47
332.52	3426.25
332.74	3663.82
332.95	2934.74
333.16	3108.82
333.37	3657.67
333.58	3356.62
333.80	3186.64
334.01	2920.40
334.22	3442.64
334.43	3338.19
334.64	3028.95
334.86	3100.62
335.07	3340.24
335.28	3721.16
335.49	3010.51
335.70	3139.54
335.92	3858.37
336.13	3901.38
336.34	3135.44
336.55	3026.90
336.76	3549.13
336.98	2942.93
337.19	3096.53
337.40	3190.74
337.61	3946.44
337.82	3364.81
338.04	3209.17
338.25	2928.60
338.46	3393.48
338.67	3358.67
338.88	3022.80
339.09	2967.51
339.31	3356.62
339.52	3092.43
339.73	3039.19
339.94	3198.93
340.15	3514.31
340.36	3270.61
340.58	3112.91
340.79	3127.25
341.00	3573.71
341.21	3190.74
341.42	3381.20
341.63	3170.26
341.85	3626.95
342.06	3532.75
342.27	3000.27
342.48	3325.90
342.69	3188.69
342.90	3477.45
343.12	3612.62
343.33	3049.43
343.54	3721.16
343.75	3751.88
343.96	3223.50
344.17	2996.18
344.38	3401.68
344.60	3348.43
344.81	3069.91
345.02	3117.01
345.23	3762.12
345.44	4059.07
345.65	3184.59
345.86	3157.97
346.07	3557.32
346.29	3319.76
346.50	3272.65
346.71	3135.44
346.92	3790.79
347.13	3889.09
347.34	3137.49
347.55	2951.12
347.76	3559.37
347.98	3164.11
348.19	3151.82
348.40	3379.15
348.61	3239.89
348.82	3712.97
349.03	3184.59
349.24	3016.66
349.45	3909.57
349.66	3002.32
349.88	3006.42
350.09	3053.52
350.30	3747.78
350.51	3747.78
350.72	3274.70
350.93	3018.71
351.14	3313.61
351.35	3524.55
351.56	3155.92
351.77	3164.11
351.99	3604.42
352.20	3747.78
352.41	3184.59
352.62	2899.92
352.83	3422.16
353.04	3420.11
353.25	3059.67
353.46	3065.81
353.67	3692.49
353.88	3102.67
354.09	3039.19
354.30	3182.54
354.52	3690.44
354.73	3323.85
354.94	3086.29
355.15	3059.67
355.36	3919.81
355.57	3373.00
355.78	3035.09
355.99	3055.57
356.20	3373.00
356.41	3729.35
356.62	3227.60
356.83	3176.40
357.04	3786.69
357.25	3026.90
357.46	3188.69
357.68	2928.60
357.89	3221.45
358.10	3389.39
358.31	3065.81
358.52	3217.36
358.73	3166.16
358.94	3123.15
359.15	3155.92
359.36	3057.62
359.57	3373.00
359.78	3332.05
359.99	3307.47
360.20	2983.89
360.41	3475.40
360.62	3565.51
360.83	3207.12
361.04	3137.49
361.25	3565.51
361.46	3786.69
361.67	3180.50
361.88	3090.38
362.09	3674.06
362.30	3442.64
362.51	3053.52
362.72	3192.78
362.93	3598.28
363.14	3520.46
363.35	3188.69
363.56	3008.47
363.78	3741.64
363.99	3694.54
364.20	3135.44
364.41	3200.98
364.62	3966.92
364.83	3514.31
365.04	3190.74
365.25	3127.25
365.46	4054.98
365.67	3293.13
365.88	3286.99
366.09	3100.62
366.30	3377.10
366.51	3407.82
366.72	3108.82
366.93	3024.85
367.14	3530.70
367.35	3737.54
367.56	2959.31
367.77	3186.64
367.98	3430.35
368.18	3540.94
368.39	3237.84
368.60	3008.47
368.81	3629.00
369.02	3518.41
369.23	3196.88
369.44	2951.12
369.65	3434.44
369.86	3590.09
370.07	3215.31
370.28	2979.79
370.49	3565.51
370.70	3528.65
370.91	3035.09
371.12	3026.90
371.33	3704.78
371.54	3313.61
371.75	3176.40
371.96	2824.15
372.17	3579.85
372.38	3413.96
372.59	3131.34
372.80	3090.38
373.01	3420.11
373.22	3469.26
373.43	3086.29
373.64	2951.12
373.85	3698.63
374.06	3811.27
374.26	3317.71
374.47	3231.69
374.68	3698.63
374.89	3481.55
375.10	3069.91
375.31	3254.22
375.52	3444.68
375.73	3563.47
375.94	3026.90
376.15	3239.89
376.36	3264.46
376.57	3379.15
376.78	3059.67
376.99	3127.25
377.20	3829.70
377.40	3364.81
377.61	3438.54
377.82	2975.70
378.03	3758.02
378.24	3581.90
378.45	3254.22
378.66	3182.54
378.87	3176.40
379.08	3108.82
379.29	3131.34
379.50	3200.98
379.71	3397.58
379.91	3506.12
380.12	3061.71
380.33	3178.45
380.54	3344.33
380.75	3405.77
380.96	3074.00
381.17	3137.49
381.38	3434.44
381.59	3467.21
381.80	3143.63
382.00	3295.18
382.21	3446.73
382.42	3708.87
382.63	3524.55
382.84	3311.57
383.05	3631.05
383.26	3731.40
383.47	3313.61
383.68	3033.04
383.88	3575.75
384.09	3499.98
384.30	3352.52
384.51	3203.02
384.72	3387.34
384.93	3194.83
385.14	3200.98
385.35	3428.30
385.55	3117.01
385.76	3700.68
385.97	3086.29
386.18	2926.55
386.39	3289.04
386.60	3274.70
386.81	3067.86
387.02	2981.84
387.22	3137.49
387.43	3549.13
387.64	3233.74
387.85	3440.59
388.06	3422.16
388.27	4384.70
388.48	7145.36
388.68	10899.29
388.89	13618.99
389.10	14554.91
389.31	14173.99
389.52	11644.75
389.73	10229.60
389.93	9420.66
390.14	8466.30
390.35	7833.48
390.56	7382.93
390.77	6285.22
390.98	4757.43
391.18	4100.03
391.39	3891.14
391.60	3467.21
391.81	3352.52
392.02	3127.25
392.23	3940.29
392.43	3504.07
392.64	3221.45
392.85	3192.78
393.06	3778.50
393.27	3409.87
393.47	3104.72
393.68	3172.30
393.89	3411.92
394.10	3676.10
394.31	3143.63
394.52	3100.62
394.72	3354.57
394.93	3755.97
395.14	3010.51
395.35	3209.17
395.56	3293.13
395.76	3379.15
395.97	2992.08
396.18	3221.45
396.39	3330.00
396.60	4147.14
396.80	3493.83
397.01	3389.39
397.22	3594.19
397.43	3624.90
397.64	3186.64
397.84	3196.88
398.05	3964.87
398.26	3440.59
398.47	3248.08
398.67	3424.20
398.88	3428.30
399.09	3604.42
399.30	3092.43
399.51	3172.30
399.71	3305.42
399.92	3454.92
400.13	3229.65
400.34	3117.01
400.54	3450.83
400.75	3807.17
400.96	3135.44
401.17	3465.16
401.37	3516.36
401.58	3368.91
401.79	3147.73
402.00	3272.65
402.21	3977.16
402.41	3645.38
402.62	3364.81
402.83	3526.60
403.04	3823.56
403.24	4315.07
403.45	3270.61
403.66	3491.79
403.87	3731.40
404.07	3794.89
404.28	3303.37
404.49	3426.25
404.70	3565.51
404.90	3581.90
405.11	3205.07
405.32	3184.59
405.52	3403.72
405.73	3366.86
405.94	3065.81
406.15	3237.84
406.35	3549.13
406.56	3602.38
406.77	3133.39
406.98	3092.43
407.18	3205.07
407.39	3801.03
407.60	3180.50
407.80	3262.41
408.01	3426.25
408.22	3600.33
408.43	3080.14
408.63	3266.51
408.84	3672.01
409.05	3704.78
409.25	3104.72
409.46	3188.69
409.67	3327.95
409.88	3332.05
410.08	3176.40
410.29	3123.15
410.50	3542.99
410.70	3538.89
410.91	3014.61
411.12	3303.37
411.32	3528.65
411.53	3258.32
411.74	3121.10
411.95	3123.15
412.15	3442.64
412.36	3643.34
412.57	3301.33
412.77	3311.57
412.98	3344.33
413.19	3338.19
413.39	3112.91
413.60	3203.02
413.81	3710.92
414.01	3213.26
414.22	3145.68
414.43	3315.66
414.63	3248.08
414.84	3649.48
415.05	3215.31
415.25	3037.14
415.46	3557.32
415.67	3348.43
415.87	3123.15
416.08	3123.15
416.29	3330.00
416.49	3557.32
416.70	3262.41
416.91	3147.73
417.11	3452.88
417.32	3631.05
417.53	3286.99
417.73	3299.28
417.94	3409.87
418.15	3557.32
418.35	3211.22
418.56	3164.11
418.77	3979.20
418.97	3491.79
419.18	3282.89
419.38	2879.44
419.59	3481.55
419.80	3710.92
420.00	3067.86
420.21	3123.15
420.42	3741.64
420.62	3483.59
420.83	3217.36
421.04	3131.34
421.24	3397.58
421.45	3649.48
421.65	3192.78
421.86	3155.92
422.07	3655.62
422.27	3573.71
422.48	3057.62
422.69	2994.13
422.89	3373.00
423.10	3465.16
423.30	3178.45
423.51	3168.21
423.72	3516.36
423.92	3569.61
424.13	2926.55
424.33	3198.93
424.54	3647.43
424.75	3495.88
424.95	3391.44
425.16	3135.44
425.36	3477.45
425.57	3672.01
425.78	3405.77
425.98	3280.85
426.19	3403.72
426.39	3254.22
426.60	3274.70
426.81	3295.18
427.01	3594.19
427.22	3223.50
427.42	2992.08
427.63	3117.01
427.83	3678.15
428.04	3774.41
428.25	3250.13
428.45	3276.75
428.66	3672.01
428.86	3377.10
429.07	3264.46
429.28	3250.13
429.48	3426.25
429.69	3264.46
429.89	3356.62
430.10	3123.15
430.30	3647.43
430.51	3680.20
430.71	3080.14
430.92	3293.13
431.13	3291.09
431.33	3508.17
431.54	3254.22
431.74	3360.72
431.95	3995.59
432.15	3233.74
432.36	3178.45
432.56	3231.69
432.77	3936.20
432.98	3866.56
433.18	3243.98
433.39	2987.99
433.59	3405.77
433.80	3928.00
434.00	3340.24
434.21	3160.02
434.41	3254.22
434.62	3973.06
434.82	3090.38
435.03	3010.51
435.23	3573.71
435.44	3010.51
435.64	3098.58
435.85	3151.82
436.06	3637.19
436.26	3635.14
436.47	3184.59
436.67	3088.34
436.88	3393.48
437.08	3753.93
437.29	3221.45
437.49	3356.62
437.70	3727.30
437.90	3418.06
438.11	3362.76
438.31	3311.57
438.52	3749.83
438.72	3651.53
438.93	3506.12
439.13	3254.22
439.34	3641.29
439.54	3334.09
439.75	3319.76
439.95	3198.93
440.16	3286.99
440.36	3432.40
440.57	3135.44
440.77	3133.39
440.98	3418.06
441.18	3577.80
441.39	3063.76
441.59	3108.82
441.80	3930.05
442.00	3375.05
442.21	3282.89
442.41	3035.09
442.62	3616.71
442.82	3327.95
443.02	3164.11
443.23	3205.07
443.43	3405.77
443.64	3700.68
443.84	3016.66
444.05	3190.74
444.25	3479.50
444.46	3284.94
444.66	3119.06
444.87	3432.40
445.07	3151.82
445.28	3379.15
445.48	3286.99
445.69	3291.09
445.89	4063.17
446.09	3352.52
446.30	3477.45
446.50	3547.08
446.71	4939.70
446.91	6131.62
447.12	6875.03
447.32	7419.79
447.53	7286.67
447.73	6088.61
447.93	5281.71
448.14	5253.04
448.34	5521.32
448.55	4415.42
448.75	4376.51
448.96	4159.42
449.16	4163.52
449.36	4061.12
449.57	3416.01
449.77	3239.89
449.98	3260.37
450.18	3452.88
450.39	3090.38
450.59	3444.68
450.79	3416.01
451.00	3321.81
451.20	3379.15
451.41	3229.65
451.61	3473.36
451.81	3356.62
452.02	3110.86
452.22	3194.83
452.43	3344.33
