SpectraSuite Data File
++++++++++++++++++++++++++++++++++++
Date: Fri May 06 09:28:48 CEST 2016
User: root
Dark Spectrum Present: No
Reference Spectrum Present: No
Number of Sampled Component Spectra: 1
Spectrometers: USB4C02835
Integration Time (usec): 100000 (USB4C02835)
Spectra Averaged: 1 (USB4C02835)
Boxcar Smoothing: 0 (USB4C02835)
Correct for Electrical Dark: No (USB4C02835)
Strobe/Lamp Enabled: No (USB4C02835)
Correct for Detector Non-linearity: No (USB4C02835)
Correct for Stray Light: No (USB4C02835)
Number of Pixels in Processed Spectrum: 3648
>>>>>Begin Processed Spectral Data<<<<<
177.47	2342.88
177.69	2342.88
177.91	2342.88
178.13	2320.35
178.36	2330.59
178.58	3174.35
178.80	3223.50
179.02	3184.59
179.24	3194.83
179.46	2838.48
179.68	2953.17
179.90	3426.25
180.13	3485.64
180.35	2680.79
180.57	2930.64
180.79	3495.88
181.01	3401.68
181.23	2983.89
181.45	3080.14
181.67	3639.24
181.90	3583.95
182.12	3114.96
182.34	2734.04
182.56	3551.18
182.78	3594.19
183.00	2891.73
183.22	2918.36
183.44	3104.72
183.66	4030.40
183.89	3059.67
184.11	3051.47
184.33	3581.90
184.55	3758.02
184.77	2867.16
184.99	2983.89
185.21	3307.47
185.43	4040.64
185.65	2955.22
185.87	2928.60
186.10	3919.81
186.32	4032.45
186.54	3057.62
186.76	3033.04
186.98	3721.16
187.20	3348.43
187.42	2979.79
187.64	2885.59
187.86	3600.33
188.08	3753.93
188.30	2826.20
188.52	3024.85
188.75	3745.73
188.97	3706.82
189.19	2949.08
189.41	2977.75
189.63	3631.05
189.85	3389.39
190.07	2838.48
190.29	2791.38
190.51	3483.59
190.73	3133.39
190.95	3184.59
191.17	2965.46
191.39	3160.02
191.61	3336.14
191.84	3039.19
192.06	3114.96
192.28	3143.63
192.50	4214.72
192.72	3080.14
192.94	3100.62
193.16	3721.16
193.38	3608.52
193.60	2922.45
193.82	3227.60
194.04	3696.58
194.26	3512.27
194.48	3024.85
194.70	2969.55
194.92	3291.09
195.14	3655.62
195.36	2897.88
195.58	3074.00
195.80	3379.15
196.02	3346.38
196.24	2879.44
196.46	3002.32
196.69	3350.48
196.91	4048.83
197.13	2916.31
197.35	3047.38
197.57	3841.99
197.79	3585.99
198.01	3037.14
198.23	3000.27
198.45	3616.71
198.67	3160.02
198.89	2805.72
199.11	3055.57
199.33	3278.80
199.55	2983.89
199.77	2922.45
199.99	3090.38
200.21	3250.13
200.43	3534.79
200.65	2832.34
200.87	2793.43
201.09	3487.69
201.31	3385.29
201.53	3051.47
201.75	3074.00
201.97	3450.83
202.19	3459.02
202.41	3061.71
202.63	3098.58
202.85	3553.23
203.07	3526.60
203.29	3086.29
203.51	2836.44
203.73	3305.42
203.95	3997.64
204.17	2955.22
204.39	3141.58
204.61	3422.16
204.83	3307.47
205.05	3160.02
205.27	3002.32
205.49	3917.76
205.71	3477.45
205.93	2875.35
206.15	2822.10
206.37	3454.92
206.59	3393.48
206.81	2834.39
207.03	2856.92
207.25	3272.65
207.47	3618.76
207.69	2924.50
207.91	3272.65
208.13	3878.85
208.34	3231.69
208.56	2963.41
208.78	2994.13
209.00	3360.72
209.22	3338.19
209.44	2928.60
209.66	2877.40
209.88	3504.07
210.10	3334.09
210.32	2975.70
210.54	3051.47
210.76	3420.11
210.98	3653.58
211.20	2766.81
211.42	3084.24
211.64	3809.22
211.86	3565.51
212.08	3033.04
212.30	2944.98
212.52	3450.83
212.74	3626.95
212.96	3112.91
213.17	3053.52
213.39	3676.10
213.61	3885.00
213.83	2959.31
214.05	2934.74
214.27	3606.47
214.49	3262.41
214.71	2959.31
214.93	3106.77
215.15	3516.36
215.37	3672.01
215.59	2781.14
215.81	3039.19
216.03	3762.12
216.24	3436.49
216.46	2936.79
216.68	3020.75
216.90	3565.51
217.12	3710.92
217.34	2854.87
217.56	3229.65
217.78	3715.02
218.00	3657.67
218.22	2992.08
218.44	3045.33
218.66	3493.83
218.87	3839.94
219.09	2998.23
219.31	2963.41
219.53	3567.56
219.75	3426.25
219.97	3018.71
220.19	3051.47
220.41	3397.58
220.63	3811.27
220.85	2994.13
221.06	2977.75
221.28	3696.58
221.50	3585.99
221.72	2885.59
221.94	2885.59
222.16	3516.36
222.38	3618.76
222.60	2979.79
222.82	3033.04
223.03	3665.86
223.25	3207.12
223.47	2869.20
223.69	3153.87
223.91	3626.95
224.13	3434.44
224.35	2861.01
224.57	3141.58
224.78	3610.57
225.00	3243.98
225.22	3043.28
225.44	2924.50
225.66	3663.82
225.88	3401.68
226.10	3114.96
226.32	3033.04
226.53	3846.09
226.75	3360.72
226.97	3063.76
227.19	3059.67
227.41	3264.46
227.63	3307.47
227.85	2748.37
228.06	3063.76
228.28	3487.69
228.50	3608.52
228.72	2781.14
228.94	2932.69
229.16	2994.13
229.37	3215.31
229.59	2887.64
229.81	3256.27
230.03	3356.62
230.25	3188.69
230.47	2766.81
230.69	2944.98
230.90	3692.49
231.12	3321.81
231.34	3035.09
231.56	3022.80
231.78	3237.84
232.00	3463.12
232.21	3024.85
232.43	3061.71
232.65	3078.10
232.87	3512.27
233.09	2852.82
233.30	2914.26
233.52	3622.86
233.74	3389.39
233.96	2916.31
234.18	3217.36
234.40	3467.21
234.61	3999.68
234.83	2824.15
235.05	2889.68
235.27	3985.35
235.49	3712.97
235.70	2828.24
235.92	3008.47
236.14	3577.80
236.36	3979.20
236.58	2801.62
236.79	3033.04
237.01	3475.40
237.23	3471.31
237.45	3164.11
237.67	2994.13
237.88	3549.13
238.10	3854.28
238.32	2885.59
238.54	2897.88
238.76	3370.96
238.97	3284.94
239.19	2795.48
239.41	2994.13
239.63	3700.68
239.85	3319.76
240.06	2977.75
240.28	2969.55
240.50	3631.05
240.72	3532.75
240.93	2795.48
241.15	3100.62
241.37	3499.98
241.59	3768.26
241.81	2887.64
242.02	3037.14
242.24	3526.60
242.46	3641.29
242.68	2828.24
242.89	2979.79
243.11	3696.58
243.33	3377.10
243.55	3006.42
243.76	2922.45
243.98	3272.65
244.20	3370.96
244.42	2990.03
244.64	2926.55
244.85	3147.73
245.07	3198.93
245.29	2942.93
245.51	2916.31
245.72	3530.70
245.94	3631.05
246.16	2947.03
246.38	3037.14
246.59	3352.52
246.81	3311.57
247.03	2871.25
247.24	2918.36
247.46	3266.51
247.68	3434.44
247.90	2869.20
248.11	2994.13
248.33	3610.57
248.55	3485.64
248.77	3037.14
248.98	3110.86
249.20	3796.93
249.42	3508.17
249.64	2895.83
249.85	2916.31
250.07	3305.42
250.29	3655.62
250.50	3133.39
250.72	2934.74
250.94	3569.61
251.16	3973.06
251.37	2969.55
251.59	3026.90
251.81	3532.75
252.02	3803.08
252.24	2904.02
252.46	3084.24
252.68	3254.22
252.89	3409.87
253.11	2764.76
253.33	3096.53
253.54	3737.54
253.76	3225.55
253.98	2885.59
254.20	2932.69
254.41	3104.72
254.63	3448.78
254.85	2793.43
255.06	3082.19
255.28	3565.51
255.50	3254.22
255.71	2969.55
255.93	2820.05
256.15	3389.39
256.36	3590.09
256.58	2750.42
256.80	2885.59
257.02	3450.83
257.23	3438.54
257.45	2969.55
257.67	3157.97
257.88	3323.85
258.10	3549.13
258.32	2918.36
258.53	3092.43
258.75	3839.94
258.97	3389.39
259.18	2863.06
259.40	2910.16
259.62	3825.61
259.83	3745.73
260.05	2944.98
260.27	3864.52
260.48	3635.14
260.70	3213.26
260.92	2865.11
261.13	2977.75
261.35	3540.94
261.57	3518.41
261.78	2805.72
262.00	2910.16
262.22	3686.34
262.43	3295.18
262.65	2994.13
262.86	3014.61
263.08	4001.73
263.30	3493.83
263.51	2756.57
263.73	2934.74
263.95	3786.69
264.16	3241.93
264.38	2822.10
264.60	2871.25
264.81	3434.44
265.03	3698.63
265.25	3366.86
265.46	2910.16
265.68	3729.35
265.89	3622.86
266.11	2879.44
266.33	2951.12
266.54	3704.78
266.76	3493.83
266.98	3010.51
267.19	3196.88
267.41	3741.64
267.62	3379.15
267.84	2828.24
268.06	3106.77
268.27	3545.03
268.49	3680.20
268.70	2951.12
268.92	3010.51
269.14	3243.98
269.35	3221.45
269.57	3121.10
269.79	3096.53
270.00	3286.99
270.22	3866.56
270.43	2904.02
270.65	2781.14
270.87	3571.66
271.08	3585.99
271.30	3090.38
271.51	2910.16
271.73	3565.51
271.95	3647.43
272.16	2865.11
272.38	3096.53
272.59	3375.05
272.81	3598.28
273.02	2895.83
273.24	2975.70
273.46	3708.87
273.67	3141.58
273.89	2840.53
274.10	2963.41
274.32	3653.58
274.54	3483.59
274.75	3127.25
274.97	3092.43
275.18	3645.38
275.40	3639.24
275.61	2834.39
275.83	3129.30
276.05	3209.17
276.26	3416.01
276.48	3057.62
276.69	3141.58
276.91	3321.81
277.12	3688.39
277.34	3133.39
277.55	3162.06
277.77	3514.31
277.99	3432.40
278.20	3098.58
278.42	3022.80
278.63	3305.42
278.85	3356.62
279.06	3102.67
279.28	3194.83
279.49	3645.38
279.71	3614.66
279.93	3147.73
280.14	3160.02
280.36	3307.47
280.57	3581.90
280.79	3119.06
281.00	2994.13
281.22	3260.37
281.43	3727.30
281.65	2916.31
281.86	3018.71
282.08	3631.05
282.29	3874.76
282.51	2949.08
282.73	3047.38
282.94	3137.49
283.16	3751.88
283.37	3155.92
283.59	3149.78
283.80	3606.47
284.02	3385.29
284.23	3164.11
284.45	3155.92
284.66	3272.65
284.88	3284.94
285.09	2983.89
285.31	3174.35
285.52	3592.14
285.74	3147.73
285.95	3354.57
286.17	3129.30
286.38	3680.20
286.60	3303.37
286.81	2983.89
287.03	3053.52
287.24	3508.17
287.46	3626.95
287.67	3254.22
287.89	3307.47
288.10	3442.64
288.32	3434.44
288.53	3217.36
288.75	3221.45
288.96	3645.38
289.18	3262.41
289.39	3041.23
289.61	3184.59
289.82	3923.91
290.04	3876.80
290.25	2961.36
290.47	3157.97
290.68	3352.52
290.90	3594.19
291.11	2865.11
291.33	3254.22
291.54	3284.94
291.76	3254.22
291.97	3233.74
292.18	3248.08
292.40	3362.76
292.61	3286.99
292.83	3356.62
293.04	3084.24
293.26	3385.29
293.47	3368.91
293.69	3080.14
293.90	2983.89
294.12	3844.04
294.33	3534.79
294.55	3055.57
294.76	3305.42
294.97	3758.02
295.19	3950.53
295.40	3092.43
295.62	3180.50
295.83	3665.86
296.05	3286.99
296.26	3340.24
296.48	3037.14
296.69	3430.35
296.90	3405.77
297.12	3276.75
297.33	3254.22
297.55	3475.40
297.76	3561.42
297.98	3137.49
298.19	3368.91
298.41	3385.29
298.62	3272.65
298.83	3332.05
299.05	3254.22
299.26	3366.86
299.48	3219.41
299.69	3164.11
299.90	3102.67
300.12	3172.30
300.33	3663.82
300.55	3047.38
300.76	3141.58
300.98	3286.99
301.19	3608.52
301.40	3114.96
301.62	3088.34
301.83	3631.05
302.05	3413.96
302.26	3084.24
302.47	3164.11
302.69	3215.31
302.90	3493.83
303.12	3016.66
303.33	3237.84
303.54	3870.66
303.76	3360.72
303.97	3037.14
304.19	3336.14
304.40	3198.93
304.61	3540.94
304.83	3137.49
305.04	3215.31
305.26	3569.61
305.47	3327.95
305.68	3131.34
305.90	2994.13
306.11	3741.64
306.33	3440.59
306.54	2947.03
306.75	2994.13
306.97	3143.63
307.18	3250.13
307.39	3162.06
307.61	3184.59
307.82	3454.92
308.04	3522.51
308.25	2951.12
308.46	3301.33
308.68	3485.64
308.89	3479.50
309.10	3133.39
309.32	3176.40
309.53	3397.58
309.74	3571.66
309.96	2983.89
310.17	3235.79
310.39	3248.08
310.60	3559.37
310.81	3190.74
311.03	3174.35
311.24	3559.37
311.45	3475.40
311.67	3413.96
311.88	3252.17
312.09	3354.57
312.31	3325.90
312.52	3018.71
312.73	3082.19
312.95	3243.98
313.16	3227.60
313.37	3221.45
313.59	3284.94
313.80	3651.53
314.01	3764.17
314.23	3084.24
314.44	3088.34
314.65	3147.73
314.87	3239.89
315.08	3117.01
315.29	3092.43
315.51	3196.88
315.72	3149.78
315.93	3172.30
316.15	3069.91
316.36	3332.05
316.57	3485.64
316.79	3090.38
317.00	3012.56
317.21	3614.66
317.43	3239.89
317.64	3143.63
317.85	3039.19
318.07	3276.75
318.28	3362.76
318.49	3145.68
318.70	3272.65
318.92	3424.20
319.13	3518.41
319.34	3241.93
319.56	2994.13
319.77	3561.42
319.98	3620.81
320.20	3473.36
320.41	3276.75
320.62	3590.09
320.83	3248.08
321.05	3305.42
321.26	3139.54
321.47	3508.17
321.69	3778.50
321.90	2990.03
322.11	3061.71
322.32	3557.32
322.54	3743.69
322.75	3139.54
322.96	4253.63
323.18	3125.20
323.39	3084.24
323.60	3002.32
323.81	3299.28
324.03	3307.47
324.24	3467.21
324.45	3237.84
324.66	3086.29
324.88	3688.39
325.09	3821.51
325.30	3121.10
325.52	2992.08
325.73	3571.66
325.94	3221.45
326.15	3004.37
326.37	2969.55
326.58	3653.58
326.79	3749.83
327.00	3061.71
327.22	3033.04
327.43	3426.25
327.64	3166.16
327.85	3270.61
328.07	3139.54
328.28	3893.19
328.49	3303.37
328.70	3084.24
328.92	3086.29
329.13	3399.63
329.34	3598.28
329.55	3370.96
329.76	3272.65
329.98	3362.76
330.19	3721.16
330.40	3209.17
330.61	3272.65
330.83	3618.76
331.04	3340.24
331.25	3147.73
331.46	3215.31
331.68	3155.92
331.89	3721.16
332.10	3127.25
332.31	3008.47
332.52	3411.92
332.74	3674.06
332.95	2920.40
333.16	3153.87
333.37	3508.17
333.58	3348.43
333.80	3143.63
334.01	2852.82
334.22	3407.82
334.43	3311.57
334.64	3043.28
334.86	3033.04
335.07	3237.84
335.28	3741.64
335.49	2944.98
335.70	3102.67
335.92	3676.10
336.13	3960.77
336.34	3114.96
336.55	3096.53
336.76	3616.71
336.98	3059.67
337.19	3135.44
337.40	3237.84
337.61	3985.35
337.82	3454.92
338.04	3196.88
338.25	2885.59
338.46	3436.49
338.67	3409.87
338.88	3026.90
339.09	2967.51
339.31	3389.39
339.52	3153.87
339.73	2979.79
339.94	3168.21
340.15	3573.71
340.36	3336.14
340.58	3157.97
340.79	3074.00
341.00	3596.23
341.21	3172.30
341.42	3389.39
341.63	3131.34
341.85	3610.57
342.06	3438.54
342.27	3026.90
342.48	3217.36
342.69	3117.01
342.90	3502.03
343.12	3532.75
343.33	3028.95
343.54	3643.34
343.75	3794.89
343.96	3155.92
344.17	2987.99
344.38	3342.28
344.60	3225.55
344.81	3012.56
345.02	3203.02
345.23	3639.24
345.44	4032.45
345.65	3076.05
345.86	3190.74
346.07	3565.51
346.29	3344.33
346.50	3229.65
346.71	3192.78
346.92	3676.10
347.13	3948.48
347.34	3237.84
347.55	3000.27
347.76	3569.61
347.98	3166.16
348.19	3192.78
348.40	3319.76
348.61	3270.61
348.82	3811.27
349.03	3188.69
349.24	3041.23
349.45	3934.15
349.66	3043.28
349.88	3149.78
350.09	3006.42
350.30	3776.45
350.51	3733.45
350.72	3327.95
350.93	3037.14
351.14	3303.37
351.35	3614.66
351.56	3092.43
351.77	3229.65
351.99	3551.18
352.20	3778.50
352.41	3239.89
352.62	2996.18
352.83	3368.91
353.04	3360.72
353.25	3143.63
353.46	3043.28
353.67	3663.82
353.88	3045.33
354.09	3006.42
354.30	3336.14
354.52	3622.86
354.73	3452.88
354.94	3102.67
355.15	3178.45
355.36	3923.91
355.57	3258.32
355.78	3090.38
355.99	3082.19
356.20	3428.30
356.41	3680.20
356.62	3266.51
356.83	3153.87
357.04	3745.73
357.25	3135.44
357.46	3061.71
357.68	3037.14
357.89	3250.13
358.10	3444.68
358.31	3071.95
358.52	3198.93
358.73	3278.80
358.94	3198.93
359.15	3160.02
359.36	3119.06
359.57	3456.97
359.78	3373.00
359.99	3338.19
360.20	3078.10
360.41	3432.40
360.62	3565.51
360.83	3182.54
361.04	3151.82
361.25	3614.66
361.46	3731.40
361.67	3256.27
361.88	3135.44
362.09	3700.68
362.30	3528.65
362.51	3041.23
362.72	3135.44
362.93	3669.96
363.14	3555.27
363.35	3246.03
363.56	3022.80
363.78	3600.33
363.99	3717.06
364.20	3080.14
364.41	3168.21
364.62	3835.85
364.83	3516.36
365.04	3108.82
365.25	3114.96
365.46	3932.10
365.67	3278.80
365.88	3309.52
366.09	3110.86
366.30	3303.37
366.51	3426.25
366.72	3024.85
366.93	3061.71
367.14	3510.22
367.35	3708.87
367.56	3047.38
367.77	3209.17
367.98	3416.01
368.18	3602.38
368.39	3213.26
368.60	3049.43
368.81	3639.24
369.02	3491.79
369.23	3086.29
369.44	2910.16
369.65	3352.52
369.86	3557.32
370.07	3254.22
370.28	2985.94
370.49	3483.59
370.70	3524.55
370.91	3051.47
371.12	2942.93
371.33	3717.06
371.54	3282.89
371.75	3215.31
371.96	2848.72
372.17	3495.88
372.38	3430.35
372.59	3180.50
372.80	2996.18
373.01	3473.36
373.22	3475.40
373.43	3051.47
373.64	3002.32
373.85	3778.50
374.06	3792.84
374.26	3319.76
374.47	3207.12
374.68	3721.16
374.89	3508.17
375.10	3055.57
375.31	3162.06
375.52	3518.41
375.73	3514.31
375.94	2967.51
376.15	3209.17
376.36	3297.23
376.57	3289.04
376.78	3139.54
376.99	3147.73
377.20	3696.58
377.40	3377.10
377.61	3377.10
377.82	3145.68
378.03	3811.27
378.24	3565.51
378.45	3260.37
378.66	3180.50
378.87	3180.50
379.08	3135.44
379.29	3125.20
379.50	3284.94
379.71	3375.05
379.91	3575.75
380.12	3037.14
380.33	3180.50
380.54	3395.53
380.75	3387.34
380.96	3166.16
381.17	3168.21
381.38	3436.49
381.59	3432.40
381.80	3262.41
382.00	3280.85
382.21	3471.31
382.42	3782.60
382.63	3508.17
382.84	3305.42
383.05	3645.38
383.26	3805.13
383.47	3250.13
383.68	3112.91
383.88	3512.27
384.09	3510.22
384.30	3332.05
384.51	3280.85
384.72	3305.42
384.93	3162.06
385.14	3200.98
385.35	3375.05
385.55	3164.11
385.76	3717.06
385.97	3198.93
386.18	2996.18
386.39	3243.98
386.60	3327.95
386.81	3112.91
387.02	3047.38
387.22	3108.82
387.43	3561.42
387.64	3139.54
387.85	3364.81
388.06	3499.98
388.27	4378.56
388.48	7190.42
388.68	10901.34
388.89	13557.55
389.10	14757.66
389.31	14208.81
389.52	11718.48
389.73	10248.04
389.93	9406.32
390.14	8437.63
390.35	7913.35
390.56	7407.50
390.77	6154.15
390.98	4665.27
391.18	4130.75
391.39	3971.01
391.60	3454.92
391.81	3364.81
392.02	3149.78
392.23	3897.28
392.43	3532.75
392.64	3198.93
392.85	3217.36
393.06	3819.46
393.27	3401.68
393.47	3092.43
393.68	3217.36
393.89	3418.06
394.10	3667.91
394.31	3164.11
394.52	3028.95
394.72	3237.84
394.93	3809.22
395.14	3045.33
395.35	3207.12
395.56	3305.42
395.76	3385.29
395.97	3018.71
396.18	3340.24
396.39	3346.38
396.60	4034.50
396.80	3418.06
397.01	3282.89
397.22	3592.14
397.43	3647.43
397.64	3086.29
397.84	3221.45
398.05	3913.67
398.26	3422.16
398.47	3217.36
398.67	3362.76
398.88	3413.96
399.09	3579.85
399.30	3092.43
399.51	3184.59
399.71	3250.13
399.92	3456.97
400.13	3270.61
400.34	3125.20
400.54	3467.21
400.75	3764.17
400.96	3160.02
401.17	3416.01
401.37	3545.03
401.58	3366.86
401.79	3131.34
402.00	3256.27
402.21	3981.25
402.41	3569.61
402.62	3391.44
402.83	3504.07
403.04	3803.08
403.24	4171.71
403.45	3284.94
403.66	3551.18
403.87	3549.13
404.07	3770.31
404.28	3416.01
404.49	3493.83
404.70	3585.99
404.90	3540.94
405.11	3063.76
405.32	3327.95
405.52	3272.65
405.73	3272.65
405.94	3106.77
406.15	3243.98
406.35	3592.14
406.56	3588.04
406.77	3213.26
406.98	3180.50
407.18	3307.47
407.39	3780.55
407.60	3135.44
407.80	3243.98
408.01	3334.09
408.22	3696.58
408.43	3082.19
408.63	3270.61
408.84	3696.58
409.05	3600.33
409.25	3069.91
409.46	3192.78
409.67	3368.91
409.88	3309.52
410.08	3139.54
410.29	3155.92
410.50	3704.78
410.70	3575.75
410.91	3049.43
411.12	3233.74
411.32	3416.01
411.53	3309.52
411.74	3065.81
411.95	3215.31
412.15	3391.44
412.36	3508.17
412.57	3293.13
412.77	3377.10
412.98	3393.48
413.19	3332.05
413.39	3217.36
413.60	3114.96
413.81	3661.77
414.01	3141.58
414.22	3190.74
414.43	3391.44
414.63	3315.66
414.84	3645.38
415.05	3106.77
415.25	3000.27
415.46	3629.00
415.67	3381.20
415.87	3176.40
416.08	3098.58
416.29	3340.24
416.49	3612.62
416.70	3207.12
416.91	3106.77
417.11	3391.44
417.32	3706.82
417.53	3289.04
417.73	3190.74
417.94	3356.62
418.15	3553.23
418.35	3186.64
418.56	3186.64
418.77	4005.83
418.97	3448.78
419.18	3262.41
419.38	2852.82
419.59	3450.83
419.80	3727.30
420.00	3121.10
420.21	3157.97
420.42	3770.31
420.62	3479.50
420.83	3178.45
421.04	3108.82
421.24	3426.25
421.45	3696.58
421.65	3205.07
421.86	3190.74
422.07	3657.67
422.27	3571.66
422.48	3069.91
422.69	3033.04
422.89	3477.45
423.10	3411.92
423.30	3162.06
423.51	3205.07
423.72	3622.86
423.92	3561.42
424.13	3024.85
424.33	3303.37
424.54	3690.44
424.75	3508.17
424.95	3452.88
425.16	3155.92
425.36	3428.30
425.57	3592.14
425.78	3289.04
425.98	3311.57
426.19	3465.16
426.39	3295.18
426.60	3246.03
426.81	3313.61
427.01	3510.22
427.22	3235.79
427.42	2942.93
427.63	3084.24
427.83	3643.34
428.04	3854.28
428.25	3256.27
428.45	3229.65
428.66	3614.66
428.86	3377.10
429.07	3127.25
429.28	3131.34
429.48	3454.92
429.69	3299.28
429.89	3297.23
430.10	3114.96
430.30	3612.62
430.51	3657.67
430.71	3030.99
430.92	3231.69
431.13	3344.33
431.33	3559.37
431.54	3262.41
431.74	3340.24
431.95	4028.35
432.15	3170.26
432.36	3131.34
432.56	3147.73
432.77	3878.85
432.98	3844.04
433.18	3256.27
433.39	3014.61
433.59	3428.30
433.80	3903.43
434.00	3393.48
434.21	3264.46
434.41	3250.13
434.62	3948.48
434.82	3041.23
435.03	3155.92
435.23	3528.65
435.44	3102.67
435.64	3123.15
435.85	3176.40
436.06	3690.44
436.26	3643.34
436.47	3164.11
436.67	3147.73
436.88	3393.48
437.08	3700.68
437.29	3295.18
437.49	3291.09
437.70	3796.93
437.90	3459.02
438.11	3366.86
438.31	3235.79
438.52	3602.38
438.72	3606.47
438.93	3438.54
439.13	3272.65
439.34	3676.10
439.54	3336.14
439.75	3254.22
439.95	3268.56
440.16	3172.30
440.36	3373.00
440.57	3147.73
440.77	3143.63
440.98	3438.54
441.18	3549.13
441.39	3055.57
441.59	2959.31
441.80	3905.48
442.00	3383.24
442.21	3227.60
442.41	3016.66
442.62	3618.76
442.82	3358.67
443.02	3125.20
443.23	3243.98
443.43	3401.68
443.64	3723.21
443.84	3084.24
444.05	3217.36
444.25	3416.01
444.46	3270.61
444.66	3129.30
444.87	3422.16
445.07	3139.54
445.28	3391.44
445.48	3237.84
445.69	3215.31
445.89	3991.49
446.09	3428.30
446.30	3487.69
446.50	3518.41
446.71	5048.24
446.91	6059.94
447.12	6811.54
447.32	7171.99
447.53	7241.62
447.73	6195.11
447.93	5199.79
448.14	5169.07
448.34	5384.11
448.55	4483.00
448.75	4384.70
448.96	4118.47
449.16	4147.14
449.36	3962.82
449.57	3360.72
449.77	3180.50
449.98	3346.38
450.18	3616.71
450.39	3112.91
450.59	3438.54
450.79	3516.36
451.00	3289.04
451.20	3313.61
451.41	3125.20
451.61	3590.09
451.81	3448.78
452.02	3094.48
452.22	3215.31
452.43	3352.52
