SpectraSuite Data File
++++++++++++++++++++++++++++++++++++
Date: Fri May 06 09:28:36 CEST 2016
User: root
Dark Spectrum Present: No
Reference Spectrum Present: No
Number of Sampled Component Spectra: 1
Spectrometers: USB4C02835
Integration Time (usec): 100000 (USB4C02835)
Spectra Averaged: 1 (USB4C02835)
Boxcar Smoothing: 0 (USB4C02835)
Correct for Electrical Dark: No (USB4C02835)
Strobe/Lamp Enabled: No (USB4C02835)
Correct for Detector Non-linearity: No (USB4C02835)
Correct for Stray Light: No (USB4C02835)
Number of Pixels in Processed Spectrum: 3648
>>>>>Begin Processed Spectral Data<<<<<
177.47	2394.08
177.69	2394.08
177.91	2394.08
178.13	2310.11
178.36	2342.88
178.58	3139.54
178.80	3172.30
179.02	3121.10
179.24	3229.65
179.46	2893.78
179.68	2947.03
179.90	3479.50
180.13	3450.83
180.35	2738.13
180.57	2893.78
180.79	3659.72
181.01	3411.92
181.23	2996.18
181.45	3020.75
181.67	3565.51
181.90	3682.25
182.12	2998.23
182.34	2811.86
182.56	3649.48
182.78	3571.66
183.00	2926.55
183.22	2963.41
183.44	3022.80
183.66	3964.87
183.89	3121.10
184.11	3000.27
184.33	3594.19
184.55	3749.83
184.77	2959.31
184.99	3000.27
185.21	3334.09
185.43	3971.01
185.65	2942.93
185.87	2942.93
186.10	3995.59
186.32	4054.98
186.54	3147.73
186.76	3051.47
186.98	3694.54
187.20	3473.36
187.42	3059.67
187.64	2942.93
187.86	3577.80
188.08	3639.24
188.30	2953.17
188.52	3026.90
188.75	3764.17
188.97	3784.65
189.19	2924.50
189.41	2889.68
189.63	3518.41
189.85	3332.05
190.07	2811.86
190.29	2826.20
190.51	3454.92
190.73	3246.03
190.95	3086.29
191.17	2979.79
191.39	3061.71
191.61	3442.64
191.84	2918.36
192.06	3143.63
192.28	3098.58
192.50	4220.86
192.72	3155.92
192.94	3102.67
193.16	3672.01
193.38	3512.27
193.60	2846.68
193.82	3213.26
194.04	3581.90
194.26	3485.64
194.48	3010.51
194.70	2951.12
194.92	3366.86
195.14	3657.67
195.36	2881.49
195.58	3033.04
195.80	3387.34
196.02	3291.09
196.24	2904.02
196.46	3024.85
196.69	3272.65
196.91	4087.75
197.13	3006.42
197.35	3110.86
197.57	3792.84
197.79	3631.05
198.01	3076.05
198.23	3008.47
198.45	3612.62
198.67	3200.98
198.89	2852.82
199.11	3074.00
199.33	3428.30
199.55	2996.18
199.77	3018.71
199.99	3205.07
200.21	3377.10
200.43	3499.98
200.65	2938.84
200.87	2820.05
201.09	3485.64
201.31	3299.28
201.53	2992.08
201.75	3035.09
201.97	3549.13
202.19	3514.31
202.41	3065.81
202.63	3082.19
202.85	3569.61
203.07	3575.75
203.29	3078.10
203.51	2930.64
203.73	3276.75
203.95	3997.64
204.17	2934.74
204.39	3149.78
204.61	3315.66
204.83	3387.34
205.05	3147.73
205.27	2969.55
205.49	4067.27
205.71	3413.96
205.93	2863.06
206.15	2852.82
206.37	3502.03
206.59	3379.15
206.81	2838.48
207.03	2848.72
207.25	3299.28
207.47	3559.37
207.69	2959.31
207.91	3246.03
208.13	3850.18
208.34	3327.95
208.56	2934.74
208.78	3010.51
209.00	3438.54
209.22	3360.72
209.44	2979.79
209.66	2951.12
209.88	3420.11
210.10	3485.64
210.32	2932.69
210.54	3053.52
210.76	3358.67
210.98	3598.28
211.20	2863.06
211.42	3053.52
211.64	3717.06
211.86	3534.79
212.08	3022.80
212.30	2955.22
212.52	3409.87
212.74	3581.90
212.96	3037.14
213.17	3000.27
213.39	3659.72
213.61	3856.33
213.83	2875.35
214.05	2805.72
214.27	3712.97
214.49	3139.54
214.71	2996.18
214.93	3057.62
215.15	3440.59
215.37	3608.52
215.59	2809.81
215.81	3016.66
216.03	3733.45
216.24	3481.55
216.46	3043.28
216.68	2975.70
216.90	3581.90
217.12	3782.60
217.34	2965.46
217.56	3178.45
217.78	3772.36
218.00	3585.99
218.22	3094.48
218.44	3028.95
218.66	3516.36
218.87	3876.80
219.09	3112.91
219.31	3043.28
219.53	3508.17
219.75	3397.58
219.97	2973.65
220.19	2971.60
220.41	3354.57
220.63	3833.80
220.85	3024.85
221.06	3002.32
221.28	3778.50
221.50	3598.28
221.72	2955.22
221.94	2897.88
222.16	3499.98
222.38	3661.77
222.60	2969.55
222.82	3055.57
223.03	3600.33
223.25	3155.92
223.47	2928.60
223.69	3166.16
223.91	3571.66
224.13	3504.07
224.35	2842.58
224.57	3196.88
224.78	3657.67
225.00	3235.79
225.22	3074.00
225.44	2901.97
225.66	3624.90
225.88	3524.55
226.10	3135.44
226.32	2961.36
226.53	3776.45
226.75	3289.04
226.97	3137.49
227.19	2914.26
227.41	3338.19
227.63	3282.89
227.85	2703.32
228.06	3016.66
228.28	3481.55
228.50	3600.33
228.72	2807.77
228.94	2971.60
229.16	3125.20
229.37	3178.45
229.59	2838.48
229.81	3264.46
230.03	3307.47
230.25	3139.54
230.47	2803.67
230.69	2963.41
230.90	3639.24
231.12	3207.12
231.34	3012.56
231.56	2992.08
231.78	3299.28
232.00	3499.98
232.21	2961.36
232.43	2967.51
232.65	3069.91
232.87	3526.60
233.09	2768.85
233.30	2858.96
233.52	3688.39
233.74	3434.44
233.96	2889.68
234.18	3176.40
234.40	3422.16
234.61	4079.55
234.83	2867.16
235.05	2869.20
235.27	4073.41
235.49	3690.44
235.70	2936.79
235.92	3047.38
236.14	3567.56
236.36	4038.59
236.58	2881.49
236.79	3117.01
237.01	3420.11
237.23	3403.72
237.45	3145.68
237.67	3059.67
237.88	3483.59
238.10	3887.04
238.32	2828.24
238.54	2965.46
238.76	3405.77
238.97	3246.03
239.19	2840.53
239.41	2973.65
239.63	3669.96
239.85	3323.85
240.06	3055.57
240.28	2940.88
240.50	3655.62
240.72	3444.68
240.93	2947.03
241.15	3065.81
241.37	3358.67
241.59	3741.64
241.81	3022.80
242.02	3041.23
242.24	3508.17
242.46	3602.38
242.68	2764.76
242.89	2865.11
243.11	3604.42
243.33	3499.98
243.55	2957.27
243.76	2901.97
243.98	3295.18
244.20	3452.88
244.42	2938.84
244.64	2947.03
244.85	3207.12
245.07	3207.12
245.29	2979.79
245.51	3002.32
245.72	3452.88
245.94	3680.20
246.16	2861.01
246.38	3018.71
246.59	3317.71
246.81	3311.57
247.03	2906.07
247.24	2828.24
247.46	3330.00
247.68	3518.41
247.90	2838.48
248.11	3033.04
248.33	3688.39
248.55	3465.16
248.77	2971.60
248.98	3084.24
249.20	3737.54
249.42	3528.65
249.64	2918.36
249.85	2873.30
250.07	3278.80
250.29	3631.05
250.50	3024.85
250.72	2895.83
250.94	3540.94
251.16	3928.00
251.37	2940.88
251.59	3059.67
251.81	3602.38
252.02	3755.97
252.24	2910.16
252.46	3096.53
252.68	3270.61
252.89	3250.13
253.11	2740.18
253.33	3106.77
253.54	3784.65
253.76	3209.17
253.98	2975.70
254.20	2901.97
254.41	3131.34
254.63	3377.10
254.85	2873.30
255.06	3104.72
255.28	3610.57
255.50	3391.44
255.71	2944.98
255.93	2856.92
256.15	3401.68
256.36	3649.48
256.58	2795.48
256.80	2869.20
257.02	3432.40
257.23	3385.29
257.45	3047.38
257.67	3114.96
257.88	3409.87
258.10	3545.03
258.32	2912.21
258.53	3074.00
258.75	3829.70
258.97	3276.75
259.18	2848.72
259.40	2926.55
259.62	3798.98
259.83	3794.89
260.05	3000.27
260.27	3942.34
260.48	3698.63
260.70	3225.55
260.92	2963.41
261.13	3030.99
261.35	3426.25
261.57	3590.09
261.78	2904.02
262.00	2953.17
262.22	3565.51
262.43	3237.84
262.65	2992.08
262.86	3002.32
263.08	3917.76
263.30	3522.51
263.51	2764.76
263.73	2897.88
263.95	3782.60
264.16	3311.57
264.38	2797.53
264.60	2881.49
264.81	3385.29
265.03	3790.79
265.25	3391.44
265.46	2893.78
265.68	3753.93
265.89	3571.66
266.11	2832.34
266.33	2961.36
266.54	3774.41
266.76	3620.81
266.98	3045.33
267.19	3215.31
267.41	3739.59
267.62	3303.37
267.84	2719.70
268.06	3196.88
268.27	3395.53
268.49	3751.88
268.70	3043.28
268.92	3008.47
269.14	3334.09
269.35	3221.45
269.57	3051.47
269.79	3061.71
270.00	3303.37
270.22	3870.66
270.43	2852.82
270.65	2828.24
270.87	3559.37
271.08	3633.10
271.30	3117.01
271.51	2910.16
271.73	3569.61
271.95	3803.08
272.16	2901.97
272.38	3108.82
272.59	3420.11
272.81	3508.17
273.02	2897.88
273.24	3033.04
273.46	3633.10
273.67	3102.67
273.89	2854.87
274.10	3022.80
274.32	3680.20
274.54	3477.45
274.75	3090.38
274.97	3061.71
275.18	3559.37
275.40	3491.79
275.61	2994.13
275.83	3125.20
276.05	3248.08
276.26	3475.40
276.48	3049.43
276.69	3106.77
276.91	3256.27
277.12	3778.50
277.34	3131.34
277.55	3196.88
277.77	3446.73
277.99	3428.30
278.20	3141.58
278.42	3008.47
278.63	3325.90
278.85	3182.54
279.06	3049.43
279.28	3200.98
279.49	3608.52
279.71	3608.52
279.93	3143.63
280.14	3168.21
280.36	3338.19
280.57	3678.15
280.79	3100.62
281.00	2965.46
281.22	3248.08
281.43	3753.93
281.65	2873.30
281.86	3051.47
282.08	3532.75
282.29	3895.24
282.51	3006.42
282.73	2920.40
282.94	3110.86
283.16	3612.62
283.37	3110.86
283.59	3141.58
283.80	3622.86
284.02	3491.79
284.23	3170.26
284.45	3203.02
284.66	3207.12
284.88	3250.13
285.09	3016.66
285.31	3155.92
285.52	3422.16
285.74	3119.06
285.95	3256.27
286.17	3110.86
286.38	3665.86
286.60	3346.38
286.81	3018.71
287.03	3094.48
287.24	3399.63
287.46	3575.75
287.67	3250.13
287.89	3293.13
288.10	3428.30
288.32	3362.76
288.53	3248.08
288.75	3192.78
288.96	3672.01
289.18	3262.41
289.39	3065.81
289.61	3176.40
289.82	3936.20
290.04	3993.54
290.25	2965.46
290.47	3160.02
290.68	3446.73
290.90	3575.75
291.11	2901.97
291.33	3215.31
291.54	3327.95
291.76	3291.09
291.97	3315.66
292.18	3284.94
292.40	3420.11
292.61	3286.99
292.83	3330.00
293.04	3143.63
293.26	3497.93
293.47	3463.12
293.69	3112.91
293.90	3061.71
294.12	3678.15
294.33	3401.68
294.55	3162.06
294.76	3313.61
294.97	3776.45
295.19	3874.76
295.40	3141.58
295.62	3180.50
295.83	3631.05
296.05	3270.61
296.26	3440.59
296.48	3157.97
296.69	3471.31
296.90	3438.54
297.12	3213.26
297.33	3254.22
297.55	3454.92
297.76	3512.27
297.98	3203.02
298.19	3299.28
298.41	3530.70
298.62	3274.70
298.83	3299.28
299.05	3205.07
299.26	3381.20
299.48	3348.43
299.69	3172.30
299.90	3069.91
300.12	3280.85
300.33	3659.72
300.55	3110.86
300.76	3200.98
300.98	3299.28
301.19	3561.42
301.40	3082.19
301.62	3045.33
301.83	3614.66
302.05	3465.16
302.26	3074.00
302.47	3157.97
302.69	3168.21
302.90	3497.93
303.12	2922.45
303.33	3270.61
303.54	3893.19
303.76	3401.68
303.97	2990.03
304.19	3354.57
304.40	3225.55
304.61	3452.88
304.83	3211.22
305.04	3123.15
305.26	3629.00
305.47	3282.89
305.68	3098.58
305.90	2959.31
306.11	3696.58
306.33	3463.12
306.54	2920.40
306.75	3092.43
306.97	3211.22
307.18	3215.31
307.39	3049.43
307.61	3229.65
307.82	3440.59
308.04	3495.88
308.25	2967.51
308.46	3243.98
308.68	3407.82
308.89	3495.88
309.10	3231.69
309.32	3168.21
309.53	3377.10
309.74	3559.37
309.96	3086.29
310.17	3229.65
310.39	3332.05
310.60	3547.08
310.81	3104.72
311.03	3047.38
311.24	3661.77
311.45	3514.31
311.67	3364.81
311.88	3184.59
312.09	3346.38
312.31	3375.05
312.52	2992.08
312.73	3000.27
312.95	3112.91
313.16	3229.65
313.37	3338.19
313.59	3233.74
313.80	3565.51
314.01	3807.17
314.23	3108.82
314.44	3033.04
314.65	3209.17
314.87	3297.23
315.08	3041.23
315.29	3104.72
315.51	3221.45
315.72	3117.01
315.93	3143.63
316.15	3129.30
316.36	3397.58
316.57	3483.59
316.79	3061.71
317.00	2965.46
317.21	3555.27
317.43	3278.80
317.64	3205.07
317.85	3033.04
318.07	3282.89
318.28	3416.01
318.49	3143.63
318.70	3297.23
318.92	3493.83
319.13	3422.16
319.34	3262.41
319.56	3098.58
319.77	3487.69
319.98	3590.09
320.20	3428.30
320.41	3278.80
320.62	3585.99
320.83	3198.93
321.05	3286.99
321.26	3129.30
321.47	3573.71
321.69	3712.97
321.90	2932.69
322.11	3133.39
322.32	3420.11
322.54	3696.58
322.75	3106.77
322.96	4288.45
323.18	3164.11
323.39	2944.98
323.60	2969.55
323.81	3184.59
324.03	3258.32
324.24	3358.67
324.45	3260.37
324.66	3057.62
324.88	3524.55
325.09	3811.27
325.30	3039.19
325.52	2990.03
325.73	3590.09
325.94	3313.61
326.15	2992.08
326.37	2938.84
326.58	3704.78
326.79	3852.23
327.00	3067.86
327.22	3057.62
327.43	3344.33
327.64	3301.33
327.85	3258.32
328.07	3211.22
328.28	3950.53
328.49	3319.76
328.70	3039.19
328.92	3080.14
329.13	3436.49
329.34	3549.13
329.55	3332.05
329.76	3213.26
329.98	3409.87
330.19	3684.30
330.40	3164.11
330.61	3209.17
330.83	3604.42
331.04	3358.67
331.25	3209.17
331.46	3174.35
331.68	3194.83
331.89	3672.01
332.10	3178.45
332.31	2934.74
332.52	3456.97
332.74	3704.78
332.95	2942.93
333.16	3051.47
333.37	3583.95
333.58	3246.03
333.80	3059.67
334.01	2936.79
334.22	3479.50
334.43	3348.43
334.64	3059.67
334.86	3002.32
335.07	3286.99
335.28	3723.21
335.49	2971.60
335.70	3178.45
335.92	3743.69
336.13	3925.96
336.34	3086.29
336.55	3084.24
336.76	3512.27
336.98	3012.56
337.19	3104.72
337.40	3188.69
337.61	3991.49
337.82	3278.80
338.04	3207.12
338.25	2957.27
338.46	3405.77
338.67	3266.51
338.88	2996.18
339.09	2957.27
339.31	3250.13
339.52	3196.88
339.73	3024.85
339.94	3131.34
340.15	3665.86
340.36	3352.52
340.58	3194.83
340.79	3069.91
341.00	3600.33
341.21	3256.27
341.42	3321.81
341.63	3098.58
341.85	3602.38
342.06	3485.64
342.27	3078.10
342.48	3260.37
342.69	3080.14
342.90	3491.79
343.12	3508.17
343.33	3076.05
343.54	3676.10
343.75	3819.46
343.96	3184.59
344.17	3051.47
344.38	3436.49
344.60	3266.51
344.81	3098.58
345.02	3090.38
345.23	3667.91
345.44	4014.02
345.65	3147.73
345.86	3254.22
346.07	3491.79
346.29	3270.61
346.50	3227.60
346.71	3172.30
346.92	3758.02
347.13	3901.38
347.34	3137.49
347.55	3049.43
347.76	3526.60
347.98	3200.98
348.19	3221.45
348.40	3291.09
348.61	3428.30
348.82	3766.21
349.03	3174.35
349.24	3059.67
349.45	3889.09
349.66	3059.67
349.88	3080.14
350.09	3092.43
350.30	3676.10
350.51	3747.78
350.72	3416.01
350.93	3143.63
351.14	3393.48
351.35	3538.89
351.56	3172.30
351.77	3215.31
351.99	3588.04
352.20	3723.21
352.41	3157.97
352.62	2985.94
352.83	3508.17
353.04	3411.92
353.25	3026.90
353.46	3139.54
353.67	3747.78
353.88	3006.42
354.09	2936.79
354.30	3225.55
354.52	3590.09
354.73	3381.20
354.94	3004.37
355.15	3157.97
355.36	3876.80
355.57	3293.13
355.78	3069.91
355.99	3094.48
356.20	3311.57
356.41	3708.87
356.62	3112.91
356.83	3174.35
357.04	3694.54
357.25	3059.67
357.46	3047.38
357.68	3043.28
357.89	3248.08
358.10	3348.43
358.31	3114.96
358.52	3160.02
358.73	3235.79
358.94	3217.36
359.15	3090.38
359.36	3110.86
359.57	3430.35
359.78	3379.15
359.99	3330.00
360.20	3012.56
360.41	3426.25
360.62	3471.31
360.83	3235.79
361.04	3033.04
361.25	3583.95
361.46	3758.02
361.67	3227.60
361.88	3069.91
362.09	3610.57
362.30	3499.98
362.51	3078.10
362.72	3198.93
362.93	3608.52
363.14	3606.47
363.35	3246.03
363.56	2959.31
363.78	3694.54
363.99	3667.91
364.20	3106.77
364.41	3170.26
364.62	3856.33
364.83	3561.42
365.04	3069.91
365.25	3192.78
365.46	3944.39
365.67	3221.45
365.88	3297.23
366.09	3088.34
366.30	3344.33
366.51	3461.07
366.72	2983.89
366.93	2985.94
367.14	3426.25
367.35	3723.21
367.56	2981.84
367.77	3248.08
367.98	3475.40
368.18	3569.61
368.39	3209.17
368.60	3080.14
368.81	3563.47
369.02	3469.26
369.23	3117.01
369.44	2920.40
369.65	3241.93
369.86	3479.50
370.07	3252.17
370.28	3033.04
370.49	3467.21
370.70	3612.62
370.91	2969.55
371.12	2955.22
371.33	3616.71
371.54	3272.65
371.75	3223.50
371.96	2836.44
372.17	3479.50
372.38	3391.44
372.59	3182.54
372.80	3141.58
373.01	3379.15
373.22	3450.83
373.43	3074.00
373.64	2983.89
373.85	3741.64
374.06	3780.55
374.26	3311.57
374.47	3289.04
374.68	3796.93
374.89	3467.21
375.10	3026.90
375.31	3215.31
375.52	3465.16
375.73	3524.55
375.94	2928.60
376.15	3225.55
376.36	3274.70
376.57	3340.24
376.78	3200.98
376.99	3188.69
377.20	3766.21
377.40	3297.23
377.61	3428.30
377.82	3043.28
378.03	3772.36
378.24	3508.17
378.45	3258.32
378.66	3209.17
378.87	3119.06
379.08	3143.63
379.29	3127.25
379.50	3213.26
379.71	3452.88
379.91	3528.65
380.12	3030.99
380.33	3246.03
380.54	3456.97
380.75	3440.59
380.96	3114.96
381.17	3094.48
381.38	3405.77
381.59	3454.92
381.80	3276.75
382.00	3239.89
382.21	3475.40
382.42	3788.74
382.63	3518.41
382.84	3250.13
383.05	3606.47
383.26	3733.45
383.47	3256.27
383.68	2975.70
383.88	3585.99
384.09	3418.06
384.30	3315.66
384.51	3258.32
384.72	3346.38
384.93	3127.25
385.14	3221.45
385.35	3413.96
385.55	3119.06
385.76	3776.45
385.97	3168.21
386.18	2973.65
386.39	3264.46
386.60	3289.04
386.81	3074.00
387.02	3063.76
387.22	3200.98
387.43	3516.36
387.64	3221.45
387.85	3377.10
388.06	3401.68
388.27	4462.52
388.48	7270.29
388.68	11081.56
388.89	13573.94
389.10	14866.21
389.31	14454.56
389.52	11640.65
389.73	10135.40
389.93	9463.66
390.14	8431.49
390.35	7915.40
390.56	7530.38
390.77	6115.23
390.98	4777.91
391.18	4153.28
391.39	3954.63
391.60	3508.17
391.81	3375.05
392.02	3166.16
392.23	3995.59
392.43	3565.51
392.64	3207.12
392.85	3137.49
393.06	3823.56
393.27	3377.10
393.47	3205.07
393.68	3153.87
393.89	3385.29
394.10	3698.63
394.31	3117.01
394.52	3055.57
394.72	3330.00
394.93	3831.75
395.14	3016.66
395.35	3209.17
395.56	3303.37
395.76	3389.39
395.97	3119.06
396.18	3143.63
396.39	3428.30
396.60	4130.75
396.80	3524.55
397.01	3330.00
397.22	3483.59
397.43	3659.72
397.64	3094.48
397.84	3258.32
398.05	3897.28
398.26	3403.72
398.47	3250.13
398.67	3446.73
398.88	3520.46
399.09	3547.08
399.30	3104.72
399.51	3221.45
399.71	3278.80
399.92	3379.15
400.13	3190.74
400.34	3164.11
400.54	3540.94
400.75	3805.13
400.96	3157.97
401.17	3479.50
401.37	3563.47
401.58	3506.12
401.79	3117.01
402.00	3286.99
402.21	3919.81
402.41	3405.77
402.62	3368.91
402.83	3565.51
403.04	3717.06
403.24	4202.43
403.45	3229.65
403.66	3418.06
403.87	3674.06
404.07	3798.98
404.28	3397.58
404.49	3502.03
404.70	3612.62
404.90	3565.51
405.11	3033.04
405.32	3284.94
405.52	3344.33
405.73	3246.03
405.94	2951.12
406.15	3217.36
406.35	3526.60
406.56	3553.23
406.77	3223.50
406.98	3078.10
407.18	3289.04
407.39	3682.25
407.60	3205.07
407.80	3289.04
408.01	3401.68
408.22	3588.04
408.43	3059.67
408.63	3338.19
408.84	3639.24
409.05	3606.47
409.25	3063.76
409.46	3184.59
409.67	3352.52
409.88	3303.37
410.08	3198.93
410.29	3166.16
410.50	3563.47
410.70	3493.83
410.91	3149.78
411.12	3211.22
411.32	3463.12
411.53	3229.65
411.74	3141.58
411.95	3205.07
412.15	3436.49
412.36	3557.32
412.57	3315.66
412.77	3297.23
412.98	3377.10
413.19	3461.07
413.39	3190.74
413.60	3205.07
413.81	3655.62
414.01	3192.78
414.22	3141.58
414.43	3258.32
414.63	3309.52
414.84	3585.99
415.05	3237.84
415.25	2963.41
415.46	3598.28
415.67	3303.37
415.87	3188.69
416.08	3125.20
416.29	3360.72
416.49	3534.79
416.70	3243.98
416.91	3133.39
417.11	3334.09
417.32	3672.01
417.53	3225.55
417.73	3305.42
417.94	3430.35
418.15	3483.59
418.35	3200.98
418.56	3254.22
418.77	3962.82
418.97	3461.07
419.18	3286.99
419.38	2869.20
419.59	3540.94
419.80	3786.69
420.00	3049.43
420.21	3207.12
420.42	3696.58
420.62	3540.94
420.83	3166.16
421.04	3176.40
421.24	3393.48
421.45	3588.04
421.65	3131.34
421.86	3219.41
422.07	3706.82
422.27	3559.37
422.48	3088.34
422.69	2938.84
422.89	3491.79
423.10	3405.77
423.30	3112.91
423.51	3215.31
423.72	3553.23
423.92	3538.89
424.13	3018.71
424.33	3241.93
424.54	3680.20
424.75	3483.59
424.95	3407.82
425.16	3110.86
425.36	3454.92
425.57	3753.93
425.78	3268.56
425.98	3239.89
426.19	3420.11
426.39	3282.89
426.60	3227.60
426.81	3344.33
427.01	3514.31
427.22	3311.57
427.42	3035.09
427.63	3033.04
427.83	3770.31
428.04	3798.98
428.25	3200.98
428.45	3194.83
428.66	3737.54
428.86	3393.48
429.07	3237.84
429.28	3147.73
429.48	3450.83
429.69	3297.23
429.89	3321.81
430.10	3092.43
430.30	3676.10
430.51	3690.44
430.71	3123.15
430.92	3157.97
431.13	3346.38
431.33	3622.86
431.54	3260.37
431.74	3352.52
431.95	3887.04
432.15	3246.03
432.36	3145.68
432.56	3205.07
432.77	3844.04
432.98	3860.42
433.18	3299.28
433.39	3000.27
433.59	3401.68
433.80	3880.90
434.00	3215.31
434.21	3256.27
434.41	3246.03
434.62	3909.57
434.82	3018.71
435.03	3061.71
435.23	3540.94
435.44	3125.20
435.64	3086.29
435.85	3254.22
436.06	3702.73
436.26	3624.90
436.47	3192.78
436.67	3131.34
436.88	3381.20
437.08	3760.07
437.29	3231.69
437.49	3373.00
437.70	3803.08
437.90	3448.78
438.11	3411.92
438.31	3332.05
438.52	3743.69
438.72	3534.79
438.93	3545.03
439.13	3270.61
439.34	3536.84
439.54	3368.91
439.75	3264.46
439.95	3209.17
440.16	3332.05
440.36	3444.68
440.57	3223.50
440.77	3096.53
440.98	3461.07
441.18	3575.75
441.39	3094.48
441.59	2994.13
441.80	3938.24
442.00	3459.02
442.21	3246.03
442.41	3090.38
442.62	3653.58
442.82	3321.81
443.02	3164.11
443.23	3141.58
443.43	3438.54
443.64	3663.82
443.84	2928.60
444.05	3295.18
444.25	3430.35
444.46	3295.18
444.66	3170.26
444.87	3405.77
445.07	3137.49
445.28	3340.24
445.48	3315.66
445.69	3215.31
445.89	3936.20
446.09	3368.91
446.30	3428.30
446.50	3522.51
446.71	5099.44
446.91	6246.30
447.12	6868.89
447.32	7270.29
447.53	7276.43
447.73	6111.14
447.93	5175.22
448.14	5261.23
448.34	5380.01
448.55	4485.05
448.75	4396.99
448.96	4044.74
449.16	4210.62
449.36	4067.27
449.57	3428.30
449.77	3221.45
449.98	3352.52
450.18	3504.07
450.39	3090.38
450.59	3385.29
450.79	3446.73
451.00	3237.84
451.20	3354.57
451.41	3149.78
451.61	3549.13
451.81	3401.68
452.02	3006.42
452.22	3176.40
452.43	3342.28
