SpectraSuite Data File
++++++++++++++++++++++++++++++++++++
Date: Fri May 06 09:28:41 CEST 2016
User: root
Dark Spectrum Present: No
Reference Spectrum Present: No
Number of Sampled Component Spectra: 1
Spectrometers: USB4C02835
Integration Time (usec): 100000 (USB4C02835)
Spectra Averaged: 1 (USB4C02835)
Boxcar Smoothing: 0 (USB4C02835)
Correct for Electrical Dark: No (USB4C02835)
Strobe/Lamp Enabled: No (USB4C02835)
Correct for Detector Non-linearity: No (USB4C02835)
Correct for Stray Light: No (USB4C02835)
Number of Pixels in Processed Spectrum: 3648
>>>>>Begin Processed Spectral Data<<<<<
177.47	2379.74
177.69	2379.74
177.91	2379.74
178.13	2373.60
178.36	2312.16
178.58	3121.10
178.80	3192.78
179.02	3041.23
179.24	3262.41
179.46	2881.49
179.68	2844.63
179.90	3352.52
180.13	3436.49
180.35	2729.94
180.57	2858.96
180.79	3643.34
181.01	3291.09
181.23	2969.55
181.45	3174.35
181.67	3581.90
181.90	3674.06
182.12	3012.56
182.34	2795.48
182.56	3614.66
182.78	3579.85
183.00	2901.97
183.22	3010.51
183.44	3139.54
183.66	4024.26
183.89	3098.58
184.11	3033.04
184.33	3600.33
184.55	3682.25
184.77	2916.31
184.99	2887.64
185.21	3336.14
185.43	4005.83
185.65	2965.46
185.87	2932.69
186.10	3876.80
186.32	3905.48
186.54	3074.00
186.76	3100.62
186.98	3663.82
187.20	3426.25
187.42	3000.27
187.64	2957.27
187.86	3592.14
188.08	3706.82
188.30	2836.44
188.52	2977.75
188.75	3805.13
188.97	3768.26
189.19	2891.73
189.41	2850.77
189.63	3598.28
189.85	3264.46
190.07	2811.86
190.29	2801.62
190.51	3581.90
190.73	3172.30
190.95	3131.34
191.17	3000.27
191.39	3139.54
191.61	3485.64
191.84	2983.89
192.06	3205.07
192.28	3157.97
192.50	4159.42
192.72	3184.59
192.94	3076.05
193.16	3758.02
193.38	3626.95
193.60	2899.92
193.82	3184.59
194.04	3651.53
194.26	3573.71
194.48	3061.71
194.70	2959.31
194.92	3336.14
195.14	3567.56
195.36	2906.07
195.58	3098.58
195.80	3407.82
196.02	3381.20
196.24	3002.32
196.46	3016.66
196.69	3262.41
196.91	4081.60
197.13	2955.22
197.35	2985.94
197.57	3848.13
197.79	3555.27
198.01	3049.43
198.23	2947.03
198.45	3678.15
198.67	3162.06
198.89	2838.48
199.11	3074.00
199.33	3321.81
199.55	2971.60
199.77	2916.31
199.99	3104.72
200.21	3342.28
200.43	3461.07
200.65	2815.96
200.87	2781.14
201.09	3436.49
201.31	3381.20
201.53	2961.36
201.75	2985.94
201.97	3463.12
202.19	3448.78
202.41	3014.61
202.63	3088.34
202.85	3573.71
203.07	3497.93
203.29	3037.14
203.51	2955.22
203.73	3276.75
203.95	4040.64
204.17	2953.17
204.39	3096.53
204.61	3450.83
204.83	3334.09
205.05	3153.87
205.27	2967.51
205.49	3983.30
205.71	3422.16
205.93	2863.06
206.15	2871.25
206.37	3430.35
206.59	3553.23
206.81	2791.38
207.03	2846.68
207.25	3323.85
207.47	3620.81
207.69	2975.70
207.91	3205.07
208.13	3848.13
208.34	3323.85
208.56	2869.20
208.78	2959.31
209.00	3405.77
209.22	3373.00
209.44	3004.37
209.66	3002.32
209.88	3411.92
210.10	3387.34
210.32	2883.54
210.54	2998.23
210.76	3403.72
210.98	3655.62
211.20	2826.20
211.42	3067.86
211.64	3704.78
211.86	3616.71
212.08	3004.37
212.30	2879.44
212.52	3348.43
212.74	3532.75
212.96	3069.91
213.17	3057.62
213.39	3651.53
213.61	3860.42
213.83	2930.64
214.05	2828.24
214.27	3626.95
214.49	3174.35
214.71	2856.92
214.93	3010.51
215.15	3418.06
215.37	3659.72
215.59	2881.49
215.81	3041.23
216.03	3688.39
216.24	3416.01
216.46	3016.66
216.68	2994.13
216.90	3555.27
217.12	3700.68
217.34	2879.44
217.56	3106.77
217.78	3762.12
218.00	3600.33
218.22	3076.05
218.44	2990.03
218.66	3532.75
218.87	3803.08
219.09	3022.80
219.31	2932.69
219.53	3510.22
219.75	3364.81
219.97	3049.43
220.19	2973.65
220.41	3393.48
220.63	3835.85
220.85	3020.75
221.06	2987.99
221.28	3786.69
221.50	3583.95
221.72	2951.12
221.94	2924.50
222.16	3485.64
222.38	3743.69
222.60	2901.97
222.82	2990.03
223.03	3727.30
223.25	3200.98
223.47	2871.25
223.69	3246.03
223.91	3532.75
224.13	3358.67
224.35	2891.73
224.57	3139.54
224.78	3653.58
225.00	3114.96
225.22	3002.32
225.44	2830.29
225.66	3626.95
225.88	3389.39
226.10	3051.47
226.32	2967.51
226.53	3809.22
226.75	3401.68
226.97	3012.56
227.19	2889.68
227.41	3313.61
227.63	3389.39
227.85	2836.44
228.06	3063.76
228.28	3520.46
228.50	3622.86
228.72	2846.68
228.94	2924.50
229.16	3049.43
229.37	3260.37
229.59	2920.40
229.81	3248.08
230.03	3336.14
230.25	3166.16
230.47	2791.38
230.69	2879.44
230.90	3655.62
231.12	3330.00
231.34	3080.14
231.56	2969.55
231.78	3213.26
232.00	3446.73
232.21	2998.23
232.43	3041.23
232.65	3078.10
232.87	3508.17
233.09	2799.57
233.30	2877.40
233.52	3624.90
233.74	3487.69
233.96	2875.35
234.18	3229.65
234.40	3348.43
234.61	3966.92
234.83	2848.72
235.05	2910.16
235.27	4007.87
235.49	3682.25
235.70	2832.34
235.92	3016.66
236.14	3577.80
236.36	4081.60
236.58	2854.87
236.79	3069.91
237.01	3409.87
237.23	3430.35
237.45	3178.45
237.67	3008.47
237.88	3637.19
238.10	3846.09
238.32	2914.26
238.54	2901.97
238.76	3477.45
238.97	3237.84
239.19	2826.20
239.41	2983.89
239.63	3768.26
239.85	3387.34
240.06	3004.37
240.28	2910.16
240.50	3694.54
240.72	3364.81
240.93	2852.82
241.15	3049.43
241.37	3520.46
241.59	3803.08
241.81	2955.22
242.02	3057.62
242.24	3493.83
242.46	3631.05
242.68	2729.94
242.89	2877.40
243.11	3592.14
243.33	3385.29
243.55	2959.31
243.76	2932.69
243.98	3352.52
244.20	3411.92
244.42	3008.47
244.64	2983.89
244.85	3151.82
245.07	3246.03
245.29	2951.12
245.51	3037.14
245.72	3602.38
245.94	3688.39
246.16	2910.16
246.38	3026.90
246.59	3336.14
246.81	3231.69
247.03	2885.59
247.24	2850.77
247.46	3213.26
247.68	3383.24
247.90	2828.24
248.11	2955.22
248.33	3592.14
248.55	3459.02
248.77	3069.91
248.98	3094.48
249.20	3751.88
249.42	3530.70
249.64	2904.02
249.85	2846.68
250.07	3338.19
250.29	3594.19
250.50	3088.34
250.72	2912.21
250.94	3549.13
251.16	3999.68
251.37	2807.77
251.59	2940.88
251.81	3594.19
252.02	3764.17
252.24	2893.78
252.46	3092.43
252.68	3327.95
252.89	3360.72
253.11	2822.10
253.33	3190.74
253.54	3764.17
253.76	3188.69
253.98	3008.47
254.20	2944.98
254.41	3227.60
254.63	3426.25
254.85	2793.43
255.06	3016.66
255.28	3569.61
255.50	3336.14
255.71	2938.84
255.93	2820.05
256.15	3430.35
256.36	3667.91
256.58	2930.64
256.80	2879.44
257.02	3467.21
257.23	3305.42
257.45	2936.79
257.67	3065.81
257.88	3362.76
258.10	3622.86
258.32	2916.31
258.53	3071.95
258.75	3846.09
258.97	3330.00
259.18	2883.54
259.40	2930.64
259.62	3874.76
259.83	3758.02
260.05	3016.66
260.27	3983.30
260.48	3792.84
260.70	3223.50
260.92	2877.40
261.13	3094.48
261.35	3575.75
261.57	3596.23
261.78	2885.59
262.00	2924.50
262.22	3569.61
262.43	3297.23
262.65	3014.61
262.86	3008.47
263.08	4050.88
263.30	3479.50
263.51	2758.61
263.73	2881.49
263.95	3844.04
264.16	3317.71
264.38	2867.16
264.60	2875.35
264.81	3446.73
265.03	3784.65
265.25	3438.54
265.46	2971.60
265.68	3735.50
265.89	3569.61
266.11	2840.53
266.33	2901.97
266.54	3745.73
266.76	3520.46
266.98	3094.48
267.19	3157.97
267.41	3637.19
267.62	3434.44
267.84	2748.37
268.06	3020.75
268.27	3422.16
268.49	3704.78
268.70	3108.82
268.92	2985.94
269.14	3231.69
269.35	3102.67
269.57	3094.48
269.79	2975.70
270.00	3319.76
270.22	3844.04
270.43	2815.96
270.65	2803.67
270.87	3483.59
271.08	3715.02
271.30	3051.47
271.51	2951.12
271.73	3526.60
271.95	3805.13
272.16	2910.16
272.38	3157.97
272.59	3405.77
272.81	3569.61
273.02	2928.60
273.24	3016.66
273.46	3649.48
273.67	3125.20
273.89	2813.91
274.10	2949.08
274.32	3803.08
274.54	3459.02
274.75	2994.13
274.97	3020.75
275.18	3680.20
275.40	3559.37
275.61	2951.12
275.83	3137.49
276.05	3229.65
276.26	3377.10
276.48	3104.72
276.69	3108.82
276.91	3293.13
277.12	3811.27
277.34	3035.09
277.55	3254.22
277.77	3485.64
277.99	3336.14
278.20	3164.11
278.42	3016.66
278.63	3297.23
278.85	3200.98
279.06	3117.01
279.28	3166.16
279.49	3633.10
279.71	3567.56
279.93	3180.50
280.14	3190.74
280.36	3182.54
280.57	3655.62
280.79	3141.58
281.00	2963.41
281.22	3309.52
281.43	3815.37
281.65	2885.59
281.86	2963.41
282.08	3485.64
282.29	3905.48
282.51	2955.22
282.73	2971.60
282.94	3166.16
283.16	3592.14
283.37	3082.19
283.59	3149.78
283.80	3516.36
284.02	3387.34
284.23	3155.92
284.45	3094.48
284.66	3241.93
284.88	3303.37
285.09	2992.08
285.31	3205.07
285.52	3502.03
285.74	3200.98
285.95	3364.81
286.17	3145.68
286.38	3575.75
286.60	3286.99
286.81	3057.62
287.03	3037.14
287.24	3420.11
287.46	3602.38
287.67	3227.60
287.89	3311.57
288.10	3373.00
288.32	3473.36
288.53	3254.22
288.75	3155.92
288.96	3549.13
289.18	3254.22
289.39	3004.37
289.61	3076.05
289.82	3923.91
290.04	3813.32
290.25	3000.27
290.47	3145.68
290.68	3377.10
290.90	3553.23
291.11	2838.48
291.33	3243.98
291.54	3286.99
291.76	3280.85
291.97	3215.31
292.18	3250.13
292.40	3336.14
292.61	3336.14
292.83	3422.16
293.04	3082.19
293.26	3526.60
293.47	3366.86
293.69	2996.18
293.90	3033.04
294.12	3792.84
294.33	3452.88
294.55	3104.72
294.76	3299.28
294.97	3661.77
295.19	3844.04
295.40	3149.78
295.62	3164.11
295.83	3680.20
296.05	3233.74
296.26	3315.66
296.48	3143.63
296.69	3407.82
296.90	3327.95
297.12	3123.15
297.33	3221.45
297.55	3516.36
297.76	3551.18
297.98	3133.39
298.19	3307.47
298.41	3381.20
298.62	3282.89
298.83	3354.57
299.05	3196.88
299.26	3434.44
299.48	3241.93
299.69	3248.08
299.90	3016.66
300.12	3246.03
300.33	3598.28
300.55	3172.30
300.76	3172.30
300.98	3239.89
301.19	3624.90
301.40	3065.81
301.62	3008.47
301.83	3600.33
302.05	3456.97
302.26	3131.34
302.47	3215.31
302.69	3256.27
302.90	3442.64
303.12	2922.45
303.33	3188.69
303.54	3848.13
303.76	3293.13
303.97	3035.09
304.19	3280.85
304.40	3260.37
304.61	3561.42
304.83	3198.93
305.04	3155.92
305.26	3549.13
305.47	3330.00
305.68	3071.95
305.90	3018.71
306.11	3827.65
306.33	3483.59
306.54	2981.84
306.75	3076.05
306.97	3180.50
307.18	3323.85
307.39	3106.77
307.61	3192.78
307.82	3420.11
308.04	3581.90
308.25	2961.36
308.46	3172.30
308.68	3467.21
308.89	3327.95
309.10	3131.34
309.32	3223.50
309.53	3495.88
309.74	3610.57
309.96	3059.67
310.17	3243.98
310.39	3340.24
310.60	3524.55
310.81	3147.73
311.03	2987.99
311.24	3626.95
311.45	3405.77
311.67	3413.96
311.88	3221.45
312.09	3340.24
312.31	3327.95
312.52	2975.70
312.73	3106.77
312.95	3110.86
313.16	3284.94
313.37	3225.55
313.59	3321.81
313.80	3565.51
314.01	3762.12
314.23	3135.44
314.44	3035.09
314.65	3219.41
314.87	3327.95
315.08	3082.19
315.29	3160.02
315.51	3311.57
315.72	3125.20
315.93	3123.15
316.15	3094.48
316.36	3344.33
316.57	3483.59
316.79	3147.73
317.00	3061.71
317.21	3616.71
317.43	3260.37
317.64	3172.30
317.85	2930.64
318.07	3297.23
318.28	3311.57
318.49	3198.93
318.70	3352.52
318.92	3557.32
319.13	3510.22
319.34	3211.22
319.56	3094.48
319.77	3450.83
319.98	3567.56
320.20	3401.68
320.41	3262.41
320.62	3590.09
320.83	3215.31
321.05	3274.70
321.26	3174.35
321.47	3477.45
321.69	3704.78
321.90	3004.37
322.11	3059.67
322.32	3459.02
322.54	3780.55
322.75	3131.34
322.96	4143.04
323.18	3117.01
323.39	2990.03
323.60	2975.70
323.81	3213.26
324.03	3373.00
324.24	3381.20
324.45	3221.45
324.66	3059.67
324.88	3690.44
325.09	3768.26
325.30	3033.04
325.52	3024.85
325.73	3477.45
325.94	3246.03
326.15	3020.75
326.37	2951.12
326.58	3624.90
326.79	3831.75
327.00	3074.00
327.22	3047.38
327.43	3383.24
327.64	3196.88
327.85	3225.55
328.07	3100.62
328.28	3880.90
328.49	3393.48
328.70	3094.48
328.92	3125.20
329.13	3506.12
329.34	3506.12
329.55	3311.57
329.76	3229.65
329.98	3418.06
330.19	3674.06
330.40	3196.88
330.61	3346.38
330.83	3573.71
331.04	3264.46
331.25	3172.30
331.46	3209.17
331.68	3229.65
331.89	3667.91
332.10	3092.43
332.31	3006.42
332.52	3454.92
332.74	3753.93
332.95	2987.99
333.16	3155.92
333.37	3600.33
333.58	3336.14
333.80	3127.25
334.01	2899.92
334.22	3497.93
334.43	3299.28
334.64	2963.41
334.86	3088.34
335.07	3266.51
335.28	3780.55
335.49	3030.99
335.70	3067.86
335.92	3729.35
336.13	3936.20
336.34	3174.35
336.55	3055.57
336.76	3440.59
336.98	3059.67
337.19	3102.67
337.40	3188.69
337.61	3975.11
337.82	3389.39
338.04	3164.11
338.25	2947.03
338.46	3319.76
338.67	3338.19
338.88	3051.47
339.09	3014.61
339.31	3301.33
339.52	3196.88
339.73	3078.10
339.94	3172.30
340.15	3553.23
340.36	3221.45
340.58	3117.01
340.79	3010.51
341.00	3518.41
341.21	3168.21
341.42	3364.81
341.63	3047.38
341.85	3622.86
342.06	3469.26
342.27	3033.04
342.48	3295.18
342.69	3260.37
342.90	3493.83
343.12	3606.47
343.33	3024.85
343.54	3737.54
343.75	3825.61
343.96	3246.03
344.17	2981.84
344.38	3395.53
344.60	3237.84
344.81	3096.53
345.02	3110.86
345.23	3649.48
345.44	3958.72
345.65	3133.39
345.86	3086.29
346.07	3547.08
346.29	3352.52
346.50	3342.28
346.71	3198.93
346.92	3825.61
347.13	3856.33
347.34	3225.55
347.55	3028.95
347.76	3559.37
347.98	3137.49
348.19	3180.50
348.40	3295.18
348.61	3401.68
348.82	3796.93
349.03	3151.82
349.24	3002.32
349.45	3915.72
349.66	3051.47
349.88	3067.86
350.09	3049.43
350.30	3674.06
350.51	3739.59
350.72	3264.46
350.93	3104.72
351.14	3377.10
351.35	3575.75
351.56	3110.86
351.77	3182.54
351.99	3508.17
352.20	3762.12
352.41	3250.13
352.62	3004.37
352.83	3477.45
353.04	3401.68
353.25	3102.67
353.46	3137.49
353.67	3669.96
353.88	2959.31
354.09	3016.66
354.30	3155.92
354.52	3641.29
354.73	3360.72
354.94	3010.51
355.15	3110.86
355.36	3870.66
355.57	3346.38
355.78	2973.65
355.99	3125.20
356.20	3311.57
356.41	3758.02
356.62	3131.34
356.83	3114.96
357.04	3719.11
357.25	3114.96
357.46	3028.95
357.68	3059.67
357.89	3147.73
358.10	3491.79
358.31	3094.48
358.52	3209.17
358.73	3203.02
358.94	3291.09
359.15	3106.77
359.36	3108.82
359.57	3516.36
359.78	3370.96
359.99	3332.05
360.20	3010.51
360.41	3485.64
360.62	3594.19
360.83	3172.30
361.04	3168.21
361.25	3569.61
361.46	3829.70
361.67	3286.99
361.88	3024.85
362.09	3631.05
362.30	3448.78
362.51	2977.75
362.72	3180.50
362.93	3571.66
363.14	3555.27
363.35	3172.30
363.56	3084.24
363.78	3657.67
363.99	3704.78
364.20	3057.62
364.41	3190.74
364.62	3907.52
364.83	3504.07
365.04	3143.63
365.25	3061.71
365.46	3958.72
365.67	3364.81
365.88	3377.10
366.09	3035.09
366.30	3354.57
366.51	3422.16
366.72	3065.81
366.93	3028.95
367.14	3479.50
367.35	3780.55
367.56	3028.95
367.77	3272.65
367.98	3508.17
368.18	3559.37
368.39	3346.38
368.60	3039.19
368.81	3557.32
369.02	3588.04
369.23	3190.74
369.44	3008.47
369.65	3411.92
369.86	3608.52
370.07	3297.23
370.28	2983.89
370.49	3493.83
370.70	3508.17
370.91	2994.13
371.12	2994.13
371.33	3725.26
371.54	3319.76
371.75	3237.84
371.96	2830.29
372.17	3497.93
372.38	3418.06
372.59	3086.29
372.80	3014.61
373.01	3358.67
373.22	3487.69
373.43	3080.14
373.64	2951.12
373.85	3803.08
374.06	3786.69
374.26	3301.33
374.47	3196.88
374.68	3751.88
374.89	3450.83
375.10	3012.56
375.31	3196.88
375.52	3467.21
375.73	3542.99
375.94	2932.69
376.15	3239.89
376.36	3243.98
376.57	3286.99
376.78	3151.82
376.99	3110.86
377.20	3741.64
377.40	3254.22
377.61	3403.72
377.82	3149.78
378.03	3764.17
378.24	3497.93
378.45	3221.45
378.66	3213.26
378.87	3119.06
379.08	3147.73
379.29	3157.97
379.50	3250.13
379.71	3364.81
379.91	3626.95
380.12	3102.67
380.33	3176.40
380.54	3397.58
380.75	3432.40
380.96	3182.54
381.17	3139.54
381.38	3420.11
381.59	3448.78
381.80	3198.93
382.00	3188.69
382.21	3434.44
382.42	3731.40
382.63	3508.17
382.84	3241.93
383.05	3610.57
383.26	3700.68
383.47	3313.61
383.68	3102.67
383.88	3581.90
384.09	3569.61
384.30	3309.52
384.51	3164.11
384.72	3246.03
384.93	3155.92
385.14	3241.93
385.35	3387.34
385.55	3166.16
385.76	3690.44
385.97	3104.72
386.18	3049.43
386.39	3190.74
386.60	3268.56
386.81	3078.10
387.02	2967.51
387.22	3168.21
387.43	3549.13
387.64	3139.54
387.85	3407.82
388.06	3471.31
388.27	4362.17
388.48	7294.86
388.68	10919.77
388.89	13543.22
389.10	14677.79
389.31	14448.42
389.52	11849.55
389.73	10071.91
389.93	9539.44
390.14	8458.11
390.35	7837.58
390.56	7464.85
390.77	6174.63
390.98	4784.06
391.18	4093.89
391.39	3934.15
391.60	3444.68
391.81	3424.20
392.02	3117.01
392.23	3932.10
392.43	3491.79
392.64	3227.60
392.85	3258.32
393.06	3749.83
393.27	3405.77
393.47	3119.06
393.68	3231.69
393.89	3411.92
394.10	3663.82
394.31	3084.24
394.52	3024.85
394.72	3291.09
394.93	3712.97
395.14	3059.67
395.35	3221.45
395.56	3358.67
395.76	3397.58
395.97	3164.11
396.18	3311.57
396.39	3379.15
396.60	4065.22
396.80	3538.89
397.01	3456.97
397.22	3667.91
397.43	3704.78
397.64	3143.63
397.84	3114.96
398.05	3919.81
398.26	3323.85
398.47	3188.69
398.67	3356.62
398.88	3393.48
399.09	3639.24
399.30	3074.00
399.51	3229.65
399.71	3274.70
399.92	3520.46
400.13	3235.79
400.34	3180.50
400.54	3442.64
400.75	3733.45
400.96	3172.30
401.17	3495.88
401.37	3581.90
401.58	3413.96
401.79	3088.34
402.00	3231.69
402.21	3983.30
402.41	3512.27
402.62	3379.15
402.83	3555.27
403.04	3747.78
403.24	4222.91
403.45	3299.28
403.66	3409.87
403.87	3626.95
404.07	3749.83
404.28	3373.00
404.49	3391.44
404.70	3516.36
404.90	3626.95
405.11	3098.58
405.32	3293.13
405.52	3305.42
405.73	3291.09
405.94	3065.81
406.15	3207.12
406.35	3542.99
406.56	3516.36
406.77	3215.31
406.98	3100.62
407.18	3397.58
407.39	3846.09
407.60	3203.02
407.80	3196.88
408.01	3336.14
408.22	3559.37
408.43	3022.80
408.63	3241.93
408.84	3608.52
409.05	3569.61
409.25	3071.95
409.46	3133.39
409.67	3311.57
409.88	3383.24
410.08	3180.50
410.29	3098.58
410.50	3624.90
410.70	3575.75
410.91	3074.00
411.12	3227.60
411.32	3495.88
411.53	3196.88
411.74	3098.58
411.95	3276.75
412.15	3459.02
412.36	3557.32
412.57	3321.81
412.77	3305.42
412.98	3373.00
413.19	3289.04
413.39	3213.26
413.60	3205.07
413.81	3715.02
414.01	3213.26
414.22	3133.39
414.43	3366.86
414.63	3299.28
414.84	3618.76
415.05	3114.96
415.25	3000.27
415.46	3553.23
415.67	3270.61
415.87	3155.92
416.08	3084.24
416.29	3323.85
416.49	3545.03
416.70	3215.31
416.91	3125.20
417.11	3383.24
417.32	3657.67
417.53	3219.41
417.73	3219.41
417.94	3420.11
418.15	3450.83
418.35	3168.21
418.56	3188.69
418.77	3938.24
418.97	3520.46
419.18	3327.95
419.38	2906.07
419.59	3487.69
419.80	3764.17
420.00	3071.95
420.21	3129.30
420.42	3698.63
420.62	3516.36
420.83	3086.29
421.04	3170.26
421.24	3424.20
421.45	3585.99
421.65	3139.54
421.86	3123.15
422.07	3678.15
422.27	3573.71
422.48	3172.30
422.69	2969.55
422.89	3368.91
423.10	3493.83
423.30	3110.86
423.51	3239.89
423.72	3592.14
423.92	3688.39
424.13	3004.37
424.33	3164.11
424.54	3631.05
424.75	3528.65
424.95	3315.66
425.16	3164.11
425.36	3442.64
425.57	3688.39
425.78	3213.26
425.98	3270.61
426.19	3432.40
426.39	3262.41
426.60	3248.08
426.81	3289.04
427.01	3479.50
427.22	3180.50
427.42	3000.27
427.63	3096.53
427.83	3594.19
428.04	3743.69
428.25	3108.82
428.45	3254.22
428.66	3626.95
428.86	3401.68
429.07	3213.26
429.28	3248.08
429.48	3356.62
429.69	3286.99
429.89	3270.61
430.10	3098.58
430.30	3565.51
430.51	3643.34
430.71	3071.95
430.92	3231.69
431.13	3364.81
431.33	3598.28
431.54	3305.42
431.74	3395.53
431.95	3973.06
432.15	3250.13
432.36	3078.10
432.56	3178.45
432.77	3839.94
432.98	3846.09
433.18	3260.37
433.39	3012.56
433.59	3401.68
433.80	3899.33
434.00	3233.74
434.21	3256.27
434.41	3286.99
434.62	3952.58
434.82	3071.95
435.03	3086.29
435.23	3475.40
435.44	3133.39
435.64	3123.15
435.85	3168.21
436.06	3602.38
436.26	3596.23
436.47	3135.44
436.67	3114.96
436.88	3428.30
437.08	3676.10
437.29	3280.85
437.49	3321.81
437.70	3794.89
437.90	3459.02
438.11	3348.43
438.31	3297.23
438.52	3719.11
438.72	3610.57
438.93	3448.78
439.13	3262.41
439.34	3637.19
439.54	3336.14
439.75	3286.99
439.95	3254.22
440.16	3254.22
440.36	3411.92
440.57	3153.87
440.77	3155.92
440.98	3373.00
441.18	3612.62
441.39	3139.54
441.59	3084.24
441.80	3882.95
442.00	3469.26
442.21	3256.27
442.41	3047.38
442.62	3700.68
442.82	3373.00
443.02	3211.22
443.23	3188.69
443.43	3391.44
443.64	3710.92
443.84	3033.04
444.05	3215.31
444.25	3434.44
444.46	3321.81
444.66	3131.34
444.87	3385.29
445.07	3006.42
445.28	3407.82
445.48	3409.87
445.69	3229.65
445.89	3952.58
446.09	3424.20
446.30	3420.11
446.50	3467.21
446.71	4997.04
446.91	6180.77
447.12	6834.07
447.32	7260.05
447.53	7305.10
447.73	6178.72
447.93	5095.35
448.14	5076.91
448.34	5355.44
448.55	4519.87
448.75	4388.80
448.96	4118.47
449.16	4202.43
449.36	4011.97
449.57	3362.76
449.77	3203.02
449.98	3395.53
450.18	3567.56
450.39	3065.81
450.59	3276.75
450.79	3438.54
451.00	3391.44
451.20	3334.09
451.41	3133.39
451.61	3536.84
451.81	3370.96
452.02	3127.25
452.22	3180.50
452.43	3276.75
