SpectraSuite Data File
++++++++++++++++++++++++++++++++++++
Date: Fri May 06 09:28:30 CEST 2016
User: root
Dark Spectrum Present: No
Reference Spectrum Present: No
Number of Sampled Component Spectra: 1
Spectrometers: USB4C02835
Integration Time (usec): 100000 (USB4C02835)
Spectra Averaged: 1 (USB4C02835)
Boxcar Smoothing: 0 (USB4C02835)
Correct for Electrical Dark: No (USB4C02835)
Strobe/Lamp Enabled: No (USB4C02835)
Correct for Detector Non-linearity: No (USB4C02835)
Correct for Stray Light: No (USB4C02835)
Number of Pixels in Processed Spectrum: 3648
>>>>>Begin Processed Spectral Data<<<<<
177.47	2320.35
177.69	2320.35
177.91	2320.35
178.13	2367.45
178.36	2371.55
178.58	3067.86
178.80	3284.94
179.02	3217.36
179.24	3147.73
179.46	2838.48
179.68	2852.82
179.90	3430.35
180.13	3483.59
180.35	2775.00
180.57	2887.64
180.79	3573.71
181.01	3504.07
181.23	2918.36
181.45	3018.71
181.67	3659.72
181.90	3569.61
182.12	3088.34
182.34	2795.48
182.56	3661.77
182.78	3499.98
183.00	2944.98
183.22	2906.07
183.44	3024.85
183.66	4104.13
183.89	3131.34
184.11	2942.93
184.33	3577.80
184.55	3852.23
184.77	2934.74
184.99	3008.47
185.21	3385.29
185.43	4007.87
185.65	2942.93
185.87	2957.27
186.10	4034.50
186.32	4042.69
186.54	3094.48
186.76	3162.06
186.98	3698.63
187.20	3436.49
187.42	2994.13
187.64	2865.11
187.86	3542.99
188.08	3682.25
188.30	2842.58
188.52	2959.31
188.75	3770.31
188.97	3680.20
189.19	2963.41
189.41	2926.55
189.63	3510.22
189.85	3336.14
190.07	2750.42
190.29	2842.58
190.51	3450.83
190.73	3172.30
190.95	3246.03
191.17	2994.13
191.39	3080.14
191.61	3389.39
191.84	2987.99
192.06	3114.96
192.28	3131.34
192.50	4190.14
192.72	3108.82
192.94	3065.81
193.16	3659.72
193.38	3518.41
193.60	2887.64
193.82	3143.63
194.04	3700.68
194.26	3540.94
194.48	2994.13
194.70	2910.16
194.92	3377.10
195.14	3682.25
195.36	2951.12
195.58	3026.90
195.80	3469.26
196.02	3264.46
196.24	2914.26
196.46	3180.50
196.69	3346.38
196.91	4028.35
197.13	2885.59
197.35	2969.55
197.57	3751.88
197.79	3672.01
198.01	3024.85
198.23	2985.94
198.45	3622.86
198.67	3209.17
198.89	2867.16
199.11	3102.67
199.33	3303.37
199.55	2953.17
199.77	2947.03
199.99	3110.86
200.21	3405.77
200.43	3489.74
200.65	2856.92
200.87	2811.86
201.09	3471.31
201.31	3385.29
201.53	2983.89
201.75	3022.80
201.97	3559.37
202.19	3450.83
202.41	3014.61
202.63	3110.86
202.85	3602.38
203.07	3573.71
203.29	3061.71
203.51	2887.64
203.73	3293.13
203.95	4104.13
204.17	2994.13
204.39	3184.59
204.61	3422.16
204.83	3368.91
205.05	3129.30
205.27	2998.23
205.49	3958.72
205.71	3422.16
205.93	2779.09
206.15	2783.19
206.37	3459.02
206.59	3424.20
206.81	2807.77
207.03	2797.53
207.25	3266.51
207.47	3614.66
207.69	2938.84
207.91	3170.26
208.13	3819.46
208.34	3264.46
208.56	2885.59
208.78	3006.42
209.00	3311.57
209.22	3393.48
209.44	3018.71
209.66	2934.74
209.88	3387.34
210.10	3364.81
210.32	2908.12
210.54	3102.67
210.76	3377.10
210.98	3672.01
211.20	2801.62
211.42	3094.48
211.64	3762.12
211.86	3549.13
212.08	3018.71
212.30	3033.04
212.52	3407.82
212.74	3573.71
212.96	3071.95
213.17	3059.67
213.39	3626.95
213.61	3835.85
213.83	2904.02
214.05	2832.34
214.27	3704.78
214.49	3229.65
214.71	2916.31
214.93	3071.95
215.15	3393.48
215.37	3639.24
215.59	2803.67
215.81	3041.23
216.03	3717.06
216.24	3385.29
216.46	2922.45
216.68	3057.62
216.90	3551.18
217.12	3667.91
217.34	2885.59
217.56	3094.48
217.78	3764.17
218.00	3573.71
218.22	3002.32
218.44	3000.27
218.66	3491.79
218.87	3817.41
219.09	2979.79
219.31	3049.43
219.53	3571.66
219.75	3327.95
219.97	3016.66
220.19	3016.66
220.41	3397.58
220.63	3758.02
220.85	3033.04
221.06	2906.07
221.28	3768.26
221.50	3499.98
221.72	2992.08
221.94	2920.40
222.16	3475.40
222.38	3602.38
222.60	2920.40
222.82	3016.66
223.03	3676.10
223.25	3264.46
223.47	2959.31
223.69	3227.60
223.91	3534.79
224.13	3430.35
224.35	2901.97
224.57	3160.02
224.78	3553.23
225.00	3205.07
225.22	3104.72
225.44	2869.20
225.66	3590.09
225.88	3334.09
226.10	3102.67
226.32	3039.19
226.53	3790.79
226.75	3405.77
226.97	3098.58
227.19	3026.90
227.41	3235.79
227.63	3370.96
227.85	2719.70
228.06	3039.19
228.28	3428.30
228.50	3637.19
228.72	2799.57
228.94	2858.96
229.16	3088.34
229.37	3213.26
229.59	2836.44
229.81	3241.93
230.03	3270.61
230.25	3164.11
230.47	2781.14
230.69	2914.26
230.90	3676.10
231.12	3270.61
231.34	3088.34
231.56	3047.38
231.78	3147.73
232.00	3524.55
232.21	3047.38
232.43	2953.17
232.65	2998.23
232.87	3473.36
233.09	2840.53
233.30	2908.12
233.52	3661.77
233.74	3389.39
233.96	2959.31
234.18	3254.22
234.40	3452.88
234.61	3928.00
234.83	2926.55
235.05	2955.22
235.27	3997.64
235.49	3629.00
235.70	2754.52
235.92	2951.12
236.14	3635.14
236.36	4050.88
236.58	2873.30
236.79	3035.09
237.01	3420.11
237.23	3377.10
237.45	3211.22
237.67	2985.94
237.88	3536.84
238.10	3876.80
238.32	2863.06
238.54	2885.59
238.76	3499.98
238.97	3309.52
239.19	2871.25
239.41	3004.37
239.63	3760.07
239.85	3381.20
240.06	2975.70
240.28	2922.45
240.50	3663.82
240.72	3383.24
240.93	2818.00
241.15	3098.58
241.37	3379.15
241.59	3870.66
241.81	3008.47
242.02	3086.29
242.24	3495.88
242.46	3647.43
242.68	2815.96
242.89	2856.92
243.11	3598.28
243.33	3463.12
243.55	2977.75
243.76	2967.51
243.98	3387.34
244.20	3461.07
244.42	2983.89
244.64	2963.41
244.85	3182.54
245.07	3205.07
245.29	2940.88
245.51	3055.57
245.72	3512.27
245.94	3651.53
246.16	2928.60
246.38	3037.14
246.59	3336.14
246.81	3264.46
247.03	2875.35
247.24	2752.47
247.46	3338.19
247.68	3434.44
247.90	2885.59
248.11	2963.41
248.33	3602.38
248.55	3395.53
248.77	2967.51
248.98	3082.19
249.20	3852.23
249.42	3461.07
249.64	2893.78
249.85	2893.78
250.07	3375.05
250.29	3618.76
250.50	3002.32
250.72	2858.96
250.94	3495.88
251.16	3940.29
251.37	3037.14
251.59	3059.67
251.81	3649.48
252.02	3792.84
252.24	2836.44
252.46	3065.81
252.68	3332.05
252.89	3311.57
253.11	2858.96
253.33	3117.01
253.54	3747.78
253.76	3231.69
253.98	3004.37
254.20	2963.41
254.41	3192.78
254.63	3444.68
254.85	2820.05
255.06	3041.23
255.28	3594.19
255.50	3377.10
255.71	2949.08
255.93	2818.00
256.15	3393.48
256.36	3590.09
256.58	2766.81
256.80	2906.07
257.02	3442.64
257.23	3301.33
257.45	2920.40
257.67	3067.86
257.88	3377.10
258.10	3567.56
258.32	2897.88
258.53	3016.66
258.75	3821.51
258.97	3213.26
259.18	2799.57
259.40	2901.97
259.62	3880.90
259.83	3758.02
260.05	3069.91
260.27	3885.00
260.48	3676.10
260.70	3221.45
260.92	2803.67
261.13	2992.08
261.35	3594.19
261.57	3514.31
261.78	2805.72
262.00	2951.12
262.22	3540.94
262.43	3239.89
262.65	2949.08
262.86	3014.61
263.08	3981.25
263.30	3442.64
263.51	2861.01
263.73	2832.34
263.95	3717.06
264.16	3373.00
264.38	2830.29
264.60	2926.55
264.81	3465.16
265.03	3751.88
265.25	3471.31
265.46	2951.12
265.68	3639.24
265.89	3590.09
266.11	2918.36
266.33	2893.78
266.54	3653.58
266.76	3561.42
266.98	3090.38
267.19	3215.31
267.41	3745.73
267.62	3422.16
267.84	2729.94
268.06	3076.05
268.27	3422.16
268.49	3704.78
268.70	3074.00
268.92	2951.12
269.14	3207.12
269.35	3162.06
269.57	3063.76
269.79	3057.62
270.00	3323.85
270.22	3837.89
270.43	2822.10
270.65	2871.25
270.87	3440.59
271.08	3559.37
271.30	2961.36
271.51	2983.89
271.73	3528.65
271.95	3854.28
272.16	2856.92
272.38	3102.67
272.59	3385.29
272.81	3665.86
273.02	2889.68
273.24	3033.04
273.46	3792.84
273.67	3125.20
273.89	2863.06
274.10	2877.40
274.32	3672.01
274.54	3483.59
274.75	3074.00
274.97	3041.23
275.18	3645.38
275.40	3581.90
275.61	3010.51
275.83	3139.54
276.05	3198.93
276.26	3434.44
276.48	3090.38
276.69	3129.30
276.91	3246.03
277.12	3770.31
277.34	3131.34
277.55	3211.22
277.77	3418.06
277.99	3286.99
278.20	3123.15
278.42	2998.23
278.63	3356.62
278.85	3186.64
279.06	3082.19
279.28	3213.26
279.49	3678.15
279.71	3567.56
279.93	3114.96
280.14	3123.15
280.36	3209.17
280.57	3633.10
280.79	3198.93
281.00	3024.85
281.22	3315.66
281.43	3790.79
281.65	2889.68
281.86	2938.84
282.08	3565.51
282.29	3917.76
282.51	2992.08
282.73	2918.36
282.94	3067.86
283.16	3643.34
283.37	3166.16
283.59	2998.23
283.80	3641.29
284.02	3508.17
284.23	3121.10
284.45	3149.78
284.66	3297.23
284.88	3338.19
285.09	2977.75
285.31	3160.02
285.52	3463.12
285.74	3123.15
285.95	3246.03
286.17	3184.59
286.38	3704.78
286.60	3366.86
286.81	2959.31
287.03	3018.71
287.24	3413.96
287.46	3602.38
287.67	3137.49
287.89	3381.20
288.10	3444.68
288.32	3506.12
288.53	3198.93
288.75	3129.30
288.96	3545.03
289.18	3297.23
289.39	3002.32
289.61	3213.26
289.82	3878.85
290.04	3905.48
290.25	2965.46
290.47	3227.60
290.68	3370.96
290.90	3624.90
291.11	2906.07
291.33	3229.65
291.54	3196.88
291.76	3440.59
291.97	3266.51
292.18	3225.55
292.40	3360.72
292.61	3350.48
292.83	3377.10
293.04	3043.28
293.26	3614.66
293.47	3364.81
293.69	3045.33
293.90	3028.95
294.12	3747.78
294.33	3401.68
294.55	3143.63
294.76	3295.18
294.97	3704.78
295.19	3901.38
295.40	3131.34
295.62	3229.65
295.83	3571.66
296.05	3221.45
296.26	3325.90
296.48	3233.74
296.69	3401.68
296.90	3430.35
297.12	3319.76
297.33	3256.27
297.55	3487.69
297.76	3469.26
297.98	3223.50
298.19	3297.23
298.41	3430.35
298.62	3254.22
298.83	3338.19
299.05	3274.70
299.26	3356.62
299.48	3284.94
299.69	3123.15
299.90	3069.91
300.12	3258.32
300.33	3647.43
300.55	3125.20
300.76	3157.97
300.98	3229.65
301.19	3549.13
301.40	3080.14
301.62	3160.02
301.83	3534.79
302.05	3469.26
302.26	3084.24
302.47	3155.92
302.69	3182.54
302.90	3413.96
303.12	2949.08
303.33	3209.17
303.54	3913.67
303.76	3325.90
303.97	3033.04
304.19	3311.57
304.40	3237.84
304.61	3616.71
304.83	3207.12
305.04	3164.11
305.26	3624.90
305.47	3360.72
305.68	3080.14
305.90	2969.55
306.11	3704.78
306.33	3432.40
306.54	2824.15
306.75	3057.62
306.97	3160.02
307.18	3241.93
307.39	3055.57
307.61	3233.74
307.82	3375.05
308.04	3499.98
308.25	2940.88
308.46	3205.07
308.68	3428.30
308.89	3499.98
309.10	3184.59
309.32	3168.21
309.53	3434.44
309.74	3590.09
309.96	3030.99
310.17	3196.88
310.39	3352.52
310.60	3614.66
310.81	3078.10
311.03	3016.66
311.24	3571.66
311.45	3463.12
311.67	3446.73
311.88	3186.64
312.09	3352.52
312.31	3336.14
312.52	3016.66
312.73	3035.09
312.95	3194.83
313.16	3282.89
313.37	3227.60
313.59	3307.47
313.80	3571.66
314.01	3753.93
314.23	3102.67
314.44	2992.08
314.65	3174.35
314.87	3243.98
315.08	3143.63
315.29	3131.34
315.51	3223.50
315.72	3104.72
315.93	3209.17
316.15	3155.92
316.36	3286.99
316.57	3467.21
316.79	3088.34
317.00	3063.76
317.21	3590.09
317.43	3250.13
317.64	3198.93
317.85	2975.70
318.07	3305.42
318.28	3344.33
318.49	3141.58
318.70	3338.19
318.92	3428.30
319.13	3528.65
319.34	3157.97
319.56	3045.33
319.77	3493.83
319.98	3577.80
320.20	3340.24
320.41	3254.22
320.62	3614.66
320.83	3141.58
321.05	3284.94
321.26	3170.26
321.47	3483.59
321.69	3690.44
321.90	2967.51
322.11	2996.18
322.32	3565.51
322.54	3899.33
322.75	3190.74
322.96	4261.82
323.18	3078.10
323.39	3004.37
323.60	3051.47
323.81	3180.50
324.03	3366.86
324.24	3327.95
324.45	3250.13
324.66	3076.05
324.88	3715.02
325.09	3723.21
325.30	3067.86
325.52	3030.99
325.73	3534.79
325.94	3241.93
326.15	3000.27
326.37	2908.12
326.58	3614.66
326.79	3811.27
327.00	3028.95
327.22	3090.38
327.43	3344.33
327.64	3184.59
327.85	3311.57
328.07	3145.68
328.28	3936.20
328.49	3368.91
328.70	3061.71
328.92	3194.83
329.13	3442.64
329.34	3514.31
329.55	3366.86
329.76	3282.89
329.98	3307.47
330.19	3606.47
330.40	3200.98
330.61	3229.65
330.83	3557.32
331.04	3254.22
331.25	3203.02
331.46	3129.30
331.68	3166.16
331.89	3616.71
332.10	3151.82
332.31	2942.93
332.52	3450.83
332.74	3743.69
332.95	3020.75
333.16	3035.09
333.37	3647.43
333.58	3239.89
333.80	3141.58
334.01	2887.64
334.22	3330.00
334.43	3301.33
334.64	3051.47
334.86	3065.81
335.07	3209.17
335.28	3778.50
335.49	3055.57
335.70	3153.87
335.92	3825.61
336.13	3934.15
336.34	3160.02
336.55	3057.62
336.76	3563.47
336.98	3057.62
337.19	3065.81
337.40	3194.83
337.61	4034.50
337.82	3397.58
338.04	3186.64
338.25	3028.95
338.46	3407.82
338.67	3416.01
338.88	3028.95
339.09	3055.57
339.31	3383.24
339.52	3162.06
339.73	3024.85
339.94	3119.06
340.15	3590.09
340.36	3399.63
340.58	3108.82
340.79	3039.19
341.00	3629.00
341.21	3188.69
341.42	3352.52
341.63	3049.43
341.85	3731.40
342.06	3487.69
342.27	3018.71
342.48	3295.18
342.69	3184.59
342.90	3553.23
343.12	3575.75
343.33	3063.76
343.54	3729.35
343.75	3764.17
343.96	3264.46
344.17	3012.56
344.38	3391.44
344.60	3250.13
344.81	3080.14
345.02	3092.43
345.23	3665.86
345.44	3966.92
345.65	3127.25
345.86	3164.11
346.07	3598.28
346.29	3258.32
346.50	3225.55
346.71	3155.92
346.92	3747.78
347.13	3905.48
347.34	3143.63
347.55	2912.21
347.76	3688.39
347.98	3102.67
348.19	3196.88
348.40	3321.81
348.61	3375.05
348.82	3809.22
349.03	3164.11
349.24	3024.85
349.45	3825.61
349.66	3071.95
349.88	3045.33
350.09	2967.51
350.30	3743.69
350.51	3663.82
350.72	3299.28
350.93	3135.44
351.14	3276.75
351.35	3571.66
351.56	3127.25
351.77	3198.93
351.99	3545.03
352.20	3721.16
352.41	3203.02
352.62	2963.41
352.83	3334.09
353.04	3424.20
353.25	3104.72
353.46	3069.91
353.67	3735.50
353.88	3014.61
354.09	2969.55
354.30	3166.16
354.52	3573.71
354.73	3362.76
354.94	3049.43
355.15	3180.50
355.36	3942.34
355.57	3323.85
355.78	3000.27
355.99	3084.24
356.20	3348.43
356.41	3682.25
356.62	3157.97
356.83	3114.96
357.04	3694.54
357.25	3061.71
357.46	3039.19
357.68	3012.56
357.89	3233.74
358.10	3448.78
358.31	3059.67
358.52	3190.74
358.73	3143.63
358.94	3200.98
359.15	3196.88
359.36	3117.01
359.57	3469.26
359.78	3385.29
359.99	3327.95
360.20	3065.81
360.41	3452.88
360.62	3532.75
360.83	3274.70
361.04	3209.17
361.25	3549.13
361.46	3721.16
361.67	3233.74
361.88	3053.52
362.09	3637.19
362.30	3555.27
362.51	2998.23
362.72	3127.25
362.93	3600.33
363.14	3561.42
363.35	3217.36
363.56	3004.37
363.78	3694.54
363.99	3631.05
364.20	3137.49
364.41	3217.36
364.62	3801.03
364.83	3540.94
365.04	3018.71
365.25	3076.05
365.46	3950.53
365.67	3307.47
365.88	3299.28
366.09	3082.19
366.30	3350.48
366.51	3598.28
366.72	3041.23
366.93	3037.14
367.14	3499.98
367.35	3780.55
367.56	3043.28
367.77	3141.58
367.98	3352.52
368.18	3573.71
368.39	3225.55
368.60	3010.51
368.81	3629.00
369.02	3583.95
369.23	3061.71
369.44	2861.01
369.65	3373.00
369.86	3571.66
370.07	3207.12
370.28	3018.71
370.49	3536.84
370.70	3573.71
370.91	3051.47
371.12	2926.55
371.33	3698.63
371.54	3327.95
371.75	3172.30
371.96	2863.06
372.17	3459.02
372.38	3409.87
372.59	3114.96
372.80	3125.20
373.01	3377.10
373.22	3524.55
373.43	3129.30
373.64	3018.71
373.85	3786.69
374.06	3827.65
374.26	3237.84
374.47	3200.98
374.68	3798.98
374.89	3497.93
375.10	3082.19
375.31	3174.35
375.52	3452.88
375.73	3434.44
375.94	2912.21
376.15	3250.13
376.36	3274.70
376.57	3340.24
376.78	3186.64
376.99	3192.78
377.20	3745.73
377.40	3321.81
377.61	3475.40
377.82	3098.58
378.03	3784.65
378.24	3491.79
378.45	3221.45
378.66	3147.73
378.87	3153.87
379.08	3149.78
379.29	3143.63
379.50	3313.61
379.71	3373.00
379.91	3577.80
380.12	3076.05
380.33	3260.37
380.54	3428.30
380.75	3436.49
380.96	3082.19
381.17	3174.35
381.38	3401.68
381.59	3424.20
381.80	3203.02
382.00	3348.43
382.21	3549.13
382.42	3688.39
382.63	3461.07
382.84	3301.33
383.05	3704.78
383.26	3782.60
383.47	3256.27
383.68	3024.85
383.88	3549.13
384.09	3434.44
384.30	3319.76
384.51	3254.22
384.72	3342.28
384.93	3155.92
385.14	3188.69
385.35	3401.68
385.55	3057.62
385.76	3698.63
385.97	3114.96
386.18	2967.51
386.39	3258.32
386.60	3321.81
386.81	3110.86
387.02	2983.89
387.22	3143.63
387.43	3602.38
387.64	3133.39
387.85	3291.09
388.06	3518.41
388.27	4390.84
388.48	7366.54
388.68	10809.18
388.89	13618.99
389.10	15091.48
389.31	14575.39
389.52	11747.15
389.73	10311.52
389.93	9701.23
390.14	8632.19
390.35	7899.02
390.56	7327.63
390.77	6358.94
390.98	4771.77
391.18	4050.88
391.39	3946.44
391.60	3475.40
391.81	3432.40
392.02	3149.78
392.23	3901.38
392.43	3467.21
392.64	3235.79
392.85	3250.13
393.06	3821.51
393.27	3366.86
393.47	3123.15
393.68	3254.22
393.89	3413.96
394.10	3706.82
394.31	3110.86
394.52	3170.26
394.72	3262.41
394.93	3786.69
395.14	3022.80
395.35	3229.65
395.56	3254.22
395.76	3532.75
395.97	3074.00
396.18	3313.61
396.39	3424.20
396.60	4020.16
396.80	3526.60
397.01	3360.72
397.22	3504.07
397.43	3641.29
397.64	3110.86
397.84	3233.74
398.05	3803.08
398.26	3377.10
398.47	3229.65
398.67	3377.10
398.88	3526.60
399.09	3528.65
399.30	3180.50
399.51	3264.46
399.71	3278.80
399.92	3452.88
400.13	3241.93
400.34	3098.58
400.54	3399.63
400.75	3725.26
400.96	3160.02
401.17	3567.56
401.37	3604.42
401.58	3385.29
401.79	3104.72
402.00	3250.13
402.21	3975.11
402.41	3643.34
402.62	3461.07
402.83	3526.60
403.04	3747.78
403.24	4253.63
403.45	3180.50
403.66	3364.81
403.87	3639.24
404.07	3735.50
404.28	3354.57
404.49	3348.43
404.70	3481.55
404.90	3588.04
405.11	3114.96
405.32	3180.50
405.52	3291.09
405.73	3282.89
405.94	3026.90
406.15	3205.07
406.35	3604.42
406.56	3657.67
406.77	3133.39
406.98	3153.87
407.18	3379.15
407.39	3692.49
407.60	3164.11
407.80	3256.27
408.01	3440.59
408.22	3522.51
408.43	2977.75
408.63	3209.17
408.84	3639.24
409.05	3688.39
409.25	3164.11
409.46	3231.69
409.67	3373.00
409.88	3274.70
410.08	3135.44
410.29	3213.26
410.50	3637.19
410.70	3594.19
410.91	3123.15
411.12	3203.02
411.32	3495.88
411.53	3147.73
411.74	3190.74
411.95	3278.80
412.15	3493.83
412.36	3530.70
412.57	3264.46
412.77	3360.72
412.98	3340.24
413.19	3311.57
413.39	3190.74
413.60	3180.50
413.81	3786.69
414.01	3198.93
414.22	3188.69
414.43	3373.00
414.63	3254.22
414.84	3643.34
415.05	3137.49
415.25	3004.37
415.46	3596.23
415.67	3344.33
415.87	3235.79
416.08	3129.30
416.29	3401.68
416.49	3553.23
416.70	3188.69
416.91	3170.26
417.11	3284.94
417.32	3692.49
417.53	3188.69
417.73	3248.08
417.94	3454.92
418.15	3471.31
418.35	3225.55
418.56	3198.93
418.77	3930.05
418.97	3379.15
419.18	3235.79
419.38	2881.49
419.59	3467.21
419.80	3825.61
420.00	3114.96
420.21	3186.64
420.42	3682.25
420.62	3518.41
420.83	3196.88
421.04	3143.63
421.24	3438.54
421.45	3608.52
421.65	3174.35
421.86	3143.63
422.07	3669.96
422.27	3471.31
422.48	3024.85
422.69	2975.70
422.89	3432.40
423.10	3391.44
423.30	3110.86
423.51	3225.55
423.72	3567.56
423.92	3663.82
424.13	2992.08
424.33	3241.93
424.54	3594.19
424.75	3491.79
424.95	3299.28
425.16	3127.25
425.36	3368.91
425.57	3663.82
425.78	3301.33
425.98	3209.17
426.19	3430.35
426.39	3338.19
426.60	3248.08
426.81	3239.89
427.01	3506.12
427.22	3215.31
427.42	2975.70
427.63	3166.16
427.83	3657.67
428.04	3850.18
428.25	3139.54
428.45	3176.40
428.66	3647.43
428.86	3336.14
429.07	3164.11
429.28	3180.50
429.48	3499.98
429.69	3301.33
429.89	3229.65
430.10	3135.44
430.30	3618.76
430.51	3776.45
430.71	3106.77
430.92	3303.37
431.13	3346.38
431.33	3553.23
431.54	3262.41
431.74	3360.72
431.95	3993.54
432.15	3196.88
432.36	3123.15
432.56	3223.50
432.77	3899.33
432.98	3835.85
433.18	3278.80
433.39	3127.25
433.59	3385.29
433.80	3907.52
434.00	3299.28
434.21	3270.61
434.41	3354.57
434.62	4001.73
434.82	3006.42
435.03	3117.01
435.23	3532.75
435.44	3166.16
435.64	3114.96
435.85	3174.35
436.06	3700.68
436.26	3629.00
436.47	3215.31
436.67	3090.38
436.88	3391.44
437.08	3755.97
437.29	3237.84
437.49	3362.76
437.70	3721.16
437.90	3426.25
438.11	3395.53
438.31	3174.35
438.52	3712.97
438.72	3538.89
438.93	3483.59
439.13	3243.98
439.34	3598.28
439.54	3348.43
439.75	3291.09
439.95	3377.10
440.16	3200.98
440.36	3368.91
440.57	3139.54
440.77	3166.16
440.98	3442.64
441.18	3549.13
441.39	3102.67
441.59	2987.99
441.80	3901.38
442.00	3377.10
442.21	3254.22
442.41	3067.86
442.62	3731.40
442.82	3313.61
443.02	3082.19
443.23	3213.26
443.43	3364.81
443.64	3647.43
443.84	3041.23
444.05	3248.08
444.25	3446.73
444.46	3399.63
444.66	3133.39
444.87	3420.11
445.07	3174.35
445.28	3385.29
445.48	3311.57
445.69	3196.88
445.89	4089.79
446.09	3305.42
446.30	3418.06
446.50	3549.13
446.71	5142.45
446.91	6174.63
447.12	6903.70
447.32	7174.03
447.53	7301.01
447.73	6104.99
447.93	5382.06
448.14	5142.45
448.34	5400.49
448.55	4423.61
448.75	4409.28
448.96	4163.52
449.16	4138.94
449.36	3987.40
449.57	3389.39
449.77	3340.24
449.98	3315.66
450.18	3608.52
450.39	3080.14
450.59	3348.43
450.79	3448.78
451.00	3303.37
451.20	3403.72
451.41	3174.35
451.61	3549.13
451.81	3377.10
452.02	3127.25
452.22	3174.35
452.43	3305.42
