SpectraSuite Data File
++++++++++++++++++++++++++++++++++++
Date: Fri May 06 09:28:26 CEST 2016
User: root
Dark Spectrum Present: No
Reference Spectrum Present: No
Number of Sampled Component Spectra: 1
Spectrometers: USB4C02835
Integration Time (usec): 100000 (USB4C02835)
Spectra Averaged: 1 (USB4C02835)
Boxcar Smoothing: 0 (USB4C02835)
Correct for Electrical Dark: No (USB4C02835)
Strobe/Lamp Enabled: No (USB4C02835)
Correct for Detector Non-linearity: No (USB4C02835)
Correct for Stray Light: No (USB4C02835)
Number of Pixels in Processed Spectrum: 3648
>>>>>Begin Processed Spectral Data<<<<<
177.47	2336.73
177.69	2336.73
177.91	2336.73
178.13	2297.82
178.36	2295.77
178.58	3143.63
178.80	3168.21
179.02	3139.54
179.24	3172.30
179.46	2887.64
179.68	2942.93
179.90	3368.91
180.13	3418.06
180.35	2795.48
180.57	2957.27
180.79	3565.51
181.01	3428.30
181.23	2922.45
181.45	3094.48
181.67	3680.20
181.90	3622.86
182.12	2983.89
182.34	2756.57
182.56	3647.43
182.78	3538.89
183.00	2928.60
183.22	3004.37
183.44	3094.48
183.66	4097.99
183.89	3041.23
184.11	2969.55
184.33	3528.65
184.55	3682.25
184.77	2965.46
184.99	2979.79
185.21	3352.52
185.43	4040.64
185.65	2942.93
185.87	2906.07
186.10	3975.11
186.32	4007.87
186.54	3106.77
186.76	3061.71
186.98	3678.15
187.20	3389.39
187.42	3082.19
187.64	2887.64
187.86	3418.06
188.08	3674.06
188.30	2920.40
188.52	2975.70
188.75	3700.68
188.97	3712.97
189.19	2971.60
189.41	2867.16
189.63	3575.75
189.85	3295.18
190.07	2863.06
190.29	2813.91
190.51	3549.13
190.73	3155.92
190.95	3217.36
191.17	2914.26
191.39	3153.87
191.61	3362.76
191.84	3002.32
192.06	3192.78
192.28	3178.45
192.50	4175.81
192.72	3110.86
192.94	3033.04
193.16	3700.68
193.38	3557.32
193.60	2944.98
193.82	3172.30
194.04	3686.34
194.26	3557.32
194.48	2959.31
194.70	2938.84
194.92	3348.43
195.14	3643.34
195.36	2934.74
195.58	3000.27
195.80	3411.92
196.02	3327.95
196.24	2912.21
196.46	3074.00
196.69	3315.66
196.91	3903.43
197.13	2987.99
197.35	3045.33
197.57	3792.84
197.79	3618.76
198.01	3069.91
198.23	2942.93
198.45	3624.90
198.67	3119.06
198.89	2793.43
199.11	3055.57
199.33	3360.72
199.55	2990.03
199.77	2953.17
199.99	3047.38
200.21	3311.57
200.43	3532.75
200.65	2854.87
200.87	2770.90
201.09	3440.59
201.31	3373.00
201.53	2938.84
201.75	2996.18
201.97	3489.74
202.19	3450.83
202.41	3004.37
202.63	3088.34
202.85	3655.62
203.07	3530.70
203.29	3055.57
203.51	2822.10
203.73	3342.28
203.95	4102.08
204.17	2973.65
204.39	3067.86
204.61	3403.72
204.83	3356.62
205.05	3114.96
205.27	2975.70
205.49	3971.01
205.71	3401.68
205.93	2775.00
206.15	2779.09
206.37	3526.60
206.59	3420.11
206.81	2861.01
207.03	2912.21
207.25	3291.09
207.47	3577.80
207.69	2916.31
207.91	3131.34
208.13	3762.12
208.34	3309.52
208.56	2951.12
208.78	2959.31
209.00	3467.21
209.22	3416.01
209.44	2983.89
209.66	2985.94
209.88	3444.68
210.10	3409.87
210.32	2901.97
210.54	3067.86
210.76	3360.72
210.98	3690.44
211.20	2815.96
211.42	3149.78
211.64	3784.65
211.86	3590.09
212.08	3098.58
212.30	3016.66
212.52	3389.39
212.74	3569.61
212.96	3102.67
213.17	3065.81
213.39	3712.97
213.61	3805.13
213.83	2944.98
214.05	2838.48
214.27	3696.58
214.49	3215.31
214.71	2957.27
214.93	3139.54
215.15	3471.31
215.37	3643.34
215.59	2854.87
215.81	3026.90
216.03	3733.45
216.24	3387.34
216.46	2873.30
216.68	2938.84
216.90	3624.90
217.12	3700.68
217.34	2983.89
217.56	3131.34
217.78	3770.31
218.00	3622.86
218.22	3139.54
218.44	3069.91
218.66	3561.42
218.87	3815.37
219.09	3006.42
219.31	2951.12
219.53	3465.16
219.75	3418.06
219.97	3016.66
220.19	2983.89
220.41	3368.91
220.63	3807.17
220.85	3059.67
221.06	2967.51
221.28	3801.03
221.50	3565.51
221.72	2953.17
221.94	2822.10
222.16	3508.17
222.38	3704.78
222.60	2949.08
222.82	3059.67
223.03	3637.19
223.25	3250.13
223.47	2932.69
223.69	3266.51
223.91	3581.90
224.13	3502.03
224.35	2852.82
224.57	3168.21
224.78	3579.85
225.00	3237.84
225.22	3086.29
225.44	2869.20
225.66	3645.38
225.88	3393.48
226.10	3155.92
226.32	2938.84
226.53	3786.69
226.75	3246.03
226.97	3049.43
227.19	2906.07
227.41	3317.71
227.63	3301.33
227.85	2824.15
228.06	3024.85
228.28	3553.23
228.50	3706.82
228.72	2789.33
228.94	2858.96
229.16	3110.86
229.37	3248.08
229.59	2861.01
229.81	3262.41
230.03	3344.33
230.25	3215.31
230.47	2754.52
230.69	2949.08
230.90	3629.00
231.12	3295.18
231.34	3139.54
231.56	2996.18
231.78	3147.73
232.00	3434.44
232.21	3002.32
232.43	2953.17
232.65	3098.58
232.87	3635.14
233.09	2834.39
233.30	2934.74
233.52	3657.67
233.74	3420.11
233.96	2869.20
234.18	3200.98
234.40	3420.11
234.61	4042.69
234.83	2863.06
235.05	2930.64
235.27	4030.40
235.49	3616.71
235.70	2912.21
235.92	2992.08
236.14	3606.47
236.36	3979.20
236.58	2887.64
236.79	3045.33
237.01	3434.44
237.23	3475.40
237.45	3221.45
237.67	3016.66
237.88	3577.80
238.10	3846.09
238.32	2861.01
238.54	2899.92
238.76	3346.38
238.97	3250.13
239.19	2801.62
239.41	3041.23
239.63	3674.06
239.85	3295.18
240.06	2994.13
240.28	3000.27
240.50	3633.10
240.72	3303.37
240.93	2881.49
241.15	3151.82
241.37	3438.54
241.59	3815.37
241.81	3022.80
242.02	3076.05
242.24	3549.13
242.46	3641.29
242.68	2836.44
242.89	2852.82
243.11	3639.24
243.33	3442.64
243.55	2963.41
243.76	3084.24
243.98	3319.76
244.20	3434.44
244.42	3002.32
244.64	2877.40
244.85	3149.78
245.07	3264.46
245.29	3020.75
245.51	2983.89
245.72	3530.70
245.94	3569.61
246.16	2959.31
246.38	2938.84
246.59	3315.66
246.81	3303.37
247.03	2901.97
247.24	2811.86
247.46	3428.30
247.68	3469.26
247.90	2992.08
248.11	2973.65
248.33	3672.01
248.55	3475.40
248.77	3049.43
248.98	3059.67
249.20	3962.82
249.42	3512.27
249.64	2942.93
249.85	2879.44
250.07	3319.76
250.29	3590.09
250.50	3106.77
250.72	2830.29
250.94	3540.94
251.16	3856.33
251.37	2912.21
251.59	3039.19
251.81	3653.58
252.02	3755.97
252.24	2832.34
252.46	3065.81
252.68	3262.41
252.89	3293.13
253.11	2877.40
253.33	3123.15
253.54	3823.56
253.76	3274.70
253.98	2918.36
254.20	2914.26
254.41	3256.27
254.63	3375.05
254.85	2820.05
255.06	3104.72
255.28	3602.38
255.50	3373.00
255.71	2985.94
255.93	2717.65
256.15	3319.76
256.36	3493.83
256.58	2824.15
256.80	2883.54
257.02	3411.92
257.23	3307.47
257.45	3002.32
257.67	3135.44
257.88	3438.54
258.10	3540.94
258.32	2967.51
258.53	3117.01
258.75	3866.56
258.97	3229.65
259.18	2844.63
259.40	2916.31
259.62	3954.63
259.83	3835.85
260.05	3024.85
260.27	4052.93
260.48	3643.34
260.70	3227.60
260.92	2852.82
261.13	2998.23
261.35	3485.64
261.57	3524.55
261.78	2842.58
262.00	2861.01
262.22	3600.33
262.43	3274.70
262.65	2977.75
262.86	3016.66
263.08	3995.59
263.30	3459.02
263.51	2781.14
263.73	2910.16
263.95	3811.27
264.16	3243.98
264.38	2840.53
264.60	2820.05
264.81	3442.64
265.03	3622.86
265.25	3385.29
265.46	2918.36
265.68	3715.02
265.89	3631.05
266.11	2770.90
266.33	2967.51
266.54	3637.19
266.76	3592.14
266.98	3030.99
267.19	3209.17
267.41	3700.68
267.62	3465.16
267.84	2713.56
268.06	3114.96
268.27	3465.16
268.49	3698.63
268.70	3047.38
268.92	3030.99
269.14	3321.81
269.35	3168.21
269.57	3131.34
269.79	3030.99
270.00	3360.72
270.22	3837.89
270.43	2775.00
270.65	2787.29
270.87	3489.74
271.08	3696.58
271.30	3039.19
271.51	3043.28
271.73	3571.66
271.95	3786.69
272.16	2916.31
272.38	3061.71
272.59	3379.15
272.81	3456.97
273.02	2879.44
273.24	3096.53
273.46	3758.02
273.67	3180.50
273.89	2746.33
274.10	2963.41
274.32	3723.21
274.54	3532.75
274.75	3049.43
274.97	3090.38
275.18	3590.09
275.40	3563.47
275.61	3020.75
275.83	3190.74
276.05	3327.95
276.26	3405.77
276.48	2990.03
276.69	3139.54
276.91	3311.57
277.12	3747.78
277.34	3045.33
277.55	3262.41
277.77	3375.05
277.99	3330.00
278.20	3176.40
278.42	2973.65
278.63	3330.00
278.85	3203.02
279.06	3055.57
279.28	3207.12
279.49	3762.12
279.71	3641.29
279.93	3123.15
280.14	3174.35
280.36	3313.61
280.57	3762.12
280.79	3231.69
281.00	2951.12
281.22	3411.92
281.43	3704.78
281.65	2914.26
281.86	2953.17
282.08	3516.36
282.29	3921.86
282.51	3033.04
282.73	3030.99
282.94	3135.44
283.16	3542.99
283.37	3145.68
283.59	3098.58
283.80	3573.71
284.02	3424.20
284.23	3178.45
284.45	3121.10
284.66	3211.22
284.88	3305.42
285.09	2967.51
285.31	3180.50
285.52	3585.99
285.74	3057.62
285.95	3299.28
286.17	3243.98
286.38	3731.40
286.60	3297.23
286.81	3082.19
287.03	3024.85
287.24	3504.07
287.46	3524.55
287.67	3254.22
287.89	3254.22
288.10	3446.73
288.32	3477.45
288.53	3280.85
288.75	3205.07
288.96	3702.73
289.18	3297.23
289.39	2992.08
289.61	3166.16
289.82	3837.89
290.04	3862.47
290.25	3053.52
290.47	3143.63
290.68	3469.26
290.90	3715.02
291.11	2883.54
291.33	3246.03
291.54	3278.80
291.76	3305.42
291.97	3260.37
292.18	3237.84
292.40	3373.00
292.61	3266.51
292.83	3383.24
293.04	3147.73
293.26	3442.64
293.47	3420.11
293.69	3080.14
293.90	3055.57
294.12	3688.39
294.33	3493.83
294.55	3200.98
294.76	3364.81
294.97	3702.73
295.19	3921.86
295.40	3039.19
295.62	3196.88
295.83	3667.91
296.05	3284.94
296.26	3375.05
296.48	3028.95
296.69	3362.76
296.90	3346.38
297.12	3268.56
297.33	3215.31
297.55	3528.65
297.76	3508.17
297.98	3184.59
298.19	3368.91
298.41	3286.99
298.62	3360.72
298.83	3325.90
299.05	3280.85
299.26	3397.58
299.48	3268.56
299.69	3172.30
299.90	3035.09
300.12	3235.79
300.33	3540.94
300.55	3192.78
300.76	3164.11
300.98	3297.23
301.19	3575.75
301.40	3184.59
301.62	3102.67
301.83	3506.12
302.05	3430.35
302.26	3008.47
302.47	3217.36
302.69	3139.54
302.90	3413.96
303.12	2926.55
303.33	3194.83
303.54	3862.47
303.76	3295.18
303.97	2998.23
304.19	3299.28
304.40	3276.75
304.61	3516.36
304.83	3266.51
305.04	3125.20
305.26	3639.24
305.47	3260.37
305.68	3141.58
305.90	3018.71
306.11	3751.88
306.33	3348.43
306.54	2947.03
306.75	3010.51
306.97	3170.26
307.18	3248.08
307.39	3125.20
307.61	3215.31
307.82	3397.58
308.04	3506.12
308.25	2942.93
308.46	3295.18
308.68	3481.55
308.89	3450.83
309.10	3174.35
309.32	3147.73
309.53	3491.79
309.74	3633.10
309.96	2992.08
310.17	3227.60
310.39	3284.94
310.60	3626.95
310.81	3135.44
311.03	3047.38
311.24	3592.14
311.45	3493.83
311.67	3360.72
311.88	3256.27
312.09	3424.20
312.31	3291.09
312.52	2938.84
312.73	3098.58
312.95	3170.26
313.16	3260.37
313.37	3209.17
313.59	3280.85
313.80	3567.56
314.01	3723.21
314.23	3145.68
314.44	3051.47
314.65	3252.17
314.87	3264.46
315.08	3067.86
315.29	3094.48
315.51	3223.50
315.72	3143.63
315.93	3139.54
316.15	3137.49
316.36	3256.27
316.57	3428.30
316.79	3078.10
317.00	3053.52
317.21	3542.99
317.43	3293.13
317.64	3176.40
317.85	3020.75
318.07	3330.00
318.28	3200.98
318.49	3033.04
318.70	3370.96
318.92	3487.69
319.13	3497.93
319.34	3295.18
319.56	3033.04
319.77	3565.51
319.98	3561.42
320.20	3315.66
320.41	3303.37
320.62	3540.94
320.83	3301.33
321.05	3270.61
321.26	3151.82
321.47	3483.59
321.69	3674.06
321.90	3090.38
322.11	3065.81
322.32	3403.72
322.54	3825.61
322.75	3162.06
322.96	4163.52
323.18	3139.54
323.39	3018.71
323.60	3104.72
323.81	3248.08
324.03	3336.14
324.24	3471.31
324.45	3332.05
324.66	3074.00
324.88	3694.54
325.09	3829.70
325.30	3153.87
325.52	3014.61
325.73	3647.43
325.94	3225.55
326.15	3026.90
326.37	2994.13
326.58	3612.62
326.79	3753.93
327.00	3024.85
327.22	3078.10
327.43	3356.62
327.64	3256.27
327.85	3188.69
328.07	3147.73
328.28	3915.72
328.49	3295.18
328.70	3145.68
328.92	3108.82
329.13	3383.24
329.34	3538.89
329.55	3284.94
329.76	3237.84
329.98	3393.48
330.19	3653.58
330.40	3139.54
330.61	3254.22
330.83	3672.01
331.04	3305.42
331.25	3237.84
331.46	3119.06
331.68	3180.50
331.89	3629.00
332.10	3076.05
332.31	2924.50
332.52	3411.92
332.74	3665.86
332.95	2973.65
333.16	3053.52
333.37	3620.81
333.58	3254.22
333.80	3084.24
334.01	2901.97
334.22	3469.26
334.43	3248.08
334.64	2979.79
334.86	3033.04
335.07	3270.61
335.28	3837.89
335.49	2967.51
335.70	3123.15
335.92	3723.21
336.13	3975.11
336.34	3090.38
336.55	3129.30
336.76	3495.88
336.98	3010.51
337.19	3131.34
337.40	3110.86
337.61	4001.73
337.82	3352.52
338.04	3186.64
338.25	2916.31
338.46	3434.44
338.67	3368.91
338.88	3008.47
339.09	3057.62
339.31	3330.00
339.52	3172.30
339.73	2967.51
339.94	3164.11
340.15	3581.90
340.36	3319.76
340.58	3274.70
340.79	2996.18
341.00	3745.73
341.21	3166.16
341.42	3364.81
341.63	3074.00
341.85	3651.53
342.06	3528.65
342.27	3059.67
342.48	3299.28
342.69	3127.25
342.90	3524.55
343.12	3491.79
343.33	3094.48
343.54	3706.82
343.75	3770.31
343.96	3192.78
344.17	3012.56
344.38	3375.05
344.60	3284.94
344.81	3008.47
345.02	3155.92
345.23	3700.68
345.44	4048.83
345.65	3170.26
345.86	3229.65
346.07	3542.99
346.29	3256.27
346.50	3258.32
346.71	3205.07
346.92	3778.50
347.13	3868.61
347.34	3219.41
347.55	2947.03
347.76	3545.03
347.98	3074.00
348.19	3155.92
348.40	3258.32
348.61	3286.99
348.82	3768.26
349.03	3209.17
349.24	2936.79
349.45	3872.71
349.66	3024.85
349.88	3067.86
350.09	3076.05
350.30	3727.30
350.51	3706.82
350.72	3315.66
350.93	3108.82
351.14	3352.52
351.35	3477.45
351.56	3125.20
351.77	3114.96
351.99	3516.36
352.20	3760.07
352.41	3176.40
352.62	2963.41
352.83	3502.03
353.04	3469.26
353.25	3074.00
353.46	3184.59
353.67	3678.15
353.88	3022.80
354.09	2971.60
354.30	3110.86
354.52	3719.11
354.73	3391.44
354.94	3057.62
355.15	3108.82
355.36	3876.80
355.57	3268.56
355.78	2969.55
355.99	3074.00
356.20	3327.95
356.41	3729.35
356.62	3225.55
356.83	3137.49
357.04	3735.50
357.25	3217.36
357.46	3082.19
357.68	3010.51
357.89	3186.64
358.10	3428.30
358.31	2987.99
358.52	3123.15
358.73	3153.87
358.94	3229.65
359.15	3080.14
359.36	3133.39
359.57	3469.26
359.78	3360.72
359.99	3311.57
360.20	2899.92
360.41	3373.00
360.62	3573.71
360.83	3192.78
361.04	3166.16
361.25	3549.13
361.46	3852.23
361.67	3223.50
361.88	3094.48
362.09	3706.82
362.30	3596.23
362.51	3082.19
362.72	3114.96
362.93	3559.37
363.14	3598.28
363.35	3233.74
363.56	2963.41
363.78	3641.29
363.99	3557.32
364.20	3104.72
364.41	3190.74
364.62	3762.12
364.83	3483.59
365.04	3133.39
365.25	3192.78
365.46	3887.04
365.67	3200.98
365.88	3221.45
366.09	3096.53
366.30	3327.95
366.51	3444.68
366.72	3018.71
366.93	3024.85
367.14	3358.67
367.35	3749.83
367.56	3028.95
367.77	3221.45
367.98	3506.12
368.18	3536.84
368.39	3241.93
368.60	3106.77
368.81	3536.84
369.02	3583.95
369.23	3106.77
369.44	2947.03
369.65	3332.05
369.86	3585.99
370.07	3207.12
370.28	2961.36
370.49	3532.75
370.70	3467.21
370.91	3006.42
371.12	3022.80
371.33	3753.93
371.54	3293.13
371.75	3262.41
371.96	2850.77
372.17	3516.36
372.38	3450.83
372.59	3076.05
372.80	2985.94
373.01	3368.91
373.22	3471.31
373.43	3012.56
373.64	2947.03
373.85	3727.30
374.06	3823.56
374.26	3354.57
374.47	3278.80
374.68	3848.13
374.89	3452.88
375.10	3016.66
375.31	3184.59
375.52	3536.84
375.73	3446.73
375.94	2983.89
376.15	3180.50
376.36	3303.37
376.57	3264.46
376.78	3147.73
376.99	3203.02
377.20	3682.25
377.40	3381.20
377.61	3409.87
377.82	3147.73
378.03	3833.80
378.24	3557.32
378.45	3231.69
378.66	3213.26
378.87	3047.38
379.08	3211.22
379.29	3071.95
379.50	3237.84
379.71	3559.37
379.91	3620.81
380.12	3080.14
380.33	3262.41
380.54	3381.20
380.75	3434.44
380.96	3110.86
381.17	3198.93
381.38	3364.81
381.59	3479.50
381.80	3182.54
382.00	3237.84
382.21	3459.02
382.42	3743.69
382.63	3510.22
382.84	3246.03
383.05	3559.37
383.26	3786.69
383.47	3305.42
383.68	3084.24
383.88	3581.90
384.09	3481.55
384.30	3370.96
384.51	3198.93
384.72	3452.88
384.93	3192.78
385.14	3203.02
385.35	3444.68
385.55	3102.67
385.76	3729.35
385.97	3180.50
386.18	2944.98
386.39	3311.57
386.60	3303.37
386.81	3155.92
387.02	2963.41
387.22	3176.40
387.43	3512.27
387.64	3147.73
387.85	3373.00
388.06	3403.72
388.27	4501.44
388.48	7393.17
388.68	11069.27
388.89	13690.67
389.10	14765.85
389.31	14538.53
389.52	11704.14
389.73	10379.11
389.93	9482.10
390.14	8386.43
390.35	7950.21
390.56	7382.93
390.77	6322.08
390.98	4683.70
391.18	4116.42
391.39	3846.09
391.60	3506.12
391.81	3463.12
392.02	3149.78
392.23	3966.92
392.43	3467.21
392.64	3248.08
392.85	3272.65
393.06	3823.56
393.27	3493.83
393.47	3100.62
393.68	3319.76
393.89	3303.37
394.10	3672.01
394.31	3211.22
394.52	3137.49
394.72	3319.76
394.93	3786.69
395.14	3030.99
395.35	3196.88
395.56	3323.85
395.76	3327.95
395.97	3131.34
396.18	3336.14
396.39	3422.16
396.60	4116.42
396.80	3524.55
397.01	3354.57
397.22	3700.68
397.43	3602.38
397.64	3092.43
397.84	3182.54
398.05	3893.19
398.26	3444.68
398.47	3233.74
398.67	3442.64
398.88	3401.68
399.09	3598.28
399.30	3104.72
399.51	3272.65
399.71	3270.61
399.92	3538.89
400.13	3276.75
400.34	3090.38
400.54	3491.79
400.75	3831.75
400.96	3176.40
401.17	3487.69
401.37	3506.12
401.58	3377.10
401.79	3022.80
402.00	3256.27
402.21	4005.83
402.41	3434.44
402.62	3360.72
402.83	3469.26
403.04	3805.13
403.24	4206.53
403.45	3280.85
403.66	3450.83
403.87	3622.86
404.07	3725.26
404.28	3370.96
404.49	3499.98
404.70	3540.94
404.90	3540.94
405.11	3133.39
405.32	3321.81
405.52	3223.50
405.73	3370.96
405.94	3051.47
406.15	3217.36
406.35	3604.42
406.56	3596.23
406.77	3160.02
406.98	3143.63
407.18	3303.37
407.39	3762.12
407.60	3209.17
407.80	3254.22
408.01	3368.91
408.22	3594.19
408.43	3088.34
408.63	3243.98
408.84	3631.05
409.05	3657.67
409.25	3082.19
409.46	3221.45
409.67	3321.81
409.88	3346.38
410.08	3205.07
410.29	3114.96
410.50	3655.62
410.70	3618.76
410.91	3114.96
411.12	3207.12
411.32	3448.78
411.53	3223.50
411.74	3176.40
411.95	3190.74
412.15	3504.07
412.36	3610.57
412.57	3235.79
412.77	3373.00
412.98	3344.33
413.19	3358.67
413.39	3190.74
413.60	3178.45
413.81	3659.72
414.01	3233.74
414.22	3237.84
414.43	3377.10
414.63	3319.76
414.84	3610.57
415.05	3162.06
415.25	2992.08
415.46	3575.75
415.67	3282.89
415.87	3200.98
416.08	3114.96
416.29	3280.85
416.49	3567.56
416.70	3205.07
416.91	3145.68
417.11	3403.72
417.32	3723.21
417.53	3243.98
417.73	3198.93
417.94	3405.77
418.15	3538.89
418.35	3209.17
418.56	3180.50
418.77	4032.45
418.97	3456.97
419.18	3258.32
419.38	2846.68
419.59	3436.49
419.80	3702.73
420.00	3098.58
420.21	3186.64
420.42	3819.46
420.62	3581.90
420.83	3127.25
421.04	3030.99
421.24	3446.73
421.45	3608.52
421.65	3200.98
421.86	3176.40
422.07	3725.26
422.27	3538.89
422.48	3071.95
422.69	2949.08
422.89	3463.12
423.10	3289.04
423.30	3207.12
423.51	3200.98
423.72	3608.52
423.92	3641.29
424.13	3082.19
424.33	3215.31
424.54	3592.14
424.75	3483.59
424.95	3311.57
425.16	3065.81
425.36	3373.00
425.57	3622.86
425.78	3264.46
425.98	3231.69
426.19	3297.23
426.39	3243.98
426.60	3270.61
426.81	3282.89
427.01	3583.95
427.22	3311.57
427.42	2922.45
427.63	3108.82
427.83	3618.76
428.04	3786.69
428.25	3272.65
428.45	3213.26
428.66	3696.58
428.86	3383.24
429.07	3239.89
429.28	3157.97
429.48	3475.40
429.69	3278.80
429.89	3291.09
430.10	3133.39
430.30	3620.81
430.51	3698.63
430.71	3069.91
430.92	3207.12
431.13	3319.76
431.33	3557.32
431.54	3262.41
431.74	3315.66
431.95	3975.11
432.15	3231.69
432.36	3143.63
432.56	3258.32
432.77	3907.52
432.98	3801.03
433.18	3241.93
433.39	3024.85
433.59	3368.91
433.80	3882.95
434.00	3334.09
434.21	3211.22
434.41	3286.99
434.62	3946.44
434.82	3098.58
435.03	3110.86
435.23	3499.98
435.44	3100.62
435.64	3147.73
435.85	3170.26
436.06	3596.23
436.26	3669.96
436.47	3135.44
436.67	3129.30
436.88	3327.95
437.08	3700.68
437.29	3272.65
437.49	3256.27
437.70	3745.73
437.90	3379.15
438.11	3373.00
438.31	3262.41
438.52	3700.68
438.72	3663.82
438.93	3545.03
439.13	3282.89
439.34	3592.14
439.54	3330.00
439.75	3246.03
439.95	3301.33
440.16	3297.23
440.36	3385.29
440.57	3139.54
440.77	3203.02
440.98	3473.36
441.18	3559.37
441.39	3024.85
441.59	3131.34
441.80	3997.64
442.00	3477.45
442.21	3196.88
442.41	3024.85
442.62	3663.82
442.82	3387.34
443.02	3143.63
443.23	3264.46
443.43	3393.48
443.64	3708.87
443.84	3004.37
444.05	3188.69
444.25	3413.96
444.46	3336.14
444.66	3117.01
444.87	3432.40
445.07	3143.63
445.28	3323.85
445.48	3401.68
445.69	3211.22
445.89	3987.40
446.09	3350.48
446.30	3444.68
446.50	3549.13
446.71	4992.95
446.91	6244.26
447.12	6829.98
447.32	7165.84
447.53	7384.98
447.73	6320.03
447.93	5384.11
448.14	5175.22
448.34	5449.64
448.55	4540.35
448.75	4360.13
448.96	4192.19
449.16	4198.34
449.36	4016.07
449.57	3422.16
449.77	3209.17
449.98	3362.76
450.18	3590.09
450.39	3114.96
450.59	3377.10
450.79	3510.22
451.00	3327.95
451.20	3422.16
451.41	3213.26
451.61	3508.17
451.81	3479.50
452.02	3106.77
452.22	3188.69
452.43	3307.47
