SpectraSuite Data File
++++++++++++++++++++++++++++++++++++
Date: Fri May 06 09:29:18 CEST 2016
User: root
Dark Spectrum Present: No
Reference Spectrum Present: No
Number of Sampled Component Spectra: 1
Spectrometers: USB4C02835
Integration Time (usec): 100000 (USB4C02835)
Spectra Averaged: 1 (USB4C02835)
Boxcar Smoothing: 0 (USB4C02835)
Correct for Electrical Dark: No (USB4C02835)
Strobe/Lamp Enabled: No (USB4C02835)
Correct for Detector Non-linearity: No (USB4C02835)
Correct for Stray Light: No (USB4C02835)
Number of Pixels in Processed Spectrum: 3648
>>>>>Begin Processed Spectral Data<<<<<
177.47	2324.44
177.69	2324.44
177.91	2324.44
178.13	2340.83
178.36	2269.15
178.58	3104.72
178.80	3188.69
179.02	3143.63
179.24	3205.07
179.46	2885.59
179.68	2873.30
179.90	3407.82
180.13	3479.50
180.35	2789.33
180.57	2879.44
180.79	3624.90
181.01	3377.10
181.23	2951.12
181.45	3055.57
181.67	3637.19
181.90	3692.49
182.12	3041.23
182.34	2789.33
182.56	3520.46
182.78	3536.84
183.00	2824.15
183.22	2971.60
183.44	3033.04
183.66	4167.62
183.89	3129.30
184.11	3043.28
184.33	3653.58
184.55	3690.44
184.77	2871.25
184.99	2985.94
185.21	3364.81
185.43	4095.94
185.65	2977.75
185.87	2918.36
186.10	4030.40
186.32	4110.27
186.54	3096.53
186.76	3069.91
186.98	3641.29
187.20	3360.72
187.42	2934.74
187.64	2963.41
187.86	3555.27
188.08	3770.31
188.30	2883.54
188.52	3002.32
188.75	3794.89
188.97	3708.87
189.19	2992.08
189.41	2930.64
189.63	3622.86
189.85	3272.65
190.07	2850.77
190.29	2836.44
190.51	3555.27
190.73	3155.92
190.95	3151.82
191.17	3049.43
191.39	3141.58
191.61	3391.44
191.84	3026.90
192.06	3061.71
192.28	3028.95
192.50	4198.34
192.72	3074.00
192.94	3088.34
193.16	3688.39
193.38	3534.79
193.60	2852.82
193.82	3221.45
194.04	3672.01
194.26	3530.70
194.48	2922.45
194.70	2942.93
194.92	3373.00
195.14	3565.51
195.36	2969.55
195.58	3098.58
195.80	3432.40
196.02	3239.89
196.24	2879.44
196.46	3082.19
196.69	3317.71
196.91	3966.92
197.13	3131.34
197.35	3033.04
197.57	3889.09
197.79	3614.66
198.01	3092.43
198.23	3012.56
198.45	3518.41
198.67	3147.73
198.89	2740.18
199.11	3104.72
199.33	3315.66
199.55	2969.55
199.77	2957.27
199.99	3153.87
200.21	3356.62
200.43	3590.09
200.65	2865.11
200.87	2840.53
201.09	3440.59
201.31	3381.20
201.53	3067.86
201.75	3098.58
201.97	3506.12
202.19	3467.21
202.41	3049.43
202.63	3000.27
202.85	3655.62
203.07	3524.55
203.29	3033.04
203.51	2918.36
203.73	3299.28
203.95	4059.07
204.17	2920.40
204.39	3092.43
204.61	3352.52
204.83	3229.65
205.05	3141.58
205.27	2967.51
205.49	3983.30
205.71	3532.75
205.93	2828.24
206.15	2830.29
206.37	3540.94
206.59	3373.00
206.81	2824.15
207.03	2840.53
207.25	3315.66
207.47	3581.90
207.69	3028.95
207.91	3155.92
208.13	3854.28
208.34	3303.37
208.56	2912.21
208.78	2951.12
209.00	3428.30
209.22	3340.24
209.44	3024.85
209.66	2873.30
209.88	3567.56
210.10	3436.49
210.32	2965.46
210.54	3037.14
210.76	3379.15
210.98	3655.62
211.20	2840.53
211.42	3069.91
211.64	3762.12
211.86	3592.14
212.08	3082.19
212.30	3026.90
212.52	3352.52
212.74	3608.52
212.96	3074.00
213.17	3020.75
213.39	3581.90
213.61	3770.31
213.83	2863.06
214.05	2830.29
214.27	3692.49
214.49	3278.80
214.71	2930.64
214.93	3094.48
215.15	3549.13
215.37	3639.24
215.59	2813.91
215.81	3014.61
216.03	3798.98
216.24	3430.35
216.46	2926.55
216.68	2977.75
216.90	3655.62
217.12	3688.39
217.34	2910.16
217.56	3160.02
217.78	3708.87
218.00	3606.47
218.22	3065.81
218.44	3104.72
218.66	3493.83
218.87	3776.45
219.09	2951.12
219.31	3035.09
219.53	3610.57
219.75	3377.10
219.97	3020.75
220.19	3022.80
220.41	3436.49
220.63	3878.85
220.85	3008.47
221.06	2955.22
221.28	3749.83
221.50	3563.47
221.72	2967.51
221.94	2856.92
222.16	3512.27
222.38	3725.26
222.60	2947.03
222.82	3000.27
223.03	3661.77
223.25	3217.36
223.47	2869.20
223.69	3223.50
223.91	3602.38
224.13	3465.16
224.35	2877.40
224.57	3166.16
224.78	3598.28
225.00	3190.74
225.22	2940.88
225.44	2914.26
225.66	3585.99
225.88	3354.57
226.10	3119.06
226.32	3002.32
226.53	3790.79
226.75	3459.02
226.97	3129.30
227.19	3014.61
227.41	3360.72
227.63	3309.52
227.85	2697.17
228.06	3065.81
228.28	3508.17
228.50	3651.53
228.72	2852.82
228.94	2969.55
229.16	3078.10
229.37	3270.61
229.59	2947.03
229.81	3227.60
230.03	3364.81
230.25	3135.44
230.47	2803.67
230.69	3020.75
230.90	3602.38
231.12	3254.22
231.34	3110.86
231.56	2996.18
231.78	3229.65
232.00	3512.27
232.21	3059.67
232.43	3030.99
232.65	3024.85
232.87	3512.27
233.09	2836.44
233.30	2887.64
233.52	3608.52
233.74	3375.05
233.96	2920.40
234.18	3164.11
234.40	3475.40
234.61	3958.72
234.83	2836.44
235.05	2971.60
235.27	4089.79
235.49	3782.60
235.70	2856.92
235.92	3024.85
236.14	3606.47
236.36	4067.27
236.58	2877.40
236.79	3149.78
237.01	3477.45
237.23	3446.73
237.45	3151.82
237.67	3041.23
237.88	3528.65
238.10	3903.43
238.32	2854.87
238.54	2996.18
238.76	3352.52
238.97	3248.08
239.19	2885.59
239.41	3028.95
239.63	3772.36
239.85	3315.66
240.06	2983.89
240.28	2973.65
240.50	3669.96
240.72	3364.81
240.93	2891.73
241.15	3127.25
241.37	3471.31
241.59	3700.68
241.81	3030.99
242.02	3033.04
242.24	3499.98
242.46	3616.71
242.68	2777.05
242.89	2887.64
243.11	3686.34
243.33	3430.35
243.55	2963.41
243.76	2967.51
243.98	3235.79
244.20	3401.68
244.42	2975.70
244.64	2969.55
244.85	3157.97
245.07	3184.59
245.29	2963.41
245.51	3045.33
245.72	3469.26
245.94	3706.82
246.16	2887.64
246.38	3010.51
246.59	3311.57
246.81	3254.22
247.03	2918.36
247.24	2828.24
247.46	3313.61
247.68	3477.45
247.90	2916.31
248.11	2963.41
248.33	3571.66
248.55	3438.54
248.77	3008.47
248.98	3096.53
249.20	3760.07
249.42	3448.78
249.64	2920.40
249.85	2865.11
250.07	3295.18
250.29	3624.90
250.50	3043.28
250.72	2869.20
250.94	3491.79
251.16	3860.42
251.37	2944.98
251.59	3043.28
251.81	3547.08
252.02	3712.97
252.24	2801.62
252.46	3141.58
252.68	3307.47
252.89	3362.76
253.11	2820.05
253.33	3127.25
253.54	3796.93
253.76	3209.17
253.98	2938.84
254.20	2918.36
254.41	3229.65
254.63	3385.29
254.85	2836.44
255.06	3090.38
255.28	3639.24
255.50	3385.29
255.71	2865.11
255.93	2815.96
256.15	3432.40
256.36	3540.94
256.58	2752.47
256.80	2906.07
257.02	3327.95
257.23	3454.92
257.45	3041.23
257.67	3074.00
257.88	3401.68
258.10	3600.33
258.32	2987.99
258.53	3092.43
258.75	3876.80
258.97	3354.57
259.18	2889.68
259.40	2961.36
259.62	3798.98
259.83	3819.46
260.05	2961.36
260.27	3907.52
260.48	3602.38
260.70	3354.57
260.92	2910.16
261.13	2985.94
261.35	3567.56
261.57	3522.51
261.78	2877.40
262.00	2942.93
262.22	3602.38
262.43	3309.52
262.65	2895.83
262.86	3020.75
263.08	4026.31
263.30	3467.21
263.51	2781.14
263.73	2904.02
263.95	3942.34
264.16	3272.65
264.38	2818.00
264.60	2893.78
264.81	3467.21
265.03	3723.21
265.25	3383.24
265.46	2899.92
265.68	3690.44
265.89	3614.66
266.11	2813.91
266.33	2912.21
266.54	3653.58
266.76	3565.51
266.98	3016.66
267.19	3215.31
267.41	3731.40
267.62	3385.29
267.84	2787.29
268.06	3164.11
268.27	3461.07
268.49	3723.21
268.70	3053.52
268.92	3030.99
269.14	3209.17
269.35	3155.92
269.57	3108.82
269.79	3117.01
270.00	3397.58
270.22	3819.46
270.43	2877.40
270.65	2881.49
270.87	3553.23
271.08	3676.10
271.30	3063.76
271.51	2916.31
271.73	3592.14
271.95	3762.12
272.16	2908.12
272.38	3155.92
272.59	3385.29
272.81	3526.60
273.02	2908.12
273.24	3000.27
273.46	3747.78
273.67	3141.58
273.89	2893.78
274.10	2910.16
274.32	3588.04
274.54	3549.13
274.75	3030.99
274.97	3092.43
275.18	3667.91
275.40	3561.42
275.61	2975.70
275.83	3078.10
276.05	3198.93
276.26	3471.31
276.48	3008.47
276.69	3143.63
276.91	3352.52
277.12	3835.85
277.34	3190.74
277.55	3233.74
277.77	3428.30
277.99	3321.81
278.20	3127.25
278.42	2992.08
278.63	3274.70
278.85	3217.36
279.06	3078.10
279.28	3219.41
279.49	3737.54
279.71	3592.14
279.93	3194.83
280.14	3141.58
280.36	3219.41
280.57	3536.84
280.79	3215.31
281.00	3012.56
281.22	3413.96
281.43	3665.86
281.65	2842.58
281.86	3004.37
282.08	3565.51
282.29	3852.23
282.51	2893.78
282.73	3043.28
282.94	3151.82
283.16	3571.66
283.37	3133.39
283.59	3045.33
283.80	3547.08
284.02	3323.85
284.23	3178.45
284.45	3125.20
284.66	3303.37
284.88	3323.85
285.09	3043.28
285.31	3246.03
285.52	3495.88
285.74	3133.39
285.95	3295.18
286.17	3225.55
286.38	3723.21
286.60	3325.90
286.81	3010.51
287.03	3033.04
287.24	3428.30
287.46	3588.04
287.67	3205.07
287.89	3297.23
288.10	3459.02
288.32	3401.68
288.53	3274.70
288.75	3180.50
288.96	3622.86
289.18	3295.18
289.39	3026.90
289.61	3229.65
289.82	3956.68
290.04	3979.20
290.25	2969.55
290.47	3143.63
290.68	3409.87
290.90	3669.96
291.11	2895.83
291.33	3270.61
291.54	3264.46
291.76	3305.42
291.97	3225.55
292.18	3229.65
292.40	3364.81
292.61	3286.99
292.83	3428.30
293.04	3143.63
293.26	3426.25
293.47	3393.48
293.69	3125.20
293.90	2990.03
294.12	3782.60
294.33	3532.75
294.55	3235.79
294.76	3350.48
294.97	3737.54
295.19	3966.92
295.40	3045.33
295.62	3129.30
295.83	3680.20
296.05	3239.89
296.26	3356.62
296.48	3102.67
296.69	3442.64
296.90	3448.78
297.12	3299.28
297.33	3213.26
297.55	3377.10
297.76	3499.98
297.98	3192.78
298.19	3313.61
298.41	3413.96
298.62	3215.31
298.83	3297.23
299.05	3239.89
299.26	3330.00
299.48	3334.09
299.69	3110.86
299.90	3088.34
300.12	3229.65
300.33	3565.51
300.55	3196.88
300.76	3149.78
300.98	3266.51
301.19	3567.56
301.40	3035.09
301.62	3057.62
301.83	3565.51
302.05	3397.58
302.26	3000.27
302.47	3213.26
302.69	3155.92
302.90	3442.64
303.12	2940.88
303.33	3182.54
303.54	3858.37
303.76	3338.19
303.97	3067.86
304.19	3311.57
304.40	3237.84
304.61	3569.61
304.83	3221.45
305.04	3129.30
305.26	3686.34
305.47	3305.42
305.68	3074.00
305.90	2955.22
306.11	3706.82
306.33	3420.11
306.54	3002.32
306.75	3065.81
306.97	3170.26
307.18	3258.32
307.39	3123.15
307.61	3188.69
307.82	3395.53
308.04	3557.32
308.25	2959.31
308.46	3336.14
308.68	3416.01
308.89	3454.92
309.10	3239.89
309.32	3155.92
309.53	3497.93
309.74	3581.90
309.96	3016.66
310.17	3149.78
310.39	3340.24
310.60	3573.71
310.81	3127.25
311.03	3024.85
311.24	3596.23
311.45	3479.50
311.67	3362.76
311.88	3303.37
312.09	3389.39
312.31	3233.74
312.52	2967.51
312.73	3018.71
312.95	3188.69
313.16	3147.73
313.37	3241.93
313.59	3360.72
313.80	3602.38
314.01	3786.69
314.23	3071.95
314.44	2990.03
314.65	3065.81
314.87	3280.85
315.08	3018.71
315.29	3168.21
315.51	3207.12
315.72	3164.11
315.93	3151.82
316.15	3119.06
316.36	3387.34
316.57	3516.36
316.79	3071.95
317.00	3024.85
317.21	3545.03
317.43	3291.09
317.64	3147.73
317.85	2947.03
318.07	3338.19
318.28	3330.00
318.49	3157.97
318.70	3307.47
318.92	3499.98
319.13	3516.36
319.34	3266.51
319.56	3061.71
319.77	3549.13
319.98	3637.19
320.20	3411.92
320.41	3215.31
320.62	3567.56
320.83	3155.92
321.05	3291.09
321.26	3094.48
321.47	3368.91
321.69	3807.17
321.90	2985.94
322.11	3057.62
322.32	3512.27
322.54	3790.79
322.75	3237.84
322.96	4237.25
323.18	3147.73
323.39	3123.15
323.60	2975.70
323.81	3235.79
324.03	3256.27
324.24	3360.72
324.45	3270.61
324.66	2977.75
324.88	3712.97
325.09	3844.04
325.30	3098.58
325.52	3000.27
325.73	3499.98
325.94	3233.74
326.15	2977.75
326.37	2904.02
326.58	3600.33
326.79	3811.27
327.00	3088.34
327.22	3076.05
327.43	3391.44
327.64	3196.88
327.85	3241.93
328.07	3143.63
328.28	3854.28
328.49	3262.41
328.70	3178.45
328.92	3094.48
329.13	3389.39
329.34	3516.36
329.55	3350.48
329.76	3213.26
329.98	3360.72
330.19	3753.93
330.40	3160.02
330.61	3252.17
330.83	3592.14
331.04	3278.80
331.25	3207.12
331.46	3155.92
331.68	3217.36
331.89	3659.72
332.10	3219.41
332.31	2998.23
332.52	3385.29
332.74	3712.97
332.95	3000.27
333.16	3065.81
333.37	3641.29
333.58	3352.52
333.80	3047.38
334.01	2889.68
334.22	3442.64
334.43	3274.70
334.64	3024.85
334.86	3030.99
335.07	3164.11
335.28	3772.36
335.49	3096.53
335.70	3182.54
335.92	3700.68
336.13	3975.11
336.34	3135.44
336.55	3094.48
336.76	3522.51
336.98	3002.32
337.19	3119.06
337.40	3264.46
337.61	4057.03
337.82	3319.76
338.04	3211.22
338.25	2963.41
338.46	3391.44
338.67	3395.53
338.88	3037.14
339.09	2963.41
339.31	3330.00
339.52	3203.02
339.73	3065.81
339.94	3143.63
340.15	3502.03
340.36	3321.81
340.58	3155.92
340.79	3024.85
341.00	3528.65
341.21	3180.50
341.42	3303.37
341.63	3057.62
341.85	3729.35
342.06	3487.69
342.27	3117.01
342.48	3321.81
342.69	3172.30
342.90	3516.36
343.12	3577.80
343.33	3076.05
343.54	3624.90
343.75	3721.16
343.96	3229.65
344.17	3053.52
344.38	3463.12
344.60	3256.27
344.81	3074.00
345.02	3137.49
345.23	3712.97
345.44	4093.89
345.65	3174.35
345.86	3166.16
346.07	3475.40
346.29	3270.61
346.50	3200.98
346.71	3188.69
346.92	3725.26
347.13	4024.26
347.34	3217.36
347.55	2959.31
347.76	3565.51
347.98	3100.62
348.19	3141.58
348.40	3305.42
348.61	3377.10
348.82	3755.97
349.03	3200.98
349.24	3071.95
349.45	3979.20
349.66	3047.38
349.88	3053.52
350.09	3022.80
350.30	3715.02
350.51	3735.50
350.72	3293.13
350.93	3110.86
351.14	3289.04
351.35	3493.83
351.56	3155.92
351.77	3198.93
351.99	3528.65
352.20	3688.39
352.41	3147.73
352.62	2883.54
352.83	3436.49
353.04	3428.30
353.25	3135.44
353.46	3139.54
353.67	3598.28
353.88	3024.85
354.09	3053.52
354.30	3215.31
354.52	3598.28
354.73	3434.44
354.94	3059.67
355.15	3209.17
355.36	3758.02
355.57	3262.41
355.78	2987.99
355.99	3155.92
356.20	3440.59
356.41	3653.58
356.62	3233.74
356.83	3114.96
357.04	3712.97
357.25	3106.77
357.46	3028.95
357.68	2994.13
357.89	3319.76
358.10	3352.52
358.31	3084.24
358.52	3184.59
358.73	3188.69
358.94	3248.08
359.15	3139.54
359.36	3135.44
359.57	3553.23
359.78	3420.11
359.99	3342.28
360.20	2926.55
360.41	3405.77
360.62	3553.23
360.83	3217.36
361.04	3117.01
361.25	3594.19
361.46	3753.93
361.67	3248.08
361.88	3065.81
362.09	3594.19
362.30	3440.59
362.51	3063.76
362.72	3100.62
362.93	3653.58
363.14	3577.80
363.35	3223.50
363.56	3028.95
363.78	3721.16
363.99	3680.20
364.20	3110.86
364.41	3215.31
364.62	3862.47
364.83	3479.50
365.04	3078.10
365.25	3149.78
365.46	3940.29
365.67	3340.24
365.88	3327.95
366.09	3045.33
366.30	3360.72
366.51	3426.25
366.72	2996.18
366.93	3108.82
367.14	3477.45
367.35	3801.03
367.56	3037.14
367.77	3166.16
367.98	3420.11
368.18	3629.00
368.39	3274.70
368.60	3094.48
368.81	3602.38
369.02	3532.75
369.23	3084.24
369.44	3024.85
369.65	3454.92
369.86	3479.50
370.07	3209.17
370.28	3049.43
370.49	3506.12
370.70	3475.40
370.91	2920.40
371.12	2906.07
371.33	3694.54
371.54	3317.71
371.75	3223.50
371.96	2801.62
372.17	3518.41
372.38	3377.10
372.59	3117.01
372.80	2963.41
373.01	3315.66
373.22	3481.55
373.43	3168.21
373.64	3012.56
373.85	3692.49
374.06	3839.94
374.26	3200.98
374.47	3233.74
374.68	3704.78
374.89	3540.94
375.10	3000.27
375.31	3229.65
375.52	3467.21
375.73	3428.30
375.94	2951.12
376.15	3221.45
376.36	3233.74
376.57	3291.09
376.78	3182.54
376.99	3147.73
377.20	3684.30
377.40	3385.29
377.61	3547.08
377.82	3082.19
378.03	3708.87
378.24	3651.53
378.45	3254.22
378.66	3172.30
378.87	3090.38
379.08	3205.07
379.29	3182.54
379.50	3342.28
379.71	3428.30
379.91	3669.96
380.12	3082.19
380.33	3198.93
380.54	3428.30
380.75	3461.07
380.96	3143.63
381.17	3037.14
381.38	3385.29
381.59	3426.25
381.80	3184.59
382.00	3286.99
382.21	3434.44
382.42	3770.31
382.63	3446.73
382.84	3293.13
383.05	3540.94
383.26	3721.16
383.47	3200.98
383.68	3033.04
383.88	3450.83
384.09	3456.97
384.30	3307.47
384.51	3196.88
384.72	3379.15
384.93	3160.02
385.14	3248.08
385.35	3383.24
385.55	3170.26
385.76	3727.30
385.97	3149.78
386.18	2985.94
386.39	3305.42
386.60	3239.89
386.81	3053.52
387.02	3043.28
387.22	3219.41
387.43	3530.70
387.64	3180.50
387.85	3321.81
388.06	3409.87
388.27	4417.47
388.48	7214.99
388.68	10833.75
388.89	13637.42
389.10	14776.09
389.31	14229.29
389.52	11646.80
389.73	10284.90
389.93	9482.10
390.14	8439.68
390.35	7880.58
390.56	7440.27
390.77	6248.35
390.98	4747.19
391.18	4071.36
391.39	3891.14
391.60	3483.59
391.81	3336.14
392.02	3182.54
392.23	3966.92
392.43	3540.94
392.64	3250.13
392.85	3200.98
393.06	3739.59
393.27	3434.44
393.47	3119.06
393.68	3225.55
393.89	3381.20
394.10	3715.02
394.31	3164.11
394.52	3119.06
394.72	3254.22
394.93	3739.59
395.14	2942.93
395.35	3221.45
395.56	3313.61
395.76	3381.20
395.97	3125.20
396.18	3307.47
396.39	3461.07
396.60	4114.37
396.80	3485.64
397.01	3340.24
397.22	3569.61
397.43	3579.85
397.64	3164.11
397.84	3262.41
398.05	3852.23
398.26	3313.61
398.47	3229.65
398.67	3438.54
398.88	3422.16
399.09	3585.99
399.30	3096.53
399.51	3188.69
399.71	3280.85
399.92	3413.96
400.13	3237.84
400.34	3074.00
400.54	3532.75
400.75	3825.61
400.96	3162.06
401.17	3387.34
401.37	3516.36
401.58	3438.54
401.79	3141.58
402.00	3264.46
402.21	3975.11
402.41	3551.18
402.62	3463.12
402.83	3506.12
403.04	3811.27
403.24	4210.62
403.45	3299.28
403.66	3430.35
403.87	3729.35
404.07	3792.84
404.28	3295.18
404.49	3383.24
404.70	3522.51
404.90	3622.86
405.11	3125.20
405.32	3262.41
405.52	3254.22
405.73	3286.99
405.94	3039.19
406.15	3188.69
406.35	3610.57
406.56	3637.19
406.77	3149.78
406.98	3139.54
407.18	3354.57
407.39	3721.16
407.60	3231.69
407.80	3221.45
408.01	3393.48
408.22	3522.51
408.43	3057.62
408.63	3311.57
408.84	3700.68
409.05	3629.00
409.25	3082.19
409.46	3149.78
409.67	3411.92
409.88	3317.71
410.08	3200.98
410.29	3098.58
410.50	3657.67
410.70	3522.51
410.91	3037.14
411.12	3182.54
411.32	3502.03
411.53	3209.17
411.74	3057.62
411.95	3233.74
412.15	3373.00
412.36	3704.78
412.57	3325.90
412.77	3286.99
412.98	3354.57
413.19	3344.33
413.39	3188.69
413.60	3231.69
413.81	3792.84
414.01	3198.93
414.22	3153.87
414.43	3330.00
414.63	3354.57
414.84	3680.20
415.05	3248.08
415.25	3057.62
415.46	3661.77
415.67	3393.48
415.87	3127.25
416.08	3119.06
416.29	3393.48
416.49	3567.56
416.70	3147.73
416.91	3119.06
417.11	3381.20
417.32	3706.82
417.53	3194.83
417.73	3254.22
417.94	3483.59
418.15	3504.07
418.35	3170.26
418.56	3229.65
418.77	3930.05
418.97	3545.03
419.18	3346.38
419.38	2863.06
419.59	3432.40
419.80	3805.13
420.00	3106.77
420.21	3174.35
420.42	3755.97
420.62	3545.03
420.83	3139.54
421.04	3125.20
421.24	3381.20
421.45	3588.04
421.65	3188.69
421.86	3196.88
422.07	3706.82
422.27	3573.71
422.48	3018.71
422.69	2971.60
422.89	3413.96
423.10	3405.77
423.30	3180.50
423.51	3182.54
423.72	3534.79
423.92	3672.01
424.13	3014.61
424.33	3168.21
424.54	3608.52
424.75	3557.32
424.95	3377.10
425.16	3172.30
425.36	3442.64
425.57	3688.39
425.78	3297.23
425.98	3299.28
426.19	3418.06
426.39	3254.22
426.60	3233.74
426.81	3307.47
427.01	3542.99
427.22	3336.14
427.42	3045.33
427.63	3047.38
427.83	3667.91
428.04	3876.80
428.25	3147.73
428.45	3225.55
428.66	3712.97
428.86	3434.44
429.07	3153.87
429.28	3174.35
429.48	3514.31
429.69	3311.57
429.89	3336.14
430.10	3114.96
430.30	3649.48
430.51	3696.58
430.71	3074.00
430.92	3250.13
431.13	3274.70
431.33	3614.66
431.54	3229.65
431.74	3352.52
431.95	3887.04
432.15	3229.65
432.36	3160.02
432.56	3246.03
432.77	3831.75
432.98	3885.00
433.18	3221.45
433.39	3063.76
433.59	3467.21
433.80	3903.43
434.00	3352.52
434.21	3147.73
434.41	3264.46
434.62	3968.96
434.82	3069.91
435.03	3090.38
435.23	3557.32
435.44	3129.30
435.64	3098.58
435.85	3176.40
436.06	3639.24
436.26	3641.29
436.47	3176.40
436.67	3098.58
436.88	3282.89
437.08	3712.97
437.29	3270.61
437.49	3379.15
437.70	3708.87
437.90	3393.48
438.11	3350.48
438.31	3213.26
438.52	3766.21
438.72	3594.19
438.93	3499.98
439.13	3354.57
439.34	3659.72
439.54	3334.09
439.75	3364.81
439.95	3248.08
440.16	3235.79
440.36	3471.31
440.57	3149.78
440.77	3143.63
440.98	3465.16
441.18	3436.49
441.39	3178.45
441.59	3004.37
441.80	3885.00
442.00	3370.96
442.21	3243.98
442.41	3074.00
442.62	3680.20
442.82	3198.93
443.02	3135.44
443.23	3100.62
443.43	3321.81
443.64	3712.97
443.84	3086.29
444.05	3243.98
444.25	3416.01
444.46	3377.10
444.66	3092.43
444.87	3450.83
445.07	3069.91
445.28	3442.64
445.48	3352.52
445.69	3262.41
445.89	4011.97
446.09	3358.67
446.30	3444.68
446.50	3622.86
446.71	5027.76
446.91	6191.01
447.12	6748.06
447.32	7104.40
447.53	7272.34
447.73	6238.11
447.93	5388.21
448.14	5246.90
448.34	5337.01
448.55	4429.76
448.75	4421.56
448.96	4235.20
449.16	4218.82
449.36	3968.96
449.57	3483.59
449.77	3254.22
449.98	3325.90
450.18	3604.42
450.39	3020.75
450.59	3360.72
450.79	3315.66
451.00	3250.13
451.20	3311.57
451.41	3205.07
451.61	3540.94
451.81	3405.77
452.02	3063.76
452.22	3213.26
452.43	3319.76
