SpectraSuite Data File
++++++++++++++++++++++++++++++++++++
Date: Fri May 06 09:28:31 CEST 2016
User: root
Dark Spectrum Present: No
Reference Spectrum Present: No
Number of Sampled Component Spectra: 1
Spectrometers: USB4C02835
Integration Time (usec): 100000 (USB4C02835)
Spectra Averaged: 1 (USB4C02835)
Boxcar Smoothing: 0 (USB4C02835)
Correct for Electrical Dark: No (USB4C02835)
Strobe/Lamp Enabled: No (USB4C02835)
Correct for Detector Non-linearity: No (USB4C02835)
Correct for Stray Light: No (USB4C02835)
Number of Pixels in Processed Spectrum: 3648
>>>>>Begin Processed Spectral Data<<<<<
177.47	2410.46
177.69	2410.46
177.91	2410.46
178.13	2365.40
178.36	2285.53
178.58	3123.15
178.80	3266.51
179.02	3184.59
179.24	3198.93
179.46	2877.40
179.68	2928.60
179.90	3393.48
180.13	3461.07
180.35	2684.89
180.57	2848.72
180.79	3614.66
181.01	3424.20
181.23	2977.75
181.45	3090.38
181.67	3602.38
181.90	3565.51
182.12	3100.62
182.34	2877.40
182.56	3659.72
182.78	3502.03
183.00	2955.22
183.22	2934.74
183.44	3057.62
183.66	4159.42
183.89	3131.34
184.11	3055.57
184.33	3610.57
184.55	3659.72
184.77	2926.55
184.99	2897.88
185.21	3393.48
185.43	4020.16
185.65	2979.79
185.87	2906.07
186.10	3899.33
186.32	3958.72
186.54	3131.34
186.76	3012.56
186.98	3717.06
187.20	3424.20
187.42	3069.91
187.64	2955.22
187.86	3635.14
188.08	3735.50
188.30	2848.72
188.52	2916.31
188.75	3848.13
188.97	3684.30
189.19	2951.12
189.41	2928.60
189.63	3555.27
189.85	3370.96
190.07	2783.19
190.29	2820.05
190.51	3602.38
190.73	3137.49
190.95	3182.54
191.17	3026.90
191.39	3213.26
191.61	3364.81
191.84	2936.79
192.06	3094.48
192.28	3078.10
192.50	4132.80
192.72	3149.78
192.94	3061.71
193.16	3782.60
193.38	3579.85
193.60	2856.92
193.82	3209.17
194.04	3708.87
194.26	3583.95
194.48	3016.66
194.70	2990.03
194.92	3358.67
195.14	3622.86
195.36	2959.31
195.58	3028.95
195.80	3420.11
196.02	3262.41
196.24	2891.73
196.46	3053.52
196.69	3346.38
196.91	3911.62
197.13	3112.91
197.35	3022.80
197.57	3901.38
197.79	3674.06
198.01	3012.56
198.23	3016.66
198.45	3571.66
198.67	3147.73
198.89	2674.65
199.11	3035.09
199.33	3291.09
199.55	2930.64
199.77	2856.92
199.99	3108.82
200.21	3338.19
200.43	3528.65
200.65	2910.16
200.87	2834.39
201.09	3477.45
201.31	3356.62
201.53	3006.42
201.75	3055.57
201.97	3592.14
202.19	3483.59
202.41	2998.23
202.63	3084.24
202.85	3577.80
203.07	3532.75
203.29	3133.39
203.51	2840.53
203.73	3295.18
203.95	4102.08
204.17	2944.98
204.39	3125.20
204.61	3444.68
204.83	3407.82
205.05	3188.69
205.27	2959.31
205.49	3917.76
205.71	3446.73
205.93	2756.57
206.15	2854.87
206.37	3508.17
206.59	3403.72
206.81	2754.52
207.03	2901.97
207.25	3186.64
207.47	3600.33
207.69	2889.68
207.91	3272.65
208.13	3854.28
208.34	3393.48
208.56	2957.27
208.78	3028.95
209.00	3432.40
209.22	3330.00
209.44	2967.51
209.66	2942.93
209.88	3499.98
210.10	3450.83
210.32	2836.44
210.54	3055.57
210.76	3330.00
210.98	3698.63
211.20	2789.33
211.42	3151.82
211.64	3801.03
211.86	3579.85
212.08	3080.14
212.30	2961.36
212.52	3321.81
212.74	3551.18
212.96	3153.87
213.17	3057.62
213.39	3665.86
213.61	3803.08
213.83	2850.77
214.05	2850.77
214.27	3690.44
214.49	3237.84
214.71	2906.07
214.93	3065.81
215.15	3526.60
215.37	3712.97
215.59	2838.48
215.81	3053.52
216.03	3704.78
216.24	3508.17
216.46	2981.84
216.68	2973.65
216.90	3688.39
217.12	3696.58
217.34	2904.02
217.56	3117.01
217.78	3725.26
218.00	3606.47
218.22	2983.89
218.44	3024.85
218.66	3510.22
218.87	3829.70
219.09	2992.08
219.31	2910.16
219.53	3516.36
219.75	3346.38
219.97	2992.08
220.19	3014.61
220.41	3346.38
220.63	3778.50
220.85	2961.36
221.06	2973.65
221.28	3745.73
221.50	3606.47
221.72	2881.49
221.94	2953.17
222.16	3608.52
222.38	3653.58
222.60	2877.40
222.82	3043.28
223.03	3715.02
223.25	3172.30
223.47	2975.70
223.69	3262.41
223.91	3598.28
224.13	3452.88
224.35	2850.77
224.57	3243.98
224.78	3633.10
225.00	3196.88
225.22	3074.00
225.44	2940.88
225.66	3657.67
225.88	3336.14
226.10	3074.00
226.32	2961.36
226.53	3764.17
226.75	3354.57
226.97	3026.90
227.19	3037.14
227.41	3223.50
227.63	3391.44
227.85	2848.72
228.06	3090.38
228.28	3577.80
228.50	3706.82
228.72	2791.38
228.94	2918.36
229.16	3061.71
229.37	3196.88
229.59	2947.03
229.81	3190.74
230.03	3385.29
230.25	3213.26
230.47	2762.71
230.69	2944.98
230.90	3596.23
231.12	3362.76
231.34	3082.19
231.56	3043.28
231.78	3190.74
232.00	3502.03
232.21	3020.75
232.43	3030.99
232.65	3074.00
232.87	3553.23
233.09	2797.53
233.30	2885.59
233.52	3663.82
233.74	3422.16
233.96	2869.20
234.18	3135.44
234.40	3403.72
234.61	3975.11
234.83	2871.25
235.05	2904.02
235.27	3946.44
235.49	3692.49
235.70	2832.34
235.92	2983.89
236.14	3602.38
236.36	4016.07
236.58	2852.82
236.79	2979.79
237.01	3512.27
237.23	3340.24
237.45	3229.65
237.67	3069.91
237.88	3592.14
238.10	3827.65
238.32	2815.96
238.54	2990.03
238.76	3385.29
238.97	3274.70
239.19	2875.35
239.41	3033.04
239.63	3749.83
239.85	3409.87
240.06	2979.79
240.28	2944.98
240.50	3690.44
240.72	3413.96
240.93	2924.50
241.15	3127.25
241.37	3373.00
241.59	3753.93
241.81	3008.47
242.02	3184.59
242.24	3485.64
242.46	3661.77
242.68	2764.76
242.89	2852.82
243.11	3669.96
243.33	3446.73
243.55	2987.99
243.76	2936.79
243.98	3307.47
244.20	3391.44
244.42	2947.03
244.64	2938.84
244.85	3186.64
245.07	3258.32
245.29	2990.03
245.51	2973.65
245.72	3499.98
245.94	3643.34
246.16	2942.93
246.38	3000.27
246.59	3278.80
246.81	3248.08
247.03	2879.44
247.24	2781.14
247.46	3319.76
247.68	3483.59
247.90	2869.20
248.11	2967.51
248.33	3676.10
248.55	3403.72
248.77	3024.85
248.98	3151.82
249.20	3803.08
249.42	3456.97
249.64	2889.68
249.85	2822.10
250.07	3327.95
250.29	3585.99
250.50	3035.09
250.72	2885.59
250.94	3573.71
251.16	3917.76
251.37	2920.40
251.59	2983.89
251.81	3641.29
252.02	3794.89
252.24	2871.25
252.46	3090.38
252.68	3305.42
252.89	3313.61
253.11	2844.63
253.33	3049.43
253.54	3723.21
253.76	3215.31
253.98	2922.45
254.20	2949.08
254.41	3160.02
254.63	3409.87
254.85	2799.57
255.06	3166.16
255.28	3518.41
255.50	3401.68
255.71	2949.08
255.93	2869.20
256.15	3469.26
256.36	3508.17
256.58	2801.62
256.80	2885.59
257.02	3461.07
257.23	3409.87
257.45	2977.75
257.67	3053.52
257.88	3246.03
258.10	3516.36
258.32	2963.41
258.53	3067.86
258.75	3813.32
258.97	3258.32
259.18	2856.92
259.40	2924.50
259.62	3811.27
259.83	3803.08
260.05	2985.94
260.27	3934.15
260.48	3577.80
260.70	3188.69
260.92	2867.16
261.13	3022.80
261.35	3563.47
261.57	3561.42
261.78	2828.24
262.00	2879.44
262.22	3592.14
262.43	3262.41
262.65	2906.07
262.86	3020.75
263.08	4030.40
263.30	3463.12
263.51	2815.96
263.73	2969.55
263.95	3764.17
264.16	3250.13
264.38	2803.67
264.60	2865.11
264.81	3426.25
265.03	3712.97
265.25	3395.53
265.46	2883.54
265.68	3741.64
265.89	3631.05
266.11	2852.82
266.33	2930.64
266.54	3717.06
266.76	3549.13
266.98	3114.96
267.19	3209.17
267.41	3717.06
267.62	3385.29
267.84	2801.62
268.06	3047.38
268.27	3524.55
268.49	3637.19
268.70	2969.55
268.92	2998.23
269.14	3258.32
269.35	3094.48
269.57	3131.34
269.79	2949.08
270.00	3393.48
270.22	3815.37
270.43	2854.87
270.65	2838.48
270.87	3444.68
271.08	3626.95
271.30	3117.01
271.51	3016.66
271.73	3551.18
271.95	3739.59
272.16	2875.35
272.38	3149.78
272.59	3321.81
272.81	3559.37
273.02	2871.25
273.24	3090.38
273.46	3696.58
273.67	3157.97
273.89	2852.82
274.10	2918.36
274.32	3708.87
274.54	3475.40
274.75	3049.43
274.97	3088.34
275.18	3561.42
275.40	3477.45
275.61	3012.56
275.83	3053.52
276.05	3280.85
276.26	3385.29
276.48	3024.85
276.69	3196.88
276.91	3311.57
277.12	3766.21
277.34	3188.69
277.55	3286.99
277.77	3504.07
277.99	3389.39
278.20	3153.87
278.42	3039.19
278.63	3284.94
278.85	3213.26
279.06	3117.01
279.28	3139.54
279.49	3676.10
279.71	3680.20
279.93	3250.13
280.14	3149.78
280.36	3280.85
280.57	3639.24
280.79	3198.93
281.00	2951.12
281.22	3319.76
281.43	3698.63
281.65	3000.27
281.86	3010.51
282.08	3493.83
282.29	3901.38
282.51	2965.46
282.73	3090.38
282.94	3076.05
283.16	3604.42
283.37	3155.92
283.59	3119.06
283.80	3506.12
284.02	3381.20
284.23	3192.78
284.45	3098.58
284.66	3286.99
284.88	3336.14
285.09	3018.71
285.31	3188.69
285.52	3520.46
285.74	3151.82
285.95	3286.99
286.17	3207.12
286.38	3661.77
286.60	3246.03
286.81	3041.23
287.03	3096.53
287.24	3405.77
287.46	3528.65
287.67	3213.26
287.89	3276.75
288.10	3348.43
288.32	3418.06
288.53	3164.11
288.75	3157.97
288.96	3583.95
289.18	3338.19
289.39	2977.75
289.61	3153.87
289.82	3915.72
290.04	3868.61
290.25	2975.70
290.47	3100.62
290.68	3389.39
290.90	3633.10
291.11	2897.88
291.33	3291.09
291.54	3268.56
291.76	3215.31
291.97	3321.81
292.18	3098.58
292.40	3323.85
292.61	3254.22
292.83	3385.29
293.04	3125.20
293.26	3436.49
293.47	3344.33
293.69	3059.67
293.90	3014.61
294.12	3688.39
294.33	3338.19
294.55	3114.96
294.76	3286.99
294.97	3780.55
295.19	3919.81
295.40	3125.20
295.62	3248.08
295.83	3659.72
296.05	3192.78
296.26	3323.85
296.48	3100.62
296.69	3428.30
296.90	3493.83
297.12	3264.46
297.33	3223.50
297.55	3489.74
297.76	3555.27
297.98	3178.45
298.19	3309.52
298.41	3340.24
298.62	3311.57
298.83	3291.09
299.05	3190.74
299.26	3334.09
299.48	3264.46
299.69	3205.07
299.90	3090.38
300.12	3209.17
300.33	3672.01
300.55	3190.74
300.76	3205.07
300.98	3221.45
301.19	3456.97
301.40	3090.38
301.62	3082.19
301.83	3596.23
302.05	3413.96
302.26	3108.82
302.47	3243.98
302.69	3178.45
302.90	3524.55
303.12	2975.70
303.33	3262.41
303.54	3846.09
303.76	3362.76
303.97	3055.57
304.19	3284.94
304.40	3203.02
304.61	3516.36
304.83	3155.92
305.04	3153.87
305.26	3557.32
305.47	3348.43
305.68	3096.53
305.90	3006.42
306.11	3665.86
306.33	3385.29
306.54	2936.79
306.75	3059.67
306.97	3039.19
307.18	3325.90
307.39	3043.28
307.61	3119.06
307.82	3438.54
308.04	3540.94
308.25	2885.59
308.46	3311.57
308.68	3495.88
308.89	3479.50
309.10	3252.17
309.32	3188.69
309.53	3405.77
309.74	3469.26
309.96	3008.47
310.17	3219.41
310.39	3366.86
310.60	3651.53
310.81	3133.39
311.03	3100.62
311.24	3590.09
311.45	3426.25
311.67	3370.96
311.88	3246.03
312.09	3368.91
312.31	3286.99
312.52	3022.80
312.73	3076.05
312.95	3190.74
313.16	3225.55
313.37	3270.61
313.59	3303.37
313.80	3600.33
314.01	3811.27
314.23	3164.11
314.44	3067.86
314.65	3160.02
314.87	3295.18
315.08	3141.58
315.29	3151.82
315.51	3270.61
315.72	3184.59
315.93	3106.77
316.15	3063.76
316.36	3327.95
316.57	3461.07
316.79	3055.57
317.00	3008.47
317.21	3551.18
317.43	3252.17
317.64	3108.82
317.85	3098.58
318.07	3270.61
318.28	3368.91
318.49	3166.16
318.70	3342.28
318.92	3553.23
319.13	3508.17
319.34	3252.17
319.56	3024.85
319.77	3583.95
319.98	3590.09
320.20	3413.96
320.41	3340.24
320.62	3561.42
320.83	3164.11
321.05	3307.47
321.26	3139.54
321.47	3510.22
321.69	3682.25
321.90	2967.51
322.11	3069.91
322.32	3524.55
322.54	3749.83
322.75	3119.06
322.96	4216.77
323.18	3059.67
323.39	2983.89
323.60	3004.37
323.81	3223.50
324.03	3282.89
324.24	3516.36
324.45	3200.98
324.66	3000.27
324.88	3653.58
325.09	3917.76
325.30	3123.15
325.52	3078.10
325.73	3504.07
325.94	3262.41
326.15	2992.08
326.37	2985.94
326.58	3631.05
326.79	3811.27
327.00	3004.37
327.22	3041.23
327.43	3377.10
327.64	3196.88
327.85	3241.93
328.07	3147.73
328.28	3852.23
328.49	3311.57
328.70	3106.77
328.92	3108.82
329.13	3434.44
329.34	3573.71
329.55	3352.52
329.76	3164.11
329.98	3368.91
330.19	3676.10
330.40	3213.26
330.61	3198.93
330.83	3626.95
331.04	3213.26
331.25	3207.12
331.46	3166.16
331.68	3192.78
331.89	3766.21
332.10	3086.29
332.31	2897.88
332.52	3430.35
332.74	3688.39
332.95	2969.55
333.16	3106.77
333.37	3674.06
333.58	3370.96
333.80	3094.48
334.01	2938.84
334.22	3391.44
334.43	3340.24
334.64	2983.89
334.86	3051.47
335.07	3262.41
335.28	3819.46
335.49	2998.23
335.70	3182.54
335.92	3655.62
336.13	3950.53
336.34	3094.48
336.55	3059.67
336.76	3577.80
336.98	2992.08
337.19	3119.06
337.40	3149.78
337.61	4007.87
337.82	3405.77
338.04	3205.07
338.25	3035.09
338.46	3442.64
338.67	3446.73
338.88	3000.27
339.09	2951.12
339.31	3278.80
339.52	3192.78
339.73	2992.08
339.94	3088.34
340.15	3563.47
340.36	3291.09
340.58	3205.07
340.79	3065.81
341.00	3614.66
341.21	3178.45
341.42	3344.33
341.63	3045.33
341.85	3669.96
342.06	3518.41
342.27	3037.14
342.48	3256.27
342.69	3168.21
342.90	3631.05
343.12	3493.83
343.33	3047.38
343.54	3637.19
343.75	3725.26
343.96	3334.09
344.17	2953.17
344.38	3424.20
344.60	3282.89
344.81	3065.81
345.02	3141.58
345.23	3680.20
345.44	4046.79
345.65	3186.64
345.86	3149.78
346.07	3477.45
346.29	3321.81
346.50	3209.17
346.71	3135.44
346.92	3749.83
347.13	3940.29
347.34	3243.98
347.55	2961.36
347.76	3481.55
347.98	3117.01
348.19	3149.78
348.40	3258.32
348.61	3344.33
348.82	3747.78
349.03	3205.07
349.24	3012.56
349.45	3854.28
349.66	2977.75
349.88	3076.05
350.09	2971.60
350.30	3749.83
350.51	3688.39
350.72	3286.99
350.93	3049.43
351.14	3323.85
351.35	3520.46
351.56	3082.19
351.77	3205.07
351.99	3575.75
352.20	3770.31
352.41	3241.93
352.62	2924.50
352.83	3358.67
353.04	3393.48
353.25	3131.34
353.46	3149.78
353.67	3715.02
353.88	3082.19
354.09	2934.74
354.30	3190.74
354.52	3524.55
354.73	3393.48
354.94	3057.62
355.15	3129.30
355.36	3874.76
355.57	3346.38
355.78	2979.79
355.99	3065.81
356.20	3317.71
356.41	3704.78
356.62	3205.07
356.83	3139.54
357.04	3733.45
357.25	3112.91
357.46	3061.71
357.68	2967.51
357.89	3241.93
358.10	3436.49
358.31	3088.34
358.52	3110.86
358.73	3239.89
358.94	3293.13
359.15	3067.86
359.36	3145.68
359.57	3516.36
359.78	3354.57
359.99	3356.62
360.20	2953.17
360.41	3409.87
360.62	3557.32
360.83	3162.06
361.04	3112.91
361.25	3555.27
361.46	3772.36
361.67	3172.30
361.88	3092.43
362.09	3604.42
362.30	3528.65
362.51	2961.36
362.72	3192.78
362.93	3594.19
363.14	3553.23
363.35	3213.26
363.56	3012.56
363.78	3708.87
363.99	3622.86
364.20	3051.47
364.41	3104.72
364.62	3768.26
364.83	3567.56
365.04	3151.82
365.25	3145.68
365.46	3944.39
365.67	3233.74
365.88	3338.19
366.09	3114.96
366.30	3284.94
366.51	3416.01
366.72	2967.51
366.93	3127.25
367.14	3459.02
367.35	3731.40
367.56	3012.56
367.77	3203.02
367.98	3475.40
368.18	3614.66
368.39	3241.93
368.60	3092.43
368.81	3733.45
369.02	3459.02
369.23	3119.06
369.44	2953.17
369.65	3327.95
369.86	3573.71
370.07	3311.57
370.28	3020.75
370.49	3481.55
370.70	3502.03
370.91	3035.09
371.12	2987.99
371.33	3661.77
371.54	3241.93
371.75	3225.55
371.96	2842.58
372.17	3528.65
372.38	3487.69
372.59	3119.06
372.80	3092.43
373.01	3461.07
373.22	3448.78
373.43	3049.43
373.64	2992.08
373.85	3815.37
374.06	3848.13
374.26	3221.45
374.47	3213.26
374.68	3704.78
374.89	3407.82
375.10	3057.62
375.31	3123.15
375.52	3454.92
375.73	3516.36
375.94	2951.12
376.15	3207.12
376.36	3299.28
376.57	3307.47
376.78	3196.88
376.99	3106.77
377.20	3741.64
377.40	3442.64
377.61	3409.87
377.82	3143.63
378.03	3712.97
378.24	3649.48
378.45	3205.07
378.66	3186.64
378.87	3086.29
379.08	3162.06
379.29	3067.86
379.50	3248.08
379.71	3395.53
379.91	3608.52
380.12	3030.99
380.33	3188.69
380.54	3438.54
380.75	3495.88
380.96	3155.92
381.17	3157.97
381.38	3504.07
381.59	3407.82
381.80	3149.78
382.00	3317.71
382.21	3469.26
382.42	3891.14
382.63	3428.30
382.84	3239.89
383.05	3581.90
383.26	3753.93
383.47	3270.61
383.68	3129.30
383.88	3622.86
384.09	3489.74
384.30	3385.29
384.51	3266.51
384.72	3346.38
384.93	3135.44
385.14	3221.45
385.35	3469.26
385.55	3188.69
385.76	3780.55
385.97	3080.14
386.18	3041.23
386.39	3284.94
386.60	3368.91
386.81	3067.86
387.02	3008.47
387.22	3149.78
387.43	3635.14
387.64	3196.88
387.85	3303.37
388.06	3420.11
388.27	4308.93
388.48	7258.00
388.68	10790.75
388.89	13610.80
389.10	14776.09
389.31	14249.77
389.52	11673.42
389.73	10295.14
389.93	9561.97
390.14	8474.49
390.35	7882.63
390.56	7356.30
390.77	6320.03
390.98	4722.62
391.18	4063.17
391.39	3975.11
391.60	3512.27
391.81	3237.84
392.02	3182.54
392.23	3987.40
392.43	3608.52
392.64	3215.31
392.85	3293.13
393.06	3776.45
393.27	3446.73
393.47	3026.90
393.68	3200.98
393.89	3358.67
394.10	3723.21
394.31	3135.44
394.52	3024.85
394.72	3334.09
394.93	3805.13
395.14	2947.03
395.35	3235.79
395.56	3368.91
395.76	3405.77
395.97	3108.82
396.18	3227.60
396.39	3383.24
396.60	4128.70
396.80	3510.22
397.01	3436.49
397.22	3581.90
397.43	3665.86
397.64	3147.73
397.84	3194.83
398.05	3909.57
398.26	3459.02
398.47	3254.22
398.67	3411.92
398.88	3446.73
399.09	3590.09
399.30	3119.06
399.51	3196.88
399.71	3266.51
399.92	3426.25
400.13	3174.35
400.34	3082.19
400.54	3540.94
400.75	3794.89
400.96	3192.78
401.17	3405.77
401.37	3495.88
401.58	3456.97
401.79	3160.02
402.00	3188.69
402.21	3966.92
402.41	3518.41
402.62	3340.24
402.83	3540.94
403.04	3735.50
403.24	4102.08
403.45	3284.94
403.66	3424.20
403.87	3762.12
404.07	3704.78
404.28	3389.39
404.49	3450.83
404.70	3538.89
404.90	3579.85
405.11	3082.19
405.32	3192.78
405.52	3262.41
405.73	3223.50
405.94	3096.53
406.15	3174.35
406.35	3647.43
406.56	3624.90
406.77	3180.50
406.98	3074.00
407.18	3336.14
407.39	3727.30
407.60	3170.26
407.80	3246.03
408.01	3311.57
408.22	3557.32
408.43	3000.27
408.63	3280.85
408.84	3712.97
409.05	3614.66
409.25	3035.09
409.46	3221.45
409.67	3297.23
409.88	3260.37
410.08	3209.17
410.29	3102.67
410.50	3684.30
410.70	3590.09
410.91	3102.67
411.12	3231.69
411.32	3532.75
411.53	3262.41
411.74	3180.50
411.95	3239.89
412.15	3534.79
412.36	3504.07
412.57	3336.14
412.77	3319.76
412.98	3452.88
413.19	3395.53
413.39	3258.32
413.60	3149.78
413.81	3792.84
414.01	3180.50
414.22	3160.02
414.43	3295.18
414.63	3340.24
414.84	3614.66
415.05	3155.92
415.25	2963.41
415.46	3594.19
415.67	3352.52
415.87	3164.11
416.08	3149.78
416.29	3477.45
416.49	3588.04
416.70	3252.17
416.91	3160.02
417.11	3483.59
417.32	3655.62
417.53	3180.50
417.73	3266.51
417.94	3440.59
418.15	3360.72
418.35	3188.69
418.56	3198.93
418.77	4038.59
418.97	3395.53
419.18	3297.23
419.38	2889.68
419.59	3518.41
419.80	3737.54
420.00	3092.43
420.21	3188.69
420.42	3723.21
420.62	3542.99
420.83	3209.17
421.04	3141.58
421.24	3418.06
421.45	3639.24
421.65	3174.35
421.86	3162.06
422.07	3563.47
422.27	3598.28
422.48	3012.56
422.69	2940.88
422.89	3348.43
423.10	3342.28
423.30	3137.49
423.51	3147.73
423.72	3510.22
423.92	3610.57
424.13	2996.18
424.33	3264.46
424.54	3723.21
424.75	3495.88
424.95	3377.10
425.16	3117.01
425.36	3317.71
425.57	3659.72
425.78	3330.00
425.98	3321.81
426.19	3416.01
426.39	3223.50
426.60	3237.84
426.81	3176.40
427.01	3604.42
427.22	3176.40
427.42	2910.16
427.63	3125.20
427.83	3631.05
428.04	3852.23
428.25	3213.26
428.45	3182.54
428.66	3690.44
428.86	3448.78
429.07	3172.30
429.28	3106.77
429.48	3454.92
429.69	3272.65
429.89	3213.26
430.10	3012.56
430.30	3614.66
430.51	3706.82
430.71	3045.33
430.92	3237.84
431.13	3270.61
431.33	3608.52
431.54	3196.88
431.74	3387.34
431.95	3952.58
432.15	3198.93
432.36	3125.20
432.56	3141.58
432.77	3821.51
432.98	3827.65
433.18	3297.23
433.39	3043.28
433.59	3336.14
433.80	3854.28
434.00	3309.52
434.21	3149.78
434.41	3205.07
434.62	3946.44
434.82	2981.84
435.03	3155.92
435.23	3518.41
435.44	3057.62
435.64	3082.19
435.85	3223.50
436.06	3690.44
436.26	3688.39
436.47	3153.87
436.67	3078.10
436.88	3368.91
437.08	3739.59
437.29	3241.93
437.49	3305.42
437.70	3674.06
437.90	3383.24
438.11	3383.24
438.31	3219.41
438.52	3729.35
438.72	3553.23
438.93	3512.27
439.13	3168.21
439.34	3604.42
439.54	3305.42
439.75	3311.57
439.95	3293.13
440.16	3239.89
440.36	3463.12
440.57	3155.92
440.77	3205.07
440.98	3377.10
441.18	3502.03
441.39	3020.75
441.59	3045.33
441.80	3911.62
442.00	3381.20
442.21	3188.69
442.41	2983.89
442.62	3618.76
442.82	3340.24
443.02	3157.97
443.23	3248.08
443.43	3389.39
443.64	3731.40
443.84	3022.80
444.05	3280.85
444.25	3452.88
444.46	3420.11
444.66	3084.24
444.87	3352.52
445.07	3141.58
445.28	3411.92
445.48	3342.28
445.69	3198.93
445.89	4018.11
446.09	3389.39
446.30	3502.03
446.50	3553.23
446.71	4988.85
446.91	6125.47
447.12	6934.42
447.32	7331.73
447.53	7329.68
447.73	6309.79
447.93	5345.20
448.14	5216.18
448.34	5484.46
448.55	4446.14
448.75	4487.10
448.96	4126.66
449.16	4100.03
449.36	4040.64
449.57	3389.39
449.77	3188.69
449.98	3313.61
450.18	3616.71
450.39	3112.91
450.59	3442.64
450.79	3381.20
451.00	3340.24
451.20	3405.77
451.41	3133.39
451.61	3592.14
451.81	3303.37
452.02	3123.15
452.22	3182.54
452.43	3280.85
