SpectraSuite Data File
++++++++++++++++++++++++++++++++++++
Date: Fri May 06 09:29:04 CEST 2016
User: root
Dark Spectrum Present: No
Reference Spectrum Present: No
Number of Sampled Component Spectra: 1
Spectrometers: USB4C02835
Integration Time (usec): 100000 (USB4C02835)
Spectra Averaged: 1 (USB4C02835)
Boxcar Smoothing: 0 (USB4C02835)
Correct for Electrical Dark: No (USB4C02835)
Strobe/Lamp Enabled: No (USB4C02835)
Correct for Detector Non-linearity: No (USB4C02835)
Correct for Stray Light: No (USB4C02835)
Number of Pixels in Processed Spectrum: 3648
>>>>>Begin Processed Spectral Data<<<<<
177.47	2316.25
177.69	2316.25
177.91	2316.25
178.13	2328.54
178.36	2289.63
178.58	3155.92
178.80	3246.03
179.02	3160.02
179.24	3098.58
179.46	2848.72
179.68	2895.83
179.90	3416.01
180.13	3432.40
180.35	2770.90
180.57	2873.30
180.79	3588.04
181.01	3454.92
181.23	2979.79
181.45	3037.14
181.67	3635.14
181.90	3651.53
182.12	2996.18
182.34	2811.86
182.56	3573.71
182.78	3502.03
183.00	2967.51
183.22	2983.89
183.44	3069.91
183.66	4059.07
183.89	3182.54
184.11	2944.98
184.33	3534.79
184.55	3745.73
184.77	2928.60
184.99	3018.71
185.21	3348.43
185.43	3975.11
185.65	2981.84
185.87	2961.36
186.10	4005.83
186.32	4050.88
186.54	3086.29
186.76	3055.57
186.98	3610.57
187.20	3475.40
187.42	3000.27
187.64	2920.40
187.86	3559.37
188.08	3606.47
188.30	2869.20
188.52	3041.23
188.75	3788.74
188.97	3680.20
189.19	2940.88
189.41	2881.49
189.63	3483.59
189.85	3301.33
190.07	2809.81
190.29	2811.86
190.51	3547.08
190.73	3209.17
190.95	3145.68
191.17	2992.08
191.39	3184.59
191.61	3348.43
191.84	2973.65
192.06	3147.73
192.28	3074.00
192.50	4169.66
192.72	3196.88
192.94	3059.67
193.16	3655.62
193.38	3575.75
193.60	2867.16
193.82	3133.39
194.04	3721.16
194.26	3581.90
194.48	3074.00
194.70	2983.89
194.92	3289.04
195.14	3690.44
195.36	2936.79
195.58	3059.67
195.80	3411.92
196.02	3354.57
196.24	2936.79
196.46	3090.38
196.69	3358.67
196.91	4024.26
197.13	2957.27
197.35	2975.70
197.57	3860.42
197.79	3592.14
198.01	3069.91
198.23	2951.12
198.45	3573.71
198.67	3221.45
198.89	2811.86
199.11	3041.23
199.33	3246.03
199.55	3024.85
199.77	2973.65
199.99	3137.49
200.21	3342.28
200.43	3473.36
200.65	2797.53
200.87	2846.68
201.09	3540.94
201.31	3409.87
201.53	3055.57
201.75	3065.81
201.97	3452.88
202.19	3434.44
202.41	3090.38
202.63	3059.67
202.85	3579.85
203.07	3557.32
203.29	3049.43
203.51	2830.29
203.73	3309.52
203.95	4108.23
204.17	3002.32
204.39	3106.77
204.61	3385.29
204.83	3401.68
205.05	3203.02
205.27	2889.68
205.49	3966.92
205.71	3381.20
205.93	2791.38
206.15	2852.82
206.37	3409.87
206.59	3456.97
206.81	2803.67
207.03	2840.53
207.25	3205.07
207.47	3522.51
207.69	2971.60
207.91	3258.32
208.13	3868.61
208.34	3327.95
208.56	2975.70
208.78	2967.51
209.00	3401.68
209.22	3401.68
209.44	2959.31
209.66	2969.55
209.88	3444.68
210.10	3360.72
210.32	2904.02
210.54	3033.04
210.76	3325.90
210.98	3704.78
211.20	2832.34
211.42	3090.38
211.64	3762.12
211.86	3569.61
212.08	3074.00
212.30	2908.12
212.52	3385.29
212.74	3567.56
212.96	2994.13
213.17	3012.56
213.39	3688.39
213.61	3807.17
213.83	2924.50
214.05	2791.38
214.27	3674.06
214.49	3258.32
214.71	2895.83
214.93	3071.95
215.15	3379.15
215.37	3659.72
215.59	2836.44
215.81	2994.13
216.03	3803.08
216.24	3516.36
216.46	2961.36
216.68	3051.47
216.90	3547.08
217.12	3674.06
217.34	3018.71
217.56	3166.16
217.78	3684.30
218.00	3514.31
218.22	3082.19
218.44	3090.38
218.66	3528.65
218.87	3811.27
219.09	2998.23
219.31	2949.08
219.53	3510.22
219.75	3375.05
219.97	3033.04
220.19	2987.99
220.41	3481.55
220.63	3762.12
220.85	2985.94
221.06	2965.46
221.28	3696.58
221.50	3590.09
221.72	2947.03
221.94	2838.48
222.16	3481.55
222.38	3583.95
222.60	2977.75
222.82	2953.17
223.03	3663.82
223.25	3133.39
223.47	2975.70
223.69	3196.88
223.91	3522.51
224.13	3522.51
224.35	2820.05
224.57	3231.69
224.78	3608.52
225.00	3215.31
225.22	3104.72
225.44	2877.40
225.66	3590.09
225.88	3395.53
226.10	3205.07
226.32	2951.12
226.53	3772.36
226.75	3411.92
226.97	2985.94
227.19	2985.94
227.41	3243.98
227.63	3366.86
227.85	2748.37
228.06	3065.81
228.28	3526.60
228.50	3635.14
228.72	2770.90
228.94	2914.26
229.16	3069.91
229.37	3182.54
229.59	2967.51
229.81	3301.33
230.03	3346.38
230.25	3213.26
230.47	2781.14
230.69	2918.36
230.90	3667.91
231.12	3123.15
231.34	3053.52
231.56	3151.82
231.78	3291.09
232.00	3471.31
232.21	3082.19
232.43	3045.33
232.65	2965.46
232.87	3489.74
233.09	2863.06
233.30	2891.73
233.52	3559.37
233.74	3499.98
233.96	2942.93
234.18	3209.17
234.40	3475.40
234.61	4016.07
234.83	2777.05
235.05	2940.88
235.27	4063.17
235.49	3690.44
235.70	2856.92
235.92	2975.70
236.14	3657.67
236.36	3975.11
236.58	2818.00
236.79	3051.47
237.01	3424.20
237.23	3536.84
237.45	3180.50
237.67	3035.09
237.88	3540.94
238.10	3866.56
238.32	2895.83
238.54	2899.92
238.76	3463.12
238.97	3239.89
239.19	2813.91
239.41	2975.70
239.63	3803.08
239.85	3282.89
240.06	3065.81
240.28	2861.01
240.50	3698.63
240.72	3440.59
240.93	2926.55
241.15	3176.40
241.37	3489.74
241.59	3827.65
241.81	3030.99
242.02	3133.39
242.24	3442.64
242.46	3516.36
242.68	2770.90
242.89	2861.01
243.11	3643.34
243.33	3370.96
243.55	2959.31
243.76	2973.65
243.98	3254.22
244.20	3442.64
244.42	3016.66
244.64	2936.79
244.85	3223.50
245.07	3266.51
245.29	2955.22
245.51	3051.47
245.72	3479.50
245.94	3575.75
246.16	2947.03
246.38	2979.79
246.59	3342.28
246.81	3286.99
247.03	2883.54
247.24	2785.24
247.46	3336.14
247.68	3485.64
247.90	2934.74
248.11	2944.98
248.33	3545.03
248.55	3356.62
248.77	2977.75
248.98	3080.14
249.20	3829.70
249.42	3483.59
249.64	2908.12
249.85	2967.51
250.07	3330.00
250.29	3620.81
250.50	3076.05
250.72	2875.35
250.94	3491.79
251.16	3950.53
251.37	2975.70
251.59	3030.99
251.81	3585.99
252.02	3764.17
252.24	2873.30
252.46	3059.67
252.68	3299.28
252.89	3332.05
253.11	2852.82
253.33	3012.56
253.54	3770.31
253.76	3252.17
253.98	2922.45
254.20	2969.55
254.41	3114.96
254.63	3405.77
254.85	2852.82
255.06	3037.14
255.28	3590.09
255.50	3313.61
255.71	2918.36
255.93	2772.95
256.15	3336.14
256.36	3618.76
256.58	2824.15
256.80	2828.24
257.02	3469.26
257.23	3323.85
257.45	2983.89
257.67	3106.77
257.88	3315.66
258.10	3549.13
258.32	2914.26
258.53	3041.23
258.75	3829.70
258.97	3254.22
259.18	2836.44
259.40	2979.79
259.62	3813.32
259.83	3788.74
260.05	3006.42
260.27	3887.04
260.48	3692.49
260.70	3237.84
260.92	2799.57
261.13	3059.67
261.35	3508.17
261.57	3614.66
261.78	2811.86
262.00	2938.84
262.22	3540.94
262.43	3342.28
262.65	2963.41
262.86	2961.36
263.08	4112.32
263.30	3469.26
263.51	2824.15
263.73	2918.36
263.95	3721.16
264.16	3237.84
264.38	2869.20
264.60	2838.48
264.81	3446.73
265.03	3747.78
265.25	3409.87
265.46	2924.50
265.68	3723.21
265.89	3614.66
266.11	2865.11
266.33	2959.31
266.54	3704.78
266.76	3561.42
266.98	3110.86
267.19	3149.78
267.41	3694.54
267.62	3352.52
267.84	2822.10
268.06	3098.58
268.27	3549.13
268.49	3731.40
268.70	3022.80
268.92	3024.85
269.14	3246.03
269.35	3188.69
269.57	3106.77
269.79	3030.99
270.00	3301.33
270.22	3856.33
270.43	2891.73
270.65	2869.20
270.87	3452.88
271.08	3655.62
271.30	3149.78
271.51	2949.08
271.73	3538.89
271.95	3749.83
272.16	2920.40
272.38	3106.77
272.59	3420.11
272.81	3532.75
273.02	2918.36
273.24	3045.33
273.46	3708.87
273.67	3147.73
273.89	2879.44
274.10	2889.68
274.32	3706.82
274.54	3442.64
274.75	2990.03
274.97	3088.34
275.18	3612.62
275.40	3545.03
275.61	3045.33
275.83	3147.73
276.05	3248.08
276.26	3475.40
276.48	3020.75
276.69	3090.38
276.91	3258.32
277.12	3768.26
277.34	3166.16
277.55	3205.07
277.77	3499.98
277.99	3413.96
278.20	3106.77
278.42	2977.75
278.63	3315.66
278.85	3229.65
279.06	3127.25
279.28	3174.35
279.49	3688.39
279.71	3571.66
279.93	3110.86
280.14	3114.96
280.36	3221.45
280.57	3618.76
280.79	3182.54
281.00	2959.31
281.22	3336.14
281.43	3688.39
281.65	2920.40
281.86	2963.41
282.08	3577.80
282.29	3876.80
282.51	3024.85
282.73	3010.51
282.94	3151.82
283.16	3667.91
283.37	3151.82
283.59	3123.15
283.80	3467.21
284.02	3348.43
284.23	3125.20
284.45	3215.31
284.66	3084.24
284.88	3227.60
285.09	3020.75
285.31	3250.13
285.52	3536.84
285.74	3125.20
285.95	3346.38
286.17	3162.06
286.38	3708.87
286.60	3274.70
286.81	3041.23
287.03	2969.55
287.24	3379.15
287.46	3522.51
287.67	3203.02
287.89	3303.37
288.10	3442.64
288.32	3444.68
288.53	3172.30
288.75	3166.16
288.96	3549.13
289.18	3256.27
289.39	3010.51
289.61	3180.50
289.82	3858.37
290.04	3919.81
290.25	3008.47
290.47	3205.07
290.68	3446.73
290.90	3727.30
291.11	2803.67
291.33	3286.99
291.54	3319.76
291.76	3252.17
291.97	3168.21
292.18	3248.08
292.40	3368.91
292.61	3286.99
292.83	3364.81
293.04	3094.48
293.26	3469.26
293.47	3340.24
293.69	3053.52
293.90	3028.95
294.12	3602.38
294.33	3536.84
294.55	3145.68
294.76	3352.52
294.97	3717.06
295.19	3946.44
295.40	3041.23
295.62	3225.55
295.83	3530.70
296.05	3295.18
296.26	3473.36
296.48	3051.47
296.69	3436.49
296.90	3438.54
297.12	3180.50
297.33	3289.04
297.55	3469.26
297.76	3569.61
297.98	3205.07
298.19	3299.28
298.41	3397.58
298.62	3256.27
298.83	3262.41
299.05	3172.30
299.26	3327.95
299.48	3233.74
299.69	3211.22
299.90	3043.28
300.12	3299.28
300.33	3493.83
300.55	3127.25
300.76	3149.78
300.98	3248.08
301.19	3661.77
301.40	3078.10
301.62	3065.81
301.83	3684.30
302.05	3512.27
302.26	3106.77
302.47	3248.08
302.69	3264.46
302.90	3471.31
303.12	3020.75
303.33	3227.60
303.54	3911.62
303.76	3381.20
303.97	3043.28
304.19	3295.18
304.40	3237.84
304.61	3502.03
304.83	3178.45
305.04	3160.02
305.26	3553.23
305.47	3379.15
305.68	3094.48
305.90	2889.68
306.11	3753.93
306.33	3403.72
306.54	3043.28
306.75	3037.14
306.97	3133.39
307.18	3239.89
307.39	3069.91
307.61	3215.31
307.82	3469.26
308.04	3522.51
308.25	2994.13
308.46	3254.22
308.68	3397.58
308.89	3420.11
309.10	3145.68
309.32	3155.92
309.53	3469.26
309.74	3626.95
309.96	2959.31
310.17	3237.84
310.39	3354.57
310.60	3602.38
310.81	3114.96
311.03	3065.81
311.24	3604.42
311.45	3393.48
311.67	3344.33
311.88	3162.06
312.09	3307.47
312.31	3346.38
312.52	3020.75
312.73	3074.00
312.95	3207.12
313.16	3237.84
313.37	3289.04
313.59	3297.23
313.80	3633.10
314.01	3661.77
314.23	3137.49
314.44	2992.08
314.65	3147.73
314.87	3270.61
315.08	3043.28
315.29	3110.86
315.51	3178.45
315.72	3092.43
315.93	3147.73
316.15	3123.15
316.36	3358.67
316.57	3491.79
316.79	3090.38
317.00	3098.58
317.21	3665.86
317.43	3215.31
317.64	3178.45
317.85	3016.66
318.07	3280.85
318.28	3422.16
318.49	3262.41
318.70	3248.08
318.92	3469.26
319.13	3532.75
319.34	3233.74
319.56	3100.62
319.77	3520.46
319.98	3626.95
320.20	3370.96
320.41	3205.07
320.62	3479.50
320.83	3198.93
321.05	3237.84
321.26	3117.01
321.47	3497.93
321.69	3680.20
321.90	3037.14
322.11	3074.00
322.32	3481.55
322.54	3778.50
322.75	3164.11
322.96	4138.94
323.18	3123.15
323.39	3008.47
323.60	2944.98
323.81	3190.74
324.03	3368.91
324.24	3510.22
324.45	3250.13
324.66	3016.66
324.88	3624.90
325.09	3876.80
325.30	3008.47
325.52	3043.28
325.73	3606.47
325.94	3356.62
326.15	2934.74
326.37	2959.31
326.58	3608.52
326.79	3866.56
327.00	3053.52
327.22	3098.58
327.43	3389.39
327.64	3295.18
327.85	3243.98
328.07	3084.24
328.28	3948.48
328.49	3397.58
328.70	3141.58
328.92	3061.71
329.13	3348.43
329.34	3557.32
329.55	3356.62
329.76	3198.93
329.98	3391.44
330.19	3661.77
330.40	3196.88
330.61	3219.41
330.83	3553.23
331.04	3270.61
331.25	3217.36
331.46	3190.74
331.68	3194.83
331.89	3633.10
332.10	3147.73
332.31	2977.75
332.52	3502.03
332.74	3698.63
332.95	2918.36
333.16	3063.76
333.37	3641.29
333.58	3319.76
333.80	3104.72
334.01	2877.40
334.22	3430.35
334.43	3307.47
334.64	3090.38
334.86	3108.82
335.07	3319.76
335.28	3751.88
335.49	3074.00
335.70	3121.10
335.92	3782.60
336.13	3991.49
336.34	3106.77
336.55	3069.91
336.76	3573.71
336.98	2975.70
337.19	3057.62
337.40	3188.69
337.61	4011.97
337.82	3467.21
338.04	3200.98
338.25	2901.97
338.46	3330.00
338.67	3356.62
338.88	3100.62
339.09	3010.51
339.31	3299.28
339.52	3209.17
339.73	3043.28
339.94	3160.02
340.15	3645.38
340.36	3280.85
340.58	3221.45
340.79	3037.14
341.00	3547.08
341.21	3162.06
341.42	3373.00
341.63	3100.62
341.85	3672.01
342.06	3489.74
342.27	2981.84
342.48	3217.36
342.69	3221.45
342.90	3508.17
343.12	3592.14
343.33	2979.79
343.54	3639.24
343.75	3831.75
343.96	3155.92
344.17	3045.33
344.38	3413.96
344.60	3278.80
344.81	2987.99
345.02	3188.69
345.23	3704.78
345.44	4011.97
345.65	3252.17
345.86	3209.17
346.07	3577.80
346.29	3325.90
346.50	3303.37
346.71	3176.40
346.92	3721.16
347.13	3997.64
347.34	3186.64
347.55	2983.89
347.76	3463.12
347.98	3141.58
348.19	3166.16
348.40	3194.83
348.61	3284.94
348.82	3727.30
349.03	3250.13
349.24	2969.55
349.45	3850.18
349.66	2987.99
349.88	3045.33
350.09	3026.90
350.30	3755.97
350.51	3704.78
350.72	3317.71
350.93	3041.23
351.14	3397.58
351.35	3489.74
351.56	3157.97
351.77	3213.26
351.99	3534.79
352.20	3704.78
352.41	3274.70
352.62	2934.74
352.83	3440.59
353.04	3471.31
353.25	3203.02
353.46	3160.02
353.67	3649.48
353.88	3074.00
354.09	3018.71
354.30	3203.02
354.52	3551.18
354.73	3411.92
354.94	3016.66
355.15	3180.50
355.36	3897.28
355.57	3248.08
355.78	3053.52
355.99	3067.86
356.20	3432.40
356.41	3782.60
356.62	3254.22
356.83	3196.88
357.04	3745.73
357.25	3065.81
357.46	2975.70
357.68	2975.70
357.89	3278.80
358.10	3411.92
358.31	3137.49
358.52	3092.43
358.73	3233.74
358.94	3207.12
359.15	3051.47
359.36	3125.20
359.57	3434.44
359.78	3420.11
359.99	3309.52
360.20	2969.55
360.41	3459.02
360.62	3549.13
360.83	3176.40
361.04	3155.92
361.25	3551.18
361.46	3760.07
361.67	3270.61
361.88	3131.34
362.09	3637.19
362.30	3483.59
362.51	3002.32
362.72	3129.30
362.93	3674.06
363.14	3465.16
363.35	3114.96
363.56	3020.75
363.78	3647.43
363.99	3557.32
364.20	3061.71
364.41	3237.84
364.62	3829.70
364.83	3526.60
365.04	3123.15
365.25	3131.34
365.46	3938.24
365.67	3270.61
365.88	3313.61
366.09	3164.11
366.30	3336.14
366.51	3524.55
366.72	3002.32
366.93	3057.62
367.14	3489.74
367.35	3794.89
367.56	3061.71
367.77	3237.84
367.98	3405.77
368.18	3583.95
368.39	3233.74
368.60	3092.43
368.81	3485.64
369.02	3485.64
369.23	3182.54
369.44	3012.56
369.65	3373.00
369.86	3540.94
370.07	3291.09
370.28	3022.80
370.49	3569.61
370.70	3411.92
370.91	3014.61
371.12	2975.70
371.33	3680.20
371.54	3291.09
371.75	3229.65
371.96	2762.71
372.17	3485.64
372.38	3381.20
372.59	3194.83
372.80	3047.38
373.01	3432.40
373.22	3502.03
373.43	3114.96
373.64	2944.98
373.85	3778.50
374.06	3844.04
374.26	3278.80
374.47	3260.37
374.68	3721.16
374.89	3446.73
375.10	3112.91
375.31	3235.79
375.52	3420.11
375.73	3452.88
375.94	2961.36
376.15	3147.73
376.36	3250.13
376.57	3381.20
376.78	3112.91
376.99	3114.96
377.20	3741.64
377.40	3305.42
377.61	3387.34
377.82	3094.48
378.03	3708.87
378.24	3712.97
378.45	3174.35
378.66	3188.69
378.87	3149.78
379.08	3157.97
379.29	3145.68
379.50	3313.61
379.71	3358.67
379.91	3680.20
380.12	3086.29
380.33	3223.50
380.54	3459.02
380.75	3403.72
380.96	3155.92
381.17	3149.78
381.38	3393.48
381.59	3459.02
381.80	3190.74
382.00	3286.99
382.21	3422.16
382.42	3725.26
382.63	3463.12
382.84	3237.84
383.05	3633.10
383.26	3755.97
383.47	3229.65
383.68	3055.57
383.88	3602.38
384.09	3426.25
384.30	3327.95
384.51	3176.40
384.72	3330.00
384.93	3176.40
385.14	3225.55
385.35	3456.97
385.55	3049.43
385.76	3678.15
385.97	3090.38
386.18	2983.89
386.39	3262.41
386.60	3289.04
386.81	3133.39
387.02	2998.23
387.22	3160.02
387.43	3559.37
387.64	3213.26
387.85	3330.00
388.06	3373.00
388.27	4360.13
388.48	7255.95
388.68	11026.26
388.89	13549.36
389.10	14837.53
389.31	14290.73
389.52	11642.70
389.73	10137.45
389.93	9406.32
390.14	8451.97
390.35	7866.25
390.56	7514.00
390.77	6293.41
390.98	4687.80
391.18	4110.27
391.39	3975.11
391.60	3387.34
391.81	3426.25
392.02	3139.54
392.23	3975.11
392.43	3477.45
392.64	3086.29
392.85	3313.61
393.06	3807.17
393.27	3502.03
393.47	3114.96
393.68	3203.02
393.89	3334.09
394.10	3663.82
394.31	3153.87
394.52	3076.05
394.72	3227.60
394.93	3837.89
395.14	2987.99
395.35	3286.99
395.56	3327.95
395.76	3385.29
395.97	3127.25
396.18	3284.94
396.39	3350.48
396.60	4128.70
396.80	3483.59
397.01	3362.76
397.22	3514.31
397.43	3596.23
397.64	3098.58
397.84	3180.50
398.05	3831.75
398.26	3358.67
398.47	3297.23
398.67	3327.95
398.88	3487.69
399.09	3659.72
399.30	3102.67
399.51	3180.50
399.71	3315.66
399.92	3413.96
400.13	3174.35
400.34	3166.16
400.54	3438.54
400.75	3764.17
400.96	3172.30
401.17	3450.83
401.37	3590.09
401.58	3373.00
401.79	3149.78
402.00	3295.18
402.21	3936.20
402.41	3508.17
402.62	3528.65
402.83	3598.28
403.04	3776.45
403.24	4212.67
403.45	3246.03
403.66	3411.92
403.87	3610.57
404.07	3762.12
404.28	3389.39
404.49	3446.73
404.70	3545.03
404.90	3624.90
405.11	3205.07
405.32	3286.99
405.52	3323.85
405.73	3256.27
405.94	3063.76
406.15	3332.05
406.35	3637.19
406.56	3657.67
406.77	3147.73
406.98	3155.92
407.18	3301.33
407.39	3860.42
407.60	3143.63
407.80	3190.74
408.01	3430.35
408.22	3608.52
408.43	3008.47
408.63	3295.18
408.84	3704.78
409.05	3659.72
409.25	3082.19
409.46	3184.59
409.67	3309.52
409.88	3272.65
410.08	3108.82
410.29	3180.50
410.50	3647.43
410.70	3585.99
410.91	3098.58
411.12	3198.93
411.32	3405.77
411.53	3270.61
411.74	3114.96
411.95	3174.35
412.15	3459.02
412.36	3530.70
412.57	3278.80
412.77	3321.81
412.98	3434.44
413.19	3418.06
413.39	3246.03
413.60	3198.93
413.81	3790.79
414.01	3327.95
414.22	3213.26
414.43	3313.61
414.63	3301.33
414.84	3633.10
415.05	3286.99
415.25	3026.90
415.46	3588.04
415.67	3358.67
415.87	3184.59
416.08	3100.62
416.29	3379.15
416.49	3516.36
416.70	3207.12
416.91	3203.02
417.11	3411.92
417.32	3659.72
417.53	3256.27
417.73	3313.61
417.94	3473.36
418.15	3493.83
418.35	3162.06
418.56	3149.78
418.77	4030.40
418.97	3469.26
419.18	3303.37
419.38	2824.15
419.59	3532.75
419.80	3745.73
420.00	3084.24
420.21	3143.63
420.42	3790.79
420.62	3528.65
420.83	3178.45
421.04	3172.30
421.24	3459.02
421.45	3573.71
421.65	3131.34
421.86	3235.79
422.07	3700.68
422.27	3618.76
422.48	3082.19
422.69	2938.84
422.89	3416.01
423.10	3383.24
423.30	3047.38
423.51	3186.64
423.72	3565.51
423.92	3682.25
424.13	3041.23
424.33	3317.71
424.54	3606.47
424.75	3530.70
424.95	3344.33
425.16	3098.58
425.36	3399.63
425.57	3723.21
425.78	3354.57
425.98	3229.65
426.19	3479.50
426.39	3373.00
426.60	3340.24
426.81	3307.47
427.01	3577.80
427.22	3258.32
427.42	2971.60
427.63	3129.30
427.83	3639.24
428.04	3868.61
428.25	3229.65
428.45	3241.93
428.66	3672.01
428.86	3325.90
429.07	3168.21
429.28	3223.50
429.48	3401.68
429.69	3297.23
429.89	3268.56
430.10	3125.20
430.30	3549.13
430.51	3649.48
430.71	3094.48
430.92	3180.50
431.13	3319.76
431.33	3561.42
431.54	3272.65
431.74	3305.42
431.95	4005.83
432.15	3262.41
432.36	3135.44
432.56	3164.11
432.77	3930.05
432.98	3887.04
433.18	3289.04
433.39	3084.24
433.59	3428.30
433.80	3958.72
434.00	3200.98
434.21	3317.71
434.41	3336.14
434.62	3958.72
434.82	3033.04
435.03	3002.32
435.23	3493.83
435.44	3020.75
435.64	3059.67
435.85	3200.98
436.06	3641.29
436.26	3618.76
436.47	3147.73
436.67	3227.60
436.88	3385.29
437.08	3737.54
437.29	3262.41
437.49	3342.28
437.70	3733.45
437.90	3479.50
438.11	3338.19
438.31	3254.22
438.52	3706.82
438.72	3665.86
438.93	3499.98
439.13	3268.56
439.34	3590.09
439.54	3327.95
439.75	3334.09
439.95	3241.93
440.16	3231.69
440.36	3428.30
440.57	3172.30
440.77	3090.38
440.98	3561.42
441.18	3545.03
441.39	3065.81
441.59	3037.14
441.80	4007.87
442.00	3463.12
442.21	3250.13
442.41	3045.33
442.62	3739.59
442.82	3319.76
443.02	3200.98
443.23	3174.35
443.43	3379.15
443.64	3745.73
443.84	2981.84
444.05	3241.93
444.25	3420.11
444.46	3420.11
444.66	3094.48
444.87	3389.39
445.07	3047.38
445.28	3428.30
445.48	3319.76
445.69	3286.99
445.89	3958.72
446.09	3387.34
446.30	3467.21
446.50	3444.68
446.71	4958.13
446.91	6006.69
447.12	6752.15
447.32	7292.82
447.53	7384.98
447.73	6158.24
447.93	5392.30
448.14	5167.03
448.34	5384.11
448.55	4474.81
448.75	4392.89
448.96	4155.33
449.16	4192.19
449.36	4081.60
449.57	3444.68
449.77	3125.20
449.98	3383.24
450.18	3545.03
450.39	3094.48
450.59	3336.14
450.79	3405.77
451.00	3250.13
451.20	3418.06
451.41	3176.40
451.61	3518.41
451.81	3461.07
452.02	3078.10
452.22	3182.54
452.43	3305.42
