SpectraSuite Data File
++++++++++++++++++++++++++++++++++++
Date: Fri May 06 09:29:15 CEST 2016
User: root
Dark Spectrum Present: No
Reference Spectrum Present: No
Number of Sampled Component Spectra: 1
Spectrometers: USB4C02835
Integration Time (usec): 100000 (USB4C02835)
Spectra Averaged: 1 (USB4C02835)
Boxcar Smoothing: 0 (USB4C02835)
Correct for Electrical Dark: No (USB4C02835)
Strobe/Lamp Enabled: No (USB4C02835)
Correct for Detector Non-linearity: No (USB4C02835)
Correct for Stray Light: No (USB4C02835)
Number of Pixels in Processed Spectrum: 3648
>>>>>Begin Processed Spectral Data<<<<<
177.47	2281.44
177.69	2281.44
177.91	2281.44
178.13	2322.40
178.36	2301.92
178.58	3125.20
178.80	3239.89
179.02	3135.44
179.24	3231.69
179.46	2893.78
179.68	2852.82
179.90	3373.00
180.13	3481.55
180.35	2754.52
180.57	2869.20
180.79	3551.18
181.01	3411.92
181.23	3016.66
181.45	3151.82
181.67	3545.03
181.90	3661.77
182.12	3002.32
182.34	2762.71
182.56	3594.19
182.78	3594.19
183.00	2916.31
183.22	2936.79
183.44	3063.76
183.66	4196.29
183.89	3098.58
184.11	3010.51
184.33	3620.81
184.55	3770.31
184.77	2936.79
184.99	2985.94
185.21	3280.85
185.43	4073.41
185.65	2938.84
185.87	2936.79
186.10	3880.90
186.32	3981.25
186.54	3049.43
186.76	3067.86
186.98	3753.93
187.20	3370.96
187.42	2996.18
187.64	2867.16
187.86	3489.74
188.08	3710.92
188.30	2861.01
188.52	2994.13
188.75	3690.44
188.97	3721.16
189.19	2938.84
189.41	2967.51
189.63	3536.84
189.85	3428.30
190.07	2818.00
190.29	2811.86
190.51	3522.51
190.73	3139.54
190.95	3213.26
191.17	2967.51
191.39	3168.21
191.61	3438.54
191.84	2975.70
192.06	3112.91
192.28	3139.54
192.50	4188.10
192.72	3067.86
192.94	3106.77
193.16	3700.68
193.38	3559.37
193.60	2865.11
193.82	3155.92
194.04	3753.93
194.26	3585.99
194.48	2901.97
194.70	2944.98
194.92	3319.76
195.14	3686.34
195.36	2938.84
195.58	3123.15
195.80	3389.39
196.02	3377.10
196.24	2895.83
196.46	3055.57
196.69	3301.33
196.91	3891.14
197.13	2916.31
197.35	3026.90
197.57	3770.31
197.79	3608.52
198.01	3080.14
198.23	2961.36
198.45	3600.33
198.67	3178.45
198.89	2832.34
199.11	3119.06
199.33	3315.66
199.55	3004.37
199.77	2901.97
199.99	3125.20
200.21	3305.42
200.43	3573.71
200.65	2848.72
200.87	2746.33
201.09	3461.07
201.31	3327.95
201.53	2969.55
201.75	2963.41
201.97	3432.40
202.19	3416.01
202.41	2990.03
202.63	3086.29
202.85	3563.47
203.07	3536.84
203.29	3030.99
203.51	2971.60
203.73	3342.28
203.95	3987.40
204.17	2920.40
204.39	3102.67
204.61	3418.06
204.83	3391.44
205.05	3139.54
205.27	2932.69
205.49	3928.00
205.71	3442.64
205.93	2824.15
206.15	2897.88
206.37	3418.06
206.59	3413.96
206.81	2815.96
207.03	2904.02
207.25	3235.79
207.47	3635.14
207.69	2992.08
207.91	3213.26
208.13	3678.15
208.34	3303.37
208.56	2973.65
208.78	3002.32
209.00	3436.49
209.22	3401.68
209.44	2965.46
209.66	2928.60
209.88	3512.27
210.10	3313.61
210.32	2932.69
210.54	3053.52
210.76	3311.57
210.98	3715.02
211.20	2848.72
211.42	3096.53
211.64	3688.39
211.86	3551.18
212.08	3022.80
212.30	2961.36
212.52	3381.20
212.74	3493.83
212.96	3078.10
213.17	2990.03
213.39	3635.14
213.61	3827.65
213.83	2840.53
214.05	2795.48
214.27	3684.30
214.49	3266.51
214.71	2918.36
214.93	3127.25
215.15	3481.55
215.37	3708.87
215.59	2881.49
215.81	3076.05
216.03	3758.02
216.24	3463.12
216.46	2920.40
216.68	2996.18
216.90	3610.57
217.12	3719.11
217.34	2936.79
217.56	3112.91
217.78	3737.54
218.00	3532.75
218.22	3092.43
218.44	3188.69
218.66	3588.04
218.87	3868.61
219.09	2985.94
219.31	2920.40
219.53	3536.84
219.75	3360.72
219.97	2949.08
220.19	3033.04
220.41	3397.58
220.63	3723.21
220.85	3041.23
221.06	2971.60
221.28	3755.97
221.50	3549.13
221.72	2942.93
221.94	2904.02
222.16	3502.03
222.38	3723.21
222.60	2908.12
222.82	3037.14
223.03	3647.43
223.25	3254.22
223.47	2893.78
223.69	3221.45
223.91	3545.03
224.13	3405.77
224.35	2830.29
224.57	3135.44
224.78	3598.28
225.00	3284.94
225.22	3078.10
225.44	2918.36
225.66	3598.28
225.88	3311.57
226.10	3104.72
226.32	2936.79
226.53	3737.54
226.75	3411.92
226.97	3063.76
227.19	3043.28
227.41	3284.94
227.63	3299.28
227.85	2725.85
228.06	3041.23
228.28	3446.73
228.50	3655.62
228.72	2740.18
228.94	2852.82
229.16	3090.38
229.37	3160.02
229.59	2885.59
229.81	3174.35
230.03	3385.29
230.25	3215.31
230.47	2787.29
230.69	2944.98
230.90	3743.69
231.12	3239.89
231.34	3164.11
231.56	3053.52
231.78	3182.54
232.00	3467.21
232.21	3061.71
232.43	2961.36
232.65	2959.31
232.87	3493.83
233.09	2793.43
233.30	2844.63
233.52	3733.45
233.74	3334.09
233.96	2840.53
234.18	3200.98
234.40	3385.29
234.61	3987.40
234.83	2818.00
235.05	2910.16
235.27	4007.87
235.49	3698.63
235.70	2797.53
235.92	2959.31
236.14	3520.46
236.36	4048.83
236.58	2840.53
236.79	3051.47
237.01	3426.25
237.23	3397.58
237.45	3170.26
237.67	3012.56
237.88	3491.79
238.10	3848.13
238.32	2891.73
238.54	2879.44
238.76	3461.07
238.97	3235.79
239.19	2879.44
239.41	3010.51
239.63	3655.62
239.85	3291.09
240.06	2981.84
240.28	2981.84
240.50	3663.82
240.72	3522.51
240.93	2904.02
241.15	3104.72
241.37	3430.35
241.59	3700.68
241.81	2983.89
242.02	3024.85
242.24	3479.50
242.46	3614.66
242.68	2789.33
242.89	2854.87
243.11	3661.77
243.33	3387.34
243.55	2944.98
243.76	2957.27
243.98	3352.52
244.20	3477.45
244.42	2959.31
244.64	2953.17
244.85	3213.26
245.07	3235.79
245.29	2932.69
245.51	3020.75
245.72	3485.64
245.94	3639.24
246.16	2936.79
246.38	2961.36
246.59	3336.14
246.81	3256.27
247.03	2865.11
247.24	2764.76
247.46	3344.33
247.68	3469.26
247.90	2983.89
248.11	3008.47
248.33	3563.47
248.55	3389.39
248.77	2979.79
248.98	3176.40
249.20	3792.84
249.42	3434.44
249.64	2901.97
249.85	2936.79
250.07	3317.71
250.29	3581.90
250.50	3022.80
250.72	2828.24
250.94	3606.47
251.16	3952.58
251.37	2924.50
251.59	3035.09
251.81	3581.90
252.02	3782.60
252.24	2904.02
252.46	3155.92
252.68	3293.13
252.89	3336.14
253.11	2828.24
253.33	3125.20
253.54	3874.76
253.76	3239.89
253.98	2926.55
254.20	2969.55
254.41	3170.26
254.63	3411.92
254.85	2883.54
255.06	3106.77
255.28	3567.56
255.50	3332.05
255.71	2861.01
255.93	2885.59
256.15	3368.91
256.36	3540.94
256.58	2815.96
256.80	2867.16
257.02	3432.40
257.23	3321.81
257.45	3033.04
257.67	3041.23
257.88	3385.29
258.10	3581.90
258.32	2947.03
258.53	3067.86
258.75	3852.23
258.97	3315.66
259.18	2904.02
259.40	2951.12
259.62	3878.85
259.83	3841.99
260.05	2973.65
260.27	3925.96
260.48	3567.56
260.70	3276.75
260.92	2826.20
261.13	3008.47
261.35	3536.84
261.57	3524.55
261.78	2838.48
262.00	2951.12
262.22	3633.10
262.43	3305.42
262.65	2953.17
262.86	3008.47
263.08	4038.59
263.30	3377.10
263.51	2740.18
263.73	2869.20
263.95	3848.13
264.16	3198.93
264.38	2758.61
264.60	2910.16
264.81	3485.64
265.03	3645.38
265.25	3469.26
265.46	2920.40
265.68	3719.11
265.89	3631.05
266.11	2781.14
266.33	2926.55
266.54	3729.35
266.76	3602.38
266.98	3057.62
267.19	3131.34
267.41	3749.83
267.62	3405.77
267.84	2691.03
268.06	3082.19
268.27	3434.44
268.49	3712.97
268.70	2998.23
268.92	2961.36
269.14	3272.65
269.35	3092.43
269.57	3094.48
269.79	3080.14
270.00	3274.70
270.22	3839.94
270.43	2832.34
270.65	2848.72
270.87	3528.65
271.08	3661.77
271.30	3133.39
271.51	2901.97
271.73	3604.42
271.95	3833.80
272.16	2893.78
272.38	3188.69
272.59	3373.00
272.81	3633.10
273.02	2840.53
273.24	3053.52
273.46	3778.50
273.67	3192.78
273.89	2781.14
274.10	2967.51
274.32	3778.50
274.54	3549.13
274.75	3114.96
274.97	3012.56
275.18	3618.76
275.40	3418.06
275.61	3049.43
275.83	3129.30
276.05	3217.36
276.26	3506.12
276.48	3065.81
276.69	3162.06
276.91	3368.91
277.12	3737.54
277.34	3135.44
277.55	3262.41
277.77	3520.46
277.99	3354.57
278.20	3213.26
278.42	2983.89
278.63	3272.65
278.85	3243.98
279.06	2983.89
279.28	3135.44
279.49	3561.42
279.71	3626.95
279.93	3069.91
280.14	3164.11
280.36	3352.52
280.57	3637.19
280.79	3133.39
281.00	2932.69
281.22	3356.62
281.43	3618.76
281.65	2901.97
281.86	2985.94
282.08	3608.52
282.29	3825.61
282.51	2949.08
282.73	3026.90
282.94	3104.72
283.16	3547.08
283.37	3143.63
283.59	3125.20
283.80	3459.02
284.02	3360.72
284.23	3065.81
284.45	3102.67
284.66	3223.50
284.88	3272.65
285.09	3008.47
285.31	3151.82
285.52	3526.60
285.74	3041.23
285.95	3360.72
286.17	3067.86
286.38	3739.59
286.60	3254.22
286.81	3057.62
287.03	3086.29
287.24	3450.83
287.46	3549.13
287.67	3143.63
287.89	3243.98
288.10	3364.81
288.32	3510.22
288.53	3276.75
288.75	3223.50
288.96	3542.99
289.18	3282.89
289.39	3039.19
289.61	3205.07
289.82	3893.19
290.04	3868.61
290.25	2992.08
290.47	3246.03
290.68	3395.53
290.90	3676.10
291.11	2895.83
291.33	3229.65
291.54	3338.19
291.76	3278.80
291.97	3205.07
292.18	3196.88
292.40	3377.10
292.61	3299.28
292.83	3420.11
293.04	3098.58
293.26	3467.21
293.47	3368.91
293.69	3084.24
293.90	2955.22
294.12	3731.40
294.33	3442.64
294.55	3096.53
294.76	3258.32
294.97	3811.27
295.19	3975.11
295.40	3018.71
295.62	3145.68
295.83	3678.15
296.05	3289.04
296.26	3370.96
296.48	3110.86
296.69	3479.50
296.90	3377.10
297.12	3266.51
297.33	3268.56
297.55	3508.17
297.76	3635.14
297.98	3203.02
298.19	3270.61
298.41	3426.25
298.62	3297.23
298.83	3289.04
299.05	3192.78
299.26	3354.57
299.48	3293.13
299.69	3174.35
299.90	3024.85
300.12	3219.41
300.33	3575.75
300.55	3174.35
300.76	3174.35
300.98	3289.04
301.19	3585.99
301.40	3041.23
301.62	3094.48
301.83	3565.51
302.05	3489.74
302.26	3102.67
302.47	3172.30
302.69	3176.40
302.90	3483.59
303.12	2969.55
303.33	3284.94
303.54	3866.56
303.76	3305.42
303.97	3045.33
304.19	3258.32
304.40	3272.65
304.61	3610.57
304.83	3174.35
305.04	3225.55
305.26	3585.99
305.47	3243.98
305.68	3100.62
305.90	2965.46
306.11	3717.06
306.33	3418.06
306.54	2936.79
306.75	3090.38
306.97	3131.34
307.18	3299.28
307.39	3119.06
307.61	3092.43
307.82	3373.00
308.04	3497.93
308.25	2961.36
308.46	3319.76
308.68	3477.45
308.89	3387.34
309.10	3327.95
309.32	3102.67
309.53	3485.64
309.74	3542.99
309.96	3047.38
310.17	3164.11
310.39	3389.39
310.60	3575.75
310.81	3157.97
311.03	3086.29
311.24	3690.44
311.45	3411.92
311.67	3383.24
311.88	3248.08
312.09	3364.81
312.31	3330.00
312.52	3024.85
312.73	3045.33
312.95	3137.49
313.16	3239.89
313.37	3321.81
313.59	3315.66
313.80	3672.01
314.01	3753.93
314.23	3106.77
314.44	2992.08
314.65	3203.02
314.87	3248.08
315.08	3051.47
315.29	3071.95
315.51	3241.93
315.72	3117.01
315.93	3162.06
316.15	3160.02
316.36	3379.15
316.57	3452.88
316.79	3149.78
317.00	3057.62
317.21	3602.38
317.43	3270.61
317.64	3157.97
317.85	3035.09
318.07	3286.99
318.28	3311.57
318.49	3205.07
318.70	3264.46
318.92	3491.79
319.13	3549.13
319.34	3274.70
319.56	3131.34
319.77	3446.73
319.98	3583.95
320.20	3403.72
320.41	3258.32
320.62	3594.19
320.83	3190.74
321.05	3295.18
321.26	3182.54
321.47	3461.07
321.69	3680.20
321.90	3024.85
322.11	3037.14
322.32	3444.68
322.54	3831.75
322.75	3213.26
322.96	4237.25
323.18	3127.25
323.39	3071.95
323.60	3000.27
323.81	3178.45
324.03	3254.22
324.24	3360.72
324.45	3164.11
324.66	3008.47
324.88	3672.01
325.09	3755.97
325.30	3030.99
325.52	3008.47
325.73	3493.83
325.94	3254.22
326.15	2942.93
326.37	2936.79
326.58	3651.53
326.79	3895.24
327.00	3030.99
327.22	3051.47
327.43	3446.73
327.64	3268.56
327.85	3207.12
328.07	3129.30
328.28	3839.94
328.49	3373.00
328.70	3098.58
328.92	3151.82
329.13	3360.72
329.34	3497.93
329.55	3334.09
329.76	3266.51
329.98	3338.19
330.19	3645.38
330.40	3209.17
330.61	3278.80
330.83	3635.14
331.04	3233.74
331.25	3264.46
331.46	3129.30
331.68	3256.27
331.89	3590.09
332.10	3114.96
332.31	2969.55
332.52	3475.40
332.74	3753.93
332.95	2926.55
333.16	3117.01
333.37	3633.10
333.58	3385.29
333.80	3094.48
334.01	2926.55
334.22	3375.05
334.43	3334.09
334.64	3108.82
334.86	3037.14
335.07	3143.63
335.28	3794.89
335.49	2947.03
335.70	3149.78
335.92	3762.12
336.13	3860.42
336.34	3098.58
336.55	3135.44
336.76	3436.49
336.98	2969.55
337.19	3117.01
337.40	3155.92
337.61	4020.16
337.82	3411.92
338.04	3190.74
338.25	2990.03
338.46	3510.22
338.67	3377.10
338.88	2947.03
339.09	3063.76
339.31	3289.04
339.52	3196.88
339.73	3000.27
339.94	3184.59
340.15	3471.31
340.36	3330.00
340.58	3127.25
340.79	3106.77
341.00	3585.99
341.21	3250.13
341.42	3403.72
341.63	3096.53
341.85	3604.42
342.06	3436.49
342.27	3000.27
342.48	3237.84
342.69	3172.30
342.90	3512.27
343.12	3534.79
343.33	2985.94
343.54	3620.81
343.75	3760.07
343.96	3180.50
344.17	2983.89
344.38	3440.59
344.60	3258.32
344.81	3012.56
345.02	3102.67
345.23	3698.63
345.44	4016.07
345.65	3108.82
345.86	3174.35
346.07	3557.32
346.29	3344.33
346.50	3192.78
346.71	3151.82
346.92	3774.41
347.13	3946.44
347.34	3254.22
347.55	2998.23
347.76	3504.07
347.98	3043.28
348.19	3139.54
348.40	3237.84
348.61	3405.77
348.82	3778.50
349.03	3119.06
349.24	2996.18
349.45	3876.80
349.66	2985.94
349.88	3053.52
350.09	3041.23
350.30	3729.35
350.51	3723.21
350.72	3399.63
350.93	3041.23
351.14	3332.05
351.35	3530.70
351.56	3123.15
351.77	3164.11
351.99	3497.93
352.20	3731.40
352.41	3246.03
352.62	2930.64
352.83	3401.68
353.04	3401.68
353.25	3157.97
353.46	3180.50
353.67	3665.86
353.88	3092.43
354.09	3010.51
354.30	3192.78
354.52	3665.86
354.73	3424.20
354.94	3024.85
355.15	3153.87
355.36	3821.51
355.57	3303.37
355.78	3016.66
355.99	3022.80
356.20	3340.24
356.41	3778.50
356.62	3125.20
356.83	3104.72
357.04	3698.63
357.25	3172.30
357.46	3059.67
357.68	3037.14
357.89	3280.85
358.10	3411.92
358.31	3078.10
358.52	3172.30
358.73	3282.89
358.94	3172.30
359.15	3098.58
359.36	3254.22
359.57	3403.72
359.78	3370.96
359.99	3319.76
360.20	2885.59
360.41	3330.00
360.62	3583.95
360.83	3196.88
361.04	3133.39
361.25	3549.13
361.46	3844.04
361.67	3264.46
361.88	3100.62
362.09	3665.86
362.30	3434.44
362.51	2955.22
362.72	3229.65
362.93	3631.05
363.14	3493.83
363.35	3272.65
363.56	2971.60
363.78	3729.35
363.99	3696.58
364.20	3188.69
364.41	3170.26
364.62	3833.80
364.83	3479.50
365.04	3151.82
365.25	3145.68
365.46	4038.59
365.67	3286.99
365.88	3330.00
366.09	3086.29
366.30	3352.52
366.51	3436.49
366.72	3057.62
366.93	3055.57
367.14	3461.07
367.35	3715.02
367.56	2932.69
367.77	3176.40
367.98	3493.83
368.18	3532.75
368.39	3278.80
368.60	3033.04
368.81	3698.63
369.02	3450.83
369.23	3090.38
369.44	2983.89
369.65	3381.20
369.86	3598.28
370.07	3127.25
370.28	3094.48
370.49	3452.88
370.70	3489.74
370.91	3043.28
371.12	2959.31
371.33	3710.92
371.54	3381.20
371.75	3184.59
371.96	2795.48
372.17	3471.31
372.38	3401.68
372.59	3147.73
372.80	3000.27
373.01	3360.72
373.22	3493.83
373.43	3092.43
373.64	2971.60
373.85	3782.60
374.06	3835.85
374.26	3286.99
374.47	3274.70
374.68	3770.31
374.89	3510.22
375.10	3071.95
375.31	3172.30
375.52	3411.92
375.73	3467.21
375.94	2885.59
376.15	3229.65
376.36	3168.21
376.57	3327.95
376.78	3104.72
376.99	3147.73
377.20	3733.45
377.40	3393.48
377.61	3477.45
377.82	3119.06
378.03	3866.56
378.24	3522.51
378.45	3174.35
378.66	3172.30
378.87	3098.58
379.08	3114.96
379.29	3078.10
379.50	3297.23
379.71	3469.26
379.91	3545.03
380.12	3141.58
380.33	3248.08
380.54	3348.43
380.75	3327.95
380.96	3166.16
381.17	3147.73
381.38	3342.28
381.59	3450.83
381.80	3155.92
382.00	3321.81
382.21	3350.48
382.42	3717.06
382.63	3467.21
382.84	3211.22
383.05	3639.24
383.26	3606.47
383.47	3280.85
383.68	3080.14
383.88	3438.54
384.09	3393.48
384.30	3311.57
384.51	3252.17
384.72	3452.88
384.93	3147.73
385.14	3207.12
385.35	3393.48
385.55	3114.96
385.76	3741.64
385.97	3139.54
386.18	2965.46
386.39	3286.99
386.60	3248.08
386.81	3086.29
387.02	2979.79
387.22	3196.88
387.43	3598.28
387.64	3184.59
387.85	3313.61
388.06	3471.31
388.27	4470.72
388.48	7202.71
388.68	10780.51
388.89	13508.40
389.10	14786.33
389.31	14262.05
389.52	11632.46
389.73	10280.80
389.93	9443.18
390.14	8402.82
390.35	8021.89
390.56	7389.07
390.77	6201.25
390.98	4775.86
391.18	4089.79
391.39	3911.62
391.60	3418.06
391.81	3352.52
392.02	3168.21
392.23	3895.24
392.43	3516.36
392.64	3215.31
392.85	3174.35
393.06	3823.56
393.27	3434.44
393.47	3106.77
393.68	3229.65
393.89	3276.75
394.10	3743.69
394.31	3147.73
394.52	3176.40
394.72	3274.70
394.93	3790.79
395.14	2969.55
395.35	3280.85
395.56	3330.00
395.76	3364.81
395.97	3108.82
396.18	3243.98
396.39	3368.91
396.60	3993.54
396.80	3585.99
397.01	3330.00
397.22	3680.20
397.43	3657.67
397.64	3071.95
397.84	3180.50
398.05	3858.37
398.26	3385.29
398.47	3223.50
398.67	3413.96
398.88	3448.78
399.09	3547.08
399.30	3123.15
399.51	3155.92
399.71	3297.23
399.92	3362.76
400.13	3194.83
400.34	3094.48
400.54	3487.69
400.75	3755.97
400.96	3231.69
401.17	3469.26
401.37	3528.65
401.58	3403.72
401.79	3088.34
402.00	3250.13
402.21	3919.81
402.41	3540.94
402.62	3377.10
402.83	3506.12
403.04	3825.61
403.24	4302.78
403.45	3155.92
403.66	3438.54
403.87	3608.52
404.07	3841.99
404.28	3315.66
404.49	3475.40
404.70	3510.22
404.90	3614.66
405.11	3049.43
405.32	3286.99
405.52	3274.70
405.73	3272.65
405.94	3102.67
406.15	3256.27
406.35	3581.90
406.56	3622.86
406.77	3155.92
406.98	3102.67
407.18	3297.23
407.39	3823.56
407.60	3223.50
407.80	3196.88
408.01	3405.77
408.22	3606.47
408.43	3074.00
408.63	3313.61
408.84	3682.25
409.05	3569.61
409.25	3071.95
409.46	3186.64
409.67	3387.34
409.88	3268.56
410.08	3198.93
410.29	3063.76
410.50	3725.26
410.70	3612.62
410.91	3110.86
411.12	3278.80
411.32	3442.64
411.53	3321.81
411.74	3170.26
411.95	3196.88
412.15	3422.16
412.36	3614.66
412.57	3241.93
412.77	3246.03
412.98	3348.43
413.19	3219.41
413.39	3213.26
413.60	3108.82
413.81	3715.02
414.01	3286.99
414.22	3174.35
414.43	3362.76
414.63	3391.44
414.84	3567.56
415.05	3147.73
415.25	3006.42
415.46	3612.62
415.67	3303.37
415.87	3246.03
416.08	3213.26
416.29	3346.38
416.49	3602.38
416.70	3190.74
416.91	3074.00
417.11	3436.49
417.32	3661.77
417.53	3246.03
417.73	3239.89
417.94	3364.81
418.15	3553.23
418.35	3246.03
418.56	3200.98
418.77	3860.42
418.97	3436.49
419.18	3289.04
419.38	2756.57
419.59	3489.74
419.80	3717.06
420.00	3166.16
420.21	3090.38
420.42	3702.73
420.62	3567.56
420.83	3164.11
421.04	3139.54
421.24	3438.54
421.45	3604.42
421.65	3252.17
421.86	3213.26
422.07	3663.82
422.27	3575.75
422.48	3006.42
422.69	3033.04
422.89	3401.68
423.10	3393.48
423.30	3100.62
423.51	3207.12
423.72	3624.90
423.92	3647.43
424.13	3026.90
424.33	3248.08
424.54	3698.63
424.75	3422.16
424.95	3360.72
425.16	3084.24
425.36	3397.58
425.57	3645.38
425.78	3303.37
425.98	3258.32
426.19	3446.73
426.39	3215.31
426.60	3200.98
426.81	3270.61
427.01	3538.89
427.22	3211.22
427.42	2996.18
427.63	3080.14
427.83	3624.90
428.04	3866.56
428.25	3280.85
428.45	3278.80
428.66	3626.95
428.86	3526.60
429.07	3182.54
429.28	3153.87
429.48	3377.10
429.69	3239.89
429.89	3256.27
430.10	3053.52
430.30	3604.42
430.51	3712.97
430.71	3157.97
430.92	3305.42
431.13	3258.32
431.33	3592.14
431.54	3266.51
431.74	3362.76
431.95	3872.71
432.15	3188.69
432.36	3102.67
432.56	3237.84
432.77	3911.62
432.98	3751.88
433.18	3295.18
433.39	2971.60
433.59	3393.48
433.80	3887.04
434.00	3338.19
434.21	3174.35
434.41	3248.08
434.62	3946.44
434.82	3082.19
435.03	3147.73
435.23	3475.40
435.44	3102.67
435.64	3135.44
435.85	3160.02
436.06	3639.24
436.26	3674.06
436.47	3164.11
436.67	3145.68
436.88	3438.54
437.08	3698.63
437.29	3348.43
437.49	3278.80
437.70	3794.89
437.90	3420.11
438.11	3327.95
438.31	3217.36
438.52	3784.65
438.72	3565.51
438.93	3395.53
439.13	3213.26
439.34	3604.42
439.54	3379.15
439.75	3286.99
439.95	3258.32
440.16	3227.60
440.36	3512.27
440.57	3125.20
440.77	3131.34
440.98	3436.49
441.18	3594.19
441.39	3033.04
441.59	2967.51
441.80	3893.19
442.00	3389.39
442.21	3205.07
442.41	3002.32
442.62	3633.10
442.82	3362.76
443.02	3082.19
443.23	3217.36
443.43	3383.24
443.64	3753.93
443.84	3022.80
444.05	3250.13
444.25	3434.44
444.46	3395.53
444.66	3194.83
444.87	3446.73
445.07	3086.29
445.28	3373.00
445.48	3401.68
445.69	3200.98
445.89	4063.17
446.09	3368.91
446.30	3426.25
446.50	3571.66
446.71	5021.62
446.91	6119.33
447.12	6903.70
447.32	7137.17
447.53	7366.54
447.73	6158.24
447.93	5273.52
448.14	5144.50
448.34	5498.80
448.55	4544.44
448.75	4421.56
448.96	4214.72
449.16	4155.33
449.36	4020.16
449.57	3327.95
449.77	3231.69
449.98	3282.89
450.18	3557.32
450.39	3108.82
450.59	3334.09
450.79	3350.48
451.00	3246.03
451.20	3401.68
451.41	3160.02
451.61	3608.52
451.81	3475.40
452.02	3108.82
452.22	3135.44
452.43	3321.81
