SpectraSuite Data File
++++++++++++++++++++++++++++++++++++
Date: Thu May 05 14:41:35 CEST 2016
User: root
Dark Spectrum Present: No
Reference Spectrum Present: No
Number of Sampled Component Spectra: 1
Spectrometers: USB4C02835
Integration Time (usec): 100000 (USB4C02835)
Spectra Averaged: 1 (USB4C02835)
Boxcar Smoothing: 0 (USB4C02835)
Correct for Electrical Dark: No (USB4C02835)
Strobe/Lamp Enabled: No (USB4C02835)
Correct for Detector Non-linearity: No (USB4C02835)
Correct for Stray Light: No (USB4C02835)
Number of Pixels in Processed Spectrum: 3648
>>>>>Begin Processed Spectral Data<<<<<
177.47	1949.67
177.69	1949.67
177.91	1949.67
178.13	1892.32
178.36	1953.76
178.58	2396.12
178.80	2555.86
179.02	2334.68
179.24	2412.51
179.46	2250.72
179.68	2375.64
179.90	2432.99
180.13	2490.33
180.35	2234.33
180.57	2301.92
180.79	2500.57
181.01	2502.62
181.23	2469.85
181.45	2398.17
181.67	2600.92
181.90	2590.68
182.12	2318.30
182.34	2265.05
182.56	2588.63
182.78	2510.81
183.00	2301.92
183.22	2369.50
183.44	2273.25
183.66	2822.10
183.89	2506.71
184.11	2445.27
184.33	2594.78
184.55	2580.44
184.77	2381.79
184.99	2299.87
185.21	2463.71
185.43	2805.72
185.65	2351.07
185.87	2277.34
186.10	2727.89
186.32	2809.81
186.54	2432.99
186.76	2383.84
186.98	2588.63
187.20	2469.85
187.42	2340.83
187.64	2338.78
187.86	2467.80
188.08	2594.78
188.30	2328.54
188.52	2383.84
188.75	2670.55
188.97	2639.83
189.19	2324.44
189.41	2389.98
189.63	2465.75
189.85	2353.12
190.07	2267.10
190.29	2314.20
190.51	2500.57
190.73	2250.72
190.95	2457.56
191.17	2346.97
191.39	2299.87
191.61	2392.03
191.84	2363.36
192.06	2498.52
192.28	2289.63
192.50	2967.51
192.72	2392.03
192.94	2344.92
193.16	2637.78
193.38	2570.20
193.60	2334.68
193.82	2398.17
194.04	2613.21
194.26	2508.76
194.48	2389.98
194.70	2373.60
194.92	2416.60
195.14	2691.03
195.36	2414.56
195.58	2435.03
195.80	2424.80
196.02	2410.46
196.24	2330.59
196.46	2404.32
196.69	2441.18
196.91	2846.68
197.13	2392.03
197.35	2369.50
197.57	2744.28
197.79	2492.38
198.01	2408.41
198.23	2383.84
198.45	2516.95
198.67	2326.49
198.89	2301.92
199.11	2389.98
199.33	2299.87
199.55	2265.05
199.77	2254.81
199.99	2447.32
200.21	2437.08
200.43	2611.16
200.65	2316.25
200.87	2117.60
201.09	2545.63
201.31	2465.75
201.53	2441.18
201.75	2326.49
201.97	2521.05
202.19	2492.38
202.41	2445.27
202.63	2557.91
202.85	2594.78
203.07	2510.81
203.29	2320.35
203.51	2310.11
203.73	2451.42
203.95	2740.18
204.17	2320.35
204.39	2408.41
204.61	2473.95
204.83	2453.47
205.05	2494.43
205.27	2473.95
205.49	2924.50
205.71	2531.29
205.93	2263.01
206.15	2271.20
206.37	2469.85
206.59	2531.29
206.81	2244.57
207.03	2246.62
207.25	2385.88
207.47	2564.06
207.69	2371.55
207.91	2494.43
208.13	2662.36
208.34	2473.95
208.56	2297.82
208.78	2371.55
209.00	2371.55
209.22	2420.70
209.44	2389.98
209.66	2240.48
209.88	2498.52
210.10	2469.85
210.32	2367.45
210.54	2432.99
210.76	2367.45
210.98	2570.20
211.20	2146.27
211.42	2385.88
211.64	2637.78
211.86	2600.92
212.08	2412.51
212.30	2400.22
212.52	2449.37
212.74	2482.14
212.96	2439.13
213.17	2383.84
213.39	2547.67
213.61	2764.76
213.83	2244.57
214.05	2367.45
214.27	2588.63
214.49	2312.16
214.71	2275.29
214.93	2394.08
215.15	2424.80
215.37	2504.67
215.59	2228.19
215.81	2459.61
216.03	2652.12
216.24	2465.75
216.46	2310.11
216.68	2418.65
216.90	2559.96
217.12	2641.88
217.34	2379.74
217.56	2408.41
217.78	2699.22
218.00	2523.10
218.22	2398.17
218.44	2482.14
218.66	2506.71
218.87	2744.28
219.09	2357.21
219.31	2301.92
219.53	2572.25
219.75	2441.18
219.97	2451.42
220.19	2342.88
220.41	2475.99
220.63	2688.98
220.85	2318.30
221.06	2355.16
221.28	2535.39
221.50	2568.15
221.72	2299.87
221.94	2271.20
222.16	2443.23
222.38	2580.44
222.60	2373.60
222.82	2494.43
223.03	2621.40
223.25	2299.87
223.47	2355.16
223.69	2500.57
223.91	2535.39
224.13	2512.86
224.35	2277.34
224.57	2508.76
224.78	2629.59
225.00	2392.03
225.22	2392.03
225.44	2398.17
225.66	2564.06
225.88	2375.64
226.10	2420.70
226.32	2414.56
226.53	2662.36
226.75	2363.36
226.97	2418.65
227.19	2322.40
227.41	2410.46
227.63	2346.97
227.85	2195.42
228.06	2373.60
228.28	2463.71
228.50	2488.28
228.72	2199.52
228.94	2217.95
229.16	2260.96
229.37	2373.60
229.59	2269.15
229.81	2547.67
230.03	2451.42
230.25	2211.81
230.47	2176.99
230.69	2351.07
230.90	2605.02
231.12	2416.60
231.34	2410.46
231.56	2445.27
231.78	2330.59
232.00	2404.32
232.21	2357.21
232.43	2363.36
232.65	2267.10
232.87	2551.77
233.09	2291.68
233.30	2308.06
233.52	2621.40
233.74	2400.22
233.96	2301.92
234.18	2482.14
234.40	2426.84
234.61	2764.76
234.83	2244.57
235.05	2326.49
235.27	2760.66
235.49	2695.13
235.70	2318.30
235.92	2422.75
236.14	2531.29
236.36	2785.24
236.58	2236.38
236.79	2367.45
237.01	2531.29
237.23	2510.81
237.45	2609.11
237.67	2320.35
237.88	2514.91
238.10	2709.46
238.32	2246.62
238.54	2359.26
238.76	2498.52
238.97	2439.13
239.19	2371.55
239.41	2398.17
239.63	2500.57
239.85	2394.08
240.06	2406.36
240.28	2258.91
240.50	2592.73
240.72	2467.80
240.93	2338.78
241.15	2414.56
241.37	2449.37
241.59	2666.46
241.81	2334.68
242.02	2375.64
242.24	2506.71
242.46	2641.88
242.68	2226.14
242.89	2308.06
243.11	2615.26
243.33	2430.94
243.55	2424.80
243.76	2336.73
243.98	2351.07
244.20	2496.47
244.42	2342.88
244.64	2322.40
244.85	2275.29
245.07	2340.83
245.29	2432.99
245.51	2408.41
245.72	2482.14
245.94	2559.96
246.16	2338.78
246.38	2351.07
246.59	2389.98
246.81	2387.93
247.03	2310.11
247.24	2283.49
247.46	2432.99
247.68	2529.24
247.90	2308.06
248.11	2357.21
248.33	2588.63
248.55	2525.15
248.77	2344.92
248.98	2447.32
249.20	2717.65
249.42	2484.19
249.64	2410.46
249.85	2289.63
250.07	2406.36
250.29	2562.01
250.50	2424.80
250.72	2314.20
250.94	2602.97
251.16	2777.05
251.37	2361.31
251.59	2439.13
251.81	2596.82
252.02	2699.22
252.24	2340.83
252.46	2387.93
252.68	2414.56
252.89	2357.21
253.11	2174.94
253.33	2475.99
253.54	2668.50
253.76	2314.20
253.98	2392.03
254.20	2353.12
254.41	2371.55
254.63	2506.71
254.85	2234.33
255.06	2383.84
255.28	2494.43
255.50	2426.84
255.71	2318.30
255.93	2236.38
256.15	2490.33
256.36	2564.06
256.58	2336.73
256.80	2359.26
257.02	2424.80
257.23	2422.75
257.45	2392.03
257.67	2480.09
257.88	2424.80
258.10	2551.77
258.32	2293.72
258.53	2428.89
258.75	2668.50
258.97	2383.84
259.18	2326.49
259.40	2256.86
259.62	2752.47
259.83	2650.07
260.05	2332.64
260.27	2904.02
260.48	2598.87
260.70	2346.97
260.92	2281.44
261.13	2371.55
261.35	2510.81
261.57	2547.67
261.78	2326.49
262.00	2301.92
262.22	2439.13
262.43	2404.32
262.65	2338.78
262.86	2373.60
263.08	2775.00
263.30	2516.95
263.51	2260.96
263.73	2334.68
263.95	2725.85
264.16	2389.98
264.38	2246.62
264.60	2310.11
264.81	2502.62
265.03	2539.48
265.25	2588.63
265.46	2318.30
265.68	2695.13
265.89	2521.05
266.11	2238.43
266.33	2359.26
266.54	2619.35
266.76	2539.48
266.98	2496.47
267.19	2486.23
267.41	2590.68
267.62	2385.88
267.84	2207.71
268.06	2400.22
268.27	2572.25
268.49	2564.06
268.70	2363.36
268.92	2424.80
269.14	2359.26
269.35	2320.35
269.57	2512.86
269.79	2435.03
270.00	2441.18
270.22	2748.37
270.43	2289.63
270.65	2166.75
270.87	2580.44
271.08	2582.49
271.30	2439.13
271.51	2359.26
271.73	2574.30
271.95	2566.10
272.16	2265.05
272.38	2412.51
272.59	2439.13
272.81	2514.91
273.02	2349.02
273.24	2449.37
273.46	2605.02
273.67	2346.97
273.89	2271.20
274.10	2236.38
274.32	2688.98
274.54	2535.39
274.75	2449.37
274.97	2334.68
275.18	2531.29
275.40	2609.11
275.61	2383.84
275.83	2445.27
276.05	2332.64
276.26	2404.32
276.48	2432.99
276.69	2365.40
276.91	2416.60
277.12	2588.63
277.34	2463.71
277.55	2496.47
277.77	2469.85
277.99	2418.65
278.20	2351.07
278.42	2236.38
278.63	2318.30
278.85	2318.30
279.06	2299.87
279.28	2508.76
279.49	2592.73
279.71	2572.25
279.93	2457.56
280.14	2455.51
280.36	2385.88
280.57	2600.92
280.79	2475.99
281.00	2291.68
281.22	2365.40
281.43	2633.69
281.65	2217.95
281.86	2324.44
282.08	2545.63
282.29	2648.02
282.51	2271.20
282.73	2295.77
282.94	2308.06
283.16	2541.53
283.37	2645.98
283.59	2453.47
283.80	2555.86
284.02	2473.95
284.23	2500.57
284.45	2361.31
284.66	2375.64
284.88	2387.93
285.09	2375.64
285.31	2531.29
285.52	2471.90
285.74	2273.25
285.95	2545.63
286.17	2449.37
286.38	2715.61
286.60	2455.51
286.81	2332.64
287.03	2381.79
287.24	2445.27
287.46	2516.95
287.67	2478.04
287.89	2693.08
288.10	2467.80
288.32	2480.09
288.53	2525.15
288.75	2422.75
288.96	2578.39
289.18	2432.99
289.39	2375.64
289.61	2498.52
289.82	2717.65
290.04	2703.32
290.25	2232.29
290.47	2416.60
290.68	2494.43
290.90	2588.63
291.11	2224.09
291.33	2502.62
291.54	2324.44
291.76	2469.85
291.97	2455.51
292.18	2441.18
292.40	2488.28
292.61	2365.40
292.83	2697.17
293.04	2547.67
293.26	2510.81
293.47	2373.60
293.69	2326.49
293.90	2514.91
294.12	2660.31
294.33	2504.67
294.55	2437.08
294.76	2514.91
294.97	2656.22
295.19	2662.36
295.40	2414.56
295.62	2486.23
295.83	2635.74
296.05	2435.03
296.26	2547.67
296.48	2400.22
296.69	2449.37
296.90	2420.70
297.12	2576.34
297.33	2596.82
297.55	2547.67
297.76	2496.47
297.98	2504.67
298.19	2482.14
298.41	2510.81
298.62	2449.37
298.83	2549.72
299.05	2490.33
299.26	2443.23
299.48	2404.32
299.69	2498.52
299.90	2422.75
300.12	2414.56
300.33	2592.73
300.55	2447.32
300.76	2439.13
300.98	2361.31
301.19	2553.82
301.40	2351.07
301.62	2340.83
301.83	2568.15
302.05	2428.89
302.26	2426.84
302.47	2490.33
302.69	2340.83
302.90	2469.85
303.12	2144.22
303.33	2510.81
303.54	2756.57
303.76	2420.70
303.97	2367.45
304.19	2625.50
304.40	2383.84
304.61	2531.29
304.83	2611.16
305.04	2516.95
305.26	2512.86
305.47	2447.32
305.68	2365.40
305.90	2338.78
306.11	2631.64
306.33	2465.75
306.54	2351.07
306.75	2353.12
306.97	2299.87
307.18	2312.16
307.39	2387.93
307.61	2471.90
307.82	2523.10
308.04	2564.06
308.25	2299.87
308.46	2430.94
308.68	2490.33
308.89	2514.91
309.10	2478.04
309.32	2459.61
309.53	2512.86
309.74	2602.97
309.96	2443.23
310.17	2508.76
310.39	2465.75
310.60	2605.02
310.81	2482.14
311.03	2301.92
311.24	2594.78
311.45	2439.13
311.67	2600.92
311.88	2457.56
312.09	2529.24
312.31	2471.90
312.52	2318.30
312.73	2398.17
312.95	2291.68
313.16	2373.60
313.37	2564.06
313.59	2478.04
313.80	2588.63
314.01	2670.55
314.23	2424.80
314.44	2375.64
314.65	2306.01
314.87	2269.15
315.08	2392.03
315.29	2385.88
315.51	2385.88
315.72	2381.79
315.93	2551.77
316.15	2555.86
316.36	2396.12
316.57	2496.47
316.79	2545.63
317.00	2344.92
317.21	2600.92
317.43	2387.93
317.64	2414.56
317.85	2408.41
318.07	2396.12
318.28	2475.99
318.49	2570.20
318.70	2676.70
318.92	2609.11
319.13	2584.54
319.34	2588.63
319.56	2488.28
319.77	2625.50
319.98	2637.78
320.20	2635.74
320.41	2531.29
320.62	2615.26
320.83	2422.75
321.05	2615.26
321.26	2465.75
321.47	2445.27
321.69	2576.34
321.90	2365.40
322.11	2408.41
322.32	2498.52
322.54	2633.69
322.75	2308.06
322.96	2836.44
323.18	2332.64
323.39	2232.29
323.60	2318.30
323.81	2570.20
324.03	2342.88
324.24	2549.72
324.45	2496.47
324.66	2432.99
324.88	2643.93
325.09	2645.98
325.30	2469.85
325.52	2459.61
325.73	2568.15
325.94	2377.69
326.15	2291.68
326.37	2383.84
326.58	2629.59
326.79	2713.56
327.00	2310.11
327.22	2475.99
327.43	2447.32
327.64	2334.68
327.85	2512.86
328.07	2455.51
328.28	2699.22
328.49	2375.64
328.70	2406.36
328.92	2408.41
329.13	2375.64
329.34	2531.29
329.55	2609.11
329.76	2547.67
329.98	2437.08
330.19	2594.78
330.40	2535.39
330.61	2426.84
330.83	2512.86
331.04	2357.21
331.25	2463.71
331.46	2422.75
331.68	2336.73
331.89	2629.59
332.10	2359.26
332.31	2260.96
332.52	2473.95
332.74	2572.25
332.95	2240.48
333.16	2455.51
333.37	2568.15
333.58	2437.08
333.80	2441.18
334.01	2275.29
334.22	2465.75
334.43	2375.64
334.64	2408.41
334.86	2314.20
335.07	2326.49
335.28	2715.61
335.49	2373.60
335.70	2473.95
335.92	2596.82
336.13	2731.99
336.34	2463.71
336.55	2502.62
336.76	2525.15
336.98	2277.34
337.19	2408.41
337.40	2592.73
337.61	2809.81
337.82	2422.75
338.04	2478.04
338.25	2238.43
338.46	2572.25
338.67	2482.14
338.88	2369.50
339.09	2308.06
339.31	2422.75
339.52	2375.64
339.73	2389.98
339.94	2367.45
340.15	2553.82
340.36	2428.89
340.58	2537.43
340.79	2349.02
341.00	2500.57
341.21	2289.63
341.42	2617.30
341.63	2428.89
341.85	2619.35
342.06	2545.63
342.27	2308.06
342.48	2551.77
342.69	2318.30
342.90	2557.91
343.12	2484.19
343.33	2482.14
343.54	2598.87
343.75	2631.64
343.96	2435.03
344.17	2383.84
344.38	2449.37
344.60	2344.92
344.81	2383.84
345.02	2424.80
345.23	2582.49
345.44	2795.48
345.65	2416.60
345.86	2441.18
346.07	2422.75
346.29	2432.99
346.50	2459.61
346.71	2424.80
346.92	2686.94
347.13	2742.23
347.34	2404.32
347.55	2381.79
347.76	2559.96
347.98	2250.72
348.19	2424.80
348.40	2607.06
348.61	2373.60
348.82	2578.39
349.03	2475.99
349.24	2265.05
349.45	2654.17
349.66	2187.23
349.88	2465.75
350.09	2308.06
350.30	2627.54
350.51	2641.88
350.72	2443.23
350.93	2424.80
351.14	2297.82
351.35	2578.39
351.56	2463.71
351.77	2424.80
351.99	2519.00
352.20	2660.31
352.41	2572.25
352.62	2281.44
352.83	2562.01
353.04	2490.33
353.25	2342.88
353.46	2490.33
353.67	2609.11
353.88	2287.58
354.09	2506.71
354.30	2383.84
354.52	2568.15
354.73	2482.14
354.94	2375.64
355.15	2514.91
355.36	2662.36
355.57	2424.80
355.78	2490.33
355.99	2373.60
356.20	2437.08
356.41	2641.88
356.62	2418.65
356.83	2463.71
357.04	2725.85
357.25	2277.34
357.46	2379.74
357.68	2308.06
357.89	2379.74
358.10	2453.47
358.31	2363.36
358.52	2377.69
358.73	2324.44
358.94	2408.41
359.15	2426.84
359.36	2551.77
359.57	2494.43
359.78	2469.85
359.99	2490.33
360.20	2334.68
360.41	2441.18
360.62	2559.96
360.83	2453.47
361.04	2449.37
361.25	2564.06
361.46	2701.27
361.67	2498.52
361.88	2490.33
362.09	2559.96
362.30	2568.15
362.51	2389.98
362.72	2377.69
362.93	2611.16
363.14	2580.44
363.35	2480.09
363.56	2351.07
363.78	2590.68
363.99	2639.83
364.20	2392.03
364.41	2490.33
364.62	2691.03
364.83	2541.53
365.04	2408.41
365.25	2439.13
365.46	2777.05
365.67	2389.98
365.88	2461.66
366.09	2416.60
366.30	2416.60
366.51	2496.47
366.72	2342.88
366.93	2398.17
367.14	2523.10
367.35	2697.17
367.56	2459.61
367.77	2551.77
367.98	2516.95
368.18	2566.10
368.39	2463.71
368.60	2324.44
368.81	2645.98
369.02	2521.05
369.23	2396.12
369.44	2346.97
369.65	2473.95
369.86	2551.77
370.07	2529.24
370.28	2330.59
370.49	2455.51
370.70	2523.10
370.91	2314.20
371.12	2293.72
371.33	2621.40
371.54	2314.20
371.75	2496.47
371.96	2166.75
372.17	2541.53
372.38	2387.93
372.59	2504.67
372.80	2369.50
373.01	2455.51
373.22	2543.58
373.43	2445.27
373.64	2220.00
373.85	2715.61
374.06	2693.08
374.26	2482.14
374.47	2461.66
374.68	2713.56
374.89	2539.48
375.10	2465.75
375.31	2521.05
375.52	2549.72
375.73	2480.09
375.94	2375.64
376.15	2551.77
376.36	2367.45
376.57	2396.12
376.78	2371.55
376.99	2502.62
377.20	2637.78
377.40	2480.09
377.61	2719.70
377.82	2328.54
378.03	2662.36
378.24	2627.54
378.45	2396.12
378.66	2490.33
378.87	2277.34
379.08	2299.87
379.29	2441.18
379.50	2555.86
379.71	2486.23
379.91	2621.40
380.12	2420.70
380.33	2418.65
380.54	2469.85
380.75	2428.89
380.96	2408.41
381.17	2576.34
381.38	2457.56
381.59	2473.95
381.80	2523.10
382.00	2609.11
382.21	2549.72
382.42	2740.18
382.63	2691.03
382.84	2574.30
383.05	2594.78
383.26	2740.18
383.47	2416.60
383.68	2449.37
383.88	2531.29
384.09	2467.80
384.30	2629.59
384.51	2498.52
384.72	2326.49
384.93	2357.21
385.14	2473.95
385.35	2584.54
385.55	2389.98
385.76	2643.93
385.97	2416.60
386.18	2285.53
386.39	2371.55
386.60	2432.99
386.81	2379.74
387.02	2346.97
387.22	2316.25
387.43	2514.91
387.64	2590.68
387.85	2586.58
388.06	2727.89
388.27	3915.72
388.48	8157.06
388.68	11982.67
388.89	14384.93
389.10	15859.47
389.31	14929.69
389.52	11691.85
389.73	9967.46
389.93	9078.65
390.14	8191.88
390.35	7440.27
390.56	6653.85
390.77	5484.46
390.98	4161.47
391.18	3436.49
391.39	3012.56
391.60	2576.34
391.81	2592.73
392.02	2428.89
392.23	2840.53
392.43	2478.04
392.64	2574.30
392.85	2512.86
393.06	2617.30
393.27	2383.84
393.47	2426.84
393.68	2412.51
393.89	2445.27
394.10	2627.54
394.31	2432.99
394.52	2371.55
394.72	2379.74
394.93	2756.57
395.14	2365.40
395.35	2432.99
395.56	2455.51
395.76	2480.09
395.97	2432.99
396.18	2498.52
396.39	2572.25
396.60	2940.88
396.80	2783.19
397.01	2635.74
397.22	2678.74
397.43	2627.54
397.64	2439.13
397.84	2586.58
398.05	2719.70
398.26	2506.71
398.47	2615.26
398.67	2605.02
398.88	2494.43
399.09	2531.29
399.30	2455.51
399.51	2473.95
399.71	2412.51
399.92	2506.71
400.13	2494.43
400.34	2482.14
400.54	2523.10
400.75	2688.98
400.96	2435.03
401.17	2678.74
401.37	2510.81
401.58	2463.71
401.79	2510.81
402.00	2609.11
402.21	2844.63
402.41	2709.46
402.62	2828.24
402.83	2883.54
403.04	2918.36
403.24	3092.43
403.45	2605.02
403.66	2760.66
403.87	2766.81
404.07	2775.00
404.28	2742.23
404.49	2670.55
404.70	2637.78
404.90	2570.20
405.11	2545.63
405.32	2572.25
405.52	2371.55
405.73	2383.84
405.94	2455.51
406.15	2443.23
406.35	2590.68
406.56	2506.71
406.77	2543.58
406.98	2437.08
407.18	2398.17
407.39	2711.51
407.60	2396.12
407.80	2564.06
408.01	2430.94
408.22	2588.63
408.43	2326.49
408.63	2486.23
408.84	2633.69
409.05	2617.30
409.25	2365.40
409.46	2387.93
409.67	2428.89
409.88	2351.07
410.08	2498.52
410.29	2367.45
410.50	2611.16
410.70	2600.92
410.91	2437.08
411.12	2514.91
411.32	2521.05
411.53	2424.80
411.74	2543.58
411.95	2547.67
412.15	2594.78
412.36	2547.67
412.57	2461.66
412.77	2621.40
412.98	2465.75
413.19	2512.86
413.39	2551.77
413.60	2516.95
413.81	2736.09
414.01	2351.07
414.22	2537.43
414.43	2461.66
414.63	2465.75
414.84	2566.10
415.05	2400.22
415.25	2346.97
415.46	2482.14
415.67	2371.55
415.87	2541.53
416.08	2500.57
416.29	2406.36
416.49	2564.06
416.70	2404.32
416.91	2398.17
417.11	2478.04
417.32	2645.98
417.53	2551.77
417.73	2484.19
417.94	2473.95
418.15	2514.91
418.35	2447.32
418.56	2447.32
418.77	2799.57
418.97	2428.89
419.18	2445.27
419.38	2154.46
419.59	2494.43
419.80	2619.35
420.00	2445.27
420.21	2404.32
420.42	2652.12
420.62	2529.24
420.83	2418.65
421.04	2441.18
421.24	2441.18
421.45	2564.06
421.65	2449.37
421.86	2426.84
422.07	2539.48
422.27	2504.67
422.48	2463.71
422.69	2334.68
422.89	2486.23
423.10	2435.03
423.30	2301.92
423.51	2484.19
423.72	2510.81
423.92	2527.19
424.13	2297.82
424.33	2394.08
424.54	2588.63
424.75	2519.00
424.95	2629.59
425.16	2439.13
425.36	2498.52
425.57	2559.96
425.78	2533.34
425.98	2553.82
426.19	2486.23
426.39	2408.41
426.60	2439.13
426.81	2572.25
427.01	2475.99
427.22	2412.51
427.42	2283.49
427.63	2396.12
427.83	2633.69
428.04	2645.98
428.25	2459.61
428.45	2580.44
428.66	2596.82
428.86	2494.43
429.07	2461.66
429.28	2484.19
429.48	2514.91
429.69	2400.22
429.89	2590.68
430.10	2338.78
430.30	2572.25
430.51	2639.83
430.71	2287.58
430.92	2412.51
431.13	2414.56
431.33	2596.82
431.54	2500.57
431.74	2582.49
431.95	2744.28
432.15	2355.16
432.36	2422.75
432.56	2506.71
432.77	2715.61
432.98	2748.37
433.18	2545.63
433.39	2396.12
433.59	2463.71
433.80	2727.89
434.00	2590.68
434.21	2394.08
434.41	2445.27
434.62	2791.38
434.82	2361.31
435.03	2283.49
435.23	2537.43
435.44	2242.53
435.64	2340.83
435.85	2562.01
436.06	2637.78
436.26	2598.87
436.47	2445.27
436.67	2437.08
436.88	2437.08
437.08	2670.55
437.29	2533.34
437.49	2412.51
437.70	2654.17
437.90	2478.04
438.11	2650.07
438.31	2539.48
438.52	2711.51
438.72	2674.65
438.93	2738.13
439.13	2539.48
439.34	2670.55
439.54	2512.86
439.75	2488.28
439.95	2578.39
440.16	2465.75
440.36	2562.01
440.57	2506.71
440.77	2457.56
440.98	2519.00
441.18	2535.39
441.39	2400.22
441.59	2349.02
441.80	2815.96
442.00	2428.89
442.21	2629.59
442.41	2334.68
442.62	2623.45
442.82	2398.17
443.02	2478.04
443.23	2547.67
443.43	2445.27
443.64	2574.30
443.84	2332.64
444.05	2572.25
444.25	2521.05
444.46	2459.61
444.66	2465.75
444.87	2625.50
445.07	2375.64
445.28	2504.67
445.48	2580.44
445.69	2541.53
445.89	2715.61
446.09	2537.43
446.30	2744.28
446.50	2961.36
446.71	4642.75
446.91	5636.01
447.12	6528.92
447.32	6856.60
447.53	6576.03
447.73	5314.48
447.93	4798.39
448.14	4448.19
448.34	4327.36
448.55	3805.13
448.75	3692.49
448.96	3538.89
449.16	3293.13
449.36	2992.08
449.57	2658.26
449.77	2572.25
449.98	2506.71
450.18	2596.82
450.39	2543.58
450.59	2609.11
450.79	2494.43
451.00	2432.99
451.20	2588.63
451.41	2441.18
451.61	2521.05
451.81	2430.94
452.02	2414.56
452.22	2422.75
452.43	2342.88
452.63	2469.85
