SpectraSuite Data File
++++++++++++++++++++++++++++++++++++
Date: Thu May 05 14:42:08 CEST 2016
User: root
Dark Spectrum Present: No
Reference Spectrum Present: No
Number of Sampled Component Spectra: 1
Spectrometers: USB4C02835
Integration Time (usec): 100000 (USB4C02835)
Spectra Averaged: 1 (USB4C02835)
Boxcar Smoothing: 0 (USB4C02835)
Correct for Electrical Dark: No (USB4C02835)
Strobe/Lamp Enabled: No (USB4C02835)
Correct for Detector Non-linearity: No (USB4C02835)
Correct for Stray Light: No (USB4C02835)
Number of Pixels in Processed Spectrum: 3648
>>>>>Begin Processed Spectral Data<<<<<
177.47	1880.04
177.69	1880.04
177.91	1880.04
178.13	1918.95
178.36	1886.18
178.58	2351.07
178.80	2482.14
179.02	2285.53
179.24	2326.49
179.46	2310.11
179.68	2373.60
179.90	2422.75
180.13	2521.05
180.35	2234.33
180.57	2363.36
180.79	2590.68
181.01	2496.47
181.23	2416.60
181.45	2547.67
181.67	2490.33
181.90	2625.50
182.12	2330.59
182.34	2205.66
182.56	2549.72
182.78	2545.63
183.00	2416.60
183.22	2437.08
183.44	2142.18
183.66	2799.57
183.89	2449.37
184.11	2342.88
184.33	2574.30
184.55	2645.98
184.77	2342.88
184.99	2430.94
185.21	2400.22
185.43	2799.57
185.65	2351.07
185.87	2269.15
186.10	2787.29
186.32	2715.61
186.54	2342.88
186.76	2435.03
186.98	2621.40
187.20	2441.18
187.42	2312.16
187.64	2400.22
187.86	2529.24
188.08	2531.29
188.30	2279.39
188.52	2361.31
188.75	2658.26
188.97	2609.11
189.19	2283.49
189.41	2320.35
189.63	2553.82
189.85	2435.03
190.07	2281.44
190.29	2195.42
190.51	2588.63
190.73	2320.35
190.95	2572.25
191.17	2363.36
191.39	2314.20
191.61	2408.41
191.84	2295.77
192.06	2418.65
192.28	2308.06
192.50	2942.93
192.72	2410.46
192.94	2475.99
193.16	2588.63
193.38	2533.34
193.60	2260.96
193.82	2351.07
194.04	2596.82
194.26	2473.95
194.48	2322.40
194.70	2316.25
194.92	2406.36
195.14	2512.86
195.36	2256.86
195.58	2457.56
195.80	2412.51
196.02	2414.56
196.24	2301.92
196.46	2383.84
196.69	2398.17
196.91	2815.96
197.13	2334.68
197.35	2338.78
197.57	2688.98
197.79	2566.10
198.01	2443.23
198.23	2398.17
198.45	2529.24
198.67	2299.87
198.89	2285.53
199.11	2414.56
199.33	2441.18
199.55	2242.53
199.77	2289.63
199.99	2482.14
200.21	2396.12
200.43	2551.77
200.65	2211.81
200.87	2220.00
201.09	2465.75
201.31	2498.52
201.53	2363.36
201.75	2449.37
201.97	2512.86
202.19	2480.09
202.41	2394.08
202.63	2543.58
202.85	2602.97
203.07	2523.10
203.29	2338.78
203.51	2291.68
203.73	2342.88
203.95	2826.20
204.17	2359.26
204.39	2379.74
204.61	2432.99
204.83	2480.09
205.05	2432.99
205.27	2473.95
205.49	2768.85
205.71	2439.13
205.93	2269.15
206.15	2299.87
206.37	2416.60
206.59	2445.27
206.81	2306.01
207.03	2260.96
207.25	2420.70
207.47	2613.21
207.69	2414.56
207.91	2527.19
208.13	2688.98
208.34	2420.70
208.56	2273.25
208.78	2375.64
209.00	2416.60
209.22	2363.36
209.44	2367.45
209.66	2332.64
209.88	2625.50
210.10	2467.80
210.32	2328.54
210.54	2498.52
210.76	2441.18
210.98	2613.21
211.20	2236.38
211.42	2496.47
211.64	2566.10
211.86	2582.49
212.08	2336.73
212.30	2363.36
212.52	2531.29
212.74	2559.96
212.96	2369.50
213.17	2359.26
213.39	2609.11
213.61	2658.26
213.83	2215.90
214.05	2322.40
214.27	2619.35
214.49	2322.40
214.71	2258.91
214.93	2504.67
215.15	2494.43
215.37	2615.26
215.59	2232.29
215.81	2357.21
216.03	2621.40
216.24	2490.33
216.46	2334.68
216.68	2373.60
216.90	2570.20
217.12	2584.54
217.34	2398.17
217.56	2359.26
217.78	2676.70
218.00	2457.56
218.22	2379.74
218.44	2469.85
218.66	2465.75
218.87	2699.22
219.09	2381.79
219.31	2379.74
219.53	2531.29
219.75	2496.47
219.97	2293.72
220.19	2346.97
220.41	2422.75
220.63	2695.13
220.85	2349.02
221.06	2314.20
221.28	2670.55
221.50	2594.78
221.72	2289.63
221.94	2355.16
222.16	2494.43
222.38	2617.30
222.60	2414.56
222.82	2424.80
223.03	2580.44
223.25	2310.11
223.47	2342.88
223.69	2553.82
223.91	2609.11
224.13	2568.15
224.35	2293.72
224.57	2525.15
224.78	2605.02
225.00	2385.88
225.22	2312.16
225.44	2332.64
225.66	2535.39
225.88	2432.99
226.10	2457.56
226.32	2353.12
226.53	2566.10
226.75	2451.42
226.97	2416.60
227.19	2340.83
227.41	2342.88
227.63	2539.48
227.85	2158.56
228.06	2398.17
228.28	2445.27
228.50	2600.92
228.72	2252.77
228.94	2322.40
229.16	2320.35
229.37	2308.06
229.59	2248.67
229.81	2482.14
230.03	2412.51
230.25	2316.25
230.47	2254.81
230.69	2201.57
230.90	2586.58
231.12	2287.58
231.34	2473.95
231.56	2480.09
231.78	2351.07
232.00	2471.90
232.21	2344.92
232.43	2346.97
232.65	2252.77
232.87	2553.82
233.09	2277.34
233.30	2340.83
233.52	2605.02
233.74	2486.23
233.96	2346.97
234.18	2457.56
234.40	2406.36
234.61	2744.28
234.83	2256.86
235.05	2240.48
235.27	2777.05
235.49	2650.07
235.70	2322.40
235.92	2500.57
236.14	2553.82
236.36	2752.47
236.58	2297.82
236.79	2488.28
237.01	2439.13
237.23	2457.56
237.45	2557.91
237.67	2392.03
237.88	2506.71
238.10	2678.74
238.32	2252.77
238.54	2310.11
238.76	2373.60
238.97	2398.17
239.19	2242.53
239.41	2389.98
239.63	2613.21
239.85	2371.55
240.06	2375.64
240.28	2285.53
240.50	2557.91
240.72	2424.80
240.93	2314.20
241.15	2428.89
241.37	2494.43
241.59	2594.78
241.81	2316.25
242.02	2320.35
242.24	2473.95
242.46	2555.86
242.68	2260.96
242.89	2334.68
243.11	2578.39
243.33	2537.43
243.55	2383.84
243.76	2357.21
243.98	2414.56
244.20	2482.14
244.42	2375.64
244.64	2328.54
244.85	2344.92
245.07	2349.02
245.29	2310.11
245.51	2373.60
245.72	2537.43
245.94	2607.06
246.16	2385.88
246.38	2357.21
246.59	2383.84
246.81	2387.93
247.03	2306.01
247.24	2252.77
247.46	2402.27
247.68	2449.37
247.90	2236.38
248.11	2351.07
248.33	2623.45
248.55	2488.28
248.77	2408.41
248.98	2353.12
249.20	2666.46
249.42	2492.38
249.64	2334.68
249.85	2283.49
250.07	2441.18
250.29	2527.19
250.50	2392.03
250.72	2193.37
250.94	2533.34
251.16	2789.33
251.37	2353.12
251.59	2332.64
251.81	2484.19
252.02	2662.36
252.24	2306.01
252.46	2502.62
252.68	2414.56
252.89	2389.98
253.11	2166.75
253.33	2453.47
253.54	2656.22
253.76	2373.60
253.98	2349.02
254.20	2316.25
254.41	2310.11
254.63	2506.71
254.85	2258.91
255.06	2389.98
255.28	2443.23
255.50	2375.64
255.71	2306.01
255.93	2260.96
256.15	2375.64
256.36	2584.54
256.58	2308.06
256.80	2306.01
257.02	2529.24
257.23	2498.52
257.45	2389.98
257.67	2449.37
257.88	2469.85
258.10	2480.09
258.32	2306.01
258.53	2340.83
258.75	2748.37
258.97	2353.12
259.18	2328.54
259.40	2285.53
259.62	2596.82
259.83	2670.55
260.05	2377.69
260.27	2899.92
260.48	2580.44
260.70	2351.07
260.92	2248.67
261.13	2379.74
261.35	2596.82
261.57	2609.11
261.78	2240.48
262.00	2383.84
262.22	2613.21
262.43	2256.86
262.65	2334.68
262.86	2441.18
263.08	2756.57
263.30	2500.57
263.51	2127.84
263.73	2322.40
263.95	2664.41
264.16	2396.12
264.38	2244.57
264.60	2353.12
264.81	2504.67
265.03	2621.40
265.25	2617.30
265.46	2324.44
265.68	2684.89
265.89	2551.77
266.11	2160.61
266.33	2357.21
266.54	2619.35
266.76	2562.01
266.98	2379.74
267.19	2461.66
267.41	2605.02
267.62	2414.56
267.84	2338.78
268.06	2428.89
268.27	2437.08
268.49	2592.73
268.70	2375.64
268.92	2385.88
269.14	2418.65
269.35	2361.31
269.57	2402.27
269.79	2379.74
270.00	2392.03
270.22	2691.03
270.43	2277.34
270.65	2271.20
270.87	2480.09
271.08	2584.54
271.30	2422.75
271.51	2353.12
271.73	2539.48
271.95	2611.16
272.16	2387.93
272.38	2480.09
272.59	2379.74
272.81	2621.40
273.02	2392.03
273.24	2359.26
273.46	2619.35
273.67	2373.60
273.89	2234.33
274.10	2353.12
274.32	2609.11
274.54	2506.71
274.75	2392.03
274.97	2385.88
275.18	2662.36
275.40	2461.66
275.61	2408.41
275.83	2459.61
276.05	2389.98
276.26	2445.27
276.48	2480.09
276.69	2414.56
276.91	2457.56
277.12	2713.56
277.34	2467.80
277.55	2523.10
277.77	2488.28
277.99	2426.84
278.20	2338.78
278.42	2242.53
278.63	2342.88
278.85	2396.12
279.06	2367.45
279.28	2519.00
279.49	2662.36
279.71	2564.06
279.93	2457.56
280.14	2387.93
280.36	2373.60
280.57	2629.59
280.79	2527.19
281.00	2351.07
281.22	2385.88
281.43	2645.98
281.65	2220.00
281.86	2355.16
282.08	2572.25
282.29	2600.92
282.51	2322.40
282.73	2318.30
282.94	2260.96
283.16	2605.02
283.37	2545.63
283.59	2353.12
283.80	2523.10
284.02	2502.62
284.23	2490.33
284.45	2377.69
284.66	2398.17
284.88	2412.51
285.09	2375.64
285.31	2535.39
285.52	2580.44
285.74	2355.16
285.95	2500.57
286.17	2527.19
286.38	2598.87
286.60	2457.56
286.81	2342.88
287.03	2324.44
287.24	2531.29
287.46	2506.71
287.67	2396.12
287.89	2633.69
288.10	2424.80
288.32	2494.43
288.53	2576.34
288.75	2379.74
288.96	2512.86
289.18	2408.41
289.39	2342.88
289.61	2457.56
289.82	2764.76
290.04	2711.51
290.25	2402.27
290.47	2471.90
290.68	2412.51
290.90	2627.54
291.11	2226.14
291.33	2514.91
291.54	2459.61
291.76	2324.44
291.97	2504.67
292.18	2453.47
292.40	2471.90
292.61	2385.88
292.83	2621.40
293.04	2457.56
293.26	2527.19
293.47	2400.22
293.69	2359.26
293.90	2412.51
294.12	2572.25
294.33	2453.47
294.55	2396.12
294.76	2504.67
294.97	2588.63
295.19	2758.61
295.40	2383.84
295.62	2420.70
295.83	2547.67
296.05	2435.03
296.26	2521.05
296.48	2363.36
296.69	2416.60
296.90	2465.75
297.12	2529.24
297.33	2592.73
297.55	2502.62
297.76	2516.95
297.98	2514.91
298.19	2514.91
298.41	2496.47
298.62	2420.70
298.83	2514.91
299.05	2498.52
299.26	2447.32
299.48	2357.21
299.69	2508.76
299.90	2299.87
300.12	2377.69
300.33	2555.86
300.55	2494.43
300.76	2445.27
300.98	2308.06
301.19	2521.05
301.40	2414.56
301.62	2478.04
301.83	2557.91
302.05	2432.99
302.26	2465.75
302.47	2502.62
302.69	2342.88
302.90	2496.47
303.12	2248.67
303.33	2514.91
303.54	2660.31
303.76	2394.08
303.97	2416.60
304.19	2545.63
304.40	2314.20
304.61	2555.86
304.83	2463.71
305.04	2523.10
305.26	2506.71
305.47	2400.22
305.68	2373.60
305.90	2326.49
306.11	2635.74
306.33	2467.80
306.54	2406.36
306.75	2373.60
306.97	2232.29
307.18	2316.25
307.39	2457.56
307.61	2508.76
307.82	2478.04
308.04	2514.91
308.25	2308.06
308.46	2510.81
308.68	2416.60
308.89	2414.56
309.10	2484.19
309.32	2408.41
309.53	2430.94
309.74	2553.82
309.96	2373.60
310.17	2602.97
310.39	2375.64
310.60	2584.54
310.81	2400.22
311.03	2349.02
311.24	2539.48
311.45	2490.33
311.67	2645.98
311.88	2447.32
312.09	2494.43
312.31	2392.03
312.52	2353.12
312.73	2465.75
312.95	2359.26
313.16	2349.02
313.37	2570.20
313.59	2525.15
313.80	2584.54
314.01	2740.18
314.23	2373.60
314.44	2308.06
314.65	2369.50
314.87	2361.31
315.08	2420.70
315.29	2451.42
315.51	2338.78
315.72	2314.20
315.93	2502.62
316.15	2449.37
316.36	2553.82
316.57	2486.23
316.79	2406.36
317.00	2334.68
317.21	2559.96
317.43	2408.41
317.64	2490.33
317.85	2340.83
318.07	2416.60
318.28	2363.36
318.49	2580.44
318.70	2660.31
318.92	2609.11
319.13	2611.16
319.34	2703.32
319.56	2543.58
319.77	2594.78
319.98	2641.88
320.20	2578.39
320.41	2570.20
320.62	2602.97
320.83	2406.36
321.05	2621.40
321.26	2514.91
321.47	2453.47
321.69	2623.45
321.90	2285.53
322.11	2375.64
322.32	2473.95
322.54	2658.26
322.75	2414.56
322.96	2883.54
323.18	2326.49
323.39	2224.09
323.60	2336.73
323.81	2482.14
324.03	2396.12
324.24	2539.48
324.45	2422.75
324.66	2334.68
324.88	2682.84
325.09	2643.93
325.30	2365.40
325.52	2449.37
325.73	2506.71
325.94	2324.44
326.15	2314.20
326.37	2410.46
326.58	2531.29
326.79	2723.80
327.00	2377.69
327.22	2430.94
327.43	2441.18
327.64	2394.08
327.85	2547.67
328.07	2443.23
328.28	2705.37
328.49	2365.40
328.70	2498.52
328.92	2400.22
329.13	2484.19
329.34	2648.02
329.55	2668.50
329.76	2547.67
329.98	2437.08
330.19	2691.03
330.40	2523.10
330.61	2439.13
330.83	2572.25
331.04	2408.41
331.25	2455.51
331.46	2449.37
331.68	2342.88
331.89	2564.06
332.10	2428.89
332.31	2279.39
332.52	2441.18
332.74	2701.27
332.95	2285.53
333.16	2404.32
333.37	2523.10
333.58	2482.14
333.80	2457.56
334.01	2301.92
334.22	2445.27
334.43	2400.22
334.64	2324.44
334.86	2295.77
335.07	2420.70
335.28	2664.41
335.49	2306.01
335.70	2488.28
335.92	2645.98
336.13	2731.99
336.34	2543.58
336.55	2449.37
336.76	2658.26
336.98	2312.16
337.19	2392.03
337.40	2506.71
337.61	2770.90
337.82	2514.91
338.04	2420.70
338.25	2277.34
338.46	2469.85
338.67	2471.90
338.88	2367.45
339.09	2324.44
339.31	2346.97
339.52	2389.98
339.73	2269.15
339.94	2410.46
340.15	2641.88
340.36	2408.41
340.58	2514.91
340.79	2361.31
341.00	2488.28
341.21	2367.45
341.42	2551.77
341.63	2416.60
341.85	2598.87
342.06	2543.58
342.27	2400.22
342.48	2531.29
342.69	2291.68
342.90	2494.43
343.12	2598.87
343.33	2367.45
343.54	2562.01
343.75	2699.22
343.96	2383.84
344.17	2387.93
344.38	2465.75
344.60	2465.75
344.81	2283.49
345.02	2435.03
345.23	2652.12
345.44	2719.70
345.65	2498.52
345.86	2478.04
346.07	2523.10
346.29	2465.75
346.50	2496.47
346.71	2506.71
346.92	2654.17
347.13	2775.00
347.34	2453.47
347.55	2373.60
347.76	2529.24
347.98	2310.11
348.19	2422.75
348.40	2594.78
348.61	2445.27
348.82	2676.70
349.03	2570.20
349.24	2377.69
349.45	2666.46
349.66	2293.72
349.88	2428.89
350.09	2441.18
350.30	2672.60
350.51	2635.74
350.72	2480.09
350.93	2451.42
351.14	2404.32
351.35	2566.10
351.56	2430.94
351.77	2455.51
351.99	2449.37
352.20	2721.75
352.41	2473.95
352.62	2220.00
352.83	2461.66
353.04	2514.91
353.25	2400.22
353.46	2551.77
353.67	2668.50
353.88	2291.68
354.09	2396.12
354.30	2445.27
354.52	2588.63
354.73	2400.22
354.94	2408.41
355.15	2424.80
355.36	2703.32
355.57	2447.32
355.78	2377.69
355.99	2359.26
356.20	2473.95
356.41	2625.50
356.62	2392.03
356.83	2432.99
357.04	2643.93
357.25	2265.05
357.46	2330.59
357.68	2295.77
357.89	2418.65
358.10	2349.02
358.31	2461.66
358.52	2426.84
358.73	2389.98
358.94	2359.26
359.15	2383.84
359.36	2496.47
359.57	2488.28
359.78	2387.93
359.99	2516.95
360.20	2416.60
360.41	2496.47
360.62	2523.10
360.83	2430.94
361.04	2488.28
361.25	2572.25
361.46	2697.17
361.67	2570.20
361.88	2519.00
362.09	2605.02
362.30	2514.91
362.51	2332.64
362.72	2523.10
362.93	2668.50
363.14	2506.71
363.35	2473.95
363.56	2424.80
363.78	2586.58
363.99	2580.44
364.20	2439.13
364.41	2533.34
364.62	2678.74
364.83	2535.39
365.04	2410.46
365.25	2488.28
365.46	2762.71
365.67	2351.07
365.88	2441.18
366.09	2342.88
366.30	2430.94
366.51	2480.09
366.72	2273.25
366.93	2412.51
367.14	2471.90
367.35	2691.03
367.56	2430.94
367.77	2531.29
367.98	2449.37
368.18	2588.63
368.39	2439.13
368.60	2330.59
368.81	2523.10
369.02	2580.44
369.23	2457.56
369.44	2281.44
369.65	2430.94
369.86	2523.10
370.07	2541.53
370.28	2322.40
370.49	2465.75
370.70	2525.15
370.91	2318.30
371.12	2418.65
371.33	2609.11
371.54	2392.03
371.75	2654.17
371.96	2248.67
372.17	2463.71
372.38	2496.47
372.59	2494.43
372.80	2408.41
373.01	2551.77
373.22	2478.04
373.43	2396.12
373.64	2306.01
373.85	2592.73
374.06	2777.05
374.26	2539.48
374.47	2486.23
374.68	2744.28
374.89	2484.19
375.10	2398.17
375.31	2508.76
375.52	2596.82
375.73	2539.48
375.94	2383.84
376.15	2562.01
376.36	2437.08
376.57	2398.17
376.78	2383.84
376.99	2385.88
377.20	2611.16
377.40	2492.38
377.61	2576.34
377.82	2383.84
378.03	2635.74
378.24	2602.97
378.45	2469.85
378.66	2414.56
378.87	2232.29
379.08	2338.78
379.29	2326.49
379.50	2605.02
379.71	2430.94
379.91	2516.95
380.12	2469.85
380.33	2502.62
380.54	2568.15
380.75	2389.98
380.96	2406.36
381.17	2510.81
381.38	2424.80
381.59	2588.63
381.80	2396.12
382.00	2686.94
382.21	2471.90
382.42	2750.42
382.63	2682.84
382.84	2455.51
383.05	2555.86
383.26	2682.84
383.47	2484.19
383.68	2508.76
383.88	2559.96
384.09	2482.14
384.30	2602.97
384.51	2486.23
384.72	2389.98
384.93	2367.45
385.14	2457.56
385.35	2564.06
385.55	2332.64
385.76	2666.46
385.97	2490.33
386.18	2322.40
386.39	2332.64
386.60	2396.12
386.81	2461.66
387.02	2365.40
387.22	2285.53
387.43	2562.01
387.64	2562.01
387.85	2635.74
388.06	2627.54
388.27	3999.68
388.48	8400.77
388.68	12072.78
388.89	14579.49
389.10	15535.89
389.31	14593.83
389.52	11734.86
389.73	10125.16
389.93	9025.40
390.14	8300.42
390.35	7481.23
390.56	6653.85
390.77	5339.05
390.98	4153.28
391.18	3420.11
391.39	2924.50
391.60	2635.74
391.81	2639.83
392.02	2428.89
392.23	2768.85
392.43	2512.86
392.64	2562.01
392.85	2514.91
393.06	2662.36
393.27	2437.08
393.47	2402.27
393.68	2461.66
393.89	2463.71
394.10	2619.35
394.31	2328.54
394.52	2375.64
394.72	2326.49
394.93	2674.65
395.14	2424.80
395.35	2451.42
395.56	2424.80
395.76	2469.85
395.97	2523.10
396.18	2494.43
396.39	2617.30
396.60	3055.57
396.80	2768.85
397.01	2570.20
397.22	2703.32
397.43	2707.41
397.64	2406.36
397.84	2484.19
398.05	2770.90
398.26	2496.47
398.47	2613.21
398.67	2551.77
398.88	2461.66
399.09	2525.15
399.30	2408.41
399.51	2559.96
399.71	2371.55
399.92	2400.22
400.13	2512.86
400.34	2461.66
400.54	2539.48
400.75	2656.22
400.96	2435.03
401.17	2652.12
401.37	2568.15
401.58	2543.58
401.79	2453.47
402.00	2582.49
402.21	2899.92
402.41	2768.85
402.62	2787.29
402.83	2901.97
403.04	2953.17
403.24	3078.10
403.45	2555.86
403.66	2809.81
403.87	2693.08
404.07	2740.18
404.28	2701.27
404.49	2711.51
404.70	2562.01
404.90	2586.58
405.11	2533.34
405.32	2451.42
405.52	2441.18
405.73	2340.83
405.94	2359.26
406.15	2367.45
406.35	2531.29
406.56	2514.91
406.77	2488.28
406.98	2490.33
407.18	2357.21
407.39	2637.78
407.60	2461.66
407.80	2473.95
408.01	2394.08
408.22	2576.34
408.43	2412.51
408.63	2529.24
408.84	2631.64
409.05	2545.63
409.25	2369.50
409.46	2377.69
409.67	2459.61
409.88	2416.60
410.08	2422.75
410.29	2443.23
410.50	2578.39
410.70	2592.73
410.91	2353.12
411.12	2447.32
411.32	2459.61
411.53	2402.27
411.74	2510.81
411.95	2514.91
412.15	2545.63
412.36	2621.40
412.57	2586.58
412.77	2643.93
412.98	2418.65
413.19	2402.27
413.39	2496.47
413.60	2523.10
413.81	2629.59
414.01	2363.36
414.22	2541.53
414.43	2531.29
414.63	2441.18
414.84	2641.88
415.05	2514.91
415.25	2299.87
415.46	2533.34
415.67	2375.64
415.87	2435.03
416.08	2486.23
416.29	2430.94
416.49	2574.30
416.70	2404.32
416.91	2447.32
417.11	2457.56
417.32	2688.98
417.53	2541.53
417.73	2514.91
417.94	2424.80
418.15	2576.34
418.35	2482.14
418.56	2519.00
418.77	2762.71
418.97	2467.80
419.18	2482.14
419.38	2170.85
419.59	2506.71
419.80	2682.84
420.00	2406.36
420.21	2437.08
420.42	2648.02
420.62	2519.00
420.83	2400.22
421.04	2430.94
421.24	2488.28
421.45	2525.15
421.65	2394.08
421.86	2410.46
422.07	2555.86
422.27	2496.47
422.48	2473.95
422.69	2353.12
422.89	2465.75
423.10	2441.18
423.30	2357.21
423.51	2519.00
423.72	2580.44
423.92	2576.34
424.13	2301.92
424.33	2412.51
424.54	2611.16
424.75	2459.61
424.95	2588.63
425.16	2537.43
425.36	2508.76
425.57	2578.39
425.78	2551.77
425.98	2527.19
426.19	2463.71
426.39	2385.88
426.60	2455.51
426.81	2545.63
427.01	2514.91
427.22	2385.88
427.42	2297.82
427.63	2316.25
427.83	2594.78
428.04	2715.61
428.25	2482.14
428.45	2541.53
428.66	2617.30
428.86	2586.58
429.07	2406.36
429.28	2514.91
429.48	2416.60
429.69	2379.74
429.89	2498.52
430.10	2336.73
430.30	2609.11
430.51	2688.98
430.71	2482.14
430.92	2394.08
431.13	2426.84
431.33	2416.60
431.54	2473.95
431.74	2650.07
431.95	2775.00
432.15	2340.83
432.36	2422.75
432.56	2508.76
432.77	2738.13
432.98	2752.47
433.18	2447.32
433.39	2430.94
433.59	2445.27
433.80	2699.22
434.00	2695.13
434.21	2375.64
434.41	2428.89
434.62	2734.04
434.82	2336.73
435.03	2410.46
435.23	2562.01
435.44	2318.30
435.64	2410.46
435.85	2475.99
436.06	2578.39
436.26	2625.50
436.47	2367.45
436.67	2365.40
436.88	2412.51
437.08	2639.83
437.29	2602.97
437.49	2504.67
437.70	2684.89
437.90	2469.85
438.11	2670.55
438.31	2512.86
438.52	2678.74
438.72	2641.88
438.93	2844.63
439.13	2527.19
439.34	2674.65
439.54	2465.75
439.75	2625.50
439.95	2535.39
440.16	2463.71
440.36	2521.05
440.57	2504.67
440.77	2396.12
440.98	2588.63
441.18	2615.26
441.39	2373.60
441.59	2332.64
441.80	2717.65
442.00	2486.23
442.21	2588.63
442.41	2371.55
442.62	2588.63
442.82	2400.22
443.02	2461.66
443.23	2412.51
443.43	2529.24
443.64	2674.65
443.84	2365.40
444.05	2609.11
444.25	2523.10
444.46	2449.37
444.66	2432.99
444.87	2590.68
445.07	2344.92
445.28	2441.18
445.48	2592.73
445.69	2516.95
445.89	2858.96
446.09	2547.67
446.30	2713.56
446.50	3022.80
446.71	4601.79
446.91	5781.42
447.12	6696.86
447.32	7153.55
447.53	6510.49
447.73	5599.15
447.93	4825.01
448.14	4560.83
448.34	4310.97
448.55	3751.88
448.75	3772.36
448.96	3532.75
449.16	3280.85
449.36	3039.19
449.57	2777.05
449.77	2574.30
449.98	2473.95
450.18	2615.26
450.39	2510.81
450.59	2584.54
450.79	2529.24
451.00	2400.22
451.20	2637.78
451.41	2422.75
451.61	2539.48
451.81	2580.44
452.02	2400.22
452.22	2408.41
452.43	2449.37
