SpectraSuite Data File
++++++++++++++++++++++++++++++++++++
Date: Thu May 05 14:42:22 CEST 2016
User: root
Dark Spectrum Present: No
Reference Spectrum Present: No
Number of Sampled Component Spectra: 1
Spectrometers: USB4C02835
Integration Time (usec): 100000 (USB4C02835)
Spectra Averaged: 1 (USB4C02835)
Boxcar Smoothing: 0 (USB4C02835)
Correct for Electrical Dark: No (USB4C02835)
Strobe/Lamp Enabled: No (USB4C02835)
Correct for Detector Non-linearity: No (USB4C02835)
Correct for Stray Light: No (USB4C02835)
Number of Pixels in Processed Spectrum: 3648
>>>>>Begin Processed Spectral Data<<<<<
177.47	1949.67
177.69	1949.67
177.91	1949.67
178.13	1900.52
178.36	1898.47
178.58	2359.26
178.80	2519.00
179.02	2301.92
179.24	2336.73
179.46	2244.57
179.68	2404.32
179.90	2572.25
180.13	2553.82
180.35	2236.38
180.57	2269.15
180.79	2600.92
181.01	2525.15
181.23	2394.08
181.45	2414.56
181.67	2598.87
181.90	2633.69
182.12	2400.22
182.34	2230.24
182.56	2562.01
182.78	2498.52
183.00	2369.50
183.22	2336.73
183.44	2260.96
183.66	2813.91
183.89	2394.08
184.11	2353.12
184.33	2527.19
184.55	2623.45
184.77	2379.74
184.99	2404.32
185.21	2414.56
185.43	2731.99
185.65	2322.40
185.87	2297.82
186.10	2766.81
186.32	2801.62
186.54	2412.51
186.76	2449.37
186.98	2586.58
187.20	2490.33
187.42	2363.36
187.64	2314.20
187.86	2529.24
188.08	2637.78
188.30	2277.34
188.52	2404.32
188.75	2547.67
188.97	2662.36
189.19	2285.53
189.41	2310.11
189.63	2539.48
189.85	2414.56
190.07	2267.10
190.29	2267.10
190.51	2568.15
190.73	2410.46
190.95	2498.52
191.17	2326.49
191.39	2316.25
191.61	2435.03
191.84	2287.58
192.06	2361.31
192.28	2310.11
192.50	2918.36
192.72	2404.32
192.94	2379.74
193.16	2570.20
193.38	2498.52
193.60	2222.05
193.82	2367.45
194.04	2682.84
194.26	2504.67
194.48	2277.34
194.70	2297.82
194.92	2375.64
195.14	2555.86
195.36	2285.53
195.58	2326.49
195.80	2392.03
196.02	2426.84
196.24	2328.54
196.46	2443.23
196.69	2435.03
196.91	2766.81
197.13	2318.30
197.35	2375.64
197.57	2648.02
197.79	2553.82
198.01	2471.90
198.23	2408.41
198.45	2584.54
198.67	2301.92
198.89	2340.83
199.11	2478.04
199.33	2357.21
199.55	2224.09
199.77	2260.96
199.99	2480.09
200.21	2416.60
200.43	2449.37
200.65	2269.15
200.87	2183.13
201.09	2441.18
201.31	2371.55
201.53	2400.22
201.75	2459.61
201.97	2500.57
202.19	2486.23
202.41	2351.07
202.63	2543.58
202.85	2523.10
203.07	2514.91
203.29	2392.03
203.51	2211.81
203.73	2392.03
203.95	2822.10
204.17	2367.45
204.39	2400.22
204.61	2387.93
204.83	2426.84
205.05	2428.89
205.27	2396.12
205.49	2695.13
205.71	2432.99
205.93	2269.15
206.15	2310.11
206.37	2420.70
206.59	2453.47
206.81	2226.14
207.03	2271.20
207.25	2334.68
207.47	2502.62
207.69	2324.44
207.91	2523.10
208.13	2670.55
208.34	2461.66
208.56	2267.10
208.78	2383.84
209.00	2439.13
209.22	2326.49
209.44	2342.88
209.66	2250.72
209.88	2553.82
210.10	2426.84
210.32	2404.32
210.54	2408.41
210.76	2506.71
210.98	2637.78
211.20	2148.32
211.42	2473.95
211.64	2605.02
211.86	2467.80
212.08	2367.45
212.30	2314.20
212.52	2400.22
212.74	2523.10
212.96	2361.31
213.17	2428.89
213.39	2537.43
213.61	2664.41
213.83	2293.72
214.05	2377.69
214.27	2629.59
214.49	2361.31
214.71	2260.96
214.93	2467.80
215.15	2473.95
215.37	2543.58
215.59	2265.05
215.81	2381.79
216.03	2699.22
216.24	2543.58
216.46	2424.80
216.68	2408.41
216.90	2506.71
217.12	2645.98
217.34	2357.21
217.56	2435.03
217.78	2719.70
218.00	2580.44
218.22	2396.12
218.44	2439.13
218.66	2498.52
218.87	2678.74
219.09	2306.01
219.31	2379.74
219.53	2529.24
219.75	2463.71
219.97	2406.36
220.19	2314.20
220.41	2494.43
220.63	2645.98
220.85	2381.79
221.06	2334.68
221.28	2668.50
221.50	2480.09
221.72	2379.74
221.94	2357.21
222.16	2527.19
222.38	2574.30
222.60	2314.20
222.82	2375.64
223.03	2572.25
223.25	2363.36
223.47	2334.68
223.69	2475.99
223.91	2547.67
224.13	2574.30
224.35	2330.59
224.57	2461.66
224.78	2578.39
225.00	2383.84
225.22	2432.99
225.44	2340.83
225.66	2605.02
225.88	2486.23
226.10	2428.89
226.32	2371.55
226.53	2670.55
226.75	2404.32
226.97	2375.64
227.19	2336.73
227.41	2457.56
227.63	2383.84
227.85	2211.81
228.06	2301.92
228.28	2498.52
228.50	2586.58
228.72	2207.71
228.94	2322.40
229.16	2258.91
229.37	2353.12
229.59	2250.72
229.81	2525.15
230.03	2449.37
230.25	2336.73
230.47	2273.25
230.69	2258.91
230.90	2656.22
231.12	2455.51
231.34	2449.37
231.56	2527.19
231.78	2359.26
232.00	2504.67
232.21	2396.12
232.43	2387.93
232.65	2232.29
232.87	2404.32
233.09	2349.02
233.30	2332.64
233.52	2557.91
233.74	2396.12
233.96	2293.72
234.18	2375.64
234.40	2432.99
234.61	2752.47
234.83	2263.01
235.05	2263.01
235.27	2822.10
235.49	2609.11
235.70	2267.10
235.92	2432.99
236.14	2568.15
236.36	2721.75
236.58	2277.34
236.79	2463.71
237.01	2463.71
237.23	2451.42
237.45	2521.05
237.67	2256.86
237.88	2498.52
238.10	2686.94
238.32	2275.29
238.54	2275.29
238.76	2514.91
238.97	2363.36
239.19	2291.68
239.41	2412.51
239.63	2594.78
239.85	2379.74
240.06	2365.40
240.28	2271.20
240.50	2523.10
240.72	2435.03
240.93	2353.12
241.15	2453.47
241.37	2432.99
241.59	2660.31
241.81	2322.40
242.02	2379.74
242.24	2572.25
242.46	2533.34
242.68	2310.11
242.89	2383.84
243.11	2611.16
243.33	2441.18
243.55	2381.79
243.76	2398.17
243.98	2416.60
244.20	2555.86
244.42	2408.41
244.64	2410.46
244.85	2260.96
245.07	2381.79
245.29	2416.60
245.51	2365.40
245.72	2488.28
245.94	2562.01
246.16	2365.40
246.38	2396.12
246.59	2465.75
246.81	2330.59
247.03	2299.87
247.24	2224.09
247.46	2410.46
247.68	2490.33
247.90	2297.82
248.11	2371.55
248.33	2553.82
248.55	2512.86
248.77	2404.32
248.98	2377.69
249.20	2684.89
249.42	2435.03
249.64	2428.89
249.85	2349.02
250.07	2306.01
250.29	2543.58
250.50	2355.16
250.72	2273.25
250.94	2572.25
251.16	2744.28
251.37	2404.32
251.59	2375.64
251.81	2551.77
252.02	2713.56
252.24	2318.30
252.46	2424.80
252.68	2383.84
252.89	2435.03
253.11	2211.81
253.33	2412.51
253.54	2613.21
253.76	2314.20
253.98	2320.35
254.20	2330.59
254.41	2361.31
254.63	2389.98
254.85	2236.38
255.06	2416.60
255.28	2605.02
255.50	2506.71
255.71	2273.25
255.93	2252.77
256.15	2465.75
256.36	2547.67
256.58	2269.15
256.80	2371.55
257.02	2480.09
257.23	2469.85
257.45	2414.56
257.67	2449.37
257.88	2404.32
258.10	2576.34
258.32	2363.36
258.53	2342.88
258.75	2637.78
258.97	2381.79
259.18	2297.82
259.40	2422.75
259.62	2707.41
259.83	2627.54
260.05	2332.64
260.27	2957.27
260.48	2639.83
260.70	2363.36
260.92	2353.12
261.13	2367.45
261.35	2500.57
261.57	2514.91
261.78	2291.68
262.00	2258.91
262.22	2424.80
262.43	2336.73
262.65	2226.14
262.86	2314.20
263.08	2783.19
263.30	2441.18
263.51	2193.37
263.73	2308.06
263.95	2707.41
264.16	2441.18
264.38	2273.25
264.60	2367.45
264.81	2510.81
265.03	2539.48
265.25	2490.33
265.46	2330.59
265.68	2662.36
265.89	2578.39
266.11	2289.63
266.33	2330.59
266.54	2639.83
266.76	2545.63
266.98	2408.41
267.19	2457.56
267.41	2650.07
267.62	2482.14
267.84	2207.71
268.06	2406.36
268.27	2494.43
268.49	2686.94
268.70	2494.43
268.92	2326.49
269.14	2400.22
269.35	2349.02
269.57	2459.61
269.79	2428.89
270.00	2392.03
270.22	2674.65
270.43	2254.81
270.65	2162.66
270.87	2549.72
271.08	2531.29
271.30	2412.51
271.51	2389.98
271.73	2621.40
271.95	2699.22
272.16	2406.36
272.38	2361.31
272.59	2392.03
272.81	2523.10
273.02	2326.49
273.24	2455.51
273.46	2557.91
273.67	2365.40
273.89	2275.29
274.10	2295.77
274.32	2578.39
274.54	2488.28
274.75	2451.42
274.97	2375.64
275.18	2596.82
275.40	2533.34
275.61	2363.36
275.83	2422.75
276.05	2377.69
276.26	2533.34
276.48	2480.09
276.69	2355.16
276.91	2387.93
277.12	2641.88
277.34	2523.10
277.55	2541.53
277.77	2469.85
277.99	2553.82
278.20	2285.53
278.42	2332.64
278.63	2346.97
278.85	2371.55
279.06	2330.59
279.28	2541.53
279.49	2553.82
279.71	2514.91
279.93	2432.99
280.14	2500.57
280.36	2400.22
280.57	2635.74
280.79	2426.84
281.00	2265.05
281.22	2455.51
281.43	2645.98
281.65	2236.38
281.86	2396.12
282.08	2478.04
282.29	2768.85
282.51	2295.77
282.73	2441.18
282.94	2281.44
283.16	2582.49
283.37	2600.92
283.59	2498.52
283.80	2486.23
284.02	2435.03
284.23	2500.57
284.45	2441.18
284.66	2293.72
284.88	2404.32
285.09	2381.79
285.31	2553.82
285.52	2574.30
285.74	2273.25
285.95	2625.50
286.17	2486.23
286.38	2600.92
286.60	2383.84
286.81	2400.22
287.03	2408.41
287.24	2506.71
287.46	2506.71
287.67	2478.04
287.89	2607.06
288.10	2377.69
288.32	2451.42
288.53	2580.44
288.75	2465.75
288.96	2594.78
289.18	2471.90
289.39	2383.84
289.61	2426.84
289.82	2815.96
290.04	2729.94
290.25	2318.30
290.47	2435.03
290.68	2537.43
290.90	2654.17
291.11	2226.14
291.33	2537.43
291.54	2408.41
291.76	2387.93
291.97	2506.71
292.18	2406.36
292.40	2365.40
292.61	2377.69
292.83	2658.26
293.04	2500.57
293.26	2498.52
293.47	2447.32
293.69	2322.40
293.90	2342.88
294.12	2670.55
294.33	2482.14
294.55	2441.18
294.76	2627.54
294.97	2693.08
295.19	2662.36
295.40	2435.03
295.62	2486.23
295.83	2531.29
296.05	2373.60
296.26	2553.82
296.48	2449.37
296.69	2498.52
296.90	2381.79
297.12	2490.33
297.33	2564.06
297.55	2500.57
297.76	2510.81
297.98	2559.96
298.19	2473.95
298.41	2428.89
298.62	2383.84
298.83	2607.06
299.05	2525.15
299.26	2359.26
299.48	2424.80
299.69	2461.66
299.90	2322.40
300.12	2373.60
300.33	2523.10
300.55	2441.18
300.76	2482.14
300.98	2340.83
301.19	2555.86
301.40	2422.75
301.62	2416.60
301.83	2523.10
302.05	2502.62
302.26	2408.41
302.47	2478.04
302.69	2316.25
302.90	2486.23
303.12	2187.23
303.33	2469.85
303.54	2742.23
303.76	2465.75
303.97	2519.00
304.19	2613.21
304.40	2377.69
304.61	2590.68
304.83	2607.06
305.04	2521.05
305.26	2537.43
305.47	2504.67
305.68	2381.79
305.90	2230.24
306.11	2680.79
306.33	2473.95
306.54	2265.05
306.75	2402.27
306.97	2277.34
307.18	2396.12
307.39	2375.64
307.61	2494.43
307.82	2471.90
308.04	2543.58
308.25	2324.44
308.46	2592.73
308.68	2473.95
308.89	2455.51
309.10	2592.73
309.32	2420.70
309.53	2488.28
309.74	2572.25
309.96	2447.32
310.17	2523.10
310.39	2400.22
310.60	2584.54
310.81	2420.70
311.03	2316.25
311.24	2611.16
311.45	2465.75
311.67	2572.25
311.88	2510.81
312.09	2408.41
312.31	2441.18
312.52	2377.69
312.73	2301.92
312.95	2340.83
313.16	2338.78
313.37	2572.25
313.59	2527.19
313.80	2553.82
314.01	2650.07
314.23	2381.79
314.44	2359.26
314.65	2289.63
314.87	2389.98
315.08	2392.03
315.29	2375.64
315.51	2396.12
315.72	2271.20
315.93	2568.15
316.15	2529.24
316.36	2430.94
316.57	2471.90
316.79	2465.75
317.00	2363.36
317.21	2584.54
317.43	2375.64
317.64	2557.91
317.85	2328.54
318.07	2389.98
318.28	2478.04
318.49	2557.91
318.70	2742.23
318.92	2639.83
319.13	2641.88
319.34	2627.54
319.56	2465.75
319.77	2494.43
319.98	2668.50
320.20	2627.54
320.41	2555.86
320.62	2535.39
320.83	2342.88
321.05	2703.32
321.26	2449.37
321.47	2422.75
321.69	2650.07
321.90	2338.78
322.11	2445.27
322.32	2490.33
322.54	2623.45
322.75	2441.18
322.96	2924.50
323.18	2359.26
323.39	2267.10
323.60	2349.02
323.81	2508.76
324.03	2351.07
324.24	2441.18
324.45	2455.51
324.66	2359.26
324.88	2711.51
325.09	2648.02
325.30	2471.90
325.52	2490.33
325.73	2588.63
325.94	2340.83
326.15	2295.77
326.37	2379.74
326.58	2617.30
326.79	2693.08
327.00	2367.45
327.22	2408.41
327.43	2398.17
327.64	2308.06
327.85	2455.51
328.07	2422.75
328.28	2664.41
328.49	2426.84
328.70	2428.89
328.92	2457.56
329.13	2496.47
329.34	2473.95
329.55	2566.10
329.76	2650.07
329.98	2435.03
330.19	2578.39
330.40	2482.14
330.61	2490.33
330.83	2578.39
331.04	2353.12
331.25	2502.62
331.46	2377.69
331.68	2336.73
331.89	2572.25
332.10	2449.37
332.31	2330.59
332.52	2449.37
332.74	2699.22
332.95	2332.64
333.16	2432.99
333.37	2658.26
333.58	2412.51
333.80	2449.37
334.01	2351.07
334.22	2465.75
334.43	2432.99
334.64	2422.75
334.86	2332.64
335.07	2375.64
335.28	2607.06
335.49	2291.68
335.70	2506.71
335.92	2600.92
336.13	2799.57
336.34	2555.86
336.55	2519.00
336.76	2529.24
336.98	2297.82
337.19	2453.47
337.40	2568.15
337.61	2848.72
337.82	2480.09
338.04	2473.95
338.25	2297.82
338.46	2482.14
338.67	2484.19
338.88	2322.40
339.09	2377.69
339.31	2492.38
339.52	2351.07
339.73	2437.08
339.94	2381.79
340.15	2578.39
340.36	2371.55
340.58	2504.67
340.79	2369.50
341.00	2592.73
341.21	2301.92
341.42	2600.92
341.63	2447.32
341.85	2613.21
342.06	2408.41
342.27	2371.55
342.48	2562.01
342.69	2334.68
342.90	2506.71
343.12	2539.48
343.33	2318.30
343.54	2572.25
343.75	2543.58
343.96	2381.79
344.17	2346.97
344.38	2496.47
344.60	2416.60
344.81	2400.22
345.02	2416.60
345.23	2662.36
345.44	2756.57
345.65	2488.28
345.86	2451.42
346.07	2500.57
346.29	2406.36
346.50	2510.81
346.71	2486.23
346.92	2676.70
347.13	2746.33
347.34	2432.99
347.55	2392.03
347.76	2531.29
347.98	2295.77
348.19	2416.60
348.40	2557.91
348.61	2471.90
348.82	2680.79
349.03	2506.71
349.24	2387.93
349.45	2762.71
349.66	2215.90
349.88	2432.99
350.09	2318.30
350.30	2627.54
350.51	2559.96
350.72	2514.91
350.93	2473.95
351.14	2381.79
351.35	2547.67
351.56	2500.57
351.77	2475.99
351.99	2531.29
352.20	2654.17
352.41	2488.28
352.62	2260.96
352.83	2498.52
353.04	2582.49
353.25	2383.84
353.46	2480.09
353.67	2576.34
353.88	2236.38
354.09	2424.80
354.30	2398.17
354.52	2572.25
354.73	2496.47
354.94	2328.54
355.15	2387.93
355.36	2676.70
355.57	2404.32
355.78	2412.51
355.99	2342.88
356.20	2439.13
356.41	2711.51
356.62	2480.09
356.83	2461.66
357.04	2613.21
357.25	2301.92
357.46	2373.60
357.68	2254.81
357.89	2336.73
358.10	2459.61
358.31	2408.41
358.52	2408.41
358.73	2346.97
358.94	2410.46
359.15	2375.64
359.36	2504.67
359.57	2457.56
359.78	2480.09
359.99	2547.67
360.20	2428.89
360.41	2441.18
360.62	2578.39
360.83	2453.47
361.04	2502.62
361.25	2529.24
361.46	2613.21
361.67	2441.18
361.88	2461.66
362.09	2559.96
362.30	2535.39
362.51	2355.16
362.72	2457.56
362.93	2582.49
363.14	2531.29
363.35	2523.10
363.56	2375.64
363.78	2637.78
363.99	2631.64
364.20	2340.83
364.41	2574.30
364.62	2748.37
364.83	2535.39
365.04	2430.94
365.25	2461.66
365.46	2711.51
365.67	2365.40
365.88	2482.14
366.09	2367.45
366.30	2430.94
366.51	2473.95
366.72	2336.73
366.93	2324.44
367.14	2492.38
367.35	2611.16
367.56	2441.18
367.77	2555.86
367.98	2498.52
368.18	2465.75
368.39	2572.25
368.60	2312.16
368.81	2537.43
369.02	2508.76
369.23	2471.90
369.44	2293.72
369.65	2375.64
369.86	2480.09
370.07	2514.91
370.28	2369.50
370.49	2580.44
370.70	2564.06
370.91	2359.26
371.12	2283.49
371.33	2568.15
371.54	2408.41
371.75	2627.54
371.96	2236.38
372.17	2605.02
372.38	2455.51
372.59	2547.67
372.80	2410.46
373.01	2478.04
373.22	2510.81
373.43	2510.81
373.64	2318.30
373.85	2645.98
374.06	2666.46
374.26	2566.10
374.47	2451.42
374.68	2670.55
374.89	2457.56
375.10	2412.51
375.31	2519.00
375.52	2521.05
375.73	2478.04
375.94	2295.77
376.15	2592.73
376.36	2351.07
376.57	2449.37
376.78	2408.41
376.99	2439.13
377.20	2662.36
377.40	2486.23
377.61	2715.61
377.82	2334.68
378.03	2660.31
378.24	2596.82
378.45	2553.82
378.66	2471.90
378.87	2342.88
379.08	2328.54
379.29	2361.31
379.50	2496.47
379.71	2441.18
379.91	2559.96
380.12	2387.93
380.33	2398.17
380.54	2498.52
380.75	2512.86
380.96	2385.88
381.17	2621.40
381.38	2584.54
381.59	2490.33
381.80	2428.89
382.00	2645.98
382.21	2449.37
382.42	2725.85
382.63	2711.51
382.84	2502.62
383.05	2643.93
383.26	2672.60
383.47	2469.85
383.68	2541.53
383.88	2547.67
384.09	2457.56
384.30	2602.97
384.51	2519.00
384.72	2473.95
384.93	2351.07
385.14	2508.76
385.35	2570.20
385.55	2310.11
385.76	2600.92
385.97	2439.13
386.18	2287.58
386.39	2351.07
386.60	2418.65
386.81	2383.84
387.02	2322.40
387.22	2351.07
387.43	2559.96
387.64	2486.23
387.85	2670.55
388.06	2703.32
388.27	4050.88
388.48	8275.84
388.68	12203.85
388.89	14509.86
389.10	15564.56
389.31	14720.80
389.52	11517.78
389.73	10016.62
389.93	9019.25
390.14	8216.45
390.35	7425.93
390.56	6680.47
390.77	5521.32
390.98	4200.38
391.18	3399.63
391.39	2971.60
391.60	2580.44
391.81	2586.58
392.02	2418.65
392.23	2750.42
392.43	2537.43
392.64	2605.02
392.85	2519.00
393.06	2713.56
393.27	2514.91
393.47	2334.68
393.68	2457.56
393.89	2437.08
394.10	2594.78
394.31	2383.84
394.52	2428.89
394.72	2361.31
394.93	2717.65
395.14	2340.83
395.35	2463.71
395.56	2439.13
395.76	2539.48
395.97	2455.51
396.18	2527.19
396.39	2619.35
396.60	3002.32
396.80	2686.94
397.01	2609.11
397.22	2701.27
397.43	2686.94
397.64	2342.88
397.84	2553.82
398.05	2789.33
398.26	2443.23
398.47	2496.47
398.67	2691.03
398.88	2473.95
399.09	2596.82
399.30	2381.79
399.51	2486.23
399.71	2441.18
399.92	2478.04
400.13	2504.67
400.34	2398.17
400.54	2459.61
400.75	2654.17
400.96	2404.32
401.17	2695.13
401.37	2539.48
401.58	2441.18
401.79	2432.99
402.00	2551.77
402.21	2959.31
402.41	2760.66
402.62	2779.09
402.83	2914.26
403.04	2914.26
403.24	3088.34
403.45	2619.35
403.66	2791.38
403.87	2719.70
404.07	2764.76
404.28	2695.13
404.49	2691.03
404.70	2531.29
404.90	2592.73
405.11	2531.29
405.32	2531.29
405.52	2463.71
405.73	2430.94
405.94	2363.36
406.15	2449.37
406.35	2633.69
406.56	2551.77
406.77	2406.36
406.98	2396.12
407.18	2349.02
407.39	2602.97
407.60	2385.88
407.80	2537.43
408.01	2418.65
408.22	2508.76
408.43	2375.64
408.63	2482.14
408.84	2572.25
409.05	2570.20
409.25	2437.08
409.46	2418.65
409.67	2392.03
409.88	2404.32
410.08	2496.47
410.29	2394.08
410.50	2568.15
410.70	2572.25
410.91	2330.59
411.12	2494.43
411.32	2504.67
411.53	2437.08
411.74	2516.95
411.95	2600.92
412.15	2588.63
412.36	2617.30
412.57	2549.72
412.77	2668.50
412.98	2559.96
413.19	2363.36
413.39	2447.32
413.60	2578.39
413.81	2582.49
414.01	2379.74
414.22	2494.43
414.43	2588.63
414.63	2408.41
414.84	2584.54
415.05	2463.71
415.25	2271.20
415.46	2564.06
415.67	2389.98
415.87	2545.63
416.08	2336.73
416.29	2383.84
416.49	2525.15
416.70	2441.18
416.91	2338.78
417.11	2482.14
417.32	2613.21
417.53	2549.72
417.73	2457.56
417.94	2389.98
418.15	2535.39
418.35	2451.42
418.56	2498.52
418.77	2850.77
418.97	2514.91
419.18	2486.23
419.38	2222.05
419.59	2408.41
419.80	2617.30
420.00	2480.09
420.21	2381.79
420.42	2621.40
420.62	2500.57
420.83	2383.84
421.04	2414.56
421.24	2504.67
421.45	2531.29
421.65	2545.63
421.86	2435.03
422.07	2508.76
422.27	2506.71
422.48	2424.80
422.69	2375.64
422.89	2519.00
423.10	2451.42
423.30	2373.60
423.51	2516.95
423.72	2465.75
423.92	2529.24
424.13	2375.64
424.33	2461.66
424.54	2557.91
424.75	2496.47
424.95	2637.78
425.16	2441.18
425.36	2428.89
425.57	2586.58
425.78	2527.19
425.98	2527.19
426.19	2422.75
426.39	2342.88
426.60	2486.23
426.81	2588.63
427.01	2480.09
427.22	2287.58
427.42	2318.30
427.63	2404.32
427.83	2648.02
428.04	2637.78
428.25	2564.06
428.45	2574.30
428.66	2625.50
428.86	2557.91
429.07	2375.64
429.28	2506.71
429.48	2494.43
429.69	2383.84
429.89	2547.67
430.10	2353.12
430.30	2543.58
430.51	2621.40
430.71	2437.08
430.92	2428.89
431.13	2482.14
431.33	2551.77
431.54	2514.91
431.74	2645.98
431.95	2809.81
432.15	2410.46
432.36	2449.37
432.56	2494.43
432.77	2777.05
432.98	2678.74
433.18	2422.75
433.39	2418.65
433.59	2473.95
433.80	2727.89
434.00	2629.59
434.21	2422.75
434.41	2396.12
434.62	2803.67
434.82	2385.88
435.03	2342.88
435.23	2557.91
435.44	2291.68
435.64	2482.14
435.85	2539.48
436.06	2637.78
436.26	2602.97
436.47	2420.70
436.67	2392.03
436.88	2435.03
437.08	2621.40
437.29	2641.88
437.49	2578.39
437.70	2619.35
437.90	2502.62
438.11	2633.69
438.31	2547.67
438.52	2713.56
438.72	2633.69
438.93	2744.28
439.13	2475.99
439.34	2637.78
439.54	2459.61
439.75	2574.30
439.95	2586.58
440.16	2428.89
440.36	2420.70
440.57	2412.51
440.77	2465.75
440.98	2484.19
441.18	2605.02
441.39	2383.84
441.59	2301.92
441.80	2838.48
442.00	2502.62
442.21	2621.40
442.41	2295.77
442.62	2633.69
442.82	2488.28
443.02	2410.46
443.23	2459.61
443.43	2449.37
443.64	2678.74
443.84	2357.21
444.05	2527.19
444.25	2543.58
444.46	2459.61
444.66	2404.32
444.87	2664.41
445.07	2273.25
445.28	2445.27
445.48	2641.88
445.69	2510.81
445.89	2834.39
446.09	2537.43
446.30	2826.20
446.50	3006.42
446.71	4652.98
446.91	5820.33
447.12	6707.10
447.32	7223.19
447.53	6569.88
447.73	5324.72
447.93	4861.88
448.14	4474.81
448.34	4300.73
448.55	3850.18
448.75	3772.36
448.96	3618.76
449.16	3217.36
449.36	3133.39
449.57	2746.33
449.77	2539.48
449.98	2537.43
450.18	2635.74
450.39	2516.95
450.59	2457.56
450.79	2531.29
451.00	2527.19
451.20	2535.39
451.41	2449.37
451.61	2480.09
451.81	2473.95
452.02	2445.27
452.22	2402.27
452.43	2463.71
