SpectraSuite Data File
++++++++++++++++++++++++++++++++++++
Date: Thu May 05 14:41:40 CEST 2016
User: root
Dark Spectrum Present: No
Reference Spectrum Present: No
Number of Sampled Component Spectra: 1
Spectrometers: USB4C02835
Integration Time (usec): 100000 (USB4C02835)
Spectra Averaged: 1 (USB4C02835)
Boxcar Smoothing: 0 (USB4C02835)
Correct for Electrical Dark: No (USB4C02835)
Strobe/Lamp Enabled: No (USB4C02835)
Correct for Detector Non-linearity: No (USB4C02835)
Correct for Stray Light: No (USB4C02835)
Number of Pixels in Processed Spectrum: 3648
>>>>>Begin Processed Spectral Data<<<<<
177.47	1908.71
177.69	1908.71
177.91	1908.71
178.13	1947.62
178.36	1916.90
178.58	2404.32
178.80	2500.57
179.02	2398.17
179.24	2289.63
179.46	2303.96
179.68	2379.74
179.90	2471.90
180.13	2486.23
180.35	2240.48
180.57	2314.20
180.79	2621.40
181.01	2422.75
181.23	2371.55
181.45	2414.56
181.67	2504.67
181.90	2627.54
182.12	2314.20
182.34	2310.11
182.56	2490.33
182.78	2525.15
183.00	2318.30
183.22	2308.06
183.44	2220.00
183.66	2852.82
183.89	2500.57
184.11	2344.92
184.33	2555.86
184.55	2617.30
184.77	2463.71
184.99	2353.12
185.21	2377.69
185.43	2768.85
185.65	2322.40
185.87	2303.96
186.10	2760.66
186.32	2697.17
186.54	2406.36
186.76	2432.99
186.98	2564.06
187.20	2490.33
187.42	2340.83
187.64	2355.16
187.86	2510.81
188.08	2666.46
188.30	2277.34
188.52	2379.74
188.75	2576.34
188.97	2598.87
189.19	2252.77
189.41	2369.50
189.63	2519.00
189.85	2441.18
190.07	2209.76
190.29	2191.33
190.51	2547.67
190.73	2289.63
190.95	2555.86
191.17	2398.17
191.39	2312.16
191.61	2471.90
191.84	2340.83
192.06	2428.89
192.28	2285.53
192.50	2881.49
192.72	2412.51
192.94	2353.12
193.16	2586.58
193.38	2519.00
193.60	2269.15
193.82	2318.30
194.04	2580.44
194.26	2486.23
194.48	2412.51
194.70	2308.06
194.92	2469.85
195.14	2568.15
195.36	2324.44
195.58	2445.27
195.80	2463.71
196.02	2392.03
196.24	2338.78
196.46	2392.03
196.69	2310.11
196.91	2793.43
197.13	2330.59
197.35	2365.40
197.57	2699.22
197.79	2592.73
198.01	2465.75
198.23	2424.80
198.45	2525.15
198.67	2281.44
198.89	2357.21
199.11	2363.36
199.33	2349.02
199.55	2211.81
199.77	2269.15
199.99	2486.23
200.21	2445.27
200.43	2461.66
200.65	2236.38
200.87	2256.86
201.09	2457.56
201.31	2457.56
201.53	2398.17
201.75	2430.94
201.97	2521.05
202.19	2404.32
202.41	2385.88
202.63	2543.58
202.85	2486.23
203.07	2469.85
203.29	2422.75
203.51	2236.38
203.73	2449.37
203.95	2850.77
204.17	2367.45
204.39	2516.95
204.61	2494.43
204.83	2471.90
205.05	2473.95
205.27	2385.88
205.49	2838.48
205.71	2451.42
205.93	2267.10
206.15	2394.08
206.37	2480.09
206.59	2486.23
206.81	2258.91
207.03	2244.57
207.25	2359.26
207.47	2600.92
207.69	2371.55
207.91	2482.14
208.13	2695.13
208.34	2402.27
208.56	2183.13
208.78	2299.87
209.00	2422.75
209.22	2437.08
209.44	2357.21
209.66	2414.56
209.88	2535.39
210.10	2480.09
210.32	2306.01
210.54	2494.43
210.76	2490.33
210.98	2621.40
211.20	2234.33
211.42	2406.36
211.64	2744.28
211.86	2559.96
212.08	2369.50
212.30	2361.31
212.52	2451.42
212.74	2547.67
212.96	2414.56
213.17	2342.88
213.39	2574.30
213.61	2709.46
213.83	2269.15
214.05	2359.26
214.27	2627.54
214.49	2351.07
214.71	2267.10
214.93	2457.56
215.15	2562.01
215.37	2605.02
215.59	2271.20
215.81	2398.17
216.03	2619.35
216.24	2455.51
216.46	2381.79
216.68	2441.18
216.90	2553.82
217.12	2605.02
217.34	2291.68
217.56	2469.85
217.78	2617.30
218.00	2609.11
218.22	2389.98
218.44	2383.84
218.66	2449.37
218.87	2680.79
219.09	2355.16
219.31	2389.98
219.53	2529.24
219.75	2424.80
219.97	2416.60
220.19	2369.50
220.41	2463.71
220.63	2637.78
220.85	2342.88
221.06	2342.88
221.28	2625.50
221.50	2629.59
221.72	2412.51
221.94	2402.27
222.16	2543.58
222.38	2678.74
222.60	2365.40
222.82	2301.92
223.03	2496.47
223.25	2336.73
223.47	2346.97
223.69	2566.10
223.91	2547.67
224.13	2537.43
224.35	2265.05
224.57	2498.52
224.78	2570.20
225.00	2398.17
225.22	2406.36
225.44	2349.02
225.66	2619.35
225.88	2381.79
226.10	2340.83
226.32	2406.36
226.53	2588.63
226.75	2469.85
226.97	2418.65
227.19	2338.78
227.41	2308.06
227.63	2404.32
227.85	2228.19
228.06	2326.49
228.28	2574.30
228.50	2543.58
228.72	2267.10
228.94	2316.25
229.16	2318.30
229.37	2355.16
229.59	2275.29
229.81	2533.34
230.03	2455.51
230.25	2314.20
230.47	2277.34
230.69	2316.25
230.90	2584.54
231.12	2351.07
231.34	2367.45
231.56	2453.47
231.78	2357.21
232.00	2473.95
232.21	2359.26
232.43	2385.88
232.65	2215.90
232.87	2559.96
233.09	2224.09
233.30	2310.11
233.52	2576.34
233.74	2492.38
233.96	2301.92
234.18	2416.60
234.40	2465.75
234.61	2678.74
234.83	2340.83
235.05	2299.87
235.27	2793.43
235.49	2621.40
235.70	2289.63
235.92	2506.71
236.14	2578.39
236.36	2772.95
236.58	2281.44
236.79	2351.07
237.01	2439.13
237.23	2473.95
237.45	2602.97
237.67	2312.16
237.88	2615.26
238.10	2752.47
238.32	2220.00
238.54	2349.02
238.76	2437.08
238.97	2455.51
239.19	2299.87
239.41	2424.80
239.63	2531.29
239.85	2355.16
240.06	2291.68
240.28	2301.92
240.50	2537.43
240.72	2473.95
240.93	2277.34
241.15	2455.51
241.37	2531.29
241.59	2605.02
241.81	2291.68
242.02	2400.22
242.24	2496.47
242.46	2580.44
242.68	2293.72
242.89	2306.01
243.11	2594.78
243.33	2418.65
243.55	2375.64
243.76	2322.40
243.98	2392.03
244.20	2539.48
244.42	2299.87
244.64	2402.27
244.85	2289.63
245.07	2334.68
245.29	2457.56
245.51	2361.31
245.72	2496.47
245.94	2613.21
246.16	2365.40
246.38	2412.51
246.59	2303.96
246.81	2402.27
247.03	2318.30
247.24	2242.53
247.46	2490.33
247.68	2510.81
247.90	2277.34
248.11	2355.16
248.33	2557.91
248.55	2422.75
248.77	2359.26
248.98	2467.80
249.20	2674.65
249.42	2549.72
249.64	2318.30
249.85	2342.88
250.07	2443.23
250.29	2627.54
250.50	2385.88
250.72	2240.48
250.94	2498.52
251.16	2760.66
251.37	2357.21
251.59	2441.18
251.81	2547.67
252.02	2602.97
252.24	2340.83
252.46	2461.66
252.68	2351.07
252.89	2394.08
253.11	2236.38
253.33	2480.09
253.54	2639.83
253.76	2240.48
253.98	2373.60
254.20	2322.40
254.41	2281.44
254.63	2465.75
254.85	2265.05
255.06	2375.64
255.28	2519.00
255.50	2394.08
255.71	2228.19
255.93	2275.29
256.15	2469.85
256.36	2586.58
256.58	2277.34
256.80	2404.32
257.02	2465.75
257.23	2402.27
257.45	2375.64
257.67	2398.17
257.88	2383.84
258.10	2557.91
258.32	2385.88
258.53	2441.18
258.75	2611.16
258.97	2379.74
259.18	2320.35
259.40	2355.16
259.62	2760.66
259.83	2688.98
260.05	2398.17
260.27	2928.60
260.48	2566.10
260.70	2396.12
260.92	2267.10
261.13	2351.07
261.35	2482.14
261.57	2537.43
261.78	2273.25
262.00	2330.59
262.22	2516.95
262.43	2371.55
262.65	2334.68
262.86	2326.49
263.08	2844.63
263.30	2445.27
263.51	2236.38
263.73	2351.07
263.95	2693.08
264.16	2406.36
264.38	2269.15
264.60	2265.05
264.81	2514.91
265.03	2652.12
265.25	2596.82
265.46	2338.78
265.68	2619.35
265.89	2471.90
266.11	2263.01
266.33	2443.23
266.54	2564.06
266.76	2602.97
266.98	2414.56
267.19	2473.95
267.41	2711.51
267.62	2541.53
267.84	2211.81
268.06	2475.99
268.27	2519.00
268.49	2555.86
268.70	2422.75
268.92	2432.99
269.14	2289.63
269.35	2328.54
269.57	2344.92
269.79	2424.80
270.00	2375.64
270.22	2615.26
270.43	2301.92
270.65	2181.09
270.87	2535.39
271.08	2621.40
271.30	2449.37
271.51	2306.01
271.73	2559.96
271.95	2559.96
272.16	2375.64
272.38	2432.99
272.59	2441.18
272.81	2471.90
273.02	2334.68
273.24	2375.64
273.46	2613.21
273.67	2342.88
273.89	2281.44
274.10	2291.68
274.32	2645.98
274.54	2531.29
274.75	2428.89
274.97	2338.78
275.18	2684.89
275.40	2574.30
275.61	2357.21
275.83	2523.10
276.05	2349.02
276.26	2498.52
276.48	2371.55
276.69	2437.08
276.91	2398.17
277.12	2629.59
277.34	2506.71
277.55	2553.82
277.77	2521.05
277.99	2406.36
278.20	2375.64
278.42	2314.20
278.63	2297.82
278.85	2398.17
279.06	2363.36
279.28	2463.71
279.49	2648.02
279.71	2582.49
279.93	2398.17
280.14	2383.84
280.36	2408.41
280.57	2551.77
280.79	2504.67
281.00	2338.78
281.22	2383.84
281.43	2637.78
281.65	2308.06
281.86	2406.36
282.08	2590.68
282.29	2688.98
282.51	2326.49
282.73	2330.59
282.94	2320.35
283.16	2545.63
283.37	2512.86
283.59	2387.93
283.80	2559.96
284.02	2371.55
284.23	2473.95
284.45	2410.46
284.66	2416.60
284.88	2389.98
285.09	2432.99
285.31	2594.78
285.52	2521.05
285.74	2277.34
285.95	2500.57
286.17	2514.91
286.38	2574.30
286.60	2314.20
286.81	2432.99
287.03	2359.26
287.24	2428.89
287.46	2537.43
287.67	2432.99
287.89	2660.31
288.10	2523.10
288.32	2541.53
288.53	2658.26
288.75	2379.74
288.96	2519.00
289.18	2473.95
289.39	2367.45
289.61	2519.00
289.82	2764.76
290.04	2652.12
290.25	2291.68
290.47	2406.36
290.68	2473.95
290.90	2629.59
291.11	2254.81
291.33	2590.68
291.54	2334.68
291.76	2461.66
291.97	2510.81
292.18	2478.04
292.40	2408.41
292.61	2402.27
292.83	2699.22
293.04	2504.67
293.26	2533.34
293.47	2416.60
293.69	2375.64
293.90	2373.60
294.12	2590.68
294.33	2392.03
294.55	2424.80
294.76	2535.39
294.97	2615.26
295.19	2744.28
295.40	2416.60
295.62	2449.37
295.83	2654.17
296.05	2475.99
296.26	2541.53
296.48	2367.45
296.69	2465.75
296.90	2451.42
297.12	2539.48
297.33	2523.10
297.55	2516.95
297.76	2594.78
297.98	2473.95
298.19	2600.92
298.41	2486.23
298.62	2412.51
298.83	2633.69
299.05	2410.46
299.26	2394.08
299.48	2310.11
299.69	2500.57
299.90	2422.75
300.12	2373.60
300.33	2592.73
300.55	2486.23
300.76	2482.14
300.98	2389.98
301.19	2586.58
301.40	2367.45
301.62	2351.07
301.83	2557.91
302.05	2478.04
302.26	2324.44
302.47	2492.38
302.69	2453.47
302.90	2467.80
303.12	2207.71
303.33	2467.80
303.54	2789.33
303.76	2486.23
303.97	2471.90
304.19	2578.39
304.40	2336.73
304.61	2588.63
304.83	2480.09
305.04	2531.29
305.26	2527.19
305.47	2478.04
305.68	2453.47
305.90	2377.69
306.11	2551.77
306.33	2443.23
306.54	2396.12
306.75	2392.03
306.97	2322.40
307.18	2379.74
307.39	2387.93
307.61	2447.32
307.82	2453.47
308.04	2580.44
308.25	2314.20
308.46	2543.58
308.68	2349.02
308.89	2537.43
309.10	2557.91
309.32	2523.10
309.53	2508.76
309.74	2625.50
309.96	2365.40
310.17	2502.62
310.39	2400.22
310.60	2467.80
310.81	2482.14
311.03	2322.40
311.24	2580.44
311.45	2435.03
311.67	2576.34
311.88	2566.10
312.09	2441.18
312.31	2414.56
312.52	2422.75
312.73	2371.55
312.95	2277.34
313.16	2375.64
313.37	2586.58
313.59	2473.95
313.80	2596.82
314.01	2723.80
314.23	2394.08
314.44	2361.31
314.65	2258.91
314.87	2439.13
315.08	2355.16
315.29	2410.46
315.51	2320.35
315.72	2301.92
315.93	2537.43
316.15	2437.08
316.36	2400.22
316.57	2453.47
316.79	2496.47
317.00	2342.88
317.21	2457.56
317.43	2437.08
317.64	2469.85
317.85	2353.12
318.07	2439.13
318.28	2408.41
318.49	2582.49
318.70	2633.69
318.92	2691.03
319.13	2697.17
319.34	2605.02
319.56	2478.04
319.77	2568.15
319.98	2594.78
320.20	2586.58
320.41	2562.01
320.62	2543.58
320.83	2301.92
321.05	2629.59
321.26	2420.70
321.47	2467.80
321.69	2625.50
321.90	2338.78
322.11	2408.41
322.32	2506.71
322.54	2707.41
322.75	2441.18
322.96	2867.16
323.18	2297.82
323.39	2263.01
323.60	2349.02
323.81	2521.05
324.03	2461.66
324.24	2527.19
324.45	2461.66
324.66	2375.64
324.88	2605.02
325.09	2719.70
325.30	2490.33
325.52	2400.22
325.73	2553.82
325.94	2369.50
326.15	2287.58
326.37	2402.27
326.58	2568.15
326.79	2731.99
327.00	2375.64
327.22	2398.17
327.43	2473.95
327.64	2310.11
327.85	2490.33
328.07	2359.26
328.28	2701.27
328.49	2451.42
328.70	2424.80
328.92	2416.60
329.13	2471.90
329.34	2523.10
329.55	2617.30
329.76	2551.77
329.98	2447.32
330.19	2537.43
330.40	2492.38
330.61	2490.33
330.83	2572.25
331.04	2420.70
331.25	2379.74
331.46	2387.93
331.68	2342.88
331.89	2629.59
332.10	2457.56
332.31	2363.36
332.52	2486.23
332.74	2615.26
332.95	2273.25
333.16	2457.56
333.37	2543.58
333.58	2471.90
333.80	2365.40
334.01	2301.92
334.22	2469.85
334.43	2412.51
334.64	2383.84
334.86	2310.11
335.07	2383.84
335.28	2664.41
335.49	2176.99
335.70	2473.95
335.92	2643.93
336.13	2744.28
336.34	2525.15
336.55	2457.56
336.76	2437.08
336.98	2283.49
337.19	2408.41
337.40	2623.45
337.61	2766.81
337.82	2371.55
338.04	2514.91
338.25	2324.44
338.46	2418.65
338.67	2449.37
338.88	2359.26
339.09	2285.53
339.31	2435.03
339.52	2381.79
339.73	2293.72
339.94	2432.99
340.15	2582.49
340.36	2414.56
340.58	2420.70
340.79	2355.16
341.00	2564.06
341.21	2332.64
341.42	2586.58
341.63	2379.74
341.85	2541.53
342.06	2496.47
342.27	2340.83
342.48	2533.34
342.69	2277.34
342.90	2580.44
343.12	2619.35
343.33	2392.03
343.54	2621.40
343.75	2613.21
343.96	2400.22
344.17	2408.41
344.38	2494.43
344.60	2418.65
344.81	2291.68
345.02	2416.60
345.23	2652.12
345.44	2781.14
345.65	2490.33
345.86	2475.99
346.07	2469.85
346.29	2398.17
346.50	2514.91
346.71	2541.53
346.92	2562.01
347.13	2768.85
347.34	2367.45
347.55	2349.02
347.76	2537.43
347.98	2289.63
348.19	2344.92
348.40	2611.16
348.61	2473.95
348.82	2723.80
349.03	2480.09
349.24	2367.45
349.45	2736.09
349.66	2265.05
349.88	2435.03
350.09	2381.79
350.30	2588.63
350.51	2635.74
350.72	2490.33
350.93	2430.94
351.14	2461.66
351.35	2596.82
351.56	2488.28
351.77	2441.18
351.99	2574.30
352.20	2697.17
352.41	2498.52
352.62	2215.90
352.83	2490.33
353.04	2514.91
353.25	2396.12
353.46	2488.28
353.67	2572.25
353.88	2277.34
354.09	2367.45
354.30	2432.99
354.52	2578.39
354.73	2498.52
354.94	2379.74
355.15	2514.91
355.36	2709.46
355.57	2389.98
355.78	2387.93
355.99	2346.97
356.20	2457.56
356.41	2574.30
356.62	2553.82
356.83	2461.66
357.04	2600.92
357.25	2301.92
357.46	2408.41
357.68	2285.53
357.89	2396.12
358.10	2461.66
358.31	2392.03
358.52	2510.81
358.73	2351.07
358.94	2398.17
359.15	2412.51
359.36	2439.13
359.57	2582.49
359.78	2529.24
359.99	2453.47
360.20	2336.73
360.41	2428.89
360.62	2537.43
360.83	2451.42
361.04	2480.09
361.25	2535.39
361.46	2709.46
361.67	2490.33
361.88	2490.33
362.09	2621.40
362.30	2519.00
362.51	2439.13
362.72	2480.09
362.93	2605.02
363.14	2531.29
363.35	2461.66
363.56	2338.78
363.78	2574.30
363.99	2613.21
364.20	2416.60
364.41	2514.91
364.62	2609.11
364.83	2519.00
365.04	2410.46
365.25	2500.57
365.46	2725.85
365.67	2392.03
365.88	2443.23
366.09	2410.46
366.30	2406.36
366.51	2437.08
366.72	2355.16
366.93	2463.71
367.14	2478.04
367.35	2703.32
367.56	2375.64
367.77	2504.67
367.98	2424.80
368.18	2609.11
368.39	2514.91
368.60	2404.32
368.81	2627.54
369.02	2555.86
369.23	2389.98
369.44	2283.49
369.65	2514.91
369.86	2588.63
370.07	2523.10
370.28	2357.21
370.49	2553.82
370.70	2506.71
370.91	2256.86
371.12	2346.97
371.33	2666.46
371.54	2467.80
371.75	2611.16
371.96	2248.67
372.17	2478.04
372.38	2410.46
372.59	2457.56
372.80	2363.36
373.01	2453.47
373.22	2475.99
373.43	2406.36
373.64	2256.86
373.85	2637.78
374.06	2715.61
374.26	2574.30
374.47	2539.48
374.68	2674.65
374.89	2514.91
375.10	2408.41
375.31	2572.25
375.52	2535.39
375.73	2508.76
375.94	2267.10
376.15	2596.82
376.36	2381.79
376.57	2441.18
376.78	2400.22
376.99	2459.61
377.20	2605.02
377.40	2402.27
377.61	2588.63
377.82	2383.84
378.03	2752.47
378.24	2537.43
378.45	2506.71
378.66	2478.04
378.87	2285.53
379.08	2351.07
379.29	2432.99
379.50	2594.78
379.71	2486.23
379.91	2543.58
380.12	2416.60
380.33	2383.84
380.54	2406.36
380.75	2412.51
380.96	2473.95
381.17	2449.37
381.38	2475.99
381.59	2504.67
381.80	2465.75
382.00	2637.78
382.21	2555.86
382.42	2678.74
382.63	2701.27
382.84	2523.10
383.05	2582.49
383.26	2686.94
383.47	2568.15
383.68	2482.14
383.88	2572.25
384.09	2422.75
384.30	2660.31
384.51	2457.56
384.72	2365.40
384.93	2414.56
385.14	2451.42
385.35	2576.34
385.55	2285.53
385.76	2676.70
385.97	2424.80
386.18	2291.68
386.39	2359.26
386.60	2420.70
386.81	2461.66
387.02	2295.77
387.22	2377.69
387.43	2531.29
387.64	2568.15
387.85	2621.40
388.06	2707.41
388.27	4044.74
388.48	8263.55
388.68	11984.71
388.89	14354.21
389.10	15890.19
389.31	14896.92
389.52	11587.41
389.73	10078.05
389.93	9097.08
390.14	8281.99
390.35	7405.46
390.56	6780.82
390.77	5377.97
390.98	4091.84
391.18	3373.00
391.39	3022.80
391.60	2514.91
391.81	2668.50
392.02	2441.18
392.23	2785.24
392.43	2496.47
392.64	2588.63
392.85	2457.56
393.06	2768.85
393.27	2455.51
393.47	2449.37
393.68	2465.75
393.89	2453.47
394.10	2584.54
394.31	2480.09
394.52	2373.60
394.72	2383.84
394.93	2641.88
395.14	2340.83
395.35	2535.39
395.56	2387.93
395.76	2527.19
395.97	2400.22
396.18	2596.82
396.39	2658.26
396.60	3037.14
396.80	2701.27
397.01	2609.11
397.22	2672.60
397.43	2688.98
397.64	2457.56
397.84	2592.73
398.05	2725.85
398.26	2580.44
398.47	2559.96
398.67	2578.39
398.88	2463.71
399.09	2551.77
399.30	2310.11
399.51	2430.94
399.71	2363.36
399.92	2488.28
400.13	2531.29
400.34	2455.51
400.54	2521.05
400.75	2625.50
400.96	2465.75
401.17	2699.22
401.37	2498.52
401.58	2527.19
401.79	2451.42
402.00	2605.02
402.21	2883.54
402.41	2770.90
402.62	2813.91
402.83	2951.12
403.04	2844.63
403.24	3194.83
403.45	2592.73
403.66	2758.61
403.87	2703.32
404.07	2775.00
404.28	2656.22
404.49	2672.60
404.70	2602.97
404.90	2623.45
405.11	2523.10
405.32	2457.56
405.52	2441.18
405.73	2447.32
405.94	2326.49
406.15	2465.75
406.35	2486.23
406.56	2580.44
406.77	2498.52
406.98	2490.33
407.18	2410.46
407.39	2648.02
407.60	2398.17
407.80	2449.37
408.01	2562.01
408.22	2525.15
408.43	2404.32
408.63	2564.06
408.84	2580.44
409.05	2570.20
409.25	2375.64
409.46	2355.16
409.67	2432.99
409.88	2400.22
410.08	2516.95
410.29	2426.84
410.50	2637.78
410.70	2537.43
410.91	2369.50
411.12	2555.86
411.32	2496.47
411.53	2394.08
411.74	2473.95
411.95	2514.91
412.15	2525.15
412.36	2639.83
412.57	2652.12
412.77	2695.13
412.98	2441.18
413.19	2398.17
413.39	2496.47
413.60	2482.14
413.81	2686.94
414.01	2340.83
414.22	2504.67
414.43	2547.67
414.63	2375.64
414.84	2555.86
415.05	2500.57
415.25	2258.91
415.46	2609.11
415.67	2412.51
415.87	2457.56
416.08	2471.90
416.29	2473.95
416.49	2545.63
416.70	2365.40
416.91	2342.88
417.11	2514.91
417.32	2607.06
417.53	2543.58
417.73	2486.23
417.94	2465.75
418.15	2465.75
418.35	2490.33
418.56	2453.47
418.77	2793.43
418.97	2535.39
419.18	2408.41
419.38	2220.00
419.59	2498.52
419.80	2723.80
420.00	2453.47
420.21	2482.14
420.42	2633.69
420.62	2508.76
420.83	2439.13
421.04	2406.36
421.24	2443.23
421.45	2494.43
421.65	2529.24
421.86	2435.03
422.07	2547.67
422.27	2498.52
422.48	2541.53
422.69	2373.60
422.89	2463.71
423.10	2412.51
423.30	2371.55
423.51	2512.86
423.72	2498.52
423.92	2555.86
424.13	2308.06
424.33	2529.24
424.54	2584.54
424.75	2584.54
424.95	2629.59
425.16	2449.37
425.36	2455.51
425.57	2559.96
425.78	2525.15
425.98	2537.43
426.19	2453.47
426.39	2346.97
426.60	2404.32
426.81	2564.06
427.01	2596.82
427.22	2422.75
427.42	2273.25
427.63	2303.96
427.83	2547.67
428.04	2731.99
428.25	2607.06
428.45	2588.63
428.66	2678.74
428.86	2426.84
429.07	2465.75
429.28	2420.70
429.48	2400.22
429.69	2430.94
429.89	2496.47
430.10	2353.12
430.30	2586.58
430.51	2633.69
430.71	2361.31
430.92	2410.46
431.13	2346.97
431.33	2607.06
431.54	2447.32
431.74	2598.87
431.95	2727.89
432.15	2424.80
432.36	2414.56
432.56	2506.71
432.77	2764.76
432.98	2670.55
433.18	2424.80
433.39	2359.26
433.59	2404.32
433.80	2705.37
434.00	2711.51
434.21	2379.74
434.41	2428.89
434.62	2789.33
434.82	2367.45
435.03	2310.11
435.23	2514.91
435.44	2279.39
435.64	2447.32
435.85	2510.81
436.06	2564.06
436.26	2662.36
436.47	2394.08
436.67	2422.75
436.88	2521.05
437.08	2607.06
437.29	2629.59
437.49	2504.67
437.70	2598.87
437.90	2400.22
438.11	2701.27
438.31	2504.67
438.52	2699.22
438.72	2670.55
438.93	2721.75
439.13	2521.05
439.34	2637.78
439.54	2566.10
439.75	2523.10
439.95	2447.32
440.16	2398.17
440.36	2459.61
440.57	2465.75
440.77	2475.99
440.98	2521.05
441.18	2506.71
441.39	2404.32
441.59	2387.93
441.80	2750.42
442.00	2455.51
442.21	2619.35
442.41	2314.20
442.62	2592.73
442.82	2428.89
443.02	2357.21
443.23	2445.27
443.43	2469.85
443.64	2783.19
443.84	2416.60
444.05	2627.54
444.25	2551.77
444.46	2514.91
444.66	2498.52
444.87	2686.94
445.07	2338.78
445.28	2537.43
445.48	2564.06
445.69	2527.19
445.89	2824.15
446.09	2488.28
446.30	2764.76
446.50	2979.79
446.71	4612.03
446.91	5861.29
447.12	6588.32
447.32	6963.09
447.53	6516.64
447.73	5484.46
447.93	4802.49
448.14	4480.96
448.34	4433.85
448.55	3811.27
448.75	3758.02
448.96	3549.13
449.16	3252.17
449.36	3086.29
449.57	2701.27
449.77	2543.58
449.98	2488.28
450.18	2566.10
450.39	2508.76
450.59	2615.26
450.79	2432.99
451.00	2437.08
451.20	2568.15
451.41	2408.41
451.61	2578.39
451.81	2543.58
452.02	2432.99
452.22	2432.99
452.43	2430.94
