SpectraSuite Data File
++++++++++++++++++++++++++++++++++++
Date: Thu May 05 14:41:59 CEST 2016
User: root
Dark Spectrum Present: No
Reference Spectrum Present: No
Number of Sampled Component Spectra: 1
Spectrometers: USB4C02835
Integration Time (usec): 100000 (USB4C02835)
Spectra Averaged: 1 (USB4C02835)
Boxcar Smoothing: 0 (USB4C02835)
Correct for Electrical Dark: No (USB4C02835)
Strobe/Lamp Enabled: No (USB4C02835)
Correct for Detector Non-linearity: No (USB4C02835)
Correct for Stray Light: No (USB4C02835)
Number of Pixels in Processed Spectrum: 3648
>>>>>Begin Processed Spectral Data<<<<<
177.47	1900.52
177.69	1900.52
177.91	1900.52
178.13	1875.94
178.36	1884.13
178.58	2371.55
178.80	2428.89
179.02	2303.96
179.24	2389.98
179.46	2252.77
179.68	2363.36
179.90	2432.99
180.13	2461.66
180.35	2238.43
180.57	2359.26
180.79	2580.44
181.01	2478.04
181.23	2392.03
181.45	2426.84
181.67	2592.73
181.90	2598.87
182.12	2392.03
182.34	2191.33
182.56	2537.43
182.78	2564.06
183.00	2330.59
183.22	2441.18
183.44	2306.01
183.66	2791.38
183.89	2592.73
184.11	2357.21
184.33	2596.82
184.55	2592.73
184.77	2310.11
184.99	2410.46
185.21	2463.71
185.43	2711.51
185.65	2330.59
185.87	2318.30
186.10	2777.05
186.32	2822.10
186.54	2359.26
186.76	2480.09
186.98	2564.06
187.20	2480.09
187.42	2418.65
187.64	2361.31
187.86	2521.05
188.08	2521.05
188.30	2349.02
188.52	2349.02
188.75	2611.16
188.97	2641.88
189.19	2324.44
189.41	2295.77
189.63	2535.39
189.85	2365.40
190.07	2254.81
190.29	2238.43
190.51	2521.05
190.73	2365.40
190.95	2441.18
191.17	2344.92
191.39	2371.55
191.61	2367.45
191.84	2328.54
192.06	2428.89
192.28	2326.49
192.50	2850.77
192.72	2447.32
192.94	2369.50
193.16	2586.58
193.38	2490.33
193.60	2250.72
193.82	2494.43
194.04	2588.63
194.26	2592.73
194.48	2416.60
194.70	2359.26
194.92	2408.41
195.14	2506.71
195.36	2324.44
195.58	2377.69
195.80	2457.56
196.02	2441.18
196.24	2269.15
196.46	2478.04
196.69	2385.88
196.91	2854.87
197.13	2459.61
197.35	2260.96
197.57	2656.22
197.79	2512.86
198.01	2342.88
198.23	2445.27
198.45	2572.25
198.67	2291.68
198.89	2244.57
199.11	2439.13
199.33	2439.13
199.55	2236.38
199.77	2353.12
199.99	2539.48
200.21	2389.98
200.43	2475.99
200.65	2285.53
200.87	2191.33
201.09	2441.18
201.31	2426.84
201.53	2467.80
201.75	2402.27
201.97	2473.95
202.19	2498.52
202.41	2389.98
202.63	2512.86
202.85	2469.85
203.07	2547.67
203.29	2349.02
203.51	2318.30
203.73	2371.55
203.95	2781.14
204.17	2373.60
204.39	2445.27
204.61	2441.18
204.83	2408.41
205.05	2449.37
205.27	2342.88
205.49	2717.65
205.71	2496.47
205.93	2277.34
206.15	2275.29
206.37	2506.71
206.59	2453.47
206.81	2277.34
207.03	2256.86
207.25	2330.59
207.47	2582.49
207.69	2451.42
207.91	2521.05
208.13	2645.98
208.34	2451.42
208.56	2316.25
208.78	2387.93
209.00	2424.80
209.22	2465.75
209.44	2338.78
209.66	2269.15
209.88	2469.85
210.10	2398.17
210.32	2326.49
210.54	2488.28
210.76	2459.61
210.98	2656.22
211.20	2160.61
211.42	2455.51
211.64	2721.75
211.86	2574.30
212.08	2357.21
212.30	2355.16
212.52	2504.67
212.74	2539.48
212.96	2406.36
213.17	2394.08
213.39	2598.87
213.61	2662.36
213.83	2310.11
214.05	2455.51
214.27	2680.79
214.49	2346.97
214.71	2258.91
214.93	2437.08
215.15	2461.66
215.37	2650.07
215.59	2291.68
215.81	2447.32
216.03	2688.98
216.24	2543.58
216.46	2367.45
216.68	2445.27
216.90	2559.96
217.12	2572.25
217.34	2252.77
217.56	2490.33
217.78	2613.21
218.00	2525.15
218.22	2437.08
218.44	2478.04
218.66	2480.09
218.87	2758.61
219.09	2334.68
219.31	2357.21
219.53	2469.85
219.75	2465.75
219.97	2375.64
220.19	2361.31
220.41	2482.14
220.63	2650.07
220.85	2371.55
221.06	2328.54
221.28	2701.27
221.50	2588.63
221.72	2398.17
221.94	2252.77
222.16	2426.84
222.38	2559.96
222.60	2379.74
222.82	2340.83
223.03	2609.11
223.25	2334.68
223.47	2375.64
223.69	2521.05
223.91	2531.29
224.13	2441.18
224.35	2232.29
224.57	2510.81
224.78	2607.06
225.00	2355.16
225.22	2314.20
225.44	2326.49
225.66	2637.78
225.88	2414.56
226.10	2367.45
226.32	2353.12
226.53	2635.74
226.75	2408.41
226.97	2389.98
227.19	2312.16
227.41	2402.27
227.63	2473.95
227.85	2211.81
228.06	2402.27
228.28	2490.33
228.50	2506.71
228.72	2215.90
228.94	2355.16
229.16	2351.07
229.37	2402.27
229.59	2351.07
229.81	2568.15
230.03	2367.45
230.25	2375.64
230.47	2228.19
230.69	2287.58
230.90	2625.50
231.12	2326.49
231.34	2457.56
231.56	2473.95
231.78	2340.83
232.00	2506.71
232.21	2338.78
232.43	2338.78
232.65	2285.53
232.87	2564.06
233.09	2226.14
233.30	2351.07
233.52	2605.02
233.74	2504.67
233.96	2334.68
234.18	2439.13
234.40	2473.95
234.61	2711.51
234.83	2281.44
235.05	2285.53
235.27	2762.71
235.49	2572.25
235.70	2285.53
235.92	2406.36
236.14	2519.00
236.36	2758.61
236.58	2265.05
236.79	2400.22
237.01	2488.28
237.23	2453.47
237.45	2514.91
237.67	2322.40
237.88	2498.52
238.10	2680.79
238.32	2248.67
238.54	2355.16
238.76	2482.14
238.97	2328.54
239.19	2283.49
239.41	2432.99
239.63	2631.64
239.85	2383.84
240.06	2301.92
240.28	2224.09
240.50	2588.63
240.72	2484.19
240.93	2269.15
241.15	2424.80
241.37	2441.18
241.59	2605.02
241.81	2301.92
242.02	2283.49
242.24	2500.57
242.46	2652.12
242.68	2226.14
242.89	2318.30
243.11	2654.17
243.33	2408.41
243.55	2375.64
243.76	2400.22
243.98	2363.36
244.20	2516.95
244.42	2365.40
244.64	2412.51
244.85	2283.49
245.07	2369.50
245.29	2363.36
245.51	2338.78
245.72	2506.71
245.94	2568.15
246.16	2359.26
246.38	2453.47
246.59	2447.32
246.81	2346.97
247.03	2351.07
247.24	2187.23
247.46	2326.49
247.68	2439.13
247.90	2277.34
248.11	2346.97
248.33	2611.16
248.55	2492.38
248.77	2400.22
248.98	2396.12
249.20	2705.37
249.42	2547.67
249.64	2367.45
249.85	2301.92
250.07	2486.23
250.29	2531.29
250.50	2410.46
250.72	2281.44
250.94	2453.47
251.16	2744.28
251.37	2416.60
251.59	2508.76
251.81	2514.91
252.02	2697.17
252.24	2289.63
252.46	2451.42
252.68	2342.88
252.89	2369.50
253.11	2236.38
253.33	2424.80
253.54	2631.64
253.76	2328.54
253.98	2310.11
254.20	2291.68
254.41	2234.33
254.63	2451.42
254.85	2222.05
255.06	2363.36
255.28	2498.52
255.50	2394.08
255.71	2373.60
255.93	2195.42
256.15	2463.71
256.36	2541.53
256.58	2275.29
256.80	2342.88
257.02	2412.51
257.23	2363.36
257.45	2377.69
257.67	2453.47
257.88	2455.51
258.10	2562.01
258.32	2410.46
258.53	2385.88
258.75	2676.70
258.97	2445.27
259.18	2293.72
259.40	2326.49
259.62	2652.12
259.83	2686.94
260.05	2367.45
260.27	2879.44
260.48	2596.82
260.70	2340.83
260.92	2297.82
261.13	2387.93
261.35	2521.05
261.57	2525.15
261.78	2265.05
262.00	2277.34
262.22	2531.29
262.43	2396.12
262.65	2383.84
262.86	2408.41
263.08	2805.72
263.30	2430.94
263.51	2228.19
263.73	2316.25
263.95	2717.65
264.16	2410.46
264.38	2263.01
264.60	2310.11
264.81	2480.09
265.03	2682.84
265.25	2609.11
265.46	2228.19
265.68	2664.41
265.89	2555.86
266.11	2260.96
266.33	2365.40
266.54	2633.69
266.76	2519.00
266.98	2469.85
267.19	2449.37
267.41	2615.26
267.62	2475.99
267.84	2285.53
268.06	2408.41
268.27	2531.29
268.49	2621.40
268.70	2416.60
268.92	2375.64
269.14	2375.64
269.35	2363.36
269.57	2344.92
269.79	2418.65
270.00	2396.12
270.22	2652.12
270.43	2222.05
270.65	2220.00
270.87	2547.67
271.08	2580.44
271.30	2406.36
271.51	2361.31
271.73	2457.56
271.95	2691.03
272.16	2293.72
272.38	2424.80
272.59	2469.85
272.81	2645.98
273.02	2338.78
273.24	2420.70
273.46	2588.63
273.67	2334.68
273.89	2236.38
274.10	2412.51
274.32	2582.49
274.54	2490.33
274.75	2361.31
274.97	2369.50
275.18	2557.91
275.40	2510.81
275.61	2416.60
275.83	2349.02
276.05	2342.88
276.26	2494.43
276.48	2349.02
276.69	2439.13
276.91	2406.36
277.12	2557.91
277.34	2621.40
277.55	2582.49
277.77	2531.29
277.99	2475.99
278.20	2432.99
278.42	2346.97
278.63	2422.75
278.85	2375.64
279.06	2269.15
279.28	2512.86
279.49	2621.40
279.71	2623.45
279.93	2494.43
280.14	2412.51
280.36	2314.20
280.57	2547.67
280.79	2555.86
281.00	2357.21
281.22	2420.70
281.43	2711.51
281.65	2334.68
281.86	2336.73
282.08	2588.63
282.29	2686.94
282.51	2310.11
282.73	2285.53
282.94	2291.68
283.16	2586.58
283.37	2512.86
283.59	2449.37
283.80	2527.19
284.02	2488.28
284.23	2422.75
284.45	2371.55
284.66	2353.12
284.88	2424.80
285.09	2396.12
285.31	2482.14
285.52	2531.29
285.74	2326.49
285.95	2498.52
286.17	2402.27
286.38	2574.30
286.60	2375.64
286.81	2361.31
287.03	2351.07
287.24	2510.81
287.46	2582.49
287.67	2453.47
287.89	2674.65
288.10	2494.43
288.32	2582.49
288.53	2586.58
288.75	2514.91
288.96	2551.77
289.18	2471.90
289.39	2416.60
289.61	2498.52
289.82	2789.33
290.04	2734.04
290.25	2363.36
290.47	2471.90
290.68	2514.91
290.90	2555.86
291.11	2291.68
291.33	2588.63
291.54	2357.21
291.76	2453.47
291.97	2432.99
292.18	2469.85
292.40	2471.90
292.61	2437.08
292.83	2631.64
293.04	2422.75
293.26	2447.32
293.47	2478.04
293.69	2357.21
293.90	2412.51
294.12	2711.51
294.33	2512.86
294.55	2422.75
294.76	2533.34
294.97	2564.06
295.19	2813.91
295.40	2367.45
295.62	2473.95
295.83	2566.10
296.05	2310.11
296.26	2590.68
296.48	2281.44
296.69	2426.84
296.90	2506.71
297.12	2574.30
297.33	2478.04
297.55	2484.19
297.76	2566.10
297.98	2488.28
298.19	2521.05
298.41	2502.62
298.62	2346.97
298.83	2529.24
299.05	2457.56
299.26	2435.03
299.48	2332.64
299.69	2430.94
299.90	2404.32
300.12	2381.79
300.33	2590.68
300.55	2414.56
300.76	2449.37
300.98	2392.03
301.19	2547.67
301.40	2396.12
301.62	2447.32
301.83	2570.20
302.05	2461.66
302.26	2406.36
302.47	2453.47
302.69	2383.84
302.90	2537.43
303.12	2246.62
303.33	2465.75
303.54	2727.89
303.76	2504.67
303.97	2396.12
304.19	2521.05
304.40	2353.12
304.61	2555.86
304.83	2512.86
305.04	2588.63
305.26	2547.67
305.47	2451.42
305.68	2383.84
305.90	2277.34
306.11	2609.11
306.33	2480.09
306.54	2410.46
306.75	2367.45
306.97	2273.25
307.18	2289.63
307.39	2367.45
307.61	2531.29
307.82	2451.42
308.04	2576.34
308.25	2357.21
308.46	2465.75
308.68	2535.39
308.89	2424.80
309.10	2510.81
309.32	2412.51
309.53	2471.90
309.74	2633.69
309.96	2404.32
310.17	2547.67
310.39	2428.89
310.60	2559.96
310.81	2457.56
311.03	2191.33
311.24	2623.45
311.45	2428.89
311.67	2562.01
311.88	2457.56
312.09	2465.75
312.31	2439.13
312.52	2349.02
312.73	2295.77
312.95	2283.49
313.16	2410.46
313.37	2531.29
313.59	2473.95
313.80	2568.15
314.01	2641.88
314.23	2351.07
314.44	2316.25
314.65	2326.49
314.87	2381.79
315.08	2426.84
315.29	2414.56
315.51	2406.36
315.72	2367.45
315.93	2555.86
316.15	2537.43
316.36	2392.03
316.57	2469.85
316.79	2502.62
317.00	2394.08
317.21	2564.06
317.43	2346.97
317.64	2381.79
317.85	2365.40
318.07	2447.32
318.28	2449.37
318.49	2660.31
318.70	2691.03
318.92	2547.67
319.13	2566.10
319.34	2637.78
319.56	2545.63
319.77	2674.65
319.98	2680.79
320.20	2590.68
320.41	2465.75
320.62	2562.01
320.83	2299.87
321.05	2539.48
321.26	2383.84
321.47	2463.71
321.69	2555.86
321.90	2373.60
322.11	2387.93
322.32	2547.67
322.54	2688.98
322.75	2342.88
322.96	2840.53
323.18	2260.96
323.39	2201.57
323.60	2375.64
323.81	2537.43
324.03	2383.84
324.24	2490.33
324.45	2424.80
324.66	2445.27
324.88	2666.46
325.09	2615.26
325.30	2482.14
325.52	2435.03
325.73	2531.29
325.94	2422.75
326.15	2330.59
326.37	2428.89
326.58	2613.21
326.79	2590.68
327.00	2330.59
327.22	2406.36
327.43	2432.99
327.64	2426.84
327.85	2482.14
328.07	2439.13
328.28	2734.04
328.49	2471.90
328.70	2424.80
328.92	2375.64
329.13	2510.81
329.34	2584.54
329.55	2639.83
329.76	2494.43
329.98	2482.14
330.19	2709.46
330.40	2451.42
330.61	2404.32
330.83	2549.72
331.04	2349.02
331.25	2486.23
331.46	2392.03
331.68	2365.40
331.89	2588.63
332.10	2447.32
332.31	2250.72
332.52	2400.22
332.74	2629.59
332.95	2273.25
333.16	2420.70
333.37	2578.39
333.58	2490.33
333.80	2478.04
334.01	2236.38
334.22	2432.99
334.43	2414.56
334.64	2371.55
334.86	2303.96
335.07	2406.36
335.28	2701.27
335.49	2338.78
335.70	2512.86
335.92	2588.63
336.13	2752.47
336.34	2562.01
336.55	2508.76
336.76	2484.19
336.98	2267.10
337.19	2449.37
337.40	2553.82
337.61	2832.34
337.82	2473.95
338.04	2494.43
338.25	2310.11
338.46	2437.08
338.67	2424.80
338.88	2392.03
339.09	2377.69
339.31	2283.49
339.52	2373.60
339.73	2295.77
339.94	2449.37
340.15	2531.29
340.36	2342.88
340.58	2439.13
340.79	2303.96
341.00	2506.71
341.21	2183.13
341.42	2570.20
341.63	2387.93
341.85	2553.82
342.06	2514.91
342.27	2369.50
342.48	2559.96
342.69	2355.16
342.90	2473.95
343.12	2596.82
343.33	2363.36
343.54	2475.99
343.75	2539.48
343.96	2449.37
344.17	2363.36
344.38	2539.48
344.60	2379.74
344.81	2324.44
345.02	2402.27
345.23	2662.36
345.44	2748.37
345.65	2535.39
345.86	2455.51
346.07	2488.28
346.29	2396.12
346.50	2504.67
346.71	2541.53
346.92	2662.36
347.13	2701.27
347.34	2443.23
347.55	2351.07
347.76	2525.15
347.98	2318.30
348.19	2445.27
348.40	2533.34
348.61	2432.99
348.82	2734.04
349.03	2523.10
349.24	2416.60
349.45	2682.84
349.66	2228.19
349.88	2424.80
350.09	2361.31
350.30	2572.25
350.51	2656.22
350.72	2504.67
350.93	2502.62
351.14	2381.79
351.35	2559.96
351.56	2480.09
351.77	2416.60
351.99	2592.73
352.20	2648.02
352.41	2519.00
352.62	2211.81
352.83	2510.81
353.04	2437.08
353.25	2375.64
353.46	2406.36
353.67	2539.48
353.88	2232.29
354.09	2416.60
354.30	2490.33
354.52	2578.39
354.73	2506.71
354.94	2385.88
355.15	2441.18
355.36	2676.70
355.57	2420.70
355.78	2482.14
355.99	2416.60
356.20	2375.64
356.41	2596.82
356.62	2514.91
356.83	2461.66
357.04	2688.98
357.25	2379.74
357.46	2414.56
357.68	2269.15
357.89	2400.22
358.10	2414.56
358.31	2375.64
358.52	2424.80
358.73	2332.64
358.94	2383.84
359.15	2435.03
359.36	2400.22
359.57	2480.09
359.78	2484.19
359.99	2535.39
360.20	2342.88
360.41	2455.51
360.62	2478.04
360.83	2416.60
361.04	2392.03
361.25	2529.24
361.46	2734.04
361.67	2564.06
361.88	2473.95
362.09	2580.44
362.30	2574.30
362.51	2355.16
362.72	2467.80
362.93	2490.33
363.14	2519.00
363.35	2410.46
363.56	2320.35
363.78	2654.17
363.99	2545.63
364.20	2404.32
364.41	2451.42
364.62	2703.32
364.83	2559.96
365.04	2471.90
365.25	2420.70
365.46	2854.87
365.67	2375.64
365.88	2482.14
366.09	2351.07
366.30	2428.89
366.51	2525.15
366.72	2357.21
366.93	2387.93
367.14	2498.52
367.35	2680.79
367.56	2349.02
367.77	2535.39
367.98	2389.98
368.18	2516.95
368.39	2471.90
368.60	2306.01
368.81	2641.88
369.02	2516.95
369.23	2447.32
369.44	2306.01
369.65	2355.16
369.86	2621.40
370.07	2535.39
370.28	2322.40
370.49	2586.58
370.70	2492.38
370.91	2381.79
371.12	2263.01
371.33	2588.63
371.54	2465.75
371.75	2586.58
371.96	2217.95
372.17	2545.63
372.38	2457.56
372.59	2514.91
372.80	2408.41
373.01	2492.38
373.22	2580.44
373.43	2385.88
373.64	2289.63
373.85	2617.30
374.06	2676.70
374.26	2551.77
374.47	2498.52
374.68	2760.66
374.89	2478.04
375.10	2392.03
375.31	2572.25
375.52	2422.75
375.73	2557.91
375.94	2322.40
376.15	2549.72
376.36	2449.37
376.57	2400.22
376.78	2383.84
376.99	2527.19
377.20	2643.93
377.40	2408.41
377.61	2635.74
377.82	2289.63
378.03	2688.98
378.24	2555.86
378.45	2494.43
378.66	2463.71
378.87	2318.30
379.08	2287.58
379.29	2383.84
379.50	2521.05
379.71	2441.18
379.91	2535.39
380.12	2451.42
380.33	2416.60
380.54	2418.65
380.75	2406.36
380.96	2408.41
381.17	2480.09
381.38	2523.10
381.59	2494.43
381.80	2480.09
382.00	2611.16
382.21	2535.39
382.42	2725.85
382.63	2758.61
382.84	2537.43
383.05	2686.94
383.26	2723.80
383.47	2488.28
383.68	2473.95
383.88	2633.69
384.09	2461.66
384.30	2670.55
384.51	2602.97
384.72	2437.08
384.93	2457.56
385.14	2484.19
385.35	2547.67
385.55	2281.44
385.76	2666.46
385.97	2441.18
386.18	2281.44
386.39	2414.56
386.60	2441.18
386.81	2410.46
387.02	2367.45
387.22	2371.55
387.43	2674.65
387.64	2506.71
387.85	2605.02
388.06	2676.70
388.27	4091.84
388.48	8312.71
388.68	12242.76
388.89	14595.87
389.10	15937.29
389.31	14712.61
389.52	11775.82
389.73	10008.42
389.93	9125.75
390.14	8306.56
390.35	7511.95
390.56	6688.67
390.77	5449.64
390.98	4087.75
391.18	3346.38
391.39	2858.96
391.60	2596.82
391.81	2592.73
392.02	2387.93
392.23	2781.14
392.43	2600.92
392.64	2586.58
392.85	2449.37
393.06	2727.89
393.27	2461.66
393.47	2308.06
393.68	2432.99
393.89	2447.32
394.10	2682.84
394.31	2324.44
394.52	2416.60
394.72	2394.08
394.93	2650.07
395.14	2365.40
395.35	2533.34
395.56	2373.60
395.76	2590.68
395.97	2441.18
396.18	2629.59
396.39	2662.36
396.60	3057.62
396.80	2744.28
397.01	2654.17
397.22	2695.13
397.43	2674.65
397.64	2402.27
397.84	2557.91
398.05	2764.76
398.26	2465.75
398.47	2547.67
398.67	2555.86
398.88	2519.00
399.09	2609.11
399.30	2404.32
399.51	2533.34
399.71	2389.98
399.92	2484.19
400.13	2506.71
400.34	2400.22
400.54	2465.75
400.75	2674.65
400.96	2471.90
401.17	2609.11
401.37	2502.62
401.58	2453.47
401.79	2455.51
402.00	2566.10
402.21	2879.44
402.41	2752.47
402.62	2815.96
402.83	2924.50
403.04	2965.46
403.24	3076.05
403.45	2588.63
403.66	2770.90
403.87	2697.17
404.07	2809.81
404.28	2703.32
404.49	2717.65
404.70	2562.01
404.90	2506.71
405.11	2514.91
405.32	2514.91
405.52	2396.12
405.73	2381.79
405.94	2318.30
406.15	2432.99
406.35	2621.40
406.56	2502.62
406.77	2498.52
406.98	2465.75
407.18	2359.26
407.39	2662.36
407.60	2392.03
407.80	2529.24
408.01	2392.03
408.22	2621.40
408.43	2392.03
408.63	2539.48
408.84	2568.15
409.05	2584.54
409.25	2400.22
409.46	2402.27
409.67	2412.51
409.88	2437.08
410.08	2504.67
410.29	2373.60
410.50	2617.30
410.70	2543.58
410.91	2318.30
411.12	2500.57
411.32	2449.37
411.53	2373.60
411.74	2559.96
411.95	2523.10
412.15	2543.58
412.36	2705.37
412.57	2584.54
412.77	2611.16
412.98	2496.47
413.19	2443.23
413.39	2531.29
413.60	2512.86
413.81	2703.32
414.01	2396.12
414.22	2506.71
414.43	2531.29
414.63	2478.04
414.84	2627.54
415.05	2408.41
415.25	2344.92
415.46	2543.58
415.67	2467.80
415.87	2453.47
416.08	2418.65
416.29	2422.75
416.49	2555.86
416.70	2432.99
416.91	2416.60
417.11	2488.28
417.32	2576.34
417.53	2570.20
417.73	2449.37
417.94	2437.08
418.15	2500.57
418.35	2465.75
418.56	2494.43
418.77	2736.09
418.97	2531.29
419.18	2424.80
419.38	2240.48
419.59	2449.37
419.80	2723.80
420.00	2432.99
420.21	2545.63
420.42	2746.33
420.62	2555.86
420.83	2310.11
421.04	2449.37
421.24	2473.95
421.45	2523.10
421.65	2441.18
421.86	2400.22
422.07	2549.72
422.27	2562.01
422.48	2426.84
422.69	2359.26
422.89	2457.56
423.10	2496.47
423.30	2297.82
423.51	2504.67
423.72	2562.01
423.92	2605.02
424.13	2379.74
424.33	2457.56
424.54	2510.81
424.75	2500.57
424.95	2619.35
425.16	2428.89
425.36	2562.01
425.57	2582.49
425.78	2527.19
425.98	2559.96
426.19	2461.66
426.39	2340.83
426.60	2519.00
426.81	2582.49
427.01	2535.39
427.22	2416.60
427.42	2297.82
427.63	2332.64
427.83	2596.82
428.04	2701.27
428.25	2537.43
428.45	2566.10
428.66	2514.91
428.86	2435.03
429.07	2478.04
429.28	2465.75
429.48	2504.67
429.69	2316.25
429.89	2549.72
430.10	2267.10
430.30	2598.87
430.51	2652.12
430.71	2293.72
430.92	2521.05
431.13	2418.65
431.33	2543.58
431.54	2512.86
431.74	2656.22
431.95	2746.33
432.15	2398.17
432.36	2412.51
432.56	2455.51
432.77	2731.99
432.98	2793.43
433.18	2437.08
433.39	2400.22
433.59	2432.99
433.80	2748.37
434.00	2668.50
434.21	2357.21
434.41	2494.43
434.62	2736.09
434.82	2351.07
435.03	2248.67
435.23	2568.15
435.44	2373.60
435.64	2373.60
435.85	2488.28
436.06	2605.02
436.26	2602.97
436.47	2426.84
436.67	2326.49
436.88	2445.27
437.08	2645.98
437.29	2623.45
437.49	2426.84
437.70	2668.50
437.90	2428.89
438.11	2703.32
438.31	2572.25
438.52	2676.70
438.72	2693.08
438.93	2703.32
439.13	2611.16
439.34	2617.30
439.54	2422.75
439.75	2643.93
439.95	2572.25
440.16	2514.91
440.36	2494.43
440.57	2535.39
440.77	2428.89
440.98	2461.66
441.18	2617.30
441.39	2369.50
441.59	2344.92
441.80	2779.09
442.00	2510.81
442.21	2527.19
442.41	2346.97
442.62	2613.21
442.82	2428.89
443.02	2371.55
443.23	2432.99
443.43	2478.04
443.64	2668.50
443.84	2414.56
444.05	2500.57
444.25	2463.71
444.46	2494.43
444.66	2400.22
444.87	2590.68
445.07	2299.87
445.28	2498.52
445.48	2562.01
445.69	2531.29
445.89	2731.99
446.09	2469.85
446.30	2766.81
446.50	3055.57
446.71	4603.83
446.91	5779.37
447.12	6729.63
447.32	7063.44
447.53	6588.32
447.73	5459.88
447.93	4753.34
448.14	4394.94
448.34	4405.18
448.55	3899.33
448.75	3772.36
448.96	3522.51
449.16	3166.16
449.36	3096.53
449.57	2727.89
449.77	2633.69
449.98	2422.75
450.18	2592.73
450.39	2461.66
450.59	2576.34
450.79	2539.48
451.00	2451.42
451.20	2570.20
451.41	2453.47
451.61	2523.10
451.81	2490.33
452.02	2439.13
452.22	2463.71
452.43	2437.08
