SpectraSuite Data File
++++++++++++++++++++++++++++++++++++
Date: Thu May 05 14:41:37 CEST 2016
User: root
Dark Spectrum Present: No
Reference Spectrum Present: No
Number of Sampled Component Spectra: 1
Spectrometers: USB4C02835
Integration Time (usec): 100000 (USB4C02835)
Spectra Averaged: 1 (USB4C02835)
Boxcar Smoothing: 0 (USB4C02835)
Correct for Electrical Dark: No (USB4C02835)
Strobe/Lamp Enabled: No (USB4C02835)
Correct for Detector Non-linearity: No (USB4C02835)
Correct for Stray Light: No (USB4C02835)
Number of Pixels in Processed Spectrum: 3648
>>>>>Begin Processed Spectral Data<<<<<
177.47	1873.89
177.69	1873.89
177.91	1873.89
178.13	1884.13
178.36	1945.57
178.58	2387.93
178.80	2490.33
179.02	2349.02
179.24	2367.45
179.46	2289.63
179.68	2435.03
179.90	2443.23
180.13	2512.86
180.35	2238.43
180.57	2355.16
180.79	2478.04
181.01	2453.47
181.23	2439.13
181.45	2478.04
181.67	2627.54
181.90	2545.63
182.12	2367.45
182.34	2220.00
182.56	2529.24
182.78	2525.15
183.00	2392.03
183.22	2387.93
183.44	2279.39
183.66	2801.62
183.89	2461.66
184.11	2441.18
184.33	2519.00
184.55	2506.71
184.77	2357.21
184.99	2338.78
185.21	2414.56
185.43	2828.24
185.65	2365.40
185.87	2287.58
186.10	2762.71
186.32	2766.81
186.54	2379.74
186.76	2525.15
186.98	2576.34
187.20	2512.86
187.42	2334.68
187.64	2371.55
187.86	2572.25
188.08	2645.98
188.30	2244.57
188.52	2428.89
188.75	2645.98
188.97	2615.26
189.19	2340.83
189.41	2416.60
189.63	2586.58
189.85	2482.14
190.07	2250.72
190.29	2181.09
190.51	2494.43
190.73	2359.26
190.95	2445.27
191.17	2379.74
191.39	2351.07
191.61	2484.19
191.84	2293.72
192.06	2416.60
192.28	2312.16
192.50	2912.21
192.72	2512.86
192.94	2375.64
193.16	2701.27
193.38	2519.00
193.60	2299.87
193.82	2373.60
194.04	2643.93
194.26	2504.67
194.48	2353.12
194.70	2340.83
194.92	2432.99
195.14	2574.30
195.36	2303.96
195.58	2406.36
195.80	2486.23
196.02	2396.12
196.24	2283.49
196.46	2379.74
196.69	2432.99
196.91	2762.71
197.13	2383.84
197.35	2312.16
197.57	2662.36
197.79	2574.30
198.01	2408.41
198.23	2465.75
198.45	2541.53
198.67	2414.56
198.89	2283.49
199.11	2435.03
199.33	2412.51
199.55	2242.53
199.77	2324.44
199.99	2510.81
200.21	2445.27
200.43	2531.29
200.65	2281.44
200.87	2187.23
201.09	2529.24
201.31	2473.95
201.53	2371.55
201.75	2392.03
201.97	2539.48
202.19	2484.19
202.41	2375.64
202.63	2525.15
202.85	2523.10
203.07	2519.00
203.29	2361.31
203.51	2291.68
203.73	2416.60
203.95	2873.30
204.17	2346.97
204.39	2435.03
204.61	2490.33
204.83	2482.14
205.05	2539.48
205.27	2392.03
205.49	2832.34
205.71	2396.12
205.93	2220.00
206.15	2240.48
206.37	2521.05
206.59	2469.85
206.81	2246.62
207.03	2291.68
207.25	2443.23
207.47	2609.11
207.69	2375.64
207.91	2531.29
208.13	2699.22
208.34	2398.17
208.56	2310.11
208.78	2355.16
209.00	2396.12
209.22	2445.27
209.44	2342.88
209.66	2359.26
209.88	2531.29
210.10	2430.94
210.32	2369.50
210.54	2400.22
210.76	2396.12
210.98	2613.21
211.20	2176.99
211.42	2424.80
211.64	2668.50
211.86	2613.21
212.08	2414.56
212.30	2406.36
212.52	2441.18
212.74	2562.01
212.96	2340.83
213.17	2406.36
213.39	2553.82
213.61	2658.26
213.83	2342.88
214.05	2379.74
214.27	2668.50
214.49	2473.95
214.71	2295.77
214.93	2430.94
215.15	2402.27
215.37	2611.16
215.59	2232.29
215.81	2428.89
216.03	2635.74
216.24	2459.61
216.46	2428.89
216.68	2453.47
216.90	2664.41
217.12	2594.78
217.34	2359.26
217.56	2465.75
217.78	2746.33
218.00	2539.48
218.22	2449.37
218.44	2394.08
218.66	2494.43
218.87	2766.81
219.09	2281.44
219.31	2353.12
219.53	2498.52
219.75	2420.70
219.97	2359.26
220.19	2416.60
220.41	2402.27
220.63	2709.46
220.85	2320.35
221.06	2367.45
221.28	2596.82
221.50	2572.25
221.72	2432.99
221.94	2269.15
222.16	2543.58
222.38	2578.39
222.60	2303.96
222.82	2455.51
223.03	2549.72
223.25	2406.36
223.47	2432.99
223.69	2588.63
223.91	2588.63
224.13	2492.38
224.35	2258.91
224.57	2478.04
224.78	2537.43
225.00	2277.34
225.22	2439.13
225.44	2346.97
225.66	2498.52
225.88	2471.90
226.10	2480.09
226.32	2443.23
226.53	2686.94
226.75	2340.83
226.97	2377.69
227.19	2408.41
227.41	2342.88
227.63	2441.18
227.85	2197.47
228.06	2422.75
228.28	2572.25
228.50	2662.36
228.72	2289.63
228.94	2269.15
229.16	2160.61
229.37	2377.69
229.59	2275.29
229.81	2547.67
230.03	2445.27
230.25	2254.81
230.47	2283.49
230.69	2256.86
230.90	2613.21
231.12	2396.12
231.34	2400.22
231.56	2451.42
231.78	2369.50
232.00	2463.71
232.21	2277.34
232.43	2316.25
232.65	2283.49
232.87	2506.71
233.09	2301.92
233.30	2355.16
233.52	2572.25
233.74	2484.19
233.96	2371.55
234.18	2416.60
234.40	2473.95
234.61	2752.47
234.83	2289.63
235.05	2346.97
235.27	2871.25
235.49	2674.65
235.70	2250.72
235.92	2373.60
236.14	2514.91
236.36	2772.95
236.58	2240.48
236.79	2394.08
237.01	2510.81
237.23	2519.00
237.45	2521.05
237.67	2293.72
237.88	2529.24
238.10	2686.94
238.32	2275.29
238.54	2357.21
238.76	2473.95
238.97	2422.75
239.19	2285.53
239.41	2430.94
239.63	2570.20
239.85	2373.60
240.06	2416.60
240.28	2289.63
240.50	2670.55
240.72	2473.95
240.93	2328.54
241.15	2420.70
241.37	2494.43
241.59	2660.31
241.81	2359.26
242.02	2381.79
242.24	2531.29
242.46	2535.39
242.68	2166.75
242.89	2316.25
243.11	2658.26
243.33	2475.99
243.55	2400.22
243.76	2457.56
243.98	2457.56
244.20	2510.81
244.42	2387.93
244.64	2349.02
244.85	2355.16
245.07	2375.64
245.29	2342.88
245.51	2389.98
245.72	2555.86
245.94	2617.30
246.16	2332.64
246.38	2410.46
246.59	2392.03
246.81	2363.36
247.03	2310.11
247.24	2281.44
247.46	2478.04
247.68	2478.04
247.90	2322.40
248.11	2308.06
248.33	2613.21
248.55	2473.95
248.77	2398.17
248.98	2361.31
249.20	2654.17
249.42	2478.04
249.64	2381.79
249.85	2332.64
250.07	2471.90
250.29	2602.97
250.50	2449.37
250.72	2244.57
250.94	2545.63
251.16	2707.41
251.37	2467.80
251.59	2420.70
251.81	2586.58
252.02	2654.17
252.24	2301.92
252.46	2441.18
252.68	2367.45
252.89	2416.60
253.11	2150.37
253.33	2463.71
253.54	2619.35
253.76	2361.31
253.98	2375.64
254.20	2363.36
254.41	2285.53
254.63	2447.32
254.85	2176.99
255.06	2449.37
255.28	2510.81
255.50	2457.56
255.71	2342.88
255.93	2236.38
256.15	2498.52
256.36	2547.67
256.58	2258.91
256.80	2414.56
257.02	2430.94
257.23	2461.66
257.45	2422.75
257.67	2414.56
257.88	2441.18
258.10	2502.62
258.32	2398.17
258.53	2428.89
258.75	2656.22
258.97	2387.93
259.18	2330.59
259.40	2338.78
259.62	2684.89
259.83	2711.51
260.05	2297.82
260.27	2930.64
260.48	2598.87
260.70	2314.20
260.92	2277.34
261.13	2404.32
261.35	2490.33
261.57	2584.54
261.78	2308.06
262.00	2277.34
262.22	2535.39
262.43	2375.64
262.65	2326.49
262.86	2379.74
263.08	2768.85
263.30	2494.43
263.51	2195.42
263.73	2301.92
263.95	2691.03
264.16	2314.20
264.38	2197.47
264.60	2320.35
264.81	2549.72
265.03	2670.55
265.25	2562.01
265.46	2359.26
265.68	2637.78
265.89	2551.77
266.11	2310.11
266.33	2445.27
266.54	2588.63
266.76	2531.29
266.98	2428.89
267.19	2504.67
267.41	2572.25
267.62	2527.19
267.84	2195.42
268.06	2430.94
268.27	2435.03
268.49	2600.92
268.70	2422.75
268.92	2353.12
269.14	2306.01
269.35	2346.97
269.57	2381.79
269.79	2392.03
270.00	2422.75
270.22	2633.69
270.43	2297.82
270.65	2228.19
270.87	2504.67
271.08	2637.78
271.30	2459.61
271.51	2340.83
271.73	2568.15
271.95	2658.26
272.16	2381.79
272.38	2365.40
272.59	2400.22
272.81	2484.19
273.02	2310.11
273.24	2351.07
273.46	2580.44
273.67	2361.31
273.89	2236.38
274.10	2308.06
274.32	2586.58
274.54	2471.90
274.75	2428.89
274.97	2349.02
275.18	2639.83
275.40	2590.68
275.61	2367.45
275.83	2428.89
276.05	2371.55
276.26	2490.33
276.48	2430.94
276.69	2408.41
276.91	2396.12
277.12	2660.31
277.34	2494.43
277.55	2545.63
277.77	2457.56
277.99	2480.09
278.20	2306.01
278.42	2312.16
278.63	2424.80
278.85	2381.79
279.06	2330.59
279.28	2510.81
279.49	2590.68
279.71	2537.43
279.93	2435.03
280.14	2414.56
280.36	2349.02
280.57	2609.11
280.79	2535.39
281.00	2344.92
281.22	2381.79
281.43	2521.05
281.65	2179.04
281.86	2330.59
282.08	2523.10
282.29	2764.76
282.51	2277.34
282.73	2330.59
282.94	2338.78
283.16	2555.86
283.37	2543.58
283.59	2447.32
283.80	2494.43
284.02	2525.15
284.23	2449.37
284.45	2332.64
284.66	2340.83
284.88	2385.88
285.09	2437.08
285.31	2445.27
285.52	2514.91
285.74	2306.01
285.95	2543.58
286.17	2502.62
286.38	2666.46
286.60	2373.60
286.81	2398.17
287.03	2396.12
287.24	2523.10
287.46	2570.20
287.67	2404.32
287.89	2590.68
288.10	2459.61
288.32	2475.99
288.53	2627.54
288.75	2461.66
288.96	2633.69
289.18	2400.22
289.39	2375.64
289.61	2506.71
289.82	2764.76
290.04	2691.03
290.25	2293.72
290.47	2457.56
290.68	2430.94
290.90	2543.58
291.11	2242.53
291.33	2547.67
291.54	2367.45
291.76	2342.88
291.97	2412.51
292.18	2410.46
292.40	2482.14
292.61	2369.50
292.83	2619.35
293.04	2396.12
293.26	2527.19
293.47	2478.04
293.69	2367.45
293.90	2381.79
294.12	2596.82
294.33	2514.91
294.55	2453.47
294.76	2564.06
294.97	2619.35
295.19	2736.09
295.40	2422.75
295.62	2475.99
295.83	2580.44
296.05	2480.09
296.26	2605.02
296.48	2383.84
296.69	2441.18
296.90	2488.28
297.12	2488.28
297.33	2531.29
297.55	2553.82
297.76	2621.40
297.98	2512.86
298.19	2502.62
298.41	2521.05
298.62	2312.16
298.83	2559.96
299.05	2463.71
299.26	2428.89
299.48	2349.02
299.69	2559.96
299.90	2435.03
300.12	2478.04
300.33	2602.97
300.55	2502.62
300.76	2418.65
300.98	2359.26
301.19	2586.58
301.40	2353.12
301.62	2441.18
301.83	2535.39
302.05	2465.75
302.26	2455.51
302.47	2453.47
302.69	2367.45
302.90	2519.00
303.12	2252.77
303.33	2486.23
303.54	2813.91
303.76	2379.74
303.97	2469.85
304.19	2547.67
304.40	2357.21
304.61	2547.67
304.83	2586.58
305.04	2607.06
305.26	2572.25
305.47	2506.71
305.68	2473.95
305.90	2285.53
306.11	2684.89
306.33	2478.04
306.54	2367.45
306.75	2398.17
306.97	2217.95
307.18	2326.49
307.39	2439.13
307.61	2525.15
307.82	2406.36
308.04	2557.91
308.25	2299.87
308.46	2535.39
308.68	2506.71
308.89	2502.62
309.10	2537.43
309.32	2426.84
309.53	2430.94
309.74	2537.43
309.96	2430.94
310.17	2594.78
310.39	2416.60
310.60	2566.10
310.81	2432.99
311.03	2316.25
311.24	2564.06
311.45	2461.66
311.67	2625.50
311.88	2465.75
312.09	2451.42
312.31	2459.61
312.52	2385.88
312.73	2396.12
312.95	2342.88
313.16	2334.68
313.37	2547.67
313.59	2592.73
313.80	2609.11
314.01	2695.13
314.23	2377.69
314.44	2383.84
314.65	2375.64
314.87	2375.64
315.08	2424.80
315.29	2453.47
315.51	2342.88
315.72	2344.92
315.93	2551.77
316.15	2498.52
316.36	2392.03
316.57	2398.17
316.79	2441.18
317.00	2428.89
317.21	2564.06
317.43	2287.58
317.64	2353.12
317.85	2322.40
318.07	2408.41
318.28	2463.71
318.49	2463.71
318.70	2693.08
318.92	2543.58
319.13	2639.83
319.34	2605.02
319.56	2504.67
319.77	2686.94
319.98	2697.17
320.20	2631.64
320.41	2578.39
320.62	2645.98
320.83	2379.74
321.05	2600.92
321.26	2469.85
321.47	2516.95
321.69	2654.17
321.90	2269.15
322.11	2424.80
322.32	2570.20
322.54	2691.03
322.75	2416.60
322.96	2881.49
323.18	2260.96
323.39	2252.77
323.60	2287.58
323.81	2525.15
324.03	2428.89
324.24	2404.32
324.45	2463.71
324.66	2392.03
324.88	2701.27
325.09	2664.41
325.30	2447.32
325.52	2488.28
325.73	2539.48
325.94	2400.22
326.15	2267.10
326.37	2379.74
326.58	2617.30
326.79	2650.07
327.00	2408.41
327.22	2437.08
327.43	2449.37
327.64	2383.84
327.85	2478.04
328.07	2437.08
328.28	2674.65
328.49	2377.69
328.70	2414.56
328.92	2482.14
329.13	2484.19
329.34	2484.19
329.55	2580.44
329.76	2449.37
329.98	2490.33
330.19	2654.17
330.40	2457.56
330.61	2445.27
330.83	2586.58
331.04	2410.46
331.25	2602.97
331.46	2375.64
331.68	2342.88
331.89	2596.82
332.10	2414.56
332.31	2238.43
332.52	2420.70
332.74	2615.26
332.95	2228.19
333.16	2455.51
333.37	2607.06
333.58	2447.32
333.80	2430.94
334.01	2240.48
334.22	2398.17
334.43	2387.93
334.64	2404.32
334.86	2326.49
335.07	2367.45
335.28	2645.98
335.49	2314.20
335.70	2512.86
335.92	2674.65
336.13	2699.22
336.34	2557.91
336.55	2512.86
336.76	2547.67
336.98	2240.48
337.19	2455.51
337.40	2555.86
337.61	2791.38
337.82	2445.27
338.04	2502.62
338.25	2232.29
338.46	2488.28
338.67	2490.33
338.88	2271.20
339.09	2322.40
339.31	2412.51
339.52	2285.53
339.73	2340.83
339.94	2416.60
340.15	2609.11
340.36	2398.17
340.58	2545.63
340.79	2371.55
341.00	2656.22
341.21	2359.26
341.42	2590.68
341.63	2289.63
341.85	2559.96
342.06	2506.71
342.27	2312.16
342.48	2482.14
342.69	2299.87
342.90	2547.67
343.12	2752.47
343.33	2295.77
343.54	2564.06
343.75	2609.11
343.96	2437.08
344.17	2365.40
344.38	2498.52
344.60	2471.90
344.81	2306.01
345.02	2385.88
345.23	2598.87
345.44	2785.24
345.65	2527.19
345.86	2430.94
346.07	2461.66
346.29	2430.94
346.50	2541.53
346.71	2572.25
346.92	2617.30
347.13	2785.24
347.34	2402.27
347.55	2387.93
347.76	2514.91
347.98	2263.01
348.19	2473.95
348.40	2590.68
348.61	2428.89
348.82	2686.94
349.03	2475.99
349.24	2414.56
349.45	2652.12
349.66	2258.91
349.88	2375.64
350.09	2334.68
350.30	2574.30
350.51	2609.11
350.72	2471.90
350.93	2512.86
351.14	2443.23
351.35	2559.96
351.56	2428.89
351.77	2482.14
351.99	2559.96
352.20	2691.03
352.41	2523.10
352.62	2252.77
352.83	2461.66
353.04	2457.56
353.25	2373.60
353.46	2543.58
353.67	2623.45
353.88	2242.53
354.09	2412.51
354.30	2422.75
354.52	2658.26
354.73	2406.36
354.94	2437.08
355.15	2455.51
355.36	2660.31
355.57	2379.74
355.78	2498.52
355.99	2340.83
356.20	2432.99
356.41	2654.17
356.62	2555.86
356.83	2435.03
357.04	2643.93
357.25	2367.45
357.46	2416.60
357.68	2295.77
357.89	2287.58
358.10	2453.47
358.31	2389.98
358.52	2426.84
358.73	2389.98
358.94	2373.60
359.15	2432.99
359.36	2498.52
359.57	2453.47
359.78	2443.23
359.99	2523.10
360.20	2299.87
360.41	2418.65
360.62	2572.25
360.83	2557.91
361.04	2379.74
361.25	2541.53
361.46	2660.31
361.67	2500.57
361.88	2525.15
362.09	2602.97
362.30	2551.77
362.51	2324.44
362.72	2453.47
362.93	2562.01
363.14	2611.16
363.35	2486.23
363.56	2342.88
363.78	2619.35
363.99	2576.34
364.20	2367.45
364.41	2525.15
364.62	2652.12
364.83	2543.58
365.04	2416.60
365.25	2377.69
365.46	2777.05
365.67	2330.59
365.88	2459.61
366.09	2336.73
366.30	2469.85
366.51	2449.37
366.72	2256.86
366.93	2494.43
367.14	2402.27
367.35	2627.54
367.56	2373.60
367.77	2539.48
367.98	2537.43
368.18	2541.53
368.39	2539.48
368.60	2404.32
368.81	2562.01
369.02	2486.23
369.23	2416.60
369.44	2230.24
369.65	2422.75
369.86	2512.86
370.07	2504.67
370.28	2387.93
370.49	2564.06
370.70	2510.81
370.91	2281.44
371.12	2301.92
371.33	2654.17
371.54	2342.88
371.75	2539.48
371.96	2183.13
372.17	2531.29
372.38	2453.47
372.59	2480.09
372.80	2410.46
373.01	2484.19
373.22	2484.19
373.43	2449.37
373.64	2273.25
373.85	2539.48
374.06	2703.32
374.26	2582.49
374.47	2539.48
374.68	2586.58
374.89	2488.28
375.10	2342.88
375.31	2531.29
375.52	2502.62
375.73	2467.80
375.94	2314.20
376.15	2564.06
376.36	2357.21
376.57	2394.08
376.78	2437.08
376.99	2432.99
377.20	2662.36
377.40	2422.75
377.61	2621.40
377.82	2398.17
378.03	2748.37
378.24	2516.95
378.45	2543.58
378.66	2473.95
378.87	2203.61
379.08	2320.35
379.29	2445.27
379.50	2623.45
379.71	2480.09
379.91	2588.63
380.12	2318.30
380.33	2457.56
380.54	2514.91
380.75	2443.23
380.96	2449.37
381.17	2566.10
381.38	2480.09
381.59	2510.81
381.80	2412.51
382.00	2555.86
382.21	2578.39
382.42	2643.93
382.63	2629.59
382.84	2455.51
383.05	2527.19
383.26	2699.22
383.47	2482.14
383.68	2531.29
383.88	2576.34
384.09	2445.27
384.30	2693.08
384.51	2478.04
384.72	2519.00
384.93	2269.15
385.14	2510.81
385.35	2596.82
385.55	2344.92
385.76	2736.09
385.97	2420.70
386.18	2330.59
386.39	2301.92
386.60	2445.27
386.81	2459.61
387.02	2371.55
387.22	2408.41
387.43	2584.54
387.64	2602.97
387.85	2670.55
388.06	2672.60
388.27	4044.74
388.48	8327.04
388.68	12201.80
388.89	14579.49
389.10	15697.68
389.31	15007.52
389.52	11593.55
389.73	10162.02
389.93	9064.31
390.14	8474.49
390.35	7589.77
390.56	6799.26
390.77	5492.65
390.98	4149.18
391.18	3434.44
391.39	2957.27
391.60	2697.17
391.81	2650.07
392.02	2453.47
392.23	2799.57
392.43	2527.19
392.64	2588.63
392.85	2457.56
393.06	2772.95
393.27	2459.61
393.47	2412.51
393.68	2465.75
393.89	2488.28
394.10	2668.50
394.31	2373.60
394.52	2441.18
394.72	2392.03
394.93	2637.78
395.14	2365.40
395.35	2555.86
395.56	2439.13
395.76	2523.10
395.97	2529.24
396.18	2613.21
396.39	2666.46
396.60	2977.75
396.80	2768.85
397.01	2619.35
397.22	2574.30
397.43	2652.12
397.64	2428.89
397.84	2564.06
398.05	2719.70
398.26	2519.00
398.47	2586.58
398.67	2543.58
398.88	2521.05
399.09	2564.06
399.30	2414.56
399.51	2525.15
399.71	2328.54
399.92	2441.18
400.13	2455.51
400.34	2478.04
400.54	2414.56
400.75	2711.51
400.96	2430.94
401.17	2654.17
401.37	2514.91
401.58	2521.05
401.79	2498.52
402.00	2670.55
402.21	2940.88
402.41	2801.62
402.62	2723.80
402.83	2879.44
403.04	2852.82
403.24	3004.37
403.45	2617.30
403.66	2772.95
403.87	2777.05
404.07	2842.58
404.28	2738.13
404.49	2686.94
404.70	2555.86
404.90	2678.74
405.11	2527.19
405.32	2525.15
405.52	2482.14
405.73	2365.40
405.94	2398.17
406.15	2463.71
406.35	2482.14
406.56	2605.02
406.77	2432.99
406.98	2494.43
407.18	2422.75
407.39	2699.22
407.60	2510.81
407.80	2498.52
408.01	2349.02
408.22	2549.72
408.43	2387.93
408.63	2504.67
408.84	2525.15
409.05	2596.82
409.25	2353.12
409.46	2422.75
409.67	2418.65
409.88	2416.60
410.08	2488.28
410.29	2432.99
410.50	2650.07
410.70	2557.91
410.91	2367.45
411.12	2523.10
411.32	2480.09
411.53	2322.40
411.74	2564.06
411.95	2609.11
412.15	2605.02
412.36	2615.26
412.57	2584.54
412.77	2605.02
412.98	2447.32
413.19	2412.51
413.39	2555.86
413.60	2590.68
413.81	2711.51
414.01	2432.99
414.22	2502.62
414.43	2572.25
414.63	2424.80
414.84	2643.93
415.05	2432.99
415.25	2416.60
415.46	2607.06
415.67	2430.94
415.87	2463.71
416.08	2478.04
416.29	2361.31
416.49	2535.39
416.70	2396.12
416.91	2334.68
417.11	2424.80
417.32	2693.08
417.53	2490.33
417.73	2539.48
417.94	2383.84
418.15	2559.96
418.35	2447.32
418.56	2523.10
418.77	2793.43
418.97	2514.91
419.18	2447.32
419.38	2150.37
419.59	2514.91
419.80	2611.16
420.00	2383.84
420.21	2416.60
420.42	2605.02
420.62	2514.91
420.83	2414.56
421.04	2408.41
421.24	2475.99
421.45	2521.05
421.65	2578.39
421.86	2392.03
422.07	2621.40
422.27	2533.34
422.48	2478.04
422.69	2316.25
422.89	2469.85
423.10	2488.28
423.30	2377.69
423.51	2453.47
423.72	2535.39
423.92	2525.15
424.13	2332.64
424.33	2486.23
424.54	2611.16
424.75	2523.10
424.95	2609.11
425.16	2463.71
425.36	2504.67
425.57	2596.82
425.78	2613.21
425.98	2627.54
426.19	2500.57
426.39	2439.13
426.60	2527.19
426.81	2510.81
427.01	2461.66
427.22	2392.03
427.42	2277.34
427.63	2389.98
427.83	2643.93
428.04	2740.18
428.25	2580.44
428.45	2588.63
428.66	2660.31
428.86	2459.61
429.07	2402.27
429.28	2605.02
429.48	2475.99
429.69	2414.56
429.89	2424.80
430.10	2371.55
430.30	2545.63
430.51	2582.49
430.71	2408.41
430.92	2424.80
431.13	2424.80
431.33	2564.06
431.54	2510.81
431.74	2588.63
431.95	2787.29
432.15	2482.14
432.36	2500.57
432.56	2521.05
432.77	2752.47
432.98	2711.51
433.18	2445.27
433.39	2375.64
433.59	2504.67
433.80	2742.23
434.00	2711.51
434.21	2465.75
434.41	2428.89
434.62	2801.62
434.82	2303.96
435.03	2457.56
435.23	2588.63
435.44	2181.09
435.64	2463.71
435.85	2457.56
436.06	2625.50
436.26	2592.73
436.47	2367.45
436.67	2412.51
436.88	2385.88
437.08	2666.46
437.29	2553.82
437.49	2465.75
437.70	2617.30
437.90	2457.56
438.11	2734.04
438.31	2523.10
438.52	2666.46
438.72	2627.54
438.93	2832.34
439.13	2519.00
439.34	2625.50
439.54	2457.56
439.75	2633.69
439.95	2512.86
440.16	2422.75
440.36	2422.75
440.57	2473.95
440.77	2529.24
440.98	2475.99
441.18	2531.29
441.39	2346.97
441.59	2402.27
441.80	2772.95
442.00	2502.62
442.21	2539.48
442.41	2330.59
442.62	2596.82
442.82	2461.66
443.02	2510.81
443.23	2469.85
443.43	2416.60
443.64	2705.37
443.84	2342.88
444.05	2564.06
444.25	2521.05
444.46	2473.95
444.66	2478.04
444.87	2709.46
445.07	2310.11
445.28	2420.70
445.48	2643.93
445.69	2504.67
445.89	2822.10
446.09	2482.14
446.30	2740.18
446.50	2957.27
446.71	4628.41
446.91	5808.04
447.12	6606.75
447.32	7061.40
447.53	6576.03
447.73	5402.54
447.93	4650.94
448.14	4503.48
448.34	4495.29
448.55	3913.67
448.75	3774.41
448.96	3610.57
449.16	3153.87
449.36	2998.23
449.57	2781.14
449.77	2619.35
449.98	2480.09
450.18	2645.98
450.39	2455.51
450.59	2600.92
450.79	2527.19
451.00	2334.68
451.20	2605.02
451.41	2355.16
451.61	2539.48
451.81	2502.62
452.02	2428.89
452.22	2482.14
452.43	2457.56
