SpectraSuite Data File
++++++++++++++++++++++++++++++++++++
Date: Thu May 05 14:42:13 CEST 2016
User: root
Dark Spectrum Present: No
Reference Spectrum Present: No
Number of Sampled Component Spectra: 1
Spectrometers: USB4C02835
Integration Time (usec): 100000 (USB4C02835)
Spectra Averaged: 1 (USB4C02835)
Boxcar Smoothing: 0 (USB4C02835)
Correct for Electrical Dark: No (USB4C02835)
Strobe/Lamp Enabled: No (USB4C02835)
Correct for Detector Non-linearity: No (USB4C02835)
Correct for Stray Light: No (USB4C02835)
Number of Pixels in Processed Spectrum: 3648
>>>>>Begin Processed Spectral Data<<<<<
177.47	1875.94
177.69	1875.94
177.91	1875.94
178.13	1888.23
178.36	1880.04
178.58	2371.55
178.80	2457.56
179.02	2330.59
179.24	2400.22
179.46	2346.97
179.68	2355.16
179.90	2422.75
180.13	2465.75
180.35	2215.90
180.57	2334.68
180.79	2553.82
181.01	2465.75
181.23	2404.32
181.45	2396.12
181.67	2498.52
181.90	2607.06
182.12	2326.49
182.34	2299.87
182.56	2578.39
182.78	2514.91
183.00	2330.59
183.22	2414.56
183.44	2246.62
183.66	2779.09
183.89	2432.99
184.11	2455.51
184.33	2506.71
184.55	2508.76
184.77	2398.17
184.99	2424.80
185.21	2428.89
185.43	2813.91
185.65	2267.10
185.87	2326.49
186.10	2813.91
186.32	2803.67
186.54	2416.60
186.76	2506.71
186.98	2668.50
187.20	2547.67
187.42	2369.50
187.64	2381.79
187.86	2473.95
188.08	2580.44
188.30	2367.45
188.52	2291.68
188.75	2670.55
188.97	2539.48
189.19	2306.01
189.41	2312.16
189.63	2551.77
189.85	2332.64
190.07	2248.67
190.29	2187.23
190.51	2545.63
190.73	2285.53
190.95	2441.18
191.17	2451.42
191.39	2330.59
191.61	2461.66
191.84	2367.45
192.06	2461.66
192.28	2291.68
192.50	2856.92
192.72	2418.65
192.94	2363.36
193.16	2506.71
193.38	2553.82
193.60	2297.82
193.82	2439.13
194.04	2574.30
194.26	2484.19
194.48	2408.41
194.70	2357.21
194.92	2514.91
195.14	2596.82
195.36	2273.25
195.58	2400.22
195.80	2494.43
196.02	2426.84
196.24	2301.92
196.46	2340.83
196.69	2441.18
196.91	2820.05
197.13	2273.25
197.35	2371.55
197.57	2697.17
197.79	2533.34
198.01	2373.60
198.23	2420.70
198.45	2574.30
198.67	2379.74
198.89	2226.14
199.11	2422.75
199.33	2416.60
199.55	2224.09
199.77	2314.20
199.99	2447.32
200.21	2439.13
200.43	2617.30
200.65	2267.10
200.87	2187.23
201.09	2521.05
201.31	2430.94
201.53	2359.26
201.75	2418.65
201.97	2539.48
202.19	2504.67
202.41	2353.12
202.63	2547.67
202.85	2543.58
203.07	2484.19
203.29	2420.70
203.51	2277.34
203.73	2396.12
203.95	2793.43
204.17	2416.60
204.39	2404.32
204.61	2498.52
204.83	2428.89
205.05	2461.66
205.27	2412.51
205.49	2711.51
205.71	2506.71
205.93	2195.42
206.15	2318.30
206.37	2480.09
206.59	2432.99
206.81	2152.42
207.03	2269.15
207.25	2355.16
207.47	2641.88
207.69	2334.68
207.91	2547.67
208.13	2668.50
208.34	2373.60
208.56	2283.49
208.78	2404.32
209.00	2416.60
209.22	2392.03
209.44	2318.30
209.66	2299.87
209.88	2525.15
210.10	2473.95
210.32	2383.84
210.54	2576.34
210.76	2416.60
210.98	2559.96
211.20	2226.14
211.42	2375.64
211.64	2650.07
211.86	2465.75
212.08	2453.47
212.30	2365.40
212.52	2416.60
212.74	2576.34
212.96	2432.99
213.17	2400.22
213.39	2623.45
213.61	2707.41
213.83	2252.77
214.05	2310.11
214.27	2617.30
214.49	2349.02
214.71	2318.30
214.93	2482.14
215.15	2461.66
215.37	2621.40
215.59	2279.39
215.81	2443.23
216.03	2594.78
216.24	2486.23
216.46	2387.93
216.68	2381.79
216.90	2662.36
217.12	2502.62
217.34	2299.87
217.56	2461.66
217.78	2617.30
218.00	2578.39
218.22	2389.98
218.44	2377.69
218.66	2527.19
218.87	2672.60
219.09	2351.07
219.31	2357.21
219.53	2523.10
219.75	2363.36
219.97	2383.84
220.19	2359.26
220.41	2392.03
220.63	2582.49
220.85	2277.34
221.06	2334.68
221.28	2512.86
221.50	2611.16
221.72	2310.11
221.94	2322.40
222.16	2523.10
222.38	2605.02
222.60	2381.79
222.82	2334.68
223.03	2605.02
223.25	2285.53
223.47	2375.64
223.69	2598.87
223.91	2555.86
224.13	2523.10
224.35	2199.52
224.57	2453.47
224.78	2502.62
225.00	2320.35
225.22	2357.21
225.44	2297.82
225.66	2539.48
225.88	2420.70
226.10	2424.80
226.32	2310.11
226.53	2668.50
226.75	2461.66
226.97	2371.55
227.19	2383.84
227.41	2455.51
227.63	2387.93
227.85	2242.53
228.06	2387.93
228.28	2543.58
228.50	2551.77
228.72	2273.25
228.94	2318.30
229.16	2271.20
229.37	2322.40
229.59	2250.72
229.81	2508.76
230.03	2457.56
230.25	2342.88
230.47	2273.25
230.69	2332.64
230.90	2551.77
231.12	2357.21
231.34	2494.43
231.56	2394.08
231.78	2402.27
232.00	2537.43
232.21	2392.03
232.43	2437.08
232.65	2269.15
232.87	2492.38
233.09	2252.77
233.30	2240.48
233.52	2592.73
233.74	2416.60
233.96	2273.25
234.18	2496.47
234.40	2471.90
234.61	2826.20
234.83	2234.33
235.05	2277.34
235.27	2815.96
235.49	2629.59
235.70	2332.64
235.92	2404.32
236.14	2490.33
236.36	2803.67
236.58	2254.81
236.79	2426.84
237.01	2432.99
237.23	2465.75
237.45	2570.20
237.67	2396.12
237.88	2494.43
238.10	2695.13
238.32	2271.20
238.54	2306.01
238.76	2488.28
238.97	2418.65
239.19	2232.29
239.41	2396.12
239.63	2568.15
239.85	2377.69
240.06	2361.31
240.28	2357.21
240.50	2637.78
240.72	2461.66
240.93	2340.83
241.15	2455.51
241.37	2424.80
241.59	2660.31
241.81	2318.30
242.02	2392.03
242.24	2586.58
242.46	2531.29
242.68	2271.20
242.89	2359.26
243.11	2629.59
243.33	2457.56
243.55	2457.56
243.76	2432.99
243.98	2400.22
244.20	2469.85
244.42	2353.12
244.64	2332.64
244.85	2332.64
245.07	2424.80
245.29	2342.88
245.51	2373.60
245.72	2506.71
245.94	2613.21
246.16	2340.83
246.38	2426.84
246.59	2392.03
246.81	2396.12
247.03	2361.31
247.24	2215.90
247.46	2344.92
247.68	2527.19
247.90	2293.72
248.11	2338.78
248.33	2576.34
248.55	2416.60
248.77	2381.79
248.98	2424.80
249.20	2635.74
249.42	2490.33
249.64	2408.41
249.85	2381.79
250.07	2340.83
250.29	2611.16
250.50	2449.37
250.72	2346.97
250.94	2535.39
251.16	2762.71
251.37	2381.79
251.59	2432.99
251.81	2486.23
252.02	2727.89
252.24	2308.06
252.46	2494.43
252.68	2353.12
252.89	2445.27
253.11	2209.76
253.33	2574.30
253.54	2643.93
253.76	2365.40
253.98	2332.64
254.20	2291.68
254.41	2291.68
254.63	2516.95
254.85	2248.67
255.06	2387.93
255.28	2482.14
255.50	2385.88
255.71	2273.25
255.93	2185.18
256.15	2439.13
256.36	2506.71
256.58	2252.77
256.80	2336.73
257.02	2402.27
257.23	2424.80
257.45	2359.26
257.67	2396.12
257.88	2398.17
258.10	2523.10
258.32	2285.53
258.53	2432.99
258.75	2643.93
258.97	2361.31
259.18	2328.54
259.40	2357.21
259.62	2725.85
259.83	2625.50
260.05	2396.12
260.27	2889.68
260.48	2557.91
260.70	2365.40
260.92	2236.38
261.13	2389.98
261.35	2465.75
261.57	2596.82
261.78	2250.72
262.00	2273.25
262.22	2592.73
262.43	2342.88
262.65	2404.32
262.86	2322.40
263.08	2711.51
263.30	2566.10
263.51	2191.33
263.73	2363.36
263.95	2629.59
264.16	2437.08
264.38	2285.53
264.60	2375.64
264.81	2494.43
265.03	2609.11
265.25	2635.74
265.46	2326.49
265.68	2719.70
265.89	2578.39
266.11	2191.33
266.33	2359.26
266.54	2615.26
266.76	2572.25
266.98	2471.90
267.19	2455.51
267.41	2635.74
267.62	2473.95
267.84	2195.42
268.06	2441.18
268.27	2449.37
268.49	2639.83
268.70	2416.60
268.92	2369.50
269.14	2365.40
269.35	2289.63
269.57	2428.89
269.79	2420.70
270.00	2414.56
270.22	2688.98
270.43	2195.42
270.65	2172.89
270.87	2527.19
271.08	2596.82
271.30	2471.90
271.51	2414.56
271.73	2539.48
271.95	2711.51
272.16	2285.53
272.38	2478.04
272.59	2441.18
272.81	2559.96
273.02	2371.55
273.24	2412.51
273.46	2590.68
273.67	2406.36
273.89	2281.44
274.10	2306.01
274.32	2641.88
274.54	2584.54
274.75	2439.13
274.97	2359.26
275.18	2590.68
275.40	2576.34
275.61	2394.08
275.83	2461.66
276.05	2312.16
276.26	2469.85
276.48	2449.37
276.69	2428.89
276.91	2463.71
277.12	2605.02
277.34	2496.47
277.55	2512.86
277.77	2537.43
277.99	2383.84
278.20	2355.16
278.42	2330.59
278.63	2320.35
278.85	2457.56
279.06	2363.36
279.28	2512.86
279.49	2697.17
279.71	2555.86
279.93	2449.37
280.14	2432.99
280.36	2346.97
280.57	2566.10
280.79	2504.67
281.00	2344.92
281.22	2351.07
281.43	2662.36
281.65	2263.01
281.86	2373.60
282.08	2521.05
282.29	2711.51
282.51	2326.49
282.73	2277.34
282.94	2258.91
283.16	2510.81
283.37	2523.10
283.59	2496.47
283.80	2488.28
284.02	2519.00
284.23	2455.51
284.45	2414.56
284.66	2369.50
284.88	2322.40
285.09	2449.37
285.31	2529.24
285.52	2514.91
285.74	2226.14
285.95	2549.72
286.17	2392.03
286.38	2660.31
286.60	2367.45
286.81	2379.74
287.03	2414.56
287.24	2449.37
287.46	2625.50
287.67	2441.18
287.89	2637.78
288.10	2478.04
288.32	2572.25
288.53	2484.19
288.75	2430.94
288.96	2545.63
289.18	2430.94
289.39	2408.41
289.61	2473.95
289.82	2684.89
290.04	2719.70
290.25	2320.35
290.47	2439.13
290.68	2478.04
290.90	2559.96
291.11	2275.29
291.33	2545.63
291.54	2359.26
291.76	2375.64
291.97	2396.12
292.18	2461.66
292.40	2435.03
292.61	2432.99
292.83	2645.98
293.04	2514.91
293.26	2455.51
293.47	2494.43
293.69	2289.63
293.90	2398.17
294.12	2744.28
294.33	2412.51
294.55	2465.75
294.76	2557.91
294.97	2607.06
295.19	2736.09
295.40	2447.32
295.62	2471.90
295.83	2629.59
296.05	2406.36
296.26	2568.15
296.48	2336.73
296.69	2502.62
296.90	2375.64
297.12	2512.86
297.33	2555.86
297.55	2502.62
297.76	2432.99
297.98	2432.99
298.19	2441.18
298.41	2482.14
298.62	2361.31
298.83	2621.40
299.05	2473.95
299.26	2361.31
299.48	2359.26
299.69	2451.42
299.90	2437.08
300.12	2406.36
300.33	2545.63
300.55	2496.47
300.76	2441.18
300.98	2336.73
301.19	2467.80
301.40	2441.18
301.62	2406.36
301.83	2529.24
302.05	2465.75
302.26	2392.03
302.47	2408.41
302.69	2369.50
302.90	2607.06
303.12	2301.92
303.33	2531.29
303.54	2777.05
303.76	2467.80
303.97	2439.13
304.19	2625.50
304.40	2457.56
304.61	2553.82
304.83	2629.59
305.04	2543.58
305.26	2531.29
305.47	2496.47
305.68	2392.03
305.90	2326.49
306.11	2652.12
306.33	2408.41
306.54	2310.11
306.75	2351.07
306.97	2299.87
307.18	2373.60
307.39	2389.98
307.61	2545.63
307.82	2383.84
308.04	2478.04
308.25	2316.25
308.46	2514.91
308.68	2533.34
308.89	2447.32
309.10	2498.52
309.32	2510.81
309.53	2549.72
309.74	2588.63
309.96	2355.16
310.17	2492.38
310.39	2416.60
310.60	2578.39
310.81	2428.89
311.03	2322.40
311.24	2553.82
311.45	2471.90
311.67	2633.69
311.88	2496.47
312.09	2424.80
312.31	2416.60
312.52	2406.36
312.73	2394.08
312.95	2277.34
313.16	2361.31
313.37	2547.67
313.59	2490.33
313.80	2572.25
314.01	2662.36
314.23	2441.18
314.44	2383.84
314.65	2318.30
314.87	2422.75
315.08	2402.27
315.29	2392.03
315.51	2338.78
315.72	2248.67
315.93	2594.78
316.15	2469.85
316.36	2408.41
316.57	2463.71
316.79	2455.51
317.00	2412.51
317.21	2598.87
317.43	2375.64
317.64	2441.18
317.85	2342.88
318.07	2414.56
318.28	2379.74
318.49	2547.67
318.70	2723.80
318.92	2592.73
319.13	2707.41
319.34	2682.84
319.56	2510.81
319.77	2621.40
319.98	2674.65
320.20	2580.44
320.41	2484.19
320.62	2598.87
320.83	2408.41
321.05	2617.30
321.26	2529.24
321.47	2465.75
321.69	2578.39
321.90	2277.34
322.11	2332.64
322.32	2539.48
322.54	2670.55
322.75	2437.08
322.96	2809.81
323.18	2357.21
323.39	2209.76
323.60	2342.88
323.81	2508.76
324.03	2408.41
324.24	2463.71
324.45	2478.04
324.66	2396.12
324.88	2553.82
325.09	2654.17
325.30	2412.51
325.52	2383.84
325.73	2502.62
325.94	2359.26
326.15	2297.82
326.37	2289.63
326.58	2580.44
326.79	2691.03
327.00	2365.40
327.22	2441.18
327.43	2410.46
327.64	2326.49
327.85	2555.86
328.07	2467.80
328.28	2736.09
328.49	2416.60
328.70	2385.88
328.92	2406.36
329.13	2514.91
329.34	2596.82
329.55	2568.15
329.76	2545.63
329.98	2531.29
330.19	2652.12
330.40	2514.91
330.61	2496.47
330.83	2564.06
331.04	2381.79
331.25	2478.04
331.46	2551.77
331.68	2349.02
331.89	2551.77
332.10	2437.08
332.31	2213.85
332.52	2392.03
332.74	2586.58
332.95	2301.92
333.16	2408.41
333.37	2588.63
333.58	2428.89
333.80	2428.89
334.01	2213.85
334.22	2525.15
334.43	2396.12
334.64	2351.07
334.86	2252.77
335.07	2471.90
335.28	2652.12
335.49	2318.30
335.70	2523.10
335.92	2625.50
336.13	2789.33
336.34	2439.13
336.55	2422.75
336.76	2473.95
336.98	2271.20
337.19	2412.51
337.40	2559.96
337.61	2914.26
337.82	2383.84
338.04	2465.75
338.25	2246.62
338.46	2363.36
338.67	2410.46
338.88	2357.21
339.09	2320.35
339.31	2412.51
339.52	2383.84
339.73	2344.92
339.94	2471.90
340.15	2475.99
340.36	2361.31
340.58	2346.97
340.79	2416.60
341.00	2570.20
341.21	2326.49
341.42	2586.58
341.63	2371.55
341.85	2613.21
342.06	2478.04
342.27	2418.65
342.48	2533.34
342.69	2359.26
342.90	2537.43
343.12	2623.45
343.33	2283.49
343.54	2539.48
343.75	2592.73
343.96	2504.67
344.17	2377.69
344.38	2490.33
344.60	2293.72
344.81	2392.03
345.02	2430.94
345.23	2658.26
345.44	2764.76
345.65	2420.70
345.86	2457.56
346.07	2545.63
346.29	2367.45
346.50	2514.91
346.71	2475.99
346.92	2619.35
347.13	2766.81
347.34	2394.08
347.55	2336.73
347.76	2596.82
347.98	2267.10
348.19	2459.61
348.40	2531.29
348.61	2527.19
348.82	2594.78
349.03	2512.86
349.24	2357.21
349.45	2680.79
349.66	2324.44
349.88	2432.99
350.09	2346.97
350.30	2660.31
350.51	2623.45
350.72	2506.71
350.93	2482.14
351.14	2478.04
351.35	2478.04
351.56	2435.03
351.77	2424.80
351.99	2502.62
352.20	2658.26
352.41	2482.14
352.62	2271.20
352.83	2435.03
353.04	2465.75
353.25	2402.27
353.46	2445.27
353.67	2564.06
353.88	2322.40
354.09	2349.02
354.30	2445.27
354.52	2516.95
354.73	2529.24
354.94	2357.21
355.15	2312.16
355.36	2766.81
355.57	2383.84
355.78	2383.84
355.99	2326.49
356.20	2521.05
356.41	2650.07
356.62	2506.71
356.83	2529.24
357.04	2695.13
357.25	2252.77
357.46	2359.26
357.68	2289.63
357.89	2392.03
358.10	2445.27
358.31	2320.35
358.52	2521.05
358.73	2301.92
358.94	2340.83
359.15	2416.60
359.36	2457.56
359.57	2557.91
359.78	2506.71
359.99	2514.91
360.20	2353.12
360.41	2428.89
360.62	2531.29
360.83	2432.99
361.04	2420.70
361.25	2512.86
361.46	2734.04
361.67	2502.62
361.88	2435.03
362.09	2574.30
362.30	2529.24
362.51	2306.01
362.72	2469.85
362.93	2596.82
363.14	2564.06
363.35	2541.53
363.56	2306.01
363.78	2643.93
363.99	2631.64
364.20	2410.46
364.41	2447.32
364.62	2695.13
364.83	2465.75
365.04	2420.70
365.25	2410.46
365.46	2734.04
365.67	2422.75
365.88	2392.03
366.09	2334.68
366.30	2400.22
366.51	2430.94
366.72	2252.77
366.93	2359.26
367.14	2445.27
367.35	2695.13
367.56	2402.27
367.77	2562.01
367.98	2437.08
368.18	2521.05
368.39	2582.49
368.60	2340.83
368.81	2617.30
369.02	2498.52
369.23	2449.37
369.44	2351.07
369.65	2449.37
369.86	2504.67
370.07	2551.77
370.28	2351.07
370.49	2508.76
370.70	2447.32
370.91	2308.06
371.12	2342.88
371.33	2564.06
371.54	2471.90
371.75	2584.54
371.96	2205.66
372.17	2465.75
372.38	2432.99
372.59	2484.19
372.80	2426.84
373.01	2539.48
373.22	2453.47
373.43	2422.75
373.64	2334.68
373.85	2641.88
374.06	2686.94
374.26	2521.05
374.47	2469.85
374.68	2670.55
374.89	2465.75
375.10	2422.75
375.31	2559.96
375.52	2527.19
375.73	2478.04
375.94	2285.53
376.15	2596.82
376.36	2418.65
376.57	2430.94
376.78	2455.51
376.99	2482.14
377.20	2648.02
377.40	2428.89
377.61	2652.12
377.82	2338.78
378.03	2658.26
378.24	2623.45
378.45	2342.88
378.66	2498.52
378.87	2240.48
379.08	2308.06
379.29	2332.64
379.50	2588.63
379.71	2506.71
379.91	2502.62
380.12	2432.99
380.33	2455.51
380.54	2545.63
380.75	2482.14
380.96	2430.94
381.17	2568.15
381.38	2508.76
381.59	2527.19
381.80	2455.51
382.00	2652.12
382.21	2531.29
382.42	2602.97
382.63	2709.46
382.84	2562.01
383.05	2652.12
383.26	2709.46
383.47	2478.04
383.68	2523.10
383.88	2596.82
384.09	2496.47
384.30	2680.79
384.51	2494.43
384.72	2449.37
384.93	2265.05
385.14	2473.95
385.35	2529.24
385.55	2314.20
385.76	2666.46
385.97	2375.64
386.18	2365.40
386.39	2445.27
386.60	2367.45
386.81	2475.99
387.02	2344.92
387.22	2383.84
387.43	2621.40
387.64	2531.29
387.85	2602.97
388.06	2672.60
388.27	4005.83
388.48	8238.98
388.68	11935.56
388.89	14626.59
389.10	15673.10
389.31	14737.18
389.52	11667.28
389.73	9944.94
389.93	9049.97
390.14	8384.38
390.35	7444.37
390.56	6641.56
390.77	5513.13
390.98	4026.31
391.18	3340.24
391.39	2990.03
391.60	2641.88
391.81	2592.73
392.02	2447.32
392.23	2779.09
392.43	2498.52
392.64	2576.34
392.85	2480.09
393.06	2686.94
393.27	2541.53
393.47	2346.97
393.68	2467.80
393.89	2428.89
394.10	2627.54
394.31	2478.04
394.52	2392.03
394.72	2398.17
394.93	2633.69
395.14	2351.07
395.35	2615.26
395.56	2471.90
395.76	2451.42
395.97	2449.37
396.18	2566.10
396.39	2676.70
396.60	3022.80
396.80	2664.41
397.01	2623.45
397.22	2629.59
397.43	2613.21
397.64	2441.18
397.84	2504.67
398.05	2711.51
398.26	2553.82
398.47	2527.19
398.67	2596.82
398.88	2586.58
399.09	2572.25
399.30	2359.26
399.51	2535.39
399.71	2365.40
399.92	2473.95
400.13	2547.67
400.34	2404.32
400.54	2490.33
400.75	2668.50
400.96	2351.07
401.17	2736.09
401.37	2551.77
401.58	2543.58
401.79	2422.75
402.00	2555.86
402.21	2832.34
402.41	2783.19
402.62	2785.24
402.83	2854.87
403.04	2936.79
403.24	3137.49
403.45	2547.67
403.66	2684.89
403.87	2697.17
404.07	2805.72
404.28	2668.50
404.49	2729.94
404.70	2510.81
404.90	2594.78
405.11	2504.67
405.32	2602.97
405.52	2539.48
405.73	2424.80
405.94	2441.18
406.15	2475.99
406.35	2654.17
406.56	2645.98
406.77	2410.46
406.98	2459.61
407.18	2414.56
407.39	2594.78
407.60	2330.59
407.80	2547.67
408.01	2475.99
408.22	2488.28
408.43	2400.22
408.63	2502.62
408.84	2596.82
409.05	2645.98
409.25	2402.27
409.46	2432.99
409.67	2447.32
409.88	2404.32
410.08	2535.39
410.29	2416.60
410.50	2564.06
410.70	2537.43
410.91	2351.07
411.12	2525.15
411.32	2490.33
411.53	2367.45
411.74	2506.71
411.95	2557.91
412.15	2609.11
412.36	2625.50
412.57	2543.58
412.77	2680.79
412.98	2559.96
413.19	2424.80
413.39	2529.24
413.60	2465.75
413.81	2656.22
414.01	2394.08
414.22	2549.72
414.43	2615.26
414.63	2400.22
414.84	2625.50
415.05	2465.75
415.25	2291.68
415.46	2580.44
415.67	2441.18
415.87	2457.56
416.08	2400.22
416.29	2422.75
416.49	2514.91
416.70	2490.33
416.91	2508.76
417.11	2410.46
417.32	2600.92
417.53	2498.52
417.73	2523.10
417.94	2529.24
418.15	2500.57
418.35	2461.66
418.56	2519.00
418.77	2818.00
418.97	2471.90
419.18	2523.10
419.38	2209.76
419.59	2441.18
419.80	2617.30
420.00	2502.62
420.21	2420.70
420.42	2635.74
420.62	2543.58
420.83	2338.78
421.04	2449.37
421.24	2445.27
421.45	2568.15
421.65	2428.89
421.86	2373.60
422.07	2686.94
422.27	2568.15
422.48	2449.37
422.69	2408.41
422.89	2519.00
423.10	2498.52
423.30	2338.78
423.51	2424.80
423.72	2500.57
423.92	2551.77
424.13	2404.32
424.33	2428.89
424.54	2635.74
424.75	2521.05
424.95	2574.30
425.16	2437.08
425.36	2412.51
425.57	2590.68
425.78	2562.01
425.98	2537.43
426.19	2469.85
426.39	2422.75
426.60	2486.23
426.81	2627.54
427.01	2414.56
427.22	2408.41
427.42	2248.67
427.63	2355.16
427.83	2543.58
428.04	2703.32
428.25	2600.92
428.45	2605.02
428.66	2615.26
428.86	2367.45
429.07	2406.36
429.28	2443.23
429.48	2514.91
429.69	2381.79
429.89	2424.80
430.10	2291.68
430.30	2586.58
430.51	2670.55
430.71	2381.79
430.92	2428.89
431.13	2432.99
431.33	2541.53
431.54	2488.28
431.74	2621.40
431.95	2711.51
432.15	2445.27
432.36	2494.43
432.56	2527.19
432.77	2707.41
432.98	2656.22
433.18	2490.33
433.39	2408.41
433.59	2416.60
433.80	2645.98
434.00	2629.59
434.21	2482.14
434.41	2420.70
434.62	2760.66
434.82	2326.49
435.03	2375.64
435.23	2506.71
435.44	2277.34
435.64	2445.27
435.85	2523.10
436.06	2531.29
436.26	2547.67
436.47	2412.51
436.67	2371.55
436.88	2414.56
437.08	2613.21
437.29	2678.74
437.49	2527.19
437.70	2555.86
437.90	2480.09
438.11	2613.21
438.31	2523.10
438.52	2633.69
438.72	2648.02
438.93	2731.99
439.13	2539.48
439.34	2660.31
439.54	2500.57
439.75	2582.49
439.95	2531.29
440.16	2496.47
440.36	2516.95
440.57	2463.71
440.77	2471.90
440.98	2463.71
441.18	2473.95
441.39	2467.80
441.59	2367.45
441.80	2680.79
442.00	2562.01
442.21	2539.48
442.41	2326.49
442.62	2584.54
442.82	2441.18
443.02	2428.89
443.23	2494.43
443.43	2478.04
443.64	2670.55
443.84	2324.44
444.05	2547.67
444.25	2467.80
444.46	2435.03
444.66	2437.08
444.87	2605.02
445.07	2332.64
445.28	2490.33
445.48	2615.26
445.69	2551.77
445.89	2805.72
446.09	2521.05
446.30	2670.55
446.50	2949.08
446.71	4614.07
446.91	5801.90
447.12	6641.56
447.32	6985.62
447.53	6602.65
447.73	5404.59
447.93	4814.77
448.14	4526.01
448.34	4396.99
448.55	3825.61
448.75	3844.04
448.96	3581.90
449.16	3252.17
449.36	3119.06
449.57	2670.55
449.77	2533.34
449.98	2467.80
450.18	2625.50
450.39	2527.19
450.59	2662.36
450.79	2525.15
451.00	2432.99
451.20	2588.63
451.41	2428.89
451.61	2621.40
451.81	2461.66
452.02	2416.60
452.22	2441.18
452.43	2420.70
452.63	2387.93
