SpectraSuite Data File
++++++++++++++++++++++++++++++++++++
Date: Thu May 05 14:41:51 CEST 2016
User: root
Dark Spectrum Present: No
Reference Spectrum Present: No
Number of Sampled Component Spectra: 1
Spectrometers: USB4C02835
Integration Time (usec): 100000 (USB4C02835)
Spectra Averaged: 1 (USB4C02835)
Boxcar Smoothing: 0 (USB4C02835)
Correct for Electrical Dark: No (USB4C02835)
Strobe/Lamp Enabled: No (USB4C02835)
Correct for Detector Non-linearity: No (USB4C02835)
Correct for Stray Light: No (USB4C02835)
Number of Pixels in Processed Spectrum: 3648
>>>>>Begin Processed Spectral Data<<<<<
177.47	1910.75
177.69	1910.75
177.91	1910.75
178.13	1920.99
178.36	1904.61
178.58	2394.08
178.80	2449.37
179.02	2291.68
179.24	2334.68
179.46	2283.49
179.68	2394.08
179.90	2506.71
180.13	2519.00
180.35	2256.86
180.57	2357.21
180.79	2594.78
181.01	2430.94
181.23	2381.79
181.45	2502.62
181.67	2547.67
181.90	2602.97
182.12	2336.73
182.34	2220.00
182.56	2555.86
182.78	2465.75
183.00	2260.96
183.22	2375.64
183.44	2213.85
183.66	2846.68
183.89	2455.51
184.11	2355.16
184.33	2566.10
184.55	2600.92
184.77	2363.36
184.99	2355.16
185.21	2447.32
185.43	2719.70
185.65	2346.97
185.87	2293.72
186.10	2742.23
186.32	2734.04
186.54	2480.09
186.76	2369.50
186.98	2564.06
187.20	2455.51
187.42	2346.97
187.64	2265.05
187.86	2650.07
188.08	2562.01
188.30	2228.19
188.52	2351.07
188.75	2568.15
188.97	2654.17
189.19	2285.53
189.41	2240.48
189.63	2598.87
189.85	2404.32
190.07	2297.82
190.29	2199.52
190.51	2531.29
190.73	2275.29
190.95	2490.33
191.17	2432.99
191.39	2285.53
191.61	2465.75
191.84	2379.74
192.06	2381.79
192.28	2310.11
192.50	2822.10
192.72	2467.80
192.94	2424.80
193.16	2600.92
193.38	2553.82
193.60	2220.00
193.82	2396.12
194.04	2629.59
194.26	2559.96
194.48	2271.20
194.70	2359.26
194.92	2439.13
195.14	2576.34
195.36	2416.60
195.58	2359.26
195.80	2439.13
196.02	2351.07
196.24	2332.64
196.46	2430.94
196.69	2420.70
196.91	2752.47
197.13	2408.41
197.35	2334.68
197.57	2715.61
197.79	2639.83
198.01	2482.14
198.23	2371.55
198.45	2506.71
198.67	2336.73
198.89	2320.35
199.11	2490.33
199.33	2351.07
199.55	2201.57
199.77	2306.01
199.99	2467.80
200.21	2480.09
200.43	2471.90
200.65	2260.96
200.87	2189.28
201.09	2551.77
201.31	2449.37
201.53	2430.94
201.75	2392.03
201.97	2475.99
202.19	2494.43
202.41	2379.74
202.63	2539.48
202.85	2529.24
203.07	2490.33
203.29	2340.83
203.51	2283.49
203.73	2381.79
203.95	2801.62
204.17	2367.45
204.39	2496.47
204.61	2424.80
204.83	2375.64
205.05	2521.05
205.27	2506.71
205.49	2834.39
205.71	2510.81
205.93	2209.76
206.15	2275.29
206.37	2588.63
206.59	2500.57
206.81	2256.86
207.03	2303.96
207.25	2410.46
207.47	2572.25
207.69	2387.93
207.91	2521.05
208.13	2631.64
208.34	2353.12
208.56	2308.06
208.78	2383.84
209.00	2416.60
209.22	2394.08
209.44	2367.45
209.66	2342.88
209.88	2451.42
210.10	2430.94
210.32	2303.96
210.54	2396.12
210.76	2486.23
210.98	2576.34
211.20	2258.91
211.42	2445.27
211.64	2652.12
211.86	2484.19
212.08	2346.97
212.30	2383.84
212.52	2459.61
212.74	2531.29
212.96	2375.64
213.17	2506.71
213.39	2488.28
213.61	2734.04
213.83	2248.67
214.05	2420.70
214.27	2617.30
214.49	2420.70
214.71	2250.72
214.93	2478.04
215.15	2484.19
215.37	2572.25
215.59	2312.16
215.81	2400.22
216.03	2691.03
216.24	2484.19
216.46	2379.74
216.68	2412.51
216.90	2504.67
217.12	2625.50
217.34	2277.34
217.56	2373.60
217.78	2670.55
218.00	2637.78
218.22	2400.22
218.44	2484.19
218.66	2535.39
218.87	2766.81
219.09	2336.73
219.31	2414.56
219.53	2490.33
219.75	2465.75
219.97	2326.49
220.19	2316.25
220.41	2496.47
220.63	2701.27
220.85	2363.36
221.06	2408.41
221.28	2643.93
221.50	2621.40
221.72	2371.55
221.94	2248.67
222.16	2598.87
222.38	2570.20
222.60	2332.64
222.82	2387.93
223.03	2553.82
223.25	2320.35
223.47	2412.51
223.69	2523.10
223.91	2666.46
224.13	2566.10
224.35	2332.64
224.57	2562.01
224.78	2572.25
225.00	2400.22
225.22	2451.42
225.44	2316.25
225.66	2553.82
225.88	2387.93
226.10	2387.93
226.32	2531.29
226.53	2643.93
226.75	2459.61
226.97	2373.60
227.19	2420.70
227.41	2367.45
227.63	2353.12
227.85	2287.58
228.06	2314.20
228.28	2451.42
228.50	2566.10
228.72	2244.57
228.94	2365.40
229.16	2310.11
229.37	2363.36
229.59	2367.45
229.81	2545.63
230.03	2461.66
230.25	2342.88
230.47	2211.81
230.69	2228.19
230.90	2555.86
231.12	2392.03
231.34	2373.60
231.56	2512.86
231.78	2316.25
232.00	2478.04
232.21	2359.26
232.43	2340.83
232.65	2287.58
232.87	2586.58
233.09	2297.82
233.30	2299.87
233.52	2629.59
233.74	2457.56
233.96	2260.96
234.18	2406.36
234.40	2447.32
234.61	2793.43
234.83	2226.14
235.05	2273.25
235.27	2850.77
235.49	2643.93
235.70	2338.78
235.92	2387.93
236.14	2482.14
236.36	2781.14
236.58	2299.87
236.79	2457.56
237.01	2498.52
237.23	2537.43
237.45	2586.58
237.67	2371.55
237.88	2457.56
238.10	2695.13
238.32	2365.40
238.54	2328.54
238.76	2469.85
238.97	2453.47
239.19	2332.64
239.41	2418.65
239.63	2607.06
239.85	2437.08
240.06	2381.79
240.28	2318.30
240.50	2527.19
240.72	2445.27
240.93	2318.30
241.15	2482.14
241.37	2473.95
241.59	2641.88
241.81	2404.32
242.02	2404.32
242.24	2504.67
242.46	2537.43
242.68	2230.24
242.89	2359.26
243.11	2580.44
243.33	2420.70
243.55	2361.31
243.76	2420.70
243.98	2449.37
244.20	2463.71
244.42	2365.40
244.64	2379.74
244.85	2312.16
245.07	2365.40
245.29	2449.37
245.51	2392.03
245.72	2564.06
245.94	2619.35
246.16	2326.49
246.38	2443.23
246.59	2455.51
246.81	2471.90
247.03	2277.34
247.24	2258.91
247.46	2457.56
247.68	2584.54
247.90	2281.44
248.11	2355.16
248.33	2580.44
248.55	2443.23
248.77	2420.70
248.98	2453.47
249.20	2613.21
249.42	2490.33
249.64	2383.84
249.85	2291.68
250.07	2414.56
250.29	2590.68
250.50	2410.46
250.72	2260.96
250.94	2519.00
251.16	2729.94
251.37	2365.40
251.59	2357.21
251.81	2564.06
252.02	2521.05
252.24	2308.06
252.46	2486.23
252.68	2357.21
252.89	2410.46
253.11	2252.77
253.33	2453.47
253.54	2633.69
253.76	2342.88
253.98	2330.59
254.20	2351.07
254.41	2299.87
254.63	2404.32
254.85	2193.37
255.06	2424.80
255.28	2516.95
255.50	2478.04
255.71	2263.01
255.93	2238.43
256.15	2406.36
256.36	2590.68
256.58	2287.58
256.80	2381.79
257.02	2420.70
257.23	2486.23
257.45	2371.55
257.67	2373.60
257.88	2449.37
258.10	2592.73
258.32	2308.06
258.53	2473.95
258.75	2643.93
258.97	2375.64
259.18	2265.05
259.40	2377.69
259.62	2715.61
259.83	2615.26
260.05	2424.80
260.27	2863.06
260.48	2611.16
260.70	2334.68
260.92	2318.30
261.13	2406.36
261.35	2521.05
261.57	2539.48
261.78	2269.15
262.00	2256.86
262.22	2572.25
262.43	2334.68
262.65	2299.87
262.86	2367.45
263.08	2818.00
263.30	2508.76
263.51	2199.52
263.73	2316.25
263.95	2697.17
264.16	2465.75
264.38	2281.44
264.60	2308.06
264.81	2475.99
265.03	2559.96
265.25	2549.72
265.46	2332.64
265.68	2570.20
265.89	2564.06
266.11	2263.01
266.33	2424.80
266.54	2615.26
266.76	2539.48
266.98	2447.32
267.19	2473.95
267.41	2568.15
267.62	2383.84
267.84	2193.37
268.06	2432.99
268.27	2519.00
268.49	2609.11
268.70	2416.60
268.92	2371.55
269.14	2344.92
269.35	2351.07
269.57	2379.74
269.79	2377.69
270.00	2344.92
270.22	2725.85
270.43	2277.34
270.65	2213.85
270.87	2459.61
271.08	2570.20
271.30	2469.85
271.51	2383.84
271.73	2525.15
271.95	2590.68
272.16	2383.84
272.38	2410.46
272.59	2357.21
272.81	2596.82
273.02	2367.45
273.24	2340.83
273.46	2527.19
273.67	2334.68
273.89	2338.78
274.10	2326.49
274.32	2598.87
274.54	2422.75
274.75	2445.27
274.97	2346.97
275.18	2539.48
275.40	2547.67
275.61	2359.26
275.83	2428.89
276.05	2351.07
276.26	2478.04
276.48	2455.51
276.69	2351.07
276.91	2367.45
277.12	2588.63
277.34	2547.67
277.55	2545.63
277.77	2514.91
277.99	2480.09
278.20	2336.73
278.42	2308.06
278.63	2351.07
278.85	2439.13
279.06	2355.16
279.28	2383.84
279.49	2645.98
279.71	2588.63
279.93	2389.98
280.14	2445.27
280.36	2373.60
280.57	2619.35
280.79	2414.56
281.00	2338.78
281.22	2449.37
281.43	2717.65
281.65	2172.89
281.86	2349.02
282.08	2465.75
282.29	2680.79
282.51	2232.29
282.73	2349.02
282.94	2336.73
283.16	2588.63
283.37	2465.75
283.59	2424.80
283.80	2480.09
284.02	2480.09
284.23	2527.19
284.45	2432.99
284.66	2301.92
284.88	2355.16
285.09	2351.07
285.31	2498.52
285.52	2525.15
285.74	2346.97
285.95	2553.82
286.17	2418.65
286.38	2576.34
286.60	2410.46
286.81	2373.60
287.03	2334.68
287.24	2506.71
287.46	2619.35
287.67	2400.22
287.89	2578.39
288.10	2480.09
288.32	2482.14
288.53	2572.25
288.75	2449.37
288.96	2633.69
289.18	2471.90
289.39	2326.49
289.61	2461.66
289.82	2719.70
290.04	2666.46
290.25	2430.94
290.47	2512.86
290.68	2494.43
290.90	2670.55
291.11	2275.29
291.33	2568.15
291.54	2371.55
291.76	2310.11
291.97	2412.51
292.18	2494.43
292.40	2398.17
292.61	2314.20
292.83	2666.46
293.04	2492.38
293.26	2383.84
293.47	2426.84
293.69	2306.01
293.90	2406.36
294.12	2625.50
294.33	2435.03
294.55	2414.56
294.76	2549.72
294.97	2619.35
295.19	2760.66
295.40	2408.41
295.62	2506.71
295.83	2510.81
296.05	2420.70
296.26	2643.93
296.48	2359.26
296.69	2490.33
296.90	2363.36
297.12	2502.62
297.33	2527.19
297.55	2469.85
297.76	2502.62
297.98	2572.25
298.19	2527.19
298.41	2463.71
298.62	2441.18
298.83	2670.55
299.05	2467.80
299.26	2441.18
299.48	2316.25
299.69	2498.52
299.90	2441.18
300.12	2377.69
300.33	2584.54
300.55	2465.75
300.76	2484.19
300.98	2392.03
301.19	2580.44
301.40	2342.88
301.62	2408.41
301.83	2576.34
302.05	2461.66
302.26	2400.22
302.47	2422.75
302.69	2398.17
302.90	2516.95
303.12	2248.67
303.33	2553.82
303.54	2768.85
303.76	2383.84
303.97	2437.08
304.19	2617.30
304.40	2316.25
304.61	2488.28
304.83	2566.10
305.04	2484.19
305.26	2553.82
305.47	2443.23
305.68	2455.51
305.90	2285.53
306.11	2559.96
306.33	2383.84
306.54	2357.21
306.75	2412.51
306.97	2340.83
307.18	2353.12
307.39	2443.23
307.61	2498.52
307.82	2422.75
308.04	2602.97
308.25	2324.44
308.46	2420.70
308.68	2437.08
308.89	2465.75
309.10	2613.21
309.32	2437.08
309.53	2475.99
309.74	2574.30
309.96	2447.32
310.17	2523.10
310.39	2498.52
310.60	2531.29
310.81	2447.32
311.03	2332.64
311.24	2645.98
311.45	2465.75
311.67	2691.03
311.88	2617.30
312.09	2514.91
312.31	2392.03
312.52	2428.89
312.73	2389.98
312.95	2351.07
313.16	2379.74
313.37	2588.63
313.59	2545.63
313.80	2557.91
314.01	2701.27
314.23	2383.84
314.44	2258.91
314.65	2383.84
314.87	2406.36
315.08	2408.41
315.29	2437.08
315.51	2332.64
315.72	2365.40
315.93	2537.43
316.15	2514.91
316.36	2396.12
316.57	2473.95
316.79	2494.43
317.00	2441.18
317.21	2531.29
317.43	2439.13
317.64	2531.29
317.85	2299.87
318.07	2389.98
318.28	2408.41
318.49	2525.15
318.70	2686.94
318.92	2635.74
319.13	2652.12
319.34	2590.68
319.56	2514.91
319.77	2621.40
319.98	2686.94
320.20	2553.82
320.41	2504.67
320.62	2557.91
320.83	2420.70
321.05	2613.21
321.26	2447.32
321.47	2467.80
321.69	2645.98
321.90	2297.82
322.11	2359.26
322.32	2570.20
322.54	2598.87
322.75	2418.65
322.96	2895.83
323.18	2289.63
323.39	2260.96
323.60	2371.55
323.81	2504.67
324.03	2496.47
324.24	2475.99
324.45	2457.56
324.66	2416.60
324.88	2576.34
325.09	2674.65
325.30	2383.84
325.52	2422.75
325.73	2514.91
325.94	2338.78
326.15	2299.87
326.37	2336.73
326.58	2641.88
326.79	2674.65
327.00	2328.54
327.22	2385.88
327.43	2559.96
327.64	2353.12
327.85	2502.62
328.07	2461.66
328.28	2648.02
328.49	2400.22
328.70	2334.68
328.92	2428.89
329.13	2430.94
329.34	2535.39
329.55	2578.39
329.76	2543.58
329.98	2506.71
330.19	2654.17
330.40	2545.63
330.61	2439.13
330.83	2580.44
331.04	2328.54
331.25	2408.41
331.46	2387.93
331.68	2297.82
331.89	2641.88
332.10	2467.80
332.31	2301.92
332.52	2514.91
332.74	2539.48
332.95	2285.53
333.16	2389.98
333.37	2594.78
333.58	2396.12
333.80	2422.75
334.01	2248.67
334.22	2465.75
334.43	2443.23
334.64	2400.22
334.86	2289.63
335.07	2338.78
335.28	2666.46
335.49	2291.68
335.70	2488.28
335.92	2594.78
336.13	2770.90
336.34	2525.15
336.55	2430.94
336.76	2516.95
336.98	2250.72
337.19	2482.14
337.40	2568.15
337.61	2742.23
337.82	2414.56
338.04	2465.75
338.25	2297.82
338.46	2420.70
338.67	2381.79
338.88	2340.83
339.09	2322.40
339.31	2424.80
339.52	2330.59
339.73	2375.64
339.94	2488.28
340.15	2656.22
340.36	2441.18
340.58	2457.56
340.79	2359.26
341.00	2545.63
341.21	2357.21
341.42	2596.82
341.63	2408.41
341.85	2645.98
342.06	2469.85
342.27	2299.87
342.48	2529.24
342.69	2371.55
342.90	2486.23
343.12	2570.20
343.33	2367.45
343.54	2615.26
343.75	2670.55
343.96	2486.23
344.17	2340.83
344.38	2475.99
344.60	2318.30
344.81	2381.79
345.02	2465.75
345.23	2596.82
345.44	2832.34
345.65	2428.89
345.86	2428.89
346.07	2539.48
346.29	2428.89
346.50	2484.19
346.71	2537.43
346.92	2594.78
347.13	2781.14
347.34	2482.14
347.55	2408.41
347.76	2455.51
347.98	2359.26
348.19	2435.03
348.40	2508.76
348.61	2531.29
348.82	2713.56
349.03	2512.86
349.24	2314.20
349.45	2693.08
349.66	2193.37
349.88	2473.95
350.09	2414.56
350.30	2645.98
350.51	2547.67
350.72	2422.75
350.93	2414.56
351.14	2473.95
351.35	2621.40
351.56	2480.09
351.77	2492.38
351.99	2494.43
352.20	2678.74
352.41	2523.10
352.62	2310.11
352.83	2455.51
353.04	2424.80
353.25	2432.99
353.46	2533.34
353.67	2609.11
353.88	2189.28
354.09	2359.26
354.30	2453.47
354.52	2600.92
354.73	2473.95
354.94	2367.45
355.15	2496.47
355.36	2754.52
355.57	2392.03
355.78	2416.60
355.99	2404.32
356.20	2447.32
356.41	2576.34
356.62	2490.33
356.83	2426.84
357.04	2701.27
357.25	2279.39
357.46	2457.56
357.68	2295.77
357.89	2363.36
358.10	2459.61
358.31	2402.27
358.52	2424.80
358.73	2295.77
358.94	2349.02
359.15	2367.45
359.36	2500.57
359.57	2441.18
359.78	2445.27
359.99	2506.71
360.20	2365.40
360.41	2457.56
360.62	2562.01
360.83	2473.95
361.04	2478.04
361.25	2523.10
361.46	2736.09
361.67	2514.91
361.88	2527.19
362.09	2695.13
362.30	2486.23
362.51	2400.22
362.72	2449.37
362.93	2562.01
363.14	2473.95
363.35	2482.14
363.56	2308.06
363.78	2576.34
363.99	2527.19
364.20	2400.22
364.41	2428.89
364.62	2736.09
364.83	2459.61
365.04	2371.55
365.25	2465.75
365.46	2738.13
365.67	2338.78
365.88	2443.23
366.09	2363.36
366.30	2432.99
366.51	2508.76
366.72	2320.35
366.93	2414.56
367.14	2469.85
367.35	2697.17
367.56	2475.99
367.77	2539.48
367.98	2506.71
368.18	2551.77
368.39	2519.00
368.60	2367.45
368.81	2625.50
369.02	2609.11
369.23	2398.17
369.44	2289.63
369.65	2428.89
369.86	2508.76
370.07	2473.95
370.28	2330.59
370.49	2482.14
370.70	2510.81
370.91	2332.64
371.12	2428.89
371.33	2686.94
371.54	2435.03
371.75	2564.06
371.96	2191.33
372.17	2553.82
372.38	2512.86
372.59	2504.67
372.80	2314.20
373.01	2455.51
373.22	2482.14
373.43	2486.23
373.64	2332.64
373.85	2555.86
374.06	2664.41
374.26	2549.72
374.47	2539.48
374.68	2736.09
374.89	2535.39
375.10	2400.22
375.31	2508.76
375.52	2555.86
375.73	2478.04
375.94	2351.07
376.15	2492.38
376.36	2441.18
376.57	2508.76
376.78	2324.44
376.99	2424.80
377.20	2645.98
377.40	2482.14
377.61	2668.50
377.82	2412.51
378.03	2658.26
378.24	2555.86
378.45	2449.37
378.66	2449.37
378.87	2236.38
379.08	2373.60
379.29	2375.64
379.50	2611.16
379.71	2375.64
379.91	2498.52
380.12	2396.12
380.33	2471.90
380.54	2447.32
380.75	2539.48
380.96	2404.32
381.17	2576.34
381.38	2498.52
381.59	2539.48
381.80	2445.27
382.00	2635.74
382.21	2539.48
382.42	2674.65
382.63	2727.89
382.84	2562.01
383.05	2607.06
383.26	2613.21
383.47	2498.52
383.68	2445.27
383.88	2523.10
384.09	2387.93
384.30	2619.35
384.51	2467.80
384.72	2367.45
384.93	2330.59
385.14	2439.13
385.35	2527.19
385.55	2299.87
385.76	2590.68
385.97	2473.95
386.18	2334.68
386.39	2396.12
386.60	2365.40
386.81	2439.13
387.02	2330.59
387.22	2377.69
387.43	2613.21
387.64	2490.33
387.85	2695.13
388.06	2555.86
388.27	4065.22
388.48	8241.03
388.68	12009.29
388.89	14548.77
389.10	15748.88
389.31	15048.47
389.52	11827.02
389.73	10125.16
389.93	9123.70
390.14	8392.58
390.35	7681.93
390.56	6692.76
390.77	5474.22
390.98	4190.14
391.18	3389.39
391.39	2899.92
391.60	2568.15
391.81	2627.54
392.02	2381.79
392.23	2807.77
392.43	2559.96
392.64	2527.19
392.85	2461.66
393.06	2645.98
393.27	2496.47
393.47	2463.71
393.68	2437.08
393.89	2342.88
394.10	2674.65
394.31	2410.46
394.52	2398.17
394.72	2439.13
394.93	2672.60
395.14	2375.64
395.35	2478.04
395.56	2385.88
395.76	2469.85
395.97	2492.38
396.18	2592.73
396.39	2635.74
396.60	3010.51
396.80	2748.37
397.01	2619.35
397.22	2676.70
397.43	2545.63
397.64	2457.56
397.84	2596.82
398.05	2815.96
398.26	2543.58
398.47	2553.82
398.67	2559.96
398.88	2435.03
399.09	2500.57
399.30	2332.64
399.51	2465.75
399.71	2455.51
399.92	2484.19
400.13	2547.67
400.34	2463.71
400.54	2566.10
400.75	2736.09
400.96	2473.95
401.17	2678.74
401.37	2625.50
401.58	2516.95
401.79	2394.08
402.00	2627.54
402.21	2998.23
402.41	2826.20
402.62	2736.09
402.83	2885.59
403.04	2840.53
403.24	3094.48
403.45	2559.96
403.66	2736.09
403.87	2688.98
404.07	2764.76
404.28	2725.85
404.49	2695.13
404.70	2609.11
404.90	2570.20
405.11	2478.04
405.32	2457.56
405.52	2359.26
405.73	2424.80
405.94	2437.08
406.15	2527.19
406.35	2568.15
406.56	2635.74
406.77	2490.33
406.98	2432.99
407.18	2441.18
407.39	2727.89
407.60	2424.80
407.80	2502.62
408.01	2392.03
408.22	2498.52
408.43	2371.55
408.63	2510.81
408.84	2539.48
409.05	2562.01
409.25	2310.11
409.46	2385.88
409.67	2441.18
409.88	2334.68
410.08	2529.24
410.29	2412.51
410.50	2600.92
410.70	2662.36
410.91	2314.20
411.12	2523.10
411.32	2443.23
411.53	2455.51
411.74	2572.25
411.95	2627.54
412.15	2598.87
412.36	2602.97
412.57	2506.71
412.77	2621.40
412.98	2537.43
413.19	2432.99
413.39	2478.04
413.60	2482.14
413.81	2670.55
414.01	2408.41
414.22	2478.04
414.43	2629.59
414.63	2416.60
414.84	2488.28
415.05	2455.51
415.25	2400.22
415.46	2572.25
415.67	2330.59
415.87	2473.95
416.08	2512.86
416.29	2475.99
416.49	2584.54
416.70	2406.36
416.91	2486.23
417.11	2400.22
417.32	2547.67
417.53	2519.00
417.73	2559.96
417.94	2437.08
418.15	2519.00
418.35	2478.04
418.56	2480.09
418.77	2793.43
418.97	2443.23
419.18	2432.99
419.38	2156.51
419.59	2498.52
419.80	2664.41
420.00	2467.80
420.21	2416.60
420.42	2652.12
420.62	2516.95
420.83	2387.93
421.04	2406.36
421.24	2414.56
421.45	2590.68
421.65	2475.99
421.86	2402.27
422.07	2559.96
422.27	2506.71
422.48	2478.04
422.69	2324.44
422.89	2459.61
423.10	2330.59
423.30	2375.64
423.51	2455.51
423.72	2492.38
423.92	2533.34
424.13	2340.83
424.33	2459.61
424.54	2555.86
424.75	2539.48
424.95	2547.67
425.16	2408.41
425.36	2502.62
425.57	2650.07
425.78	2562.01
425.98	2531.29
426.19	2455.51
426.39	2435.03
426.60	2508.76
426.81	2572.25
427.01	2512.86
427.22	2426.84
427.42	2330.59
427.63	2398.17
427.83	2539.48
428.04	2672.60
428.25	2566.10
428.45	2559.96
428.66	2592.73
428.86	2492.38
429.07	2396.12
429.28	2531.29
429.48	2475.99
429.69	2459.61
429.89	2473.95
430.10	2398.17
430.30	2512.86
430.51	2637.78
430.71	2402.27
430.92	2488.28
431.13	2463.71
431.33	2586.58
431.54	2529.24
431.74	2602.97
431.95	2709.46
432.15	2346.97
432.36	2475.99
432.56	2514.91
432.77	2766.81
432.98	2617.30
433.18	2455.51
433.39	2408.41
433.59	2424.80
433.80	2701.27
434.00	2678.74
434.21	2414.56
434.41	2357.21
434.62	2820.05
434.82	2342.88
435.03	2400.22
435.23	2584.54
435.44	2273.25
435.64	2449.37
435.85	2492.38
436.06	2600.92
436.26	2598.87
436.47	2500.57
436.67	2400.22
436.88	2424.80
437.08	2654.17
437.29	2555.86
437.49	2494.43
437.70	2580.44
437.90	2424.80
438.11	2662.36
438.31	2527.19
438.52	2754.52
438.72	2799.57
438.93	2736.09
439.13	2588.63
439.34	2568.15
439.54	2457.56
439.75	2586.58
439.95	2523.10
440.16	2439.13
440.36	2559.96
440.57	2478.04
440.77	2459.61
440.98	2482.14
441.18	2584.54
441.39	2367.45
441.59	2314.20
441.80	2793.43
442.00	2490.33
442.21	2535.39
442.41	2422.75
442.62	2592.73
442.82	2424.80
443.02	2437.08
443.23	2449.37
443.43	2455.51
443.64	2623.45
443.84	2392.03
444.05	2631.64
444.25	2562.01
444.46	2482.14
444.66	2410.46
444.87	2645.98
445.07	2281.44
445.28	2445.27
445.48	2645.98
445.69	2539.48
445.89	2877.40
446.09	2527.19
446.30	2795.48
446.50	3047.38
446.71	4732.86
446.91	5736.36
447.12	6545.31
447.32	7133.08
447.53	6604.70
447.73	5441.45
447.93	4708.28
448.14	4556.73
448.34	4499.39
448.55	3725.26
448.75	3772.36
448.96	3534.79
449.16	3225.55
449.36	3082.19
449.57	2754.52
449.77	2572.25
449.98	2445.27
450.18	2637.78
450.39	2486.23
450.59	2504.67
450.79	2504.67
451.00	2445.27
451.20	2578.39
451.41	2449.37
451.61	2543.58
451.81	2449.37
452.02	2416.60
452.22	2389.98
452.43	2453.47
