SpectraSuite Data File
++++++++++++++++++++++++++++++++++++
Date: Thu May 05 14:42:18 CEST 2016
User: root
Dark Spectrum Present: No
Reference Spectrum Present: No
Number of Sampled Component Spectra: 1
Spectrometers: USB4C02835
Integration Time (usec): 100000 (USB4C02835)
Spectra Averaged: 1 (USB4C02835)
Boxcar Smoothing: 0 (USB4C02835)
Correct for Electrical Dark: No (USB4C02835)
Strobe/Lamp Enabled: No (USB4C02835)
Correct for Detector Non-linearity: No (USB4C02835)
Correct for Stray Light: No (USB4C02835)
Number of Pixels in Processed Spectrum: 3648
>>>>>Begin Processed Spectral Data<<<<<
177.47	1925.09
177.69	1925.09
177.91	1925.09
178.13	1896.42
178.36	1892.32
178.58	2258.91
178.80	2484.19
179.02	2342.88
179.24	2471.90
179.46	2318.30
179.68	2363.36
179.90	2459.61
180.13	2467.80
180.35	2265.05
180.57	2396.12
180.79	2605.02
181.01	2498.52
181.23	2375.64
181.45	2537.43
181.67	2543.58
181.90	2580.44
182.12	2252.77
182.34	2248.67
182.56	2580.44
182.78	2498.52
183.00	2258.91
183.22	2324.44
183.44	2299.87
183.66	2846.68
183.89	2498.52
184.11	2322.40
184.33	2559.96
184.55	2600.92
184.77	2353.12
184.99	2312.16
185.21	2441.18
185.43	2740.18
185.65	2308.06
185.87	2424.80
186.10	2781.14
186.32	2768.85
186.54	2428.89
186.76	2461.66
186.98	2580.44
187.20	2516.95
187.42	2432.99
187.64	2394.08
187.86	2498.52
188.08	2613.21
188.30	2308.06
188.52	2396.12
188.75	2662.36
188.97	2670.55
189.19	2398.17
189.41	2326.49
189.63	2559.96
189.85	2506.71
190.07	2273.25
190.29	2215.90
190.51	2527.19
190.73	2308.06
190.95	2473.95
191.17	2355.16
191.39	2338.78
191.61	2478.04
191.84	2349.02
192.06	2459.61
192.28	2310.11
192.50	2873.30
192.72	2449.37
192.94	2439.13
193.16	2650.07
193.38	2482.14
193.60	2244.57
193.82	2375.64
194.04	2635.74
194.26	2506.71
194.48	2326.49
194.70	2299.87
194.92	2432.99
195.14	2516.95
195.36	2326.49
195.58	2396.12
195.80	2426.84
196.02	2412.51
196.24	2279.39
196.46	2455.51
196.69	2385.88
196.91	2805.72
197.13	2316.25
197.35	2392.03
197.57	2693.08
197.79	2578.39
198.01	2387.93
198.23	2367.45
198.45	2535.39
198.67	2396.12
198.89	2295.77
199.11	2455.51
199.33	2475.99
199.55	2205.66
199.77	2308.06
199.99	2424.80
200.21	2535.39
200.43	2502.62
200.65	2179.04
200.87	2158.56
201.09	2447.32
201.31	2441.18
201.53	2398.17
201.75	2385.88
201.97	2588.63
202.19	2486.23
202.41	2455.51
202.63	2537.43
202.85	2547.67
203.07	2506.71
203.29	2375.64
203.51	2287.58
203.73	2308.06
203.95	2783.19
204.17	2445.27
204.39	2447.32
204.61	2435.03
204.83	2482.14
205.05	2492.38
205.27	2443.23
205.49	2760.66
205.71	2392.03
205.93	2217.95
206.15	2334.68
206.37	2486.23
206.59	2486.23
206.81	2316.25
207.03	2324.44
207.25	2428.89
207.47	2576.34
207.69	2367.45
207.91	2535.39
208.13	2711.51
208.34	2461.66
208.56	2263.01
208.78	2379.74
209.00	2416.60
209.22	2475.99
209.44	2404.32
209.66	2308.06
209.88	2457.56
210.10	2424.80
210.32	2250.72
210.54	2445.27
210.76	2473.95
210.98	2572.25
211.20	2252.77
211.42	2482.14
211.64	2693.08
211.86	2602.97
212.08	2449.37
212.30	2422.75
212.52	2508.76
212.74	2543.58
212.96	2367.45
213.17	2480.09
213.39	2512.86
213.61	2680.79
213.83	2260.96
214.05	2430.94
214.27	2668.50
214.49	2404.32
214.71	2303.96
214.93	2392.03
215.15	2494.43
215.37	2519.00
215.59	2308.06
215.81	2377.69
216.03	2566.10
216.24	2562.01
216.46	2363.36
216.68	2322.40
216.90	2535.39
217.12	2709.46
217.34	2314.20
217.56	2506.71
217.78	2662.36
218.00	2590.68
218.22	2402.27
218.44	2432.99
218.66	2496.47
218.87	2742.23
219.09	2316.25
219.31	2373.60
219.53	2502.62
219.75	2424.80
219.97	2334.68
220.19	2359.26
220.41	2441.18
220.63	2748.37
220.85	2365.40
221.06	2367.45
221.28	2650.07
221.50	2555.86
221.72	2334.68
221.94	2295.77
222.16	2541.53
222.38	2508.76
222.60	2334.68
222.82	2412.51
223.03	2594.78
223.25	2349.02
223.47	2334.68
223.69	2559.96
223.91	2537.43
224.13	2496.47
224.35	2265.05
224.57	2475.99
224.78	2514.91
225.00	2318.30
225.22	2414.56
225.44	2314.20
225.66	2572.25
225.88	2422.75
226.10	2461.66
226.32	2342.88
226.53	2648.02
226.75	2510.81
226.97	2365.40
227.19	2340.83
227.41	2416.60
227.63	2484.19
227.85	2252.77
228.06	2320.35
228.28	2514.91
228.50	2570.20
228.72	2277.34
228.94	2310.11
229.16	2381.79
229.37	2365.40
229.59	2349.02
229.81	2451.42
230.03	2471.90
230.25	2320.35
230.47	2215.90
230.69	2275.29
230.90	2613.21
231.12	2324.44
231.34	2447.32
231.56	2416.60
231.78	2367.45
232.00	2519.00
232.21	2373.60
232.43	2432.99
232.65	2299.87
232.87	2545.63
233.09	2240.48
233.30	2289.63
233.52	2670.55
233.74	2519.00
233.96	2326.49
234.18	2416.60
234.40	2453.47
234.61	2711.51
234.83	2293.72
235.05	2308.06
235.27	2783.19
235.49	2775.00
235.70	2299.87
235.92	2375.64
236.14	2594.78
236.36	2811.86
236.58	2217.95
236.79	2441.18
237.01	2414.56
237.23	2492.38
237.45	2502.62
237.67	2306.01
237.88	2562.01
238.10	2705.37
238.32	2260.96
238.54	2330.59
238.76	2488.28
238.97	2498.52
239.19	2291.68
239.41	2459.61
239.63	2643.93
239.85	2424.80
240.06	2392.03
240.28	2318.30
240.50	2609.11
240.72	2492.38
240.93	2371.55
241.15	2486.23
241.37	2500.57
241.59	2648.02
241.81	2336.73
242.02	2367.45
242.24	2576.34
242.46	2480.09
242.68	2217.95
242.89	2318.30
243.11	2562.01
243.33	2414.56
243.55	2422.75
243.76	2396.12
243.98	2342.88
244.20	2457.56
244.42	2385.88
244.64	2461.66
244.85	2353.12
245.07	2361.31
245.29	2310.11
245.51	2363.36
245.72	2482.14
245.94	2586.58
246.16	2402.27
246.38	2387.93
246.59	2422.75
246.81	2365.40
247.03	2342.88
247.24	2265.05
247.46	2375.64
247.68	2525.15
247.90	2277.34
248.11	2367.45
248.33	2605.02
248.55	2467.80
248.77	2389.98
248.98	2453.47
249.20	2686.94
249.42	2506.71
249.64	2318.30
249.85	2283.49
250.07	2367.45
250.29	2594.78
250.50	2457.56
250.72	2285.53
250.94	2562.01
251.16	2775.00
251.37	2371.55
251.59	2420.70
251.81	2602.97
252.02	2746.33
252.24	2324.44
252.46	2453.47
252.68	2392.03
252.89	2469.85
253.11	2258.91
253.33	2469.85
253.54	2635.74
253.76	2326.49
253.98	2332.64
254.20	2285.53
254.41	2322.40
254.63	2439.13
254.85	2236.38
255.06	2385.88
255.28	2506.71
255.50	2455.51
255.71	2297.82
255.93	2207.71
256.15	2432.99
256.36	2475.99
256.58	2326.49
256.80	2332.64
257.02	2398.17
257.23	2519.00
257.45	2420.70
257.67	2361.31
257.88	2371.55
258.10	2512.86
258.32	2351.07
258.53	2410.46
258.75	2701.27
258.97	2392.03
259.18	2281.44
259.40	2318.30
259.62	2713.56
259.83	2678.74
260.05	2355.16
260.27	2932.69
260.48	2668.50
260.70	2363.36
260.92	2260.96
261.13	2408.41
261.35	2519.00
261.57	2537.43
261.78	2260.96
262.00	2332.64
262.22	2572.25
262.43	2326.49
262.65	2412.51
262.86	2398.17
263.08	2736.09
263.30	2498.52
263.51	2176.99
263.73	2256.86
263.95	2643.93
264.16	2365.40
264.38	2293.72
264.60	2363.36
264.81	2465.75
265.03	2670.55
265.25	2519.00
265.46	2353.12
265.68	2559.96
265.89	2590.68
266.11	2193.37
266.33	2408.41
266.54	2637.78
266.76	2514.91
266.98	2398.17
267.19	2459.61
267.41	2547.67
267.62	2461.66
267.84	2201.57
268.06	2428.89
268.27	2461.66
268.49	2662.36
268.70	2432.99
268.92	2453.47
269.14	2383.84
269.35	2277.34
269.57	2469.85
269.79	2400.22
270.00	2418.65
270.22	2684.89
270.43	2201.57
270.65	2254.81
270.87	2445.27
271.08	2648.02
271.30	2449.37
271.51	2383.84
271.73	2596.82
271.95	2637.78
272.16	2381.79
272.38	2437.08
272.59	2445.27
272.81	2619.35
273.02	2367.45
273.24	2400.22
273.46	2605.02
273.67	2369.50
273.89	2269.15
274.10	2412.51
274.32	2570.20
274.54	2512.86
274.75	2478.04
274.97	2349.02
275.18	2512.86
275.40	2514.91
275.61	2467.80
275.83	2469.85
276.05	2355.16
276.26	2508.76
276.48	2465.75
276.69	2402.27
276.91	2496.47
277.12	2635.74
277.34	2519.00
277.55	2475.99
277.77	2478.04
277.99	2502.62
278.20	2334.68
278.42	2277.34
278.63	2414.56
278.85	2404.32
279.06	2342.88
279.28	2492.38
279.49	2572.25
279.71	2559.96
279.93	2523.10
280.14	2457.56
280.36	2404.32
280.57	2566.10
280.79	2531.29
281.00	2367.45
281.22	2424.80
281.43	2586.58
281.65	2217.95
281.86	2346.97
282.08	2516.95
282.29	2682.84
282.51	2306.01
282.73	2297.82
282.94	2279.39
283.16	2580.44
283.37	2555.86
283.59	2418.65
283.80	2531.29
284.02	2469.85
284.23	2414.56
284.45	2457.56
284.66	2387.93
284.88	2445.27
285.09	2428.89
285.31	2465.75
285.52	2594.78
285.74	2303.96
285.95	2613.21
286.17	2414.56
286.38	2645.98
286.60	2416.60
286.81	2263.01
287.03	2383.84
287.24	2482.14
287.46	2549.72
287.67	2480.09
287.89	2721.75
288.10	2453.47
288.32	2424.80
288.53	2514.91
288.75	2359.26
288.96	2600.92
289.18	2326.49
289.39	2441.18
289.61	2531.29
289.82	2703.32
290.04	2658.26
290.25	2342.88
290.47	2387.93
290.68	2410.46
290.90	2611.16
291.11	2303.96
291.33	2543.58
291.54	2283.49
291.76	2346.97
291.97	2441.18
292.18	2371.55
292.40	2439.13
292.61	2445.27
292.83	2623.45
293.04	2443.23
293.26	2488.28
293.47	2486.23
293.69	2330.59
293.90	2351.07
294.12	2637.78
294.33	2498.52
294.55	2447.32
294.76	2572.25
294.97	2701.27
295.19	2793.43
295.40	2432.99
295.62	2465.75
295.83	2674.65
296.05	2389.98
296.26	2564.06
296.48	2414.56
296.69	2459.61
296.90	2529.24
297.12	2531.29
297.33	2600.92
297.55	2545.63
297.76	2555.86
297.98	2478.04
298.19	2523.10
298.41	2473.95
298.62	2355.16
298.83	2527.19
299.05	2465.75
299.26	2432.99
299.48	2353.12
299.69	2471.90
299.90	2430.94
300.12	2373.60
300.33	2627.54
300.55	2396.12
300.76	2471.90
300.98	2379.74
301.19	2607.06
301.40	2394.08
301.62	2416.60
301.83	2467.80
302.05	2488.28
302.26	2416.60
302.47	2396.12
302.69	2322.40
302.90	2551.77
303.12	2226.14
303.33	2535.39
303.54	2701.27
303.76	2441.18
303.97	2457.56
304.19	2504.67
304.40	2416.60
304.61	2471.90
304.83	2576.34
305.04	2527.19
305.26	2473.95
305.47	2418.65
305.68	2492.38
305.90	2318.30
306.11	2660.31
306.33	2473.95
306.54	2318.30
306.75	2406.36
306.97	2334.68
307.18	2385.88
307.39	2422.75
307.61	2527.19
307.82	2418.65
308.04	2514.91
308.25	2346.97
308.46	2490.33
308.68	2430.94
308.89	2416.60
309.10	2547.67
309.32	2441.18
309.53	2473.95
309.74	2609.11
309.96	2359.26
310.17	2484.19
310.39	2467.80
310.60	2578.39
310.81	2482.14
311.03	2318.30
311.24	2508.76
311.45	2502.62
311.67	2572.25
311.88	2539.48
312.09	2512.86
312.31	2408.41
312.52	2318.30
312.73	2392.03
312.95	2328.54
313.16	2349.02
313.37	2502.62
313.59	2557.91
313.80	2584.54
314.01	2703.32
314.23	2416.60
314.44	2400.22
314.65	2318.30
314.87	2351.07
315.08	2369.50
315.29	2465.75
315.51	2340.83
315.72	2308.06
315.93	2568.15
316.15	2478.04
316.36	2394.08
316.57	2459.61
316.79	2430.94
317.00	2389.98
317.21	2570.20
317.43	2353.12
317.64	2392.03
317.85	2367.45
318.07	2299.87
318.28	2441.18
318.49	2611.16
318.70	2680.79
318.92	2645.98
319.13	2500.57
319.34	2621.40
319.56	2478.04
319.77	2594.78
319.98	2541.53
320.20	2598.87
320.41	2551.77
320.62	2553.82
320.83	2363.36
321.05	2676.70
321.26	2420.70
321.47	2545.63
321.69	2674.65
321.90	2318.30
322.11	2334.68
322.32	2482.14
322.54	2664.41
322.75	2418.65
322.96	2918.36
323.18	2195.42
323.39	2197.47
323.60	2330.59
323.81	2586.58
324.03	2379.74
324.24	2527.19
324.45	2547.67
324.66	2351.07
324.88	2594.78
325.09	2695.13
325.30	2404.32
325.52	2418.65
325.73	2553.82
325.94	2451.42
326.15	2293.72
326.37	2324.44
326.58	2523.10
326.79	2609.11
327.00	2338.78
327.22	2392.03
327.43	2490.33
327.64	2334.68
327.85	2473.95
328.07	2527.19
328.28	2717.65
328.49	2398.17
328.70	2379.74
328.92	2439.13
329.13	2394.08
329.34	2498.52
329.55	2600.92
329.76	2473.95
329.98	2428.89
330.19	2678.74
330.40	2455.51
330.61	2482.14
330.83	2615.26
331.04	2400.22
331.25	2457.56
331.46	2381.79
331.68	2338.78
331.89	2631.64
332.10	2392.03
332.31	2228.19
332.52	2500.57
332.74	2652.12
332.95	2220.00
333.16	2435.03
333.37	2602.97
333.58	2432.99
333.80	2428.89
334.01	2310.11
334.22	2430.94
334.43	2486.23
334.64	2357.21
334.86	2297.82
335.07	2312.16
335.28	2656.22
335.49	2363.36
335.70	2473.95
335.92	2590.68
336.13	2785.24
336.34	2473.95
336.55	2424.80
336.76	2553.82
336.98	2310.11
337.19	2416.60
337.40	2582.49
337.61	2758.61
337.82	2475.99
338.04	2498.52
338.25	2250.72
338.46	2514.91
338.67	2373.60
338.88	2357.21
339.09	2320.35
339.31	2422.75
339.52	2297.82
339.73	2340.83
339.94	2439.13
340.15	2529.24
340.36	2488.28
340.58	2392.03
340.79	2330.59
341.00	2504.67
341.21	2342.88
341.42	2588.63
341.63	2445.27
341.85	2566.10
342.06	2576.34
342.27	2336.73
342.48	2486.23
342.69	2291.68
342.90	2547.67
343.12	2588.63
343.33	2289.63
343.54	2650.07
343.75	2590.68
343.96	2441.18
344.17	2389.98
344.38	2420.70
344.60	2396.12
344.81	2373.60
345.02	2437.08
345.23	2676.70
345.44	2766.81
345.65	2467.80
345.86	2537.43
346.07	2500.57
346.29	2338.78
346.50	2461.66
346.71	2428.89
346.92	2613.21
347.13	2711.51
347.34	2373.60
347.55	2375.64
347.76	2467.80
347.98	2303.96
348.19	2465.75
348.40	2662.36
348.61	2396.12
348.82	2693.08
349.03	2521.05
349.24	2334.68
349.45	2744.28
349.66	2250.72
349.88	2383.84
350.09	2404.32
350.30	2562.01
350.51	2678.74
350.72	2432.99
350.93	2410.46
351.14	2414.56
351.35	2504.67
351.56	2494.43
351.77	2412.51
351.99	2443.23
352.20	2645.98
352.41	2519.00
352.62	2312.16
352.83	2490.33
353.04	2451.42
353.25	2422.75
353.46	2473.95
353.67	2559.96
353.88	2269.15
354.09	2414.56
354.30	2428.89
354.52	2531.29
354.73	2457.56
354.94	2381.79
355.15	2383.84
355.36	2775.00
355.57	2392.03
355.78	2473.95
355.99	2332.64
356.20	2545.63
356.41	2629.59
356.62	2451.42
356.83	2422.75
357.04	2676.70
357.25	2318.30
357.46	2449.37
357.68	2310.11
357.89	2394.08
358.10	2432.99
358.31	2344.92
358.52	2420.70
358.73	2414.56
358.94	2299.87
359.15	2389.98
359.36	2527.19
359.57	2482.14
359.78	2480.09
359.99	2467.80
360.20	2306.01
360.41	2482.14
360.62	2543.58
360.83	2531.29
361.04	2543.58
361.25	2418.65
361.46	2691.03
361.67	2535.39
361.88	2453.47
362.09	2654.17
362.30	2516.95
362.51	2408.41
362.72	2441.18
362.93	2580.44
363.14	2488.28
363.35	2398.17
363.56	2277.34
363.78	2594.78
363.99	2590.68
364.20	2387.93
364.41	2475.99
364.62	2731.99
364.83	2508.76
365.04	2344.92
365.25	2359.26
365.46	2686.94
365.67	2412.51
365.88	2469.85
366.09	2369.50
366.30	2369.50
366.51	2525.15
366.72	2314.20
366.93	2453.47
367.14	2512.86
367.35	2678.74
367.56	2432.99
367.77	2510.81
367.98	2451.42
368.18	2547.67
368.39	2484.19
368.60	2357.21
368.81	2576.34
369.02	2578.39
369.23	2502.62
369.44	2254.81
369.65	2441.18
369.86	2523.10
370.07	2584.54
370.28	2357.21
370.49	2531.29
370.70	2609.11
370.91	2326.49
371.12	2258.91
371.33	2635.74
371.54	2381.79
371.75	2617.30
371.96	2220.00
372.17	2486.23
372.38	2478.04
372.59	2482.14
372.80	2422.75
373.01	2500.57
373.22	2490.33
373.43	2414.56
373.64	2277.34
373.85	2635.74
374.06	2654.17
374.26	2570.20
374.47	2443.23
374.68	2693.08
374.89	2576.34
375.10	2375.64
375.31	2541.53
375.52	2510.81
375.73	2502.62
375.94	2283.49
376.15	2645.98
376.36	2400.22
376.57	2416.60
376.78	2387.93
376.99	2494.43
377.20	2621.40
377.40	2457.56
377.61	2564.06
377.82	2328.54
378.03	2713.56
378.24	2445.27
378.45	2461.66
378.66	2512.86
378.87	2297.82
379.08	2306.01
379.29	2459.61
379.50	2551.77
379.71	2492.38
379.91	2555.86
380.12	2430.94
380.33	2383.84
380.54	2572.25
380.75	2447.32
380.96	2445.27
381.17	2596.82
381.38	2398.17
381.59	2461.66
381.80	2512.86
382.00	2731.99
382.21	2549.72
382.42	2754.52
382.63	2699.22
382.84	2613.21
383.05	2568.15
383.26	2613.21
383.47	2490.33
383.68	2543.58
383.88	2617.30
384.09	2512.86
384.30	2674.65
384.51	2527.19
384.72	2459.61
384.93	2326.49
385.14	2445.27
385.35	2592.73
385.55	2299.87
385.76	2666.46
385.97	2398.17
386.18	2316.25
386.39	2377.69
386.60	2439.13
386.81	2387.93
387.02	2371.55
387.22	2332.64
387.43	2578.39
387.64	2566.10
387.85	2643.93
388.06	2592.73
388.27	4020.16
388.48	8241.03
388.68	12062.54
388.89	14532.39
389.10	15470.36
389.31	14704.42
389.52	11687.76
389.73	10045.29
389.93	9234.29
390.14	8435.58
390.35	7536.52
390.56	6741.91
390.77	5337.01
390.98	4171.71
391.18	3434.44
391.39	2965.46
391.60	2602.97
391.81	2703.32
392.02	2430.94
392.23	2709.46
392.43	2531.29
392.64	2562.01
392.85	2447.32
393.06	2777.05
393.27	2467.80
393.47	2435.03
393.68	2519.00
393.89	2443.23
394.10	2699.22
394.31	2392.03
394.52	2359.26
394.72	2412.51
394.93	2705.37
395.14	2418.65
395.35	2514.91
395.56	2365.40
395.76	2410.46
395.97	2498.52
396.18	2629.59
396.39	2482.14
396.60	3000.27
396.80	2725.85
397.01	2607.06
397.22	2654.17
397.43	2674.65
397.64	2492.38
397.84	2609.11
398.05	2754.52
398.26	2527.19
398.47	2490.33
398.67	2537.43
398.88	2516.95
399.09	2498.52
399.30	2398.17
399.51	2613.21
399.71	2400.22
399.92	2455.51
400.13	2465.75
400.34	2357.21
400.54	2512.86
400.75	2650.07
400.96	2494.43
401.17	2637.78
401.37	2605.02
401.58	2572.25
401.79	2383.84
402.00	2629.59
402.21	2928.60
402.41	2627.54
402.62	2752.47
402.83	2885.59
403.04	2979.79
403.24	3078.10
403.45	2570.20
403.66	2787.29
403.87	2654.17
404.07	2668.50
404.28	2711.51
404.49	2715.61
404.70	2545.63
404.90	2605.02
405.11	2510.81
405.32	2568.15
405.52	2353.12
405.73	2406.36
405.94	2398.17
406.15	2494.43
406.35	2572.25
406.56	2625.50
406.77	2488.28
406.98	2523.10
407.18	2371.55
407.39	2748.37
407.60	2480.09
407.80	2545.63
408.01	2346.97
408.22	2441.18
408.43	2426.84
408.63	2529.24
408.84	2613.21
409.05	2576.34
409.25	2318.30
409.46	2328.54
409.67	2467.80
409.88	2449.37
410.08	2504.67
410.29	2414.56
410.50	2613.21
410.70	2602.97
410.91	2316.25
411.12	2471.90
411.32	2461.66
411.53	2394.08
411.74	2535.39
411.95	2500.57
412.15	2555.86
412.36	2602.97
412.57	2578.39
412.77	2574.30
412.98	2478.04
413.19	2451.42
413.39	2510.81
413.60	2557.91
413.81	2787.29
414.01	2344.92
414.22	2588.63
414.43	2580.44
414.63	2449.37
414.84	2643.93
415.05	2453.47
415.25	2369.50
415.46	2625.50
415.67	2422.75
415.87	2504.67
416.08	2451.42
416.29	2408.41
416.49	2521.05
416.70	2537.43
416.91	2424.80
417.11	2482.14
417.32	2547.67
417.53	2482.14
417.73	2486.23
417.94	2459.61
418.15	2613.21
418.35	2379.74
418.56	2432.99
418.77	2850.77
418.97	2465.75
419.18	2457.56
419.38	2179.04
419.59	2506.71
419.80	2736.09
420.00	2447.32
420.21	2435.03
420.42	2609.11
420.62	2527.19
420.83	2412.51
421.04	2443.23
421.24	2430.94
421.45	2572.25
421.65	2531.29
421.86	2375.64
422.07	2514.91
422.27	2557.91
422.48	2428.89
422.69	2344.92
422.89	2555.86
423.10	2465.75
423.30	2353.12
423.51	2512.86
423.72	2506.71
423.92	2605.02
424.13	2328.54
424.33	2521.05
424.54	2529.24
424.75	2523.10
424.95	2654.17
425.16	2494.43
425.36	2443.23
425.57	2596.82
425.78	2547.67
425.98	2541.53
426.19	2490.33
426.39	2439.13
426.60	2531.29
426.81	2580.44
427.01	2490.33
427.22	2387.93
427.42	2220.00
427.63	2369.50
427.83	2545.63
428.04	2711.51
428.25	2596.82
428.45	2539.48
428.66	2586.58
428.86	2498.52
429.07	2463.71
429.28	2439.13
429.48	2568.15
429.69	2410.46
429.89	2482.14
430.10	2299.87
430.30	2557.91
430.51	2568.15
430.71	2441.18
430.92	2449.37
431.13	2467.80
431.33	2559.96
431.54	2469.85
431.74	2645.98
431.95	2801.62
432.15	2398.17
432.36	2473.95
432.56	2527.19
432.77	2674.65
432.98	2736.09
433.18	2482.14
433.39	2414.56
433.59	2406.36
433.80	2701.27
434.00	2752.47
434.21	2320.35
434.41	2439.13
434.62	2820.05
434.82	2367.45
435.03	2435.03
435.23	2508.76
435.44	2340.83
435.64	2473.95
435.85	2529.24
436.06	2611.16
436.26	2551.77
436.47	2443.23
436.67	2387.93
436.88	2471.90
437.08	2645.98
437.29	2621.40
437.49	2523.10
437.70	2645.98
437.90	2572.25
438.11	2662.36
438.31	2500.57
438.52	2736.09
438.72	2695.13
438.93	2838.48
439.13	2502.62
439.34	2695.13
439.54	2396.12
439.75	2572.25
439.95	2527.19
440.16	2467.80
440.36	2535.39
440.57	2461.66
440.77	2424.80
440.98	2584.54
441.18	2586.58
441.39	2422.75
441.59	2338.78
441.80	2760.66
442.00	2500.57
442.21	2578.39
442.41	2332.64
442.62	2637.78
442.82	2426.84
443.02	2473.95
443.23	2539.48
443.43	2400.22
443.64	2691.03
443.84	2285.53
444.05	2631.64
444.25	2453.47
444.46	2430.94
444.66	2490.33
444.87	2586.58
445.07	2271.20
445.28	2494.43
445.48	2531.29
445.69	2613.21
445.89	2777.05
446.09	2463.71
446.30	2746.33
446.50	2961.36
446.71	4652.98
446.91	5865.38
447.12	6637.47
447.32	7106.45
447.53	6543.26
447.73	5447.60
447.93	4968.37
448.14	4542.39
448.34	4364.22
448.55	3801.03
448.75	3831.75
448.96	3620.81
449.16	3303.37
449.36	3061.71
449.57	2760.66
449.77	2553.82
449.98	2498.52
450.18	2510.81
450.39	2580.44
450.59	2551.77
450.79	2494.43
451.00	2424.80
451.20	2588.63
451.41	2402.27
451.61	2553.82
451.81	2432.99
452.02	2357.21
452.22	2404.32
452.43	2457.56
