SpectraSuite Data File
++++++++++++++++++++++++++++++++++++
Date: Thu May 05 14:41:55 CEST 2016
User: root
Dark Spectrum Present: No
Reference Spectrum Present: No
Number of Sampled Component Spectra: 1
Spectrometers: USB4C02835
Integration Time (usec): 100000 (USB4C02835)
Spectra Averaged: 1 (USB4C02835)
Boxcar Smoothing: 0 (USB4C02835)
Correct for Electrical Dark: No (USB4C02835)
Strobe/Lamp Enabled: No (USB4C02835)
Correct for Detector Non-linearity: No (USB4C02835)
Correct for Stray Light: No (USB4C02835)
Number of Pixels in Processed Spectrum: 3648
>>>>>Begin Processed Spectral Data<<<<<
177.47	1935.33
177.69	1935.33
177.91	1935.33
178.13	1920.99
178.36	1904.61
178.58	2428.89
178.80	2588.63
179.02	2312.16
179.24	2359.26
179.46	2361.31
179.68	2363.36
179.90	2465.75
180.13	2482.14
180.35	2172.89
180.57	2353.12
180.79	2490.33
181.01	2449.37
181.23	2439.13
181.45	2439.13
181.67	2553.82
181.90	2576.34
182.12	2277.34
182.34	2220.00
182.56	2572.25
182.78	2566.10
183.00	2340.83
183.22	2369.50
183.44	2260.96
183.66	2842.58
183.89	2453.47
184.11	2379.74
184.33	2533.34
184.55	2686.94
184.77	2437.08
184.99	2422.75
185.21	2383.84
185.43	2772.95
185.65	2363.36
185.87	2375.64
186.10	2811.86
186.32	2799.57
186.54	2465.75
186.76	2310.11
186.98	2539.48
187.20	2459.61
187.42	2344.92
187.64	2373.60
187.86	2564.06
188.08	2547.67
188.30	2310.11
188.52	2416.60
188.75	2678.74
188.97	2645.98
189.19	2318.30
189.41	2369.50
189.63	2502.62
189.85	2435.03
190.07	2299.87
190.29	2226.14
190.51	2488.28
190.73	2285.53
190.95	2408.41
191.17	2385.88
191.39	2291.68
191.61	2529.24
191.84	2379.74
192.06	2414.56
192.28	2306.01
192.50	2842.58
192.72	2414.56
192.94	2375.64
193.16	2613.21
193.38	2523.10
193.60	2267.10
193.82	2449.37
194.04	2559.96
194.26	2572.25
194.48	2389.98
194.70	2373.60
194.92	2373.60
195.14	2588.63
195.36	2416.60
195.58	2447.32
195.80	2430.94
196.02	2392.03
196.24	2318.30
196.46	2449.37
196.69	2402.27
196.91	2758.61
197.13	2338.78
197.35	2359.26
197.57	2650.07
197.79	2576.34
198.01	2396.12
198.23	2449.37
198.45	2523.10
198.67	2326.49
198.89	2252.77
199.11	2424.80
199.33	2318.30
199.55	2199.52
199.77	2324.44
199.99	2473.95
200.21	2424.80
200.43	2584.54
200.65	2220.00
200.87	2224.09
201.09	2482.14
201.31	2453.47
201.53	2400.22
201.75	2375.64
201.97	2492.38
202.19	2512.86
202.41	2486.23
202.63	2471.90
202.85	2543.58
203.07	2590.68
203.29	2383.84
203.51	2217.95
203.73	2342.88
203.95	2738.13
204.17	2408.41
204.39	2398.17
204.61	2453.47
204.83	2473.95
205.05	2428.89
205.27	2424.80
205.49	2756.57
205.71	2428.89
205.93	2252.77
206.15	2283.49
206.37	2545.63
206.59	2441.18
206.81	2236.38
207.03	2306.01
207.25	2439.13
207.47	2562.01
207.69	2308.06
207.91	2535.39
208.13	2596.82
208.34	2396.12
208.56	2285.53
208.78	2439.13
209.00	2506.71
209.22	2387.93
209.44	2383.84
209.66	2285.53
209.88	2498.52
210.10	2381.79
210.32	2330.59
210.54	2514.91
210.76	2467.80
210.98	2641.88
211.20	2166.75
211.42	2473.95
211.64	2613.21
211.86	2529.24
212.08	2400.22
212.30	2363.36
212.52	2490.33
212.74	2475.99
212.96	2475.99
213.17	2383.84
213.39	2555.86
213.61	2691.03
213.83	2316.25
214.05	2359.26
214.27	2611.16
214.49	2392.03
214.71	2314.20
214.93	2478.04
215.15	2574.30
215.37	2668.50
215.59	2263.01
215.81	2396.12
216.03	2570.20
216.24	2428.89
216.46	2318.30
216.68	2359.26
216.90	2570.20
217.12	2619.35
217.34	2277.34
217.56	2457.56
217.78	2650.07
218.00	2578.39
218.22	2369.50
218.44	2437.08
218.66	2480.09
218.87	2629.59
219.09	2338.78
219.31	2449.37
219.53	2504.67
219.75	2451.42
219.97	2316.25
220.19	2373.60
220.41	2439.13
220.63	2686.94
220.85	2351.07
221.06	2353.12
221.28	2717.65
221.50	2537.43
221.72	2379.74
221.94	2310.11
222.16	2519.00
222.38	2506.71
222.60	2361.31
222.82	2281.44
223.03	2555.86
223.25	2408.41
223.47	2381.79
223.69	2531.29
223.91	2596.82
224.13	2521.05
224.35	2291.68
224.57	2504.67
224.78	2602.97
225.00	2326.49
225.22	2367.45
225.44	2371.55
225.66	2592.73
225.88	2461.66
226.10	2408.41
226.32	2375.64
226.53	2693.08
226.75	2447.32
226.97	2449.37
227.19	2342.88
227.41	2344.92
227.63	2498.52
227.85	2199.52
228.06	2344.92
228.28	2545.63
228.50	2523.10
228.72	2285.53
228.94	2346.97
229.16	2256.86
229.37	2408.41
229.59	2297.82
229.81	2496.47
230.03	2359.26
230.25	2371.55
230.47	2228.19
230.69	2289.63
230.90	2596.82
231.12	2301.92
231.34	2478.04
231.56	2412.51
231.78	2351.07
232.00	2537.43
232.21	2363.36
232.43	2367.45
232.65	2199.52
232.87	2574.30
233.09	2281.44
233.30	2324.44
233.52	2605.02
233.74	2449.37
233.96	2318.30
234.18	2367.45
234.40	2514.91
234.61	2795.48
234.83	2211.81
235.05	2308.06
235.27	2815.96
235.49	2619.35
235.70	2349.02
235.92	2400.22
236.14	2553.82
236.36	2783.19
236.58	2220.00
236.79	2373.60
237.01	2490.33
237.23	2502.62
237.45	2535.39
237.67	2271.20
237.88	2572.25
238.10	2605.02
238.32	2283.49
238.54	2269.15
238.76	2494.43
238.97	2355.16
239.19	2281.44
239.41	2467.80
239.63	2662.36
239.85	2400.22
240.06	2332.64
240.28	2359.26
240.50	2617.30
240.72	2387.93
240.93	2342.88
241.15	2443.23
241.37	2480.09
241.59	2656.22
241.81	2373.60
242.02	2406.36
242.24	2551.77
242.46	2592.73
242.68	2244.57
242.89	2306.01
243.11	2596.82
243.33	2412.51
243.55	2377.69
243.76	2375.64
243.98	2381.79
244.20	2467.80
244.42	2342.88
244.64	2383.84
244.85	2306.01
245.07	2361.31
245.29	2342.88
245.51	2379.74
245.72	2541.53
245.94	2578.39
246.16	2404.32
246.38	2363.36
246.59	2498.52
246.81	2449.37
247.03	2322.40
247.24	2334.68
247.46	2418.65
247.68	2492.38
247.90	2277.34
248.11	2293.72
248.33	2551.77
248.55	2611.16
248.77	2357.21
248.98	2416.60
249.20	2715.61
249.42	2539.48
249.64	2383.84
249.85	2346.97
250.07	2494.43
250.29	2547.67
250.50	2365.40
250.72	2242.53
250.94	2547.67
251.16	2727.89
251.37	2392.03
251.59	2361.31
251.81	2500.57
252.02	2725.85
252.24	2363.36
252.46	2551.77
252.68	2441.18
252.89	2432.99
253.11	2244.57
253.33	2502.62
253.54	2635.74
253.76	2316.25
253.98	2328.54
254.20	2365.40
254.41	2334.68
254.63	2539.48
254.85	2217.95
255.06	2414.56
255.28	2541.53
255.50	2400.22
255.71	2248.67
255.93	2236.38
256.15	2500.57
256.36	2512.86
256.58	2318.30
256.80	2385.88
257.02	2459.61
257.23	2453.47
257.45	2383.84
257.67	2435.03
257.88	2430.94
258.10	2541.53
258.32	2308.06
258.53	2400.22
258.75	2697.17
258.97	2381.79
259.18	2342.88
259.40	2301.92
259.62	2674.65
259.83	2721.75
260.05	2328.54
260.27	2834.39
260.48	2611.16
260.70	2353.12
260.92	2342.88
261.13	2310.11
261.35	2496.47
261.57	2553.82
261.78	2289.63
262.00	2279.39
262.22	2598.87
262.43	2373.60
262.65	2338.78
262.86	2394.08
263.08	2760.66
263.30	2545.63
263.51	2269.15
263.73	2310.11
263.95	2580.44
264.16	2277.34
264.38	2318.30
264.60	2351.07
264.81	2449.37
265.03	2588.63
265.25	2631.64
265.46	2318.30
265.68	2654.17
265.89	2539.48
266.11	2226.14
266.33	2361.31
266.54	2627.54
266.76	2557.91
266.98	2420.70
267.19	2496.47
267.41	2611.16
267.62	2516.95
267.84	2238.43
268.06	2412.51
268.27	2531.29
268.49	2611.16
268.70	2404.32
268.92	2387.93
269.14	2371.55
269.35	2308.06
269.57	2322.40
269.79	2424.80
270.00	2430.94
270.22	2715.61
270.43	2291.68
270.65	2234.33
270.87	2516.95
271.08	2539.48
271.30	2412.51
271.51	2346.97
271.73	2568.15
271.95	2566.10
272.16	2387.93
272.38	2418.65
272.59	2398.17
272.81	2557.91
273.02	2379.74
273.24	2328.54
273.46	2633.69
273.67	2330.59
273.89	2281.44
274.10	2291.68
274.32	2568.15
274.54	2582.49
274.75	2504.67
274.97	2406.36
275.18	2559.96
275.40	2480.09
275.61	2455.51
275.83	2484.19
276.05	2371.55
276.26	2541.53
276.48	2424.80
276.69	2332.64
276.91	2412.51
277.12	2586.58
277.34	2531.29
277.55	2557.91
277.77	2539.48
277.99	2494.43
278.20	2383.84
278.42	2322.40
278.63	2439.13
278.85	2473.95
279.06	2338.78
279.28	2519.00
279.49	2600.92
279.71	2611.16
279.93	2435.03
280.14	2406.36
280.36	2416.60
280.57	2656.22
280.79	2580.44
281.00	2295.77
281.22	2408.41
281.43	2641.88
281.65	2220.00
281.86	2351.07
282.08	2521.05
282.29	2748.37
282.51	2301.92
282.73	2385.88
282.94	2228.19
283.16	2611.16
283.37	2600.92
283.59	2428.89
283.80	2580.44
284.02	2506.71
284.23	2488.28
284.45	2406.36
284.66	2322.40
284.88	2383.84
285.09	2420.70
285.31	2449.37
285.52	2494.43
285.74	2346.97
285.95	2531.29
286.17	2469.85
286.38	2594.78
286.60	2412.51
286.81	2410.46
287.03	2383.84
287.24	2488.28
287.46	2545.63
287.67	2465.75
287.89	2637.78
288.10	2449.37
288.32	2504.67
288.53	2566.10
288.75	2449.37
288.96	2602.97
289.18	2422.75
289.39	2400.22
289.61	2502.62
289.82	2684.89
290.04	2682.84
290.25	2312.16
290.47	2500.57
290.68	2447.32
290.90	2584.54
291.11	2224.09
291.33	2430.94
291.54	2480.09
291.76	2377.69
291.97	2486.23
292.18	2467.80
292.40	2410.46
292.61	2494.43
292.83	2688.98
293.04	2453.47
293.26	2600.92
293.47	2459.61
293.69	2334.68
293.90	2346.97
294.12	2645.98
294.33	2500.57
294.55	2457.56
294.76	2543.58
294.97	2584.54
295.19	2703.32
295.40	2381.79
295.62	2441.18
295.83	2605.02
296.05	2445.27
296.26	2512.86
296.48	2422.75
296.69	2531.29
296.90	2469.85
297.12	2469.85
297.33	2613.21
297.55	2416.60
297.76	2551.77
297.98	2506.71
298.19	2512.86
298.41	2502.62
298.62	2392.03
298.83	2553.82
299.05	2449.37
299.26	2432.99
299.48	2392.03
299.69	2531.29
299.90	2406.36
300.12	2359.26
300.33	2576.34
300.55	2441.18
300.76	2400.22
300.98	2392.03
301.19	2613.21
301.40	2408.41
301.62	2443.23
301.83	2514.91
302.05	2490.33
302.26	2455.51
302.47	2443.23
302.69	2404.32
302.90	2422.75
303.12	2232.29
303.33	2598.87
303.54	2791.38
303.76	2445.27
303.97	2432.99
304.19	2539.48
304.40	2351.07
304.61	2580.44
304.83	2598.87
305.04	2541.53
305.26	2590.68
305.47	2457.56
305.68	2490.33
305.90	2258.91
306.11	2674.65
306.33	2424.80
306.54	2332.64
306.75	2338.78
306.97	2361.31
307.18	2389.98
307.39	2396.12
307.61	2439.13
307.82	2392.03
308.04	2539.48
308.25	2295.77
308.46	2490.33
308.68	2473.95
308.89	2455.51
309.10	2578.39
309.32	2539.48
309.53	2428.89
309.74	2580.44
309.96	2422.75
310.17	2475.99
310.39	2383.84
310.60	2516.95
310.81	2453.47
311.03	2330.59
311.24	2602.97
311.45	2523.10
311.67	2588.63
311.88	2426.84
312.09	2492.38
312.31	2396.12
312.52	2457.56
312.73	2418.65
312.95	2285.53
313.16	2375.64
313.37	2559.96
313.59	2510.81
313.80	2588.63
314.01	2707.41
314.23	2389.98
314.44	2330.59
314.65	2355.16
314.87	2504.67
315.08	2404.32
315.29	2351.07
315.51	2344.92
315.72	2332.64
315.93	2527.19
316.15	2531.29
316.36	2439.13
316.57	2471.90
316.79	2514.91
317.00	2453.47
317.21	2449.37
317.43	2441.18
317.64	2471.90
317.85	2371.55
318.07	2349.02
318.28	2494.43
318.49	2545.63
318.70	2725.85
318.92	2697.17
319.13	2641.88
319.34	2641.88
319.56	2514.91
319.77	2656.22
319.98	2662.36
320.20	2613.21
320.41	2496.47
320.62	2555.86
320.83	2375.64
321.05	2559.96
321.26	2432.99
321.47	2504.67
321.69	2619.35
321.90	2273.25
322.11	2269.15
322.32	2594.78
322.54	2697.17
322.75	2392.03
322.96	2887.64
323.18	2314.20
323.39	2301.92
323.60	2406.36
323.81	2598.87
324.03	2416.60
324.24	2443.23
324.45	2463.71
324.66	2418.65
324.88	2629.59
325.09	2637.78
325.30	2410.46
325.52	2447.32
325.73	2596.82
325.94	2338.78
326.15	2291.68
326.37	2326.49
326.58	2613.21
326.79	2695.13
327.00	2428.89
327.22	2430.94
327.43	2461.66
327.64	2381.79
327.85	2432.99
328.07	2443.23
328.28	2693.08
328.49	2519.00
328.70	2414.56
328.92	2416.60
329.13	2461.66
329.34	2527.19
329.55	2564.06
329.76	2512.86
329.98	2496.47
330.19	2631.64
330.40	2465.75
330.61	2482.14
330.83	2586.58
331.04	2357.21
331.25	2488.28
331.46	2389.98
331.68	2430.94
331.89	2551.77
332.10	2430.94
332.31	2318.30
332.52	2523.10
332.74	2605.02
332.95	2330.59
333.16	2420.70
333.37	2578.39
333.58	2424.80
333.80	2420.70
334.01	2359.26
334.22	2449.37
334.43	2344.92
334.64	2351.07
334.86	2328.54
335.07	2402.27
335.28	2682.84
335.49	2318.30
335.70	2514.91
335.92	2668.50
336.13	2738.13
336.34	2490.33
336.55	2430.94
336.76	2500.57
336.98	2224.09
337.19	2457.56
337.40	2584.54
337.61	2803.67
337.82	2420.70
338.04	2473.95
338.25	2299.87
338.46	2490.33
338.67	2432.99
338.88	2381.79
339.09	2291.68
339.31	2412.51
339.52	2383.84
339.73	2324.44
339.94	2478.04
340.15	2674.65
340.36	2406.36
340.58	2414.56
340.79	2342.88
341.00	2529.24
341.21	2361.31
341.42	2600.92
341.63	2418.65
341.85	2584.54
342.06	2539.48
342.27	2375.64
342.48	2582.49
342.69	2340.83
342.90	2521.05
343.12	2572.25
343.33	2482.14
343.54	2605.02
343.75	2680.79
343.96	2373.60
344.17	2330.59
344.38	2342.88
344.60	2375.64
344.81	2340.83
345.02	2432.99
345.23	2637.78
345.44	2832.34
345.65	2535.39
345.86	2543.58
346.07	2502.62
346.29	2428.89
346.50	2545.63
346.71	2459.61
346.92	2600.92
347.13	2721.75
347.34	2471.90
347.55	2455.51
347.76	2480.09
347.98	2357.21
348.19	2451.42
348.40	2605.02
348.61	2488.28
348.82	2682.84
349.03	2519.00
349.24	2367.45
349.45	2777.05
349.66	2213.85
349.88	2459.61
350.09	2361.31
350.30	2584.54
350.51	2643.93
350.72	2506.71
350.93	2537.43
351.14	2346.97
351.35	2516.95
351.56	2426.84
351.77	2502.62
351.99	2514.91
352.20	2662.36
352.41	2572.25
352.62	2207.71
352.83	2457.56
353.04	2539.48
353.25	2404.32
353.46	2400.22
353.67	2596.82
353.88	2228.19
354.09	2420.70
354.30	2408.41
354.52	2600.92
354.73	2441.18
354.94	2363.36
355.15	2412.51
355.36	2674.65
355.57	2455.51
355.78	2461.66
355.99	2377.69
356.20	2432.99
356.41	2658.26
356.62	2473.95
356.83	2457.56
357.04	2662.36
357.25	2306.01
357.46	2359.26
357.68	2322.40
357.89	2488.28
358.10	2529.24
358.31	2455.51
358.52	2432.99
358.73	2392.03
358.94	2332.64
359.15	2375.64
359.36	2490.33
359.57	2471.90
359.78	2451.42
359.99	2551.77
360.20	2357.21
360.41	2486.23
360.62	2635.74
360.83	2459.61
361.04	2525.15
361.25	2502.62
361.46	2709.46
361.67	2506.71
361.88	2465.75
362.09	2600.92
362.30	2572.25
362.51	2344.92
362.72	2482.14
362.93	2582.49
363.14	2531.29
363.35	2482.14
363.56	2377.69
363.78	2568.15
363.99	2670.55
364.20	2357.21
364.41	2486.23
364.62	2684.89
364.83	2553.82
365.04	2457.56
365.25	2385.88
365.46	2695.13
365.67	2365.40
365.88	2424.80
366.09	2375.64
366.30	2494.43
366.51	2453.47
366.72	2351.07
366.93	2471.90
367.14	2412.51
367.35	2666.46
367.56	2457.56
367.77	2570.20
367.98	2498.52
368.18	2539.48
368.39	2514.91
368.60	2357.21
368.81	2533.34
369.02	2521.05
369.23	2432.99
369.44	2281.44
369.65	2410.46
369.86	2533.34
370.07	2494.43
370.28	2340.83
370.49	2498.52
370.70	2660.31
370.91	2379.74
371.12	2330.59
371.33	2619.35
371.54	2371.55
371.75	2605.02
371.96	2205.66
372.17	2504.67
372.38	2478.04
372.59	2469.85
372.80	2371.55
373.01	2494.43
373.22	2512.86
373.43	2435.03
373.64	2359.26
373.85	2650.07
374.06	2666.46
374.26	2519.00
374.47	2494.43
374.68	2629.59
374.89	2428.89
375.10	2396.12
375.31	2467.80
375.52	2486.23
375.73	2490.33
375.94	2277.34
376.15	2512.86
376.36	2310.11
376.57	2445.27
376.78	2416.60
376.99	2447.32
377.20	2684.89
377.40	2428.89
377.61	2695.13
377.82	2379.74
378.03	2711.51
378.24	2564.06
378.45	2441.18
378.66	2490.33
378.87	2285.53
379.08	2314.20
379.29	2387.93
379.50	2525.15
379.71	2383.84
379.91	2564.06
380.12	2371.55
380.33	2480.09
380.54	2478.04
380.75	2439.13
380.96	2389.98
381.17	2613.21
381.38	2525.15
381.59	2535.39
381.80	2375.64
382.00	2674.65
382.21	2586.58
382.42	2766.81
382.63	2727.89
382.84	2486.23
383.05	2619.35
383.26	2656.22
383.47	2422.75
383.68	2533.34
383.88	2543.58
384.09	2529.24
384.30	2553.82
384.51	2508.76
384.72	2416.60
384.93	2326.49
385.14	2486.23
385.35	2559.96
385.55	2258.91
385.76	2631.64
385.97	2449.37
386.18	2285.53
386.39	2473.95
386.60	2435.03
386.81	2428.89
387.02	2320.35
387.22	2318.30
387.43	2547.67
387.64	2553.82
387.85	2674.65
388.06	2584.54
388.27	3977.16
388.48	8224.64
388.68	11976.52
388.89	14327.59
389.10	15714.06
389.31	14745.38
389.52	11691.85
389.73	9936.74
389.93	9119.60
390.14	8224.64
390.35	7495.57
390.56	6694.81
390.77	5529.52
390.98	4214.72
391.18	3448.78
391.39	2975.70
391.60	2504.67
391.81	2588.63
392.02	2461.66
392.23	2758.61
392.43	2539.48
392.64	2553.82
392.85	2478.04
393.06	2645.98
393.27	2490.33
393.47	2381.79
393.68	2453.47
393.89	2426.84
394.10	2670.55
394.31	2435.03
394.52	2340.83
394.72	2375.64
394.93	2678.74
395.14	2357.21
395.35	2467.80
395.56	2398.17
395.76	2496.47
395.97	2457.56
396.18	2564.06
396.39	2527.19
396.60	2963.41
396.80	2719.70
397.01	2731.99
397.22	2727.89
397.43	2686.94
397.64	2375.64
397.84	2473.95
398.05	2842.58
398.26	2486.23
398.47	2531.29
398.67	2588.63
398.88	2521.05
399.09	2504.67
399.30	2308.06
399.51	2508.76
399.71	2375.64
399.92	2445.27
400.13	2510.81
400.34	2416.60
400.54	2496.47
400.75	2645.98
400.96	2465.75
401.17	2678.74
401.37	2572.25
401.58	2432.99
401.79	2473.95
402.00	2631.64
402.21	2848.72
402.41	2801.62
402.62	2736.09
402.83	2848.72
403.04	2957.27
403.24	3133.39
403.45	2594.78
403.66	2691.03
403.87	2768.85
404.07	2701.27
404.28	2693.08
404.49	2744.28
404.70	2643.93
404.90	2621.40
405.11	2475.99
405.32	2562.01
405.52	2363.36
405.73	2402.27
405.94	2338.78
406.15	2428.89
406.35	2568.15
406.56	2617.30
406.77	2441.18
406.98	2445.27
407.18	2377.69
407.39	2625.50
407.60	2525.15
407.80	2543.58
408.01	2424.80
408.22	2541.53
408.43	2406.36
408.63	2596.82
408.84	2578.39
409.05	2613.21
409.25	2389.98
409.46	2351.07
409.67	2449.37
409.88	2441.18
410.08	2455.51
410.29	2406.36
410.50	2656.22
410.70	2551.77
410.91	2422.75
411.12	2519.00
411.32	2437.08
411.53	2357.21
411.74	2588.63
411.95	2523.10
412.15	2578.39
412.36	2656.22
412.57	2570.20
412.77	2629.59
412.98	2523.10
413.19	2473.95
413.39	2529.24
413.60	2416.60
413.81	2617.30
414.01	2351.07
414.22	2482.14
414.43	2508.76
414.63	2449.37
414.84	2572.25
415.05	2562.01
415.25	2236.38
415.46	2531.29
415.67	2449.37
415.87	2535.39
416.08	2478.04
416.29	2490.33
416.49	2539.48
416.70	2443.23
416.91	2363.36
417.11	2498.52
417.32	2553.82
417.53	2500.57
417.73	2570.20
417.94	2437.08
418.15	2613.21
418.35	2455.51
418.56	2519.00
418.77	2727.89
418.97	2482.14
419.18	2490.33
419.38	2254.81
419.59	2512.86
419.80	2664.41
420.00	2471.90
420.21	2428.89
420.42	2678.74
420.62	2521.05
420.83	2310.11
421.04	2463.71
421.24	2441.18
421.45	2586.58
421.65	2404.32
421.86	2408.41
422.07	2627.54
422.27	2605.02
422.48	2424.80
422.69	2310.11
422.89	2416.60
423.10	2461.66
423.30	2338.78
423.51	2486.23
423.72	2529.24
423.92	2564.06
424.13	2283.49
424.33	2412.51
424.54	2605.02
424.75	2445.27
424.95	2709.46
425.16	2367.45
425.36	2504.67
425.57	2572.25
425.78	2559.96
425.98	2553.82
426.19	2521.05
426.39	2351.07
426.60	2432.99
426.81	2621.40
427.01	2502.62
427.22	2418.65
427.42	2256.86
427.63	2359.26
427.83	2504.67
428.04	2650.07
428.25	2508.76
428.45	2578.39
428.66	2676.70
428.86	2576.34
429.07	2457.56
429.28	2461.66
429.48	2439.13
429.69	2385.88
429.89	2523.10
430.10	2375.64
430.30	2564.06
430.51	2631.64
430.71	2432.99
430.92	2459.61
431.13	2422.75
431.33	2582.49
431.54	2465.75
431.74	2666.46
431.95	2742.23
432.15	2432.99
432.36	2475.99
432.56	2445.27
432.77	2695.13
432.98	2693.08
433.18	2484.19
433.39	2396.12
433.59	2510.81
433.80	2736.09
434.00	2609.11
434.21	2469.85
434.41	2408.41
434.62	2852.82
434.82	2408.41
435.03	2342.88
435.23	2523.10
435.44	2285.53
435.64	2488.28
435.85	2478.04
436.06	2588.63
436.26	2521.05
436.47	2432.99
436.67	2342.88
436.88	2445.27
437.08	2580.44
437.29	2537.43
437.49	2484.19
437.70	2650.07
437.90	2496.47
438.11	2703.32
438.31	2478.04
438.52	2731.99
438.72	2770.90
438.93	2805.72
439.13	2584.54
439.34	2639.83
439.54	2461.66
439.75	2547.67
439.95	2574.30
440.16	2412.51
440.36	2512.86
440.57	2465.75
440.77	2496.47
440.98	2523.10
441.18	2590.68
441.39	2435.03
441.59	2351.07
441.80	2797.53
442.00	2506.71
442.21	2615.26
442.41	2385.88
442.62	2590.68
442.82	2394.08
443.02	2465.75
443.23	2437.08
443.43	2449.37
443.64	2674.65
443.84	2357.21
444.05	2613.21
444.25	2521.05
444.46	2482.14
444.66	2402.27
444.87	2590.68
445.07	2277.34
445.28	2400.22
445.48	2686.94
445.69	2512.86
445.89	2775.00
446.09	2584.54
446.30	2723.80
446.50	3016.66
446.71	4595.64
446.91	5668.78
447.12	6664.09
447.32	6993.81
447.53	6586.27
447.73	5447.60
447.93	4902.84
448.14	4523.96
448.34	4331.45
448.55	3829.70
448.75	3833.80
448.96	3569.61
449.16	3321.81
449.36	3127.25
449.57	2766.81
449.77	2588.63
449.98	2541.53
450.18	2602.97
450.39	2492.38
450.59	2645.98
450.79	2531.29
451.00	2416.60
451.20	2576.34
451.41	2496.47
451.61	2480.09
451.81	2506.71
452.02	2396.12
452.22	2482.14
452.43	2453.47
452.63	2375.64
