SpectraSuite Data File
++++++++++++++++++++++++++++++++++++
Date: Thu May 05 14:42:00 CEST 2016
User: root
Dark Spectrum Present: No
Reference Spectrum Present: No
Number of Sampled Component Spectra: 1
Spectrometers: USB4C02835
Integration Time (usec): 100000 (USB4C02835)
Spectra Averaged: 1 (USB4C02835)
Boxcar Smoothing: 0 (USB4C02835)
Correct for Electrical Dark: No (USB4C02835)
Strobe/Lamp Enabled: No (USB4C02835)
Correct for Detector Non-linearity: No (USB4C02835)
Correct for Stray Light: No (USB4C02835)
Number of Pixels in Processed Spectrum: 3648
>>>>>Begin Processed Spectral Data<<<<<
177.47	1947.62
177.69	1947.62
177.91	1947.62
178.13	1929.19
178.36	1871.84
178.58	2344.92
178.80	2516.95
179.02	2342.88
179.24	2338.78
179.46	2295.77
179.68	2381.79
179.90	2480.09
180.13	2523.10
180.35	2252.77
180.57	2303.96
180.79	2596.82
181.01	2514.91
181.23	2424.80
181.45	2400.22
181.67	2564.06
181.90	2480.09
182.12	2377.69
182.34	2224.09
182.56	2545.63
182.78	2500.57
183.00	2359.26
183.22	2287.58
183.44	2273.25
183.66	2830.29
183.89	2432.99
184.11	2379.74
184.33	2572.25
184.55	2607.06
184.77	2363.36
184.99	2342.88
185.21	2408.41
185.43	2758.61
185.65	2258.91
185.87	2310.11
186.10	2799.57
186.32	2721.75
186.54	2441.18
186.76	2424.80
186.98	2564.06
187.20	2400.22
187.42	2342.88
187.64	2351.07
187.86	2580.44
188.08	2551.77
188.30	2355.16
188.52	2367.45
188.75	2662.36
188.97	2742.23
189.19	2371.55
189.41	2361.31
189.63	2482.14
189.85	2426.84
190.07	2293.72
190.29	2220.00
190.51	2488.28
190.73	2338.78
190.95	2529.24
191.17	2437.08
191.39	2342.88
191.61	2469.85
191.84	2359.26
192.06	2404.32
192.28	2392.03
192.50	2813.91
192.72	2449.37
192.94	2432.99
193.16	2621.40
193.38	2457.56
193.60	2267.10
193.82	2402.27
194.04	2605.02
194.26	2480.09
194.48	2424.80
194.70	2346.97
194.92	2344.92
195.14	2514.91
195.36	2334.68
195.58	2410.46
195.80	2404.32
196.02	2375.64
196.24	2392.03
196.46	2387.93
196.69	2408.41
196.91	2795.48
197.13	2349.02
197.35	2402.27
197.57	2605.02
197.79	2521.05
198.01	2439.13
198.23	2314.20
198.45	2498.52
198.67	2357.21
198.89	2232.29
199.11	2375.64
199.33	2392.03
199.55	2215.90
199.77	2361.31
199.99	2408.41
200.21	2453.47
200.43	2523.10
200.65	2269.15
200.87	2263.01
201.09	2471.90
201.31	2424.80
201.53	2381.79
201.75	2406.36
201.97	2596.82
202.19	2441.18
202.41	2453.47
202.63	2580.44
202.85	2553.82
203.07	2557.91
203.29	2375.64
203.51	2256.86
203.73	2428.89
203.95	2822.10
204.17	2351.07
204.39	2416.60
204.61	2406.36
204.83	2533.34
205.05	2439.13
205.27	2473.95
205.49	2693.08
205.71	2478.04
205.93	2316.25
206.15	2228.19
206.37	2504.67
206.59	2514.91
206.81	2170.85
207.03	2279.39
207.25	2400.22
207.47	2543.58
207.69	2404.32
207.91	2613.21
208.13	2678.74
208.34	2355.16
208.56	2254.81
208.78	2336.73
209.00	2473.95
209.22	2408.41
209.44	2349.02
209.66	2289.63
209.88	2490.33
210.10	2527.19
210.32	2367.45
210.54	2408.41
210.76	2504.67
210.98	2572.25
211.20	2183.13
211.42	2420.70
211.64	2613.21
211.86	2502.62
212.08	2379.74
212.30	2383.84
212.52	2441.18
212.74	2576.34
212.96	2455.51
213.17	2428.89
213.39	2459.61
213.61	2670.55
213.83	2283.49
214.05	2432.99
214.27	2535.39
214.49	2342.88
214.71	2281.44
214.93	2459.61
215.15	2445.27
215.37	2529.24
215.59	2228.19
215.81	2396.12
216.03	2551.77
216.24	2514.91
216.46	2385.88
216.68	2359.26
216.90	2586.58
217.12	2605.02
217.34	2349.02
217.56	2478.04
217.78	2570.20
218.00	2645.98
218.22	2408.41
218.44	2445.27
218.66	2435.03
218.87	2654.17
219.09	2375.64
219.31	2334.68
219.53	2611.16
219.75	2377.69
219.97	2332.64
220.19	2340.83
220.41	2488.28
220.63	2600.92
220.85	2357.21
221.06	2334.68
221.28	2531.29
221.50	2553.82
221.72	2408.41
221.94	2324.44
222.16	2498.52
222.38	2676.70
222.60	2336.73
222.82	2396.12
223.03	2641.88
223.25	2365.40
223.47	2408.41
223.69	2580.44
223.91	2559.96
224.13	2529.24
224.35	2383.84
224.57	2539.48
224.78	2553.82
225.00	2355.16
225.22	2359.26
225.44	2267.10
225.66	2605.02
225.88	2457.56
226.10	2420.70
226.32	2318.30
226.53	2711.51
226.75	2475.99
226.97	2383.84
227.19	2392.03
227.41	2346.97
227.63	2365.40
227.85	2303.96
228.06	2318.30
228.28	2521.05
228.50	2559.96
228.72	2195.42
228.94	2289.63
229.16	2244.57
229.37	2320.35
229.59	2263.01
229.81	2508.76
230.03	2420.70
230.25	2281.44
230.47	2148.32
230.69	2310.11
230.90	2602.97
231.12	2363.36
231.34	2408.41
231.56	2404.32
231.78	2400.22
232.00	2539.48
232.21	2310.11
232.43	2430.94
232.65	2269.15
232.87	2613.21
233.09	2244.57
233.30	2375.64
233.52	2592.73
233.74	2531.29
233.96	2383.84
234.18	2346.97
234.40	2486.23
234.61	2758.61
234.83	2203.61
235.05	2342.88
235.27	2809.81
235.49	2637.78
235.70	2324.44
235.92	2463.71
236.14	2500.57
236.36	2719.70
236.58	2287.58
236.79	2451.42
237.01	2439.13
237.23	2494.43
237.45	2543.58
237.67	2308.06
237.88	2502.62
238.10	2670.55
238.32	2232.29
238.54	2359.26
238.76	2473.95
238.97	2373.60
239.19	2248.67
239.41	2351.07
239.63	2590.68
239.85	2412.51
240.06	2377.69
240.28	2291.68
240.50	2633.69
240.72	2494.43
240.93	2306.01
241.15	2420.70
241.37	2463.71
241.59	2639.83
241.81	2359.26
242.02	2355.16
242.24	2514.91
242.46	2553.82
242.68	2211.81
242.89	2377.69
243.11	2580.44
243.33	2445.27
243.55	2406.36
243.76	2406.36
243.98	2387.93
244.20	2430.94
244.42	2334.68
244.64	2336.73
244.85	2359.26
245.07	2402.27
245.29	2308.06
245.51	2285.53
245.72	2519.00
245.94	2654.17
246.16	2367.45
246.38	2396.12
246.59	2351.07
246.81	2332.64
247.03	2267.10
247.24	2226.14
247.46	2457.56
247.68	2486.23
247.90	2277.34
248.11	2326.49
248.33	2617.30
248.55	2432.99
248.77	2392.03
248.98	2398.17
249.20	2633.69
249.42	2535.39
249.64	2381.79
249.85	2369.50
250.07	2375.64
250.29	2523.10
250.50	2402.27
250.72	2285.53
250.94	2482.14
251.16	2742.23
251.37	2383.84
251.59	2357.21
251.81	2588.63
252.02	2734.04
252.24	2367.45
252.46	2486.23
252.68	2404.32
252.89	2400.22
253.11	2179.04
253.33	2430.94
253.54	2693.08
253.76	2303.96
253.98	2353.12
254.20	2314.20
254.41	2346.97
254.63	2398.17
254.85	2256.86
255.06	2461.66
255.28	2545.63
255.50	2463.71
255.71	2420.70
255.93	2289.63
256.15	2424.80
256.36	2525.15
256.58	2389.98
256.80	2334.68
257.02	2486.23
257.23	2414.56
257.45	2396.12
257.67	2471.90
257.88	2398.17
258.10	2465.75
258.32	2332.64
258.53	2310.11
258.75	2660.31
258.97	2412.51
259.18	2320.35
259.40	2240.48
259.62	2662.36
259.83	2654.17
260.05	2428.89
260.27	2944.98
260.48	2592.73
260.70	2375.64
260.92	2301.92
261.13	2383.84
261.35	2441.18
261.57	2543.58
261.78	2199.52
262.00	2289.63
262.22	2498.52
262.43	2428.89
262.65	2340.83
262.86	2371.55
263.08	2840.53
263.30	2527.19
263.51	2224.09
263.73	2326.49
263.95	2547.67
264.16	2355.16
264.38	2308.06
264.60	2361.31
264.81	2502.62
265.03	2711.51
265.25	2553.82
265.46	2334.68
265.68	2652.12
265.89	2496.47
266.11	2283.49
266.33	2424.80
266.54	2594.78
266.76	2572.25
266.98	2426.84
267.19	2412.51
267.41	2635.74
267.62	2457.56
267.84	2287.58
268.06	2531.29
268.27	2605.02
268.49	2619.35
268.70	2437.08
268.92	2441.18
269.14	2324.44
269.35	2355.16
269.57	2330.59
269.79	2369.50
270.00	2453.47
270.22	2701.27
270.43	2222.05
270.65	2191.33
270.87	2557.91
271.08	2600.92
271.30	2506.71
271.51	2322.40
271.73	2506.71
271.95	2621.40
272.16	2422.75
272.38	2449.37
272.59	2412.51
272.81	2527.19
273.02	2277.34
273.24	2428.89
273.46	2635.74
273.67	2322.40
273.89	2349.02
274.10	2277.34
274.32	2619.35
274.54	2510.81
274.75	2408.41
274.97	2371.55
275.18	2572.25
275.40	2564.06
275.61	2346.97
275.83	2412.51
276.05	2289.63
276.26	2527.19
276.48	2455.51
276.69	2375.64
276.91	2482.14
277.12	2635.74
277.34	2519.00
277.55	2576.34
277.77	2551.77
277.99	2478.04
278.20	2482.14
278.42	2320.35
278.63	2369.50
278.85	2369.50
279.06	2308.06
279.28	2482.14
279.49	2523.10
279.71	2562.01
279.93	2480.09
280.14	2439.13
280.36	2400.22
280.57	2570.20
280.79	2525.15
281.00	2420.70
281.22	2418.65
281.43	2613.21
281.65	2185.18
281.86	2285.53
282.08	2516.95
282.29	2703.32
282.51	2338.78
282.73	2224.09
282.94	2250.72
283.16	2559.96
283.37	2541.53
283.59	2465.75
283.80	2494.43
284.02	2514.91
284.23	2443.23
284.45	2402.27
284.66	2252.77
284.88	2426.84
285.09	2398.17
285.31	2510.81
285.52	2525.15
285.74	2269.15
285.95	2592.73
286.17	2449.37
286.38	2607.06
286.60	2465.75
286.81	2430.94
287.03	2461.66
287.24	2459.61
287.46	2580.44
287.67	2473.95
287.89	2676.70
288.10	2504.67
288.32	2480.09
288.53	2551.77
288.75	2357.21
288.96	2547.67
289.18	2396.12
289.39	2385.88
289.61	2504.67
289.82	2715.61
290.04	2635.74
290.25	2295.77
290.47	2449.37
290.68	2396.12
290.90	2637.78
291.11	2301.92
291.33	2482.14
291.54	2430.94
291.76	2484.19
291.97	2478.04
292.18	2473.95
292.40	2422.75
292.61	2373.60
292.83	2670.55
293.04	2414.56
293.26	2523.10
293.47	2445.27
293.69	2351.07
293.90	2353.12
294.12	2592.73
294.33	2432.99
294.55	2467.80
294.76	2566.10
294.97	2709.46
295.19	2781.14
295.40	2410.46
295.62	2506.71
295.83	2539.48
296.05	2406.36
296.26	2562.01
296.48	2346.97
296.69	2498.52
296.90	2387.93
297.12	2611.16
297.33	2566.10
297.55	2514.91
297.76	2490.33
297.98	2488.28
298.19	2441.18
298.41	2469.85
298.62	2385.88
298.83	2504.67
299.05	2519.00
299.26	2461.66
299.48	2383.84
299.69	2463.71
299.90	2494.43
300.12	2392.03
300.33	2559.96
300.55	2482.14
300.76	2502.62
300.98	2342.88
301.19	2535.39
301.40	2490.33
301.62	2381.79
301.83	2553.82
302.05	2400.22
302.26	2402.27
302.47	2408.41
302.69	2289.63
302.90	2502.62
303.12	2168.80
303.33	2519.00
303.54	2697.17
303.76	2428.89
303.97	2422.75
304.19	2559.96
304.40	2475.99
304.61	2543.58
304.83	2584.54
305.04	2535.39
305.26	2539.48
305.47	2478.04
305.68	2408.41
305.90	2332.64
306.11	2623.45
306.33	2408.41
306.54	2291.68
306.75	2447.32
306.97	2363.36
307.18	2430.94
307.39	2394.08
307.61	2555.86
307.82	2490.33
308.04	2543.58
308.25	2389.98
308.46	2435.03
308.68	2545.63
308.89	2506.71
309.10	2555.86
309.32	2519.00
309.53	2459.61
309.74	2523.10
309.96	2334.68
310.17	2623.45
310.39	2383.84
310.60	2584.54
310.81	2486.23
311.03	2269.15
311.24	2516.95
311.45	2465.75
311.67	2613.21
311.88	2559.96
312.09	2418.65
312.31	2389.98
312.52	2355.16
312.73	2346.97
312.95	2371.55
313.16	2412.51
313.37	2580.44
313.59	2521.05
313.80	2553.82
314.01	2635.74
314.23	2471.90
314.44	2373.60
314.65	2363.36
314.87	2312.16
315.08	2367.45
315.29	2435.03
315.51	2301.92
315.72	2340.83
315.93	2582.49
316.15	2512.86
316.36	2389.98
316.57	2498.52
316.79	2471.90
317.00	2342.88
317.21	2582.49
317.43	2357.21
317.64	2451.42
317.85	2398.17
318.07	2394.08
318.28	2473.95
318.49	2555.86
318.70	2719.70
318.92	2631.64
319.13	2662.36
319.34	2629.59
319.56	2527.19
319.77	2582.49
319.98	2580.44
320.20	2676.70
320.41	2543.58
320.62	2555.86
320.83	2342.88
321.05	2645.98
321.26	2424.80
321.47	2543.58
321.69	2650.07
321.90	2332.64
322.11	2416.60
322.32	2514.91
322.54	2670.55
322.75	2437.08
322.96	2875.35
323.18	2265.05
323.39	2254.81
323.60	2383.84
323.81	2484.19
324.03	2457.56
324.24	2484.19
324.45	2469.85
324.66	2449.37
324.88	2699.22
325.09	2643.93
325.30	2463.71
325.52	2457.56
325.73	2559.96
325.94	2381.79
326.15	2308.06
326.37	2351.07
326.58	2588.63
326.79	2662.36
327.00	2326.49
327.22	2441.18
327.43	2428.89
327.64	2328.54
327.85	2551.77
328.07	2480.09
328.28	2695.13
328.49	2402.27
328.70	2457.56
328.92	2449.37
329.13	2473.95
329.34	2543.58
329.55	2572.25
329.76	2521.05
329.98	2490.33
330.19	2645.98
330.40	2488.28
330.61	2519.00
330.83	2576.34
331.04	2359.26
331.25	2422.75
331.46	2447.32
331.68	2365.40
331.89	2506.71
332.10	2408.41
332.31	2263.01
332.52	2381.79
332.74	2654.17
332.95	2258.91
333.16	2494.43
333.37	2570.20
333.58	2416.60
333.80	2387.93
334.01	2220.00
334.22	2543.58
334.43	2514.91
334.64	2428.89
334.86	2316.25
335.07	2416.60
335.28	2613.21
335.49	2269.15
335.70	2496.47
335.92	2650.07
336.13	2748.37
336.34	2502.62
336.55	2387.93
336.76	2506.71
336.98	2371.55
337.19	2498.52
337.40	2578.39
337.61	2770.90
337.82	2566.10
338.04	2586.58
338.25	2355.16
338.46	2383.84
338.67	2410.46
338.88	2361.31
339.09	2363.36
339.31	2506.71
339.52	2346.97
339.73	2301.92
339.94	2400.22
340.15	2621.40
340.36	2414.56
340.58	2396.12
340.79	2414.56
341.00	2551.77
341.21	2328.54
341.42	2645.98
341.63	2328.54
341.85	2562.01
342.06	2453.47
342.27	2353.12
342.48	2613.21
342.69	2293.72
342.90	2498.52
343.12	2566.10
343.33	2359.26
343.54	2605.02
343.75	2600.92
343.96	2463.71
344.17	2351.07
344.38	2455.51
344.60	2367.45
344.81	2367.45
345.02	2406.36
345.23	2627.54
345.44	2840.53
345.65	2398.17
345.86	2375.64
346.07	2492.38
346.29	2412.51
346.50	2637.78
346.71	2500.57
346.92	2613.21
347.13	2723.80
347.34	2389.98
347.55	2367.45
347.76	2543.58
347.98	2301.92
348.19	2344.92
348.40	2539.48
348.61	2406.36
348.82	2682.84
349.03	2478.04
349.24	2334.68
349.45	2682.84
349.66	2203.61
349.88	2404.32
350.09	2303.96
350.30	2662.36
350.51	2568.15
350.72	2457.56
350.93	2490.33
351.14	2504.67
351.35	2461.66
351.56	2398.17
351.77	2437.08
351.99	2516.95
352.20	2674.65
352.41	2478.04
352.62	2289.63
352.83	2463.71
353.04	2463.71
353.25	2381.79
353.46	2457.56
353.67	2594.78
353.88	2232.29
354.09	2502.62
354.30	2412.51
354.52	2600.92
354.73	2408.41
354.94	2385.88
355.15	2420.70
355.36	2691.03
355.57	2381.79
355.78	2408.41
355.99	2340.83
356.20	2430.94
356.41	2676.70
356.62	2488.28
356.83	2463.71
357.04	2631.64
357.25	2301.92
357.46	2371.55
357.68	2248.67
357.89	2389.98
358.10	2506.71
358.31	2453.47
358.52	2439.13
358.73	2344.92
358.94	2357.21
359.15	2359.26
359.36	2488.28
359.57	2551.77
359.78	2416.60
359.99	2580.44
360.20	2404.32
360.41	2508.76
360.62	2572.25
360.83	2414.56
361.04	2519.00
361.25	2508.76
361.46	2656.22
361.67	2521.05
361.88	2490.33
362.09	2600.92
362.30	2529.24
362.51	2326.49
362.72	2400.22
362.93	2605.02
363.14	2584.54
363.35	2461.66
363.56	2346.97
363.78	2637.78
363.99	2568.15
364.20	2344.92
364.41	2461.66
364.62	2719.70
364.83	2514.91
365.04	2418.65
365.25	2428.89
365.46	2744.28
365.67	2324.44
365.88	2482.14
366.09	2400.22
366.30	2418.65
366.51	2543.58
366.72	2301.92
366.93	2449.37
367.14	2523.10
367.35	2643.93
367.56	2383.84
367.77	2531.29
367.98	2406.36
368.18	2502.62
368.39	2457.56
368.60	2379.74
368.81	2592.73
369.02	2572.25
369.23	2441.18
369.44	2312.16
369.65	2461.66
369.86	2463.71
370.07	2525.15
370.28	2334.68
370.49	2539.48
370.70	2500.57
370.91	2295.77
371.12	2256.86
371.33	2645.98
371.54	2449.37
371.75	2578.39
371.96	2201.57
372.17	2586.58
372.38	2482.14
372.59	2482.14
372.80	2416.60
373.01	2473.95
373.22	2570.20
373.43	2406.36
373.64	2336.73
373.85	2629.59
374.06	2713.56
374.26	2543.58
374.47	2441.18
374.68	2750.42
374.89	2506.71
375.10	2467.80
375.31	2469.85
375.52	2400.22
375.73	2510.81
375.94	2371.55
376.15	2607.06
376.36	2365.40
376.57	2426.84
376.78	2422.75
376.99	2408.41
377.20	2652.12
377.40	2361.31
377.61	2588.63
377.82	2394.08
378.03	2654.17
378.24	2566.10
378.45	2437.08
378.66	2504.67
378.87	2236.38
379.08	2349.02
379.29	2473.95
379.50	2549.72
379.71	2402.27
379.91	2623.45
380.12	2461.66
380.33	2432.99
380.54	2531.29
380.75	2435.03
380.96	2400.22
381.17	2490.33
381.38	2494.43
381.59	2559.96
381.80	2504.67
382.00	2670.55
382.21	2609.11
382.42	2623.45
382.63	2756.57
382.84	2488.28
383.05	2695.13
383.26	2697.17
383.47	2508.76
383.68	2475.99
383.88	2535.39
384.09	2486.23
384.30	2637.78
384.51	2463.71
384.72	2430.94
384.93	2353.12
385.14	2494.43
385.35	2562.01
385.55	2396.12
385.76	2664.41
385.97	2383.84
386.18	2279.39
386.39	2437.08
386.60	2428.89
386.81	2430.94
387.02	2355.16
387.22	2371.55
387.43	2629.59
387.64	2570.20
387.85	2658.26
388.06	2695.13
388.27	4069.31
388.48	8404.86
388.68	12091.21
388.89	14716.70
389.10	15961.87
389.31	14958.36
389.52	11800.40
389.73	10182.50
389.93	9201.52
390.14	8400.77
390.35	7454.61
390.56	6764.44
390.77	5574.57
390.98	4048.83
391.18	3502.03
391.39	2973.65
391.60	2666.46
391.81	2594.78
392.02	2367.45
392.23	2734.04
392.43	2531.29
392.64	2559.96
392.85	2449.37
393.06	2643.93
393.27	2508.76
393.47	2408.41
393.68	2498.52
393.89	2496.47
394.10	2625.50
394.31	2396.12
394.52	2402.27
394.72	2437.08
394.93	2725.85
395.14	2383.84
395.35	2523.10
395.56	2461.66
395.76	2435.03
395.97	2439.13
396.18	2559.96
396.39	2602.97
396.60	2975.70
396.80	2770.90
397.01	2656.22
397.22	2580.44
397.43	2691.03
397.64	2453.47
397.84	2586.58
398.05	2813.91
398.26	2562.01
398.47	2592.73
398.67	2611.16
398.88	2562.01
399.09	2617.30
399.30	2469.85
399.51	2473.95
399.71	2383.84
399.92	2422.75
400.13	2473.95
400.34	2416.60
400.54	2484.19
400.75	2682.84
400.96	2531.29
401.17	2701.27
401.37	2492.38
401.58	2555.86
401.79	2533.34
402.00	2568.15
402.21	2996.18
402.41	2750.42
402.62	2797.53
402.83	2777.05
403.04	2985.94
403.24	3125.20
403.45	2559.96
403.66	2775.00
403.87	2684.89
404.07	2777.05
404.28	2705.37
404.49	2779.09
404.70	2598.87
404.90	2639.83
405.11	2502.62
405.32	2545.63
405.52	2359.26
405.73	2365.40
405.94	2365.40
406.15	2473.95
406.35	2670.55
406.56	2641.88
406.77	2455.51
406.98	2510.81
407.18	2408.41
407.39	2619.35
407.60	2398.17
407.80	2506.71
408.01	2402.27
408.22	2555.86
408.43	2351.07
408.63	2457.56
408.84	2555.86
409.05	2631.64
409.25	2359.26
409.46	2326.49
409.67	2500.57
409.88	2281.44
410.08	2441.18
410.29	2398.17
410.50	2521.05
410.70	2553.82
410.91	2404.32
411.12	2543.58
411.32	2465.75
411.53	2404.32
411.74	2555.86
411.95	2686.94
412.15	2586.58
412.36	2668.50
412.57	2559.96
412.77	2666.46
412.98	2469.85
413.19	2424.80
413.39	2435.03
413.60	2535.39
413.81	2670.55
414.01	2357.21
414.22	2471.90
414.43	2473.95
414.63	2480.09
414.84	2711.51
415.05	2531.29
415.25	2334.68
415.46	2602.97
415.67	2398.17
415.87	2461.66
416.08	2457.56
416.29	2412.51
416.49	2488.28
416.70	2400.22
416.91	2457.56
417.11	2498.52
417.32	2607.06
417.53	2523.10
417.73	2447.32
417.94	2473.95
418.15	2592.73
418.35	2461.66
418.56	2545.63
418.77	2758.61
418.97	2535.39
419.18	2449.37
419.38	2220.00
419.59	2500.57
419.80	2705.37
420.00	2359.26
420.21	2498.52
420.42	2684.89
420.62	2590.68
420.83	2437.08
421.04	2539.48
421.24	2414.56
421.45	2551.77
421.65	2539.48
421.86	2420.70
422.07	2572.25
422.27	2504.67
422.48	2396.12
422.69	2351.07
422.89	2506.71
423.10	2473.95
423.30	2342.88
423.51	2478.04
423.72	2516.95
423.92	2580.44
424.13	2357.21
424.33	2533.34
424.54	2607.06
424.75	2549.72
424.95	2672.60
425.16	2480.09
425.36	2406.36
425.57	2658.26
425.78	2430.94
425.98	2516.95
426.19	2486.23
426.39	2359.26
426.60	2527.19
426.81	2607.06
427.01	2535.39
427.22	2338.78
427.42	2297.82
427.63	2375.64
427.83	2645.98
428.04	2629.59
428.25	2572.25
428.45	2461.66
428.66	2617.30
428.86	2502.62
429.07	2428.89
429.28	2490.33
429.48	2467.80
429.69	2451.42
429.89	2406.36
430.10	2344.92
430.30	2654.17
430.51	2584.54
430.71	2392.03
430.92	2449.37
431.13	2441.18
431.33	2547.67
431.54	2506.71
431.74	2570.20
431.95	2731.99
432.15	2420.70
432.36	2424.80
432.56	2512.86
432.77	2744.28
432.98	2607.06
433.18	2506.71
433.39	2363.36
433.59	2424.80
433.80	2801.62
434.00	2652.12
434.21	2506.71
434.41	2424.80
434.62	2744.28
434.82	2396.12
435.03	2314.20
435.23	2570.20
435.44	2287.58
435.64	2422.75
435.85	2453.47
436.06	2533.34
436.26	2641.88
436.47	2465.75
436.67	2457.56
436.88	2523.10
437.08	2678.74
437.29	2635.74
437.49	2564.06
437.70	2562.01
437.90	2461.66
438.11	2643.93
438.31	2555.86
438.52	2695.13
438.72	2785.24
438.93	2711.51
439.13	2635.74
439.34	2623.45
439.54	2439.13
439.75	2549.72
439.95	2547.67
440.16	2461.66
440.36	2570.20
440.57	2519.00
440.77	2539.48
440.98	2545.63
441.18	2551.77
441.39	2439.13
441.59	2437.08
441.80	2832.34
442.00	2516.95
442.21	2582.49
442.41	2271.20
442.62	2582.49
442.82	2387.93
443.02	2416.60
443.23	2473.95
443.43	2486.23
443.64	2719.70
443.84	2340.83
444.05	2633.69
444.25	2547.67
444.46	2496.47
444.66	2535.39
444.87	2559.96
445.07	2299.87
445.28	2510.81
445.48	2596.82
445.69	2478.04
445.89	2797.53
446.09	2459.61
446.30	2793.43
446.50	2981.84
446.71	4644.79
446.91	5832.62
447.12	6635.42
447.32	7038.87
447.53	6676.38
447.73	5431.21
447.93	4816.82
448.14	4571.07
448.34	4423.61
448.55	3878.85
448.75	3719.11
448.96	3579.85
449.16	3323.85
449.36	3094.48
449.57	2686.94
449.77	2559.96
449.98	2480.09
450.18	2641.88
450.39	2465.75
450.59	2574.30
450.79	2498.52
451.00	2443.23
451.20	2512.86
451.41	2516.95
451.61	2514.91
451.81	2482.14
452.02	2420.70
452.22	2408.41
452.43	2500.57
