SpectraSuite Data File
++++++++++++++++++++++++++++++++++++
Date: Thu May 05 14:41:57 CEST 2016
User: root
Dark Spectrum Present: No
Reference Spectrum Present: No
Number of Sampled Component Spectra: 1
Spectrometers: USB4C02835
Integration Time (usec): 100000 (USB4C02835)
Spectra Averaged: 1 (USB4C02835)
Boxcar Smoothing: 0 (USB4C02835)
Correct for Electrical Dark: No (USB4C02835)
Strobe/Lamp Enabled: No (USB4C02835)
Correct for Detector Non-linearity: No (USB4C02835)
Correct for Stray Light: No (USB4C02835)
Number of Pixels in Processed Spectrum: 3648
>>>>>Begin Processed Spectral Data<<<<<
177.47	1867.75
177.69	1867.75
177.91	1867.75
178.13	1875.94
178.36	1943.52
178.58	2369.50
178.80	2584.54
179.02	2277.34
179.24	2344.92
179.46	2359.26
179.68	2363.36
179.90	2392.03
180.13	2437.08
180.35	2230.24
180.57	2279.39
180.79	2586.58
181.01	2441.18
181.23	2373.60
181.45	2449.37
181.67	2478.04
181.90	2609.11
182.12	2355.16
182.34	2217.95
182.56	2498.52
182.78	2580.44
183.00	2396.12
183.22	2426.84
183.44	2215.90
183.66	2832.34
183.89	2484.19
184.11	2400.22
184.33	2619.35
184.55	2662.36
184.77	2277.34
184.99	2400.22
185.21	2445.27
185.43	2729.94
185.65	2332.64
185.87	2318.30
186.10	2799.57
186.32	2766.81
186.54	2430.94
186.76	2519.00
186.98	2613.21
187.20	2441.18
187.42	2342.88
187.64	2297.82
187.86	2506.71
188.08	2598.87
188.30	2260.96
188.52	2404.32
188.75	2699.22
188.97	2709.46
189.19	2320.35
189.41	2355.16
189.63	2543.58
189.85	2406.36
190.07	2326.49
190.29	2252.77
190.51	2482.14
190.73	2320.35
190.95	2488.28
191.17	2387.93
191.39	2287.58
191.61	2506.71
191.84	2267.10
192.06	2439.13
192.28	2275.29
192.50	2858.96
192.72	2424.80
192.94	2461.66
193.16	2588.63
193.38	2537.43
193.60	2217.95
193.82	2408.41
194.04	2588.63
194.26	2529.24
194.48	2326.49
194.70	2340.83
194.92	2443.23
195.14	2539.48
195.36	2269.15
195.58	2381.79
195.80	2408.41
196.02	2359.26
196.24	2265.05
196.46	2418.65
196.69	2326.49
196.91	2783.19
197.13	2240.48
197.35	2326.49
197.57	2643.93
197.79	2514.91
198.01	2406.36
198.23	2363.36
198.45	2539.48
198.67	2359.26
198.89	2236.38
199.11	2367.45
199.33	2422.75
199.55	2199.52
199.77	2279.39
199.99	2521.05
200.21	2478.04
200.43	2578.39
200.65	2217.95
200.87	2213.85
201.09	2480.09
201.31	2488.28
201.53	2416.60
201.75	2351.07
201.97	2562.01
202.19	2488.28
202.41	2408.41
202.63	2609.11
202.85	2447.32
203.07	2547.67
203.29	2375.64
203.51	2310.11
203.73	2359.26
203.95	2820.05
204.17	2312.16
204.39	2465.75
204.61	2486.23
204.83	2488.28
205.05	2490.33
205.27	2398.17
205.49	2750.42
205.71	2527.19
205.93	2207.71
206.15	2336.73
206.37	2467.80
206.59	2457.56
206.81	2306.01
207.03	2267.10
207.25	2349.02
207.47	2478.04
207.69	2334.68
207.91	2502.62
208.13	2705.37
208.34	2422.75
208.56	2310.11
208.78	2346.97
209.00	2445.27
209.22	2379.74
209.44	2342.88
209.66	2260.96
209.88	2545.63
210.10	2412.51
210.32	2375.64
210.54	2527.19
210.76	2424.80
210.98	2619.35
211.20	2162.66
211.42	2451.42
211.64	2670.55
211.86	2545.63
212.08	2424.80
212.30	2404.32
212.52	2449.37
212.74	2568.15
212.96	2400.22
213.17	2367.45
213.39	2633.69
213.61	2645.98
213.83	2402.27
214.05	2389.98
214.27	2602.97
214.49	2400.22
214.71	2267.10
214.93	2465.75
215.15	2422.75
215.37	2615.26
215.59	2263.01
215.81	2449.37
216.03	2637.78
216.24	2480.09
216.46	2473.95
216.68	2383.84
216.90	2588.63
217.12	2578.39
217.34	2299.87
217.56	2424.80
217.78	2596.82
218.00	2545.63
218.22	2437.08
218.44	2492.38
218.66	2473.95
218.87	2701.27
219.09	2334.68
219.31	2359.26
219.53	2486.23
219.75	2424.80
219.97	2463.71
220.19	2392.03
220.41	2539.48
220.63	2635.74
220.85	2416.60
221.06	2394.08
221.28	2676.70
221.50	2598.87
221.72	2324.44
221.94	2277.34
222.16	2422.75
222.38	2625.50
222.60	2359.26
222.82	2334.68
223.03	2613.21
223.25	2318.30
223.47	2289.63
223.69	2492.38
223.91	2529.24
224.13	2506.71
224.35	2312.16
224.57	2473.95
224.78	2504.67
225.00	2367.45
225.22	2451.42
225.44	2297.82
225.66	2576.34
225.88	2490.33
226.10	2490.33
226.32	2400.22
226.53	2629.59
226.75	2412.51
226.97	2285.53
227.19	2346.97
227.41	2385.88
227.63	2420.70
227.85	2267.10
228.06	2365.40
228.28	2535.39
228.50	2594.78
228.72	2228.19
228.94	2308.06
229.16	2324.44
229.37	2383.84
229.59	2240.48
229.81	2414.56
230.03	2396.12
230.25	2260.96
230.47	2226.14
230.69	2285.53
230.90	2572.25
231.12	2373.60
231.34	2426.84
231.56	2432.99
231.78	2324.44
232.00	2490.33
232.21	2400.22
232.43	2338.78
232.65	2289.63
232.87	2562.01
233.09	2295.77
233.30	2363.36
233.52	2584.54
233.74	2316.25
233.96	2334.68
234.18	2375.64
234.40	2574.30
234.61	2731.99
234.83	2332.64
235.05	2275.29
235.27	2783.19
235.49	2650.07
235.70	2297.82
235.92	2406.36
236.14	2539.48
236.36	2842.58
236.58	2252.77
236.79	2349.02
237.01	2494.43
237.23	2422.75
237.45	2629.59
237.67	2367.45
237.88	2519.00
238.10	2750.42
238.32	2297.82
238.54	2291.68
238.76	2437.08
238.97	2349.02
239.19	2299.87
239.41	2412.51
239.63	2596.82
239.85	2449.37
240.06	2455.51
240.28	2283.49
240.50	2660.31
240.72	2473.95
240.93	2314.20
241.15	2379.74
241.37	2486.23
241.59	2635.74
241.81	2308.06
242.02	2299.87
242.24	2611.16
242.46	2514.91
242.68	2187.23
242.89	2410.46
243.11	2609.11
243.33	2428.89
243.55	2381.79
243.76	2406.36
243.98	2336.73
244.20	2516.95
244.42	2449.37
244.64	2428.89
244.85	2406.36
245.07	2338.78
245.29	2392.03
245.51	2349.02
245.72	2482.14
245.94	2625.50
246.16	2389.98
246.38	2422.75
246.59	2385.88
246.81	2430.94
247.03	2240.48
247.24	2287.58
247.46	2363.36
247.68	2478.04
247.90	2301.92
248.11	2263.01
248.33	2580.44
248.55	2465.75
248.77	2365.40
248.98	2480.09
249.20	2717.65
249.42	2488.28
249.64	2310.11
249.85	2322.40
250.07	2473.95
250.29	2613.21
250.50	2381.79
250.72	2166.75
250.94	2527.19
251.16	2695.13
251.37	2301.92
251.59	2500.57
251.81	2605.02
252.02	2744.28
252.24	2283.49
252.46	2486.23
252.68	2400.22
252.89	2285.53
253.11	2236.38
253.33	2469.85
253.54	2619.35
253.76	2351.07
253.98	2389.98
254.20	2287.58
254.41	2295.77
254.63	2482.14
254.85	2242.53
255.06	2318.30
255.28	2498.52
255.50	2373.60
255.71	2303.96
255.93	2303.96
256.15	2383.84
256.36	2514.91
256.58	2334.68
256.80	2357.21
257.02	2449.37
257.23	2471.90
257.45	2396.12
257.67	2428.89
257.88	2422.75
258.10	2478.04
258.32	2385.88
258.53	2402.27
258.75	2668.50
258.97	2422.75
259.18	2277.34
259.40	2361.31
259.62	2719.70
259.83	2635.74
260.05	2398.17
260.27	2961.36
260.48	2611.16
260.70	2346.97
260.92	2310.11
261.13	2387.93
261.35	2512.86
261.57	2557.91
261.78	2267.10
262.00	2291.68
262.22	2562.01
262.43	2385.88
262.65	2285.53
262.86	2357.21
263.08	2873.30
263.30	2492.38
263.51	2185.18
263.73	2297.82
263.95	2709.46
264.16	2349.02
264.38	2355.16
264.60	2363.36
264.81	2453.47
265.03	2686.94
265.25	2502.62
265.46	2215.90
265.68	2666.46
265.89	2592.73
266.11	2260.96
266.33	2410.46
266.54	2574.30
266.76	2613.21
266.98	2408.41
267.19	2502.62
267.41	2664.41
267.62	2406.36
267.84	2258.91
268.06	2424.80
268.27	2527.19
268.49	2672.60
268.70	2430.94
268.92	2373.60
269.14	2424.80
269.35	2326.49
269.57	2375.64
269.79	2414.56
270.00	2453.47
270.22	2680.79
270.43	2277.34
270.65	2148.32
270.87	2553.82
271.08	2500.57
271.30	2383.84
271.51	2383.84
271.73	2611.16
271.95	2682.84
272.16	2277.34
272.38	2406.36
272.59	2414.56
272.81	2494.43
273.02	2346.97
273.24	2441.18
273.46	2609.11
273.67	2324.44
273.89	2246.62
274.10	2328.54
274.32	2547.67
274.54	2486.23
274.75	2392.03
274.97	2396.12
275.18	2514.91
275.40	2609.11
275.61	2396.12
275.83	2410.46
276.05	2394.08
276.26	2469.85
276.48	2441.18
276.69	2398.17
276.91	2344.92
277.12	2699.22
277.34	2512.86
277.55	2533.34
277.77	2480.09
277.99	2480.09
278.20	2371.55
278.42	2269.15
278.63	2443.23
278.85	2410.46
279.06	2324.44
279.28	2467.80
279.49	2584.54
279.71	2588.63
279.93	2471.90
280.14	2412.51
280.36	2379.74
280.57	2576.34
280.79	2480.09
281.00	2318.30
281.22	2396.12
281.43	2510.81
281.65	2269.15
281.86	2328.54
282.08	2570.20
282.29	2750.42
282.51	2363.36
282.73	2293.72
282.94	2293.72
283.16	2590.68
283.37	2574.30
283.59	2334.68
283.80	2553.82
284.02	2455.51
284.23	2453.47
284.45	2445.27
284.66	2379.74
284.88	2369.50
285.09	2457.56
285.31	2463.71
285.52	2492.38
285.74	2293.72
285.95	2523.10
286.17	2457.56
286.38	2637.78
286.60	2451.42
286.81	2387.93
287.03	2439.13
287.24	2445.27
287.46	2551.77
287.67	2469.85
287.89	2592.73
288.10	2494.43
288.32	2512.86
288.53	2535.39
288.75	2408.41
288.96	2531.29
289.18	2406.36
289.39	2330.59
289.61	2459.61
289.82	2801.62
290.04	2662.36
290.25	2324.44
290.47	2445.27
290.68	2383.84
290.90	2559.96
291.11	2291.68
291.33	2504.67
291.54	2506.71
291.76	2389.98
291.97	2488.28
292.18	2512.86
292.40	2357.21
292.61	2469.85
292.83	2625.50
293.04	2506.71
293.26	2498.52
293.47	2355.16
293.69	2400.22
293.90	2365.40
294.12	2652.12
294.33	2457.56
294.55	2351.07
294.76	2521.05
294.97	2631.64
295.19	2789.33
295.40	2373.60
295.62	2564.06
295.83	2588.63
296.05	2478.04
296.26	2600.92
296.48	2420.70
296.69	2473.95
296.90	2428.89
297.12	2441.18
297.33	2559.96
297.55	2439.13
297.76	2502.62
297.98	2475.99
298.19	2486.23
298.41	2557.91
298.62	2330.59
298.83	2531.29
299.05	2443.23
299.26	2406.36
299.48	2328.54
299.69	2516.95
299.90	2465.75
300.12	2363.36
300.33	2566.10
300.55	2435.03
300.76	2473.95
300.98	2314.20
301.19	2531.29
301.40	2482.14
301.62	2381.79
301.83	2594.78
302.05	2445.27
302.26	2410.46
302.47	2420.70
302.69	2289.63
302.90	2469.85
303.12	2203.61
303.33	2473.95
303.54	2678.74
303.76	2469.85
303.97	2449.37
304.19	2547.67
304.40	2414.56
304.61	2588.63
304.83	2549.72
305.04	2549.72
305.26	2611.16
305.47	2498.52
305.68	2392.03
305.90	2301.92
306.11	2553.82
306.33	2435.03
306.54	2316.25
306.75	2396.12
306.97	2269.15
307.18	2381.79
307.39	2441.18
307.61	2539.48
307.82	2465.75
308.04	2519.00
308.25	2281.44
308.46	2449.37
308.68	2463.71
308.89	2441.18
309.10	2572.25
309.32	2435.03
309.53	2400.22
309.74	2631.64
309.96	2437.08
310.17	2527.19
310.39	2340.83
310.60	2580.44
310.81	2453.47
311.03	2299.87
311.24	2568.15
311.45	2445.27
311.67	2590.68
311.88	2519.00
312.09	2420.70
312.31	2424.80
312.52	2383.84
312.73	2447.32
312.95	2326.49
313.16	2361.31
313.37	2574.30
313.59	2582.49
313.80	2547.67
314.01	2684.89
314.23	2445.27
314.44	2365.40
314.65	2273.25
314.87	2349.02
315.08	2365.40
315.29	2359.26
315.51	2285.53
315.72	2332.64
315.93	2562.01
316.15	2553.82
316.36	2445.27
316.57	2404.32
316.79	2432.99
317.00	2367.45
317.21	2545.63
317.43	2420.70
317.64	2478.04
317.85	2392.03
318.07	2389.98
318.28	2418.65
318.49	2545.63
318.70	2668.50
318.92	2691.03
319.13	2621.40
319.34	2592.73
319.56	2424.80
319.77	2670.55
319.98	2633.69
320.20	2586.58
320.41	2553.82
320.62	2605.02
320.83	2340.83
321.05	2578.39
321.26	2426.84
321.47	2447.32
321.69	2619.35
321.90	2316.25
322.11	2344.92
322.32	2492.38
322.54	2623.45
322.75	2367.45
322.96	2908.12
323.18	2303.96
323.39	2244.57
323.60	2381.79
323.81	2566.10
324.03	2424.80
324.24	2406.36
324.45	2469.85
324.66	2375.64
324.88	2662.36
325.09	2656.22
325.30	2422.75
325.52	2369.50
325.73	2572.25
325.94	2383.84
326.15	2281.44
326.37	2334.68
326.58	2553.82
326.79	2660.31
327.00	2349.02
327.22	2383.84
327.43	2445.27
327.64	2318.30
327.85	2492.38
328.07	2455.51
328.28	2822.10
328.49	2428.89
328.70	2478.04
328.92	2406.36
329.13	2404.32
329.34	2504.67
329.55	2605.02
329.76	2508.76
329.98	2486.23
330.19	2705.37
330.40	2469.85
330.61	2486.23
330.83	2519.00
331.04	2424.80
331.25	2432.99
331.46	2336.73
331.68	2367.45
331.89	2465.75
332.10	2398.17
332.31	2303.96
332.52	2486.23
332.74	2652.12
332.95	2254.81
333.16	2451.42
333.37	2621.40
333.58	2408.41
333.80	2463.71
334.01	2312.16
334.22	2387.93
334.43	2349.02
334.64	2314.20
334.86	2293.72
335.07	2392.03
335.28	2654.17
335.49	2232.29
335.70	2432.99
335.92	2682.84
336.13	2715.61
336.34	2480.09
336.55	2529.24
336.76	2539.48
336.98	2301.92
337.19	2373.60
337.40	2592.73
337.61	2799.57
337.82	2457.56
338.04	2490.33
338.25	2228.19
338.46	2455.51
338.67	2469.85
338.88	2359.26
339.09	2371.55
339.31	2414.56
339.52	2387.93
339.73	2381.79
339.94	2406.36
340.15	2557.91
340.36	2428.89
340.58	2535.39
340.79	2383.84
341.00	2475.99
341.21	2322.40
341.42	2549.72
341.63	2422.75
341.85	2586.58
342.06	2527.19
342.27	2396.12
342.48	2539.48
342.69	2291.68
342.90	2510.81
343.12	2596.82
343.33	2361.31
343.54	2605.02
343.75	2648.02
343.96	2424.80
344.17	2340.83
344.38	2498.52
344.60	2396.12
344.81	2324.44
345.02	2373.60
345.23	2654.17
345.44	2815.96
345.65	2480.09
345.86	2428.89
346.07	2559.96
346.29	2430.94
346.50	2527.19
346.71	2496.47
346.92	2580.44
347.13	2717.65
347.34	2455.51
347.55	2349.02
347.76	2541.53
347.98	2334.68
348.19	2406.36
348.40	2535.39
348.61	2465.75
348.82	2660.31
349.03	2570.20
349.24	2346.97
349.45	2725.85
349.66	2318.30
349.88	2375.64
350.09	2326.49
350.30	2631.64
350.51	2559.96
350.72	2537.43
350.93	2514.91
351.14	2418.65
351.35	2523.10
351.56	2439.13
351.77	2416.60
351.99	2586.58
352.20	2662.36
352.41	2562.01
352.62	2240.48
352.83	2457.56
353.04	2504.67
353.25	2316.25
353.46	2508.76
353.67	2639.83
353.88	2215.90
354.09	2406.36
354.30	2428.89
354.52	2537.43
354.73	2490.33
354.94	2394.08
355.15	2451.42
355.36	2645.98
355.57	2439.13
355.78	2420.70
355.99	2394.08
356.20	2471.90
356.41	2613.21
356.62	2445.27
356.83	2406.36
357.04	2711.51
357.25	2275.29
357.46	2402.27
357.68	2324.44
357.89	2389.98
358.10	2447.32
358.31	2443.23
358.52	2392.03
358.73	2285.53
358.94	2387.93
359.15	2424.80
359.36	2453.47
359.57	2486.23
359.78	2506.71
359.99	2494.43
360.20	2322.40
360.41	2473.95
360.62	2605.02
360.83	2523.10
361.04	2400.22
361.25	2508.76
361.46	2619.35
361.67	2473.95
361.88	2437.08
362.09	2650.07
362.30	2619.35
362.51	2340.83
362.72	2371.55
362.93	2580.44
363.14	2557.91
363.35	2478.04
363.56	2306.01
363.78	2619.35
363.99	2592.73
364.20	2357.21
364.41	2469.85
364.62	2676.70
364.83	2617.30
365.04	2410.46
365.25	2402.27
365.46	2787.29
365.67	2473.95
365.88	2424.80
366.09	2367.45
366.30	2416.60
366.51	2457.56
366.72	2351.07
366.93	2428.89
367.14	2592.73
367.35	2682.84
367.56	2389.98
367.77	2510.81
367.98	2465.75
368.18	2564.06
368.39	2498.52
368.60	2355.16
368.81	2498.52
369.02	2553.82
369.23	2494.43
369.44	2351.07
369.65	2461.66
369.86	2539.48
370.07	2519.00
370.28	2334.68
370.49	2506.71
370.70	2508.76
370.91	2357.21
371.12	2238.43
371.33	2633.69
371.54	2428.89
371.75	2586.58
371.96	2244.57
372.17	2529.24
372.38	2408.41
372.59	2453.47
372.80	2373.60
373.01	2418.65
373.22	2502.62
373.43	2465.75
373.64	2324.44
373.85	2674.65
374.06	2641.88
374.26	2494.43
374.47	2432.99
374.68	2701.27
374.89	2549.72
375.10	2392.03
375.31	2564.06
375.52	2549.72
375.73	2535.39
375.94	2332.64
376.15	2619.35
376.36	2457.56
376.57	2432.99
376.78	2365.40
376.99	2451.42
377.20	2701.27
377.40	2408.41
377.61	2619.35
377.82	2355.16
378.03	2662.36
378.24	2523.10
378.45	2426.84
378.66	2488.28
378.87	2359.26
379.08	2330.59
379.29	2367.45
379.50	2605.02
379.71	2475.99
379.91	2496.47
380.12	2441.18
380.33	2486.23
380.54	2457.56
380.75	2424.80
380.96	2363.36
381.17	2439.13
381.38	2455.51
381.59	2496.47
381.80	2570.20
382.00	2605.02
382.21	2572.25
382.42	2766.81
382.63	2725.85
382.84	2572.25
383.05	2668.50
383.26	2721.75
383.47	2514.91
383.68	2484.19
383.88	2611.16
384.09	2478.04
384.30	2637.78
384.51	2504.67
384.72	2473.95
384.93	2279.39
385.14	2521.05
385.35	2508.76
385.55	2287.58
385.76	2727.89
385.97	2469.85
386.18	2322.40
386.39	2371.55
386.60	2475.99
386.81	2416.60
387.02	2330.59
387.22	2236.38
387.43	2588.63
387.64	2490.33
387.85	2627.54
388.06	2715.61
388.27	4018.11
388.48	8234.88
388.68	12154.69
388.89	14618.40
389.10	15841.04
389.31	14774.05
389.52	11517.78
389.73	9969.51
389.93	9191.28
390.14	8365.95
390.35	7339.92
390.56	6645.66
390.77	5543.85
390.98	4136.90
391.18	3454.92
391.39	3055.57
391.60	2570.20
391.81	2594.78
392.02	2416.60
392.23	2838.48
392.43	2521.05
392.64	2605.02
392.85	2480.09
393.06	2652.12
393.27	2486.23
393.47	2408.41
393.68	2408.41
393.89	2457.56
394.10	2621.40
394.31	2441.18
394.52	2449.37
394.72	2355.16
394.93	2615.26
395.14	2324.44
395.35	2486.23
395.56	2392.03
395.76	2404.32
395.97	2510.81
396.18	2637.78
396.39	2592.73
396.60	2969.55
396.80	2758.61
397.01	2576.34
397.22	2723.80
397.43	2660.31
397.64	2451.42
397.84	2555.86
398.05	2744.28
398.26	2504.67
398.47	2545.63
398.67	2584.54
398.88	2482.14
399.09	2576.34
399.30	2385.88
399.51	2527.19
399.71	2420.70
399.92	2514.91
400.13	2488.28
400.34	2422.75
400.54	2473.95
400.75	2686.94
400.96	2367.45
401.17	2658.26
401.37	2521.05
401.58	2488.28
401.79	2437.08
402.00	2584.54
402.21	2967.51
402.41	2725.85
402.62	2740.18
402.83	2916.31
403.04	2973.65
403.24	3104.72
403.45	2605.02
403.66	2756.57
403.87	2703.32
404.07	2854.87
404.28	2717.65
404.49	2707.41
404.70	2695.13
404.90	2639.83
405.11	2506.71
405.32	2543.58
405.52	2400.22
405.73	2359.26
405.94	2328.54
406.15	2416.60
406.35	2580.44
406.56	2582.49
406.77	2482.14
406.98	2535.39
407.18	2430.94
407.39	2693.08
407.60	2502.62
407.80	2535.39
408.01	2447.32
408.22	2457.56
408.43	2396.12
408.63	2496.47
408.84	2553.82
409.05	2629.59
409.25	2342.88
409.46	2314.20
409.67	2449.37
409.88	2416.60
410.08	2480.09
410.29	2490.33
410.50	2519.00
410.70	2596.82
410.91	2332.64
411.12	2527.19
411.32	2504.67
411.53	2451.42
411.74	2504.67
411.95	2551.77
412.15	2531.29
412.36	2625.50
412.57	2529.24
412.77	2600.92
412.98	2465.75
413.19	2381.79
413.39	2514.91
413.60	2535.39
413.81	2654.17
414.01	2539.48
414.22	2539.48
414.43	2500.57
414.63	2496.47
414.84	2580.44
415.05	2410.46
415.25	2375.64
415.46	2500.57
415.67	2484.19
415.87	2545.63
416.08	2453.47
416.29	2506.71
416.49	2512.86
416.70	2445.27
416.91	2340.83
417.11	2562.01
417.32	2637.78
417.53	2500.57
417.73	2467.80
417.94	2437.08
418.15	2502.62
418.35	2527.19
418.56	2471.90
418.77	2740.18
418.97	2492.38
419.18	2455.51
419.38	2232.29
419.59	2455.51
419.80	2674.65
420.00	2412.51
420.21	2439.13
420.42	2621.40
420.62	2486.23
420.83	2398.17
421.04	2461.66
421.24	2490.33
421.45	2551.77
421.65	2494.43
421.86	2394.08
422.07	2598.87
422.27	2447.32
422.48	2441.18
422.69	2344.92
422.89	2420.70
423.10	2463.71
423.30	2342.88
423.51	2535.39
423.72	2527.19
423.92	2564.06
424.13	2334.68
424.33	2529.24
424.54	2586.58
424.75	2461.66
424.95	2637.78
425.16	2432.99
425.36	2396.12
425.57	2562.01
425.78	2576.34
425.98	2498.52
426.19	2416.60
426.39	2398.17
426.60	2437.08
426.81	2572.25
427.01	2523.10
427.22	2301.92
427.42	2228.19
427.63	2365.40
427.83	2625.50
428.04	2652.12
428.25	2539.48
428.45	2572.25
428.66	2578.39
428.86	2510.81
429.07	2480.09
429.28	2510.81
429.48	2459.61
429.69	2396.12
429.89	2502.62
430.10	2271.20
430.30	2596.82
430.51	2621.40
430.71	2381.79
430.92	2435.03
431.13	2512.86
431.33	2547.67
431.54	2451.42
431.74	2627.54
431.95	2832.34
432.15	2295.77
432.36	2389.98
432.56	2502.62
432.77	2789.33
432.98	2777.05
433.18	2430.94
433.39	2398.17
433.59	2449.37
433.80	2707.41
434.00	2658.26
434.21	2387.93
434.41	2416.60
434.62	2809.81
434.82	2324.44
435.03	2291.68
435.23	2551.77
435.44	2373.60
435.64	2496.47
435.85	2471.90
436.06	2572.25
436.26	2637.78
436.47	2367.45
436.67	2396.12
436.88	2471.90
437.08	2568.15
437.29	2535.39
437.49	2457.56
437.70	2674.65
437.90	2496.47
438.11	2658.26
438.31	2562.01
438.52	2688.98
438.72	2742.23
438.93	2815.96
439.13	2578.39
439.34	2654.17
439.54	2527.19
439.75	2598.87
439.95	2488.28
440.16	2375.64
440.36	2482.14
440.57	2539.48
440.77	2510.81
440.98	2482.14
441.18	2539.48
441.39	2385.88
441.59	2332.64
441.80	2752.47
442.00	2490.33
442.21	2531.29
442.41	2338.78
442.62	2602.97
442.82	2510.81
443.02	2521.05
443.23	2559.96
443.43	2426.84
443.64	2664.41
443.84	2371.55
444.05	2564.06
444.25	2490.33
444.46	2490.33
444.66	2461.66
444.87	2635.74
445.07	2320.35
445.28	2482.14
445.48	2598.87
445.69	2488.28
445.89	2826.20
446.09	2535.39
446.30	2764.76
446.50	2957.27
446.71	4546.49
446.91	5709.74
447.12	6606.75
447.32	6989.72
447.53	6526.88
447.73	5414.83
447.93	4872.12
448.14	4470.72
448.34	4421.56
448.55	3821.51
448.75	3829.70
448.96	3579.85
449.16	3317.71
449.36	3129.30
449.57	2770.90
449.77	2549.72
449.98	2531.29
450.18	2510.81
450.39	2506.71
450.59	2566.10
450.79	2451.42
451.00	2363.36
451.20	2621.40
451.41	2326.49
451.61	2586.58
451.81	2525.15
452.02	2420.70
452.22	2553.82
452.43	2424.80
452.63	2359.26
