SpectraSuite Data File
++++++++++++++++++++++++++++++++++++
Date: Thu May 05 14:41:39 CEST 2016
User: root
Dark Spectrum Present: No
Reference Spectrum Present: No
Number of Sampled Component Spectra: 1
Spectrometers: USB4C02835
Integration Time (usec): 100000 (USB4C02835)
Spectra Averaged: 1 (USB4C02835)
Boxcar Smoothing: 0 (USB4C02835)
Correct for Electrical Dark: No (USB4C02835)
Strobe/Lamp Enabled: No (USB4C02835)
Correct for Detector Non-linearity: No (USB4C02835)
Correct for Stray Light: No (USB4C02835)
Number of Pixels in Processed Spectrum: 3648
>>>>>Begin Processed Spectral Data<<<<<
177.47	1863.65
177.69	1863.65
177.91	1863.65
178.13	1904.61
178.36	1931.23
178.58	2396.12
178.80	2465.75
179.02	2316.25
179.24	2455.51
179.46	2269.15
179.68	2314.20
179.90	2449.37
180.13	2510.81
180.35	2129.89
180.57	2326.49
180.79	2584.54
181.01	2473.95
181.23	2424.80
181.45	2496.47
181.67	2539.48
181.90	2494.43
182.12	2371.55
182.34	2199.52
182.56	2582.49
182.78	2559.96
183.00	2351.07
183.22	2363.36
183.44	2306.01
183.66	2760.66
183.89	2430.94
184.11	2349.02
184.33	2463.71
184.55	2598.87
184.77	2396.12
184.99	2344.92
185.21	2385.88
185.43	2752.47
185.65	2387.93
185.87	2295.77
186.10	2785.24
186.32	2785.24
186.54	2467.80
186.76	2416.60
186.98	2572.25
187.20	2451.42
187.42	2363.36
187.64	2271.20
187.86	2594.78
188.08	2596.82
188.30	2244.57
188.52	2344.92
188.75	2641.88
188.97	2559.96
189.19	2330.59
189.41	2383.84
189.63	2574.30
189.85	2467.80
190.07	2220.00
190.29	2248.67
190.51	2539.48
190.73	2381.79
190.95	2490.33
191.17	2342.88
191.39	2301.92
191.61	2465.75
191.84	2357.21
192.06	2486.23
192.28	2306.01
192.50	2840.53
192.72	2396.12
192.94	2371.55
193.16	2662.36
193.38	2500.57
193.60	2277.34
193.82	2422.75
194.04	2611.16
194.26	2588.63
194.48	2398.17
194.70	2291.68
194.92	2351.07
195.14	2562.01
195.36	2314.20
195.58	2449.37
195.80	2469.85
196.02	2453.47
196.24	2316.25
196.46	2371.55
196.69	2455.51
196.91	2772.95
197.13	2437.08
197.35	2375.64
197.57	2721.75
197.79	2643.93
198.01	2385.88
198.23	2383.84
198.45	2555.86
198.67	2349.02
198.89	2281.44
199.11	2398.17
199.33	2371.55
199.55	2158.56
199.77	2330.59
199.99	2461.66
200.21	2480.09
200.43	2500.57
200.65	2183.13
200.87	2121.70
201.09	2512.86
201.31	2437.08
201.53	2426.84
201.75	2357.21
201.97	2539.48
202.19	2465.75
202.41	2455.51
202.63	2568.15
202.85	2617.30
203.07	2547.67
203.29	2342.88
203.51	2314.20
203.73	2412.51
203.95	2887.64
204.17	2324.44
204.39	2478.04
204.61	2437.08
204.83	2383.84
205.05	2471.90
205.27	2406.36
205.49	2799.57
205.71	2465.75
205.93	2226.14
206.15	2336.73
206.37	2480.09
206.59	2529.24
206.81	2217.95
207.03	2324.44
207.25	2379.74
207.47	2549.72
207.69	2310.11
207.91	2523.10
208.13	2658.26
208.34	2369.50
208.56	2242.53
208.78	2408.41
209.00	2400.22
209.22	2557.91
209.44	2351.07
209.66	2361.31
209.88	2506.71
210.10	2461.66
210.32	2326.49
210.54	2461.66
210.76	2381.79
210.98	2652.12
211.20	2201.57
211.42	2469.85
211.64	2609.11
211.86	2463.71
212.08	2394.08
212.30	2340.83
212.52	2383.84
212.74	2478.04
212.96	2453.47
213.17	2398.17
213.39	2617.30
213.61	2584.54
213.83	2303.96
214.05	2367.45
214.27	2574.30
214.49	2344.92
214.71	2283.49
214.93	2408.41
215.15	2484.19
215.37	2588.63
215.59	2293.72
215.81	2432.99
216.03	2637.78
216.24	2457.56
216.46	2367.45
216.68	2414.56
216.90	2564.06
217.12	2566.10
217.34	2326.49
217.56	2457.56
217.78	2605.02
218.00	2537.43
218.22	2349.02
218.44	2437.08
218.66	2490.33
218.87	2768.85
219.09	2301.92
219.31	2324.44
219.53	2492.38
219.75	2414.56
219.97	2447.32
220.19	2301.92
220.41	2498.52
220.63	2654.17
220.85	2394.08
221.06	2359.26
221.28	2670.55
221.50	2547.67
221.72	2416.60
221.94	2275.29
222.16	2490.33
222.38	2480.09
222.60	2367.45
222.82	2363.36
223.03	2600.92
223.25	2326.49
223.47	2326.49
223.69	2498.52
223.91	2514.91
224.13	2553.82
224.35	2236.38
224.57	2488.28
224.78	2533.34
225.00	2385.88
225.22	2412.51
225.44	2322.40
225.66	2490.33
225.88	2430.94
226.10	2463.71
226.32	2314.20
226.53	2688.98
226.75	2400.22
226.97	2392.03
227.19	2404.32
227.41	2443.23
227.63	2420.70
227.85	2244.57
228.06	2353.12
228.28	2494.43
228.50	2543.58
228.72	2228.19
228.94	2326.49
229.16	2228.19
229.37	2318.30
229.59	2351.07
229.81	2473.95
230.03	2478.04
230.25	2334.68
230.47	2234.33
230.69	2344.92
230.90	2607.06
231.12	2449.37
231.34	2486.23
231.56	2473.95
231.78	2381.79
232.00	2445.27
232.21	2375.64
232.43	2342.88
232.65	2207.71
232.87	2549.72
233.09	2267.10
233.30	2293.72
233.52	2656.22
233.74	2418.65
233.96	2375.64
234.18	2387.93
234.40	2494.43
234.61	2695.13
234.83	2314.20
235.05	2340.83
235.27	2840.53
235.49	2576.34
235.70	2244.57
235.92	2367.45
236.14	2551.77
236.36	2813.91
236.58	2236.38
236.79	2432.99
237.01	2467.80
237.23	2451.42
237.45	2488.28
237.67	2387.93
237.88	2478.04
238.10	2678.74
238.32	2310.11
238.54	2351.07
238.76	2426.84
238.97	2471.90
239.19	2332.64
239.41	2373.60
239.63	2533.34
239.85	2385.88
240.06	2424.80
240.28	2279.39
240.50	2643.93
240.72	2402.27
240.93	2277.34
241.15	2457.56
241.37	2463.71
241.59	2670.55
241.81	2277.34
242.02	2330.59
242.24	2496.47
242.46	2564.06
242.68	2220.00
242.89	2324.44
243.11	2551.77
243.33	2471.90
243.55	2357.21
243.76	2371.55
243.98	2373.60
244.20	2447.32
244.42	2293.72
244.64	2363.36
244.85	2346.97
245.07	2342.88
245.29	2367.45
245.51	2346.97
245.72	2543.58
245.94	2615.26
246.16	2338.78
246.38	2445.27
246.59	2494.43
246.81	2455.51
247.03	2279.39
247.24	2213.85
247.46	2377.69
247.68	2428.89
247.90	2308.06
248.11	2379.74
248.33	2574.30
248.55	2482.14
248.77	2408.41
248.98	2443.23
249.20	2645.98
249.42	2555.86
249.64	2346.97
249.85	2324.44
250.07	2420.70
250.29	2543.58
250.50	2367.45
250.72	2240.48
250.94	2570.20
251.16	2711.51
251.37	2342.88
251.59	2455.51
251.81	2557.91
252.02	2588.63
252.24	2334.68
252.46	2453.47
252.68	2289.63
252.89	2402.27
253.11	2250.72
253.33	2488.28
253.54	2652.12
253.76	2332.64
253.98	2359.26
254.20	2303.96
254.41	2308.06
254.63	2514.91
254.85	2297.82
255.06	2383.84
255.28	2504.67
255.50	2488.28
255.71	2316.25
255.93	2248.67
256.15	2445.27
256.36	2531.29
256.58	2340.83
256.80	2383.84
257.02	2416.60
257.23	2408.41
257.45	2318.30
257.67	2406.36
257.88	2455.51
258.10	2490.33
258.32	2334.68
258.53	2351.07
258.75	2666.46
258.97	2490.33
259.18	2326.49
259.40	2465.75
259.62	2629.59
259.83	2703.32
260.05	2349.02
260.27	2865.11
260.48	2627.54
260.70	2420.70
260.92	2291.68
261.13	2291.68
261.35	2422.75
261.57	2521.05
261.78	2226.14
262.00	2269.15
262.22	2564.06
262.43	2394.08
262.65	2295.77
262.86	2318.30
263.08	2768.85
263.30	2457.56
263.51	2236.38
263.73	2338.78
263.95	2672.60
264.16	2412.51
264.38	2299.87
264.60	2289.63
264.81	2432.99
265.03	2555.86
265.25	2566.10
265.46	2346.97
265.68	2658.26
265.89	2568.15
266.11	2240.48
266.33	2363.36
266.54	2600.92
266.76	2523.10
266.98	2398.17
267.19	2471.90
267.41	2668.50
267.62	2422.75
267.84	2240.48
268.06	2465.75
268.27	2521.05
268.49	2600.92
268.70	2387.93
268.92	2306.01
269.14	2336.73
269.35	2340.83
269.57	2375.64
269.79	2463.71
270.00	2469.85
270.22	2682.84
270.43	2308.06
270.65	2144.22
270.87	2439.13
271.08	2562.01
271.30	2455.51
271.51	2392.03
271.73	2527.19
271.95	2643.93
272.16	2359.26
272.38	2432.99
272.59	2422.75
272.81	2570.20
273.02	2332.64
273.24	2449.37
273.46	2592.73
273.67	2383.84
273.89	2252.77
274.10	2306.01
274.32	2611.16
274.54	2455.51
274.75	2512.86
274.97	2375.64
275.18	2478.04
275.40	2600.92
275.61	2392.03
275.83	2463.71
276.05	2351.07
276.26	2430.94
276.48	2482.14
276.69	2377.69
276.91	2457.56
277.12	2643.93
277.34	2482.14
277.55	2510.81
277.77	2492.38
277.99	2498.52
278.20	2340.83
278.42	2326.49
278.63	2455.51
278.85	2412.51
279.06	2336.73
279.28	2441.18
279.49	2594.78
279.71	2529.24
279.93	2408.41
280.14	2392.03
280.36	2369.50
280.57	2594.78
280.79	2519.00
281.00	2269.15
281.22	2363.36
281.43	2625.50
281.65	2240.48
281.86	2369.50
282.08	2494.43
282.29	2719.70
282.51	2293.72
282.73	2334.68
282.94	2363.36
283.16	2506.71
283.37	2590.68
283.59	2404.32
283.80	2523.10
284.02	2506.71
284.23	2453.47
284.45	2506.71
284.66	2324.44
284.88	2361.31
285.09	2412.51
285.31	2473.95
285.52	2562.01
285.74	2291.68
285.95	2514.91
286.17	2420.70
286.38	2588.63
286.60	2418.65
286.81	2349.02
287.03	2422.75
287.24	2439.13
287.46	2578.39
287.67	2435.03
287.89	2619.35
288.10	2502.62
288.32	2494.43
288.53	2531.29
288.75	2545.63
288.96	2600.92
289.18	2396.12
289.39	2373.60
289.61	2562.01
289.82	2772.95
290.04	2734.04
290.25	2351.07
290.47	2449.37
290.68	2506.71
290.90	2619.35
291.11	2310.11
291.33	2514.91
291.54	2435.03
291.76	2510.81
291.97	2449.37
292.18	2478.04
292.40	2342.88
292.61	2392.03
292.83	2637.78
293.04	2418.65
293.26	2494.43
293.47	2465.75
293.69	2392.03
293.90	2389.98
294.12	2635.74
294.33	2455.51
294.55	2465.75
294.76	2570.20
294.97	2629.59
295.19	2777.05
295.40	2461.66
295.62	2422.75
295.83	2514.91
296.05	2301.92
296.26	2523.10
296.48	2291.68
296.69	2521.05
296.90	2480.09
297.12	2555.86
297.33	2521.05
297.55	2498.52
297.76	2551.77
297.98	2547.67
298.19	2449.37
298.41	2484.19
298.62	2377.69
298.83	2652.12
299.05	2457.56
299.26	2353.12
299.48	2408.41
299.69	2473.95
299.90	2371.55
300.12	2453.47
300.33	2514.91
300.55	2531.29
300.76	2539.48
300.98	2359.26
301.19	2494.43
301.40	2437.08
301.62	2455.51
301.83	2498.52
302.05	2506.71
302.26	2381.79
302.47	2453.47
302.69	2424.80
302.90	2572.25
303.12	2318.30
303.33	2584.54
303.54	2711.51
303.76	2461.66
303.97	2439.13
304.19	2580.44
304.40	2379.74
304.61	2486.23
304.83	2625.50
305.04	2527.19
305.26	2586.58
305.47	2471.90
305.68	2418.65
305.90	2353.12
306.11	2666.46
306.33	2414.56
306.54	2297.82
306.75	2316.25
306.97	2334.68
307.18	2316.25
307.39	2406.36
307.61	2457.56
307.82	2465.75
308.04	2529.24
308.25	2297.82
308.46	2519.00
308.68	2469.85
308.89	2494.43
309.10	2504.67
309.32	2367.45
309.53	2553.82
309.74	2543.58
309.96	2414.56
310.17	2502.62
310.39	2359.26
310.60	2662.36
310.81	2469.85
311.03	2238.43
311.24	2539.48
311.45	2572.25
311.67	2691.03
311.88	2451.42
312.09	2420.70
312.31	2396.12
312.52	2424.80
312.73	2387.93
312.95	2303.96
313.16	2414.56
313.37	2545.63
313.59	2531.29
313.80	2535.39
314.01	2688.98
314.23	2451.42
314.44	2324.44
314.65	2310.11
314.87	2312.16
315.08	2406.36
315.29	2424.80
315.51	2363.36
315.72	2289.63
315.93	2564.06
316.15	2480.09
316.36	2383.84
316.57	2480.09
316.79	2512.86
317.00	2445.27
317.21	2572.25
317.43	2412.51
317.64	2381.79
317.85	2357.21
318.07	2392.03
318.28	2521.05
318.49	2553.82
318.70	2666.46
318.92	2686.94
319.13	2605.02
319.34	2734.04
319.56	2469.85
319.77	2633.69
319.98	2656.22
320.20	2621.40
320.41	2619.35
320.62	2541.53
320.83	2375.64
321.05	2555.86
321.26	2498.52
321.47	2535.39
321.69	2668.50
321.90	2295.77
322.11	2349.02
322.32	2439.13
322.54	2775.00
322.75	2432.99
322.96	2813.91
323.18	2330.59
323.39	2232.29
323.60	2385.88
323.81	2447.32
324.03	2375.64
324.24	2441.18
324.45	2453.47
324.66	2353.12
324.88	2668.50
325.09	2656.22
325.30	2400.22
325.52	2420.70
325.73	2559.96
325.94	2346.97
326.15	2320.35
326.37	2435.03
326.58	2506.71
326.79	2605.02
327.00	2301.92
327.22	2488.28
327.43	2457.56
327.64	2322.40
327.85	2430.94
328.07	2471.90
328.28	2754.52
328.49	2398.17
328.70	2357.21
328.92	2392.03
329.13	2482.14
329.34	2619.35
329.55	2656.22
329.76	2531.29
329.98	2498.52
330.19	2645.98
330.40	2406.36
330.61	2449.37
330.83	2566.10
331.04	2377.69
331.25	2400.22
331.46	2369.50
331.68	2344.92
331.89	2674.65
332.10	2408.41
332.31	2236.38
332.52	2510.81
332.74	2635.74
332.95	2301.92
333.16	2486.23
333.37	2566.10
333.58	2418.65
333.80	2404.32
334.01	2217.95
334.22	2426.84
334.43	2371.55
334.64	2361.31
334.86	2308.06
335.07	2437.08
335.28	2670.55
335.49	2267.10
335.70	2533.34
335.92	2619.35
336.13	2758.61
336.34	2539.48
336.55	2453.47
336.76	2535.39
336.98	2303.96
337.19	2398.17
337.40	2480.09
337.61	2744.28
337.82	2525.15
338.04	2527.19
338.25	2355.16
338.46	2484.19
338.67	2445.27
338.88	2297.82
339.09	2330.59
339.31	2389.98
339.52	2342.88
339.73	2316.25
339.94	2355.16
340.15	2500.57
340.36	2369.50
340.58	2457.56
340.79	2287.58
341.00	2580.44
341.21	2367.45
341.42	2594.78
341.63	2408.41
341.85	2666.46
342.06	2543.58
342.27	2363.36
342.48	2519.00
342.69	2355.16
342.90	2584.54
343.12	2570.20
343.33	2416.60
343.54	2549.72
343.75	2611.16
343.96	2490.33
344.17	2371.55
344.38	2432.99
344.60	2357.21
344.81	2318.30
345.02	2408.41
345.23	2613.21
345.44	2764.76
345.65	2449.37
345.86	2420.70
346.07	2484.19
346.29	2406.36
346.50	2461.66
346.71	2553.82
346.92	2680.79
347.13	2772.95
347.34	2416.60
347.55	2375.64
347.76	2568.15
347.98	2201.57
348.19	2377.69
348.40	2588.63
348.61	2447.32
348.82	2756.57
349.03	2488.28
349.24	2334.68
349.45	2703.32
349.66	2185.18
349.88	2414.56
350.09	2404.32
350.30	2693.08
350.51	2625.50
350.72	2545.63
350.93	2400.22
351.14	2377.69
351.35	2547.67
351.56	2373.60
351.77	2428.89
351.99	2529.24
352.20	2605.02
352.41	2590.68
352.62	2244.57
352.83	2455.51
353.04	2519.00
353.25	2422.75
353.46	2504.67
353.67	2701.27
353.88	2318.30
354.09	2381.79
354.30	2523.10
354.52	2473.95
354.73	2400.22
354.94	2357.21
355.15	2451.42
355.36	2686.94
355.57	2445.27
355.78	2394.08
355.99	2363.36
356.20	2471.90
356.41	2600.92
356.62	2387.93
356.83	2435.03
357.04	2660.31
357.25	2324.44
357.46	2375.64
357.68	2260.96
357.89	2367.45
358.10	2463.71
358.31	2445.27
358.52	2441.18
358.73	2351.07
358.94	2371.55
359.15	2359.26
359.36	2521.05
359.57	2445.27
359.78	2449.37
359.99	2533.34
360.20	2426.84
360.41	2529.24
360.62	2662.36
360.83	2457.56
361.04	2461.66
361.25	2541.53
361.46	2654.17
361.67	2484.19
361.88	2473.95
362.09	2574.30
362.30	2486.23
362.51	2387.93
362.72	2414.56
362.93	2611.16
363.14	2471.90
363.35	2469.85
363.56	2351.07
363.78	2686.94
363.99	2609.11
364.20	2408.41
364.41	2537.43
364.62	2734.04
364.83	2588.63
365.04	2422.75
365.25	2432.99
365.46	2736.09
365.67	2424.80
365.88	2508.76
366.09	2506.71
366.30	2420.70
366.51	2527.19
366.72	2234.33
366.93	2508.76
367.14	2494.43
367.35	2559.96
367.56	2396.12
367.77	2545.63
367.98	2416.60
368.18	2521.05
368.39	2502.62
368.60	2326.49
368.81	2523.10
369.02	2508.76
369.23	2473.95
369.44	2291.68
369.65	2396.12
369.86	2521.05
370.07	2502.62
370.28	2279.39
370.49	2490.33
370.70	2529.24
370.91	2404.32
371.12	2228.19
371.33	2643.93
371.54	2396.12
371.75	2570.20
371.96	2215.90
372.17	2488.28
372.38	2523.10
372.59	2435.03
372.80	2422.75
373.01	2437.08
373.22	2516.95
373.43	2437.08
373.64	2359.26
373.85	2617.30
374.06	2723.80
374.26	2566.10
374.47	2512.86
374.68	2654.17
374.89	2463.71
375.10	2404.32
375.31	2500.57
375.52	2504.67
375.73	2392.03
375.94	2326.49
376.15	2592.73
376.36	2441.18
376.57	2453.47
376.78	2453.47
376.99	2435.03
377.20	2658.26
377.40	2416.60
377.61	2555.86
377.82	2355.16
378.03	2641.88
378.24	2607.06
378.45	2473.95
378.66	2445.27
378.87	2258.91
379.08	2267.10
379.29	2383.84
379.50	2494.43
379.71	2498.52
379.91	2641.88
380.12	2467.80
380.33	2461.66
380.54	2531.29
380.75	2445.27
380.96	2469.85
381.17	2535.39
381.38	2537.43
381.59	2535.39
381.80	2459.61
382.00	2617.30
382.21	2502.62
382.42	2672.60
382.63	2672.60
382.84	2492.38
383.05	2652.12
383.26	2676.70
383.47	2527.19
383.68	2488.28
383.88	2559.96
384.09	2480.09
384.30	2668.50
384.51	2383.84
384.72	2498.52
384.93	2361.31
385.14	2486.23
385.35	2473.95
385.55	2375.64
385.76	2605.02
385.97	2478.04
386.18	2342.88
386.39	2394.08
386.60	2375.64
386.81	2449.37
387.02	2312.16
387.22	2316.25
387.43	2555.86
387.64	2480.09
387.85	2605.02
388.06	2682.84
388.27	4102.08
388.48	8351.62
388.68	12205.89
388.89	14348.07
389.10	15841.04
389.31	14663.46
389.52	11503.44
389.73	9934.70
389.93	9027.45
390.14	8189.83
390.35	7196.56
390.56	6791.06
390.77	5496.75
390.98	4136.90
391.18	3334.09
391.39	2942.93
391.60	2619.35
391.81	2594.78
392.02	2400.22
392.23	2809.81
392.43	2467.80
392.64	2613.21
392.85	2486.23
393.06	2672.60
393.27	2469.85
393.47	2332.64
393.68	2492.38
393.89	2422.75
394.10	2652.12
394.31	2387.93
394.52	2293.72
394.72	2357.21
394.93	2656.22
395.14	2383.84
395.35	2516.95
395.56	2455.51
395.76	2394.08
395.97	2455.51
396.18	2625.50
396.39	2678.74
396.60	3004.37
396.80	2727.89
397.01	2660.31
397.22	2613.21
397.43	2648.02
397.64	2363.36
397.84	2559.96
398.05	2772.95
398.26	2484.19
398.47	2572.25
398.67	2564.06
398.88	2496.47
399.09	2654.17
399.30	2293.72
399.51	2514.91
399.71	2392.03
399.92	2451.42
400.13	2492.38
400.34	2402.27
400.54	2506.71
400.75	2707.41
400.96	2465.75
401.17	2729.94
401.37	2613.21
401.58	2498.52
401.79	2467.80
402.00	2631.64
402.21	2926.55
402.41	2762.71
402.62	2809.81
402.83	2848.72
403.04	2932.69
403.24	3125.20
403.45	2629.59
403.66	2809.81
403.87	2746.33
404.07	2793.43
404.28	2787.29
404.49	2600.92
404.70	2555.86
404.90	2648.02
405.11	2471.90
405.32	2578.39
405.52	2465.75
405.73	2418.65
405.94	2383.84
406.15	2473.95
406.35	2531.29
406.56	2568.15
406.77	2502.62
406.98	2478.04
407.18	2394.08
407.39	2662.36
407.60	2527.19
407.80	2473.95
408.01	2420.70
408.22	2484.19
408.43	2408.41
408.63	2480.09
408.84	2631.64
409.05	2639.83
409.25	2351.07
409.46	2455.51
409.67	2334.68
409.88	2422.75
410.08	2482.14
410.29	2381.79
410.50	2605.02
410.70	2553.82
410.91	2461.66
411.12	2443.23
411.32	2514.91
411.53	2412.51
411.74	2529.24
411.95	2523.10
412.15	2510.81
412.36	2580.44
412.57	2566.10
412.77	2637.78
412.98	2529.24
413.19	2416.60
413.39	2568.15
413.60	2488.28
413.81	2615.26
414.01	2435.03
414.22	2541.53
414.43	2535.39
414.63	2400.22
414.84	2523.10
415.05	2443.23
415.25	2260.96
415.46	2605.02
415.67	2451.42
415.87	2521.05
416.08	2482.14
416.29	2478.04
416.49	2535.39
416.70	2414.56
416.91	2408.41
417.11	2461.66
417.32	2625.50
417.53	2535.39
417.73	2494.43
417.94	2523.10
418.15	2588.63
418.35	2457.56
418.56	2387.93
418.77	2746.33
418.97	2478.04
419.18	2426.84
419.38	2275.29
419.59	2484.19
419.80	2662.36
420.00	2480.09
420.21	2445.27
420.42	2621.40
420.62	2516.95
420.83	2373.60
421.04	2387.93
421.24	2488.28
421.45	2539.48
421.65	2424.80
421.86	2385.88
422.07	2635.74
422.27	2555.86
422.48	2416.60
422.69	2326.49
422.89	2576.34
423.10	2459.61
423.30	2387.93
423.51	2482.14
423.72	2609.11
423.92	2559.96
424.13	2392.03
424.33	2498.52
424.54	2596.82
424.75	2455.51
424.95	2621.40
425.16	2463.71
425.36	2463.71
425.57	2566.10
425.78	2559.96
425.98	2525.15
426.19	2478.04
426.39	2381.79
426.60	2519.00
426.81	2590.68
427.01	2461.66
427.22	2342.88
427.42	2324.44
427.63	2322.40
427.83	2674.65
428.04	2654.17
428.25	2523.10
428.45	2559.96
428.66	2631.64
428.86	2392.03
429.07	2455.51
429.28	2459.61
429.48	2420.70
429.69	2365.40
429.89	2502.62
430.10	2351.07
430.30	2506.71
430.51	2580.44
430.71	2457.56
430.92	2437.08
431.13	2355.16
431.33	2562.01
431.54	2480.09
431.74	2584.54
431.95	2768.85
432.15	2412.51
432.36	2426.84
432.56	2588.63
432.77	2662.36
432.98	2697.17
433.18	2457.56
433.39	2432.99
433.59	2443.23
433.80	2793.43
434.00	2691.03
434.21	2385.88
434.41	2428.89
434.62	2789.33
434.82	2338.78
435.03	2381.79
435.23	2559.96
435.44	2316.25
435.64	2420.70
435.85	2480.09
436.06	2506.71
436.26	2625.50
436.47	2414.56
436.67	2351.07
436.88	2461.66
437.08	2588.63
437.29	2566.10
437.49	2586.58
437.70	2670.55
437.90	2521.05
438.11	2645.98
438.31	2564.06
438.52	2654.17
438.72	2721.75
438.93	2785.24
439.13	2572.25
439.34	2635.74
439.54	2535.39
439.75	2541.53
439.95	2576.34
440.16	2437.08
440.36	2437.08
440.57	2457.56
440.77	2441.18
440.98	2533.34
441.18	2570.20
441.39	2445.27
441.59	2385.88
441.80	2754.52
442.00	2525.15
442.21	2557.91
442.41	2318.30
442.62	2629.59
442.82	2441.18
443.02	2449.37
443.23	2535.39
443.43	2432.99
443.64	2691.03
443.84	2367.45
444.05	2605.02
444.25	2566.10
444.46	2504.67
444.66	2465.75
444.87	2654.17
445.07	2314.20
445.28	2525.15
445.48	2523.10
445.69	2443.23
445.89	2793.43
446.09	2490.33
446.30	2775.00
446.50	3030.99
446.71	4560.83
446.91	5726.12
447.12	6614.94
447.32	7155.60
447.53	6590.36
447.73	5461.93
447.93	4718.52
448.14	4509.63
448.34	4267.97
448.55	3762.12
448.75	3760.07
448.96	3508.17
449.16	3256.27
449.36	3053.52
449.57	2805.72
449.77	2568.15
449.98	2471.90
450.18	2643.93
450.39	2547.67
450.59	2637.78
450.79	2519.00
451.00	2430.94
451.20	2514.91
451.41	2461.66
451.61	2621.40
451.81	2490.33
452.02	2416.60
452.22	2445.27
452.43	2432.99
452.63	2383.84
