SpectraSuite Data File
++++++++++++++++++++++++++++++++++++
Date: Thu May 05 14:42:23 CEST 2016
User: root
Dark Spectrum Present: No
Reference Spectrum Present: No
Number of Sampled Component Spectra: 1
Spectrometers: USB4C02835
Integration Time (usec): 100000 (USB4C02835)
Spectra Averaged: 1 (USB4C02835)
Boxcar Smoothing: 0 (USB4C02835)
Correct for Electrical Dark: No (USB4C02835)
Strobe/Lamp Enabled: No (USB4C02835)
Correct for Detector Non-linearity: No (USB4C02835)
Correct for Stray Light: No (USB4C02835)
Number of Pixels in Processed Spectrum: 3648
>>>>>Begin Processed Spectral Data<<<<<
177.47	1894.37
177.69	1894.37
177.91	1894.37
178.13	1916.90
178.36	1923.04
178.58	2306.01
178.80	2506.71
179.02	2330.59
179.24	2342.88
179.46	2281.44
179.68	2373.60
179.90	2461.66
180.13	2559.96
180.35	2181.09
180.57	2324.44
180.79	2572.25
181.01	2435.03
181.23	2428.89
181.45	2502.62
181.67	2570.20
181.90	2521.05
182.12	2367.45
182.34	2258.91
182.56	2486.23
182.78	2525.15
183.00	2314.20
183.22	2426.84
183.44	2232.29
183.66	2818.00
183.89	2539.48
184.11	2365.40
184.33	2568.15
184.55	2643.93
184.77	2340.83
184.99	2416.60
185.21	2389.98
185.43	2756.57
185.65	2328.54
185.87	2371.55
186.10	2777.05
186.32	2781.14
186.54	2451.42
186.76	2437.08
186.98	2621.40
187.20	2498.52
187.42	2455.51
187.64	2375.64
187.86	2545.63
188.08	2574.30
188.30	2217.95
188.52	2396.12
188.75	2621.40
188.97	2645.98
189.19	2299.87
189.41	2375.64
189.63	2555.86
189.85	2521.05
190.07	2277.34
190.29	2234.33
190.51	2502.62
190.73	2250.72
190.95	2445.27
191.17	2389.98
191.39	2373.60
191.61	2449.37
191.84	2344.92
192.06	2469.85
192.28	2285.53
192.50	2893.78
192.72	2381.79
192.94	2406.36
193.16	2615.26
193.38	2562.01
193.60	2285.53
193.82	2461.66
194.04	2621.40
194.26	2559.96
194.48	2369.50
194.70	2365.40
194.92	2414.56
195.14	2592.73
195.36	2344.92
195.58	2385.88
195.80	2475.99
196.02	2439.13
196.24	2342.88
196.46	2402.27
196.69	2424.80
196.91	2842.58
197.13	2314.20
197.35	2303.96
197.57	2611.16
197.79	2500.57
198.01	2381.79
198.23	2394.08
198.45	2547.67
198.67	2351.07
198.89	2303.96
199.11	2461.66
199.33	2367.45
199.55	2242.53
199.77	2336.73
199.99	2471.90
200.21	2461.66
200.43	2510.81
200.65	2222.05
200.87	2209.76
201.09	2449.37
201.31	2506.71
201.53	2404.32
201.75	2443.23
201.97	2539.48
202.19	2519.00
202.41	2498.52
202.63	2566.10
202.85	2547.67
203.07	2621.40
203.29	2408.41
203.51	2238.43
203.73	2412.51
203.95	2760.66
204.17	2363.36
204.39	2455.51
204.61	2422.75
204.83	2441.18
205.05	2471.90
205.27	2455.51
205.49	2756.57
205.71	2555.86
205.93	2240.48
206.15	2301.92
206.37	2488.28
206.59	2467.80
206.81	2248.67
207.03	2330.59
207.25	2371.55
207.47	2531.29
207.69	2326.49
207.91	2539.48
208.13	2654.17
208.34	2349.02
208.56	2254.81
208.78	2418.65
209.00	2441.18
209.22	2416.60
209.44	2375.64
209.66	2336.73
209.88	2506.71
210.10	2441.18
210.32	2381.79
210.54	2512.86
210.76	2387.93
210.98	2611.16
211.20	2220.00
211.42	2437.08
211.64	2605.02
211.86	2539.48
212.08	2402.27
212.30	2416.60
212.52	2414.56
212.74	2562.01
212.96	2486.23
213.17	2445.27
213.39	2572.25
213.61	2660.31
213.83	2318.30
214.05	2461.66
214.27	2625.50
214.49	2328.54
214.71	2346.97
214.93	2432.99
215.15	2447.32
215.37	2543.58
215.59	2189.28
215.81	2396.12
216.03	2572.25
216.24	2490.33
216.46	2371.55
216.68	2389.98
216.90	2564.06
217.12	2621.40
217.34	2369.50
217.56	2449.37
217.78	2627.54
218.00	2498.52
218.22	2303.96
218.44	2449.37
218.66	2629.59
218.87	2781.14
219.09	2418.65
219.31	2340.83
219.53	2523.10
219.75	2432.99
219.97	2365.40
220.19	2359.26
220.41	2490.33
220.63	2674.65
220.85	2342.88
221.06	2310.11
221.28	2594.78
221.50	2445.27
221.72	2377.69
221.94	2365.40
222.16	2490.33
222.38	2547.67
222.60	2367.45
222.82	2428.89
223.03	2611.16
223.25	2371.55
223.47	2318.30
223.69	2531.29
223.91	2555.86
224.13	2506.71
224.35	2318.30
224.57	2451.42
224.78	2535.39
225.00	2359.26
225.22	2400.22
225.44	2338.78
225.66	2570.20
225.88	2447.32
226.10	2514.91
226.32	2338.78
226.53	2617.30
226.75	2502.62
226.97	2338.78
227.19	2416.60
227.41	2351.07
227.63	2381.79
227.85	2193.37
228.06	2359.26
228.28	2478.04
228.50	2498.52
228.72	2234.33
228.94	2281.44
229.16	2269.15
229.37	2351.07
229.59	2299.87
229.81	2557.91
230.03	2555.86
230.25	2394.08
230.47	2164.70
230.69	2256.86
230.90	2586.58
231.12	2447.32
231.34	2361.31
231.56	2404.32
231.78	2326.49
232.00	2484.19
232.21	2410.46
232.43	2351.07
232.65	2242.53
232.87	2531.29
233.09	2242.53
233.30	2320.35
233.52	2570.20
233.74	2445.27
233.96	2359.26
234.18	2484.19
234.40	2400.22
234.61	2686.94
234.83	2220.00
235.05	2308.06
235.27	2754.52
235.49	2602.97
235.70	2320.35
235.92	2394.08
236.14	2547.67
236.36	2854.87
236.58	2269.15
236.79	2420.70
237.01	2432.99
237.23	2422.75
237.45	2490.33
237.67	2334.68
237.88	2523.10
238.10	2645.98
238.32	2269.15
238.54	2332.64
238.76	2482.14
238.97	2363.36
239.19	2297.82
239.41	2441.18
239.63	2594.78
239.85	2379.74
240.06	2379.74
240.28	2310.11
240.50	2609.11
240.72	2439.13
240.93	2344.92
241.15	2453.47
241.37	2519.00
241.59	2648.02
241.81	2383.84
242.02	2367.45
242.24	2496.47
242.46	2576.34
242.68	2291.68
242.89	2357.21
243.11	2596.82
243.33	2490.33
243.55	2375.64
243.76	2385.88
243.98	2416.60
244.20	2469.85
244.42	2330.59
244.64	2353.12
244.85	2420.70
245.07	2349.02
245.29	2353.12
245.51	2457.56
245.72	2519.00
245.94	2637.78
246.16	2396.12
246.38	2441.18
246.59	2469.85
246.81	2387.93
247.03	2318.30
247.24	2213.85
247.46	2365.40
247.68	2494.43
247.90	2310.11
248.11	2353.12
248.33	2588.63
248.55	2465.75
248.77	2420.70
248.98	2369.50
249.20	2656.22
249.42	2463.71
249.64	2396.12
249.85	2303.96
250.07	2435.03
250.29	2584.54
250.50	2420.70
250.72	2291.68
250.94	2510.81
251.16	2818.00
251.37	2373.60
251.59	2369.50
251.81	2562.01
252.02	2627.54
252.24	2279.39
252.46	2514.91
252.68	2392.03
252.89	2424.80
253.11	2230.24
253.33	2398.17
253.54	2682.84
253.76	2387.93
253.98	2381.79
254.20	2303.96
254.41	2326.49
254.63	2482.14
254.85	2293.72
255.06	2453.47
255.28	2547.67
255.50	2480.09
255.71	2351.07
255.93	2215.90
256.15	2447.32
256.36	2537.43
256.58	2217.95
256.80	2351.07
257.02	2492.38
257.23	2402.27
257.45	2400.22
257.67	2441.18
257.88	2435.03
258.10	2570.20
258.32	2400.22
258.53	2402.27
258.75	2658.26
258.97	2324.44
259.18	2316.25
259.40	2355.16
259.62	2695.13
259.83	2697.17
260.05	2459.61
260.27	2840.53
260.48	2584.54
260.70	2373.60
260.92	2357.21
261.13	2387.93
261.35	2510.81
261.57	2588.63
261.78	2244.57
262.00	2367.45
262.22	2535.39
262.43	2357.21
262.65	2306.01
262.86	2324.44
263.08	2809.81
263.30	2494.43
263.51	2195.42
263.73	2277.34
263.95	2625.50
264.16	2426.84
264.38	2220.00
264.60	2306.01
264.81	2510.81
265.03	2615.26
265.25	2613.21
265.46	2418.65
265.68	2695.13
265.89	2523.10
266.11	2201.57
266.33	2351.07
266.54	2670.55
266.76	2559.96
266.98	2392.03
267.19	2490.33
267.41	2613.21
267.62	2508.76
267.84	2174.94
268.06	2432.99
268.27	2523.10
268.49	2631.64
268.70	2363.36
268.92	2387.93
269.14	2437.08
269.35	2279.39
269.57	2396.12
269.79	2537.43
270.00	2412.51
270.22	2711.51
270.43	2330.59
270.65	2103.26
270.87	2473.95
271.08	2596.82
271.30	2459.61
271.51	2392.03
271.73	2510.81
271.95	2678.74
272.16	2326.49
272.38	2359.26
272.59	2432.99
272.81	2572.25
273.02	2299.87
273.24	2449.37
273.46	2600.92
273.67	2424.80
273.89	2281.44
274.10	2346.97
274.32	2566.10
274.54	2564.06
274.75	2441.18
274.97	2373.60
275.18	2596.82
275.40	2512.86
275.61	2465.75
275.83	2412.51
276.05	2357.21
276.26	2482.14
276.48	2449.37
276.69	2289.63
276.91	2416.60
277.12	2648.02
277.34	2496.47
277.55	2508.76
277.77	2588.63
277.99	2519.00
278.20	2263.01
278.42	2256.86
278.63	2445.27
278.85	2424.80
279.06	2379.74
279.28	2422.75
279.49	2580.44
279.71	2531.29
279.93	2461.66
280.14	2445.27
280.36	2387.93
280.57	2564.06
280.79	2490.33
281.00	2334.68
281.22	2469.85
281.43	2617.30
281.65	2260.96
281.86	2322.40
282.08	2447.32
282.29	2684.89
282.51	2351.07
282.73	2277.34
282.94	2324.44
283.16	2701.27
283.37	2654.17
283.59	2432.99
283.80	2435.03
284.02	2428.89
284.23	2414.56
284.45	2379.74
284.66	2318.30
284.88	2410.46
285.09	2432.99
285.31	2531.29
285.52	2473.95
285.74	2383.84
285.95	2553.82
286.17	2478.04
286.38	2576.34
286.60	2383.84
286.81	2396.12
287.03	2435.03
287.24	2492.38
287.46	2529.24
287.67	2445.27
287.89	2596.82
288.10	2441.18
288.32	2467.80
288.53	2590.68
288.75	2471.90
288.96	2625.50
289.18	2412.51
289.39	2416.60
289.61	2400.22
289.82	2711.51
290.04	2744.28
290.25	2359.26
290.47	2445.27
290.68	2412.51
290.90	2557.91
291.11	2332.64
291.33	2566.10
291.54	2416.60
291.76	2385.88
291.97	2498.52
292.18	2439.13
292.40	2410.46
292.61	2400.22
292.83	2623.45
293.04	2400.22
293.26	2551.77
293.47	2500.57
293.69	2430.94
293.90	2439.13
294.12	2590.68
294.33	2488.28
294.55	2389.98
294.76	2578.39
294.97	2609.11
295.19	2772.95
295.40	2435.03
295.62	2506.71
295.83	2588.63
296.05	2392.03
296.26	2549.72
296.48	2279.39
296.69	2465.75
296.90	2445.27
297.12	2443.23
297.33	2562.01
297.55	2502.62
297.76	2510.81
297.98	2562.01
298.19	2400.22
298.41	2504.67
298.62	2424.80
298.83	2545.63
299.05	2414.56
299.26	2439.13
299.48	2340.83
299.69	2471.90
299.90	2400.22
300.12	2392.03
300.33	2549.72
300.55	2478.04
300.76	2529.24
300.98	2359.26
301.19	2500.57
301.40	2412.51
301.62	2404.32
301.83	2502.62
302.05	2500.57
302.26	2410.46
302.47	2471.90
302.69	2312.16
302.90	2457.56
303.12	2158.56
303.33	2504.67
303.54	2752.47
303.76	2418.65
303.97	2504.67
304.19	2531.29
304.40	2381.79
304.61	2605.02
304.83	2631.64
305.04	2549.72
305.26	2547.67
305.47	2463.71
305.68	2480.09
305.90	2275.29
306.11	2607.06
306.33	2443.23
306.54	2414.56
306.75	2318.30
306.97	2287.58
307.18	2326.49
307.39	2389.98
307.61	2441.18
307.82	2469.85
308.04	2537.43
308.25	2312.16
308.46	2523.10
308.68	2469.85
308.89	2539.48
309.10	2512.86
309.32	2496.47
309.53	2465.75
309.74	2611.16
309.96	2359.26
310.17	2568.15
310.39	2445.27
310.60	2539.48
310.81	2363.36
311.03	2279.39
311.24	2539.48
311.45	2437.08
311.67	2637.78
311.88	2445.27
312.09	2514.91
312.31	2437.08
312.52	2408.41
312.73	2396.12
312.95	2322.40
313.16	2379.74
313.37	2568.15
313.59	2562.01
313.80	2619.35
314.01	2658.26
314.23	2410.46
314.44	2346.97
314.65	2334.68
314.87	2373.60
315.08	2324.44
315.29	2340.83
315.51	2357.21
315.72	2324.44
315.93	2537.43
316.15	2396.12
316.36	2469.85
316.57	2435.03
316.79	2469.85
317.00	2400.22
317.21	2525.15
317.43	2346.97
317.64	2461.66
317.85	2326.49
318.07	2404.32
318.28	2502.62
318.49	2551.77
318.70	2727.89
318.92	2600.92
319.13	2551.77
319.34	2611.16
319.56	2543.58
319.77	2613.21
319.98	2691.03
320.20	2547.67
320.41	2531.29
320.62	2590.68
320.83	2414.56
321.05	2672.60
321.26	2486.23
321.47	2529.24
321.69	2643.93
321.90	2301.92
322.11	2357.21
322.32	2543.58
322.54	2668.50
322.75	2488.28
322.96	2875.35
323.18	2326.49
323.39	2303.96
323.60	2400.22
323.81	2557.91
324.03	2387.93
324.24	2404.32
324.45	2508.76
324.66	2400.22
324.88	2617.30
325.09	2631.64
325.30	2461.66
325.52	2480.09
325.73	2566.10
325.94	2416.60
326.15	2283.49
326.37	2291.68
326.58	2568.15
326.79	2715.61
327.00	2336.73
327.22	2435.03
327.43	2375.64
327.64	2346.97
327.85	2416.60
328.07	2426.84
328.28	2678.74
328.49	2381.79
328.70	2416.60
328.92	2336.73
329.13	2514.91
329.34	2572.25
329.55	2635.74
329.76	2480.09
329.98	2414.56
330.19	2617.30
330.40	2457.56
330.61	2439.13
330.83	2602.97
331.04	2318.30
331.25	2428.89
331.46	2398.17
331.68	2349.02
331.89	2609.11
332.10	2400.22
332.31	2299.87
332.52	2533.34
332.74	2543.58
332.95	2322.40
333.16	2418.65
333.37	2545.63
333.58	2416.60
333.80	2482.14
334.01	2260.96
334.22	2463.71
334.43	2422.75
334.64	2443.23
334.86	2314.20
335.07	2361.31
335.28	2617.30
335.49	2283.49
335.70	2437.08
335.92	2596.82
336.13	2801.62
336.34	2457.56
336.55	2422.75
336.76	2514.91
336.98	2213.85
337.19	2486.23
337.40	2578.39
337.61	2758.61
337.82	2469.85
338.04	2512.86
338.25	2260.96
338.46	2461.66
338.67	2482.14
338.88	2310.11
339.09	2349.02
339.31	2400.22
339.52	2379.74
339.73	2308.06
339.94	2459.61
340.15	2553.82
340.36	2392.03
340.58	2461.66
340.79	2371.55
341.00	2537.43
341.21	2334.68
341.42	2570.20
341.63	2359.26
341.85	2658.26
342.06	2523.10
342.27	2293.72
342.48	2482.14
342.69	2291.68
342.90	2514.91
343.12	2609.11
343.33	2340.83
343.54	2633.69
343.75	2652.12
343.96	2447.32
344.17	2336.73
344.38	2473.95
344.60	2312.16
344.81	2406.36
345.02	2400.22
345.23	2615.26
345.44	2826.20
345.65	2389.98
345.86	2453.47
346.07	2615.26
346.29	2471.90
346.50	2439.13
346.71	2523.10
346.92	2664.41
347.13	2752.47
347.34	2449.37
347.55	2367.45
347.76	2484.19
347.98	2265.05
348.19	2369.50
348.40	2553.82
348.61	2463.71
348.82	2633.69
349.03	2504.67
349.24	2322.40
349.45	2699.22
349.66	2269.15
349.88	2398.17
350.09	2359.26
350.30	2660.31
350.51	2635.74
350.72	2486.23
350.93	2418.65
351.14	2416.60
351.35	2478.04
351.56	2473.95
351.77	2410.46
351.99	2516.95
352.20	2664.41
352.41	2572.25
352.62	2269.15
352.83	2564.06
353.04	2449.37
353.25	2367.45
353.46	2428.89
353.67	2645.98
353.88	2285.53
354.09	2392.03
354.30	2480.09
354.52	2531.29
354.73	2385.88
354.94	2367.45
355.15	2506.71
355.36	2693.08
355.57	2502.62
355.78	2332.64
355.99	2406.36
356.20	2469.85
356.41	2686.94
356.62	2506.71
356.83	2412.51
357.04	2688.98
357.25	2289.63
357.46	2400.22
357.68	2308.06
357.89	2422.75
358.10	2473.95
358.31	2496.47
358.52	2416.60
358.73	2328.54
358.94	2394.08
359.15	2437.08
359.36	2465.75
359.57	2510.81
359.78	2504.67
359.99	2506.71
360.20	2293.72
360.41	2473.95
360.62	2627.54
360.83	2519.00
361.04	2418.65
361.25	2480.09
361.46	2699.22
361.67	2545.63
361.88	2443.23
362.09	2615.26
362.30	2492.38
362.51	2412.51
362.72	2432.99
362.93	2605.02
363.14	2645.98
363.35	2447.32
363.56	2355.16
363.78	2588.63
363.99	2674.65
364.20	2426.84
364.41	2461.66
364.62	2744.28
364.83	2555.86
365.04	2451.42
365.25	2420.70
365.46	2695.13
365.67	2285.53
365.88	2465.75
366.09	2406.36
366.30	2430.94
366.51	2465.75
366.72	2308.06
366.93	2396.12
367.14	2570.20
367.35	2580.44
367.56	2445.27
367.77	2555.86
367.98	2463.71
368.18	2539.48
368.39	2408.41
368.60	2326.49
368.81	2586.58
369.02	2457.56
369.23	2414.56
369.44	2293.72
369.65	2371.55
369.86	2543.58
370.07	2555.86
370.28	2398.17
370.49	2506.71
370.70	2568.15
370.91	2336.73
371.12	2303.96
371.33	2711.51
371.54	2457.56
371.75	2559.96
371.96	2224.09
372.17	2488.28
372.38	2486.23
372.59	2545.63
372.80	2424.80
373.01	2422.75
373.22	2519.00
373.43	2430.94
373.64	2277.34
373.85	2557.91
374.06	2662.36
374.26	2480.09
374.47	2486.23
374.68	2613.21
374.89	2478.04
375.10	2416.60
375.31	2531.29
375.52	2510.81
375.73	2459.61
375.94	2299.87
376.15	2555.86
376.36	2469.85
376.57	2453.47
376.78	2465.75
376.99	2435.03
377.20	2641.88
377.40	2480.09
377.61	2619.35
377.82	2373.60
378.03	2641.88
378.24	2469.85
378.45	2445.27
378.66	2453.47
378.87	2281.44
379.08	2213.85
379.29	2441.18
379.50	2578.39
379.71	2535.39
379.91	2574.30
380.12	2398.17
380.33	2502.62
380.54	2488.28
380.75	2564.06
380.96	2461.66
381.17	2514.91
381.38	2588.63
381.59	2441.18
381.80	2437.08
382.00	2684.89
382.21	2559.96
382.42	2727.89
382.63	2758.61
382.84	2553.82
383.05	2547.67
383.26	2654.17
383.47	2461.66
383.68	2432.99
383.88	2596.82
384.09	2496.47
384.30	2650.07
384.51	2537.43
384.72	2385.88
384.93	2346.97
385.14	2416.60
385.35	2566.10
385.55	2443.23
385.76	2672.60
385.97	2432.99
386.18	2320.35
386.39	2443.23
386.60	2443.23
386.81	2408.41
387.02	2318.30
387.22	2357.21
387.43	2576.34
387.64	2512.86
387.85	2617.30
388.06	2666.46
388.27	4011.97
388.48	8189.83
388.68	11829.07
388.89	14475.04
389.10	15535.89
389.31	14870.30
389.52	11573.07
389.73	9930.60
389.93	8959.86
390.14	8161.16
390.35	7421.84
390.56	6666.14
390.77	5445.55
390.98	4153.28
391.18	3456.97
391.39	2979.79
391.60	2525.15
391.81	2693.08
392.02	2375.64
392.23	2719.70
392.43	2537.43
392.64	2564.06
392.85	2547.67
393.06	2670.55
393.27	2467.80
393.47	2367.45
393.68	2467.80
393.89	2506.71
394.10	2676.70
394.31	2473.95
394.52	2367.45
394.72	2430.94
394.93	2695.13
395.14	2355.16
395.35	2453.47
395.56	2404.32
395.76	2375.64
395.97	2480.09
396.18	2529.24
396.39	2570.20
396.60	3000.27
396.80	2748.37
397.01	2605.02
397.22	2613.21
397.43	2641.88
397.64	2449.37
397.84	2592.73
398.05	2809.81
398.26	2447.32
398.47	2564.06
398.67	2555.86
398.88	2473.95
399.09	2547.67
399.30	2375.64
399.51	2471.90
399.71	2373.60
399.92	2484.19
400.13	2523.10
400.34	2410.46
400.54	2482.14
400.75	2695.13
400.96	2465.75
401.17	2590.68
401.37	2559.96
401.58	2465.75
401.79	2457.56
402.00	2607.06
402.21	2912.21
402.41	2856.92
402.62	2746.33
402.83	2895.83
403.04	2930.64
403.24	3082.19
403.45	2639.83
403.66	2762.71
403.87	2701.27
404.07	2781.14
404.28	2711.51
404.49	2756.57
404.70	2586.58
404.90	2629.59
405.11	2502.62
405.32	2506.71
405.52	2457.56
405.73	2488.28
405.94	2349.02
406.15	2465.75
406.35	2652.12
406.56	2519.00
406.77	2478.04
406.98	2379.74
407.18	2340.83
407.39	2678.74
407.60	2465.75
407.80	2490.33
408.01	2482.14
408.22	2584.54
408.43	2371.55
408.63	2484.19
408.84	2541.53
409.05	2584.54
409.25	2430.94
409.46	2342.88
409.67	2455.51
409.88	2373.60
410.08	2482.14
410.29	2445.27
410.50	2650.07
410.70	2508.76
410.91	2359.26
411.12	2469.85
411.32	2484.19
411.53	2318.30
411.74	2559.96
411.95	2576.34
412.15	2529.24
412.36	2643.93
412.57	2498.52
412.77	2627.54
412.98	2521.05
413.19	2451.42
413.39	2580.44
413.60	2514.91
413.81	2709.46
414.01	2342.88
414.22	2531.29
414.43	2596.82
414.63	2512.86
414.84	2541.53
415.05	2480.09
415.25	2314.20
415.46	2555.86
415.67	2461.66
415.87	2496.47
416.08	2463.71
416.29	2400.22
416.49	2572.25
416.70	2402.27
416.91	2410.46
417.11	2437.08
417.32	2648.02
417.53	2523.10
417.73	2490.33
417.94	2490.33
418.15	2486.23
418.35	2375.64
418.56	2402.27
418.77	2834.39
418.97	2523.10
419.18	2463.71
419.38	2203.61
419.59	2400.22
419.80	2611.16
420.00	2359.26
420.21	2392.03
420.42	2617.30
420.62	2598.87
420.83	2383.84
421.04	2412.51
421.24	2488.28
421.45	2453.47
421.65	2465.75
421.86	2443.23
422.07	2529.24
422.27	2519.00
422.48	2449.37
422.69	2387.93
422.89	2533.34
423.10	2478.04
423.30	2383.84
423.51	2490.33
423.72	2535.39
423.92	2539.48
424.13	2316.25
424.33	2457.56
424.54	2486.23
424.75	2387.93
424.95	2756.57
425.16	2490.33
425.36	2398.17
425.57	2588.63
425.78	2547.67
425.98	2531.29
426.19	2447.32
426.39	2416.60
426.60	2514.91
426.81	2539.48
427.01	2467.80
427.22	2367.45
427.42	2332.64
427.63	2367.45
427.83	2562.01
428.04	2648.02
428.25	2562.01
428.45	2598.87
428.66	2547.67
428.86	2523.10
429.07	2482.14
429.28	2449.37
429.48	2465.75
429.69	2443.23
429.89	2516.95
430.10	2330.59
430.30	2637.78
430.51	2596.82
430.71	2324.44
430.92	2435.03
431.13	2459.61
431.33	2676.70
431.54	2457.56
431.74	2588.63
431.95	2744.28
432.15	2400.22
432.36	2383.84
432.56	2549.72
432.77	2727.89
432.98	2707.41
433.18	2482.14
433.39	2410.46
433.59	2443.23
433.80	2701.27
434.00	2582.49
434.21	2396.12
434.41	2357.21
434.62	2832.34
434.82	2355.16
435.03	2297.82
435.23	2527.19
435.44	2344.92
435.64	2428.89
435.85	2467.80
436.06	2570.20
436.26	2555.86
436.47	2445.27
436.67	2369.50
436.88	2459.61
437.08	2654.17
437.29	2586.58
437.49	2539.48
437.70	2666.46
437.90	2424.80
438.11	2695.13
438.31	2531.29
438.52	2721.75
438.72	2715.61
438.93	2844.63
439.13	2488.28
439.34	2615.26
439.54	2488.28
439.75	2680.79
439.95	2519.00
440.16	2420.70
440.36	2492.38
440.57	2465.75
440.77	2492.38
440.98	2519.00
441.18	2506.71
441.39	2404.32
441.59	2365.40
441.80	2742.23
442.00	2424.80
442.21	2570.20
442.41	2301.92
442.62	2656.22
442.82	2367.45
443.02	2484.19
443.23	2502.62
443.43	2463.71
443.64	2664.41
443.84	2379.74
444.05	2555.86
444.25	2562.01
444.46	2412.51
444.66	2463.71
444.87	2654.17
445.07	2267.10
445.28	2461.66
445.48	2594.78
445.69	2525.15
445.89	2717.65
446.09	2426.84
446.30	2815.96
446.50	2994.13
446.71	4583.35
446.91	5713.83
447.12	6479.77
447.32	6956.95
447.53	6610.84
447.73	5400.49
447.93	4843.45
448.14	4511.68
448.34	4370.37
448.55	3835.85
448.75	3819.46
448.96	3577.80
449.16	3252.17
449.36	3080.14
449.57	2758.61
449.77	2568.15
449.98	2420.70
450.18	2637.78
450.39	2469.85
450.59	2590.68
450.79	2445.27
451.00	2443.23
451.20	2531.29
451.41	2469.85
451.61	2633.69
451.81	2506.71
452.02	2416.60
452.22	2478.04
452.43	2461.66
452.63	2408.41
