SpectraSuite Data File
++++++++++++++++++++++++++++++++++++
Date: Thu May 05 14:41:58 CEST 2016
User: root
Dark Spectrum Present: No
Reference Spectrum Present: No
Number of Sampled Component Spectra: 1
Spectrometers: USB4C02835
Integration Time (usec): 100000 (USB4C02835)
Spectra Averaged: 1 (USB4C02835)
Boxcar Smoothing: 0 (USB4C02835)
Correct for Electrical Dark: No (USB4C02835)
Strobe/Lamp Enabled: No (USB4C02835)
Correct for Detector Non-linearity: No (USB4C02835)
Correct for Stray Light: No (USB4C02835)
Number of Pixels in Processed Spectrum: 3648
>>>>>Begin Processed Spectral Data<<<<<
177.47	1927.14
177.69	1927.14
177.91	1927.14
178.13	1867.75
178.36	1898.47
178.58	2310.11
178.80	2537.43
179.02	2297.82
179.24	2394.08
179.46	2301.92
179.68	2490.33
179.90	2430.94
180.13	2449.37
180.35	2238.43
180.57	2308.06
180.79	2594.78
181.01	2500.57
181.23	2424.80
181.45	2465.75
181.67	2555.86
181.90	2559.96
182.12	2248.67
182.34	2238.43
182.56	2588.63
182.78	2502.62
183.00	2308.06
183.22	2349.02
183.44	2328.54
183.66	2801.62
183.89	2463.71
184.11	2387.93
184.33	2490.33
184.55	2650.07
184.77	2334.68
184.99	2365.40
185.21	2439.13
185.43	2801.62
185.65	2275.29
185.87	2316.25
186.10	2754.52
186.32	2772.95
186.54	2420.70
186.76	2387.93
186.98	2674.65
187.20	2432.99
187.42	2408.41
187.64	2404.32
187.86	2619.35
188.08	2623.45
188.30	2306.01
188.52	2424.80
188.75	2586.58
188.97	2625.50
189.19	2265.05
189.41	2297.82
189.63	2498.52
189.85	2349.02
190.07	2207.71
190.29	2234.33
190.51	2594.78
190.73	2338.78
190.95	2512.86
191.17	2424.80
191.39	2242.53
191.61	2443.23
191.84	2349.02
192.06	2435.03
192.28	2355.16
192.50	2822.10
192.72	2346.97
192.94	2435.03
193.16	2621.40
193.38	2455.51
193.60	2287.58
193.82	2330.59
194.04	2627.54
194.26	2504.67
194.48	2357.21
194.70	2340.83
194.92	2365.40
195.14	2574.30
195.36	2269.15
195.58	2375.64
195.80	2514.91
196.02	2351.07
196.24	2338.78
196.46	2387.93
196.69	2459.61
196.91	2801.62
197.13	2430.94
197.35	2297.82
197.57	2674.65
197.79	2570.20
198.01	2396.12
198.23	2445.27
198.45	2475.99
198.67	2293.72
198.89	2301.92
199.11	2351.07
199.33	2449.37
199.55	2303.96
199.77	2363.36
199.99	2381.79
200.21	2473.95
200.43	2559.96
200.65	2293.72
200.87	2093.02
201.09	2510.81
201.31	2459.61
201.53	2539.48
201.75	2371.55
201.97	2482.14
202.19	2555.86
202.41	2523.10
202.63	2543.58
202.85	2617.30
203.07	2527.19
203.29	2371.55
203.51	2207.71
203.73	2389.98
203.95	2803.67
204.17	2338.78
204.39	2500.57
204.61	2414.56
204.83	2416.60
205.05	2402.27
205.27	2355.16
205.49	2818.00
205.71	2465.75
205.93	2248.67
206.15	2303.96
206.37	2506.71
206.59	2480.09
206.81	2199.52
207.03	2283.49
207.25	2367.45
207.47	2539.48
207.69	2367.45
207.91	2562.01
208.13	2643.93
208.34	2361.31
208.56	2285.53
208.78	2322.40
209.00	2484.19
209.22	2439.13
209.44	2365.40
209.66	2312.16
209.88	2490.33
210.10	2488.28
210.32	2308.06
210.54	2451.42
210.76	2498.52
210.98	2645.98
211.20	2224.09
211.42	2453.47
211.64	2613.21
211.86	2545.63
212.08	2414.56
212.30	2412.51
212.52	2412.51
212.74	2523.10
212.96	2367.45
213.17	2441.18
213.39	2605.02
213.61	2674.65
213.83	2252.77
214.05	2320.35
214.27	2643.93
214.49	2367.45
214.71	2312.16
214.93	2514.91
215.15	2490.33
215.37	2551.77
215.59	2275.29
215.81	2381.79
216.03	2594.78
216.24	2498.52
216.46	2332.64
216.68	2424.80
216.90	2514.91
217.12	2519.00
217.34	2297.82
217.56	2449.37
217.78	2693.08
218.00	2539.48
218.22	2404.32
218.44	2379.74
218.66	2478.04
218.87	2744.28
219.09	2308.06
219.31	2371.55
219.53	2627.54
219.75	2439.13
219.97	2330.59
220.19	2414.56
220.41	2422.75
220.63	2658.26
220.85	2303.96
221.06	2383.84
221.28	2576.34
221.50	2559.96
221.72	2297.82
221.94	2334.68
222.16	2533.34
222.38	2551.77
222.60	2320.35
222.82	2373.60
223.03	2580.44
223.25	2396.12
223.47	2424.80
223.69	2512.86
223.91	2549.72
224.13	2564.06
224.35	2295.77
224.57	2516.95
224.78	2588.63
225.00	2291.68
225.22	2359.26
225.44	2236.38
225.66	2594.78
225.88	2387.93
226.10	2416.60
226.32	2392.03
226.53	2572.25
226.75	2453.47
226.97	2367.45
227.19	2291.68
227.41	2357.21
227.63	2396.12
227.85	2234.33
228.06	2371.55
228.28	2584.54
228.50	2615.26
228.72	2213.85
228.94	2310.11
229.16	2199.52
229.37	2363.36
229.59	2234.33
229.81	2523.10
230.03	2383.84
230.25	2312.16
230.47	2283.49
230.69	2318.30
230.90	2584.54
231.12	2404.32
231.34	2490.33
231.56	2445.27
231.78	2336.73
232.00	2545.63
232.21	2389.98
232.43	2406.36
232.65	2332.64
232.87	2482.14
233.09	2346.97
233.30	2367.45
233.52	2621.40
233.74	2408.41
233.96	2373.60
234.18	2416.60
234.40	2432.99
234.61	2662.36
234.83	2234.33
235.05	2301.92
235.27	2799.57
235.49	2600.92
235.70	2260.96
235.92	2473.95
236.14	2539.48
236.36	2701.27
236.58	2113.50
236.79	2443.23
237.01	2432.99
237.23	2473.95
237.45	2555.86
237.67	2318.30
237.88	2496.47
238.10	2643.93
238.32	2312.16
238.54	2365.40
238.76	2381.79
238.97	2351.07
239.19	2277.34
239.41	2379.74
239.63	2605.02
239.85	2465.75
240.06	2392.03
240.28	2301.92
240.50	2619.35
240.72	2471.90
240.93	2338.78
241.15	2408.41
241.37	2508.76
241.59	2672.60
241.81	2342.88
242.02	2355.16
242.24	2437.08
242.46	2662.36
242.68	2244.57
242.89	2334.68
243.11	2547.67
243.33	2414.56
243.55	2324.44
243.76	2349.02
243.98	2400.22
244.20	2455.51
244.42	2334.68
244.64	2432.99
244.85	2328.54
245.07	2357.21
245.29	2326.49
245.51	2408.41
245.72	2525.15
245.94	2648.02
246.16	2379.74
246.38	2392.03
246.59	2404.32
246.81	2396.12
247.03	2334.68
247.24	2234.33
247.46	2445.27
247.68	2424.80
247.90	2297.82
248.11	2375.64
248.33	2555.86
248.55	2555.86
248.77	2432.99
248.98	2484.19
249.20	2686.94
249.42	2478.04
249.64	2498.52
249.85	2355.16
250.07	2469.85
250.29	2645.98
250.50	2408.41
250.72	2283.49
250.94	2475.99
251.16	2826.20
251.37	2359.26
251.59	2416.60
251.81	2547.67
252.02	2686.94
252.24	2334.68
252.46	2482.14
252.68	2412.51
252.89	2412.51
253.11	2174.94
253.33	2525.15
253.54	2738.13
253.76	2332.64
253.98	2301.92
254.20	2297.82
254.41	2349.02
254.63	2424.80
254.85	2242.53
255.06	2369.50
255.28	2506.71
255.50	2467.80
255.71	2322.40
255.93	2234.33
256.15	2445.27
256.36	2533.34
256.58	2293.72
256.80	2283.49
257.02	2482.14
257.23	2445.27
257.45	2441.18
257.67	2379.74
257.88	2416.60
258.10	2545.63
258.32	2332.64
258.53	2412.51
258.75	2660.31
258.97	2359.26
259.18	2287.58
259.40	2426.84
259.62	2736.09
259.83	2654.17
260.05	2392.03
260.27	2932.69
260.48	2592.73
260.70	2363.36
260.92	2332.64
261.13	2373.60
261.35	2574.30
261.57	2478.04
261.78	2226.14
262.00	2375.64
262.22	2631.64
262.43	2392.03
262.65	2353.12
262.86	2297.82
263.08	2760.66
263.30	2576.34
263.51	2228.19
263.73	2285.53
263.95	2717.65
264.16	2373.60
264.38	2277.34
264.60	2367.45
264.81	2428.89
265.03	2549.72
265.25	2519.00
265.46	2308.06
265.68	2625.50
265.89	2609.11
266.11	2242.53
266.33	2361.31
266.54	2656.22
266.76	2523.10
266.98	2406.36
267.19	2484.19
267.41	2678.74
267.62	2463.71
267.84	2226.14
268.06	2447.32
268.27	2541.53
268.49	2658.26
268.70	2457.56
268.92	2355.16
269.14	2430.94
269.35	2359.26
269.57	2381.79
269.79	2414.56
270.00	2375.64
270.22	2641.88
270.43	2293.72
270.65	2222.05
270.87	2514.91
271.08	2553.82
271.30	2432.99
271.51	2404.32
271.73	2492.38
271.95	2605.02
272.16	2357.21
272.38	2498.52
272.59	2351.07
272.81	2568.15
273.02	2349.02
273.24	2392.03
273.46	2670.55
273.67	2293.72
273.89	2340.83
274.10	2342.88
274.32	2586.58
274.54	2537.43
274.75	2439.13
274.97	2428.89
275.18	2576.34
275.40	2611.16
275.61	2351.07
275.83	2455.51
276.05	2402.27
276.26	2449.37
276.48	2533.34
276.69	2383.84
276.91	2412.51
277.12	2562.01
277.34	2469.85
277.55	2519.00
277.77	2504.67
277.99	2473.95
278.20	2367.45
278.42	2318.30
278.63	2387.93
278.85	2439.13
279.06	2326.49
279.28	2549.72
279.49	2564.06
279.71	2572.25
279.93	2463.71
280.14	2457.56
280.36	2367.45
280.57	2545.63
280.79	2412.51
281.00	2301.92
281.22	2402.27
281.43	2564.06
281.65	2193.37
281.86	2353.12
282.08	2461.66
282.29	2738.13
282.51	2277.34
282.73	2308.06
282.94	2353.12
283.16	2658.26
283.37	2559.96
283.59	2412.51
283.80	2523.10
284.02	2519.00
284.23	2482.14
284.45	2435.03
284.66	2408.41
284.88	2430.94
285.09	2377.69
285.31	2445.27
285.52	2584.54
285.74	2252.77
285.95	2574.30
286.17	2385.88
286.38	2637.78
286.60	2394.08
286.81	2406.36
287.03	2357.21
287.24	2455.51
287.46	2555.86
287.67	2426.84
287.89	2594.78
288.10	2422.75
288.32	2531.29
288.53	2613.21
288.75	2367.45
288.96	2543.58
289.18	2351.07
289.39	2357.21
289.61	2430.94
289.82	2795.48
290.04	2678.74
290.25	2260.96
290.47	2400.22
290.68	2414.56
290.90	2637.78
291.11	2285.53
291.33	2506.71
291.54	2359.26
291.76	2400.22
291.97	2465.75
292.18	2447.32
292.40	2400.22
292.61	2408.41
292.83	2654.17
293.04	2465.75
293.26	2539.48
293.47	2545.63
293.69	2277.34
293.90	2371.55
294.12	2627.54
294.33	2486.23
294.55	2424.80
294.76	2519.00
294.97	2637.78
295.19	2736.09
295.40	2457.56
295.62	2455.51
295.83	2596.82
296.05	2359.26
296.26	2611.16
296.48	2428.89
296.69	2488.28
296.90	2383.84
297.12	2475.99
297.33	2516.95
297.55	2469.85
297.76	2637.78
297.98	2521.05
298.19	2516.95
298.41	2510.81
298.62	2355.16
298.83	2559.96
299.05	2416.60
299.26	2469.85
299.48	2426.84
299.69	2512.86
299.90	2500.57
300.12	2394.08
300.33	2547.67
300.55	2490.33
300.76	2437.08
300.98	2342.88
301.19	2531.29
301.40	2375.64
301.62	2435.03
301.83	2418.65
302.05	2461.66
302.26	2375.64
302.47	2420.70
302.69	2349.02
302.90	2428.89
303.12	2236.38
303.33	2537.43
303.54	2629.59
303.76	2363.36
303.97	2369.50
304.19	2590.68
304.40	2408.41
304.61	2574.30
304.83	2658.26
305.04	2562.01
305.26	2502.62
305.47	2439.13
305.68	2480.09
305.90	2326.49
306.11	2674.65
306.33	2447.32
306.54	2430.94
306.75	2408.41
306.97	2310.11
307.18	2406.36
307.39	2408.41
307.61	2510.81
307.82	2475.99
308.04	2539.48
308.25	2308.06
308.46	2486.23
308.68	2531.29
308.89	2432.99
309.10	2531.29
309.32	2463.71
309.53	2453.47
309.74	2533.34
309.96	2355.16
310.17	2549.72
310.39	2357.21
310.60	2586.58
310.81	2420.70
311.03	2330.59
311.24	2521.05
311.45	2537.43
311.67	2639.83
311.88	2496.47
312.09	2478.04
312.31	2381.79
312.52	2357.21
312.73	2418.65
312.95	2428.89
313.16	2367.45
313.37	2631.64
313.59	2455.51
313.80	2539.48
314.01	2678.74
314.23	2441.18
314.44	2381.79
314.65	2332.64
314.87	2424.80
315.08	2404.32
315.29	2359.26
315.51	2416.60
315.72	2344.92
315.93	2537.43
316.15	2461.66
316.36	2416.60
316.57	2480.09
316.79	2455.51
317.00	2416.60
317.21	2539.48
317.43	2371.55
317.64	2441.18
317.85	2379.74
318.07	2297.82
318.28	2506.71
318.49	2660.31
318.70	2686.94
318.92	2600.92
319.13	2584.54
319.34	2639.83
319.56	2473.95
319.77	2588.63
319.98	2619.35
320.20	2645.98
320.41	2547.67
320.62	2602.97
320.83	2406.36
321.05	2668.50
321.26	2463.71
321.47	2488.28
321.69	2572.25
321.90	2285.53
322.11	2430.94
322.32	2490.33
322.54	2731.99
322.75	2340.83
322.96	2858.96
323.18	2334.68
323.39	2332.64
323.60	2416.60
323.81	2490.33
324.03	2361.31
324.24	2453.47
324.45	2445.27
324.66	2379.74
324.88	2559.96
325.09	2652.12
325.30	2359.26
325.52	2377.69
325.73	2615.26
325.94	2400.22
326.15	2306.01
326.37	2291.68
326.58	2527.19
326.79	2670.55
327.00	2414.56
327.22	2416.60
327.43	2414.56
327.64	2379.74
327.85	2512.86
328.07	2445.27
328.28	2719.70
328.49	2404.32
328.70	2457.56
328.92	2414.56
329.13	2504.67
329.34	2562.01
329.55	2619.35
329.76	2496.47
329.98	2441.18
330.19	2617.30
330.40	2449.37
330.61	2424.80
330.83	2549.72
331.04	2394.08
331.25	2435.03
331.46	2373.60
331.68	2398.17
331.89	2586.58
332.10	2424.80
332.31	2215.90
332.52	2455.51
332.74	2584.54
332.95	2265.05
333.16	2396.12
333.37	2645.98
333.58	2480.09
333.80	2441.18
334.01	2213.85
334.22	2480.09
334.43	2486.23
334.64	2381.79
334.86	2312.16
335.07	2334.68
335.28	2662.36
335.49	2297.82
335.70	2457.56
335.92	2736.09
336.13	2824.15
336.34	2435.03
336.55	2406.36
336.76	2570.20
336.98	2269.15
337.19	2412.51
337.40	2594.78
337.61	2760.66
337.82	2408.41
338.04	2473.95
338.25	2260.96
338.46	2482.14
338.67	2471.90
338.88	2342.88
339.09	2367.45
339.31	2439.13
339.52	2387.93
339.73	2277.34
339.94	2422.75
340.15	2586.58
340.36	2389.98
340.58	2473.95
340.79	2406.36
341.00	2531.29
341.21	2422.75
341.42	2551.77
341.63	2389.98
341.85	2617.30
342.06	2512.86
342.27	2377.69
342.48	2564.06
342.69	2316.25
342.90	2506.71
343.12	2539.48
343.33	2447.32
343.54	2611.16
343.75	2578.39
343.96	2523.10
344.17	2346.97
344.38	2453.47
344.60	2367.45
344.81	2367.45
345.02	2422.75
345.23	2625.50
345.44	2789.33
345.65	2455.51
345.86	2414.56
346.07	2490.33
346.29	2373.60
346.50	2500.57
346.71	2498.52
346.92	2707.41
347.13	2801.62
347.34	2392.03
347.55	2346.97
347.76	2453.47
347.98	2244.57
348.19	2445.27
348.40	2582.49
348.61	2465.75
348.82	2637.78
349.03	2447.32
349.24	2285.53
349.45	2699.22
349.66	2256.86
349.88	2346.97
350.09	2318.30
350.30	2686.94
350.51	2539.48
350.72	2521.05
350.93	2459.61
351.14	2445.27
351.35	2506.71
351.56	2400.22
351.77	2437.08
351.99	2578.39
352.20	2705.37
352.41	2568.15
352.62	2232.29
352.83	2467.80
353.04	2473.95
353.25	2453.47
353.46	2480.09
353.67	2621.40
353.88	2209.76
354.09	2416.60
354.30	2432.99
354.52	2543.58
354.73	2465.75
354.94	2334.68
355.15	2473.95
355.36	2736.09
355.57	2494.43
355.78	2396.12
355.99	2369.50
356.20	2463.71
356.41	2543.58
356.62	2453.47
356.83	2435.03
357.04	2678.74
357.25	2275.29
357.46	2383.84
357.68	2326.49
357.89	2349.02
358.10	2484.19
358.31	2420.70
358.52	2389.98
358.73	2324.44
358.94	2277.34
359.15	2369.50
359.36	2465.75
359.57	2514.91
359.78	2510.81
359.99	2455.51
360.20	2310.11
360.41	2469.85
360.62	2551.77
360.83	2447.32
361.04	2447.32
361.25	2531.29
361.46	2637.78
361.67	2498.52
361.88	2521.05
362.09	2686.94
362.30	2531.29
362.51	2453.47
362.72	2480.09
362.93	2674.65
363.14	2537.43
363.35	2406.36
363.56	2367.45
363.78	2580.44
363.99	2656.22
364.20	2367.45
364.41	2457.56
364.62	2754.52
364.83	2535.39
365.04	2449.37
365.25	2469.85
365.46	2756.57
365.67	2414.56
365.88	2486.23
366.09	2406.36
366.30	2318.30
366.51	2447.32
366.72	2318.30
366.93	2453.47
367.14	2453.47
367.35	2609.11
367.56	2389.98
367.77	2580.44
367.98	2451.42
368.18	2525.15
368.39	2449.37
368.60	2318.30
368.81	2539.48
369.02	2451.42
369.23	2389.98
369.44	2299.87
369.65	2422.75
369.86	2523.10
370.07	2531.29
370.28	2318.30
370.49	2523.10
370.70	2461.66
370.91	2281.44
371.12	2267.10
371.33	2578.39
371.54	2416.60
371.75	2588.63
371.96	2246.62
372.17	2482.14
372.38	2457.56
372.59	2543.58
372.80	2402.27
373.01	2412.51
373.22	2478.04
373.43	2492.38
373.64	2297.82
373.85	2611.16
374.06	2725.85
374.26	2551.77
374.47	2463.71
374.68	2633.69
374.89	2533.34
375.10	2316.25
375.31	2498.52
375.52	2465.75
375.73	2553.82
375.94	2326.49
376.15	2519.00
376.36	2453.47
376.57	2389.98
376.78	2430.94
376.99	2506.71
377.20	2676.70
377.40	2408.41
377.61	2699.22
377.82	2346.97
378.03	2654.17
378.24	2568.15
378.45	2480.09
378.66	2357.21
378.87	2318.30
379.08	2377.69
379.29	2424.80
379.50	2584.54
379.71	2467.80
379.91	2541.53
380.12	2447.32
380.33	2416.60
380.54	2490.33
380.75	2482.14
380.96	2496.47
381.17	2541.53
381.38	2414.56
381.59	2478.04
381.80	2381.79
382.00	2596.82
382.21	2588.63
382.42	2719.70
382.63	2736.09
382.84	2504.67
383.05	2576.34
383.26	2629.59
383.47	2459.61
383.68	2492.38
383.88	2541.53
384.09	2535.39
384.30	2691.03
384.51	2492.38
384.72	2445.27
384.93	2351.07
385.14	2430.94
385.35	2525.15
385.55	2314.20
385.76	2625.50
385.97	2422.75
386.18	2267.10
386.39	2371.55
386.60	2420.70
386.81	2363.36
387.02	2308.06
387.22	2363.36
387.43	2588.63
387.64	2547.67
387.85	2670.55
388.06	2613.21
388.27	4059.07
388.48	8206.21
388.68	12203.85
388.89	14528.29
389.10	15998.73
389.31	14751.52
389.52	11718.48
389.73	9992.04
389.93	9035.64
390.14	8411.01
390.35	7399.31
390.56	6526.88
390.77	5531.56
390.98	4265.92
391.18	3506.12
391.39	3063.76
391.60	2643.93
391.81	2576.34
392.02	2475.99
392.23	2762.71
392.43	2461.66
392.64	2584.54
392.85	2490.33
393.06	2652.12
393.27	2605.02
393.47	2406.36
393.68	2475.99
393.89	2437.08
394.10	2619.35
394.31	2375.64
394.52	2416.60
394.72	2398.17
394.93	2695.13
395.14	2396.12
395.35	2486.23
395.56	2387.93
395.76	2486.23
395.97	2449.37
396.18	2594.78
396.39	2611.16
396.60	2899.92
396.80	2748.37
397.01	2621.40
397.22	2711.51
397.43	2652.12
397.64	2449.37
397.84	2547.67
398.05	2729.94
398.26	2439.13
398.47	2572.25
398.67	2629.59
398.88	2459.61
399.09	2580.44
399.30	2408.41
399.51	2506.71
399.71	2441.18
399.92	2396.12
400.13	2412.51
400.34	2449.37
400.54	2465.75
400.75	2623.45
400.96	2400.22
401.17	2691.03
401.37	2559.96
401.58	2457.56
401.79	2414.56
402.00	2564.06
402.21	2807.77
402.41	2691.03
402.62	2834.39
402.83	2998.23
403.04	2856.92
403.24	3145.68
403.45	2586.58
403.66	2731.99
403.87	2666.46
404.07	2772.95
404.28	2744.28
404.49	2777.05
404.70	2510.81
404.90	2629.59
405.11	2547.67
405.32	2564.06
405.52	2377.69
405.73	2441.18
405.94	2389.98
406.15	2428.89
406.35	2598.87
406.56	2576.34
406.77	2457.56
406.98	2459.61
407.18	2332.64
407.39	2697.17
407.60	2463.71
407.80	2502.62
408.01	2355.16
408.22	2555.86
408.43	2396.12
408.63	2529.24
408.84	2621.40
409.05	2598.87
409.25	2346.97
409.46	2465.75
409.67	2420.70
409.88	2432.99
410.08	2539.48
410.29	2387.93
410.50	2506.71
410.70	2568.15
410.91	2342.88
411.12	2430.94
411.32	2463.71
411.53	2359.26
411.74	2551.77
411.95	2564.06
412.15	2531.29
412.36	2594.78
412.57	2527.19
412.77	2701.27
412.98	2531.29
413.19	2461.66
413.39	2445.27
413.60	2437.08
413.81	2641.88
414.01	2383.84
414.22	2443.23
414.43	2631.64
414.63	2457.56
414.84	2660.31
415.05	2471.90
415.25	2338.78
415.46	2621.40
415.67	2473.95
415.87	2457.56
416.08	2416.60
416.29	2473.95
416.49	2537.43
416.70	2359.26
416.91	2398.17
417.11	2449.37
417.32	2602.97
417.53	2672.60
417.73	2502.62
417.94	2484.19
418.15	2494.43
418.35	2461.66
418.56	2420.70
418.77	2748.37
418.97	2523.10
419.18	2449.37
419.38	2193.37
419.59	2488.28
419.80	2740.18
420.00	2346.97
420.21	2459.61
420.42	2641.88
420.62	2652.12
420.83	2320.35
421.04	2484.19
421.24	2406.36
421.45	2588.63
421.65	2596.82
421.86	2414.56
422.07	2570.20
422.27	2510.81
422.48	2430.94
422.69	2258.91
422.89	2519.00
423.10	2387.93
423.30	2351.07
423.51	2475.99
423.72	2580.44
423.92	2570.20
424.13	2273.25
424.33	2473.95
424.54	2574.30
424.75	2480.09
424.95	2609.11
425.16	2490.33
425.36	2482.14
425.57	2572.25
425.78	2508.76
425.98	2635.74
426.19	2457.56
426.39	2373.60
426.60	2410.46
426.81	2643.93
427.01	2469.85
427.22	2326.49
427.42	2289.63
427.63	2326.49
427.83	2617.30
428.04	2588.63
428.25	2555.86
428.45	2551.77
428.66	2654.17
428.86	2408.41
429.07	2424.80
429.28	2437.08
429.48	2484.19
429.69	2465.75
429.89	2543.58
430.10	2353.12
430.30	2490.33
430.51	2611.16
430.71	2310.11
430.92	2453.47
431.13	2367.45
431.33	2605.02
431.54	2525.15
431.74	2574.30
431.95	2674.65
432.15	2355.16
432.36	2449.37
432.56	2506.71
432.77	2717.65
432.98	2662.36
433.18	2490.33
433.39	2383.84
433.59	2418.65
433.80	2727.89
434.00	2639.83
434.21	2371.55
434.41	2498.52
434.62	2701.27
434.82	2351.07
435.03	2316.25
435.23	2570.20
435.44	2230.24
435.64	2512.86
435.85	2490.33
436.06	2564.06
436.26	2580.44
436.47	2437.08
436.67	2383.84
436.88	2435.03
437.08	2602.97
437.29	2629.59
437.49	2584.54
437.70	2631.64
437.90	2467.80
438.11	2670.55
438.31	2488.28
438.52	2709.46
438.72	2682.84
438.93	2785.24
439.13	2605.02
439.34	2738.13
439.54	2537.43
439.75	2629.59
439.95	2486.23
440.16	2410.46
440.36	2498.52
440.57	2459.61
440.77	2516.95
440.98	2525.15
441.18	2566.10
441.39	2383.84
441.59	2326.49
441.80	2791.38
442.00	2506.71
442.21	2568.15
442.41	2293.72
442.62	2605.02
442.82	2361.31
443.02	2494.43
443.23	2439.13
443.43	2521.05
443.64	2686.94
443.84	2424.80
444.05	2609.11
444.25	2482.14
444.46	2510.81
444.66	2473.95
444.87	2652.12
445.07	2338.78
445.28	2525.15
445.48	2486.23
445.69	2594.78
445.89	2830.29
446.09	2500.57
446.30	2752.47
446.50	2920.40
446.71	4597.69
446.91	5818.28
447.12	6758.30
447.32	7131.03
447.53	6717.34
447.73	5486.51
447.93	4808.63
448.14	4478.91
448.34	4454.33
448.55	3850.18
448.75	3841.99
448.96	3669.96
449.16	3235.79
449.36	3012.56
449.57	2752.47
449.77	2572.25
449.98	2461.66
450.18	2547.67
450.39	2494.43
450.59	2490.33
450.79	2506.71
451.00	2400.22
451.20	2496.47
451.41	2471.90
451.61	2490.33
451.81	2537.43
452.02	2426.84
452.22	2512.86
452.43	2445.27
452.63	2400.22
