SpectraSuite Data File
++++++++++++++++++++++++++++++++++++
Date: Thu May 05 14:41:45 CEST 2016
User: root
Dark Spectrum Present: No
Reference Spectrum Present: No
Number of Sampled Component Spectra: 1
Spectrometers: USB4C02835
Integration Time (usec): 100000 (USB4C02835)
Spectra Averaged: 1 (USB4C02835)
Boxcar Smoothing: 0 (USB4C02835)
Correct for Electrical Dark: No (USB4C02835)
Strobe/Lamp Enabled: No (USB4C02835)
Correct for Detector Non-linearity: No (USB4C02835)
Correct for Stray Light: No (USB4C02835)
Number of Pixels in Processed Spectrum: 3648
>>>>>Begin Processed Spectral Data<<<<<
177.47	1931.23
177.69	1931.23
177.91	1931.23
178.13	1978.34
178.36	1925.09
178.58	2371.55
178.80	2461.66
179.02	2303.96
179.24	2392.03
179.46	2260.96
179.68	2396.12
179.90	2465.75
180.13	2473.95
180.35	2269.15
180.57	2408.41
180.79	2627.54
181.01	2488.28
181.23	2338.78
181.45	2533.34
181.67	2498.52
181.90	2568.15
182.12	2398.17
182.34	2193.37
182.56	2502.62
182.78	2545.63
183.00	2267.10
183.22	2398.17
183.44	2269.15
183.66	2832.34
183.89	2402.27
184.11	2312.16
184.33	2537.43
184.55	2605.02
184.77	2295.77
184.99	2420.70
185.21	2387.93
185.43	2762.71
185.65	2306.01
185.87	2289.63
186.10	2678.74
186.32	2805.72
186.54	2445.27
186.76	2506.71
186.98	2635.74
187.20	2455.51
187.42	2457.56
187.64	2365.40
187.86	2478.04
188.08	2613.21
188.30	2273.25
188.52	2387.93
188.75	2602.97
188.97	2564.06
189.19	2355.16
189.41	2357.21
189.63	2547.67
189.85	2346.97
190.07	2234.33
190.29	2205.66
190.51	2537.43
190.73	2326.49
190.95	2523.10
191.17	2412.51
191.39	2271.20
191.61	2443.23
191.84	2324.44
192.06	2447.32
192.28	2287.58
192.50	2801.62
192.72	2471.90
192.94	2422.75
193.16	2629.59
193.38	2494.43
193.60	2295.77
193.82	2447.32
194.04	2580.44
194.26	2525.15
194.48	2355.16
194.70	2355.16
194.92	2396.12
195.14	2543.58
195.36	2271.20
195.58	2463.71
195.80	2496.47
196.02	2527.19
196.24	2324.44
196.46	2375.64
196.69	2416.60
196.91	2775.00
197.13	2383.84
197.35	2408.41
197.57	2633.69
197.79	2547.67
198.01	2369.50
198.23	2398.17
198.45	2559.96
198.67	2398.17
198.89	2310.11
199.11	2439.13
199.33	2478.04
199.55	2252.77
199.77	2310.11
199.99	2383.84
200.21	2432.99
200.43	2568.15
200.65	2303.96
200.87	2224.09
201.09	2506.71
201.31	2488.28
201.53	2389.98
201.75	2463.71
201.97	2537.43
202.19	2392.03
202.41	2439.13
202.63	2576.34
202.85	2570.20
203.07	2471.90
203.29	2322.40
203.51	2293.72
203.73	2351.07
203.95	2811.86
204.17	2342.88
204.39	2457.56
204.61	2416.60
204.83	2416.60
205.05	2449.37
205.27	2389.98
205.49	2691.03
205.71	2482.14
205.93	2215.90
206.15	2256.86
206.37	2498.52
206.59	2392.03
206.81	2265.05
207.03	2277.34
207.25	2404.32
207.47	2531.29
207.69	2332.64
207.91	2559.96
208.13	2695.13
208.34	2461.66
208.56	2263.01
208.78	2328.54
209.00	2437.08
209.22	2441.18
209.44	2375.64
209.66	2344.92
209.88	2514.91
210.10	2482.14
210.32	2324.44
210.54	2392.03
210.76	2463.71
210.98	2527.19
211.20	2179.04
211.42	2449.37
211.64	2678.74
211.86	2627.54
212.08	2400.22
212.30	2340.83
212.52	2371.55
212.74	2457.56
212.96	2342.88
213.17	2428.89
213.39	2490.33
213.61	2756.57
213.83	2367.45
214.05	2435.03
214.27	2607.06
214.49	2308.06
214.71	2351.07
214.93	2455.51
215.15	2473.95
215.37	2631.64
215.59	2289.63
215.81	2432.99
216.03	2625.50
216.24	2406.36
216.46	2326.49
216.68	2445.27
216.90	2543.58
217.12	2555.86
217.34	2418.65
217.56	2416.60
217.78	2650.07
218.00	2529.24
218.22	2435.03
218.44	2418.65
218.66	2553.82
218.87	2697.17
219.09	2293.72
219.31	2379.74
219.53	2543.58
219.75	2408.41
219.97	2351.07
220.19	2420.70
220.41	2504.67
220.63	2650.07
220.85	2404.32
221.06	2326.49
221.28	2512.86
221.50	2549.72
221.72	2379.74
221.94	2330.59
222.16	2494.43
222.38	2605.02
222.60	2316.25
222.82	2389.98
223.03	2645.98
223.25	2379.74
223.47	2324.44
223.69	2504.67
223.91	2572.25
224.13	2441.18
224.35	2279.39
224.57	2453.47
224.78	2650.07
225.00	2256.86
225.22	2398.17
225.44	2306.01
225.66	2570.20
225.88	2432.99
226.10	2377.69
226.32	2408.41
226.53	2658.26
226.75	2449.37
226.97	2336.73
227.19	2330.59
227.41	2379.74
227.63	2408.41
227.85	2156.51
228.06	2420.70
228.28	2447.32
228.50	2598.87
228.72	2293.72
228.94	2394.08
229.16	2230.24
229.37	2316.25
229.59	2226.14
229.81	2496.47
230.03	2514.91
230.25	2332.64
230.47	2240.48
230.69	2265.05
230.90	2592.73
231.12	2332.64
231.34	2404.32
231.56	2396.12
231.78	2342.88
232.00	2455.51
232.21	2322.40
232.43	2383.84
232.65	2228.19
232.87	2516.95
233.09	2240.48
233.30	2248.67
233.52	2596.82
233.74	2439.13
233.96	2265.05
234.18	2394.08
234.40	2461.66
234.61	2695.13
234.83	2246.62
235.05	2232.29
235.27	2783.19
235.49	2613.21
235.70	2273.25
235.92	2459.61
236.14	2492.38
236.36	2760.66
236.58	2263.01
236.79	2428.89
237.01	2469.85
237.23	2500.57
237.45	2598.87
237.67	2324.44
237.88	2596.82
238.10	2666.46
238.32	2277.34
238.54	2306.01
238.76	2447.32
238.97	2469.85
239.19	2301.92
239.41	2408.41
239.63	2725.85
239.85	2406.36
240.06	2359.26
240.28	2375.64
240.50	2684.89
240.72	2492.38
240.93	2248.67
241.15	2410.46
241.37	2480.09
241.59	2568.15
241.81	2324.44
242.02	2383.84
242.24	2500.57
242.46	2549.72
242.68	2166.75
242.89	2346.97
243.11	2541.53
243.33	2439.13
243.55	2412.51
243.76	2363.36
243.98	2383.84
244.20	2447.32
244.42	2310.11
244.64	2340.83
244.85	2377.69
245.07	2445.27
245.29	2375.64
245.51	2420.70
245.72	2531.29
245.94	2639.83
246.16	2379.74
246.38	2424.80
246.59	2457.56
246.81	2432.99
247.03	2295.77
247.24	2170.85
247.46	2428.89
247.68	2529.24
247.90	2318.30
248.11	2289.63
248.33	2590.68
248.55	2490.33
248.77	2414.56
248.98	2420.70
249.20	2660.31
249.42	2471.90
249.64	2367.45
249.85	2299.87
250.07	2349.02
250.29	2514.91
250.50	2404.32
250.72	2258.91
250.94	2539.48
251.16	2799.57
251.37	2383.84
251.59	2441.18
251.81	2523.10
252.02	2639.83
252.24	2340.83
252.46	2443.23
252.68	2385.88
252.89	2428.89
253.11	2187.23
253.33	2443.23
253.54	2654.17
253.76	2326.49
253.98	2310.11
254.20	2389.98
254.41	2357.21
254.63	2492.38
254.85	2258.91
255.06	2463.71
255.28	2529.24
255.50	2422.75
255.71	2310.11
255.93	2248.67
256.15	2424.80
256.36	2605.02
256.58	2316.25
256.80	2355.16
257.02	2504.67
257.23	2432.99
257.45	2400.22
257.67	2369.50
257.88	2318.30
258.10	2553.82
258.32	2349.02
258.53	2490.33
258.75	2670.55
258.97	2467.80
259.18	2334.68
259.40	2355.16
259.62	2658.26
259.83	2613.21
260.05	2351.07
260.27	2875.35
260.48	2586.58
260.70	2316.25
260.92	2269.15
261.13	2402.27
261.35	2529.24
261.57	2582.49
261.78	2359.26
262.00	2310.11
262.22	2506.71
262.43	2379.74
262.65	2394.08
262.86	2416.60
263.08	2701.27
263.30	2492.38
263.51	2138.08
263.73	2314.20
263.95	2605.02
264.16	2439.13
264.38	2326.49
264.60	2346.97
264.81	2449.37
265.03	2570.20
265.25	2562.01
265.46	2381.79
265.68	2711.51
265.89	2557.91
266.11	2256.86
266.33	2326.49
266.54	2695.13
266.76	2629.59
266.98	2379.74
267.19	2463.71
267.41	2598.87
267.62	2432.99
267.84	2244.57
268.06	2473.95
268.27	2490.33
268.49	2596.82
268.70	2453.47
268.92	2314.20
269.14	2363.36
269.35	2230.24
269.57	2420.70
269.79	2461.66
270.00	2428.89
270.22	2709.46
270.43	2238.43
270.65	2199.52
270.87	2471.90
271.08	2586.58
271.30	2439.13
271.51	2269.15
271.73	2605.02
271.95	2623.45
272.16	2314.20
272.38	2459.61
272.59	2482.14
272.81	2551.77
273.02	2367.45
273.24	2394.08
273.46	2594.78
273.67	2367.45
273.89	2211.81
274.10	2318.30
274.32	2572.25
274.54	2623.45
274.75	2402.27
274.97	2361.31
275.18	2541.53
275.40	2609.11
275.61	2363.36
275.83	2496.47
276.05	2371.55
276.26	2490.33
276.48	2398.17
276.69	2353.12
276.91	2371.55
277.12	2697.17
277.34	2512.86
277.55	2457.56
277.77	2514.91
277.99	2547.67
278.20	2377.69
278.42	2303.96
278.63	2437.08
278.85	2414.56
279.06	2301.92
279.28	2555.86
279.49	2580.44
279.71	2594.78
279.93	2387.93
280.14	2473.95
280.36	2461.66
280.57	2615.26
280.79	2498.52
281.00	2369.50
281.22	2340.83
281.43	2629.59
281.65	2193.37
281.86	2342.88
282.08	2586.58
282.29	2750.42
282.51	2328.54
282.73	2303.96
282.94	2283.49
283.16	2549.72
283.37	2564.06
283.59	2439.13
283.80	2531.29
284.02	2461.66
284.23	2453.47
284.45	2435.03
284.66	2414.56
284.88	2394.08
285.09	2465.75
285.31	2541.53
285.52	2568.15
285.74	2351.07
285.95	2574.30
286.17	2523.10
286.38	2543.58
286.60	2387.93
286.81	2365.40
287.03	2435.03
287.24	2455.51
287.46	2557.91
287.67	2424.80
287.89	2668.50
288.10	2535.39
288.32	2478.04
288.53	2645.98
288.75	2416.60
288.96	2568.15
289.18	2400.22
289.39	2359.26
289.61	2504.67
289.82	2719.70
290.04	2764.76
290.25	2285.53
290.47	2400.22
290.68	2504.67
290.90	2580.44
291.11	2291.68
291.33	2543.58
291.54	2387.93
291.76	2410.46
291.97	2461.66
292.18	2486.23
292.40	2494.43
292.61	2369.50
292.83	2629.59
293.04	2541.53
293.26	2527.19
293.47	2408.41
293.69	2346.97
293.90	2379.74
294.12	2594.78
294.33	2475.99
294.55	2461.66
294.76	2555.86
294.97	2654.17
295.19	2691.03
295.40	2392.03
295.62	2428.89
295.83	2506.71
296.05	2394.08
296.26	2615.26
296.48	2379.74
296.69	2414.56
296.90	2486.23
297.12	2506.71
297.33	2545.63
297.55	2463.71
297.76	2600.92
297.98	2482.14
298.19	2480.09
298.41	2523.10
298.62	2428.89
298.83	2582.49
299.05	2516.95
299.26	2402.27
299.48	2396.12
299.69	2553.82
299.90	2400.22
300.12	2441.18
300.33	2621.40
300.55	2490.33
300.76	2471.90
300.98	2367.45
301.19	2555.86
301.40	2445.27
301.62	2455.51
301.83	2514.91
302.05	2512.86
302.26	2322.40
302.47	2471.90
302.69	2336.73
302.90	2553.82
303.12	2129.89
303.33	2512.86
303.54	2785.24
303.76	2404.32
303.97	2424.80
304.19	2586.58
304.40	2349.02
304.61	2566.10
304.83	2611.16
305.04	2527.19
305.26	2521.05
305.47	2514.91
305.68	2377.69
305.90	2228.19
306.11	2586.58
306.33	2463.71
306.54	2326.49
306.75	2420.70
306.97	2285.53
307.18	2398.17
307.39	2363.36
307.61	2490.33
307.82	2488.28
308.04	2555.86
308.25	2326.49
308.46	2514.91
308.68	2445.27
308.89	2506.71
309.10	2473.95
309.32	2414.56
309.53	2463.71
309.74	2551.77
309.96	2449.37
310.17	2596.82
310.39	2404.32
310.60	2559.96
310.81	2371.55
311.03	2326.49
311.24	2637.78
311.45	2441.18
311.67	2570.20
311.88	2461.66
312.09	2449.37
312.31	2375.64
312.52	2369.50
312.73	2435.03
312.95	2342.88
313.16	2377.69
313.37	2559.96
313.59	2566.10
313.80	2516.95
314.01	2682.84
314.23	2402.27
314.44	2375.64
314.65	2326.49
314.87	2389.98
315.08	2392.03
315.29	2396.12
315.51	2396.12
315.72	2301.92
315.93	2555.86
316.15	2406.36
316.36	2459.61
316.57	2428.89
316.79	2488.28
317.00	2340.83
317.21	2547.67
317.43	2412.51
317.64	2406.36
317.85	2308.06
318.07	2355.16
318.28	2521.05
318.49	2600.92
318.70	2686.94
318.92	2627.54
319.13	2625.50
319.34	2672.60
319.56	2564.06
319.77	2672.60
319.98	2652.12
320.20	2568.15
320.41	2564.06
320.62	2549.72
320.83	2424.80
321.05	2609.11
321.26	2506.71
321.47	2492.38
321.69	2656.22
321.90	2312.16
322.11	2357.21
322.32	2574.30
322.54	2729.94
322.75	2418.65
322.96	2875.35
323.18	2351.07
323.39	2201.57
323.60	2359.26
323.81	2480.09
324.03	2381.79
324.24	2478.04
324.45	2498.52
324.66	2416.60
324.88	2645.98
325.09	2635.74
325.30	2377.69
325.52	2377.69
325.73	2496.47
325.94	2310.11
326.15	2203.61
326.37	2318.30
326.58	2596.82
326.79	2576.34
327.00	2488.28
327.22	2402.27
327.43	2480.09
327.64	2430.94
327.85	2543.58
328.07	2379.74
328.28	2805.72
328.49	2383.84
328.70	2461.66
328.92	2365.40
329.13	2510.81
329.34	2537.43
329.55	2598.87
329.76	2486.23
329.98	2535.39
330.19	2559.96
330.40	2521.05
330.61	2498.52
330.83	2645.98
331.04	2349.02
331.25	2510.81
331.46	2373.60
331.68	2392.03
331.89	2586.58
332.10	2381.79
332.31	2326.49
332.52	2455.51
332.74	2654.17
332.95	2289.63
333.16	2344.92
333.37	2578.39
333.58	2408.41
333.80	2504.67
334.01	2248.67
334.22	2416.60
334.43	2449.37
334.64	2334.68
334.86	2344.92
335.07	2430.94
335.28	2678.74
335.49	2373.60
335.70	2506.71
335.92	2627.54
336.13	2777.05
336.34	2512.86
336.55	2478.04
336.76	2498.52
336.98	2265.05
337.19	2379.74
337.40	2629.59
337.61	2781.14
337.82	2408.41
338.04	2584.54
338.25	2260.96
338.46	2443.23
338.67	2426.84
338.88	2308.06
339.09	2351.07
339.31	2432.99
339.52	2314.20
339.73	2340.83
339.94	2459.61
340.15	2539.48
340.36	2430.94
340.58	2449.37
340.79	2346.97
341.00	2564.06
341.21	2353.12
341.42	2519.00
341.63	2402.27
341.85	2588.63
342.06	2482.14
342.27	2318.30
342.48	2473.95
342.69	2351.07
342.90	2535.39
343.12	2596.82
343.33	2387.93
343.54	2586.58
343.75	2703.32
343.96	2463.71
344.17	2379.74
344.38	2465.75
344.60	2441.18
344.81	2355.16
345.02	2351.07
345.23	2615.26
345.44	2865.11
345.65	2445.27
345.86	2484.19
346.07	2578.39
346.29	2400.22
346.50	2506.71
346.71	2545.63
346.92	2676.70
347.13	2715.61
347.34	2420.70
347.55	2414.56
347.76	2590.68
347.98	2299.87
348.19	2432.99
348.40	2602.97
348.61	2473.95
348.82	2639.83
349.03	2439.13
349.24	2400.22
349.45	2641.88
349.66	2240.48
349.88	2447.32
350.09	2308.06
350.30	2584.54
350.51	2627.54
350.72	2506.71
350.93	2441.18
351.14	2392.03
351.35	2539.48
351.56	2457.56
351.77	2465.75
351.99	2559.96
352.20	2621.40
352.41	2547.67
352.62	2193.37
352.83	2441.18
353.04	2426.84
353.25	2406.36
353.46	2531.29
353.67	2684.89
353.88	2228.19
354.09	2430.94
354.30	2490.33
354.52	2564.06
354.73	2461.66
354.94	2402.27
355.15	2478.04
355.36	2758.61
355.57	2400.22
355.78	2365.40
355.99	2389.98
356.20	2510.81
356.41	2578.39
356.62	2545.63
356.83	2383.84
357.04	2695.13
357.25	2248.67
357.46	2437.08
357.68	2306.01
357.89	2258.91
358.10	2473.95
358.31	2449.37
358.52	2428.89
358.73	2320.35
358.94	2301.92
359.15	2387.93
359.36	2529.24
359.57	2482.14
359.78	2445.27
359.99	2592.73
360.20	2402.27
360.41	2482.14
360.62	2562.01
360.83	2457.56
361.04	2514.91
361.25	2412.51
361.46	2654.17
361.67	2547.67
361.88	2475.99
362.09	2574.30
362.30	2449.37
362.51	2355.16
362.72	2404.32
362.93	2578.39
363.14	2559.96
363.35	2502.62
363.56	2326.49
363.78	2654.17
363.99	2588.63
364.20	2422.75
364.41	2514.91
364.62	2715.61
364.83	2572.25
365.04	2437.08
365.25	2351.07
365.46	2721.75
365.67	2349.02
365.88	2457.56
366.09	2351.07
366.30	2416.60
366.51	2492.38
366.72	2422.75
366.93	2432.99
367.14	2547.67
367.35	2686.94
367.56	2398.17
367.77	2576.34
367.98	2457.56
368.18	2500.57
368.39	2508.76
368.60	2330.59
368.81	2498.52
369.02	2494.43
369.23	2412.51
369.44	2254.81
369.65	2416.60
369.86	2516.95
370.07	2531.29
370.28	2404.32
370.49	2582.49
370.70	2516.95
370.91	2369.50
371.12	2330.59
371.33	2645.98
371.54	2457.56
371.75	2580.44
371.96	2201.57
372.17	2480.09
372.38	2445.27
372.59	2545.63
372.80	2410.46
373.01	2428.89
373.22	2502.62
373.43	2459.61
373.64	2301.92
373.85	2666.46
374.06	2760.66
374.26	2539.48
374.47	2525.15
374.68	2613.21
374.89	2523.10
375.10	2420.70
375.31	2502.62
375.52	2490.33
375.73	2568.15
375.94	2310.11
376.15	2547.67
376.36	2387.93
376.57	2404.32
376.78	2375.64
376.99	2480.09
377.20	2645.98
377.40	2531.29
377.61	2641.88
377.82	2371.55
378.03	2654.17
378.24	2547.67
378.45	2400.22
378.66	2496.47
378.87	2293.72
379.08	2355.16
379.29	2338.78
379.50	2559.96
379.71	2482.14
379.91	2549.72
380.12	2363.36
380.33	2351.07
380.54	2461.66
380.75	2426.84
380.96	2455.51
381.17	2508.76
381.38	2480.09
381.59	2529.24
381.80	2506.71
382.00	2707.41
382.21	2478.04
382.42	2633.69
382.63	2738.13
382.84	2465.75
383.05	2586.58
383.26	2637.78
383.47	2521.05
383.68	2494.43
383.88	2639.83
384.09	2447.32
384.30	2670.55
384.51	2521.05
384.72	2414.56
384.93	2277.34
385.14	2519.00
385.35	2582.49
385.55	2363.36
385.76	2682.84
385.97	2406.36
386.18	2324.44
386.39	2371.55
386.60	2332.64
386.81	2412.51
387.02	2320.35
387.22	2349.02
387.43	2559.96
387.64	2527.19
387.85	2625.50
388.06	2609.11
388.27	4059.07
388.48	8433.54
388.68	12164.93
388.89	14577.44
389.10	15879.95
389.31	14845.73
389.52	11892.55
389.73	10143.59
389.93	9260.91
390.14	8312.71
390.35	7630.73
390.56	6715.29
390.77	5406.64
390.98	4202.43
391.18	3407.82
391.39	2914.26
391.60	2529.24
391.81	2645.98
392.02	2445.27
392.23	2846.68
392.43	2539.48
392.64	2555.86
392.85	2488.28
393.06	2752.47
393.27	2557.91
393.47	2357.21
393.68	2414.56
393.89	2480.09
394.10	2586.58
394.31	2357.21
394.52	2334.68
394.72	2310.11
394.93	2662.36
395.14	2455.51
395.35	2475.99
395.56	2400.22
395.76	2408.41
395.97	2342.88
396.18	2523.10
396.39	2584.54
396.60	2977.75
396.80	2719.70
397.01	2654.17
397.22	2559.96
397.43	2711.51
397.64	2445.27
397.84	2582.49
398.05	2713.56
398.26	2551.77
398.47	2506.71
398.67	2645.98
398.88	2506.71
399.09	2549.72
399.30	2426.84
399.51	2574.30
399.71	2402.27
399.92	2527.19
400.13	2471.90
400.34	2484.19
400.54	2416.60
400.75	2662.36
400.96	2463.71
401.17	2703.32
401.37	2570.20
401.58	2432.99
401.79	2443.23
402.00	2574.30
402.21	2940.88
402.41	2709.46
402.62	2824.15
402.83	2975.70
403.04	2875.35
403.24	3104.72
403.45	2594.78
403.66	2805.72
403.87	2703.32
404.07	2777.05
404.28	2777.05
404.49	2688.98
404.70	2611.16
404.90	2572.25
405.11	2408.41
405.32	2566.10
405.52	2392.03
405.73	2383.84
405.94	2351.07
406.15	2441.18
406.35	2537.43
406.56	2572.25
406.77	2469.85
406.98	2533.34
407.18	2449.37
407.39	2609.11
407.60	2437.08
407.80	2441.18
408.01	2471.90
408.22	2543.58
408.43	2404.32
408.63	2488.28
408.84	2514.91
409.05	2668.50
409.25	2394.08
409.46	2389.98
409.67	2455.51
409.88	2367.45
410.08	2508.76
410.29	2365.40
410.50	2602.97
410.70	2594.78
410.91	2283.49
411.12	2484.19
411.32	2494.43
411.53	2453.47
411.74	2523.10
411.95	2605.02
412.15	2580.44
412.36	2584.54
412.57	2586.58
412.77	2504.67
412.98	2465.75
413.19	2400.22
413.39	2523.10
413.60	2492.38
413.81	2629.59
414.01	2488.28
414.22	2531.29
414.43	2574.30
414.63	2432.99
414.84	2658.26
415.05	2453.47
415.25	2332.64
415.46	2572.25
415.67	2408.41
415.87	2506.71
416.08	2461.66
416.29	2463.71
416.49	2613.21
416.70	2414.56
416.91	2410.46
417.11	2447.32
417.32	2654.17
417.53	2500.57
417.73	2555.86
417.94	2441.18
418.15	2490.33
418.35	2531.29
418.56	2457.56
418.77	2824.15
418.97	2504.67
419.18	2486.23
419.38	2209.76
419.59	2502.62
419.80	2676.70
420.00	2381.79
420.21	2375.64
420.42	2639.83
420.62	2498.52
420.83	2392.03
421.04	2480.09
421.24	2510.81
421.45	2504.67
421.65	2465.75
421.86	2371.55
422.07	2576.34
422.27	2543.58
422.48	2473.95
422.69	2318.30
422.89	2529.24
423.10	2449.37
423.30	2359.26
423.51	2408.41
423.72	2482.14
423.92	2600.92
424.13	2351.07
424.33	2439.13
424.54	2588.63
424.75	2504.67
424.95	2645.98
425.16	2430.94
425.36	2435.03
425.57	2531.29
425.78	2496.47
425.98	2519.00
426.19	2457.56
426.39	2367.45
426.60	2441.18
426.81	2574.30
427.01	2570.20
427.22	2349.02
427.42	2342.88
427.63	2338.78
427.83	2594.78
428.04	2736.09
428.25	2488.28
428.45	2523.10
428.66	2605.02
428.86	2490.33
429.07	2496.47
429.28	2465.75
429.48	2428.89
429.69	2416.60
429.89	2422.75
430.10	2328.54
430.30	2654.17
430.51	2662.36
430.71	2385.88
430.92	2430.94
431.13	2394.08
431.33	2514.91
431.54	2428.89
431.74	2576.34
431.95	2764.76
432.15	2322.40
432.36	2443.23
432.56	2482.14
432.77	2678.74
432.98	2709.46
433.18	2494.43
433.39	2420.70
433.59	2445.27
433.80	2686.94
434.00	2682.84
434.21	2441.18
434.41	2412.51
434.62	2820.05
434.82	2361.31
435.03	2367.45
435.23	2537.43
435.44	2301.92
435.64	2441.18
435.85	2539.48
436.06	2611.16
436.26	2664.41
436.47	2453.47
436.67	2353.12
436.88	2471.90
437.08	2609.11
437.29	2631.64
437.49	2568.15
437.70	2639.83
437.90	2453.47
438.11	2705.37
438.31	2519.00
438.52	2678.74
438.72	2625.50
438.93	2738.13
439.13	2609.11
439.34	2731.99
439.54	2480.09
439.75	2486.23
439.95	2498.52
440.16	2496.47
440.36	2478.04
440.57	2488.28
440.77	2494.43
440.98	2492.38
441.18	2557.91
441.39	2381.79
441.59	2412.51
441.80	2725.85
442.00	2412.51
442.21	2576.34
442.41	2346.97
442.62	2643.93
442.82	2412.51
443.02	2420.70
443.23	2531.29
443.43	2416.60
443.64	2668.50
443.84	2299.87
444.05	2553.82
444.25	2484.19
444.46	2514.91
444.66	2514.91
444.87	2617.30
445.07	2330.59
445.28	2529.24
445.48	2621.40
445.69	2562.01
445.89	2879.44
446.09	2484.19
446.30	2713.56
446.50	3047.38
446.71	4603.83
446.91	5824.42
447.12	6731.67
447.32	7036.82
447.53	6840.22
447.73	5371.82
447.93	4689.85
448.14	4480.96
448.34	4460.48
448.55	3815.37
448.75	3778.50
448.96	3583.95
449.16	3260.37
449.36	3155.92
449.57	2736.09
449.77	2512.86
449.98	2424.80
450.18	2588.63
450.39	2471.90
450.59	2545.63
450.79	2383.84
451.00	2521.05
451.20	2580.44
451.41	2424.80
451.61	2486.23
451.81	2609.11
452.02	2508.76
452.22	2430.94
452.43	2392.03
