SpectraSuite Data File
++++++++++++++++++++++++++++++++++++
Date: Thu May 05 14:41:33 CEST 2016
User: root
Dark Spectrum Present: No
Reference Spectrum Present: No
Number of Sampled Component Spectra: 1
Spectrometers: USB4C02835
Integration Time (usec): 100000 (USB4C02835)
Spectra Averaged: 1 (USB4C02835)
Boxcar Smoothing: 0 (USB4C02835)
Correct for Electrical Dark: No (USB4C02835)
Strobe/Lamp Enabled: No (USB4C02835)
Correct for Detector Non-linearity: No (USB4C02835)
Correct for Stray Light: No (USB4C02835)
Number of Pixels in Processed Spectrum: 3648
>>>>>Begin Processed Spectral Data<<<<<
177.47	1884.13
177.69	1884.13
177.91	1884.13
178.13	1941.47
178.36	1937.38
178.58	2291.68
178.80	2453.47
179.02	2312.16
179.24	2334.68
179.46	2316.25
179.68	2301.92
179.90	2494.43
180.13	2463.71
180.35	2185.18
180.57	2359.26
180.79	2539.48
181.01	2498.52
181.23	2351.07
181.45	2424.80
181.67	2574.30
181.90	2566.10
182.12	2334.68
182.34	2187.23
182.56	2570.20
182.78	2562.01
183.00	2357.21
183.22	2404.32
183.44	2289.63
183.66	2748.37
183.89	2461.66
184.11	2318.30
184.33	2637.78
184.55	2695.13
184.77	2359.26
184.99	2369.50
185.21	2453.47
185.43	2717.65
185.65	2342.88
185.87	2275.29
186.10	2711.51
186.32	2734.04
186.54	2443.23
186.76	2396.12
186.98	2572.25
187.20	2387.93
187.42	2316.25
187.64	2342.88
187.86	2539.48
188.08	2678.74
188.30	2349.02
188.52	2379.74
188.75	2654.17
188.97	2627.54
189.19	2291.68
189.41	2287.58
189.63	2562.01
189.85	2426.84
190.07	2277.34
190.29	2205.66
190.51	2500.57
190.73	2328.54
190.95	2486.23
191.17	2394.08
191.39	2283.49
191.61	2404.32
191.84	2318.30
192.06	2445.27
192.28	2314.20
192.50	2875.35
192.72	2394.08
192.94	2383.84
193.16	2596.82
193.38	2545.63
193.60	2359.26
193.82	2396.12
194.04	2629.59
194.26	2533.34
194.48	2324.44
194.70	2291.68
194.92	2412.51
195.14	2592.73
195.36	2306.01
195.58	2400.22
195.80	2447.32
196.02	2369.50
196.24	2303.96
196.46	2445.27
196.69	2355.16
196.91	2807.77
197.13	2279.39
197.35	2392.03
197.57	2648.02
197.79	2529.24
198.01	2424.80
198.23	2430.94
198.45	2541.53
198.67	2314.20
198.89	2306.01
199.11	2449.37
199.33	2351.07
199.55	2176.99
199.77	2291.68
199.99	2449.37
200.21	2435.03
200.43	2521.05
200.65	2193.37
200.87	2273.25
201.09	2449.37
201.31	2398.17
201.53	2375.64
201.75	2363.36
201.97	2545.63
202.19	2449.37
202.41	2404.32
202.63	2506.71
202.85	2506.71
203.07	2506.71
203.29	2340.83
203.51	2234.33
203.73	2349.02
203.95	2791.38
204.17	2342.88
204.39	2402.27
204.61	2475.99
204.83	2424.80
205.05	2455.51
205.27	2342.88
205.49	2899.92
205.71	2568.15
205.93	2234.33
206.15	2250.72
206.37	2475.99
206.59	2408.41
206.81	2162.66
207.03	2260.96
207.25	2342.88
207.47	2572.25
207.69	2383.84
207.91	2492.38
208.13	2736.09
208.34	2408.41
208.56	2279.39
208.78	2412.51
209.00	2392.03
209.22	2428.89
209.44	2336.73
209.66	2310.11
209.88	2478.04
210.10	2467.80
210.32	2293.72
210.54	2453.47
210.76	2375.64
210.98	2621.40
211.20	2207.71
211.42	2461.66
211.64	2629.59
211.86	2475.99
212.08	2383.84
212.30	2402.27
212.52	2432.99
212.74	2519.00
212.96	2445.27
213.17	2449.37
213.39	2545.63
213.61	2592.73
213.83	2385.88
214.05	2396.12
214.27	2621.40
214.49	2349.02
214.71	2269.15
214.93	2392.03
215.15	2482.14
215.37	2574.30
215.59	2201.57
215.81	2389.98
216.03	2703.32
216.24	2523.10
216.46	2371.55
216.68	2375.64
216.90	2574.30
217.12	2564.06
217.34	2367.45
217.56	2494.43
217.78	2666.46
218.00	2529.24
218.22	2416.60
218.44	2504.67
218.66	2443.23
218.87	2701.27
219.09	2318.30
219.31	2297.82
219.53	2469.85
219.75	2455.51
219.97	2346.97
220.19	2387.93
220.41	2500.57
220.63	2611.16
220.85	2389.98
221.06	2408.41
221.28	2635.74
221.50	2588.63
221.72	2373.60
221.94	2258.91
222.16	2494.43
222.38	2617.30
222.60	2324.44
222.82	2353.12
223.03	2584.54
223.25	2303.96
223.47	2394.08
223.69	2531.29
223.91	2574.30
224.13	2502.62
224.35	2299.87
224.57	2478.04
224.78	2588.63
225.00	2473.95
225.22	2394.08
225.44	2322.40
225.66	2592.73
225.88	2420.70
226.10	2449.37
226.32	2342.88
226.53	2688.98
226.75	2451.42
226.97	2400.22
227.19	2369.50
227.41	2439.13
227.63	2396.12
227.85	2265.05
228.06	2344.92
228.28	2535.39
228.50	2631.64
228.72	2291.68
228.94	2256.86
229.16	2349.02
229.37	2322.40
229.59	2332.64
229.81	2625.50
230.03	2404.32
230.25	2326.49
230.47	2265.05
230.69	2281.44
230.90	2600.92
231.12	2498.52
231.34	2422.75
231.56	2432.99
231.78	2412.51
232.00	2426.84
232.21	2318.30
232.43	2375.64
232.65	2336.73
232.87	2572.25
233.09	2322.40
233.30	2242.53
233.52	2596.82
233.74	2488.28
233.96	2349.02
234.18	2379.74
234.40	2506.71
234.61	2826.20
234.83	2203.61
235.05	2250.72
235.27	2793.43
235.49	2559.96
235.70	2314.20
235.92	2449.37
236.14	2531.29
236.36	2699.22
236.58	2301.92
236.79	2424.80
237.01	2469.85
237.23	2480.09
237.45	2500.57
237.67	2359.26
237.88	2514.91
238.10	2717.65
238.32	2285.53
238.54	2375.64
238.76	2521.05
238.97	2404.32
239.19	2351.07
239.41	2396.12
239.63	2555.86
239.85	2430.94
240.06	2408.41
240.28	2373.60
240.50	2572.25
240.72	2537.43
240.93	2273.25
241.15	2430.94
241.37	2533.34
241.59	2639.83
241.81	2287.58
242.02	2375.64
242.24	2529.24
242.46	2602.97
242.68	2254.81
242.89	2338.78
243.11	2592.73
243.33	2371.55
243.55	2437.08
243.76	2402.27
243.98	2467.80
244.20	2469.85
244.42	2488.28
244.64	2367.45
244.85	2410.46
245.07	2332.64
245.29	2355.16
245.51	2342.88
245.72	2539.48
245.94	2625.50
246.16	2441.18
246.38	2326.49
246.59	2439.13
246.81	2334.68
247.03	2312.16
247.24	2244.57
247.46	2430.94
247.68	2443.23
247.90	2326.49
248.11	2375.64
248.33	2584.54
248.55	2465.75
248.77	2389.98
248.98	2414.56
249.20	2731.99
249.42	2453.47
249.64	2422.75
249.85	2301.92
250.07	2408.41
250.29	2519.00
250.50	2441.18
250.72	2293.72
250.94	2596.82
251.16	2715.61
251.37	2400.22
251.59	2467.80
251.81	2541.53
252.02	2637.78
252.24	2265.05
252.46	2463.71
252.68	2342.88
252.89	2383.84
253.11	2222.05
253.33	2473.95
253.54	2662.36
253.76	2351.07
253.98	2342.88
254.20	2369.50
254.41	2342.88
254.63	2404.32
254.85	2246.62
255.06	2344.92
255.28	2537.43
255.50	2410.46
255.71	2367.45
255.93	2226.14
256.15	2480.09
256.36	2564.06
256.58	2322.40
256.80	2336.73
257.02	2543.58
257.23	2412.51
257.45	2349.02
257.67	2412.51
257.88	2506.71
258.10	2564.06
258.32	2340.83
258.53	2394.08
258.75	2711.51
258.97	2346.97
259.18	2381.79
259.40	2277.34
259.62	2658.26
259.83	2572.25
260.05	2332.64
260.27	2994.13
260.48	2564.06
260.70	2371.55
260.92	2318.30
261.13	2355.16
261.35	2496.47
261.57	2551.77
261.78	2318.30
262.00	2269.15
262.22	2574.30
262.43	2308.06
262.65	2367.45
262.86	2346.97
263.08	2781.14
263.30	2533.34
263.51	2205.66
263.73	2301.92
263.95	2686.94
264.16	2322.40
264.38	2289.63
264.60	2375.64
264.81	2400.22
265.03	2568.15
265.25	2621.40
265.46	2365.40
265.68	2637.78
265.89	2531.29
266.11	2258.91
266.33	2299.87
266.54	2609.11
266.76	2537.43
266.98	2412.51
267.19	2471.90
267.41	2617.30
267.62	2441.18
267.84	2246.62
268.06	2451.42
268.27	2490.33
268.49	2623.45
268.70	2367.45
268.92	2381.79
269.14	2375.64
269.35	2375.64
269.57	2428.89
269.79	2422.75
270.00	2418.65
270.22	2695.13
270.43	2299.87
270.65	2162.66
270.87	2572.25
271.08	2592.73
271.30	2404.32
271.51	2336.73
271.73	2605.02
271.95	2670.55
272.16	2392.03
272.38	2449.37
272.59	2422.75
272.81	2523.10
273.02	2316.25
273.24	2420.70
273.46	2533.34
273.67	2330.59
273.89	2269.15
274.10	2338.78
274.32	2623.45
274.54	2519.00
274.75	2381.79
274.97	2342.88
275.18	2600.92
275.40	2551.77
275.61	2373.60
275.83	2457.56
276.05	2371.55
276.26	2461.66
276.48	2428.89
276.69	2359.26
276.91	2412.51
277.12	2631.64
277.34	2457.56
277.55	2572.25
277.77	2478.04
277.99	2453.47
278.20	2342.88
278.42	2240.48
278.63	2359.26
278.85	2371.55
279.06	2301.92
279.28	2432.99
279.49	2615.26
279.71	2600.92
279.93	2414.56
280.14	2457.56
280.36	2357.21
280.57	2596.82
280.79	2480.09
281.00	2373.60
281.22	2371.55
281.43	2686.94
281.65	2146.27
281.86	2367.45
282.08	2490.33
282.29	2772.95
282.51	2326.49
282.73	2357.21
282.94	2287.58
283.16	2568.15
283.37	2539.48
283.59	2381.79
283.80	2555.86
284.02	2369.50
284.23	2535.39
284.45	2379.74
284.66	2396.12
284.88	2381.79
285.09	2459.61
285.31	2549.72
285.52	2600.92
285.74	2314.20
285.95	2572.25
286.17	2428.89
286.38	2621.40
286.60	2449.37
286.81	2389.98
287.03	2351.07
287.24	2490.33
287.46	2508.76
287.67	2525.15
287.89	2611.16
288.10	2432.99
288.32	2385.88
288.53	2572.25
288.75	2498.52
288.96	2588.63
289.18	2367.45
289.39	2424.80
289.61	2572.25
289.82	2752.47
290.04	2744.28
290.25	2349.02
290.47	2357.21
290.68	2426.84
290.90	2596.82
291.11	2334.68
291.33	2506.71
291.54	2330.59
291.76	2398.17
291.97	2512.86
292.18	2519.00
292.40	2400.22
292.61	2369.50
292.83	2635.74
293.04	2537.43
293.26	2504.67
293.47	2502.62
293.69	2301.92
293.90	2430.94
294.12	2629.59
294.33	2506.71
294.55	2461.66
294.76	2529.24
294.97	2645.98
295.19	2684.89
295.40	2324.44
295.62	2490.33
295.83	2512.86
296.05	2471.90
296.26	2602.97
296.48	2394.08
296.69	2478.04
296.90	2490.33
297.12	2523.10
297.33	2545.63
297.55	2443.23
297.76	2512.86
297.98	2506.71
298.19	2473.95
298.41	2430.94
298.62	2400.22
298.83	2605.02
299.05	2404.32
299.26	2424.80
299.48	2400.22
299.69	2508.76
299.90	2422.75
300.12	2383.84
300.33	2578.39
300.55	2514.91
300.76	2482.14
300.98	2340.83
301.19	2572.25
301.40	2367.45
301.62	2432.99
301.83	2555.86
302.05	2463.71
302.26	2473.95
302.47	2488.28
302.69	2283.49
302.90	2475.99
303.12	2250.72
303.33	2543.58
303.54	2785.24
303.76	2340.83
303.97	2416.60
304.19	2654.17
304.40	2342.88
304.61	2541.53
304.83	2570.20
305.04	2580.44
305.26	2564.06
305.47	2437.08
305.68	2389.98
305.90	2357.21
306.11	2617.30
306.33	2492.38
306.54	2389.98
306.75	2306.01
306.97	2213.85
307.18	2383.84
307.39	2389.98
307.61	2525.15
307.82	2488.28
308.04	2596.82
308.25	2357.21
308.46	2432.99
308.68	2461.66
308.89	2457.56
309.10	2535.39
309.32	2545.63
309.53	2529.24
309.74	2557.91
309.96	2387.93
310.17	2555.86
310.39	2408.41
310.60	2566.10
310.81	2449.37
311.03	2271.20
311.24	2498.52
311.45	2498.52
311.67	2594.78
311.88	2437.08
312.09	2404.32
312.31	2383.84
312.52	2414.56
312.73	2357.21
312.95	2281.44
313.16	2375.64
313.37	2539.48
313.59	2543.58
313.80	2586.58
314.01	2639.83
314.23	2324.44
314.44	2346.97
314.65	2326.49
314.87	2432.99
315.08	2422.75
315.29	2424.80
315.51	2406.36
315.72	2326.49
315.93	2574.30
316.15	2570.20
316.36	2461.66
316.57	2463.71
316.79	2506.71
317.00	2355.16
317.21	2514.91
317.43	2369.50
317.64	2502.62
317.85	2351.07
318.07	2412.51
318.28	2435.03
318.49	2557.91
318.70	2650.07
318.92	2637.78
319.13	2662.36
319.34	2652.12
319.56	2471.90
319.77	2631.64
319.98	2641.88
320.20	2562.01
320.41	2639.83
320.62	2562.01
320.83	2375.64
321.05	2584.54
321.26	2467.80
321.47	2471.90
321.69	2637.78
321.90	2318.30
322.11	2473.95
322.32	2441.18
322.54	2660.31
322.75	2392.03
322.96	2822.10
323.18	2287.58
323.39	2271.20
323.60	2316.25
323.81	2580.44
324.03	2465.75
324.24	2439.13
324.45	2469.85
324.66	2445.27
324.88	2572.25
325.09	2584.54
325.30	2465.75
325.52	2449.37
325.73	2570.20
325.94	2293.72
326.15	2279.39
326.37	2306.01
326.58	2625.50
326.79	2660.31
327.00	2355.16
327.22	2457.56
327.43	2406.36
327.64	2330.59
327.85	2541.53
328.07	2422.75
328.28	2670.55
328.49	2351.07
328.70	2428.89
328.92	2340.83
329.13	2451.42
329.34	2551.77
329.55	2594.78
329.76	2541.53
329.98	2447.32
330.19	2688.98
330.40	2486.23
330.61	2473.95
330.83	2539.48
331.04	2340.83
331.25	2377.69
331.46	2326.49
331.68	2373.60
331.89	2650.07
332.10	2420.70
332.31	2342.88
332.52	2490.33
332.74	2562.01
332.95	2263.01
333.16	2375.64
333.37	2562.01
333.58	2416.60
333.80	2432.99
334.01	2310.11
334.22	2416.60
334.43	2408.41
334.64	2414.56
334.86	2330.59
335.07	2328.54
335.28	2686.94
335.49	2244.57
335.70	2457.56
335.92	2609.11
336.13	2772.95
336.34	2490.33
336.55	2519.00
336.76	2602.97
336.98	2252.77
337.19	2392.03
337.40	2529.24
337.61	2756.57
337.82	2484.19
338.04	2461.66
338.25	2244.57
338.46	2473.95
338.67	2478.04
338.88	2379.74
339.09	2269.15
339.31	2455.51
339.52	2316.25
339.73	2334.68
339.94	2400.22
340.15	2590.68
340.36	2445.27
340.58	2430.94
340.79	2383.84
341.00	2547.67
341.21	2322.40
341.42	2568.15
341.63	2439.13
341.85	2641.88
342.06	2500.57
342.27	2351.07
342.48	2541.53
342.69	2324.44
342.90	2525.15
343.12	2564.06
343.33	2396.12
343.54	2498.52
343.75	2723.80
343.96	2461.66
344.17	2308.06
344.38	2521.05
344.60	2402.27
344.81	2324.44
345.02	2430.94
345.23	2613.21
345.44	2826.20
345.65	2451.42
345.86	2506.71
346.07	2512.86
346.29	2514.91
346.50	2504.67
346.71	2514.91
346.92	2611.16
347.13	2731.99
347.34	2426.84
347.55	2377.69
347.76	2506.71
347.98	2310.11
348.19	2420.70
348.40	2580.44
348.61	2443.23
348.82	2596.82
349.03	2545.63
349.24	2369.50
349.45	2805.72
349.66	2293.72
349.88	2420.70
350.09	2322.40
350.30	2576.34
350.51	2613.21
350.72	2447.32
350.93	2437.08
351.14	2449.37
351.35	2562.01
351.56	2523.10
351.77	2447.32
351.99	2545.63
352.20	2670.55
352.41	2531.29
352.62	2199.52
352.83	2461.66
353.04	2506.71
353.25	2349.02
353.46	2537.43
353.67	2510.81
353.88	2205.66
354.09	2435.03
354.30	2410.46
354.52	2641.88
354.73	2447.32
354.94	2351.07
355.15	2443.23
355.36	2668.50
355.57	2441.18
355.78	2449.37
355.99	2318.30
356.20	2463.71
356.41	2701.27
356.62	2482.14
356.83	2420.70
357.04	2611.16
357.25	2269.15
357.46	2381.79
357.68	2351.07
357.89	2383.84
358.10	2473.95
358.31	2379.74
358.52	2377.69
358.73	2275.29
358.94	2377.69
359.15	2363.36
359.36	2463.71
359.57	2426.84
359.78	2478.04
359.99	2510.81
360.20	2265.05
360.41	2406.36
360.62	2605.02
360.83	2535.39
361.04	2463.71
361.25	2582.49
361.46	2678.74
361.67	2523.10
361.88	2533.34
362.09	2596.82
362.30	2549.72
362.51	2402.27
362.72	2473.95
362.93	2572.25
363.14	2557.91
363.35	2473.95
363.56	2377.69
363.78	2695.13
363.99	2584.54
364.20	2398.17
364.41	2469.85
364.62	2686.94
364.83	2463.71
365.04	2396.12
365.25	2447.32
365.46	2658.26
365.67	2385.88
365.88	2398.17
366.09	2338.78
366.30	2422.75
366.51	2447.32
366.72	2367.45
366.93	2379.74
367.14	2500.57
367.35	2592.73
367.56	2394.08
367.77	2572.25
367.98	2467.80
368.18	2504.67
368.39	2531.29
368.60	2404.32
368.81	2586.58
369.02	2478.04
369.23	2494.43
369.44	2289.63
369.65	2404.32
369.86	2492.38
370.07	2473.95
370.28	2355.16
370.49	2572.25
370.70	2562.01
370.91	2396.12
371.12	2269.15
371.33	2576.34
371.54	2459.61
371.75	2564.06
371.96	2199.52
372.17	2506.71
372.38	2498.52
372.59	2523.10
372.80	2336.73
373.01	2428.89
373.22	2543.58
373.43	2527.19
373.64	2332.64
373.85	2680.79
374.06	2756.57
374.26	2578.39
374.47	2457.56
374.68	2570.20
374.89	2559.96
375.10	2332.64
375.31	2521.05
375.52	2426.84
375.73	2473.95
375.94	2267.10
376.15	2566.10
376.36	2432.99
376.57	2432.99
376.78	2490.33
376.99	2492.38
377.20	2627.54
377.40	2469.85
377.61	2594.78
377.82	2363.36
378.03	2742.23
378.24	2519.00
378.45	2451.42
378.66	2494.43
378.87	2291.68
379.08	2334.68
379.29	2473.95
379.50	2525.15
379.71	2461.66
379.91	2496.47
380.12	2465.75
380.33	2467.80
380.54	2461.66
380.75	2410.46
380.96	2445.27
381.17	2514.91
381.38	2514.91
381.59	2469.85
381.80	2502.62
382.00	2578.39
382.21	2426.84
382.42	2666.46
382.63	2709.46
382.84	2496.47
383.05	2600.92
383.26	2678.74
383.47	2504.67
383.68	2447.32
383.88	2617.30
384.09	2492.38
384.30	2605.02
384.51	2496.47
384.72	2502.62
384.93	2326.49
385.14	2469.85
385.35	2531.29
385.55	2351.07
385.76	2586.58
385.97	2406.36
386.18	2291.68
386.39	2385.88
386.60	2408.41
386.81	2392.03
387.02	2346.97
387.22	2406.36
387.43	2600.92
387.64	2588.63
387.85	2623.45
388.06	2754.52
388.27	4050.88
388.48	8300.42
388.68	12115.78
388.89	14612.26
389.10	15650.58
389.31	14825.25
389.52	11593.55
389.73	9994.09
389.93	9062.26
390.14	8458.11
390.35	7475.09
390.56	6627.23
390.77	5494.70
390.98	4120.51
391.18	3405.77
391.39	2975.70
391.60	2502.62
391.81	2678.74
392.02	2420.70
392.23	2750.42
392.43	2566.10
392.64	2564.06
392.85	2451.42
393.06	2731.99
393.27	2539.48
393.47	2389.98
393.68	2441.18
393.89	2453.47
394.10	2613.21
394.31	2398.17
394.52	2338.78
394.72	2463.71
394.93	2586.58
395.14	2367.45
395.35	2478.04
395.56	2342.88
395.76	2529.24
395.97	2453.47
396.18	2568.15
396.39	2590.68
396.60	2926.55
396.80	2693.08
397.01	2521.05
397.22	2684.89
397.43	2686.94
397.64	2406.36
397.84	2500.57
398.05	2846.68
398.26	2504.67
398.47	2541.53
398.67	2566.10
398.88	2502.62
399.09	2576.34
399.30	2412.51
399.51	2543.58
399.71	2416.60
399.92	2412.51
400.13	2492.38
400.34	2430.94
400.54	2506.71
400.75	2693.08
400.96	2402.27
401.17	2652.12
401.37	2553.82
401.58	2455.51
401.79	2465.75
402.00	2508.76
402.21	2953.17
402.41	2795.48
402.62	2863.06
402.83	2897.88
403.04	2971.60
403.24	3053.52
403.45	2619.35
403.66	2760.66
403.87	2705.37
404.07	2777.05
404.28	2709.46
404.49	2695.13
404.70	2629.59
404.90	2562.01
405.11	2416.60
405.32	2547.67
405.52	2410.46
405.73	2449.37
405.94	2373.60
406.15	2424.80
406.35	2543.58
406.56	2525.15
406.77	2527.19
406.98	2525.15
407.18	2461.66
407.39	2637.78
407.60	2451.42
407.80	2605.02
408.01	2359.26
408.22	2492.38
408.43	2416.60
408.63	2488.28
408.84	2645.98
409.05	2574.30
409.25	2420.70
409.46	2351.07
409.67	2471.90
409.88	2461.66
410.08	2605.02
410.29	2371.55
410.50	2633.69
410.70	2549.72
410.91	2416.60
411.12	2471.90
411.32	2432.99
411.53	2428.89
411.74	2502.62
411.95	2580.44
412.15	2502.62
412.36	2590.68
412.57	2547.67
412.77	2639.83
412.98	2545.63
413.19	2455.51
413.39	2455.51
413.60	2418.65
413.81	2629.59
414.01	2275.29
414.22	2488.28
414.43	2510.81
414.63	2408.41
414.84	2596.82
415.05	2439.13
415.25	2326.49
415.46	2547.67
415.67	2406.36
415.87	2490.33
416.08	2449.37
416.29	2342.88
416.49	2602.97
416.70	2377.69
416.91	2445.27
417.11	2559.96
417.32	2605.02
417.53	2607.06
417.73	2535.39
417.94	2496.47
418.15	2488.28
418.35	2478.04
418.56	2455.51
418.77	2764.76
418.97	2490.33
419.18	2523.10
419.38	2244.57
419.59	2473.95
419.80	2682.84
420.00	2449.37
420.21	2424.80
420.42	2613.21
420.62	2498.52
420.83	2473.95
421.04	2437.08
421.24	2447.32
421.45	2623.45
421.65	2480.09
421.86	2428.89
422.07	2537.43
422.27	2543.58
422.48	2416.60
422.69	2383.84
422.89	2551.77
423.10	2473.95
423.30	2342.88
423.51	2494.43
423.72	2463.71
423.92	2633.69
424.13	2299.87
424.33	2441.18
424.54	2619.35
424.75	2471.90
424.95	2619.35
425.16	2514.91
425.36	2475.99
425.57	2621.40
425.78	2562.01
425.98	2559.96
426.19	2430.94
426.39	2326.49
426.60	2535.39
426.81	2568.15
427.01	2557.91
427.22	2447.32
427.42	2265.05
427.63	2342.88
427.83	2627.54
428.04	2742.23
428.25	2584.54
428.45	2598.87
428.66	2580.44
428.86	2437.08
429.07	2424.80
429.28	2486.23
429.48	2447.32
429.69	2351.07
429.89	2463.71
430.10	2326.49
430.30	2621.40
430.51	2543.58
430.71	2363.36
430.92	2416.60
431.13	2359.26
431.33	2555.86
431.54	2494.43
431.74	2596.82
431.95	2652.12
432.15	2373.60
432.36	2514.91
432.56	2435.03
432.77	2766.81
432.98	2731.99
433.18	2490.33
433.39	2402.27
433.59	2412.51
433.80	2719.70
434.00	2715.61
434.21	2389.98
434.41	2469.85
434.62	2777.05
434.82	2353.12
435.03	2340.83
435.23	2496.47
435.44	2334.68
435.64	2412.51
435.85	2504.67
436.06	2523.10
436.26	2678.74
436.47	2439.13
436.67	2371.55
436.88	2441.18
437.08	2754.52
437.29	2684.89
437.49	2510.81
437.70	2637.78
437.90	2473.95
438.11	2654.17
438.31	2537.43
438.52	2664.41
438.72	2717.65
438.93	2768.85
439.13	2531.29
439.34	2766.81
439.54	2502.62
439.75	2605.02
439.95	2570.20
440.16	2412.51
440.36	2516.95
440.57	2428.89
440.77	2494.43
440.98	2531.29
441.18	2582.49
441.39	2375.64
441.59	2375.64
441.80	2756.57
442.00	2463.71
442.21	2557.91
442.41	2336.73
442.62	2602.97
442.82	2381.79
443.02	2381.79
443.23	2461.66
443.43	2437.08
443.64	2662.36
443.84	2351.07
444.05	2584.54
444.25	2539.48
444.46	2416.60
444.66	2465.75
444.87	2621.40
445.07	2346.97
445.28	2449.37
445.48	2607.06
445.69	2525.15
445.89	2883.54
446.09	2447.32
446.30	2772.95
446.50	2981.84
446.71	4595.64
446.91	5808.04
447.12	6627.23
447.32	7116.69
447.53	6590.36
447.73	5533.61
447.93	4714.42
448.14	4454.33
448.34	4489.15
448.55	3844.04
448.75	3717.06
448.96	3608.52
449.16	3293.13
449.36	3147.73
449.57	2727.89
449.77	2568.15
449.98	2478.04
450.18	2564.06
450.39	2490.33
450.59	2537.43
450.79	2486.23
451.00	2371.55
451.20	2555.86
451.41	2488.28
451.61	2502.62
451.81	2471.90
452.02	2428.89
452.22	2504.67
452.43	2498.52
452.63	2353.12
