SpectraSuite Data File
++++++++++++++++++++++++++++++++++++
Date: Thu May 05 14:41:48 CEST 2016
User: root
Dark Spectrum Present: No
Reference Spectrum Present: No
Number of Sampled Component Spectra: 1
Spectrometers: USB4C02835
Integration Time (usec): 100000 (USB4C02835)
Spectra Averaged: 1 (USB4C02835)
Boxcar Smoothing: 0 (USB4C02835)
Correct for Electrical Dark: No (USB4C02835)
Strobe/Lamp Enabled: No (USB4C02835)
Correct for Detector Non-linearity: No (USB4C02835)
Correct for Stray Light: No (USB4C02835)
Number of Pixels in Processed Spectrum: 3648
>>>>>Begin Processed Spectral Data<<<<<
177.47	1990.63
177.69	1990.63
177.91	1990.63
178.13	1873.89
178.36	1884.13
178.58	2383.84
178.80	2514.91
179.02	2375.64
179.24	2449.37
179.46	2351.07
179.68	2369.50
179.90	2406.36
180.13	2586.58
180.35	2254.81
180.57	2332.64
180.79	2568.15
181.01	2441.18
181.23	2373.60
181.45	2514.91
181.67	2506.71
181.90	2523.10
182.12	2381.79
182.34	2285.53
182.56	2572.25
182.78	2535.39
183.00	2385.88
183.22	2389.98
183.44	2285.53
183.66	2768.85
183.89	2441.18
184.11	2308.06
184.33	2551.77
184.55	2668.50
184.77	2392.03
184.99	2414.56
185.21	2385.88
185.43	2824.15
185.65	2334.68
185.87	2342.88
186.10	2764.76
186.32	2807.77
186.54	2383.84
186.76	2422.75
186.98	2611.16
187.20	2535.39
187.42	2369.50
187.64	2381.79
187.86	2525.15
188.08	2568.15
188.30	2349.02
188.52	2385.88
188.75	2578.39
188.97	2641.88
189.19	2349.02
189.41	2336.73
189.63	2557.91
189.85	2435.03
190.07	2207.71
190.29	2215.90
190.51	2432.99
190.73	2316.25
190.95	2473.95
191.17	2363.36
191.39	2248.67
191.61	2426.84
191.84	2375.64
192.06	2373.60
192.28	2349.02
192.50	2904.02
192.72	2424.80
192.94	2422.75
193.16	2619.35
193.38	2441.18
193.60	2318.30
193.82	2457.56
194.04	2654.17
194.26	2605.02
194.48	2320.35
194.70	2293.72
194.92	2432.99
195.14	2590.68
195.36	2338.78
195.58	2342.88
195.80	2410.46
196.02	2445.27
196.24	2217.95
196.46	2359.26
196.69	2383.84
196.91	2766.81
197.13	2357.21
197.35	2303.96
197.57	2619.35
197.79	2570.20
198.01	2385.88
198.23	2353.12
198.45	2498.52
198.67	2410.46
198.89	2269.15
199.11	2392.03
199.33	2342.88
199.55	2363.36
199.77	2326.49
199.99	2514.91
200.21	2308.06
200.43	2510.81
200.65	2291.68
200.87	2232.29
201.09	2455.51
201.31	2422.75
201.53	2318.30
201.75	2420.70
201.97	2570.20
202.19	2510.81
202.41	2408.41
202.63	2527.19
202.85	2562.01
203.07	2545.63
203.29	2271.20
203.51	2285.53
203.73	2365.40
203.95	2768.85
204.17	2324.44
204.39	2408.41
204.61	2496.47
204.83	2410.46
205.05	2437.08
205.27	2389.98
205.49	2697.17
205.71	2486.23
205.93	2215.90
206.15	2351.07
206.37	2502.62
206.59	2486.23
206.81	2220.00
207.03	2217.95
207.25	2379.74
207.47	2502.62
207.69	2367.45
207.91	2535.39
208.13	2695.13
208.34	2416.60
208.56	2242.53
208.78	2398.17
209.00	2441.18
209.22	2490.33
209.44	2351.07
209.66	2260.96
209.88	2473.95
210.10	2486.23
210.32	2320.35
210.54	2519.00
210.76	2486.23
210.98	2516.95
211.20	2195.42
211.42	2346.97
211.64	2615.26
211.86	2602.97
212.08	2326.49
212.30	2375.64
212.52	2484.19
212.74	2482.14
212.96	2404.32
213.17	2416.60
213.39	2529.24
213.61	2715.61
213.83	2293.72
214.05	2406.36
214.27	2660.31
214.49	2416.60
214.71	2267.10
214.93	2373.60
215.15	2506.71
215.37	2535.39
215.59	2230.24
215.81	2453.47
216.03	2629.59
216.24	2521.05
216.46	2326.49
216.68	2353.12
216.90	2494.43
217.12	2709.46
217.34	2359.26
217.56	2396.12
217.78	2584.54
218.00	2545.63
218.22	2383.84
218.44	2412.51
218.66	2543.58
218.87	2686.94
219.09	2308.06
219.31	2420.70
219.53	2463.71
219.75	2422.75
219.97	2326.49
220.19	2355.16
220.41	2463.71
220.63	2686.94
220.85	2351.07
221.06	2344.92
221.28	2629.59
221.50	2502.62
221.72	2308.06
221.94	2248.67
222.16	2514.91
222.38	2611.16
222.60	2320.35
222.82	2416.60
223.03	2613.21
223.25	2269.15
223.47	2326.49
223.69	2631.64
223.91	2510.81
224.13	2467.80
224.35	2252.77
224.57	2482.14
224.78	2543.58
225.00	2363.36
225.22	2371.55
225.44	2310.11
225.66	2543.58
225.88	2349.02
226.10	2387.93
226.32	2389.98
226.53	2674.65
226.75	2498.52
226.97	2318.30
227.19	2322.40
227.41	2318.30
227.63	2408.41
227.85	2242.53
228.06	2383.84
228.28	2473.95
228.50	2594.78
228.72	2297.82
228.94	2410.46
229.16	2297.82
229.37	2351.07
229.59	2244.57
229.81	2516.95
230.03	2408.41
230.25	2349.02
230.47	2303.96
230.69	2336.73
230.90	2594.78
231.12	2359.26
231.34	2449.37
231.56	2488.28
231.78	2412.51
232.00	2469.85
232.21	2293.72
232.43	2377.69
232.65	2217.95
232.87	2596.82
233.09	2256.86
233.30	2205.66
233.52	2576.34
233.74	2412.51
233.96	2349.02
234.18	2453.47
234.40	2432.99
234.61	2691.03
234.83	2250.72
235.05	2297.82
235.27	2760.66
235.49	2568.15
235.70	2301.92
235.92	2416.60
236.14	2504.67
236.36	2836.44
236.58	2220.00
236.79	2498.52
237.01	2490.33
237.23	2486.23
237.45	2492.38
237.67	2375.64
237.88	2543.58
238.10	2660.31
238.32	2320.35
238.54	2422.75
238.76	2490.33
238.97	2308.06
239.19	2312.16
239.41	2459.61
239.63	2611.16
239.85	2406.36
240.06	2359.26
240.28	2355.16
240.50	2609.11
240.72	2443.23
240.93	2320.35
241.15	2414.56
241.37	2512.86
241.59	2678.74
241.81	2295.77
242.02	2402.27
242.24	2498.52
242.46	2555.86
242.68	2170.85
242.89	2324.44
243.11	2650.07
243.33	2443.23
243.55	2412.51
243.76	2408.41
243.98	2445.27
244.20	2498.52
244.42	2285.53
244.64	2414.56
244.85	2287.58
245.07	2389.98
245.29	2396.12
245.51	2318.30
245.72	2564.06
245.94	2578.39
246.16	2373.60
246.38	2369.50
246.59	2430.94
246.81	2381.79
247.03	2326.49
247.24	2273.25
247.46	2453.47
247.68	2463.71
247.90	2242.53
248.11	2392.03
248.33	2627.54
248.55	2486.23
248.77	2430.94
248.98	2387.93
249.20	2549.72
249.42	2453.47
249.64	2387.93
249.85	2299.87
250.07	2410.46
250.29	2588.63
250.50	2484.19
250.72	2260.96
250.94	2586.58
251.16	2775.00
251.37	2398.17
251.59	2441.18
251.81	2531.29
252.02	2600.92
252.24	2256.86
252.46	2404.32
252.68	2336.73
252.89	2381.79
253.11	2334.68
253.33	2459.61
253.54	2629.59
253.76	2332.64
253.98	2389.98
254.20	2306.01
254.41	2351.07
254.63	2418.65
254.85	2271.20
255.06	2392.03
255.28	2541.53
255.50	2412.51
255.71	2363.36
255.93	2265.05
256.15	2445.27
256.36	2576.34
256.58	2242.53
256.80	2334.68
257.02	2504.67
257.23	2480.09
257.45	2326.49
257.67	2416.60
257.88	2408.41
258.10	2523.10
258.32	2365.40
258.53	2383.84
258.75	2768.85
258.97	2398.17
259.18	2310.11
259.40	2320.35
259.62	2619.35
259.83	2672.60
260.05	2430.94
260.27	2973.65
260.48	2545.63
260.70	2398.17
260.92	2318.30
261.13	2406.36
261.35	2465.75
261.57	2553.82
261.78	2365.40
262.00	2256.86
262.22	2539.48
262.43	2277.34
262.65	2359.26
262.86	2406.36
263.08	2818.00
263.30	2428.89
263.51	2224.09
263.73	2277.34
263.95	2719.70
264.16	2416.60
264.38	2263.01
264.60	2412.51
264.81	2451.42
265.03	2602.97
265.25	2578.39
265.46	2303.96
265.68	2598.87
265.89	2527.19
266.11	2236.38
266.33	2457.56
266.54	2619.35
266.76	2508.76
266.98	2459.61
267.19	2478.04
267.41	2625.50
267.62	2443.23
267.84	2199.52
268.06	2406.36
268.27	2430.94
268.49	2684.89
268.70	2443.23
268.92	2322.40
269.14	2363.36
269.35	2260.96
269.57	2410.46
269.79	2416.60
270.00	2408.41
270.22	2670.55
270.43	2258.91
270.65	2240.48
270.87	2504.67
271.08	2555.86
271.30	2449.37
271.51	2318.30
271.73	2559.96
271.95	2592.73
272.16	2349.02
272.38	2478.04
272.59	2531.29
272.81	2498.52
273.02	2381.79
273.24	2473.95
273.46	2670.55
273.67	2379.74
273.89	2193.37
274.10	2367.45
274.32	2670.55
274.54	2504.67
274.75	2463.71
274.97	2435.03
275.18	2619.35
275.40	2570.20
275.61	2396.12
275.83	2482.14
276.05	2359.26
276.26	2484.19
276.48	2418.65
276.69	2361.31
276.91	2357.21
277.12	2715.61
277.34	2432.99
277.55	2482.14
277.77	2457.56
277.99	2467.80
278.20	2306.01
278.42	2351.07
278.63	2381.79
278.85	2349.02
279.06	2236.38
279.28	2543.58
279.49	2578.39
279.71	2533.34
279.93	2467.80
280.14	2381.79
280.36	2375.64
280.57	2541.53
280.79	2539.48
281.00	2301.92
281.22	2424.80
281.43	2584.54
281.65	2220.00
281.86	2351.07
282.08	2482.14
282.29	2656.22
282.51	2285.53
282.73	2326.49
282.94	2308.06
283.16	2635.74
283.37	2684.89
283.59	2406.36
283.80	2549.72
284.02	2521.05
284.23	2459.61
284.45	2375.64
284.66	2404.32
284.88	2445.27
285.09	2523.10
285.31	2529.24
285.52	2514.91
285.74	2320.35
285.95	2490.33
286.17	2430.94
286.38	2668.50
286.60	2400.22
286.81	2381.79
287.03	2373.60
287.24	2451.42
287.46	2582.49
287.67	2424.80
287.89	2674.65
288.10	2490.33
288.32	2402.27
288.53	2541.53
288.75	2414.56
288.96	2578.39
289.18	2383.84
289.39	2363.36
289.61	2537.43
289.82	2768.85
290.04	2684.89
290.25	2414.56
290.47	2441.18
290.68	2463.71
290.90	2609.11
291.11	2228.19
291.33	2504.67
291.54	2396.12
291.76	2449.37
291.97	2451.42
292.18	2490.33
292.40	2344.92
292.61	2432.99
292.83	2645.98
293.04	2469.85
293.26	2494.43
293.47	2463.71
293.69	2326.49
293.90	2365.40
294.12	2691.03
294.33	2473.95
294.55	2387.93
294.76	2475.99
294.97	2652.12
295.19	2785.24
295.40	2426.84
295.62	2453.47
295.83	2643.93
296.05	2414.56
296.26	2562.01
296.48	2336.73
296.69	2445.27
296.90	2461.66
297.12	2465.75
297.33	2615.26
297.55	2457.56
297.76	2553.82
297.98	2486.23
298.19	2465.75
298.41	2443.23
298.62	2310.11
298.83	2490.33
299.05	2506.71
299.26	2375.64
299.48	2412.51
299.69	2428.89
299.90	2490.33
300.12	2424.80
300.33	2576.34
300.55	2424.80
300.76	2455.51
300.98	2369.50
301.19	2611.16
301.40	2389.98
301.62	2381.79
301.83	2547.67
302.05	2498.52
302.26	2367.45
302.47	2408.41
302.69	2408.41
302.90	2453.47
303.12	2238.43
303.33	2453.47
303.54	2707.41
303.76	2432.99
303.97	2484.19
304.19	2547.67
304.40	2416.60
304.61	2568.15
304.83	2598.87
305.04	2559.96
305.26	2553.82
305.47	2496.47
305.68	2455.51
305.90	2310.11
306.11	2611.16
306.33	2428.89
306.54	2410.46
306.75	2420.70
306.97	2363.36
307.18	2359.26
307.39	2338.78
307.61	2412.51
307.82	2467.80
308.04	2566.10
308.25	2297.82
308.46	2521.05
308.68	2463.71
308.89	2469.85
309.10	2547.67
309.32	2492.38
309.53	2416.60
309.74	2582.49
309.96	2457.56
310.17	2549.72
310.39	2412.51
310.60	2555.86
310.81	2463.71
311.03	2342.88
311.24	2512.86
311.45	2465.75
311.67	2602.97
311.88	2416.60
312.09	2420.70
312.31	2484.19
312.52	2428.89
312.73	2332.64
312.95	2363.36
313.16	2344.92
313.37	2576.34
313.59	2514.91
313.80	2553.82
314.01	2658.26
314.23	2422.75
314.44	2371.55
314.65	2387.93
314.87	2404.32
315.08	2406.36
315.29	2404.32
315.51	2367.45
315.72	2332.64
315.93	2490.33
316.15	2504.67
316.36	2437.08
316.57	2430.94
316.79	2559.96
317.00	2373.60
317.21	2627.54
317.43	2394.08
317.64	2428.89
317.85	2289.63
318.07	2346.97
318.28	2473.95
318.49	2570.20
318.70	2695.13
318.92	2611.16
319.13	2566.10
319.34	2682.84
319.56	2506.71
319.77	2654.17
319.98	2584.54
320.20	2596.82
320.41	2498.52
320.62	2562.01
320.83	2398.17
321.05	2568.15
321.26	2496.47
321.47	2453.47
321.69	2709.46
321.90	2301.92
322.11	2383.84
322.32	2535.39
322.54	2713.56
322.75	2367.45
322.96	2912.21
323.18	2349.02
323.39	2244.57
323.60	2377.69
323.81	2531.29
324.03	2455.51
324.24	2490.33
324.45	2494.43
324.66	2383.84
324.88	2605.02
325.09	2695.13
325.30	2463.71
325.52	2459.61
325.73	2543.58
325.94	2367.45
326.15	2277.34
326.37	2353.12
326.58	2570.20
326.79	2631.64
327.00	2324.44
327.22	2461.66
327.43	2424.80
327.64	2340.83
327.85	2490.33
328.07	2455.51
328.28	2711.51
328.49	2398.17
328.70	2336.73
328.92	2383.84
329.13	2445.27
329.34	2480.09
329.55	2629.59
329.76	2498.52
329.98	2488.28
330.19	2660.31
330.40	2488.28
330.61	2502.62
330.83	2543.58
331.04	2387.93
331.25	2428.89
331.46	2402.27
331.68	2322.40
331.89	2613.21
332.10	2408.41
332.31	2310.11
332.52	2455.51
332.74	2619.35
332.95	2295.77
333.16	2375.64
333.37	2609.11
333.58	2422.75
333.80	2435.03
334.01	2222.05
334.22	2424.80
334.43	2432.99
334.64	2371.55
334.86	2314.20
335.07	2293.72
335.28	2611.16
335.49	2334.68
335.70	2547.67
335.92	2643.93
336.13	2822.10
336.34	2461.66
336.55	2537.43
336.76	2533.34
336.98	2207.71
337.19	2463.71
337.40	2555.86
337.61	2785.24
337.82	2463.71
338.04	2482.14
338.25	2291.68
338.46	2389.98
338.67	2457.56
338.88	2359.26
339.09	2263.01
339.31	2404.32
339.52	2338.78
339.73	2334.68
339.94	2490.33
340.15	2627.54
340.36	2408.41
340.58	2539.48
340.79	2340.83
341.00	2514.91
341.21	2299.87
341.42	2633.69
341.63	2363.36
341.85	2545.63
342.06	2559.96
342.27	2293.72
342.48	2523.10
342.69	2273.25
342.90	2435.03
343.12	2594.78
343.33	2416.60
343.54	2668.50
343.75	2582.49
343.96	2428.89
344.17	2351.07
344.38	2418.65
344.60	2471.90
344.81	2328.54
345.02	2453.47
345.23	2539.48
345.44	2824.15
345.65	2461.66
345.86	2519.00
346.07	2506.71
346.29	2432.99
346.50	2553.82
346.71	2555.86
346.92	2658.26
347.13	2750.42
347.34	2457.56
347.55	2359.26
347.76	2519.00
347.98	2306.01
348.19	2404.32
348.40	2566.10
348.61	2451.42
348.82	2537.43
349.03	2482.14
349.24	2420.70
349.45	2731.99
349.66	2260.96
349.88	2422.75
350.09	2293.72
350.30	2621.40
350.51	2643.93
350.72	2471.90
350.93	2471.90
351.14	2373.60
351.35	2523.10
351.56	2494.43
351.77	2422.75
351.99	2674.65
352.20	2662.36
352.41	2535.39
352.62	2252.77
352.83	2496.47
353.04	2428.89
353.25	2404.32
353.46	2510.81
353.67	2621.40
353.88	2250.72
354.09	2406.36
354.30	2406.36
354.52	2514.91
354.73	2572.25
354.94	2375.64
355.15	2441.18
355.36	2693.08
355.57	2418.65
355.78	2416.60
355.99	2404.32
356.20	2453.47
356.41	2572.25
356.62	2531.29
356.83	2463.71
357.04	2641.88
357.25	2277.34
357.46	2392.03
357.68	2301.92
357.89	2346.97
358.10	2441.18
358.31	2410.46
358.52	2365.40
358.73	2303.96
358.94	2316.25
359.15	2418.65
359.36	2514.91
359.57	2516.95
359.78	2426.84
359.99	2553.82
360.20	2338.78
360.41	2457.56
360.62	2523.10
360.83	2467.80
361.04	2478.04
361.25	2529.24
361.46	2711.51
361.67	2494.43
361.88	2473.95
362.09	2596.82
362.30	2586.58
362.51	2371.55
362.72	2473.95
362.93	2580.44
363.14	2502.62
363.35	2568.15
363.56	2389.98
363.78	2615.26
363.99	2648.02
364.20	2412.51
364.41	2443.23
364.62	2799.57
364.83	2570.20
365.04	2361.31
365.25	2432.99
365.46	2815.96
365.67	2394.08
365.88	2467.80
366.09	2375.64
366.30	2432.99
366.51	2494.43
366.72	2389.98
366.93	2469.85
367.14	2539.48
367.35	2547.67
367.56	2338.78
367.77	2537.43
367.98	2496.47
368.18	2609.11
368.39	2527.19
368.60	2367.45
368.81	2555.86
369.02	2551.77
369.23	2330.59
369.44	2228.19
369.65	2494.43
369.86	2541.53
370.07	2547.67
370.28	2322.40
370.49	2494.43
370.70	2461.66
370.91	2357.21
371.12	2326.49
371.33	2621.40
371.54	2392.03
371.75	2633.69
371.96	2195.42
372.17	2475.99
372.38	2482.14
372.59	2455.51
372.80	2416.60
373.01	2490.33
373.22	2455.51
373.43	2459.61
373.64	2260.96
373.85	2672.60
374.06	2664.41
374.26	2576.34
374.47	2498.52
374.68	2639.83
374.89	2496.47
375.10	2441.18
375.31	2504.67
375.52	2422.75
375.73	2553.82
375.94	2279.39
376.15	2600.92
376.36	2389.98
376.57	2453.47
376.78	2426.84
376.99	2478.04
377.20	2727.89
377.40	2443.23
377.61	2662.36
377.82	2381.79
378.03	2545.63
378.24	2576.34
378.45	2424.80
378.66	2486.23
378.87	2301.92
379.08	2301.92
379.29	2506.71
379.50	2572.25
379.71	2437.08
379.91	2568.15
380.12	2449.37
380.33	2424.80
380.54	2461.66
380.75	2537.43
380.96	2455.51
381.17	2451.42
381.38	2473.95
381.59	2531.29
381.80	2490.33
382.00	2711.51
382.21	2615.26
382.42	2695.13
382.63	2688.98
382.84	2521.05
383.05	2551.77
383.26	2686.94
383.47	2490.33
383.68	2506.71
383.88	2588.63
384.09	2564.06
384.30	2613.21
384.51	2469.85
384.72	2418.65
384.93	2396.12
385.14	2473.95
385.35	2596.82
385.55	2357.21
385.76	2570.20
385.97	2457.56
386.18	2322.40
386.39	2396.12
386.60	2473.95
386.81	2465.75
387.02	2394.08
387.22	2332.64
387.43	2541.53
387.64	2572.25
387.85	2660.31
388.06	2674.65
388.27	4063.17
388.48	8406.91
388.68	12371.78
388.89	14630.69
389.10	15802.13
389.31	14868.25
389.52	11669.33
389.73	10028.90
389.93	9256.82
390.14	8572.80
390.35	7493.52
390.56	6713.24
390.77	5470.12
390.98	4147.14
391.18	3340.24
391.39	2965.46
391.60	2645.98
391.81	2621.40
392.02	2355.16
392.23	2719.70
392.43	2432.99
392.64	2562.01
392.85	2504.67
393.06	2758.61
393.27	2543.58
393.47	2424.80
393.68	2430.94
393.89	2467.80
394.10	2564.06
394.31	2371.55
394.52	2424.80
394.72	2512.86
394.93	2701.27
395.14	2416.60
395.35	2555.86
395.56	2400.22
395.76	2478.04
395.97	2486.23
396.18	2637.78
396.39	2586.58
396.60	2940.88
396.80	2729.94
397.01	2592.73
397.22	2707.41
397.43	2672.60
397.64	2385.88
397.84	2537.43
398.05	2807.77
398.26	2473.95
398.47	2611.16
398.67	2600.92
398.88	2506.71
399.09	2512.86
399.30	2408.41
399.51	2359.26
399.71	2392.03
399.92	2369.50
400.13	2512.86
400.34	2432.99
400.54	2385.88
400.75	2643.93
400.96	2443.23
401.17	2654.17
401.37	2490.33
401.58	2439.13
401.79	2449.37
402.00	2637.78
402.21	2938.84
402.41	2715.61
402.62	2760.66
402.83	2854.87
403.04	2947.03
403.24	3104.72
403.45	2506.71
403.66	2740.18
403.87	2662.36
404.07	2691.03
404.28	2703.32
404.49	2750.42
404.70	2652.12
404.90	2592.73
405.11	2539.48
405.32	2514.91
405.52	2449.37
405.73	2502.62
405.94	2330.59
406.15	2482.14
406.35	2584.54
406.56	2615.26
406.77	2482.14
406.98	2453.47
407.18	2383.84
407.39	2705.37
407.60	2424.80
407.80	2525.15
408.01	2531.29
408.22	2494.43
408.43	2375.64
408.63	2551.77
408.84	2557.91
409.05	2584.54
409.25	2392.03
409.46	2389.98
409.67	2482.14
409.88	2441.18
410.08	2475.99
410.29	2365.40
410.50	2611.16
410.70	2486.23
410.91	2332.64
411.12	2490.33
411.32	2502.62
411.53	2396.12
411.74	2588.63
411.95	2559.96
412.15	2652.12
412.36	2658.26
412.57	2559.96
412.77	2686.94
412.98	2500.57
413.19	2441.18
413.39	2529.24
413.60	2541.53
413.81	2586.58
414.01	2400.22
414.22	2506.71
414.43	2592.73
414.63	2414.56
414.84	2678.74
415.05	2437.08
415.25	2322.40
415.46	2553.82
415.67	2449.37
415.87	2480.09
416.08	2447.32
416.29	2416.60
416.49	2514.91
416.70	2414.56
416.91	2412.51
417.11	2463.71
417.32	2553.82
417.53	2562.01
417.73	2512.86
417.94	2478.04
418.15	2541.53
418.35	2521.05
418.56	2402.27
418.77	2813.91
418.97	2523.10
419.18	2523.10
419.38	2273.25
419.59	2473.95
419.80	2605.02
420.00	2355.16
420.21	2512.86
420.42	2621.40
420.62	2531.29
420.83	2330.59
421.04	2416.60
421.24	2512.86
421.45	2602.97
421.65	2545.63
421.86	2373.60
422.07	2660.31
422.27	2543.58
422.48	2441.18
422.69	2355.16
422.89	2531.29
423.10	2445.27
423.30	2383.84
423.51	2467.80
423.72	2566.10
423.92	2586.58
424.13	2351.07
424.33	2471.90
424.54	2586.58
424.75	2519.00
424.95	2643.93
425.16	2465.75
425.36	2492.38
425.57	2600.92
425.78	2506.71
425.98	2475.99
426.19	2435.03
426.39	2320.35
426.60	2471.90
426.81	2580.44
427.01	2514.91
427.22	2418.65
427.42	2273.25
427.63	2383.84
427.83	2562.01
428.04	2676.70
428.25	2586.58
428.45	2514.91
428.66	2674.65
428.86	2519.00
429.07	2416.60
429.28	2437.08
429.48	2447.32
429.69	2426.84
429.89	2584.54
430.10	2361.31
430.30	2578.39
430.51	2666.46
430.71	2373.60
430.92	2447.32
431.13	2467.80
431.33	2469.85
431.54	2559.96
431.74	2678.74
431.95	2762.71
432.15	2383.84
432.36	2504.67
432.56	2572.25
432.77	2688.98
432.98	2731.99
433.18	2447.32
433.39	2318.30
433.59	2455.51
433.80	2758.61
434.00	2660.31
434.21	2375.64
434.41	2379.74
434.62	2744.28
434.82	2359.26
435.03	2330.59
435.23	2469.85
435.44	2308.06
435.64	2498.52
435.85	2498.52
436.06	2629.59
436.26	2539.48
436.47	2424.80
436.67	2392.03
436.88	2490.33
437.08	2588.63
437.29	2629.59
437.49	2531.29
437.70	2613.21
437.90	2471.90
438.11	2643.93
438.31	2559.96
438.52	2693.08
438.72	2637.78
438.93	2740.18
439.13	2521.05
439.34	2660.31
439.54	2492.38
439.75	2533.34
439.95	2480.09
440.16	2412.51
440.36	2549.72
440.57	2588.63
440.77	2490.33
440.98	2553.82
441.18	2469.85
441.39	2441.18
441.59	2285.53
441.80	2785.24
442.00	2498.52
442.21	2559.96
442.41	2328.54
442.62	2613.21
442.82	2439.13
443.02	2406.36
443.23	2441.18
443.43	2490.33
443.64	2678.74
443.84	2308.06
444.05	2623.45
444.25	2562.01
444.46	2432.99
444.66	2453.47
444.87	2514.91
445.07	2291.68
445.28	2408.41
445.48	2621.40
445.69	2570.20
445.89	2803.67
446.09	2482.14
446.30	2838.48
446.50	3008.47
446.71	4497.34
446.91	5791.66
447.12	6795.16
447.32	7061.40
447.53	6651.80
447.73	5478.32
447.93	4810.68
448.14	4433.85
448.34	4440.00
448.55	3831.75
448.75	3774.41
448.96	3540.94
449.16	3387.34
449.36	3092.43
449.57	2752.47
449.77	2553.82
449.98	2488.28
450.18	2551.77
450.39	2545.63
450.59	2613.21
450.79	2488.28
451.00	2373.60
451.20	2533.34
451.41	2463.71
451.61	2590.68
451.81	2547.67
452.02	2404.32
452.22	2365.40
452.43	2465.75
