SpectraSuite Data File
++++++++++++++++++++++++++++++++++++
Date: Thu May 05 14:41:52 CEST 2016
User: root
Dark Spectrum Present: No
Reference Spectrum Present: No
Number of Sampled Component Spectra: 1
Spectrometers: USB4C02835
Integration Time (usec): 100000 (USB4C02835)
Spectra Averaged: 1 (USB4C02835)
Boxcar Smoothing: 0 (USB4C02835)
Correct for Electrical Dark: No (USB4C02835)
Strobe/Lamp Enabled: No (USB4C02835)
Correct for Detector Non-linearity: No (USB4C02835)
Correct for Stray Light: No (USB4C02835)
Number of Pixels in Processed Spectrum: 3648
>>>>>Begin Processed Spectral Data<<<<<
177.47	1898.47
177.69	1898.47
177.91	1898.47
178.13	1927.14
178.36	1939.43
178.58	2400.22
178.80	2408.41
179.02	2353.12
179.24	2340.83
179.46	2326.49
179.68	2373.60
179.90	2439.13
180.13	2529.24
180.35	2193.37
180.57	2295.77
180.79	2605.02
181.01	2449.37
181.23	2385.88
181.45	2439.13
181.67	2553.82
181.90	2506.71
182.12	2342.88
182.34	2306.01
182.56	2564.06
182.78	2512.86
183.00	2322.40
183.22	2359.26
183.44	2265.05
183.66	2809.81
183.89	2539.48
184.11	2310.11
184.33	2580.44
184.55	2645.98
184.77	2342.88
184.99	2344.92
185.21	2475.99
185.43	2756.57
185.65	2351.07
185.87	2301.92
186.10	2762.71
186.32	2848.72
186.54	2512.86
186.76	2365.40
186.98	2555.86
187.20	2432.99
187.42	2306.01
187.64	2365.40
187.86	2465.75
188.08	2654.17
188.30	2281.44
188.52	2430.94
188.75	2623.45
188.97	2580.44
189.19	2308.06
189.41	2301.92
189.63	2539.48
189.85	2412.51
190.07	2205.66
190.29	2246.62
190.51	2490.33
190.73	2289.63
190.95	2496.47
191.17	2381.79
191.39	2359.26
191.61	2449.37
191.84	2306.01
192.06	2453.47
192.28	2324.44
192.50	2865.11
192.72	2408.41
192.94	2396.12
193.16	2605.02
193.38	2504.67
193.60	2367.45
193.82	2443.23
194.04	2547.67
194.26	2469.85
194.48	2301.92
194.70	2414.56
194.92	2445.27
195.14	2570.20
195.36	2326.49
195.58	2359.26
195.80	2400.22
196.02	2400.22
196.24	2299.87
196.46	2469.85
196.69	2365.40
196.91	2756.57
197.13	2340.83
197.35	2336.73
197.57	2660.31
197.79	2559.96
198.01	2338.78
198.23	2373.60
198.45	2596.82
198.67	2275.29
198.89	2318.30
199.11	2428.89
199.33	2342.88
199.55	2308.06
199.77	2346.97
199.99	2482.14
200.21	2422.75
200.43	2557.91
200.65	2283.49
200.87	2275.29
201.09	2531.29
201.31	2412.51
201.53	2387.93
201.75	2394.08
201.97	2510.81
202.19	2422.75
202.41	2430.94
202.63	2512.86
202.85	2570.20
203.07	2572.25
203.29	2344.92
203.51	2254.81
203.73	2428.89
203.95	2789.33
204.17	2412.51
204.39	2432.99
204.61	2437.08
204.83	2426.84
205.05	2416.60
205.27	2346.97
205.49	2750.42
205.71	2459.61
205.93	2289.63
206.15	2306.01
206.37	2486.23
206.59	2455.51
206.81	2283.49
207.03	2363.36
207.25	2322.40
207.47	2596.82
207.69	2342.88
207.91	2488.28
208.13	2641.88
208.34	2441.18
208.56	2308.06
208.78	2338.78
209.00	2469.85
209.22	2482.14
209.44	2314.20
209.66	2316.25
209.88	2482.14
210.10	2471.90
210.32	2328.54
210.54	2416.60
210.76	2510.81
210.98	2625.50
211.20	2269.15
211.42	2371.55
211.64	2652.12
211.86	2531.29
212.08	2392.03
212.30	2283.49
212.52	2453.47
212.74	2506.71
212.96	2435.03
213.17	2457.56
213.39	2555.86
213.61	2639.83
213.83	2359.26
214.05	2432.99
214.27	2541.53
214.49	2394.08
214.71	2252.77
214.93	2512.86
215.15	2482.14
215.37	2615.26
215.59	2215.90
215.81	2371.55
216.03	2621.40
216.24	2457.56
216.46	2359.26
216.68	2439.13
216.90	2623.45
217.12	2596.82
217.34	2430.94
217.56	2486.23
217.78	2674.65
218.00	2584.54
218.22	2392.03
218.44	2420.70
218.66	2473.95
218.87	2801.62
219.09	2308.06
219.31	2338.78
219.53	2580.44
219.75	2420.70
219.97	2396.12
220.19	2301.92
220.41	2396.12
220.63	2686.94
220.85	2375.64
221.06	2291.68
221.28	2637.78
221.50	2547.67
221.72	2326.49
221.94	2299.87
222.16	2494.43
222.38	2654.17
222.60	2297.82
222.82	2326.49
223.03	2539.48
223.25	2322.40
223.47	2394.08
223.69	2580.44
223.91	2514.91
224.13	2545.63
224.35	2271.20
224.57	2473.95
224.78	2514.91
225.00	2383.84
225.22	2365.40
225.44	2344.92
225.66	2564.06
225.88	2428.89
226.10	2428.89
226.32	2355.16
226.53	2654.17
226.75	2430.94
226.97	2281.44
227.19	2357.21
227.41	2467.80
227.63	2394.08
227.85	2236.38
228.06	2373.60
228.28	2457.56
228.50	2510.81
228.72	2273.25
228.94	2332.64
229.16	2260.96
229.37	2394.08
229.59	2260.96
229.81	2480.09
230.03	2310.11
230.25	2289.63
230.47	2269.15
230.69	2275.29
230.90	2617.30
231.12	2385.88
231.34	2428.89
231.56	2439.13
231.78	2349.02
232.00	2482.14
232.21	2281.44
232.43	2340.83
232.65	2170.85
232.87	2562.01
233.09	2269.15
233.30	2275.29
233.52	2588.63
233.74	2508.76
233.96	2281.44
234.18	2455.51
234.40	2461.66
234.61	2809.81
234.83	2220.00
235.05	2396.12
235.27	2848.72
235.49	2637.78
235.70	2357.21
235.92	2410.46
236.14	2480.09
236.36	2822.10
236.58	2236.38
236.79	2406.36
237.01	2447.32
237.23	2475.99
237.45	2461.66
237.67	2351.07
237.88	2572.25
238.10	2725.85
238.32	2318.30
238.54	2338.78
238.76	2559.96
238.97	2299.87
239.19	2283.49
239.41	2494.43
239.63	2697.17
239.85	2416.60
240.06	2455.51
240.28	2355.16
240.50	2611.16
240.72	2428.89
240.93	2281.44
241.15	2394.08
241.37	2455.51
241.59	2572.25
241.81	2297.82
242.02	2369.50
242.24	2523.10
242.46	2541.53
242.68	2293.72
242.89	2299.87
243.11	2639.83
243.33	2441.18
243.55	2326.49
243.76	2424.80
243.98	2424.80
244.20	2441.18
244.42	2318.30
244.64	2406.36
244.85	2379.74
245.07	2359.26
245.29	2351.07
245.51	2367.45
245.72	2514.91
245.94	2607.06
246.16	2306.01
246.38	2367.45
246.59	2410.46
246.81	2418.65
247.03	2316.25
247.24	2160.61
247.46	2437.08
247.68	2494.43
247.90	2301.92
248.11	2310.11
248.33	2547.67
248.55	2527.19
248.77	2428.89
248.98	2461.66
249.20	2719.70
249.42	2484.19
249.64	2359.26
249.85	2332.64
250.07	2443.23
250.29	2584.54
250.50	2396.12
250.72	2285.53
250.94	2572.25
251.16	2801.62
251.37	2392.03
251.59	2375.64
251.81	2490.33
252.02	2641.88
252.24	2332.64
252.46	2430.94
252.68	2422.75
252.89	2351.07
253.11	2217.95
253.33	2551.77
253.54	2588.63
253.76	2408.41
253.98	2383.84
254.20	2326.49
254.41	2271.20
254.63	2416.60
254.85	2248.67
255.06	2396.12
255.28	2551.77
255.50	2453.47
255.71	2293.72
255.93	2265.05
256.15	2488.28
256.36	2586.58
256.58	2289.63
256.80	2373.60
257.02	2455.51
257.23	2539.48
257.45	2316.25
257.67	2510.81
257.88	2383.84
258.10	2523.10
258.32	2389.98
258.53	2400.22
258.75	2695.13
258.97	2334.68
259.18	2291.68
259.40	2293.72
259.62	2713.56
259.83	2582.49
260.05	2379.74
260.27	2850.77
260.48	2633.69
260.70	2400.22
260.92	2209.76
261.13	2396.12
261.35	2555.86
261.57	2584.54
261.78	2220.00
262.00	2277.34
262.22	2551.77
262.43	2373.60
262.65	2308.06
262.86	2336.73
263.08	2848.72
263.30	2490.33
263.51	2209.76
263.73	2299.87
263.95	2684.89
264.16	2320.35
264.38	2279.39
264.60	2312.16
264.81	2516.95
265.03	2662.36
265.25	2506.71
265.46	2342.88
265.68	2588.63
265.89	2654.17
266.11	2242.53
266.33	2330.59
266.54	2680.79
266.76	2525.15
266.98	2463.71
267.19	2451.42
267.41	2656.22
267.62	2428.89
267.84	2232.29
268.06	2469.85
268.27	2529.24
268.49	2562.01
268.70	2465.75
268.92	2381.79
269.14	2414.56
269.35	2377.69
269.57	2375.64
269.79	2437.08
270.00	2412.51
270.22	2742.23
270.43	2293.72
270.65	2205.66
270.87	2504.67
271.08	2500.57
271.30	2396.12
271.51	2326.49
271.73	2615.26
271.95	2686.94
272.16	2328.54
272.38	2435.03
272.59	2406.36
272.81	2508.76
273.02	2287.58
273.24	2453.47
273.46	2582.49
273.67	2359.26
273.89	2324.44
274.10	2338.78
274.32	2648.02
274.54	2498.52
274.75	2426.84
274.97	2381.79
275.18	2623.45
275.40	2562.01
275.61	2426.84
275.83	2482.14
276.05	2334.68
276.26	2422.75
276.48	2394.08
276.69	2416.60
276.91	2482.14
277.12	2611.16
277.34	2527.19
277.55	2506.71
277.77	2553.82
277.99	2439.13
278.20	2334.68
278.42	2291.68
278.63	2365.40
278.85	2383.84
279.06	2332.64
279.28	2482.14
279.49	2631.64
279.71	2531.29
279.93	2469.85
280.14	2451.42
280.36	2359.26
280.57	2562.01
280.79	2428.89
281.00	2392.03
281.22	2414.56
281.43	2721.75
281.65	2150.37
281.86	2211.81
282.08	2533.34
282.29	2699.22
282.51	2256.86
282.73	2285.53
282.94	2281.44
283.16	2570.20
283.37	2521.05
283.59	2428.89
283.80	2512.86
284.02	2430.94
284.23	2525.15
284.45	2404.32
284.66	2349.02
284.88	2406.36
285.09	2379.74
285.31	2484.19
285.52	2645.98
285.74	2340.83
285.95	2543.58
286.17	2471.90
286.38	2570.20
286.60	2420.70
286.81	2377.69
287.03	2377.69
287.24	2473.95
287.46	2570.20
287.67	2430.94
287.89	2643.93
288.10	2547.67
288.32	2531.29
288.53	2592.73
288.75	2387.93
288.96	2586.58
289.18	2387.93
289.39	2383.84
289.61	2463.71
289.82	2717.65
290.04	2645.98
290.25	2281.44
290.47	2492.38
290.68	2418.65
290.90	2605.02
291.11	2240.48
291.33	2490.33
291.54	2361.31
291.76	2473.95
291.97	2543.58
292.18	2467.80
292.40	2420.70
292.61	2357.21
292.83	2605.02
293.04	2488.28
293.26	2441.18
293.47	2508.76
293.69	2383.84
293.90	2361.31
294.12	2629.59
294.33	2568.15
294.55	2406.36
294.76	2506.71
294.97	2553.82
295.19	2744.28
295.40	2363.36
295.62	2537.43
295.83	2574.30
296.05	2449.37
296.26	2580.44
296.48	2389.98
296.69	2512.86
296.90	2482.14
297.12	2490.33
297.33	2510.81
297.55	2430.94
297.76	2514.91
297.98	2494.43
298.19	2543.58
298.41	2432.99
298.62	2408.41
298.83	2605.02
299.05	2523.10
299.26	2490.33
299.48	2363.36
299.69	2457.56
299.90	2437.08
300.12	2414.56
300.33	2527.19
300.55	2502.62
300.76	2537.43
300.98	2381.79
301.19	2539.48
301.40	2392.03
301.62	2336.73
301.83	2482.14
302.05	2551.77
302.26	2430.94
302.47	2449.37
302.69	2291.68
302.90	2535.39
303.12	2217.95
303.33	2555.86
303.54	2760.66
303.76	2385.88
303.97	2441.18
304.19	2564.06
304.40	2402.27
304.61	2594.78
304.83	2580.44
305.04	2471.90
305.26	2482.14
305.47	2527.19
305.68	2551.77
305.90	2318.30
306.11	2654.17
306.33	2519.00
306.54	2338.78
306.75	2303.96
306.97	2269.15
307.18	2314.20
307.39	2371.55
307.61	2482.14
307.82	2461.66
308.04	2543.58
308.25	2359.26
308.46	2439.13
308.68	2527.19
308.89	2496.47
309.10	2545.63
309.32	2383.84
309.53	2467.80
309.74	2480.09
309.96	2383.84
310.17	2557.91
310.39	2430.94
310.60	2519.00
310.81	2482.14
311.03	2379.74
311.24	2609.11
311.45	2445.27
311.67	2670.55
311.88	2535.39
312.09	2465.75
312.31	2455.51
312.52	2439.13
312.73	2349.02
312.95	2318.30
313.16	2383.84
313.37	2629.59
313.59	2519.00
313.80	2539.48
314.01	2660.31
314.23	2369.50
314.44	2400.22
314.65	2381.79
314.87	2416.60
315.08	2410.46
315.29	2344.92
315.51	2418.65
315.72	2265.05
315.93	2617.30
316.15	2502.62
316.36	2422.75
316.57	2494.43
316.79	2465.75
317.00	2422.75
317.21	2531.29
317.43	2502.62
317.64	2424.80
317.85	2295.77
318.07	2420.70
318.28	2435.03
318.49	2533.34
318.70	2688.98
318.92	2621.40
319.13	2660.31
319.34	2684.89
319.56	2424.80
319.77	2600.92
319.98	2635.74
320.20	2602.97
320.41	2578.39
320.62	2574.30
320.83	2367.45
321.05	2660.31
321.26	2471.90
321.47	2527.19
321.69	2619.35
321.90	2314.20
322.11	2373.60
322.32	2521.05
322.54	2666.46
322.75	2445.27
322.96	2879.44
323.18	2222.05
323.39	2252.77
323.60	2336.73
323.81	2512.86
324.03	2396.12
324.24	2439.13
324.45	2406.36
324.66	2387.93
324.88	2576.34
325.09	2633.69
325.30	2457.56
325.52	2359.26
325.73	2557.91
325.94	2365.40
326.15	2277.34
326.37	2326.49
326.58	2553.82
326.79	2750.42
327.00	2330.59
327.22	2457.56
327.43	2457.56
327.64	2332.64
327.85	2463.71
328.07	2416.60
328.28	2764.76
328.49	2471.90
328.70	2414.56
328.92	2392.03
329.13	2394.08
329.34	2527.19
329.55	2637.78
329.76	2496.47
329.98	2443.23
330.19	2609.11
330.40	2529.24
330.61	2553.82
330.83	2588.63
331.04	2377.69
331.25	2379.74
331.46	2455.51
331.68	2357.21
331.89	2662.36
332.10	2422.75
332.31	2283.49
332.52	2424.80
332.74	2584.54
332.95	2295.77
333.16	2377.69
333.37	2521.05
333.58	2361.31
333.80	2449.37
334.01	2256.86
334.22	2346.97
334.43	2445.27
334.64	2359.26
334.86	2320.35
335.07	2402.27
335.28	2676.70
335.49	2287.58
335.70	2451.42
335.92	2643.93
336.13	2754.52
336.34	2523.10
336.55	2394.08
336.76	2549.72
336.98	2236.38
337.19	2387.93
337.40	2568.15
337.61	2813.91
337.82	2408.41
338.04	2539.48
338.25	2215.90
338.46	2498.52
338.67	2473.95
338.88	2406.36
339.09	2281.44
339.31	2342.88
339.52	2353.12
339.73	2351.07
339.94	2398.17
340.15	2605.02
340.36	2416.60
340.58	2463.71
340.79	2400.22
341.00	2613.21
341.21	2295.77
341.42	2627.54
341.63	2389.98
341.85	2521.05
342.06	2482.14
342.27	2422.75
342.48	2498.52
342.69	2310.11
342.90	2527.19
343.12	2578.39
343.33	2383.84
343.54	2627.54
343.75	2633.69
343.96	2424.80
344.17	2297.82
344.38	2432.99
344.60	2408.41
344.81	2414.56
345.02	2420.70
345.23	2678.74
345.44	2820.05
345.65	2545.63
345.86	2473.95
346.07	2506.71
346.29	2412.51
346.50	2461.66
346.71	2445.27
346.92	2611.16
347.13	2775.00
347.34	2453.47
347.55	2328.54
347.76	2502.62
347.98	2404.32
348.19	2461.66
348.40	2592.73
348.61	2389.98
348.82	2752.47
349.03	2508.76
349.24	2441.18
349.45	2731.99
349.66	2310.11
349.88	2416.60
350.09	2367.45
350.30	2709.46
350.51	2658.26
350.72	2564.06
350.93	2435.03
351.14	2439.13
351.35	2562.01
351.56	2445.27
351.77	2519.00
351.99	2494.43
352.20	2703.32
352.41	2605.02
352.62	2291.68
352.83	2428.89
353.04	2504.67
353.25	2369.50
353.46	2519.00
353.67	2564.06
353.88	2265.05
354.09	2392.03
354.30	2410.46
354.52	2619.35
354.73	2473.95
354.94	2400.22
355.15	2525.15
355.36	2602.97
355.57	2375.64
355.78	2447.32
355.99	2359.26
356.20	2408.41
356.41	2674.65
356.62	2480.09
356.83	2482.14
357.04	2641.88
357.25	2338.78
357.46	2418.65
357.68	2291.68
357.89	2357.21
358.10	2523.10
358.31	2408.41
358.52	2408.41
358.73	2412.51
358.94	2353.12
359.15	2396.12
359.36	2484.19
359.57	2482.14
359.78	2502.62
359.99	2461.66
360.20	2346.97
360.41	2486.23
360.62	2541.53
360.83	2398.17
361.04	2453.47
361.25	2588.63
361.46	2580.44
361.67	2539.48
361.88	2478.04
362.09	2519.00
362.30	2488.28
362.51	2394.08
362.72	2392.03
362.93	2586.58
363.14	2584.54
363.35	2383.84
363.56	2279.39
363.78	2539.48
363.99	2639.83
364.20	2344.92
364.41	2463.71
364.62	2682.84
364.83	2484.19
365.04	2426.84
365.25	2453.47
365.46	2742.23
365.67	2385.88
365.88	2428.89
366.09	2408.41
366.30	2414.56
366.51	2531.29
366.72	2297.82
366.93	2400.22
367.14	2469.85
367.35	2668.50
367.56	2478.04
367.77	2607.06
367.98	2432.99
368.18	2531.29
368.39	2523.10
368.60	2375.64
368.81	2543.58
369.02	2553.82
369.23	2482.14
369.44	2271.20
369.65	2449.37
369.86	2539.48
370.07	2512.86
370.28	2400.22
370.49	2506.71
370.70	2512.86
370.91	2250.72
371.12	2207.71
371.33	2709.46
371.54	2416.60
371.75	2539.48
371.96	2269.15
372.17	2570.20
372.38	2482.14
372.59	2439.13
372.80	2447.32
373.01	2441.18
373.22	2498.52
373.43	2453.47
373.64	2303.96
373.85	2645.98
374.06	2713.56
374.26	2523.10
374.47	2490.33
374.68	2662.36
374.89	2516.95
375.10	2357.21
375.31	2498.52
375.52	2564.06
375.73	2557.91
375.94	2349.02
376.15	2553.82
376.36	2437.08
376.57	2432.99
376.78	2461.66
376.99	2441.18
377.20	2578.39
377.40	2394.08
377.61	2672.60
377.82	2371.55
378.03	2637.78
378.24	2654.17
378.45	2480.09
378.66	2523.10
378.87	2291.68
379.08	2342.88
379.29	2349.02
379.50	2555.86
379.71	2416.60
379.91	2527.19
380.12	2392.03
380.33	2428.89
380.54	2478.04
380.75	2475.99
380.96	2457.56
381.17	2471.90
381.38	2547.67
381.59	2570.20
381.80	2406.36
382.00	2588.63
382.21	2568.15
382.42	2717.65
382.63	2693.08
382.84	2482.14
383.05	2600.92
383.26	2639.83
383.47	2480.09
383.68	2461.66
383.88	2512.86
384.09	2549.72
384.30	2674.65
384.51	2527.19
384.72	2432.99
384.93	2414.56
385.14	2471.90
385.35	2557.91
385.55	2312.16
385.76	2600.92
385.97	2428.89
386.18	2373.60
386.39	2394.08
386.60	2418.65
386.81	2367.45
387.02	2342.88
387.22	2406.36
387.43	2557.91
387.64	2486.23
387.85	2699.22
388.06	2668.50
388.27	3991.49
388.48	8349.57
388.68	11917.13
388.89	14700.32
389.10	15699.73
389.31	14694.18
389.52	11632.46
389.73	10063.72
389.93	8853.37
390.14	8257.41
390.35	7540.62
390.56	6703.00
390.77	5480.36
390.98	4218.82
391.18	3547.08
391.39	3082.19
391.60	2662.36
391.81	2668.50
392.02	2381.79
392.23	2715.61
392.43	2555.86
392.64	2596.82
392.85	2488.28
393.06	2809.81
393.27	2439.13
393.47	2430.94
393.68	2445.27
393.89	2439.13
394.10	2596.82
394.31	2504.67
394.52	2392.03
394.72	2455.51
394.93	2588.63
395.14	2326.49
395.35	2504.67
395.56	2359.26
395.76	2408.41
395.97	2545.63
396.18	2656.22
396.39	2559.96
396.60	3010.51
396.80	2725.85
397.01	2664.41
397.22	2656.22
397.43	2691.03
397.64	2488.28
397.84	2502.62
398.05	2832.34
398.26	2475.99
398.47	2523.10
398.67	2594.78
398.88	2523.10
399.09	2580.44
399.30	2426.84
399.51	2447.32
399.71	2490.33
399.92	2547.67
400.13	2461.66
400.34	2441.18
400.54	2500.57
400.75	2719.70
400.96	2486.23
401.17	2658.26
401.37	2598.87
401.58	2484.19
401.79	2473.95
402.00	2584.54
402.21	2871.25
402.41	2654.17
402.62	2836.44
402.83	2932.69
403.04	2940.88
403.24	3114.96
403.45	2650.07
403.66	2670.55
403.87	2725.85
404.07	2811.86
404.28	2768.85
404.49	2635.74
404.70	2529.24
404.90	2633.69
405.11	2428.89
405.32	2539.48
405.52	2408.41
405.73	2418.65
405.94	2392.03
406.15	2482.14
406.35	2576.34
406.56	2613.21
406.77	2451.42
406.98	2469.85
407.18	2349.02
407.39	2699.22
407.60	2414.56
407.80	2475.99
408.01	2521.05
408.22	2506.71
408.43	2406.36
408.63	2435.03
408.84	2619.35
409.05	2580.44
409.25	2365.40
409.46	2414.56
409.67	2406.36
409.88	2392.03
410.08	2531.29
410.29	2379.74
410.50	2529.24
410.70	2527.19
410.91	2375.64
411.12	2461.66
411.32	2437.08
411.53	2367.45
411.74	2504.67
411.95	2588.63
412.15	2543.58
412.36	2627.54
412.57	2566.10
412.77	2607.06
412.98	2600.92
413.19	2408.41
413.39	2465.75
413.60	2566.10
413.81	2629.59
414.01	2428.89
414.22	2533.34
414.43	2645.98
414.63	2463.71
414.84	2643.93
415.05	2494.43
415.25	2334.68
415.46	2572.25
415.67	2439.13
415.87	2580.44
416.08	2516.95
416.29	2447.32
416.49	2541.53
416.70	2445.27
416.91	2441.18
417.11	2523.10
417.32	2656.22
417.53	2521.05
417.73	2465.75
417.94	2480.09
418.15	2539.48
418.35	2449.37
418.56	2441.18
418.77	2754.52
418.97	2469.85
419.18	2365.40
419.38	2191.33
419.59	2449.37
419.80	2746.33
420.00	2385.88
420.21	2529.24
420.42	2662.36
420.62	2533.34
420.83	2318.30
421.04	2463.71
421.24	2406.36
421.45	2580.44
421.65	2473.95
421.86	2404.32
422.07	2557.91
422.27	2506.71
422.48	2449.37
422.69	2308.06
422.89	2500.57
423.10	2506.71
423.30	2334.68
423.51	2461.66
423.72	2580.44
423.92	2539.48
424.13	2377.69
424.33	2469.85
424.54	2637.78
424.75	2514.91
424.95	2541.53
425.16	2463.71
425.36	2441.18
425.57	2625.50
425.78	2471.90
425.98	2613.21
426.19	2381.79
426.39	2400.22
426.60	2465.75
426.81	2543.58
427.01	2555.86
427.22	2375.64
427.42	2308.06
427.63	2445.27
427.83	2490.33
428.04	2686.94
428.25	2553.82
428.45	2596.82
428.66	2596.82
428.86	2432.99
429.07	2420.70
429.28	2523.10
429.48	2494.43
429.69	2318.30
429.89	2496.47
430.10	2342.88
430.30	2514.91
430.51	2654.17
430.71	2379.74
430.92	2371.55
431.13	2447.32
431.33	2541.53
431.54	2519.00
431.74	2639.83
431.95	2752.47
432.15	2338.78
432.36	2457.56
432.56	2467.80
432.77	2678.74
432.98	2705.37
433.18	2471.90
433.39	2387.93
433.59	2514.91
433.80	2756.57
434.00	2662.36
434.21	2381.79
434.41	2381.79
434.62	2727.89
434.82	2361.31
435.03	2316.25
435.23	2555.86
435.44	2295.77
435.64	2490.33
435.85	2543.58
436.06	2527.19
436.26	2578.39
436.47	2424.80
436.67	2389.98
436.88	2455.51
437.08	2625.50
437.29	2631.64
437.49	2545.63
437.70	2600.92
437.90	2484.19
438.11	2648.02
438.31	2510.81
438.52	2674.65
438.72	2672.60
438.93	2768.85
439.13	2539.48
439.34	2707.41
439.54	2494.43
439.75	2635.74
439.95	2500.57
440.16	2408.41
440.36	2580.44
440.57	2465.75
440.77	2488.28
440.98	2539.48
441.18	2559.96
441.39	2338.78
441.59	2351.07
441.80	2809.81
442.00	2475.99
442.21	2623.45
442.41	2383.84
442.62	2545.63
442.82	2408.41
443.02	2420.70
443.23	2498.52
443.43	2506.71
443.64	2701.27
443.84	2406.36
444.05	2658.26
444.25	2475.99
444.46	2519.00
444.66	2457.56
444.87	2584.54
445.07	2408.41
445.28	2478.04
445.48	2678.74
445.69	2516.95
445.89	2863.06
446.09	2521.05
446.30	2736.09
446.50	3000.27
446.71	4585.40
446.91	5849.00
447.12	6586.27
447.32	6860.70
447.53	6623.13
447.73	5394.35
447.93	4702.14
448.14	4544.44
448.34	4304.83
448.55	3745.73
448.75	3749.83
448.96	3641.29
449.16	3200.98
449.36	3063.76
449.57	2719.70
449.77	2545.63
449.98	2541.53
450.18	2557.91
450.39	2514.91
450.59	2529.24
450.79	2445.27
451.00	2424.80
451.20	2596.82
451.41	2408.41
451.61	2547.67
451.81	2453.47
452.02	2439.13
452.22	2379.74
452.43	2400.22
