SpectraSuite Data File
++++++++++++++++++++++++++++++++++++
Date: Thu May 05 14:42:09 CEST 2016
User: root
Dark Spectrum Present: No
Reference Spectrum Present: No
Number of Sampled Component Spectra: 1
Spectrometers: USB4C02835
Integration Time (usec): 100000 (USB4C02835)
Spectra Averaged: 1 (USB4C02835)
Boxcar Smoothing: 0 (USB4C02835)
Correct for Electrical Dark: No (USB4C02835)
Strobe/Lamp Enabled: No (USB4C02835)
Correct for Detector Non-linearity: No (USB4C02835)
Correct for Stray Light: No (USB4C02835)
Number of Pixels in Processed Spectrum: 3648
>>>>>Begin Processed Spectral Data<<<<<
177.47	1875.94
177.69	1875.94
177.91	1875.94
178.13	1869.80
178.36	1918.95
178.58	2426.84
178.80	2519.00
179.02	2308.06
179.24	2367.45
179.46	2252.77
179.68	2424.80
179.90	2469.85
180.13	2478.04
180.35	2269.15
180.57	2342.88
180.79	2553.82
181.01	2441.18
181.23	2432.99
181.45	2389.98
181.67	2613.21
181.90	2572.25
182.12	2293.72
182.34	2211.81
182.56	2437.08
182.78	2510.81
183.00	2314.20
183.22	2342.88
183.44	2306.01
183.66	2805.72
183.89	2447.32
184.11	2277.34
184.33	2543.58
184.55	2652.12
184.77	2387.93
184.99	2355.16
185.21	2465.75
185.43	2824.15
185.65	2357.21
185.87	2269.15
186.10	2662.36
186.32	2770.90
186.54	2394.08
186.76	2414.56
186.98	2623.45
187.20	2447.32
187.42	2351.07
187.64	2277.34
187.86	2543.58
188.08	2684.89
188.30	2318.30
188.52	2367.45
188.75	2652.12
188.97	2662.36
189.19	2342.88
189.41	2363.36
189.63	2596.82
189.85	2428.89
190.07	2234.33
190.29	2193.37
190.51	2519.00
190.73	2310.11
190.95	2519.00
191.17	2408.41
191.39	2303.96
191.61	2469.85
191.84	2383.84
192.06	2404.32
192.28	2283.49
192.50	2916.31
192.72	2478.04
192.94	2443.23
193.16	2621.40
193.38	2547.67
193.60	2281.44
193.82	2437.08
194.04	2594.78
194.26	2578.39
194.48	2338.78
194.70	2351.07
194.92	2326.49
195.14	2516.95
195.36	2234.33
195.58	2424.80
195.80	2498.52
196.02	2396.12
196.24	2334.68
196.46	2494.43
196.69	2414.56
196.91	2762.71
197.13	2441.18
197.35	2324.44
197.57	2721.75
197.79	2572.25
198.01	2426.84
198.23	2355.16
198.45	2559.96
198.67	2432.99
198.89	2244.57
199.11	2385.88
199.33	2324.44
199.55	2191.33
199.77	2269.15
199.99	2453.47
200.21	2457.56
200.43	2547.67
200.65	2207.71
200.87	2256.86
201.09	2469.85
201.31	2482.14
201.53	2424.80
201.75	2504.67
201.97	2545.63
202.19	2504.67
202.41	2379.74
202.63	2508.76
202.85	2643.93
203.07	2461.66
203.29	2430.94
203.51	2203.61
203.73	2387.93
203.95	2785.24
204.17	2346.97
204.39	2449.37
204.61	2480.09
204.83	2461.66
205.05	2447.32
205.27	2486.23
205.49	2744.28
205.71	2465.75
205.93	2226.14
206.15	2269.15
206.37	2502.62
206.59	2465.75
206.81	2158.56
207.03	2236.38
207.25	2334.68
207.47	2512.86
207.69	2365.40
207.91	2510.81
208.13	2725.85
208.34	2529.24
208.56	2271.20
208.78	2389.98
209.00	2488.28
209.22	2402.27
209.44	2383.84
209.66	2326.49
209.88	2527.19
210.10	2451.42
210.32	2318.30
210.54	2486.23
210.76	2490.33
210.98	2572.25
211.20	2250.72
211.42	2445.27
211.64	2670.55
211.86	2562.01
212.08	2432.99
212.30	2334.68
212.52	2424.80
212.74	2521.05
212.96	2367.45
213.17	2404.32
213.39	2527.19
213.61	2731.99
213.83	2361.31
214.05	2418.65
214.27	2590.68
214.49	2334.68
214.71	2285.53
214.93	2414.56
215.15	2639.83
215.37	2588.63
215.59	2269.15
215.81	2387.93
216.03	2639.83
216.24	2549.72
216.46	2373.60
216.68	2424.80
216.90	2553.82
217.12	2592.73
217.34	2303.96
217.56	2488.28
217.78	2652.12
218.00	2539.48
218.22	2392.03
218.44	2404.32
218.66	2500.57
218.87	2766.81
219.09	2349.02
219.31	2373.60
219.53	2465.75
219.75	2473.95
219.97	2324.44
220.19	2346.97
220.41	2422.75
220.63	2729.94
220.85	2416.60
221.06	2316.25
221.28	2611.16
221.50	2576.34
221.72	2351.07
221.94	2277.34
222.16	2475.99
222.38	2641.88
222.60	2375.64
222.82	2424.80
223.03	2584.54
223.25	2381.79
223.47	2244.57
223.69	2562.01
223.91	2592.73
224.13	2562.01
224.35	2260.96
224.57	2525.15
224.78	2537.43
225.00	2398.17
225.22	2410.46
225.44	2310.11
225.66	2551.77
225.88	2465.75
226.10	2430.94
226.32	2400.22
226.53	2631.64
226.75	2398.17
226.97	2471.90
227.19	2365.40
227.41	2383.84
227.63	2504.67
227.85	2209.76
228.06	2334.68
228.28	2461.66
228.50	2562.01
228.72	2252.77
228.94	2359.26
229.16	2336.73
229.37	2344.92
229.59	2273.25
229.81	2498.52
230.03	2375.64
230.25	2275.29
230.47	2250.72
230.69	2336.73
230.90	2555.86
231.12	2404.32
231.34	2408.41
231.56	2441.18
231.78	2351.07
232.00	2506.71
232.21	2379.74
232.43	2367.45
232.65	2252.77
232.87	2533.34
233.09	2281.44
233.30	2269.15
233.52	2674.65
233.74	2400.22
233.96	2330.59
234.18	2480.09
234.40	2521.05
234.61	2746.33
234.83	2320.35
235.05	2252.77
235.27	2709.46
235.49	2674.65
235.70	2306.01
235.92	2463.71
236.14	2490.33
236.36	2897.88
236.58	2236.38
236.79	2414.56
237.01	2441.18
237.23	2465.75
237.45	2588.63
237.67	2328.54
237.88	2539.48
238.10	2754.52
238.32	2324.44
238.54	2361.31
238.76	2371.55
238.97	2410.46
239.19	2332.64
239.41	2414.56
239.63	2572.25
239.85	2389.98
240.06	2375.64
240.28	2336.73
240.50	2592.73
240.72	2490.33
240.93	2316.25
241.15	2451.42
241.37	2498.52
241.59	2740.18
241.81	2326.49
242.02	2422.75
242.24	2445.27
242.46	2553.82
242.68	2211.81
242.89	2273.25
243.11	2555.86
243.33	2443.23
243.55	2404.32
243.76	2402.27
243.98	2389.98
244.20	2416.60
244.42	2359.26
244.64	2369.50
244.85	2326.49
245.07	2359.26
245.29	2381.79
245.51	2344.92
245.72	2498.52
245.94	2674.65
246.16	2363.36
246.38	2420.70
246.59	2400.22
246.81	2396.12
247.03	2316.25
247.24	2213.85
247.46	2441.18
247.68	2482.14
247.90	2203.61
248.11	2373.60
248.33	2594.78
248.55	2398.17
248.77	2369.50
248.98	2414.56
249.20	2682.84
249.42	2463.71
249.64	2293.72
249.85	2381.79
250.07	2437.08
250.29	2596.82
250.50	2377.69
250.72	2293.72
250.94	2457.56
251.16	2772.95
251.37	2375.64
251.59	2445.27
251.81	2555.86
252.02	2625.50
252.24	2342.88
252.46	2519.00
252.68	2437.08
252.89	2373.60
253.11	2179.04
253.33	2494.43
253.54	2678.74
253.76	2332.64
253.98	2310.11
254.20	2342.88
254.41	2365.40
254.63	2408.41
254.85	2254.81
255.06	2398.17
255.28	2564.06
255.50	2457.56
255.71	2222.05
255.93	2263.01
256.15	2461.66
256.36	2541.53
256.58	2332.64
256.80	2301.92
257.02	2435.03
257.23	2400.22
257.45	2406.36
257.67	2430.94
257.88	2400.22
258.10	2498.52
258.32	2424.80
258.53	2471.90
258.75	2686.94
258.97	2453.47
259.18	2275.29
259.40	2322.40
259.62	2703.32
259.83	2645.98
260.05	2389.98
260.27	2815.96
260.48	2629.59
260.70	2381.79
260.92	2275.29
261.13	2328.54
261.35	2531.29
261.57	2504.67
261.78	2240.48
262.00	2322.40
262.22	2580.44
262.43	2385.88
262.65	2377.69
262.86	2365.40
263.08	2740.18
263.30	2475.99
263.51	2238.43
263.73	2353.12
263.95	2639.83
264.16	2402.27
264.38	2228.19
264.60	2359.26
264.81	2408.41
265.03	2717.65
265.25	2584.54
265.46	2332.64
265.68	2752.47
265.89	2613.21
266.11	2207.71
266.33	2385.88
266.54	2621.40
266.76	2516.95
266.98	2387.93
267.19	2584.54
267.41	2592.73
267.62	2529.24
267.84	2217.95
268.06	2414.56
268.27	2480.09
268.49	2551.77
268.70	2383.84
268.92	2334.68
269.14	2428.89
269.35	2260.96
269.57	2371.55
269.79	2414.56
270.00	2385.88
270.22	2748.37
270.43	2308.06
270.65	2150.37
270.87	2465.75
271.08	2627.54
271.30	2428.89
271.51	2273.25
271.73	2523.10
271.95	2594.78
272.16	2400.22
272.38	2428.89
272.59	2396.12
272.81	2469.85
273.02	2361.31
273.24	2383.84
273.46	2559.96
273.67	2310.11
273.89	2258.91
274.10	2318.30
274.32	2645.98
274.54	2570.20
274.75	2439.13
274.97	2383.84
275.18	2533.34
275.40	2465.75
275.61	2408.41
275.83	2465.75
276.05	2346.97
276.26	2478.04
276.48	2506.71
276.69	2310.11
276.91	2392.03
277.12	2648.02
277.34	2576.34
277.55	2545.63
277.77	2490.33
277.99	2463.71
278.20	2351.07
278.42	2342.88
278.63	2365.40
278.85	2457.56
279.06	2328.54
279.28	2492.38
279.49	2635.74
279.71	2553.82
279.93	2400.22
280.14	2394.08
280.36	2349.02
280.57	2471.90
280.79	2465.75
281.00	2355.16
281.22	2404.32
281.43	2635.74
281.65	2240.48
281.86	2306.01
282.08	2525.15
282.29	2770.90
282.51	2260.96
282.73	2430.94
282.94	2289.63
283.16	2555.86
283.37	2506.71
283.59	2373.60
283.80	2465.75
284.02	2392.03
284.23	2473.95
284.45	2414.56
284.66	2367.45
284.88	2342.88
285.09	2398.17
285.31	2527.19
285.52	2578.39
285.74	2287.58
285.95	2510.81
286.17	2475.99
286.38	2609.11
286.60	2441.18
286.81	2441.18
287.03	2373.60
287.24	2514.91
287.46	2473.95
287.67	2496.47
287.89	2582.49
288.10	2467.80
288.32	2527.19
288.53	2609.11
288.75	2408.41
288.96	2551.77
289.18	2441.18
289.39	2422.75
289.61	2529.24
289.82	2813.91
290.04	2766.81
290.25	2351.07
290.47	2478.04
290.68	2439.13
290.90	2676.70
291.11	2199.52
291.33	2496.47
291.54	2379.74
291.76	2437.08
291.97	2475.99
292.18	2510.81
292.40	2449.37
292.61	2430.94
292.83	2693.08
293.04	2490.33
293.26	2519.00
293.47	2453.47
293.69	2404.32
293.90	2385.88
294.12	2637.78
294.33	2555.86
294.55	2420.70
294.76	2639.83
294.97	2580.44
295.19	2762.71
295.40	2375.64
295.62	2492.38
295.83	2684.89
296.05	2383.84
296.26	2551.77
296.48	2342.88
296.69	2371.55
296.90	2414.56
297.12	2494.43
297.33	2543.58
297.55	2508.76
297.76	2594.78
297.98	2519.00
298.19	2437.08
298.41	2529.24
298.62	2349.02
298.83	2588.63
299.05	2506.71
299.26	2473.95
299.48	2355.16
299.69	2547.67
299.90	2332.64
300.12	2357.21
300.33	2611.16
300.55	2357.21
300.76	2533.34
300.98	2289.63
301.19	2539.48
301.40	2435.03
301.62	2367.45
301.83	2490.33
302.05	2463.71
302.26	2461.66
302.47	2420.70
302.69	2355.16
302.90	2508.76
303.12	2213.85
303.33	2506.71
303.54	2672.60
303.76	2449.37
303.97	2435.03
304.19	2582.49
304.40	2338.78
304.61	2562.01
304.83	2516.95
305.04	2521.05
305.26	2645.98
305.47	2402.27
305.68	2416.60
305.90	2318.30
306.11	2627.54
306.33	2459.61
306.54	2332.64
306.75	2359.26
306.97	2334.68
307.18	2336.73
307.39	2428.89
307.61	2510.81
307.82	2482.14
308.04	2574.30
308.25	2338.78
308.46	2516.95
308.68	2545.63
308.89	2475.99
309.10	2578.39
309.32	2496.47
309.53	2504.67
309.74	2623.45
309.96	2363.36
310.17	2572.25
310.39	2482.14
310.60	2611.16
310.81	2414.56
311.03	2263.01
311.24	2500.57
311.45	2545.63
311.67	2650.07
311.88	2424.80
312.09	2414.56
312.31	2482.14
312.52	2383.84
312.73	2369.50
312.95	2353.12
313.16	2496.47
313.37	2547.67
313.59	2523.10
313.80	2559.96
314.01	2672.60
314.23	2357.21
314.44	2383.84
314.65	2314.20
314.87	2404.32
315.08	2416.60
315.29	2363.36
315.51	2355.16
315.72	2303.96
315.93	2525.15
316.15	2408.41
316.36	2392.03
316.57	2494.43
316.79	2447.32
317.00	2387.93
317.21	2547.67
317.43	2381.79
317.64	2500.57
317.85	2379.74
318.07	2342.88
318.28	2500.57
318.49	2582.49
318.70	2609.11
318.92	2609.11
319.13	2645.98
319.34	2703.32
319.56	2531.29
319.77	2576.34
319.98	2635.74
320.20	2609.11
320.41	2557.91
320.62	2602.97
320.83	2359.26
321.05	2617.30
321.26	2480.09
321.47	2457.56
321.69	2633.69
321.90	2322.40
322.11	2392.03
322.32	2514.91
322.54	2621.40
322.75	2379.74
322.96	2869.20
323.18	2312.16
323.39	2265.05
323.60	2355.16
323.81	2527.19
324.03	2449.37
324.24	2373.60
324.45	2488.28
324.66	2416.60
324.88	2727.89
325.09	2719.70
325.30	2402.27
325.52	2408.41
325.73	2506.71
325.94	2387.93
326.15	2328.54
326.37	2346.97
326.58	2645.98
326.79	2670.55
327.00	2387.93
327.22	2480.09
327.43	2416.60
327.64	2373.60
327.85	2475.99
328.07	2461.66
328.28	2654.17
328.49	2445.27
328.70	2400.22
328.92	2371.55
329.13	2422.75
329.34	2578.39
329.55	2564.06
329.76	2494.43
329.98	2469.85
330.19	2592.73
330.40	2564.06
330.61	2435.03
330.83	2611.16
331.04	2494.43
331.25	2494.43
331.46	2484.19
331.68	2359.26
331.89	2545.63
332.10	2389.98
332.31	2281.44
332.52	2441.18
332.74	2656.22
332.95	2260.96
333.16	2265.05
333.37	2584.54
333.58	2410.46
333.80	2512.86
334.01	2252.77
334.22	2486.23
334.43	2529.24
334.64	2377.69
334.86	2381.79
335.07	2435.03
335.28	2672.60
335.49	2328.54
335.70	2547.67
335.92	2619.35
336.13	2752.47
336.34	2514.91
336.55	2430.94
336.76	2467.80
336.98	2256.86
337.19	2441.18
337.40	2576.34
337.61	2768.85
337.82	2408.41
338.04	2473.95
338.25	2344.92
338.46	2484.19
338.67	2389.98
338.88	2367.45
339.09	2324.44
339.31	2457.56
339.52	2297.82
339.73	2412.51
339.94	2449.37
340.15	2578.39
340.36	2424.80
340.58	2412.51
340.79	2338.78
341.00	2592.73
341.21	2381.79
341.42	2555.86
341.63	2420.70
341.85	2555.86
342.06	2490.33
342.27	2398.17
342.48	2547.67
342.69	2342.88
342.90	2475.99
343.12	2631.64
343.33	2465.75
343.54	2594.78
343.75	2674.65
343.96	2465.75
344.17	2369.50
344.38	2465.75
344.60	2441.18
344.81	2359.26
345.02	2400.22
345.23	2605.02
345.44	2801.62
345.65	2506.71
345.86	2480.09
346.07	2484.19
346.29	2453.47
346.50	2392.03
346.71	2467.80
346.92	2658.26
347.13	2797.53
347.34	2478.04
347.55	2385.88
347.76	2539.48
347.98	2301.92
348.19	2424.80
348.40	2645.98
348.61	2383.84
348.82	2709.46
349.03	2480.09
349.24	2301.92
349.45	2742.23
349.66	2328.54
349.88	2359.26
350.09	2334.68
350.30	2566.10
350.51	2605.02
350.72	2543.58
350.93	2496.47
351.14	2420.70
351.35	2570.20
351.56	2480.09
351.77	2402.27
351.99	2478.04
352.20	2666.46
352.41	2514.91
352.62	2256.86
352.83	2535.39
353.04	2482.14
353.25	2437.08
353.46	2482.14
353.67	2637.78
353.88	2224.09
354.09	2349.02
354.30	2394.08
354.52	2570.20
354.73	2494.43
354.94	2353.12
355.15	2424.80
355.36	2711.51
355.57	2420.70
355.78	2422.75
355.99	2394.08
356.20	2473.95
356.41	2660.31
356.62	2547.67
356.83	2504.67
357.04	2652.12
357.25	2285.53
357.46	2441.18
357.68	2357.21
357.89	2392.03
358.10	2432.99
358.31	2400.22
358.52	2414.56
358.73	2324.44
358.94	2342.88
359.15	2342.88
359.36	2514.91
359.57	2527.19
359.78	2473.95
359.99	2492.38
360.20	2387.93
360.41	2400.22
360.62	2592.73
360.83	2475.99
361.04	2424.80
361.25	2539.48
361.46	2629.59
361.67	2514.91
361.88	2514.91
362.09	2625.50
362.30	2510.81
362.51	2314.20
362.72	2449.37
362.93	2568.15
363.14	2539.48
363.35	2500.57
363.56	2297.82
363.78	2654.17
363.99	2562.01
364.20	2408.41
364.41	2486.23
364.62	2713.56
364.83	2564.06
365.04	2430.94
365.25	2387.93
365.46	2736.09
365.67	2455.51
365.88	2422.75
366.09	2349.02
366.30	2445.27
366.51	2465.75
366.72	2316.25
366.93	2359.26
367.14	2553.82
367.35	2672.60
367.56	2381.79
367.77	2596.82
367.98	2588.63
368.18	2523.10
368.39	2539.48
368.60	2367.45
368.81	2611.16
369.02	2607.06
369.23	2392.03
369.44	2301.92
369.65	2473.95
369.86	2514.91
370.07	2471.90
370.28	2281.44
370.49	2490.33
370.70	2490.33
370.91	2377.69
371.12	2260.96
371.33	2635.74
371.54	2363.36
371.75	2586.58
371.96	2138.08
372.17	2510.81
372.38	2428.89
372.59	2506.71
372.80	2414.56
373.01	2473.95
373.22	2521.05
373.43	2432.99
373.64	2283.49
373.85	2629.59
374.06	2826.20
374.26	2535.39
374.47	2396.12
374.68	2699.22
374.89	2547.67
375.10	2342.88
375.31	2541.53
375.52	2435.03
375.73	2523.10
375.94	2273.25
376.15	2570.20
376.36	2371.55
376.57	2432.99
376.78	2422.75
376.99	2449.37
377.20	2596.82
377.40	2383.84
377.61	2660.31
377.82	2363.36
378.03	2652.12
378.24	2564.06
378.45	2416.60
378.66	2478.04
378.87	2306.01
379.08	2230.24
379.29	2455.51
379.50	2465.75
379.71	2439.13
379.91	2496.47
380.12	2457.56
380.33	2451.42
380.54	2514.91
380.75	2490.33
380.96	2392.03
381.17	2562.01
381.38	2531.29
381.59	2490.33
381.80	2430.94
382.00	2650.07
382.21	2527.19
382.42	2693.08
382.63	2775.00
382.84	2531.29
383.05	2627.54
383.26	2619.35
383.47	2471.90
383.68	2531.29
383.88	2586.58
384.09	2490.33
384.30	2662.36
384.51	2553.82
384.72	2506.71
384.93	2383.84
385.14	2529.24
385.35	2519.00
385.55	2328.54
385.76	2588.63
385.97	2492.38
386.18	2383.84
386.39	2445.27
386.60	2449.37
386.81	2498.52
387.02	2346.97
387.22	2267.10
387.43	2553.82
387.64	2633.69
387.85	2752.47
388.06	2666.46
388.27	4065.22
388.48	8261.51
388.68	11956.04
388.89	14354.21
389.10	15785.74
389.31	14614.30
389.52	11499.34
389.73	10121.06
389.93	9011.06
390.14	8296.32
390.35	7497.61
390.56	6696.86
390.77	5369.77
390.98	4124.61
391.18	3465.16
391.39	2918.36
391.60	2562.01
391.81	2660.31
392.02	2535.39
392.23	2711.51
392.43	2523.10
392.64	2600.92
392.85	2437.08
393.06	2711.51
393.27	2492.38
393.47	2398.17
393.68	2475.99
393.89	2383.84
394.10	2664.41
394.31	2387.93
394.52	2396.12
394.72	2430.94
394.93	2678.74
395.14	2357.21
395.35	2570.20
395.56	2445.27
395.76	2439.13
395.97	2416.60
396.18	2594.78
396.39	2590.68
396.60	3010.51
396.80	2725.85
397.01	2613.21
397.22	2688.98
397.43	2750.42
397.64	2478.04
397.84	2547.67
398.05	2744.28
398.26	2611.16
398.47	2590.68
398.67	2531.29
398.88	2461.66
399.09	2547.67
399.30	2383.84
399.51	2482.14
399.71	2381.79
399.92	2449.37
400.13	2437.08
400.34	2439.13
400.54	2486.23
400.75	2674.65
400.96	2502.62
401.17	2643.93
401.37	2508.76
401.58	2432.99
401.79	2467.80
402.00	2551.77
402.21	2930.64
402.41	2764.76
402.62	2746.33
402.83	2930.64
403.04	2979.79
403.24	3065.81
403.45	2664.41
403.66	2760.66
403.87	2678.74
404.07	2801.62
404.28	2676.70
404.49	2727.89
404.70	2676.70
404.90	2553.82
405.11	2465.75
405.32	2584.54
405.52	2424.80
405.73	2398.17
405.94	2349.02
406.15	2504.67
406.35	2586.58
406.56	2637.78
406.77	2478.04
406.98	2465.75
407.18	2490.33
407.39	2662.36
407.60	2480.09
407.80	2514.91
408.01	2439.13
408.22	2471.90
408.43	2389.98
408.63	2510.81
408.84	2576.34
409.05	2588.63
409.25	2389.98
409.46	2336.73
409.67	2392.03
409.88	2445.27
410.08	2568.15
410.29	2396.12
410.50	2617.30
410.70	2523.10
410.91	2365.40
411.12	2488.28
411.32	2445.27
411.53	2310.11
411.74	2512.86
411.95	2506.71
412.15	2506.71
412.36	2629.59
412.57	2594.78
412.77	2594.78
412.98	2543.58
413.19	2486.23
413.39	2512.86
413.60	2465.75
413.81	2695.13
414.01	2414.56
414.22	2441.18
414.43	2588.63
414.63	2373.60
414.84	2707.41
415.05	2510.81
415.25	2228.19
415.46	2615.26
415.67	2432.99
415.87	2512.86
416.08	2375.64
416.29	2475.99
416.49	2600.92
416.70	2410.46
416.91	2451.42
417.11	2449.37
417.32	2613.21
417.53	2506.71
417.73	2449.37
417.94	2506.71
418.15	2543.58
418.35	2424.80
418.56	2465.75
418.77	2818.00
418.97	2473.95
419.18	2451.42
419.38	2258.91
419.59	2482.14
419.80	2670.55
420.00	2351.07
420.21	2488.28
420.42	2578.39
420.62	2559.96
420.83	2428.89
421.04	2445.27
421.24	2406.36
421.45	2611.16
421.65	2537.43
421.86	2496.47
422.07	2662.36
422.27	2510.81
422.48	2480.09
422.69	2379.74
422.89	2496.47
423.10	2500.57
423.30	2301.92
423.51	2473.95
423.72	2588.63
423.92	2582.49
424.13	2269.15
424.33	2449.37
424.54	2555.86
424.75	2502.62
424.95	2641.88
425.16	2496.47
425.36	2465.75
425.57	2635.74
425.78	2570.20
425.98	2615.26
426.19	2387.93
426.39	2371.55
426.60	2459.61
426.81	2568.15
427.01	2465.75
427.22	2412.51
427.42	2297.82
427.63	2387.93
427.83	2631.64
428.04	2715.61
428.25	2547.67
428.45	2566.10
428.66	2635.74
428.86	2525.15
429.07	2410.46
429.28	2537.43
429.48	2451.42
429.69	2394.08
429.89	2512.86
430.10	2346.97
430.30	2523.10
430.51	2656.22
430.71	2412.51
430.92	2379.74
431.13	2473.95
431.33	2508.76
431.54	2562.01
431.74	2625.50
431.95	2830.29
432.15	2342.88
432.36	2428.89
432.56	2553.82
432.77	2775.00
432.98	2729.94
433.18	2496.47
433.39	2412.51
433.59	2437.08
433.80	2721.75
434.00	2678.74
434.21	2449.37
434.41	2398.17
434.62	2736.09
434.82	2291.68
435.03	2334.68
435.23	2547.67
435.44	2281.44
435.64	2506.71
435.85	2504.67
436.06	2627.54
436.26	2635.74
436.47	2420.70
436.67	2392.03
436.88	2453.47
437.08	2574.30
437.29	2547.67
437.49	2514.91
437.70	2643.93
437.90	2512.86
438.11	2660.31
438.31	2523.10
438.52	2666.46
438.72	2703.32
438.93	2711.51
439.13	2533.34
439.34	2568.15
439.54	2537.43
439.75	2617.30
439.95	2543.58
440.16	2490.33
440.36	2506.71
440.57	2506.71
440.77	2437.08
440.98	2496.47
441.18	2543.58
441.39	2478.04
441.59	2453.47
441.80	2795.48
442.00	2432.99
442.21	2576.34
442.41	2424.80
442.62	2584.54
442.82	2404.32
443.02	2383.84
443.23	2455.51
443.43	2435.03
443.64	2621.40
443.84	2367.45
444.05	2643.93
444.25	2502.62
444.46	2422.75
444.66	2471.90
444.87	2656.22
445.07	2363.36
445.28	2490.33
445.48	2648.02
445.69	2555.86
445.89	2789.33
446.09	2457.56
446.30	2801.62
446.50	2957.27
446.71	4638.65
446.91	5814.18
447.12	6653.85
447.32	6907.80
447.53	6414.24
447.73	5463.98
447.93	4857.78
448.14	4472.76
448.34	4392.89
448.55	3928.00
448.75	3751.88
448.96	3592.14
449.16	3293.13
449.36	3180.50
449.57	2731.99
449.77	2674.65
449.98	2441.18
450.18	2596.82
450.39	2473.95
450.59	2543.58
450.79	2529.24
451.00	2451.42
451.20	2535.39
451.41	2432.99
451.61	2602.97
451.81	2545.63
452.02	2416.60
452.22	2478.04
452.43	2449.37
