SpectraSuite Data File
++++++++++++++++++++++++++++++++++++
Date: Thu May 05 14:42:15 CEST 2016
User: root
Dark Spectrum Present: No
Reference Spectrum Present: No
Number of Sampled Component Spectra: 1
Spectrometers: USB4C02835
Integration Time (usec): 100000 (USB4C02835)
Spectra Averaged: 1 (USB4C02835)
Boxcar Smoothing: 0 (USB4C02835)
Correct for Electrical Dark: No (USB4C02835)
Strobe/Lamp Enabled: No (USB4C02835)
Correct for Detector Non-linearity: No (USB4C02835)
Correct for Stray Light: No (USB4C02835)
Number of Pixels in Processed Spectrum: 3648
>>>>>Begin Processed Spectral Data<<<<<
177.47	1923.04
177.69	1923.04
177.91	1923.04
178.13	1884.13
178.36	1900.52
178.58	2318.30
178.80	2514.91
179.02	2277.34
179.24	2355.16
179.46	2299.87
179.68	2381.79
179.90	2455.51
180.13	2527.19
180.35	2228.19
180.57	2359.26
180.79	2545.63
181.01	2447.32
181.23	2357.21
181.45	2451.42
181.67	2592.73
181.90	2543.58
182.12	2389.98
182.34	2213.85
182.56	2572.25
182.78	2519.00
183.00	2353.12
183.22	2301.92
183.44	2215.90
183.66	2813.91
183.89	2459.61
184.11	2340.83
184.33	2555.86
184.55	2564.06
184.77	2326.49
184.99	2346.97
185.21	2457.56
185.43	2680.79
185.65	2365.40
185.87	2334.68
186.10	2703.32
186.32	2795.48
186.54	2338.78
186.76	2424.80
186.98	2562.01
187.20	2467.80
187.42	2367.45
187.64	2363.36
187.86	2471.90
188.08	2623.45
188.30	2320.35
188.52	2338.78
188.75	2621.40
188.97	2611.16
189.19	2291.68
189.41	2346.97
189.63	2551.77
189.85	2404.32
190.07	2275.29
190.29	2228.19
190.51	2471.90
190.73	2359.26
190.95	2514.91
191.17	2359.26
191.39	2230.24
191.61	2455.51
191.84	2342.88
192.06	2414.56
192.28	2301.92
192.50	2805.72
192.72	2414.56
192.94	2420.70
193.16	2492.38
193.38	2502.62
193.60	2269.15
193.82	2361.31
194.04	2676.70
194.26	2545.63
194.48	2365.40
194.70	2316.25
194.92	2516.95
195.14	2650.07
195.36	2293.72
195.58	2375.64
195.80	2455.51
196.02	2473.95
196.24	2289.63
196.46	2402.27
196.69	2392.03
196.91	2764.76
197.13	2310.11
197.35	2295.77
197.57	2680.79
197.79	2598.87
198.01	2502.62
198.23	2389.98
198.45	2543.58
198.67	2330.59
198.89	2260.96
199.11	2414.56
199.33	2412.51
199.55	2234.33
199.77	2310.11
199.99	2375.64
200.21	2432.99
200.43	2512.86
200.65	2342.88
200.87	2240.48
201.09	2482.14
201.31	2389.98
201.53	2392.03
201.75	2424.80
201.97	2539.48
202.19	2533.34
202.41	2412.51
202.63	2494.43
202.85	2643.93
203.07	2557.91
203.29	2357.21
203.51	2349.02
203.73	2383.84
203.95	2906.07
204.17	2322.40
204.39	2426.84
204.61	2484.19
204.83	2371.55
205.05	2473.95
205.27	2414.56
205.49	2684.89
205.71	2439.13
205.93	2269.15
206.15	2318.30
206.37	2510.81
206.59	2494.43
206.81	2244.57
207.03	2269.15
207.25	2334.68
207.47	2584.54
207.69	2283.49
207.91	2527.19
208.13	2643.93
208.34	2435.03
208.56	2328.54
208.78	2385.88
209.00	2408.41
209.22	2441.18
209.44	2365.40
209.66	2277.34
209.88	2514.91
210.10	2359.26
210.32	2326.49
210.54	2451.42
210.76	2482.14
210.98	2580.44
211.20	2236.38
211.42	2426.84
211.64	2613.21
211.86	2500.57
212.08	2365.40
212.30	2344.92
212.52	2367.45
212.74	2551.77
212.96	2375.64
213.17	2445.27
213.39	2557.91
213.61	2650.07
213.83	2342.88
214.05	2469.85
214.27	2701.27
214.49	2344.92
214.71	2318.30
214.93	2408.41
215.15	2498.52
215.37	2590.68
215.59	2191.33
215.81	2383.84
216.03	2682.84
216.24	2435.03
216.46	2398.17
216.68	2428.89
216.90	2478.04
217.12	2643.93
217.34	2301.92
217.56	2449.37
217.78	2656.22
218.00	2512.86
218.22	2332.64
218.44	2447.32
218.66	2480.09
218.87	2662.36
219.09	2439.13
219.31	2389.98
219.53	2525.15
219.75	2377.69
219.97	2353.12
220.19	2342.88
220.41	2519.00
220.63	2645.98
220.85	2383.84
221.06	2379.74
221.28	2703.32
221.50	2529.24
221.72	2375.64
221.94	2336.73
222.16	2531.29
222.38	2551.77
222.60	2289.63
222.82	2342.88
223.03	2568.15
223.25	2285.53
223.47	2375.64
223.69	2494.43
223.91	2512.86
224.13	2572.25
224.35	2306.01
224.57	2488.28
224.78	2602.97
225.00	2330.59
225.22	2383.84
225.44	2283.49
225.66	2539.48
225.88	2441.18
226.10	2506.71
226.32	2332.64
226.53	2625.50
226.75	2416.60
226.97	2332.64
227.19	2297.82
227.41	2301.92
227.63	2402.27
227.85	2240.48
228.06	2392.03
228.28	2432.99
228.50	2586.58
228.72	2234.33
228.94	2303.96
229.16	2228.19
229.37	2318.30
229.59	2338.78
229.81	2568.15
230.03	2441.18
230.25	2379.74
230.47	2244.57
230.69	2244.57
230.90	2613.21
231.12	2367.45
231.34	2402.27
231.56	2441.18
231.78	2379.74
232.00	2437.08
232.21	2408.41
232.43	2299.87
232.65	2258.91
232.87	2533.34
233.09	2297.82
233.30	2310.11
233.52	2645.98
233.74	2422.75
233.96	2334.68
234.18	2418.65
234.40	2398.17
234.61	2748.37
234.83	2285.53
235.05	2320.35
235.27	2820.05
235.49	2605.02
235.70	2265.05
235.92	2439.13
236.14	2592.73
236.36	2822.10
236.58	2265.05
236.79	2375.64
237.01	2523.10
237.23	2576.34
237.45	2553.82
237.67	2379.74
237.88	2564.06
238.10	2723.80
238.32	2316.25
238.54	2389.98
238.76	2478.04
238.97	2473.95
239.19	2260.96
239.41	2504.67
239.63	2686.94
239.85	2430.94
240.06	2381.79
240.28	2310.11
240.50	2570.20
240.72	2545.63
240.93	2258.91
241.15	2443.23
241.37	2488.28
241.59	2621.40
241.81	2412.51
242.02	2297.82
242.24	2549.72
242.46	2580.44
242.68	2209.76
242.89	2344.92
243.11	2645.98
243.33	2467.80
243.55	2377.69
243.76	2422.75
243.98	2424.80
244.20	2437.08
244.42	2351.07
244.64	2375.64
244.85	2324.44
245.07	2342.88
245.29	2351.07
245.51	2373.60
245.72	2523.10
245.94	2600.92
246.16	2408.41
246.38	2420.70
246.59	2375.64
246.81	2410.46
247.03	2314.20
247.24	2250.72
247.46	2437.08
247.68	2473.95
247.90	2316.25
248.11	2277.34
248.33	2527.19
248.55	2488.28
248.77	2400.22
248.98	2428.89
249.20	2697.17
249.42	2482.14
249.64	2447.32
249.85	2357.21
250.07	2465.75
250.29	2529.24
250.50	2506.71
250.72	2326.49
250.94	2480.09
251.16	2707.41
251.37	2342.88
251.59	2447.32
251.81	2613.21
252.02	2709.46
252.24	2342.88
252.46	2496.47
252.68	2324.44
252.89	2412.51
253.11	2260.96
253.33	2414.56
253.54	2637.78
253.76	2269.15
253.98	2326.49
254.20	2332.64
254.41	2285.53
254.63	2420.70
254.85	2246.62
255.06	2420.70
255.28	2519.00
255.50	2484.19
255.71	2295.77
255.93	2220.00
256.15	2555.86
256.36	2547.67
256.58	2332.64
256.80	2394.08
257.02	2475.99
257.23	2457.56
257.45	2361.31
257.67	2459.61
257.88	2432.99
258.10	2545.63
258.32	2291.68
258.53	2453.47
258.75	2684.89
258.97	2377.69
259.18	2244.57
259.40	2363.36
259.62	2658.26
259.83	2656.22
260.05	2357.21
260.27	2891.73
260.48	2613.21
260.70	2402.27
260.92	2332.64
261.13	2422.75
261.35	2531.29
261.57	2576.34
261.78	2285.53
262.00	2328.54
262.22	2541.53
262.43	2414.56
262.65	2389.98
262.86	2308.06
263.08	2772.95
263.30	2504.67
263.51	2248.67
263.73	2277.34
263.95	2662.36
264.16	2400.22
264.38	2236.38
264.60	2342.88
264.81	2404.32
265.03	2609.11
265.25	2557.91
265.46	2322.40
265.68	2631.64
265.89	2541.53
266.11	2248.67
266.33	2342.88
266.54	2605.02
266.76	2500.57
266.98	2426.84
267.19	2478.04
267.41	2645.98
267.62	2400.22
267.84	2260.96
268.06	2437.08
268.27	2559.96
268.49	2586.58
268.70	2396.12
268.92	2400.22
269.14	2379.74
269.35	2342.88
269.57	2447.32
269.79	2369.50
270.00	2445.27
270.22	2715.61
270.43	2174.94
270.65	2232.29
270.87	2486.23
271.08	2531.29
271.30	2445.27
271.51	2285.53
271.73	2553.82
271.95	2600.92
272.16	2326.49
272.38	2439.13
272.59	2463.71
272.81	2527.19
273.02	2400.22
273.24	2318.30
273.46	2654.17
273.67	2404.32
273.89	2310.11
274.10	2371.55
274.32	2609.11
274.54	2531.29
274.75	2424.80
274.97	2344.92
275.18	2543.58
275.40	2574.30
275.61	2451.42
275.83	2486.23
276.05	2379.74
276.26	2590.68
276.48	2447.32
276.69	2322.40
276.91	2494.43
277.12	2650.07
277.34	2496.47
277.55	2533.34
277.77	2475.99
277.99	2441.18
278.20	2357.21
278.42	2316.25
278.63	2424.80
278.85	2387.93
279.06	2367.45
279.28	2539.48
279.49	2566.10
279.71	2572.25
279.93	2394.08
280.14	2512.86
280.36	2490.33
280.57	2637.78
280.79	2553.82
281.00	2392.03
281.22	2420.70
281.43	2600.92
281.65	2195.42
281.86	2281.44
282.08	2480.09
282.29	2836.44
282.51	2285.53
282.73	2318.30
282.94	2316.25
283.16	2598.87
283.37	2541.53
283.59	2416.60
283.80	2588.63
284.02	2463.71
284.23	2467.80
284.45	2260.96
284.66	2256.86
284.88	2349.02
285.09	2461.66
285.31	2471.90
285.52	2455.51
285.74	2316.25
285.95	2439.13
286.17	2492.38
286.38	2592.73
286.60	2359.26
286.81	2326.49
287.03	2369.50
287.24	2482.14
287.46	2559.96
287.67	2445.27
287.89	2654.17
288.10	2465.75
288.32	2539.48
288.53	2580.44
288.75	2422.75
288.96	2531.29
289.18	2410.46
289.39	2418.65
289.61	2496.47
289.82	2734.04
290.04	2652.12
290.25	2355.16
290.47	2457.56
290.68	2426.84
290.90	2586.58
291.11	2277.34
291.33	2492.38
291.54	2377.69
291.76	2359.26
291.97	2451.42
292.18	2504.67
292.40	2473.95
292.61	2355.16
292.83	2592.73
293.04	2447.32
293.26	2529.24
293.47	2441.18
293.69	2379.74
293.90	2349.02
294.12	2662.36
294.33	2519.00
294.55	2424.80
294.76	2498.52
294.97	2639.83
295.19	2682.84
295.40	2408.41
295.62	2482.14
295.83	2613.21
296.05	2392.03
296.26	2514.91
296.48	2338.78
296.69	2422.75
296.90	2572.25
297.12	2457.56
297.33	2555.86
297.55	2447.32
297.76	2559.96
297.98	2463.71
298.19	2439.13
298.41	2486.23
298.62	2351.07
298.83	2541.53
299.05	2506.71
299.26	2441.18
299.48	2353.12
299.69	2529.24
299.90	2480.09
300.12	2371.55
300.33	2570.20
300.55	2455.51
300.76	2430.94
300.98	2392.03
301.19	2598.87
301.40	2428.89
301.62	2500.57
301.83	2525.15
302.05	2480.09
302.26	2377.69
302.47	2510.81
302.69	2375.64
302.90	2478.04
303.12	2244.57
303.33	2486.23
303.54	2703.32
303.76	2445.27
303.97	2484.19
304.19	2594.78
304.40	2338.78
304.61	2537.43
304.83	2545.63
305.04	2568.15
305.26	2541.53
305.47	2467.80
305.68	2410.46
305.90	2359.26
306.11	2596.82
306.33	2445.27
306.54	2379.74
306.75	2414.56
306.97	2269.15
307.18	2367.45
307.39	2355.16
307.61	2492.38
307.82	2441.18
308.04	2568.15
308.25	2310.11
308.46	2488.28
308.68	2469.85
308.89	2418.65
309.10	2527.19
309.32	2428.89
309.53	2473.95
309.74	2559.96
309.96	2396.12
310.17	2584.54
310.39	2432.99
310.60	2516.95
310.81	2430.94
311.03	2318.30
311.24	2512.86
311.45	2504.67
311.67	2594.78
311.88	2449.37
312.09	2424.80
312.31	2424.80
312.52	2443.23
312.73	2379.74
312.95	2324.44
313.16	2312.16
313.37	2613.21
313.59	2455.51
313.80	2596.82
314.01	2695.13
314.23	2449.37
314.44	2422.75
314.65	2375.64
314.87	2369.50
315.08	2412.51
315.29	2383.84
315.51	2293.72
315.72	2306.01
315.93	2611.16
316.15	2541.53
316.36	2424.80
316.57	2445.27
316.79	2504.67
317.00	2404.32
317.21	2523.10
317.43	2383.84
317.64	2496.47
317.85	2244.57
318.07	2379.74
318.28	2363.36
318.49	2529.24
318.70	2650.07
318.92	2605.02
319.13	2607.06
319.34	2686.94
319.56	2539.48
319.77	2545.63
319.98	2660.31
320.20	2572.25
320.41	2578.39
320.62	2557.91
320.83	2351.07
321.05	2643.93
321.26	2414.56
321.47	2555.86
321.69	2609.11
321.90	2273.25
322.11	2414.56
322.32	2494.43
322.54	2645.98
322.75	2334.68
322.96	2834.39
323.18	2322.40
323.39	2314.20
323.60	2369.50
323.81	2490.33
324.03	2377.69
324.24	2447.32
324.45	2432.99
324.66	2342.88
324.88	2645.98
325.09	2709.46
325.30	2414.56
325.52	2430.94
325.73	2596.82
325.94	2402.27
326.15	2301.92
326.37	2385.88
326.58	2572.25
326.79	2660.31
327.00	2408.41
327.22	2406.36
327.43	2422.75
327.64	2285.53
327.85	2420.70
328.07	2457.56
328.28	2756.57
328.49	2531.29
328.70	2408.41
328.92	2377.69
329.13	2457.56
329.34	2535.39
329.55	2600.92
329.76	2502.62
329.98	2506.71
330.19	2588.63
330.40	2439.13
330.61	2426.84
330.83	2539.48
331.04	2383.84
331.25	2469.85
331.46	2414.56
331.68	2306.01
331.89	2590.68
332.10	2381.79
332.31	2312.16
332.52	2516.95
332.74	2611.16
332.95	2285.53
333.16	2342.88
333.37	2570.20
333.58	2451.42
333.80	2453.47
334.01	2314.20
334.22	2439.13
334.43	2424.80
334.64	2338.78
334.86	2396.12
335.07	2414.56
335.28	2633.69
335.49	2330.59
335.70	2469.85
335.92	2703.32
336.13	2803.67
336.34	2498.52
336.55	2490.33
336.76	2547.67
336.98	2215.90
337.19	2441.18
337.40	2670.55
337.61	2863.06
337.82	2492.38
338.04	2527.19
338.25	2244.57
338.46	2383.84
338.67	2432.99
338.88	2363.36
339.09	2326.49
339.31	2441.18
339.52	2414.56
339.73	2408.41
339.94	2375.64
340.15	2523.10
340.36	2385.88
340.58	2467.80
340.79	2402.27
341.00	2699.22
341.21	2445.27
341.42	2629.59
341.63	2379.74
341.85	2588.63
342.06	2572.25
342.27	2336.73
342.48	2512.86
342.69	2334.68
342.90	2486.23
343.12	2596.82
343.33	2328.54
343.54	2586.58
343.75	2654.17
343.96	2453.47
344.17	2461.66
344.38	2514.91
344.60	2408.41
344.81	2322.40
345.02	2459.61
345.23	2613.21
345.44	2779.09
345.65	2516.95
345.86	2430.94
346.07	2521.05
346.29	2437.08
346.50	2541.53
346.71	2506.71
346.92	2670.55
347.13	2756.57
347.34	2422.75
347.55	2357.21
347.76	2551.77
347.98	2285.53
348.19	2408.41
348.40	2629.59
348.61	2422.75
348.82	2699.22
349.03	2473.95
349.24	2299.87
349.45	2699.22
349.66	2232.29
349.88	2453.47
350.09	2379.74
350.30	2641.88
350.51	2684.89
350.72	2504.67
350.93	2435.03
351.14	2443.23
351.35	2531.29
351.56	2424.80
351.77	2445.27
351.99	2605.02
352.20	2650.07
352.41	2553.82
352.62	2293.72
352.83	2566.10
353.04	2471.90
353.25	2422.75
353.46	2437.08
353.67	2605.02
353.88	2279.39
354.09	2363.36
354.30	2498.52
354.52	2605.02
354.73	2508.76
354.94	2400.22
355.15	2498.52
355.36	2701.27
355.57	2420.70
355.78	2467.80
355.99	2441.18
356.20	2424.80
356.41	2607.06
356.62	2439.13
356.83	2490.33
357.04	2682.84
357.25	2332.64
357.46	2398.17
357.68	2306.01
357.89	2367.45
358.10	2537.43
358.31	2414.56
358.52	2392.03
358.73	2400.22
358.94	2291.68
359.15	2441.18
359.36	2453.47
359.57	2424.80
359.78	2406.36
359.99	2537.43
360.20	2283.49
360.41	2435.03
360.62	2588.63
360.83	2492.38
361.04	2459.61
361.25	2455.51
361.46	2713.56
361.67	2502.62
361.88	2514.91
362.09	2537.43
362.30	2508.76
362.51	2306.01
362.72	2449.37
362.93	2596.82
363.14	2598.87
363.35	2461.66
363.56	2285.53
363.78	2547.67
363.99	2562.01
364.20	2349.02
364.41	2510.81
364.62	2705.37
364.83	2432.99
365.04	2371.55
365.25	2445.27
365.46	2727.89
365.67	2375.64
365.88	2465.75
366.09	2416.60
366.30	2447.32
366.51	2504.67
366.72	2334.68
366.93	2428.89
367.14	2437.08
367.35	2613.21
367.56	2418.65
367.77	2482.14
367.98	2482.14
368.18	2514.91
368.39	2525.15
368.60	2408.41
368.81	2531.29
369.02	2473.95
369.23	2416.60
369.44	2252.77
369.65	2471.90
369.86	2566.10
370.07	2523.10
370.28	2379.74
370.49	2580.44
370.70	2592.73
370.91	2273.25
371.12	2289.63
371.33	2686.94
371.54	2447.32
371.75	2654.17
371.96	2267.10
372.17	2512.86
372.38	2420.70
372.59	2531.29
372.80	2389.98
373.01	2463.71
373.22	2523.10
373.43	2514.91
373.64	2256.86
373.85	2594.78
374.06	2674.65
374.26	2547.67
374.47	2537.43
374.68	2652.12
374.89	2525.15
375.10	2437.08
375.31	2586.58
375.52	2463.71
375.73	2480.09
375.94	2363.36
376.15	2535.39
376.36	2320.35
376.57	2428.89
376.78	2400.22
376.99	2432.99
377.20	2629.59
377.40	2400.22
377.61	2707.41
377.82	2398.17
378.03	2611.16
378.24	2650.07
378.45	2488.28
378.66	2480.09
378.87	2346.97
379.08	2295.77
379.29	2369.50
379.50	2566.10
379.71	2392.03
379.91	2586.58
380.12	2500.57
380.33	2414.56
380.54	2443.23
380.75	2465.75
380.96	2385.88
381.17	2480.09
381.38	2572.25
381.59	2537.43
381.80	2400.22
382.00	2676.70
382.21	2439.13
382.42	2686.94
382.63	2654.17
382.84	2545.63
383.05	2654.17
383.26	2760.66
383.47	2482.14
383.68	2494.43
383.88	2576.34
384.09	2537.43
384.30	2584.54
384.51	2492.38
384.72	2412.51
384.93	2283.49
385.14	2424.80
385.35	2602.97
385.55	2396.12
385.76	2566.10
385.97	2406.36
386.18	2338.78
386.39	2389.98
386.60	2418.65
386.81	2459.61
387.02	2299.87
387.22	2371.55
387.43	2574.30
387.64	2527.19
387.85	2621.40
388.06	2584.54
388.27	4106.18
388.48	8277.89
388.68	12093.26
388.89	14511.91
389.10	15882.00
389.31	14769.95
389.52	11521.87
389.73	9985.90
389.93	9152.37
390.14	8368.00
390.35	7430.03
390.56	6752.15
390.77	5474.22
390.98	4235.20
391.18	3549.13
391.39	2895.83
391.60	2570.20
391.81	2652.12
392.02	2383.84
392.23	2781.14
392.43	2508.76
392.64	2621.40
392.85	2449.37
393.06	2670.55
393.27	2478.04
393.47	2387.93
393.68	2506.71
393.89	2437.08
394.10	2713.56
394.31	2400.22
394.52	2424.80
394.72	2443.23
394.93	2693.08
395.14	2346.97
395.35	2521.05
395.56	2473.95
395.76	2484.19
395.97	2404.32
396.18	2590.68
396.39	2596.82
396.60	3000.27
396.80	2703.32
397.01	2602.97
397.22	2670.55
397.43	2693.08
397.64	2463.71
397.84	2564.06
398.05	2799.57
398.26	2519.00
398.47	2555.86
398.67	2621.40
398.88	2441.18
399.09	2574.30
399.30	2422.75
399.51	2490.33
399.71	2435.03
399.92	2473.95
400.13	2490.33
400.34	2416.60
400.54	2629.59
400.75	2693.08
400.96	2465.75
401.17	2691.03
401.37	2539.48
401.58	2480.09
401.79	2449.37
402.00	2547.67
402.21	2906.07
402.41	2877.40
402.62	2854.87
402.83	2901.97
403.04	2996.18
403.24	3149.78
403.45	2664.41
403.66	2711.51
403.87	2639.83
404.07	2811.86
404.28	2713.56
404.49	2691.03
404.70	2650.07
404.90	2637.78
405.11	2523.10
405.32	2574.30
405.52	2441.18
405.73	2484.19
405.94	2363.36
406.15	2471.90
406.35	2551.77
406.56	2533.34
406.77	2512.86
406.98	2467.80
407.18	2392.03
407.39	2750.42
407.60	2400.22
407.80	2602.97
408.01	2375.64
408.22	2551.77
408.43	2381.79
408.63	2500.57
408.84	2596.82
409.05	2570.20
409.25	2400.22
409.46	2387.93
409.67	2586.58
409.88	2420.70
410.08	2531.29
410.29	2447.32
410.50	2531.29
410.70	2596.82
410.91	2398.17
411.12	2555.86
411.32	2441.18
411.53	2342.88
411.74	2564.06
411.95	2533.34
412.15	2584.54
412.36	2641.88
412.57	2572.25
412.77	2625.50
412.98	2498.52
413.19	2463.71
413.39	2549.72
413.60	2510.81
413.81	2674.65
414.01	2322.40
414.22	2457.56
414.43	2482.14
414.63	2523.10
414.84	2617.30
415.05	2418.65
415.25	2281.44
415.46	2529.24
415.67	2344.92
415.87	2473.95
416.08	2455.51
416.29	2490.33
416.49	2594.78
416.70	2443.23
416.91	2420.70
417.11	2545.63
417.32	2609.11
417.53	2506.71
417.73	2502.62
417.94	2549.72
418.15	2523.10
418.35	2535.39
418.56	2492.38
418.77	2766.81
418.97	2527.19
419.18	2455.51
419.38	2215.90
419.59	2414.56
419.80	2580.44
420.00	2437.08
420.21	2371.55
420.42	2609.11
420.62	2592.73
420.83	2437.08
421.04	2420.70
421.24	2432.99
421.45	2539.48
421.65	2473.95
421.86	2437.08
422.07	2498.52
422.27	2596.82
422.48	2404.32
422.69	2293.72
422.89	2527.19
423.10	2400.22
423.30	2381.79
423.51	2510.81
423.72	2519.00
423.92	2580.44
424.13	2336.73
424.33	2504.67
424.54	2570.20
424.75	2459.61
424.95	2678.74
425.16	2359.26
425.36	2478.04
425.57	2631.64
425.78	2498.52
425.98	2572.25
426.19	2469.85
426.39	2414.56
426.60	2463.71
426.81	2592.73
427.01	2545.63
427.22	2465.75
427.42	2326.49
427.63	2463.71
427.83	2594.78
428.04	2654.17
428.25	2539.48
428.45	2523.10
428.66	2566.10
428.86	2482.14
429.07	2412.51
429.28	2473.95
429.48	2498.52
429.69	2441.18
429.89	2396.12
430.10	2271.20
430.30	2557.91
430.51	2551.77
430.71	2480.09
430.92	2428.89
431.13	2465.75
431.33	2559.96
431.54	2453.47
431.74	2594.78
431.95	2719.70
432.15	2410.46
432.36	2473.95
432.56	2484.19
432.77	2736.09
432.98	2789.33
433.18	2414.56
433.39	2453.47
433.59	2455.51
433.80	2731.99
434.00	2697.17
434.21	2416.60
434.41	2402.27
434.62	2779.09
434.82	2400.22
435.03	2392.03
435.23	2537.43
435.44	2308.06
435.64	2473.95
435.85	2498.52
436.06	2545.63
436.26	2637.78
436.47	2496.47
436.67	2291.68
436.88	2490.33
437.08	2639.83
437.29	2545.63
437.49	2555.86
437.70	2580.44
437.90	2461.66
438.11	2586.58
438.31	2547.67
438.52	2684.89
438.72	2785.24
438.93	2750.42
439.13	2584.54
439.34	2654.17
439.54	2594.78
439.75	2545.63
439.95	2574.30
440.16	2424.80
440.36	2490.33
440.57	2529.24
440.77	2535.39
440.98	2521.05
441.18	2623.45
441.39	2441.18
441.59	2299.87
441.80	2758.61
442.00	2478.04
442.21	2662.36
442.41	2359.26
442.62	2576.34
442.82	2478.04
443.02	2422.75
443.23	2471.90
443.43	2367.45
443.64	2662.36
443.84	2367.45
444.05	2555.86
444.25	2420.70
444.46	2441.18
444.66	2453.47
444.87	2633.69
445.07	2375.64
445.28	2490.33
445.48	2703.32
445.69	2473.95
445.89	2760.66
446.09	2498.52
446.30	2736.09
446.50	2971.60
446.71	4661.18
446.91	5810.09
447.12	6731.67
447.32	7122.84
447.53	6707.10
447.73	5621.67
447.93	4929.46
448.14	4423.61
448.34	4593.59
448.55	3866.56
448.75	3817.41
448.96	3602.38
449.16	3192.78
449.36	3094.48
449.57	2799.57
449.77	2545.63
449.98	2490.33
450.18	2609.11
450.39	2600.92
450.59	2543.58
450.79	2420.70
451.00	2439.13
451.20	2588.63
451.41	2492.38
451.61	2486.23
451.81	2488.28
452.02	2449.37
452.22	2414.56
452.43	2469.85
452.63	2377.69
