SpectraSuite Data File
++++++++++++++++++++++++++++++++++++
Date: Thu May 05 14:42:01 CEST 2016
User: root
Dark Spectrum Present: No
Reference Spectrum Present: No
Number of Sampled Component Spectra: 1
Spectrometers: USB4C02835
Integration Time (usec): 100000 (USB4C02835)
Spectra Averaged: 1 (USB4C02835)
Boxcar Smoothing: 0 (USB4C02835)
Correct for Electrical Dark: No (USB4C02835)
Strobe/Lamp Enabled: No (USB4C02835)
Correct for Detector Non-linearity: No (USB4C02835)
Correct for Stray Light: No (USB4C02835)
Number of Pixels in Processed Spectrum: 3648
>>>>>Begin Processed Spectral Data<<<<<
177.47	1886.18
177.69	1886.18
177.91	1886.18
178.13	1867.75
178.36	1916.90
178.58	2291.68
178.80	2531.29
179.02	2265.05
179.24	2437.08
179.46	2312.16
179.68	2406.36
179.90	2402.27
180.13	2475.99
180.35	2258.91
180.57	2367.45
180.79	2600.92
181.01	2461.66
181.23	2363.36
181.45	2496.47
181.67	2519.00
181.90	2578.39
182.12	2359.26
182.34	2260.96
182.56	2543.58
182.78	2527.19
183.00	2322.40
183.22	2334.68
183.44	2195.42
183.66	2846.68
183.89	2510.81
184.11	2351.07
184.33	2543.58
184.55	2547.67
184.77	2269.15
184.99	2330.59
185.21	2523.10
185.43	2820.05
185.65	2392.03
185.87	2318.30
186.10	2772.95
186.32	2648.02
186.54	2461.66
186.76	2402.27
186.98	2602.97
187.20	2441.18
187.42	2326.49
187.64	2373.60
187.86	2537.43
188.08	2562.01
188.30	2353.12
188.52	2318.30
188.75	2674.65
188.97	2568.15
189.19	2377.69
189.41	2400.22
189.63	2494.43
189.85	2478.04
190.07	2291.68
190.29	2187.23
190.51	2588.63
190.73	2346.97
190.95	2521.05
191.17	2379.74
191.39	2289.63
191.61	2447.32
191.84	2359.26
192.06	2512.86
192.28	2269.15
192.50	2949.08
192.72	2441.18
192.94	2463.71
193.16	2658.26
193.38	2545.63
193.60	2299.87
193.82	2318.30
194.04	2615.26
194.26	2559.96
194.48	2394.08
194.70	2326.49
194.92	2422.75
195.14	2525.15
195.36	2453.47
195.58	2367.45
195.80	2535.39
196.02	2428.89
196.24	2338.78
196.46	2387.93
196.69	2459.61
196.91	2820.05
197.13	2377.69
197.35	2326.49
197.57	2740.18
197.79	2559.96
198.01	2430.94
198.23	2365.40
198.45	2555.86
198.67	2308.06
198.89	2285.53
199.11	2449.37
199.33	2400.22
199.55	2265.05
199.77	2334.68
199.99	2447.32
200.21	2459.61
200.43	2492.38
200.65	2263.01
200.87	2195.42
201.09	2482.14
201.31	2531.29
201.53	2396.12
201.75	2373.60
201.97	2488.28
202.19	2463.71
202.41	2475.99
202.63	2523.10
202.85	2519.00
203.07	2514.91
203.29	2338.78
203.51	2232.29
203.73	2389.98
203.95	2801.62
204.17	2396.12
204.39	2432.99
204.61	2463.71
204.83	2473.95
205.05	2498.52
205.27	2422.75
205.49	2742.23
205.71	2414.56
205.93	2226.14
206.15	2314.20
206.37	2455.51
206.59	2412.51
206.81	2258.91
207.03	2246.62
207.25	2383.84
207.47	2617.30
207.69	2353.12
207.91	2449.37
208.13	2678.74
208.34	2402.27
208.56	2303.96
208.78	2375.64
209.00	2457.56
209.22	2406.36
209.44	2408.41
209.66	2316.25
209.88	2488.28
210.10	2514.91
210.32	2277.34
210.54	2471.90
210.76	2504.67
210.98	2549.72
211.20	2260.96
211.42	2381.79
211.64	2570.20
211.86	2512.86
212.08	2387.93
212.30	2357.21
212.52	2416.60
212.74	2568.15
212.96	2326.49
213.17	2389.98
213.39	2609.11
213.61	2703.32
213.83	2377.69
214.05	2392.03
214.27	2660.31
214.49	2394.08
214.71	2287.58
214.93	2455.51
215.15	2523.10
215.37	2588.63
215.59	2168.80
215.81	2408.41
216.03	2691.03
216.24	2475.99
216.46	2326.49
216.68	2441.18
216.90	2656.22
217.12	2609.11
217.34	2265.05
217.56	2469.85
217.78	2650.07
218.00	2445.27
218.22	2400.22
218.44	2408.41
218.66	2564.06
218.87	2717.65
219.09	2310.11
219.31	2432.99
219.53	2469.85
219.75	2473.95
219.97	2416.60
220.19	2408.41
220.41	2512.86
220.63	2666.46
220.85	2398.17
221.06	2349.02
221.28	2641.88
221.50	2605.02
221.72	2252.77
221.94	2250.72
222.16	2482.14
222.38	2549.72
222.60	2346.97
222.82	2359.26
223.03	2549.72
223.25	2426.84
223.47	2437.08
223.69	2541.53
223.91	2537.43
224.13	2525.15
224.35	2297.82
224.57	2424.80
224.78	2551.77
225.00	2398.17
225.22	2310.11
225.44	2267.10
225.66	2537.43
225.88	2398.17
226.10	2510.81
226.32	2381.79
226.53	2691.03
226.75	2445.27
226.97	2400.22
227.19	2318.30
227.41	2412.51
227.63	2404.32
227.85	2277.34
228.06	2357.21
228.28	2502.62
228.50	2547.67
228.72	2187.23
228.94	2342.88
229.16	2209.76
229.37	2367.45
229.59	2215.90
229.81	2488.28
230.03	2457.56
230.25	2377.69
230.47	2230.24
230.69	2326.49
230.90	2553.82
231.12	2437.08
231.34	2383.84
231.56	2396.12
231.78	2301.92
232.00	2482.14
232.21	2275.29
232.43	2367.45
232.65	2273.25
232.87	2500.57
233.09	2260.96
233.30	2324.44
233.52	2633.69
233.74	2414.56
233.96	2308.06
234.18	2469.85
234.40	2432.99
234.61	2768.85
234.83	2297.82
235.05	2240.48
235.27	2783.19
235.49	2594.78
235.70	2285.53
235.92	2451.42
236.14	2578.39
236.36	2768.85
236.58	2256.86
236.79	2408.41
237.01	2455.51
237.23	2412.51
237.45	2535.39
237.67	2295.77
237.88	2502.62
238.10	2738.13
238.32	2355.16
238.54	2318.30
238.76	2516.95
238.97	2359.26
239.19	2201.57
239.41	2426.84
239.63	2498.52
239.85	2439.13
240.06	2400.22
240.28	2326.49
240.50	2584.54
240.72	2457.56
240.93	2367.45
241.15	2420.70
241.37	2498.52
241.59	2543.58
241.81	2342.88
242.02	2383.84
242.24	2469.85
242.46	2588.63
242.68	2285.53
242.89	2314.20
243.11	2658.26
243.33	2447.32
243.55	2404.32
243.76	2355.16
243.98	2463.71
244.20	2519.00
244.42	2392.03
244.64	2342.88
244.85	2389.98
245.07	2394.08
245.29	2285.53
245.51	2400.22
245.72	2602.97
245.94	2568.15
246.16	2357.21
246.38	2389.98
246.59	2392.03
246.81	2334.68
247.03	2318.30
247.24	2191.33
247.46	2457.56
247.68	2555.86
247.90	2303.96
248.11	2318.30
248.33	2592.73
248.55	2445.27
248.77	2406.36
248.98	2392.03
249.20	2727.89
249.42	2459.61
249.64	2367.45
249.85	2312.16
250.07	2430.94
250.29	2531.29
250.50	2441.18
250.72	2220.00
250.94	2553.82
251.16	2699.22
251.37	2424.80
251.59	2461.66
251.81	2508.76
252.02	2703.32
252.24	2236.38
252.46	2465.75
252.68	2428.89
252.89	2467.80
253.11	2211.81
253.33	2516.95
253.54	2672.60
253.76	2287.58
253.98	2263.01
254.20	2314.20
254.41	2408.41
254.63	2482.14
254.85	2211.81
255.06	2396.12
255.28	2494.43
255.50	2408.41
255.71	2283.49
255.93	2269.15
256.15	2453.47
256.36	2478.04
256.58	2340.83
256.80	2318.30
257.02	2510.81
257.23	2457.56
257.45	2326.49
257.67	2432.99
257.88	2449.37
258.10	2525.15
258.32	2357.21
258.53	2373.60
258.75	2707.41
258.97	2422.75
259.18	2310.11
259.40	2346.97
259.62	2719.70
259.83	2648.02
260.05	2379.74
260.27	2873.30
260.48	2523.10
260.70	2346.97
260.92	2295.77
261.13	2357.21
261.35	2502.62
261.57	2541.53
261.78	2248.67
262.00	2263.01
262.22	2531.29
262.43	2314.20
262.65	2330.59
262.86	2396.12
263.08	2858.96
263.30	2521.05
263.51	2193.37
263.73	2318.30
263.95	2650.07
264.16	2435.03
264.38	2228.19
264.60	2275.29
264.81	2459.61
265.03	2684.89
265.25	2645.98
265.46	2320.35
265.68	2596.82
265.89	2584.54
266.11	2209.76
266.33	2365.40
266.54	2580.44
266.76	2564.06
266.98	2402.27
267.19	2453.47
267.41	2635.74
267.62	2480.09
267.84	2224.09
268.06	2357.21
268.27	2564.06
268.49	2600.92
268.70	2414.56
268.92	2394.08
269.14	2316.25
269.35	2267.10
269.57	2394.08
269.79	2439.13
270.00	2396.12
270.22	2742.23
270.43	2273.25
270.65	2119.65
270.87	2465.75
271.08	2584.54
271.30	2465.75
271.51	2359.26
271.73	2592.73
271.95	2637.78
272.16	2316.25
272.38	2414.56
272.59	2428.89
272.81	2580.44
273.02	2340.83
273.24	2426.84
273.46	2672.60
273.67	2346.97
273.89	2265.05
274.10	2281.44
274.32	2668.50
274.54	2502.62
274.75	2426.84
274.97	2353.12
275.18	2523.10
275.40	2580.44
275.61	2385.88
275.83	2420.70
276.05	2326.49
276.26	2422.75
276.48	2447.32
276.69	2346.97
276.91	2414.56
277.12	2537.43
277.34	2443.23
277.55	2553.82
277.77	2539.48
277.99	2461.66
278.20	2326.49
278.42	2269.15
278.63	2410.46
278.85	2349.02
279.06	2318.30
279.28	2459.61
279.49	2602.97
279.71	2541.53
279.93	2471.90
280.14	2535.39
280.36	2359.26
280.57	2570.20
280.79	2498.52
281.00	2353.12
281.22	2410.46
281.43	2562.01
281.65	2224.09
281.86	2369.50
282.08	2570.20
282.29	2701.27
282.51	2297.82
282.73	2355.16
282.94	2275.29
283.16	2574.30
283.37	2588.63
283.59	2387.93
283.80	2559.96
284.02	2549.72
284.23	2473.95
284.45	2375.64
284.66	2334.68
284.88	2387.93
285.09	2400.22
285.31	2504.67
285.52	2492.38
285.74	2318.30
285.95	2516.95
286.17	2461.66
286.38	2594.78
286.60	2424.80
286.81	2404.32
287.03	2486.23
287.24	2488.28
287.46	2600.92
287.67	2506.71
287.89	2648.02
288.10	2459.61
288.32	2488.28
288.53	2588.63
288.75	2408.41
288.96	2555.86
289.18	2373.60
289.39	2408.41
289.61	2432.99
289.82	2785.24
290.04	2672.60
290.25	2301.92
290.47	2564.06
290.68	2445.27
290.90	2551.77
291.11	2236.38
291.33	2488.28
291.54	2408.41
291.76	2379.74
291.97	2430.94
292.18	2449.37
292.40	2375.64
292.61	2447.32
292.83	2635.74
293.04	2541.53
293.26	2447.32
293.47	2428.89
293.69	2244.57
293.90	2357.21
294.12	2609.11
294.33	2471.90
294.55	2369.50
294.76	2496.47
294.97	2635.74
295.19	2787.29
295.40	2418.65
295.62	2537.43
295.83	2551.77
296.05	2441.18
296.26	2635.74
296.48	2377.69
296.69	2432.99
296.90	2473.95
297.12	2566.10
297.33	2578.39
297.55	2469.85
297.76	2498.52
297.98	2539.48
298.19	2492.38
298.41	2516.95
298.62	2410.46
298.83	2557.91
299.05	2447.32
299.26	2475.99
299.48	2369.50
299.69	2514.91
299.90	2422.75
300.12	2299.87
300.33	2586.58
300.55	2478.04
300.76	2381.79
300.98	2355.16
301.19	2519.00
301.40	2379.74
301.62	2414.56
301.83	2529.24
302.05	2498.52
302.26	2389.98
302.47	2465.75
302.69	2334.68
302.90	2504.67
303.12	2256.86
303.33	2480.09
303.54	2793.43
303.76	2359.26
303.97	2441.18
304.19	2592.73
304.40	2408.41
304.61	2523.10
304.83	2584.54
305.04	2605.02
305.26	2613.21
305.47	2404.32
305.68	2408.41
305.90	2271.20
306.11	2613.21
306.33	2396.12
306.54	2408.41
306.75	2375.64
306.97	2336.73
307.18	2289.63
307.39	2375.64
307.61	2506.71
307.82	2420.70
308.04	2525.15
308.25	2387.93
308.46	2537.43
308.68	2490.33
308.89	2555.86
309.10	2545.63
309.32	2539.48
309.53	2465.75
309.74	2609.11
309.96	2379.74
310.17	2514.91
310.39	2449.37
310.60	2551.77
310.81	2449.37
311.03	2303.96
311.24	2570.20
311.45	2486.23
311.67	2688.98
311.88	2539.48
312.09	2447.32
312.31	2375.64
312.52	2418.65
312.73	2303.96
312.95	2303.96
313.16	2349.02
313.37	2576.34
313.59	2516.95
313.80	2482.14
314.01	2695.13
314.23	2420.70
314.44	2324.44
314.65	2416.60
314.87	2324.44
315.08	2408.41
315.29	2383.84
315.51	2353.12
315.72	2271.20
315.93	2512.86
316.15	2441.18
316.36	2480.09
316.57	2535.39
316.79	2490.33
317.00	2406.36
317.21	2578.39
317.43	2392.03
317.64	2412.51
317.85	2420.70
318.07	2379.74
318.28	2506.71
318.49	2564.06
318.70	2652.12
318.92	2572.25
319.13	2631.64
319.34	2580.44
319.56	2545.63
319.77	2547.67
319.98	2729.94
320.20	2613.21
320.41	2549.72
320.62	2629.59
320.83	2308.06
321.05	2611.16
321.26	2488.28
321.47	2516.95
321.69	2650.07
321.90	2353.12
322.11	2377.69
322.32	2496.47
322.54	2650.07
322.75	2371.55
322.96	2881.49
323.18	2314.20
323.39	2260.96
323.60	2389.98
323.81	2531.29
324.03	2469.85
324.24	2508.76
324.45	2441.18
324.66	2338.78
324.88	2625.50
325.09	2656.22
325.30	2351.07
325.52	2471.90
325.73	2588.63
325.94	2398.17
326.15	2310.11
326.37	2314.20
326.58	2582.49
326.79	2596.82
327.00	2277.34
327.22	2482.14
327.43	2457.56
327.64	2369.50
327.85	2506.71
328.07	2441.18
328.28	2709.46
328.49	2375.64
328.70	2398.17
328.92	2412.51
329.13	2437.08
329.34	2537.43
329.55	2605.02
329.76	2541.53
329.98	2482.14
330.19	2654.17
330.40	2416.60
330.61	2449.37
330.83	2635.74
331.04	2424.80
331.25	2453.47
331.46	2394.08
331.68	2322.40
331.89	2617.30
332.10	2432.99
332.31	2322.40
332.52	2471.90
332.74	2643.93
332.95	2187.23
333.16	2424.80
333.37	2553.82
333.58	2406.36
333.80	2463.71
334.01	2267.10
334.22	2488.28
334.43	2420.70
334.64	2426.84
334.86	2252.77
335.07	2355.16
335.28	2617.30
335.49	2355.16
335.70	2439.13
335.92	2588.63
336.13	2768.85
336.34	2473.95
336.55	2463.71
336.76	2510.81
336.98	2279.39
337.19	2414.56
337.40	2500.57
337.61	2836.44
337.82	2408.41
338.04	2553.82
338.25	2213.85
338.46	2461.66
338.67	2404.32
338.88	2389.98
339.09	2263.01
339.31	2389.98
339.52	2306.01
339.73	2301.92
339.94	2445.27
340.15	2527.19
340.36	2504.67
340.58	2457.56
340.79	2367.45
341.00	2555.86
341.21	2355.16
341.42	2562.01
341.63	2430.94
341.85	2572.25
342.06	2473.95
342.27	2416.60
342.48	2535.39
342.69	2363.36
342.90	2555.86
343.12	2553.82
343.33	2402.27
343.54	2521.05
343.75	2600.92
343.96	2416.60
344.17	2392.03
344.38	2514.91
344.60	2394.08
344.81	2328.54
345.02	2392.03
345.23	2598.87
345.44	2818.00
345.65	2523.10
345.86	2545.63
346.07	2490.33
346.29	2418.65
346.50	2502.62
346.71	2426.84
346.92	2678.74
347.13	2772.95
347.34	2451.42
347.55	2336.73
347.76	2502.62
347.98	2336.73
348.19	2473.95
348.40	2500.57
348.61	2361.31
348.82	2742.23
349.03	2504.67
349.24	2396.12
349.45	2709.46
349.66	2256.86
349.88	2340.83
350.09	2326.49
350.30	2688.98
350.51	2580.44
350.72	2480.09
350.93	2396.12
351.14	2463.71
351.35	2617.30
351.56	2451.42
351.77	2488.28
351.99	2547.67
352.20	2744.28
352.41	2549.72
352.62	2322.40
352.83	2480.09
353.04	2428.89
353.25	2459.61
353.46	2519.00
353.67	2619.35
353.88	2244.57
354.09	2457.56
354.30	2443.23
354.52	2533.34
354.73	2445.27
354.94	2353.12
355.15	2414.56
355.36	2750.42
355.57	2432.99
355.78	2385.88
355.99	2344.92
356.20	2367.45
356.41	2656.22
356.62	2478.04
356.83	2480.09
357.04	2703.32
357.25	2379.74
357.46	2398.17
357.68	2265.05
357.89	2381.79
358.10	2576.34
358.31	2389.98
358.52	2441.18
358.73	2334.68
358.94	2396.12
359.15	2408.41
359.36	2527.19
359.57	2463.71
359.78	2422.75
359.99	2543.58
360.20	2308.06
360.41	2521.05
360.62	2480.09
360.83	2480.09
361.04	2387.93
361.25	2537.43
361.46	2602.97
361.67	2527.19
361.88	2557.91
362.09	2613.21
362.30	2572.25
362.51	2338.78
362.72	2467.80
362.93	2637.78
363.14	2559.96
363.35	2498.52
363.56	2398.17
363.78	2592.73
363.99	2584.54
364.20	2357.21
364.41	2422.75
364.62	2660.31
364.83	2463.71
365.04	2398.17
365.25	2463.71
365.46	2691.03
365.67	2373.60
365.88	2441.18
366.09	2402.27
366.30	2459.61
366.51	2523.10
366.72	2297.82
366.93	2402.27
367.14	2398.17
367.35	2686.94
367.56	2457.56
367.77	2523.10
367.98	2478.04
368.18	2514.91
368.39	2502.62
368.60	2406.36
368.81	2613.21
369.02	2521.05
369.23	2443.23
369.44	2289.63
369.65	2449.37
369.86	2533.34
370.07	2539.48
370.28	2252.77
370.49	2529.24
370.70	2584.54
370.91	2400.22
371.12	2265.05
371.33	2650.07
371.54	2461.66
371.75	2547.67
371.96	2275.29
372.17	2553.82
372.38	2510.81
372.59	2471.90
372.80	2381.79
373.01	2465.75
373.22	2549.72
373.43	2521.05
373.64	2254.81
373.85	2625.50
374.06	2742.23
374.26	2588.63
374.47	2453.47
374.68	2707.41
374.89	2406.36
375.10	2432.99
375.31	2510.81
375.52	2492.38
375.73	2486.23
375.94	2338.78
376.15	2559.96
376.36	2428.89
376.57	2416.60
376.78	2453.47
376.99	2543.58
377.20	2625.50
377.40	2420.70
377.61	2654.17
377.82	2303.96
378.03	2682.84
378.24	2531.29
378.45	2453.47
378.66	2482.14
378.87	2297.82
379.08	2316.25
379.29	2357.21
379.50	2592.73
379.71	2494.43
379.91	2582.49
380.12	2404.32
380.33	2465.75
380.54	2559.96
380.75	2457.56
380.96	2453.47
381.17	2510.81
381.38	2488.28
381.59	2445.27
381.80	2428.89
382.00	2576.34
382.21	2529.24
382.42	2670.55
382.63	2695.13
382.84	2588.63
383.05	2596.82
383.26	2605.02
383.47	2490.33
383.68	2492.38
383.88	2541.53
384.09	2502.62
384.30	2686.94
384.51	2566.10
384.72	2373.60
384.93	2287.58
385.14	2514.91
385.35	2566.10
385.55	2361.31
385.76	2658.26
385.97	2469.85
386.18	2367.45
386.39	2457.56
386.60	2461.66
386.81	2461.66
387.02	2301.92
387.22	2357.21
387.43	2557.91
387.64	2586.58
387.85	2637.78
388.06	2715.61
388.27	4003.78
388.48	8081.28
388.68	11833.16
388.89	14235.43
389.10	15492.88
389.31	14628.64
389.52	11392.85
389.73	10033.00
389.93	9076.60
390.14	8171.40
390.35	7200.66
390.56	6549.40
390.77	5423.02
390.98	4251.58
391.18	3348.43
391.39	2965.46
391.60	2594.78
391.81	2627.54
392.02	2406.36
392.23	2744.28
392.43	2547.67
392.64	2555.86
392.85	2414.56
393.06	2691.03
393.27	2451.42
393.47	2363.36
393.68	2463.71
393.89	2400.22
394.10	2609.11
394.31	2375.64
394.52	2428.89
394.72	2385.88
394.93	2731.99
395.14	2324.44
395.35	2498.52
395.56	2430.94
395.76	2502.62
395.97	2480.09
396.18	2570.20
396.39	2496.47
396.60	3016.66
396.80	2756.57
397.01	2633.69
397.22	2568.15
397.43	2668.50
397.64	2428.89
397.84	2582.49
398.05	2768.85
398.26	2457.56
398.47	2506.71
398.67	2570.20
398.88	2514.91
399.09	2629.59
399.30	2392.03
399.51	2512.86
399.71	2365.40
399.92	2447.32
400.13	2510.81
400.34	2392.03
400.54	2523.10
400.75	2670.55
400.96	2414.56
401.17	2598.87
401.37	2523.10
401.58	2453.47
401.79	2406.36
402.00	2529.24
402.21	2916.31
402.41	2785.24
402.62	2840.53
402.83	2994.13
403.04	2926.55
403.24	3200.98
403.45	2635.74
403.66	2815.96
403.87	2662.36
404.07	2752.47
404.28	2678.74
404.49	2719.70
404.70	2496.47
404.90	2594.78
405.11	2463.71
405.32	2543.58
405.52	2447.32
405.73	2412.51
405.94	2326.49
406.15	2457.56
406.35	2572.25
406.56	2678.74
406.77	2482.14
406.98	2441.18
407.18	2473.95
407.39	2693.08
407.60	2432.99
407.80	2492.38
408.01	2498.52
408.22	2416.60
408.43	2400.22
408.63	2512.86
408.84	2557.91
409.05	2586.58
409.25	2346.97
409.46	2336.73
409.67	2420.70
409.88	2361.31
410.08	2510.81
410.29	2457.56
410.50	2602.97
410.70	2568.15
410.91	2383.84
411.12	2498.52
411.32	2473.95
411.53	2359.26
411.74	2529.24
411.95	2594.78
412.15	2598.87
412.36	2629.59
412.57	2564.06
412.77	2572.25
412.98	2531.29
413.19	2463.71
413.39	2461.66
413.60	2455.51
413.81	2670.55
414.01	2414.56
414.22	2469.85
414.43	2525.15
414.63	2482.14
414.84	2598.87
415.05	2471.90
415.25	2217.95
415.46	2615.26
415.67	2441.18
415.87	2514.91
416.08	2420.70
416.29	2469.85
416.49	2543.58
416.70	2502.62
416.91	2480.09
417.11	2475.99
417.32	2523.10
417.53	2564.06
417.73	2459.61
417.94	2486.23
418.15	2508.76
418.35	2447.32
418.56	2432.99
418.77	2764.76
418.97	2441.18
419.18	2488.28
419.38	2197.47
419.59	2447.32
419.80	2611.16
420.00	2363.36
420.21	2392.03
420.42	2699.22
420.62	2621.40
420.83	2422.75
421.04	2435.03
421.24	2488.28
421.45	2621.40
421.65	2564.06
421.86	2389.98
422.07	2539.48
422.27	2543.58
422.48	2414.56
422.69	2373.60
422.89	2494.43
423.10	2465.75
423.30	2375.64
423.51	2445.27
423.72	2529.24
423.92	2529.24
424.13	2367.45
424.33	2508.76
424.54	2539.48
424.75	2551.77
424.95	2654.17
425.16	2527.19
425.36	2490.33
425.57	2625.50
425.78	2562.01
425.98	2523.10
426.19	2422.75
426.39	2320.35
426.60	2496.47
426.81	2588.63
427.01	2480.09
427.22	2447.32
427.42	2273.25
427.63	2359.26
427.83	2654.17
428.04	2684.89
428.25	2490.33
428.45	2568.15
428.66	2656.22
428.86	2457.56
429.07	2519.00
429.28	2488.28
429.48	2455.51
429.69	2346.97
429.89	2523.10
430.10	2299.87
430.30	2545.63
430.51	2605.02
430.71	2451.42
430.92	2432.99
431.13	2422.75
431.33	2523.10
431.54	2480.09
431.74	2588.63
431.95	2820.05
432.15	2291.68
432.36	2430.94
432.56	2559.96
432.77	2760.66
432.98	2760.66
433.18	2475.99
433.39	2367.45
433.59	2492.38
433.80	2682.84
434.00	2736.09
434.21	2430.94
434.41	2473.95
434.62	2775.00
434.82	2342.88
435.03	2340.83
435.23	2547.67
435.44	2310.11
435.64	2461.66
435.85	2500.57
436.06	2502.62
436.26	2574.30
436.47	2441.18
436.67	2320.35
436.88	2430.94
437.08	2637.78
437.29	2584.54
437.49	2496.47
437.70	2719.70
437.90	2473.95
438.11	2637.78
438.31	2516.95
438.52	2744.28
438.72	2695.13
438.93	2793.43
439.13	2502.62
439.34	2740.18
439.54	2504.67
439.75	2539.48
439.95	2451.42
440.16	2432.99
440.36	2539.48
440.57	2496.47
440.77	2494.43
440.98	2498.52
441.18	2547.67
441.39	2359.26
441.59	2383.84
441.80	2811.86
442.00	2432.99
442.21	2531.29
442.41	2312.16
442.62	2555.86
442.82	2424.80
443.02	2484.19
443.23	2580.44
443.43	2504.67
443.64	2727.89
443.84	2392.03
444.05	2566.10
444.25	2564.06
444.46	2459.61
444.66	2480.09
444.87	2654.17
445.07	2379.74
445.28	2383.84
445.48	2619.35
445.69	2582.49
445.89	2801.62
446.09	2543.58
446.30	2777.05
446.50	3004.37
446.71	4552.63
446.91	5672.87
447.12	6557.60
447.32	7065.49
447.53	6614.94
447.73	5365.68
447.93	4800.44
448.14	4483.00
448.34	4356.03
448.55	3930.05
448.75	3766.21
448.96	3485.64
449.16	3217.36
449.36	3117.01
449.57	2783.19
449.77	2484.19
449.98	2482.14
450.18	2605.02
450.39	2490.33
450.59	2580.44
450.79	2492.38
451.00	2467.80
451.20	2547.67
451.41	2529.24
451.61	2539.48
451.81	2510.81
452.02	2478.04
452.22	2355.16
452.43	2451.42
