SpectraSuite Data File
++++++++++++++++++++++++++++++++++++
Date: Thu May 05 14:42:19 CEST 2016
User: root
Dark Spectrum Present: No
Reference Spectrum Present: No
Number of Sampled Component Spectra: 1
Spectrometers: USB4C02835
Integration Time (usec): 100000 (USB4C02835)
Spectra Averaged: 1 (USB4C02835)
Boxcar Smoothing: 0 (USB4C02835)
Correct for Electrical Dark: No (USB4C02835)
Strobe/Lamp Enabled: No (USB4C02835)
Correct for Detector Non-linearity: No (USB4C02835)
Correct for Stray Light: No (USB4C02835)
Number of Pixels in Processed Spectrum: 3648
>>>>>Begin Processed Spectral Data<<<<<
177.47	1974.24
177.69	1974.24
177.91	1974.24
178.13	1904.61
178.36	1914.85
178.58	2420.70
178.80	2445.27
179.02	2277.34
179.24	2365.40
179.46	2301.92
179.68	2351.07
179.90	2443.23
180.13	2400.22
180.35	2291.68
180.57	2371.55
180.79	2750.42
181.01	2531.29
181.23	2340.83
181.45	2465.75
181.67	2514.91
181.90	2654.17
182.12	2387.93
182.34	2123.74
182.56	2414.56
182.78	2588.63
183.00	2293.72
183.22	2371.55
183.44	2267.10
183.66	2861.01
183.89	2449.37
184.11	2287.58
184.33	2527.19
184.55	2629.59
184.77	2316.25
184.99	2373.60
185.21	2365.40
185.43	2805.72
185.65	2285.53
185.87	2328.54
186.10	2772.95
186.32	2678.74
186.54	2402.27
186.76	2453.47
186.98	2695.13
187.20	2482.14
187.42	2316.25
187.64	2340.83
187.86	2498.52
188.08	2543.58
188.30	2203.61
188.52	2301.92
188.75	2654.17
188.97	2641.88
189.19	2408.41
189.41	2365.40
189.63	2596.82
189.85	2496.47
190.07	2314.20
190.29	2234.33
190.51	2539.48
190.73	2308.06
190.95	2435.03
191.17	2367.45
191.39	2334.68
191.61	2437.08
191.84	2308.06
192.06	2428.89
192.28	2244.57
192.50	2824.15
192.72	2406.36
192.94	2406.36
193.16	2611.16
193.38	2562.01
193.60	2265.05
193.82	2342.88
194.04	2572.25
194.26	2549.72
194.48	2414.56
194.70	2336.73
194.92	2351.07
195.14	2637.78
195.36	2383.84
195.58	2357.21
195.80	2412.51
196.02	2449.37
196.24	2330.59
196.46	2451.42
196.69	2447.32
196.91	2818.00
197.13	2220.00
197.35	2332.64
197.57	2656.22
197.79	2523.10
198.01	2451.42
198.23	2369.50
198.45	2592.73
198.67	2336.73
198.89	2220.00
199.11	2432.99
199.33	2414.56
199.55	2244.57
199.77	2355.16
199.99	2490.33
200.21	2453.47
200.43	2541.53
200.65	2244.57
200.87	2281.44
201.09	2510.81
201.31	2441.18
201.53	2394.08
201.75	2457.56
201.97	2492.38
202.19	2490.33
202.41	2346.97
202.63	2473.95
202.85	2570.20
203.07	2482.14
203.29	2334.68
203.51	2289.63
203.73	2375.64
203.95	2932.69
204.17	2373.60
204.39	2424.80
204.61	2490.33
204.83	2465.75
205.05	2432.99
205.27	2490.33
205.49	2627.54
205.71	2471.90
205.93	2236.38
206.15	2236.38
206.37	2455.51
206.59	2424.80
206.81	2275.29
207.03	2295.77
207.25	2441.18
207.47	2514.91
207.69	2383.84
207.91	2533.34
208.13	2740.18
208.34	2420.70
208.56	2330.59
208.78	2482.14
209.00	2500.57
209.22	2461.66
209.44	2326.49
209.66	2334.68
209.88	2535.39
210.10	2324.44
210.32	2363.36
210.54	2473.95
210.76	2435.03
210.98	2580.44
211.20	2203.61
211.42	2379.74
211.64	2670.55
211.86	2514.91
212.08	2402.27
212.30	2306.01
212.52	2473.95
212.74	2457.56
212.96	2373.60
213.17	2449.37
213.39	2602.97
213.61	2682.84
213.83	2410.46
214.05	2445.27
214.27	2602.97
214.49	2306.01
214.71	2291.68
214.93	2494.43
215.15	2529.24
215.37	2611.16
215.59	2244.57
215.81	2404.32
216.03	2684.89
216.24	2478.04
216.46	2299.87
216.68	2359.26
216.90	2586.58
217.12	2680.79
217.34	2330.59
217.56	2482.14
217.78	2609.11
218.00	2490.33
218.22	2375.64
218.44	2435.03
218.66	2437.08
218.87	2850.77
219.09	2336.73
219.31	2301.92
219.53	2523.10
219.75	2387.93
219.97	2334.68
220.19	2332.64
220.41	2465.75
220.63	2605.02
220.85	2234.33
221.06	2480.09
221.28	2686.94
221.50	2619.35
221.72	2351.07
221.94	2293.72
222.16	2527.19
222.38	2586.58
222.60	2359.26
222.82	2297.82
223.03	2580.44
223.25	2387.93
223.47	2457.56
223.69	2635.74
223.91	2537.43
224.13	2506.71
224.35	2275.29
224.57	2504.67
224.78	2629.59
225.00	2400.22
225.22	2404.32
225.44	2396.12
225.66	2545.63
225.88	2445.27
226.10	2375.64
226.32	2367.45
226.53	2600.92
226.75	2490.33
226.97	2381.79
227.19	2367.45
227.41	2371.55
227.63	2465.75
227.85	2209.76
228.06	2402.27
228.28	2482.14
228.50	2559.96
228.72	2248.67
228.94	2271.20
229.16	2215.90
229.37	2361.31
229.59	2306.01
229.81	2514.91
230.03	2447.32
230.25	2297.82
230.47	2248.67
230.69	2338.78
230.90	2641.88
231.12	2482.14
231.34	2371.55
231.56	2449.37
231.78	2334.68
232.00	2453.47
232.21	2377.69
232.43	2367.45
232.65	2220.00
232.87	2557.91
233.09	2291.68
233.30	2260.96
233.52	2625.50
233.74	2435.03
233.96	2306.01
234.18	2478.04
234.40	2432.99
234.61	2768.85
234.83	2324.44
235.05	2252.77
235.27	2791.38
235.49	2699.22
235.70	2279.39
235.92	2482.14
236.14	2547.67
236.36	2709.46
236.58	2369.50
236.79	2424.80
237.01	2455.51
237.23	2473.95
237.45	2533.34
237.67	2334.68
237.88	2424.80
238.10	2645.98
238.32	2357.21
238.54	2285.53
238.76	2488.28
238.97	2383.84
239.19	2314.20
239.41	2418.65
239.63	2633.69
239.85	2408.41
240.06	2324.44
240.28	2418.65
240.50	2580.44
240.72	2496.47
240.93	2367.45
241.15	2408.41
241.37	2449.37
241.59	2660.31
241.81	2389.98
242.02	2414.56
242.24	2519.00
242.46	2641.88
242.68	2256.86
242.89	2367.45
243.11	2576.34
243.33	2330.59
243.55	2402.27
243.76	2396.12
243.98	2420.70
244.20	2416.60
244.42	2342.88
244.64	2424.80
244.85	2383.84
245.07	2385.88
245.29	2365.40
245.51	2338.78
245.72	2521.05
245.94	2584.54
246.16	2365.40
246.38	2451.42
246.59	2473.95
246.81	2445.27
247.03	2316.25
247.24	2197.47
247.46	2426.84
247.68	2467.80
247.90	2320.35
248.11	2322.40
248.33	2588.63
248.55	2453.47
248.77	2400.22
248.98	2392.03
249.20	2699.22
249.42	2557.91
249.64	2338.78
249.85	2379.74
250.07	2392.03
250.29	2559.96
250.50	2453.47
250.72	2250.72
250.94	2543.58
251.16	2691.03
251.37	2346.97
251.59	2379.74
251.81	2523.10
252.02	2686.94
252.24	2314.20
252.46	2396.12
252.68	2412.51
252.89	2367.45
253.11	2166.75
253.33	2506.71
253.54	2568.15
253.76	2355.16
253.98	2322.40
254.20	2387.93
254.41	2310.11
254.63	2471.90
254.85	2226.14
255.06	2416.60
255.28	2586.58
255.50	2398.17
255.71	2275.29
255.93	2191.33
256.15	2385.88
256.36	2619.35
256.58	2256.86
256.80	2414.56
257.02	2478.04
257.23	2453.47
257.45	2363.36
257.67	2373.60
257.88	2430.94
258.10	2598.87
258.32	2271.20
258.53	2383.84
258.75	2691.03
258.97	2408.41
259.18	2289.63
259.40	2291.68
259.62	2578.39
259.83	2641.88
260.05	2383.84
260.27	2953.17
260.48	2566.10
260.70	2269.15
260.92	2310.11
261.13	2289.63
261.35	2482.14
261.57	2531.29
261.78	2293.72
262.00	2260.96
262.22	2514.91
262.43	2367.45
262.65	2295.77
262.86	2289.63
263.08	2822.10
263.30	2549.72
263.51	2152.42
263.73	2351.07
263.95	2717.65
264.16	2441.18
264.38	2291.68
264.60	2338.78
264.81	2471.90
265.03	2564.06
265.25	2605.02
265.46	2351.07
265.68	2635.74
265.89	2588.63
266.11	2254.81
266.33	2416.60
266.54	2605.02
266.76	2547.67
266.98	2361.31
267.19	2482.14
267.41	2641.88
267.62	2373.60
267.84	2254.81
268.06	2400.22
268.27	2455.51
268.49	2654.17
268.70	2430.94
268.92	2398.17
269.14	2400.22
269.35	2291.68
269.57	2387.93
269.79	2449.37
270.00	2375.64
270.22	2686.94
270.43	2244.57
270.65	2146.27
270.87	2523.10
271.08	2539.48
271.30	2392.03
271.51	2441.18
271.73	2529.24
271.95	2568.15
272.16	2367.45
272.38	2500.57
272.59	2490.33
272.81	2486.23
273.02	2293.72
273.24	2441.18
273.46	2547.67
273.67	2324.44
273.89	2244.57
274.10	2365.40
274.32	2537.43
274.54	2514.91
274.75	2400.22
274.97	2338.78
275.18	2580.44
275.40	2535.39
275.61	2340.83
275.83	2486.23
276.05	2379.74
276.26	2428.89
276.48	2400.22
276.69	2381.79
276.91	2443.23
277.12	2633.69
277.34	2447.32
277.55	2471.90
277.77	2535.39
277.99	2514.91
278.20	2334.68
278.42	2346.97
278.63	2367.45
278.85	2316.25
279.06	2275.29
279.28	2541.53
279.49	2586.58
279.71	2547.67
279.93	2506.71
280.14	2488.28
280.36	2449.37
280.57	2600.92
280.79	2594.78
281.00	2400.22
281.22	2377.69
281.43	2572.25
281.65	2117.60
281.86	2365.40
282.08	2527.19
282.29	2752.47
282.51	2342.88
282.73	2306.01
282.94	2316.25
283.16	2605.02
283.37	2541.53
283.59	2404.32
283.80	2512.86
284.02	2502.62
284.23	2523.10
284.45	2441.18
284.66	2471.90
284.88	2398.17
285.09	2383.84
285.31	2584.54
285.52	2496.47
285.74	2306.01
285.95	2447.32
286.17	2439.13
286.38	2605.02
286.60	2389.98
286.81	2314.20
287.03	2416.60
287.24	2383.84
287.46	2580.44
287.67	2516.95
287.89	2744.28
288.10	2512.86
288.32	2586.58
288.53	2596.82
288.75	2428.89
288.96	2621.40
289.18	2408.41
289.39	2457.56
289.61	2521.05
289.82	2750.42
290.04	2625.50
290.25	2320.35
290.47	2473.95
290.68	2492.38
290.90	2654.17
291.11	2273.25
291.33	2570.20
291.54	2361.31
291.76	2363.36
291.97	2633.69
292.18	2441.18
292.40	2504.67
292.61	2457.56
292.83	2662.36
293.04	2412.51
293.26	2555.86
293.47	2441.18
293.69	2396.12
293.90	2379.74
294.12	2664.41
294.33	2486.23
294.55	2457.56
294.76	2490.33
294.97	2713.56
295.19	2775.00
295.40	2506.71
295.62	2516.95
295.83	2478.04
296.05	2383.84
296.26	2555.86
296.48	2363.36
296.69	2549.72
296.90	2467.80
297.12	2598.87
297.33	2514.91
297.55	2529.24
297.76	2576.34
297.98	2531.29
298.19	2523.10
298.41	2613.21
298.62	2359.26
298.83	2609.11
299.05	2439.13
299.26	2439.13
299.48	2324.44
299.69	2498.52
299.90	2441.18
300.12	2437.08
300.33	2506.71
300.55	2432.99
300.76	2447.32
300.98	2428.89
301.19	2562.01
301.40	2351.07
301.62	2379.74
301.83	2488.28
302.05	2420.70
302.26	2432.99
302.47	2428.89
302.69	2316.25
302.90	2514.91
303.12	2174.94
303.33	2426.84
303.54	2654.17
303.76	2406.36
303.97	2461.66
304.19	2545.63
304.40	2334.68
304.61	2527.19
304.83	2580.44
305.04	2480.09
305.26	2551.77
305.47	2441.18
305.68	2469.85
305.90	2297.82
306.11	2688.98
306.33	2430.94
306.54	2371.55
306.75	2336.73
306.97	2297.82
307.18	2320.35
307.39	2385.88
307.61	2473.95
307.82	2412.51
308.04	2639.83
308.25	2410.46
308.46	2490.33
308.68	2441.18
308.89	2430.94
309.10	2527.19
309.32	2471.90
309.53	2473.95
309.74	2609.11
309.96	2367.45
310.17	2602.97
310.39	2432.99
310.60	2527.19
310.81	2475.99
311.03	2310.11
311.24	2553.82
311.45	2527.19
311.67	2584.54
311.88	2502.62
312.09	2451.42
312.31	2467.80
312.52	2459.61
312.73	2367.45
312.95	2246.62
313.16	2359.26
313.37	2664.41
313.59	2484.19
313.80	2602.97
314.01	2691.03
314.23	2412.51
314.44	2381.79
314.65	2330.59
314.87	2357.21
315.08	2437.08
315.29	2457.56
315.51	2320.35
315.72	2310.11
315.93	2553.82
316.15	2478.04
316.36	2473.95
316.57	2576.34
316.79	2480.09
317.00	2449.37
317.21	2547.67
317.43	2351.07
317.64	2394.08
317.85	2310.11
318.07	2392.03
318.28	2449.37
318.49	2500.57
318.70	2654.17
318.92	2621.40
319.13	2629.59
319.34	2727.89
319.56	2449.37
319.77	2588.63
319.98	2572.25
320.20	2670.55
320.41	2582.49
320.62	2562.01
320.83	2322.40
321.05	2629.59
321.26	2486.23
321.47	2459.61
321.69	2490.33
321.90	2314.20
322.11	2351.07
322.32	2510.81
322.54	2699.22
322.75	2371.55
322.96	2801.62
323.18	2312.16
323.39	2244.57
323.60	2422.75
323.81	2490.33
324.03	2400.22
324.24	2453.47
324.45	2441.18
324.66	2369.50
324.88	2674.65
325.09	2639.83
325.30	2437.08
325.52	2445.27
325.73	2514.91
325.94	2301.92
326.15	2277.34
326.37	2330.59
326.58	2553.82
326.79	2678.74
327.00	2392.03
327.22	2400.22
327.43	2449.37
327.64	2392.03
327.85	2506.71
328.07	2404.32
328.28	2686.94
328.49	2471.90
328.70	2443.23
328.92	2342.88
329.13	2504.67
329.34	2537.43
329.55	2537.43
329.76	2516.95
329.98	2471.90
330.19	2617.30
330.40	2430.94
330.61	2486.23
330.83	2564.06
331.04	2453.47
331.25	2416.60
331.46	2416.60
331.68	2342.88
331.89	2576.34
332.10	2437.08
332.31	2289.63
332.52	2455.51
332.74	2580.44
332.95	2303.96
333.16	2381.79
333.37	2580.44
333.58	2490.33
333.80	2467.80
334.01	2285.53
334.22	2449.37
334.43	2281.44
334.64	2338.78
334.86	2342.88
335.07	2400.22
335.28	2701.27
335.49	2301.92
335.70	2498.52
335.92	2660.31
336.13	2791.38
336.34	2541.53
336.55	2441.18
336.76	2578.39
336.98	2260.96
337.19	2408.41
337.40	2564.06
337.61	2775.00
337.82	2363.36
338.04	2469.85
338.25	2283.49
338.46	2473.95
338.67	2361.31
338.88	2334.68
339.09	2332.64
339.31	2373.60
339.52	2318.30
339.73	2375.64
339.94	2410.46
340.15	2553.82
340.36	2445.27
340.58	2449.37
340.79	2353.12
341.00	2533.34
341.21	2400.22
341.42	2592.73
341.63	2367.45
341.85	2545.63
342.06	2486.23
342.27	2359.26
342.48	2482.14
342.69	2353.12
342.90	2457.56
343.12	2629.59
343.33	2387.93
343.54	2625.50
343.75	2643.93
343.96	2480.09
344.17	2334.68
344.38	2455.51
344.60	2310.11
344.81	2318.30
345.02	2410.46
345.23	2557.91
345.44	2856.92
345.65	2473.95
345.86	2480.09
346.07	2426.84
346.29	2398.17
346.50	2514.91
346.71	2527.19
346.92	2645.98
347.13	2711.51
347.34	2441.18
347.55	2353.12
347.76	2539.48
347.98	2332.64
348.19	2457.56
348.40	2580.44
348.61	2385.88
348.82	2600.92
349.03	2576.34
349.24	2357.21
349.45	2699.22
349.66	2285.53
349.88	2422.75
350.09	2406.36
350.30	2656.22
350.51	2611.16
350.72	2461.66
350.93	2426.84
351.14	2416.60
351.35	2529.24
351.56	2396.12
351.77	2441.18
351.99	2514.91
352.20	2637.78
352.41	2527.19
352.62	2263.01
352.83	2422.75
353.04	2475.99
353.25	2492.38
353.46	2516.95
353.67	2543.58
353.88	2328.54
354.09	2459.61
354.30	2430.94
354.52	2590.68
354.73	2428.89
354.94	2369.50
355.15	2406.36
355.36	2701.27
355.57	2392.03
355.78	2447.32
355.99	2404.32
356.20	2441.18
356.41	2619.35
356.62	2473.95
356.83	2486.23
357.04	2596.82
357.25	2244.57
357.46	2424.80
357.68	2316.25
357.89	2353.12
358.10	2465.75
358.31	2426.84
358.52	2449.37
358.73	2379.74
358.94	2351.07
359.15	2346.97
359.36	2494.43
359.57	2471.90
359.78	2424.80
359.99	2508.76
360.20	2369.50
360.41	2416.60
360.62	2566.10
360.83	2490.33
361.04	2424.80
361.25	2529.24
361.46	2666.46
361.67	2482.14
361.88	2428.89
362.09	2584.54
362.30	2574.30
362.51	2445.27
362.72	2471.90
362.93	2600.92
363.14	2482.14
363.35	2367.45
363.56	2346.97
363.78	2643.93
363.99	2695.13
364.20	2406.36
364.41	2496.47
364.62	2717.65
364.83	2523.10
365.04	2473.95
365.25	2510.81
365.46	2748.37
365.67	2402.27
365.88	2478.04
366.09	2359.26
366.30	2480.09
366.51	2504.67
366.72	2449.37
366.93	2463.71
367.14	2543.58
367.35	2568.15
367.56	2375.64
367.77	2584.54
367.98	2422.75
368.18	2584.54
368.39	2504.67
368.60	2359.26
368.81	2568.15
369.02	2514.91
369.23	2465.75
369.44	2277.34
369.65	2424.80
369.86	2574.30
370.07	2490.33
370.28	2379.74
370.49	2559.96
370.70	2576.34
370.91	2400.22
371.12	2301.92
371.33	2592.73
371.54	2416.60
371.75	2531.29
371.96	2150.37
372.17	2533.34
372.38	2535.39
372.59	2453.47
372.80	2447.32
373.01	2473.95
373.22	2453.47
373.43	2463.71
373.64	2308.06
373.85	2619.35
374.06	2709.46
374.26	2559.96
374.47	2473.95
374.68	2648.02
374.89	2453.47
375.10	2437.08
375.31	2555.86
375.52	2529.24
375.73	2437.08
375.94	2316.25
376.15	2537.43
376.36	2432.99
376.57	2381.79
376.78	2449.37
376.99	2473.95
377.20	2688.98
377.40	2361.31
377.61	2670.55
377.82	2340.83
378.03	2650.07
378.24	2629.59
378.45	2465.75
378.66	2455.51
378.87	2332.64
379.08	2344.92
379.29	2367.45
379.50	2625.50
379.71	2439.13
379.91	2654.17
380.12	2379.74
380.33	2414.56
380.54	2498.52
380.75	2400.22
380.96	2449.37
381.17	2441.18
381.38	2500.57
381.59	2471.90
381.80	2430.94
382.00	2682.84
382.21	2523.10
382.42	2670.55
382.63	2693.08
382.84	2611.16
383.05	2643.93
383.26	2633.69
383.47	2502.62
383.68	2445.27
383.88	2576.34
384.09	2494.43
384.30	2641.88
384.51	2537.43
384.72	2400.22
384.93	2252.77
385.14	2523.10
385.35	2572.25
385.55	2359.26
385.76	2662.36
385.97	2461.66
386.18	2299.87
386.39	2410.46
386.60	2377.69
386.81	2414.56
387.02	2361.31
387.22	2435.03
387.43	2566.10
387.64	2475.99
387.85	2613.21
388.06	2602.97
388.27	4136.90
388.48	8150.92
388.68	11956.04
388.89	14382.88
389.10	15511.32
389.31	14679.84
389.52	11583.31
389.73	9951.08
389.93	9027.45
390.14	8173.44
390.35	7319.44
390.56	6555.55
390.77	5423.02
390.98	4126.66
391.18	3418.06
391.39	2912.21
391.60	2623.45
391.81	2557.91
392.02	2437.08
392.23	2828.24
392.43	2545.63
392.64	2691.03
392.85	2492.38
393.06	2731.99
393.27	2457.56
393.47	2373.60
393.68	2449.37
393.89	2422.75
394.10	2629.59
394.31	2439.13
394.52	2308.06
394.72	2453.47
394.93	2639.83
395.14	2379.74
395.35	2613.21
395.56	2396.12
395.76	2494.43
395.97	2473.95
396.18	2598.87
396.39	2650.07
396.60	3037.14
396.80	2715.61
397.01	2611.16
397.22	2660.31
397.43	2717.65
397.64	2521.05
397.84	2519.00
398.05	2766.81
398.26	2523.10
398.47	2555.86
398.67	2586.58
398.88	2523.10
399.09	2514.91
399.30	2367.45
399.51	2527.19
399.71	2463.71
399.92	2492.38
400.13	2498.52
400.34	2465.75
400.54	2496.47
400.75	2633.69
400.96	2498.52
401.17	2633.69
401.37	2537.43
401.58	2475.99
401.79	2402.27
402.00	2594.78
402.21	2914.26
402.41	2744.28
402.62	2736.09
402.83	2904.02
403.04	2916.31
403.24	3110.86
403.45	2562.01
403.66	2709.46
403.87	2760.66
404.07	2734.04
404.28	2766.81
404.49	2783.19
404.70	2637.78
404.90	2588.63
405.11	2547.67
405.32	2523.10
405.52	2424.80
405.73	2416.60
405.94	2396.12
406.15	2449.37
406.35	2564.06
406.56	2592.73
406.77	2543.58
406.98	2502.62
407.18	2351.07
407.39	2615.26
407.60	2377.69
407.80	2572.25
408.01	2469.85
408.22	2572.25
408.43	2303.96
408.63	2523.10
408.84	2562.01
409.05	2592.73
409.25	2346.97
409.46	2402.27
409.67	2387.93
409.88	2447.32
410.08	2547.67
410.29	2482.14
410.50	2621.40
410.70	2572.25
410.91	2303.96
411.12	2506.71
411.32	2465.75
411.53	2473.95
411.74	2545.63
411.95	2609.11
412.15	2592.73
412.36	2627.54
412.57	2551.77
412.77	2713.56
412.98	2492.38
413.19	2473.95
413.39	2527.19
413.60	2469.85
413.81	2596.82
414.01	2273.25
414.22	2508.76
414.43	2508.76
414.63	2377.69
414.84	2629.59
415.05	2486.23
415.25	2301.92
415.46	2545.63
415.67	2359.26
415.87	2463.71
416.08	2445.27
416.29	2420.70
416.49	2537.43
416.70	2359.26
416.91	2392.03
417.11	2437.08
417.32	2590.68
417.53	2521.05
417.73	2541.53
417.94	2449.37
418.15	2512.86
418.35	2457.56
418.56	2392.03
418.77	2805.72
418.97	2443.23
419.18	2469.85
419.38	2211.81
419.59	2428.89
419.80	2650.07
420.00	2414.56
420.21	2521.05
420.42	2594.78
420.62	2521.05
420.83	2400.22
421.04	2361.31
421.24	2439.13
421.45	2494.43
421.65	2469.85
421.86	2349.02
422.07	2527.19
422.27	2623.45
422.48	2441.18
422.69	2330.59
422.89	2406.36
423.10	2455.51
423.30	2326.49
423.51	2543.58
423.72	2580.44
423.92	2588.63
424.13	2308.06
424.33	2512.86
424.54	2731.99
424.75	2545.63
424.95	2600.92
425.16	2469.85
425.36	2359.26
425.57	2594.78
425.78	2551.77
425.98	2562.01
426.19	2361.31
426.39	2346.97
426.60	2578.39
426.81	2629.59
427.01	2594.78
427.22	2349.02
427.42	2252.77
427.63	2400.22
427.83	2578.39
428.04	2645.98
428.25	2545.63
428.45	2564.06
428.66	2555.86
428.86	2449.37
429.07	2430.94
429.28	2459.61
429.48	2529.24
429.69	2443.23
429.89	2451.42
430.10	2342.88
430.30	2592.73
430.51	2535.39
430.71	2408.41
430.92	2461.66
431.13	2449.37
431.33	2592.73
431.54	2539.48
431.74	2652.12
431.95	2785.24
432.15	2373.60
432.36	2381.79
432.56	2394.08
432.77	2686.94
432.98	2674.65
433.18	2549.72
433.39	2451.42
433.59	2430.94
433.80	2666.46
434.00	2727.89
434.21	2412.51
434.41	2416.60
434.62	2834.39
434.82	2398.17
435.03	2416.60
435.23	2502.62
435.44	2277.34
435.64	2408.41
435.85	2486.23
436.06	2527.19
436.26	2609.11
436.47	2490.33
436.67	2392.03
436.88	2482.14
437.08	2570.20
437.29	2654.17
437.49	2486.23
437.70	2570.20
437.90	2519.00
438.11	2645.98
438.31	2594.78
438.52	2619.35
438.72	2629.59
438.93	2727.89
439.13	2516.95
439.34	2600.92
439.54	2492.38
439.75	2586.58
439.95	2559.96
440.16	2441.18
440.36	2449.37
440.57	2447.32
440.77	2461.66
440.98	2473.95
441.18	2609.11
441.39	2488.28
441.59	2312.16
441.80	2783.19
442.00	2465.75
442.21	2629.59
442.41	2418.65
442.62	2635.74
442.82	2441.18
443.02	2455.51
443.23	2519.00
443.43	2420.70
443.64	2672.60
443.84	2330.59
444.05	2488.28
444.25	2414.56
444.46	2455.51
444.66	2488.28
444.87	2705.37
445.07	2357.21
445.28	2486.23
445.48	2637.78
445.69	2510.81
445.89	2758.61
446.09	2539.48
446.30	2795.48
446.50	2961.36
446.71	4540.35
446.91	5691.31
447.12	6545.31
447.32	6918.04
447.53	6569.88
447.73	5461.93
447.93	4906.93
448.14	4448.19
448.34	4474.81
448.55	3835.85
448.75	3657.67
448.96	3514.31
449.16	3252.17
449.36	3102.67
449.57	2727.89
449.77	2506.71
449.98	2453.47
450.18	2555.86
450.39	2543.58
450.59	2596.82
450.79	2469.85
451.00	2410.46
451.20	2553.82
451.41	2494.43
451.61	2547.67
451.81	2406.36
452.02	2369.50
452.22	2420.70
452.43	2410.46
452.63	2498.52
