SpectraSuite Data File
++++++++++++++++++++++++++++++++++++
Date: Thu May 05 14:42:07 CEST 2016
User: root
Dark Spectrum Present: No
Reference Spectrum Present: No
Number of Sampled Component Spectra: 1
Spectrometers: USB4C02835
Integration Time (usec): 100000 (USB4C02835)
Spectra Averaged: 1 (USB4C02835)
Boxcar Smoothing: 0 (USB4C02835)
Correct for Electrical Dark: No (USB4C02835)
Strobe/Lamp Enabled: No (USB4C02835)
Correct for Detector Non-linearity: No (USB4C02835)
Correct for Stray Light: No (USB4C02835)
Number of Pixels in Processed Spectrum: 3648
>>>>>Begin Processed Spectral Data<<<<<
177.47	1916.90
177.69	1916.90
177.91	1916.90
178.13	1880.04
178.36	1935.33
178.58	2355.16
178.80	2480.09
179.02	2318.30
179.24	2424.80
179.46	2326.49
179.68	2353.12
179.90	2494.43
180.13	2465.75
180.35	2285.53
180.57	2291.68
180.79	2562.01
181.01	2449.37
181.23	2381.79
181.45	2471.90
181.67	2545.63
181.90	2641.88
182.12	2396.12
182.34	2217.95
182.56	2629.59
182.78	2527.19
183.00	2334.68
183.22	2414.56
183.44	2250.72
183.66	2721.75
183.89	2455.51
184.11	2375.64
184.33	2551.77
184.55	2639.83
184.77	2389.98
184.99	2357.21
185.21	2478.04
185.43	2760.66
185.65	2310.11
185.87	2346.97
186.10	2789.33
186.32	2805.72
186.54	2432.99
186.76	2381.79
186.98	2568.15
187.20	2480.09
187.42	2332.64
187.64	2349.02
187.86	2496.47
188.08	2693.08
188.30	2293.72
188.52	2379.74
188.75	2594.78
188.97	2559.96
189.19	2269.15
189.41	2383.84
189.63	2498.52
189.85	2379.74
190.07	2226.14
190.29	2166.75
190.51	2545.63
190.73	2379.74
190.95	2467.80
191.17	2396.12
191.39	2285.53
191.61	2389.98
191.84	2336.73
192.06	2398.17
192.28	2297.82
192.50	2899.92
192.72	2373.60
192.94	2424.80
193.16	2566.10
193.38	2645.98
193.60	2250.72
193.82	2373.60
194.04	2707.41
194.26	2564.06
194.48	2484.19
194.70	2316.25
194.92	2447.32
195.14	2586.58
195.36	2342.88
195.58	2420.70
195.80	2480.09
196.02	2441.18
196.24	2308.06
196.46	2412.51
196.69	2389.98
196.91	2699.22
197.13	2322.40
197.35	2359.26
197.57	2703.32
197.79	2588.63
198.01	2320.35
198.23	2389.98
198.45	2504.67
198.67	2406.36
198.89	2265.05
199.11	2392.03
199.33	2449.37
199.55	2217.95
199.77	2293.72
199.99	2439.13
200.21	2363.36
200.43	2467.80
200.65	2293.72
200.87	2242.53
201.09	2541.53
201.31	2432.99
201.53	2371.55
201.75	2432.99
201.97	2531.29
202.19	2510.81
202.41	2482.14
202.63	2566.10
202.85	2463.71
203.07	2504.67
203.29	2381.79
203.51	2236.38
203.73	2392.03
203.95	2803.67
204.17	2357.21
204.39	2469.85
204.61	2392.03
204.83	2424.80
205.05	2478.04
205.27	2369.50
205.49	2738.13
205.71	2473.95
205.93	2232.29
206.15	2220.00
206.37	2570.20
206.59	2453.47
206.81	2293.72
207.03	2281.44
207.25	2326.49
207.47	2588.63
207.69	2404.32
207.91	2557.91
208.13	2674.65
208.34	2424.80
208.56	2256.86
208.78	2326.49
209.00	2471.90
209.22	2451.42
209.44	2340.83
209.66	2332.64
209.88	2426.84
210.10	2461.66
210.32	2277.34
210.54	2439.13
210.76	2416.60
210.98	2514.91
211.20	2199.52
211.42	2482.14
211.64	2668.50
211.86	2547.67
212.08	2428.89
212.30	2375.64
212.52	2387.93
212.74	2588.63
212.96	2334.68
213.17	2410.46
213.39	2586.58
213.61	2697.17
213.83	2367.45
214.05	2453.47
214.27	2674.65
214.49	2342.88
214.71	2297.82
214.93	2449.37
215.15	2469.85
215.37	2547.67
215.59	2293.72
215.81	2373.60
216.03	2596.82
216.24	2514.91
216.46	2367.45
216.68	2449.37
216.90	2510.81
217.12	2609.11
217.34	2310.11
217.56	2461.66
217.78	2680.79
218.00	2549.72
218.22	2389.98
218.44	2406.36
218.66	2494.43
218.87	2775.00
219.09	2346.97
219.31	2404.32
219.53	2537.43
219.75	2471.90
219.97	2389.98
220.19	2389.98
220.41	2465.75
220.63	2674.65
220.85	2383.84
221.06	2330.59
221.28	2727.89
221.50	2545.63
221.72	2336.73
221.94	2260.96
222.16	2559.96
222.38	2496.47
222.60	2314.20
222.82	2375.64
223.03	2609.11
223.25	2396.12
223.47	2283.49
223.69	2559.96
223.91	2586.58
224.13	2576.34
224.35	2285.53
224.57	2543.58
224.78	2619.35
225.00	2320.35
225.22	2383.84
225.44	2387.93
225.66	2521.05
225.88	2410.46
226.10	2482.14
226.32	2373.60
226.53	2605.02
226.75	2432.99
226.97	2359.26
227.19	2320.35
227.41	2412.51
227.63	2383.84
227.85	2228.19
228.06	2398.17
228.28	2523.10
228.50	2531.29
228.72	2277.34
228.94	2271.20
229.16	2295.77
229.37	2359.26
229.59	2326.49
229.81	2457.56
230.03	2471.90
230.25	2287.58
230.47	2217.95
230.69	2252.77
230.90	2539.48
231.12	2471.90
231.34	2420.70
231.56	2490.33
231.78	2301.92
232.00	2463.71
232.21	2398.17
232.43	2326.49
232.65	2273.25
232.87	2588.63
233.09	2244.57
233.30	2293.72
233.52	2627.54
233.74	2492.38
233.96	2332.64
234.18	2459.61
234.40	2428.89
234.61	2701.27
234.83	2248.67
235.05	2250.72
235.27	2867.16
235.49	2635.74
235.70	2351.07
235.92	2418.65
236.14	2586.58
236.36	2748.37
236.58	2224.09
236.79	2392.03
237.01	2486.23
237.23	2322.40
237.45	2549.72
237.67	2336.73
237.88	2600.92
238.10	2695.13
238.32	2297.82
238.54	2357.21
238.76	2482.14
238.97	2338.78
239.19	2244.57
239.41	2416.60
239.63	2637.78
239.85	2301.92
240.06	2334.68
240.28	2369.50
240.50	2609.11
240.72	2469.85
240.93	2250.72
241.15	2377.69
241.37	2535.39
241.59	2668.50
241.81	2275.29
242.02	2310.11
242.24	2627.54
242.46	2519.00
242.68	2209.76
242.89	2338.78
243.11	2611.16
243.33	2457.56
243.55	2424.80
243.76	2365.40
243.98	2396.12
244.20	2445.27
244.42	2318.30
244.64	2373.60
244.85	2379.74
245.07	2359.26
245.29	2295.77
245.51	2400.22
245.72	2602.97
245.94	2641.88
246.16	2342.88
246.38	2486.23
246.59	2349.02
246.81	2412.51
247.03	2281.44
247.24	2201.57
247.46	2310.11
247.68	2545.63
247.90	2232.29
248.11	2392.03
248.33	2588.63
248.55	2494.43
248.77	2424.80
248.98	2416.60
249.20	2680.79
249.42	2473.95
249.64	2375.64
249.85	2359.26
250.07	2404.32
250.29	2504.67
250.50	2463.71
250.72	2248.67
250.94	2486.23
251.16	2783.19
251.37	2412.51
251.59	2478.04
251.81	2553.82
252.02	2568.15
252.24	2310.11
252.46	2482.14
252.68	2387.93
252.89	2484.19
253.11	2209.76
253.33	2478.04
253.54	2596.82
253.76	2392.03
253.98	2324.44
254.20	2303.96
254.41	2258.91
254.63	2389.98
254.85	2236.38
255.06	2336.73
255.28	2586.58
255.50	2410.46
255.71	2322.40
255.93	2193.37
256.15	2453.47
256.36	2564.06
256.58	2273.25
256.80	2349.02
257.02	2531.29
257.23	2344.92
257.45	2400.22
257.67	2443.23
257.88	2424.80
258.10	2545.63
258.32	2400.22
258.53	2404.32
258.75	2617.30
258.97	2428.89
259.18	2283.49
259.40	2281.44
259.62	2625.50
259.83	2615.26
260.05	2408.41
260.27	2924.50
260.48	2521.05
260.70	2406.36
260.92	2281.44
261.13	2412.51
261.35	2514.91
261.57	2529.24
261.78	2207.71
262.00	2277.34
262.22	2541.53
262.43	2426.84
262.65	2351.07
262.86	2379.74
263.08	2785.24
263.30	2445.27
263.51	2275.29
263.73	2252.77
263.95	2617.30
264.16	2351.07
264.38	2299.87
264.60	2363.36
264.81	2428.89
265.03	2629.59
265.25	2576.34
265.46	2318.30
265.68	2674.65
265.89	2619.35
266.11	2277.34
266.33	2355.16
266.54	2662.36
266.76	2510.81
266.98	2418.65
267.19	2424.80
267.41	2660.31
267.62	2453.47
267.84	2240.48
268.06	2428.89
268.27	2486.23
268.49	2510.81
268.70	2396.12
268.92	2363.36
269.14	2418.65
269.35	2283.49
269.57	2408.41
269.79	2422.75
270.00	2426.84
270.22	2613.21
270.43	2260.96
270.65	2234.33
270.87	2523.10
271.08	2570.20
271.30	2414.56
271.51	2424.80
271.73	2498.52
271.95	2662.36
272.16	2365.40
272.38	2430.94
272.59	2314.20
272.81	2570.20
273.02	2371.55
273.24	2367.45
273.46	2568.15
273.67	2351.07
273.89	2228.19
274.10	2340.83
274.32	2605.02
274.54	2494.43
274.75	2441.18
274.97	2383.84
275.18	2602.97
275.40	2486.23
275.61	2346.97
275.83	2453.47
276.05	2308.06
276.26	2480.09
276.48	2418.65
276.69	2412.51
276.91	2406.36
277.12	2586.58
277.34	2389.98
277.55	2424.80
277.77	2500.57
277.99	2396.12
278.20	2320.35
278.42	2263.01
278.63	2422.75
278.85	2359.26
279.06	2342.88
279.28	2455.51
279.49	2594.78
279.71	2605.02
279.93	2555.86
280.14	2471.90
280.36	2408.41
280.57	2645.98
280.79	2566.10
281.00	2285.53
281.22	2373.60
281.43	2555.86
281.65	2209.76
281.86	2308.06
282.08	2533.34
282.29	2713.56
282.51	2369.50
282.73	2322.40
282.94	2297.82
283.16	2629.59
283.37	2531.29
283.59	2422.75
283.80	2484.19
284.02	2478.04
284.23	2449.37
284.45	2342.88
284.66	2314.20
284.88	2451.42
285.09	2443.23
285.31	2490.33
285.52	2473.95
285.74	2324.44
285.95	2504.67
286.17	2410.46
286.38	2600.92
286.60	2406.36
286.81	2338.78
287.03	2402.27
287.24	2430.94
287.46	2482.14
287.67	2465.75
287.89	2580.44
288.10	2521.05
288.32	2553.82
288.53	2557.91
288.75	2531.29
288.96	2551.77
289.18	2371.55
289.39	2361.31
289.61	2467.80
289.82	2795.48
290.04	2643.93
290.25	2363.36
290.47	2416.60
290.68	2514.91
290.90	2680.79
291.11	2312.16
291.33	2543.58
291.54	2398.17
291.76	2301.92
291.97	2498.52
292.18	2385.88
292.40	2441.18
292.61	2463.71
292.83	2711.51
293.04	2439.13
293.26	2523.10
293.47	2402.27
293.69	2365.40
293.90	2375.64
294.12	2695.13
294.33	2437.08
294.55	2404.32
294.76	2564.06
294.97	2660.31
295.19	2768.85
295.40	2412.51
295.62	2465.75
295.83	2584.54
296.05	2357.21
296.26	2578.39
296.48	2392.03
296.69	2414.56
296.90	2490.33
297.12	2529.24
297.33	2605.02
297.55	2496.47
297.76	2488.28
297.98	2519.00
298.19	2422.75
298.41	2439.13
298.62	2408.41
298.83	2529.24
299.05	2432.99
299.26	2334.68
299.48	2406.36
299.69	2549.72
299.90	2408.41
300.12	2338.78
300.33	2617.30
300.55	2514.91
300.76	2486.23
300.98	2367.45
301.19	2492.38
301.40	2334.68
301.62	2338.78
301.83	2596.82
302.05	2588.63
302.26	2430.94
302.47	2441.18
302.69	2424.80
302.90	2572.25
303.12	2244.57
303.33	2496.47
303.54	2717.65
303.76	2461.66
303.97	2412.51
304.19	2580.44
304.40	2359.26
304.61	2541.53
304.83	2496.47
305.04	2504.67
305.26	2510.81
305.47	2514.91
305.68	2404.32
305.90	2308.06
306.11	2660.31
306.33	2437.08
306.54	2445.27
306.75	2373.60
306.97	2336.73
307.18	2420.70
307.39	2410.46
307.61	2490.33
307.82	2516.95
308.04	2519.00
308.25	2342.88
308.46	2523.10
308.68	2494.43
308.89	2455.51
309.10	2482.14
309.32	2430.94
309.53	2437.08
309.74	2611.16
309.96	2349.02
310.17	2580.44
310.39	2457.56
310.60	2590.68
310.81	2379.74
311.03	2332.64
311.24	2539.48
311.45	2449.37
311.67	2619.35
311.88	2498.52
312.09	2439.13
312.31	2416.60
312.52	2324.44
312.73	2408.41
312.95	2346.97
313.16	2414.56
313.37	2688.98
313.59	2543.58
313.80	2596.82
314.01	2662.36
314.23	2410.46
314.44	2312.16
314.65	2385.88
314.87	2437.08
315.08	2375.64
315.29	2373.60
315.51	2490.33
315.72	2275.29
315.93	2559.96
316.15	2521.05
316.36	2512.86
316.57	2445.27
316.79	2400.22
317.00	2392.03
317.21	2600.92
317.43	2346.97
317.64	2410.46
317.85	2340.83
318.07	2338.78
318.28	2514.91
318.49	2629.59
318.70	2727.89
318.92	2564.06
319.13	2621.40
319.34	2627.54
319.56	2424.80
319.77	2693.08
319.98	2611.16
320.20	2576.34
320.41	2521.05
320.62	2547.67
320.83	2379.74
321.05	2736.09
321.26	2439.13
321.47	2525.15
321.69	2643.93
321.90	2353.12
322.11	2381.79
322.32	2602.97
322.54	2707.41
322.75	2398.17
322.96	2793.43
323.18	2351.07
323.39	2281.44
323.60	2232.29
323.81	2502.62
324.03	2471.90
324.24	2400.22
324.45	2496.47
324.66	2363.36
324.88	2629.59
325.09	2701.27
325.30	2402.27
325.52	2453.47
325.73	2564.06
325.94	2387.93
326.15	2256.86
326.37	2387.93
326.58	2590.68
326.79	2727.89
327.00	2381.79
327.22	2502.62
327.43	2389.98
327.64	2312.16
327.85	2570.20
328.07	2463.71
328.28	2787.29
328.49	2422.75
328.70	2346.97
328.92	2447.32
329.13	2416.60
329.34	2488.28
329.55	2641.88
329.76	2543.58
329.98	2463.71
330.19	2662.36
330.40	2461.66
330.61	2473.95
330.83	2555.86
331.04	2344.92
331.25	2422.75
331.46	2377.69
331.68	2332.64
331.89	2600.92
332.10	2422.75
332.31	2314.20
332.52	2482.14
332.74	2633.69
332.95	2297.82
333.16	2416.60
333.37	2547.67
333.58	2396.12
333.80	2455.51
334.01	2326.49
334.22	2400.22
334.43	2400.22
334.64	2371.55
334.86	2265.05
335.07	2379.74
335.28	2674.65
335.49	2396.12
335.70	2502.62
335.92	2648.02
336.13	2803.67
336.34	2463.71
336.55	2437.08
336.76	2570.20
336.98	2199.52
337.19	2420.70
337.40	2621.40
337.61	2768.85
337.82	2486.23
338.04	2553.82
338.25	2240.48
338.46	2490.33
338.67	2394.08
338.88	2396.12
339.09	2285.53
339.31	2465.75
339.52	2279.39
339.73	2289.63
339.94	2471.90
340.15	2596.82
340.36	2482.14
340.58	2451.42
340.79	2375.64
341.00	2519.00
341.21	2387.93
341.42	2580.44
341.63	2424.80
341.85	2629.59
342.06	2508.76
342.27	2455.51
342.48	2494.43
342.69	2308.06
342.90	2475.99
343.12	2576.34
343.33	2371.55
343.54	2658.26
343.75	2727.89
343.96	2455.51
344.17	2342.88
344.38	2525.15
344.60	2365.40
344.81	2308.06
345.02	2416.60
345.23	2688.98
345.44	2809.81
345.65	2432.99
345.86	2465.75
346.07	2539.48
346.29	2422.75
346.50	2545.63
346.71	2535.39
346.92	2594.78
347.13	2789.33
347.34	2473.95
347.55	2426.84
347.76	2525.15
347.98	2308.06
348.19	2392.03
348.40	2586.58
348.61	2516.95
348.82	2701.27
349.03	2529.24
349.24	2351.07
349.45	2873.30
349.66	2312.16
349.88	2430.94
350.09	2416.60
350.30	2652.12
350.51	2643.93
350.72	2490.33
350.93	2424.80
351.14	2473.95
351.35	2547.67
351.56	2424.80
351.77	2424.80
351.99	2562.01
352.20	2660.31
352.41	2588.63
352.62	2242.53
352.83	2469.85
353.04	2510.81
353.25	2439.13
353.46	2488.28
353.67	2596.82
353.88	2291.68
354.09	2404.32
354.30	2457.56
354.52	2613.21
354.73	2543.58
354.94	2357.21
355.15	2465.75
355.36	2656.22
355.57	2424.80
355.78	2437.08
355.99	2424.80
356.20	2447.32
356.41	2666.46
356.62	2437.08
356.83	2521.05
357.04	2635.74
357.25	2314.20
357.46	2449.37
357.68	2277.34
357.89	2365.40
358.10	2424.80
358.31	2338.78
358.52	2404.32
358.73	2285.53
358.94	2435.03
359.15	2410.46
359.36	2494.43
359.57	2539.48
359.78	2441.18
359.99	2553.82
360.20	2359.26
360.41	2389.98
360.62	2494.43
360.83	2473.95
361.04	2514.91
361.25	2482.14
361.46	2645.98
361.67	2457.56
361.88	2494.43
362.09	2594.78
362.30	2525.15
362.51	2365.40
362.72	2473.95
362.93	2609.11
363.14	2502.62
363.35	2426.84
363.56	2342.88
363.78	2527.19
363.99	2658.26
364.20	2353.12
364.41	2516.95
364.62	2756.57
364.83	2504.67
365.04	2441.18
365.25	2451.42
365.46	2805.72
365.67	2340.83
365.88	2441.18
366.09	2375.64
366.30	2428.89
366.51	2496.47
366.72	2326.49
366.93	2443.23
367.14	2564.06
367.35	2707.41
367.56	2404.32
367.77	2596.82
367.98	2492.38
368.18	2572.25
368.39	2486.23
368.60	2342.88
368.81	2545.63
369.02	2451.42
369.23	2459.61
369.44	2291.68
369.65	2506.71
369.86	2568.15
370.07	2494.43
370.28	2349.02
370.49	2607.06
370.70	2480.09
370.91	2293.72
371.12	2316.25
371.33	2557.91
371.54	2418.65
371.75	2627.54
371.96	2211.81
372.17	2467.80
372.38	2494.43
372.59	2555.86
372.80	2363.36
373.01	2465.75
373.22	2559.96
373.43	2396.12
373.64	2326.49
373.85	2615.26
374.06	2688.98
374.26	2498.52
374.47	2494.43
374.68	2699.22
374.89	2570.20
375.10	2410.46
375.31	2549.72
375.52	2484.19
375.73	2418.65
375.94	2336.73
376.15	2596.82
376.36	2437.08
376.57	2486.23
376.78	2424.80
376.99	2402.27
377.20	2605.02
377.40	2416.60
377.61	2727.89
377.82	2301.92
378.03	2670.55
378.24	2525.15
378.45	2514.91
378.66	2516.95
378.87	2258.91
379.08	2338.78
379.29	2396.12
379.50	2578.39
379.71	2467.80
379.91	2596.82
380.12	2367.45
380.33	2478.04
380.54	2525.15
380.75	2414.56
380.96	2371.55
381.17	2494.43
381.38	2539.48
381.59	2471.90
381.80	2494.43
382.00	2670.55
382.21	2531.29
382.42	2770.90
382.63	2658.26
382.84	2496.47
383.05	2625.50
383.26	2645.98
383.47	2432.99
383.68	2482.14
383.88	2545.63
384.09	2506.71
384.30	2637.78
384.51	2482.14
384.72	2469.85
384.93	2301.92
385.14	2490.33
385.35	2627.54
385.55	2310.11
385.76	2598.87
385.97	2445.27
386.18	2271.20
386.39	2373.60
386.60	2455.51
386.81	2418.65
387.02	2334.68
387.22	2381.79
387.43	2631.64
387.64	2533.34
387.85	2645.98
388.06	2676.70
388.27	4032.45
388.48	8189.83
388.68	12164.93
388.89	14624.54
389.10	15814.41
389.31	15017.75
389.52	11741.00
389.73	10026.86
389.93	9207.67
390.14	8527.74
390.35	7534.48
390.56	6842.26
390.77	5439.40
390.98	4114.37
391.18	3444.68
391.39	3004.37
391.60	2613.21
391.81	2545.63
392.02	2402.27
392.23	2807.77
392.43	2484.19
392.64	2623.45
392.85	2437.08
393.06	2670.55
393.27	2514.91
393.47	2369.50
393.68	2467.80
393.89	2504.67
394.10	2654.17
394.31	2359.26
394.52	2383.84
394.72	2471.90
394.93	2693.08
395.14	2312.16
395.35	2506.71
395.56	2412.51
395.76	2406.36
395.97	2467.80
396.18	2596.82
396.39	2580.44
396.60	2920.40
396.80	2684.89
397.01	2768.85
397.22	2678.74
397.43	2629.59
397.64	2521.05
397.84	2611.16
398.05	2766.81
398.26	2471.90
398.47	2492.38
398.67	2535.39
398.88	2465.75
399.09	2498.52
399.30	2359.26
399.51	2478.04
399.71	2439.13
399.92	2451.42
400.13	2568.15
400.34	2385.88
400.54	2588.63
400.75	2744.28
400.96	2432.99
401.17	2707.41
401.37	2508.76
401.58	2418.65
401.79	2496.47
402.00	2527.19
402.21	2858.96
402.41	2842.58
402.62	2832.34
402.83	2930.64
403.04	2957.27
403.24	3110.86
403.45	2617.30
403.66	2684.89
403.87	2682.84
404.07	2750.42
404.28	2705.37
404.49	2691.03
404.70	2639.83
404.90	2660.31
405.11	2504.67
405.32	2541.53
405.52	2375.64
405.73	2424.80
405.94	2402.27
406.15	2447.32
406.35	2609.11
406.56	2580.44
406.77	2506.71
406.98	2465.75
407.18	2451.42
407.39	2625.50
407.60	2430.94
407.80	2457.56
408.01	2447.32
408.22	2594.78
408.43	2447.32
408.63	2562.01
408.84	2588.63
409.05	2572.25
409.25	2367.45
409.46	2381.79
409.67	2455.51
409.88	2480.09
410.08	2523.10
410.29	2410.46
410.50	2516.95
410.70	2549.72
410.91	2346.97
411.12	2465.75
411.32	2437.08
411.53	2367.45
411.74	2537.43
411.95	2594.78
412.15	2602.97
412.36	2588.63
412.57	2584.54
412.77	2633.69
412.98	2582.49
413.19	2465.75
413.39	2539.48
413.60	2498.52
413.81	2668.50
414.01	2408.41
414.22	2437.08
414.43	2547.67
414.63	2447.32
414.84	2564.06
415.05	2500.57
415.25	2373.60
415.46	2523.10
415.67	2351.07
415.87	2512.86
416.08	2381.79
416.29	2445.27
416.49	2627.54
416.70	2432.99
416.91	2400.22
417.11	2463.71
417.32	2686.94
417.53	2492.38
417.73	2559.96
417.94	2553.82
418.15	2535.39
418.35	2367.45
418.56	2435.03
418.77	2850.77
418.97	2461.66
419.18	2504.67
419.38	2242.53
419.59	2521.05
419.80	2719.70
420.00	2363.36
420.21	2500.57
420.42	2643.93
420.62	2547.67
420.83	2344.92
421.04	2430.94
421.24	2408.41
421.45	2564.06
421.65	2510.81
421.86	2385.88
422.07	2600.92
422.27	2592.73
422.48	2392.03
422.69	2383.84
422.89	2457.56
423.10	2471.90
423.30	2351.07
423.51	2473.95
423.72	2555.86
423.92	2580.44
424.13	2367.45
424.33	2459.61
424.54	2510.81
424.75	2510.81
424.95	2772.95
425.16	2482.14
425.36	2408.41
425.57	2613.21
425.78	2564.06
425.98	2553.82
426.19	2482.14
426.39	2326.49
426.60	2422.75
426.81	2500.57
427.01	2555.86
427.22	2426.84
427.42	2328.54
427.63	2379.74
427.83	2588.63
428.04	2756.57
428.25	2611.16
428.45	2543.58
428.66	2580.44
428.86	2527.19
429.07	2432.99
429.28	2441.18
429.48	2506.71
429.69	2363.36
429.89	2584.54
430.10	2324.44
430.30	2605.02
430.51	2490.33
430.71	2357.21
430.92	2478.04
431.13	2469.85
431.33	2602.97
431.54	2500.57
431.74	2594.78
431.95	2803.67
432.15	2389.98
432.36	2447.32
432.56	2529.24
432.77	2711.51
432.98	2748.37
433.18	2482.14
433.39	2465.75
433.59	2514.91
433.80	2789.33
434.00	2654.17
434.21	2441.18
434.41	2455.51
434.62	2789.33
434.82	2412.51
435.03	2365.40
435.23	2594.78
435.44	2277.34
435.64	2459.61
435.85	2598.87
436.06	2578.39
436.26	2562.01
436.47	2400.22
436.67	2365.40
436.88	2533.34
437.08	2623.45
437.29	2523.10
437.49	2459.61
437.70	2600.92
437.90	2463.71
438.11	2621.40
438.31	2545.63
438.52	2723.80
438.72	2738.13
438.93	2740.18
439.13	2617.30
439.34	2633.69
439.54	2437.08
439.75	2645.98
439.95	2594.78
440.16	2383.84
440.36	2502.62
440.57	2529.24
440.77	2441.18
440.98	2461.66
441.18	2588.63
441.39	2428.89
441.59	2344.92
441.80	2703.32
442.00	2533.34
442.21	2543.58
442.41	2326.49
442.62	2613.21
442.82	2478.04
443.02	2424.80
443.23	2408.41
443.43	2445.27
443.64	2631.64
443.84	2373.60
444.05	2598.87
444.25	2539.48
444.46	2437.08
444.66	2453.47
444.87	2666.46
445.07	2367.45
445.28	2455.51
445.48	2609.11
445.69	2572.25
445.89	2781.14
446.09	2537.43
446.30	2863.06
446.50	3008.47
446.71	4702.14
446.91	5869.48
447.12	6610.84
447.32	7133.08
447.53	6655.90
447.73	5463.98
447.93	4825.01
448.14	4583.35
448.34	4384.70
448.55	3835.85
448.75	3725.26
448.96	3504.07
449.16	3274.70
449.36	3112.91
449.57	2785.24
449.77	2596.82
449.98	2473.95
450.18	2605.02
450.39	2545.63
450.59	2494.43
450.79	2523.10
451.00	2420.70
451.20	2547.67
451.41	2437.08
451.61	2596.82
451.81	2502.62
452.02	2449.37
452.22	2486.23
452.43	2441.18
