SpectraSuite Data File
++++++++++++++++++++++++++++++++++++
Date: Thu May 05 14:41:54 CEST 2016
User: root
Dark Spectrum Present: No
Reference Spectrum Present: No
Number of Sampled Component Spectra: 1
Spectrometers: USB4C02835
Integration Time (usec): 100000 (USB4C02835)
Spectra Averaged: 1 (USB4C02835)
Boxcar Smoothing: 0 (USB4C02835)
Correct for Electrical Dark: No (USB4C02835)
Strobe/Lamp Enabled: No (USB4C02835)
Correct for Detector Non-linearity: No (USB4C02835)
Correct for Stray Light: No (USB4C02835)
Number of Pixels in Processed Spectrum: 3648
>>>>>Begin Processed Spectral Data<<<<<
177.47	1873.89
177.69	1873.89
177.91	1873.89
178.13	1972.19
178.36	1896.42
178.58	2432.99
178.80	2457.56
179.02	2316.25
179.24	2344.92
179.46	2301.92
179.68	2351.07
179.90	2416.60
180.13	2482.14
180.35	2195.42
180.57	2293.72
180.79	2588.63
181.01	2424.80
181.23	2363.36
181.45	2461.66
181.67	2584.54
181.90	2629.59
182.12	2349.02
182.34	2203.61
182.56	2633.69
182.78	2588.63
183.00	2328.54
183.22	2453.47
183.44	2279.39
183.66	2750.42
183.89	2449.37
184.11	2326.49
184.33	2615.26
184.55	2588.63
184.77	2267.10
184.99	2338.78
185.21	2410.46
185.43	2768.85
185.65	2367.45
185.87	2252.77
186.10	2752.47
186.32	2721.75
186.54	2369.50
186.76	2432.99
186.98	2645.98
187.20	2455.51
187.42	2346.97
187.64	2447.32
187.86	2514.91
188.08	2592.73
188.30	2228.19
188.52	2404.32
188.75	2588.63
188.97	2609.11
189.19	2293.72
189.41	2402.27
189.63	2555.86
189.85	2435.03
190.07	2310.11
190.29	2197.47
190.51	2510.81
190.73	2328.54
190.95	2416.60
191.17	2424.80
191.39	2254.81
191.61	2463.71
191.84	2357.21
192.06	2392.03
192.28	2299.87
192.50	2801.62
192.72	2424.80
192.94	2293.72
193.16	2605.02
193.38	2500.57
193.60	2295.77
193.82	2392.03
194.04	2678.74
194.26	2473.95
194.48	2275.29
194.70	2293.72
194.92	2381.79
195.14	2572.25
195.36	2269.15
195.58	2330.59
195.80	2572.25
196.02	2408.41
196.24	2324.44
196.46	2449.37
196.69	2412.51
196.91	2781.14
197.13	2426.84
197.35	2334.68
197.57	2693.08
197.79	2516.95
198.01	2432.99
198.23	2404.32
198.45	2566.10
198.67	2359.26
198.89	2310.11
199.11	2486.23
199.33	2435.03
199.55	2254.81
199.77	2385.88
199.99	2418.65
200.21	2373.60
200.43	2486.23
200.65	2299.87
200.87	2203.61
201.09	2449.37
201.31	2455.51
201.53	2402.27
201.75	2430.94
201.97	2449.37
202.19	2486.23
202.41	2416.60
202.63	2525.15
202.85	2570.20
203.07	2551.77
203.29	2338.78
203.51	2308.06
203.73	2361.31
203.95	2834.39
204.17	2310.11
204.39	2478.04
204.61	2424.80
204.83	2449.37
205.05	2449.37
205.27	2428.89
205.49	2668.50
205.71	2498.52
205.93	2209.76
206.15	2353.12
206.37	2424.80
206.59	2420.70
206.81	2283.49
207.03	2310.11
207.25	2357.21
207.47	2555.86
207.69	2351.07
207.91	2490.33
208.13	2666.46
208.34	2402.27
208.56	2269.15
208.78	2443.23
209.00	2453.47
209.22	2412.51
209.44	2316.25
209.66	2351.07
209.88	2392.03
210.10	2424.80
210.32	2355.16
210.54	2488.28
210.76	2510.81
210.98	2564.06
211.20	2314.20
211.42	2402.27
211.64	2662.36
211.86	2559.96
212.08	2389.98
212.30	2371.55
212.52	2527.19
212.74	2471.90
212.96	2424.80
213.17	2400.22
213.39	2525.15
213.61	2668.50
213.83	2318.30
214.05	2324.44
214.27	2549.72
214.49	2336.73
214.71	2267.10
214.93	2502.62
215.15	2512.86
215.37	2519.00
215.59	2168.80
215.81	2291.68
216.03	2719.70
216.24	2441.18
216.46	2316.25
216.68	2406.36
216.90	2613.21
217.12	2580.44
217.34	2308.06
217.56	2482.14
217.78	2529.24
218.00	2613.21
218.22	2455.51
218.44	2392.03
218.66	2463.71
218.87	2752.47
219.09	2342.88
219.31	2332.64
219.53	2459.61
219.75	2387.93
219.97	2371.55
220.19	2373.60
220.41	2457.56
220.63	2635.74
220.85	2363.36
221.06	2258.91
221.28	2602.97
221.50	2514.91
221.72	2408.41
221.94	2201.57
222.16	2611.16
222.38	2570.20
222.60	2375.64
222.82	2363.36
223.03	2635.74
223.25	2322.40
223.47	2303.96
223.69	2564.06
223.91	2596.82
224.13	2510.81
224.35	2269.15
224.57	2529.24
224.78	2545.63
225.00	2377.69
225.22	2334.68
225.44	2381.79
225.66	2600.92
225.88	2383.84
226.10	2383.84
226.32	2353.12
226.53	2611.16
226.75	2449.37
226.97	2473.95
227.19	2326.49
227.41	2428.89
227.63	2416.60
227.85	2203.61
228.06	2293.72
228.28	2455.51
228.50	2551.77
228.72	2293.72
228.94	2400.22
229.16	2310.11
229.37	2318.30
229.59	2258.91
229.81	2502.62
230.03	2400.22
230.25	2365.40
230.47	2226.14
230.69	2267.10
230.90	2639.83
231.12	2306.01
231.34	2410.46
231.56	2449.37
231.78	2363.36
232.00	2553.82
232.21	2432.99
232.43	2392.03
232.65	2209.76
232.87	2549.72
233.09	2277.34
233.30	2314.20
233.52	2609.11
233.74	2516.95
233.96	2375.64
234.18	2435.03
234.40	2570.20
234.61	2723.80
234.83	2306.01
235.05	2260.96
235.27	2846.68
235.49	2615.26
235.70	2326.49
235.92	2443.23
236.14	2519.00
236.36	2813.91
236.58	2228.19
236.79	2465.75
237.01	2457.56
237.23	2496.47
237.45	2527.19
237.67	2369.50
237.88	2519.00
238.10	2660.31
238.32	2238.43
238.54	2351.07
238.76	2478.04
238.97	2340.83
239.19	2275.29
239.41	2426.84
239.63	2594.78
239.85	2447.32
240.06	2441.18
240.28	2320.35
240.50	2621.40
240.72	2506.71
240.93	2396.12
241.15	2465.75
241.37	2432.99
241.59	2676.70
241.81	2318.30
242.02	2334.68
242.24	2531.29
242.46	2588.63
242.68	2232.29
242.89	2330.59
243.11	2539.48
243.33	2482.14
243.55	2371.55
243.76	2363.36
243.98	2430.94
244.20	2369.50
244.42	2291.68
244.64	2330.59
244.85	2291.68
245.07	2310.11
245.29	2371.55
245.51	2381.79
245.72	2498.52
245.94	2602.97
246.16	2320.35
246.38	2375.64
246.59	2330.59
246.81	2398.17
247.03	2297.82
247.24	2226.14
247.46	2392.03
247.68	2514.91
247.90	2299.87
248.11	2334.68
248.33	2629.59
248.55	2502.62
248.77	2375.64
248.98	2410.46
249.20	2652.12
249.42	2492.38
249.64	2392.03
249.85	2263.01
250.07	2435.03
250.29	2594.78
250.50	2406.36
250.72	2252.77
250.94	2506.71
251.16	2783.19
251.37	2377.69
251.59	2363.36
251.81	2588.63
252.02	2576.34
252.24	2232.29
252.46	2523.10
252.68	2394.08
252.89	2373.60
253.11	2260.96
253.33	2506.71
253.54	2699.22
253.76	2334.68
253.98	2400.22
254.20	2375.64
254.41	2328.54
254.63	2461.66
254.85	2291.68
255.06	2346.97
255.28	2572.25
255.50	2375.64
255.71	2271.20
255.93	2281.44
256.15	2416.60
256.36	2580.44
256.58	2277.34
256.80	2351.07
257.02	2387.93
257.23	2453.47
257.45	2359.26
257.67	2461.66
257.88	2469.85
258.10	2473.95
258.32	2301.92
258.53	2392.03
258.75	2627.54
258.97	2383.84
259.18	2334.68
259.40	2367.45
259.62	2693.08
259.83	2588.63
260.05	2416.60
260.27	2889.68
260.48	2613.21
260.70	2371.55
260.92	2269.15
261.13	2293.72
261.35	2428.89
261.57	2482.14
261.78	2297.82
262.00	2293.72
262.22	2555.86
262.43	2361.31
262.65	2318.30
262.86	2340.83
263.08	2775.00
263.30	2494.43
263.51	2138.08
263.73	2281.44
263.95	2668.50
264.16	2373.60
264.38	2285.53
264.60	2363.36
264.81	2432.99
265.03	2654.17
265.25	2594.78
265.46	2312.16
265.68	2731.99
265.89	2582.49
266.11	2283.49
266.33	2392.03
266.54	2613.21
266.76	2598.87
266.98	2428.89
267.19	2467.80
267.41	2619.35
267.62	2461.66
267.84	2215.90
268.06	2394.08
268.27	2418.65
268.49	2582.49
268.70	2414.56
268.92	2342.88
269.14	2359.26
269.35	2240.48
269.57	2387.93
269.79	2424.80
270.00	2447.32
270.22	2697.17
270.43	2320.35
270.65	2117.60
270.87	2447.32
271.08	2605.02
271.30	2416.60
271.51	2387.93
271.73	2490.33
271.95	2641.88
272.16	2365.40
272.38	2441.18
272.59	2406.36
272.81	2519.00
273.02	2357.21
273.24	2416.60
273.46	2600.92
273.67	2349.02
273.89	2273.25
274.10	2367.45
274.32	2578.39
274.54	2578.39
274.75	2402.27
274.97	2293.72
275.18	2547.67
275.40	2525.15
275.61	2441.18
275.83	2527.19
276.05	2310.11
276.26	2482.14
276.48	2437.08
276.69	2418.65
276.91	2377.69
277.12	2654.17
277.34	2482.14
277.55	2455.51
277.77	2574.30
277.99	2400.22
278.20	2260.96
278.42	2326.49
278.63	2396.12
278.85	2455.51
279.06	2353.12
279.28	2521.05
279.49	2562.01
279.71	2586.58
279.93	2469.85
280.14	2420.70
280.36	2435.03
280.57	2557.91
280.79	2451.42
281.00	2349.02
281.22	2441.18
281.43	2555.86
281.65	2256.86
281.86	2285.53
282.08	2512.86
282.29	2775.00
282.51	2244.57
282.73	2269.15
282.94	2297.82
283.16	2598.87
283.37	2516.95
283.59	2537.43
283.80	2531.29
284.02	2435.03
284.23	2541.53
284.45	2447.32
284.66	2344.92
284.88	2351.07
285.09	2412.51
285.31	2484.19
285.52	2523.10
285.74	2258.91
285.95	2535.39
286.17	2500.57
286.38	2578.39
286.60	2519.00
286.81	2428.89
287.03	2396.12
287.24	2547.67
287.46	2605.02
287.67	2383.84
287.89	2723.80
288.10	2498.52
288.32	2449.37
288.53	2592.73
288.75	2410.46
288.96	2553.82
289.18	2455.51
289.39	2445.27
289.61	2465.75
289.82	2682.84
290.04	2787.29
290.25	2365.40
290.47	2502.62
290.68	2441.18
290.90	2652.12
291.11	2240.48
291.33	2545.63
291.54	2363.36
291.76	2426.84
291.97	2443.23
292.18	2457.56
292.40	2531.29
292.61	2463.71
292.83	2607.06
293.04	2465.75
293.26	2498.52
293.47	2457.56
293.69	2383.84
293.90	2375.64
294.12	2645.98
294.33	2506.71
294.55	2377.69
294.76	2539.48
294.97	2635.74
295.19	2777.05
295.40	2392.03
295.62	2478.04
295.83	2613.21
296.05	2375.64
296.26	2619.35
296.48	2402.27
296.69	2506.71
296.90	2467.80
297.12	2488.28
297.33	2580.44
297.55	2521.05
297.76	2502.62
297.98	2531.29
298.19	2416.60
298.41	2453.47
298.62	2521.05
298.83	2623.45
299.05	2529.24
299.26	2461.66
299.48	2441.18
299.69	2469.85
299.90	2449.37
300.12	2375.64
300.33	2488.28
300.55	2416.60
300.76	2482.14
300.98	2367.45
301.19	2596.82
301.40	2457.56
301.62	2383.84
301.83	2463.71
302.05	2449.37
302.26	2439.13
302.47	2367.45
302.69	2449.37
302.90	2494.43
303.12	2258.91
303.33	2551.77
303.54	2705.37
303.76	2451.42
303.97	2471.90
304.19	2592.73
304.40	2392.03
304.61	2572.25
304.83	2537.43
305.04	2506.71
305.26	2559.96
305.47	2467.80
305.68	2478.04
305.90	2332.64
306.11	2621.40
306.33	2414.56
306.54	2400.22
306.75	2400.22
306.97	2285.53
307.18	2338.78
307.39	2324.44
307.61	2521.05
307.82	2447.32
308.04	2482.14
308.25	2359.26
308.46	2465.75
308.68	2475.99
308.89	2537.43
309.10	2537.43
309.32	2432.99
309.53	2488.28
309.74	2576.34
309.96	2379.74
310.17	2549.72
310.39	2455.51
310.60	2576.34
310.81	2400.22
311.03	2303.96
311.24	2564.06
311.45	2465.75
311.67	2635.74
311.88	2480.09
312.09	2437.08
312.31	2353.12
312.52	2512.86
312.73	2367.45
312.95	2310.11
313.16	2328.54
313.37	2562.01
313.59	2504.67
313.80	2621.40
314.01	2703.32
314.23	2428.89
314.44	2324.44
314.65	2324.44
314.87	2392.03
315.08	2394.08
315.29	2420.70
315.51	2418.65
315.72	2385.88
315.93	2547.67
316.15	2437.08
316.36	2383.84
316.57	2492.38
316.79	2478.04
317.00	2342.88
317.21	2584.54
317.43	2408.41
317.64	2467.80
317.85	2363.36
318.07	2344.92
318.28	2392.03
318.49	2611.16
318.70	2686.94
318.92	2617.30
319.13	2625.50
319.34	2711.51
319.56	2580.44
319.77	2600.92
319.98	2652.12
320.20	2672.60
320.41	2516.95
320.62	2570.20
320.83	2357.21
321.05	2703.32
321.26	2441.18
321.47	2490.33
321.69	2652.12
321.90	2389.98
322.11	2404.32
322.32	2424.80
322.54	2635.74
322.75	2363.36
322.96	2883.54
323.18	2359.26
323.39	2205.66
323.60	2297.82
323.81	2506.71
324.03	2424.80
324.24	2443.23
324.45	2424.80
324.66	2410.46
324.88	2621.40
325.09	2731.99
325.30	2426.84
325.52	2443.23
325.73	2555.86
325.94	2332.64
326.15	2213.85
326.37	2359.26
326.58	2697.17
326.79	2717.65
327.00	2359.26
327.22	2484.19
327.43	2480.09
327.64	2328.54
327.85	2455.51
328.07	2467.80
328.28	2736.09
328.49	2449.37
328.70	2377.69
328.92	2430.94
329.13	2381.79
329.34	2586.58
329.55	2650.07
329.76	2512.86
329.98	2590.68
330.19	2662.36
330.40	2531.29
330.61	2500.57
330.83	2629.59
331.04	2359.26
331.25	2461.66
331.46	2439.13
331.68	2355.16
331.89	2631.64
332.10	2467.80
332.31	2306.01
332.52	2506.71
332.74	2592.73
332.95	2314.20
333.16	2394.08
333.37	2578.39
333.58	2455.51
333.80	2478.04
334.01	2297.82
334.22	2473.95
334.43	2400.22
334.64	2439.13
334.86	2326.49
335.07	2414.56
335.28	2635.74
335.49	2277.34
335.70	2521.05
335.92	2652.12
336.13	2815.96
336.34	2506.71
336.55	2494.43
336.76	2465.75
336.98	2242.53
337.19	2389.98
337.40	2543.58
337.61	2777.05
337.82	2426.84
338.04	2551.77
338.25	2353.12
338.46	2490.33
338.67	2486.23
338.88	2355.16
339.09	2330.59
339.31	2414.56
339.52	2383.84
339.73	2285.53
339.94	2445.27
340.15	2619.35
340.36	2490.33
340.58	2437.08
340.79	2332.64
341.00	2564.06
341.21	2330.59
341.42	2625.50
341.63	2502.62
341.85	2586.58
342.06	2619.35
342.27	2420.70
342.48	2514.91
342.69	2332.64
342.90	2545.63
343.12	2627.54
343.33	2428.89
343.54	2605.02
343.75	2648.02
343.96	2445.27
344.17	2408.41
344.38	2478.04
344.60	2453.47
344.81	2340.83
345.02	2443.23
345.23	2590.68
345.44	2766.81
345.65	2523.10
345.86	2527.19
346.07	2539.48
346.29	2408.41
346.50	2570.20
346.71	2471.90
346.92	2736.09
347.13	2897.88
347.34	2482.14
347.55	2389.98
347.76	2555.86
347.98	2314.20
348.19	2412.51
348.40	2555.86
348.61	2377.69
348.82	2654.17
349.03	2463.71
349.24	2363.36
349.45	2629.59
349.66	2211.81
349.88	2420.70
350.09	2340.83
350.30	2623.45
350.51	2611.16
350.72	2496.47
350.93	2398.17
351.14	2373.60
351.35	2473.95
351.56	2449.37
351.77	2389.98
351.99	2613.21
352.20	2629.59
352.41	2519.00
352.62	2265.05
352.83	2498.52
353.04	2441.18
353.25	2375.64
353.46	2588.63
353.67	2596.82
353.88	2285.53
354.09	2432.99
354.30	2445.27
354.52	2615.26
354.73	2449.37
354.94	2420.70
355.15	2449.37
355.36	2719.70
355.57	2422.75
355.78	2408.41
355.99	2367.45
356.20	2504.67
356.41	2635.74
356.62	2480.09
356.83	2381.79
357.04	2682.84
357.25	2244.57
357.46	2441.18
357.68	2244.57
357.89	2408.41
358.10	2496.47
358.31	2435.03
358.52	2383.84
358.73	2351.07
358.94	2410.46
359.15	2441.18
359.36	2539.48
359.57	2543.58
359.78	2449.37
359.99	2512.86
360.20	2332.64
360.41	2422.75
360.62	2473.95
360.83	2482.14
361.04	2500.57
361.25	2539.48
361.46	2746.33
361.67	2555.86
361.88	2512.86
362.09	2627.54
362.30	2592.73
362.51	2351.07
362.72	2437.08
362.93	2523.10
363.14	2562.01
363.35	2437.08
363.56	2379.74
363.78	2637.78
363.99	2572.25
364.20	2396.12
364.41	2473.95
364.62	2625.50
364.83	2496.47
365.04	2447.32
365.25	2400.22
365.46	2715.61
365.67	2432.99
365.88	2414.56
366.09	2330.59
366.30	2496.47
366.51	2486.23
366.72	2324.44
366.93	2418.65
367.14	2482.14
367.35	2547.67
367.56	2422.75
367.77	2600.92
367.98	2523.10
368.18	2510.81
368.39	2473.95
368.60	2418.65
368.81	2578.39
369.02	2512.86
369.23	2416.60
369.44	2176.99
369.65	2418.65
369.86	2543.58
370.07	2498.52
370.28	2334.68
370.49	2576.34
370.70	2611.16
370.91	2389.98
371.12	2295.77
371.33	2578.39
371.54	2387.93
371.75	2617.30
371.96	2248.67
372.17	2473.95
372.38	2414.56
372.59	2455.51
372.80	2428.89
373.01	2430.94
373.22	2508.76
373.43	2392.03
373.64	2326.49
373.85	2633.69
374.06	2717.65
374.26	2568.15
374.47	2504.67
374.68	2725.85
374.89	2496.47
375.10	2410.46
375.31	2506.71
375.52	2465.75
375.73	2504.67
375.94	2336.73
376.15	2543.58
376.36	2371.55
376.57	2338.78
376.78	2381.79
376.99	2461.66
377.20	2684.89
377.40	2396.12
377.61	2633.69
377.82	2346.97
378.03	2617.30
378.24	2635.74
378.45	2416.60
378.66	2492.38
378.87	2306.01
379.08	2330.59
379.29	2406.36
379.50	2527.19
379.71	2445.27
379.91	2490.33
380.12	2396.12
380.33	2478.04
380.54	2490.33
380.75	2453.47
380.96	2416.60
381.17	2541.53
381.38	2463.71
381.59	2469.85
381.80	2449.37
382.00	2609.11
382.21	2576.34
382.42	2650.07
382.63	2746.33
382.84	2498.52
383.05	2598.87
383.26	2666.46
383.47	2490.33
383.68	2519.00
383.88	2596.82
384.09	2527.19
384.30	2652.12
384.51	2461.66
384.72	2369.50
384.93	2312.16
385.14	2441.18
385.35	2531.29
385.55	2326.49
385.76	2629.59
385.97	2461.66
386.18	2351.07
386.39	2371.55
386.60	2516.95
386.81	2375.64
387.02	2326.49
387.22	2357.21
387.43	2557.91
387.64	2508.76
387.85	2621.40
388.06	2707.41
388.27	4091.84
388.48	8351.62
388.68	11833.16
388.89	14667.55
389.10	15634.19
389.31	14688.03
389.52	11435.86
389.73	10133.35
389.93	8953.72
390.14	8294.27
390.35	7462.80
390.56	6631.32
390.77	5406.64
390.98	4179.90
391.18	3428.30
391.39	2928.60
391.60	2562.01
391.81	2627.54
392.02	2404.32
392.23	2754.52
392.43	2488.28
392.64	2578.39
392.85	2414.56
393.06	2676.70
393.27	2469.85
393.47	2435.03
393.68	2484.19
393.89	2420.70
394.10	2625.50
394.31	2406.36
394.52	2465.75
394.72	2365.40
394.93	2641.88
395.14	2359.26
395.35	2498.52
395.56	2424.80
395.76	2457.56
395.97	2432.99
396.18	2580.44
396.39	2641.88
396.60	2957.27
396.80	2721.75
397.01	2605.02
397.22	2654.17
397.43	2686.94
397.64	2451.42
397.84	2535.39
398.05	2684.89
398.26	2455.51
398.47	2582.49
398.67	2578.39
398.88	2465.75
399.09	2555.86
399.30	2400.22
399.51	2521.05
399.71	2322.40
399.92	2463.71
400.13	2562.01
400.34	2496.47
400.54	2539.48
400.75	2705.37
400.96	2484.19
401.17	2639.83
401.37	2506.71
401.58	2363.36
401.79	2408.41
402.00	2559.96
402.21	2834.39
402.41	2775.00
402.62	2766.81
402.83	2934.74
403.04	2979.79
403.24	3074.00
403.45	2662.36
403.66	2764.76
403.87	2664.41
404.07	2721.75
404.28	2742.23
404.49	2725.85
404.70	2607.06
404.90	2572.25
405.11	2457.56
405.32	2521.05
405.52	2439.13
405.73	2426.84
405.94	2379.74
406.15	2459.61
406.35	2570.20
406.56	2588.63
406.77	2437.08
406.98	2494.43
407.18	2369.50
407.39	2598.87
407.60	2400.22
407.80	2580.44
408.01	2412.51
408.22	2527.19
408.43	2467.80
408.63	2527.19
408.84	2641.88
409.05	2580.44
409.25	2316.25
409.46	2394.08
409.67	2414.56
409.88	2432.99
410.08	2510.81
410.29	2420.70
410.50	2562.01
410.70	2596.82
410.91	2351.07
411.12	2465.75
411.32	2463.71
411.53	2432.99
411.74	2502.62
411.95	2486.23
412.15	2691.03
412.36	2615.26
412.57	2594.78
412.77	2578.39
412.98	2523.10
413.19	2424.80
413.39	2547.67
413.60	2504.67
413.81	2648.02
414.01	2389.98
414.22	2531.29
414.43	2525.15
414.63	2461.66
414.84	2570.20
415.05	2408.41
415.25	2295.77
415.46	2549.72
415.67	2428.89
415.87	2435.03
416.08	2430.94
416.29	2494.43
416.49	2537.43
416.70	2473.95
416.91	2437.08
417.11	2496.47
417.32	2602.97
417.53	2482.14
417.73	2490.33
417.94	2572.25
418.15	2482.14
418.35	2506.71
418.56	2475.99
418.77	2740.18
418.97	2463.71
419.18	2463.71
419.38	2170.85
419.59	2521.05
419.80	2635.74
420.00	2488.28
420.21	2473.95
420.42	2617.30
420.62	2523.10
420.83	2334.68
421.04	2432.99
421.24	2543.58
421.45	2557.91
421.65	2465.75
421.86	2473.95
422.07	2547.67
422.27	2578.39
422.48	2373.60
422.69	2277.34
422.89	2473.95
423.10	2410.46
423.30	2338.78
423.51	2424.80
423.72	2578.39
423.92	2650.07
424.13	2324.44
424.33	2482.14
424.54	2521.05
424.75	2482.14
424.95	2605.02
425.16	2498.52
425.36	2494.43
425.57	2564.06
425.78	2529.24
425.98	2516.95
426.19	2424.80
426.39	2389.98
426.60	2541.53
426.81	2588.63
427.01	2490.33
427.22	2379.74
427.42	2295.77
427.63	2426.84
427.83	2660.31
428.04	2746.33
428.25	2463.71
428.45	2592.73
428.66	2523.10
428.86	2408.41
429.07	2465.75
429.28	2527.19
429.48	2410.46
429.69	2285.53
429.89	2490.33
430.10	2385.88
430.30	2596.82
430.51	2570.20
430.71	2482.14
430.92	2449.37
431.13	2428.89
431.33	2539.48
431.54	2426.84
431.74	2650.07
431.95	2834.39
432.15	2379.74
432.36	2498.52
432.56	2473.95
432.77	2729.94
432.98	2699.22
433.18	2490.33
433.39	2334.68
433.59	2451.42
433.80	2723.80
434.00	2711.51
434.21	2473.95
434.41	2463.71
434.62	2764.76
434.82	2392.03
435.03	2340.83
435.23	2547.67
435.44	2260.96
435.64	2447.32
435.85	2529.24
436.06	2645.98
436.26	2580.44
436.47	2373.60
436.67	2297.82
436.88	2402.27
437.08	2600.92
437.29	2553.82
437.49	2498.52
437.70	2650.07
437.90	2422.75
438.11	2619.35
438.31	2559.96
438.52	2652.12
438.72	2754.52
438.93	2783.19
439.13	2623.45
439.34	2682.84
439.54	2461.66
439.75	2592.73
439.95	2502.62
440.16	2473.95
440.36	2510.81
440.57	2514.91
440.77	2414.56
440.98	2475.99
441.18	2537.43
441.39	2449.37
441.59	2320.35
441.80	2785.24
442.00	2547.67
442.21	2615.26
442.41	2355.16
442.62	2578.39
442.82	2441.18
443.02	2412.51
443.23	2504.67
443.43	2449.37
443.64	2705.37
443.84	2291.68
444.05	2488.28
444.25	2596.82
444.46	2494.43
444.66	2471.90
444.87	2686.94
445.07	2389.98
445.28	2471.90
445.48	2629.59
445.69	2531.29
445.89	2742.23
446.09	2547.67
446.30	2693.08
446.50	3014.61
446.71	4579.26
446.91	5685.16
447.12	6610.84
447.32	6932.37
447.53	6670.23
447.73	5341.10
447.93	4874.17
448.14	4513.72
448.34	4464.57
448.55	3739.59
448.75	3792.84
448.96	3684.30
449.16	3309.52
449.36	3133.39
449.57	2748.37
449.77	2553.82
449.98	2539.48
450.18	2621.40
450.39	2486.23
450.59	2553.82
450.79	2500.57
451.00	2439.13
451.20	2570.20
451.41	2379.74
451.61	2545.63
451.81	2539.48
452.02	2383.84
452.22	2478.04
452.43	2420.70
