SpectraSuite Data File
++++++++++++++++++++++++++++++++++++
Date: Thu May 05 14:42:03 CEST 2016
User: root
Dark Spectrum Present: No
Reference Spectrum Present: No
Number of Sampled Component Spectra: 1
Spectrometers: USB4C02835
Integration Time (usec): 100000 (USB4C02835)
Spectra Averaged: 1 (USB4C02835)
Boxcar Smoothing: 0 (USB4C02835)
Correct for Electrical Dark: No (USB4C02835)
Strobe/Lamp Enabled: No (USB4C02835)
Correct for Detector Non-linearity: No (USB4C02835)
Correct for Stray Light: No (USB4C02835)
Number of Pixels in Processed Spectrum: 3648
>>>>>Begin Processed Spectral Data<<<<<
177.47	1918.95
177.69	1918.95
177.91	1918.95
178.13	1916.90
178.36	1859.56
178.58	2351.07
178.80	2482.14
179.02	2306.01
179.24	2334.68
179.46	2387.93
179.68	2361.31
179.90	2519.00
180.13	2435.03
180.35	2238.43
180.57	2322.40
180.79	2543.58
181.01	2465.75
181.23	2334.68
181.45	2502.62
181.67	2605.02
181.90	2592.73
182.12	2349.02
182.34	2207.71
182.56	2508.76
182.78	2428.89
183.00	2334.68
183.22	2330.59
183.44	2283.49
183.66	2901.97
183.89	2523.10
184.11	2375.64
184.33	2555.86
184.55	2580.44
184.77	2383.84
184.99	2379.74
185.21	2414.56
185.43	2897.88
185.65	2306.01
185.87	2351.07
186.10	2805.72
186.32	2785.24
186.54	2392.03
186.76	2365.40
186.98	2572.25
187.20	2478.04
187.42	2351.07
187.64	2375.64
187.86	2496.47
188.08	2645.98
188.30	2283.49
188.52	2379.74
188.75	2627.54
188.97	2686.94
189.19	2334.68
189.41	2273.25
189.63	2609.11
189.85	2387.93
190.07	2174.94
190.29	2234.33
190.51	2508.76
190.73	2373.60
190.95	2562.01
191.17	2349.02
191.39	2236.38
191.61	2453.47
191.84	2326.49
192.06	2437.08
192.28	2285.53
192.50	2795.48
192.72	2426.84
192.94	2480.09
193.16	2586.58
193.38	2535.39
193.60	2312.16
193.82	2510.81
194.04	2605.02
194.26	2531.29
194.48	2375.64
194.70	2330.59
194.92	2404.32
195.14	2537.43
195.36	2342.88
195.58	2383.84
195.80	2457.56
196.02	2408.41
196.24	2322.40
196.46	2394.08
196.69	2422.75
196.91	2740.18
197.13	2291.68
197.35	2367.45
197.57	2725.85
197.79	2570.20
198.01	2396.12
198.23	2365.40
198.45	2531.29
198.67	2379.74
198.89	2285.53
199.11	2469.85
199.33	2367.45
199.55	2158.56
199.77	2324.44
199.99	2420.70
200.21	2383.84
200.43	2545.63
200.65	2240.48
200.87	2285.53
201.09	2500.57
201.31	2469.85
201.53	2363.36
201.75	2392.03
201.97	2537.43
202.19	2521.05
202.41	2367.45
202.63	2519.00
202.85	2500.57
203.07	2527.19
203.29	2324.44
203.51	2279.39
203.73	2449.37
203.95	2867.16
204.17	2336.73
204.39	2406.36
204.61	2482.14
204.83	2463.71
205.05	2432.99
205.27	2394.08
205.49	2848.72
205.71	2465.75
205.93	2277.34
206.15	2250.72
206.37	2570.20
206.59	2457.56
206.81	2260.96
207.03	2328.54
207.25	2316.25
207.47	2555.86
207.69	2398.17
207.91	2512.86
208.13	2711.51
208.34	2363.36
208.56	2275.29
208.78	2383.84
209.00	2473.95
209.22	2342.88
209.44	2363.36
209.66	2328.54
209.88	2463.71
210.10	2414.56
210.32	2334.68
210.54	2451.42
210.76	2516.95
210.98	2662.36
211.20	2160.61
211.42	2301.92
211.64	2693.08
211.86	2506.71
212.08	2437.08
212.30	2377.69
212.52	2414.56
212.74	2547.67
212.96	2359.26
213.17	2408.41
213.39	2531.29
213.61	2631.64
213.83	2334.68
214.05	2359.26
214.27	2531.29
214.49	2340.83
214.71	2334.68
214.93	2441.18
215.15	2514.91
215.37	2543.58
215.59	2209.76
215.81	2410.46
216.03	2654.17
216.24	2521.05
216.46	2369.50
216.68	2400.22
216.90	2633.69
217.12	2588.63
217.34	2308.06
217.56	2473.95
217.78	2711.51
218.00	2570.20
218.22	2383.84
218.44	2349.02
218.66	2480.09
218.87	2695.13
219.09	2322.40
219.31	2465.75
219.53	2512.86
219.75	2373.60
219.97	2414.56
220.19	2420.70
220.41	2432.99
220.63	2650.07
220.85	2402.27
221.06	2424.80
221.28	2602.97
221.50	2617.30
221.72	2381.79
221.94	2316.25
222.16	2494.43
222.38	2629.59
222.60	2349.02
222.82	2422.75
223.03	2535.39
223.25	2357.21
223.47	2281.44
223.69	2543.58
223.91	2572.25
224.13	2590.68
224.35	2217.95
224.57	2424.80
224.78	2611.16
225.00	2344.92
225.22	2334.68
225.44	2334.68
225.66	2531.29
225.88	2424.80
226.10	2449.37
226.32	2375.64
226.53	2684.89
226.75	2426.84
226.97	2367.45
227.19	2439.13
227.41	2400.22
227.63	2396.12
227.85	2209.76
228.06	2387.93
228.28	2594.78
228.50	2652.12
228.72	2301.92
228.94	2248.67
229.16	2267.10
229.37	2373.60
229.59	2265.05
229.81	2486.23
230.03	2369.50
230.25	2379.74
230.47	2252.77
230.69	2242.53
230.90	2531.29
231.12	2398.17
231.34	2385.88
231.56	2459.61
231.78	2398.17
232.00	2537.43
232.21	2389.98
232.43	2377.69
232.65	2224.09
232.87	2531.29
233.09	2375.64
233.30	2389.98
233.52	2578.39
233.74	2521.05
233.96	2310.11
234.18	2426.84
234.40	2441.18
234.61	2750.42
234.83	2252.77
235.05	2271.20
235.27	2760.66
235.49	2693.08
235.70	2359.26
235.92	2328.54
236.14	2488.28
236.36	2740.18
236.58	2228.19
236.79	2424.80
237.01	2457.56
237.23	2439.13
237.45	2514.91
237.67	2287.58
237.88	2441.18
238.10	2654.17
238.32	2252.77
238.54	2273.25
238.76	2502.62
238.97	2316.25
239.19	2269.15
239.41	2357.21
239.63	2562.01
239.85	2408.41
240.06	2381.79
240.28	2277.34
240.50	2617.30
240.72	2451.42
240.93	2326.49
241.15	2428.89
241.37	2480.09
241.59	2691.03
241.81	2389.98
242.02	2367.45
242.24	2570.20
242.46	2572.25
242.68	2201.57
242.89	2328.54
243.11	2621.40
243.33	2529.24
243.55	2359.26
243.76	2293.72
243.98	2316.25
244.20	2412.51
244.42	2408.41
244.64	2400.22
244.85	2318.30
245.07	2326.49
245.29	2396.12
245.51	2355.16
245.72	2564.06
245.94	2613.21
246.16	2422.75
246.38	2412.51
246.59	2451.42
246.81	2371.55
247.03	2277.34
247.24	2203.61
247.46	2402.27
247.68	2539.48
247.90	2265.05
248.11	2301.92
248.33	2605.02
248.55	2430.94
248.77	2320.35
248.98	2426.84
249.20	2635.74
249.42	2539.48
249.64	2371.55
249.85	2353.12
250.07	2437.08
250.29	2637.78
250.50	2437.08
250.72	2260.96
250.94	2469.85
251.16	2701.27
251.37	2375.64
251.59	2469.85
251.81	2490.33
252.02	2639.83
252.24	2330.59
252.46	2510.81
252.68	2408.41
252.89	2375.64
253.11	2187.23
253.33	2486.23
253.54	2703.32
253.76	2367.45
253.98	2392.03
254.20	2336.73
254.41	2338.78
254.63	2418.65
254.85	2260.96
255.06	2381.79
255.28	2543.58
255.50	2422.75
255.71	2340.83
255.93	2236.38
256.15	2512.86
256.36	2549.72
256.58	2293.72
256.80	2299.87
257.02	2408.41
257.23	2428.89
257.45	2406.36
257.67	2486.23
257.88	2412.51
258.10	2525.15
258.32	2303.96
258.53	2455.51
258.75	2717.65
258.97	2439.13
259.18	2326.49
259.40	2293.72
259.62	2678.74
259.83	2703.32
260.05	2441.18
260.27	2912.21
260.48	2531.29
260.70	2359.26
260.92	2265.05
261.13	2412.51
261.35	2408.41
261.57	2471.90
261.78	2260.96
262.00	2328.54
262.22	2521.05
262.43	2463.71
262.65	2336.73
262.86	2392.03
263.08	2717.65
263.30	2490.33
263.51	2263.01
263.73	2283.49
263.95	2709.46
264.16	2406.36
264.38	2273.25
264.60	2346.97
264.81	2441.18
265.03	2617.30
265.25	2625.50
265.46	2324.44
265.68	2588.63
265.89	2572.25
266.11	2285.53
266.33	2338.78
266.54	2615.26
266.76	2559.96
266.98	2406.36
267.19	2418.65
267.41	2588.63
267.62	2498.52
267.84	2232.29
268.06	2439.13
268.27	2559.96
268.49	2678.74
268.70	2465.75
268.92	2422.75
269.14	2396.12
269.35	2318.30
269.57	2371.55
269.79	2424.80
270.00	2400.22
270.22	2723.80
270.43	2310.11
270.65	2193.37
270.87	2547.67
271.08	2559.96
271.30	2363.36
271.51	2346.97
271.73	2600.92
271.95	2668.50
272.16	2342.88
272.38	2506.71
272.59	2441.18
272.81	2588.63
273.02	2322.40
273.24	2330.59
273.46	2652.12
273.67	2342.88
273.89	2318.30
274.10	2301.92
274.32	2635.74
274.54	2469.85
274.75	2367.45
274.97	2379.74
275.18	2506.71
275.40	2564.06
275.61	2451.42
275.83	2443.23
276.05	2400.22
276.26	2475.99
276.48	2488.28
276.69	2324.44
276.91	2457.56
277.12	2641.88
277.34	2461.66
277.55	2572.25
277.77	2494.43
277.99	2453.47
278.20	2342.88
278.42	2289.63
278.63	2428.89
278.85	2394.08
279.06	2324.44
279.28	2406.36
279.49	2570.20
279.71	2607.06
279.93	2498.52
280.14	2416.60
280.36	2398.17
280.57	2574.30
280.79	2498.52
281.00	2351.07
281.22	2371.55
281.43	2670.55
281.65	2195.42
281.86	2277.34
282.08	2531.29
282.29	2662.36
282.51	2215.90
282.73	2310.11
282.94	2342.88
283.16	2609.11
283.37	2656.22
283.59	2424.80
283.80	2539.48
284.02	2486.23
284.23	2432.99
284.45	2363.36
284.66	2359.26
284.88	2342.88
285.09	2365.40
285.31	2467.80
285.52	2547.67
285.74	2312.16
285.95	2443.23
286.17	2385.88
286.38	2562.01
286.60	2443.23
286.81	2430.94
287.03	2394.08
287.24	2457.56
287.46	2555.86
287.67	2494.43
287.89	2645.98
288.10	2480.09
288.32	2430.94
288.53	2545.63
288.75	2469.85
288.96	2633.69
289.18	2381.79
289.39	2428.89
289.61	2471.90
289.82	2787.29
290.04	2684.89
290.25	2248.67
290.47	2428.89
290.68	2369.50
290.90	2602.97
291.11	2330.59
291.33	2457.56
291.54	2389.98
291.76	2496.47
291.97	2478.04
292.18	2471.90
292.40	2422.75
292.61	2457.56
292.83	2617.30
293.04	2514.91
293.26	2498.52
293.47	2416.60
293.69	2400.22
293.90	2357.21
294.12	2695.13
294.33	2523.10
294.55	2490.33
294.76	2519.00
294.97	2676.70
295.19	2760.66
295.40	2392.03
295.62	2471.90
295.83	2629.59
296.05	2461.66
296.26	2547.67
296.48	2435.03
296.69	2449.37
296.90	2488.28
297.12	2551.77
297.33	2572.25
297.55	2408.41
297.76	2594.78
297.98	2516.95
298.19	2443.23
298.41	2539.48
298.62	2420.70
298.83	2539.48
299.05	2473.95
299.26	2381.79
299.48	2396.12
299.69	2521.05
299.90	2435.03
300.12	2418.65
300.33	2605.02
300.55	2410.46
300.76	2519.00
300.98	2359.26
301.19	2582.49
301.40	2383.84
301.62	2422.75
301.83	2441.18
302.05	2496.47
302.26	2428.89
302.47	2424.80
302.69	2383.84
302.90	2478.04
303.12	2244.57
303.33	2467.80
303.54	2789.33
303.76	2473.95
303.97	2398.17
304.19	2633.69
304.40	2318.30
304.61	2541.53
304.83	2576.34
305.04	2547.67
305.26	2580.44
305.47	2473.95
305.68	2400.22
305.90	2301.92
306.11	2633.69
306.33	2473.95
306.54	2326.49
306.75	2424.80
306.97	2287.58
307.18	2346.97
307.39	2375.64
307.61	2471.90
307.82	2463.71
308.04	2512.86
308.25	2373.60
308.46	2488.28
308.68	2484.19
308.89	2535.39
309.10	2488.28
309.32	2461.66
309.53	2519.00
309.74	2605.02
309.96	2392.03
310.17	2572.25
310.39	2441.18
310.60	2568.15
310.81	2471.90
311.03	2328.54
311.24	2564.06
311.45	2514.91
311.67	2602.97
311.88	2496.47
312.09	2455.51
312.31	2422.75
312.52	2371.55
312.73	2406.36
312.95	2318.30
313.16	2451.42
313.37	2605.02
313.59	2492.38
313.80	2635.74
314.01	2731.99
314.23	2455.51
314.44	2351.07
314.65	2281.44
314.87	2389.98
315.08	2310.11
315.29	2428.89
315.51	2435.03
315.72	2387.93
315.93	2562.01
316.15	2506.71
316.36	2443.23
316.57	2492.38
316.79	2430.94
317.00	2369.50
317.21	2533.34
317.43	2353.12
317.64	2510.81
317.85	2344.92
318.07	2400.22
318.28	2428.89
318.49	2609.11
318.70	2748.37
318.92	2627.54
319.13	2631.64
319.34	2592.73
319.56	2510.81
319.77	2637.78
319.98	2510.81
320.20	2588.63
320.41	2557.91
320.62	2617.30
320.83	2318.30
321.05	2650.07
321.26	2500.57
321.47	2564.06
321.69	2559.96
321.90	2349.02
322.11	2463.71
322.32	2516.95
322.54	2662.36
322.75	2330.59
322.96	2850.77
323.18	2334.68
323.39	2220.00
323.60	2355.16
323.81	2519.00
324.03	2422.75
324.24	2424.80
324.45	2480.09
324.66	2400.22
324.88	2619.35
325.09	2645.98
325.30	2371.55
325.52	2455.51
325.73	2539.48
325.94	2361.31
326.15	2320.35
326.37	2402.27
326.58	2576.34
326.79	2678.74
327.00	2392.03
327.22	2408.41
327.43	2441.18
327.64	2394.08
327.85	2529.24
328.07	2494.43
328.28	2719.70
328.49	2494.43
328.70	2396.12
328.92	2387.93
329.13	2379.74
329.34	2539.48
329.55	2580.44
329.76	2588.63
329.98	2482.14
330.19	2629.59
330.40	2465.75
330.61	2500.57
330.83	2500.57
331.04	2349.02
331.25	2506.71
331.46	2435.03
331.68	2342.88
331.89	2678.74
332.10	2377.69
332.31	2269.15
332.52	2508.76
332.74	2637.78
332.95	2310.11
333.16	2461.66
333.37	2566.10
333.58	2445.27
333.80	2392.03
334.01	2314.20
334.22	2416.60
334.43	2371.55
334.64	2375.64
334.86	2328.54
335.07	2379.74
335.28	2619.35
335.49	2322.40
335.70	2389.98
335.92	2631.64
336.13	2789.33
336.34	2457.56
336.55	2504.67
336.76	2506.71
336.98	2215.90
337.19	2422.75
337.40	2535.39
337.61	2791.38
337.82	2414.56
338.04	2498.52
338.25	2244.57
338.46	2465.75
338.67	2416.60
338.88	2404.32
339.09	2295.77
339.31	2365.40
339.52	2328.54
339.73	2310.11
339.94	2400.22
340.15	2553.82
340.36	2437.08
340.58	2453.47
340.79	2359.26
341.00	2615.26
341.21	2277.34
341.42	2600.92
341.63	2504.67
341.85	2568.15
342.06	2519.00
342.27	2351.07
342.48	2496.47
342.69	2265.05
342.90	2553.82
343.12	2613.21
343.33	2355.16
343.54	2600.92
343.75	2586.58
343.96	2418.65
344.17	2322.40
344.38	2494.43
344.60	2394.08
344.81	2301.92
345.02	2426.84
345.23	2545.63
345.44	2740.18
345.65	2564.06
345.86	2451.42
346.07	2514.91
346.29	2402.27
346.50	2523.10
346.71	2480.09
346.92	2629.59
347.13	2721.75
347.34	2496.47
347.55	2445.27
347.76	2555.86
347.98	2340.83
348.19	2424.80
348.40	2537.43
348.61	2416.60
348.82	2682.84
349.03	2490.33
349.24	2357.21
349.45	2637.78
349.66	2252.77
349.88	2469.85
350.09	2340.83
350.30	2688.98
350.51	2652.12
350.72	2578.39
350.93	2402.27
351.14	2441.18
351.35	2471.90
351.56	2463.71
351.77	2449.37
351.99	2547.67
352.20	2574.30
352.41	2582.49
352.62	2263.01
352.83	2457.56
353.04	2531.29
353.25	2398.17
353.46	2453.47
353.67	2553.82
353.88	2189.28
354.09	2414.56
354.30	2336.73
354.52	2580.44
354.73	2484.19
354.94	2383.84
355.15	2414.56
355.36	2705.37
355.57	2435.03
355.78	2480.09
355.99	2353.12
356.20	2398.17
356.41	2662.36
356.62	2531.29
356.83	2437.08
357.04	2613.21
357.25	2273.25
357.46	2385.88
357.68	2281.44
357.89	2340.83
358.10	2486.23
358.31	2447.32
358.52	2379.74
358.73	2310.11
358.94	2396.12
359.15	2349.02
359.36	2490.33
359.57	2514.91
359.78	2342.88
359.99	2461.66
360.20	2314.20
360.41	2510.81
360.62	2609.11
360.83	2494.43
361.04	2406.36
361.25	2545.63
361.46	2678.74
361.67	2564.06
361.88	2449.37
362.09	2586.58
362.30	2508.76
362.51	2387.93
362.72	2428.89
362.93	2562.01
363.14	2629.59
363.35	2471.90
363.56	2355.16
363.78	2613.21
363.99	2555.86
364.20	2392.03
364.41	2457.56
364.62	2693.08
364.83	2555.86
365.04	2439.13
365.25	2469.85
365.46	2748.37
365.67	2351.07
365.88	2406.36
366.09	2400.22
366.30	2375.64
366.51	2519.00
366.72	2265.05
366.93	2373.60
367.14	2521.05
367.35	2654.17
367.56	2461.66
367.77	2469.85
367.98	2490.33
368.18	2572.25
368.39	2457.56
368.60	2291.68
368.81	2572.25
369.02	2547.67
369.23	2334.68
369.44	2308.06
369.65	2412.51
369.86	2453.47
370.07	2547.67
370.28	2320.35
370.49	2467.80
370.70	2586.58
370.91	2375.64
371.12	2301.92
371.33	2578.39
371.54	2404.32
371.75	2600.92
371.96	2209.76
372.17	2521.05
372.38	2377.69
372.59	2514.91
372.80	2383.84
373.01	2416.60
373.22	2461.66
373.43	2435.03
373.64	2287.58
373.85	2656.22
374.06	2719.70
374.26	2559.96
374.47	2543.58
374.68	2641.88
374.89	2486.23
375.10	2355.16
375.31	2504.67
375.52	2473.95
375.73	2453.47
375.94	2367.45
376.15	2510.81
376.36	2404.32
376.57	2346.97
376.78	2428.89
376.99	2432.99
377.20	2619.35
377.40	2402.27
377.61	2658.26
377.82	2332.64
378.03	2691.03
378.24	2559.96
378.45	2383.84
378.66	2478.04
378.87	2277.34
379.08	2353.12
379.29	2424.80
379.50	2527.19
379.71	2463.71
379.91	2609.11
380.12	2441.18
380.33	2457.56
380.54	2478.04
380.75	2490.33
380.96	2361.31
381.17	2510.81
381.38	2523.10
381.59	2498.52
381.80	2473.95
382.00	2611.16
382.21	2521.05
382.42	2723.80
382.63	2727.89
382.84	2543.58
383.05	2506.71
383.26	2656.22
383.47	2496.47
383.68	2525.15
383.88	2566.10
384.09	2539.48
384.30	2615.26
384.51	2455.51
384.72	2430.94
384.93	2324.44
385.14	2537.43
385.35	2539.48
385.55	2342.88
385.76	2549.72
385.97	2441.18
386.18	2322.40
386.39	2369.50
386.60	2412.51
386.81	2414.56
387.02	2342.88
387.22	2383.84
387.43	2555.86
387.64	2463.71
387.85	2695.13
388.06	2553.82
388.27	3993.54
388.48	8286.08
388.68	12076.87
388.89	14356.26
389.10	15646.48
389.31	14667.55
389.52	11753.29
389.73	10010.47
389.93	9115.51
390.14	8306.56
390.35	7364.50
390.56	6629.27
390.77	5402.54
390.98	4161.47
391.18	3416.01
391.39	2949.08
391.60	2576.34
391.81	2652.12
392.02	2392.03
392.23	2842.58
392.43	2512.86
392.64	2545.63
392.85	2453.47
393.06	2668.50
393.27	2428.89
393.47	2424.80
393.68	2435.03
393.89	2445.27
394.10	2623.45
394.31	2394.08
394.52	2412.51
394.72	2389.98
394.93	2627.54
395.14	2342.88
395.35	2492.38
395.56	2432.99
395.76	2508.76
395.97	2478.04
396.18	2529.24
396.39	2619.35
396.60	2992.08
396.80	2744.28
397.01	2584.54
397.22	2535.39
397.43	2764.76
397.64	2428.89
397.84	2494.43
398.05	2764.76
398.26	2457.56
398.47	2545.63
398.67	2645.98
398.88	2527.19
399.09	2529.24
399.30	2406.36
399.51	2568.15
399.71	2396.12
399.92	2557.91
400.13	2502.62
400.34	2494.43
400.54	2435.03
400.75	2662.36
400.96	2492.38
401.17	2656.22
401.37	2564.06
401.58	2447.32
401.79	2432.99
402.00	2619.35
402.21	2916.31
402.41	2752.47
402.62	2791.38
402.83	2916.31
403.04	3004.37
403.24	3061.71
403.45	2588.63
403.66	2736.09
403.87	2688.98
404.07	2801.62
404.28	2695.13
404.49	2711.51
404.70	2592.73
404.90	2592.73
405.11	2414.56
405.32	2510.81
405.52	2400.22
405.73	2441.18
405.94	2365.40
406.15	2449.37
406.35	2629.59
406.56	2609.11
406.77	2506.71
406.98	2463.71
407.18	2342.88
407.39	2686.94
407.60	2373.60
407.80	2463.71
408.01	2332.64
408.22	2578.39
408.43	2432.99
408.63	2463.71
408.84	2625.50
409.05	2611.16
409.25	2289.63
409.46	2375.64
409.67	2383.84
409.88	2428.89
410.08	2490.33
410.29	2363.36
410.50	2547.67
410.70	2510.81
410.91	2379.74
411.12	2510.81
411.32	2480.09
411.53	2432.99
411.74	2605.02
411.95	2576.34
412.15	2588.63
412.36	2688.98
412.57	2602.97
412.77	2617.30
412.98	2521.05
413.19	2531.29
413.39	2508.76
413.60	2537.43
413.81	2654.17
414.01	2441.18
414.22	2490.33
414.43	2619.35
414.63	2459.61
414.84	2668.50
415.05	2482.14
415.25	2285.53
415.46	2562.01
415.67	2500.57
415.87	2551.77
416.08	2467.80
416.29	2420.70
416.49	2543.58
416.70	2435.03
416.91	2426.84
417.11	2488.28
417.32	2609.11
417.53	2564.06
417.73	2512.86
417.94	2557.91
418.15	2502.62
418.35	2435.03
418.56	2547.67
418.77	2756.57
418.97	2504.67
419.18	2504.67
419.38	2201.57
419.59	2461.66
419.80	2758.61
420.00	2338.78
420.21	2455.51
420.42	2609.11
420.62	2551.77
420.83	2353.12
421.04	2412.51
421.24	2463.71
421.45	2547.67
421.65	2449.37
421.86	2326.49
422.07	2619.35
422.27	2570.20
422.48	2441.18
422.69	2453.47
422.89	2478.04
423.10	2465.75
423.30	2334.68
423.51	2576.34
423.72	2572.25
423.92	2527.19
424.13	2324.44
424.33	2432.99
424.54	2650.07
424.75	2519.00
424.95	2652.12
425.16	2461.66
425.36	2543.58
425.57	2621.40
425.78	2490.33
425.98	2555.86
426.19	2486.23
426.39	2340.83
426.60	2455.51
426.81	2568.15
427.01	2459.61
427.22	2400.22
427.42	2236.38
427.63	2367.45
427.83	2619.35
428.04	2635.74
428.25	2531.29
428.45	2598.87
428.66	2664.41
428.86	2439.13
429.07	2385.88
429.28	2492.38
429.48	2469.85
429.69	2424.80
429.89	2525.15
430.10	2299.87
430.30	2629.59
430.51	2582.49
430.71	2408.41
430.92	2418.65
431.13	2432.99
431.33	2559.96
431.54	2598.87
431.74	2582.49
431.95	2691.03
432.15	2375.64
432.36	2449.37
432.56	2478.04
432.77	2721.75
432.98	2727.89
433.18	2555.86
433.39	2420.70
433.59	2523.10
433.80	2815.96
434.00	2715.61
434.21	2424.80
434.41	2392.03
434.62	2787.29
434.82	2400.22
435.03	2349.02
435.23	2545.63
435.44	2281.44
435.64	2514.91
435.85	2465.75
436.06	2600.92
436.26	2645.98
436.47	2449.37
436.67	2428.89
436.88	2449.37
437.08	2562.01
437.29	2572.25
437.49	2498.52
437.70	2637.78
437.90	2449.37
438.11	2641.88
438.31	2545.63
438.52	2686.94
438.72	2662.36
438.93	2858.96
439.13	2572.25
439.34	2662.36
439.54	2555.86
439.75	2514.91
439.95	2592.73
440.16	2400.22
440.36	2459.61
440.57	2519.00
440.77	2492.38
440.98	2570.20
441.18	2629.59
441.39	2351.07
441.59	2308.06
441.80	2752.47
442.00	2512.86
442.21	2596.82
442.41	2310.11
442.62	2605.02
442.82	2508.76
443.02	2480.09
443.23	2480.09
443.43	2441.18
443.64	2658.26
443.84	2424.80
444.05	2588.63
444.25	2525.15
444.46	2475.99
444.66	2478.04
444.87	2682.84
445.07	2377.69
445.28	2504.67
445.48	2519.00
445.69	2496.47
445.89	2803.67
446.09	2498.52
446.30	2881.49
446.50	2967.51
446.71	4601.79
446.91	5771.18
447.12	6707.10
447.32	7077.78
447.53	6606.75
447.73	5363.63
447.93	4732.86
448.14	4558.78
448.34	4470.72
448.55	3794.89
448.75	3844.04
448.96	3610.57
449.16	3223.50
449.36	3045.33
449.57	2813.91
449.77	2529.24
449.98	2473.95
450.18	2596.82
450.39	2527.19
450.59	2576.34
450.79	2588.63
451.00	2408.41
451.20	2584.54
451.41	2402.27
451.61	2555.86
451.81	2443.23
452.02	2424.80
452.22	2402.27
452.43	2514.91
