SpectraSuite Data File
++++++++++++++++++++++++++++++++++++
Date: Thu May 05 14:42:21 CEST 2016
User: root
Dark Spectrum Present: No
Reference Spectrum Present: No
Number of Sampled Component Spectra: 1
Spectrometers: USB4C02835
Integration Time (usec): 100000 (USB4C02835)
Spectra Averaged: 1 (USB4C02835)
Boxcar Smoothing: 0 (USB4C02835)
Correct for Electrical Dark: No (USB4C02835)
Strobe/Lamp Enabled: No (USB4C02835)
Correct for Detector Non-linearity: No (USB4C02835)
Correct for Stray Light: No (USB4C02835)
Number of Pixels in Processed Spectrum: 3648
>>>>>Begin Processed Spectral Data<<<<<
177.47	1949.67
177.69	1949.67
177.91	1949.67
178.13	1974.24
178.36	1923.04
178.58	2383.84
178.80	2469.85
179.02	2234.33
179.24	2332.64
179.46	2342.88
179.68	2400.22
179.90	2465.75
180.13	2475.99
180.35	2267.10
180.57	2324.44
180.79	2598.87
181.01	2428.89
181.23	2455.51
181.45	2492.38
181.67	2490.33
181.90	2576.34
182.12	2334.68
182.34	2242.53
182.56	2629.59
182.78	2521.05
183.00	2318.30
183.22	2375.64
183.44	2267.10
183.66	2815.96
183.89	2471.90
184.11	2387.93
184.33	2441.18
184.55	2588.63
184.77	2375.64
184.99	2357.21
185.21	2332.64
185.43	2781.14
185.65	2365.40
185.87	2289.63
186.10	2731.99
186.32	2842.58
186.54	2422.75
186.76	2408.41
186.98	2611.16
187.20	2443.23
187.42	2398.17
187.64	2326.49
187.86	2492.38
188.08	2594.78
188.30	2367.45
188.52	2379.74
188.75	2672.60
188.97	2582.49
189.19	2318.30
189.41	2275.29
189.63	2572.25
189.85	2387.93
190.07	2316.25
190.29	2258.91
190.51	2535.39
190.73	2351.07
190.95	2523.10
191.17	2408.41
191.39	2342.88
191.61	2463.71
191.84	2310.11
192.06	2400.22
192.28	2297.82
192.50	2916.31
192.72	2490.33
192.94	2342.88
193.16	2580.44
193.38	2537.43
193.60	2301.92
193.82	2422.75
194.04	2602.97
194.26	2609.11
194.48	2334.68
194.70	2361.31
194.92	2420.70
195.14	2512.86
195.36	2326.49
195.58	2371.55
195.80	2490.33
196.02	2482.14
196.24	2215.90
196.46	2482.14
196.69	2519.00
196.91	2799.57
197.13	2283.49
197.35	2301.92
197.57	2668.50
197.79	2545.63
198.01	2385.88
198.23	2375.64
198.45	2547.67
198.67	2297.82
198.89	2322.40
199.11	2361.31
199.33	2394.08
199.55	2191.33
199.77	2318.30
199.99	2471.90
200.21	2394.08
200.43	2510.81
200.65	2334.68
200.87	2228.19
201.09	2564.06
201.31	2465.75
201.53	2408.41
201.75	2457.56
201.97	2490.33
202.19	2500.57
202.41	2404.32
202.63	2514.91
202.85	2512.86
203.07	2514.91
203.29	2361.31
203.51	2318.30
203.73	2310.11
203.95	2760.66
204.17	2322.40
204.39	2422.75
204.61	2383.84
204.83	2445.27
205.05	2451.42
205.27	2410.46
205.49	2744.28
205.71	2445.27
205.93	2273.25
206.15	2310.11
206.37	2500.57
206.59	2494.43
206.81	2301.92
207.03	2326.49
207.25	2322.40
207.47	2590.68
207.69	2344.92
207.91	2471.90
208.13	2699.22
208.34	2365.40
208.56	2228.19
208.78	2443.23
209.00	2441.18
209.22	2416.60
209.44	2344.92
209.66	2310.11
209.88	2482.14
210.10	2494.43
210.32	2320.35
210.54	2371.55
210.76	2367.45
210.98	2562.01
211.20	2179.04
211.42	2387.93
211.64	2711.51
211.86	2523.10
212.08	2416.60
212.30	2371.55
212.52	2457.56
212.74	2586.58
212.96	2455.51
213.17	2416.60
213.39	2568.15
213.61	2678.74
213.83	2383.84
214.05	2349.02
214.27	2637.78
214.49	2267.10
214.71	2279.39
214.93	2482.14
215.15	2514.91
215.37	2576.34
215.59	2252.77
215.81	2383.84
216.03	2705.37
216.24	2543.58
216.46	2394.08
216.68	2428.89
216.90	2564.06
217.12	2645.98
217.34	2238.43
217.56	2408.41
217.78	2666.46
218.00	2525.15
218.22	2416.60
218.44	2412.51
218.66	2529.24
218.87	2664.41
219.09	2318.30
219.31	2351.07
219.53	2613.21
219.75	2408.41
219.97	2375.64
220.19	2392.03
220.41	2422.75
220.63	2701.27
220.85	2422.75
221.06	2330.59
221.28	2666.46
221.50	2523.10
221.72	2344.92
221.94	2291.68
222.16	2502.62
222.38	2650.07
222.60	2318.30
222.82	2336.73
223.03	2588.63
223.25	2342.88
223.47	2248.67
223.69	2539.48
223.91	2449.37
224.13	2564.06
224.35	2324.44
224.57	2482.14
224.78	2562.01
225.00	2381.79
225.22	2400.22
225.44	2359.26
225.66	2580.44
225.88	2428.89
226.10	2404.32
226.32	2353.12
226.53	2668.50
226.75	2369.50
226.97	2416.60
227.19	2373.60
227.41	2416.60
227.63	2414.56
227.85	2250.72
228.06	2400.22
228.28	2564.06
228.50	2594.78
228.72	2293.72
228.94	2250.72
229.16	2244.57
229.37	2326.49
229.59	2322.40
229.81	2535.39
230.03	2392.03
230.25	2355.16
230.47	2244.57
230.69	2246.62
230.90	2684.89
231.12	2342.88
231.34	2469.85
231.56	2496.47
231.78	2379.74
232.00	2465.75
232.21	2281.44
232.43	2365.40
232.65	2199.52
232.87	2568.15
233.09	2275.29
233.30	2351.07
233.52	2615.26
233.74	2439.13
233.96	2326.49
234.18	2465.75
234.40	2496.47
234.61	2719.70
234.83	2285.53
235.05	2289.63
235.27	2793.43
235.49	2588.63
235.70	2260.96
235.92	2531.29
236.14	2537.43
236.36	2768.85
236.58	2252.77
236.79	2449.37
237.01	2484.19
237.23	2471.90
237.45	2559.96
237.67	2385.88
237.88	2543.58
238.10	2742.23
238.32	2254.81
238.54	2291.68
238.76	2459.61
238.97	2383.84
239.19	2277.34
239.41	2414.56
239.63	2570.20
239.85	2342.88
240.06	2432.99
240.28	2385.88
240.50	2596.82
240.72	2531.29
240.93	2256.86
241.15	2447.32
241.37	2455.51
241.59	2674.65
241.81	2447.32
242.02	2357.21
242.24	2531.29
242.46	2473.95
242.68	2244.57
242.89	2293.72
243.11	2654.17
243.33	2432.99
243.55	2275.29
243.76	2334.68
243.98	2351.07
244.20	2482.14
244.42	2381.79
244.64	2328.54
244.85	2342.88
245.07	2383.84
245.29	2424.80
245.51	2351.07
245.72	2478.04
245.94	2574.30
246.16	2338.78
246.38	2373.60
246.59	2383.84
246.81	2340.83
247.03	2285.53
247.24	2250.72
247.46	2383.84
247.68	2486.23
247.90	2308.06
248.11	2334.68
248.33	2594.78
248.55	2447.32
248.77	2355.16
248.98	2410.46
249.20	2709.46
249.42	2572.25
249.64	2387.93
249.85	2283.49
250.07	2414.56
250.29	2602.97
250.50	2400.22
250.72	2197.47
250.94	2525.15
251.16	2707.41
251.37	2318.30
251.59	2504.67
251.81	2506.71
252.02	2572.25
252.24	2291.68
252.46	2492.38
252.68	2334.68
252.89	2465.75
253.11	2195.42
253.33	2506.71
253.54	2584.54
253.76	2291.68
253.98	2346.97
254.20	2342.88
254.41	2383.84
254.63	2529.24
254.85	2211.81
255.06	2342.88
255.28	2551.77
255.50	2392.03
255.71	2349.02
255.93	2209.76
256.15	2428.89
256.36	2557.91
256.58	2357.21
256.80	2314.20
257.02	2475.99
257.23	2451.42
257.45	2334.68
257.67	2494.43
257.88	2359.26
258.10	2541.53
258.32	2344.92
258.53	2432.99
258.75	2699.22
258.97	2465.75
259.18	2301.92
259.40	2299.87
259.62	2662.36
259.83	2645.98
260.05	2426.84
260.27	2891.73
260.48	2576.34
260.70	2328.54
260.92	2258.91
261.13	2359.26
261.35	2535.39
261.57	2463.71
261.78	2285.53
262.00	2314.20
262.22	2605.02
262.43	2285.53
262.65	2396.12
262.86	2353.12
263.08	2731.99
263.30	2531.29
263.51	2203.61
263.73	2383.84
263.95	2670.55
264.16	2416.60
264.38	2269.15
264.60	2301.92
264.81	2432.99
265.03	2637.78
265.25	2459.61
265.46	2373.60
265.68	2672.60
265.89	2533.34
266.11	2154.46
266.33	2381.79
266.54	2486.23
266.76	2559.96
266.98	2457.56
267.19	2480.09
267.41	2547.67
267.62	2457.56
267.84	2211.81
268.06	2432.99
268.27	2510.81
268.49	2555.86
268.70	2396.12
268.92	2406.36
269.14	2306.01
269.35	2318.30
269.57	2330.59
269.79	2420.70
270.00	2396.12
270.22	2758.61
270.43	2334.68
270.65	2203.61
270.87	2570.20
271.08	2559.96
271.30	2441.18
271.51	2346.97
271.73	2576.34
271.95	2627.54
272.16	2357.21
272.38	2367.45
272.59	2435.03
272.81	2500.57
273.02	2398.17
273.24	2318.30
273.46	2621.40
273.67	2377.69
273.89	2310.11
274.10	2346.97
274.32	2670.55
274.54	2543.58
274.75	2455.51
274.97	2432.99
275.18	2605.02
275.40	2566.10
275.61	2500.57
275.83	2410.46
276.05	2357.21
276.26	2480.09
276.48	2465.75
276.69	2398.17
276.91	2447.32
277.12	2650.07
277.34	2496.47
277.55	2598.87
277.77	2490.33
277.99	2484.19
278.20	2301.92
278.42	2299.87
278.63	2351.07
278.85	2355.16
279.06	2267.10
279.28	2504.67
279.49	2607.06
279.71	2611.16
279.93	2502.62
280.14	2424.80
280.36	2404.32
280.57	2598.87
280.79	2406.36
281.00	2357.21
281.22	2404.32
281.43	2668.50
281.65	2162.66
281.86	2383.84
282.08	2539.48
282.29	2725.85
282.51	2273.25
282.73	2342.88
282.94	2334.68
283.16	2572.25
283.37	2498.52
283.59	2453.47
283.80	2482.14
284.02	2523.10
284.23	2471.90
284.45	2412.51
284.66	2404.32
284.88	2406.36
285.09	2379.74
285.31	2521.05
285.52	2553.82
285.74	2244.57
285.95	2539.48
286.17	2465.75
286.38	2621.40
286.60	2453.47
286.81	2334.68
287.03	2398.17
287.24	2516.95
287.46	2559.96
287.67	2490.33
287.89	2594.78
288.10	2471.90
288.32	2494.43
288.53	2578.39
288.75	2428.89
288.96	2605.02
289.18	2396.12
289.39	2371.55
289.61	2455.51
289.82	2715.61
290.04	2678.74
290.25	2318.30
290.47	2480.09
290.68	2465.75
290.90	2672.60
291.11	2306.01
291.33	2543.58
291.54	2306.01
291.76	2346.97
291.97	2455.51
292.18	2484.19
292.40	2484.19
292.61	2416.60
292.83	2684.89
293.04	2555.86
293.26	2576.34
293.47	2447.32
293.69	2244.57
293.90	2408.41
294.12	2598.87
294.33	2486.23
294.55	2490.33
294.76	2539.48
294.97	2670.55
295.19	2770.90
295.40	2346.97
295.62	2498.52
295.83	2586.58
296.05	2426.84
296.26	2549.72
296.48	2428.89
296.69	2510.81
296.90	2494.43
297.12	2473.95
297.33	2506.71
297.55	2523.10
297.76	2594.78
297.98	2521.05
298.19	2469.85
298.41	2469.85
298.62	2342.88
298.83	2578.39
299.05	2402.27
299.26	2478.04
299.48	2424.80
299.69	2519.00
299.90	2361.31
300.12	2396.12
300.33	2453.47
300.55	2482.14
300.76	2482.14
300.98	2351.07
301.19	2543.58
301.40	2367.45
301.62	2369.50
301.83	2473.95
302.05	2494.43
302.26	2412.51
302.47	2408.41
302.69	2308.06
302.90	2500.57
303.12	2224.09
303.33	2523.10
303.54	2695.13
303.76	2383.84
303.97	2424.80
304.19	2521.05
304.40	2369.50
304.61	2545.63
304.83	2559.96
305.04	2498.52
305.26	2586.58
305.47	2512.86
305.68	2351.07
305.90	2289.63
306.11	2625.50
306.33	2510.81
306.54	2359.26
306.75	2398.17
306.97	2260.96
307.18	2396.12
307.39	2387.93
307.61	2523.10
307.82	2523.10
308.04	2586.58
308.25	2371.55
308.46	2490.33
308.68	2494.43
308.89	2488.28
309.10	2551.77
309.32	2529.24
309.53	2490.33
309.74	2531.29
309.96	2363.36
310.17	2457.56
310.39	2416.60
310.60	2633.69
310.81	2441.18
311.03	2359.26
311.24	2600.92
311.45	2498.52
311.67	2676.70
311.88	2596.82
312.09	2445.27
312.31	2340.83
312.52	2387.93
312.73	2414.56
312.95	2318.30
313.16	2377.69
313.37	2596.82
313.59	2500.57
313.80	2615.26
314.01	2652.12
314.23	2389.98
314.44	2320.35
314.65	2285.53
314.87	2332.64
315.08	2428.89
315.29	2385.88
315.51	2371.55
315.72	2297.82
315.93	2541.53
316.15	2506.71
316.36	2437.08
316.57	2555.86
316.79	2451.42
317.00	2349.02
317.21	2537.43
317.43	2412.51
317.64	2430.94
317.85	2402.27
318.07	2422.75
318.28	2514.91
318.49	2570.20
318.70	2744.28
318.92	2588.63
319.13	2576.34
319.34	2699.22
319.56	2475.99
319.77	2662.36
319.98	2637.78
320.20	2666.46
320.41	2592.73
320.62	2572.25
320.83	2336.73
321.05	2609.11
321.26	2488.28
321.47	2457.56
321.69	2670.55
321.90	2318.30
322.11	2367.45
322.32	2490.33
322.54	2678.74
322.75	2383.84
322.96	2809.81
323.18	2314.20
323.39	2306.01
323.60	2326.49
323.81	2545.63
324.03	2435.03
324.24	2473.95
324.45	2551.77
324.66	2375.64
324.88	2660.31
325.09	2754.52
325.30	2426.84
325.52	2363.36
325.73	2529.24
325.94	2326.49
326.15	2316.25
326.37	2369.50
326.58	2619.35
326.79	2707.41
327.00	2324.44
327.22	2406.36
327.43	2385.88
327.64	2334.68
327.85	2529.24
328.07	2457.56
328.28	2742.23
328.49	2379.74
328.70	2435.03
328.92	2396.12
329.13	2422.75
329.34	2547.67
329.55	2662.36
329.76	2543.58
329.98	2523.10
330.19	2588.63
330.40	2531.29
330.61	2465.75
330.83	2564.06
331.04	2441.18
331.25	2451.42
331.46	2439.13
331.68	2236.38
331.89	2609.11
332.10	2367.45
332.31	2314.20
332.52	2432.99
332.74	2629.59
332.95	2297.82
333.16	2420.70
333.37	2555.86
333.58	2449.37
333.80	2420.70
334.01	2281.44
334.22	2443.23
334.43	2385.88
334.64	2318.30
334.86	2228.19
335.07	2392.03
335.28	2691.03
335.49	2336.73
335.70	2430.94
335.92	2674.65
336.13	2818.00
336.34	2547.67
336.55	2404.32
336.76	2488.28
336.98	2232.29
337.19	2453.47
337.40	2529.24
337.61	2824.15
337.82	2369.50
338.04	2559.96
338.25	2281.44
338.46	2455.51
338.67	2486.23
338.88	2394.08
339.09	2265.05
339.31	2404.32
339.52	2361.31
339.73	2375.64
339.94	2373.60
340.15	2592.73
340.36	2408.41
340.58	2484.19
340.79	2340.83
341.00	2594.78
341.21	2281.44
341.42	2703.32
341.63	2398.17
341.85	2594.78
342.06	2498.52
342.27	2398.17
342.48	2588.63
342.69	2312.16
342.90	2506.71
343.12	2537.43
343.33	2322.40
343.54	2572.25
343.75	2621.40
343.96	2408.41
344.17	2363.36
344.38	2502.62
344.60	2389.98
344.81	2349.02
345.02	2508.76
345.23	2594.78
345.44	2766.81
345.65	2502.62
345.86	2392.03
346.07	2543.58
346.29	2432.99
346.50	2510.81
346.71	2543.58
346.92	2635.74
347.13	2815.96
347.34	2471.90
347.55	2328.54
347.76	2533.34
347.98	2312.16
348.19	2435.03
348.40	2590.68
348.61	2449.37
348.82	2660.31
349.03	2555.86
349.24	2334.68
349.45	2707.41
349.66	2215.90
349.88	2521.05
350.09	2389.98
350.30	2611.16
350.51	2686.94
350.72	2475.99
350.93	2475.99
351.14	2449.37
351.35	2441.18
351.56	2457.56
351.77	2402.27
351.99	2525.15
352.20	2684.89
352.41	2551.77
352.62	2232.29
352.83	2408.41
353.04	2475.99
353.25	2408.41
353.46	2506.71
353.67	2670.55
353.88	2271.20
354.09	2422.75
354.30	2357.21
354.52	2570.20
354.73	2410.46
354.94	2392.03
355.15	2428.89
355.36	2787.29
355.57	2416.60
355.78	2428.89
355.99	2430.94
356.20	2463.71
356.41	2637.78
356.62	2506.71
356.83	2437.08
357.04	2711.51
357.25	2248.67
357.46	2371.55
357.68	2299.87
357.89	2430.94
358.10	2422.75
358.31	2414.56
358.52	2424.80
358.73	2379.74
358.94	2314.20
359.15	2394.08
359.36	2457.56
359.57	2508.76
359.78	2437.08
359.99	2457.56
360.20	2340.83
360.41	2498.52
360.62	2562.01
360.83	2414.56
361.04	2420.70
361.25	2482.14
361.46	2703.32
361.67	2510.81
361.88	2441.18
362.09	2613.21
362.30	2480.09
362.51	2369.50
362.72	2463.71
362.93	2580.44
363.14	2578.39
363.35	2488.28
363.56	2373.60
363.78	2523.10
363.99	2619.35
364.20	2389.98
364.41	2463.71
364.62	2785.24
364.83	2551.77
365.04	2369.50
365.25	2475.99
365.46	2711.51
365.67	2318.30
365.88	2475.99
366.09	2420.70
366.30	2416.60
366.51	2447.32
366.72	2338.78
366.93	2412.51
367.14	2482.14
367.35	2594.78
367.56	2375.64
367.77	2502.62
367.98	2521.05
368.18	2447.32
368.39	2516.95
368.60	2342.88
368.81	2547.67
369.02	2576.34
369.23	2441.18
369.44	2269.15
369.65	2389.98
369.86	2478.04
370.07	2533.34
370.28	2308.06
370.49	2553.82
370.70	2547.67
370.91	2363.36
371.12	2310.11
371.33	2613.21
371.54	2394.08
371.75	2553.82
371.96	2203.61
372.17	2535.39
372.38	2406.36
372.59	2482.14
372.80	2349.02
373.01	2453.47
373.22	2478.04
373.43	2412.51
373.64	2346.97
373.85	2670.55
374.06	2691.03
374.26	2521.05
374.47	2506.71
374.68	2789.33
374.89	2459.61
375.10	2400.22
375.31	2586.58
375.52	2490.33
375.73	2449.37
375.94	2314.20
376.15	2537.43
376.36	2432.99
376.57	2422.75
376.78	2373.60
376.99	2435.03
377.20	2605.02
377.40	2353.12
377.61	2613.21
377.82	2303.96
378.03	2678.74
378.24	2516.95
378.45	2424.80
378.66	2469.85
378.87	2275.29
379.08	2260.96
379.29	2453.47
379.50	2580.44
379.71	2465.75
379.91	2492.38
380.12	2488.28
380.33	2351.07
380.54	2465.75
380.75	2471.90
380.96	2387.93
381.17	2559.96
381.38	2510.81
381.59	2496.47
381.80	2412.51
382.00	2727.89
382.21	2547.67
382.42	2654.17
382.63	2703.32
382.84	2555.86
383.05	2592.73
383.26	2650.07
383.47	2506.71
383.68	2574.30
383.88	2584.54
384.09	2521.05
384.30	2637.78
384.51	2559.96
384.72	2408.41
384.93	2324.44
385.14	2469.85
385.35	2525.15
385.55	2332.64
385.76	2691.03
385.97	2357.21
386.18	2308.06
386.39	2387.93
386.60	2453.47
386.81	2420.70
387.02	2353.12
387.22	2414.56
387.43	2582.49
387.64	2451.42
387.85	2670.55
388.06	2801.62
388.27	4079.55
388.48	7966.60
388.68	11767.63
388.89	14491.43
389.10	15394.58
389.31	14675.74
389.52	11495.25
389.73	10000.23
389.93	9056.12
390.14	8279.94
390.35	7475.09
390.56	6428.57
390.77	5515.18
390.98	4163.52
391.18	3432.40
391.39	2889.68
391.60	2605.02
391.81	2598.87
392.02	2426.84
392.23	2768.85
392.43	2482.14
392.64	2633.69
392.85	2453.47
393.06	2674.65
393.27	2439.13
393.47	2373.60
393.68	2535.39
393.89	2488.28
394.10	2594.78
394.31	2445.27
394.52	2385.88
394.72	2418.65
394.93	2658.26
395.14	2338.78
395.35	2514.91
395.56	2506.71
395.76	2521.05
395.97	2449.37
396.18	2492.38
396.39	2592.73
396.60	2914.26
396.80	2750.42
397.01	2670.55
397.22	2684.89
397.43	2654.17
397.64	2420.70
397.84	2566.10
398.05	2682.84
398.26	2490.33
398.47	2549.72
398.67	2510.81
398.88	2492.38
399.09	2648.02
399.30	2371.55
399.51	2547.67
399.71	2416.60
399.92	2420.70
400.13	2478.04
400.34	2478.04
400.54	2537.43
400.75	2711.51
400.96	2486.23
401.17	2629.59
401.37	2564.06
401.58	2404.32
401.79	2510.81
402.00	2547.67
402.21	2885.59
402.41	2809.81
402.62	2731.99
402.83	2920.40
403.04	2891.73
403.24	3059.67
403.45	2572.25
403.66	2736.09
403.87	2703.32
404.07	2754.52
404.28	2729.94
404.49	2691.03
404.70	2545.63
404.90	2611.16
405.11	2439.13
405.32	2580.44
405.52	2392.03
405.73	2459.61
405.94	2373.60
406.15	2494.43
406.35	2637.78
406.56	2658.26
406.77	2478.04
406.98	2490.33
407.18	2381.79
407.39	2656.22
407.60	2510.81
407.80	2494.43
408.01	2492.38
408.22	2576.34
408.43	2371.55
408.63	2494.43
408.84	2627.54
409.05	2590.68
409.25	2367.45
409.46	2379.74
409.67	2439.13
409.88	2414.56
410.08	2539.48
410.29	2414.56
410.50	2514.91
410.70	2621.40
410.91	2416.60
411.12	2555.86
411.32	2562.01
411.53	2375.64
411.74	2482.14
411.95	2590.68
412.15	2445.27
412.36	2531.29
412.57	2594.78
412.77	2654.17
412.98	2531.29
413.19	2480.09
413.39	2494.43
413.60	2506.71
413.81	2666.46
414.01	2414.56
414.22	2480.09
414.43	2519.00
414.63	2553.82
414.84	2619.35
415.05	2381.79
415.25	2310.11
415.46	2547.67
415.67	2459.61
415.87	2564.06
416.08	2445.27
416.29	2426.84
416.49	2562.01
416.70	2420.70
416.91	2414.56
417.11	2445.27
417.32	2658.26
417.53	2543.58
417.73	2525.15
417.94	2547.67
418.15	2471.90
418.35	2424.80
418.56	2426.84
418.77	2809.81
418.97	2473.95
419.18	2473.95
419.38	2226.14
419.59	2506.71
419.80	2682.84
420.00	2400.22
420.21	2465.75
420.42	2580.44
420.62	2523.10
420.83	2369.50
421.04	2418.65
421.24	2488.28
421.45	2648.02
421.65	2441.18
421.86	2416.60
422.07	2629.59
422.27	2572.25
422.48	2463.71
422.69	2299.87
422.89	2471.90
423.10	2457.56
423.30	2260.96
423.51	2408.41
423.72	2521.05
423.92	2611.16
424.13	2316.25
424.33	2445.27
424.54	2619.35
424.75	2498.52
424.95	2684.89
425.16	2519.00
425.36	2414.56
425.57	2584.54
425.78	2521.05
425.98	2566.10
426.19	2469.85
426.39	2383.84
426.60	2562.01
426.81	2543.58
427.01	2461.66
427.22	2375.64
427.42	2224.09
427.63	2349.02
427.83	2607.06
428.04	2697.17
428.25	2545.63
428.45	2654.17
428.66	2555.86
428.86	2408.41
429.07	2441.18
429.28	2377.69
429.48	2465.75
429.69	2338.78
429.89	2523.10
430.10	2320.35
430.30	2635.74
430.51	2602.97
430.71	2379.74
430.92	2525.15
431.13	2355.16
431.33	2525.15
431.54	2502.62
431.74	2664.41
431.95	2738.13
432.15	2383.84
432.36	2516.95
432.56	2533.34
432.77	2711.51
432.98	2633.69
433.18	2480.09
433.39	2461.66
433.59	2412.51
433.80	2744.28
434.00	2691.03
434.21	2430.94
434.41	2432.99
434.62	2815.96
434.82	2389.98
435.03	2367.45
435.23	2482.14
435.44	2275.29
435.64	2525.15
435.85	2531.29
436.06	2586.58
436.26	2580.44
436.47	2404.32
436.67	2381.79
436.88	2432.99
437.08	2594.78
437.29	2555.86
437.49	2541.53
437.70	2645.98
437.90	2467.80
438.11	2658.26
438.31	2480.09
438.52	2750.42
438.72	2721.75
438.93	2688.98
439.13	2576.34
439.34	2643.93
439.54	2512.86
439.75	2535.39
439.95	2543.58
440.16	2412.51
440.36	2506.71
440.57	2408.41
440.77	2490.33
440.98	2371.55
441.18	2547.67
441.39	2506.71
441.59	2312.16
441.80	2731.99
442.00	2506.71
442.21	2557.91
442.41	2351.07
442.62	2633.69
442.82	2426.84
443.02	2490.33
443.23	2527.19
443.43	2428.89
443.64	2684.89
443.84	2385.88
444.05	2625.50
444.25	2482.14
444.46	2441.18
444.66	2430.94
444.87	2619.35
445.07	2359.26
445.28	2428.89
445.48	2564.06
445.69	2519.00
445.89	2795.48
446.09	2504.67
446.30	2738.13
446.50	2944.98
446.71	4579.26
446.91	5648.30
447.12	6524.83
447.32	6928.28
447.53	6520.73
447.73	5322.67
447.93	4757.43
448.14	4448.19
448.34	4239.30
448.55	3856.33
448.75	3735.50
448.96	3581.90
449.16	3168.21
449.36	3067.86
449.57	2725.85
449.77	2494.43
449.98	2457.56
450.18	2570.20
450.39	2551.77
450.59	2562.01
450.79	2488.28
451.00	2367.45
451.20	2557.91
451.41	2461.66
451.61	2498.52
451.81	2465.75
452.02	2486.23
452.22	2480.09
452.43	2469.85
