SpectraSuite Data File
++++++++++++++++++++++++++++++++++++
Date: Thu May 05 14:41:29 CEST 2016
User: root
Dark Spectrum Present: No
Reference Spectrum Present: No
Number of Sampled Component Spectra: 1
Spectrometers: USB4C02835
Integration Time (usec): 100000 (USB4C02835)
Spectra Averaged: 1 (USB4C02835)
Boxcar Smoothing: 0 (USB4C02835)
Correct for Electrical Dark: No (USB4C02835)
Strobe/Lamp Enabled: No (USB4C02835)
Correct for Detector Non-linearity: No (USB4C02835)
Correct for Stray Light: No (USB4C02835)
Number of Pixels in Processed Spectrum: 3648
>>>>>Begin Processed Spectral Data<<<<<
177.47	1949.67
177.69	1949.67
177.91	1949.67
178.13	1929.19
178.36	1918.95
178.58	2351.07
178.80	2516.95
179.02	2277.34
179.24	2396.12
179.46	2359.26
179.68	2308.06
179.90	2418.65
180.13	2412.51
180.35	2269.15
180.57	2336.73
180.79	2527.19
181.01	2488.28
181.23	2389.98
181.45	2463.71
181.67	2521.05
181.90	2572.25
182.12	2371.55
182.34	2211.81
182.56	2508.76
182.78	2514.91
183.00	2291.68
183.22	2422.75
183.44	2217.95
183.66	2840.53
183.89	2459.61
184.11	2334.68
184.33	2551.77
184.55	2607.06
184.77	2359.26
184.99	2324.44
185.21	2457.56
185.43	2777.05
185.65	2375.64
185.87	2336.73
186.10	2727.89
186.32	2805.72
186.54	2467.80
186.76	2430.94
186.98	2572.25
187.20	2473.95
187.42	2439.13
187.64	2332.64
187.86	2482.14
188.08	2605.02
188.30	2404.32
188.52	2381.79
188.75	2717.65
188.97	2633.69
189.19	2383.84
189.41	2346.97
189.63	2574.30
189.85	2453.47
190.07	2258.91
190.29	2258.91
190.51	2572.25
190.73	2367.45
190.95	2424.80
191.17	2375.64
191.39	2277.34
191.61	2416.60
191.84	2324.44
192.06	2435.03
192.28	2334.68
192.50	2844.63
192.72	2445.27
192.94	2420.70
193.16	2629.59
193.38	2525.15
193.60	2267.10
193.82	2441.18
194.04	2572.25
194.26	2500.57
194.48	2379.74
194.70	2318.30
194.92	2346.97
195.14	2580.44
195.36	2285.53
195.58	2383.84
195.80	2473.95
196.02	2478.04
196.24	2408.41
196.46	2416.60
196.69	2432.99
196.91	2764.76
197.13	2310.11
197.35	2396.12
197.57	2680.79
197.79	2541.53
198.01	2408.41
198.23	2308.06
198.45	2498.52
198.67	2312.16
198.89	2238.43
199.11	2506.71
199.33	2371.55
199.55	2193.37
199.77	2410.46
199.99	2408.41
200.21	2430.94
200.43	2492.38
200.65	2156.51
200.87	2224.09
201.09	2473.95
201.31	2461.66
201.53	2392.03
201.75	2404.32
201.97	2471.90
202.19	2467.80
202.41	2420.70
202.63	2531.29
202.85	2586.58
203.07	2600.92
203.29	2353.12
203.51	2330.59
203.73	2346.97
203.95	2779.09
204.17	2412.51
204.39	2492.38
204.61	2422.75
204.83	2471.90
205.05	2449.37
205.27	2449.37
205.49	2893.78
205.71	2539.48
205.93	2256.86
206.15	2363.36
206.37	2490.33
206.59	2445.27
206.81	2232.29
207.03	2263.01
207.25	2400.22
207.47	2535.39
207.69	2330.59
207.91	2568.15
208.13	2686.94
208.34	2455.51
208.56	2293.72
208.78	2379.74
209.00	2414.56
209.22	2437.08
209.44	2369.50
209.66	2279.39
209.88	2539.48
210.10	2424.80
210.32	2295.77
210.54	2514.91
210.76	2430.94
210.98	2564.06
211.20	2203.61
211.42	2496.47
211.64	2602.97
211.86	2547.67
212.08	2371.55
212.30	2363.36
212.52	2432.99
212.74	2609.11
212.96	2355.16
213.17	2322.40
213.39	2531.29
213.61	2670.55
213.83	2334.68
214.05	2375.64
214.27	2703.32
214.49	2404.32
214.71	2220.00
214.93	2432.99
215.15	2523.10
215.37	2523.10
215.59	2228.19
215.81	2443.23
216.03	2596.82
216.24	2379.74
216.46	2363.36
216.68	2381.79
216.90	2555.86
217.12	2596.82
217.34	2244.57
217.56	2441.18
217.78	2639.83
218.00	2553.82
218.22	2482.14
218.44	2461.66
218.66	2529.24
218.87	2725.85
219.09	2392.03
219.31	2381.79
219.53	2494.43
219.75	2408.41
219.97	2484.19
220.19	2412.51
220.41	2488.28
220.63	2682.84
220.85	2367.45
221.06	2432.99
221.28	2715.61
221.50	2596.82
221.72	2400.22
221.94	2295.77
222.16	2557.91
222.38	2519.00
222.60	2424.80
222.82	2445.27
223.03	2584.54
223.25	2312.16
223.47	2473.95
223.69	2584.54
223.91	2572.25
224.13	2562.01
224.35	2197.47
224.57	2535.39
224.78	2580.44
225.00	2383.84
225.22	2394.08
225.44	2375.64
225.66	2580.44
225.88	2463.71
226.10	2498.52
226.32	2396.12
226.53	2654.17
226.75	2416.60
226.97	2408.41
227.19	2359.26
227.41	2453.47
227.63	2492.38
227.85	2136.03
228.06	2383.84
228.28	2473.95
228.50	2551.77
228.72	2244.57
228.94	2351.07
229.16	2250.72
229.37	2365.40
229.59	2236.38
229.81	2527.19
230.03	2478.04
230.25	2342.88
230.47	2244.57
230.69	2260.96
230.90	2553.82
231.12	2379.74
231.34	2396.12
231.56	2420.70
231.78	2400.22
232.00	2473.95
232.21	2432.99
232.43	2359.26
232.65	2187.23
232.87	2547.67
233.09	2299.87
233.30	2293.72
233.52	2531.29
233.74	2396.12
233.96	2449.37
234.18	2439.13
234.40	2469.85
234.61	2738.13
234.83	2215.90
235.05	2303.96
235.27	2803.67
235.49	2605.02
235.70	2236.38
235.92	2416.60
236.14	2629.59
236.36	2746.33
236.58	2258.91
236.79	2357.21
237.01	2463.71
237.23	2559.96
237.45	2453.47
237.67	2344.92
237.88	2525.15
238.10	2721.75
238.32	2297.82
238.54	2254.81
238.76	2469.85
238.97	2381.79
239.19	2279.39
239.41	2408.41
239.63	2629.59
239.85	2408.41
240.06	2424.80
240.28	2275.29
240.50	2627.54
240.72	2459.61
240.93	2349.02
241.15	2404.32
241.37	2445.27
241.59	2645.98
241.81	2381.79
242.02	2336.73
242.24	2543.58
242.46	2551.77
242.68	2215.90
242.89	2299.87
243.11	2533.34
243.33	2445.27
243.55	2332.64
243.76	2349.02
243.98	2412.51
244.20	2496.47
244.42	2308.06
244.64	2383.84
244.85	2349.02
245.07	2396.12
245.29	2480.09
245.51	2326.49
245.72	2502.62
245.94	2686.94
246.16	2342.88
246.38	2422.75
246.59	2375.64
246.81	2340.83
247.03	2367.45
247.24	2289.63
247.46	2381.79
247.68	2498.52
247.90	2301.92
248.11	2416.60
248.33	2586.58
248.55	2453.47
248.77	2381.79
248.98	2469.85
249.20	2717.65
249.42	2523.10
249.64	2455.51
249.85	2340.83
250.07	2375.64
250.29	2543.58
250.50	2432.99
250.72	2318.30
250.94	2490.33
251.16	2830.29
251.37	2371.55
251.59	2418.65
251.81	2514.91
252.02	2682.84
252.24	2322.40
252.46	2455.51
252.68	2408.41
252.89	2377.69
253.11	2240.48
253.33	2451.42
253.54	2666.46
253.76	2326.49
253.98	2338.78
254.20	2322.40
254.41	2324.44
254.63	2439.13
254.85	2170.85
255.06	2367.45
255.28	2531.29
255.50	2473.95
255.71	2228.19
255.93	2291.68
256.15	2455.51
256.36	2547.67
256.58	2297.82
256.80	2400.22
257.02	2480.09
257.23	2523.10
257.45	2318.30
257.67	2406.36
257.88	2416.60
258.10	2600.92
258.32	2326.49
258.53	2396.12
258.75	2719.70
258.97	2342.88
259.18	2322.40
259.40	2357.21
259.62	2627.54
259.83	2650.07
260.05	2371.55
260.27	2918.36
260.48	2578.39
260.70	2349.02
260.92	2392.03
261.13	2379.74
261.35	2494.43
261.57	2580.44
261.78	2256.86
262.00	2275.29
262.22	2580.44
262.43	2400.22
262.65	2416.60
262.86	2451.42
263.08	2695.13
263.30	2527.19
263.51	2170.85
263.73	2295.77
263.95	2629.59
264.16	2367.45
264.38	2273.25
264.60	2324.44
264.81	2514.91
265.03	2656.22
265.25	2568.15
265.46	2387.93
265.68	2625.50
265.89	2562.01
266.11	2260.96
266.33	2387.93
266.54	2602.97
266.76	2519.00
266.98	2361.31
267.19	2465.75
267.41	2627.54
267.62	2549.72
267.84	2256.86
268.06	2410.46
268.27	2471.90
268.49	2596.82
268.70	2361.31
268.92	2371.55
269.14	2365.40
269.35	2308.06
269.57	2373.60
269.79	2432.99
270.00	2412.51
270.22	2703.32
270.43	2291.68
270.65	2240.48
270.87	2570.20
271.08	2562.01
271.30	2414.56
271.51	2357.21
271.73	2514.91
271.95	2553.82
272.16	2281.44
272.38	2457.56
272.59	2400.22
272.81	2512.86
273.02	2383.84
273.24	2428.89
273.46	2576.34
273.67	2375.64
273.89	2301.92
274.10	2332.64
274.32	2625.50
274.54	2500.57
274.75	2449.37
274.97	2369.50
275.18	2523.10
275.40	2531.29
275.61	2416.60
275.83	2439.13
276.05	2379.74
276.26	2545.63
276.48	2394.08
276.69	2363.36
276.91	2480.09
277.12	2576.34
277.34	2596.82
277.55	2588.63
277.77	2498.52
277.99	2469.85
278.20	2310.11
278.42	2353.12
278.63	2408.41
278.85	2334.68
279.06	2383.84
279.28	2416.60
279.49	2512.86
279.71	2527.19
279.93	2443.23
280.14	2478.04
280.36	2449.37
280.57	2576.34
280.79	2469.85
281.00	2293.72
281.22	2361.31
281.43	2590.68
281.65	2228.19
281.86	2367.45
282.08	2525.15
282.29	2701.27
282.51	2271.20
282.73	2314.20
282.94	2303.96
283.16	2523.10
283.37	2555.86
283.59	2408.41
283.80	2504.67
284.02	2510.81
284.23	2490.33
284.45	2404.32
284.66	2381.79
284.88	2420.70
285.09	2375.64
285.31	2473.95
285.52	2562.01
285.74	2256.86
285.95	2539.48
286.17	2525.15
286.38	2543.58
286.60	2416.60
286.81	2301.92
287.03	2392.03
287.24	2531.29
287.46	2580.44
287.67	2451.42
287.89	2645.98
288.10	2402.27
288.32	2551.77
288.53	2566.10
288.75	2449.37
288.96	2621.40
289.18	2418.65
289.39	2424.80
289.61	2551.77
289.82	2809.81
290.04	2775.00
290.25	2346.97
290.47	2389.98
290.68	2455.51
290.90	2652.12
291.11	2279.39
291.33	2555.86
291.54	2465.75
291.76	2330.59
291.97	2502.62
292.18	2443.23
292.40	2414.56
292.61	2416.60
292.83	2600.92
293.04	2512.86
293.26	2519.00
293.47	2428.89
293.69	2324.44
293.90	2340.83
294.12	2637.78
294.33	2480.09
294.55	2373.60
294.76	2588.63
294.97	2617.30
295.19	2811.86
295.40	2326.49
295.62	2412.51
295.83	2695.13
296.05	2383.84
296.26	2568.15
296.48	2365.40
296.69	2377.69
296.90	2531.29
297.12	2473.95
297.33	2633.69
297.55	2482.14
297.76	2555.86
297.98	2547.67
298.19	2506.71
298.41	2461.66
298.62	2402.27
298.83	2570.20
299.05	2394.08
299.26	2500.57
299.48	2359.26
299.69	2484.19
299.90	2469.85
300.12	2439.13
300.33	2539.48
300.55	2342.88
300.76	2457.56
300.98	2359.26
301.19	2516.95
301.40	2408.41
301.62	2424.80
301.83	2553.82
302.05	2547.67
302.26	2387.93
302.47	2383.84
302.69	2420.70
302.90	2457.56
303.12	2269.15
303.33	2478.04
303.54	2711.51
303.76	2435.03
303.97	2494.43
304.19	2582.49
304.40	2371.55
304.61	2506.71
304.83	2568.15
305.04	2545.63
305.26	2467.80
305.47	2453.47
305.68	2445.27
305.90	2291.68
306.11	2639.83
306.33	2498.52
306.54	2365.40
306.75	2326.49
306.97	2285.53
307.18	2389.98
307.39	2439.13
307.61	2490.33
307.82	2465.75
308.04	2602.97
308.25	2400.22
308.46	2447.32
308.68	2455.51
308.89	2480.09
309.10	2562.01
309.32	2486.23
309.53	2437.08
309.74	2564.06
309.96	2426.84
310.17	2527.19
310.39	2346.97
310.60	2551.77
310.81	2441.18
311.03	2359.26
311.24	2572.25
311.45	2449.37
311.67	2621.40
311.88	2453.47
312.09	2426.84
312.31	2453.47
312.52	2408.41
312.73	2375.64
312.95	2303.96
313.16	2392.03
313.37	2598.87
313.59	2475.99
313.80	2613.21
314.01	2691.03
314.23	2392.03
314.44	2326.49
314.65	2287.58
314.87	2394.08
315.08	2400.22
315.29	2377.69
315.51	2408.41
315.72	2365.40
315.93	2586.58
316.15	2441.18
316.36	2387.93
316.57	2490.33
316.79	2488.28
317.00	2344.92
317.21	2557.91
317.43	2381.79
317.64	2475.99
317.85	2400.22
318.07	2355.16
318.28	2430.94
318.49	2635.74
318.70	2713.56
318.92	2658.26
319.13	2672.60
319.34	2629.59
319.56	2488.28
319.77	2564.06
319.98	2574.30
320.20	2627.54
320.41	2568.15
320.62	2580.44
320.83	2301.92
321.05	2650.07
321.26	2502.62
321.47	2523.10
321.69	2609.11
321.90	2316.25
322.11	2342.88
322.32	2473.95
322.54	2551.77
322.75	2428.89
322.96	2805.72
323.18	2336.73
323.39	2273.25
323.60	2351.07
323.81	2533.34
324.03	2383.84
324.24	2516.95
324.45	2478.04
324.66	2377.69
324.88	2645.98
325.09	2670.55
325.30	2400.22
325.52	2408.41
325.73	2570.20
325.94	2383.84
326.15	2318.30
326.37	2324.44
326.58	2547.67
326.79	2668.50
327.00	2365.40
327.22	2443.23
327.43	2482.14
327.64	2269.15
327.85	2441.18
328.07	2451.42
328.28	2746.33
328.49	2400.22
328.70	2422.75
328.92	2383.84
329.13	2400.22
329.34	2531.29
329.55	2670.55
329.76	2539.48
329.98	2557.91
330.19	2576.34
330.40	2504.67
330.61	2453.47
330.83	2643.93
331.04	2334.68
331.25	2484.19
331.46	2389.98
331.68	2424.80
331.89	2537.43
332.10	2459.61
332.31	2293.72
332.52	2521.05
332.74	2662.36
332.95	2342.88
333.16	2326.49
333.37	2537.43
333.58	2334.68
333.80	2412.51
334.01	2256.86
334.22	2490.33
334.43	2408.41
334.64	2367.45
334.86	2258.91
335.07	2404.32
335.28	2703.32
335.49	2295.77
335.70	2551.77
335.92	2605.02
336.13	2711.51
336.34	2482.14
336.55	2428.89
336.76	2484.19
336.98	2310.11
337.19	2392.03
337.40	2559.96
337.61	2807.77
337.82	2480.09
338.04	2521.05
338.25	2308.06
338.46	2457.56
338.67	2473.95
338.88	2400.22
339.09	2326.49
339.31	2441.18
339.52	2314.20
339.73	2371.55
339.94	2430.94
340.15	2541.53
340.36	2453.47
340.58	2437.08
340.79	2289.63
341.00	2564.06
341.21	2342.88
341.42	2586.58
341.63	2418.65
341.85	2553.82
342.06	2486.23
342.27	2359.26
342.48	2531.29
342.69	2361.31
342.90	2539.48
343.12	2562.01
343.33	2383.84
343.54	2654.17
343.75	2621.40
343.96	2539.48
344.17	2385.88
344.38	2435.03
344.60	2357.21
344.81	2375.64
345.02	2396.12
345.23	2572.25
345.44	2818.00
345.65	2527.19
345.86	2441.18
346.07	2635.74
346.29	2340.83
346.50	2553.82
346.71	2478.04
346.92	2572.25
347.13	2785.24
347.34	2392.03
347.55	2412.51
347.76	2488.28
347.98	2387.93
348.19	2465.75
348.40	2605.02
348.61	2334.68
348.82	2691.03
349.03	2514.91
349.24	2389.98
349.45	2686.94
349.66	2220.00
349.88	2437.08
350.09	2334.68
350.30	2641.88
350.51	2545.63
350.72	2551.77
350.93	2406.36
351.14	2439.13
351.35	2504.67
351.56	2416.60
351.77	2449.37
351.99	2605.02
352.20	2645.98
352.41	2465.75
352.62	2203.61
352.83	2500.57
353.04	2449.37
353.25	2432.99
353.46	2539.48
353.67	2678.74
353.88	2324.44
354.09	2457.56
354.30	2449.37
354.52	2570.20
354.73	2498.52
354.94	2389.98
355.15	2455.51
355.36	2785.24
355.57	2439.13
355.78	2453.47
355.99	2387.93
356.20	2439.13
356.41	2635.74
356.62	2467.80
356.83	2494.43
357.04	2637.78
357.25	2256.86
357.46	2439.13
357.68	2258.91
357.89	2359.26
358.10	2475.99
358.31	2455.51
358.52	2404.32
358.73	2371.55
358.94	2441.18
359.15	2392.03
359.36	2463.71
359.57	2498.52
359.78	2525.15
359.99	2531.29
360.20	2267.10
360.41	2502.62
360.62	2500.57
360.83	2488.28
361.04	2437.08
361.25	2494.43
361.46	2711.51
361.67	2533.34
361.88	2471.90
362.09	2525.15
362.30	2521.05
362.51	2420.70
362.72	2447.32
362.93	2564.06
363.14	2537.43
363.35	2516.95
363.56	2318.30
363.78	2625.50
363.99	2578.39
364.20	2394.08
364.41	2449.37
364.62	2760.66
364.83	2437.08
365.04	2449.37
365.25	2422.75
365.46	2736.09
365.67	2367.45
365.88	2455.51
366.09	2459.61
366.30	2514.91
366.51	2541.53
366.72	2256.86
366.93	2441.18
367.14	2389.98
367.35	2674.65
367.56	2465.75
367.77	2527.19
367.98	2428.89
368.18	2553.82
368.39	2543.58
368.60	2375.64
368.81	2553.82
369.02	2535.39
369.23	2422.75
369.44	2236.38
369.65	2359.26
369.86	2609.11
370.07	2539.48
370.28	2375.64
370.49	2490.33
370.70	2596.82
370.91	2326.49
371.12	2252.77
371.33	2736.09
371.54	2357.21
371.75	2478.04
371.96	2170.85
372.17	2504.67
372.38	2428.89
372.59	2469.85
372.80	2426.84
373.01	2453.47
373.22	2588.63
373.43	2467.80
373.64	2265.05
373.85	2598.87
374.06	2719.70
374.26	2598.87
374.47	2500.57
374.68	2781.14
374.89	2553.82
375.10	2367.45
375.31	2605.02
375.52	2400.22
375.73	2512.86
375.94	2365.40
376.15	2596.82
376.36	2342.88
376.57	2498.52
376.78	2379.74
376.99	2422.75
377.20	2580.44
377.40	2435.03
377.61	2629.59
377.82	2314.20
378.03	2691.03
378.24	2521.05
378.45	2375.64
378.66	2465.75
378.87	2273.25
379.08	2336.73
379.29	2410.46
379.50	2592.73
379.71	2389.98
379.91	2559.96
380.12	2381.79
380.33	2459.61
380.54	2537.43
380.75	2447.32
380.96	2451.42
381.17	2555.86
381.38	2457.56
381.59	2633.69
381.80	2578.39
382.00	2643.93
382.21	2467.80
382.42	2701.27
382.63	2693.08
382.84	2490.33
383.05	2641.88
383.26	2686.94
383.47	2490.33
383.68	2461.66
383.88	2523.10
384.09	2457.56
384.30	2688.98
384.51	2488.28
384.72	2514.91
384.93	2318.30
385.14	2441.18
385.35	2617.30
385.55	2357.21
385.76	2619.35
385.97	2416.60
386.18	2291.68
386.39	2387.93
386.60	2461.66
386.81	2392.03
387.02	2334.68
387.22	2363.36
387.43	2670.55
387.64	2494.43
387.85	2658.26
388.06	2678.74
388.27	4036.55
388.48	8183.68
388.68	12195.65
388.89	14417.70
389.10	15804.17
389.31	14800.67
389.52	11482.96
389.73	10078.05
389.93	9162.61
390.14	8335.23
390.35	7436.17
390.56	6758.30
390.77	5339.05
390.98	4227.01
391.18	3444.68
391.39	2885.59
391.60	2621.40
391.81	2670.55
392.02	2412.51
392.23	2795.48
392.43	2467.80
392.64	2611.16
392.85	2504.67
393.06	2648.02
393.27	2535.39
393.47	2355.16
393.68	2490.33
393.89	2432.99
394.10	2494.43
394.31	2387.93
394.52	2349.02
394.72	2381.79
394.93	2662.36
395.14	2355.16
395.35	2490.33
395.56	2432.99
395.76	2455.51
395.97	2469.85
396.18	2582.49
396.39	2633.69
396.60	3002.32
396.80	2783.19
397.01	2598.87
397.22	2641.88
397.43	2637.78
397.64	2412.51
397.84	2613.21
398.05	2766.81
398.26	2465.75
398.47	2605.02
398.67	2611.16
398.88	2541.53
399.09	2486.23
399.30	2379.74
399.51	2506.71
399.71	2375.64
399.92	2473.95
400.13	2482.14
400.34	2457.56
400.54	2545.63
400.75	2629.59
400.96	2353.12
401.17	2627.54
401.37	2570.20
401.58	2496.47
401.79	2512.86
402.00	2529.24
402.21	2957.27
402.41	2797.53
402.62	2834.39
402.83	2914.26
403.04	2932.69
403.24	3100.62
403.45	2572.25
403.66	2740.18
403.87	2826.20
404.07	2787.29
404.28	2801.62
404.49	2711.51
404.70	2615.26
404.90	2650.07
405.11	2439.13
405.32	2547.67
405.52	2432.99
405.73	2402.27
405.94	2389.98
406.15	2504.67
406.35	2572.25
406.56	2564.06
406.77	2506.71
406.98	2461.66
407.18	2416.60
407.39	2699.22
407.60	2488.28
407.80	2467.80
408.01	2467.80
408.22	2488.28
408.43	2289.63
408.63	2494.43
408.84	2619.35
409.05	2676.70
409.25	2396.12
409.46	2340.83
409.67	2469.85
409.88	2439.13
410.08	2465.75
410.29	2383.84
410.50	2627.54
410.70	2555.86
410.91	2365.40
411.12	2502.62
411.32	2529.24
411.53	2387.93
411.74	2506.71
411.95	2494.43
412.15	2555.86
412.36	2633.69
412.57	2588.63
412.77	2613.21
412.98	2564.06
413.19	2422.75
413.39	2543.58
413.60	2463.71
413.81	2613.21
414.01	2422.75
414.22	2457.56
414.43	2510.81
414.63	2529.24
414.84	2621.40
415.05	2512.86
415.25	2289.63
415.46	2506.71
415.67	2521.05
415.87	2457.56
416.08	2441.18
416.29	2457.56
416.49	2596.82
416.70	2400.22
416.91	2394.08
417.11	2529.24
417.32	2574.30
417.53	2562.01
417.73	2502.62
417.94	2457.56
418.15	2555.86
418.35	2453.47
418.56	2478.04
418.77	2809.81
418.97	2496.47
419.18	2422.75
419.38	2215.90
419.59	2426.84
419.80	2699.22
420.00	2361.31
420.21	2510.81
420.42	2654.17
420.62	2537.43
420.83	2432.99
421.04	2492.38
421.24	2486.23
421.45	2637.78
421.65	2527.19
421.86	2418.65
422.07	2596.82
422.27	2529.24
422.48	2351.07
422.69	2342.88
422.89	2445.27
423.10	2465.75
423.30	2387.93
423.51	2566.10
423.72	2545.63
423.92	2590.68
424.13	2275.29
424.33	2510.81
424.54	2566.10
424.75	2531.29
424.95	2660.31
425.16	2463.71
425.36	2408.41
425.57	2598.87
425.78	2568.15
425.98	2469.85
426.19	2506.71
426.39	2392.03
426.60	2504.67
426.81	2580.44
427.01	2488.28
427.22	2332.64
427.42	2316.25
427.63	2373.60
427.83	2576.34
428.04	2676.70
428.25	2592.73
428.45	2545.63
428.66	2555.86
428.86	2432.99
429.07	2400.22
429.28	2432.99
429.48	2469.85
429.69	2408.41
429.89	2572.25
430.10	2326.49
430.30	2537.43
430.51	2570.20
430.71	2385.88
430.92	2445.27
431.13	2424.80
431.33	2521.05
431.54	2533.34
431.74	2578.39
431.95	2828.24
432.15	2365.40
432.36	2400.22
432.56	2529.24
432.77	2775.00
432.98	2676.70
433.18	2514.91
433.39	2389.98
433.59	2473.95
433.80	2736.09
434.00	2658.26
434.21	2443.23
434.41	2342.88
434.62	2748.37
434.82	2310.11
435.03	2371.55
435.23	2500.57
435.44	2334.68
435.64	2432.99
435.85	2519.00
436.06	2623.45
436.26	2551.77
436.47	2422.75
436.67	2424.80
436.88	2519.00
437.08	2596.82
437.29	2578.39
437.49	2537.43
437.70	2686.94
437.90	2496.47
438.11	2639.83
438.31	2598.87
438.52	2742.23
438.72	2693.08
438.93	2758.61
439.13	2533.34
439.34	2750.42
439.54	2490.33
439.75	2607.06
439.95	2590.68
440.16	2359.26
440.36	2498.52
440.57	2498.52
440.77	2453.47
440.98	2484.19
441.18	2545.63
441.39	2365.40
441.59	2295.77
441.80	2746.33
442.00	2375.64
442.21	2553.82
442.41	2355.16
442.62	2627.54
442.82	2412.51
443.02	2430.94
443.23	2559.96
443.43	2412.51
443.64	2719.70
443.84	2351.07
444.05	2578.39
444.25	2523.10
444.46	2529.24
444.66	2414.56
444.87	2615.26
445.07	2355.16
445.28	2469.85
445.48	2621.40
445.69	2584.54
445.89	2791.38
446.09	2537.43
446.30	2682.84
446.50	3010.51
446.71	4440.00
446.91	5818.28
447.12	6682.52
447.32	6973.33
447.53	6641.56
447.73	5570.48
447.93	4718.52
448.14	4487.10
448.34	4394.94
448.55	3850.18
448.75	3768.26
448.96	3575.75
449.16	3305.42
449.36	3047.38
449.57	2715.61
449.77	2521.05
449.98	2463.71
450.18	2545.63
450.39	2516.95
450.59	2584.54
450.79	2467.80
451.00	2471.90
451.20	2543.58
451.41	2457.56
451.61	2652.12
451.81	2531.29
452.02	2432.99
452.22	2467.80
452.43	2381.79
