SpectraSuite Data File
++++++++++++++++++++++++++++++++++++
Date: Thu May 05 14:41:26 CEST 2016
User: root
Dark Spectrum Present: No
Reference Spectrum Present: No
Number of Sampled Component Spectra: 1
Spectrometers: USB4C02835
Integration Time (usec): 100000 (USB4C02835)
Spectra Averaged: 1 (USB4C02835)
Boxcar Smoothing: 0 (USB4C02835)
Correct for Electrical Dark: No (USB4C02835)
Strobe/Lamp Enabled: No (USB4C02835)
Correct for Detector Non-linearity: No (USB4C02835)
Correct for Stray Light: No (USB4C02835)
Number of Pixels in Processed Spectrum: 3648
>>>>>Begin Processed Spectral Data<<<<<
177.47	1863.65
177.69	1863.65
177.91	1863.65
178.13	1900.52
178.36	1857.51
178.58	2291.68
178.80	2547.67
179.02	2383.84
179.24	2396.12
179.46	2449.37
179.68	2426.84
179.90	2389.98
180.13	2500.57
180.35	2279.39
180.57	2394.08
180.79	2555.86
181.01	2500.57
181.23	2430.94
181.45	2512.86
181.67	2496.47
181.90	2555.86
182.12	2406.36
182.34	2220.00
182.56	2582.49
182.78	2510.81
183.00	2418.65
183.22	2363.36
183.44	2295.77
183.66	2744.28
183.89	2441.18
184.11	2308.06
184.33	2525.15
184.55	2658.26
184.77	2299.87
184.99	2361.31
185.21	2549.72
185.43	2797.53
185.65	2320.35
185.87	2322.40
186.10	2727.89
186.32	2707.41
186.54	2377.69
186.76	2400.22
186.98	2635.74
187.20	2504.67
187.42	2428.89
187.64	2375.64
187.86	2545.63
188.08	2541.53
188.30	2320.35
188.52	2414.56
188.75	2666.46
188.97	2537.43
189.19	2289.63
189.41	2306.01
189.63	2531.29
189.85	2367.45
190.07	2236.38
190.29	2240.48
190.51	2473.95
190.73	2250.72
190.95	2453.47
191.17	2363.36
191.39	2283.49
191.61	2480.09
191.84	2346.97
192.06	2482.14
192.28	2312.16
192.50	2961.36
192.72	2375.64
192.94	2330.59
193.16	2613.21
193.38	2519.00
193.60	2250.72
193.82	2420.70
194.04	2605.02
194.26	2539.48
194.48	2320.35
194.70	2359.26
194.92	2416.60
195.14	2570.20
195.36	2353.12
195.58	2355.16
195.80	2478.04
196.02	2408.41
196.24	2389.98
196.46	2410.46
196.69	2402.27
196.91	2877.40
197.13	2320.35
197.35	2342.88
197.57	2684.89
197.79	2531.29
198.01	2332.64
198.23	2389.98
198.45	2547.67
198.67	2379.74
198.89	2316.25
199.11	2371.55
199.33	2418.65
199.55	2326.49
199.77	2375.64
199.99	2361.31
200.21	2455.51
200.43	2461.66
200.65	2217.95
200.87	2226.14
201.09	2512.86
201.31	2469.85
201.53	2381.79
201.75	2400.22
201.97	2498.52
202.19	2531.29
202.41	2455.51
202.63	2410.46
202.85	2582.49
203.07	2539.48
203.29	2396.12
203.51	2279.39
203.73	2365.40
203.95	2777.05
204.17	2377.69
204.39	2439.13
204.61	2521.05
204.83	2426.84
205.05	2432.99
205.27	2404.32
205.49	2824.15
205.71	2506.71
205.93	2256.86
206.15	2279.39
206.37	2465.75
206.59	2516.95
206.81	2250.72
207.03	2269.15
207.25	2301.92
207.47	2617.30
207.69	2381.79
207.91	2523.10
208.13	2684.89
208.34	2375.64
208.56	2314.20
208.78	2346.97
209.00	2482.14
209.22	2432.99
209.44	2334.68
209.66	2396.12
209.88	2480.09
210.10	2445.27
210.32	2334.68
210.54	2572.25
210.76	2512.86
210.98	2559.96
211.20	2148.32
211.42	2441.18
211.64	2635.74
211.86	2473.95
212.08	2359.26
212.30	2367.45
212.52	2453.47
212.74	2502.62
212.96	2377.69
213.17	2428.89
213.39	2605.02
213.61	2613.21
213.83	2357.21
214.05	2371.55
214.27	2537.43
214.49	2375.64
214.71	2353.12
214.93	2506.71
215.15	2482.14
215.37	2555.86
215.59	2217.95
215.81	2326.49
216.03	2625.50
216.24	2484.19
216.46	2373.60
216.68	2361.31
216.90	2592.73
217.12	2584.54
217.34	2342.88
217.56	2394.08
217.78	2707.41
218.00	2537.43
218.22	2336.73
218.44	2420.70
218.66	2467.80
218.87	2727.89
219.09	2392.03
219.31	2367.45
219.53	2521.05
219.75	2447.32
219.97	2400.22
220.19	2351.07
220.41	2424.80
220.63	2637.78
220.85	2289.63
221.06	2215.90
221.28	2643.93
221.50	2568.15
221.72	2326.49
221.94	2342.88
222.16	2449.37
222.38	2602.97
222.60	2398.17
222.82	2420.70
223.03	2514.91
223.25	2314.20
223.47	2267.10
223.69	2559.96
223.91	2494.43
224.13	2578.39
224.35	2316.25
224.57	2547.67
224.78	2496.47
225.00	2330.59
225.22	2408.41
225.44	2330.59
225.66	2605.02
225.88	2385.88
226.10	2445.27
226.32	2400.22
226.53	2637.78
226.75	2377.69
226.97	2381.79
227.19	2365.40
227.41	2373.60
227.63	2439.13
227.85	2152.42
228.06	2389.98
228.28	2469.85
228.50	2564.06
228.72	2211.81
228.94	2455.51
229.16	2277.34
229.37	2375.64
229.59	2340.83
229.81	2490.33
230.03	2449.37
230.25	2326.49
230.47	2236.38
230.69	2334.68
230.90	2576.34
231.12	2375.64
231.34	2392.03
231.56	2375.64
231.78	2301.92
232.00	2510.81
232.21	2346.97
232.43	2369.50
232.65	2193.37
232.87	2516.95
233.09	2230.24
233.30	2340.83
233.52	2582.49
233.74	2527.19
233.96	2326.49
234.18	2496.47
234.40	2488.28
234.61	2772.95
234.83	2310.11
235.05	2283.49
235.27	2854.87
235.49	2670.55
235.70	2289.63
235.92	2420.70
236.14	2547.67
236.36	2840.53
236.58	2306.01
236.79	2449.37
237.01	2514.91
237.23	2484.19
237.45	2596.82
237.67	2330.59
237.88	2553.82
238.10	2711.51
238.32	2310.11
238.54	2346.97
238.76	2457.56
238.97	2432.99
239.19	2285.53
239.41	2414.56
239.63	2607.06
239.85	2375.64
240.06	2377.69
240.28	2293.72
240.50	2559.96
240.72	2482.14
240.93	2371.55
241.15	2412.51
241.37	2488.28
241.59	2691.03
241.81	2387.93
242.02	2410.46
242.24	2504.67
242.46	2652.12
242.68	2224.09
242.89	2299.87
243.11	2568.15
243.33	2441.18
243.55	2357.21
243.76	2400.22
243.98	2408.41
244.20	2465.75
244.42	2306.01
244.64	2326.49
244.85	2324.44
245.07	2340.83
245.29	2426.84
245.51	2359.26
245.72	2504.67
245.94	2582.49
246.16	2328.54
246.38	2402.27
246.59	2449.37
246.81	2396.12
247.03	2283.49
247.24	2244.57
247.46	2416.60
247.68	2490.33
247.90	2301.92
248.11	2389.98
248.33	2568.15
248.55	2471.90
248.77	2412.51
248.98	2422.75
249.20	2609.11
249.42	2412.51
249.64	2357.21
249.85	2359.26
250.07	2379.74
250.29	2551.77
250.50	2389.98
250.72	2215.90
250.94	2496.47
251.16	2818.00
251.37	2303.96
251.59	2365.40
251.81	2482.14
252.02	2633.69
252.24	2340.83
252.46	2490.33
252.68	2367.45
252.89	2340.83
253.11	2226.14
253.33	2457.56
253.54	2668.50
253.76	2371.55
253.98	2299.87
254.20	2303.96
254.41	2291.68
254.63	2551.77
254.85	2211.81
255.06	2402.27
255.28	2598.87
255.50	2465.75
255.71	2308.06
255.93	2256.86
256.15	2412.51
256.36	2588.63
256.58	2289.63
256.80	2359.26
257.02	2533.34
257.23	2394.08
257.45	2373.60
257.67	2437.08
257.88	2488.28
258.10	2539.48
258.32	2387.93
258.53	2361.31
258.75	2719.70
258.97	2314.20
259.18	2269.15
259.40	2322.40
259.62	2662.36
259.83	2609.11
260.05	2451.42
260.27	2908.12
260.48	2631.64
260.70	2387.93
260.92	2306.01
261.13	2420.70
261.35	2580.44
261.57	2572.25
261.78	2207.71
262.00	2297.82
262.22	2498.52
262.43	2377.69
262.65	2334.68
262.86	2432.99
263.08	2809.81
263.30	2519.00
263.51	2109.41
263.73	2297.82
263.95	2625.50
264.16	2349.02
264.38	2275.29
264.60	2301.92
264.81	2455.51
265.03	2586.58
265.25	2613.21
265.46	2285.53
265.68	2650.07
265.89	2598.87
266.11	2211.81
266.33	2357.21
266.54	2578.39
266.76	2535.39
266.98	2408.41
267.19	2516.95
267.41	2578.39
267.62	2441.18
267.84	2154.46
268.06	2396.12
268.27	2535.39
268.49	2562.01
268.70	2432.99
268.92	2412.51
269.14	2422.75
269.35	2322.40
269.57	2408.41
269.79	2400.22
270.00	2365.40
270.22	2723.80
270.43	2154.46
270.65	2277.34
270.87	2523.10
271.08	2609.11
271.30	2383.84
271.51	2334.68
271.73	2521.05
271.95	2621.40
272.16	2357.21
272.38	2412.51
272.59	2418.65
272.81	2519.00
273.02	2349.02
273.24	2338.78
273.46	2578.39
273.67	2398.17
273.89	2279.39
274.10	2338.78
274.32	2576.34
274.54	2541.53
274.75	2514.91
274.97	2373.60
275.18	2600.92
275.40	2498.52
275.61	2359.26
275.83	2488.28
276.05	2351.07
276.26	2480.09
276.48	2432.99
276.69	2408.41
276.91	2392.03
277.12	2650.07
277.34	2484.19
277.55	2500.57
277.77	2494.43
277.99	2432.99
278.20	2363.36
278.42	2416.60
278.63	2338.78
278.85	2406.36
279.06	2301.92
279.28	2461.66
279.49	2598.87
279.71	2627.54
279.93	2523.10
280.14	2447.32
280.36	2383.84
280.57	2613.21
280.79	2465.75
281.00	2324.44
281.22	2412.51
281.43	2584.54
281.65	2209.76
281.86	2273.25
282.08	2514.91
282.29	2686.94
282.51	2322.40
282.73	2365.40
282.94	2340.83
283.16	2539.48
283.37	2568.15
283.59	2359.26
283.80	2570.20
284.02	2535.39
284.23	2461.66
284.45	2490.33
284.66	2422.75
284.88	2324.44
285.09	2379.74
285.31	2523.10
285.52	2521.05
285.74	2318.30
285.95	2469.85
286.17	2420.70
286.38	2607.06
286.60	2398.17
286.81	2351.07
287.03	2355.16
287.24	2469.85
287.46	2592.73
287.67	2478.04
287.89	2645.98
288.10	2478.04
288.32	2482.14
288.53	2648.02
288.75	2463.71
288.96	2547.67
289.18	2414.56
289.39	2394.08
289.61	2506.71
289.82	2775.00
290.04	2643.93
290.25	2293.72
290.47	2435.03
290.68	2504.67
290.90	2674.65
291.11	2289.63
291.33	2541.53
291.54	2432.99
291.76	2396.12
291.97	2572.25
292.18	2457.56
292.40	2486.23
292.61	2404.32
292.83	2592.73
293.04	2459.61
293.26	2539.48
293.47	2482.14
293.69	2373.60
293.90	2451.42
294.12	2641.88
294.33	2480.09
294.55	2445.27
294.76	2539.48
294.97	2662.36
295.19	2742.23
295.40	2396.12
295.62	2394.08
295.83	2588.63
296.05	2424.80
296.26	2566.10
296.48	2387.93
296.69	2426.84
296.90	2473.95
297.12	2523.10
297.33	2611.16
297.55	2539.48
297.76	2529.24
297.98	2475.99
298.19	2447.32
298.41	2475.99
298.62	2367.45
298.83	2564.06
299.05	2492.38
299.26	2387.93
299.48	2441.18
299.69	2447.32
299.90	2383.84
300.12	2318.30
300.33	2555.86
300.55	2432.99
300.76	2519.00
300.98	2369.50
301.19	2547.67
301.40	2447.32
301.62	2461.66
301.83	2555.86
302.05	2453.47
302.26	2367.45
302.47	2443.23
302.69	2375.64
302.90	2486.23
303.12	2316.25
303.33	2584.54
303.54	2664.41
303.76	2424.80
303.97	2375.64
304.19	2645.98
304.40	2445.27
304.61	2445.27
304.83	2639.83
305.04	2492.38
305.26	2598.87
305.47	2435.03
305.68	2428.89
305.90	2344.92
306.11	2508.76
306.33	2512.86
306.54	2330.59
306.75	2430.94
306.97	2344.92
307.18	2373.60
307.39	2416.60
307.61	2572.25
307.82	2473.95
308.04	2486.23
308.25	2414.56
308.46	2531.29
308.68	2521.05
308.89	2447.32
309.10	2539.48
309.32	2512.86
309.53	2469.85
309.74	2568.15
309.96	2310.11
310.17	2531.29
310.39	2414.56
310.60	2615.26
310.81	2422.75
311.03	2318.30
311.24	2584.54
311.45	2432.99
311.67	2564.06
311.88	2420.70
312.09	2432.99
312.31	2410.46
312.52	2394.08
312.73	2445.27
312.95	2342.88
313.16	2383.84
313.37	2557.91
313.59	2506.71
313.80	2637.78
314.01	2660.31
314.23	2424.80
314.44	2383.84
314.65	2357.21
314.87	2457.56
315.08	2400.22
315.29	2367.45
315.51	2293.72
315.72	2334.68
315.93	2617.30
316.15	2467.80
316.36	2418.65
316.57	2519.00
316.79	2469.85
317.00	2447.32
317.21	2609.11
317.43	2392.03
317.64	2381.79
317.85	2342.88
318.07	2330.59
318.28	2396.12
318.49	2555.86
318.70	2695.13
318.92	2625.50
319.13	2613.21
319.34	2652.12
319.56	2473.95
319.77	2719.70
319.98	2590.68
320.20	2590.68
320.41	2613.21
320.62	2623.45
320.83	2373.60
321.05	2564.06
321.26	2492.38
321.47	2480.09
321.69	2678.74
321.90	2320.35
322.11	2310.11
322.32	2543.58
322.54	2627.54
322.75	2269.15
322.96	2916.31
323.18	2265.05
323.39	2285.53
323.60	2318.30
323.81	2539.48
324.03	2400.22
324.24	2514.91
324.45	2482.14
324.66	2396.12
324.88	2543.58
325.09	2668.50
325.30	2457.56
325.52	2488.28
325.73	2572.25
325.94	2336.73
326.15	2381.79
326.37	2346.97
326.58	2514.91
326.79	2678.74
327.00	2441.18
327.22	2365.40
327.43	2359.26
327.64	2351.07
327.85	2453.47
328.07	2420.70
328.28	2801.62
328.49	2420.70
328.70	2426.84
328.92	2449.37
329.13	2383.84
329.34	2621.40
329.55	2564.06
329.76	2555.86
329.98	2463.71
330.19	2619.35
330.40	2492.38
330.61	2484.19
330.83	2572.25
331.04	2355.16
331.25	2498.52
331.46	2400.22
331.68	2342.88
331.89	2580.44
332.10	2473.95
332.31	2285.53
332.52	2404.32
332.74	2611.16
332.95	2291.68
333.16	2387.93
333.37	2643.93
333.58	2349.02
333.80	2432.99
334.01	2312.16
334.22	2519.00
334.43	2396.12
334.64	2324.44
334.86	2342.88
335.07	2392.03
335.28	2693.08
335.49	2248.67
335.70	2432.99
335.92	2656.22
336.13	2772.95
336.34	2469.85
336.55	2478.04
336.76	2488.28
336.98	2248.67
337.19	2504.67
337.40	2529.24
337.61	2846.68
337.82	2396.12
338.04	2465.75
338.25	2283.49
338.46	2471.90
338.67	2473.95
338.88	2322.40
339.09	2308.06
339.31	2432.99
339.52	2330.59
339.73	2357.21
339.94	2473.95
340.15	2559.96
340.36	2457.56
340.58	2486.23
340.79	2385.88
341.00	2490.33
341.21	2365.40
341.42	2613.21
341.63	2412.51
341.85	2699.22
342.06	2490.33
342.27	2361.31
342.48	2531.29
342.69	2359.26
342.90	2508.76
343.12	2600.92
343.33	2404.32
343.54	2631.64
343.75	2650.07
343.96	2439.13
344.17	2338.78
344.38	2551.77
344.60	2412.51
344.81	2332.64
345.02	2428.89
345.23	2641.88
345.44	2813.91
345.65	2482.14
345.86	2490.33
346.07	2496.47
346.29	2408.41
346.50	2514.91
346.71	2498.52
346.92	2740.18
347.13	2756.57
347.34	2484.19
347.55	2381.79
347.76	2521.05
347.98	2316.25
348.19	2410.46
348.40	2539.48
348.61	2428.89
348.82	2703.32
349.03	2580.44
349.24	2363.36
349.45	2691.03
349.66	2267.10
349.88	2422.75
350.09	2400.22
350.30	2619.35
350.51	2578.39
350.72	2498.52
350.93	2490.33
351.14	2408.41
351.35	2490.33
351.56	2447.32
351.77	2443.23
351.99	2537.43
352.20	2684.89
352.41	2523.10
352.62	2301.92
352.83	2441.18
353.04	2490.33
353.25	2428.89
353.46	2510.81
353.67	2600.92
353.88	2293.72
354.09	2461.66
354.30	2469.85
354.52	2660.31
354.73	2400.22
354.94	2351.07
355.15	2416.60
355.36	2756.57
355.57	2426.84
355.78	2420.70
355.99	2318.30
356.20	2420.70
356.41	2652.12
356.62	2555.86
356.83	2475.99
357.04	2623.45
357.25	2281.44
357.46	2363.36
357.68	2299.87
357.89	2396.12
358.10	2486.23
358.31	2377.69
358.52	2398.17
358.73	2310.11
358.94	2359.26
359.15	2437.08
359.36	2500.57
359.57	2512.86
359.78	2502.62
359.99	2555.86
360.20	2449.37
360.41	2506.71
360.62	2508.76
360.83	2457.56
361.04	2441.18
361.25	2480.09
361.46	2666.46
361.67	2551.77
361.88	2488.28
362.09	2586.58
362.30	2465.75
362.51	2418.65
362.72	2396.12
362.93	2521.05
363.14	2576.34
363.35	2408.41
363.56	2318.30
363.78	2578.39
363.99	2605.02
364.20	2334.68
364.41	2498.52
364.62	2768.85
364.83	2533.34
365.04	2439.13
365.25	2400.22
365.46	2752.47
365.67	2453.47
365.88	2504.67
366.09	2437.08
366.30	2564.06
366.51	2455.51
366.72	2283.49
366.93	2408.41
367.14	2478.04
367.35	2650.07
367.56	2359.26
367.77	2586.58
367.98	2406.36
368.18	2519.00
368.39	2519.00
368.60	2322.40
368.81	2519.00
369.02	2500.57
369.23	2430.94
369.44	2316.25
369.65	2437.08
369.86	2521.05
370.07	2488.28
370.28	2340.83
370.49	2586.58
370.70	2621.40
370.91	2381.79
371.12	2252.77
371.33	2553.82
371.54	2437.08
371.75	2600.92
371.96	2170.85
372.17	2451.42
372.38	2475.99
372.59	2471.90
372.80	2475.99
373.01	2465.75
373.22	2490.33
373.43	2461.66
373.64	2314.20
373.85	2625.50
374.06	2719.70
374.26	2535.39
374.47	2463.71
374.68	2731.99
374.89	2537.43
375.10	2389.98
375.31	2539.48
375.52	2494.43
375.73	2455.51
375.94	2361.31
376.15	2619.35
376.36	2469.85
376.57	2359.26
376.78	2379.74
376.99	2428.89
377.20	2686.94
377.40	2402.27
377.61	2596.82
377.82	2332.64
378.03	2684.89
378.24	2521.05
378.45	2461.66
378.66	2441.18
378.87	2367.45
379.08	2381.79
379.29	2459.61
379.50	2580.44
379.71	2414.56
379.91	2514.91
380.12	2451.42
380.33	2480.09
380.54	2525.15
380.75	2492.38
380.96	2342.88
381.17	2461.66
381.38	2486.23
381.59	2482.14
381.80	2473.95
382.00	2674.65
382.21	2537.43
382.42	2719.70
382.63	2656.22
382.84	2531.29
383.05	2619.35
383.26	2711.51
383.47	2529.24
383.68	2502.62
383.88	2594.78
384.09	2553.82
384.30	2633.69
384.51	2502.62
384.72	2416.60
384.93	2361.31
385.14	2457.56
385.35	2625.50
385.55	2318.30
385.76	2584.54
385.97	2488.28
386.18	2281.44
386.39	2338.78
386.60	2469.85
386.81	2451.42
387.02	2312.16
387.22	2353.12
387.43	2637.78
387.64	2502.62
387.85	2617.30
388.06	2650.07
388.27	4063.17
388.48	8417.15
388.68	12064.58
388.89	14456.61
389.10	15896.33
389.31	14792.48
389.52	11730.76
389.73	10090.34
389.93	8970.10
390.14	8318.85
390.35	7430.03
390.56	6868.89
390.77	5502.89
390.98	4227.01
391.18	3481.55
391.39	2934.74
391.60	2572.25
391.81	2613.21
392.02	2412.51
392.23	2815.96
392.43	2553.82
392.64	2605.02
392.85	2389.98
393.06	2658.26
393.27	2545.63
393.47	2404.32
393.68	2488.28
393.89	2387.93
394.10	2625.50
394.31	2383.84
394.52	2392.03
394.72	2402.27
394.93	2736.09
395.14	2301.92
395.35	2549.72
395.56	2475.99
395.76	2498.52
395.97	2404.32
396.18	2508.76
396.39	2582.49
396.60	2977.75
396.80	2772.95
397.01	2557.91
397.22	2613.21
397.43	2727.89
397.64	2400.22
397.84	2541.53
398.05	2764.76
398.26	2445.27
398.47	2564.06
398.67	2621.40
398.88	2475.99
399.09	2494.43
399.30	2387.93
399.51	2572.25
399.71	2367.45
399.92	2482.14
400.13	2506.71
400.34	2410.46
400.54	2502.62
400.75	2637.78
400.96	2496.47
401.17	2691.03
401.37	2578.39
401.58	2478.04
401.79	2484.19
402.00	2602.97
402.21	2887.64
402.41	2693.08
402.62	2836.44
402.83	2854.87
403.04	2858.96
403.24	3108.82
403.45	2555.86
403.66	2815.96
403.87	2705.37
404.07	2725.85
404.28	2697.17
404.49	2666.46
404.70	2547.67
404.90	2645.98
405.11	2408.41
405.32	2584.54
405.52	2480.09
405.73	2412.51
405.94	2299.87
406.15	2500.57
406.35	2568.15
406.56	2510.81
406.77	2490.33
406.98	2502.62
407.18	2437.08
407.39	2691.03
407.60	2416.60
407.80	2424.80
408.01	2424.80
408.22	2521.05
408.43	2371.55
408.63	2510.81
408.84	2586.58
409.05	2609.11
409.25	2359.26
409.46	2357.21
409.67	2457.56
409.88	2306.01
410.08	2478.04
410.29	2414.56
410.50	2635.74
410.70	2588.63
410.91	2375.64
411.12	2514.91
411.32	2465.75
411.53	2385.88
411.74	2537.43
411.95	2588.63
412.15	2625.50
412.36	2588.63
412.57	2592.73
412.77	2557.91
412.98	2508.76
413.19	2512.86
413.39	2486.23
413.60	2531.29
413.81	2643.93
414.01	2400.22
414.22	2502.62
414.43	2541.53
414.63	2408.41
414.84	2582.49
415.05	2475.99
415.25	2256.86
415.46	2656.22
415.67	2463.71
415.87	2441.18
416.08	2465.75
416.29	2473.95
416.49	2592.73
416.70	2465.75
416.91	2418.65
417.11	2453.47
417.32	2609.11
417.53	2588.63
417.73	2498.52
417.94	2463.71
418.15	2510.81
418.35	2498.52
418.56	2506.71
418.77	2734.04
418.97	2451.42
419.18	2471.90
419.38	2256.86
419.59	2533.34
419.80	2652.12
420.00	2469.85
420.21	2387.93
420.42	2506.71
420.62	2463.71
420.83	2428.89
421.04	2394.08
421.24	2455.51
421.45	2594.78
421.65	2521.05
421.86	2416.60
422.07	2545.63
422.27	2535.39
422.48	2353.12
422.69	2201.57
422.89	2529.24
423.10	2426.84
423.30	2361.31
423.51	2480.09
423.72	2650.07
423.92	2553.82
424.13	2250.72
424.33	2478.04
424.54	2648.02
424.75	2607.06
424.95	2602.97
425.16	2471.90
425.36	2447.32
425.57	2586.58
425.78	2537.43
425.98	2541.53
426.19	2381.79
426.39	2379.74
426.60	2516.95
426.81	2594.78
427.01	2478.04
427.22	2437.08
427.42	2318.30
427.63	2428.89
427.83	2668.50
428.04	2775.00
428.25	2572.25
428.45	2605.02
428.66	2627.54
428.86	2430.94
429.07	2404.32
429.28	2426.84
429.48	2459.61
429.69	2422.75
429.89	2508.76
430.10	2316.25
430.30	2598.87
430.51	2605.02
430.71	2301.92
430.92	2439.13
431.13	2441.18
431.33	2465.75
431.54	2498.52
431.74	2568.15
431.95	2777.05
432.15	2340.83
432.36	2426.84
432.56	2572.25
432.77	2744.28
432.98	2731.99
433.18	2514.91
433.39	2471.90
433.59	2508.76
433.80	2758.61
434.00	2662.36
434.21	2365.40
434.41	2379.74
434.62	2721.75
434.82	2351.07
435.03	2308.06
435.23	2529.24
435.44	2269.15
435.64	2435.03
435.85	2461.66
436.06	2588.63
436.26	2635.74
436.47	2490.33
436.67	2410.46
436.88	2441.18
437.08	2596.82
437.29	2611.16
437.49	2482.14
437.70	2598.87
437.90	2508.76
438.11	2666.46
438.31	2494.43
438.52	2727.89
438.72	2738.13
438.93	2760.66
439.13	2551.77
439.34	2635.74
439.54	2465.75
439.75	2658.26
439.95	2502.62
440.16	2404.32
440.36	2510.81
440.57	2543.58
440.77	2547.67
440.98	2516.95
441.18	2539.48
441.39	2432.99
441.59	2342.88
441.80	2658.26
442.00	2486.23
442.21	2545.63
442.41	2400.22
442.62	2643.93
442.82	2428.89
443.02	2473.95
443.23	2527.19
443.43	2498.52
443.64	2652.12
443.84	2349.02
444.05	2549.72
444.25	2506.71
444.46	2531.29
444.66	2357.21
444.87	2609.11
445.07	2291.68
445.28	2553.82
445.48	2662.36
445.69	2580.44
445.89	2824.15
446.09	2484.19
446.30	2787.29
446.50	2947.03
446.71	4650.94
446.91	5738.41
447.12	6524.83
447.32	6907.80
447.53	6479.77
447.73	5406.64
447.93	4759.48
448.14	4450.24
448.34	4415.42
448.55	3952.58
448.75	3743.69
448.96	3583.95
449.16	3284.94
449.36	3020.75
449.57	2748.37
449.77	2555.86
449.98	2426.84
450.18	2529.24
450.39	2592.73
450.59	2588.63
450.79	2420.70
451.00	2441.18
451.20	2572.25
451.41	2461.66
451.61	2557.91
451.81	2529.24
452.02	2519.00
452.22	2367.45
452.43	2394.08
