SpectraSuite Data File
++++++++++++++++++++++++++++++++++++
Date: Thu May 05 14:41:25 CEST 2016
User: root
Dark Spectrum Present: No
Reference Spectrum Present: No
Number of Sampled Component Spectra: 1
Spectrometers: USB4C02835
Integration Time (usec): 100000 (USB4C02835)
Spectra Averaged: 1 (USB4C02835)
Boxcar Smoothing: 0 (USB4C02835)
Correct for Electrical Dark: No (USB4C02835)
Strobe/Lamp Enabled: No (USB4C02835)
Correct for Detector Non-linearity: No (USB4C02835)
Correct for Stray Light: No (USB4C02835)
Number of Pixels in Processed Spectrum: 3648
>>>>>Begin Processed Spectral Data<<<<<
177.47	1886.18
177.69	1886.18
177.91	1886.18
178.13	1892.32
178.36	1990.63
178.58	2375.64
178.80	2490.33
179.02	2314.20
179.24	2394.08
179.46	2326.49
179.68	2344.92
179.90	2396.12
180.13	2486.23
180.35	2248.67
180.57	2303.96
180.79	2592.73
181.01	2459.61
181.23	2377.69
181.45	2432.99
181.67	2531.29
181.90	2547.67
182.12	2334.68
182.34	2197.47
182.56	2531.29
182.78	2459.61
183.00	2277.34
183.22	2410.46
183.44	2248.67
183.66	2764.76
183.89	2441.18
184.11	2381.79
184.33	2551.77
184.55	2555.86
184.77	2361.31
184.99	2349.02
185.21	2435.03
185.43	2807.77
185.65	2316.25
185.87	2281.44
186.10	2668.50
186.32	2869.20
186.54	2387.93
186.76	2342.88
186.98	2584.54
187.20	2510.81
187.42	2267.10
187.64	2367.45
187.86	2592.73
188.08	2645.98
188.30	2301.92
188.52	2406.36
188.75	2645.98
188.97	2658.26
189.19	2355.16
189.41	2381.79
189.63	2547.67
189.85	2529.24
190.07	2287.58
190.29	2289.63
190.51	2435.03
190.73	2293.72
190.95	2453.47
191.17	2447.32
191.39	2320.35
191.61	2426.84
191.84	2400.22
192.06	2383.84
192.28	2297.82
192.50	2871.25
192.72	2432.99
192.94	2400.22
193.16	2643.93
193.38	2557.91
193.60	2244.57
193.82	2369.50
194.04	2709.46
194.26	2492.38
194.48	2334.68
194.70	2361.31
194.92	2490.33
195.14	2596.82
195.36	2373.60
195.58	2435.03
195.80	2441.18
196.02	2359.26
196.24	2287.58
196.46	2402.27
196.69	2414.56
196.91	2758.61
197.13	2349.02
197.35	2357.21
197.57	2705.37
197.79	2613.21
198.01	2455.51
198.23	2379.74
198.45	2605.02
198.67	2373.60
198.89	2357.21
199.11	2463.71
199.33	2379.74
199.55	2252.77
199.77	2363.36
199.99	2441.18
200.21	2455.51
200.43	2555.86
200.65	2283.49
200.87	2232.29
201.09	2465.75
201.31	2414.56
201.53	2349.02
201.75	2457.56
201.97	2539.48
202.19	2525.15
202.41	2406.36
202.63	2523.10
202.85	2502.62
203.07	2602.97
203.29	2318.30
203.51	2220.00
203.73	2387.93
203.95	2805.72
204.17	2355.16
204.39	2400.22
204.61	2502.62
204.83	2332.64
205.05	2408.41
205.27	2363.36
205.49	2813.91
205.71	2459.61
205.93	2281.44
206.15	2244.57
206.37	2537.43
206.59	2428.89
206.81	2252.77
207.03	2342.88
207.25	2359.26
207.47	2547.67
207.69	2392.03
207.91	2545.63
208.13	2686.94
208.34	2445.27
208.56	2248.67
208.78	2428.89
209.00	2449.37
209.22	2408.41
209.44	2383.84
209.66	2291.68
209.88	2473.95
210.10	2396.12
210.32	2363.36
210.54	2400.22
210.76	2457.56
210.98	2607.06
211.20	2244.57
211.42	2408.41
211.64	2645.98
211.86	2578.39
212.08	2445.27
212.30	2412.51
212.52	2404.32
212.74	2557.91
212.96	2344.92
213.17	2447.32
213.39	2572.25
213.61	2695.13
213.83	2355.16
214.05	2383.84
214.27	2693.08
214.49	2281.44
214.71	2375.64
214.93	2396.12
215.15	2473.95
215.37	2611.16
215.59	2252.77
215.81	2473.95
216.03	2574.30
216.24	2484.19
216.46	2365.40
216.68	2451.42
216.90	2588.63
217.12	2557.91
217.34	2306.01
217.56	2414.56
217.78	2611.16
218.00	2555.86
218.22	2406.36
218.44	2494.43
218.66	2437.08
218.87	2660.31
219.09	2342.88
219.31	2363.36
219.53	2471.90
219.75	2365.40
219.97	2344.92
220.19	2357.21
220.41	2510.81
220.63	2645.98
220.85	2349.02
221.06	2314.20
221.28	2678.74
221.50	2514.91
221.72	2379.74
221.94	2334.68
222.16	2549.72
222.38	2533.34
222.60	2387.93
222.82	2328.54
223.03	2676.70
223.25	2369.50
223.47	2330.59
223.69	2482.14
223.91	2537.43
224.13	2566.10
224.35	2291.68
224.57	2445.27
224.78	2566.10
225.00	2396.12
225.22	2379.74
225.44	2297.82
225.66	2525.15
225.88	2398.17
226.10	2392.03
226.32	2383.84
226.53	2629.59
226.75	2420.70
226.97	2332.64
227.19	2412.51
227.41	2389.98
227.63	2428.89
227.85	2240.48
228.06	2396.12
228.28	2531.29
228.50	2541.53
228.72	2293.72
228.94	2275.29
229.16	2226.14
229.37	2320.35
229.59	2328.54
229.81	2512.86
230.03	2475.99
230.25	2367.45
230.47	2289.63
230.69	2277.34
230.90	2592.73
231.12	2322.40
231.34	2408.41
231.56	2412.51
231.78	2344.92
232.00	2445.27
232.21	2330.59
232.43	2289.63
232.65	2273.25
232.87	2504.67
233.09	2285.53
233.30	2336.73
233.52	2611.16
233.74	2400.22
233.96	2355.16
234.18	2451.42
234.40	2502.62
234.61	2678.74
234.83	2232.29
235.05	2260.96
235.27	2746.33
235.49	2578.39
235.70	2344.92
235.92	2408.41
236.14	2551.77
236.36	2815.96
236.58	2230.24
236.79	2424.80
237.01	2467.80
237.23	2519.00
237.45	2531.29
237.67	2277.34
237.88	2523.10
238.10	2684.89
238.32	2328.54
238.54	2281.44
238.76	2422.75
238.97	2377.69
239.19	2332.64
239.41	2410.46
239.63	2549.72
239.85	2392.03
240.06	2392.03
240.28	2342.88
240.50	2635.74
240.72	2457.56
240.93	2373.60
241.15	2383.84
241.37	2564.06
241.59	2596.82
241.81	2359.26
242.02	2353.12
242.24	2564.06
242.46	2572.25
242.68	2179.04
242.89	2308.06
243.11	2580.44
243.33	2437.08
243.55	2310.11
243.76	2365.40
243.98	2365.40
244.20	2465.75
244.42	2349.02
244.64	2346.97
244.85	2351.07
245.07	2320.35
245.29	2365.40
245.51	2336.73
245.72	2469.85
245.94	2572.25
246.16	2392.03
246.38	2373.60
246.59	2471.90
246.81	2414.56
247.03	2211.81
247.24	2250.72
247.46	2396.12
247.68	2449.37
247.90	2318.30
248.11	2281.44
248.33	2629.59
248.55	2559.96
248.77	2400.22
248.98	2371.55
249.20	2693.08
249.42	2525.15
249.64	2375.64
249.85	2318.30
250.07	2432.99
250.29	2531.29
250.50	2506.71
250.72	2238.43
250.94	2504.67
251.16	2785.24
251.37	2392.03
251.59	2392.03
251.81	2590.68
252.02	2666.46
252.24	2308.06
252.46	2469.85
252.68	2338.78
252.89	2414.56
253.11	2242.53
253.33	2506.71
253.54	2699.22
253.76	2295.77
253.98	2275.29
254.20	2351.07
254.41	2344.92
254.63	2451.42
254.85	2234.33
255.06	2414.56
255.28	2572.25
255.50	2475.99
255.71	2299.87
255.93	2187.23
256.15	2422.75
256.36	2469.85
256.58	2277.34
256.80	2387.93
257.02	2426.84
257.23	2408.41
257.45	2387.93
257.67	2453.47
257.88	2377.69
258.10	2537.43
258.32	2340.83
258.53	2414.56
258.75	2662.36
258.97	2381.79
259.18	2310.11
259.40	2279.39
259.62	2613.21
259.83	2623.45
260.05	2369.50
260.27	2992.08
260.48	2674.65
260.70	2363.36
260.92	2265.05
261.13	2383.84
261.35	2535.39
261.57	2521.05
261.78	2224.09
262.00	2283.49
262.22	2549.72
262.43	2379.74
262.65	2369.50
262.86	2328.54
263.08	2789.33
263.30	2408.41
263.51	2174.94
263.73	2289.63
263.95	2650.07
264.16	2326.49
264.38	2256.86
264.60	2308.06
264.81	2463.71
265.03	2580.44
265.25	2478.04
265.46	2318.30
265.68	2602.97
265.89	2625.50
266.11	2162.66
266.33	2381.79
266.54	2580.44
266.76	2494.43
266.98	2473.95
267.19	2514.91
267.41	2629.59
267.62	2510.81
267.84	2172.89
268.06	2451.42
268.27	2506.71
268.49	2553.82
268.70	2457.56
268.92	2420.70
269.14	2412.51
269.35	2275.29
269.57	2324.44
269.79	2420.70
270.00	2430.94
270.22	2656.22
270.43	2234.33
270.65	2129.89
270.87	2523.10
271.08	2549.72
271.30	2404.32
271.51	2385.88
271.73	2592.73
271.95	2686.94
272.16	2334.68
272.38	2408.41
272.59	2342.88
272.81	2551.77
273.02	2359.26
273.24	2385.88
273.46	2584.54
273.67	2279.39
273.89	2289.63
274.10	2344.92
274.32	2543.58
274.54	2600.92
274.75	2369.50
274.97	2353.12
275.18	2564.06
275.40	2557.91
275.61	2400.22
275.83	2459.61
276.05	2330.59
276.26	2506.71
276.48	2424.80
276.69	2392.03
276.91	2398.17
277.12	2662.36
277.34	2486.23
277.55	2486.23
277.77	2416.60
277.99	2392.03
278.20	2297.82
278.42	2301.92
278.63	2375.64
278.85	2396.12
279.06	2267.10
279.28	2502.62
279.49	2637.78
279.71	2574.30
279.93	2426.84
280.14	2478.04
280.36	2310.11
280.57	2574.30
280.79	2525.15
281.00	2357.21
281.22	2486.23
281.43	2629.59
281.65	2291.68
281.86	2363.36
282.08	2523.10
282.29	2719.70
282.51	2303.96
282.73	2338.78
282.94	2258.91
283.16	2551.77
283.37	2594.78
283.59	2420.70
283.80	2531.29
284.02	2447.32
284.23	2441.18
284.45	2402.27
284.66	2359.26
284.88	2416.60
285.09	2410.46
285.31	2490.33
285.52	2482.14
285.74	2275.29
285.95	2539.48
286.17	2537.43
286.38	2549.72
286.60	2420.70
286.81	2408.41
287.03	2408.41
287.24	2432.99
287.46	2523.10
287.67	2519.00
287.89	2609.11
288.10	2424.80
288.32	2537.43
288.53	2619.35
288.75	2473.95
288.96	2553.82
289.18	2482.14
289.39	2375.64
289.61	2568.15
289.82	2758.61
290.04	2711.51
290.25	2363.36
290.47	2449.37
290.68	2416.60
290.90	2564.06
291.11	2260.96
291.33	2484.19
291.54	2400.22
291.76	2447.32
291.97	2484.19
292.18	2473.95
292.40	2398.17
292.61	2445.27
292.83	2621.40
293.04	2465.75
293.26	2494.43
293.47	2453.47
293.69	2285.53
293.90	2392.03
294.12	2648.02
294.33	2467.80
294.55	2371.55
294.76	2467.80
294.97	2633.69
295.19	2736.09
295.40	2346.97
295.62	2471.90
295.83	2645.98
296.05	2437.08
296.26	2605.02
296.48	2359.26
296.69	2408.41
296.90	2488.28
297.12	2545.63
297.33	2555.86
297.55	2480.09
297.76	2461.66
297.98	2445.27
298.19	2441.18
298.41	2455.51
298.62	2336.73
298.83	2605.02
299.05	2473.95
299.26	2449.37
299.48	2355.16
299.69	2543.58
299.90	2490.33
300.12	2355.16
300.33	2592.73
300.55	2389.98
300.76	2490.33
300.98	2361.31
301.19	2564.06
301.40	2424.80
301.62	2381.79
301.83	2555.86
302.05	2437.08
302.26	2420.70
302.47	2377.69
302.69	2396.12
302.90	2498.52
303.12	2176.99
303.33	2465.75
303.54	2777.05
303.76	2377.69
303.97	2510.81
304.19	2619.35
304.40	2351.07
304.61	2523.10
304.83	2662.36
305.04	2641.88
305.26	2527.19
305.47	2435.03
305.68	2473.95
305.90	2310.11
306.11	2615.26
306.33	2449.37
306.54	2402.27
306.75	2428.89
306.97	2258.91
307.18	2432.99
307.39	2373.60
307.61	2453.47
307.82	2478.04
308.04	2531.29
308.25	2351.07
308.46	2459.61
308.68	2531.29
308.89	2441.18
309.10	2574.30
309.32	2404.32
309.53	2422.75
309.74	2588.63
309.96	2346.97
310.17	2555.86
310.39	2422.75
310.60	2645.98
310.81	2482.14
311.03	2318.30
311.24	2500.57
311.45	2430.94
311.67	2523.10
311.88	2519.00
312.09	2453.47
312.31	2435.03
312.52	2394.08
312.73	2422.75
312.95	2308.06
313.16	2299.87
313.37	2555.86
313.59	2496.47
313.80	2596.82
314.01	2662.36
314.23	2453.47
314.44	2371.55
314.65	2314.20
314.87	2428.89
315.08	2392.03
315.29	2312.16
315.51	2414.56
315.72	2250.72
315.93	2539.48
316.15	2449.37
316.36	2478.04
316.57	2572.25
316.79	2463.71
317.00	2392.03
317.21	2572.25
317.43	2394.08
317.64	2473.95
317.85	2330.59
318.07	2414.56
318.28	2412.51
318.49	2600.92
318.70	2727.89
318.92	2588.63
319.13	2717.65
319.34	2684.89
319.56	2543.58
319.77	2621.40
319.98	2613.21
320.20	2629.59
320.41	2576.34
320.62	2553.82
320.83	2400.22
321.05	2682.84
321.26	2432.99
321.47	2525.15
321.69	2629.59
321.90	2351.07
322.11	2332.64
322.32	2488.28
322.54	2598.87
322.75	2371.55
322.96	2875.35
323.18	2301.92
323.39	2232.29
323.60	2306.01
323.81	2490.33
324.03	2430.94
324.24	2537.43
324.45	2424.80
324.66	2408.41
324.88	2531.29
325.09	2676.70
325.30	2422.75
325.52	2463.71
325.73	2547.67
325.94	2420.70
326.15	2310.11
326.37	2385.88
326.58	2600.92
326.79	2711.51
327.00	2406.36
327.22	2516.95
327.43	2385.88
327.64	2291.68
327.85	2537.43
328.07	2410.46
328.28	2697.17
328.49	2480.09
328.70	2422.75
328.92	2449.37
329.13	2451.42
329.34	2533.34
329.55	2613.21
329.76	2533.34
329.98	2449.37
330.19	2596.82
330.40	2516.95
330.61	2373.60
330.83	2562.01
331.04	2445.27
331.25	2426.84
331.46	2408.41
331.68	2297.82
331.89	2545.63
332.10	2353.12
332.31	2285.53
332.52	2375.64
332.74	2654.17
332.95	2334.68
333.16	2422.75
333.37	2555.86
333.58	2371.55
333.80	2473.95
334.01	2267.10
334.22	2551.77
334.43	2408.41
334.64	2455.51
334.86	2238.43
335.07	2441.18
335.28	2686.94
335.49	2224.09
335.70	2451.42
335.92	2580.44
336.13	2727.89
336.34	2486.23
336.55	2490.33
336.76	2551.77
336.98	2242.53
337.19	2445.27
337.40	2596.82
337.61	2686.94
337.82	2465.75
338.04	2506.71
338.25	2269.15
338.46	2482.14
338.67	2441.18
338.88	2330.59
339.09	2381.79
339.31	2449.37
339.52	2289.63
339.73	2306.01
339.94	2420.70
340.15	2543.58
340.36	2441.18
340.58	2418.65
340.79	2355.16
341.00	2562.01
341.21	2236.38
341.42	2578.39
341.63	2414.56
341.85	2627.54
342.06	2506.71
342.27	2418.65
342.48	2488.28
342.69	2365.40
342.90	2525.15
343.12	2555.86
343.33	2312.16
343.54	2580.44
343.75	2721.75
343.96	2430.94
344.17	2381.79
344.38	2451.42
344.60	2363.36
344.81	2330.59
345.02	2408.41
345.23	2582.49
345.44	2789.33
345.65	2504.67
345.86	2519.00
346.07	2539.48
346.29	2414.56
346.50	2457.56
346.71	2535.39
346.92	2635.74
347.13	2740.18
347.34	2416.60
347.55	2412.51
347.76	2539.48
347.98	2318.30
348.19	2445.27
348.40	2643.93
348.61	2475.99
348.82	2613.21
349.03	2473.95
349.24	2346.97
349.45	2701.27
349.66	2232.29
349.88	2418.65
350.09	2414.56
350.30	2609.11
350.51	2668.50
350.72	2553.82
350.93	2412.51
351.14	2504.67
351.35	2490.33
351.56	2471.90
351.77	2428.89
351.99	2570.20
352.20	2703.32
352.41	2469.85
352.62	2277.34
352.83	2519.00
353.04	2455.51
353.25	2357.21
353.46	2459.61
353.67	2617.30
353.88	2275.29
354.09	2451.42
354.30	2457.56
354.52	2490.33
354.73	2519.00
354.94	2416.60
355.15	2447.32
355.36	2695.13
355.57	2357.21
355.78	2346.97
355.99	2432.99
356.20	2371.55
356.41	2639.83
356.62	2478.04
356.83	2412.51
357.04	2703.32
357.25	2295.77
357.46	2379.74
357.68	2244.57
357.89	2359.26
358.10	2432.99
358.31	2381.79
358.52	2426.84
358.73	2316.25
358.94	2363.36
359.15	2353.12
359.36	2541.53
359.57	2549.72
359.78	2504.67
359.99	2531.29
360.20	2301.92
360.41	2478.04
360.62	2553.82
360.83	2480.09
361.04	2398.17
361.25	2537.43
361.46	2672.60
361.67	2576.34
361.88	2394.08
362.09	2547.67
362.30	2564.06
362.51	2414.56
362.72	2437.08
362.93	2572.25
363.14	2559.96
363.35	2469.85
363.56	2320.35
363.78	2645.98
363.99	2590.68
364.20	2326.49
364.41	2432.99
364.62	2742.23
364.83	2498.52
365.04	2396.12
365.25	2457.56
365.46	2756.57
365.67	2375.64
365.88	2449.37
366.09	2367.45
366.30	2408.41
366.51	2504.67
366.72	2363.36
366.93	2400.22
367.14	2508.76
367.35	2715.61
367.56	2416.60
367.77	2555.86
367.98	2365.40
368.18	2572.25
368.39	2568.15
368.60	2314.20
368.81	2555.86
369.02	2432.99
369.23	2463.71
369.44	2226.14
369.65	2449.37
369.86	2535.39
370.07	2422.75
370.28	2367.45
370.49	2543.58
370.70	2551.77
370.91	2351.07
371.12	2336.73
371.33	2674.65
371.54	2439.13
371.75	2607.06
371.96	2226.14
372.17	2498.52
372.38	2475.99
372.59	2457.56
372.80	2351.07
373.01	2418.65
373.22	2506.71
373.43	2408.41
373.64	2269.15
373.85	2705.37
374.06	2637.78
374.26	2555.86
374.47	2521.05
374.68	2654.17
374.89	2514.91
375.10	2418.65
375.31	2496.47
375.52	2547.67
375.73	2562.01
375.94	2228.19
376.15	2525.15
376.36	2359.26
376.57	2473.95
376.78	2383.84
376.99	2439.13
377.20	2650.07
377.40	2416.60
377.61	2684.89
377.82	2408.41
378.03	2682.84
378.24	2553.82
378.45	2482.14
378.66	2459.61
378.87	2263.01
379.08	2281.44
379.29	2430.94
379.50	2555.86
379.71	2447.32
379.91	2555.86
380.12	2351.07
380.33	2416.60
380.54	2572.25
380.75	2377.69
380.96	2514.91
381.17	2519.00
381.38	2389.98
381.59	2469.85
381.80	2432.99
382.00	2625.50
382.21	2471.90
382.42	2738.13
382.63	2686.94
382.84	2605.02
383.05	2533.34
383.26	2701.27
383.47	2461.66
383.68	2551.77
383.88	2543.58
384.09	2449.37
384.30	2547.67
384.51	2586.58
384.72	2398.17
384.93	2332.64
385.14	2512.86
385.35	2619.35
385.55	2256.86
385.76	2678.74
385.97	2449.37
386.18	2324.44
386.39	2383.84
386.60	2463.71
386.81	2377.69
387.02	2385.88
387.22	2351.07
387.43	2611.16
387.64	2482.14
387.85	2623.45
388.06	2688.98
388.27	4175.81
388.48	8357.76
388.68	12277.57
388.89	14722.85
389.10	16054.03
389.31	15001.37
389.52	11687.76
389.73	10196.84
389.93	9150.32
390.14	8462.21
390.35	7610.25
390.56	6717.34
390.77	5398.45
390.98	4229.06
391.18	3311.57
391.39	2973.65
391.60	2588.63
391.81	2686.94
392.02	2396.12
392.23	2731.99
392.43	2553.82
392.64	2613.21
392.85	2504.67
393.06	2787.29
393.27	2543.58
393.47	2346.97
393.68	2416.60
393.89	2465.75
394.10	2635.74
394.31	2330.59
394.52	2361.31
394.72	2441.18
394.93	2637.78
395.14	2344.92
395.35	2531.29
395.56	2426.84
395.76	2457.56
395.97	2500.57
396.18	2625.50
396.39	2611.16
396.60	3004.37
396.80	2744.28
397.01	2555.86
397.22	2639.83
397.43	2686.94
397.64	2459.61
397.84	2553.82
398.05	2717.65
398.26	2473.95
398.47	2531.29
398.67	2529.24
398.88	2471.90
399.09	2545.63
399.30	2375.64
399.51	2449.37
399.71	2334.68
399.92	2437.08
400.13	2498.52
400.34	2412.51
400.54	2424.80
400.75	2654.17
400.96	2447.32
401.17	2621.40
401.37	2588.63
401.58	2461.66
401.79	2375.64
402.00	2570.20
402.21	2897.88
402.41	2805.72
402.62	2863.06
402.83	2918.36
403.04	2944.98
403.24	3092.43
403.45	2695.13
403.66	2746.33
403.87	2731.99
404.07	2701.27
404.28	2707.41
404.49	2695.13
404.70	2557.91
404.90	2551.77
405.11	2506.71
405.32	2465.75
405.52	2400.22
405.73	2383.84
405.94	2387.93
406.15	2424.80
406.35	2531.29
406.56	2635.74
406.77	2506.71
406.98	2492.38
407.18	2420.70
407.39	2666.46
407.60	2428.89
407.80	2508.76
408.01	2506.71
408.22	2514.91
408.43	2349.02
408.63	2521.05
408.84	2621.40
409.05	2598.87
409.25	2349.02
409.46	2422.75
409.67	2506.71
409.88	2383.84
410.08	2494.43
410.29	2408.41
410.50	2535.39
410.70	2568.15
410.91	2314.20
411.12	2531.29
411.32	2467.80
411.53	2392.03
411.74	2482.14
411.95	2645.98
412.15	2578.39
412.36	2660.31
412.57	2600.92
412.77	2549.72
412.98	2510.81
413.19	2457.56
413.39	2512.86
413.60	2430.94
413.81	2645.98
414.01	2318.30
414.22	2531.29
414.43	2605.02
414.63	2392.03
414.84	2717.65
415.05	2478.04
415.25	2377.69
415.46	2562.01
415.67	2420.70
415.87	2422.75
416.08	2482.14
416.29	2508.76
416.49	2498.52
416.70	2289.63
416.91	2346.97
417.11	2512.86
417.32	2609.11
417.53	2529.24
417.73	2416.60
417.94	2430.94
418.15	2488.28
418.35	2535.39
418.56	2373.60
418.77	2809.81
418.97	2504.67
419.18	2545.63
419.38	2228.19
419.59	2398.17
419.80	2684.89
420.00	2414.56
420.21	2443.23
420.42	2682.84
420.62	2555.86
420.83	2322.40
421.04	2463.71
421.24	2457.56
421.45	2492.38
421.65	2531.29
421.86	2355.16
422.07	2529.24
422.27	2500.57
422.48	2457.56
422.69	2377.69
422.89	2514.91
423.10	2424.80
423.30	2281.44
423.51	2498.52
423.72	2447.32
423.92	2559.96
424.13	2367.45
424.33	2453.47
424.54	2545.63
424.75	2568.15
424.95	2645.98
425.16	2473.95
425.36	2445.27
425.57	2625.50
425.78	2531.29
425.98	2549.72
426.19	2492.38
426.39	2469.85
426.60	2473.95
426.81	2613.21
427.01	2537.43
427.22	2392.03
427.42	2250.72
427.63	2293.72
427.83	2600.92
428.04	2668.50
428.25	2473.95
428.45	2519.00
428.66	2588.63
428.86	2521.05
429.07	2381.79
429.28	2482.14
429.48	2535.39
429.69	2412.51
429.89	2504.67
430.10	2285.53
430.30	2537.43
430.51	2725.85
430.71	2381.79
430.92	2404.32
431.13	2426.84
431.33	2605.02
431.54	2506.71
431.74	2707.41
431.95	2723.80
432.15	2332.64
432.36	2412.51
432.56	2523.10
432.77	2678.74
432.98	2711.51
433.18	2502.62
433.39	2422.75
433.59	2492.38
433.80	2686.94
434.00	2658.26
434.21	2389.98
434.41	2402.27
434.62	2836.44
434.82	2369.50
435.03	2400.22
435.23	2600.92
435.44	2316.25
435.64	2406.36
435.85	2551.77
436.06	2578.39
436.26	2576.34
436.47	2455.51
436.67	2379.74
436.88	2449.37
437.08	2607.06
437.29	2596.82
437.49	2523.10
437.70	2621.40
437.90	2488.28
438.11	2654.17
438.31	2564.06
438.52	2791.38
438.72	2707.41
438.93	2775.00
439.13	2498.52
439.34	2666.46
439.54	2498.52
439.75	2605.02
439.95	2559.96
440.16	2363.36
440.36	2441.18
440.57	2537.43
440.77	2519.00
440.98	2432.99
441.18	2529.24
441.39	2389.98
441.59	2459.61
441.80	2709.46
442.00	2494.43
442.21	2588.63
442.41	2353.12
442.62	2625.50
442.82	2418.65
443.02	2408.41
443.23	2572.25
443.43	2480.09
443.64	2652.12
443.84	2467.80
444.05	2584.54
444.25	2506.71
444.46	2484.19
444.66	2422.75
444.87	2719.70
445.07	2310.11
445.28	2443.23
445.48	2564.06
445.69	2531.29
445.89	2809.81
446.09	2437.08
446.30	2756.57
446.50	2942.93
446.71	4597.69
446.91	5760.94
447.12	6705.05
447.32	7143.32
447.53	6657.95
447.73	5443.50
447.93	4896.69
448.14	4501.44
448.34	4536.25
448.55	3944.39
448.75	3872.71
448.96	3512.27
449.16	3274.70
449.36	3145.68
449.57	2736.09
449.77	2617.30
449.98	2424.80
450.18	2631.64
450.39	2453.47
450.59	2539.48
450.79	2512.86
451.00	2404.32
451.20	2531.29
451.41	2445.27
451.61	2564.06
451.81	2504.67
452.02	2416.60
452.22	2473.95
452.43	2428.89
