SpectraSuite Data File
++++++++++++++++++++++++++++++++++++
Date: Thu May 05 14:41:53 CEST 2016
User: root
Dark Spectrum Present: No
Reference Spectrum Present: No
Number of Sampled Component Spectra: 1
Spectrometers: USB4C02835
Integration Time (usec): 100000 (USB4C02835)
Spectra Averaged: 1 (USB4C02835)
Boxcar Smoothing: 0 (USB4C02835)
Correct for Electrical Dark: No (USB4C02835)
Strobe/Lamp Enabled: No (USB4C02835)
Correct for Detector Non-linearity: No (USB4C02835)
Correct for Stray Light: No (USB4C02835)
Number of Pixels in Processed Spectrum: 3648
>>>>>Begin Processed Spectral Data<<<<<
177.47	1869.80
177.69	1869.80
177.91	1869.80
178.13	1873.89
178.36	1896.42
178.58	2318.30
178.80	2467.80
179.02	2342.88
179.24	2349.02
179.46	2322.40
179.68	2375.64
179.90	2447.32
180.13	2502.62
180.35	2252.77
180.57	2328.54
180.79	2590.68
181.01	2498.52
181.23	2371.55
181.45	2508.76
181.67	2539.48
181.90	2521.05
182.12	2291.68
182.34	2179.04
182.56	2600.92
182.78	2543.58
183.00	2318.30
183.22	2363.36
183.44	2215.90
183.66	2811.86
183.89	2463.71
184.11	2375.64
184.33	2572.25
184.55	2615.26
184.77	2400.22
184.99	2330.59
185.21	2449.37
185.43	2791.38
185.65	2373.60
185.87	2330.59
186.10	2731.99
186.32	2766.81
186.54	2389.98
186.76	2435.03
186.98	2645.98
187.20	2424.80
187.42	2351.07
187.64	2340.83
187.86	2473.95
188.08	2562.01
188.30	2232.29
188.52	2400.22
188.75	2684.89
188.97	2623.45
189.19	2363.36
189.41	2363.36
189.63	2611.16
189.85	2453.47
190.07	2244.57
190.29	2160.61
190.51	2457.56
190.73	2349.02
190.95	2475.99
191.17	2375.64
191.39	2263.01
191.61	2465.75
191.84	2314.20
192.06	2533.34
192.28	2334.68
192.50	2848.72
192.72	2394.08
192.94	2361.31
193.16	2562.01
193.38	2523.10
193.60	2252.77
193.82	2297.82
194.04	2654.17
194.26	2473.95
194.48	2361.31
194.70	2324.44
194.92	2408.41
195.14	2521.05
195.36	2314.20
195.58	2439.13
195.80	2398.17
196.02	2426.84
196.24	2359.26
196.46	2482.14
196.69	2449.37
196.91	2850.77
197.13	2379.74
197.35	2349.02
197.57	2625.50
197.79	2537.43
198.01	2471.90
198.23	2398.17
198.45	2508.76
198.67	2420.70
198.89	2244.57
199.11	2449.37
199.33	2422.75
199.55	2209.76
199.77	2351.07
199.99	2473.95
200.21	2523.10
200.43	2553.82
200.65	2226.14
200.87	2162.66
201.09	2523.10
201.31	2432.99
201.53	2428.89
201.75	2416.60
201.97	2465.75
202.19	2482.14
202.41	2408.41
202.63	2449.37
202.85	2568.15
203.07	2592.73
203.29	2346.97
203.51	2318.30
203.73	2457.56
203.95	2828.24
204.17	2289.63
204.39	2412.51
204.61	2435.03
204.83	2406.36
205.05	2424.80
205.27	2383.84
205.49	2715.61
205.71	2461.66
205.93	2172.89
206.15	2297.82
206.37	2478.04
206.59	2428.89
206.81	2232.29
207.03	2205.66
207.25	2244.57
207.47	2586.58
207.69	2379.74
207.91	2535.39
208.13	2656.22
208.34	2449.37
208.56	2351.07
208.78	2371.55
209.00	2422.75
209.22	2412.51
209.44	2387.93
209.66	2342.88
209.88	2461.66
210.10	2404.32
210.32	2324.44
210.54	2449.37
210.76	2473.95
210.98	2566.10
211.20	2158.56
211.42	2475.99
211.64	2645.98
211.86	2580.44
212.08	2344.92
212.30	2418.65
212.52	2412.51
212.74	2535.39
212.96	2432.99
213.17	2437.08
213.39	2562.01
213.61	2703.32
213.83	2342.88
214.05	2363.36
214.27	2559.96
214.49	2332.64
214.71	2346.97
214.93	2498.52
215.15	2521.05
215.37	2527.19
215.59	2252.77
215.81	2367.45
216.03	2586.58
216.24	2500.57
216.46	2340.83
216.68	2432.99
216.90	2596.82
217.12	2617.30
217.34	2385.88
217.56	2529.24
217.78	2652.12
218.00	2590.68
218.22	2422.75
218.44	2396.12
218.66	2523.10
218.87	2717.65
219.09	2312.16
219.31	2400.22
219.53	2551.77
219.75	2435.03
219.97	2367.45
220.19	2381.79
220.41	2449.37
220.63	2684.89
220.85	2330.59
221.06	2330.59
221.28	2572.25
221.50	2555.86
221.72	2387.93
221.94	2318.30
222.16	2533.34
222.38	2621.40
222.60	2322.40
222.82	2389.98
223.03	2533.34
223.25	2389.98
223.47	2367.45
223.69	2529.24
223.91	2596.82
224.13	2539.48
224.35	2203.61
224.57	2486.23
224.78	2547.67
225.00	2357.21
225.22	2424.80
225.44	2281.44
225.66	2637.78
225.88	2414.56
226.10	2441.18
226.32	2381.79
226.53	2652.12
226.75	2379.74
226.97	2389.98
227.19	2428.89
227.41	2398.17
227.63	2332.64
227.85	2166.75
228.06	2367.45
228.28	2408.41
228.50	2529.24
228.72	2215.90
228.94	2318.30
229.16	2299.87
229.37	2363.36
229.59	2222.05
229.81	2541.53
230.03	2447.32
230.25	2375.64
230.47	2179.04
230.69	2273.25
230.90	2543.58
231.12	2334.68
231.34	2441.18
231.56	2396.12
231.78	2371.55
232.00	2539.48
232.21	2367.45
232.43	2310.11
232.65	2273.25
232.87	2531.29
233.09	2256.86
233.30	2318.30
233.52	2633.69
233.74	2461.66
233.96	2295.77
234.18	2373.60
234.40	2525.15
234.61	2719.70
234.83	2301.92
235.05	2230.24
235.27	2777.05
235.49	2602.97
235.70	2236.38
235.92	2377.69
236.14	2588.63
236.36	2815.96
236.58	2217.95
236.79	2428.89
237.01	2422.75
237.23	2453.47
237.45	2572.25
237.67	2250.72
237.88	2549.72
238.10	2691.03
238.32	2228.19
238.54	2357.21
238.76	2439.13
238.97	2402.27
239.19	2242.53
239.41	2428.89
239.63	2592.73
239.85	2469.85
240.06	2398.17
240.28	2340.83
240.50	2580.44
240.72	2453.47
240.93	2265.05
241.15	2463.71
241.37	2529.24
241.59	2648.02
241.81	2342.88
242.02	2410.46
242.24	2488.28
242.46	2539.48
242.68	2203.61
242.89	2320.35
243.11	2580.44
243.33	2455.51
243.55	2435.03
243.76	2363.36
243.98	2355.16
244.20	2500.57
244.42	2387.93
244.64	2349.02
244.85	2248.67
245.07	2375.64
245.29	2418.65
245.51	2365.40
245.72	2482.14
245.94	2531.29
246.16	2381.79
246.38	2406.36
246.59	2389.98
246.81	2414.56
247.03	2291.68
247.24	2252.77
247.46	2408.41
247.68	2502.62
247.90	2277.34
248.11	2353.12
248.33	2572.25
248.55	2426.84
248.77	2398.17
248.98	2437.08
249.20	2756.57
249.42	2357.21
249.64	2324.44
249.85	2435.03
250.07	2367.45
250.29	2564.06
250.50	2392.03
250.72	2183.13
250.94	2531.29
251.16	2748.37
251.37	2389.98
251.59	2441.18
251.81	2521.05
252.02	2688.98
252.24	2326.49
252.46	2443.23
252.68	2359.26
252.89	2394.08
253.11	2193.37
253.33	2473.95
253.54	2625.50
253.76	2289.63
253.98	2344.92
254.20	2316.25
254.41	2357.21
254.63	2430.94
254.85	2265.05
255.06	2394.08
255.28	2514.91
255.50	2441.18
255.71	2349.02
255.93	2275.29
256.15	2439.13
256.36	2527.19
256.58	2287.58
256.80	2379.74
257.02	2455.51
257.23	2457.56
257.45	2371.55
257.67	2406.36
257.88	2461.66
258.10	2512.86
258.32	2308.06
258.53	2367.45
258.75	2721.75
258.97	2387.93
259.18	2283.49
259.40	2215.90
259.62	2676.70
259.83	2695.13
260.05	2387.93
260.27	2867.16
260.48	2519.00
260.70	2389.98
260.92	2291.68
261.13	2363.36
261.35	2551.77
261.57	2576.34
261.78	2185.18
262.00	2369.50
262.22	2506.71
262.43	2406.36
262.65	2392.03
262.86	2369.50
263.08	2785.24
263.30	2516.95
263.51	2170.85
263.73	2260.96
263.95	2701.27
264.16	2361.31
264.38	2246.62
264.60	2299.87
264.81	2432.99
265.03	2543.58
265.25	2502.62
265.46	2326.49
265.68	2645.98
265.89	2594.78
266.11	2340.83
266.33	2310.11
266.54	2590.68
266.76	2541.53
266.98	2514.91
267.19	2576.34
267.41	2615.26
267.62	2441.18
267.84	2162.66
268.06	2408.41
268.27	2510.81
268.49	2635.74
268.70	2418.65
268.92	2439.13
269.14	2398.17
269.35	2256.86
269.57	2322.40
269.79	2426.84
270.00	2392.03
270.22	2682.84
270.43	2269.15
270.65	2199.52
270.87	2473.95
271.08	2631.64
271.30	2385.88
271.51	2400.22
271.73	2551.77
271.95	2658.26
272.16	2342.88
272.38	2392.03
272.59	2412.51
272.81	2527.19
273.02	2392.03
273.24	2400.22
273.46	2613.21
273.67	2361.31
273.89	2281.44
274.10	2359.26
274.32	2611.16
274.54	2512.86
274.75	2351.07
274.97	2471.90
275.18	2570.20
275.40	2486.23
275.61	2406.36
275.83	2463.71
276.05	2291.68
276.26	2473.95
276.48	2418.65
276.69	2396.12
276.91	2432.99
277.12	2650.07
277.34	2467.80
277.55	2580.44
277.77	2471.90
277.99	2404.32
278.20	2396.12
278.42	2318.30
278.63	2342.88
278.85	2404.32
279.06	2398.17
279.28	2471.90
279.49	2580.44
279.71	2564.06
279.93	2447.32
280.14	2389.98
280.36	2400.22
280.57	2654.17
280.79	2494.43
281.00	2443.23
281.22	2441.18
281.43	2574.30
281.65	2220.00
281.86	2316.25
282.08	2551.77
282.29	2768.85
282.51	2332.64
282.73	2328.54
282.94	2349.02
283.16	2555.86
283.37	2545.63
283.59	2422.75
283.80	2519.00
284.02	2453.47
284.23	2490.33
284.45	2437.08
284.66	2351.07
284.88	2430.94
285.09	2475.99
285.31	2447.32
285.52	2519.00
285.74	2244.57
285.95	2572.25
286.17	2426.84
286.38	2629.59
286.60	2394.08
286.81	2379.74
287.03	2379.74
287.24	2512.86
287.46	2568.15
287.67	2490.33
287.89	2650.07
288.10	2412.51
288.32	2463.71
288.53	2580.44
288.75	2422.75
288.96	2580.44
289.18	2447.32
289.39	2365.40
289.61	2478.04
289.82	2645.98
290.04	2686.94
290.25	2265.05
290.47	2478.04
290.68	2424.80
290.90	2656.22
291.11	2314.20
291.33	2500.57
291.54	2357.21
291.76	2402.27
291.97	2445.27
292.18	2559.96
292.40	2482.14
292.61	2402.27
292.83	2684.89
293.04	2490.33
293.26	2494.43
293.47	2490.33
293.69	2369.50
293.90	2301.92
294.12	2609.11
294.33	2496.47
294.55	2459.61
294.76	2521.05
294.97	2613.21
295.19	2717.65
295.40	2465.75
295.62	2473.95
295.83	2590.68
296.05	2344.92
296.26	2562.01
296.48	2369.50
296.69	2465.75
296.90	2453.47
297.12	2537.43
297.33	2549.72
297.55	2514.91
297.76	2490.33
297.98	2504.67
298.19	2441.18
298.41	2414.56
298.62	2349.02
298.83	2555.86
299.05	2535.39
299.26	2418.65
299.48	2346.97
299.69	2523.10
299.90	2408.41
300.12	2316.25
300.33	2529.24
300.55	2379.74
300.76	2488.28
300.98	2324.44
301.19	2615.26
301.40	2408.41
301.62	2435.03
301.83	2457.56
302.05	2461.66
302.26	2367.45
302.47	2449.37
302.69	2373.60
302.90	2488.28
303.12	2228.19
303.33	2437.08
303.54	2789.33
303.76	2449.37
303.97	2480.09
304.19	2596.82
304.40	2402.27
304.61	2592.73
304.83	2625.50
305.04	2551.77
305.26	2643.93
305.47	2475.99
305.68	2389.98
305.90	2312.16
306.11	2660.31
306.33	2482.14
306.54	2318.30
306.75	2359.26
306.97	2353.12
307.18	2500.57
307.39	2357.21
307.61	2478.04
307.82	2449.37
308.04	2502.62
308.25	2359.26
308.46	2498.52
308.68	2457.56
308.89	2533.34
309.10	2510.81
309.32	2490.33
309.53	2506.71
309.74	2547.67
309.96	2359.26
310.17	2582.49
310.39	2469.85
310.60	2508.76
310.81	2449.37
311.03	2295.77
311.24	2592.73
311.45	2465.75
311.67	2633.69
311.88	2539.48
312.09	2494.43
312.31	2439.13
312.52	2400.22
312.73	2432.99
312.95	2322.40
313.16	2420.70
313.37	2539.48
313.59	2471.90
313.80	2611.16
314.01	2578.39
314.23	2365.40
314.44	2404.32
314.65	2367.45
314.87	2385.88
315.08	2371.55
315.29	2357.21
315.51	2351.07
315.72	2312.16
315.93	2586.58
316.15	2543.58
316.36	2394.08
316.57	2527.19
316.79	2398.17
317.00	2418.65
317.21	2547.67
317.43	2465.75
317.64	2398.17
317.85	2387.93
318.07	2355.16
318.28	2426.84
318.49	2531.29
318.70	2752.47
318.92	2688.98
319.13	2664.41
319.34	2621.40
319.56	2598.87
319.77	2615.26
319.98	2572.25
320.20	2648.02
320.41	2553.82
320.62	2588.63
320.83	2392.03
321.05	2639.83
321.26	2484.19
321.47	2539.48
321.69	2617.30
321.90	2228.19
322.11	2381.79
322.32	2506.71
322.54	2672.60
322.75	2334.68
322.96	2838.48
323.18	2357.21
323.39	2263.01
323.60	2285.53
323.81	2504.67
324.03	2482.14
324.24	2402.27
324.45	2422.75
324.66	2359.26
324.88	2594.78
325.09	2643.93
325.30	2396.12
325.52	2389.98
325.73	2486.23
325.94	2326.49
326.15	2297.82
326.37	2318.30
326.58	2576.34
326.79	2684.89
327.00	2473.95
327.22	2451.42
327.43	2383.84
327.64	2381.79
327.85	2469.85
328.07	2422.75
328.28	2727.89
328.49	2439.13
328.70	2373.60
328.92	2379.74
329.13	2486.23
329.34	2521.05
329.55	2580.44
329.76	2519.00
329.98	2408.41
330.19	2631.64
330.40	2467.80
330.61	2426.84
330.83	2564.06
331.04	2389.98
331.25	2406.36
331.46	2502.62
331.68	2326.49
331.89	2592.73
332.10	2437.08
332.31	2242.53
332.52	2471.90
332.74	2623.45
332.95	2267.10
333.16	2400.22
333.37	2555.86
333.58	2463.71
333.80	2414.56
334.01	2250.72
334.22	2412.51
334.43	2437.08
334.64	2402.27
334.86	2293.72
335.07	2363.36
335.28	2621.40
335.49	2318.30
335.70	2535.39
335.92	2633.69
336.13	2715.61
336.34	2514.91
336.55	2469.85
336.76	2529.24
336.98	2369.50
337.19	2455.51
337.40	2572.25
337.61	2789.33
337.82	2437.08
338.04	2570.20
338.25	2334.68
338.46	2471.90
338.67	2346.97
338.88	2383.84
339.09	2293.72
339.31	2432.99
339.52	2375.64
339.73	2252.77
339.94	2426.84
340.15	2500.57
340.36	2375.64
340.58	2529.24
340.79	2330.59
341.00	2639.83
341.21	2385.88
341.42	2588.63
341.63	2389.98
341.85	2562.01
342.06	2508.76
342.27	2349.02
342.48	2473.95
342.69	2277.34
342.90	2486.23
343.12	2588.63
343.33	2355.16
343.54	2613.21
343.75	2594.78
343.96	2432.99
344.17	2377.69
344.38	2523.10
344.60	2349.02
344.81	2396.12
345.02	2475.99
345.23	2658.26
345.44	2723.80
345.65	2516.95
345.86	2549.72
346.07	2521.05
346.29	2422.75
346.50	2545.63
346.71	2541.53
346.92	2611.16
347.13	2781.14
347.34	2480.09
347.55	2342.88
347.76	2504.67
347.98	2265.05
348.19	2467.80
348.40	2533.34
348.61	2475.99
348.82	2760.66
349.03	2480.09
349.24	2330.59
349.45	2760.66
349.66	2185.18
349.88	2414.56
350.09	2404.32
350.30	2625.50
350.51	2588.63
350.72	2455.51
350.93	2430.94
351.14	2416.60
351.35	2564.06
351.56	2398.17
351.77	2480.09
351.99	2555.86
352.20	2664.41
352.41	2484.19
352.62	2312.16
352.83	2424.80
353.04	2475.99
353.25	2363.36
353.46	2469.85
353.67	2566.10
353.88	2242.53
354.09	2441.18
354.30	2387.93
354.52	2547.67
354.73	2484.19
354.94	2416.60
355.15	2445.27
355.36	2709.46
355.57	2373.60
355.78	2480.09
355.99	2422.75
356.20	2482.14
356.41	2629.59
356.62	2529.24
356.83	2467.80
357.04	2654.17
357.25	2340.83
357.46	2449.37
357.68	2287.58
357.89	2387.93
358.10	2473.95
358.31	2396.12
358.52	2334.68
358.73	2420.70
358.94	2340.83
359.15	2416.60
359.36	2570.20
359.57	2521.05
359.78	2504.67
359.99	2500.57
360.20	2344.92
360.41	2439.13
360.62	2588.63
360.83	2475.99
361.04	2471.90
361.25	2555.86
361.46	2629.59
361.67	2512.86
361.88	2435.03
362.09	2592.73
362.30	2559.96
362.51	2375.64
362.72	2406.36
362.93	2670.55
363.14	2555.86
363.35	2426.84
363.56	2383.84
363.78	2607.06
363.99	2586.58
364.20	2424.80
364.41	2490.33
364.62	2650.07
364.83	2523.10
365.04	2412.51
365.25	2432.99
365.46	2723.80
365.67	2361.31
365.88	2482.14
366.09	2396.12
366.30	2508.76
366.51	2498.52
366.72	2320.35
366.93	2371.55
367.14	2559.96
367.35	2594.78
367.56	2447.32
367.77	2523.10
367.98	2490.33
368.18	2523.10
368.39	2572.25
368.60	2306.01
368.81	2605.02
369.02	2588.63
369.23	2422.75
369.44	2314.20
369.65	2410.46
369.86	2551.77
370.07	2486.23
370.28	2422.75
370.49	2596.82
370.70	2555.86
370.91	2267.10
371.12	2301.92
371.33	2643.93
371.54	2437.08
371.75	2588.63
371.96	2152.42
372.17	2512.86
372.38	2437.08
372.59	2506.71
372.80	2408.41
373.01	2387.93
373.22	2459.61
373.43	2441.18
373.64	2322.40
373.85	2539.48
374.06	2637.78
374.26	2596.82
374.47	2482.14
374.68	2641.88
374.89	2514.91
375.10	2447.32
375.31	2543.58
375.52	2535.39
375.73	2514.91
375.94	2324.44
376.15	2543.58
376.36	2314.20
376.57	2404.32
376.78	2463.71
376.99	2437.08
377.20	2643.93
377.40	2394.08
377.61	2662.36
377.82	2301.92
378.03	2727.89
378.24	2572.25
378.45	2498.52
378.66	2490.33
378.87	2291.68
379.08	2330.59
379.29	2437.08
379.50	2514.91
379.71	2383.84
379.91	2541.53
380.12	2420.70
380.33	2416.60
380.54	2504.67
380.75	2439.13
380.96	2453.47
381.17	2521.05
381.38	2451.42
381.59	2576.34
381.80	2424.80
382.00	2699.22
382.21	2553.82
382.42	2729.94
382.63	2801.62
382.84	2531.29
383.05	2625.50
383.26	2674.65
383.47	2441.18
383.68	2529.24
383.88	2574.30
384.09	2496.47
384.30	2588.63
384.51	2514.91
384.72	2326.49
384.93	2367.45
385.14	2478.04
385.35	2514.91
385.55	2334.68
385.76	2592.73
385.97	2469.85
386.18	2334.68
386.39	2369.50
386.60	2392.03
386.81	2371.55
387.02	2377.69
387.22	2416.60
387.43	2605.02
387.64	2506.71
387.85	2619.35
388.06	2582.49
388.27	4034.50
388.48	8195.97
388.68	12037.96
388.89	14421.80
389.10	15544.08
389.31	14634.78
389.52	11485.01
389.73	9906.02
389.93	9170.80
390.14	8273.79
390.35	7387.02
390.56	6651.80
390.77	5486.51
390.98	4091.84
391.18	3442.64
391.39	3008.47
391.60	2568.15
391.81	2699.22
392.02	2443.23
392.23	2815.96
392.43	2482.14
392.64	2645.98
392.85	2443.23
393.06	2713.56
393.27	2465.75
393.47	2404.32
393.68	2404.32
393.89	2463.71
394.10	2705.37
394.31	2383.84
394.52	2402.27
394.72	2424.80
394.93	2717.65
395.14	2414.56
395.35	2545.63
395.56	2451.42
395.76	2516.95
395.97	2480.09
396.18	2594.78
396.39	2605.02
396.60	3006.42
396.80	2725.85
397.01	2721.75
397.22	2699.22
397.43	2723.80
397.64	2392.03
397.84	2566.10
398.05	2768.85
398.26	2564.06
398.47	2531.29
398.67	2613.21
398.88	2455.51
399.09	2607.06
399.30	2461.66
399.51	2496.47
399.71	2336.73
399.92	2500.57
400.13	2432.99
400.34	2381.79
400.54	2547.67
400.75	2729.94
400.96	2463.71
401.17	2631.64
401.37	2559.96
401.58	2473.95
401.79	2457.56
402.00	2635.74
402.21	2826.20
402.41	2770.90
402.62	2785.24
402.83	2856.92
403.04	2961.36
403.24	3104.72
403.45	2602.97
403.66	2836.44
403.87	2707.41
404.07	2828.24
404.28	2731.99
404.49	2719.70
404.70	2562.01
404.90	2637.78
405.11	2432.99
405.32	2625.50
405.52	2453.47
405.73	2449.37
405.94	2414.56
406.15	2443.23
406.35	2596.82
406.56	2564.06
406.77	2490.33
406.98	2553.82
407.18	2385.88
407.39	2711.51
407.60	2439.13
407.80	2533.34
408.01	2408.41
408.22	2496.47
408.43	2359.26
408.63	2506.71
408.84	2559.96
409.05	2588.63
409.25	2340.83
409.46	2412.51
409.67	2461.66
409.88	2420.70
410.08	2510.81
410.29	2465.75
410.50	2590.68
410.70	2541.53
410.91	2291.68
411.12	2486.23
411.32	2506.71
411.53	2432.99
411.74	2568.15
411.95	2555.86
412.15	2586.58
412.36	2617.30
412.57	2568.15
412.77	2654.17
412.98	2519.00
413.19	2457.56
413.39	2457.56
413.60	2467.80
413.81	2678.74
414.01	2408.41
414.22	2490.33
414.43	2539.48
414.63	2439.13
414.84	2662.36
415.05	2494.43
415.25	2318.30
415.46	2547.67
415.67	2447.32
415.87	2514.91
416.08	2486.23
416.29	2447.32
416.49	2578.39
416.70	2428.89
416.91	2432.99
417.11	2492.38
417.32	2662.36
417.53	2568.15
417.73	2539.48
417.94	2543.58
418.15	2465.75
418.35	2428.89
418.56	2428.89
418.77	2770.90
418.97	2514.91
419.18	2455.51
419.38	2213.85
419.59	2494.43
419.80	2617.30
420.00	2482.14
420.21	2336.73
420.42	2662.36
420.62	2570.20
420.83	2349.02
421.04	2473.95
421.24	2404.32
421.45	2594.78
421.65	2453.47
421.86	2369.50
422.07	2553.82
422.27	2525.15
422.48	2408.41
422.69	2371.55
422.89	2451.42
423.10	2410.46
423.30	2367.45
423.51	2461.66
423.72	2588.63
423.92	2586.58
424.13	2318.30
424.33	2541.53
424.54	2609.11
424.75	2443.23
424.95	2695.13
425.16	2400.22
425.36	2475.99
425.57	2701.27
425.78	2512.86
425.98	2519.00
426.19	2508.76
426.39	2449.37
426.60	2428.89
426.81	2639.83
427.01	2572.25
427.22	2400.22
427.42	2318.30
427.63	2408.41
427.83	2553.82
428.04	2619.35
428.25	2506.71
428.45	2600.92
428.66	2584.54
428.86	2559.96
429.07	2449.37
429.28	2426.84
429.48	2553.82
429.69	2402.27
429.89	2527.19
430.10	2318.30
430.30	2461.66
430.51	2635.74
430.71	2316.25
430.92	2439.13
431.13	2486.23
431.33	2531.29
431.54	2441.18
431.74	2551.77
431.95	2764.76
432.15	2353.12
432.36	2441.18
432.56	2445.27
432.77	2754.52
432.98	2670.55
433.18	2465.75
433.39	2453.47
433.59	2453.47
433.80	2746.33
434.00	2611.16
434.21	2461.66
434.41	2385.88
434.62	2717.65
434.82	2367.45
435.03	2346.97
435.23	2568.15
435.44	2236.38
435.64	2480.09
435.85	2500.57
436.06	2619.35
436.26	2629.59
436.47	2416.60
436.67	2398.17
436.88	2432.99
437.08	2570.20
437.29	2627.54
437.49	2555.86
437.70	2637.78
437.90	2541.53
438.11	2627.54
438.31	2508.76
438.52	2645.98
438.72	2672.60
438.93	2760.66
439.13	2469.85
439.34	2742.23
439.54	2559.96
439.75	2627.54
439.95	2570.20
440.16	2457.56
440.36	2525.15
440.57	2465.75
440.77	2463.71
440.98	2516.95
441.18	2523.10
441.39	2398.17
441.59	2422.75
441.80	2711.51
442.00	2473.95
442.21	2559.96
442.41	2289.63
442.62	2590.68
442.82	2396.12
443.02	2490.33
443.23	2414.56
443.43	2447.32
443.64	2686.94
443.84	2392.03
444.05	2570.20
444.25	2527.19
444.46	2559.96
444.66	2392.03
444.87	2686.94
445.07	2375.64
445.28	2523.10
445.48	2578.39
445.69	2611.16
445.89	2795.48
446.09	2541.53
446.30	2727.89
446.50	2918.36
446.71	4472.76
446.91	5724.07
447.12	6590.36
447.32	7040.92
447.53	6633.37
447.73	5492.65
447.93	4739.00
448.14	4413.37
448.34	4358.08
448.55	3805.13
448.75	3833.80
448.96	3559.37
449.16	3235.79
449.36	3010.51
449.57	2758.61
449.77	2572.25
449.98	2340.83
450.18	2512.86
450.39	2557.91
450.59	2529.24
450.79	2551.77
451.00	2422.75
451.20	2605.02
451.41	2412.51
451.61	2512.86
451.81	2551.77
452.02	2432.99
452.22	2439.13
452.43	2410.46
452.63	2412.51
