SpectraSuite Data File
++++++++++++++++++++++++++++++++++++
Date: Thu May 05 14:41:46 CEST 2016
User: root
Dark Spectrum Present: No
Reference Spectrum Present: No
Number of Sampled Component Spectra: 1
Spectrometers: USB4C02835
Integration Time (usec): 100000 (USB4C02835)
Spectra Averaged: 1 (USB4C02835)
Boxcar Smoothing: 0 (USB4C02835)
Correct for Electrical Dark: No (USB4C02835)
Strobe/Lamp Enabled: No (USB4C02835)
Correct for Detector Non-linearity: No (USB4C02835)
Correct for Stray Light: No (USB4C02835)
Number of Pixels in Processed Spectrum: 3648
>>>>>Begin Processed Spectral Data<<<<<
177.47	1908.71
177.69	1908.71
177.91	1908.71
178.13	1886.18
178.36	1902.56
178.58	2396.12
178.80	2514.91
179.02	2285.53
179.24	2365.40
179.46	2273.25
179.68	2398.17
179.90	2410.46
180.13	2590.68
180.35	2234.33
180.57	2283.49
180.79	2588.63
181.01	2508.76
181.23	2379.74
181.45	2484.19
181.67	2516.95
181.90	2539.48
182.12	2404.32
182.34	2260.96
182.56	2547.67
182.78	2453.47
183.00	2326.49
183.22	2389.98
183.44	2287.58
183.66	2785.24
183.89	2447.32
184.11	2494.43
184.33	2611.16
184.55	2660.31
184.77	2283.49
184.99	2340.83
185.21	2437.08
185.43	2793.43
185.65	2275.29
185.87	2332.64
186.10	2750.42
186.32	2711.51
186.54	2506.71
186.76	2408.41
186.98	2609.11
187.20	2471.90
187.42	2310.11
187.64	2355.16
187.86	2521.05
188.08	2605.02
188.30	2306.01
188.52	2326.49
188.75	2658.26
188.97	2590.68
189.19	2287.58
189.41	2306.01
189.63	2562.01
189.85	2445.27
190.07	2301.92
190.29	2209.76
190.51	2521.05
190.73	2420.70
190.95	2478.04
191.17	2342.88
191.39	2301.92
191.61	2432.99
191.84	2318.30
192.06	2449.37
192.28	2312.16
192.50	2916.31
192.72	2453.47
192.94	2365.40
193.16	2609.11
193.38	2449.37
193.60	2220.00
193.82	2457.56
194.04	2578.39
194.26	2437.08
194.48	2367.45
194.70	2332.64
194.92	2463.71
195.14	2494.43
195.36	2408.41
195.58	2402.27
195.80	2416.60
196.02	2351.07
196.24	2293.72
196.46	2432.99
196.69	2441.18
196.91	2752.47
197.13	2406.36
197.35	2367.45
197.57	2619.35
197.79	2484.19
198.01	2432.99
198.23	2396.12
198.45	2508.76
198.67	2346.97
198.89	2301.92
199.11	2424.80
199.33	2430.94
199.55	2170.85
199.77	2265.05
199.99	2447.32
200.21	2455.51
200.43	2609.11
200.65	2236.38
200.87	2228.19
201.09	2480.09
201.31	2426.84
201.53	2367.45
201.75	2439.13
201.97	2592.73
202.19	2582.49
202.41	2486.23
202.63	2566.10
202.85	2545.63
203.07	2531.29
203.29	2357.21
203.51	2263.01
203.73	2398.17
203.95	2785.24
204.17	2394.08
204.39	2465.75
204.61	2439.13
204.83	2420.70
205.05	2482.14
205.27	2418.65
205.49	2818.00
205.71	2465.75
205.93	2258.91
206.15	2326.49
206.37	2510.81
206.59	2496.47
206.81	2248.67
207.03	2269.15
207.25	2412.51
207.47	2564.06
207.69	2373.60
207.91	2514.91
208.13	2580.44
208.34	2412.51
208.56	2318.30
208.78	2408.41
209.00	2430.94
209.22	2437.08
209.44	2273.25
209.66	2336.73
209.88	2465.75
210.10	2428.89
210.32	2316.25
210.54	2435.03
210.76	2424.80
210.98	2514.91
211.20	2205.66
211.42	2484.19
211.64	2594.78
211.86	2547.67
212.08	2379.74
212.30	2357.21
212.52	2371.55
212.74	2588.63
212.96	2418.65
213.17	2351.07
213.39	2543.58
213.61	2648.02
213.83	2338.78
214.05	2447.32
214.27	2592.73
214.49	2351.07
214.71	2289.63
214.93	2428.89
215.15	2478.04
215.37	2527.19
215.59	2238.43
215.81	2355.16
216.03	2590.68
216.24	2478.04
216.46	2375.64
216.68	2373.60
216.90	2590.68
217.12	2529.24
217.34	2410.46
217.56	2467.80
217.78	2564.06
218.00	2473.95
218.22	2367.45
218.44	2396.12
218.66	2516.95
218.87	2748.37
219.09	2346.97
219.31	2303.96
219.53	2488.28
219.75	2408.41
219.97	2426.84
220.19	2306.01
220.41	2525.15
220.63	2662.36
220.85	2260.96
221.06	2306.01
221.28	2625.50
221.50	2580.44
221.72	2336.73
221.94	2252.77
222.16	2455.51
222.38	2605.02
222.60	2349.02
222.82	2308.06
223.03	2533.34
223.25	2293.72
223.47	2340.83
223.69	2547.67
223.91	2584.54
224.13	2508.76
224.35	2306.01
224.57	2514.91
224.78	2504.67
225.00	2400.22
225.22	2414.56
225.44	2342.88
225.66	2553.82
225.88	2361.31
226.10	2432.99
226.32	2437.08
226.53	2664.41
226.75	2428.89
226.97	2371.55
227.19	2392.03
227.41	2353.12
227.63	2514.91
227.85	2185.18
228.06	2365.40
228.28	2564.06
228.50	2545.63
228.72	2226.14
228.94	2357.21
229.16	2285.53
229.37	2291.68
229.59	2326.49
229.81	2504.67
230.03	2435.03
230.25	2301.92
230.47	2275.29
230.69	2269.15
230.90	2527.19
231.12	2373.60
231.34	2441.18
231.56	2408.41
231.78	2357.21
232.00	2465.75
232.21	2349.02
232.43	2392.03
232.65	2299.87
232.87	2613.21
233.09	2281.44
233.30	2293.72
233.52	2586.58
233.74	2367.45
233.96	2316.25
234.18	2424.80
234.40	2496.47
234.61	2752.47
234.83	2293.72
235.05	2291.68
235.27	2785.24
235.49	2574.30
235.70	2291.68
235.92	2467.80
236.14	2590.68
236.36	2867.16
236.58	2254.81
236.79	2310.11
237.01	2389.98
237.23	2432.99
237.45	2469.85
237.67	2404.32
237.88	2545.63
238.10	2662.36
238.32	2252.77
238.54	2277.34
238.76	2502.62
238.97	2383.84
239.19	2285.53
239.41	2461.66
239.63	2580.44
239.85	2361.31
240.06	2363.36
240.28	2342.88
240.50	2584.54
240.72	2449.37
240.93	2281.44
241.15	2484.19
241.37	2439.13
241.59	2605.02
241.81	2408.41
242.02	2289.63
242.24	2553.82
242.46	2541.53
242.68	2215.90
242.89	2299.87
243.11	2531.29
243.33	2496.47
243.55	2357.21
243.76	2359.26
243.98	2357.21
244.20	2455.51
244.42	2318.30
244.64	2351.07
244.85	2275.29
245.07	2402.27
245.29	2381.79
245.51	2408.41
245.72	2539.48
245.94	2600.92
246.16	2430.94
246.38	2367.45
246.59	2383.84
246.81	2418.65
247.03	2330.59
247.24	2232.29
247.46	2439.13
247.68	2447.32
247.90	2301.92
248.11	2392.03
248.33	2494.43
248.55	2432.99
248.77	2392.03
248.98	2439.13
249.20	2645.98
249.42	2494.43
249.64	2342.88
249.85	2367.45
250.07	2359.26
250.29	2578.39
250.50	2428.89
250.72	2318.30
250.94	2488.28
251.16	2721.75
251.37	2363.36
251.59	2385.88
251.81	2514.91
252.02	2582.49
252.24	2310.11
252.46	2529.24
252.68	2402.27
252.89	2437.08
253.11	2195.42
253.33	2414.56
253.54	2602.97
253.76	2398.17
253.98	2320.35
254.20	2287.58
254.41	2306.01
254.63	2424.80
254.85	2332.64
255.06	2383.84
255.28	2523.10
255.50	2420.70
255.71	2373.60
255.93	2211.81
256.15	2457.56
256.36	2611.16
256.58	2336.73
256.80	2359.26
257.02	2469.85
257.23	2420.70
257.45	2463.71
257.67	2449.37
257.88	2400.22
258.10	2527.19
258.32	2344.92
258.53	2441.18
258.75	2711.51
258.97	2435.03
259.18	2338.78
259.40	2396.12
259.62	2633.69
259.83	2695.13
260.05	2410.46
260.27	2867.16
260.48	2588.63
260.70	2414.56
260.92	2295.77
261.13	2357.21
261.35	2432.99
261.57	2523.10
261.78	2248.67
262.00	2260.96
262.22	2564.06
262.43	2435.03
262.65	2408.41
262.86	2404.32
263.08	2725.85
263.30	2516.95
263.51	2176.99
263.73	2340.83
263.95	2717.65
264.16	2349.02
264.38	2256.86
264.60	2338.78
264.81	2490.33
265.03	2686.94
265.25	2525.15
265.46	2281.44
265.68	2637.78
265.89	2570.20
266.11	2252.77
266.33	2385.88
266.54	2541.53
266.76	2506.71
266.98	2486.23
267.19	2439.13
267.41	2594.78
267.62	2498.52
267.84	2191.33
268.06	2363.36
268.27	2482.14
268.49	2607.06
268.70	2410.46
268.92	2381.79
269.14	2369.50
269.35	2330.59
269.57	2406.36
269.79	2469.85
270.00	2361.31
270.22	2662.36
270.43	2234.33
270.65	2193.37
270.87	2502.62
271.08	2523.10
271.30	2402.27
271.51	2402.27
271.73	2570.20
271.95	2654.17
272.16	2324.44
272.38	2453.47
272.59	2424.80
272.81	2598.87
273.02	2342.88
273.24	2414.56
273.46	2629.59
273.67	2324.44
273.89	2258.91
274.10	2277.34
274.32	2607.06
274.54	2463.71
274.75	2400.22
274.97	2392.03
275.18	2539.48
275.40	2559.96
275.61	2336.73
275.83	2488.28
276.05	2359.26
276.26	2457.56
276.48	2451.42
276.69	2441.18
276.91	2463.71
277.12	2666.46
277.34	2529.24
277.55	2529.24
277.77	2541.53
277.99	2392.03
278.20	2283.49
278.42	2297.82
278.63	2359.26
278.85	2469.85
279.06	2396.12
279.28	2459.61
279.49	2676.70
279.71	2555.86
279.93	2482.14
280.14	2451.42
280.36	2375.64
280.57	2574.30
280.79	2486.23
281.00	2338.78
281.22	2375.64
281.43	2641.88
281.65	2242.53
281.86	2338.78
282.08	2549.72
282.29	2691.03
282.51	2310.11
282.73	2346.97
282.94	2301.92
283.16	2514.91
283.37	2582.49
283.59	2439.13
283.80	2562.01
284.02	2510.81
284.23	2486.23
284.45	2453.47
284.66	2346.97
284.88	2381.79
285.09	2420.70
285.31	2473.95
285.52	2506.71
285.74	2330.59
285.95	2555.86
286.17	2416.60
286.38	2545.63
286.60	2437.08
286.81	2414.56
287.03	2365.40
287.24	2502.62
287.46	2555.86
287.67	2488.28
287.89	2582.49
288.10	2449.37
288.32	2529.24
288.53	2641.88
288.75	2314.20
288.96	2539.48
289.18	2492.38
289.39	2394.08
289.61	2437.08
289.82	2783.19
290.04	2711.51
290.25	2301.92
290.47	2400.22
290.68	2478.04
290.90	2574.30
291.11	2291.68
291.33	2471.90
291.54	2398.17
291.76	2367.45
291.97	2441.18
292.18	2514.91
292.40	2365.40
292.61	2447.32
292.83	2674.65
293.04	2506.71
293.26	2596.82
293.47	2480.09
293.69	2326.49
293.90	2420.70
294.12	2662.36
294.33	2465.75
294.55	2496.47
294.76	2551.77
294.97	2600.92
295.19	2818.00
295.40	2340.83
295.62	2451.42
295.83	2564.06
296.05	2377.69
296.26	2615.26
296.48	2416.60
296.69	2441.18
296.90	2402.27
297.12	2627.54
297.33	2643.93
297.55	2551.77
297.76	2557.91
297.98	2600.92
298.19	2478.04
298.41	2457.56
298.62	2402.27
298.83	2588.63
299.05	2508.76
299.26	2406.36
299.48	2383.84
299.69	2381.79
299.90	2392.03
300.12	2383.84
300.33	2512.86
300.55	2443.23
300.76	2482.14
300.98	2344.92
301.19	2613.21
301.40	2371.55
301.62	2371.55
301.83	2529.24
302.05	2461.66
302.26	2408.41
302.47	2412.51
302.69	2379.74
302.90	2574.30
303.12	2269.15
303.33	2519.00
303.54	2777.05
303.76	2441.18
303.97	2424.80
304.19	2547.67
304.40	2424.80
304.61	2633.69
304.83	2609.11
305.04	2521.05
305.26	2580.44
305.47	2490.33
305.68	2486.23
305.90	2355.16
306.11	2615.26
306.33	2455.51
306.54	2389.98
306.75	2308.06
306.97	2289.63
307.18	2342.88
307.39	2416.60
307.61	2516.95
307.82	2535.39
308.04	2525.15
308.25	2349.02
308.46	2473.95
308.68	2392.03
308.89	2387.93
309.10	2568.15
309.32	2445.27
309.53	2439.13
309.74	2500.57
309.96	2416.60
310.17	2529.24
310.39	2478.04
310.60	2555.86
310.81	2445.27
311.03	2326.49
311.24	2521.05
311.45	2457.56
311.67	2609.11
311.88	2488.28
312.09	2389.98
312.31	2375.64
312.52	2451.42
312.73	2406.36
312.95	2318.30
313.16	2447.32
313.37	2504.67
313.59	2508.76
313.80	2535.39
314.01	2654.17
314.23	2473.95
314.44	2316.25
314.65	2351.07
314.87	2334.68
315.08	2406.36
315.29	2412.51
315.51	2365.40
315.72	2398.17
315.93	2539.48
316.15	2471.90
316.36	2469.85
316.57	2398.17
316.79	2486.23
317.00	2416.60
317.21	2543.58
317.43	2404.32
317.64	2449.37
317.85	2361.31
318.07	2404.32
318.28	2457.56
318.49	2580.44
318.70	2797.53
318.92	2596.82
319.13	2633.69
319.34	2654.17
319.56	2445.27
319.77	2576.34
319.98	2621.40
320.20	2531.29
320.41	2586.58
320.62	2619.35
320.83	2381.79
321.05	2668.50
321.26	2447.32
321.47	2506.71
321.69	2551.77
321.90	2318.30
322.11	2328.54
322.32	2502.62
322.54	2637.78
322.75	2365.40
322.96	2955.22
323.18	2301.92
323.39	2318.30
323.60	2357.21
323.81	2432.99
324.03	2330.59
324.24	2445.27
324.45	2432.99
324.66	2342.88
324.88	2613.21
325.09	2697.17
325.30	2496.47
325.52	2338.78
325.73	2465.75
325.94	2326.49
326.15	2183.13
326.37	2297.82
326.58	2635.74
326.79	2736.09
327.00	2346.97
327.22	2463.71
327.43	2463.71
327.64	2420.70
327.85	2457.56
328.07	2506.71
328.28	2727.89
328.49	2430.94
328.70	2400.22
328.92	2430.94
329.13	2496.47
329.34	2514.91
329.55	2625.50
329.76	2482.14
329.98	2445.27
330.19	2617.30
330.40	2580.44
330.61	2486.23
330.83	2553.82
331.04	2328.54
331.25	2453.47
331.46	2383.84
331.68	2334.68
331.89	2617.30
332.10	2420.70
332.31	2287.58
332.52	2394.08
332.74	2584.54
332.95	2215.90
333.16	2336.73
333.37	2578.39
333.58	2404.32
333.80	2467.80
334.01	2215.90
334.22	2449.37
334.43	2383.84
334.64	2383.84
334.86	2301.92
335.07	2367.45
335.28	2645.98
335.49	2281.44
335.70	2453.47
335.92	2625.50
336.13	2756.57
336.34	2482.14
336.55	2490.33
336.76	2500.57
336.98	2314.20
337.19	2457.56
337.40	2570.20
337.61	2863.06
337.82	2396.12
338.04	2506.71
338.25	2287.58
338.46	2463.71
338.67	2439.13
338.88	2400.22
339.09	2312.16
339.31	2326.49
339.52	2324.44
339.73	2389.98
339.94	2375.64
340.15	2527.19
340.36	2416.60
340.58	2482.14
340.79	2342.88
341.00	2553.82
341.21	2334.68
341.42	2654.17
341.63	2404.32
341.85	2582.49
342.06	2473.95
342.27	2426.84
342.48	2580.44
342.69	2295.77
342.90	2471.90
343.12	2521.05
343.33	2349.02
343.54	2586.58
343.75	2684.89
343.96	2437.08
344.17	2359.26
344.38	2453.47
344.60	2392.03
344.81	2279.39
345.02	2447.32
345.23	2617.30
345.44	2871.25
345.65	2566.10
345.86	2465.75
346.07	2547.67
346.29	2418.65
346.50	2525.15
346.71	2478.04
346.92	2727.89
347.13	2766.81
347.34	2510.81
347.55	2389.98
347.76	2486.23
347.98	2396.12
348.19	2457.56
348.40	2521.05
348.61	2432.99
348.82	2721.75
349.03	2473.95
349.24	2273.25
349.45	2721.75
349.66	2306.01
349.88	2424.80
350.09	2383.84
350.30	2654.17
350.51	2705.37
350.72	2508.76
350.93	2445.27
351.14	2465.75
351.35	2621.40
351.56	2430.94
351.77	2420.70
351.99	2592.73
352.20	2715.61
352.41	2557.91
352.62	2193.37
352.83	2428.89
353.04	2510.81
353.25	2340.83
353.46	2465.75
353.67	2621.40
353.88	2293.72
354.09	2394.08
354.30	2533.34
354.52	2553.82
354.73	2469.85
354.94	2473.95
355.15	2432.99
355.36	2691.03
355.57	2426.84
355.78	2375.64
355.99	2437.08
356.20	2398.17
356.41	2641.88
356.62	2410.46
356.83	2457.56
357.04	2678.74
357.25	2324.44
357.46	2357.21
357.68	2291.68
357.89	2359.26
358.10	2551.77
358.31	2416.60
358.52	2404.32
358.73	2379.74
358.94	2381.79
359.15	2463.71
359.36	2439.13
359.57	2465.75
359.78	2459.61
359.99	2527.19
360.20	2297.82
360.41	2447.32
360.62	2492.38
360.83	2441.18
361.04	2478.04
361.25	2490.33
361.46	2668.50
361.67	2465.75
361.88	2473.95
362.09	2590.68
362.30	2545.63
362.51	2408.41
362.72	2441.18
362.93	2602.97
363.14	2551.77
363.35	2516.95
363.56	2387.93
363.78	2588.63
363.99	2637.78
364.20	2414.56
364.41	2463.71
364.62	2721.75
364.83	2555.86
365.04	2398.17
365.25	2500.57
365.46	2672.60
365.67	2328.54
365.88	2480.09
366.09	2369.50
366.30	2422.75
366.51	2537.43
366.72	2295.77
366.93	2396.12
367.14	2519.00
367.35	2729.94
367.56	2428.89
367.77	2531.29
367.98	2502.62
368.18	2557.91
368.39	2500.57
368.60	2387.93
368.81	2609.11
369.02	2449.37
369.23	2471.90
369.44	2301.92
369.65	2480.09
369.86	2490.33
370.07	2578.39
370.28	2336.73
370.49	2523.10
370.70	2535.39
370.91	2363.36
371.12	2318.30
371.33	2641.88
371.54	2482.14
371.75	2543.58
371.96	2205.66
372.17	2504.67
372.38	2459.61
372.59	2439.13
372.80	2342.88
373.01	2430.94
373.22	2529.24
373.43	2467.80
373.64	2310.11
373.85	2596.82
374.06	2662.36
374.26	2545.63
374.47	2516.95
374.68	2621.40
374.89	2529.24
375.10	2396.12
375.31	2547.67
375.52	2441.18
375.73	2439.13
375.94	2293.72
376.15	2504.67
376.36	2410.46
376.57	2375.64
376.78	2437.08
376.99	2453.47
377.20	2643.93
377.40	2475.99
377.61	2633.69
377.82	2355.16
378.03	2631.64
378.24	2551.77
378.45	2418.65
378.66	2475.99
378.87	2215.90
379.08	2256.86
379.29	2396.12
379.50	2564.06
379.71	2387.93
379.91	2596.82
380.12	2457.56
380.33	2512.86
380.54	2516.95
380.75	2502.62
380.96	2383.84
381.17	2473.95
381.38	2502.62
381.59	2488.28
381.80	2412.51
382.00	2660.31
382.21	2617.30
382.42	2637.78
382.63	2799.57
382.84	2455.51
383.05	2621.40
383.26	2670.55
383.47	2465.75
383.68	2447.32
383.88	2592.73
384.09	2510.81
384.30	2605.02
384.51	2490.33
384.72	2369.50
384.93	2330.59
385.14	2494.43
385.35	2541.53
385.55	2289.63
385.76	2619.35
385.97	2521.05
386.18	2367.45
386.39	2379.74
386.60	2385.88
386.81	2441.18
387.02	2381.79
387.22	2334.68
387.43	2613.21
387.64	2475.99
387.85	2654.17
388.06	2701.27
388.27	4050.88
388.48	8361.86
388.68	12175.17
388.89	14516.00
389.10	15927.05
389.31	14933.79
389.52	11710.29
389.73	10016.62
389.93	9154.42
390.14	8394.62
390.35	7303.06
390.56	6580.12
390.77	5550.00
390.98	4116.42
391.18	3452.88
391.39	2971.60
391.60	2594.78
391.81	2633.69
392.02	2383.84
392.23	2772.95
392.43	2576.34
392.64	2529.24
392.85	2447.32
393.06	2670.55
393.27	2527.19
393.47	2394.08
393.68	2426.84
393.89	2461.66
394.10	2650.07
394.31	2314.20
394.52	2441.18
394.72	2428.89
394.93	2711.51
395.14	2310.11
395.35	2523.10
395.56	2426.84
395.76	2506.71
395.97	2467.80
396.18	2529.24
396.39	2605.02
396.60	3010.51
396.80	2725.85
397.01	2697.17
397.22	2596.82
397.43	2660.31
397.64	2334.68
397.84	2539.48
398.05	2695.13
398.26	2484.19
398.47	2473.95
398.67	2512.86
398.88	2498.52
399.09	2592.73
399.30	2422.75
399.51	2525.15
399.71	2394.08
399.92	2488.28
400.13	2572.25
400.34	2435.03
400.54	2441.18
400.75	2680.79
400.96	2441.18
401.17	2660.31
401.37	2555.86
401.58	2424.80
401.79	2414.56
402.00	2600.92
402.21	2897.88
402.41	2725.85
402.62	2813.91
402.83	2910.16
403.04	2985.94
403.24	3080.14
403.45	2643.93
403.66	2820.05
403.87	2693.08
404.07	2785.24
404.28	2676.70
404.49	2715.61
404.70	2609.11
404.90	2535.39
405.11	2488.28
405.32	2535.39
405.52	2402.27
405.73	2355.16
405.94	2314.20
406.15	2418.65
406.35	2566.10
406.56	2465.75
406.77	2432.99
406.98	2531.29
407.18	2365.40
407.39	2676.70
407.60	2424.80
407.80	2523.10
408.01	2365.40
408.22	2494.43
408.43	2398.17
408.63	2529.24
408.84	2621.40
409.05	2588.63
409.25	2414.56
409.46	2408.41
409.67	2435.03
409.88	2480.09
410.08	2465.75
410.29	2484.19
410.50	2627.54
410.70	2596.82
410.91	2400.22
411.12	2506.71
411.32	2519.00
411.53	2404.32
411.74	2496.47
411.95	2559.96
412.15	2637.78
412.36	2691.03
412.57	2635.74
412.77	2596.82
412.98	2473.95
413.19	2439.13
413.39	2480.09
413.60	2578.39
413.81	2631.64
414.01	2385.88
414.22	2400.22
414.43	2580.44
414.63	2545.63
414.84	2613.21
415.05	2461.66
415.25	2293.72
415.46	2506.71
415.67	2377.69
415.87	2490.33
416.08	2396.12
416.29	2461.66
416.49	2605.02
416.70	2463.71
416.91	2381.79
417.11	2465.75
417.32	2676.70
417.53	2580.44
417.73	2539.48
417.94	2457.56
418.15	2549.72
418.35	2482.14
418.56	2400.22
418.77	2846.68
418.97	2543.58
419.18	2437.08
419.38	2234.33
419.59	2529.24
419.80	2721.75
420.00	2441.18
420.21	2473.95
420.42	2605.02
420.62	2492.38
420.83	2375.64
421.04	2383.84
421.24	2486.23
421.45	2564.06
421.65	2488.28
421.86	2441.18
422.07	2602.97
422.27	2512.86
422.48	2404.32
422.69	2369.50
422.89	2443.23
423.10	2531.29
423.30	2344.92
423.51	2408.41
423.72	2592.73
423.92	2564.06
424.13	2328.54
424.33	2408.41
424.54	2664.41
424.75	2500.57
424.95	2654.17
425.16	2445.27
425.36	2385.88
425.57	2637.78
425.78	2504.67
425.98	2555.86
426.19	2473.95
426.39	2328.54
426.60	2523.10
426.81	2564.06
427.01	2506.71
427.22	2422.75
427.42	2240.48
427.63	2392.03
427.83	2602.97
428.04	2758.61
428.25	2572.25
428.45	2598.87
428.66	2588.63
428.86	2559.96
429.07	2424.80
429.28	2494.43
429.48	2410.46
429.69	2353.12
429.89	2473.95
430.10	2297.82
430.30	2504.67
430.51	2592.73
430.71	2318.30
430.92	2396.12
431.13	2430.94
431.33	2594.78
431.54	2543.58
431.74	2670.55
431.95	2775.00
432.15	2432.99
432.36	2394.08
432.56	2486.23
432.77	2766.81
432.98	2725.85
433.18	2482.14
433.39	2416.60
433.59	2459.61
433.80	2725.85
434.00	2691.03
434.21	2392.03
434.41	2340.83
434.62	2793.43
434.82	2394.08
435.03	2344.92
435.23	2562.01
435.44	2310.11
435.64	2432.99
435.85	2519.00
436.06	2588.63
436.26	2615.26
436.47	2389.98
436.67	2396.12
436.88	2455.51
437.08	2650.07
437.29	2693.08
437.49	2453.47
437.70	2611.16
437.90	2451.42
438.11	2568.15
438.31	2592.73
438.52	2715.61
438.72	2711.51
438.93	2805.72
439.13	2566.10
439.34	2629.59
439.54	2461.66
439.75	2584.54
439.95	2508.76
440.16	2373.60
440.36	2519.00
440.57	2490.33
440.77	2535.39
440.98	2432.99
441.18	2541.53
441.39	2373.60
441.59	2432.99
441.80	2715.61
442.00	2559.96
442.21	2539.48
442.41	2328.54
442.62	2539.48
442.82	2455.51
443.02	2408.41
443.23	2465.75
443.43	2502.62
443.64	2635.74
443.84	2432.99
444.05	2559.96
444.25	2535.39
444.46	2441.18
444.66	2498.52
444.87	2635.74
445.07	2326.49
445.28	2428.89
445.48	2555.86
445.69	2562.01
445.89	2863.06
446.09	2408.41
446.30	2772.95
446.50	2928.60
446.71	4560.83
446.91	5685.16
447.12	6623.13
447.32	7088.02
447.53	6672.28
447.73	5365.68
447.93	4767.67
448.14	4466.62
448.34	4456.38
448.55	3751.88
448.75	3841.99
448.96	3618.76
449.16	3143.63
449.36	3160.02
449.57	2824.15
449.77	2551.77
449.98	2521.05
450.18	2643.93
450.39	2467.80
450.59	2543.58
450.79	2506.71
451.00	2324.44
451.20	2447.32
451.41	2365.40
451.61	2547.67
451.81	2498.52
452.02	2357.21
452.22	2416.60
452.43	2422.75
