SpectraSuite Data File
++++++++++++++++++++++++++++++++++++
Date: Thu May 05 14:42:06 CEST 2016
User: root
Dark Spectrum Present: No
Reference Spectrum Present: No
Number of Sampled Component Spectra: 1
Spectrometers: USB4C02835
Integration Time (usec): 100000 (USB4C02835)
Spectra Averaged: 1 (USB4C02835)
Boxcar Smoothing: 0 (USB4C02835)
Correct for Electrical Dark: No (USB4C02835)
Strobe/Lamp Enabled: No (USB4C02835)
Correct for Detector Non-linearity: No (USB4C02835)
Correct for Stray Light: No (USB4C02835)
Number of Pixels in Processed Spectrum: 3648
>>>>>Begin Processed Spectral Data<<<<<
177.47	1859.56
177.69	1859.56
177.91	1859.56
178.13	1935.33
178.36	1910.75
178.58	2330.59
178.80	2453.47
179.02	2256.86
179.24	2383.84
179.46	2375.64
179.68	2340.83
179.90	2453.47
180.13	2461.66
180.35	2179.04
180.57	2322.40
180.79	2580.44
181.01	2471.90
181.23	2385.88
181.45	2494.43
181.67	2523.10
181.90	2564.06
182.12	2353.12
182.34	2187.23
182.56	2559.96
182.78	2533.34
183.00	2322.40
183.22	2459.61
183.44	2254.81
183.66	2799.57
183.89	2414.56
184.11	2461.66
184.33	2486.23
184.55	2645.98
184.77	2379.74
184.99	2340.83
185.21	2432.99
185.43	2789.33
185.65	2301.92
185.87	2324.44
186.10	2793.43
186.32	2805.72
186.54	2432.99
186.76	2443.23
186.98	2590.68
187.20	2371.55
187.42	2371.55
187.64	2326.49
187.86	2486.23
188.08	2596.82
188.30	2277.34
188.52	2406.36
188.75	2645.98
188.97	2707.41
189.19	2211.81
189.41	2351.07
189.63	2545.63
189.85	2375.64
190.07	2351.07
190.29	2201.57
190.51	2482.14
190.73	2295.77
190.95	2480.09
191.17	2306.01
191.39	2283.49
191.61	2426.84
191.84	2332.64
192.06	2457.56
192.28	2281.44
192.50	2877.40
192.72	2406.36
192.94	2373.60
193.16	2619.35
193.38	2594.78
193.60	2310.11
193.82	2447.32
194.04	2580.44
194.26	2490.33
194.48	2254.81
194.70	2285.53
194.92	2416.60
195.14	2576.34
195.36	2326.49
195.58	2430.94
195.80	2416.60
196.02	2349.02
196.24	2258.91
196.46	2412.51
196.69	2441.18
196.91	2777.05
197.13	2338.78
197.35	2351.07
197.57	2693.08
197.79	2508.76
198.01	2344.92
198.23	2414.56
198.45	2580.44
198.67	2346.97
198.89	2211.81
199.11	2453.47
199.33	2465.75
199.55	2263.01
199.77	2312.16
199.99	2392.03
200.21	2385.88
200.43	2541.53
200.65	2351.07
200.87	2220.00
201.09	2469.85
201.31	2437.08
201.53	2412.51
201.75	2449.37
201.97	2562.01
202.19	2475.99
202.41	2383.84
202.63	2527.19
202.85	2611.16
203.07	2580.44
203.29	2359.26
203.51	2303.96
203.73	2334.68
203.95	2834.39
204.17	2381.79
204.39	2453.47
204.61	2496.47
204.83	2445.27
205.05	2457.56
205.27	2328.54
205.49	2727.89
205.71	2459.61
205.93	2258.91
206.15	2287.58
206.37	2480.09
206.59	2527.19
206.81	2217.95
207.03	2316.25
207.25	2447.32
207.47	2519.00
207.69	2422.75
207.91	2639.83
208.13	2600.92
208.34	2486.23
208.56	2359.26
208.78	2322.40
209.00	2406.36
209.22	2449.37
209.44	2461.66
209.66	2316.25
209.88	2449.37
210.10	2439.13
210.32	2336.73
210.54	2453.47
210.76	2447.32
210.98	2609.11
211.20	2140.13
211.42	2385.88
211.64	2627.54
211.86	2510.81
212.08	2428.89
212.30	2428.89
212.52	2445.27
212.74	2623.45
212.96	2379.74
213.17	2392.03
213.39	2529.24
213.61	2711.51
213.83	2351.07
214.05	2332.64
214.27	2629.59
214.49	2387.93
214.71	2332.64
214.93	2432.99
215.15	2447.32
215.37	2559.96
215.59	2240.48
215.81	2432.99
216.03	2629.59
216.24	2531.29
216.46	2342.88
216.68	2342.88
216.90	2541.53
217.12	2619.35
217.34	2334.68
217.56	2498.52
217.78	2627.54
218.00	2600.92
218.22	2379.74
218.44	2418.65
218.66	2502.62
218.87	2621.40
219.09	2359.26
219.31	2396.12
219.53	2562.01
219.75	2473.95
219.97	2426.84
220.19	2367.45
220.41	2430.94
220.63	2670.55
220.85	2332.64
221.06	2367.45
221.28	2592.73
221.50	2551.77
221.72	2387.93
221.94	2373.60
222.16	2482.14
222.38	2596.82
222.60	2394.08
222.82	2416.60
223.03	2592.73
223.25	2330.59
223.47	2361.31
223.69	2586.58
223.91	2514.91
224.13	2531.29
224.35	2273.25
224.57	2516.95
224.78	2590.68
225.00	2383.84
225.22	2389.98
225.44	2361.31
225.66	2529.24
225.88	2453.47
226.10	2422.75
226.32	2383.84
226.53	2695.13
226.75	2414.56
226.97	2404.32
227.19	2275.29
227.41	2424.80
227.63	2375.64
227.85	2258.91
228.06	2457.56
228.28	2494.43
228.50	2621.40
228.72	2222.05
228.94	2404.32
229.16	2246.62
229.37	2410.46
229.59	2248.67
229.81	2514.91
230.03	2424.80
230.25	2277.34
230.47	2209.76
230.69	2306.01
230.90	2629.59
231.12	2488.28
231.34	2371.55
231.56	2461.66
231.78	2283.49
232.00	2545.63
232.21	2320.35
232.43	2387.93
232.65	2193.37
232.87	2494.43
233.09	2299.87
233.30	2236.38
233.52	2617.30
233.74	2510.81
233.96	2404.32
234.18	2490.33
234.40	2377.69
234.61	2775.00
234.83	2271.20
235.05	2310.11
235.27	2793.43
235.49	2662.36
235.70	2285.53
235.92	2443.23
236.14	2658.26
236.36	2711.51
236.58	2324.44
236.79	2416.60
237.01	2449.37
237.23	2555.86
237.45	2588.63
237.67	2363.36
237.88	2578.39
238.10	2760.66
238.32	2285.53
238.54	2252.77
238.76	2490.33
238.97	2406.36
239.19	2260.96
239.41	2525.15
239.63	2605.02
239.85	2404.32
240.06	2398.17
240.28	2260.96
240.50	2609.11
240.72	2482.14
240.93	2281.44
241.15	2439.13
241.37	2496.47
241.59	2648.02
241.81	2422.75
242.02	2326.49
242.24	2428.89
242.46	2498.52
242.68	2201.57
242.89	2330.59
243.11	2707.41
243.33	2406.36
243.55	2381.79
243.76	2426.84
243.98	2389.98
244.20	2455.51
244.42	2381.79
244.64	2318.30
244.85	2392.03
245.07	2340.83
245.29	2408.41
245.51	2365.40
245.72	2521.05
245.94	2559.96
246.16	2269.15
246.38	2392.03
246.59	2406.36
246.81	2394.08
247.03	2332.64
247.24	2207.71
247.46	2432.99
247.68	2461.66
247.90	2342.88
248.11	2316.25
248.33	2586.58
248.55	2576.34
248.77	2324.44
248.98	2502.62
249.20	2717.65
249.42	2596.82
249.64	2314.20
249.85	2367.45
250.07	2473.95
250.29	2619.35
250.50	2379.74
250.72	2191.33
250.94	2504.67
251.16	2711.51
251.37	2340.83
251.59	2428.89
251.81	2551.77
252.02	2678.74
252.24	2314.20
252.46	2537.43
252.68	2383.84
252.89	2303.96
253.11	2222.05
253.33	2471.90
253.54	2660.31
253.76	2392.03
253.98	2353.12
254.20	2351.07
254.41	2396.12
254.63	2502.62
254.85	2269.15
255.06	2387.93
255.28	2465.75
255.50	2439.13
255.71	2283.49
255.93	2285.53
256.15	2447.32
256.36	2506.71
256.58	2316.25
256.80	2365.40
257.02	2488.28
257.23	2443.23
257.45	2330.59
257.67	2404.32
257.88	2449.37
258.10	2494.43
258.32	2316.25
258.53	2451.42
258.75	2709.46
258.97	2439.13
259.18	2359.26
259.40	2320.35
259.62	2764.76
259.83	2635.74
260.05	2326.49
260.27	2873.30
260.48	2562.01
260.70	2301.92
260.92	2281.44
261.13	2367.45
261.35	2469.85
261.57	2545.63
261.78	2220.00
262.00	2326.49
262.22	2514.91
262.43	2353.12
262.65	2297.82
262.86	2322.40
263.08	2785.24
263.30	2457.56
263.51	2250.72
263.73	2277.34
263.95	2660.31
264.16	2365.40
264.38	2283.49
264.60	2359.26
264.81	2473.95
265.03	2650.07
265.25	2580.44
265.46	2316.25
265.68	2625.50
265.89	2615.26
266.11	2246.62
266.33	2318.30
266.54	2613.21
266.76	2514.91
266.98	2469.85
267.19	2459.61
267.41	2627.54
267.62	2416.60
267.84	2211.81
268.06	2475.99
268.27	2551.77
268.49	2643.93
268.70	2381.79
268.92	2334.68
269.14	2392.03
269.35	2342.88
269.57	2306.01
269.79	2392.03
270.00	2439.13
270.22	2625.50
270.43	2289.63
270.65	2232.29
270.87	2467.80
271.08	2605.02
271.30	2373.60
271.51	2301.92
271.73	2592.73
271.95	2613.21
272.16	2371.55
272.38	2451.42
272.59	2410.46
272.81	2557.91
273.02	2312.16
273.24	2381.79
273.46	2623.45
273.67	2318.30
273.89	2256.86
274.10	2365.40
274.32	2686.94
274.54	2543.58
274.75	2408.41
274.97	2281.44
275.18	2562.01
275.40	2523.10
275.61	2349.02
275.83	2408.41
276.05	2342.88
276.26	2471.90
276.48	2424.80
276.69	2383.84
276.91	2383.84
277.12	2666.46
277.34	2582.49
277.55	2545.63
277.77	2521.05
277.99	2424.80
278.20	2441.18
278.42	2279.39
278.63	2422.75
278.85	2322.40
279.06	2244.57
279.28	2543.58
279.49	2602.97
279.71	2498.52
279.93	2424.80
280.14	2396.12
280.36	2365.40
280.57	2662.36
280.79	2494.43
281.00	2340.83
281.22	2416.60
281.43	2611.16
281.65	2236.38
281.86	2344.92
282.08	2527.19
282.29	2725.85
282.51	2293.72
282.73	2293.72
282.94	2332.64
283.16	2592.73
283.37	2475.99
283.59	2453.47
283.80	2578.39
284.02	2478.04
284.23	2480.09
284.45	2326.49
284.66	2334.68
284.88	2439.13
285.09	2437.08
285.31	2557.91
285.52	2478.04
285.74	2248.67
285.95	2568.15
286.17	2457.56
286.38	2680.79
286.60	2375.64
286.81	2424.80
287.03	2389.98
287.24	2465.75
287.46	2471.90
287.67	2443.23
287.89	2660.31
288.10	2367.45
288.32	2486.23
288.53	2516.95
288.75	2457.56
288.96	2547.67
289.18	2441.18
289.39	2353.12
289.61	2537.43
289.82	2768.85
290.04	2701.27
290.25	2281.44
290.47	2488.28
290.68	2506.71
290.90	2576.34
291.11	2308.06
291.33	2580.44
291.54	2394.08
291.76	2349.02
291.97	2447.32
292.18	2430.94
292.40	2521.05
292.61	2430.94
292.83	2570.20
293.04	2547.67
293.26	2430.94
293.47	2461.66
293.69	2357.21
293.90	2383.84
294.12	2656.22
294.33	2475.99
294.55	2408.41
294.76	2584.54
294.97	2709.46
295.19	2772.95
295.40	2400.22
295.62	2437.08
295.83	2621.40
296.05	2375.64
296.26	2557.91
296.48	2283.49
296.69	2482.14
296.90	2457.56
297.12	2537.43
297.33	2441.18
297.55	2521.05
297.76	2568.15
297.98	2502.62
298.19	2539.48
298.41	2580.44
298.62	2389.98
298.83	2525.15
299.05	2383.84
299.26	2410.46
299.48	2381.79
299.69	2506.71
299.90	2512.86
300.12	2357.21
300.33	2619.35
300.55	2422.75
300.76	2451.42
300.98	2375.64
301.19	2607.06
301.40	2447.32
301.62	2385.88
301.83	2475.99
302.05	2482.14
302.26	2432.99
302.47	2445.27
302.69	2373.60
302.90	2441.18
303.12	2273.25
303.33	2527.19
303.54	2701.27
303.76	2435.03
303.97	2437.08
304.19	2574.30
304.40	2385.88
304.61	2531.29
304.83	2596.82
305.04	2504.67
305.26	2572.25
305.47	2441.18
305.68	2318.30
305.90	2248.67
306.11	2631.64
306.33	2455.51
306.54	2349.02
306.75	2312.16
306.97	2330.59
307.18	2416.60
307.39	2373.60
307.61	2531.29
307.82	2441.18
308.04	2465.75
308.25	2281.44
308.46	2482.14
308.68	2461.66
308.89	2467.80
309.10	2514.91
309.32	2502.62
309.53	2463.71
309.74	2557.91
309.96	2258.91
310.17	2568.15
310.39	2441.18
310.60	2533.34
310.81	2506.71
311.03	2263.01
311.24	2578.39
311.45	2496.47
311.67	2670.55
311.88	2494.43
312.09	2402.27
312.31	2430.94
312.52	2371.55
312.73	2402.27
312.95	2291.68
313.16	2359.26
313.37	2531.29
313.59	2590.68
313.80	2602.97
314.01	2635.74
314.23	2357.21
314.44	2260.96
314.65	2363.36
314.87	2369.50
315.08	2367.45
315.29	2402.27
315.51	2375.64
315.72	2244.57
315.93	2486.23
316.15	2439.13
316.36	2416.60
316.57	2465.75
316.79	2506.71
317.00	2383.84
317.21	2537.43
317.43	2375.64
317.64	2512.86
317.85	2299.87
318.07	2381.79
318.28	2396.12
318.49	2525.15
318.70	2658.26
318.92	2588.63
319.13	2639.83
319.34	2662.36
319.56	2508.76
319.77	2588.63
319.98	2650.07
320.20	2619.35
320.41	2473.95
320.62	2547.67
320.83	2351.07
321.05	2609.11
321.26	2435.03
321.47	2541.53
321.69	2641.88
321.90	2328.54
322.11	2332.64
322.32	2461.66
322.54	2736.09
322.75	2408.41
322.96	2885.59
323.18	2267.10
323.39	2193.37
323.60	2344.92
323.81	2478.04
324.03	2396.12
324.24	2418.65
324.45	2547.67
324.66	2428.89
324.88	2566.10
325.09	2664.41
325.30	2420.70
325.52	2443.23
325.73	2529.24
325.94	2326.49
326.15	2211.81
326.37	2383.84
326.58	2541.53
326.79	2645.98
327.00	2400.22
327.22	2514.91
327.43	2498.52
327.64	2389.98
327.85	2494.43
328.07	2473.95
328.28	2678.74
328.49	2392.03
328.70	2408.41
328.92	2435.03
329.13	2488.28
329.34	2592.73
329.55	2607.06
329.76	2531.29
329.98	2488.28
330.19	2547.67
330.40	2504.67
330.61	2455.51
330.83	2574.30
331.04	2303.96
331.25	2478.04
331.46	2463.71
331.68	2316.25
331.89	2592.73
332.10	2404.32
332.31	2303.96
332.52	2422.75
332.74	2568.15
332.95	2279.39
333.16	2445.27
333.37	2541.53
333.58	2408.41
333.80	2469.85
334.01	2275.29
334.22	2422.75
334.43	2371.55
334.64	2387.93
334.86	2353.12
335.07	2310.11
335.28	2654.17
335.49	2285.53
335.70	2564.06
335.92	2678.74
336.13	2721.75
336.34	2482.14
336.55	2482.14
336.76	2482.14
336.98	2277.34
337.19	2394.08
337.40	2555.86
337.61	2785.24
337.82	2478.04
338.04	2514.91
338.25	2277.34
338.46	2439.13
338.67	2455.51
338.88	2326.49
339.09	2375.64
339.31	2418.65
339.52	2408.41
339.73	2312.16
339.94	2504.67
340.15	2582.49
340.36	2381.79
340.58	2430.94
340.79	2353.12
341.00	2523.10
341.21	2275.29
341.42	2625.50
341.63	2428.89
341.85	2586.58
342.06	2516.95
342.27	2306.01
342.48	2590.68
342.69	2357.21
342.90	2564.06
343.12	2613.21
343.33	2346.97
343.54	2580.44
343.75	2633.69
343.96	2412.51
344.17	2285.53
344.38	2535.39
344.60	2324.44
344.81	2316.25
345.02	2426.84
345.23	2613.21
345.44	2717.65
345.65	2447.32
345.86	2404.32
346.07	2461.66
346.29	2410.46
346.50	2502.62
346.71	2498.52
346.92	2652.12
347.13	2746.33
347.34	2449.37
347.55	2432.99
347.76	2514.91
347.98	2322.40
348.19	2387.93
348.40	2557.91
348.61	2510.81
348.82	2750.42
349.03	2500.57
349.24	2308.06
349.45	2641.88
349.66	2275.29
349.88	2432.99
350.09	2363.36
350.30	2676.70
350.51	2621.40
350.72	2523.10
350.93	2482.14
351.14	2424.80
351.35	2496.47
351.56	2430.94
351.77	2424.80
351.99	2494.43
352.20	2680.79
352.41	2607.06
352.62	2310.11
352.83	2523.10
353.04	2523.10
353.25	2443.23
353.46	2455.51
353.67	2615.26
353.88	2291.68
354.09	2336.73
354.30	2432.99
354.52	2549.72
354.73	2437.08
354.94	2363.36
355.15	2420.70
355.36	2701.27
355.57	2428.89
355.78	2418.65
355.99	2334.68
356.20	2396.12
356.41	2660.31
356.62	2498.52
356.83	2387.93
357.04	2699.22
357.25	2263.01
357.46	2463.71
357.68	2320.35
357.89	2355.16
358.10	2473.95
358.31	2418.65
358.52	2369.50
358.73	2340.83
358.94	2351.07
359.15	2340.83
359.36	2484.19
359.57	2478.04
359.78	2473.95
359.99	2506.71
360.20	2326.49
360.41	2473.95
360.62	2641.88
360.83	2482.14
361.04	2449.37
361.25	2508.76
361.46	2682.84
361.67	2529.24
361.88	2568.15
362.09	2609.11
362.30	2486.23
362.51	2387.93
362.72	2449.37
362.93	2586.58
363.14	2555.86
363.35	2437.08
363.56	2357.21
363.78	2658.26
363.99	2643.93
364.20	2340.83
364.41	2504.67
364.62	2719.70
364.83	2514.91
365.04	2389.98
365.25	2420.70
365.46	2781.14
365.67	2387.93
365.88	2398.17
366.09	2363.36
366.30	2424.80
366.51	2496.47
366.72	2342.88
366.93	2420.70
367.14	2504.67
367.35	2592.73
367.56	2430.94
367.77	2510.81
367.98	2469.85
368.18	2539.48
368.39	2529.24
368.60	2310.11
368.81	2668.50
369.02	2519.00
369.23	2504.67
369.44	2277.34
369.65	2439.13
369.86	2555.86
370.07	2551.77
370.28	2340.83
370.49	2568.15
370.70	2572.25
370.91	2285.53
371.12	2338.78
371.33	2691.03
371.54	2465.75
371.75	2623.45
371.96	2172.89
372.17	2543.58
372.38	2455.51
372.59	2490.33
372.80	2402.27
373.01	2375.64
373.22	2449.37
373.43	2451.42
373.64	2361.31
373.85	2602.97
374.06	2611.16
374.26	2527.19
374.47	2488.28
374.68	2654.17
374.89	2549.72
375.10	2455.51
375.31	2490.33
375.52	2582.49
375.73	2420.70
375.94	2277.34
376.15	2602.97
376.36	2453.47
376.57	2490.33
376.78	2437.08
376.99	2430.94
377.20	2572.25
377.40	2424.80
377.61	2699.22
377.82	2324.44
378.03	2758.61
378.24	2482.14
378.45	2502.62
378.66	2478.04
378.87	2293.72
379.08	2306.01
379.29	2344.92
379.50	2498.52
379.71	2387.93
379.91	2555.86
380.12	2402.27
380.33	2412.51
380.54	2482.14
380.75	2531.29
380.96	2385.88
381.17	2469.85
381.38	2521.05
381.59	2465.75
381.80	2441.18
382.00	2711.51
382.21	2545.63
382.42	2695.13
382.63	2711.51
382.84	2535.39
383.05	2617.30
383.26	2688.98
383.47	2549.72
383.68	2475.99
383.88	2576.34
384.09	2576.34
384.30	2605.02
384.51	2482.14
384.72	2457.56
384.93	2367.45
385.14	2435.03
385.35	2654.17
385.55	2342.88
385.76	2627.54
385.97	2365.40
386.18	2342.88
386.39	2412.51
386.60	2447.32
386.81	2443.23
387.02	2320.35
387.22	2389.98
387.43	2643.93
387.64	2541.53
387.85	2688.98
388.06	2695.13
388.27	3985.35
388.48	8132.48
388.68	11956.04
388.89	14341.93
389.10	15535.89
389.31	14757.66
389.52	11329.36
389.73	9940.84
389.93	9035.64
390.14	8298.37
390.35	7466.89
390.56	6631.32
390.77	5457.84
390.98	4085.70
391.18	3338.19
391.39	2969.55
391.60	2584.54
391.81	2619.35
392.02	2469.85
392.23	2740.18
392.43	2545.63
392.64	2527.19
392.85	2457.56
393.06	2635.74
393.27	2547.67
393.47	2381.79
393.68	2531.29
393.89	2428.89
394.10	2625.50
394.31	2392.03
394.52	2375.64
394.72	2514.91
394.93	2768.85
395.14	2349.02
395.35	2523.10
395.56	2414.56
395.76	2549.72
395.97	2412.51
396.18	2588.63
396.39	2637.78
396.60	2973.65
396.80	2619.35
397.01	2641.88
397.22	2668.50
397.43	2574.30
397.64	2387.93
397.84	2613.21
398.05	2742.23
398.26	2566.10
398.47	2648.02
398.67	2584.54
398.88	2406.36
399.09	2617.30
399.30	2443.23
399.51	2531.29
399.71	2437.08
399.92	2467.80
400.13	2488.28
400.34	2426.84
400.54	2463.71
400.75	2643.93
400.96	2422.75
401.17	2627.54
401.37	2555.86
401.58	2455.51
401.79	2459.61
402.00	2535.39
402.21	2834.39
402.41	2824.15
402.62	2811.86
402.83	2875.35
403.04	2973.65
403.24	3080.14
403.45	2570.20
403.66	2807.77
403.87	2660.31
404.07	2711.51
404.28	2666.46
404.49	2676.70
404.70	2570.20
404.90	2670.55
405.11	2488.28
405.32	2541.53
405.52	2408.41
405.73	2498.52
405.94	2381.79
406.15	2486.23
406.35	2641.88
406.56	2582.49
406.77	2480.09
406.98	2451.42
407.18	2428.89
407.39	2748.37
407.60	2478.04
407.80	2506.71
408.01	2406.36
408.22	2531.29
408.43	2359.26
408.63	2445.27
408.84	2613.21
409.05	2629.59
409.25	2392.03
409.46	2381.79
409.67	2402.27
409.88	2420.70
410.08	2521.05
410.29	2490.33
410.50	2611.16
410.70	2549.72
410.91	2355.16
411.12	2424.80
411.32	2473.95
411.53	2420.70
411.74	2519.00
411.95	2572.25
412.15	2537.43
412.36	2609.11
412.57	2678.74
412.77	2594.78
412.98	2545.63
413.19	2404.32
413.39	2504.67
413.60	2428.89
413.81	2562.01
414.01	2428.89
414.22	2527.19
414.43	2664.41
414.63	2398.17
414.84	2619.35
415.05	2496.47
415.25	2320.35
415.46	2648.02
415.67	2453.47
415.87	2482.14
416.08	2469.85
416.29	2453.47
416.49	2557.91
416.70	2344.92
416.91	2414.56
417.11	2508.76
417.32	2639.83
417.53	2510.81
417.73	2508.76
417.94	2478.04
418.15	2473.95
418.35	2430.94
418.56	2498.52
418.77	2777.05
418.97	2547.67
419.18	2545.63
419.38	2289.63
419.59	2521.05
419.80	2656.22
420.00	2310.11
420.21	2439.13
420.42	2693.08
420.62	2488.28
420.83	2389.98
421.04	2514.91
421.24	2471.90
421.45	2668.50
421.65	2531.29
421.86	2394.08
422.07	2547.67
422.27	2578.39
422.48	2408.41
422.69	2344.92
422.89	2346.97
423.10	2430.94
423.30	2375.64
423.51	2455.51
423.72	2617.30
423.92	2615.26
424.13	2312.16
424.33	2473.95
424.54	2543.58
424.75	2545.63
424.95	2551.77
425.16	2506.71
425.36	2410.46
425.57	2568.15
425.78	2559.96
425.98	2506.71
426.19	2445.27
426.39	2324.44
426.60	2494.43
426.81	2652.12
427.01	2471.90
427.22	2400.22
427.42	2314.20
427.63	2371.55
427.83	2619.35
428.04	2674.65
428.25	2545.63
428.45	2580.44
428.66	2602.97
428.86	2482.14
429.07	2432.99
429.28	2422.75
429.48	2422.75
429.69	2449.37
429.89	2469.85
430.10	2377.69
430.30	2584.54
430.51	2635.74
430.71	2389.98
430.92	2451.42
431.13	2432.99
431.33	2545.63
431.54	2504.67
431.74	2652.12
431.95	2779.09
432.15	2396.12
432.36	2531.29
432.56	2607.06
432.77	2660.31
432.98	2719.70
433.18	2496.47
433.39	2349.02
433.59	2414.56
433.80	2713.56
434.00	2670.55
434.21	2555.86
434.41	2445.27
434.62	2807.77
434.82	2416.60
435.03	2346.97
435.23	2500.57
435.44	2275.29
435.64	2375.64
435.85	2469.85
436.06	2572.25
436.26	2605.02
436.47	2457.56
436.67	2494.43
436.88	2461.66
437.08	2682.84
437.29	2629.59
437.49	2512.86
437.70	2625.50
437.90	2488.28
438.11	2654.17
438.31	2512.86
438.52	2668.50
438.72	2668.50
438.93	2869.20
439.13	2553.82
439.34	2637.78
439.54	2482.14
439.75	2551.77
439.95	2531.29
440.16	2379.74
440.36	2519.00
440.57	2469.85
440.77	2527.19
440.98	2486.23
441.18	2621.40
441.39	2465.75
441.59	2342.88
441.80	2777.05
442.00	2428.89
442.21	2521.05
442.41	2389.98
442.62	2611.16
442.82	2455.51
443.02	2379.74
443.23	2508.76
443.43	2473.95
443.64	2635.74
443.84	2402.27
444.05	2582.49
444.25	2521.05
444.46	2412.51
444.66	2457.56
444.87	2680.79
445.07	2365.40
445.28	2494.43
445.48	2572.25
445.69	2588.63
445.89	2822.10
446.09	2502.62
446.30	2705.37
446.50	3000.27
446.71	4628.41
446.91	5830.57
447.12	6602.65
447.32	6840.22
447.53	6651.80
447.73	5472.17
447.93	4833.21
448.14	4497.34
448.34	4462.52
448.55	3780.55
448.75	3755.97
448.96	3573.71
449.16	3297.23
449.36	3006.42
449.57	2740.18
449.77	2568.15
449.98	2482.14
450.18	2562.01
450.39	2555.86
450.59	2590.68
450.79	2396.12
451.00	2383.84
451.20	2566.10
451.41	2461.66
451.61	2564.06
451.81	2478.04
452.02	2455.51
452.22	2414.56
452.43	2432.99
452.63	2449.37
