SpectraSuite Data File
++++++++++++++++++++++++++++++++++++
Date: Thu May 05 14:41:30 CEST 2016
User: root
Dark Spectrum Present: No
Reference Spectrum Present: No
Number of Sampled Component Spectra: 1
Spectrometers: USB4C02835
Integration Time (usec): 100000 (USB4C02835)
Spectra Averaged: 1 (USB4C02835)
Boxcar Smoothing: 0 (USB4C02835)
Correct for Electrical Dark: No (USB4C02835)
Strobe/Lamp Enabled: No (USB4C02835)
Correct for Detector Non-linearity: No (USB4C02835)
Correct for Stray Light: No (USB4C02835)
Number of Pixels in Processed Spectrum: 3648
>>>>>Begin Processed Spectral Data<<<<<
177.47	1888.23
177.69	1888.23
177.91	1888.23
178.13	1875.94
178.36	1908.71
178.58	2383.84
178.80	2467.80
179.02	2330.59
179.24	2340.83
179.46	2334.68
179.68	2414.56
179.90	2457.56
180.13	2475.99
180.35	2258.91
180.57	2295.77
180.79	2605.02
181.01	2400.22
181.23	2412.51
181.45	2455.51
181.67	2576.34
181.90	2564.06
182.12	2295.77
182.34	2232.29
182.56	2621.40
182.78	2459.61
183.00	2346.97
183.22	2408.41
183.44	2314.20
183.66	2852.82
183.89	2408.41
184.11	2371.55
184.33	2535.39
184.55	2641.88
184.77	2338.78
184.99	2349.02
185.21	2449.37
185.43	2756.57
185.65	2299.87
185.87	2363.36
186.10	2848.72
186.32	2756.57
186.54	2437.08
186.76	2473.95
186.98	2586.58
187.20	2424.80
187.42	2365.40
187.64	2381.79
187.86	2469.85
188.08	2592.73
188.30	2281.44
188.52	2363.36
188.75	2650.07
188.97	2586.58
189.19	2299.87
189.41	2308.06
189.63	2568.15
189.85	2449.37
190.07	2254.81
190.29	2289.63
190.51	2467.80
190.73	2291.68
190.95	2543.58
191.17	2346.97
191.39	2332.64
191.61	2486.23
191.84	2338.78
192.06	2387.93
192.28	2275.29
192.50	2818.00
192.72	2426.84
192.94	2375.64
193.16	2596.82
193.38	2547.67
193.60	2273.25
193.82	2363.36
194.04	2631.64
194.26	2537.43
194.48	2387.93
194.70	2396.12
194.92	2344.92
195.14	2486.23
195.36	2320.35
195.58	2412.51
195.80	2473.95
196.02	2381.79
196.24	2299.87
196.46	2437.08
196.69	2392.03
196.91	2777.05
197.13	2359.26
197.35	2328.54
197.57	2715.61
197.79	2494.43
198.01	2482.14
198.23	2416.60
198.45	2514.91
198.67	2310.11
198.89	2297.82
199.11	2392.03
199.33	2381.79
199.55	2277.34
199.77	2355.16
199.99	2447.32
200.21	2490.33
200.43	2494.43
200.65	2197.47
200.87	2183.13
201.09	2494.43
201.31	2459.61
201.53	2281.44
201.75	2428.89
201.97	2490.33
202.19	2467.80
202.41	2459.61
202.63	2512.86
202.85	2531.29
203.07	2531.29
203.29	2338.78
203.51	2275.29
203.73	2375.64
203.95	2842.58
204.17	2355.16
204.39	2414.56
204.61	2435.03
204.83	2412.51
205.05	2439.13
205.27	2443.23
205.49	2801.62
205.71	2488.28
205.93	2336.73
206.15	2365.40
206.37	2486.23
206.59	2449.37
206.81	2299.87
207.03	2289.63
207.25	2363.36
207.47	2512.86
207.69	2365.40
207.91	2580.44
208.13	2705.37
208.34	2437.08
208.56	2291.68
208.78	2389.98
209.00	2523.10
209.22	2443.23
209.44	2369.50
209.66	2342.88
209.88	2553.82
210.10	2441.18
210.32	2340.83
210.54	2432.99
210.76	2447.32
210.98	2506.71
211.20	2285.53
211.42	2445.27
211.64	2600.92
211.86	2547.67
212.08	2375.64
212.30	2308.06
212.52	2441.18
212.74	2447.32
212.96	2357.21
213.17	2400.22
213.39	2598.87
213.61	2574.30
213.83	2330.59
214.05	2385.88
214.27	2594.78
214.49	2387.93
214.71	2314.20
214.93	2435.03
215.15	2459.61
215.37	2537.43
215.59	2301.92
215.81	2424.80
216.03	2664.41
216.24	2490.33
216.46	2371.55
216.68	2432.99
216.90	2619.35
217.12	2633.69
217.34	2473.95
217.56	2478.04
217.78	2588.63
218.00	2568.15
218.22	2406.36
218.44	2502.62
218.66	2545.63
218.87	2711.51
219.09	2291.68
219.31	2346.97
219.53	2506.71
219.75	2414.56
219.97	2338.78
220.19	2359.26
220.41	2521.05
220.63	2643.93
220.85	2326.49
221.06	2342.88
221.28	2650.07
221.50	2578.39
221.72	2387.93
221.94	2320.35
222.16	2461.66
222.38	2551.77
222.60	2404.32
222.82	2357.21
223.03	2586.58
223.25	2328.54
223.47	2310.11
223.69	2496.47
223.91	2596.82
224.13	2439.13
224.35	2336.73
224.57	2453.47
224.78	2555.86
225.00	2396.12
225.22	2385.88
225.44	2408.41
225.66	2574.30
225.88	2449.37
226.10	2406.36
226.32	2396.12
226.53	2654.17
226.75	2420.70
226.97	2377.69
227.19	2344.92
227.41	2375.64
227.63	2406.36
227.85	2252.77
228.06	2297.82
228.28	2521.05
228.50	2602.97
228.72	2199.52
228.94	2226.14
229.16	2283.49
229.37	2396.12
229.59	2357.21
229.81	2527.19
230.03	2387.93
230.25	2277.34
230.47	2222.05
230.69	2201.57
230.90	2562.01
231.12	2422.75
231.34	2379.74
231.56	2471.90
231.78	2457.56
232.00	2439.13
232.21	2383.84
232.43	2375.64
232.65	2222.05
232.87	2482.14
233.09	2244.57
233.30	2244.57
233.52	2682.84
233.74	2494.43
233.96	2301.92
234.18	2428.89
234.40	2512.86
234.61	2791.38
234.83	2295.77
235.05	2269.15
235.27	2777.05
235.49	2611.16
235.70	2265.05
235.92	2449.37
236.14	2584.54
236.36	2750.42
236.58	2224.09
236.79	2357.21
237.01	2506.71
237.23	2336.73
237.45	2617.30
237.67	2445.27
237.88	2611.16
238.10	2641.88
238.32	2252.77
238.54	2371.55
238.76	2512.86
238.97	2408.41
239.19	2236.38
239.41	2478.04
239.63	2605.02
239.85	2428.89
240.06	2367.45
240.28	2320.35
240.50	2645.98
240.72	2422.75
240.93	2338.78
241.15	2449.37
241.37	2478.04
241.59	2600.92
241.81	2389.98
242.02	2351.07
242.24	2557.91
242.46	2564.06
242.68	2230.24
242.89	2324.44
243.11	2633.69
243.33	2465.75
243.55	2299.87
243.76	2367.45
243.98	2404.32
244.20	2385.88
244.42	2353.12
244.64	2412.51
244.85	2357.21
245.07	2297.82
245.29	2349.02
245.51	2400.22
245.72	2514.91
245.94	2598.87
246.16	2396.12
246.38	2396.12
246.59	2422.75
246.81	2469.85
247.03	2314.20
247.24	2275.29
247.46	2435.03
247.68	2461.66
247.90	2195.42
248.11	2369.50
248.33	2549.72
248.55	2439.13
248.77	2392.03
248.98	2402.27
249.20	2643.93
249.42	2539.48
249.64	2301.92
249.85	2400.22
250.07	2420.70
250.29	2609.11
250.50	2445.27
250.72	2252.77
250.94	2480.09
251.16	2775.00
251.37	2387.93
251.59	2314.20
251.81	2578.39
252.02	2717.65
252.24	2308.06
252.46	2396.12
252.68	2408.41
252.89	2371.55
253.11	2158.56
253.33	2457.56
253.54	2701.27
253.76	2344.92
253.98	2318.30
254.20	2306.01
254.41	2346.97
254.63	2473.95
254.85	2250.72
255.06	2334.68
255.28	2535.39
255.50	2445.27
255.71	2281.44
255.93	2242.53
256.15	2461.66
256.36	2539.48
256.58	2267.10
256.80	2414.56
257.02	2441.18
257.23	2320.35
257.45	2439.13
257.67	2406.36
257.88	2398.17
258.10	2488.28
258.32	2310.11
258.53	2412.51
258.75	2738.13
258.97	2320.35
259.18	2289.63
259.40	2285.53
259.62	2619.35
259.83	2666.46
260.05	2383.84
260.27	2846.68
260.48	2654.17
260.70	2312.16
260.92	2252.77
261.13	2308.06
261.35	2467.80
261.57	2492.38
261.78	2220.00
262.00	2320.35
262.22	2547.67
262.43	2408.41
262.65	2301.92
262.86	2357.21
263.08	2842.58
263.30	2531.29
263.51	2265.05
263.73	2363.36
263.95	2731.99
264.16	2344.92
264.38	2271.20
264.60	2263.01
264.81	2432.99
265.03	2535.39
265.25	2635.74
265.46	2308.06
265.68	2613.21
265.89	2617.30
266.11	2240.48
266.33	2402.27
266.54	2619.35
266.76	2531.29
266.98	2494.43
267.19	2465.75
267.41	2584.54
267.62	2447.32
267.84	2209.76
268.06	2453.47
268.27	2568.15
268.49	2543.58
268.70	2408.41
268.92	2387.93
269.14	2346.97
269.35	2269.15
269.57	2351.07
269.79	2373.60
270.00	2463.71
270.22	2629.59
270.43	2224.09
270.65	2164.70
270.87	2531.29
271.08	2547.67
271.30	2441.18
271.51	2316.25
271.73	2572.25
271.95	2707.41
272.16	2365.40
272.38	2336.73
272.59	2463.71
272.81	2564.06
273.02	2363.36
273.24	2351.07
273.46	2684.89
273.67	2287.58
273.89	2273.25
274.10	2322.40
274.32	2578.39
274.54	2586.58
274.75	2449.37
274.97	2478.04
275.18	2576.34
275.40	2547.67
275.61	2357.21
275.83	2453.47
276.05	2375.64
276.26	2490.33
276.48	2447.32
276.69	2332.64
276.91	2410.46
277.12	2660.31
277.34	2490.33
277.55	2521.05
277.77	2498.52
277.99	2498.52
278.20	2406.36
278.42	2392.03
278.63	2367.45
278.85	2473.95
279.06	2301.92
279.28	2531.29
279.49	2551.77
279.71	2598.87
279.93	2455.51
280.14	2435.03
280.36	2414.56
280.57	2576.34
280.79	2562.01
281.00	2279.39
281.22	2480.09
281.43	2578.39
281.65	2168.80
281.86	2308.06
282.08	2500.57
282.29	2826.20
282.51	2349.02
282.73	2324.44
282.94	2252.77
283.16	2572.25
283.37	2547.67
283.59	2435.03
283.80	2465.75
284.02	2447.32
284.23	2490.33
284.45	2387.93
284.66	2353.12
284.88	2359.26
285.09	2355.16
285.31	2449.37
285.52	2537.43
285.74	2312.16
285.95	2553.82
286.17	2420.70
286.38	2596.82
286.60	2447.32
286.81	2437.08
287.03	2373.60
287.24	2490.33
287.46	2521.05
287.67	2482.14
287.89	2695.13
288.10	2463.71
288.32	2523.10
288.53	2578.39
288.75	2392.03
288.96	2645.98
289.18	2371.55
289.39	2340.83
289.61	2539.48
289.82	2703.32
290.04	2723.80
290.25	2301.92
290.47	2473.95
290.68	2473.95
290.90	2623.45
291.11	2363.36
291.33	2521.05
291.54	2449.37
291.76	2349.02
291.97	2416.60
292.18	2428.89
292.40	2484.19
292.61	2408.41
292.83	2682.84
293.04	2502.62
293.26	2516.95
293.47	2461.66
293.69	2269.15
293.90	2355.16
294.12	2596.82
294.33	2424.80
294.55	2410.46
294.76	2537.43
294.97	2695.13
295.19	2742.23
295.40	2445.27
295.62	2449.37
295.83	2637.78
296.05	2342.88
296.26	2574.30
296.48	2361.31
296.69	2478.04
296.90	2340.83
297.12	2478.04
297.33	2525.15
297.55	2498.52
297.76	2559.96
297.98	2521.05
298.19	2502.62
298.41	2445.27
298.62	2338.78
298.83	2572.25
299.05	2551.77
299.26	2455.51
299.48	2383.84
299.69	2498.52
299.90	2482.14
300.12	2445.27
300.33	2557.91
300.55	2455.51
300.76	2445.27
300.98	2371.55
301.19	2562.01
301.40	2437.08
301.62	2412.51
301.83	2555.86
302.05	2553.82
302.26	2363.36
302.47	2465.75
302.69	2363.36
302.90	2592.73
303.12	2179.04
303.33	2508.76
303.54	2695.13
303.76	2357.21
303.97	2400.22
304.19	2539.48
304.40	2373.60
304.61	2547.67
304.83	2555.86
305.04	2566.10
305.26	2572.25
305.47	2451.42
305.68	2342.88
305.90	2303.96
306.11	2645.98
306.33	2510.81
306.54	2342.88
306.75	2428.89
306.97	2349.02
307.18	2375.64
307.39	2318.30
307.61	2484.19
307.82	2453.47
308.04	2488.28
308.25	2310.11
308.46	2508.76
308.68	2502.62
308.89	2437.08
309.10	2506.71
309.32	2516.95
309.53	2398.17
309.74	2590.68
309.96	2387.93
310.17	2588.63
310.39	2351.07
310.60	2574.30
310.81	2445.27
311.03	2316.25
311.24	2523.10
311.45	2480.09
311.67	2531.29
311.88	2455.51
312.09	2521.05
312.31	2453.47
312.52	2459.61
312.73	2418.65
312.95	2310.11
313.16	2322.40
313.37	2555.86
313.59	2564.06
313.80	2566.10
314.01	2676.70
314.23	2357.21
314.44	2441.18
314.65	2297.82
314.87	2432.99
315.08	2361.31
315.29	2432.99
315.51	2420.70
315.72	2248.67
315.93	2514.91
316.15	2494.43
316.36	2416.60
316.57	2467.80
316.79	2478.04
317.00	2389.98
317.21	2566.10
317.43	2357.21
317.64	2504.67
317.85	2387.93
318.07	2426.84
318.28	2428.89
318.49	2590.68
318.70	2727.89
318.92	2613.21
319.13	2605.02
319.34	2588.63
319.56	2504.67
319.77	2684.89
319.98	2672.60
320.20	2531.29
320.41	2586.58
320.62	2629.59
320.83	2473.95
321.05	2562.01
321.26	2455.51
321.47	2457.56
321.69	2639.83
321.90	2265.05
322.11	2398.17
322.32	2459.61
322.54	2586.58
322.75	2416.60
322.96	2897.88
323.18	2281.44
323.39	2301.92
323.60	2318.30
323.81	2551.77
324.03	2412.51
324.24	2539.48
324.45	2420.70
324.66	2400.22
324.88	2658.26
325.09	2643.93
325.30	2445.27
325.52	2371.55
325.73	2557.91
325.94	2326.49
326.15	2244.57
326.37	2351.07
326.58	2684.89
326.79	2695.13
327.00	2400.22
327.22	2414.56
327.43	2482.14
327.64	2406.36
327.85	2512.86
328.07	2373.60
328.28	2650.07
328.49	2432.99
328.70	2455.51
328.92	2379.74
329.13	2428.89
329.34	2578.39
329.55	2623.45
329.76	2506.71
329.98	2469.85
330.19	2605.02
330.40	2482.14
330.61	2461.66
330.83	2473.95
331.04	2406.36
331.25	2555.86
331.46	2398.17
331.68	2322.40
331.89	2641.88
332.10	2326.49
332.31	2244.57
332.52	2523.10
332.74	2621.40
332.95	2291.68
333.16	2432.99
333.37	2543.58
333.58	2453.47
333.80	2498.52
334.01	2303.96
334.22	2475.99
334.43	2402.27
334.64	2297.82
334.86	2363.36
335.07	2406.36
335.28	2650.07
335.49	2256.86
335.70	2455.51
335.92	2598.87
336.13	2822.10
336.34	2480.09
336.55	2375.64
336.76	2523.10
336.98	2211.81
337.19	2473.95
337.40	2533.34
337.61	2785.24
337.82	2443.23
338.04	2482.14
338.25	2256.86
338.46	2465.75
338.67	2592.73
338.88	2412.51
339.09	2340.83
339.31	2463.71
339.52	2365.40
339.73	2334.68
339.94	2398.17
340.15	2570.20
340.36	2424.80
340.58	2445.27
340.79	2375.64
341.00	2596.82
341.21	2420.70
341.42	2592.73
341.63	2297.82
341.85	2590.68
342.06	2465.75
342.27	2349.02
342.48	2502.62
342.69	2344.92
342.90	2506.71
343.12	2555.86
343.33	2353.12
343.54	2555.86
343.75	2621.40
343.96	2457.56
344.17	2316.25
344.38	2445.27
344.60	2396.12
344.81	2385.88
345.02	2379.74
345.23	2615.26
345.44	2785.24
345.65	2490.33
345.86	2457.56
346.07	2525.15
346.29	2394.08
346.50	2457.56
346.71	2531.29
346.92	2662.36
347.13	2750.42
347.34	2496.47
347.55	2361.31
347.76	2586.58
347.98	2355.16
348.19	2332.64
348.40	2559.96
348.61	2439.13
348.82	2701.27
349.03	2537.43
349.24	2314.20
349.45	2719.70
349.66	2279.39
349.88	2410.46
350.09	2351.07
350.30	2691.03
350.51	2617.30
350.72	2480.09
350.93	2428.89
351.14	2416.60
351.35	2523.10
351.56	2451.42
351.77	2447.32
351.99	2488.28
352.20	2738.13
352.41	2572.25
352.62	2271.20
352.83	2514.91
353.04	2424.80
353.25	2396.12
353.46	2578.39
353.67	2633.69
353.88	2213.85
354.09	2430.94
354.30	2441.18
354.52	2521.05
354.73	2447.32
354.94	2412.51
355.15	2490.33
355.36	2711.51
355.57	2486.23
355.78	2494.43
355.99	2392.03
356.20	2412.51
356.41	2693.08
356.62	2465.75
356.83	2527.19
357.04	2633.69
357.25	2385.88
357.46	2389.98
357.68	2308.06
357.89	2385.88
358.10	2512.86
358.31	2392.03
358.52	2422.75
358.73	2385.88
358.94	2367.45
359.15	2437.08
359.36	2469.85
359.57	2465.75
359.78	2432.99
359.99	2398.17
360.20	2326.49
360.41	2408.41
360.62	2543.58
360.83	2457.56
361.04	2443.23
361.25	2504.67
361.46	2719.70
361.67	2486.23
361.88	2494.43
362.09	2602.97
362.30	2463.71
362.51	2322.40
362.72	2504.67
362.93	2605.02
363.14	2527.19
363.35	2523.10
363.56	2312.16
363.78	2605.02
363.99	2621.40
364.20	2445.27
364.41	2504.67
364.62	2703.32
364.83	2500.57
365.04	2432.99
365.25	2441.18
365.46	2744.28
365.67	2369.50
365.88	2463.71
366.09	2326.49
366.30	2510.81
366.51	2459.61
366.72	2392.03
366.93	2461.66
367.14	2449.37
367.35	2625.50
367.56	2457.56
367.77	2602.97
367.98	2457.56
368.18	2566.10
368.39	2461.66
368.60	2316.25
368.81	2633.69
369.02	2508.76
369.23	2494.43
369.44	2308.06
369.65	2416.60
369.86	2539.48
370.07	2531.29
370.28	2322.40
370.49	2514.91
370.70	2531.29
370.91	2342.88
371.12	2342.88
371.33	2629.59
371.54	2435.03
371.75	2576.34
371.96	2197.47
372.17	2494.43
372.38	2441.18
372.59	2498.52
372.80	2365.40
373.01	2432.99
373.22	2490.33
373.43	2400.22
373.64	2340.83
373.85	2572.25
374.06	2654.17
374.26	2496.47
374.47	2473.95
374.68	2656.22
374.89	2451.42
375.10	2455.51
375.31	2531.29
375.52	2492.38
375.73	2490.33
375.94	2306.01
376.15	2602.97
376.36	2324.44
376.57	2400.22
376.78	2453.47
376.99	2508.76
377.20	2693.08
377.40	2478.04
377.61	2619.35
377.82	2430.94
378.03	2607.06
378.24	2592.73
378.45	2422.75
378.66	2469.85
378.87	2326.49
379.08	2295.77
379.29	2422.75
379.50	2559.96
379.71	2449.37
379.91	2621.40
380.12	2387.93
380.33	2445.27
380.54	2502.62
380.75	2512.86
380.96	2430.94
381.17	2488.28
381.38	2521.05
381.59	2527.19
381.80	2367.45
382.00	2750.42
382.21	2504.67
382.42	2703.32
382.63	2717.65
382.84	2488.28
383.05	2621.40
383.26	2678.74
383.47	2443.23
383.68	2418.65
383.88	2498.52
384.09	2426.84
384.30	2678.74
384.51	2486.23
384.72	2392.03
384.93	2373.60
385.14	2473.95
385.35	2564.06
385.55	2359.26
385.76	2635.74
385.97	2414.56
386.18	2273.25
386.39	2367.45
386.60	2416.60
386.81	2535.39
387.02	2338.78
387.22	2312.16
387.43	2545.63
387.64	2488.28
387.85	2637.78
388.06	2697.17
388.27	4063.17
388.48	8335.23
388.68	12056.39
388.89	14823.20
389.10	15861.52
389.31	14997.28
389.52	11650.89
389.73	10162.02
389.93	8918.90
390.14	8402.82
390.35	7382.93
390.56	6619.04
390.77	5509.04
390.98	4212.67
391.18	3416.01
391.39	2981.84
391.60	2609.11
391.81	2662.36
392.02	2428.89
392.23	2840.53
392.43	2475.99
392.64	2605.02
392.85	2406.36
393.06	2666.46
393.27	2461.66
393.47	2334.68
393.68	2428.89
393.89	2484.19
394.10	2654.17
394.31	2342.88
394.52	2340.83
394.72	2439.13
394.93	2719.70
395.14	2324.44
395.35	2559.96
395.56	2494.43
395.76	2449.37
395.97	2486.23
396.18	2551.77
396.39	2703.32
396.60	2992.08
396.80	2736.09
397.01	2676.70
397.22	2660.31
397.43	2633.69
397.64	2432.99
397.84	2498.52
398.05	2676.70
398.26	2471.90
398.47	2547.67
398.67	2568.15
398.88	2545.63
399.09	2613.21
399.30	2351.07
399.51	2553.82
399.71	2447.32
399.92	2523.10
400.13	2463.71
400.34	2379.74
400.54	2545.63
400.75	2699.22
400.96	2482.14
401.17	2625.50
401.37	2557.91
401.58	2445.27
401.79	2414.56
402.00	2564.06
402.21	2856.92
402.41	2746.33
402.62	2926.55
402.83	2944.98
403.04	2996.18
403.24	3137.49
403.45	2627.54
403.66	2797.53
403.87	2760.66
404.07	2766.81
404.28	2721.75
404.49	2736.09
404.70	2598.87
404.90	2568.15
405.11	2432.99
405.32	2492.38
405.52	2359.26
405.73	2414.56
405.94	2326.49
406.15	2422.75
406.35	2568.15
406.56	2566.10
406.77	2439.13
406.98	2445.27
407.18	2344.92
407.39	2691.03
407.60	2441.18
407.80	2430.94
408.01	2447.32
408.22	2553.82
408.43	2406.36
408.63	2510.81
408.84	2539.48
409.05	2609.11
409.25	2359.26
409.46	2416.60
409.67	2400.22
409.88	2377.69
410.08	2531.29
410.29	2396.12
410.50	2605.02
410.70	2461.66
410.91	2367.45
411.12	2490.33
411.32	2539.48
411.53	2373.60
411.74	2519.00
411.95	2545.63
412.15	2588.63
412.36	2707.41
412.57	2465.75
412.77	2684.89
412.98	2588.63
413.19	2439.13
413.39	2512.86
413.60	2457.56
413.81	2615.26
414.01	2363.36
414.22	2478.04
414.43	2596.82
414.63	2412.51
414.84	2611.16
415.05	2447.32
415.25	2279.39
415.46	2531.29
415.67	2457.56
415.87	2547.67
416.08	2418.65
416.29	2408.41
416.49	2514.91
416.70	2408.41
416.91	2451.42
417.11	2449.37
417.32	2588.63
417.53	2555.86
417.73	2473.95
417.94	2422.75
418.15	2514.91
418.35	2459.61
418.56	2447.32
418.77	2793.43
418.97	2527.19
419.18	2465.75
419.38	2187.23
419.59	2385.88
419.80	2631.64
420.00	2428.89
420.21	2529.24
420.42	2656.22
420.62	2457.56
420.83	2365.40
421.04	2363.36
421.24	2453.47
421.45	2576.34
421.65	2424.80
421.86	2537.43
422.07	2600.92
422.27	2488.28
422.48	2392.03
422.69	2373.60
422.89	2484.19
423.10	2432.99
423.30	2400.22
423.51	2506.71
423.72	2557.91
423.92	2594.78
424.13	2332.64
424.33	2484.19
424.54	2637.78
424.75	2482.14
424.95	2693.08
425.16	2422.75
425.36	2539.48
425.57	2633.69
425.78	2531.29
425.98	2602.97
426.19	2420.70
426.39	2371.55
426.60	2576.34
426.81	2633.69
427.01	2514.91
427.22	2430.94
427.42	2338.78
427.63	2404.32
427.83	2658.26
428.04	2605.02
428.25	2430.94
428.45	2600.92
428.66	2617.30
428.86	2445.27
429.07	2400.22
429.28	2486.23
429.48	2469.85
429.69	2469.85
429.89	2451.42
430.10	2326.49
430.30	2547.67
430.51	2641.88
430.71	2363.36
430.92	2426.84
431.13	2406.36
431.33	2490.33
431.54	2504.67
431.74	2602.97
431.95	2752.47
432.15	2308.06
432.36	2373.60
432.56	2564.06
432.77	2678.74
432.98	2738.13
433.18	2512.86
433.39	2367.45
433.59	2488.28
433.80	2691.03
434.00	2742.23
434.21	2482.14
434.41	2404.32
434.62	2736.09
434.82	2332.64
435.03	2371.55
435.23	2488.28
435.44	2326.49
435.64	2430.94
435.85	2490.33
436.06	2568.15
436.26	2568.15
436.47	2432.99
436.67	2340.83
436.88	2471.90
437.08	2576.34
437.29	2654.17
437.49	2553.82
437.70	2641.88
437.90	2422.75
438.11	2578.39
438.31	2506.71
438.52	2682.84
438.72	2723.80
438.93	2731.99
439.13	2471.90
439.34	2648.02
439.54	2475.99
439.75	2566.10
439.95	2525.15
440.16	2461.66
440.36	2543.58
440.57	2539.48
440.77	2541.53
440.98	2539.48
441.18	2555.86
441.39	2424.80
441.59	2412.51
441.80	2772.95
442.00	2455.51
442.21	2584.54
442.41	2318.30
442.62	2670.55
442.82	2437.08
443.02	2512.86
443.23	2512.86
443.43	2465.75
443.64	2715.61
443.84	2453.47
444.05	2621.40
444.25	2510.81
444.46	2502.62
444.66	2475.99
444.87	2627.54
445.07	2299.87
445.28	2469.85
445.48	2652.12
445.69	2590.68
445.89	2850.77
446.09	2478.04
446.30	2756.57
446.50	2965.46
446.71	4534.20
446.91	5775.27
447.12	6637.47
447.32	7059.35
447.53	6733.72
447.73	5406.64
447.93	4804.53
448.14	4464.57
448.34	4435.90
448.55	3764.17
448.75	3823.56
448.96	3542.99
449.16	3295.18
449.36	3129.30
449.57	2674.65
449.77	2600.92
449.98	2457.56
450.18	2594.78
450.39	2535.39
450.59	2482.14
450.79	2465.75
451.00	2469.85
451.20	2572.25
451.41	2402.27
451.61	2547.67
451.81	2449.37
452.02	2400.22
452.22	2504.67
452.43	2385.88
