SpectraSuite Data File
++++++++++++++++++++++++++++++++++++
Date: Thu May 05 14:42:14 CEST 2016
User: root
Dark Spectrum Present: No
Reference Spectrum Present: No
Number of Sampled Component Spectra: 1
Spectrometers: USB4C02835
Integration Time (usec): 100000 (USB4C02835)
Spectra Averaged: 1 (USB4C02835)
Boxcar Smoothing: 0 (USB4C02835)
Correct for Electrical Dark: No (USB4C02835)
Strobe/Lamp Enabled: No (USB4C02835)
Correct for Detector Non-linearity: No (USB4C02835)
Correct for Stray Light: No (USB4C02835)
Number of Pixels in Processed Spectrum: 3648
>>>>>Begin Processed Spectral Data<<<<<
177.47	1933.28
177.69	1933.28
177.91	1933.28
178.13	1880.04
178.36	1953.76
178.58	2334.68
178.80	2514.91
179.02	2254.81
179.24	2316.25
179.46	2293.72
179.68	2389.98
179.90	2435.03
180.13	2523.10
180.35	2242.53
180.57	2351.07
180.79	2559.96
181.01	2465.75
181.23	2392.03
181.45	2543.58
181.67	2490.33
181.90	2613.21
182.12	2322.40
182.34	2263.01
182.56	2547.67
182.78	2539.48
183.00	2256.86
183.22	2346.97
183.44	2301.92
183.66	2850.77
183.89	2473.95
184.11	2383.84
184.33	2484.19
184.55	2654.17
184.77	2355.16
184.99	2326.49
185.21	2465.75
185.43	2725.85
185.65	2342.88
185.87	2295.77
186.10	2764.76
186.32	2736.09
186.54	2422.75
186.76	2357.21
186.98	2564.06
187.20	2502.62
187.42	2334.68
187.64	2310.11
187.86	2584.54
188.08	2643.93
188.30	2265.05
188.52	2359.26
188.75	2670.55
188.97	2613.21
189.19	2236.38
189.41	2383.84
189.63	2527.19
189.85	2432.99
190.07	2246.62
190.29	2215.90
190.51	2500.57
190.73	2342.88
190.95	2531.29
191.17	2324.44
191.39	2316.25
191.61	2496.47
191.84	2385.88
192.06	2441.18
192.28	2371.55
192.50	2824.15
192.72	2426.84
192.94	2383.84
193.16	2621.40
193.38	2592.73
193.60	2269.15
193.82	2435.03
194.04	2557.91
194.26	2537.43
194.48	2381.79
194.70	2236.38
194.92	2430.94
195.14	2537.43
195.36	2301.92
195.58	2346.97
195.80	2416.60
196.02	2367.45
196.24	2287.58
196.46	2375.64
196.69	2451.42
196.91	2770.90
197.13	2281.44
197.35	2310.11
197.57	2750.42
197.79	2519.00
198.01	2512.86
198.23	2373.60
198.45	2529.24
198.67	2344.92
198.89	2314.20
199.11	2439.13
199.33	2389.98
199.55	2250.72
199.77	2260.96
199.99	2473.95
200.21	2396.12
200.43	2543.58
200.65	2176.99
200.87	2275.29
201.09	2592.73
201.31	2473.95
201.53	2363.36
201.75	2416.60
201.97	2486.23
202.19	2496.47
202.41	2461.66
202.63	2496.47
202.85	2576.34
203.07	2510.81
203.29	2373.60
203.51	2316.25
203.73	2469.85
203.95	2826.20
204.17	2353.12
204.39	2490.33
204.61	2473.95
204.83	2359.26
205.05	2381.79
205.27	2392.03
205.49	2781.14
205.71	2439.13
205.93	2281.44
206.15	2277.34
206.37	2455.51
206.59	2437.08
206.81	2201.57
207.03	2375.64
207.25	2351.07
207.47	2545.63
207.69	2389.98
207.91	2514.91
208.13	2711.51
208.34	2412.51
208.56	2301.92
208.78	2258.91
209.00	2404.32
209.22	2482.14
209.44	2353.12
209.66	2318.30
209.88	2422.75
210.10	2385.88
210.32	2351.07
210.54	2502.62
210.76	2469.85
210.98	2605.02
211.20	2176.99
211.42	2430.94
211.64	2633.69
211.86	2557.91
212.08	2334.68
212.30	2449.37
212.52	2445.27
212.74	2535.39
212.96	2414.56
213.17	2430.94
213.39	2635.74
213.61	2740.18
213.83	2299.87
214.05	2412.51
214.27	2555.86
214.49	2308.06
214.71	2367.45
214.93	2408.41
215.15	2379.74
215.37	2574.30
215.59	2260.96
215.81	2406.36
216.03	2643.93
216.24	2523.10
216.46	2379.74
216.68	2316.25
216.90	2514.91
217.12	2621.40
217.34	2338.78
217.56	2461.66
217.78	2596.82
218.00	2498.52
218.22	2402.27
218.44	2455.51
218.66	2484.19
218.87	2736.09
219.09	2285.53
219.31	2398.17
219.53	2498.52
219.75	2389.98
219.97	2400.22
220.19	2455.51
220.41	2422.75
220.63	2693.08
220.85	2422.75
221.06	2432.99
221.28	2637.78
221.50	2568.15
221.72	2371.55
221.94	2359.26
222.16	2541.53
222.38	2537.43
222.60	2463.71
222.82	2383.84
223.03	2600.92
223.25	2310.11
223.47	2299.87
223.69	2519.00
223.91	2551.77
224.13	2475.99
224.35	2232.29
224.57	2580.44
224.78	2605.02
225.00	2373.60
225.22	2424.80
225.44	2308.06
225.66	2531.29
225.88	2463.71
226.10	2400.22
226.32	2375.64
226.53	2643.93
226.75	2375.64
226.97	2338.78
227.19	2332.64
227.41	2461.66
227.63	2377.69
227.85	2187.23
228.06	2330.59
228.28	2523.10
228.50	2547.67
228.72	2260.96
228.94	2353.12
229.16	2260.96
229.37	2260.96
229.59	2310.11
229.81	2494.43
230.03	2428.89
230.25	2273.25
230.47	2287.58
230.69	2265.05
230.90	2551.77
231.12	2392.03
231.34	2457.56
231.56	2447.32
231.78	2326.49
232.00	2484.19
232.21	2392.03
232.43	2369.50
232.65	2217.95
232.87	2584.54
233.09	2258.91
233.30	2306.01
233.52	2588.63
233.74	2471.90
233.96	2355.16
234.18	2432.99
234.40	2502.62
234.61	2777.05
234.83	2318.30
235.05	2269.15
235.27	2793.43
235.49	2691.03
235.70	2412.51
235.92	2455.51
236.14	2514.91
236.36	2768.85
236.58	2205.66
236.79	2441.18
237.01	2523.10
237.23	2461.66
237.45	2486.23
237.67	2344.92
237.88	2473.95
238.10	2703.32
238.32	2254.81
238.54	2389.98
238.76	2435.03
238.97	2412.51
239.19	2230.24
239.41	2406.36
239.63	2574.30
239.85	2432.99
240.06	2398.17
240.28	2365.40
240.50	2602.97
240.72	2549.72
240.93	2322.40
241.15	2412.51
241.37	2473.95
241.59	2615.26
241.81	2359.26
242.02	2332.64
242.24	2494.43
242.46	2543.58
242.68	2209.76
242.89	2349.02
243.11	2693.08
243.33	2469.85
243.55	2340.83
243.76	2351.07
243.98	2396.12
244.20	2467.80
244.42	2326.49
244.64	2398.17
244.85	2301.92
245.07	2373.60
245.29	2367.45
245.51	2367.45
245.72	2545.63
245.94	2588.63
246.16	2377.69
246.38	2451.42
246.59	2346.97
246.81	2396.12
247.03	2291.68
247.24	2125.79
247.46	2482.14
247.68	2514.91
247.90	2297.82
248.11	2383.84
248.33	2576.34
248.55	2506.71
248.77	2346.97
248.98	2447.32
249.20	2752.47
249.42	2510.81
249.64	2402.27
249.85	2324.44
250.07	2396.12
250.29	2576.34
250.50	2455.51
250.72	2242.53
250.94	2586.58
251.16	2768.85
251.37	2439.13
251.59	2420.70
251.81	2553.82
252.02	2621.40
252.24	2297.82
252.46	2437.08
252.68	2299.87
252.89	2443.23
253.11	2199.52
253.33	2541.53
253.54	2648.02
253.76	2367.45
253.98	2351.07
254.20	2320.35
254.41	2381.79
254.63	2447.32
254.85	2301.92
255.06	2369.50
255.28	2621.40
255.50	2416.60
255.71	2291.68
255.93	2220.00
256.15	2459.61
256.36	2531.29
256.58	2289.63
256.80	2383.84
257.02	2473.95
257.23	2455.51
257.45	2443.23
257.67	2469.85
257.88	2398.17
258.10	2553.82
258.32	2301.92
258.53	2432.99
258.75	2703.32
258.97	2426.84
259.18	2303.96
259.40	2269.15
259.62	2594.78
259.83	2613.21
260.05	2410.46
260.27	2987.99
260.48	2615.26
260.70	2373.60
260.92	2283.49
261.13	2355.16
261.35	2502.62
261.57	2521.05
261.78	2224.09
262.00	2338.78
262.22	2508.76
262.43	2420.70
262.65	2332.64
262.86	2396.12
263.08	2787.29
263.30	2533.34
263.51	2158.56
263.73	2299.87
263.95	2676.70
264.16	2359.26
264.38	2215.90
264.60	2281.44
264.81	2455.51
265.03	2586.58
265.25	2500.57
265.46	2375.64
265.68	2629.59
265.89	2465.75
266.11	2220.00
266.33	2330.59
266.54	2674.65
266.76	2514.91
266.98	2383.84
267.19	2457.56
267.41	2705.37
267.62	2523.10
267.84	2168.80
268.06	2416.60
268.27	2582.49
268.49	2576.34
268.70	2406.36
268.92	2377.69
269.14	2383.84
269.35	2340.83
269.57	2375.64
269.79	2463.71
270.00	2404.32
270.22	2658.26
270.43	2310.11
270.65	2252.77
270.87	2572.25
271.08	2596.82
271.30	2369.50
271.51	2306.01
271.73	2586.58
271.95	2682.84
272.16	2383.84
272.38	2469.85
272.59	2406.36
272.81	2566.10
273.02	2338.78
273.24	2365.40
273.46	2613.21
273.67	2392.03
273.89	2260.96
274.10	2355.16
274.32	2572.25
274.54	2512.86
274.75	2457.56
274.97	2408.41
275.18	2611.16
275.40	2580.44
275.61	2351.07
275.83	2355.16
276.05	2310.11
276.26	2437.08
276.48	2414.56
276.69	2435.03
276.91	2422.75
277.12	2650.07
277.34	2523.10
277.55	2490.33
277.77	2547.67
277.99	2443.23
278.20	2396.12
278.42	2201.57
278.63	2432.99
278.85	2432.99
279.06	2324.44
279.28	2428.89
279.49	2572.25
279.71	2555.86
279.93	2441.18
280.14	2441.18
280.36	2377.69
280.57	2559.96
280.79	2473.95
281.00	2334.68
281.22	2346.97
281.43	2598.87
281.65	2117.60
281.86	2310.11
282.08	2516.95
282.29	2674.65
282.51	2342.88
282.73	2287.58
282.94	2303.96
283.16	2680.79
283.37	2547.67
283.59	2406.36
283.80	2621.40
284.02	2488.28
284.23	2490.33
284.45	2400.22
284.66	2365.40
284.88	2392.03
285.09	2457.56
285.31	2562.01
285.52	2527.19
285.74	2328.54
285.95	2537.43
286.17	2422.75
286.38	2625.50
286.60	2420.70
286.81	2340.83
287.03	2381.79
287.24	2430.94
287.46	2557.91
287.67	2400.22
287.89	2654.17
288.10	2521.05
288.32	2475.99
288.53	2488.28
288.75	2443.23
288.96	2510.81
289.18	2392.03
289.39	2340.83
289.61	2514.91
289.82	2719.70
290.04	2602.97
290.25	2232.29
290.47	2439.13
290.68	2535.39
290.90	2623.45
291.11	2306.01
291.33	2539.48
291.54	2389.98
291.76	2416.60
291.97	2494.43
292.18	2539.48
292.40	2432.99
292.61	2441.18
292.83	2639.83
293.04	2478.04
293.26	2506.71
293.47	2383.84
293.69	2314.20
293.90	2351.07
294.12	2650.07
294.33	2475.99
294.55	2414.56
294.76	2588.63
294.97	2666.46
295.19	2695.13
295.40	2396.12
295.62	2490.33
295.83	2514.91
296.05	2404.32
296.26	2527.19
296.48	2396.12
296.69	2537.43
296.90	2514.91
297.12	2572.25
297.33	2529.24
297.55	2512.86
297.76	2611.16
297.98	2535.39
298.19	2449.37
298.41	2441.18
298.62	2342.88
298.83	2633.69
299.05	2537.43
299.26	2512.86
299.48	2330.59
299.69	2457.56
299.90	2512.86
300.12	2369.50
300.33	2564.06
300.55	2463.71
300.76	2480.09
300.98	2330.59
301.19	2551.77
301.40	2392.03
301.62	2424.80
301.83	2570.20
302.05	2496.47
302.26	2406.36
302.47	2498.52
302.69	2267.10
302.90	2467.80
303.12	2193.37
303.33	2506.71
303.54	2744.28
303.76	2455.51
303.97	2453.47
304.19	2584.54
304.40	2410.46
304.61	2592.73
304.83	2633.69
305.04	2473.95
305.26	2568.15
305.47	2457.56
305.68	2453.47
305.90	2287.58
306.11	2627.54
306.33	2426.84
306.54	2306.01
306.75	2332.64
306.97	2299.87
307.18	2330.59
307.39	2437.08
307.61	2547.67
307.82	2443.23
308.04	2609.11
308.25	2273.25
308.46	2465.75
308.68	2447.32
308.89	2453.47
309.10	2531.29
309.32	2463.71
309.53	2478.04
309.74	2523.10
309.96	2424.80
310.17	2631.64
310.39	2392.03
310.60	2523.10
310.81	2447.32
311.03	2328.54
311.24	2586.58
311.45	2424.80
311.67	2598.87
311.88	2473.95
312.09	2432.99
312.31	2424.80
312.52	2408.41
312.73	2428.89
312.95	2279.39
313.16	2357.21
313.37	2533.34
313.59	2441.18
313.80	2584.54
314.01	2668.50
314.23	2424.80
314.44	2359.26
314.65	2371.55
314.87	2326.49
315.08	2408.41
315.29	2473.95
315.51	2373.60
315.72	2308.06
315.93	2525.15
316.15	2457.56
316.36	2404.32
316.57	2465.75
316.79	2455.51
317.00	2432.99
317.21	2523.10
317.43	2402.27
317.64	2424.80
317.85	2326.49
318.07	2482.14
318.28	2492.38
318.49	2596.82
318.70	2744.28
318.92	2633.69
319.13	2627.54
319.34	2713.56
319.56	2535.39
319.77	2650.07
319.98	2637.78
320.20	2541.53
320.41	2490.33
320.62	2605.02
320.83	2363.36
321.05	2631.64
321.26	2449.37
321.47	2514.91
321.69	2637.78
321.90	2351.07
322.11	2357.21
322.32	2523.10
322.54	2750.42
322.75	2404.32
322.96	2826.20
323.18	2324.44
323.39	2215.90
323.60	2338.78
323.81	2512.86
324.03	2414.56
324.24	2586.58
324.45	2514.91
324.66	2455.51
324.88	2715.61
325.09	2662.36
325.30	2471.90
325.52	2410.46
325.73	2519.00
325.94	2371.55
326.15	2263.01
326.37	2336.73
326.58	2629.59
326.79	2711.51
327.00	2287.58
327.22	2445.27
327.43	2396.12
327.64	2375.64
327.85	2521.05
328.07	2416.60
328.28	2742.23
328.49	2416.60
328.70	2443.23
328.92	2406.36
329.13	2498.52
329.34	2592.73
329.55	2617.30
329.76	2510.81
329.98	2439.13
330.19	2713.56
330.40	2502.62
330.61	2469.85
330.83	2553.82
331.04	2441.18
331.25	2416.60
331.46	2443.23
331.68	2334.68
331.89	2670.55
332.10	2498.52
332.31	2277.34
332.52	2439.13
332.74	2621.40
332.95	2260.96
333.16	2404.32
333.37	2521.05
333.58	2432.99
333.80	2439.13
334.01	2238.43
334.22	2496.47
334.43	2406.36
334.64	2351.07
334.86	2295.77
335.07	2392.03
335.28	2600.92
335.49	2277.34
335.70	2529.24
335.92	2629.59
336.13	2834.39
336.34	2484.19
336.55	2469.85
336.76	2555.86
336.98	2242.53
337.19	2400.22
337.40	2473.95
337.61	2727.89
337.82	2445.27
338.04	2586.58
338.25	2220.00
338.46	2478.04
338.67	2385.88
338.88	2351.07
339.09	2375.64
339.31	2406.36
339.52	2340.83
339.73	2355.16
339.94	2443.23
340.15	2584.54
340.36	2453.47
340.58	2428.89
340.79	2363.36
341.00	2594.78
341.21	2355.16
341.42	2637.78
341.63	2349.02
341.85	2645.98
342.06	2490.33
342.27	2420.70
342.48	2519.00
342.69	2392.03
342.90	2463.71
343.12	2582.49
343.33	2392.03
343.54	2551.77
343.75	2650.07
343.96	2457.56
344.17	2359.26
344.38	2457.56
344.60	2406.36
344.81	2308.06
345.02	2445.27
345.23	2580.44
345.44	2842.58
345.65	2531.29
345.86	2523.10
346.07	2478.04
346.29	2439.13
346.50	2488.28
346.71	2521.05
346.92	2635.74
347.13	2772.95
347.34	2453.47
347.55	2441.18
347.76	2473.95
347.98	2271.20
348.19	2500.57
348.40	2551.77
348.61	2441.18
348.82	2693.08
349.03	2531.29
349.24	2363.36
349.45	2691.03
349.66	2269.15
349.88	2412.51
350.09	2422.75
350.30	2654.17
350.51	2635.74
350.72	2494.43
350.93	2367.45
351.14	2449.37
351.35	2514.91
351.56	2408.41
351.77	2408.41
351.99	2506.71
352.20	2731.99
352.41	2537.43
352.62	2297.82
352.83	2408.41
353.04	2498.52
353.25	2392.03
353.46	2473.95
353.67	2629.59
353.88	2312.16
354.09	2422.75
354.30	2498.52
354.52	2564.06
354.73	2490.33
354.94	2375.64
355.15	2392.03
355.36	2666.46
355.57	2445.27
355.78	2459.61
355.99	2404.32
356.20	2473.95
356.41	2699.22
356.62	2506.71
356.83	2435.03
357.04	2625.50
357.25	2273.25
357.46	2420.70
357.68	2365.40
357.89	2326.49
358.10	2461.66
358.31	2457.56
358.52	2486.23
358.73	2353.12
358.94	2322.40
359.15	2465.75
359.36	2492.38
359.57	2441.18
359.78	2457.56
359.99	2482.14
360.20	2332.64
360.41	2379.74
360.62	2582.49
360.83	2447.32
361.04	2457.56
361.25	2562.01
361.46	2662.36
361.67	2494.43
361.88	2482.14
362.09	2621.40
362.30	2504.67
362.51	2306.01
362.72	2420.70
362.93	2562.01
363.14	2609.11
363.35	2459.61
363.56	2387.93
363.78	2592.73
363.99	2570.20
364.20	2371.55
364.41	2500.57
364.62	2615.26
364.83	2588.63
365.04	2396.12
365.25	2469.85
365.46	2746.33
365.67	2357.21
365.88	2443.23
366.09	2383.84
366.30	2492.38
366.51	2498.52
366.72	2404.32
366.93	2373.60
367.14	2502.62
367.35	2625.50
367.56	2398.17
367.77	2619.35
367.98	2416.60
368.18	2566.10
368.39	2527.19
368.60	2336.73
368.81	2619.35
369.02	2541.53
369.23	2449.37
369.44	2242.53
369.65	2432.99
369.86	2512.86
370.07	2596.82
370.28	2334.68
370.49	2559.96
370.70	2535.39
370.91	2338.78
371.12	2353.12
371.33	2643.93
371.54	2375.64
371.75	2596.82
371.96	2224.09
372.17	2564.06
372.38	2473.95
372.59	2543.58
372.80	2428.89
373.01	2432.99
373.22	2473.95
373.43	2449.37
373.64	2322.40
373.85	2682.84
374.06	2672.60
374.26	2529.24
374.47	2523.10
374.68	2662.36
374.89	2465.75
375.10	2392.03
375.31	2535.39
375.52	2484.19
375.73	2582.49
375.94	2336.73
376.15	2615.26
376.36	2314.20
376.57	2420.70
376.78	2486.23
376.99	2494.43
377.20	2668.50
377.40	2428.89
377.61	2662.36
377.82	2371.55
378.03	2652.12
378.24	2502.62
378.45	2416.60
378.66	2469.85
378.87	2211.81
379.08	2385.88
379.29	2426.84
379.50	2586.58
379.71	2463.71
379.91	2574.30
380.12	2469.85
380.33	2441.18
380.54	2473.95
380.75	2443.23
380.96	2310.11
381.17	2512.86
381.38	2486.23
381.59	2482.14
381.80	2480.09
382.00	2584.54
382.21	2602.97
382.42	2748.37
382.63	2709.46
382.84	2566.10
383.05	2631.64
383.26	2688.98
383.47	2484.19
383.68	2432.99
383.88	2600.92
384.09	2447.32
384.30	2680.79
384.51	2543.58
384.72	2418.65
384.93	2346.97
385.14	2478.04
385.35	2559.96
385.55	2326.49
385.76	2605.02
385.97	2430.94
386.18	2293.72
386.39	2406.36
386.60	2412.51
386.81	2416.60
387.02	2392.03
387.22	2377.69
387.43	2516.95
387.64	2568.15
387.85	2678.74
388.06	2695.13
388.27	4157.38
388.48	8185.73
388.68	11878.22
388.89	14563.11
389.10	15386.39
389.31	14436.13
389.52	11587.41
389.73	9854.83
389.93	8931.19
390.14	8441.73
390.35	7432.08
390.56	6668.19
390.77	5388.21
390.98	4161.47
391.18	3391.44
391.39	3018.71
391.60	2543.58
391.81	2684.89
392.02	2430.94
392.23	2826.20
392.43	2519.00
392.64	2529.24
392.85	2482.14
393.06	2670.55
393.27	2525.15
393.47	2371.55
393.68	2430.94
393.89	2383.84
394.10	2570.20
394.31	2473.95
394.52	2381.79
394.72	2383.84
394.93	2697.17
395.14	2289.63
395.35	2473.95
395.56	2353.12
395.76	2498.52
395.97	2408.41
396.18	2617.30
396.39	2568.15
396.60	2971.60
396.80	2744.28
397.01	2549.72
397.22	2619.35
397.43	2772.95
397.64	2504.67
397.84	2514.91
398.05	2826.20
398.26	2494.43
398.47	2594.78
398.67	2590.68
398.88	2494.43
399.09	2484.19
399.30	2369.50
399.51	2529.24
399.71	2387.93
399.92	2449.37
400.13	2432.99
400.34	2396.12
400.54	2510.81
400.75	2670.55
400.96	2490.33
401.17	2660.31
401.37	2512.86
401.58	2469.85
401.79	2498.52
402.00	2572.25
402.21	2901.97
402.41	2789.33
402.62	2736.09
402.83	2914.26
403.04	2869.20
403.24	3141.58
403.45	2658.26
403.66	2711.51
403.87	2707.41
404.07	2701.27
404.28	2709.46
404.49	2641.88
404.70	2605.02
404.90	2570.20
405.11	2531.29
405.32	2535.39
405.52	2439.13
405.73	2408.41
405.94	2334.68
406.15	2383.84
406.35	2559.96
406.56	2547.67
406.77	2414.56
406.98	2576.34
407.18	2383.84
407.39	2678.74
407.60	2502.62
407.80	2645.98
408.01	2375.64
408.22	2602.97
408.43	2455.51
408.63	2461.66
408.84	2572.25
409.05	2596.82
409.25	2398.17
409.46	2340.83
409.67	2447.32
409.88	2402.27
410.08	2453.47
410.29	2478.04
410.50	2627.54
410.70	2555.86
410.91	2342.88
411.12	2408.41
411.32	2510.81
411.53	2373.60
411.74	2588.63
411.95	2609.11
412.15	2490.33
412.36	2602.97
412.57	2578.39
412.77	2711.51
412.98	2463.71
413.19	2519.00
413.39	2492.38
413.60	2498.52
413.81	2666.46
414.01	2373.60
414.22	2506.71
414.43	2512.86
414.63	2471.90
414.84	2613.21
415.05	2383.84
415.25	2238.43
415.46	2592.73
415.67	2373.60
415.87	2480.09
416.08	2387.93
416.29	2387.93
416.49	2588.63
416.70	2449.37
416.91	2383.84
417.11	2465.75
417.32	2633.69
417.53	2447.32
417.73	2461.66
417.94	2441.18
418.15	2535.39
418.35	2564.06
418.56	2416.60
418.77	2707.41
418.97	2519.00
419.18	2469.85
419.38	2195.42
419.59	2488.28
419.80	2719.70
420.00	2326.49
420.21	2426.84
420.42	2664.41
420.62	2443.23
420.83	2383.84
421.04	2435.03
421.24	2484.19
421.45	2580.44
421.65	2514.91
421.86	2475.99
422.07	2588.63
422.27	2576.34
422.48	2437.08
422.69	2398.17
422.89	2437.08
423.10	2435.03
423.30	2420.70
423.51	2559.96
423.72	2445.27
423.92	2625.50
424.13	2416.60
424.33	2465.75
424.54	2564.06
424.75	2494.43
424.95	2682.84
425.16	2580.44
425.36	2385.88
425.57	2600.92
425.78	2619.35
425.98	2576.34
426.19	2412.51
426.39	2338.78
426.60	2437.08
426.81	2633.69
427.01	2471.90
427.22	2285.53
427.42	2342.88
427.63	2367.45
427.83	2572.25
428.04	2662.36
428.25	2557.91
428.45	2658.26
428.66	2654.17
428.86	2465.75
429.07	2406.36
429.28	2435.03
429.48	2496.47
429.69	2353.12
429.89	2510.81
430.10	2342.88
430.30	2543.58
430.51	2535.39
430.71	2322.40
430.92	2484.19
431.13	2363.36
431.33	2613.21
431.54	2570.20
431.74	2658.26
431.95	2830.29
432.15	2316.25
432.36	2445.27
432.56	2516.95
432.77	2805.72
432.98	2721.75
433.18	2504.67
433.39	2392.03
433.59	2480.09
433.80	2695.13
434.00	2656.22
434.21	2422.75
434.41	2473.95
434.62	2871.25
434.82	2295.77
435.03	2445.27
435.23	2502.62
435.44	2355.16
435.64	2459.61
435.85	2475.99
436.06	2662.36
436.26	2562.01
436.47	2383.84
436.67	2377.69
436.88	2498.52
437.08	2592.73
437.29	2582.49
437.49	2459.61
437.70	2652.12
437.90	2441.18
438.11	2672.60
438.31	2502.62
438.52	2660.31
438.72	2740.18
438.93	2789.33
439.13	2625.50
439.34	2686.94
439.54	2512.86
439.75	2539.48
439.95	2523.10
440.16	2379.74
440.36	2543.58
440.57	2512.86
440.77	2453.47
440.98	2473.95
441.18	2619.35
441.39	2375.64
441.59	2301.92
441.80	2805.72
442.00	2547.67
442.21	2422.75
442.41	2363.36
442.62	2678.74
442.82	2361.31
443.02	2480.09
443.23	2519.00
443.43	2482.14
443.64	2713.56
443.84	2402.27
444.05	2668.50
444.25	2586.58
444.46	2506.71
444.66	2418.65
444.87	2594.78
445.07	2306.01
445.28	2488.28
445.48	2547.67
445.69	2547.67
445.89	2764.76
446.09	2457.56
446.30	2691.03
446.50	3047.38
446.71	4552.63
446.91	5613.48
447.12	6608.80
447.32	6791.06
447.53	6537.12
447.73	5433.26
447.93	4855.73
448.14	4499.39
448.34	4376.51
448.55	3776.45
448.75	3772.36
448.96	3559.37
449.16	3282.89
449.36	3002.32
449.57	2775.00
449.77	2535.39
449.98	2457.56
450.18	2486.23
450.39	2463.71
450.59	2627.54
450.79	2521.05
451.00	2387.93
451.20	2512.86
451.41	2424.80
451.61	2555.86
451.81	2445.27
452.02	2437.08
452.22	2498.52
452.43	2514.91
452.63	2480.09
