SpectraSuite Data File
++++++++++++++++++++++++++++++++++++
Date: Thu May 05 14:41:36 CEST 2016
User: root
Dark Spectrum Present: No
Reference Spectrum Present: No
Number of Sampled Component Spectra: 1
Spectrometers: USB4C02835
Integration Time (usec): 100000 (USB4C02835)
Spectra Averaged: 1 (USB4C02835)
Boxcar Smoothing: 0 (USB4C02835)
Correct for Electrical Dark: No (USB4C02835)
Strobe/Lamp Enabled: No (USB4C02835)
Correct for Detector Non-linearity: No (USB4C02835)
Correct for Stray Light: No (USB4C02835)
Number of Pixels in Processed Spectrum: 3648
>>>>>Begin Processed Spectral Data<<<<<
177.47	1863.65
177.69	1863.65
177.91	1863.65
178.13	1916.90
178.36	1908.71
178.58	2363.36
178.80	2461.66
179.02	2283.49
179.24	2367.45
179.46	2250.72
179.68	2437.08
179.90	2455.51
180.13	2539.48
180.35	2260.96
180.57	2328.54
180.79	2580.44
181.01	2467.80
181.23	2398.17
181.45	2486.23
181.67	2502.62
181.90	2615.26
182.12	2396.12
182.34	2310.11
182.56	2553.82
182.78	2570.20
183.00	2367.45
183.22	2463.71
183.44	2246.62
183.66	2863.06
183.89	2498.52
184.11	2392.03
184.33	2658.26
184.55	2551.77
184.77	2400.22
184.99	2373.60
185.21	2441.18
185.43	2783.19
185.65	2248.67
185.87	2320.35
186.10	2777.05
186.32	2752.47
186.54	2449.37
186.76	2465.75
186.98	2580.44
187.20	2441.18
187.42	2400.22
187.64	2318.30
187.86	2574.30
188.08	2670.55
188.30	2344.92
188.52	2363.36
188.75	2656.22
188.97	2572.25
189.19	2303.96
189.41	2291.68
189.63	2527.19
189.85	2424.80
190.07	2234.33
190.29	2205.66
190.51	2449.37
190.73	2340.83
190.95	2439.13
191.17	2342.88
191.39	2269.15
191.61	2441.18
191.84	2318.30
192.06	2480.09
192.28	2322.40
192.50	2832.34
192.72	2416.60
192.94	2318.30
193.16	2633.69
193.38	2410.46
193.60	2334.68
193.82	2379.74
194.04	2592.73
194.26	2455.51
194.48	2322.40
194.70	2375.64
194.92	2473.95
195.14	2570.20
195.36	2318.30
195.58	2408.41
195.80	2463.71
196.02	2404.32
196.24	2271.20
196.46	2486.23
196.69	2398.17
196.91	2783.19
197.13	2283.49
197.35	2283.49
197.57	2684.89
197.79	2539.48
198.01	2383.84
198.23	2373.60
198.45	2527.19
198.67	2351.07
198.89	2267.10
199.11	2400.22
199.33	2445.27
199.55	2201.57
199.77	2338.78
199.99	2486.23
200.21	2408.41
200.43	2516.95
200.65	2303.96
200.87	2236.38
201.09	2453.47
201.31	2418.65
201.53	2416.60
201.75	2389.98
201.97	2512.86
202.19	2453.47
202.41	2377.69
202.63	2555.86
202.85	2607.06
203.07	2521.05
203.29	2392.03
203.51	2297.82
203.73	2506.71
203.95	2832.34
204.17	2293.72
204.39	2449.37
204.61	2486.23
204.83	2408.41
205.05	2430.94
205.27	2416.60
205.49	2840.53
205.71	2482.14
205.93	2303.96
206.15	2256.86
206.37	2506.71
206.59	2428.89
206.81	2238.43
207.03	2265.05
207.25	2400.22
207.47	2652.12
207.69	2424.80
207.91	2527.19
208.13	2641.88
208.34	2394.08
208.56	2168.80
208.78	2394.08
209.00	2424.80
209.22	2449.37
209.44	2414.56
209.66	2326.49
209.88	2445.27
210.10	2521.05
210.32	2383.84
210.54	2486.23
210.76	2506.71
210.98	2607.06
211.20	2240.48
211.42	2473.95
211.64	2611.16
211.86	2490.33
212.08	2392.03
212.30	2324.44
212.52	2457.56
212.74	2514.91
212.96	2400.22
213.17	2426.84
213.39	2572.25
213.61	2674.65
213.83	2330.59
214.05	2449.37
214.27	2609.11
214.49	2324.44
214.71	2314.20
214.93	2443.23
215.15	2478.04
215.37	2555.86
215.59	2258.91
215.81	2392.03
216.03	2633.69
216.24	2494.43
216.46	2387.93
216.68	2367.45
216.90	2568.15
217.12	2600.92
217.34	2293.72
217.56	2408.41
217.78	2639.83
218.00	2537.43
218.22	2461.66
218.44	2363.36
218.66	2488.28
218.87	2760.66
219.09	2334.68
219.31	2367.45
219.53	2564.06
219.75	2527.19
219.97	2334.68
220.19	2351.07
220.41	2494.43
220.63	2670.55
220.85	2394.08
221.06	2301.92
221.28	2572.25
221.50	2504.67
221.72	2326.49
221.94	2260.96
222.16	2523.10
222.38	2541.53
222.60	2375.64
222.82	2314.20
223.03	2549.72
223.25	2334.68
223.47	2351.07
223.69	2506.71
223.91	2580.44
224.13	2527.19
224.35	2283.49
224.57	2480.09
224.78	2650.07
225.00	2373.60
225.22	2441.18
225.44	2351.07
225.66	2602.97
225.88	2432.99
226.10	2437.08
226.32	2338.78
226.53	2627.54
226.75	2416.60
226.97	2420.70
227.19	2334.68
227.41	2377.69
227.63	2387.93
227.85	2207.71
228.06	2363.36
228.28	2512.86
228.50	2547.67
228.72	2213.85
228.94	2328.54
229.16	2181.09
229.37	2355.16
229.59	2359.26
229.81	2430.94
230.03	2416.60
230.25	2328.54
230.47	2273.25
230.69	2357.21
230.90	2539.48
231.12	2357.21
231.34	2408.41
231.56	2414.56
231.78	2363.36
232.00	2457.56
232.21	2283.49
232.43	2385.88
232.65	2195.42
232.87	2451.42
233.09	2240.48
233.30	2303.96
233.52	2580.44
233.74	2414.56
233.96	2398.17
234.18	2406.36
234.40	2432.99
234.61	2713.56
234.83	2342.88
235.05	2238.43
235.27	2764.76
235.49	2660.31
235.70	2326.49
235.92	2363.36
236.14	2494.43
236.36	2844.63
236.58	2312.16
236.79	2375.64
237.01	2500.57
237.23	2484.19
237.45	2555.86
237.67	2398.17
237.88	2498.52
238.10	2686.94
238.32	2308.06
238.54	2308.06
238.76	2527.19
238.97	2346.97
239.19	2271.20
239.41	2494.43
239.63	2650.07
239.85	2365.40
240.06	2346.97
240.28	2357.21
240.50	2496.47
240.72	2457.56
240.93	2269.15
241.15	2353.12
241.37	2494.43
241.59	2684.89
241.81	2404.32
242.02	2371.55
242.24	2514.91
242.46	2611.16
242.68	2226.14
242.89	2349.02
243.11	2617.30
243.33	2473.95
243.55	2367.45
243.76	2340.83
243.98	2389.98
244.20	2572.25
244.42	2373.60
244.64	2301.92
244.85	2318.30
245.07	2389.98
245.29	2408.41
245.51	2357.21
245.72	2525.15
245.94	2557.91
246.16	2373.60
246.38	2357.21
246.59	2371.55
246.81	2402.27
247.03	2328.54
247.24	2263.01
247.46	2408.41
247.68	2447.32
247.90	2228.19
248.11	2301.92
248.33	2590.68
248.55	2445.27
248.77	2351.07
248.98	2435.03
249.20	2691.03
249.42	2541.53
249.64	2445.27
249.85	2326.49
250.07	2408.41
250.29	2484.19
250.50	2412.51
250.72	2269.15
250.94	2510.81
251.16	2709.46
251.37	2455.51
251.59	2430.94
251.81	2605.02
252.02	2652.12
252.24	2244.57
252.46	2437.08
252.68	2410.46
252.89	2353.12
253.11	2226.14
253.33	2519.00
253.54	2658.26
253.76	2285.53
253.98	2346.97
254.20	2344.92
254.41	2269.15
254.63	2418.65
254.85	2193.37
255.06	2420.70
255.28	2562.01
255.50	2441.18
255.71	2291.68
255.93	2248.67
256.15	2490.33
256.36	2523.10
256.58	2195.42
256.80	2369.50
257.02	2467.80
257.23	2396.12
257.45	2277.34
257.67	2471.90
257.88	2482.14
258.10	2523.10
258.32	2346.97
258.53	2441.18
258.75	2668.50
258.97	2469.85
259.18	2267.10
259.40	2324.44
259.62	2652.12
259.83	2680.79
260.05	2402.27
260.27	2922.45
260.48	2494.43
260.70	2346.97
260.92	2263.01
261.13	2336.73
261.35	2564.06
261.57	2490.33
261.78	2236.38
262.00	2326.49
262.22	2570.20
262.43	2435.03
262.65	2373.60
262.86	2318.30
263.08	2899.92
263.30	2459.61
263.51	2179.04
263.73	2258.91
263.95	2736.09
264.16	2465.75
264.38	2279.39
264.60	2318.30
264.81	2484.19
265.03	2523.10
265.25	2490.33
265.46	2310.11
265.68	2703.32
265.89	2594.78
266.11	2224.09
266.33	2308.06
266.54	2617.30
266.76	2490.33
266.98	2416.60
267.19	2500.57
267.41	2609.11
267.62	2490.33
267.84	2189.28
268.06	2406.36
268.27	2555.86
268.49	2629.59
268.70	2469.85
268.92	2375.64
269.14	2400.22
269.35	2326.49
269.57	2342.88
269.79	2432.99
270.00	2383.84
270.22	2645.98
270.43	2242.53
270.65	2250.72
270.87	2594.78
271.08	2547.67
271.30	2445.27
271.51	2342.88
271.73	2541.53
271.95	2676.70
272.16	2281.44
272.38	2422.75
272.59	2361.31
272.81	2506.71
273.02	2277.34
273.24	2357.21
273.46	2607.06
273.67	2392.03
273.89	2283.49
274.10	2267.10
274.32	2588.63
274.54	2494.43
274.75	2385.88
274.97	2426.84
275.18	2580.44
275.40	2572.25
275.61	2363.36
275.83	2486.23
276.05	2400.22
276.26	2439.13
276.48	2486.23
276.69	2432.99
276.91	2408.41
277.12	2662.36
277.34	2502.62
277.55	2492.38
277.77	2482.14
277.99	2392.03
278.20	2281.44
278.42	2310.11
278.63	2439.13
278.85	2443.23
279.06	2336.73
279.28	2486.23
279.49	2570.20
279.71	2549.72
279.93	2398.17
280.14	2486.23
280.36	2398.17
280.57	2586.58
280.79	2555.86
281.00	2312.16
281.22	2363.36
281.43	2695.13
281.65	2287.58
281.86	2342.88
282.08	2512.86
282.29	2727.89
282.51	2365.40
282.73	2310.11
282.94	2314.20
283.16	2543.58
283.37	2641.88
283.59	2412.51
283.80	2523.10
284.02	2428.89
284.23	2490.33
284.45	2412.51
284.66	2455.51
284.88	2441.18
285.09	2367.45
285.31	2529.24
285.52	2549.72
285.74	2375.64
285.95	2514.91
286.17	2461.66
286.38	2648.02
286.60	2451.42
286.81	2408.41
287.03	2439.13
287.24	2469.85
287.46	2559.96
287.67	2412.51
287.89	2609.11
288.10	2424.80
288.32	2568.15
288.53	2572.25
288.75	2488.28
288.96	2541.53
289.18	2332.64
289.39	2365.40
289.61	2461.66
289.82	2744.28
290.04	2703.32
290.25	2340.83
290.47	2441.18
290.68	2430.94
290.90	2600.92
291.11	2248.67
291.33	2529.24
291.54	2355.16
291.76	2408.41
291.97	2416.60
292.18	2496.47
292.40	2373.60
292.61	2443.23
292.83	2576.34
293.04	2525.15
293.26	2527.19
293.47	2441.18
293.69	2412.51
293.90	2334.68
294.12	2602.97
294.33	2500.57
294.55	2424.80
294.76	2498.52
294.97	2605.02
295.19	2658.26
295.40	2326.49
295.62	2459.61
295.83	2621.40
296.05	2373.60
296.26	2627.54
296.48	2461.66
296.69	2439.13
296.90	2447.32
297.12	2490.33
297.33	2562.01
297.55	2521.05
297.76	2596.82
297.98	2535.39
298.19	2449.37
298.41	2519.00
298.62	2406.36
298.83	2586.58
299.05	2473.95
299.26	2426.84
299.48	2316.25
299.69	2592.73
299.90	2428.89
300.12	2381.79
300.33	2525.15
300.55	2371.55
300.76	2416.60
300.98	2269.15
301.19	2635.74
301.40	2418.65
301.62	2392.03
301.83	2547.67
302.05	2490.33
302.26	2410.46
302.47	2504.67
302.69	2381.79
302.90	2537.43
303.12	2211.81
303.33	2514.91
303.54	2703.32
303.76	2453.47
303.97	2445.27
304.19	2633.69
304.40	2357.21
304.61	2592.73
304.83	2652.12
305.04	2451.42
305.26	2504.67
305.47	2437.08
305.68	2426.84
305.90	2334.68
306.11	2654.17
306.33	2521.05
306.54	2322.40
306.75	2416.60
306.97	2308.06
307.18	2383.84
307.39	2334.68
307.61	2480.09
307.82	2455.51
308.04	2473.95
308.25	2334.68
308.46	2498.52
308.68	2426.84
308.89	2510.81
309.10	2494.43
309.32	2447.32
309.53	2521.05
309.74	2486.23
309.96	2463.71
310.17	2494.43
310.39	2371.55
310.60	2574.30
310.81	2437.08
311.03	2328.54
311.24	2588.63
311.45	2471.90
311.67	2555.86
311.88	2551.77
312.09	2473.95
312.31	2373.60
312.52	2416.60
312.73	2349.02
312.95	2389.98
313.16	2357.21
313.37	2568.15
313.59	2562.01
313.80	2611.16
314.01	2645.98
314.23	2359.26
314.44	2365.40
314.65	2279.39
314.87	2428.89
315.08	2353.12
315.29	2383.84
315.51	2412.51
315.72	2244.57
315.93	2523.10
316.15	2519.00
316.36	2416.60
316.57	2461.66
316.79	2494.43
317.00	2375.64
317.21	2559.96
317.43	2463.71
317.64	2435.03
317.85	2324.44
318.07	2355.16
318.28	2408.41
318.49	2592.73
318.70	2682.84
318.92	2555.86
319.13	2625.50
319.34	2594.78
319.56	2523.10
319.77	2580.44
319.98	2547.67
320.20	2580.44
320.41	2543.58
320.62	2551.77
320.83	2404.32
321.05	2641.88
321.26	2457.56
321.47	2527.19
321.69	2662.36
321.90	2273.25
322.11	2379.74
322.32	2521.05
322.54	2744.28
322.75	2379.74
322.96	2867.16
323.18	2324.44
323.39	2228.19
323.60	2396.12
323.81	2580.44
324.03	2404.32
324.24	2502.62
324.45	2504.67
324.66	2383.84
324.88	2645.98
325.09	2783.19
325.30	2365.40
325.52	2394.08
325.73	2547.67
325.94	2412.51
326.15	2240.48
326.37	2449.37
326.58	2586.58
326.79	2668.50
327.00	2312.16
327.22	2396.12
327.43	2471.90
327.64	2299.87
327.85	2506.71
328.07	2482.14
328.28	2750.42
328.49	2375.64
328.70	2424.80
328.92	2406.36
329.13	2400.22
329.34	2523.10
329.55	2568.15
329.76	2443.23
329.98	2492.38
330.19	2645.98
330.40	2465.75
330.61	2455.51
330.83	2586.58
331.04	2324.44
331.25	2457.56
331.46	2408.41
331.68	2310.11
331.89	2605.02
332.10	2375.64
332.31	2230.24
332.52	2416.60
332.74	2598.87
332.95	2285.53
333.16	2437.08
333.37	2545.63
333.58	2406.36
333.80	2447.32
334.01	2281.44
334.22	2480.09
334.43	2437.08
334.64	2437.08
334.86	2328.54
335.07	2416.60
335.28	2627.54
335.49	2281.44
335.70	2451.42
335.92	2645.98
336.13	2723.80
336.34	2449.37
336.55	2465.75
336.76	2547.67
336.98	2209.76
337.19	2490.33
337.40	2576.34
337.61	2801.62
337.82	2473.95
338.04	2453.47
338.25	2279.39
338.46	2488.28
338.67	2482.14
338.88	2254.81
339.09	2310.11
339.31	2424.80
339.52	2332.64
339.73	2297.82
339.94	2445.27
340.15	2598.87
340.36	2389.98
340.58	2506.71
340.79	2377.69
341.00	2582.49
341.21	2363.36
341.42	2623.45
341.63	2394.08
341.85	2576.34
342.06	2494.43
342.27	2482.14
342.48	2574.30
342.69	2408.41
342.90	2416.60
343.12	2496.47
343.33	2283.49
343.54	2562.01
343.75	2639.83
343.96	2463.71
344.17	2355.16
344.38	2512.86
344.60	2371.55
344.81	2375.64
345.02	2396.12
345.23	2627.54
345.44	2842.58
345.65	2514.91
345.86	2484.19
346.07	2469.85
346.29	2467.80
346.50	2506.71
346.71	2490.33
346.92	2547.67
347.13	2750.42
347.34	2414.56
347.55	2416.60
347.76	2514.91
347.98	2359.26
348.19	2441.18
348.40	2519.00
348.61	2492.38
348.82	2701.27
349.03	2527.19
349.24	2381.79
349.45	2734.04
349.66	2224.09
349.88	2473.95
350.09	2363.36
350.30	2586.58
350.51	2584.54
350.72	2492.38
350.93	2392.03
351.14	2406.36
351.35	2592.73
351.56	2523.10
351.77	2385.88
351.99	2502.62
352.20	2758.61
352.41	2453.47
352.62	2285.53
352.83	2449.37
353.04	2435.03
353.25	2385.88
353.46	2525.15
353.67	2596.82
353.88	2279.39
354.09	2428.89
354.30	2445.27
354.52	2572.25
354.73	2492.38
354.94	2351.07
355.15	2416.60
355.36	2684.89
355.57	2424.80
355.78	2475.99
355.99	2355.16
356.20	2416.60
356.41	2637.78
356.62	2523.10
356.83	2420.70
357.04	2701.27
357.25	2250.72
357.46	2389.98
357.68	2224.09
357.89	2359.26
358.10	2410.46
358.31	2373.60
358.52	2398.17
358.73	2371.55
358.94	2310.11
359.15	2377.69
359.36	2498.52
359.57	2498.52
359.78	2482.14
359.99	2551.77
360.20	2361.31
360.41	2506.71
360.62	2555.86
360.83	2521.05
361.04	2510.81
361.25	2506.71
361.46	2711.51
361.67	2478.04
361.88	2582.49
362.09	2535.39
362.30	2547.67
362.51	2273.25
362.72	2414.56
362.93	2570.20
363.14	2572.25
363.35	2463.71
363.56	2404.32
363.78	2594.78
363.99	2564.06
364.20	2439.13
364.41	2482.14
364.62	2762.71
364.83	2543.58
365.04	2373.60
365.25	2455.51
365.46	2791.38
365.67	2318.30
365.88	2478.04
366.09	2371.55
366.30	2408.41
366.51	2492.38
366.72	2342.88
366.93	2469.85
367.14	2510.81
367.35	2586.58
367.56	2496.47
367.77	2535.39
367.98	2432.99
368.18	2592.73
368.39	2475.99
368.60	2310.11
368.81	2547.67
369.02	2514.91
369.23	2424.80
369.44	2263.01
369.65	2396.12
369.86	2564.06
370.07	2527.19
370.28	2357.21
370.49	2559.96
370.70	2592.73
370.91	2340.83
371.12	2340.83
371.33	2652.12
371.54	2365.40
371.75	2611.16
371.96	2220.00
372.17	2484.19
372.38	2531.29
372.59	2510.81
372.80	2338.78
373.01	2455.51
373.22	2551.77
373.43	2404.32
373.64	2308.06
373.85	2676.70
374.06	2684.89
374.26	2514.91
374.47	2521.05
374.68	2607.06
374.89	2490.33
375.10	2422.75
375.31	2488.28
375.52	2502.62
375.73	2478.04
375.94	2342.88
376.15	2488.28
376.36	2351.07
376.57	2402.27
376.78	2416.60
376.99	2402.27
377.20	2643.93
377.40	2441.18
377.61	2625.50
377.82	2340.83
378.03	2686.94
378.24	2605.02
378.45	2488.28
378.66	2457.56
378.87	2326.49
379.08	2277.34
379.29	2469.85
379.50	2564.06
379.71	2523.10
379.91	2537.43
380.12	2371.55
380.33	2398.17
380.54	2496.47
380.75	2430.94
380.96	2432.99
381.17	2547.67
381.38	2508.76
381.59	2510.81
381.80	2439.13
382.00	2588.63
382.21	2578.39
382.42	2736.09
382.63	2641.88
382.84	2613.21
383.05	2643.93
383.26	2713.56
383.47	2551.77
383.68	2492.38
383.88	2502.62
384.09	2486.23
384.30	2633.69
384.51	2455.51
384.72	2369.50
384.93	2365.40
385.14	2428.89
385.35	2553.82
385.55	2351.07
385.76	2648.02
385.97	2432.99
386.18	2316.25
386.39	2291.68
386.60	2529.24
386.81	2422.75
387.02	2410.46
387.22	2351.07
387.43	2629.59
387.64	2545.63
387.85	2654.17
388.06	2609.11
388.27	4009.92
388.48	8306.56
388.68	12042.06
388.89	14507.81
389.10	15777.55
389.31	14516.00
389.52	11499.34
389.73	10010.47
389.93	8972.15
390.14	8308.61
390.35	7466.89
390.56	6647.71
390.77	5388.21
390.98	4091.84
391.18	3418.06
391.39	2957.27
391.60	2596.82
391.81	2641.88
392.02	2441.18
392.23	2768.85
392.43	2498.52
392.64	2529.24
392.85	2533.34
393.06	2588.63
393.27	2498.52
393.47	2473.95
393.68	2414.56
393.89	2428.89
394.10	2635.74
394.31	2326.49
394.52	2383.84
394.72	2416.60
394.93	2678.74
395.14	2379.74
395.35	2502.62
395.56	2324.44
395.76	2506.71
395.97	2396.12
396.18	2514.91
396.39	2643.93
396.60	2951.12
396.80	2736.09
397.01	2627.54
397.22	2731.99
397.43	2652.12
397.64	2443.23
397.84	2547.67
398.05	2729.94
398.26	2537.43
398.47	2580.44
398.67	2678.74
398.88	2467.80
399.09	2586.58
399.30	2459.61
399.51	2551.77
399.71	2328.54
399.92	2478.04
400.13	2500.57
400.34	2373.60
400.54	2496.47
400.75	2699.22
400.96	2500.57
401.17	2695.13
401.37	2512.86
401.58	2453.47
401.79	2447.32
402.00	2562.01
402.21	2914.26
402.41	2779.09
402.62	2840.53
402.83	2908.12
403.04	2920.40
403.24	3143.63
403.45	2600.92
403.66	2791.38
403.87	2686.94
404.07	2791.38
404.28	2793.43
404.49	2621.40
404.70	2580.44
404.90	2576.34
405.11	2482.14
405.32	2496.47
405.52	2432.99
405.73	2379.74
405.94	2373.60
406.15	2406.36
406.35	2662.36
406.56	2508.76
406.77	2490.33
406.98	2514.91
407.18	2418.65
407.39	2713.56
407.60	2480.09
407.80	2494.43
408.01	2502.62
408.22	2525.15
408.43	2416.60
408.63	2465.75
408.84	2617.30
409.05	2629.59
409.25	2338.78
409.46	2408.41
409.67	2473.95
409.88	2432.99
410.08	2492.38
410.29	2346.97
410.50	2584.54
410.70	2592.73
410.91	2303.96
411.12	2482.14
411.32	2527.19
411.53	2363.36
411.74	2496.47
411.95	2580.44
412.15	2535.39
412.36	2725.85
412.57	2588.63
412.77	2582.49
412.98	2488.28
413.19	2432.99
413.39	2480.09
413.60	2504.67
413.81	2734.04
414.01	2387.93
414.22	2543.58
414.43	2514.91
414.63	2480.09
414.84	2543.58
415.05	2412.51
415.25	2340.83
415.46	2578.39
415.67	2562.01
415.87	2502.62
416.08	2381.79
416.29	2449.37
416.49	2523.10
416.70	2471.90
416.91	2439.13
417.11	2400.22
417.32	2576.34
417.53	2543.58
417.73	2494.43
417.94	2439.13
418.15	2471.90
418.35	2488.28
418.56	2414.56
418.77	2809.81
418.97	2498.52
419.18	2385.88
419.38	2213.85
419.59	2461.66
419.80	2713.56
420.00	2414.56
420.21	2488.28
420.42	2682.84
420.62	2519.00
420.83	2353.12
421.04	2435.03
421.24	2424.80
421.45	2648.02
421.65	2527.19
421.86	2416.60
422.07	2629.59
422.27	2492.38
422.48	2480.09
422.69	2275.29
422.89	2496.47
423.10	2473.95
423.30	2385.88
423.51	2432.99
423.72	2541.53
423.92	2533.34
424.13	2326.49
424.33	2457.56
424.54	2625.50
424.75	2533.34
424.95	2637.78
425.16	2475.99
425.36	2506.71
425.57	2629.59
425.78	2602.97
425.98	2547.67
426.19	2490.33
426.39	2385.88
426.60	2521.05
426.81	2588.63
427.01	2502.62
427.22	2377.69
427.42	2318.30
427.63	2351.07
427.83	2668.50
428.04	2617.30
428.25	2615.26
428.45	2527.19
428.66	2613.21
428.86	2535.39
429.07	2432.99
429.28	2389.98
429.48	2473.95
429.69	2359.26
429.89	2469.85
430.10	2359.26
430.30	2582.49
430.51	2605.02
430.71	2365.40
430.92	2435.03
431.13	2408.41
431.33	2688.98
431.54	2473.95
431.74	2607.06
431.95	2746.33
432.15	2394.08
432.36	2420.70
432.56	2471.90
432.77	2766.81
432.98	2674.65
433.18	2471.90
433.39	2424.80
433.59	2398.17
433.80	2674.65
434.00	2631.64
434.21	2498.52
434.41	2402.27
434.62	2801.62
434.82	2367.45
435.03	2416.60
435.23	2439.13
435.44	2220.00
435.64	2408.41
435.85	2484.19
436.06	2574.30
436.26	2623.45
436.47	2519.00
436.67	2416.60
436.88	2498.52
437.08	2682.84
437.29	2639.83
437.49	2496.47
437.70	2611.16
437.90	2523.10
438.11	2664.41
438.31	2580.44
438.52	2748.37
438.72	2777.05
438.93	2766.81
439.13	2480.09
439.34	2736.09
439.54	2478.04
439.75	2523.10
439.95	2519.00
440.16	2498.52
440.36	2506.71
440.57	2502.62
440.77	2484.19
440.98	2482.14
441.18	2506.71
441.39	2432.99
441.59	2349.02
441.80	2797.53
442.00	2557.91
442.21	2562.01
442.41	2308.06
442.62	2578.39
442.82	2404.32
443.02	2424.80
443.23	2453.47
443.43	2408.41
443.64	2605.02
443.84	2355.16
444.05	2594.78
444.25	2432.99
444.46	2482.14
444.66	2406.36
444.87	2656.22
445.07	2359.26
445.28	2455.51
445.48	2584.54
445.69	2559.96
445.89	2777.05
446.09	2484.19
446.30	2783.19
446.50	2981.84
446.71	4581.31
446.91	5658.54
447.12	6596.51
447.32	6879.13
447.53	6520.73
447.73	5445.55
447.93	4603.83
448.14	4505.53
448.34	4399.04
448.55	3674.06
448.75	3801.03
448.96	3596.23
449.16	3299.28
449.36	3164.11
449.57	2760.66
449.77	2584.54
449.98	2486.23
450.18	2576.34
450.39	2547.67
450.59	2564.06
450.79	2490.33
451.00	2412.51
451.20	2547.67
451.41	2426.84
451.61	2551.77
451.81	2486.23
452.02	2432.99
452.22	2428.89
452.43	2400.22
