SpectraSuite Data File
++++++++++++++++++++++++++++++++++++
Date: Sun Apr 03 19:55:31 CEST 2016
User: root
Dark Spectrum Present: No
Reference Spectrum Present: No
Number of Sampled Component Spectra: 1
Spectrometers: USB4C02835
Integration Time (usec): 10000 (USB4C02835)
Spectra Averaged: 1 (USB4C02835)
Boxcar Smoothing: 0 (USB4C02835)
Correct for Electrical Dark: No (USB4C02835)
Strobe/Lamp Enabled: No (USB4C02835)
Correct for Detector Non-linearity: No (USB4C02835)
Correct for Stray Light: No (USB4C02835)
Number of Pixels in Processed Spectrum: 3648
>>>>>Begin Processed Spectral Data<<<<<
177.47	1247.21
177.69	1247.21
177.91	1247.21
178.13	1206.25
178.36	1234.93
178.58	1263.60
178.80	1304.56
179.02	1302.51
179.24	1228.78
179.46	1279.98
179.68	1394.67
179.90	1284.08
180.13	1331.18
180.35	1277.93
180.57	1253.36
180.79	1208.30
181.01	1304.56
181.23	1257.45
181.45	1259.50
181.67	1236.97
181.90	1322.99
182.12	1282.03
182.34	1269.74
182.56	1263.60
182.78	1267.69
183.00	1277.93
183.22	1275.88
183.44	1241.07
183.66	1282.03
183.89	1259.50
184.11	1271.79
184.33	1269.74
184.55	1337.32
184.77	1292.27
184.99	1239.02
185.21	1286.12
185.43	1259.50
185.65	1314.80
185.87	1282.03
186.10	1232.88
186.32	1396.71
186.54	1181.68
186.76	1236.97
186.98	1239.02
187.20	1247.21
187.42	1245.16
187.64	1269.74
187.86	1269.74
188.08	1282.03
188.30	1308.65
188.52	1290.22
188.75	1320.94
188.97	1316.84
189.19	1253.36
189.41	1288.17
189.63	1284.08
189.85	1282.03
190.07	1204.21
190.29	1325.04
190.51	1222.64
190.73	1290.22
190.95	1259.50
191.17	1265.64
191.39	1312.75
191.61	1200.11
191.84	1253.36
192.06	1275.88
192.28	1261.55
192.50	1359.85
192.72	1273.84
192.94	1220.59
193.16	1275.88
193.38	1273.84
193.60	1204.21
193.82	1263.60
194.04	1277.93
194.26	1296.36
194.48	1312.75
194.70	1253.36
194.92	1206.25
195.14	1216.49
195.36	1271.79
195.58	1239.02
195.80	1257.45
196.02	1298.41
196.24	1191.92
196.46	1228.78
196.69	1173.49
196.91	1294.32
197.13	1257.45
197.35	1196.01
197.57	1327.08
197.79	1220.59
198.01	1288.17
198.23	1341.42
198.45	1325.04
198.67	1279.98
198.89	1243.12
199.11	1243.12
199.33	1243.12
199.55	1265.64
199.77	1275.88
199.99	1234.93
200.21	1286.12
200.43	1251.31
200.65	1261.55
200.87	1245.16
201.09	1189.87
201.31	1312.75
201.53	1263.60
201.75	1265.64
201.97	1329.13
202.19	1243.12
202.41	1234.93
202.63	1263.60
202.85	1226.73
203.07	1282.03
203.29	1259.50
203.51	1279.98
203.73	1218.54
203.95	1284.08
204.17	1200.11
204.39	1286.12
204.61	1282.03
204.83	1212.40
205.05	1327.08
205.27	1325.04
205.49	1286.12
205.71	1259.50
205.93	1267.69
206.15	1290.22
206.37	1314.80
206.59	1271.79
206.81	1253.36
207.03	1228.78
207.25	1228.78
207.47	1204.21
207.69	1220.59
207.91	1214.45
208.13	1345.52
208.34	1247.21
208.56	1157.10
208.78	1239.02
209.00	1286.12
209.22	1335.28
209.44	1243.12
209.66	1253.36
209.88	1312.75
210.10	1302.51
210.32	1279.98
210.54	1318.89
210.76	1181.68
210.98	1314.80
211.20	1308.65
211.42	1308.65
211.64	1226.73
211.86	1249.26
212.08	1232.88
212.30	1308.65
212.52	1247.21
212.74	1337.32
212.96	1247.21
213.17	1243.12
213.39	1273.84
213.61	1322.99
213.83	1322.99
214.05	1312.75
214.27	1292.27
214.49	1296.36
214.71	1286.12
214.93	1329.13
215.15	1241.07
215.37	1251.31
215.59	1253.36
215.81	1232.88
216.03	1253.36
216.24	1257.45
216.46	1253.36
216.68	1318.89
216.90	1275.88
217.12	1347.56
217.34	1267.69
217.56	1333.23
217.78	1310.70
218.00	1312.75
218.22	1230.83
218.44	1226.73
218.66	1273.84
218.87	1288.17
219.09	1331.18
219.31	1279.98
219.53	1249.26
219.75	1269.74
219.97	1351.66
220.19	1282.03
220.41	1265.64
220.63	1298.41
220.85	1286.12
221.06	1329.13
221.28	1282.03
221.50	1259.50
221.72	1314.80
221.94	1267.69
222.16	1144.81
222.38	1239.02
222.60	1261.55
222.82	1302.51
223.03	1302.51
223.25	1181.68
223.47	1243.12
223.69	1359.85
223.91	1257.45
224.13	1318.89
224.35	1263.60
224.57	1257.45
224.78	1267.69
225.00	1290.22
225.22	1232.88
225.44	1271.79
225.66	1288.17
225.88	1265.64
226.10	1271.79
226.32	1241.07
226.53	1331.18
226.75	1265.64
226.97	1239.02
227.19	1271.79
227.41	1284.08
227.63	1241.07
227.85	1265.64
228.06	1312.75
228.28	1275.88
228.50	1251.31
228.72	1234.93
228.94	1308.65
229.16	1228.78
229.37	1245.16
229.59	1202.16
229.81	1284.08
230.03	1304.56
230.25	1312.75
230.47	1279.98
230.69	1325.04
230.90	1241.07
231.12	1284.08
231.34	1288.17
231.56	1306.60
231.78	1222.64
232.00	1253.36
232.21	1282.03
232.43	1292.27
232.65	1284.08
232.87	1279.98
233.09	1286.12
233.30	1275.88
233.52	1290.22
233.74	1210.35
233.96	1288.17
234.18	1228.78
234.40	1302.51
234.61	1236.97
234.83	1208.30
235.05	1257.45
235.27	1331.18
235.49	1193.97
235.70	1249.26
235.92	1296.36
236.14	1222.64
236.36	1249.26
236.58	1236.97
236.79	1282.03
237.01	1253.36
237.23	1257.45
237.45	1320.94
237.67	1271.79
237.88	1275.88
238.10	1329.13
238.32	1232.88
238.54	1325.04
238.76	1300.46
238.97	1220.59
239.19	1228.78
239.41	1247.21
239.63	1228.78
239.85	1310.70
240.06	1286.12
240.28	1279.98
240.50	1265.64
240.72	1257.45
240.93	1318.89
241.15	1294.32
241.37	1245.16
241.59	1204.21
241.81	1318.89
242.02	1230.83
242.24	1271.79
242.46	1245.16
242.68	1257.45
242.89	1316.84
243.11	1196.01
243.33	1230.83
243.55	1251.31
243.76	1347.56
243.98	1316.84
244.20	1331.18
244.42	1202.16
244.64	1304.56
244.85	1255.40
245.07	1286.12
245.29	1267.69
245.51	1253.36
245.72	1234.93
245.94	1294.32
246.16	1343.47
246.38	1271.79
246.59	1193.97
246.81	1253.36
247.03	1241.07
247.24	1376.24
247.46	1220.59
247.68	1290.22
247.90	1255.40
248.11	1294.32
248.33	1245.16
248.55	1267.69
248.77	1265.64
248.98	1243.12
249.20	1286.12
249.42	1239.02
249.64	1298.41
249.85	1325.04
250.07	1251.31
250.29	1263.60
250.50	1253.36
250.72	1249.26
250.94	1337.32
251.16	1247.21
251.37	1232.88
251.59	1245.16
251.81	1259.50
252.02	1273.84
252.24	1214.45
252.46	1329.13
252.68	1282.03
252.89	1193.97
253.11	1191.92
253.33	1318.89
253.54	1245.16
253.76	1255.40
253.98	1247.21
254.20	1222.64
254.41	1300.46
254.63	1265.64
254.85	1277.93
255.06	1279.98
255.28	1306.60
255.50	1181.68
255.71	1208.30
255.93	1290.22
256.15	1259.50
256.36	1253.36
256.58	1239.02
256.80	1300.46
257.02	1208.30
257.23	1271.79
257.45	1259.50
257.67	1312.75
257.88	1222.64
258.10	1298.41
258.32	1353.71
258.53	1273.84
258.75	1251.31
258.97	1312.75
259.18	1204.21
259.40	1290.22
259.62	1267.69
259.83	1234.93
260.05	1265.64
260.27	1308.65
260.48	1290.22
260.70	1292.27
260.92	1234.93
261.13	1255.40
261.35	1193.97
261.57	1267.69
261.78	1232.88
262.00	1337.32
262.22	1279.98
262.43	1224.69
262.65	1279.98
262.86	1230.83
263.08	1298.41
263.30	1261.55
263.51	1116.14
263.73	1331.18
263.95	1351.66
264.16	1273.84
264.38	1241.07
264.60	1282.03
264.81	1239.02
265.03	1298.41
265.25	1267.69
265.46	1249.26
265.68	1296.36
265.89	1171.44
266.11	1271.79
266.33	1220.59
266.54	1251.31
266.76	1304.56
266.98	1239.02
267.19	1327.08
267.41	1255.40
267.62	1279.98
267.84	1241.07
268.06	1279.98
268.27	1282.03
268.49	1218.54
268.70	1290.22
268.92	1298.41
269.14	1335.28
269.35	1206.25
269.57	1245.16
269.79	1288.17
270.00	1236.97
270.22	1277.93
270.43	1294.32
270.65	1275.88
270.87	1325.04
271.08	1269.74
271.30	1302.51
271.51	1263.60
271.73	1257.45
271.95	1232.88
272.16	1355.76
272.38	1296.36
272.59	1292.27
272.81	1220.59
273.02	1275.88
273.24	1273.84
273.46	1271.79
273.67	1263.60
273.89	1275.88
274.10	1325.04
274.32	1208.30
274.54	1253.36
274.75	1263.60
274.97	1222.64
275.18	1239.02
275.40	1257.45
275.61	1284.08
275.83	1200.11
276.05	1298.41
276.26	1230.83
276.48	1241.07
276.69	1282.03
276.91	1298.41
277.12	1286.12
277.34	1228.78
277.55	1282.03
277.77	1267.69
277.99	1300.46
278.20	1234.93
278.42	1310.70
278.63	1267.69
278.85	1208.30
279.06	1269.74
279.28	1335.28
279.49	1286.12
279.71	1302.51
279.93	1273.84
280.14	1255.40
280.36	1284.08
280.57	1216.49
280.79	1294.32
281.00	1185.77
281.22	1290.22
281.43	1267.69
281.65	1269.74
281.86	1273.84
282.08	1277.93
282.29	1349.61
282.51	1273.84
282.73	1269.74
282.94	1290.22
283.16	1308.65
283.37	1255.40
283.59	1261.55
283.80	1247.21
284.02	1228.78
284.23	1245.16
284.45	1314.80
284.66	1249.26
284.88	1286.12
285.09	1243.12
285.31	1325.04
285.52	1187.82
285.74	1296.36
285.95	1267.69
286.17	1306.60
286.38	1234.93
286.60	1294.32
286.81	1222.64
287.03	1255.40
287.24	1275.88
287.46	1251.31
287.67	1302.51
287.89	1224.69
288.10	1279.98
288.32	1265.64
288.53	1230.83
288.75	1316.84
288.96	1253.36
289.18	1234.93
289.39	1241.07
289.61	1306.60
289.82	1327.08
290.04	1275.88
290.25	1220.59
290.47	1265.64
290.68	1310.70
290.90	1265.64
291.11	1210.35
291.33	1277.93
291.54	1277.93
291.76	1290.22
291.97	1357.80
292.18	1290.22
292.40	1265.64
292.61	1236.97
292.83	1191.92
293.04	1312.75
293.26	1292.27
293.47	1249.26
293.69	1220.59
293.90	1271.79
294.12	1282.03
294.33	1253.36
294.55	1247.21
294.76	1263.60
294.97	1314.80
295.19	1302.51
295.40	1243.12
295.62	1329.13
295.83	1318.89
296.05	1288.17
296.26	1269.74
296.48	1245.16
296.69	1277.93
296.90	1290.22
297.12	1230.83
297.33	1261.55
297.55	1316.84
297.76	1314.80
297.98	1290.22
298.19	1298.41
298.41	1245.16
298.62	1232.88
298.83	1230.83
299.05	1253.36
299.26	1302.51
299.48	1277.93
299.69	1294.32
299.90	1169.39
300.12	1216.49
300.33	1355.76
300.55	1224.69
300.76	1298.41
300.98	1298.41
301.19	1267.69
301.40	1316.84
301.62	1341.42
301.83	1300.46
302.05	1255.40
302.26	1251.31
302.47	1255.40
302.69	1255.40
302.90	1298.41
303.12	1294.32
303.33	1218.54
303.54	1339.37
303.76	1273.84
303.97	1290.22
304.19	1337.32
304.40	1269.74
304.61	1294.32
304.83	1261.55
305.04	1267.69
305.26	1320.94
305.47	1320.94
305.68	1277.93
305.90	1253.36
306.11	1232.88
306.33	1239.02
306.54	1249.26
306.75	1216.49
306.97	1257.45
307.18	1255.40
307.39	1247.21
307.61	1247.21
307.82	1275.88
308.04	1331.18
308.25	1304.56
308.46	1210.35
308.68	1255.40
308.89	1249.26
309.10	1249.26
309.32	1269.74
309.53	1247.21
309.74	1310.70
309.96	1294.32
310.17	1273.84
310.39	1318.89
310.60	1265.64
310.81	1279.98
311.03	1271.79
311.24	1257.45
311.45	1216.49
311.67	1286.12
311.88	1263.60
312.09	1312.75
312.31	1187.82
312.52	1288.17
312.73	1302.51
312.95	1247.21
313.16	1329.13
313.37	1257.45
313.59	1234.93
313.80	1302.51
314.01	1294.32
314.23	1263.60
314.44	1316.84
314.65	1236.97
314.87	1286.12
315.08	1189.87
315.29	1136.62
315.51	1320.94
315.72	1265.64
315.93	1191.92
316.15	1265.64
316.36	1292.27
316.57	1282.03
316.79	1222.64
317.00	1243.12
317.21	1318.89
317.43	1236.97
317.64	1294.32
317.85	1220.59
318.07	1216.49
318.28	1202.16
318.49	1294.32
318.70	1265.64
318.92	1206.25
319.13	1232.88
319.34	1284.08
319.56	1333.23
319.77	1298.41
319.98	1247.21
320.20	1284.08
320.41	1318.89
320.62	1298.41
320.83	1320.94
321.05	1277.93
321.26	1314.80
321.47	1288.17
321.69	1269.74
321.90	1306.60
322.11	1208.30
322.32	1208.30
322.54	1302.51
322.75	1298.41
322.96	1288.17
323.18	1267.69
323.39	1302.51
323.60	1292.27
323.81	1294.32
324.03	1331.18
324.24	1247.21
324.45	1243.12
324.66	1304.56
324.88	1265.64
325.09	1265.64
325.30	1314.80
325.52	1349.61
325.73	1239.02
325.94	1253.36
326.15	1277.93
326.37	1361.90
326.58	1232.88
326.79	1261.55
327.00	1249.26
327.22	1239.02
327.43	1298.41
327.64	1282.03
327.85	1228.78
328.07	1282.03
328.28	1265.64
328.49	1228.78
328.70	1245.16
328.92	1271.79
329.13	1234.93
329.34	1300.46
329.55	1228.78
329.76	1208.30
329.98	1230.83
330.19	1214.45
330.40	1253.36
330.61	1247.21
330.83	1288.17
331.04	1208.30
331.25	1253.36
331.46	1325.04
331.68	1226.73
331.89	1247.21
332.10	1247.21
332.31	1298.41
332.52	1275.88
332.74	1271.79
332.95	1222.64
333.16	1290.22
333.37	1239.02
333.58	1230.83
333.80	1249.26
334.01	1329.13
334.22	1331.18
334.43	1249.26
334.64	1279.98
334.86	1261.55
335.07	1216.49
335.28	1294.32
335.49	1249.26
335.70	1183.73
335.92	1263.60
336.13	1220.59
336.34	1234.93
336.55	1271.79
336.76	1314.80
336.98	1206.25
337.19	1265.64
337.40	1298.41
337.61	1277.93
337.82	1286.12
338.04	1320.94
338.25	1249.26
338.46	1269.74
338.67	1265.64
338.88	1259.50
339.09	1273.84
339.31	1277.93
339.52	1224.69
339.73	1228.78
339.94	1228.78
340.15	1277.93
340.36	1368.04
340.58	1292.27
340.79	1247.21
341.00	1196.01
341.21	1310.70
341.42	1279.98
341.63	1292.27
341.85	1292.27
342.06	1298.41
342.27	1261.55
342.48	1224.69
342.69	1286.12
342.90	1316.84
343.12	1282.03
343.33	1273.84
343.54	1239.02
343.75	1222.64
343.96	1253.36
344.17	1312.75
344.38	1265.64
344.60	1267.69
344.81	1191.92
345.02	1212.40
345.23	1218.54
345.44	1259.50
345.65	1282.03
345.86	1288.17
346.07	1224.69
346.29	1265.64
346.50	1224.69
346.71	1271.79
346.92	1249.26
347.13	1306.60
347.34	1271.79
347.55	1368.04
347.76	1200.11
347.98	1247.21
348.19	1249.26
348.40	1312.75
348.61	1259.50
348.82	1269.74
349.03	1288.17
349.24	1196.01
349.45	1349.61
349.66	1306.60
349.88	1216.49
350.09	1296.36
350.30	1259.50
350.51	1290.22
350.72	1282.03
350.93	1296.36
351.14	1249.26
351.35	1257.45
351.56	1286.12
351.77	1277.93
351.99	1251.31
352.20	1273.84
352.41	1275.88
352.62	1310.70
352.83	1218.54
353.04	1288.17
353.25	1234.93
353.46	1275.88
353.67	1222.64
353.88	1277.93
354.09	1316.84
354.30	1290.22
354.52	1191.92
354.73	1265.64
354.94	1226.73
355.15	1294.32
355.36	1253.36
355.57	1230.83
355.78	1257.45
355.99	1212.40
356.20	1200.11
356.41	1263.60
356.62	1216.49
356.83	1257.45
357.04	1288.17
357.25	1257.45
357.46	1255.40
357.68	1247.21
357.89	1218.54
358.10	1259.50
358.31	1253.36
358.52	1308.65
358.73	1228.78
358.94	1222.64
359.15	1296.36
359.36	1275.88
359.57	1284.08
359.78	1341.42
359.99	1253.36
360.20	1271.79
360.41	1314.80
360.62	1239.02
360.83	1265.64
361.04	1314.80
361.25	1294.32
361.46	1286.12
361.67	1259.50
361.88	1310.70
362.09	1298.41
362.30	1257.45
362.51	1308.65
362.72	1232.88
362.93	1187.82
363.14	1370.09
363.35	1277.93
363.56	1226.73
363.78	1191.92
363.99	1251.31
364.20	1288.17
364.41	1292.27
364.62	1267.69
364.83	1310.70
365.04	1292.27
365.25	1253.36
365.46	1304.56
365.67	1279.98
365.88	1241.07
366.09	1230.83
366.30	1275.88
366.51	1257.45
366.72	1224.69
366.93	1232.88
367.14	1230.83
367.35	1296.36
367.56	1255.40
367.77	1220.59
367.98	1234.93
368.18	1314.80
368.39	1304.56
368.60	1290.22
368.81	1296.36
369.02	1271.79
369.23	1214.45
369.44	1243.12
369.65	1236.97
369.86	1329.13
370.07	1228.78
370.28	1236.97
370.49	1259.50
370.70	1241.07
370.91	1329.13
371.12	1241.07
371.33	1314.80
371.54	1308.65
371.75	1300.46
371.96	1232.88
372.17	1370.09
372.38	1302.51
372.59	1318.89
372.80	1253.36
373.01	1345.52
373.22	1277.93
373.43	1269.74
373.64	1376.24
373.85	1300.46
374.06	1284.08
374.26	1257.45
374.47	1296.36
374.68	1337.32
374.89	1380.33
375.10	1257.45
375.31	1341.42
375.52	1339.37
375.73	1361.90
375.94	1236.97
376.15	1282.03
376.36	1261.55
376.57	1273.84
376.78	1253.36
376.99	1300.46
377.20	1277.93
377.40	1282.03
377.61	1269.74
377.82	1288.17
378.03	1304.56
378.24	1288.17
378.45	1277.93
378.66	1306.60
378.87	1288.17
379.08	1261.55
379.29	1228.78
379.50	1263.60
379.71	1292.27
379.91	1265.64
380.12	1253.36
380.33	1234.93
380.54	1243.12
380.75	1288.17
380.96	1275.88
381.17	1202.16
381.38	1267.69
381.59	1253.36
381.80	1277.93
382.00	1312.75
382.21	1337.32
382.42	1253.36
382.63	1257.45
382.84	1267.69
383.05	1249.26
383.26	1286.12
383.47	1165.29
383.68	1224.69
383.88	1183.73
384.09	1312.75
384.30	1290.22
384.51	1292.27
384.72	1196.01
384.93	1236.97
385.14	1304.56
385.35	1271.79
385.55	1239.02
385.76	1329.13
385.97	1245.16
386.18	1243.12
386.39	1232.88
386.60	1273.84
386.81	1226.73
387.02	1232.88
387.22	1282.03
387.43	1267.69
387.64	1310.70
387.85	1269.74
388.06	1275.88
388.27	1306.60
388.48	1314.80
388.68	1255.40
388.89	1300.46
389.10	1282.03
389.31	1298.41
389.52	1259.50
389.73	1241.07
389.93	1212.40
390.14	1226.73
390.35	1322.99
390.56	1322.99
390.77	1337.32
390.98	1320.94
391.18	1273.84
391.39	1279.98
391.60	1224.69
391.81	1263.60
392.02	1212.40
392.23	1271.79
392.43	1333.23
392.64	1300.46
392.85	1204.21
393.06	1257.45
393.27	1241.07
393.47	1163.25
393.68	1343.47
393.89	1239.02
394.10	1368.04
394.31	1257.45
394.52	1265.64
394.72	1255.40
394.93	1261.55
395.14	1245.16
395.35	1343.47
395.56	1239.02
395.76	1255.40
395.97	1236.97
396.18	1255.40
396.39	1302.51
396.60	1239.02
396.80	1339.37
397.01	1216.49
397.22	1222.64
397.43	1181.68
397.64	1275.88
397.84	1279.98
398.05	1308.65
398.26	1279.98
398.47	1279.98
398.67	1275.88
398.88	1300.46
399.09	1282.03
399.30	1273.84
399.51	1200.11
399.71	1277.93
399.92	1189.87
400.13	1204.21
400.34	1261.55
400.54	1300.46
400.75	1314.80
400.96	1236.97
401.17	1300.46
401.37	1234.93
401.58	1216.49
401.79	1208.30
402.00	1224.69
402.21	1247.21
402.41	1206.25
402.62	1249.26
402.83	1255.40
403.04	1253.36
403.24	1290.22
403.45	1273.84
403.66	1247.21
403.87	1249.26
404.07	1302.51
404.28	1300.46
404.49	1282.03
404.70	1343.47
404.90	1353.71
405.11	1302.51
405.32	1263.60
405.52	1236.97
405.73	1245.16
405.94	1263.60
406.15	1290.22
406.35	1255.40
406.56	1298.41
406.77	1333.23
406.98	1247.21
407.18	1288.17
407.39	1267.69
407.60	1275.88
407.80	1228.78
408.01	1302.51
408.22	1265.64
408.43	1306.60
408.63	1290.22
408.84	1259.50
409.05	1226.73
409.25	1179.63
409.46	1288.17
409.67	1245.16
409.88	1220.59
410.08	1269.74
410.29	1284.08
410.50	1320.94
410.70	1277.93
410.91	1290.22
411.12	1288.17
411.32	1218.54
411.53	1277.93
411.74	1294.32
411.95	1286.12
412.15	1275.88
412.36	1253.36
412.57	1300.46
412.77	1234.93
412.98	1284.08
413.19	1275.88
413.39	1290.22
413.60	1265.64
413.81	1234.93
414.01	1288.17
414.22	1257.45
414.43	1222.64
414.63	1253.36
414.84	1251.31
415.05	1292.27
415.25	1251.31
415.46	1224.69
415.67	1243.12
415.87	1251.31
416.08	1251.31
416.29	1251.31
416.49	1222.64
416.70	1279.98
416.91	1257.45
417.11	1282.03
417.32	1282.03
417.53	1245.16
417.73	1325.04
417.94	1218.54
418.15	1263.60
418.35	1247.21
418.56	1275.88
418.77	1333.23
418.97	1247.21
419.18	1337.32
419.38	1288.17
419.59	1202.16
419.80	1339.37
420.00	1351.66
420.21	1290.22
420.42	1265.64
420.62	1269.74
420.83	1232.88
421.04	1245.16
421.24	1249.26
421.45	1284.08
421.65	1273.84
421.86	1296.36
422.07	1236.97
422.27	1282.03
422.48	1284.08
422.69	1290.22
422.89	1267.69
423.10	1304.56
423.30	1265.64
423.51	1267.69
423.72	1226.73
423.92	1277.93
424.13	1220.59
424.33	1251.31
424.54	1286.12
424.75	1245.16
424.95	1314.80
425.16	1243.12
425.36	1216.49
425.57	1257.45
425.78	1253.36
425.98	1263.60
426.19	1212.40
426.39	1269.74
426.60	1228.78
426.81	1271.79
427.01	1259.50
427.22	1247.21
427.42	1251.31
427.63	1249.26
427.83	1183.73
428.04	1247.21
428.25	1204.21
428.45	1288.17
428.66	1277.93
428.86	1216.49
429.07	1308.65
429.28	1292.27
429.48	1222.64
429.69	1310.70
429.89	1234.93
430.10	1294.32
430.30	1222.64
430.51	1316.84
430.71	1218.54
430.92	1261.55
431.13	1249.26
431.33	1265.64
431.54	1239.02
431.74	1226.73
431.95	1290.22
432.15	1288.17
432.36	1312.75
432.56	1269.74
432.77	1259.50
432.98	1302.51
433.18	1277.93
433.39	1261.55
433.59	1288.17
433.80	1306.60
434.00	1310.70
434.21	1253.36
434.41	1253.36
434.62	1370.09
434.82	1294.32
435.03	1304.56
435.23	1282.03
435.44	1279.98
435.64	1241.07
435.85	1224.69
436.06	1312.75
436.26	1286.12
436.47	1230.83
436.67	1325.04
436.88	1200.11
437.08	1277.93
437.29	1228.78
437.49	1316.84
437.70	1220.59
437.90	1239.02
438.11	1290.22
438.31	1218.54
438.52	1206.25
438.72	1273.84
438.93	1314.80
439.13	1288.17
439.34	1279.98
439.54	1284.08
439.75	1277.93
439.95	1279.98
440.16	1269.74
440.36	1314.80
440.57	1312.75
440.77	1275.88
440.98	1312.75
441.18	1249.26
441.39	1284.08
441.59	1273.84
441.80	1261.55
442.00	1284.08
442.21	1245.16
442.41	1298.41
442.62	1245.16
442.82	1265.64
443.02	1284.08
443.23	1216.49
443.43	1224.69
443.64	1239.02
443.84	1304.56
444.05	1275.88
444.25	1302.51
444.46	1259.50
444.66	1216.49
444.87	1284.08
445.07	1290.22
445.28	1314.80
445.48	1247.21
445.69	1339.37
445.89	1327.08
446.09	1224.69
446.30	1288.17
446.50	1308.65
446.71	1259.50
446.91	1279.98
447.12	1325.04
447.32	1335.28
447.53	1243.12
447.73	1296.36
447.93	1275.88
448.14	1314.80
448.34	1247.21
448.55	1333.23
448.75	1273.84
448.96	1202.16
449.16	1241.07
449.36	1273.84
449.57	1308.65
449.77	1322.99
449.98	1263.60
450.18	1320.94
450.39	1245.16
450.59	1198.06
450.79	1290.22
451.00	1230.83
451.20	1331.18
451.41	1277.93
451.61	1277.93
451.81	1230.83
452.02	1284.08
452.22	1308.65
452.43	1286.12
452.63	1243.12
