SpectraSuite Data File
++++++++++++++++++++++++++++++++++++
Date: Sun Apr 03 19:55:15 CEST 2016
User: root
Dark Spectrum Present: No
Reference Spectrum Present: No
Number of Sampled Component Spectra: 1
Spectrometers: USB4C02835
Integration Time (usec): 10000 (USB4C02835)
Spectra Averaged: 1 (USB4C02835)
Boxcar Smoothing: 0 (USB4C02835)
Correct for Electrical Dark: No (USB4C02835)
Strobe/Lamp Enabled: No (USB4C02835)
Correct for Detector Non-linearity: No (USB4C02835)
Correct for Stray Light: No (USB4C02835)
Number of Pixels in Processed Spectrum: 3648
>>>>>Begin Processed Spectral Data<<<<<
177.47	1333.23
177.69	1333.23
177.91	1333.23
178.13	1236.97
178.36	1261.55
178.58	1304.56
178.80	1245.16
179.02	1257.45
179.24	1327.08
179.46	1265.64
179.68	1294.32
179.90	1234.93
180.13	1273.84
180.35	1214.45
180.57	1198.06
180.79	1282.03
181.01	1378.28
181.23	1267.69
181.45	1277.93
181.67	1312.75
181.90	1245.16
182.12	1257.45
182.34	1239.02
182.56	1241.07
182.78	1294.32
183.00	1202.16
183.22	1249.26
183.44	1224.69
183.66	1355.76
183.89	1300.46
184.11	1261.55
184.33	1234.93
184.55	1263.60
184.77	1247.21
184.99	1333.23
185.21	1267.69
185.43	1239.02
185.65	1322.99
185.87	1251.31
186.10	1271.79
186.32	1271.79
186.54	1279.98
186.76	1267.69
186.98	1359.85
187.20	1304.56
187.42	1327.08
187.64	1314.80
187.86	1302.51
188.08	1257.45
188.30	1269.74
188.52	1292.27
188.75	1261.55
188.97	1294.32
189.19	1286.12
189.41	1290.22
189.63	1306.60
189.85	1294.32
190.07	1257.45
190.29	1236.97
190.51	1216.49
190.73	1271.79
190.95	1224.69
191.17	1263.60
191.39	1236.97
191.61	1312.75
191.84	1232.88
192.06	1198.06
192.28	1232.88
192.50	1255.40
192.72	1222.64
192.94	1245.16
193.16	1282.03
193.38	1269.74
193.60	1150.96
193.82	1255.40
194.04	1251.31
194.26	1288.17
194.48	1187.82
194.70	1216.49
194.92	1308.65
195.14	1318.89
195.36	1251.31
195.58	1294.32
195.80	1277.93
196.02	1298.41
196.24	1288.17
196.46	1253.36
196.69	1263.60
196.91	1347.56
197.13	1310.70
197.35	1279.98
197.57	1187.82
197.79	1245.16
198.01	1294.32
198.23	1308.65
198.45	1232.88
198.67	1298.41
198.89	1249.26
199.11	1220.59
199.33	1185.77
199.55	1181.68
199.77	1318.89
199.99	1257.45
200.21	1349.61
200.43	1257.45
200.65	1249.26
200.87	1279.98
201.09	1230.83
201.31	1335.28
201.53	1236.97
201.75	1251.31
201.97	1269.74
202.19	1306.60
202.41	1296.36
202.63	1230.83
202.85	1234.93
203.07	1292.27
203.29	1247.21
203.51	1286.12
203.73	1249.26
203.95	1239.02
204.17	1200.11
204.39	1239.02
204.61	1310.70
204.83	1224.69
205.05	1294.32
205.27	1208.30
205.49	1206.25
205.71	1257.45
205.93	1337.32
206.15	1290.22
206.37	1271.79
206.59	1259.50
206.81	1232.88
207.03	1263.60
207.25	1228.78
207.47	1228.78
207.69	1206.25
207.91	1236.97
208.13	1282.03
208.34	1230.83
208.56	1306.60
208.78	1310.70
209.00	1206.25
209.22	1290.22
209.44	1292.27
209.66	1279.98
209.88	1298.41
210.10	1302.51
210.32	1239.02
210.54	1290.22
210.76	1284.08
210.98	1288.17
211.20	1267.69
211.42	1288.17
211.64	1253.36
211.86	1279.98
212.08	1306.60
212.30	1331.18
212.52	1312.75
212.74	1306.60
212.96	1222.64
213.17	1273.84
213.39	1226.73
213.61	1282.03
213.83	1277.93
214.05	1218.54
214.27	1249.26
214.49	1251.31
214.71	1232.88
214.93	1308.65
215.15	1249.26
215.37	1312.75
215.59	1294.32
215.81	1273.84
216.03	1198.06
216.24	1267.69
216.46	1255.40
216.68	1282.03
216.90	1300.46
217.12	1255.40
217.34	1208.30
217.56	1255.40
217.78	1333.23
218.00	1298.41
218.22	1267.69
218.44	1226.73
218.66	1239.02
218.87	1284.08
219.09	1187.82
219.31	1284.08
219.53	1286.12
219.75	1271.79
219.97	1251.31
220.19	1273.84
220.41	1327.08
220.63	1320.94
220.85	1239.02
221.06	1247.21
221.28	1261.55
221.50	1306.60
221.72	1343.47
221.94	1261.55
222.16	1279.98
222.38	1228.78
222.60	1204.21
222.82	1288.17
223.03	1296.36
223.25	1273.84
223.47	1269.74
223.69	1196.01
223.91	1202.16
224.13	1249.26
224.35	1343.47
224.57	1247.21
224.78	1314.80
225.00	1249.26
225.22	1239.02
225.44	1335.28
225.66	1316.84
225.88	1267.69
226.10	1222.64
226.32	1282.03
226.53	1296.36
226.75	1294.32
226.97	1298.41
227.19	1249.26
227.41	1239.02
227.63	1236.97
227.85	1269.74
228.06	1279.98
228.28	1380.33
228.50	1253.36
228.72	1255.40
228.94	1269.74
229.16	1263.60
229.37	1226.73
229.59	1300.46
229.81	1212.40
230.03	1239.02
230.25	1220.59
230.47	1216.49
230.69	1216.49
230.90	1310.70
231.12	1249.26
231.34	1251.31
231.56	1300.46
231.78	1224.69
232.00	1296.36
232.21	1294.32
232.43	1308.65
232.65	1271.79
232.87	1265.64
233.09	1259.50
233.30	1183.73
233.52	1226.73
233.74	1333.23
233.96	1236.97
234.18	1277.93
234.40	1220.59
234.61	1339.37
234.83	1241.07
235.05	1292.27
235.27	1300.46
235.49	1273.84
235.70	1232.88
235.92	1341.42
236.14	1265.64
236.36	1269.74
236.58	1284.08
236.79	1286.12
237.01	1286.12
237.23	1247.21
237.45	1275.88
237.67	1253.36
237.88	1243.12
238.10	1247.21
238.32	1243.12
238.54	1257.45
238.76	1261.55
238.97	1339.37
239.19	1271.79
239.41	1239.02
239.63	1206.25
239.85	1269.74
240.06	1224.69
240.28	1341.42
240.50	1263.60
240.72	1292.27
240.93	1290.22
241.15	1273.84
241.37	1308.65
241.59	1320.94
241.81	1243.12
242.02	1288.17
242.24	1296.36
242.46	1259.50
242.68	1273.84
242.89	1263.60
243.11	1243.12
243.33	1275.88
243.55	1210.35
243.76	1310.70
243.98	1222.64
244.20	1210.35
244.42	1288.17
244.64	1253.36
244.85	1294.32
245.07	1296.36
245.29	1259.50
245.51	1253.36
245.72	1224.69
245.94	1251.31
246.16	1286.12
246.38	1265.64
246.59	1271.79
246.81	1228.78
247.03	1253.36
247.24	1206.25
247.46	1304.56
247.68	1222.64
247.90	1345.52
248.11	1322.99
248.33	1243.12
248.55	1175.53
248.77	1286.12
248.98	1322.99
249.20	1269.74
249.42	1286.12
249.64	1236.97
249.85	1298.41
250.07	1249.26
250.29	1255.40
250.50	1251.31
250.72	1320.94
250.94	1282.03
251.16	1320.94
251.37	1269.74
251.59	1306.60
251.81	1251.31
252.02	1216.49
252.24	1247.21
252.46	1275.88
252.68	1265.64
252.89	1257.45
253.11	1322.99
253.33	1255.40
253.54	1341.42
253.76	1325.04
253.98	1284.08
254.20	1265.64
254.41	1335.28
254.63	1292.27
254.85	1200.11
255.06	1277.93
255.28	1226.73
255.50	1245.16
255.71	1224.69
255.93	1251.31
256.15	1200.11
256.36	1245.16
256.58	1196.01
256.80	1249.26
257.02	1265.64
257.23	1329.13
257.45	1288.17
257.67	1236.97
257.88	1286.12
258.10	1247.21
258.32	1228.78
258.53	1277.93
258.75	1320.94
258.97	1226.73
259.18	1265.64
259.40	1247.21
259.62	1325.04
259.83	1222.64
260.05	1259.50
260.27	1255.40
260.48	1263.60
260.70	1259.50
260.92	1232.88
261.13	1234.93
261.35	1292.27
261.57	1257.45
261.78	1267.69
262.00	1245.16
262.22	1249.26
262.43	1294.32
262.65	1196.01
262.86	1261.55
263.08	1263.60
263.30	1294.32
263.51	1181.68
263.73	1329.13
263.95	1257.45
264.16	1269.74
264.38	1318.89
264.60	1282.03
264.81	1196.01
265.03	1239.02
265.25	1302.51
265.46	1298.41
265.68	1251.31
265.89	1288.17
266.11	1310.70
266.33	1294.32
266.54	1269.74
266.76	1277.93
266.98	1222.64
267.19	1265.64
267.41	1308.65
267.62	1265.64
267.84	1214.45
268.06	1255.40
268.27	1294.32
268.49	1316.84
268.70	1275.88
268.92	1265.64
269.14	1241.07
269.35	1222.64
269.57	1239.02
269.79	1259.50
270.00	1261.55
270.22	1325.04
270.43	1314.80
270.65	1206.25
270.87	1284.08
271.08	1224.69
271.30	1208.30
271.51	1302.51
271.73	1306.60
271.95	1271.79
272.16	1288.17
272.38	1239.02
272.59	1298.41
272.81	1218.54
273.02	1220.59
273.24	1296.36
273.46	1259.50
273.67	1337.32
273.89	1298.41
274.10	1267.69
274.32	1173.49
274.54	1251.31
274.75	1310.70
274.97	1320.94
275.18	1253.36
275.40	1198.06
275.61	1247.21
275.83	1216.49
276.05	1216.49
276.26	1275.88
276.48	1327.08
276.69	1255.40
276.91	1261.55
277.12	1322.99
277.34	1288.17
277.55	1239.02
277.77	1214.45
277.99	1296.36
278.20	1290.22
278.42	1265.64
278.63	1310.70
278.85	1265.64
279.06	1257.45
279.28	1394.67
279.49	1267.69
279.71	1245.16
279.93	1263.60
280.14	1249.26
280.36	1247.21
280.57	1224.69
280.79	1265.64
281.00	1224.69
281.22	1271.79
281.43	1290.22
281.65	1255.40
281.86	1322.99
282.08	1173.49
282.29	1259.50
282.51	1230.83
282.73	1263.60
282.94	1220.59
283.16	1294.32
283.37	1302.51
283.59	1208.30
283.80	1304.56
284.02	1196.01
284.23	1292.27
284.45	1236.97
284.66	1322.99
284.88	1277.93
285.09	1308.65
285.31	1335.28
285.52	1292.27
285.74	1267.69
285.95	1290.22
286.17	1255.40
286.38	1232.88
286.60	1261.55
286.81	1329.13
287.03	1255.40
287.24	1277.93
287.46	1251.31
287.67	1247.21
287.89	1294.32
288.10	1306.60
288.32	1279.98
288.53	1288.17
288.75	1296.36
288.96	1245.16
289.18	1314.80
289.39	1236.97
289.61	1273.84
289.82	1224.69
290.04	1263.60
290.25	1177.58
290.47	1232.88
290.68	1259.50
290.90	1267.69
291.11	1284.08
291.33	1312.75
291.54	1267.69
291.76	1277.93
291.97	1329.13
292.18	1251.31
292.40	1271.79
292.61	1339.37
292.83	1259.50
293.04	1218.54
293.26	1279.98
293.47	1243.12
293.69	1273.84
293.90	1300.46
294.12	1308.65
294.33	1249.26
294.55	1388.52
294.76	1296.36
294.97	1286.12
295.19	1306.60
295.40	1261.55
295.62	1308.65
295.83	1255.40
296.05	1255.40
296.26	1331.18
296.48	1282.03
296.69	1298.41
296.90	1282.03
297.12	1322.99
297.33	1318.89
297.55	1257.45
297.76	1310.70
297.98	1261.55
298.19	1275.88
298.41	1304.56
298.62	1316.84
298.83	1282.03
299.05	1228.78
299.26	1345.52
299.48	1255.40
299.69	1255.40
299.90	1312.75
300.12	1290.22
300.33	1267.69
300.55	1277.93
300.76	1224.69
300.98	1222.64
301.19	1273.84
301.40	1288.17
301.62	1265.64
301.83	1247.21
302.05	1265.64
302.26	1286.12
302.47	1290.22
302.69	1204.21
302.90	1286.12
303.12	1290.22
303.33	1320.94
303.54	1310.70
303.76	1253.36
303.97	1232.88
304.19	1306.60
304.40	1386.47
304.61	1290.22
304.83	1263.60
305.04	1222.64
305.26	1234.93
305.47	1277.93
305.68	1247.21
305.90	1312.75
306.11	1269.74
306.33	1320.94
306.54	1282.03
306.75	1263.60
306.97	1265.64
307.18	1251.31
307.39	1243.12
307.61	1273.84
307.82	1239.02
308.04	1253.36
308.25	1230.83
308.46	1232.88
308.68	1316.84
308.89	1206.25
309.10	1251.31
309.32	1292.27
309.53	1267.69
309.74	1282.03
309.96	1257.45
310.17	1249.26
310.39	1230.83
310.60	1351.66
310.81	1245.16
311.03	1269.74
311.24	1261.55
311.45	1249.26
311.67	1310.70
311.88	1306.60
312.09	1218.54
312.31	1247.21
312.52	1239.02
312.73	1257.45
312.95	1306.60
313.16	1316.84
313.37	1273.84
313.59	1314.80
313.80	1269.74
314.01	1232.88
314.23	1232.88
314.44	1325.04
314.65	1263.60
314.87	1298.41
315.08	1239.02
315.29	1290.22
315.51	1271.79
315.72	1273.84
315.93	1290.22
316.15	1269.74
316.36	1257.45
316.57	1257.45
316.79	1261.55
317.00	1296.36
317.21	1236.97
317.43	1382.38
317.64	1224.69
317.85	1206.25
318.07	1222.64
318.28	1249.26
318.49	1265.64
318.70	1302.51
318.92	1234.93
319.13	1318.89
319.34	1216.49
319.56	1200.11
319.77	1245.16
319.98	1294.32
320.20	1263.60
320.41	1286.12
320.62	1216.49
320.83	1282.03
321.05	1232.88
321.26	1290.22
321.47	1275.88
321.69	1271.79
321.90	1265.64
322.11	1314.80
322.32	1261.55
322.54	1304.56
322.75	1261.55
322.96	1310.70
323.18	1259.50
323.39	1284.08
323.60	1284.08
323.81	1265.64
324.03	1286.12
324.24	1320.94
324.45	1249.26
324.66	1296.36
324.88	1267.69
325.09	1261.55
325.30	1208.30
325.52	1277.93
325.73	1257.45
325.94	1212.40
326.15	1310.70
326.37	1259.50
326.58	1302.51
326.79	1226.73
327.00	1302.51
327.22	1202.16
327.43	1294.32
327.64	1288.17
327.85	1322.99
328.07	1312.75
328.28	1251.31
328.49	1228.78
328.70	1263.60
328.92	1255.40
329.13	1296.36
329.34	1261.55
329.55	1245.16
329.76	1314.80
329.98	1210.35
330.19	1296.36
330.40	1216.49
330.61	1333.23
330.83	1226.73
331.04	1267.69
331.25	1294.32
331.46	1310.70
331.68	1198.06
331.89	1222.64
332.10	1208.30
332.31	1312.75
332.52	1232.88
332.74	1308.65
332.95	1189.87
333.16	1202.16
333.37	1249.26
333.58	1292.27
333.80	1304.56
334.01	1265.64
334.22	1241.07
334.43	1189.87
334.64	1279.98
334.86	1218.54
335.07	1273.84
335.28	1361.90
335.49	1275.88
335.70	1284.08
335.92	1282.03
336.13	1282.03
336.34	1224.69
336.55	1216.49
336.76	1337.32
336.98	1251.31
337.19	1257.45
337.40	1310.70
337.61	1241.07
337.82	1282.03
338.04	1267.69
338.25	1249.26
338.46	1273.84
338.67	1259.50
338.88	1312.75
339.09	1333.23
339.31	1273.84
339.52	1230.83
339.73	1296.36
339.94	1267.69
340.15	1351.66
340.36	1271.79
340.58	1306.60
340.79	1247.21
341.00	1267.69
341.21	1239.02
341.42	1284.08
341.63	1239.02
341.85	1361.90
342.06	1228.78
342.27	1298.41
342.48	1288.17
342.69	1232.88
342.90	1243.12
343.12	1261.55
343.33	1349.61
343.54	1292.27
343.75	1226.73
343.96	1282.03
344.17	1251.31
344.38	1269.74
344.60	1277.93
344.81	1251.31
345.02	1265.64
345.23	1333.23
345.44	1232.88
345.65	1218.54
345.86	1259.50
346.07	1286.12
346.29	1249.26
346.50	1257.45
346.71	1200.11
346.92	1353.71
347.13	1267.69
347.34	1275.88
347.55	1257.45
347.76	1298.41
347.98	1286.12
348.19	1259.50
348.40	1263.60
348.61	1259.50
348.82	1236.97
349.03	1363.95
349.24	1232.88
349.45	1257.45
349.66	1249.26
349.88	1361.90
350.09	1273.84
350.30	1230.83
350.51	1251.31
350.72	1210.35
350.93	1273.84
351.14	1247.21
351.35	1296.36
351.56	1208.30
351.77	1253.36
351.99	1286.12
352.20	1302.51
352.41	1236.97
352.62	1241.07
352.83	1271.79
353.04	1286.12
353.25	1196.01
353.46	1263.60
353.67	1228.78
353.88	1208.30
354.09	1185.77
354.30	1226.73
354.52	1368.04
354.73	1259.50
354.94	1185.77
355.15	1284.08
355.36	1312.75
355.57	1224.69
355.78	1239.02
355.99	1277.93
356.20	1302.51
356.41	1296.36
356.62	1279.98
356.83	1273.84
357.04	1232.88
357.25	1259.50
357.46	1261.55
357.68	1296.36
357.89	1218.54
358.10	1308.65
358.31	1265.64
358.52	1241.07
358.73	1253.36
358.94	1286.12
359.15	1212.40
359.36	1259.50
359.57	1292.27
359.78	1265.64
359.99	1347.56
360.20	1271.79
360.41	1284.08
360.62	1269.74
360.83	1257.45
361.04	1212.40
361.25	1292.27
361.46	1282.03
361.67	1259.50
361.88	1273.84
362.09	1255.40
362.30	1214.45
362.51	1255.40
362.72	1277.93
362.93	1339.37
363.14	1282.03
363.35	1273.84
363.56	1298.41
363.78	1273.84
363.99	1261.55
364.20	1239.02
364.41	1277.93
364.62	1212.40
364.83	1255.40
365.04	1261.55
365.25	1290.22
365.46	1265.64
365.67	1312.75
365.88	1329.13
366.09	1306.60
366.30	1310.70
366.51	1298.41
366.72	1249.26
366.93	1288.17
367.14	1224.69
367.35	1273.84
367.56	1263.60
367.77	1294.32
367.98	1273.84
368.18	1249.26
368.39	1253.36
368.60	1236.97
368.81	1228.78
369.02	1226.73
369.23	1263.60
369.44	1296.36
369.65	1304.56
369.86	1226.73
370.07	1329.13
370.28	1288.17
370.49	1312.75
370.70	1179.63
370.91	1249.26
371.12	1224.69
371.33	1310.70
371.54	1279.98
371.75	1302.51
371.96	1302.51
372.17	1257.45
372.38	1339.37
372.59	1243.12
372.80	1261.55
373.01	1292.27
373.22	1257.45
373.43	1255.40
373.64	1308.65
373.85	1202.16
374.06	1302.51
374.26	1161.20
374.47	1325.04
374.68	1339.37
374.89	1290.22
375.10	1271.79
375.31	1273.84
375.52	1273.84
375.73	1263.60
375.94	1224.69
376.15	1236.97
376.36	1232.88
376.57	1277.93
376.78	1261.55
376.99	1239.02
377.20	1335.28
377.40	1263.60
377.61	1306.60
377.82	1314.80
378.03	1175.53
378.24	1218.54
378.45	1222.64
378.66	1296.36
378.87	1255.40
379.08	1273.84
379.29	1236.97
379.50	1255.40
379.71	1249.26
379.91	1277.93
380.12	1210.35
380.33	1302.51
380.54	1241.07
380.75	1359.85
380.96	1277.93
381.17	1232.88
381.38	1269.74
381.59	1296.36
381.80	1349.61
382.00	1253.36
382.21	1296.36
382.42	1298.41
382.63	1261.55
382.84	1275.88
383.05	1239.02
383.26	1222.64
383.47	1290.22
383.68	1277.93
383.88	1212.40
384.09	1306.60
384.30	1247.21
384.51	1230.83
384.72	1208.30
384.93	1249.26
385.14	1314.80
385.35	1304.56
385.55	1257.45
385.76	1304.56
385.97	1275.88
386.18	1300.46
386.39	1234.93
386.60	1308.65
386.81	1228.78
387.02	1296.36
387.22	1247.21
387.43	1306.60
387.64	1253.36
387.85	1288.17
388.06	1275.88
388.27	1239.02
388.48	1224.69
388.68	1191.92
388.89	1273.84
389.10	1245.16
389.31	1306.60
389.52	1286.12
389.73	1265.64
389.93	1275.88
390.14	1327.08
390.35	1273.84
390.56	1294.32
390.77	1230.83
390.98	1263.60
391.18	1191.92
391.39	1339.37
391.60	1300.46
391.81	1196.01
392.02	1337.32
392.23	1261.55
392.43	1232.88
392.64	1224.69
392.85	1214.45
393.06	1257.45
393.27	1196.01
393.47	1263.60
393.68	1263.60
393.89	1282.03
394.10	1253.36
394.31	1273.84
394.52	1279.98
394.72	1236.97
394.93	1265.64
395.14	1296.36
395.35	1357.80
395.56	1314.80
395.76	1261.55
395.97	1265.64
396.18	1331.18
396.39	1357.80
396.60	1261.55
396.80	1228.78
397.01	1322.99
397.22	1259.50
397.43	1259.50
397.64	1263.60
397.84	1222.64
398.05	1275.88
398.26	1284.08
398.47	1370.09
398.67	1300.46
398.88	1249.26
399.09	1271.79
399.30	1265.64
399.51	1265.64
399.71	1232.88
399.92	1298.41
400.13	1230.83
400.34	1294.32
400.54	1341.42
400.75	1249.26
400.96	1294.32
401.17	1286.12
401.37	1267.69
401.58	1255.40
401.79	1314.80
402.00	1286.12
402.21	1241.07
402.41	1267.69
402.62	1282.03
402.83	1279.98
403.04	1239.02
403.24	1265.64
403.45	1241.07
403.66	1257.45
403.87	1304.56
404.07	1196.01
404.28	1322.99
404.49	1273.84
404.70	1337.32
404.90	1292.27
405.11	1298.41
405.32	1290.22
405.52	1279.98
405.73	1292.27
405.94	1279.98
406.15	1275.88
406.35	1314.80
406.56	1265.64
406.77	1230.83
406.98	1232.88
407.18	1224.69
407.39	1232.88
407.60	1279.98
407.80	1312.75
408.01	1175.53
408.22	1239.02
408.43	1210.35
408.63	1339.37
408.84	1392.62
409.05	1198.06
409.25	1294.32
409.46	1286.12
409.67	1312.75
409.88	1347.56
410.08	1239.02
410.29	1267.69
410.50	1243.12
410.70	1298.41
410.91	1210.35
411.12	1325.04
411.32	1251.31
411.53	1288.17
411.74	1265.64
411.95	1282.03
412.15	1249.26
412.36	1265.64
412.57	1224.69
412.77	1204.21
412.98	1253.36
413.19	1306.60
413.39	1286.12
413.60	1329.13
413.81	1269.74
414.01	1261.55
414.22	1228.78
414.43	1279.98
414.63	1198.06
414.84	1259.50
415.05	1241.07
415.25	1234.93
415.46	1214.45
415.67	1306.60
415.87	1333.23
416.08	1312.75
416.29	1279.98
416.49	1181.68
416.70	1277.93
416.91	1171.44
417.11	1327.08
417.32	1296.36
417.53	1310.70
417.73	1261.55
417.94	1325.04
418.15	1282.03
418.35	1329.13
418.56	1253.36
418.77	1286.12
418.97	1339.37
419.18	1339.37
419.38	1208.30
419.59	1294.32
419.80	1275.88
420.00	1259.50
420.21	1253.36
420.42	1290.22
420.62	1267.69
420.83	1273.84
421.04	1296.36
421.24	1271.79
421.45	1241.07
421.65	1292.27
421.86	1200.11
422.07	1202.16
422.27	1230.83
422.48	1261.55
422.69	1202.16
422.89	1275.88
423.10	1234.93
423.30	1198.06
423.51	1290.22
423.72	1292.27
423.92	1179.63
424.13	1218.54
424.33	1212.40
424.54	1286.12
424.75	1347.56
424.95	1275.88
425.16	1312.75
425.36	1214.45
425.57	1396.71
425.78	1335.28
425.98	1337.32
426.19	1288.17
426.39	1247.21
426.60	1259.50
426.81	1196.01
427.01	1284.08
427.22	1216.49
427.42	1257.45
427.63	1271.79
427.83	1220.59
428.04	1345.52
428.25	1263.60
428.45	1320.94
428.66	1245.16
428.86	1249.26
429.07	1245.16
429.28	1277.93
429.48	1230.83
429.69	1261.55
429.89	1263.60
430.10	1191.92
430.30	1208.30
430.51	1320.94
430.71	1279.98
430.92	1341.42
431.13	1200.11
431.33	1279.98
431.54	1275.88
431.74	1267.69
431.95	1253.36
432.15	1302.51
432.36	1267.69
432.56	1349.61
432.77	1279.98
432.98	1261.55
433.18	1282.03
433.39	1300.46
433.59	1341.42
433.80	1241.07
434.00	1294.32
434.21	1236.97
434.41	1286.12
434.62	1273.84
434.82	1230.83
435.03	1224.69
435.23	1187.82
435.44	1286.12
435.64	1241.07
435.85	1241.07
436.06	1277.93
436.26	1267.69
436.47	1245.16
436.67	1279.98
436.88	1255.40
437.08	1224.69
437.29	1255.40
437.49	1290.22
437.70	1245.16
437.90	1232.88
438.11	1349.61
438.31	1277.93
438.52	1298.41
438.72	1224.69
438.93	1277.93
439.13	1265.64
439.34	1273.84
439.54	1245.16
439.75	1202.16
439.95	1279.98
440.16	1257.45
440.36	1271.79
440.57	1259.50
440.77	1279.98
440.98	1214.45
441.18	1288.17
441.39	1212.40
441.59	1273.84
441.80	1302.51
442.00	1286.12
442.21	1331.18
442.41	1228.78
442.62	1271.79
442.82	1228.78
443.02	1251.31
443.23	1288.17
443.43	1263.60
443.64	1267.69
443.84	1241.07
444.05	1312.75
444.25	1298.41
444.46	1298.41
444.66	1241.07
444.87	1279.98
445.07	1259.50
445.28	1314.80
445.48	1243.12
445.69	1271.79
445.89	1306.60
446.09	1239.02
446.30	1273.84
446.50	1347.56
446.71	1282.03
446.91	1253.36
447.12	1259.50
447.32	1327.08
447.53	1265.64
447.73	1271.79
447.93	1261.55
448.14	1282.03
448.34	1263.60
448.55	1224.69
448.75	1247.21
448.96	1261.55
449.16	1308.65
449.36	1298.41
449.57	1251.31
449.77	1322.99
449.98	1275.88
450.18	1304.56
450.39	1277.93
450.59	1314.80
450.79	1355.76
451.00	1304.56
451.20	1224.69
451.41	1318.89
451.61	1304.56
451.81	1288.17
452.02	1275.88
452.22	1406.95
452.43	1282.03
452.63	1230.83
