SpectraSuite Data File
++++++++++++++++++++++++++++++++++++
Date: Sun Apr 03 19:55:39 CEST 2016
User: root
Dark Spectrum Present: No
Reference Spectrum Present: No
Number of Sampled Component Spectra: 1
Spectrometers: USB4C02835
Integration Time (usec): 10000 (USB4C02835)
Spectra Averaged: 1 (USB4C02835)
Boxcar Smoothing: 0 (USB4C02835)
Correct for Electrical Dark: No (USB4C02835)
Strobe/Lamp Enabled: No (USB4C02835)
Correct for Detector Non-linearity: No (USB4C02835)
Correct for Stray Light: No (USB4C02835)
Number of Pixels in Processed Spectrum: 3648
>>>>>Begin Processed Spectral Data<<<<<
177.47	1245.16
177.69	1245.16
177.91	1245.16
178.13	1372.14
178.36	1286.12
178.58	1261.55
178.80	1302.51
179.02	1263.60
179.24	1228.78
179.46	1247.21
179.68	1241.07
179.90	1314.80
180.13	1353.71
180.35	1273.84
180.57	1265.64
180.79	1251.31
181.01	1300.46
181.23	1288.17
181.45	1308.65
181.67	1239.02
181.90	1216.49
182.12	1257.45
182.34	1228.78
182.56	1296.36
182.78	1218.54
183.00	1302.51
183.22	1322.99
183.44	1259.50
183.66	1284.08
183.89	1339.37
184.11	1251.31
184.33	1322.99
184.55	1273.84
184.77	1286.12
184.99	1187.82
185.21	1232.88
185.43	1302.51
185.65	1284.08
185.87	1265.64
186.10	1320.94
186.32	1296.36
186.54	1261.55
186.76	1261.55
186.98	1241.07
187.20	1243.12
187.42	1214.45
187.64	1239.02
187.86	1279.98
188.08	1300.46
188.30	1282.03
188.52	1312.75
188.75	1282.03
188.97	1210.35
189.19	1306.60
189.41	1230.83
189.63	1288.17
189.85	1230.83
190.07	1222.64
190.29	1286.12
190.51	1234.93
190.73	1327.08
190.95	1243.12
191.17	1279.98
191.39	1255.40
191.61	1286.12
191.84	1337.32
192.06	1318.89
192.28	1288.17
192.50	1251.31
192.72	1230.83
192.94	1345.52
193.16	1288.17
193.38	1257.45
193.60	1261.55
193.82	1290.22
194.04	1234.93
194.26	1284.08
194.48	1245.16
194.70	1282.03
194.92	1284.08
195.14	1277.93
195.36	1339.37
195.58	1269.74
195.80	1206.25
196.02	1273.84
196.24	1159.15
196.46	1253.36
196.69	1329.13
196.91	1261.55
197.13	1253.36
197.35	1261.55
197.57	1245.16
197.79	1314.80
198.01	1337.32
198.23	1314.80
198.45	1290.22
198.67	1247.21
198.89	1273.84
199.11	1243.12
199.33	1279.98
199.55	1251.31
199.77	1329.13
199.99	1284.08
200.21	1236.97
200.43	1236.97
200.65	1243.12
200.87	1241.07
201.09	1218.54
201.31	1220.59
201.53	1245.16
201.75	1335.28
201.97	1236.97
202.19	1320.94
202.41	1269.74
202.63	1320.94
202.85	1296.36
203.07	1304.56
203.29	1218.54
203.51	1177.58
203.73	1259.50
203.95	1337.32
204.17	1249.26
204.39	1267.69
204.61	1368.04
204.83	1228.78
205.05	1282.03
205.27	1222.64
205.49	1312.75
205.71	1212.40
205.93	1333.23
206.15	1216.49
206.37	1200.11
206.59	1249.26
206.81	1239.02
207.03	1327.08
207.25	1290.22
207.47	1267.69
207.69	1271.79
207.91	1316.84
208.13	1267.69
208.34	1255.40
208.56	1193.97
208.78	1271.79
209.00	1226.73
209.22	1255.40
209.44	1169.39
209.66	1222.64
209.88	1343.47
210.10	1327.08
210.32	1265.64
210.54	1306.60
210.76	1273.84
210.98	1314.80
211.20	1243.12
211.42	1271.79
211.64	1341.42
211.86	1357.80
212.08	1277.93
212.30	1290.22
212.52	1220.59
212.74	1243.12
212.96	1282.03
213.17	1232.88
213.39	1277.93
213.61	1271.79
213.83	1191.92
214.05	1306.60
214.27	1216.49
214.49	1284.08
214.71	1277.93
214.93	1241.07
215.15	1269.74
215.37	1247.21
215.59	1294.32
215.81	1263.60
216.03	1314.80
216.24	1245.16
216.46	1218.54
216.68	1308.65
216.90	1275.88
217.12	1279.98
217.34	1345.52
217.56	1169.39
217.78	1251.31
218.00	1228.78
218.22	1257.45
218.44	1296.36
218.66	1247.21
218.87	1275.88
219.09	1216.49
219.31	1275.88
219.53	1290.22
219.75	1296.36
219.97	1214.45
220.19	1298.41
220.41	1232.88
220.63	1279.98
220.85	1232.88
221.06	1345.52
221.28	1284.08
221.50	1271.79
221.72	1200.11
221.94	1218.54
222.16	1222.64
222.38	1331.18
222.60	1251.31
222.82	1220.59
223.03	1277.93
223.25	1331.18
223.47	1198.06
223.69	1234.93
223.91	1269.74
224.13	1302.51
224.35	1261.55
224.57	1290.22
224.78	1284.08
225.00	1265.64
225.22	1214.45
225.44	1306.60
225.66	1253.36
225.88	1292.27
226.10	1253.36
226.32	1228.78
226.53	1284.08
226.75	1302.51
226.97	1212.40
227.19	1279.98
227.41	1259.50
227.63	1273.84
227.85	1300.46
228.06	1187.82
228.28	1216.49
228.50	1341.42
228.72	1243.12
228.94	1171.44
229.16	1216.49
229.37	1261.55
229.59	1212.40
229.81	1216.49
230.03	1316.84
230.25	1232.88
230.47	1236.97
230.69	1230.83
230.90	1265.64
231.12	1282.03
231.34	1343.47
231.56	1247.21
231.78	1234.93
232.00	1212.40
232.21	1288.17
232.43	1359.85
232.65	1286.12
232.87	1206.25
233.09	1292.27
233.30	1296.36
233.52	1214.45
233.74	1314.80
233.96	1282.03
234.18	1267.69
234.40	1331.18
234.61	1298.41
234.83	1269.74
235.05	1312.75
235.27	1284.08
235.49	1241.07
235.70	1257.45
235.92	1265.64
236.14	1253.36
236.36	1282.03
236.58	1296.36
236.79	1259.50
237.01	1316.84
237.23	1261.55
237.45	1218.54
237.67	1271.79
237.88	1290.22
238.10	1302.51
238.32	1259.50
238.54	1329.13
238.76	1253.36
238.97	1245.16
239.19	1236.97
239.41	1228.78
239.63	1337.32
239.85	1245.16
240.06	1187.82
240.28	1329.13
240.50	1327.08
240.72	1345.52
240.93	1249.26
241.15	1329.13
241.37	1310.70
241.59	1329.13
241.81	1298.41
242.02	1243.12
242.24	1200.11
242.46	1271.79
242.68	1253.36
242.89	1249.26
243.11	1322.99
243.33	1347.56
243.55	1249.26
243.76	1277.93
243.98	1325.04
244.20	1185.77
244.42	1220.59
244.64	1230.83
244.85	1214.45
245.07	1239.02
245.29	1269.74
245.51	1251.31
245.72	1224.69
245.94	1247.21
246.16	1290.22
246.38	1339.37
246.59	1214.45
246.81	1210.35
247.03	1314.80
247.24	1312.75
247.46	1265.64
247.68	1220.59
247.90	1247.21
248.11	1312.75
248.33	1241.07
248.55	1257.45
248.77	1282.03
248.98	1271.79
249.20	1241.07
249.42	1249.26
249.64	1196.01
249.85	1245.16
250.07	1273.84
250.29	1232.88
250.50	1224.69
250.72	1269.74
250.94	1269.74
251.16	1322.99
251.37	1265.64
251.59	1335.28
251.81	1378.28
252.02	1271.79
252.24	1220.59
252.46	1318.89
252.68	1214.45
252.89	1177.58
253.11	1230.83
253.33	1282.03
253.54	1271.79
253.76	1306.60
253.98	1247.21
254.20	1232.88
254.41	1208.30
254.63	1267.69
254.85	1253.36
255.06	1224.69
255.28	1269.74
255.50	1279.98
255.71	1236.97
255.93	1298.41
256.15	1245.16
256.36	1257.45
256.58	1273.84
256.80	1329.13
257.02	1171.44
257.23	1245.16
257.45	1257.45
257.67	1249.26
257.88	1251.31
258.10	1245.16
258.32	1202.16
258.53	1253.36
258.75	1226.73
258.97	1292.27
259.18	1320.94
259.40	1232.88
259.62	1263.60
259.83	1308.65
260.05	1318.89
260.27	1296.36
260.48	1228.78
260.70	1249.26
260.92	1214.45
261.13	1310.70
261.35	1220.59
261.57	1265.64
261.78	1271.79
262.00	1275.88
262.22	1216.49
262.43	1241.07
262.65	1224.69
262.86	1288.17
263.08	1310.70
263.30	1243.12
263.51	1208.30
263.73	1271.79
263.95	1312.75
264.16	1255.40
264.38	1210.35
264.60	1296.36
264.81	1286.12
265.03	1275.88
265.25	1279.98
265.46	1273.84
265.68	1271.79
265.89	1310.70
266.11	1339.37
266.33	1279.98
266.54	1298.41
266.76	1249.26
266.98	1298.41
267.19	1228.78
267.41	1245.16
267.62	1349.61
267.84	1284.08
268.06	1277.93
268.27	1304.56
268.49	1277.93
268.70	1318.89
268.92	1345.52
269.14	1222.64
269.35	1243.12
269.57	1292.27
269.79	1282.03
270.00	1273.84
270.22	1279.98
270.43	1212.40
270.65	1282.03
270.87	1222.64
271.08	1255.40
271.30	1292.27
271.51	1275.88
271.73	1218.54
271.95	1202.16
272.16	1241.07
272.38	1277.93
272.59	1310.70
272.81	1210.35
273.02	1273.84
273.24	1241.07
273.46	1263.60
273.67	1216.49
273.89	1288.17
274.10	1234.93
274.32	1318.89
274.54	1322.99
274.75	1275.88
274.97	1259.50
275.18	1304.56
275.40	1232.88
275.61	1265.64
275.83	1296.36
276.05	1290.22
276.26	1259.50
276.48	1300.46
276.69	1247.21
276.91	1279.98
277.12	1183.73
277.34	1284.08
277.55	1320.94
277.77	1284.08
277.99	1273.84
278.20	1189.87
278.42	1298.41
278.63	1263.60
278.85	1298.41
279.06	1318.89
279.28	1296.36
279.49	1316.84
279.71	1230.83
279.93	1255.40
280.14	1261.55
280.36	1208.30
280.57	1296.36
280.79	1300.46
281.00	1226.73
281.22	1232.88
281.43	1263.60
281.65	1265.64
281.86	1189.87
282.08	1290.22
282.29	1308.65
282.51	1251.31
282.73	1241.07
282.94	1296.36
283.16	1255.40
283.37	1322.99
283.59	1275.88
283.80	1265.64
284.02	1282.03
284.23	1257.45
284.45	1298.41
284.66	1284.08
284.88	1257.45
285.09	1255.40
285.31	1259.50
285.52	1181.68
285.74	1298.41
285.95	1286.12
286.17	1292.27
286.38	1286.12
286.60	1269.74
286.81	1306.60
287.03	1261.55
287.24	1220.59
287.46	1271.79
287.67	1224.69
287.89	1304.56
288.10	1218.54
288.32	1261.55
288.53	1286.12
288.75	1284.08
288.96	1251.31
289.18	1222.64
289.39	1230.83
289.61	1243.12
289.82	1290.22
290.04	1271.79
290.25	1230.83
290.47	1298.41
290.68	1200.11
290.90	1232.88
291.11	1273.84
291.33	1263.60
291.54	1208.30
291.76	1277.93
291.97	1236.97
292.18	1298.41
292.40	1245.16
292.61	1257.45
292.83	1265.64
293.04	1308.65
293.26	1253.36
293.47	1208.30
293.69	1253.36
293.90	1304.56
294.12	1286.12
294.33	1306.60
294.55	1200.11
294.76	1218.54
294.97	1296.36
295.19	1300.46
295.40	1267.69
295.62	1239.02
295.83	1257.45
296.05	1273.84
296.26	1212.40
296.48	1282.03
296.69	1261.55
296.90	1232.88
297.12	1271.79
297.33	1288.17
297.55	1241.07
297.76	1224.69
297.98	1253.36
298.19	1241.07
298.41	1298.41
298.62	1220.59
298.83	1208.30
299.05	1216.49
299.26	1304.56
299.48	1204.21
299.69	1222.64
299.90	1325.04
300.12	1177.58
300.33	1298.41
300.55	1234.93
300.76	1263.60
300.98	1320.94
301.19	1224.69
301.40	1261.55
301.62	1263.60
301.83	1183.73
302.05	1259.50
302.26	1228.78
302.47	1263.60
302.69	1282.03
302.90	1312.75
303.12	1308.65
303.33	1241.07
303.54	1277.93
303.76	1222.64
303.97	1282.03
304.19	1351.66
304.40	1257.45
304.61	1310.70
304.83	1337.32
305.04	1261.55
305.26	1333.23
305.47	1255.40
305.68	1282.03
305.90	1292.27
306.11	1294.32
306.33	1302.51
306.54	1271.79
306.75	1239.02
306.97	1251.31
307.18	1173.49
307.39	1269.74
307.61	1271.79
307.82	1216.49
308.04	1259.50
308.25	1314.80
308.46	1259.50
308.68	1245.16
308.89	1333.23
309.10	1265.64
309.32	1271.79
309.53	1316.84
309.74	1239.02
309.96	1292.27
310.17	1322.99
310.39	1265.64
310.60	1257.45
310.81	1296.36
311.03	1320.94
311.24	1275.88
311.45	1263.60
311.67	1306.60
311.88	1308.65
312.09	1241.07
312.31	1230.83
312.52	1271.79
312.73	1312.75
312.95	1282.03
313.16	1351.66
313.37	1251.31
313.59	1298.41
313.80	1298.41
314.01	1271.79
314.23	1241.07
314.44	1265.64
314.65	1259.50
314.87	1249.26
315.08	1232.88
315.29	1267.69
315.51	1165.29
315.72	1224.69
315.93	1282.03
316.15	1304.56
316.36	1261.55
316.57	1230.83
316.79	1271.79
317.00	1218.54
317.21	1191.92
317.43	1259.50
317.64	1308.65
317.85	1267.69
318.07	1257.45
318.28	1275.88
318.49	1265.64
318.70	1253.36
318.92	1331.18
319.13	1216.49
319.34	1222.64
319.56	1302.51
319.77	1357.80
319.98	1210.35
320.20	1284.08
320.41	1222.64
320.62	1363.95
320.83	1208.30
321.05	1214.45
321.26	1298.41
321.47	1288.17
321.69	1239.02
321.90	1310.70
322.11	1290.22
322.32	1286.12
322.54	1292.27
322.75	1302.51
322.96	1273.84
323.18	1322.99
323.39	1298.41
323.60	1255.40
323.81	1308.65
324.03	1232.88
324.24	1265.64
324.45	1216.49
324.66	1298.41
324.88	1298.41
325.09	1261.55
325.30	1277.93
325.52	1318.89
325.73	1193.97
325.94	1222.64
326.15	1294.32
326.37	1243.12
326.58	1306.60
326.79	1320.94
327.00	1269.74
327.22	1236.97
327.43	1263.60
327.64	1251.31
327.85	1253.36
328.07	1269.74
328.28	1220.59
328.49	1214.45
328.70	1306.60
328.92	1263.60
329.13	1210.35
329.34	1288.17
329.55	1325.04
329.76	1189.87
329.98	1220.59
330.19	1245.16
330.40	1290.22
330.61	1239.02
330.83	1265.64
331.04	1331.18
331.25	1228.78
331.46	1218.54
331.68	1366.00
331.89	1318.89
332.10	1273.84
332.31	1320.94
332.52	1206.25
332.74	1341.42
332.95	1239.02
333.16	1214.45
333.37	1265.64
333.58	1290.22
333.80	1271.79
334.01	1304.56
334.22	1302.51
334.43	1226.73
334.64	1265.64
334.86	1269.74
335.07	1279.98
335.28	1239.02
335.49	1261.55
335.70	1273.84
335.92	1267.69
336.13	1265.64
336.34	1202.16
336.55	1251.31
336.76	1310.70
336.98	1290.22
337.19	1322.99
337.40	1275.88
337.61	1257.45
337.82	1232.88
338.04	1157.10
338.25	1245.16
338.46	1208.30
338.67	1230.83
338.88	1263.60
339.09	1331.18
339.31	1230.83
339.52	1241.07
339.73	1224.69
339.94	1253.36
340.15	1318.89
340.36	1212.40
340.58	1253.36
340.79	1245.16
341.00	1214.45
341.21	1308.65
341.42	1216.49
341.63	1302.51
341.85	1304.56
342.06	1271.79
342.27	1308.65
342.48	1228.78
342.69	1216.49
342.90	1200.11
343.12	1212.40
343.33	1306.60
343.54	1306.60
343.75	1273.84
343.96	1228.78
344.17	1226.73
344.38	1257.45
344.60	1263.60
344.81	1241.07
345.02	1236.97
345.23	1232.88
345.44	1247.21
345.65	1320.94
345.86	1249.26
346.07	1247.21
346.29	1271.79
346.50	1277.93
346.71	1294.32
346.92	1253.36
347.13	1239.02
347.34	1253.36
347.55	1261.55
347.76	1224.69
347.98	1247.21
348.19	1224.69
348.40	1290.22
348.61	1343.47
348.82	1236.97
349.03	1314.80
349.24	1302.51
349.45	1257.45
349.66	1335.28
349.88	1212.40
350.09	1341.42
350.30	1306.60
350.51	1243.12
350.72	1226.73
350.93	1298.41
351.14	1236.97
351.35	1292.27
351.56	1275.88
351.77	1292.27
351.99	1183.73
352.20	1220.59
352.41	1226.73
352.62	1265.64
352.83	1234.93
353.04	1263.60
353.25	1292.27
353.46	1230.83
353.67	1282.03
353.88	1310.70
354.09	1243.12
354.30	1277.93
354.52	1234.93
354.73	1271.79
354.94	1329.13
355.15	1275.88
355.36	1294.32
355.57	1277.93
355.78	1232.88
355.99	1300.46
356.20	1294.32
356.41	1298.41
356.62	1335.28
356.83	1261.55
357.04	1257.45
357.25	1290.22
357.46	1228.78
357.68	1269.74
357.89	1249.26
358.10	1286.12
358.31	1329.13
358.52	1300.46
358.73	1220.59
358.94	1259.50
359.15	1226.73
359.36	1196.01
359.57	1232.88
359.78	1245.16
359.99	1290.22
360.20	1298.41
360.41	1263.60
360.62	1249.26
360.83	1189.87
361.04	1236.97
361.25	1253.36
361.46	1245.16
361.67	1312.75
361.88	1265.64
362.09	1255.40
362.30	1314.80
362.51	1245.16
362.72	1267.69
362.93	1279.98
363.14	1300.46
363.35	1265.64
363.56	1320.94
363.78	1228.78
363.99	1331.18
364.20	1292.27
364.41	1247.21
364.62	1177.58
364.83	1279.98
365.04	1325.04
365.25	1239.02
365.46	1200.11
365.67	1210.35
365.88	1279.98
366.09	1302.51
366.30	1257.45
366.51	1282.03
366.72	1273.84
366.93	1284.08
367.14	1265.64
367.35	1253.36
367.56	1220.59
367.77	1232.88
367.98	1230.83
368.18	1273.84
368.39	1202.16
368.60	1239.02
368.81	1173.49
369.02	1284.08
369.23	1339.37
369.44	1279.98
369.65	1251.31
369.86	1251.31
370.07	1230.83
370.28	1277.93
370.49	1224.69
370.70	1239.02
370.91	1304.56
371.12	1273.84
371.33	1308.65
371.54	1239.02
371.75	1251.31
371.96	1224.69
372.17	1302.51
372.38	1236.97
372.59	1288.17
372.80	1232.88
373.01	1267.69
373.22	1239.02
373.43	1255.40
373.64	1261.55
373.85	1208.30
374.06	1294.32
374.26	1310.70
374.47	1165.29
374.68	1243.12
374.89	1265.64
375.10	1279.98
375.31	1269.74
375.52	1228.78
375.73	1277.93
375.94	1265.64
376.15	1329.13
376.36	1300.46
376.57	1255.40
376.78	1208.30
376.99	1298.41
377.20	1232.88
377.40	1216.49
377.61	1282.03
377.82	1212.40
378.03	1290.22
378.24	1173.49
378.45	1359.85
378.66	1335.28
378.87	1249.26
379.08	1275.88
379.29	1218.54
379.50	1284.08
379.71	1275.88
379.91	1269.74
380.12	1210.35
380.33	1204.21
380.54	1271.79
380.75	1222.64
380.96	1239.02
381.17	1284.08
381.38	1267.69
381.59	1253.36
381.80	1249.26
382.00	1259.50
382.21	1228.78
382.42	1269.74
382.63	1269.74
382.84	1288.17
383.05	1286.12
383.26	1251.31
383.47	1302.51
383.68	1261.55
383.88	1224.69
384.09	1290.22
384.30	1247.21
384.51	1267.69
384.72	1327.08
384.93	1249.26
385.14	1322.99
385.35	1273.84
385.55	1284.08
385.76	1179.63
385.97	1304.56
386.18	1273.84
386.39	1292.27
386.60	1292.27
386.81	1243.12
387.02	1261.55
387.22	1288.17
387.43	1241.07
387.64	1245.16
387.85	1304.56
388.06	1306.60
388.27	1216.49
388.48	1222.64
388.68	1239.02
388.89	1308.65
389.10	1228.78
389.31	1284.08
389.52	1251.31
389.73	1294.32
389.93	1282.03
390.14	1245.16
390.35	1255.40
390.56	1241.07
390.77	1275.88
390.98	1275.88
391.18	1308.65
391.39	1230.83
391.60	1236.97
391.81	1347.56
392.02	1253.36
392.23	1302.51
392.43	1251.31
392.64	1302.51
392.85	1279.98
393.06	1306.60
393.27	1259.50
393.47	1320.94
393.68	1294.32
393.89	1376.24
394.10	1316.84
394.31	1183.73
394.52	1284.08
394.72	1261.55
394.93	1296.36
395.14	1267.69
395.35	1329.13
395.56	1263.60
395.76	1212.40
395.97	1277.93
396.18	1247.21
396.39	1230.83
396.60	1263.60
396.80	1298.41
397.01	1286.12
397.22	1318.89
397.43	1302.51
397.64	1282.03
397.84	1300.46
398.05	1325.04
398.26	1288.17
398.47	1251.31
398.67	1259.50
398.88	1255.40
399.09	1257.45
399.30	1261.55
399.51	1282.03
399.71	1288.17
399.92	1308.65
400.13	1306.60
400.34	1206.25
400.54	1247.21
400.75	1251.31
400.96	1271.79
401.17	1267.69
401.37	1249.26
401.58	1308.65
401.79	1304.56
402.00	1277.93
402.21	1261.55
402.41	1263.60
402.62	1216.49
402.83	1302.51
403.04	1304.56
403.24	1306.60
403.45	1273.84
403.66	1204.21
403.87	1218.54
404.07	1261.55
404.28	1318.89
404.49	1212.40
404.70	1294.32
404.90	1273.84
405.11	1269.74
405.32	1228.78
405.52	1232.88
405.73	1253.36
405.94	1267.69
406.15	1241.07
406.35	1206.25
406.56	1275.88
406.77	1261.55
406.98	1243.12
407.18	1261.55
407.39	1247.21
407.60	1230.83
407.80	1290.22
408.01	1216.49
408.22	1214.45
408.43	1236.97
408.63	1220.59
408.84	1239.02
409.05	1298.41
409.25	1310.70
409.46	1298.41
409.67	1202.16
409.88	1259.50
410.08	1261.55
410.29	1310.70
410.50	1263.60
410.70	1261.55
410.91	1247.21
411.12	1200.11
411.32	1216.49
411.53	1284.08
411.74	1241.07
411.95	1282.03
412.15	1236.97
412.36	1263.60
412.57	1306.60
412.77	1222.64
412.98	1249.26
413.19	1277.93
413.39	1239.02
413.60	1228.78
413.81	1298.41
414.01	1193.97
414.22	1257.45
414.43	1232.88
414.63	1294.32
414.84	1277.93
415.05	1224.69
415.25	1245.16
415.46	1261.55
415.67	1241.07
415.87	1265.64
416.08	1310.70
416.29	1302.51
416.49	1216.49
416.70	1286.12
416.91	1216.49
417.11	1320.94
417.32	1212.40
417.53	1261.55
417.73	1286.12
417.94	1187.82
418.15	1259.50
418.35	1230.83
418.56	1189.87
418.77	1257.45
418.97	1282.03
419.18	1202.16
419.38	1155.05
419.59	1179.63
419.80	1230.83
420.00	1273.84
420.21	1228.78
420.42	1208.30
420.62	1316.84
420.83	1279.98
421.04	1241.07
421.24	1333.23
421.45	1292.27
421.65	1355.76
421.86	1214.45
422.07	1279.98
422.27	1310.70
422.48	1167.34
422.69	1212.40
422.89	1239.02
423.10	1288.17
423.30	1189.87
423.51	1239.02
423.72	1263.60
423.92	1286.12
424.13	1245.16
424.33	1327.08
424.54	1247.21
424.75	1282.03
424.95	1179.63
425.16	1273.84
425.36	1249.26
425.57	1267.69
425.78	1200.11
425.98	1230.83
426.19	1273.84
426.39	1265.64
426.60	1380.33
426.81	1345.52
427.01	1267.69
427.22	1261.55
427.42	1273.84
427.63	1288.17
427.83	1257.45
428.04	1282.03
428.25	1306.60
428.45	1271.79
428.66	1310.70
428.86	1261.55
429.07	1249.26
429.28	1269.74
429.48	1294.32
429.69	1251.31
429.89	1232.88
430.10	1255.40
430.30	1247.21
430.51	1175.53
430.71	1290.22
430.92	1318.89
431.13	1208.30
431.33	1292.27
431.54	1275.88
431.74	1320.94
431.95	1322.99
432.15	1261.55
432.36	1302.51
432.56	1335.28
432.77	1304.56
432.98	1310.70
433.18	1304.56
433.39	1234.93
433.59	1236.97
433.80	1247.21
434.00	1265.64
434.21	1234.93
434.41	1284.08
434.62	1306.60
434.82	1236.97
435.03	1269.74
435.23	1265.64
435.44	1247.21
435.64	1308.65
435.85	1275.88
436.06	1331.18
436.26	1312.75
436.47	1277.93
436.67	1239.02
436.88	1263.60
437.08	1200.11
437.29	1302.51
437.49	1275.88
437.70	1290.22
437.90	1341.42
438.11	1300.46
438.31	1226.73
438.52	1218.54
438.72	1292.27
438.93	1189.87
439.13	1273.84
439.34	1208.30
439.54	1316.84
439.75	1228.78
439.95	1279.98
440.16	1279.98
440.36	1249.26
440.57	1261.55
440.77	1273.84
440.98	1232.88
441.18	1261.55
441.39	1243.12
441.59	1230.83
441.80	1329.13
442.00	1325.04
442.21	1310.70
442.41	1218.54
442.62	1251.31
442.82	1228.78
443.02	1298.41
443.23	1302.51
443.43	1208.30
443.64	1255.40
443.84	1257.45
444.05	1335.28
444.25	1282.03
444.46	1224.69
444.66	1245.16
444.87	1230.83
445.07	1284.08
445.28	1224.69
445.48	1308.65
445.69	1339.37
445.89	1210.35
446.09	1310.70
446.30	1312.75
446.50	1325.04
446.71	1275.88
446.91	1269.74
447.12	1327.08
447.32	1265.64
447.53	1251.31
447.73	1347.56
447.93	1257.45
448.14	1222.64
448.34	1277.93
448.55	1263.60
448.75	1214.45
448.96	1282.03
449.16	1196.01
449.36	1300.46
449.57	1234.93
449.77	1296.36
449.98	1331.18
450.18	1300.46
450.39	1329.13
450.59	1282.03
450.79	1308.65
451.00	1269.74
451.20	1245.16
451.41	1230.83
451.61	1298.41
451.81	1288.17
452.02	1290.22
452.22	1241.07
452.43	1275.88
452.63	1265.64
