SpectraSuite Data File
++++++++++++++++++++++++++++++++++++
Date: Sun Apr 03 19:55:30 CEST 2016
User: root
Dark Spectrum Present: No
Reference Spectrum Present: No
Number of Sampled Component Spectra: 1
Spectrometers: USB4C02835
Integration Time (usec): 10000 (USB4C02835)
Spectra Averaged: 1 (USB4C02835)
Boxcar Smoothing: 0 (USB4C02835)
Correct for Electrical Dark: No (USB4C02835)
Strobe/Lamp Enabled: No (USB4C02835)
Correct for Detector Non-linearity: No (USB4C02835)
Correct for Stray Light: No (USB4C02835)
Number of Pixels in Processed Spectrum: 3648
>>>>>Begin Processed Spectral Data<<<<<
177.47	1267.69
177.69	1267.69
177.91	1267.69
178.13	1208.30
178.36	1245.16
178.58	1249.26
178.80	1234.93
179.02	1230.83
179.24	1341.42
179.46	1306.60
179.68	1265.64
179.90	1241.07
180.13	1210.35
180.35	1296.36
180.57	1277.93
180.79	1265.64
181.01	1273.84
181.23	1294.32
181.45	1224.69
181.67	1298.41
181.90	1273.84
182.12	1167.34
182.34	1226.73
182.56	1279.98
182.78	1245.16
183.00	1226.73
183.22	1247.21
183.44	1294.32
183.66	1359.85
183.89	1275.88
184.11	1361.90
184.33	1261.55
184.55	1202.16
184.77	1277.93
184.99	1259.50
185.21	1239.02
185.43	1257.45
185.65	1269.74
185.87	1294.32
186.10	1320.94
186.32	1306.60
186.54	1290.22
186.76	1339.37
186.98	1294.32
187.20	1263.60
187.42	1232.88
187.64	1204.21
187.86	1306.60
188.08	1290.22
188.30	1245.16
188.52	1228.78
188.75	1271.79
188.97	1282.03
189.19	1236.97
189.41	1288.17
189.63	1292.27
189.85	1210.35
190.07	1282.03
190.29	1273.84
190.51	1259.50
190.73	1304.56
190.95	1228.78
191.17	1208.30
191.39	1187.82
191.61	1282.03
191.84	1314.80
192.06	1279.98
192.28	1286.12
192.50	1255.40
192.72	1304.56
192.94	1224.69
193.16	1255.40
193.38	1312.75
193.60	1322.99
193.82	1320.94
194.04	1279.98
194.26	1322.99
194.48	1251.31
194.70	1202.16
194.92	1339.37
195.14	1284.08
195.36	1304.56
195.58	1282.03
195.80	1353.71
196.02	1245.16
196.24	1277.93
196.46	1220.59
196.69	1236.97
196.91	1269.74
197.13	1245.16
197.35	1259.50
197.57	1279.98
197.79	1239.02
198.01	1259.50
198.23	1230.83
198.45	1236.97
198.67	1241.07
198.89	1335.28
199.11	1161.20
199.33	1269.74
199.55	1243.12
199.77	1331.18
199.99	1245.16
200.21	1298.41
200.43	1212.40
200.65	1253.36
200.87	1302.51
201.09	1327.08
201.31	1265.64
201.53	1286.12
201.75	1271.79
201.97	1290.22
202.19	1306.60
202.41	1175.53
202.63	1282.03
202.85	1273.84
203.07	1339.37
203.29	1296.36
203.51	1187.82
203.73	1236.97
203.95	1251.31
204.17	1318.89
204.39	1277.93
204.61	1286.12
204.83	1245.16
205.05	1259.50
205.27	1269.74
205.49	1198.06
205.71	1286.12
205.93	1265.64
206.15	1265.64
206.37	1314.80
206.59	1282.03
206.81	1314.80
207.03	1286.12
207.25	1255.40
207.47	1304.56
207.69	1292.27
207.91	1284.08
208.13	1290.22
208.34	1222.64
208.56	1327.08
208.78	1239.02
209.00	1228.78
209.22	1277.93
209.44	1275.88
209.66	1263.60
209.88	1284.08
210.10	1312.75
210.32	1296.36
210.54	1298.41
210.76	1398.76
210.98	1310.70
211.20	1212.40
211.42	1304.56
211.64	1271.79
211.86	1318.89
212.08	1292.27
212.30	1306.60
212.52	1269.74
212.74	1273.84
212.96	1228.78
213.17	1290.22
213.39	1249.26
213.61	1296.36
213.83	1292.27
214.05	1218.54
214.27	1331.18
214.49	1265.64
214.71	1277.93
214.93	1286.12
215.15	1282.03
215.37	1320.94
215.59	1206.25
215.81	1228.78
216.03	1290.22
216.24	1300.46
216.46	1277.93
216.68	1249.26
216.90	1228.78
217.12	1245.16
217.34	1226.73
217.56	1318.89
217.78	1282.03
218.00	1304.56
218.22	1306.60
218.44	1232.88
218.66	1249.26
218.87	1282.03
219.09	1277.93
219.31	1312.75
219.53	1257.45
219.75	1247.21
219.97	1239.02
220.19	1275.88
220.41	1277.93
220.63	1234.93
220.85	1275.88
221.06	1302.51
221.28	1259.50
221.50	1292.27
221.72	1294.32
221.94	1310.70
222.16	1224.69
222.38	1249.26
222.60	1316.84
222.82	1234.93
223.03	1284.08
223.25	1290.22
223.47	1327.08
223.69	1347.56
223.91	1314.80
224.13	1292.27
224.35	1259.50
224.57	1198.06
224.78	1290.22
225.00	1212.40
225.22	1279.98
225.44	1257.45
225.66	1269.74
225.88	1318.89
226.10	1314.80
226.32	1337.32
226.53	1322.99
226.75	1282.03
226.97	1277.93
227.19	1267.69
227.41	1255.40
227.63	1275.88
227.85	1204.21
228.06	1249.26
228.28	1230.83
228.50	1257.45
228.72	1267.69
228.94	1243.12
229.16	1302.51
229.37	1316.84
229.59	1247.21
229.81	1239.02
230.03	1200.11
230.25	1294.32
230.47	1236.97
230.69	1341.42
230.90	1200.11
231.12	1302.51
231.34	1267.69
231.56	1279.98
231.78	1206.25
232.00	1314.80
232.21	1241.07
232.43	1263.60
232.65	1273.84
232.87	1320.94
233.09	1322.99
233.30	1234.93
233.52	1220.59
233.74	1265.64
233.96	1312.75
234.18	1347.56
234.40	1279.98
234.61	1306.60
234.83	1236.97
235.05	1265.64
235.27	1290.22
235.49	1241.07
235.70	1271.79
235.92	1269.74
236.14	1290.22
236.36	1347.56
236.58	1306.60
236.79	1228.78
237.01	1286.12
237.23	1288.17
237.45	1247.21
237.67	1296.36
237.88	1288.17
238.10	1296.36
238.32	1255.40
238.54	1282.03
238.76	1290.22
238.97	1253.36
239.19	1220.59
239.41	1263.60
239.63	1290.22
239.85	1175.53
240.06	1304.56
240.28	1282.03
240.50	1165.29
240.72	1263.60
240.93	1183.73
241.15	1247.21
241.37	1300.46
241.59	1279.98
241.81	1234.93
242.02	1214.45
242.24	1187.82
242.46	1286.12
242.68	1312.75
242.89	1286.12
243.11	1228.78
243.33	1277.93
243.55	1314.80
243.76	1263.60
243.98	1193.97
244.20	1269.74
244.42	1282.03
244.64	1288.17
244.85	1198.06
245.07	1251.31
245.29	1234.93
245.51	1234.93
245.72	1296.36
245.94	1288.17
246.16	1214.45
246.38	1241.07
246.59	1230.83
246.81	1290.22
247.03	1349.61
247.24	1308.65
247.46	1279.98
247.68	1314.80
247.90	1284.08
248.11	1273.84
248.33	1269.74
248.55	1185.77
248.77	1251.31
248.98	1214.45
249.20	1284.08
249.42	1310.70
249.64	1263.60
249.85	1329.13
250.07	1279.98
250.29	1300.46
250.50	1273.84
250.72	1290.22
250.94	1308.65
251.16	1202.16
251.37	1308.65
251.59	1296.36
251.81	1228.78
252.02	1257.45
252.24	1255.40
252.46	1241.07
252.68	1245.16
252.89	1267.69
253.11	1216.49
253.33	1310.70
253.54	1251.31
253.76	1294.32
253.98	1159.15
254.20	1228.78
254.41	1298.41
254.63	1273.84
254.85	1206.25
255.06	1255.40
255.28	1245.16
255.50	1232.88
255.71	1282.03
255.93	1310.70
256.15	1251.31
256.36	1347.56
256.58	1294.32
256.80	1208.30
257.02	1255.40
257.23	1366.00
257.45	1282.03
257.67	1343.47
257.88	1259.50
258.10	1198.06
258.32	1306.60
258.53	1236.97
258.75	1239.02
258.97	1279.98
259.18	1292.27
259.40	1339.37
259.62	1247.21
259.83	1249.26
260.05	1282.03
260.27	1202.16
260.48	1257.45
260.70	1241.07
260.92	1236.97
261.13	1273.84
261.35	1226.73
261.57	1181.68
261.78	1296.36
262.00	1398.76
262.22	1308.65
262.43	1245.16
262.65	1322.99
262.86	1325.04
263.08	1243.12
263.30	1269.74
263.51	1308.65
263.73	1294.32
263.95	1298.41
264.16	1294.32
264.38	1228.78
264.60	1224.69
264.81	1257.45
265.03	1329.13
265.25	1232.88
265.46	1290.22
265.68	1212.40
265.89	1249.26
266.11	1302.51
266.33	1263.60
266.54	1312.75
266.76	1257.45
266.98	1312.75
267.19	1259.50
267.41	1269.74
267.62	1263.60
267.84	1263.60
268.06	1353.71
268.27	1183.73
268.49	1314.80
268.70	1294.32
268.92	1284.08
269.14	1286.12
269.35	1286.12
269.57	1257.45
269.79	1314.80
270.00	1327.08
270.22	1279.98
270.43	1234.93
270.65	1247.21
270.87	1292.27
271.08	1175.53
271.30	1232.88
271.51	1239.02
271.73	1265.64
271.95	1210.35
272.16	1265.64
272.38	1247.21
272.59	1185.77
272.81	1261.55
273.02	1249.26
273.24	1193.97
273.46	1249.26
273.67	1177.58
273.89	1263.60
274.10	1273.84
274.32	1353.71
274.54	1302.51
274.75	1265.64
274.97	1310.70
275.18	1312.75
275.40	1290.22
275.61	1298.41
275.83	1325.04
276.05	1282.03
276.26	1302.51
276.48	1320.94
276.69	1249.26
276.91	1167.34
277.12	1290.22
277.34	1286.12
277.55	1284.08
277.77	1220.59
277.99	1290.22
278.20	1255.40
278.42	1257.45
278.63	1294.32
278.85	1290.22
279.06	1259.50
279.28	1247.21
279.49	1232.88
279.71	1259.50
279.93	1263.60
280.14	1239.02
280.36	1212.40
280.57	1306.60
280.79	1288.17
281.00	1232.88
281.22	1269.74
281.43	1341.42
281.65	1282.03
281.86	1273.84
282.08	1306.60
282.29	1345.52
282.51	1251.31
282.73	1308.65
282.94	1200.11
283.16	1286.12
283.37	1263.60
283.59	1218.54
283.80	1239.02
284.02	1288.17
284.23	1253.36
284.45	1241.07
284.66	1310.70
284.88	1243.12
285.09	1306.60
285.31	1216.49
285.52	1296.36
285.74	1228.78
285.95	1224.69
286.17	1292.27
286.38	1226.73
286.60	1247.21
286.81	1245.16
287.03	1269.74
287.24	1257.45
287.46	1253.36
287.67	1230.83
287.89	1189.87
288.10	1236.97
288.32	1314.80
288.53	1300.46
288.75	1341.42
288.96	1185.77
289.18	1273.84
289.39	1265.64
289.61	1333.23
289.82	1322.99
290.04	1269.74
290.25	1316.84
290.47	1208.30
290.68	1341.42
290.90	1286.12
291.11	1239.02
291.33	1296.36
291.54	1216.49
291.76	1253.36
291.97	1228.78
292.18	1304.56
292.40	1290.22
292.61	1310.70
292.83	1312.75
293.04	1243.12
293.26	1228.78
293.47	1286.12
293.69	1294.32
293.90	1249.26
294.12	1222.64
294.33	1331.18
294.55	1210.35
294.76	1312.75
294.97	1255.40
295.19	1302.51
295.40	1284.08
295.62	1271.79
295.83	1308.65
296.05	1282.03
296.26	1232.88
296.48	1282.03
296.69	1298.41
296.90	1208.30
297.12	1284.08
297.33	1290.22
297.55	1304.56
297.76	1294.32
297.98	1243.12
298.19	1173.49
298.41	1224.69
298.62	1288.17
298.83	1355.76
299.05	1191.92
299.26	1208.30
299.48	1282.03
299.69	1316.84
299.90	1263.60
300.12	1298.41
300.33	1279.98
300.55	1320.94
300.76	1279.98
300.98	1218.54
301.19	1335.28
301.40	1265.64
301.62	1249.26
301.83	1310.70
302.05	1322.99
302.26	1230.83
302.47	1300.46
302.69	1243.12
302.90	1263.60
303.12	1304.56
303.33	1279.98
303.54	1259.50
303.76	1331.18
303.97	1212.40
304.19	1314.80
304.40	1202.16
304.61	1247.21
304.83	1259.50
305.04	1331.18
305.26	1253.36
305.47	1363.95
305.68	1294.32
305.90	1306.60
306.11	1337.32
306.33	1155.05
306.54	1327.08
306.75	1247.21
306.97	1298.41
307.18	1218.54
307.39	1228.78
307.61	1263.60
307.82	1212.40
308.04	1275.88
308.25	1331.18
308.46	1265.64
308.68	1298.41
308.89	1200.11
309.10	1337.32
309.32	1265.64
309.53	1322.99
309.74	1294.32
309.96	1322.99
310.17	1273.84
310.39	1222.64
310.60	1243.12
310.81	1259.50
311.03	1300.46
311.24	1302.51
311.45	1271.79
311.67	1243.12
311.88	1329.13
312.09	1298.41
312.31	1273.84
312.52	1331.18
312.73	1267.69
312.95	1279.98
313.16	1284.08
313.37	1310.70
313.59	1265.64
313.80	1282.03
314.01	1241.07
314.23	1204.21
314.44	1255.40
314.65	1253.36
314.87	1228.78
315.08	1292.27
315.29	1279.98
315.51	1267.69
315.72	1269.74
315.93	1353.71
316.15	1277.93
316.36	1329.13
316.57	1239.02
316.79	1284.08
317.00	1191.92
317.21	1218.54
317.43	1269.74
317.64	1261.55
317.85	1202.16
318.07	1218.54
318.28	1304.56
318.49	1255.40
318.70	1347.56
318.92	1208.30
319.13	1239.02
319.34	1263.60
319.56	1206.25
319.77	1290.22
319.98	1290.22
320.20	1277.93
320.41	1271.79
320.62	1189.87
320.83	1316.84
321.05	1331.18
321.26	1275.88
321.47	1337.32
321.69	1277.93
321.90	1312.75
322.11	1333.23
322.32	1273.84
322.54	1279.98
322.75	1216.49
322.96	1226.73
323.18	1327.08
323.39	1241.07
323.60	1236.97
323.81	1216.49
324.03	1210.35
324.24	1189.87
324.45	1255.40
324.66	1292.27
324.88	1263.60
325.09	1251.31
325.30	1288.17
325.52	1290.22
325.73	1298.41
325.94	1234.93
326.15	1298.41
326.37	1290.22
326.58	1331.18
326.79	1236.97
327.00	1247.21
327.22	1257.45
327.43	1261.55
327.64	1255.40
327.85	1300.46
328.07	1306.60
328.28	1263.60
328.49	1271.79
328.70	1245.16
328.92	1292.27
329.13	1241.07
329.34	1282.03
329.55	1251.31
329.76	1288.17
329.98	1230.83
330.19	1341.42
330.40	1275.88
330.61	1331.18
330.83	1294.32
331.04	1224.69
331.25	1298.41
331.46	1302.51
331.68	1222.64
331.89	1306.60
332.10	1331.18
332.31	1304.56
332.52	1288.17
332.74	1275.88
332.95	1234.93
333.16	1265.64
333.37	1269.74
333.58	1251.31
333.80	1279.98
334.01	1265.64
334.22	1288.17
334.43	1212.40
334.64	1218.54
334.86	1271.79
335.07	1269.74
335.28	1157.10
335.49	1247.21
335.70	1261.55
335.92	1282.03
336.13	1236.97
336.34	1329.13
336.55	1228.78
336.76	1273.84
336.98	1269.74
337.19	1198.06
337.40	1273.84
337.61	1279.98
337.82	1304.56
338.04	1247.21
338.25	1191.92
338.46	1349.61
338.67	1263.60
338.88	1304.56
339.09	1214.45
339.31	1245.16
339.52	1310.70
339.73	1216.49
339.94	1259.50
340.15	1234.93
340.36	1288.17
340.58	1265.64
340.79	1249.26
341.00	1329.13
341.21	1230.83
341.42	1241.07
341.63	1300.46
341.85	1261.55
342.06	1294.32
342.27	1269.74
342.48	1279.98
342.69	1267.69
342.90	1216.49
343.12	1275.88
343.33	1372.14
343.54	1249.26
343.75	1277.93
343.96	1249.26
344.17	1255.40
344.38	1267.69
344.60	1275.88
344.81	1239.02
345.02	1271.79
345.23	1232.88
345.44	1214.45
345.65	1257.45
345.86	1232.88
346.07	1263.60
346.29	1259.50
346.50	1325.04
346.71	1304.56
346.92	1282.03
347.13	1286.12
347.34	1228.78
347.55	1302.51
347.76	1261.55
347.98	1273.84
348.19	1214.45
348.40	1314.80
348.61	1232.88
348.82	1325.04
349.03	1296.36
349.24	1271.79
349.45	1286.12
349.66	1282.03
349.88	1222.64
350.09	1302.51
350.30	1302.51
350.51	1329.13
350.72	1351.66
350.93	1241.07
351.14	1286.12
351.35	1216.49
351.56	1228.78
351.77	1353.71
351.99	1226.73
352.20	1304.56
352.41	1239.02
352.62	1253.36
352.83	1273.84
353.04	1284.08
353.25	1198.06
353.46	1239.02
353.67	1257.45
353.88	1232.88
354.09	1249.26
354.30	1243.12
354.52	1253.36
354.73	1234.93
354.94	1253.36
355.15	1216.49
355.36	1327.08
355.57	1339.37
355.78	1277.93
355.99	1286.12
356.20	1288.17
356.41	1265.64
356.62	1257.45
356.83	1282.03
357.04	1320.94
357.25	1232.88
357.46	1255.40
357.68	1208.30
357.89	1251.31
358.10	1232.88
358.31	1275.88
358.52	1241.07
358.73	1282.03
358.94	1265.64
359.15	1292.27
359.36	1247.21
359.57	1255.40
359.78	1249.26
359.99	1314.80
360.20	1302.51
360.41	1191.92
360.62	1208.30
360.83	1222.64
361.04	1288.17
361.25	1253.36
361.46	1208.30
361.67	1259.50
361.88	1279.98
362.09	1286.12
362.30	1216.49
362.51	1255.40
362.72	1265.64
362.93	1273.84
363.14	1302.51
363.35	1206.25
363.56	1265.64
363.78	1304.56
363.99	1306.60
364.20	1206.25
364.41	1298.41
364.62	1257.45
364.83	1267.69
365.04	1273.84
365.25	1245.16
365.46	1267.69
365.67	1239.02
365.88	1279.98
366.09	1239.02
366.30	1216.49
366.51	1239.02
366.72	1290.22
366.93	1247.21
367.14	1239.02
367.35	1247.21
367.56	1327.08
367.77	1261.55
367.98	1286.12
368.18	1216.49
368.39	1263.60
368.60	1271.79
368.81	1239.02
369.02	1296.36
369.23	1286.12
369.44	1245.16
369.65	1222.64
369.86	1304.56
370.07	1204.21
370.28	1335.28
370.49	1265.64
370.70	1232.88
370.91	1253.36
371.12	1271.79
371.33	1206.25
371.54	1320.94
371.75	1206.25
371.96	1304.56
372.17	1220.59
372.38	1267.69
372.59	1269.74
372.80	1312.75
373.01	1251.31
373.22	1259.50
373.43	1253.36
373.64	1222.64
373.85	1210.35
374.06	1234.93
374.26	1284.08
374.47	1247.21
374.68	1304.56
374.89	1290.22
375.10	1239.02
375.31	1331.18
375.52	1243.12
375.73	1351.66
375.94	1304.56
376.15	1284.08
376.36	1255.40
376.57	1259.50
376.78	1327.08
376.99	1257.45
377.20	1230.83
377.40	1243.12
377.61	1312.75
377.82	1198.06
378.03	1296.36
378.24	1253.36
378.45	1255.40
378.66	1306.60
378.87	1329.13
379.08	1298.41
379.29	1286.12
379.50	1310.70
379.71	1159.15
379.91	1286.12
380.12	1310.70
380.33	1282.03
380.54	1306.60
380.75	1208.30
380.96	1282.03
381.17	1292.27
381.38	1331.18
381.59	1249.26
381.80	1265.64
382.00	1271.79
382.21	1320.94
382.42	1214.45
382.63	1304.56
382.84	1204.21
383.05	1232.88
383.26	1304.56
383.47	1255.40
383.68	1253.36
383.88	1282.03
384.09	1292.27
384.30	1325.04
384.51	1243.12
384.72	1200.11
384.93	1273.84
385.14	1245.16
385.35	1288.17
385.55	1300.46
385.76	1290.22
385.97	1241.07
386.18	1259.50
386.39	1263.60
386.60	1294.32
386.81	1202.16
387.02	1224.69
387.22	1339.37
387.43	1273.84
387.64	1320.94
387.85	1306.60
388.06	1294.32
388.27	1249.26
388.48	1271.79
388.68	1370.09
388.89	1239.02
389.10	1296.36
389.31	1222.64
389.52	1265.64
389.73	1302.51
389.93	1243.12
390.14	1222.64
390.35	1263.60
390.56	1204.21
390.77	1208.30
390.98	1259.50
391.18	1292.27
391.39	1261.55
391.60	1216.49
391.81	1230.83
392.02	1292.27
392.23	1290.22
392.43	1351.66
392.64	1339.37
392.85	1247.21
393.06	1257.45
393.27	1228.78
393.47	1282.03
393.68	1294.32
393.89	1255.40
394.10	1259.50
394.31	1214.45
394.52	1273.84
394.72	1298.41
394.93	1329.13
395.14	1234.93
395.35	1255.40
395.56	1224.69
395.76	1304.56
395.97	1300.46
396.18	1279.98
396.39	1261.55
396.60	1298.41
396.80	1312.75
397.01	1290.22
397.22	1230.83
397.43	1241.07
397.64	1286.12
397.84	1292.27
398.05	1236.97
398.26	1239.02
398.47	1290.22
398.67	1327.08
398.88	1224.69
399.09	1271.79
399.30	1255.40
399.51	1230.83
399.71	1251.31
399.92	1339.37
400.13	1269.74
400.34	1259.50
400.54	1175.53
400.75	1247.21
400.96	1335.28
401.17	1206.25
401.37	1267.69
401.58	1288.17
401.79	1296.36
402.00	1314.80
402.21	1245.16
402.41	1263.60
402.62	1224.69
402.83	1259.50
403.04	1269.74
403.24	1298.41
403.45	1294.32
403.66	1279.98
403.87	1292.27
404.07	1318.89
404.28	1304.56
404.49	1261.55
404.70	1243.12
404.90	1257.45
405.11	1236.97
405.32	1331.18
405.52	1234.93
405.73	1255.40
405.94	1210.35
406.15	1306.60
406.35	1253.36
406.56	1245.16
406.77	1267.69
406.98	1345.52
407.18	1265.64
407.39	1337.32
407.60	1245.16
407.80	1320.94
408.01	1234.93
408.22	1292.27
408.43	1253.36
408.63	1277.93
408.84	1257.45
409.05	1236.97
409.25	1296.36
409.46	1251.31
409.67	1216.49
409.88	1232.88
410.08	1214.45
410.29	1243.12
410.50	1269.74
410.70	1308.65
410.91	1236.97
411.12	1259.50
411.32	1271.79
411.53	1265.64
411.74	1327.08
411.95	1300.46
412.15	1243.12
412.36	1302.51
412.57	1286.12
412.77	1267.69
412.98	1286.12
413.19	1255.40
413.39	1253.36
413.60	1298.41
413.81	1230.83
414.01	1241.07
414.22	1247.21
414.43	1302.51
414.63	1286.12
414.84	1286.12
415.05	1239.02
415.25	1267.69
415.46	1267.69
415.67	1327.08
415.87	1345.52
416.08	1292.27
416.29	1304.56
416.49	1298.41
416.70	1318.89
416.91	1273.84
417.11	1216.49
417.32	1339.37
417.53	1226.73
417.73	1257.45
417.94	1298.41
418.15	1243.12
418.35	1232.88
418.56	1251.31
418.77	1294.32
418.97	1273.84
419.18	1312.75
419.38	1226.73
419.59	1327.08
419.80	1292.27
420.00	1265.64
420.21	1265.64
420.42	1298.41
420.62	1282.03
420.83	1249.26
421.04	1249.26
421.24	1251.31
421.45	1273.84
421.65	1249.26
421.86	1228.78
422.07	1282.03
422.27	1189.87
422.48	1286.12
422.69	1335.28
422.89	1306.60
423.10	1329.13
423.30	1191.92
423.51	1265.64
423.72	1255.40
423.92	1257.45
424.13	1189.87
424.33	1275.88
424.54	1288.17
424.75	1271.79
424.95	1304.56
425.16	1216.49
425.36	1275.88
425.57	1206.25
425.78	1279.98
425.98	1230.83
426.19	1286.12
426.39	1249.26
426.60	1249.26
426.81	1318.89
427.01	1181.68
427.22	1296.36
427.42	1275.88
427.63	1193.97
427.83	1318.89
428.04	1306.60
428.25	1216.49
428.45	1245.16
428.66	1257.45
428.86	1249.26
429.07	1222.64
429.28	1304.56
429.48	1288.17
429.69	1208.30
429.89	1294.32
430.10	1308.65
430.30	1335.28
430.51	1245.16
430.71	1298.41
430.92	1277.93
431.13	1234.93
431.33	1271.79
431.54	1206.25
431.74	1234.93
431.95	1247.21
432.15	1259.50
432.36	1322.99
432.56	1314.80
432.77	1265.64
432.98	1220.59
433.18	1204.21
433.39	1286.12
433.59	1218.54
433.80	1329.13
434.00	1361.90
434.21	1282.03
434.41	1286.12
434.62	1243.12
434.82	1282.03
435.03	1304.56
435.23	1298.41
435.44	1269.74
435.64	1241.07
435.85	1310.70
436.06	1245.16
436.26	1310.70
436.47	1269.74
436.67	1206.25
436.88	1220.59
437.08	1312.75
437.29	1251.31
437.49	1286.12
437.70	1245.16
437.90	1269.74
438.11	1257.45
438.31	1331.18
438.52	1220.59
438.72	1275.88
438.93	1220.59
439.13	1310.70
439.34	1204.21
439.54	1359.85
439.75	1261.55
439.95	1279.98
440.16	1214.45
440.36	1304.56
440.57	1347.56
440.77	1269.74
440.98	1271.79
441.18	1271.79
441.39	1279.98
441.59	1318.89
441.80	1257.45
442.00	1253.36
442.21	1292.27
442.41	1220.59
442.62	1302.51
442.82	1306.60
443.02	1406.95
443.23	1353.71
443.43	1318.89
443.64	1279.98
443.84	1218.54
444.05	1290.22
444.25	1230.83
444.46	1292.27
444.66	1265.64
444.87	1327.08
445.07	1263.60
445.28	1271.79
445.48	1269.74
445.69	1245.16
445.89	1343.47
446.09	1355.76
446.30	1255.40
446.50	1269.74
446.71	1183.73
446.91	1302.51
447.12	1267.69
447.32	1335.28
447.53	1251.31
447.73	1304.56
447.93	1267.69
448.14	1296.36
448.34	1206.25
448.55	1245.16
448.75	1243.12
448.96	1284.08
449.16	1347.56
449.36	1290.22
449.57	1247.21
449.77	1343.47
449.98	1318.89
450.18	1296.36
450.39	1308.65
450.59	1243.12
450.79	1294.32
451.00	1234.93
451.20	1284.08
451.41	1234.93
451.61	1230.83
451.81	1322.99
452.02	1296.36
452.22	1230.83
452.43	1282.03
452.63	1259.50
