SpectraSuite Data File
++++++++++++++++++++++++++++++++++++
Date: Sun Apr 03 19:55:50 CEST 2016
User: root
Dark Spectrum Present: No
Reference Spectrum Present: No
Number of Sampled Component Spectra: 1
Spectrometers: USB4C02835
Integration Time (usec): 10000 (USB4C02835)
Spectra Averaged: 1 (USB4C02835)
Boxcar Smoothing: 0 (USB4C02835)
Correct for Electrical Dark: No (USB4C02835)
Strobe/Lamp Enabled: No (USB4C02835)
Correct for Detector Non-linearity: No (USB4C02835)
Correct for Stray Light: No (USB4C02835)
Number of Pixels in Processed Spectrum: 3648
>>>>>Begin Processed Spectral Data<<<<<
177.47	1292.27
177.69	1292.27
177.91	1292.27
178.13	1261.55
178.36	1267.69
178.58	1290.22
178.80	1251.31
179.02	1239.02
179.24	1265.64
179.46	1224.69
179.68	1261.55
179.90	1257.45
180.13	1259.50
180.35	1191.92
180.57	1259.50
180.79	1286.12
181.01	1247.21
181.23	1318.89
181.45	1216.49
181.67	1263.60
181.90	1241.07
182.12	1294.32
182.34	1224.69
182.56	1193.97
182.78	1265.64
183.00	1273.84
183.22	1236.97
183.44	1208.30
183.66	1290.22
183.89	1220.59
184.11	1308.65
184.33	1241.07
184.55	1261.55
184.77	1277.93
184.99	1302.51
185.21	1251.31
185.43	1343.47
185.65	1253.36
185.87	1275.88
186.10	1351.66
186.32	1245.16
186.54	1185.77
186.76	1277.93
186.98	1216.49
187.20	1273.84
187.42	1372.14
187.64	1308.65
187.86	1337.32
188.08	1253.36
188.30	1279.98
188.52	1228.78
188.75	1228.78
188.97	1214.45
189.19	1271.79
189.41	1271.79
189.63	1175.53
189.85	1298.41
190.07	1271.79
190.29	1214.45
190.51	1296.36
190.73	1249.26
190.95	1243.12
191.17	1263.60
191.39	1286.12
191.61	1345.52
191.84	1288.17
192.06	1159.15
192.28	1253.36
192.50	1265.64
192.72	1245.16
192.94	1273.84
193.16	1265.64
193.38	1220.59
193.60	1284.08
193.82	1279.98
194.04	1296.36
194.26	1165.29
194.48	1232.88
194.70	1310.70
194.92	1234.93
195.14	1257.45
195.36	1302.51
195.58	1271.79
195.80	1284.08
196.02	1239.02
196.24	1210.35
196.46	1255.40
196.69	1249.26
196.91	1288.17
197.13	1241.07
197.35	1204.21
197.57	1222.64
197.79	1255.40
198.01	1310.70
198.23	1279.98
198.45	1255.40
198.67	1288.17
198.89	1296.36
199.11	1232.88
199.33	1236.97
199.55	1298.41
199.77	1316.84
199.99	1267.69
200.21	1273.84
200.43	1273.84
200.65	1267.69
200.87	1357.80
201.09	1241.07
201.31	1220.59
201.53	1296.36
201.75	1271.79
201.97	1310.70
202.19	1222.64
202.41	1245.16
202.63	1282.03
202.85	1212.40
203.07	1232.88
203.29	1206.25
203.51	1249.26
203.73	1183.73
203.95	1337.32
204.17	1232.88
204.39	1304.56
204.61	1279.98
204.83	1245.16
205.05	1257.45
205.27	1189.87
205.49	1263.60
205.71	1302.51
205.93	1224.69
206.15	1298.41
206.37	1353.71
206.59	1296.36
206.81	1335.28
207.03	1234.93
207.25	1261.55
207.47	1290.22
207.69	1294.32
207.91	1265.64
208.13	1267.69
208.34	1294.32
208.56	1275.88
208.78	1288.17
209.00	1259.50
209.22	1261.55
209.44	1333.23
209.66	1302.51
209.88	1257.45
210.10	1224.69
210.32	1335.28
210.54	1273.84
210.76	1279.98
210.98	1200.11
211.20	1214.45
211.42	1265.64
211.64	1226.73
211.86	1251.31
212.08	1261.55
212.30	1308.65
212.52	1282.03
212.74	1286.12
212.96	1247.21
213.17	1269.74
213.39	1286.12
213.61	1286.12
213.83	1284.08
214.05	1169.39
214.27	1275.88
214.49	1306.60
214.71	1232.88
214.93	1271.79
215.15	1265.64
215.37	1265.64
215.59	1286.12
215.81	1230.83
216.03	1322.99
216.24	1232.88
216.46	1222.64
216.68	1198.06
216.90	1232.88
217.12	1316.84
217.34	1288.17
217.56	1261.55
217.78	1277.93
218.00	1296.36
218.22	1222.64
218.44	1322.99
218.66	1218.54
218.87	1247.21
219.09	1265.64
219.31	1314.80
219.53	1228.78
219.75	1329.13
219.97	1245.16
220.19	1216.49
220.41	1206.25
220.63	1249.26
220.85	1347.56
221.06	1249.26
221.28	1214.45
221.50	1247.21
221.72	1249.26
221.94	1232.88
222.16	1282.03
222.38	1265.64
222.60	1292.27
222.82	1320.94
223.03	1261.55
223.25	1325.04
223.47	1304.56
223.69	1318.89
223.91	1218.54
224.13	1214.45
224.35	1294.32
224.57	1273.84
224.78	1290.22
225.00	1232.88
225.22	1214.45
225.44	1273.84
225.66	1294.32
225.88	1255.40
226.10	1284.08
226.32	1277.93
226.53	1298.41
226.75	1265.64
226.97	1318.89
227.19	1236.97
227.41	1234.93
227.63	1265.64
227.85	1300.46
228.06	1210.35
228.28	1191.92
228.50	1245.16
228.72	1357.80
228.94	1216.49
229.16	1198.06
229.37	1300.46
229.59	1277.93
229.81	1208.30
230.03	1243.12
230.25	1310.70
230.47	1265.64
230.69	1189.87
230.90	1284.08
231.12	1277.93
231.34	1208.30
231.56	1265.64
231.78	1275.88
232.00	1273.84
232.21	1249.26
232.43	1298.41
232.65	1286.12
232.87	1234.93
233.09	1288.17
233.30	1275.88
233.52	1296.36
233.74	1298.41
233.96	1273.84
234.18	1320.94
234.40	1331.18
234.61	1236.97
234.83	1335.28
235.05	1249.26
235.27	1206.25
235.49	1228.78
235.70	1355.76
235.92	1275.88
236.14	1249.26
236.36	1224.69
236.58	1263.60
236.79	1267.69
237.01	1277.93
237.23	1337.32
237.45	1206.25
237.67	1273.84
237.88	1271.79
238.10	1257.45
238.32	1234.93
238.54	1298.41
238.76	1245.16
238.97	1249.26
239.19	1243.12
239.41	1298.41
239.63	1226.73
239.85	1202.16
240.06	1214.45
240.28	1247.21
240.50	1200.11
240.72	1255.40
240.93	1163.25
241.15	1302.51
241.37	1204.21
241.59	1306.60
241.81	1341.42
242.02	1226.73
242.24	1218.54
242.46	1275.88
242.68	1279.98
242.89	1241.07
243.11	1224.69
243.33	1243.12
243.55	1275.88
243.76	1384.43
243.98	1277.93
244.20	1273.84
244.42	1269.74
244.64	1308.65
244.85	1249.26
245.07	1306.60
245.29	1279.98
245.51	1261.55
245.72	1241.07
245.94	1265.64
246.16	1318.89
246.38	1288.17
246.59	1232.88
246.81	1294.32
247.03	1220.59
247.24	1167.34
247.46	1216.49
247.68	1251.31
247.90	1255.40
248.11	1243.12
248.33	1212.40
248.55	1335.28
248.77	1306.60
248.98	1296.36
249.20	1273.84
249.42	1316.84
249.64	1327.08
249.85	1241.07
250.07	1230.83
250.29	1277.93
250.50	1310.70
250.72	1224.69
250.94	1214.45
251.16	1357.80
251.37	1247.21
251.59	1257.45
251.81	1292.27
252.02	1265.64
252.24	1312.75
252.46	1279.98
252.68	1320.94
252.89	1267.69
253.11	1245.16
253.33	1308.65
253.54	1290.22
253.76	1271.79
253.98	1228.78
254.20	1304.56
254.41	1306.60
254.63	1236.97
254.85	1304.56
255.06	1247.21
255.28	1308.65
255.50	1257.45
255.71	1261.55
255.93	1253.36
256.15	1157.10
256.36	1273.84
256.58	1294.32
256.80	1288.17
257.02	1284.08
257.23	1322.99
257.45	1290.22
257.67	1232.88
257.88	1234.93
258.10	1236.97
258.32	1236.97
258.53	1359.85
258.75	1271.79
258.97	1259.50
259.18	1253.36
259.40	1312.75
259.62	1271.79
259.83	1214.45
260.05	1224.69
260.27	1308.65
260.48	1292.27
260.70	1230.83
260.92	1208.30
261.13	1224.69
261.35	1228.78
261.57	1329.13
261.78	1269.74
262.00	1298.41
262.22	1329.13
262.43	1249.26
262.65	1230.83
262.86	1296.36
263.08	1267.69
263.30	1277.93
263.51	1181.68
263.73	1300.46
263.95	1255.40
264.16	1241.07
264.38	1294.32
264.60	1302.51
264.81	1318.89
265.03	1251.31
265.25	1200.11
265.46	1232.88
265.68	1171.44
265.89	1282.03
266.11	1259.50
266.33	1267.69
266.54	1204.21
266.76	1341.42
266.98	1241.07
267.19	1265.64
267.41	1249.26
267.62	1284.08
267.84	1304.56
268.06	1286.12
268.27	1286.12
268.49	1259.50
268.70	1314.80
268.92	1247.21
269.14	1277.93
269.35	1286.12
269.57	1224.69
269.79	1320.94
270.00	1218.54
270.22	1359.85
270.43	1296.36
270.65	1304.56
270.87	1316.84
271.08	1282.03
271.30	1228.78
271.51	1320.94
271.73	1282.03
271.95	1251.31
272.16	1314.80
272.38	1263.60
272.59	1335.28
272.81	1279.98
273.02	1302.51
273.24	1284.08
273.46	1261.55
273.67	1255.40
273.89	1222.64
274.10	1259.50
274.32	1312.75
274.54	1275.88
274.75	1310.70
274.97	1282.03
275.18	1224.69
275.40	1234.93
275.61	1314.80
275.83	1257.45
276.05	1261.55
276.26	1208.30
276.48	1239.02
276.69	1294.32
276.91	1241.07
277.12	1286.12
277.34	1337.32
277.55	1263.60
277.77	1331.18
277.99	1337.32
278.20	1314.80
278.42	1257.45
278.63	1245.16
278.85	1261.55
279.06	1228.78
279.28	1296.36
279.49	1253.36
279.71	1239.02
279.93	1286.12
280.14	1298.41
280.36	1304.56
280.57	1232.88
280.79	1290.22
281.00	1241.07
281.22	1259.50
281.43	1271.79
281.65	1208.30
281.86	1230.83
282.08	1216.49
282.29	1263.60
282.51	1196.01
282.73	1245.16
282.94	1357.80
283.16	1288.17
283.37	1267.69
283.59	1288.17
283.80	1304.56
284.02	1249.26
284.23	1247.21
284.45	1226.73
284.66	1214.45
284.88	1200.11
285.09	1257.45
285.31	1261.55
285.52	1267.69
285.74	1216.49
285.95	1322.99
286.17	1271.79
286.38	1294.32
286.60	1212.40
286.81	1218.54
287.03	1263.60
287.24	1337.32
287.46	1267.69
287.67	1269.74
287.89	1267.69
288.10	1230.83
288.32	1304.56
288.53	1255.40
288.75	1261.55
288.96	1300.46
289.18	1239.02
289.39	1222.64
289.61	1337.32
289.82	1306.60
290.04	1282.03
290.25	1259.50
290.47	1230.83
290.68	1298.41
290.90	1314.80
291.11	1234.93
291.33	1320.94
291.54	1288.17
291.76	1294.32
291.97	1255.40
292.18	1288.17
292.40	1226.73
292.61	1247.21
292.83	1314.80
293.04	1273.84
293.26	1325.04
293.47	1257.45
293.69	1232.88
293.90	1253.36
294.12	1361.90
294.33	1337.32
294.55	1263.60
294.76	1232.88
294.97	1288.17
295.19	1271.79
295.40	1316.84
295.62	1269.74
295.83	1263.60
296.05	1247.21
296.26	1298.41
296.48	1228.78
296.69	1359.85
296.90	1243.12
297.12	1253.36
297.33	1279.98
297.55	1214.45
297.76	1314.80
297.98	1290.22
298.19	1220.59
298.41	1251.31
298.62	1310.70
298.83	1282.03
299.05	1275.88
299.26	1304.56
299.48	1230.83
299.69	1294.32
299.90	1298.41
300.12	1320.94
300.33	1298.41
300.55	1230.83
300.76	1271.79
300.98	1222.64
301.19	1292.27
301.40	1257.45
301.62	1296.36
301.83	1296.36
302.05	1306.60
302.26	1261.55
302.47	1347.56
302.69	1273.84
302.90	1366.00
303.12	1251.31
303.33	1206.25
303.54	1189.87
303.76	1279.98
303.97	1298.41
304.19	1282.03
304.40	1284.08
304.61	1241.07
304.83	1273.84
305.04	1275.88
305.26	1267.69
305.47	1193.97
305.68	1249.26
305.90	1273.84
306.11	1265.64
306.33	1222.64
306.54	1265.64
306.75	1249.26
306.97	1204.21
307.18	1228.78
307.39	1257.45
307.61	1312.75
307.82	1322.99
308.04	1337.32
308.25	1243.12
308.46	1298.41
308.68	1290.22
308.89	1288.17
309.10	1314.80
309.32	1327.08
309.53	1265.64
309.74	1300.46
309.96	1279.98
310.17	1284.08
310.39	1255.40
310.60	1288.17
310.81	1255.40
311.03	1304.56
311.24	1275.88
311.45	1239.02
311.67	1316.84
311.88	1265.64
312.09	1261.55
312.31	1232.88
312.52	1271.79
312.73	1277.93
312.95	1247.21
313.16	1257.45
313.37	1241.07
313.59	1310.70
313.80	1284.08
314.01	1298.41
314.23	1169.39
314.44	1318.89
314.65	1325.04
314.87	1290.22
315.08	1312.75
315.29	1300.46
315.51	1251.31
315.72	1224.69
315.93	1290.22
316.15	1251.31
316.36	1294.32
316.57	1300.46
316.79	1249.26
317.00	1236.97
317.21	1308.65
317.43	1257.45
317.64	1290.22
317.85	1282.03
318.07	1218.54
318.28	1243.12
318.49	1265.64
318.70	1325.04
318.92	1210.35
319.13	1284.08
319.34	1341.42
319.56	1277.93
319.77	1300.46
319.98	1259.50
320.20	1345.52
320.41	1304.56
320.62	1255.40
320.83	1232.88
321.05	1296.36
321.26	1265.64
321.47	1294.32
321.69	1261.55
321.90	1247.21
322.11	1288.17
322.32	1273.84
322.54	1251.31
322.75	1232.88
322.96	1288.17
323.18	1271.79
323.39	1255.40
323.60	1292.27
323.81	1308.65
324.03	1265.64
324.24	1224.69
324.45	1322.99
324.66	1265.64
324.88	1269.74
325.09	1208.30
325.30	1249.26
325.52	1241.07
325.73	1253.36
325.94	1275.88
326.15	1259.50
326.37	1249.26
326.58	1300.46
326.79	1288.17
327.00	1230.83
327.22	1288.17
327.43	1259.50
327.64	1329.13
327.85	1294.32
328.07	1314.80
328.28	1247.21
328.49	1296.36
328.70	1312.75
328.92	1320.94
329.13	1273.84
329.34	1265.64
329.55	1294.32
329.76	1279.98
329.98	1220.59
330.19	1269.74
330.40	1198.06
330.61	1273.84
330.83	1269.74
331.04	1243.12
331.25	1302.51
331.46	1277.93
331.68	1265.64
331.89	1345.52
332.10	1220.59
332.31	1224.69
332.52	1282.03
332.74	1259.50
332.95	1286.12
333.16	1279.98
333.37	1247.21
333.58	1290.22
333.80	1228.78
334.01	1202.16
334.22	1247.21
334.43	1302.51
334.64	1263.60
334.86	1255.40
335.07	1169.39
335.28	1265.64
335.49	1257.45
335.70	1239.02
335.92	1224.69
336.13	1216.49
336.34	1257.45
336.55	1318.89
336.76	1318.89
336.98	1269.74
337.19	1269.74
337.40	1298.41
337.61	1224.69
337.82	1335.28
338.04	1212.40
338.25	1327.08
338.46	1290.22
338.67	1327.08
338.88	1241.07
339.09	1206.25
339.31	1257.45
339.52	1267.69
339.73	1243.12
339.94	1310.70
340.15	1308.65
340.36	1325.04
340.58	1234.93
340.79	1198.06
341.00	1316.84
341.21	1304.56
341.42	1228.78
341.63	1230.83
341.85	1251.31
342.06	1265.64
342.27	1271.79
342.48	1259.50
342.69	1243.12
342.90	1232.88
343.12	1247.21
343.33	1249.26
343.54	1265.64
343.75	1234.93
343.96	1251.31
344.17	1292.27
344.38	1277.93
344.60	1296.36
344.81	1331.18
345.02	1314.80
345.23	1232.88
345.44	1322.99
345.65	1200.11
345.86	1208.30
346.07	1298.41
346.29	1271.79
346.50	1255.40
346.71	1259.50
346.92	1241.07
347.13	1257.45
347.34	1239.02
347.55	1187.82
347.76	1288.17
347.98	1249.26
348.19	1216.49
348.40	1249.26
348.61	1277.93
348.82	1247.21
349.03	1286.12
349.24	1290.22
349.45	1243.12
349.66	1310.70
349.88	1247.21
350.09	1232.88
350.30	1208.30
350.51	1271.79
350.72	1255.40
350.93	1193.97
351.14	1222.64
351.35	1198.06
351.56	1284.08
351.77	1284.08
351.99	1222.64
352.20	1277.93
352.41	1247.21
352.62	1189.87
352.83	1249.26
353.04	1255.40
353.25	1249.26
353.46	1259.50
353.67	1361.90
353.88	1214.45
354.09	1329.13
354.30	1306.60
354.52	1300.46
354.73	1298.41
354.94	1222.64
355.15	1271.79
355.36	1269.74
355.57	1357.80
355.78	1275.88
355.99	1298.41
356.20	1247.21
356.41	1249.26
356.62	1189.87
356.83	1298.41
357.04	1239.02
357.25	1335.28
357.46	1232.88
357.68	1236.97
357.89	1296.36
358.10	1284.08
358.31	1261.55
358.52	1288.17
358.73	1277.93
358.94	1216.49
359.15	1284.08
359.36	1290.22
359.57	1245.16
359.78	1298.41
359.99	1257.45
360.20	1363.95
360.41	1269.74
360.62	1325.04
360.83	1208.30
361.04	1177.58
361.25	1169.39
361.46	1304.56
361.67	1306.60
361.88	1259.50
362.09	1140.72
362.30	1269.74
362.51	1310.70
362.72	1286.12
362.93	1302.51
363.14	1249.26
363.35	1275.88
363.56	1304.56
363.78	1282.03
363.99	1226.73
364.20	1239.02
364.41	1216.49
364.62	1216.49
364.83	1232.88
365.04	1277.93
365.25	1279.98
365.46	1279.98
365.67	1202.16
365.88	1320.94
366.09	1191.92
366.30	1275.88
366.51	1282.03
366.72	1322.99
366.93	1282.03
367.14	1308.65
367.35	1259.50
367.56	1282.03
367.77	1259.50
367.98	1318.89
368.18	1220.59
368.39	1265.64
368.60	1228.78
368.81	1269.74
369.02	1318.89
369.23	1269.74
369.44	1253.36
369.65	1267.69
369.86	1300.46
370.07	1304.56
370.28	1331.18
370.49	1310.70
370.70	1257.45
370.91	1265.64
371.12	1314.80
371.33	1267.69
371.54	1343.47
371.75	1267.69
371.96	1288.17
372.17	1232.88
372.38	1288.17
372.59	1282.03
372.80	1257.45
373.01	1261.55
373.22	1282.03
373.43	1322.99
373.64	1279.98
373.85	1290.22
374.06	1310.70
374.26	1271.79
374.47	1290.22
374.68	1255.40
374.89	1277.93
375.10	1294.32
375.31	1259.50
375.52	1247.21
375.73	1300.46
375.94	1263.60
376.15	1329.13
376.36	1169.39
376.57	1290.22
376.78	1265.64
376.99	1290.22
377.20	1185.77
377.40	1290.22
377.61	1218.54
377.82	1275.88
378.03	1273.84
378.24	1296.36
378.45	1277.93
378.66	1331.18
378.87	1202.16
379.08	1320.94
379.29	1263.60
379.50	1208.30
379.71	1265.64
379.91	1224.69
380.12	1339.37
380.33	1249.26
380.54	1253.36
380.75	1265.64
380.96	1304.56
381.17	1241.07
381.38	1257.45
381.59	1171.44
381.80	1296.36
382.00	1279.98
382.21	1314.80
382.42	1255.40
382.63	1255.40
382.84	1290.22
383.05	1306.60
383.26	1241.07
383.47	1226.73
383.68	1181.68
383.88	1294.32
384.09	1310.70
384.30	1202.16
384.51	1269.74
384.72	1294.32
384.93	1251.31
385.14	1325.04
385.35	1261.55
385.55	1275.88
385.76	1249.26
385.97	1335.28
386.18	1263.60
386.39	1327.08
386.60	1263.60
386.81	1243.12
387.02	1255.40
387.22	1306.60
387.43	1275.88
387.64	1269.74
387.85	1263.60
388.06	1202.16
388.27	1312.75
388.48	1329.13
388.68	1296.36
388.89	1261.55
389.10	1345.52
389.31	1257.45
389.52	1273.84
389.73	1282.03
389.93	1269.74
390.14	1316.84
390.35	1249.26
390.56	1265.64
390.77	1159.15
390.98	1296.36
391.18	1181.68
391.39	1257.45
391.60	1239.02
391.81	1322.99
392.02	1236.97
392.23	1296.36
392.43	1306.60
392.64	1290.22
392.85	1253.36
393.06	1306.60
393.27	1290.22
393.47	1296.36
393.68	1239.02
393.89	1259.50
394.10	1230.83
394.31	1251.31
394.52	1279.98
394.72	1271.79
394.93	1200.11
395.14	1253.36
395.35	1331.18
395.56	1269.74
395.76	1265.64
395.97	1216.49
396.18	1271.79
396.39	1302.51
396.60	1277.93
396.80	1269.74
397.01	1290.22
397.22	1290.22
397.43	1230.83
397.64	1269.74
397.84	1275.88
398.05	1279.98
398.26	1302.51
398.47	1232.88
398.67	1241.07
398.88	1212.40
399.09	1337.32
399.30	1284.08
399.51	1200.11
399.71	1241.07
399.92	1288.17
400.13	1230.83
400.34	1263.60
400.54	1265.64
400.75	1200.11
400.96	1322.99
401.17	1314.80
401.37	1335.28
401.58	1255.40
401.79	1226.73
402.00	1243.12
402.21	1271.79
402.41	1306.60
402.62	1267.69
402.83	1247.21
403.04	1277.93
403.24	1302.51
403.45	1236.97
403.66	1198.06
403.87	1298.41
404.07	1247.21
404.28	1265.64
404.49	1286.12
404.70	1325.04
404.90	1275.88
405.11	1220.59
405.32	1239.02
405.52	1253.36
405.73	1271.79
405.94	1335.28
406.15	1185.77
406.35	1284.08
406.56	1288.17
406.77	1241.07
406.98	1279.98
407.18	1261.55
407.39	1308.65
407.60	1253.36
407.80	1236.97
408.01	1271.79
408.22	1302.51
408.43	1167.34
408.63	1304.56
408.84	1304.56
409.05	1273.84
409.25	1284.08
409.46	1230.83
409.67	1267.69
409.88	1314.80
410.08	1200.11
410.29	1298.41
410.50	1298.41
410.70	1226.73
410.91	1296.36
411.12	1282.03
411.32	1239.02
411.53	1226.73
411.74	1284.08
411.95	1292.27
412.15	1261.55
412.36	1251.31
412.57	1247.21
412.77	1271.79
412.98	1300.46
413.19	1259.50
413.39	1292.27
413.60	1226.73
413.81	1329.13
414.01	1318.89
414.22	1200.11
414.43	1275.88
414.63	1239.02
414.84	1249.26
415.05	1302.51
415.25	1269.74
415.46	1267.69
415.67	1273.84
415.87	1212.40
416.08	1314.80
416.29	1316.84
416.49	1234.93
416.70	1298.41
416.91	1247.21
417.11	1265.64
417.32	1222.64
417.53	1243.12
417.73	1255.40
417.94	1216.49
418.15	1226.73
418.35	1263.60
418.56	1226.73
418.77	1263.60
418.97	1214.45
419.18	1273.84
419.38	1185.77
419.59	1265.64
419.80	1273.84
420.00	1222.64
420.21	1265.64
420.42	1257.45
420.62	1333.23
420.83	1273.84
421.04	1253.36
421.24	1279.98
421.45	1308.65
421.65	1210.35
421.86	1292.27
422.07	1212.40
422.27	1251.31
422.48	1239.02
422.69	1286.12
422.89	1241.07
423.10	1200.11
423.30	1282.03
423.51	1249.26
423.72	1298.41
423.92	1298.41
424.13	1284.08
424.33	1239.02
424.54	1304.56
424.75	1322.99
424.95	1265.64
425.16	1271.79
425.36	1228.78
425.57	1255.40
425.78	1185.77
425.98	1249.26
426.19	1294.32
426.39	1189.87
426.60	1310.70
426.81	1292.27
427.01	1302.51
427.22	1271.79
427.42	1198.06
427.63	1271.79
427.83	1288.17
428.04	1208.30
428.25	1320.94
428.45	1277.93
428.66	1241.07
428.86	1200.11
429.07	1312.75
429.28	1288.17
429.48	1296.36
429.69	1241.07
429.89	1249.26
430.10	1265.64
430.30	1261.55
430.51	1234.93
430.71	1314.80
430.92	1331.18
431.13	1243.12
431.33	1279.98
431.54	1232.88
431.74	1216.49
431.95	1259.50
432.15	1247.21
432.36	1236.97
432.56	1298.41
432.77	1220.59
432.98	1241.07
433.18	1290.22
433.39	1253.36
433.59	1243.12
433.80	1273.84
434.00	1273.84
434.21	1222.64
434.41	1241.07
434.62	1251.31
434.82	1198.06
435.03	1259.50
435.23	1314.80
435.44	1343.47
435.64	1310.70
435.85	1251.31
436.06	1257.45
436.26	1292.27
436.47	1306.60
436.67	1310.70
436.88	1277.93
437.08	1298.41
437.29	1341.42
437.49	1230.83
437.70	1224.69
437.90	1257.45
438.11	1286.12
438.31	1245.16
438.52	1249.26
438.72	1232.88
438.93	1296.36
439.13	1277.93
439.34	1273.84
439.54	1300.46
439.75	1267.69
439.95	1249.26
440.16	1259.50
440.36	1216.49
440.57	1185.77
440.77	1279.98
440.98	1282.03
441.18	1298.41
441.39	1308.65
441.59	1257.45
441.80	1320.94
442.00	1241.07
442.21	1259.50
442.41	1279.98
442.62	1253.36
442.82	1243.12
443.02	1320.94
443.23	1263.60
443.43	1239.02
443.64	1247.21
443.84	1214.45
444.05	1275.88
444.25	1306.60
444.46	1312.75
444.66	1275.88
444.87	1298.41
445.07	1232.88
445.28	1306.60
445.48	1296.36
445.69	1302.51
445.89	1292.27
446.09	1251.31
446.30	1257.45
446.50	1304.56
446.71	1241.07
446.91	1341.42
447.12	1265.64
447.32	1288.17
447.53	1327.08
447.73	1279.98
447.93	1306.60
448.14	1249.26
448.34	1363.95
448.55	1265.64
448.75	1214.45
448.96	1288.17
449.16	1216.49
449.36	1218.54
449.57	1234.93
449.77	1327.08
449.98	1198.06
450.18	1265.64
450.39	1236.97
450.59	1269.74
450.79	1282.03
451.00	1310.70
451.20	1208.30
451.41	1310.70
451.61	1243.12
451.81	1261.55
452.02	1279.98
452.22	1247.21
452.43	1247.21
452.63	1335.28
