SpectraSuite Data File
++++++++++++++++++++++++++++++++++++
Date: Sun Apr 03 19:55:16 CEST 2016
User: root
Dark Spectrum Present: No
Reference Spectrum Present: No
Number of Sampled Component Spectra: 1
Spectrometers: USB4C02835
Integration Time (usec): 10000 (USB4C02835)
Spectra Averaged: 1 (USB4C02835)
Boxcar Smoothing: 0 (USB4C02835)
Correct for Electrical Dark: No (USB4C02835)
Strobe/Lamp Enabled: No (USB4C02835)
Correct for Detector Non-linearity: No (USB4C02835)
Correct for Stray Light: No (USB4C02835)
Number of Pixels in Processed Spectrum: 3648
>>>>>Begin Processed Spectral Data<<<<<
177.47	1249.26
177.69	1249.26
177.91	1249.26
178.13	1212.40
178.36	1214.45
178.58	1308.65
178.80	1247.21
179.02	1327.08
179.24	1271.79
179.46	1224.69
179.68	1347.56
179.90	1253.36
180.13	1241.07
180.35	1243.12
180.57	1298.41
180.79	1290.22
181.01	1318.89
181.23	1347.56
181.45	1263.60
181.67	1234.93
181.90	1316.84
182.12	1249.26
182.34	1222.64
182.56	1267.69
182.78	1187.82
183.00	1263.60
183.22	1222.64
183.44	1261.55
183.66	1226.73
183.89	1247.21
184.11	1282.03
184.33	1275.88
184.55	1173.49
184.77	1236.97
184.99	1288.17
185.21	1279.98
185.43	1282.03
185.65	1261.55
185.87	1296.36
186.10	1308.65
186.32	1271.79
186.54	1327.08
186.76	1275.88
186.98	1275.88
187.20	1306.60
187.42	1282.03
187.64	1363.95
187.86	1273.84
188.08	1290.22
188.30	1224.69
188.52	1333.23
188.75	1265.64
188.97	1314.80
189.19	1296.36
189.41	1318.89
189.63	1218.54
189.85	1169.39
190.07	1273.84
190.29	1331.18
190.51	1273.84
190.73	1263.60
190.95	1288.17
191.17	1251.31
191.39	1275.88
191.61	1310.70
191.84	1290.22
192.06	1292.27
192.28	1222.64
192.50	1282.03
192.72	1232.88
192.94	1243.12
193.16	1327.08
193.38	1284.08
193.60	1255.40
193.82	1259.50
194.04	1279.98
194.26	1208.30
194.48	1286.12
194.70	1230.83
194.92	1249.26
195.14	1189.87
195.36	1335.28
195.58	1236.97
195.80	1185.77
196.02	1222.64
196.24	1257.45
196.46	1298.41
196.69	1243.12
196.91	1234.93
197.13	1263.60
197.35	1224.69
197.57	1261.55
197.79	1265.64
198.01	1253.36
198.23	1251.31
198.45	1263.60
198.67	1267.69
198.89	1269.74
199.11	1241.07
199.33	1251.31
199.55	1224.69
199.77	1255.40
199.99	1284.08
200.21	1241.07
200.43	1259.50
200.65	1296.36
200.87	1314.80
201.09	1253.36
201.31	1253.36
201.53	1269.74
201.75	1241.07
201.97	1191.92
202.19	1249.26
202.41	1239.02
202.63	1277.93
202.85	1239.02
203.07	1234.93
203.29	1290.22
203.51	1251.31
203.73	1241.07
203.95	1284.08
204.17	1208.30
204.39	1314.80
204.61	1241.07
204.83	1329.13
205.05	1337.32
205.27	1236.97
205.49	1241.07
205.71	1257.45
205.93	1243.12
206.15	1345.52
206.37	1288.17
206.59	1275.88
206.81	1153.01
207.03	1333.23
207.25	1273.84
207.47	1308.65
207.69	1288.17
207.91	1304.56
208.13	1210.35
208.34	1294.32
208.56	1316.84
208.78	1241.07
209.00	1255.40
209.22	1232.88
209.44	1263.60
209.66	1282.03
209.88	1249.26
210.10	1277.93
210.32	1265.64
210.54	1308.65
210.76	1224.69
210.98	1230.83
211.20	1255.40
211.42	1247.21
211.64	1275.88
211.86	1277.93
212.08	1216.49
212.30	1273.84
212.52	1292.27
212.74	1249.26
212.96	1294.32
213.17	1249.26
213.39	1173.49
213.61	1259.50
213.83	1220.59
214.05	1282.03
214.27	1279.98
214.49	1202.16
214.71	1271.79
214.93	1290.22
215.15	1347.56
215.37	1290.22
215.59	1206.25
215.81	1247.21
216.03	1314.80
216.24	1333.23
216.46	1273.84
216.68	1314.80
216.90	1247.21
217.12	1243.12
217.34	1245.16
217.56	1265.64
217.78	1253.36
218.00	1298.41
218.22	1284.08
218.44	1247.21
218.66	1257.45
218.87	1245.16
219.09	1269.74
219.31	1267.69
219.53	1286.12
219.75	1286.12
219.97	1226.73
220.19	1257.45
220.41	1222.64
220.63	1263.60
220.85	1236.97
221.06	1265.64
221.28	1314.80
221.50	1288.17
221.72	1284.08
221.94	1259.50
222.16	1259.50
222.38	1255.40
222.60	1251.31
222.82	1269.74
223.03	1273.84
223.25	1269.74
223.47	1298.41
223.69	1187.82
223.91	1261.55
224.13	1228.78
224.35	1271.79
224.57	1265.64
224.78	1257.45
225.00	1282.03
225.22	1230.83
225.44	1259.50
225.66	1282.03
225.88	1257.45
226.10	1236.97
226.32	1275.88
226.53	1257.45
226.75	1298.41
226.97	1314.80
227.19	1212.40
227.41	1288.17
227.63	1286.12
227.85	1236.97
228.06	1236.97
228.28	1216.49
228.50	1269.74
228.72	1288.17
228.94	1241.07
229.16	1290.22
229.37	1341.42
229.59	1255.40
229.81	1290.22
230.03	1257.45
230.25	1298.41
230.47	1218.54
230.69	1198.06
230.90	1296.36
231.12	1234.93
231.34	1271.79
231.56	1247.21
231.78	1294.32
232.00	1339.37
232.21	1308.65
232.43	1296.36
232.65	1316.84
232.87	1253.36
233.09	1226.73
233.30	1263.60
233.52	1257.45
233.74	1282.03
233.96	1243.12
234.18	1269.74
234.40	1300.46
234.61	1236.97
234.83	1263.60
235.05	1247.21
235.27	1269.74
235.49	1265.64
235.70	1257.45
235.92	1261.55
236.14	1247.21
236.36	1265.64
236.58	1185.77
236.79	1212.40
237.01	1157.10
237.23	1273.84
237.45	1232.88
237.67	1230.83
237.88	1214.45
238.10	1288.17
238.32	1263.60
238.54	1316.84
238.76	1239.02
238.97	1253.36
239.19	1296.36
239.41	1298.41
239.63	1255.40
239.85	1245.16
240.06	1255.40
240.28	1314.80
240.50	1325.04
240.72	1288.17
240.93	1304.56
241.15	1243.12
241.37	1249.26
241.59	1302.51
241.81	1193.97
242.02	1265.64
242.24	1249.26
242.46	1263.60
242.68	1249.26
242.89	1296.36
243.11	1298.41
243.33	1265.64
243.55	1279.98
243.76	1312.75
243.98	1271.79
244.20	1290.22
244.42	1269.74
244.64	1277.93
244.85	1320.94
245.07	1273.84
245.29	1157.10
245.51	1284.08
245.72	1265.64
245.94	1331.18
246.16	1292.27
246.38	1306.60
246.59	1255.40
246.81	1206.25
247.03	1308.65
247.24	1310.70
247.46	1173.49
247.68	1257.45
247.90	1300.46
248.11	1226.73
248.33	1228.78
248.55	1296.36
248.77	1322.99
248.98	1316.84
249.20	1335.28
249.42	1284.08
249.64	1269.74
249.85	1212.40
250.07	1269.74
250.29	1314.80
250.50	1253.36
250.72	1208.30
250.94	1306.60
251.16	1273.84
251.37	1275.88
251.59	1241.07
251.81	1220.59
252.02	1298.41
252.24	1312.75
252.46	1236.97
252.68	1253.36
252.89	1290.22
253.11	1286.12
253.33	1249.26
253.54	1222.64
253.76	1259.50
253.98	1337.32
254.20	1259.50
254.41	1210.35
254.63	1296.36
254.85	1212.40
255.06	1226.73
255.28	1298.41
255.50	1271.79
255.71	1279.98
255.93	1247.21
256.15	1249.26
256.36	1230.83
256.58	1245.16
256.80	1206.25
257.02	1322.99
257.23	1234.93
257.45	1181.68
257.67	1228.78
257.88	1216.49
258.10	1193.97
258.32	1196.01
258.53	1290.22
258.75	1263.60
258.97	1329.13
259.18	1177.58
259.40	1312.75
259.62	1298.41
259.83	1265.64
260.05	1282.03
260.27	1255.40
260.48	1236.97
260.70	1306.60
260.92	1312.75
261.13	1312.75
261.35	1204.21
261.57	1206.25
261.78	1322.99
262.00	1275.88
262.22	1279.98
262.43	1290.22
262.65	1331.18
262.86	1206.25
263.08	1337.32
263.30	1306.60
263.51	1282.03
263.73	1277.93
263.95	1265.64
264.16	1232.88
264.38	1290.22
264.60	1275.88
264.81	1331.18
265.03	1310.70
265.25	1292.27
265.46	1290.22
265.68	1296.36
265.89	1300.46
266.11	1202.16
266.33	1294.32
266.54	1314.80
266.76	1288.17
266.98	1322.99
267.19	1265.64
267.41	1277.93
267.62	1259.50
267.84	1220.59
268.06	1218.54
268.27	1316.84
268.49	1347.56
268.70	1261.55
268.92	1288.17
269.14	1284.08
269.35	1200.11
269.57	1386.47
269.79	1245.16
270.00	1265.64
270.22	1224.69
270.43	1275.88
270.65	1333.23
270.87	1302.51
271.08	1263.60
271.30	1279.98
271.51	1165.29
271.73	1290.22
271.95	1239.02
272.16	1216.49
272.38	1243.12
272.59	1267.69
272.81	1271.79
273.02	1284.08
273.24	1290.22
273.46	1277.93
273.67	1273.84
273.89	1241.07
274.10	1273.84
274.32	1222.64
274.54	1255.40
274.75	1206.25
274.97	1226.73
275.18	1312.75
275.40	1245.16
275.61	1294.32
275.83	1218.54
276.05	1239.02
276.26	1208.30
276.48	1298.41
276.69	1296.36
276.91	1230.83
277.12	1255.40
277.34	1292.27
277.55	1257.45
277.77	1333.23
277.99	1265.64
278.20	1259.50
278.42	1277.93
278.63	1294.32
278.85	1322.99
279.06	1230.83
279.28	1284.08
279.49	1288.17
279.71	1290.22
279.93	1196.01
280.14	1261.55
280.36	1277.93
280.57	1230.83
280.79	1210.35
281.00	1241.07
281.22	1286.12
281.43	1226.73
281.65	1212.40
281.86	1282.03
282.08	1298.41
282.29	1294.32
282.51	1208.30
282.73	1308.65
282.94	1353.71
283.16	1318.89
283.37	1218.54
283.59	1279.98
283.80	1241.07
284.02	1286.12
284.23	1282.03
284.45	1286.12
284.66	1288.17
284.88	1261.55
285.09	1279.98
285.31	1189.87
285.52	1255.40
285.74	1277.93
285.95	1275.88
286.17	1269.74
286.38	1208.30
286.60	1247.21
286.81	1249.26
287.03	1263.60
287.24	1302.51
287.46	1183.73
287.67	1279.98
287.89	1247.21
288.10	1179.63
288.32	1269.74
288.53	1165.29
288.75	1302.51
288.96	1247.21
289.18	1236.97
289.39	1282.03
289.61	1261.55
289.82	1212.40
290.04	1345.52
290.25	1263.60
290.47	1325.04
290.68	1236.97
290.90	1218.54
291.11	1282.03
291.33	1232.88
291.54	1255.40
291.76	1294.32
291.97	1263.60
292.18	1251.31
292.40	1259.50
292.61	1322.99
292.83	1228.78
293.04	1277.93
293.26	1300.46
293.47	1232.88
293.69	1277.93
293.90	1286.12
294.12	1232.88
294.33	1261.55
294.55	1245.16
294.76	1308.65
294.97	1282.03
295.19	1288.17
295.40	1257.45
295.62	1245.16
295.83	1255.40
296.05	1247.21
296.26	1271.79
296.48	1296.36
296.69	1279.98
296.90	1249.26
297.12	1304.56
297.33	1226.73
297.55	1265.64
297.76	1226.73
297.98	1210.35
298.19	1243.12
298.41	1259.50
298.62	1290.22
298.83	1230.83
299.05	1279.98
299.26	1275.88
299.48	1241.07
299.69	1302.51
299.90	1310.70
300.12	1138.67
300.33	1327.08
300.55	1255.40
300.76	1239.02
300.98	1312.75
301.19	1191.92
301.40	1234.93
301.62	1261.55
301.83	1263.60
302.05	1306.60
302.26	1216.49
302.47	1318.89
302.69	1261.55
302.90	1216.49
303.12	1255.40
303.33	1214.45
303.54	1214.45
303.76	1177.58
303.97	1302.51
304.19	1320.94
304.40	1282.03
304.61	1226.73
304.83	1282.03
305.04	1284.08
305.26	1265.64
305.47	1239.02
305.68	1284.08
305.90	1241.07
306.11	1304.56
306.33	1269.74
306.54	1245.16
306.75	1249.26
306.97	1290.22
307.18	1220.59
307.39	1277.93
307.61	1290.22
307.82	1279.98
308.04	1290.22
308.25	1308.65
308.46	1304.56
308.68	1228.78
308.89	1271.79
309.10	1275.88
309.32	1267.69
309.53	1249.26
309.74	1263.60
309.96	1277.93
310.17	1359.85
310.39	1302.51
310.60	1234.93
310.81	1218.54
311.03	1232.88
311.24	1259.50
311.45	1277.93
311.67	1230.83
311.88	1288.17
312.09	1253.36
312.31	1222.64
312.52	1189.87
312.73	1306.60
312.95	1200.11
313.16	1314.80
313.37	1275.88
313.59	1222.64
313.80	1220.59
314.01	1310.70
314.23	1265.64
314.44	1310.70
314.65	1230.83
314.87	1271.79
315.08	1279.98
315.29	1325.04
315.51	1284.08
315.72	1306.60
315.93	1261.55
316.15	1302.51
316.36	1249.26
316.57	1265.64
316.79	1310.70
317.00	1277.93
317.21	1212.40
317.43	1226.73
317.64	1275.88
317.85	1247.21
318.07	1239.02
318.28	1239.02
318.49	1224.69
318.70	1249.26
318.92	1230.83
319.13	1290.22
319.34	1282.03
319.56	1290.22
319.77	1232.88
319.98	1251.31
320.20	1261.55
320.41	1277.93
320.62	1296.36
320.83	1206.25
321.05	1247.21
321.26	1318.89
321.47	1320.94
321.69	1265.64
321.90	1249.26
322.11	1282.03
322.32	1249.26
322.54	1294.32
322.75	1218.54
322.96	1255.40
323.18	1279.98
323.39	1304.56
323.60	1236.97
323.81	1333.23
324.03	1267.69
324.24	1275.88
324.45	1249.26
324.66	1251.31
324.88	1329.13
325.09	1292.27
325.30	1325.04
325.52	1302.51
325.73	1249.26
325.94	1288.17
326.15	1249.26
326.37	1239.02
326.58	1316.84
326.79	1292.27
327.00	1312.75
327.22	1241.07
327.43	1294.32
327.64	1333.23
327.85	1241.07
328.07	1265.64
328.28	1271.79
328.49	1298.41
328.70	1284.08
328.92	1204.21
329.13	1314.80
329.34	1312.75
329.55	1337.32
329.76	1267.69
329.98	1325.04
330.19	1247.21
330.40	1345.52
330.61	1208.30
330.83	1279.98
331.04	1298.41
331.25	1255.40
331.46	1236.97
331.68	1259.50
331.89	1347.56
332.10	1263.60
332.31	1327.08
332.52	1302.51
332.74	1271.79
332.95	1222.64
333.16	1288.17
333.37	1271.79
333.58	1243.12
333.80	1306.60
334.01	1245.16
334.22	1288.17
334.43	1271.79
334.64	1167.34
334.86	1267.69
335.07	1310.70
335.28	1300.46
335.49	1263.60
335.70	1255.40
335.92	1286.12
336.13	1288.17
336.34	1267.69
336.55	1226.73
336.76	1296.36
336.98	1390.57
337.19	1290.22
337.40	1185.77
337.61	1212.40
337.82	1228.78
338.04	1263.60
338.25	1222.64
338.46	1228.78
338.67	1245.16
338.88	1271.79
339.09	1273.84
339.31	1245.16
339.52	1288.17
339.73	1243.12
339.94	1273.84
340.15	1275.88
340.36	1247.21
340.58	1347.56
340.79	1288.17
341.00	1269.74
341.21	1296.36
341.42	1200.11
341.63	1302.51
341.85	1232.88
342.06	1263.60
342.27	1249.26
342.48	1306.60
342.69	1271.79
342.90	1247.21
343.12	1294.32
343.33	1331.18
343.54	1228.78
343.75	1251.31
343.96	1290.22
344.17	1200.11
344.38	1273.84
344.60	1308.65
344.81	1290.22
345.02	1212.40
345.23	1214.45
345.44	1314.80
345.65	1232.88
345.86	1286.12
346.07	1247.21
346.29	1261.55
346.50	1253.36
346.71	1292.27
346.92	1245.16
347.13	1304.56
347.34	1247.21
347.55	1314.80
347.76	1318.89
347.98	1304.56
348.19	1226.73
348.40	1265.64
348.61	1310.70
348.82	1255.40
349.03	1236.97
349.24	1275.88
349.45	1277.93
349.66	1265.64
349.88	1247.21
350.09	1329.13
350.30	1263.60
350.51	1198.06
350.72	1292.27
350.93	1263.60
351.14	1294.32
351.35	1245.16
351.56	1265.64
351.77	1288.17
351.99	1243.12
352.20	1288.17
352.41	1312.75
352.62	1253.36
352.83	1187.82
353.04	1265.64
353.25	1243.12
353.46	1275.88
353.67	1214.45
353.88	1304.56
354.09	1261.55
354.30	1284.08
354.52	1304.56
354.73	1310.70
354.94	1224.69
355.15	1282.03
355.36	1214.45
355.57	1265.64
355.78	1273.84
355.99	1253.36
356.20	1236.97
356.41	1259.50
356.62	1249.26
356.83	1259.50
357.04	1236.97
357.25	1345.52
357.46	1296.36
357.68	1259.50
357.89	1273.84
358.10	1279.98
358.31	1325.04
358.52	1298.41
358.73	1286.12
358.94	1269.74
359.15	1282.03
359.36	1251.31
359.57	1175.53
359.78	1284.08
359.99	1234.93
360.20	1255.40
360.41	1208.30
360.62	1230.83
360.83	1251.31
361.04	1257.45
361.25	1220.59
361.46	1271.79
361.67	1230.83
361.88	1296.36
362.09	1226.73
362.30	1300.46
362.51	1206.25
362.72	1279.98
362.93	1206.25
363.14	1263.60
363.35	1271.79
363.56	1292.27
363.78	1206.25
363.99	1210.35
364.20	1236.97
364.41	1292.27
364.62	1269.74
364.83	1290.22
365.04	1286.12
365.25	1310.70
365.46	1318.89
365.67	1239.02
365.88	1249.26
366.09	1300.46
366.30	1267.69
366.51	1284.08
366.72	1290.22
366.93	1171.44
367.14	1232.88
367.35	1265.64
367.56	1224.69
367.77	1312.75
367.98	1318.89
368.18	1318.89
368.39	1150.96
368.60	1234.93
368.81	1259.50
369.02	1331.18
369.23	1187.82
369.44	1234.93
369.65	1249.26
369.86	1304.56
370.07	1255.40
370.28	1255.40
370.49	1318.89
370.70	1292.27
370.91	1269.74
371.12	1347.56
371.33	1212.40
371.54	1284.08
371.75	1259.50
371.96	1271.79
372.17	1312.75
372.38	1273.84
372.59	1212.40
372.80	1193.97
373.01	1284.08
373.22	1275.88
373.43	1329.13
373.64	1282.03
373.85	1345.52
374.06	1331.18
374.26	1290.22
374.47	1263.60
374.68	1282.03
374.89	1308.65
375.10	1290.22
375.31	1277.93
375.52	1251.31
375.73	1212.40
375.94	1265.64
376.15	1300.46
376.36	1245.16
376.57	1288.17
376.78	1284.08
376.99	1191.92
377.20	1206.25
377.40	1284.08
377.61	1236.97
377.82	1306.60
378.03	1292.27
378.24	1337.32
378.45	1282.03
378.66	1314.80
378.87	1245.16
379.08	1290.22
379.29	1259.50
379.50	1263.60
379.71	1331.18
379.91	1234.93
380.12	1265.64
380.33	1247.21
380.54	1181.68
380.75	1232.88
380.96	1212.40
381.17	1269.74
381.38	1310.70
381.59	1261.55
381.80	1212.40
382.00	1316.84
382.21	1327.08
382.42	1335.28
382.63	1267.69
382.84	1214.45
383.05	1292.27
383.26	1320.94
383.47	1206.25
383.68	1337.32
383.88	1271.79
384.09	1216.49
384.30	1269.74
384.51	1249.26
384.72	1322.99
384.93	1249.26
385.14	1259.50
385.35	1300.46
385.55	1255.40
385.76	1196.01
385.97	1277.93
386.18	1345.52
386.39	1175.53
386.60	1245.16
386.81	1202.16
387.02	1236.97
387.22	1325.04
387.43	1300.46
387.64	1304.56
387.85	1218.54
388.06	1255.40
388.27	1179.63
388.48	1273.84
388.68	1228.78
388.89	1294.32
389.10	1304.56
389.31	1245.16
389.52	1286.12
389.73	1292.27
389.93	1284.08
390.14	1284.08
390.35	1275.88
390.56	1267.69
390.77	1267.69
390.98	1222.64
391.18	1228.78
391.39	1253.36
391.60	1279.98
391.81	1282.03
392.02	1290.22
392.23	1226.73
392.43	1294.32
392.64	1284.08
392.85	1251.31
393.06	1251.31
393.27	1282.03
393.47	1169.39
393.68	1339.37
393.89	1253.36
394.10	1320.94
394.31	1234.93
394.52	1159.15
394.72	1224.69
394.93	1224.69
395.14	1322.99
395.35	1245.16
395.56	1361.90
395.76	1208.30
395.97	1257.45
396.18	1298.41
396.39	1265.64
396.60	1279.98
396.80	1277.93
397.01	1243.12
397.22	1253.36
397.43	1343.47
397.64	1284.08
397.84	1222.64
398.05	1269.74
398.26	1253.36
398.47	1255.40
398.67	1263.60
398.88	1304.56
399.09	1306.60
399.30	1210.35
399.51	1290.22
399.71	1245.16
399.92	1269.74
400.13	1269.74
400.34	1314.80
400.54	1259.50
400.75	1228.78
400.96	1259.50
401.17	1247.21
401.37	1273.84
401.58	1316.84
401.79	1263.60
402.00	1282.03
402.21	1304.56
402.41	1249.26
402.62	1275.88
402.83	1222.64
403.04	1257.45
403.24	1331.18
403.45	1230.83
403.66	1300.46
403.87	1245.16
404.07	1257.45
404.28	1351.66
404.49	1288.17
404.70	1228.78
404.90	1255.40
405.11	1224.69
405.32	1294.32
405.52	1249.26
405.73	1263.60
405.94	1312.75
406.15	1290.22
406.35	1220.59
406.56	1322.99
406.77	1196.01
406.98	1259.50
407.18	1216.49
407.39	1302.51
407.60	1302.51
407.80	1271.79
408.01	1355.76
408.22	1298.41
408.43	1212.40
408.63	1255.40
408.84	1335.28
409.05	1259.50
409.25	1380.33
409.46	1257.45
409.67	1310.70
409.88	1304.56
410.08	1255.40
410.29	1265.64
410.50	1245.16
410.70	1216.49
410.91	1230.83
411.12	1169.39
411.32	1263.60
411.53	1267.69
411.74	1236.97
411.95	1288.17
412.15	1206.25
412.36	1263.60
412.57	1298.41
412.77	1247.21
412.98	1220.59
413.19	1341.42
413.39	1255.40
413.60	1306.60
413.81	1210.35
414.01	1214.45
414.22	1296.36
414.43	1200.11
414.63	1220.59
414.84	1263.60
415.05	1228.78
415.25	1259.50
415.46	1329.13
415.67	1226.73
415.87	1282.03
416.08	1253.36
416.29	1286.12
416.49	1320.94
416.70	1335.28
416.91	1271.79
417.11	1232.88
417.32	1292.27
417.53	1290.22
417.73	1257.45
417.94	1286.12
418.15	1282.03
418.35	1255.40
418.56	1306.60
418.77	1288.17
418.97	1298.41
419.18	1277.93
419.38	1290.22
419.59	1320.94
419.80	1333.23
420.00	1220.59
420.21	1271.79
420.42	1234.93
420.62	1331.18
420.83	1343.47
421.04	1249.26
421.24	1306.60
421.45	1261.55
421.65	1202.16
421.86	1327.08
422.07	1318.89
422.27	1167.34
422.48	1249.26
422.69	1267.69
422.89	1257.45
423.10	1275.88
423.30	1247.21
423.51	1220.59
423.72	1294.32
423.92	1189.87
424.13	1253.36
424.33	1236.97
424.54	1232.88
424.75	1296.36
424.95	1331.18
425.16	1345.52
425.36	1267.69
425.57	1290.22
425.78	1212.40
425.98	1282.03
426.19	1292.27
426.39	1265.64
426.60	1265.64
426.81	1247.21
427.01	1310.70
427.22	1247.21
427.42	1294.32
427.63	1298.41
427.83	1255.40
428.04	1298.41
428.25	1253.36
428.45	1208.30
428.66	1277.93
428.86	1189.87
429.07	1269.74
429.28	1296.36
429.48	1273.84
429.69	1353.71
429.89	1294.32
430.10	1257.45
430.30	1282.03
430.51	1245.16
430.71	1271.79
430.92	1269.74
431.13	1241.07
431.33	1312.75
431.54	1277.93
431.74	1271.79
431.95	1318.89
432.15	1282.03
432.36	1224.69
432.56	1296.36
432.77	1212.40
432.98	1216.49
433.18	1165.29
433.39	1333.23
433.59	1261.55
433.80	1247.21
434.00	1261.55
434.21	1251.31
434.41	1294.32
434.62	1265.64
434.82	1200.11
435.03	1269.74
435.23	1271.79
435.44	1386.47
435.64	1247.21
435.85	1296.36
436.06	1253.36
436.26	1288.17
436.47	1269.74
436.67	1337.32
436.88	1249.26
437.08	1232.88
437.29	1284.08
437.49	1269.74
437.70	1189.87
437.90	1261.55
438.11	1261.55
438.31	1275.88
438.52	1279.98
438.72	1239.02
438.93	1267.69
439.13	1265.64
439.34	1210.35
439.54	1265.64
439.75	1257.45
439.95	1302.51
440.16	1275.88
440.36	1232.88
440.57	1220.59
440.77	1269.74
440.98	1318.89
441.18	1335.28
441.39	1253.36
441.59	1284.08
441.80	1222.64
442.00	1306.60
442.21	1314.80
442.41	1261.55
442.62	1210.35
442.82	1298.41
443.02	1236.97
443.23	1290.22
443.43	1329.13
443.64	1335.28
443.84	1226.73
444.05	1322.99
444.25	1370.09
444.46	1257.45
444.66	1261.55
444.87	1222.64
445.07	1267.69
445.28	1382.38
445.48	1275.88
445.69	1304.56
445.89	1236.97
446.09	1294.32
446.30	1202.16
446.50	1314.80
446.71	1218.54
446.91	1234.93
447.12	1224.69
447.32	1386.47
447.53	1304.56
447.73	1251.31
447.93	1302.51
448.14	1253.36
448.34	1325.04
448.55	1288.17
448.75	1253.36
448.96	1228.78
449.16	1279.98
449.36	1275.88
449.57	1304.56
449.77	1232.88
449.98	1267.69
450.18	1230.83
450.39	1329.13
450.59	1302.51
450.79	1249.26
451.00	1269.74
451.20	1331.18
451.41	1310.70
451.61	1230.83
451.81	1343.47
452.02	1247.21
452.22	1302.51
452.43	1267.69
452.63	1191.92
