SpectraSuite Data File
++++++++++++++++++++++++++++++++++++
Date: Sun Apr 03 19:55:46 CEST 2016
User: root
Dark Spectrum Present: No
Reference Spectrum Present: No
Number of Sampled Component Spectra: 1
Spectrometers: USB4C02835
Integration Time (usec): 10000 (USB4C02835)
Spectra Averaged: 1 (USB4C02835)
Boxcar Smoothing: 0 (USB4C02835)
Correct for Electrical Dark: No (USB4C02835)
Strobe/Lamp Enabled: No (USB4C02835)
Correct for Detector Non-linearity: No (USB4C02835)
Correct for Stray Light: No (USB4C02835)
Number of Pixels in Processed Spectrum: 3648
>>>>>Begin Processed Spectral Data<<<<<
177.47	1277.93
177.69	1277.93
177.91	1277.93
178.13	1245.16
178.36	1200.11
178.58	1273.84
178.80	1273.84
179.02	1265.64
179.24	1308.65
179.46	1257.45
179.68	1265.64
179.90	1277.93
180.13	1298.41
180.35	1277.93
180.57	1325.04
180.79	1187.82
181.01	1308.65
181.23	1230.83
181.45	1300.46
181.67	1245.16
181.90	1239.02
182.12	1202.16
182.34	1296.36
182.56	1267.69
182.78	1243.12
183.00	1296.36
183.22	1245.16
183.44	1316.84
183.66	1310.70
183.89	1296.36
184.11	1282.03
184.33	1263.60
184.55	1329.13
184.77	1288.17
184.99	1347.56
185.21	1185.77
185.43	1298.41
185.65	1310.70
185.87	1263.60
186.10	1230.83
186.32	1257.45
186.54	1206.25
186.76	1263.60
186.98	1216.49
187.20	1245.16
187.42	1232.88
187.64	1257.45
187.86	1359.85
188.08	1245.16
188.30	1279.98
188.52	1265.64
188.75	1294.32
188.97	1327.08
189.19	1290.22
189.41	1292.27
189.63	1228.78
189.85	1232.88
190.07	1263.60
190.29	1247.21
190.51	1206.25
190.73	1222.64
190.95	1257.45
191.17	1312.75
191.39	1222.64
191.61	1292.27
191.84	1284.08
192.06	1290.22
192.28	1325.04
192.50	1189.87
192.72	1236.97
192.94	1267.69
193.16	1271.79
193.38	1304.56
193.60	1302.51
193.82	1288.17
194.04	1210.35
194.26	1275.88
194.48	1245.16
194.70	1263.60
194.92	1226.73
195.14	1290.22
195.36	1308.65
195.58	1222.64
195.80	1218.54
196.02	1298.41
196.24	1310.70
196.46	1263.60
196.69	1232.88
196.91	1279.98
197.13	1314.80
197.35	1282.03
197.57	1265.64
197.79	1245.16
198.01	1193.97
198.23	1316.84
198.45	1245.16
198.67	1353.71
198.89	1316.84
199.11	1259.50
199.33	1226.73
199.55	1292.27
199.77	1271.79
199.99	1331.18
200.21	1292.27
200.43	1239.02
200.65	1245.16
200.87	1220.59
201.09	1267.69
201.31	1226.73
201.53	1187.82
201.75	1253.36
201.97	1253.36
202.19	1202.16
202.41	1273.84
202.63	1269.74
202.85	1286.12
203.07	1253.36
203.29	1232.88
203.51	1294.32
203.73	1290.22
203.95	1298.41
204.17	1214.45
204.39	1294.32
204.61	1273.84
204.83	1247.21
205.05	1310.70
205.27	1218.54
205.49	1282.03
205.71	1318.89
205.93	1271.79
206.15	1282.03
206.37	1216.49
206.59	1267.69
206.81	1290.22
207.03	1353.71
207.25	1273.84
207.47	1310.70
207.69	1253.36
207.91	1294.32
208.13	1263.60
208.34	1259.50
208.56	1306.60
208.78	1218.54
209.00	1306.60
209.22	1271.79
209.44	1345.52
209.66	1282.03
209.88	1228.78
210.10	1255.40
210.32	1296.36
210.54	1255.40
210.76	1279.98
210.98	1265.64
211.20	1290.22
211.42	1239.02
211.64	1265.64
211.86	1251.31
212.08	1282.03
212.30	1279.98
212.52	1210.35
212.74	1239.02
212.96	1265.64
213.17	1304.56
213.39	1200.11
213.61	1259.50
213.83	1322.99
214.05	1212.40
214.27	1282.03
214.49	1234.93
214.71	1216.49
214.93	1314.80
215.15	1314.80
215.37	1247.21
215.59	1271.79
215.81	1282.03
216.03	1329.13
216.24	1232.88
216.46	1316.84
216.68	1247.21
216.90	1302.51
217.12	1222.64
217.34	1216.49
217.56	1255.40
217.78	1249.26
218.00	1304.56
218.22	1265.64
218.44	1279.98
218.66	1294.32
218.87	1284.08
219.09	1265.64
219.31	1279.98
219.53	1196.01
219.75	1286.12
219.97	1288.17
220.19	1236.97
220.41	1329.13
220.63	1292.27
220.85	1275.88
221.06	1282.03
221.28	1230.83
221.50	1308.65
221.72	1257.45
221.94	1232.88
222.16	1261.55
222.38	1286.12
222.60	1208.30
222.82	1308.65
223.03	1210.35
223.25	1273.84
223.47	1312.75
223.69	1279.98
223.91	1226.73
224.13	1224.69
224.35	1228.78
224.57	1329.13
224.78	1312.75
225.00	1267.69
225.22	1206.25
225.44	1302.51
225.66	1282.03
225.88	1282.03
226.10	1290.22
226.32	1314.80
226.53	1292.27
226.75	1325.04
226.97	1224.69
227.19	1271.79
227.41	1236.97
227.63	1290.22
227.85	1277.93
228.06	1282.03
228.28	1259.50
228.50	1279.98
228.72	1214.45
228.94	1273.84
229.16	1251.31
229.37	1255.40
229.59	1286.12
229.81	1267.69
230.03	1222.64
230.25	1269.74
230.47	1269.74
230.69	1247.21
230.90	1200.11
231.12	1261.55
231.34	1224.69
231.56	1269.74
231.78	1286.12
232.00	1263.60
232.21	1286.12
232.43	1341.42
232.65	1294.32
232.87	1265.64
233.09	1302.51
233.30	1284.08
233.52	1236.97
233.74	1222.64
233.96	1263.60
234.18	1294.32
234.40	1298.41
234.61	1243.12
234.83	1210.35
235.05	1277.93
235.27	1247.21
235.49	1261.55
235.70	1273.84
235.92	1353.71
236.14	1241.07
236.36	1214.45
236.58	1284.08
236.79	1273.84
237.01	1300.46
237.23	1271.79
237.45	1230.83
237.67	1222.64
237.88	1314.80
238.10	1265.64
238.32	1251.31
238.54	1282.03
238.76	1298.41
238.97	1296.36
239.19	1286.12
239.41	1232.88
239.63	1267.69
239.85	1298.41
240.06	1259.50
240.28	1304.56
240.50	1261.55
240.72	1265.64
240.93	1312.75
241.15	1265.64
241.37	1257.45
241.59	1296.36
241.81	1251.31
242.02	1357.80
242.24	1277.93
242.46	1259.50
242.68	1263.60
242.89	1308.65
243.11	1241.07
243.33	1308.65
243.55	1312.75
243.76	1265.64
243.98	1286.12
244.20	1239.02
244.42	1263.60
244.64	1312.75
244.85	1236.97
245.07	1261.55
245.29	1320.94
245.51	1208.30
245.72	1290.22
245.94	1236.97
246.16	1296.36
246.38	1269.74
246.59	1263.60
246.81	1230.83
247.03	1273.84
247.24	1236.97
247.46	1230.83
247.68	1288.17
247.90	1282.03
248.11	1259.50
248.33	1292.27
248.55	1243.12
248.77	1247.21
248.98	1249.26
249.20	1335.28
249.42	1206.25
249.64	1236.97
249.85	1232.88
250.07	1208.30
250.29	1282.03
250.50	1300.46
250.72	1296.36
250.94	1284.08
251.16	1241.07
251.37	1349.61
251.59	1255.40
251.81	1259.50
252.02	1294.32
252.24	1232.88
252.46	1314.80
252.68	1312.75
252.89	1282.03
253.11	1196.01
253.33	1249.26
253.54	1277.93
253.76	1325.04
253.98	1273.84
254.20	1249.26
254.41	1228.78
254.63	1263.60
254.85	1261.55
255.06	1294.32
255.28	1247.21
255.50	1255.40
255.71	1214.45
255.93	1290.22
256.15	1308.65
256.36	1286.12
256.58	1318.89
256.80	1239.02
257.02	1255.40
257.23	1206.25
257.45	1282.03
257.67	1239.02
257.88	1234.93
258.10	1298.41
258.32	1257.45
258.53	1302.51
258.75	1200.11
258.97	1300.46
259.18	1261.55
259.40	1329.13
259.62	1290.22
259.83	1294.32
260.05	1236.97
260.27	1337.32
260.48	1269.74
260.70	1220.59
260.92	1333.23
261.13	1275.88
261.35	1185.77
261.57	1261.55
261.78	1234.93
262.00	1308.65
262.22	1284.08
262.43	1288.17
262.65	1210.35
262.86	1282.03
263.08	1255.40
263.30	1239.02
263.51	1251.31
263.73	1236.97
263.95	1241.07
264.16	1234.93
264.38	1224.69
264.60	1239.02
264.81	1269.74
265.03	1308.65
265.25	1304.56
265.46	1230.83
265.68	1271.79
265.89	1236.97
266.11	1232.88
266.33	1251.31
266.54	1251.31
266.76	1249.26
266.98	1253.36
267.19	1277.93
267.41	1226.73
267.62	1245.16
267.84	1243.12
268.06	1245.16
268.27	1222.64
268.49	1304.56
268.70	1267.69
268.92	1298.41
269.14	1282.03
269.35	1275.88
269.57	1228.78
269.79	1261.55
270.00	1277.93
270.22	1271.79
270.43	1275.88
270.65	1212.40
270.87	1290.22
271.08	1263.60
271.30	1196.01
271.51	1263.60
271.73	1277.93
271.95	1265.64
272.16	1318.89
272.38	1269.74
272.59	1216.49
272.81	1284.08
273.02	1271.79
273.24	1259.50
273.46	1298.41
273.67	1282.03
273.89	1218.54
274.10	1310.70
274.32	1325.04
274.54	1257.45
274.75	1282.03
274.97	1277.93
275.18	1277.93
275.40	1259.50
275.61	1249.26
275.83	1316.84
276.05	1284.08
276.26	1263.60
276.48	1253.36
276.69	1273.84
276.91	1212.40
277.12	1230.83
277.34	1279.98
277.55	1265.64
277.77	1265.64
277.99	1304.56
278.20	1243.12
278.42	1292.27
278.63	1275.88
278.85	1339.37
279.06	1320.94
279.28	1236.97
279.49	1257.45
279.71	1239.02
279.93	1257.45
280.14	1273.84
280.36	1275.88
280.57	1261.55
280.79	1245.16
281.00	1226.73
281.22	1298.41
281.43	1236.97
281.65	1241.07
281.86	1333.23
282.08	1314.80
282.29	1249.26
282.51	1261.55
282.73	1269.74
282.94	1247.21
283.16	1306.60
283.37	1298.41
283.59	1257.45
283.80	1273.84
284.02	1245.16
284.23	1183.73
284.45	1198.06
284.66	1273.84
284.88	1286.12
285.09	1226.73
285.31	1279.98
285.52	1253.36
285.74	1167.34
285.95	1275.88
286.17	1331.18
286.38	1269.74
286.60	1325.04
286.81	1236.97
287.03	1282.03
287.24	1290.22
287.46	1255.40
287.67	1286.12
287.89	1300.46
288.10	1245.16
288.32	1284.08
288.53	1304.56
288.75	1327.08
288.96	1261.55
289.18	1284.08
289.39	1234.93
289.61	1255.40
289.82	1255.40
290.04	1228.78
290.25	1263.60
290.47	1257.45
290.68	1222.64
290.90	1282.03
291.11	1265.64
291.33	1232.88
291.54	1212.40
291.76	1230.83
291.97	1302.51
292.18	1263.60
292.40	1298.41
292.61	1189.87
292.83	1298.41
293.04	1263.60
293.26	1271.79
293.47	1232.88
293.69	1259.50
293.90	1345.52
294.12	1322.99
294.33	1247.21
294.55	1275.88
294.76	1312.75
294.97	1218.54
295.19	1234.93
295.40	1224.69
295.62	1261.55
295.83	1265.64
296.05	1282.03
296.26	1290.22
296.48	1286.12
296.69	1267.69
296.90	1259.50
297.12	1339.37
297.33	1265.64
297.55	1241.07
297.76	1245.16
297.98	1306.60
298.19	1269.74
298.41	1314.80
298.62	1284.08
298.83	1263.60
299.05	1263.60
299.26	1243.12
299.48	1284.08
299.69	1347.56
299.90	1239.02
300.12	1263.60
300.33	1296.36
300.55	1298.41
300.76	1288.17
300.98	1273.84
301.19	1228.78
301.40	1292.27
301.62	1296.36
301.83	1251.31
302.05	1288.17
302.26	1290.22
302.47	1337.32
302.69	1263.60
302.90	1216.49
303.12	1300.46
303.33	1284.08
303.54	1298.41
303.76	1267.69
303.97	1236.97
304.19	1363.95
304.40	1247.21
304.61	1341.42
304.83	1275.88
305.04	1232.88
305.26	1232.88
305.47	1243.12
305.68	1284.08
305.90	1269.74
306.11	1251.31
306.33	1255.40
306.54	1271.79
306.75	1259.50
306.97	1298.41
307.18	1294.32
307.39	1306.60
307.61	1261.55
307.82	1335.28
308.04	1259.50
308.25	1279.98
308.46	1310.70
308.68	1290.22
308.89	1243.12
309.10	1277.93
309.32	1245.16
309.53	1284.08
309.74	1253.36
309.96	1204.21
310.17	1271.79
310.39	1191.92
310.60	1296.36
310.81	1224.69
311.03	1193.97
311.24	1251.31
311.45	1226.73
311.67	1347.56
311.88	1353.71
312.09	1214.45
312.31	1284.08
312.52	1236.97
312.73	1204.21
312.95	1198.06
313.16	1230.83
313.37	1290.22
313.59	1234.93
313.80	1265.64
314.01	1267.69
314.23	1284.08
314.44	1241.07
314.65	1232.88
314.87	1267.69
315.08	1255.40
315.29	1261.55
315.51	1284.08
315.72	1222.64
315.93	1253.36
316.15	1331.18
316.36	1320.94
316.57	1208.30
316.79	1298.41
317.00	1236.97
317.21	1275.88
317.43	1282.03
317.64	1241.07
317.85	1249.26
318.07	1298.41
318.28	1288.17
318.49	1210.35
318.70	1306.60
318.92	1212.40
319.13	1271.79
319.34	1196.01
319.56	1296.36
319.77	1273.84
319.98	1267.69
320.20	1239.02
320.41	1267.69
320.62	1284.08
320.83	1279.98
321.05	1292.27
321.26	1259.50
321.47	1239.02
321.69	1273.84
321.90	1208.30
322.11	1349.61
322.32	1255.40
322.54	1331.18
322.75	1198.06
322.96	1273.84
323.18	1218.54
323.39	1189.87
323.60	1255.40
323.81	1273.84
324.03	1253.36
324.24	1214.45
324.45	1230.83
324.66	1263.60
324.88	1259.50
325.09	1296.36
325.30	1239.02
325.52	1275.88
325.73	1236.97
325.94	1222.64
326.15	1277.93
326.37	1265.64
326.58	1257.45
326.79	1257.45
327.00	1275.88
327.22	1267.69
327.43	1298.41
327.64	1232.88
327.85	1236.97
328.07	1310.70
328.28	1261.55
328.49	1312.75
328.70	1286.12
328.92	1273.84
329.13	1247.21
329.34	1216.49
329.55	1318.89
329.76	1310.70
329.98	1236.97
330.19	1329.13
330.40	1288.17
330.61	1257.45
330.83	1290.22
331.04	1271.79
331.25	1341.42
331.46	1288.17
331.68	1310.70
331.89	1261.55
332.10	1245.16
332.31	1239.02
332.52	1196.01
332.74	1335.28
332.95	1198.06
333.16	1263.60
333.37	1322.99
333.58	1210.35
333.80	1265.64
334.01	1275.88
334.22	1230.83
334.43	1316.84
334.64	1234.93
334.86	1284.08
335.07	1284.08
335.28	1288.17
335.49	1290.22
335.70	1302.51
335.92	1302.51
336.13	1347.56
336.34	1331.18
336.55	1220.59
336.76	1284.08
336.98	1282.03
337.19	1267.69
337.40	1343.47
337.61	1247.21
337.82	1331.18
338.04	1298.41
338.25	1228.78
338.46	1284.08
338.67	1224.69
338.88	1271.79
339.09	1218.54
339.31	1273.84
339.52	1241.07
339.73	1247.21
339.94	1257.45
340.15	1245.16
340.36	1216.49
340.58	1220.59
340.79	1179.63
341.00	1286.12
341.21	1271.79
341.42	1216.49
341.63	1290.22
341.85	1286.12
342.06	1198.06
342.27	1222.64
342.48	1322.99
342.69	1265.64
342.90	1290.22
343.12	1316.84
343.33	1322.99
343.54	1255.40
343.75	1228.78
343.96	1339.37
344.17	1202.16
344.38	1288.17
344.60	1253.36
344.81	1253.36
345.02	1294.32
345.23	1222.64
345.44	1337.32
345.65	1249.26
345.86	1236.97
346.07	1282.03
346.29	1296.36
346.50	1255.40
346.71	1300.46
346.92	1300.46
347.13	1249.26
347.34	1249.26
347.55	1263.60
347.76	1294.32
347.98	1261.55
348.19	1277.93
348.40	1204.21
348.61	1220.59
348.82	1304.56
349.03	1302.51
349.24	1253.36
349.45	1249.26
349.66	1271.79
349.88	1325.04
350.09	1296.36
350.30	1273.84
350.51	1325.04
350.72	1306.60
350.93	1239.02
351.14	1230.83
351.35	1308.65
351.56	1239.02
351.77	1249.26
351.99	1325.04
352.20	1243.12
352.41	1273.84
352.62	1230.83
352.83	1306.60
353.04	1259.50
353.25	1302.51
353.46	1292.27
353.67	1288.17
353.88	1279.98
354.09	1251.31
354.30	1249.26
354.52	1273.84
354.73	1251.31
354.94	1282.03
355.15	1343.47
355.36	1226.73
355.57	1226.73
355.78	1228.78
355.99	1271.79
356.20	1263.60
356.41	1271.79
356.62	1267.69
356.83	1267.69
357.04	1202.16
357.25	1269.74
357.46	1333.23
357.68	1255.40
357.89	1222.64
358.10	1245.16
358.31	1361.90
358.52	1353.71
358.73	1261.55
358.94	1279.98
359.15	1300.46
359.36	1339.37
359.57	1273.84
359.78	1232.88
359.99	1249.26
360.20	1263.60
360.41	1345.52
360.62	1200.11
360.83	1290.22
361.04	1355.76
361.25	1165.29
361.46	1288.17
361.67	1265.64
361.88	1232.88
362.09	1218.54
362.30	1249.26
362.51	1282.03
362.72	1331.18
362.93	1243.12
363.14	1263.60
363.35	1288.17
363.56	1284.08
363.78	1306.60
363.99	1282.03
364.20	1189.87
364.41	1148.91
364.62	1286.12
364.83	1247.21
365.04	1306.60
365.25	1327.08
365.46	1290.22
365.67	1243.12
365.88	1308.65
366.09	1290.22
366.30	1267.69
366.51	1288.17
366.72	1261.55
366.93	1314.80
367.14	1255.40
367.35	1298.41
367.56	1247.21
367.77	1261.55
367.98	1218.54
368.18	1251.31
368.39	1306.60
368.60	1318.89
368.81	1257.45
369.02	1292.27
369.23	1269.74
369.44	1314.80
369.65	1239.02
369.86	1243.12
370.07	1253.36
370.28	1269.74
370.49	1187.82
370.70	1312.75
370.91	1191.92
371.12	1214.45
371.33	1257.45
371.54	1296.36
371.75	1288.17
371.96	1261.55
372.17	1265.64
372.38	1230.83
372.59	1294.32
372.80	1208.30
373.01	1228.78
373.22	1230.83
373.43	1191.92
373.64	1257.45
373.85	1138.67
374.06	1298.41
374.26	1200.11
374.47	1275.88
374.68	1253.36
374.89	1292.27
375.10	1265.64
375.31	1273.84
375.52	1310.70
375.73	1339.37
375.94	1202.16
376.15	1263.60
376.36	1263.60
376.57	1269.74
376.78	1253.36
376.99	1294.32
377.20	1232.88
377.40	1241.07
377.61	1277.93
377.82	1320.94
378.03	1271.79
378.24	1335.28
378.45	1263.60
378.66	1245.16
378.87	1198.06
379.08	1202.16
379.29	1347.56
379.50	1208.30
379.71	1230.83
379.91	1232.88
380.12	1265.64
380.33	1284.08
380.54	1257.45
380.75	1239.02
380.96	1286.12
381.17	1306.60
381.38	1247.21
381.59	1304.56
381.80	1263.60
382.00	1282.03
382.21	1325.04
382.42	1267.69
382.63	1312.75
382.84	1277.93
383.05	1267.69
383.26	1253.36
383.47	1232.88
383.68	1269.74
383.88	1273.84
384.09	1273.84
384.30	1241.07
384.51	1271.79
384.72	1271.79
384.93	1314.80
385.14	1146.86
385.35	1314.80
385.55	1251.31
385.76	1255.40
385.97	1320.94
386.18	1261.55
386.39	1304.56
386.60	1236.97
386.81	1257.45
387.02	1218.54
387.22	1253.36
387.43	1216.49
387.64	1290.22
387.85	1255.40
388.06	1255.40
388.27	1294.32
388.48	1261.55
388.68	1251.31
388.89	1253.36
389.10	1279.98
389.31	1277.93
389.52	1243.12
389.73	1218.54
389.93	1298.41
390.14	1284.08
390.35	1273.84
390.56	1294.32
390.77	1282.03
390.98	1290.22
391.18	1292.27
391.39	1261.55
391.60	1279.98
391.81	1249.26
392.02	1275.88
392.23	1249.26
392.43	1320.94
392.64	1216.49
392.85	1234.93
393.06	1226.73
393.27	1196.01
393.47	1282.03
393.68	1245.16
393.89	1298.41
394.10	1236.97
394.31	1284.08
394.52	1241.07
394.72	1337.32
394.93	1306.60
395.14	1206.25
395.35	1196.01
395.56	1259.50
395.76	1335.28
395.97	1220.59
396.18	1279.98
396.39	1286.12
396.60	1290.22
396.80	1245.16
397.01	1236.97
397.22	1261.55
397.43	1347.56
397.64	1343.47
397.84	1294.32
398.05	1300.46
398.26	1265.64
398.47	1265.64
398.67	1316.84
398.88	1314.80
399.09	1263.60
399.30	1288.17
399.51	1290.22
399.71	1288.17
399.92	1251.31
400.13	1191.92
400.34	1245.16
400.54	1236.97
400.75	1308.65
400.96	1279.98
401.17	1271.79
401.37	1294.32
401.58	1273.84
401.79	1288.17
402.00	1314.80
402.21	1239.02
402.41	1208.30
402.62	1271.79
402.83	1273.84
403.04	1228.78
403.24	1232.88
403.45	1234.93
403.66	1269.74
403.87	1294.32
404.07	1236.97
404.28	1337.32
404.49	1298.41
404.70	1220.59
404.90	1263.60
405.11	1202.16
405.32	1325.04
405.52	1247.21
405.73	1298.41
405.94	1191.92
406.15	1304.56
406.35	1279.98
406.56	1191.92
406.77	1224.69
406.98	1245.16
407.18	1241.07
407.39	1298.41
407.60	1302.51
407.80	1251.31
408.01	1241.07
408.22	1284.08
408.43	1234.93
408.63	1224.69
408.84	1271.79
409.05	1300.46
409.25	1259.50
409.46	1239.02
409.67	1261.55
409.88	1228.78
410.08	1212.40
410.29	1208.30
410.50	1325.04
410.70	1230.83
410.91	1341.42
411.12	1312.75
411.32	1249.26
411.53	1282.03
411.74	1312.75
411.95	1273.84
412.15	1257.45
412.36	1275.88
412.57	1279.98
412.77	1249.26
412.98	1292.27
413.19	1277.93
413.39	1273.84
413.60	1275.88
413.81	1290.22
414.01	1220.59
414.22	1239.02
414.43	1286.12
414.63	1271.79
414.84	1249.26
415.05	1314.80
415.25	1288.17
415.46	1271.79
415.67	1361.90
415.87	1257.45
416.08	1206.25
416.29	1255.40
416.49	1279.98
416.70	1253.36
416.91	1333.23
417.11	1298.41
417.32	1312.75
417.53	1216.49
417.73	1267.69
417.94	1247.21
418.15	1271.79
418.35	1341.42
418.56	1208.30
418.77	1290.22
418.97	1257.45
419.18	1224.69
419.38	1212.40
419.59	1296.36
419.80	1273.84
420.00	1275.88
420.21	1239.02
420.42	1308.65
420.62	1239.02
420.83	1259.50
421.04	1216.49
421.24	1288.17
421.45	1288.17
421.65	1316.84
421.86	1226.73
422.07	1259.50
422.27	1247.21
422.48	1322.99
422.69	1269.74
422.89	1265.64
423.10	1273.84
423.30	1222.64
423.51	1257.45
423.72	1288.17
423.92	1228.78
424.13	1261.55
424.33	1212.40
424.54	1257.45
424.75	1298.41
424.95	1304.56
425.16	1304.56
425.36	1288.17
425.57	1259.50
425.78	1263.60
425.98	1228.78
426.19	1234.93
426.39	1312.75
426.60	1247.21
426.81	1312.75
427.01	1220.59
427.22	1314.80
427.42	1310.70
427.63	1271.79
427.83	1277.93
428.04	1255.40
428.25	1327.08
428.45	1284.08
428.66	1275.88
428.86	1300.46
429.07	1294.32
429.28	1290.22
429.48	1275.88
429.69	1279.98
429.89	1279.98
430.10	1277.93
430.30	1245.16
430.51	1304.56
430.71	1284.08
430.92	1255.40
431.13	1261.55
431.33	1267.69
431.54	1290.22
431.74	1370.09
431.95	1279.98
432.15	1267.69
432.36	1263.60
432.56	1251.31
432.77	1255.40
432.98	1296.36
433.18	1263.60
433.39	1282.03
433.59	1267.69
433.80	1216.49
434.00	1247.21
434.21	1214.45
434.41	1269.74
434.62	1294.32
434.82	1269.74
435.03	1292.27
435.23	1230.83
435.44	1236.97
435.64	1249.26
435.85	1257.45
436.06	1257.45
436.26	1275.88
436.47	1241.07
436.67	1300.46
436.88	1228.78
437.08	1243.12
437.29	1247.21
437.49	1302.51
437.70	1304.56
437.90	1337.32
438.11	1257.45
438.31	1239.02
438.52	1257.45
438.72	1290.22
438.93	1247.21
439.13	1296.36
439.34	1282.03
439.54	1222.64
439.75	1271.79
439.95	1372.14
440.16	1269.74
440.36	1333.23
440.57	1243.12
440.77	1249.26
440.98	1224.69
441.18	1298.41
441.39	1259.50
441.59	1216.49
441.80	1257.45
442.00	1226.73
442.21	1327.08
442.41	1308.65
442.62	1318.89
442.82	1292.27
443.02	1282.03
443.23	1333.23
443.43	1267.69
443.64	1314.80
443.84	1294.32
444.05	1347.56
444.25	1185.77
444.46	1273.84
444.66	1269.74
444.87	1255.40
445.07	1310.70
445.28	1179.63
445.48	1290.22
445.69	1298.41
445.89	1261.55
446.09	1298.41
446.30	1216.49
446.50	1193.97
446.71	1189.87
446.91	1259.50
447.12	1232.88
447.32	1302.51
447.53	1251.31
447.73	1312.75
447.93	1277.93
448.14	1290.22
448.34	1279.98
448.55	1236.97
448.75	1245.16
448.96	1331.18
449.16	1277.93
449.36	1318.89
449.57	1265.64
449.77	1279.98
449.98	1288.17
450.18	1304.56
450.39	1294.32
450.59	1298.41
450.79	1208.30
451.00	1273.84
451.20	1331.18
451.41	1288.17
451.61	1257.45
451.81	1247.21
452.02	1243.12
452.22	1296.36
452.43	1302.51
452.63	1329.13
