SpectraSuite Data File
++++++++++++++++++++++++++++++++++++
Date: Sun Apr 03 19:55:25 CEST 2016
User: root
Dark Spectrum Present: No
Reference Spectrum Present: No
Number of Sampled Component Spectra: 1
Spectrometers: USB4C02835
Integration Time (usec): 10000 (USB4C02835)
Spectra Averaged: 1 (USB4C02835)
Boxcar Smoothing: 0 (USB4C02835)
Correct for Electrical Dark: No (USB4C02835)
Strobe/Lamp Enabled: No (USB4C02835)
Correct for Detector Non-linearity: No (USB4C02835)
Correct for Stray Light: No (USB4C02835)
Number of Pixels in Processed Spectrum: 3648
>>>>>Begin Processed Spectral Data<<<<<
177.47	1210.35
177.69	1210.35
177.91	1210.35
178.13	1290.22
178.36	1193.97
178.58	1249.26
178.80	1206.25
179.02	1222.64
179.24	1271.79
179.46	1298.41
179.68	1286.12
179.90	1196.01
180.13	1251.31
180.35	1296.36
180.57	1269.74
180.79	1275.88
181.01	1292.27
181.23	1224.69
181.45	1261.55
181.67	1320.94
181.90	1230.83
182.12	1265.64
182.34	1277.93
182.56	1339.37
182.78	1261.55
183.00	1183.73
183.22	1232.88
183.44	1296.36
183.66	1208.30
183.89	1288.17
184.11	1273.84
184.33	1232.88
184.55	1208.30
184.77	1284.08
184.99	1263.60
185.21	1245.16
185.43	1279.98
185.65	1224.69
185.87	1253.36
186.10	1253.36
186.32	1331.18
186.54	1216.49
186.76	1288.17
186.98	1316.84
187.20	1314.80
187.42	1286.12
187.64	1187.82
187.86	1302.51
188.08	1193.97
188.30	1282.03
188.52	1263.60
188.75	1339.37
188.97	1273.84
189.19	1269.74
189.41	1263.60
189.63	1304.56
189.85	1298.41
190.07	1271.79
190.29	1257.45
190.51	1224.69
190.73	1298.41
190.95	1236.97
191.17	1224.69
191.39	1245.16
191.61	1304.56
191.84	1290.22
192.06	1257.45
192.28	1243.12
192.50	1345.52
192.72	1304.56
192.94	1298.41
193.16	1210.35
193.38	1236.97
193.60	1314.80
193.82	1243.12
194.04	1292.27
194.26	1353.71
194.48	1241.07
194.70	1193.97
194.92	1224.69
195.14	1251.31
195.36	1251.31
195.58	1230.83
195.80	1290.22
196.02	1255.40
196.24	1333.23
196.46	1226.73
196.69	1222.64
196.91	1259.50
197.13	1206.25
197.35	1298.41
197.57	1290.22
197.79	1251.31
198.01	1322.99
198.23	1302.51
198.45	1249.26
198.67	1171.44
198.89	1333.23
199.11	1261.55
199.33	1200.11
199.55	1347.56
199.77	1236.97
199.99	1273.84
200.21	1222.64
200.43	1347.56
200.65	1243.12
200.87	1288.17
201.09	1329.13
201.31	1247.21
201.53	1275.88
201.75	1259.50
201.97	1159.15
202.19	1275.88
202.41	1327.08
202.63	1269.74
202.85	1310.70
203.07	1271.79
203.29	1273.84
203.51	1220.59
203.73	1273.84
203.95	1325.04
204.17	1163.25
204.39	1294.32
204.61	1320.94
204.83	1241.07
205.05	1316.84
205.27	1292.27
205.49	1241.07
205.71	1286.12
205.93	1273.84
206.15	1306.60
206.37	1253.36
206.59	1286.12
206.81	1306.60
207.03	1220.59
207.25	1298.41
207.47	1263.60
207.69	1329.13
207.91	1212.40
208.13	1273.84
208.34	1255.40
208.56	1277.93
208.78	1306.60
209.00	1269.74
209.22	1218.54
209.44	1267.69
209.66	1255.40
209.88	1290.22
210.10	1306.60
210.32	1198.06
210.54	1316.84
210.76	1259.50
210.98	1265.64
211.20	1239.02
211.42	1261.55
211.64	1296.36
211.86	1214.45
212.08	1314.80
212.30	1327.08
212.52	1249.26
212.74	1249.26
212.96	1269.74
213.17	1308.65
213.39	1253.36
213.61	1249.26
213.83	1236.97
214.05	1206.25
214.27	1257.45
214.49	1226.73
214.71	1322.99
214.93	1198.06
215.15	1288.17
215.37	1241.07
215.59	1249.26
215.81	1216.49
216.03	1196.01
216.24	1320.94
216.46	1292.27
216.68	1251.31
216.90	1304.56
217.12	1331.18
217.34	1253.36
217.56	1239.02
217.78	1202.16
218.00	1288.17
218.22	1263.60
218.44	1251.31
218.66	1302.51
218.87	1257.45
219.09	1275.88
219.31	1374.19
219.53	1316.84
219.75	1249.26
219.97	1212.40
220.19	1304.56
220.41	1279.98
220.63	1181.68
220.85	1286.12
221.06	1302.51
221.28	1257.45
221.50	1185.77
221.72	1310.70
221.94	1288.17
222.16	1271.79
222.38	1218.54
222.60	1261.55
222.82	1306.60
223.03	1216.49
223.25	1302.51
223.47	1306.60
223.69	1243.12
223.91	1216.49
224.13	1273.84
224.35	1200.11
224.57	1243.12
224.78	1216.49
225.00	1265.64
225.22	1271.79
225.44	1228.78
225.66	1302.51
225.88	1322.99
226.10	1294.32
226.32	1341.42
226.53	1247.21
226.75	1275.88
226.97	1249.26
227.19	1253.36
227.41	1349.61
227.63	1265.64
227.85	1251.31
228.06	1306.60
228.28	1298.41
228.50	1286.12
228.72	1329.13
228.94	1306.60
229.16	1298.41
229.37	1259.50
229.59	1275.88
229.81	1259.50
230.03	1257.45
230.25	1294.32
230.47	1236.97
230.69	1245.16
230.90	1259.50
231.12	1263.60
231.34	1322.99
231.56	1245.16
231.78	1216.49
232.00	1322.99
232.21	1273.84
232.43	1245.16
232.65	1353.71
232.87	1255.40
233.09	1304.56
233.30	1230.83
233.52	1263.60
233.74	1243.12
233.96	1253.36
234.18	1241.07
234.40	1300.46
234.61	1290.22
234.83	1290.22
235.05	1226.73
235.27	1292.27
235.49	1284.08
235.70	1286.12
235.92	1294.32
236.14	1290.22
236.36	1269.74
236.58	1284.08
236.79	1214.45
237.01	1368.04
237.23	1284.08
237.45	1294.32
237.67	1265.64
237.88	1220.59
238.10	1290.22
238.32	1269.74
238.54	1216.49
238.76	1220.59
238.97	1259.50
239.19	1204.21
239.41	1218.54
239.63	1228.78
239.85	1304.56
240.06	1273.84
240.28	1273.84
240.50	1310.70
240.72	1208.30
240.93	1175.53
241.15	1259.50
241.37	1241.07
241.59	1282.03
241.81	1253.36
242.02	1265.64
242.24	1245.16
242.46	1308.65
242.68	1343.47
242.89	1292.27
243.11	1263.60
243.33	1212.40
243.55	1220.59
243.76	1290.22
243.98	1357.80
244.20	1214.45
244.42	1290.22
244.64	1279.98
244.85	1204.21
245.07	1298.41
245.29	1196.01
245.51	1275.88
245.72	1322.99
245.94	1239.02
246.16	1239.02
246.38	1273.84
246.59	1257.45
246.81	1308.65
247.03	1259.50
247.24	1249.26
247.46	1322.99
247.68	1275.88
247.90	1279.98
248.11	1312.75
248.33	1208.30
248.55	1218.54
248.77	1261.55
248.98	1269.74
249.20	1302.51
249.42	1271.79
249.64	1275.88
249.85	1226.73
250.07	1273.84
250.29	1288.17
250.50	1224.69
250.72	1279.98
250.94	1257.45
251.16	1257.45
251.37	1286.12
251.59	1322.99
251.81	1216.49
252.02	1265.64
252.24	1294.32
252.46	1304.56
252.68	1265.64
252.89	1279.98
253.11	1224.69
253.33	1277.93
253.54	1273.84
253.76	1222.64
253.98	1224.69
254.20	1349.61
254.41	1208.30
254.63	1269.74
254.85	1247.21
255.06	1263.60
255.28	1267.69
255.50	1257.45
255.71	1251.31
255.93	1251.31
256.15	1257.45
256.36	1329.13
256.58	1322.99
256.80	1157.10
257.02	1388.52
257.23	1265.64
257.45	1314.80
257.67	1294.32
257.88	1279.98
258.10	1247.21
258.32	1255.40
258.53	1273.84
258.75	1277.93
258.97	1245.16
259.18	1253.36
259.40	1255.40
259.62	1290.22
259.83	1325.04
260.05	1294.32
260.27	1275.88
260.48	1318.89
260.70	1181.68
260.92	1241.07
261.13	1282.03
261.35	1263.60
261.57	1290.22
261.78	1296.36
262.00	1269.74
262.22	1288.17
262.43	1312.75
262.65	1277.93
262.86	1312.75
263.08	1322.99
263.30	1273.84
263.51	1173.49
263.73	1236.97
263.95	1204.21
264.16	1230.83
264.38	1288.17
264.60	1294.32
264.81	1261.55
265.03	1247.21
265.25	1263.60
265.46	1265.64
265.68	1249.26
265.89	1273.84
266.11	1230.83
266.33	1263.60
266.54	1247.21
266.76	1286.12
266.98	1286.12
267.19	1329.13
267.41	1228.78
267.62	1277.93
267.84	1230.83
268.06	1265.64
268.27	1290.22
268.49	1216.49
268.70	1329.13
268.92	1294.32
269.14	1263.60
269.35	1245.16
269.57	1279.98
269.79	1210.35
270.00	1216.49
270.22	1206.25
270.43	1183.73
270.65	1273.84
270.87	1251.31
271.08	1241.07
271.30	1261.55
271.51	1243.12
271.73	1351.66
271.95	1216.49
272.16	1230.83
272.38	1245.16
272.59	1214.45
272.81	1296.36
273.02	1239.02
273.24	1310.70
273.46	1216.49
273.67	1210.35
273.89	1296.36
274.10	1353.71
274.32	1298.41
274.54	1269.74
274.75	1271.79
274.97	1279.98
275.18	1298.41
275.40	1277.93
275.61	1271.79
275.83	1249.26
276.05	1292.27
276.26	1259.50
276.48	1275.88
276.69	1226.73
276.91	1253.36
277.12	1341.42
277.34	1257.45
277.55	1265.64
277.77	1269.74
277.99	1267.69
278.20	1296.36
278.42	1279.98
278.63	1318.89
278.85	1222.64
279.06	1308.65
279.28	1296.36
279.49	1292.27
279.71	1320.94
279.93	1284.08
280.14	1271.79
280.36	1212.40
280.57	1239.02
280.79	1265.64
281.00	1222.64
281.22	1284.08
281.43	1212.40
281.65	1189.87
281.86	1339.37
282.08	1239.02
282.29	1329.13
282.51	1228.78
282.73	1230.83
282.94	1251.31
283.16	1224.69
283.37	1239.02
283.59	1302.51
283.80	1314.80
284.02	1277.93
284.23	1241.07
284.45	1298.41
284.66	1271.79
284.88	1239.02
285.09	1273.84
285.31	1218.54
285.52	1234.93
285.74	1239.02
285.95	1214.45
286.17	1259.50
286.38	1329.13
286.60	1337.32
286.81	1204.21
287.03	1265.64
287.24	1263.60
287.46	1339.37
287.67	1302.51
287.89	1261.55
288.10	1208.30
288.32	1261.55
288.53	1277.93
288.75	1275.88
288.96	1247.21
289.18	1306.60
289.39	1284.08
289.61	1239.02
289.82	1314.80
290.04	1277.93
290.25	1302.51
290.47	1294.32
290.68	1257.45
290.90	1290.22
291.11	1245.16
291.33	1277.93
291.54	1267.69
291.76	1271.79
291.97	1239.02
292.18	1245.16
292.40	1148.91
292.61	1292.27
292.83	1232.88
293.04	1241.07
293.26	1292.27
293.47	1275.88
293.69	1314.80
293.90	1241.07
294.12	1322.99
294.33	1290.22
294.55	1228.78
294.76	1277.93
294.97	1243.12
295.19	1241.07
295.40	1220.59
295.62	1263.60
295.83	1273.84
296.05	1269.74
296.26	1241.07
296.48	1263.60
296.69	1296.36
296.90	1202.16
297.12	1277.93
297.33	1255.40
297.55	1345.52
297.76	1277.93
297.98	1265.64
298.19	1232.88
298.41	1349.61
298.62	1290.22
298.83	1292.27
299.05	1290.22
299.26	1269.74
299.48	1325.04
299.69	1220.59
299.90	1191.92
300.12	1224.69
300.33	1259.50
300.55	1263.60
300.76	1247.21
300.98	1247.21
301.19	1216.49
301.40	1253.36
301.62	1298.41
301.83	1296.36
302.05	1316.84
302.26	1218.54
302.47	1292.27
302.69	1247.21
302.90	1232.88
303.12	1251.31
303.33	1259.50
303.54	1306.60
303.76	1241.07
303.97	1222.64
304.19	1241.07
304.40	1290.22
304.61	1296.36
304.83	1302.51
305.04	1232.88
305.26	1239.02
305.47	1224.69
305.68	1234.93
305.90	1271.79
306.11	1251.31
306.33	1239.02
306.54	1179.63
306.75	1167.34
306.97	1269.74
307.18	1275.88
307.39	1241.07
307.61	1232.88
307.82	1306.60
308.04	1249.26
308.25	1228.78
308.46	1292.27
308.68	1216.49
308.89	1275.88
309.10	1267.69
309.32	1253.36
309.53	1257.45
309.74	1191.92
309.96	1335.28
310.17	1312.75
310.39	1300.46
310.60	1361.90
310.81	1275.88
311.03	1269.74
311.24	1189.87
311.45	1306.60
311.67	1265.64
311.88	1298.41
312.09	1298.41
312.31	1327.08
312.52	1284.08
312.73	1239.02
312.95	1282.03
313.16	1193.97
313.37	1300.46
313.59	1273.84
313.80	1296.36
314.01	1228.78
314.23	1286.12
314.44	1183.73
314.65	1249.26
314.87	1265.64
315.08	1239.02
315.29	1224.69
315.51	1277.93
315.72	1294.32
315.93	1296.36
316.15	1239.02
316.36	1265.64
316.57	1267.69
316.79	1284.08
317.00	1290.22
317.21	1275.88
317.43	1249.26
317.64	1245.16
317.85	1265.64
318.07	1243.12
318.28	1290.22
318.49	1284.08
318.70	1257.45
318.92	1261.55
319.13	1277.93
319.34	1185.77
319.56	1339.37
319.77	1300.46
319.98	1282.03
320.20	1245.16
320.41	1243.12
320.62	1372.14
320.83	1198.06
321.05	1257.45
321.26	1265.64
321.47	1245.16
321.69	1204.21
321.90	1230.83
322.11	1208.30
322.32	1265.64
322.54	1290.22
322.75	1290.22
322.96	1224.69
323.18	1251.31
323.39	1265.64
323.60	1247.21
323.81	1228.78
324.03	1304.56
324.24	1325.04
324.45	1277.93
324.66	1226.73
324.88	1196.01
325.09	1255.40
325.30	1161.20
325.52	1249.26
325.73	1261.55
325.94	1314.80
326.15	1333.23
326.37	1232.88
326.58	1206.25
326.79	1290.22
327.00	1224.69
327.22	1304.56
327.43	1288.17
327.64	1335.28
327.85	1267.69
328.07	1243.12
328.28	1308.65
328.49	1284.08
328.70	1286.12
328.92	1314.80
329.13	1236.97
329.34	1277.93
329.55	1257.45
329.76	1306.60
329.98	1224.69
330.19	1261.55
330.40	1282.03
330.61	1320.94
330.83	1275.88
331.04	1269.74
331.25	1310.70
331.46	1290.22
331.68	1224.69
331.89	1257.45
332.10	1204.21
332.31	1210.35
332.52	1275.88
332.74	1282.03
332.95	1286.12
333.16	1239.02
333.37	1269.74
333.58	1343.47
333.80	1208.30
334.01	1288.17
334.22	1302.51
334.43	1175.53
334.64	1312.75
334.86	1296.36
335.07	1345.52
335.28	1290.22
335.49	1259.50
335.70	1331.18
335.92	1247.21
336.13	1265.64
336.34	1216.49
336.55	1214.45
336.76	1218.54
336.98	1263.60
337.19	1228.78
337.40	1261.55
337.61	1261.55
337.82	1286.12
338.04	1222.64
338.25	1316.84
338.46	1222.64
338.67	1232.88
338.88	1251.31
339.09	1279.98
339.31	1277.93
339.52	1288.17
339.73	1310.70
339.94	1320.94
340.15	1271.79
340.36	1220.59
340.58	1193.97
340.79	1265.64
341.00	1314.80
341.21	1255.40
341.42	1269.74
341.63	1341.42
341.85	1298.41
342.06	1392.62
342.27	1306.60
342.48	1257.45
342.69	1312.75
342.90	1296.36
343.12	1353.71
343.33	1241.07
343.54	1196.01
343.75	1312.75
343.96	1322.99
344.17	1245.16
344.38	1212.40
344.60	1296.36
344.81	1292.27
345.02	1296.36
345.23	1239.02
345.44	1314.80
345.65	1290.22
345.86	1261.55
346.07	1234.93
346.29	1284.08
346.50	1261.55
346.71	1263.60
346.92	1179.63
347.13	1275.88
347.34	1261.55
347.55	1232.88
347.76	1261.55
347.98	1234.93
348.19	1273.84
348.40	1251.31
348.61	1239.02
348.82	1226.73
349.03	1189.87
349.24	1339.37
349.45	1271.79
349.66	1255.40
349.88	1341.42
350.09	1286.12
350.30	1228.78
350.51	1263.60
350.72	1253.36
350.93	1273.84
351.14	1322.99
351.35	1296.36
351.56	1218.54
351.77	1363.95
351.99	1257.45
352.20	1236.97
352.41	1257.45
352.62	1298.41
352.83	1267.69
353.04	1282.03
353.25	1257.45
353.46	1220.59
353.67	1273.84
353.88	1351.66
354.09	1241.07
354.30	1294.32
354.52	1279.98
354.73	1306.60
354.94	1216.49
355.15	1265.64
355.36	1288.17
355.57	1267.69
355.78	1265.64
355.99	1228.78
356.20	1241.07
356.41	1234.93
356.62	1273.84
356.83	1345.52
357.04	1296.36
357.25	1273.84
357.46	1273.84
357.68	1245.16
357.89	1290.22
358.10	1265.64
358.31	1241.07
358.52	1292.27
358.73	1277.93
358.94	1247.21
359.15	1243.12
359.36	1251.31
359.57	1198.06
359.78	1284.08
359.99	1327.08
360.20	1183.73
360.41	1247.21
360.62	1277.93
360.83	1196.01
361.04	1302.51
361.25	1216.49
361.46	1255.40
361.67	1337.32
361.88	1239.02
362.09	1249.26
362.30	1249.26
362.51	1224.69
362.72	1239.02
362.93	1230.83
363.14	1318.89
363.35	1261.55
363.56	1193.97
363.78	1271.79
363.99	1298.41
364.20	1236.97
364.41	1310.70
364.62	1304.56
364.83	1271.79
365.04	1279.98
365.25	1277.93
365.46	1267.69
365.67	1288.17
365.88	1279.98
366.09	1218.54
366.30	1304.56
366.51	1239.02
366.72	1222.64
366.93	1241.07
367.14	1296.36
367.35	1316.84
367.56	1230.83
367.77	1290.22
367.98	1308.65
368.18	1253.36
368.39	1245.16
368.60	1273.84
368.81	1204.21
369.02	1265.64
369.23	1275.88
369.44	1314.80
369.65	1314.80
369.86	1249.26
370.07	1212.40
370.28	1269.74
370.49	1263.60
370.70	1310.70
370.91	1210.35
371.12	1284.08
371.33	1322.99
371.54	1286.12
371.75	1253.36
371.96	1214.45
372.17	1224.69
372.38	1273.84
372.59	1206.25
372.80	1263.60
373.01	1253.36
373.22	1261.55
373.43	1265.64
373.64	1284.08
373.85	1222.64
374.06	1290.22
374.26	1255.40
374.47	1257.45
374.68	1308.65
374.89	1318.89
375.10	1290.22
375.31	1298.41
375.52	1267.69
375.73	1185.77
375.94	1267.69
376.15	1329.13
376.36	1236.97
376.57	1247.21
376.78	1181.68
376.99	1331.18
377.20	1251.31
377.40	1259.50
377.61	1277.93
377.82	1247.21
378.03	1232.88
378.24	1259.50
378.45	1189.87
378.66	1236.97
378.87	1232.88
379.08	1271.79
379.29	1302.51
379.50	1308.65
379.71	1267.69
379.91	1314.80
380.12	1236.97
380.33	1271.79
380.54	1304.56
380.75	1347.56
380.96	1318.89
381.17	1234.93
381.38	1275.88
381.59	1308.65
381.80	1267.69
382.00	1308.65
382.21	1300.46
382.42	1232.88
382.63	1224.69
382.84	1269.74
383.05	1212.40
383.26	1200.11
383.47	1292.27
383.68	1267.69
383.88	1279.98
384.09	1271.79
384.30	1314.80
384.51	1271.79
384.72	1218.54
384.93	1206.25
385.14	1306.60
385.35	1316.84
385.55	1269.74
385.76	1263.60
385.97	1245.16
386.18	1312.75
386.39	1247.21
386.60	1196.01
386.81	1253.36
387.02	1210.35
387.22	1226.73
387.43	1263.60
387.64	1320.94
387.85	1333.23
388.06	1296.36
388.27	1224.69
388.48	1263.60
388.68	1302.51
388.89	1318.89
389.10	1208.30
389.31	1257.45
389.52	1269.74
389.73	1220.59
389.93	1316.84
390.14	1241.07
390.35	1230.83
390.56	1239.02
390.77	1298.41
390.98	1257.45
391.18	1279.98
391.39	1208.30
391.60	1150.96
391.81	1200.11
392.02	1249.26
392.23	1343.47
392.43	1263.60
392.64	1222.64
392.85	1243.12
393.06	1298.41
393.27	1322.99
393.47	1316.84
393.68	1275.88
393.89	1216.49
394.10	1234.93
394.31	1304.56
394.52	1286.12
394.72	1243.12
394.93	1304.56
395.14	1204.21
395.35	1302.51
395.56	1292.27
395.76	1292.27
395.97	1267.69
396.18	1269.74
396.39	1349.61
396.60	1292.27
396.80	1261.55
397.01	1249.26
397.22	1304.56
397.43	1353.71
397.64	1267.69
397.84	1183.73
398.05	1249.26
398.26	1290.22
398.47	1189.87
398.67	1288.17
398.88	1196.01
399.09	1314.80
399.30	1255.40
399.51	1263.60
399.71	1239.02
399.92	1308.65
400.13	1312.75
400.34	1185.77
400.54	1187.82
400.75	1261.55
400.96	1245.16
401.17	1243.12
401.37	1210.35
401.58	1310.70
401.79	1236.97
402.00	1296.36
402.21	1277.93
402.41	1300.46
402.62	1296.36
402.83	1214.45
403.04	1257.45
403.24	1200.11
403.45	1220.59
403.66	1292.27
403.87	1267.69
404.07	1241.07
404.28	1245.16
404.49	1230.83
404.70	1302.51
404.90	1239.02
405.11	1224.69
405.32	1306.60
405.52	1298.41
405.73	1277.93
405.94	1277.93
406.15	1243.12
406.35	1308.65
406.56	1288.17
406.77	1271.79
406.98	1273.84
407.18	1239.02
407.39	1269.74
407.60	1271.79
407.80	1265.64
408.01	1302.51
408.22	1316.84
408.43	1263.60
408.63	1279.98
408.84	1236.97
409.05	1290.22
409.25	1292.27
409.46	1185.77
409.67	1304.56
409.88	1255.40
410.08	1224.69
410.29	1286.12
410.50	1282.03
410.70	1292.27
410.91	1251.31
411.12	1273.84
411.32	1234.93
411.53	1292.27
411.74	1308.65
411.95	1263.60
412.15	1271.79
412.36	1335.28
412.57	1241.07
412.77	1198.06
412.98	1310.70
413.19	1273.84
413.39	1232.88
413.60	1279.98
413.81	1245.16
414.01	1290.22
414.22	1349.61
414.43	1333.23
414.63	1282.03
414.84	1282.03
415.05	1202.16
415.25	1222.64
415.46	1265.64
415.67	1245.16
415.87	1322.99
416.08	1318.89
416.29	1339.37
416.49	1300.46
416.70	1261.55
416.91	1257.45
417.11	1181.68
417.32	1279.98
417.53	1255.40
417.73	1320.94
417.94	1288.17
418.15	1261.55
418.35	1208.30
418.56	1339.37
418.77	1245.16
418.97	1273.84
419.18	1200.11
419.38	1216.49
419.59	1228.78
419.80	1288.17
420.00	1263.60
420.21	1222.64
420.42	1265.64
420.62	1312.75
420.83	1265.64
421.04	1271.79
421.24	1243.12
421.45	1253.36
421.65	1228.78
421.86	1200.11
422.07	1239.02
422.27	1263.60
422.48	1249.26
422.69	1273.84
422.89	1357.80
423.10	1296.36
423.30	1200.11
423.51	1370.09
423.72	1249.26
423.92	1269.74
424.13	1298.41
424.33	1255.40
424.54	1282.03
424.75	1357.80
424.95	1265.64
425.16	1275.88
425.36	1230.83
425.57	1218.54
425.78	1300.46
425.98	1226.73
426.19	1247.21
426.39	1288.17
426.60	1222.64
426.81	1224.69
427.01	1210.35
427.22	1222.64
427.42	1271.79
427.63	1286.12
427.83	1282.03
428.04	1271.79
428.25	1300.46
428.45	1249.26
428.66	1308.65
428.86	1265.64
429.07	1277.93
429.28	1259.50
429.48	1265.64
429.69	1345.52
429.89	1296.36
430.10	1263.60
430.30	1251.31
430.51	1290.22
430.71	1275.88
430.92	1345.52
431.13	1263.60
431.33	1279.98
431.54	1245.16
431.74	1263.60
431.95	1298.41
432.15	1261.55
432.36	1267.69
432.56	1247.21
432.77	1273.84
432.98	1263.60
433.18	1267.69
433.39	1322.99
433.59	1181.68
433.80	1290.22
434.00	1290.22
434.21	1322.99
434.41	1292.27
434.62	1179.63
434.82	1284.08
435.03	1236.97
435.23	1226.73
435.44	1286.12
435.64	1310.70
435.85	1284.08
436.06	1202.16
436.26	1239.02
436.47	1282.03
436.67	1257.45
436.88	1218.54
437.08	1202.16
437.29	1292.27
437.49	1230.83
437.70	1306.60
437.90	1245.16
438.11	1271.79
438.31	1261.55
438.52	1232.88
438.72	1253.36
438.93	1286.12
439.13	1220.59
439.34	1263.60
439.54	1339.37
439.75	1282.03
439.95	1236.97
440.16	1265.64
440.36	1234.93
440.57	1269.74
440.77	1269.74
440.98	1273.84
441.18	1290.22
441.39	1302.51
441.59	1314.80
441.80	1255.40
442.00	1249.26
442.21	1290.22
442.41	1277.93
442.62	1298.41
442.82	1263.60
443.02	1265.64
443.23	1257.45
443.43	1265.64
443.64	1261.55
443.84	1279.98
444.05	1345.52
444.25	1261.55
444.46	1298.41
444.66	1259.50
444.87	1292.27
445.07	1218.54
445.28	1298.41
445.48	1329.13
445.69	1236.97
445.89	1304.56
446.09	1290.22
446.30	1286.12
446.50	1296.36
446.71	1249.26
446.91	1271.79
447.12	1245.16
447.32	1241.07
447.53	1273.84
447.73	1331.18
447.93	1267.69
448.14	1222.64
448.34	1226.73
448.55	1273.84
448.75	1271.79
448.96	1282.03
449.16	1259.50
449.36	1239.02
449.57	1273.84
449.77	1236.97
449.98	1255.40
450.18	1318.89
450.39	1247.21
450.59	1292.27
450.79	1296.36
451.00	1263.60
451.20	1286.12
451.41	1353.71
451.61	1275.88
451.81	1263.60
452.02	1288.17
452.22	1183.73
452.43	1271.79
452.63	1308.65
