SpectraSuite Data File
++++++++++++++++++++++++++++++++++++
Date: Sun Apr 03 19:55:18 CEST 2016
User: root
Dark Spectrum Present: No
Reference Spectrum Present: No
Number of Sampled Component Spectra: 1
Spectrometers: USB4C02835
Integration Time (usec): 10000 (USB4C02835)
Spectra Averaged: 1 (USB4C02835)
Boxcar Smoothing: 0 (USB4C02835)
Correct for Electrical Dark: No (USB4C02835)
Strobe/Lamp Enabled: No (USB4C02835)
Correct for Detector Non-linearity: No (USB4C02835)
Correct for Stray Light: No (USB4C02835)
Number of Pixels in Processed Spectrum: 3648
>>>>>Begin Processed Spectral Data<<<<<
177.47	1351.66
177.69	1351.66
177.91	1351.66
178.13	1226.73
178.36	1214.45
178.58	1294.32
178.80	1228.78
179.02	1294.32
179.24	1265.64
179.46	1202.16
179.68	1230.83
179.90	1202.16
180.13	1265.64
180.35	1128.43
180.57	1294.32
180.79	1277.93
181.01	1198.06
181.23	1277.93
181.45	1251.31
181.67	1329.13
181.90	1239.02
182.12	1253.36
182.34	1208.30
182.56	1308.65
182.78	1208.30
183.00	1318.89
183.22	1296.36
183.44	1253.36
183.66	1265.64
183.89	1206.25
184.11	1282.03
184.33	1279.98
184.55	1327.08
184.77	1294.32
184.99	1271.79
185.21	1290.22
185.43	1259.50
185.65	1204.21
185.87	1245.16
186.10	1232.88
186.32	1290.22
186.54	1263.60
186.76	1290.22
186.98	1239.02
187.20	1232.88
187.42	1267.69
187.64	1249.26
187.86	1310.70
188.08	1314.80
188.30	1261.55
188.52	1267.69
188.75	1183.73
188.97	1316.84
189.19	1302.51
189.41	1271.79
189.63	1241.07
189.85	1224.69
190.07	1298.41
190.29	1333.23
190.51	1337.32
190.73	1241.07
190.95	1236.97
191.17	1296.36
191.39	1226.73
191.61	1222.64
191.84	1214.45
192.06	1234.93
192.28	1230.83
192.50	1290.22
192.72	1259.50
192.94	1263.60
193.16	1290.22
193.38	1257.45
193.60	1290.22
193.82	1255.40
194.04	1282.03
194.26	1198.06
194.48	1232.88
194.70	1249.26
194.92	1316.84
195.14	1247.21
195.36	1296.36
195.58	1263.60
195.80	1292.27
196.02	1288.17
196.24	1185.77
196.46	1282.03
196.69	1243.12
196.91	1361.90
197.13	1253.36
197.35	1267.69
197.57	1253.36
197.79	1347.56
198.01	1257.45
198.23	1222.64
198.45	1320.94
198.67	1271.79
198.89	1288.17
199.11	1337.32
199.33	1236.97
199.55	1265.64
199.77	1275.88
199.99	1269.74
200.21	1300.46
200.43	1300.46
200.65	1318.89
200.87	1271.79
201.09	1253.36
201.31	1181.68
201.53	1290.22
201.75	1353.71
201.97	1329.13
202.19	1263.60
202.41	1202.16
202.63	1222.64
202.85	1247.21
203.07	1208.30
203.29	1218.54
203.51	1273.84
203.73	1263.60
203.95	1200.11
204.17	1251.31
204.39	1308.65
204.61	1245.16
204.83	1288.17
205.05	1191.92
205.27	1247.21
205.49	1265.64
205.71	1298.41
205.93	1286.12
206.15	1247.21
206.37	1222.64
206.59	1314.80
206.81	1202.16
207.03	1263.60
207.25	1259.50
207.47	1251.31
207.69	1286.12
207.91	1247.21
208.13	1304.56
208.34	1269.74
208.56	1275.88
208.78	1222.64
209.00	1277.93
209.22	1263.60
209.44	1290.22
209.66	1271.79
209.88	1224.69
210.10	1267.69
210.32	1279.98
210.54	1265.64
210.76	1288.17
210.98	1314.80
211.20	1169.39
211.42	1245.16
211.64	1275.88
211.86	1261.55
212.08	1239.02
212.30	1302.51
212.52	1179.63
212.74	1290.22
212.96	1253.36
213.17	1327.08
213.39	1267.69
213.61	1247.21
213.83	1310.70
214.05	1282.03
214.27	1277.93
214.49	1288.17
214.71	1230.83
214.93	1265.64
215.15	1265.64
215.37	1200.11
215.59	1298.41
215.81	1286.12
216.03	1263.60
216.24	1269.74
216.46	1216.49
216.68	1279.98
216.90	1187.82
217.12	1310.70
217.34	1243.12
217.56	1202.16
217.78	1308.65
218.00	1300.46
218.22	1271.79
218.44	1230.83
218.66	1275.88
218.87	1212.40
219.09	1279.98
219.31	1304.56
219.53	1312.75
219.75	1202.16
219.97	1331.18
220.19	1255.40
220.41	1257.45
220.63	1234.93
220.85	1284.08
221.06	1363.95
221.28	1286.12
221.50	1216.49
221.72	1185.77
221.94	1224.69
222.16	1251.31
222.38	1257.45
222.60	1294.32
222.82	1308.65
223.03	1228.78
223.25	1282.03
223.47	1212.40
223.69	1290.22
223.91	1310.70
224.13	1306.60
224.35	1345.52
224.57	1261.55
224.78	1349.61
225.00	1230.83
225.22	1331.18
225.44	1273.84
225.66	1335.28
225.88	1292.27
226.10	1279.98
226.32	1282.03
226.53	1216.49
226.75	1198.06
226.97	1290.22
227.19	1243.12
227.41	1290.22
227.63	1279.98
227.85	1226.73
228.06	1175.53
228.28	1239.02
228.50	1249.26
228.72	1257.45
228.94	1239.02
229.16	1331.18
229.37	1259.50
229.59	1247.21
229.81	1288.17
230.03	1263.60
230.25	1200.11
230.47	1304.56
230.69	1230.83
230.90	1279.98
231.12	1249.26
231.34	1206.25
231.56	1234.93
231.78	1212.40
232.00	1327.08
232.21	1257.45
232.43	1251.31
232.65	1277.93
232.87	1228.78
233.09	1214.45
233.30	1222.64
233.52	1230.83
233.74	1304.56
233.96	1290.22
234.18	1288.17
234.40	1193.97
234.61	1214.45
234.83	1228.78
235.05	1255.40
235.27	1247.21
235.49	1320.94
235.70	1320.94
235.92	1308.65
236.14	1271.79
236.36	1310.70
236.58	1234.93
236.79	1308.65
237.01	1290.22
237.23	1259.50
237.45	1224.69
237.67	1218.54
237.88	1322.99
238.10	1259.50
238.32	1316.84
238.54	1275.88
238.76	1298.41
238.97	1224.69
239.19	1282.03
239.41	1306.60
239.63	1294.32
239.85	1249.26
240.06	1269.74
240.28	1318.89
240.50	1243.12
240.72	1263.60
240.93	1269.74
241.15	1294.32
241.37	1257.45
241.59	1255.40
241.81	1261.55
242.02	1255.40
242.24	1279.98
242.46	1275.88
242.68	1298.41
242.89	1267.69
243.11	1288.17
243.33	1296.36
243.55	1263.60
243.76	1216.49
243.98	1214.45
244.20	1282.03
244.42	1316.84
244.64	1251.31
244.85	1202.16
245.07	1220.59
245.29	1185.77
245.51	1230.83
245.72	1275.88
245.94	1220.59
246.16	1282.03
246.38	1232.88
246.59	1228.78
246.81	1257.45
247.03	1230.83
247.24	1249.26
247.46	1257.45
247.68	1271.79
247.90	1239.02
248.11	1267.69
248.33	1210.35
248.55	1232.88
248.77	1265.64
248.98	1228.78
249.20	1265.64
249.42	1286.12
249.64	1267.69
249.85	1284.08
250.07	1183.73
250.29	1247.21
250.50	1302.51
250.72	1245.16
250.94	1236.97
251.16	1288.17
251.37	1325.04
251.59	1265.64
251.81	1263.60
252.02	1249.26
252.24	1232.88
252.46	1259.50
252.68	1253.36
252.89	1296.36
253.11	1294.32
253.33	1339.37
253.54	1263.60
253.76	1261.55
253.98	1153.01
254.20	1239.02
254.41	1241.07
254.63	1175.53
254.85	1288.17
255.06	1288.17
255.28	1320.94
255.50	1290.22
255.71	1267.69
255.93	1255.40
256.15	1234.93
256.36	1327.08
256.58	1261.55
256.80	1220.59
257.02	1191.92
257.23	1265.64
257.45	1314.80
257.67	1271.79
257.88	1222.64
258.10	1298.41
258.32	1273.84
258.53	1325.04
258.75	1292.27
258.97	1298.41
259.18	1337.32
259.40	1212.40
259.62	1239.02
259.83	1243.12
260.05	1302.51
260.27	1247.21
260.48	1271.79
260.70	1253.36
260.92	1265.64
261.13	1253.36
261.35	1275.88
261.57	1261.55
261.78	1208.30
262.00	1228.78
262.22	1230.83
262.43	1294.32
262.65	1263.60
262.86	1253.36
263.08	1257.45
263.30	1253.36
263.51	1243.12
263.73	1189.87
263.95	1290.22
264.16	1208.30
264.38	1253.36
264.60	1327.08
264.81	1216.49
265.03	1263.60
265.25	1269.74
265.46	1226.73
265.68	1284.08
265.89	1312.75
266.11	1198.06
266.33	1290.22
266.54	1275.88
266.76	1331.18
266.98	1267.69
267.19	1271.79
267.41	1302.51
267.62	1257.45
267.84	1251.31
268.06	1220.59
268.27	1284.08
268.49	1277.93
268.70	1257.45
268.92	1249.26
269.14	1273.84
269.35	1304.56
269.57	1245.16
269.79	1320.94
270.00	1279.98
270.22	1322.99
270.43	1312.75
270.65	1298.41
270.87	1310.70
271.08	1282.03
271.30	1224.69
271.51	1255.40
271.73	1251.31
271.95	1249.26
272.16	1255.40
272.38	1236.97
272.59	1253.36
272.81	1380.33
273.02	1300.46
273.24	1234.93
273.46	1241.07
273.67	1269.74
273.89	1245.16
274.10	1263.60
274.32	1263.60
274.54	1261.55
274.75	1273.84
274.97	1255.40
275.18	1241.07
275.40	1267.69
275.61	1259.50
275.83	1322.99
276.05	1200.11
276.26	1251.31
276.48	1206.25
276.69	1249.26
276.91	1191.92
277.12	1249.26
277.34	1292.27
277.55	1294.32
277.77	1312.75
277.99	1253.36
278.20	1187.82
278.42	1226.73
278.63	1241.07
278.85	1296.36
279.06	1243.12
279.28	1228.78
279.49	1298.41
279.71	1306.60
279.93	1241.07
280.14	1282.03
280.36	1220.59
280.57	1372.14
280.79	1275.88
281.00	1273.84
281.22	1204.21
281.43	1302.51
281.65	1288.17
281.86	1241.07
282.08	1339.37
282.29	1284.08
282.51	1386.47
282.73	1290.22
282.94	1251.31
283.16	1282.03
283.37	1265.64
283.59	1249.26
283.80	1202.16
284.02	1320.94
284.23	1236.97
284.45	1212.40
284.66	1318.89
284.88	1230.83
285.09	1224.69
285.31	1265.64
285.52	1286.12
285.74	1320.94
285.95	1282.03
286.17	1257.45
286.38	1294.32
286.60	1302.51
286.81	1247.21
287.03	1296.36
287.24	1236.97
287.46	1298.41
287.67	1318.89
287.89	1308.65
288.10	1236.97
288.32	1288.17
288.53	1222.64
288.75	1261.55
288.96	1294.32
289.18	1222.64
289.39	1314.80
289.61	1296.36
289.82	1212.40
290.04	1302.51
290.25	1290.22
290.47	1263.60
290.68	1275.88
290.90	1249.26
291.11	1277.93
291.33	1257.45
291.54	1320.94
291.76	1292.27
291.97	1312.75
292.18	1279.98
292.40	1232.88
292.61	1296.36
292.83	1263.60
293.04	1327.08
293.26	1243.12
293.47	1234.93
293.69	1263.60
293.90	1302.51
294.12	1382.38
294.33	1300.46
294.55	1220.59
294.76	1269.74
294.97	1249.26
295.19	1294.32
295.40	1312.75
295.62	1314.80
295.83	1241.07
296.05	1282.03
296.26	1251.31
296.48	1312.75
296.69	1193.97
296.90	1286.12
297.12	1224.69
297.33	1275.88
297.55	1224.69
297.76	1296.36
297.98	1310.70
298.19	1300.46
298.41	1282.03
298.62	1300.46
298.83	1286.12
299.05	1241.07
299.26	1269.74
299.48	1165.29
299.69	1265.64
299.90	1273.84
300.12	1284.08
300.33	1202.16
300.55	1155.05
300.76	1220.59
300.98	1312.75
301.19	1271.79
301.40	1277.93
301.62	1314.80
301.83	1236.97
302.05	1212.40
302.26	1275.88
302.47	1304.56
302.69	1234.93
302.90	1284.08
303.12	1325.04
303.33	1292.27
303.54	1279.98
303.76	1279.98
303.97	1210.35
304.19	1282.03
304.40	1292.27
304.61	1265.64
304.83	1286.12
305.04	1302.51
305.26	1269.74
305.47	1249.26
305.68	1282.03
305.90	1232.88
306.11	1284.08
306.33	1312.75
306.54	1269.74
306.75	1212.40
306.97	1269.74
307.18	1290.22
307.39	1263.60
307.61	1269.74
307.82	1271.79
308.04	1265.64
308.25	1275.88
308.46	1329.13
308.68	1282.03
308.89	1374.19
309.10	1294.32
309.32	1251.31
309.53	1255.40
309.74	1320.94
309.96	1253.36
310.17	1271.79
310.39	1279.98
310.60	1279.98
310.81	1290.22
311.03	1263.60
311.24	1304.56
311.45	1271.79
311.67	1269.74
311.88	1232.88
312.09	1200.11
312.31	1228.78
312.52	1269.74
312.73	1271.79
312.95	1222.64
313.16	1243.12
313.37	1259.50
313.59	1249.26
313.80	1224.69
314.01	1257.45
314.23	1263.60
314.44	1214.45
314.65	1232.88
314.87	1294.32
315.08	1292.27
315.29	1361.90
315.51	1241.07
315.72	1234.93
315.93	1296.36
316.15	1302.51
316.36	1255.40
316.57	1304.56
316.79	1210.35
317.00	1288.17
317.21	1220.59
317.43	1298.41
317.64	1220.59
317.85	1316.84
318.07	1261.55
318.28	1255.40
318.49	1292.27
318.70	1325.04
318.92	1255.40
319.13	1249.26
319.34	1292.27
319.56	1198.06
319.77	1284.08
319.98	1218.54
320.20	1239.02
320.41	1363.95
320.62	1292.27
320.83	1302.51
321.05	1255.40
321.26	1259.50
321.47	1239.02
321.69	1294.32
321.90	1265.64
322.11	1232.88
322.32	1187.82
322.54	1236.97
322.75	1226.73
322.96	1310.70
323.18	1251.31
323.39	1314.80
323.60	1222.64
323.81	1222.64
324.03	1243.12
324.24	1306.60
324.45	1318.89
324.66	1298.41
324.88	1239.02
325.09	1286.12
325.30	1279.98
325.52	1277.93
325.73	1257.45
325.94	1273.84
326.15	1230.83
326.37	1339.37
326.58	1261.55
326.79	1261.55
327.00	1224.69
327.22	1261.55
327.43	1234.93
327.64	1271.79
327.85	1208.30
328.07	1222.64
328.28	1286.12
328.49	1292.27
328.70	1234.93
328.92	1243.12
329.13	1210.35
329.34	1265.64
329.55	1247.21
329.76	1206.25
329.98	1312.75
330.19	1306.60
330.40	1296.36
330.61	1282.03
330.83	1220.59
331.04	1200.11
331.25	1300.46
331.46	1234.93
331.68	1218.54
331.89	1288.17
332.10	1304.56
332.31	1271.79
332.52	1304.56
332.74	1296.36
332.95	1220.59
333.16	1296.36
333.37	1218.54
333.58	1304.56
333.80	1251.31
334.01	1200.11
334.22	1218.54
334.43	1286.12
334.64	1279.98
334.86	1306.60
335.07	1308.65
335.28	1329.13
335.49	1284.08
335.70	1284.08
335.92	1226.73
336.13	1292.27
336.34	1312.75
336.55	1294.32
336.76	1257.45
336.98	1265.64
337.19	1292.27
337.40	1349.61
337.61	1335.28
337.82	1306.60
338.04	1267.69
338.25	1294.32
338.46	1255.40
338.67	1308.65
338.88	1222.64
339.09	1357.80
339.31	1337.32
339.52	1288.17
339.73	1263.60
339.94	1206.25
340.15	1314.80
340.36	1230.83
340.58	1269.74
340.79	1279.98
341.00	1226.73
341.21	1236.97
341.42	1279.98
341.63	1204.21
341.85	1304.56
342.06	1329.13
342.27	1335.28
342.48	1304.56
342.69	1224.69
342.90	1294.32
343.12	1142.77
343.33	1312.75
343.54	1325.04
343.75	1296.36
343.96	1273.84
344.17	1265.64
344.38	1267.69
344.60	1288.17
344.81	1171.44
345.02	1189.87
345.23	1261.55
345.44	1341.42
345.65	1286.12
345.86	1275.88
346.07	1253.36
346.29	1239.02
346.50	1279.98
346.71	1247.21
346.92	1300.46
347.13	1263.60
347.34	1302.51
347.55	1257.45
347.76	1261.55
347.98	1265.64
348.19	1322.99
348.40	1214.45
348.61	1339.37
348.82	1236.97
349.03	1296.36
349.24	1249.26
349.45	1292.27
349.66	1191.92
349.88	1261.55
350.09	1277.93
350.30	1255.40
350.51	1368.04
350.72	1255.40
350.93	1169.39
351.14	1290.22
351.35	1314.80
351.56	1304.56
351.77	1259.50
351.99	1265.64
352.20	1288.17
352.41	1300.46
352.62	1234.93
352.83	1249.26
353.04	1290.22
353.25	1241.07
353.46	1255.40
353.67	1298.41
353.88	1286.12
354.09	1298.41
354.30	1284.08
354.52	1267.69
354.73	1247.21
354.94	1236.97
355.15	1269.74
355.36	1329.13
355.57	1312.75
355.78	1327.08
355.99	1322.99
356.20	1288.17
356.41	1312.75
356.62	1298.41
356.83	1304.56
357.04	1302.51
357.25	1263.60
357.46	1290.22
357.68	1298.41
357.89	1273.84
358.10	1239.02
358.31	1189.87
358.52	1273.84
358.73	1257.45
358.94	1282.03
359.15	1282.03
359.36	1306.60
359.57	1165.29
359.78	1208.30
359.99	1222.64
360.20	1292.27
360.41	1329.13
360.62	1263.60
360.83	1239.02
361.04	1296.36
361.25	1286.12
361.46	1263.60
361.67	1198.06
361.88	1267.69
362.09	1294.32
362.30	1257.45
362.51	1267.69
362.72	1288.17
362.93	1279.98
363.14	1298.41
363.35	1236.97
363.56	1253.36
363.78	1255.40
363.99	1300.46
364.20	1310.70
364.41	1265.64
364.62	1318.89
364.83	1288.17
365.04	1204.21
365.25	1234.93
365.46	1230.83
365.67	1218.54
365.88	1271.79
366.09	1320.94
366.30	1284.08
366.51	1214.45
366.72	1265.64
366.93	1255.40
367.14	1216.49
367.35	1259.50
367.56	1263.60
367.77	1271.79
367.98	1261.55
368.18	1282.03
368.39	1337.32
368.60	1241.07
368.81	1202.16
369.02	1279.98
369.23	1257.45
369.44	1353.71
369.65	1249.26
369.86	1247.21
370.07	1224.69
370.28	1239.02
370.49	1273.84
370.70	1304.56
370.91	1290.22
371.12	1269.74
371.33	1359.85
371.54	1269.74
371.75	1345.52
371.96	1241.07
372.17	1212.40
372.38	1228.78
372.59	1263.60
372.80	1271.79
373.01	1304.56
373.22	1253.36
373.43	1189.87
373.64	1292.27
373.85	1312.75
374.06	1351.66
374.26	1306.60
374.47	1288.17
374.68	1214.45
374.89	1222.64
375.10	1247.21
375.31	1241.07
375.52	1277.93
375.73	1200.11
375.94	1279.98
376.15	1294.32
376.36	1206.25
376.57	1265.64
376.78	1279.98
376.99	1234.93
377.20	1255.40
377.40	1314.80
377.61	1232.88
377.82	1183.73
378.03	1294.32
378.24	1290.22
378.45	1245.16
378.66	1308.65
378.87	1286.12
379.08	1300.46
379.29	1265.64
379.50	1277.93
379.71	1249.26
379.91	1200.11
380.12	1298.41
380.33	1228.78
380.54	1196.01
380.75	1241.07
380.96	1310.70
381.17	1288.17
381.38	1247.21
381.59	1216.49
381.80	1298.41
382.00	1314.80
382.21	1241.07
382.42	1282.03
382.63	1306.60
382.84	1234.93
383.05	1230.83
383.26	1308.65
383.47	1249.26
383.68	1230.83
383.88	1304.56
384.09	1286.12
384.30	1263.60
384.51	1386.47
384.72	1241.07
384.93	1218.54
385.14	1269.74
385.35	1236.97
385.55	1241.07
385.76	1230.83
385.97	1245.16
386.18	1263.60
386.39	1247.21
386.60	1218.54
386.81	1271.79
387.02	1263.60
387.22	1290.22
387.43	1298.41
387.64	1304.56
387.85	1265.64
388.06	1284.08
388.27	1300.46
388.48	1222.64
388.68	1296.36
388.89	1247.21
389.10	1296.36
389.31	1239.02
389.52	1236.97
389.73	1331.18
389.93	1263.60
390.14	1284.08
390.35	1273.84
390.56	1282.03
390.77	1249.26
390.98	1245.16
391.18	1196.01
391.39	1286.12
391.60	1273.84
391.81	1228.78
392.02	1241.07
392.23	1228.78
392.43	1312.75
392.64	1294.32
392.85	1232.88
393.06	1232.88
393.27	1245.16
393.47	1191.92
393.68	1265.64
393.89	1286.12
394.10	1279.98
394.31	1196.01
394.52	1271.79
394.72	1224.69
394.93	1189.87
395.14	1335.28
395.35	1261.55
395.56	1277.93
395.76	1222.64
395.97	1308.65
396.18	1247.21
396.39	1232.88
396.60	1372.14
396.80	1343.47
397.01	1304.56
397.22	1320.94
397.43	1236.97
397.64	1261.55
397.84	1241.07
398.05	1212.40
398.26	1208.30
398.47	1277.93
398.67	1368.04
398.88	1322.99
399.09	1265.64
399.30	1302.51
399.51	1304.56
399.71	1318.89
399.92	1230.83
400.13	1298.41
400.34	1230.83
400.54	1247.21
400.75	1290.22
400.96	1239.02
401.17	1259.50
401.37	1263.60
401.58	1304.56
401.79	1320.94
402.00	1263.60
402.21	1249.26
402.41	1214.45
402.62	1232.88
402.83	1230.83
403.04	1210.35
403.24	1261.55
403.45	1241.07
403.66	1341.42
403.87	1298.41
404.07	1312.75
404.28	1275.88
404.49	1288.17
404.70	1249.26
404.90	1271.79
405.11	1284.08
405.32	1232.88
405.52	1279.98
405.73	1204.21
405.94	1224.69
406.15	1220.59
406.35	1296.36
406.56	1304.56
406.77	1265.64
406.98	1257.45
407.18	1357.80
407.39	1263.60
407.60	1275.88
407.80	1257.45
408.01	1265.64
408.22	1234.93
408.43	1275.88
408.63	1286.12
408.84	1320.94
409.05	1304.56
409.25	1241.07
409.46	1247.21
409.67	1292.27
409.88	1245.16
410.08	1220.59
410.29	1284.08
410.50	1294.32
410.70	1277.93
410.91	1302.51
411.12	1241.07
411.32	1277.93
411.53	1304.56
411.74	1253.36
411.95	1282.03
412.15	1314.80
412.36	1269.74
412.57	1331.18
412.77	1265.64
412.98	1224.69
413.19	1277.93
413.39	1253.36
413.60	1222.64
413.81	1282.03
414.01	1296.36
414.22	1226.73
414.43	1239.02
414.63	1224.69
414.84	1320.94
415.05	1239.02
415.25	1230.83
415.46	1247.21
415.67	1263.60
415.87	1300.46
416.08	1257.45
416.29	1288.17
416.49	1265.64
416.70	1257.45
416.91	1261.55
417.11	1294.32
417.32	1304.56
417.53	1263.60
417.73	1224.69
417.94	1277.93
418.15	1255.40
418.35	1253.36
418.56	1210.35
418.77	1292.27
418.97	1282.03
419.18	1306.60
419.38	1249.26
419.59	1277.93
419.80	1222.64
420.00	1202.16
420.21	1257.45
420.42	1218.54
420.62	1239.02
420.83	1228.78
421.04	1273.84
421.24	1255.40
421.45	1296.36
421.65	1298.41
421.86	1269.74
422.07	1230.83
422.27	1234.93
422.48	1269.74
422.69	1288.17
422.89	1263.60
423.10	1214.45
423.30	1259.50
423.51	1290.22
423.72	1306.60
423.92	1255.40
424.13	1222.64
424.33	1306.60
424.54	1220.59
424.75	1232.88
424.95	1277.93
425.16	1304.56
425.36	1308.65
425.57	1267.69
425.78	1314.80
425.98	1249.26
426.19	1265.64
426.39	1333.23
426.60	1314.80
426.81	1241.07
427.01	1269.74
427.22	1290.22
427.42	1265.64
427.63	1269.74
427.83	1327.08
428.04	1259.50
428.25	1329.13
428.45	1273.84
428.66	1284.08
428.86	1226.73
429.07	1277.93
429.28	1249.26
429.48	1273.84
429.69	1298.41
429.89	1181.68
430.10	1331.18
430.30	1261.55
430.51	1269.74
430.71	1333.23
430.92	1267.69
431.13	1261.55
431.33	1292.27
431.54	1271.79
431.74	1267.69
431.95	1339.37
432.15	1277.93
432.36	1259.50
432.56	1193.97
432.77	1327.08
432.98	1259.50
433.18	1239.02
433.39	1306.60
433.59	1349.61
433.80	1224.69
434.00	1322.99
434.21	1290.22
434.41	1224.69
434.62	1232.88
434.82	1286.12
435.03	1296.36
435.23	1243.12
435.44	1314.80
435.64	1275.88
435.85	1234.93
436.06	1284.08
436.26	1298.41
436.47	1265.64
436.67	1265.64
436.88	1259.50
437.08	1226.73
437.29	1300.46
437.49	1288.17
437.70	1259.50
437.90	1247.21
438.11	1275.88
438.31	1253.36
438.52	1247.21
438.72	1230.83
438.93	1277.93
439.13	1277.93
439.34	1282.03
439.54	1245.16
439.75	1265.64
439.95	1316.84
440.16	1220.59
440.36	1253.36
440.57	1249.26
440.77	1224.69
440.98	1316.84
441.18	1288.17
441.39	1261.55
441.59	1355.76
441.80	1282.03
442.00	1325.04
442.21	1325.04
442.41	1312.75
442.62	1189.87
442.82	1298.41
443.02	1296.36
443.23	1310.70
443.43	1216.49
443.64	1263.60
443.84	1273.84
444.05	1277.93
444.25	1298.41
444.46	1269.74
444.66	1265.64
444.87	1308.65
445.07	1277.93
445.28	1191.92
445.48	1298.41
445.69	1269.74
445.89	1288.17
446.09	1226.73
446.30	1290.22
446.50	1230.83
446.71	1325.04
446.91	1222.64
447.12	1251.31
447.32	1298.41
447.53	1257.45
447.73	1292.27
447.93	1261.55
448.14	1265.64
448.34	1239.02
448.55	1232.88
448.75	1208.30
448.96	1249.26
449.16	1275.88
449.36	1292.27
449.57	1310.70
449.77	1257.45
449.98	1277.93
450.18	1239.02
450.39	1241.07
450.59	1359.85
450.79	1306.60
451.00	1257.45
451.20	1318.89
451.41	1271.79
451.61	1224.69
451.81	1286.12
452.02	1245.16
452.22	1329.13
452.43	1218.54
452.63	1304.56
