SpectraSuite Data File
++++++++++++++++++++++++++++++++++++
Date: Sun Apr 03 19:55:15 CEST 2016
User: root
Dark Spectrum Present: No
Reference Spectrum Present: No
Number of Sampled Component Spectra: 1
Spectrometers: USB4C02835
Integration Time (usec): 10000 (USB4C02835)
Spectra Averaged: 1 (USB4C02835)
Boxcar Smoothing: 0 (USB4C02835)
Correct for Electrical Dark: No (USB4C02835)
Strobe/Lamp Enabled: No (USB4C02835)
Correct for Detector Non-linearity: No (USB4C02835)
Correct for Stray Light: No (USB4C02835)
Number of Pixels in Processed Spectrum: 3648
>>>>>Begin Processed Spectral Data<<<<<
177.47	1296.36
177.69	1296.36
177.91	1296.36
178.13	1210.35
178.36	1206.25
178.58	1183.73
178.80	1320.94
179.02	1304.56
179.24	1316.84
179.46	1261.55
179.68	1347.56
179.90	1263.60
180.13	1208.30
180.35	1171.44
180.57	1183.73
180.79	1218.54
181.01	1312.75
181.23	1267.69
181.45	1298.41
181.67	1187.82
181.90	1320.94
182.12	1257.45
182.34	1333.23
182.56	1232.88
182.78	1302.51
183.00	1316.84
183.22	1308.65
183.44	1284.08
183.66	1243.12
183.89	1167.34
184.11	1236.97
184.33	1228.78
184.55	1275.88
184.77	1308.65
184.99	1314.80
185.21	1279.98
185.43	1279.98
185.65	1232.88
185.87	1294.32
186.10	1345.52
186.32	1329.13
186.54	1245.16
186.76	1257.45
186.98	1249.26
187.20	1200.11
187.42	1265.64
187.64	1247.21
187.86	1220.59
188.08	1228.78
188.30	1214.45
188.52	1322.99
188.75	1320.94
188.97	1294.32
189.19	1294.32
189.41	1247.21
189.63	1302.51
189.85	1318.89
190.07	1216.49
190.29	1345.52
190.51	1241.07
190.73	1212.40
190.95	1214.45
191.17	1269.74
191.39	1224.69
191.61	1261.55
191.84	1277.93
192.06	1314.80
192.28	1271.79
192.50	1165.29
192.72	1234.93
192.94	1263.60
193.16	1329.13
193.38	1286.12
193.60	1286.12
193.82	1261.55
194.04	1271.79
194.26	1312.75
194.48	1224.69
194.70	1253.36
194.92	1279.98
195.14	1320.94
195.36	1206.25
195.58	1228.78
195.80	1259.50
196.02	1273.84
196.24	1257.45
196.46	1288.17
196.69	1288.17
196.91	1290.22
197.13	1298.41
197.35	1286.12
197.57	1261.55
197.79	1322.99
198.01	1286.12
198.23	1245.16
198.45	1290.22
198.67	1239.02
198.89	1263.60
199.11	1249.26
199.33	1204.21
199.55	1253.36
199.77	1277.93
199.99	1271.79
200.21	1316.84
200.43	1226.73
200.65	1234.93
200.87	1265.64
201.09	1279.98
201.31	1255.40
201.53	1253.36
201.75	1249.26
201.97	1208.30
202.19	1251.31
202.41	1308.65
202.63	1232.88
202.85	1236.97
203.07	1216.49
203.29	1265.64
203.51	1296.36
203.73	1296.36
203.95	1267.69
204.17	1304.56
204.39	1236.97
204.61	1224.69
204.83	1286.12
205.05	1200.11
205.27	1259.50
205.49	1333.23
205.71	1261.55
205.93	1218.54
206.15	1304.56
206.37	1271.79
206.59	1279.98
206.81	1302.51
207.03	1232.88
207.25	1286.12
207.47	1286.12
207.69	1292.27
207.91	1294.32
208.13	1351.66
208.34	1245.16
208.56	1277.93
208.78	1198.06
209.00	1269.74
209.22	1179.63
209.44	1279.98
209.66	1269.74
209.88	1216.49
210.10	1288.17
210.32	1198.06
210.54	1351.66
210.76	1273.84
210.98	1265.64
211.20	1294.32
211.42	1243.12
211.64	1300.46
211.86	1320.94
212.08	1220.59
212.30	1179.63
212.52	1267.69
212.74	1257.45
212.96	1335.28
213.17	1234.93
213.39	1241.07
213.61	1251.31
213.83	1232.88
214.05	1273.84
214.27	1343.47
214.49	1243.12
214.71	1290.22
214.93	1290.22
215.15	1277.93
215.37	1255.40
215.59	1198.06
215.81	1284.08
216.03	1243.12
216.24	1269.74
216.46	1263.60
216.68	1318.89
216.90	1247.21
217.12	1230.83
217.34	1327.08
217.56	1282.03
217.78	1271.79
218.00	1243.12
218.22	1189.87
218.44	1288.17
218.66	1310.70
218.87	1277.93
219.09	1243.12
219.31	1243.12
219.53	1257.45
219.75	1290.22
219.97	1322.99
220.19	1251.31
220.41	1277.93
220.63	1269.74
220.85	1185.77
221.06	1335.28
221.28	1255.40
221.50	1267.69
221.72	1255.40
221.94	1292.27
222.16	1339.37
222.38	1257.45
222.60	1267.69
222.82	1284.08
223.03	1279.98
223.25	1271.79
223.47	1234.93
223.69	1263.60
223.91	1277.93
224.13	1288.17
224.35	1271.79
224.57	1327.08
224.78	1302.51
225.00	1304.56
225.22	1239.02
225.44	1292.27
225.66	1257.45
225.88	1216.49
226.10	1261.55
226.32	1275.88
226.53	1239.02
226.75	1218.54
226.97	1234.93
227.19	1327.08
227.41	1243.12
227.63	1290.22
227.85	1230.83
228.06	1282.03
228.28	1292.27
228.50	1306.60
228.72	1241.07
228.94	1265.64
229.16	1234.93
229.37	1267.69
229.59	1261.55
229.81	1296.36
230.03	1187.82
230.25	1255.40
230.47	1253.36
230.69	1249.26
230.90	1316.84
231.12	1218.54
231.34	1275.88
231.56	1265.64
231.78	1349.61
232.00	1294.32
232.21	1308.65
232.43	1263.60
232.65	1204.21
232.87	1370.09
233.09	1165.29
233.30	1292.27
233.52	1298.41
233.74	1320.94
233.96	1314.80
234.18	1175.53
234.40	1302.51
234.61	1296.36
234.83	1255.40
235.05	1241.07
235.27	1232.88
235.49	1282.03
235.70	1279.98
235.92	1279.98
236.14	1298.41
236.36	1294.32
236.58	1208.30
236.79	1302.51
237.01	1273.84
237.23	1320.94
237.45	1314.80
237.67	1224.69
237.88	1290.22
238.10	1279.98
238.32	1245.16
238.54	1298.41
238.76	1329.13
238.97	1284.08
239.19	1193.97
239.41	1271.79
239.63	1277.93
239.85	1325.04
240.06	1294.32
240.28	1189.87
240.50	1230.83
240.72	1267.69
240.93	1269.74
241.15	1271.79
241.37	1327.08
241.59	1261.55
241.81	1265.64
242.02	1230.83
242.24	1290.22
242.46	1300.46
242.68	1294.32
242.89	1232.88
243.11	1234.93
243.33	1302.51
243.55	1236.97
243.76	1386.47
243.98	1327.08
244.20	1296.36
244.42	1275.88
244.64	1265.64
244.85	1236.97
245.07	1292.27
245.29	1218.54
245.51	1282.03
245.72	1191.92
245.94	1159.15
246.16	1257.45
246.38	1265.64
246.59	1318.89
246.81	1282.03
247.03	1226.73
247.24	1265.64
247.46	1208.30
247.68	1300.46
247.90	1273.84
248.11	1269.74
248.33	1325.04
248.55	1239.02
248.77	1288.17
248.98	1382.38
249.20	1263.60
249.42	1288.17
249.64	1292.27
249.85	1312.75
250.07	1267.69
250.29	1298.41
250.50	1202.16
250.72	1259.50
250.94	1269.74
251.16	1329.13
251.37	1279.98
251.59	1259.50
251.81	1310.70
252.02	1271.79
252.24	1253.36
252.46	1241.07
252.68	1232.88
252.89	1306.60
253.11	1284.08
253.33	1277.93
253.54	1331.18
253.76	1284.08
253.98	1230.83
254.20	1253.36
254.41	1236.97
254.63	1175.53
254.85	1247.21
255.06	1243.12
255.28	1267.69
255.50	1269.74
255.71	1300.46
255.93	1271.79
256.15	1337.32
256.36	1331.18
256.58	1239.02
256.80	1310.70
257.02	1337.32
257.23	1265.64
257.45	1292.27
257.67	1257.45
257.88	1200.11
258.10	1284.08
258.32	1245.16
258.53	1316.84
258.75	1327.08
258.97	1277.93
259.18	1255.40
259.40	1284.08
259.62	1304.56
259.83	1263.60
260.05	1325.04
260.27	1239.02
260.48	1271.79
260.70	1282.03
260.92	1327.08
261.13	1253.36
261.35	1263.60
261.57	1273.84
261.78	1212.40
262.00	1259.50
262.22	1284.08
262.43	1218.54
262.65	1271.79
262.86	1257.45
263.08	1239.02
263.30	1286.12
263.51	1206.25
263.73	1288.17
263.95	1216.49
264.16	1204.21
264.38	1224.69
264.60	1218.54
264.81	1277.93
265.03	1325.04
265.25	1196.01
265.46	1284.08
265.68	1193.97
265.89	1282.03
266.11	1185.77
266.33	1294.32
266.54	1277.93
266.76	1298.41
266.98	1294.32
267.19	1282.03
267.41	1204.21
267.62	1208.30
267.84	1290.22
268.06	1343.47
268.27	1282.03
268.49	1245.16
268.70	1302.51
268.92	1337.32
269.14	1275.88
269.35	1212.40
269.57	1251.31
269.79	1216.49
270.00	1265.64
270.22	1263.60
270.43	1259.50
270.65	1259.50
270.87	1179.63
271.08	1198.06
271.30	1212.40
271.51	1265.64
271.73	1243.12
271.95	1265.64
272.16	1251.31
272.38	1200.11
272.59	1273.84
272.81	1302.51
273.02	1228.78
273.24	1216.49
273.46	1265.64
273.67	1275.88
273.89	1277.93
274.10	1282.03
274.32	1292.27
274.54	1284.08
274.75	1312.75
274.97	1267.69
275.18	1214.45
275.40	1206.25
275.61	1255.40
275.83	1273.84
276.05	1298.41
276.26	1347.56
276.48	1245.16
276.69	1269.74
276.91	1302.51
277.12	1165.29
277.34	1310.70
277.55	1247.21
277.77	1255.40
277.99	1310.70
278.20	1284.08
278.42	1327.08
278.63	1273.84
278.85	1259.50
279.06	1230.83
279.28	1279.98
279.49	1298.41
279.71	1294.32
279.93	1261.55
280.14	1349.61
280.36	1220.59
280.57	1265.64
280.79	1247.21
281.00	1239.02
281.22	1288.17
281.43	1304.56
281.65	1220.59
281.86	1220.59
282.08	1310.70
282.29	1218.54
282.51	1265.64
282.73	1243.12
282.94	1308.65
283.16	1320.94
283.37	1333.23
283.59	1239.02
283.80	1232.88
284.02	1253.36
284.23	1271.79
284.45	1249.26
284.66	1284.08
284.88	1257.45
285.09	1286.12
285.31	1239.02
285.52	1259.50
285.74	1304.56
285.95	1306.60
286.17	1282.03
286.38	1302.51
286.60	1327.08
286.81	1224.69
287.03	1265.64
287.24	1339.37
287.46	1169.39
287.67	1226.73
287.89	1331.18
288.10	1255.40
288.32	1251.31
288.53	1275.88
288.75	1298.41
288.96	1232.88
289.18	1261.55
289.39	1234.93
289.61	1249.26
289.82	1255.40
290.04	1304.56
290.25	1363.95
290.47	1265.64
290.68	1222.64
290.90	1337.32
291.11	1282.03
291.33	1247.21
291.54	1253.36
291.76	1243.12
291.97	1220.59
292.18	1271.79
292.40	1234.93
292.61	1241.07
292.83	1269.74
293.04	1282.03
293.26	1232.88
293.47	1241.07
293.69	1335.28
293.90	1273.84
294.12	1312.75
294.33	1284.08
294.55	1224.69
294.76	1312.75
294.97	1257.45
295.19	1271.79
295.40	1273.84
295.62	1245.16
295.83	1284.08
296.05	1335.28
296.26	1245.16
296.48	1290.22
296.69	1277.93
296.90	1243.12
297.12	1271.79
297.33	1257.45
297.55	1282.03
297.76	1220.59
297.98	1312.75
298.19	1271.79
298.41	1296.36
298.62	1253.36
298.83	1300.46
299.05	1292.27
299.26	1165.29
299.48	1226.73
299.69	1261.55
299.90	1286.12
300.12	1216.49
300.33	1314.80
300.55	1220.59
300.76	1261.55
300.98	1308.65
301.19	1329.13
301.40	1300.46
301.62	1300.46
301.83	1241.07
302.05	1302.51
302.26	1249.26
302.47	1224.69
302.69	1277.93
302.90	1300.46
303.12	1288.17
303.33	1282.03
303.54	1247.21
303.76	1239.02
303.97	1247.21
304.19	1279.98
304.40	1277.93
304.61	1288.17
304.83	1234.93
305.04	1251.31
305.26	1232.88
305.47	1275.88
305.68	1263.60
305.90	1366.00
306.11	1294.32
306.33	1325.04
306.54	1208.30
306.75	1251.31
306.97	1212.40
307.18	1271.79
307.39	1232.88
307.61	1261.55
307.82	1392.62
308.04	1232.88
308.25	1290.22
308.46	1232.88
308.68	1327.08
308.89	1308.65
309.10	1255.40
309.32	1228.78
309.53	1271.79
309.74	1255.40
309.96	1253.36
310.17	1155.05
310.39	1183.73
310.60	1304.56
310.81	1234.93
311.03	1216.49
311.24	1253.36
311.45	1249.26
311.67	1351.66
311.88	1275.88
312.09	1271.79
312.31	1247.21
312.52	1261.55
312.73	1310.70
312.95	1206.25
313.16	1232.88
313.37	1314.80
313.59	1249.26
313.80	1257.45
314.01	1275.88
314.23	1249.26
314.44	1282.03
314.65	1163.25
314.87	1259.50
315.08	1228.78
315.29	1310.70
315.51	1261.55
315.72	1222.64
315.93	1222.64
316.15	1302.51
316.36	1288.17
316.57	1353.71
316.79	1226.73
317.00	1320.94
317.21	1253.36
317.43	1204.21
317.64	1243.12
317.85	1208.30
318.07	1249.26
318.28	1286.12
318.49	1310.70
318.70	1236.97
318.92	1269.74
319.13	1247.21
319.34	1196.01
319.56	1263.60
319.77	1263.60
319.98	1286.12
320.20	1202.16
320.41	1255.40
320.62	1263.60
320.83	1269.74
321.05	1234.93
321.26	1249.26
321.47	1216.49
321.69	1320.94
321.90	1261.55
322.11	1378.28
322.32	1247.21
322.54	1279.98
322.75	1296.36
322.96	1314.80
323.18	1202.16
323.39	1251.31
323.60	1271.79
323.81	1290.22
324.03	1245.16
324.24	1275.88
324.45	1273.84
324.66	1294.32
324.88	1200.11
325.09	1265.64
325.30	1318.89
325.52	1290.22
325.73	1282.03
325.94	1277.93
326.15	1286.12
326.37	1310.70
326.58	1234.93
326.79	1353.71
327.00	1228.78
327.22	1286.12
327.43	1261.55
327.64	1296.36
327.85	1292.27
328.07	1247.21
328.28	1298.41
328.49	1245.16
328.70	1241.07
328.92	1253.36
329.13	1271.79
329.34	1277.93
329.55	1298.41
329.76	1298.41
329.98	1249.26
330.19	1359.85
330.40	1306.60
330.61	1267.69
330.83	1249.26
331.04	1273.84
331.25	1263.60
331.46	1214.45
331.68	1255.40
331.89	1322.99
332.10	1265.64
332.31	1277.93
332.52	1169.39
332.74	1239.02
332.95	1318.89
333.16	1232.88
333.37	1196.01
333.58	1310.70
333.80	1273.84
334.01	1263.60
334.22	1325.04
334.43	1275.88
334.64	1183.73
334.86	1200.11
335.07	1294.32
335.28	1265.64
335.49	1261.55
335.70	1224.69
335.92	1294.32
336.13	1263.60
336.34	1253.36
336.55	1234.93
336.76	1275.88
336.98	1251.31
337.19	1288.17
337.40	1310.70
337.61	1288.17
337.82	1298.41
338.04	1294.32
338.25	1220.59
338.46	1294.32
338.67	1306.60
338.88	1218.54
339.09	1347.56
339.31	1210.35
339.52	1296.36
339.73	1249.26
339.94	1320.94
340.15	1290.22
340.36	1167.34
340.58	1251.31
340.79	1206.25
341.00	1269.74
341.21	1316.84
341.42	1236.97
341.63	1228.78
341.85	1257.45
342.06	1302.51
342.27	1241.07
342.48	1273.84
342.69	1255.40
342.90	1193.97
343.12	1257.45
343.33	1251.31
343.54	1312.75
343.75	1206.25
343.96	1290.22
344.17	1269.74
344.38	1263.60
344.60	1257.45
344.81	1212.40
345.02	1292.27
345.23	1220.59
345.44	1318.89
345.65	1339.37
345.86	1290.22
346.07	1335.28
346.29	1191.92
346.50	1329.13
346.71	1251.31
346.92	1218.54
347.13	1312.75
347.34	1243.12
347.55	1335.28
347.76	1310.70
347.98	1322.99
348.19	1243.12
348.40	1279.98
348.61	1230.83
348.82	1261.55
349.03	1247.21
349.24	1279.98
349.45	1320.94
349.66	1200.11
349.88	1265.64
350.09	1284.08
350.30	1243.12
350.51	1253.36
350.72	1286.12
350.93	1226.73
351.14	1282.03
351.35	1279.98
351.56	1220.59
351.77	1269.74
351.99	1243.12
352.20	1257.45
352.41	1239.02
352.62	1257.45
352.83	1290.22
353.04	1279.98
353.25	1282.03
353.46	1290.22
353.67	1257.45
353.88	1193.97
354.09	1271.79
354.30	1241.07
354.52	1187.82
354.73	1265.64
354.94	1282.03
355.15	1224.69
355.36	1294.32
355.57	1214.45
355.78	1308.65
355.99	1226.73
356.20	1327.08
356.41	1243.12
356.62	1288.17
356.83	1325.04
357.04	1298.41
357.25	1226.73
357.46	1226.73
357.68	1282.03
357.89	1312.75
358.10	1226.73
358.31	1279.98
358.52	1257.45
358.73	1259.50
358.94	1318.89
359.15	1279.98
359.36	1212.40
359.57	1306.60
359.78	1263.60
359.99	1279.98
360.20	1232.88
360.41	1286.12
360.62	1316.84
360.83	1294.32
361.04	1243.12
361.25	1302.51
361.46	1306.60
361.67	1273.84
361.88	1210.35
362.09	1228.78
362.30	1214.45
362.51	1290.22
362.72	1298.41
362.93	1288.17
363.14	1257.45
363.35	1261.55
363.56	1300.46
363.78	1253.36
363.99	1294.32
364.20	1189.87
364.41	1294.32
364.62	1269.74
364.83	1247.21
365.04	1310.70
365.25	1241.07
365.46	1265.64
365.67	1247.21
365.88	1288.17
366.09	1273.84
366.30	1273.84
366.51	1263.60
366.72	1300.46
366.93	1269.74
367.14	1322.99
367.35	1292.27
367.56	1249.26
367.77	1257.45
367.98	1292.27
368.18	1257.45
368.39	1247.21
368.60	1304.56
368.81	1267.69
369.02	1257.45
369.23	1263.60
369.44	1320.94
369.65	1273.84
369.86	1239.02
370.07	1282.03
370.28	1259.50
370.49	1271.79
370.70	1308.65
370.91	1224.69
371.12	1290.22
371.33	1333.23
371.54	1277.93
371.75	1228.78
371.96	1282.03
372.17	1298.41
372.38	1261.55
372.59	1224.69
372.80	1243.12
373.01	1253.36
373.22	1302.51
373.43	1382.38
373.64	1232.88
373.85	1339.37
374.06	1261.55
374.26	1257.45
374.47	1302.51
374.68	1275.88
374.89	1269.74
375.10	1271.79
375.31	1230.83
375.52	1273.84
375.73	1271.79
375.94	1259.50
376.15	1277.93
376.36	1253.36
376.57	1275.88
376.78	1267.69
376.99	1185.77
377.20	1298.41
377.40	1320.94
377.61	1222.64
377.82	1226.73
378.03	1306.60
378.24	1265.64
378.45	1292.27
378.66	1267.69
378.87	1312.75
379.08	1325.04
379.29	1286.12
379.50	1191.92
379.71	1320.94
379.91	1288.17
380.12	1255.40
380.33	1273.84
380.54	1241.07
380.75	1228.78
380.96	1247.21
381.17	1267.69
381.38	1322.99
381.59	1239.02
381.80	1282.03
382.00	1257.45
382.21	1288.17
382.42	1245.16
382.63	1273.84
382.84	1267.69
383.05	1265.64
383.26	1232.88
383.47	1306.60
383.68	1306.60
383.88	1282.03
384.09	1253.36
384.30	1247.21
384.51	1189.87
384.72	1349.61
384.93	1243.12
385.14	1245.16
385.35	1304.56
385.55	1265.64
385.76	1253.36
385.97	1257.45
386.18	1271.79
386.39	1247.21
386.60	1241.07
386.81	1265.64
387.02	1249.26
387.22	1243.12
387.43	1290.22
387.64	1296.36
387.85	1200.11
388.06	1187.82
388.27	1249.26
388.48	1306.60
388.68	1216.49
388.89	1271.79
389.10	1290.22
389.31	1279.98
389.52	1306.60
389.73	1175.53
389.93	1273.84
390.14	1296.36
390.35	1259.50
390.56	1282.03
390.77	1261.55
390.98	1304.56
391.18	1255.40
391.39	1216.49
391.60	1269.74
391.81	1259.50
392.02	1224.69
392.23	1230.83
392.43	1239.02
392.64	1292.27
392.85	1210.35
393.06	1306.60
393.27	1277.93
393.47	1329.13
393.68	1167.34
393.89	1298.41
394.10	1273.84
394.31	1224.69
394.52	1216.49
394.72	1279.98
394.93	1298.41
395.14	1298.41
395.35	1228.78
395.56	1253.36
395.76	1312.75
395.97	1265.64
396.18	1232.88
396.39	1271.79
396.60	1198.06
396.80	1282.03
397.01	1267.69
397.22	1257.45
397.43	1279.98
397.64	1294.32
397.84	1265.64
398.05	1284.08
398.26	1277.93
398.47	1290.22
398.67	1298.41
398.88	1183.73
399.09	1292.27
399.30	1247.21
399.51	1341.42
399.71	1183.73
399.92	1261.55
400.13	1236.97
400.34	1284.08
400.54	1263.60
400.75	1247.21
400.96	1230.83
401.17	1247.21
401.37	1271.79
401.58	1241.07
401.79	1261.55
402.00	1261.55
402.21	1275.88
402.41	1279.98
402.62	1294.32
402.83	1261.55
403.04	1216.49
403.24	1296.36
403.45	1269.74
403.66	1284.08
403.87	1255.40
404.07	1269.74
404.28	1249.26
404.49	1245.16
404.70	1292.27
404.90	1267.69
405.11	1249.26
405.32	1282.03
405.52	1191.92
405.73	1357.80
405.94	1243.12
406.15	1224.69
406.35	1245.16
406.56	1239.02
406.77	1234.93
406.98	1380.33
407.18	1175.53
407.39	1314.80
407.60	1243.12
407.80	1226.73
408.01	1236.97
408.22	1314.80
408.43	1236.97
408.63	1259.50
408.84	1259.50
409.05	1331.18
409.25	1185.77
409.46	1329.13
409.67	1271.79
409.88	1210.35
410.08	1298.41
410.29	1298.41
410.50	1277.93
410.70	1314.80
410.91	1261.55
411.12	1320.94
411.32	1218.54
411.53	1204.21
411.74	1318.89
411.95	1308.65
412.15	1218.54
412.36	1239.02
412.57	1222.64
412.77	1361.90
412.98	1261.55
413.19	1247.21
413.39	1316.84
413.60	1273.84
413.81	1310.70
414.01	1292.27
414.22	1228.78
414.43	1277.93
414.63	1306.60
414.84	1279.98
415.05	1308.65
415.25	1208.30
415.46	1206.25
415.67	1271.79
415.87	1269.74
416.08	1257.45
416.29	1312.75
416.49	1318.89
416.70	1316.84
416.91	1261.55
417.11	1294.32
417.32	1290.22
417.53	1282.03
417.73	1312.75
417.94	1243.12
418.15	1277.93
418.35	1288.17
418.56	1230.83
418.77	1277.93
418.97	1306.60
419.18	1322.99
419.38	1304.56
419.59	1253.36
419.80	1331.18
420.00	1257.45
420.21	1191.92
420.42	1269.74
420.62	1243.12
420.83	1259.50
421.04	1275.88
421.24	1339.37
421.45	1271.79
421.65	1222.64
421.86	1191.92
422.07	1214.45
422.27	1288.17
422.48	1267.69
422.69	1277.93
422.89	1300.46
423.10	1314.80
423.30	1296.36
423.51	1290.22
423.72	1290.22
423.92	1286.12
424.13	1253.36
424.33	1261.55
424.54	1241.07
424.75	1255.40
424.95	1236.97
425.16	1257.45
425.36	1269.74
425.57	1284.08
425.78	1247.21
425.98	1290.22
426.19	1292.27
426.39	1271.79
426.60	1290.22
426.81	1288.17
427.01	1204.21
427.22	1239.02
427.42	1267.69
427.63	1216.49
427.83	1273.84
428.04	1265.64
428.25	1302.51
428.45	1261.55
428.66	1257.45
428.86	1277.93
429.07	1234.93
429.28	1232.88
429.48	1316.84
429.69	1251.31
429.89	1224.69
430.10	1222.64
430.30	1351.66
430.51	1224.69
430.71	1269.74
430.92	1320.94
431.13	1312.75
431.33	1290.22
431.54	1267.69
431.74	1279.98
431.95	1263.60
432.15	1259.50
432.36	1251.31
432.56	1263.60
432.77	1277.93
432.98	1282.03
433.18	1230.83
433.39	1345.52
433.59	1300.46
433.80	1232.88
434.00	1259.50
434.21	1212.40
434.41	1372.14
434.62	1273.84
434.82	1241.07
435.03	1208.30
435.23	1255.40
435.44	1226.73
435.64	1191.92
435.85	1249.26
436.06	1290.22
436.26	1333.23
436.47	1294.32
436.67	1298.41
436.88	1298.41
437.08	1331.18
437.29	1222.64
437.49	1251.31
437.70	1312.75
437.90	1288.17
438.11	1318.89
438.31	1230.83
438.52	1343.47
438.72	1355.76
438.93	1220.59
439.13	1267.69
439.34	1329.13
439.54	1322.99
439.75	1218.54
439.95	1298.41
440.16	1265.64
440.36	1224.69
440.57	1196.01
440.77	1212.40
440.98	1279.98
441.18	1251.31
441.39	1239.02
441.59	1216.49
441.80	1292.27
442.00	1290.22
442.21	1275.88
442.41	1302.51
442.62	1298.41
442.82	1296.36
443.02	1310.70
443.23	1269.74
443.43	1251.31
443.64	1263.60
443.84	1228.78
444.05	1302.51
444.25	1341.42
444.46	1247.21
444.66	1196.01
444.87	1279.98
445.07	1236.97
445.28	1245.16
445.48	1322.99
445.69	1339.37
445.89	1273.84
446.09	1333.23
446.30	1220.59
446.50	1275.88
446.71	1228.78
446.91	1290.22
447.12	1296.36
447.32	1177.58
447.53	1271.79
447.73	1298.41
447.93	1310.70
448.14	1271.79
448.34	1257.45
448.55	1261.55
448.75	1320.94
448.96	1331.18
449.16	1222.64
449.36	1261.55
449.57	1296.36
449.77	1271.79
449.98	1189.87
450.18	1236.97
450.39	1282.03
450.59	1220.59
450.79	1325.04
451.00	1361.90
451.20	1284.08
451.41	1265.64
451.61	1267.69
451.81	1271.79
452.02	1318.89
452.22	1298.41
452.43	1265.64
452.63	1265.64
