SpectraSuite Data File
++++++++++++++++++++++++++++++++++++
Date: Sun Apr 03 19:55:26 CEST 2016
User: root
Dark Spectrum Present: No
Reference Spectrum Present: No
Number of Sampled Component Spectra: 1
Spectrometers: USB4C02835
Integration Time (usec): 10000 (USB4C02835)
Spectra Averaged: 1 (USB4C02835)
Boxcar Smoothing: 0 (USB4C02835)
Correct for Electrical Dark: No (USB4C02835)
Strobe/Lamp Enabled: No (USB4C02835)
Correct for Detector Non-linearity: No (USB4C02835)
Correct for Stray Light: No (USB4C02835)
Number of Pixels in Processed Spectrum: 3648
>>>>>Begin Processed Spectral Data<<<<<
177.47	1247.21
177.69	1247.21
177.91	1247.21
178.13	1302.51
178.36	1239.02
178.58	1277.93
178.80	1236.97
179.02	1273.84
179.24	1306.60
179.46	1267.69
179.68	1232.88
179.90	1300.46
180.13	1265.64
180.35	1271.79
180.57	1284.08
180.79	1284.08
181.01	1243.12
181.23	1300.46
181.45	1298.41
181.67	1241.07
181.90	1259.50
182.12	1275.88
182.34	1275.88
182.56	1296.36
182.78	1273.84
183.00	1253.36
183.22	1243.12
183.44	1220.59
183.66	1325.04
183.89	1273.84
184.11	1200.11
184.33	1292.27
184.55	1327.08
184.77	1255.40
184.99	1265.64
185.21	1204.21
185.43	1275.88
185.65	1294.32
185.87	1253.36
186.10	1341.42
186.32	1275.88
186.54	1257.45
186.76	1300.46
186.98	1279.98
187.20	1263.60
187.42	1265.64
187.64	1300.46
187.86	1243.12
188.08	1208.30
188.30	1234.93
188.52	1325.04
188.75	1273.84
188.97	1333.23
189.19	1261.55
189.41	1288.17
189.63	1294.32
189.85	1277.93
190.07	1286.12
190.29	1261.55
190.51	1255.40
190.73	1298.41
190.95	1310.70
191.17	1271.79
191.39	1265.64
191.61	1228.78
191.84	1284.08
192.06	1261.55
192.28	1236.97
192.50	1241.07
192.72	1318.89
192.94	1279.98
193.16	1292.27
193.38	1265.64
193.60	1257.45
193.82	1279.98
194.04	1253.36
194.26	1204.21
194.48	1310.70
194.70	1259.50
194.92	1304.56
195.14	1249.26
195.36	1220.59
195.58	1230.83
195.80	1263.60
196.02	1236.97
196.24	1284.08
196.46	1253.36
196.69	1214.45
196.91	1292.27
197.13	1267.69
197.35	1306.60
197.57	1251.31
197.79	1286.12
198.01	1261.55
198.23	1279.98
198.45	1296.36
198.67	1257.45
198.89	1216.49
199.11	1316.84
199.33	1314.80
199.55	1193.97
199.77	1273.84
199.99	1290.22
200.21	1265.64
200.43	1351.66
200.65	1257.45
200.87	1279.98
201.09	1269.74
201.31	1230.83
201.53	1249.26
201.75	1292.27
201.97	1218.54
202.19	1241.07
202.41	1288.17
202.63	1355.76
202.85	1247.21
203.07	1202.16
203.29	1222.64
203.51	1224.69
203.73	1234.93
203.95	1320.94
204.17	1300.46
204.39	1224.69
204.61	1245.16
204.83	1239.02
205.05	1300.46
205.27	1173.49
205.49	1239.02
205.71	1257.45
205.93	1255.40
206.15	1372.14
206.37	1206.25
206.59	1230.83
206.81	1191.92
207.03	1308.65
207.25	1282.03
207.47	1286.12
207.69	1284.08
207.91	1222.64
208.13	1320.94
208.34	1308.65
208.56	1343.47
208.78	1306.60
209.00	1292.27
209.22	1277.93
209.44	1255.40
209.66	1257.45
209.88	1243.12
210.10	1169.39
210.32	1296.36
210.54	1263.60
210.76	1277.93
210.98	1267.69
211.20	1239.02
211.42	1247.21
211.64	1277.93
211.86	1337.32
212.08	1302.51
212.30	1286.12
212.52	1306.60
212.74	1249.26
212.96	1241.07
213.17	1359.85
213.39	1279.98
213.61	1261.55
213.83	1304.56
214.05	1224.69
214.27	1275.88
214.49	1230.83
214.71	1263.60
214.93	1269.74
215.15	1263.60
215.37	1214.45
215.59	1273.84
215.81	1290.22
216.03	1351.66
216.24	1374.19
216.46	1294.32
216.68	1306.60
216.90	1236.97
217.12	1286.12
217.34	1253.36
217.56	1290.22
217.78	1228.78
218.00	1236.97
218.22	1259.50
218.44	1335.28
218.66	1236.97
218.87	1269.74
219.09	1257.45
219.31	1261.55
219.53	1318.89
219.75	1263.60
219.97	1232.88
220.19	1333.23
220.41	1269.74
220.63	1224.69
220.85	1261.55
221.06	1243.12
221.28	1241.07
221.50	1310.70
221.72	1245.16
221.94	1294.32
222.16	1265.64
222.38	1239.02
222.60	1224.69
222.82	1339.37
223.03	1277.93
223.25	1286.12
223.47	1257.45
223.69	1239.02
223.91	1296.36
224.13	1298.41
224.35	1292.27
224.57	1257.45
224.78	1271.79
225.00	1241.07
225.22	1298.41
225.44	1300.46
225.66	1304.56
225.88	1236.97
226.10	1269.74
226.32	1257.45
226.53	1279.98
226.75	1181.68
226.97	1294.32
227.19	1304.56
227.41	1290.22
227.63	1275.88
227.85	1286.12
228.06	1292.27
228.28	1279.98
228.50	1306.60
228.72	1288.17
228.94	1284.08
229.16	1236.97
229.37	1275.88
229.59	1329.13
229.81	1239.02
230.03	1265.64
230.25	1255.40
230.47	1263.60
230.69	1271.79
230.90	1341.42
231.12	1288.17
231.34	1304.56
231.56	1251.31
231.78	1228.78
232.00	1298.41
232.21	1253.36
232.43	1202.16
232.65	1312.75
232.87	1212.40
233.09	1269.74
233.30	1259.50
233.52	1290.22
233.74	1208.30
233.96	1308.65
234.18	1339.37
234.40	1212.40
234.61	1275.88
234.83	1273.84
235.05	1279.98
235.27	1306.60
235.49	1232.88
235.70	1218.54
235.92	1261.55
236.14	1277.93
236.36	1296.36
236.58	1222.64
236.79	1226.73
237.01	1204.21
237.23	1204.21
237.45	1290.22
237.67	1255.40
237.88	1243.12
238.10	1230.83
238.32	1228.78
238.54	1314.80
238.76	1308.65
238.97	1230.83
239.19	1255.40
239.41	1265.64
239.63	1243.12
239.85	1267.69
240.06	1249.26
240.28	1322.99
240.50	1343.47
240.72	1269.74
240.93	1288.17
241.15	1292.27
241.37	1269.74
241.59	1298.41
241.81	1185.77
242.02	1279.98
242.24	1290.22
242.46	1290.22
242.68	1224.69
242.89	1245.16
243.11	1271.79
243.33	1224.69
243.55	1320.94
243.76	1247.21
243.98	1322.99
244.20	1282.03
244.42	1257.45
244.64	1277.93
244.85	1302.51
245.07	1226.73
245.29	1331.18
245.51	1259.50
245.72	1277.93
245.94	1296.36
246.16	1304.56
246.38	1228.78
246.59	1239.02
246.81	1310.70
247.03	1279.98
247.24	1216.49
247.46	1292.27
247.68	1304.56
247.90	1286.12
248.11	1312.75
248.33	1355.76
248.55	1261.55
248.77	1243.12
248.98	1257.45
249.20	1304.56
249.42	1273.84
249.64	1320.94
249.85	1218.54
250.07	1222.64
250.29	1253.36
250.50	1302.51
250.72	1279.98
250.94	1290.22
251.16	1363.95
251.37	1327.08
251.59	1271.79
251.81	1306.60
252.02	1271.79
252.24	1204.21
252.46	1286.12
252.68	1306.60
252.89	1267.69
253.11	1271.79
253.33	1284.08
253.54	1288.17
253.76	1288.17
253.98	1302.51
254.20	1263.60
254.41	1267.69
254.63	1200.11
254.85	1349.61
255.06	1275.88
255.28	1257.45
255.50	1261.55
255.71	1255.40
255.93	1232.88
256.15	1249.26
256.36	1327.08
256.58	1255.40
256.80	1239.02
257.02	1337.32
257.23	1236.97
257.45	1376.24
257.67	1282.03
257.88	1241.07
258.10	1288.17
258.32	1320.94
258.53	1296.36
258.75	1308.65
258.97	1292.27
259.18	1273.84
259.40	1294.32
259.62	1355.76
259.83	1273.84
260.05	1312.75
260.27	1269.74
260.48	1236.97
260.70	1208.30
260.92	1236.97
261.13	1302.51
261.35	1284.08
261.57	1320.94
261.78	1331.18
262.00	1247.21
262.22	1251.31
262.43	1257.45
262.65	1216.49
262.86	1218.54
263.08	1249.26
263.30	1279.98
263.51	1347.56
263.73	1269.74
263.95	1208.30
264.16	1277.93
264.38	1193.97
264.60	1257.45
264.81	1265.64
265.03	1390.57
265.25	1290.22
265.46	1306.60
265.68	1249.26
265.89	1318.89
266.11	1269.74
266.33	1241.07
266.54	1253.36
266.76	1257.45
266.98	1298.41
267.19	1310.70
267.41	1267.69
267.62	1257.45
267.84	1290.22
268.06	1265.64
268.27	1318.89
268.49	1298.41
268.70	1226.73
268.92	1208.30
269.14	1294.32
269.35	1251.31
269.57	1275.88
269.79	1318.89
270.00	1265.64
270.22	1241.07
270.43	1257.45
270.65	1200.11
270.87	1218.54
271.08	1300.46
271.30	1216.49
271.51	1216.49
271.73	1286.12
271.95	1241.07
272.16	1230.83
272.38	1247.21
272.59	1243.12
272.81	1239.02
273.02	1294.32
273.24	1232.88
273.46	1243.12
273.67	1249.26
273.89	1206.25
274.10	1279.98
274.32	1261.55
274.54	1245.16
274.75	1253.36
274.97	1296.36
275.18	1310.70
275.40	1241.07
275.61	1247.21
275.83	1357.80
276.05	1196.01
276.26	1331.18
276.48	1316.84
276.69	1282.03
276.91	1243.12
277.12	1216.49
277.34	1327.08
277.55	1228.78
277.77	1245.16
277.99	1310.70
278.20	1241.07
278.42	1236.97
278.63	1282.03
278.85	1269.74
279.06	1257.45
279.28	1259.50
279.49	1249.26
279.71	1341.42
279.93	1314.80
280.14	1257.45
280.36	1230.83
280.57	1351.66
280.79	1294.32
281.00	1308.65
281.22	1214.45
281.43	1314.80
281.65	1189.87
281.86	1208.30
282.08	1200.11
282.29	1320.94
282.51	1216.49
282.73	1222.64
282.94	1257.45
283.16	1261.55
283.37	1243.12
283.59	1267.69
283.80	1255.40
284.02	1320.94
284.23	1257.45
284.45	1314.80
284.66	1290.22
284.88	1239.02
285.09	1261.55
285.31	1275.88
285.52	1220.59
285.74	1282.03
285.95	1363.95
286.17	1236.97
286.38	1296.36
286.60	1286.12
286.81	1316.84
287.03	1316.84
287.24	1314.80
287.46	1300.46
287.67	1259.50
287.89	1341.42
288.10	1245.16
288.32	1269.74
288.53	1314.80
288.75	1271.79
288.96	1349.61
289.18	1286.12
289.39	1310.70
289.61	1361.90
289.82	1298.41
290.04	1298.41
290.25	1247.21
290.47	1218.54
290.68	1224.69
290.90	1216.49
291.11	1269.74
291.33	1273.84
291.54	1265.64
291.76	1294.32
291.97	1206.25
292.18	1329.13
292.40	1300.46
292.61	1304.56
292.83	1298.41
293.04	1329.13
293.26	1322.99
293.47	1298.41
293.69	1234.93
293.90	1275.88
294.12	1269.74
294.33	1191.92
294.55	1204.21
294.76	1271.79
294.97	1257.45
295.19	1286.12
295.40	1181.68
295.62	1253.36
295.83	1269.74
296.05	1247.21
296.26	1298.41
296.48	1191.92
296.69	1296.36
296.90	1275.88
297.12	1249.26
297.33	1300.46
297.55	1218.54
297.76	1286.12
297.98	1247.21
298.19	1288.17
298.41	1249.26
298.62	1296.36
298.83	1292.27
299.05	1251.31
299.26	1243.12
299.48	1183.73
299.69	1255.40
299.90	1279.98
300.12	1259.50
300.33	1282.03
300.55	1288.17
300.76	1261.55
300.98	1257.45
301.19	1204.21
301.40	1267.69
301.62	1267.69
301.83	1257.45
302.05	1249.26
302.26	1259.50
302.47	1292.27
302.69	1243.12
302.90	1210.35
303.12	1277.93
303.33	1230.83
303.54	1271.79
303.76	1288.17
303.97	1239.02
304.19	1271.79
304.40	1312.75
304.61	1265.64
304.83	1325.04
305.04	1228.78
305.26	1261.55
305.47	1290.22
305.68	1275.88
305.90	1226.73
306.11	1292.27
306.33	1200.11
306.54	1318.89
306.75	1218.54
306.97	1251.31
307.18	1296.36
307.39	1253.36
307.61	1271.79
307.82	1232.88
308.04	1275.88
308.25	1279.98
308.46	1261.55
308.68	1273.84
308.89	1320.94
309.10	1304.56
309.32	1224.69
309.53	1257.45
309.74	1251.31
309.96	1247.21
310.17	1296.36
310.39	1232.88
310.60	1234.93
310.81	1204.21
311.03	1265.64
311.24	1277.93
311.45	1243.12
311.67	1306.60
311.88	1298.41
312.09	1255.40
312.31	1279.98
312.52	1259.50
312.73	1304.56
312.95	1325.04
313.16	1232.88
313.37	1263.60
313.59	1314.80
313.80	1255.40
314.01	1286.12
314.23	1302.51
314.44	1318.89
314.65	1298.41
314.87	1325.04
315.08	1232.88
315.29	1290.22
315.51	1298.41
315.72	1265.64
315.93	1273.84
316.15	1232.88
316.36	1271.79
316.57	1234.93
316.79	1290.22
317.00	1249.26
317.21	1306.60
317.43	1275.88
317.64	1271.79
317.85	1245.16
318.07	1210.35
318.28	1267.69
318.49	1325.04
318.70	1241.07
318.92	1275.88
319.13	1183.73
319.34	1275.88
319.56	1263.60
319.77	1290.22
319.98	1304.56
320.20	1306.60
320.41	1239.02
320.62	1298.41
320.83	1310.70
321.05	1245.16
321.26	1349.61
321.47	1222.64
321.69	1202.16
321.90	1265.64
322.11	1269.74
322.32	1265.64
322.54	1279.98
322.75	1241.07
322.96	1322.99
323.18	1249.26
323.39	1171.44
323.60	1222.64
323.81	1331.18
324.03	1179.63
324.24	1288.17
324.45	1226.73
324.66	1302.51
324.88	1296.36
325.09	1189.87
325.30	1261.55
325.52	1312.75
325.73	1271.79
325.94	1259.50
326.15	1275.88
326.37	1247.21
326.58	1269.74
326.79	1296.36
327.00	1269.74
327.22	1312.75
327.43	1292.27
327.64	1247.21
327.85	1341.42
328.07	1247.21
328.28	1255.40
328.49	1302.51
328.70	1306.60
328.92	1232.88
329.13	1296.36
329.34	1228.78
329.55	1255.40
329.76	1253.36
329.98	1243.12
330.19	1282.03
330.40	1366.00
330.61	1320.94
330.83	1263.60
331.04	1292.27
331.25	1314.80
331.46	1279.98
331.68	1372.14
331.89	1284.08
332.10	1255.40
332.31	1277.93
332.52	1200.11
332.74	1312.75
332.95	1306.60
333.16	1247.21
333.37	1271.79
333.58	1318.89
333.80	1312.75
334.01	1222.64
334.22	1236.97
334.43	1214.45
334.64	1232.88
334.86	1196.01
335.07	1232.88
335.28	1329.13
335.49	1232.88
335.70	1286.12
335.92	1271.79
336.13	1271.79
336.34	1329.13
336.55	1355.76
336.76	1232.88
336.98	1275.88
337.19	1353.71
337.40	1296.36
337.61	1290.22
337.82	1314.80
338.04	1224.69
338.25	1183.73
338.46	1249.26
338.67	1243.12
338.88	1290.22
339.09	1318.89
339.31	1214.45
339.52	1333.23
339.73	1314.80
339.94	1322.99
340.15	1273.84
340.36	1212.40
340.58	1298.41
340.79	1236.97
341.00	1167.34
341.21	1259.50
341.42	1320.94
341.63	1282.03
341.85	1314.80
342.06	1275.88
342.27	1208.30
342.48	1294.32
342.69	1253.36
342.90	1185.77
343.12	1204.21
343.33	1253.36
343.54	1282.03
343.75	1286.12
343.96	1189.87
344.17	1216.49
344.38	1257.45
344.60	1232.88
344.81	1325.04
345.02	1232.88
345.23	1243.12
345.44	1363.95
345.65	1275.88
345.86	1306.60
346.07	1241.07
346.29	1265.64
346.50	1255.40
346.71	1282.03
346.92	1263.60
347.13	1282.03
347.34	1318.89
347.55	1331.18
347.76	1236.97
347.98	1269.74
348.19	1271.79
348.40	1357.80
348.61	1263.60
348.82	1331.18
349.03	1310.70
349.24	1206.25
349.45	1282.03
349.66	1314.80
349.88	1204.21
350.09	1273.84
350.30	1241.07
350.51	1296.36
350.72	1232.88
350.93	1357.80
351.14	1316.84
351.35	1284.08
351.56	1239.02
351.77	1286.12
351.99	1200.11
352.20	1331.18
352.41	1261.55
352.62	1216.49
352.83	1222.64
353.04	1208.30
353.25	1255.40
353.46	1284.08
353.67	1327.08
353.88	1226.73
354.09	1267.69
354.30	1247.21
354.52	1257.45
354.73	1255.40
354.94	1257.45
355.15	1273.84
355.36	1232.88
355.57	1279.98
355.78	1228.78
355.99	1241.07
356.20	1267.69
356.41	1249.26
356.62	1257.45
356.83	1267.69
357.04	1308.65
357.25	1187.82
357.46	1236.97
357.68	1193.97
357.89	1247.21
358.10	1243.12
358.31	1265.64
358.52	1300.46
358.73	1275.88
358.94	1279.98
359.15	1232.88
359.36	1251.31
359.57	1193.97
359.78	1167.34
359.99	1294.32
360.20	1239.02
360.41	1265.64
360.62	1265.64
360.83	1257.45
361.04	1290.22
361.25	1239.02
361.46	1288.17
361.67	1265.64
361.88	1247.21
362.09	1329.13
362.30	1265.64
362.51	1265.64
362.72	1251.31
362.93	1286.12
363.14	1316.84
363.35	1257.45
363.56	1302.51
363.78	1275.88
363.99	1243.12
364.20	1200.11
364.41	1296.36
364.62	1267.69
364.83	1282.03
365.04	1247.21
365.25	1282.03
365.46	1234.93
365.67	1320.94
365.88	1226.73
366.09	1255.40
366.30	1212.40
366.51	1271.79
366.72	1239.02
366.93	1329.13
367.14	1288.17
367.35	1298.41
367.56	1273.84
367.77	1314.80
367.98	1353.71
368.18	1198.06
368.39	1253.36
368.60	1325.04
368.81	1243.12
369.02	1249.26
369.23	1265.64
369.44	1263.60
369.65	1222.64
369.86	1220.59
370.07	1243.12
370.28	1251.31
370.49	1271.79
370.70	1282.03
370.91	1279.98
371.12	1265.64
371.33	1282.03
371.54	1316.84
371.75	1239.02
371.96	1327.08
372.17	1396.71
372.38	1241.07
372.59	1216.49
372.80	1273.84
373.01	1349.61
373.22	1296.36
373.43	1351.66
373.64	1271.79
373.85	1286.12
374.06	1245.16
374.26	1251.31
374.47	1275.88
374.68	1239.02
374.89	1275.88
375.10	1204.21
375.31	1282.03
375.52	1296.36
375.73	1351.66
375.94	1282.03
376.15	1279.98
376.36	1261.55
376.57	1294.32
376.78	1191.92
376.99	1255.40
377.20	1253.36
377.40	1239.02
377.61	1241.07
377.82	1316.84
378.03	1333.23
378.24	1312.75
378.45	1300.46
378.66	1314.80
378.87	1290.22
379.08	1294.32
379.29	1210.35
379.50	1279.98
379.71	1263.60
379.91	1249.26
380.12	1259.50
380.33	1261.55
380.54	1343.47
380.75	1259.50
380.96	1218.54
381.17	1296.36
381.38	1232.88
381.59	1269.74
381.80	1314.80
382.00	1290.22
382.21	1296.36
382.42	1298.41
382.63	1302.51
382.84	1243.12
383.05	1212.40
383.26	1247.21
383.47	1255.40
383.68	1263.60
383.88	1310.70
384.09	1230.83
384.30	1269.74
384.51	1257.45
384.72	1288.17
384.93	1243.12
385.14	1298.41
385.35	1261.55
385.55	1327.08
385.76	1288.17
385.97	1304.56
386.18	1196.01
386.39	1286.12
386.60	1157.10
386.81	1236.97
387.02	1202.16
387.22	1265.64
387.43	1271.79
387.64	1189.87
387.85	1271.79
388.06	1251.31
388.27	1361.90
388.48	1279.98
388.68	1247.21
388.89	1275.88
389.10	1329.13
389.31	1247.21
389.52	1306.60
389.73	1183.73
389.93	1232.88
390.14	1218.54
390.35	1273.84
390.56	1249.26
390.77	1261.55
390.98	1206.25
391.18	1318.89
391.39	1296.36
391.60	1286.12
391.81	1265.64
392.02	1216.49
392.23	1279.98
392.43	1298.41
392.64	1263.60
392.85	1290.22
393.06	1239.02
393.27	1200.11
393.47	1265.64
393.68	1255.40
393.89	1253.36
394.10	1259.50
394.31	1261.55
394.52	1290.22
394.72	1273.84
394.93	1216.49
395.14	1232.88
395.35	1265.64
395.56	1249.26
395.76	1255.40
395.97	1296.36
396.18	1249.26
396.39	1239.02
396.60	1265.64
396.80	1222.64
397.01	1308.65
397.22	1279.98
397.43	1312.75
397.64	1298.41
397.84	1286.12
398.05	1337.32
398.26	1232.88
398.47	1275.88
398.67	1273.84
398.88	1370.09
399.09	1288.17
399.30	1265.64
399.51	1302.51
399.71	1216.49
399.92	1226.73
400.13	1200.11
400.34	1316.84
400.54	1271.79
400.75	1298.41
400.96	1277.93
401.17	1189.87
401.37	1273.84
401.58	1230.83
401.79	1249.26
402.00	1236.97
402.21	1273.84
402.41	1265.64
402.62	1257.45
402.83	1204.21
403.04	1216.49
403.24	1288.17
403.45	1257.45
403.66	1296.36
403.87	1302.51
404.07	1282.03
404.28	1200.11
404.49	1294.32
404.70	1208.30
404.90	1341.42
405.11	1220.59
405.32	1304.56
405.52	1296.36
405.73	1284.08
405.94	1198.06
406.15	1292.27
406.35	1333.23
406.56	1290.22
406.77	1208.30
406.98	1259.50
407.18	1275.88
407.39	1261.55
407.60	1249.26
407.80	1204.21
408.01	1294.32
408.22	1259.50
408.43	1267.69
408.63	1284.08
408.84	1241.07
409.05	1257.45
409.25	1277.93
409.46	1286.12
409.67	1255.40
409.88	1290.22
410.08	1245.16
410.29	1298.41
410.50	1224.69
410.70	1277.93
410.91	1277.93
411.12	1331.18
411.32	1230.83
411.53	1259.50
411.74	1245.16
411.95	1284.08
412.15	1320.94
412.36	1271.79
412.57	1249.26
412.77	1239.02
412.98	1325.04
413.19	1198.06
413.39	1286.12
413.60	1247.21
413.81	1275.88
414.01	1222.64
414.22	1210.35
414.43	1318.89
414.63	1322.99
414.84	1300.46
415.05	1245.16
415.25	1267.69
415.46	1298.41
415.67	1294.32
415.87	1148.91
416.08	1245.16
416.29	1257.45
416.49	1200.11
416.70	1257.45
416.91	1279.98
417.11	1277.93
417.32	1318.89
417.53	1318.89
417.73	1290.22
417.94	1286.12
418.15	1271.79
418.35	1314.80
418.56	1269.74
418.77	1304.56
418.97	1292.27
419.18	1214.45
419.38	1298.41
419.59	1314.80
419.80	1224.69
420.00	1316.84
420.21	1230.83
420.42	1200.11
420.62	1226.73
420.83	1228.78
421.04	1296.36
421.24	1292.27
421.45	1277.93
421.65	1224.69
421.86	1282.03
422.07	1261.55
422.27	1226.73
422.48	1243.12
422.69	1251.31
422.89	1228.78
423.10	1277.93
423.30	1255.40
423.51	1226.73
423.72	1255.40
423.92	1292.27
424.13	1157.10
424.33	1286.12
424.54	1267.69
424.75	1267.69
424.95	1284.08
425.16	1284.08
425.36	1279.98
425.57	1265.64
425.78	1288.17
425.98	1380.33
426.19	1220.59
426.39	1314.80
426.60	1232.88
426.81	1224.69
427.01	1181.68
427.22	1351.66
427.42	1214.45
427.63	1329.13
427.83	1255.40
428.04	1382.38
428.25	1212.40
428.45	1228.78
428.66	1241.07
428.86	1249.26
429.07	1284.08
429.28	1234.93
429.48	1257.45
429.69	1316.84
429.89	1220.59
430.10	1239.02
430.30	1212.40
430.51	1302.51
430.71	1275.88
430.92	1294.32
431.13	1220.59
431.33	1322.99
431.54	1208.30
431.74	1279.98
431.95	1353.71
432.15	1263.60
432.36	1306.60
432.56	1273.84
432.77	1228.78
432.98	1241.07
433.18	1249.26
433.39	1257.45
433.59	1298.41
433.80	1173.49
434.00	1271.79
434.21	1269.74
434.41	1220.59
434.62	1290.22
434.82	1318.89
435.03	1224.69
435.23	1282.03
435.44	1216.49
435.64	1193.97
435.85	1282.03
436.06	1290.22
436.26	1335.28
436.47	1253.36
436.67	1271.79
436.88	1290.22
437.08	1206.25
437.29	1228.78
437.49	1236.97
437.70	1269.74
437.90	1265.64
438.11	1255.40
438.31	1296.36
438.52	1263.60
438.72	1263.60
438.93	1236.97
439.13	1243.12
439.34	1320.94
439.54	1269.74
439.75	1226.73
439.95	1216.49
440.16	1286.12
440.36	1312.75
440.57	1187.82
440.77	1314.80
440.98	1228.78
441.18	1282.03
441.39	1228.78
441.59	1349.61
441.80	1298.41
442.00	1236.97
442.21	1206.25
442.41	1331.18
442.62	1255.40
442.82	1259.50
443.02	1308.65
443.23	1253.36
443.43	1325.04
443.64	1294.32
443.84	1261.55
444.05	1292.27
444.25	1279.98
444.46	1230.83
444.66	1277.93
444.87	1308.65
445.07	1292.27
445.28	1363.95
445.48	1269.74
445.69	1386.47
445.89	1249.26
446.09	1327.08
446.30	1298.41
446.50	1265.64
446.71	1320.94
446.91	1257.45
447.12	1282.03
447.32	1261.55
447.53	1228.78
447.73	1265.64
447.93	1310.70
448.14	1271.79
448.34	1302.51
448.55	1218.54
448.75	1228.78
448.96	1239.02
449.16	1296.36
449.36	1345.52
449.57	1279.98
449.77	1243.12
449.98	1277.93
450.18	1249.26
450.39	1290.22
450.59	1282.03
450.79	1271.79
451.00	1259.50
451.20	1177.58
451.41	1304.56
451.61	1200.11
451.81	1251.31
452.02	1271.79
452.22	1298.41
452.43	1316.84
452.63	1296.36
