SpectraSuite Data File
++++++++++++++++++++++++++++++++++++
Date: Sun Apr 03 19:55:37 CEST 2016
User: root
Dark Spectrum Present: No
Reference Spectrum Present: No
Number of Sampled Component Spectra: 1
Spectrometers: USB4C02835
Integration Time (usec): 10000 (USB4C02835)
Spectra Averaged: 1 (USB4C02835)
Boxcar Smoothing: 0 (USB4C02835)
Correct for Electrical Dark: No (USB4C02835)
Strobe/Lamp Enabled: No (USB4C02835)
Correct for Detector Non-linearity: No (USB4C02835)
Correct for Stray Light: No (USB4C02835)
Number of Pixels in Processed Spectrum: 3648
>>>>>Begin Processed Spectral Data<<<<<
177.47	1200.11
177.69	1200.11
177.91	1200.11
178.13	1224.69
178.36	1228.78
178.58	1282.03
178.80	1204.21
179.02	1277.93
179.24	1257.45
179.46	1210.35
179.68	1269.74
179.90	1212.40
180.13	1300.46
180.35	1196.01
180.57	1279.98
180.79	1263.60
181.01	1259.50
181.23	1255.40
181.45	1290.22
181.67	1316.84
181.90	1243.12
182.12	1314.80
182.34	1204.21
182.56	1206.25
182.78	1271.79
183.00	1263.60
183.22	1263.60
183.44	1294.32
183.66	1284.08
183.89	1247.21
184.11	1204.21
184.33	1296.36
184.55	1312.75
184.77	1306.60
184.99	1298.41
185.21	1257.45
185.43	1269.74
185.65	1210.35
185.87	1241.07
186.10	1306.60
186.32	1282.03
186.54	1269.74
186.76	1288.17
186.98	1224.69
187.20	1269.74
187.42	1220.59
187.64	1236.97
187.86	1288.17
188.08	1294.32
188.30	1329.13
188.52	1261.55
188.75	1191.92
188.97	1308.65
189.19	1320.94
189.41	1304.56
189.63	1253.36
189.85	1282.03
190.07	1286.12
190.29	1306.60
190.51	1243.12
190.73	1196.01
190.95	1177.58
191.17	1234.93
191.39	1286.12
191.61	1302.51
191.84	1222.64
192.06	1224.69
192.28	1279.98
192.50	1337.32
192.72	1249.26
192.94	1296.36
193.16	1273.84
193.38	1228.78
193.60	1185.77
193.82	1247.21
194.04	1290.22
194.26	1265.64
194.48	1196.01
194.70	1273.84
194.92	1175.53
195.14	1271.79
195.36	1245.16
195.58	1271.79
195.80	1290.22
196.02	1241.07
196.24	1292.27
196.46	1318.89
196.69	1239.02
196.91	1255.40
197.13	1277.93
197.35	1226.73
197.57	1322.99
197.79	1265.64
198.01	1241.07
198.23	1255.40
198.45	1296.36
198.67	1239.02
198.89	1277.93
199.11	1277.93
199.33	1234.93
199.55	1249.26
199.77	1316.84
199.99	1239.02
200.21	1189.87
200.43	1259.50
200.65	1308.65
200.87	1282.03
201.09	1239.02
201.31	1271.79
201.53	1232.88
201.75	1312.75
201.97	1271.79
202.19	1310.70
202.41	1224.69
202.63	1302.51
202.85	1230.83
203.07	1314.80
203.29	1282.03
203.51	1314.80
203.73	1279.98
203.95	1312.75
204.17	1245.16
204.39	1267.69
204.61	1265.64
204.83	1275.88
205.05	1214.45
205.27	1255.40
205.49	1302.51
205.71	1300.46
205.93	1228.78
206.15	1247.21
206.37	1216.49
206.59	1257.45
206.81	1239.02
207.03	1279.98
207.25	1187.82
207.47	1300.46
207.69	1239.02
207.91	1306.60
208.13	1288.17
208.34	1157.10
208.56	1253.36
208.78	1226.73
209.00	1214.45
209.22	1271.79
209.44	1249.26
209.66	1277.93
209.88	1294.32
210.10	1302.51
210.32	1181.68
210.54	1259.50
210.76	1220.59
210.98	1282.03
211.20	1265.64
211.42	1292.27
211.64	1263.60
211.86	1249.26
212.08	1318.89
212.30	1279.98
212.52	1273.84
212.74	1335.28
212.96	1241.07
213.17	1222.64
213.39	1282.03
213.61	1255.40
213.83	1277.93
214.05	1314.80
214.27	1247.21
214.49	1259.50
214.71	1261.55
214.93	1239.02
215.15	1312.75
215.37	1333.23
215.59	1325.04
215.81	1277.93
216.03	1245.16
216.24	1200.11
216.46	1263.60
216.68	1333.23
216.90	1284.08
217.12	1318.89
217.34	1302.51
217.56	1222.64
217.78	1273.84
218.00	1204.21
218.22	1269.74
218.44	1226.73
218.66	1228.78
218.87	1265.64
219.09	1202.16
219.31	1161.20
219.53	1279.98
219.75	1290.22
219.97	1222.64
220.19	1292.27
220.41	1314.80
220.63	1304.56
220.85	1286.12
221.06	1277.93
221.28	1282.03
221.50	1243.12
221.72	1282.03
221.94	1234.93
222.16	1257.45
222.38	1273.84
222.60	1230.83
222.82	1294.32
223.03	1331.18
223.25	1296.36
223.47	1275.88
223.69	1249.26
223.91	1224.69
224.13	1292.27
224.35	1286.12
224.57	1300.46
224.78	1210.35
225.00	1275.88
225.22	1191.92
225.44	1294.32
225.66	1222.64
225.88	1224.69
226.10	1228.78
226.32	1191.92
226.53	1267.69
226.75	1226.73
226.97	1245.16
227.19	1310.70
227.41	1228.78
227.63	1245.16
227.85	1253.36
228.06	1269.74
228.28	1284.08
228.50	1241.07
228.72	1282.03
228.94	1218.54
229.16	1288.17
229.37	1290.22
229.59	1263.60
229.81	1261.55
230.03	1265.64
230.25	1290.22
230.47	1286.12
230.69	1331.18
230.90	1247.21
231.12	1310.70
231.34	1318.89
231.56	1275.88
231.78	1255.40
232.00	1296.36
232.21	1253.36
232.43	1228.78
232.65	1261.55
232.87	1269.74
233.09	1284.08
233.30	1263.60
233.52	1275.88
233.74	1286.12
233.96	1253.36
234.18	1271.79
234.40	1259.50
234.61	1308.65
234.83	1265.64
235.05	1243.12
235.27	1271.79
235.49	1216.49
235.70	1286.12
235.92	1282.03
236.14	1292.27
236.36	1263.60
236.58	1267.69
236.79	1339.37
237.01	1255.40
237.23	1306.60
237.45	1232.88
237.67	1320.94
237.88	1279.98
238.10	1290.22
238.32	1255.40
238.54	1306.60
238.76	1302.51
238.97	1296.36
239.19	1224.69
239.41	1282.03
239.63	1282.03
239.85	1314.80
240.06	1249.26
240.28	1140.72
240.50	1196.01
240.72	1304.56
240.93	1331.18
241.15	1241.07
241.37	1259.50
241.59	1302.51
241.81	1210.35
242.02	1239.02
242.24	1206.25
242.46	1294.32
242.68	1288.17
242.89	1253.36
243.11	1296.36
243.33	1212.40
243.55	1284.08
243.76	1308.65
243.98	1212.40
244.20	1224.69
244.42	1331.18
244.64	1253.36
244.85	1304.56
245.07	1306.60
245.29	1257.45
245.51	1198.06
245.72	1263.60
245.94	1337.32
246.16	1267.69
246.38	1275.88
246.59	1277.93
246.81	1253.36
247.03	1257.45
247.24	1267.69
247.46	1296.36
247.68	1296.36
247.90	1257.45
248.11	1302.51
248.33	1265.64
248.55	1302.51
248.77	1286.12
248.98	1322.99
249.20	1310.70
249.42	1331.18
249.64	1273.84
249.85	1226.73
250.07	1355.76
250.29	1216.49
250.50	1288.17
250.72	1247.21
250.94	1271.79
251.16	1249.26
251.37	1306.60
251.59	1187.82
251.81	1322.99
252.02	1193.97
252.24	1202.16
252.46	1273.84
252.68	1249.26
252.89	1282.03
253.11	1284.08
253.33	1284.08
253.54	1288.17
253.76	1316.84
253.98	1308.65
254.20	1265.64
254.41	1304.56
254.63	1249.26
254.85	1265.64
255.06	1337.32
255.28	1226.73
255.50	1253.36
255.71	1275.88
255.93	1277.93
256.15	1300.46
256.36	1314.80
256.58	1255.40
256.80	1239.02
257.02	1187.82
257.23	1267.69
257.45	1290.22
257.67	1312.75
257.88	1302.51
258.10	1331.18
258.32	1251.31
258.53	1335.28
258.75	1251.31
258.97	1230.83
259.18	1347.56
259.40	1271.79
259.62	1333.23
259.83	1282.03
260.05	1253.36
260.27	1327.08
260.48	1282.03
260.70	1279.98
260.92	1239.02
261.13	1325.04
261.35	1230.83
261.57	1327.08
261.78	1277.93
262.00	1339.37
262.22	1261.55
262.43	1222.64
262.65	1228.78
262.86	1257.45
263.08	1275.88
263.30	1265.64
263.51	1253.36
263.73	1193.97
263.95	1308.65
264.16	1288.17
264.38	1314.80
264.60	1306.60
264.81	1300.46
265.03	1177.58
265.25	1322.99
265.46	1239.02
265.68	1302.51
265.89	1222.64
266.11	1218.54
266.33	1269.74
266.54	1302.51
266.76	1222.64
266.98	1265.64
267.19	1339.37
267.41	1224.69
267.62	1255.40
267.84	1310.70
268.06	1378.28
268.27	1267.69
268.49	1286.12
268.70	1251.31
268.92	1243.12
269.14	1300.46
269.35	1249.26
269.57	1202.16
269.79	1279.98
270.00	1214.45
270.22	1339.37
270.43	1196.01
270.65	1232.88
270.87	1232.88
271.08	1265.64
271.30	1232.88
271.51	1226.73
271.73	1247.21
271.95	1331.18
272.16	1220.59
272.38	1329.13
272.59	1312.75
272.81	1247.21
273.02	1314.80
273.24	1247.21
273.46	1294.32
273.67	1259.50
273.89	1183.73
274.10	1251.31
274.32	1206.25
274.54	1261.55
274.75	1241.07
274.97	1257.45
275.18	1279.98
275.40	1208.30
275.61	1292.27
275.83	1304.56
276.05	1284.08
276.26	1249.26
276.48	1279.98
276.69	1185.77
276.91	1314.80
277.12	1284.08
277.34	1204.21
277.55	1304.56
277.77	1286.12
277.99	1302.51
278.20	1310.70
278.42	1251.31
278.63	1245.16
278.85	1247.21
279.06	1261.55
279.28	1282.03
279.49	1347.56
279.71	1312.75
279.93	1318.89
280.14	1257.45
280.36	1255.40
280.57	1218.54
280.79	1255.40
281.00	1288.17
281.22	1224.69
281.43	1259.50
281.65	1292.27
281.86	1267.69
282.08	1255.40
282.29	1288.17
282.51	1259.50
282.73	1259.50
282.94	1312.75
283.16	1255.40
283.37	1271.79
283.59	1253.36
283.80	1216.49
284.02	1296.36
284.23	1302.51
284.45	1222.64
284.66	1310.70
284.88	1189.87
285.09	1253.36
285.31	1218.54
285.52	1239.02
285.74	1294.32
285.95	1161.20
286.17	1245.16
286.38	1275.88
286.60	1236.97
286.81	1279.98
287.03	1304.56
287.24	1251.31
287.46	1261.55
287.67	1241.07
287.89	1259.50
288.10	1269.74
288.32	1277.93
288.53	1239.02
288.75	1245.16
288.96	1261.55
289.18	1247.21
289.39	1310.70
289.61	1243.12
289.82	1279.98
290.04	1325.04
290.25	1222.64
290.47	1298.41
290.68	1298.41
290.90	1228.78
291.11	1322.99
291.33	1218.54
291.54	1214.45
291.76	1210.35
291.97	1273.84
292.18	1245.16
292.40	1251.31
292.61	1308.65
292.83	1187.82
293.04	1290.22
293.26	1208.30
293.47	1216.49
293.69	1288.17
293.90	1322.99
294.12	1275.88
294.33	1232.88
294.55	1230.83
294.76	1271.79
294.97	1263.60
295.19	1279.98
295.40	1286.12
295.62	1263.60
295.83	1308.65
296.05	1232.88
296.26	1257.45
296.48	1271.79
296.69	1247.21
296.90	1208.30
297.12	1216.49
297.33	1267.69
297.55	1267.69
297.76	1314.80
297.98	1271.79
298.19	1271.79
298.41	1329.13
298.62	1290.22
298.83	1269.74
299.05	1300.46
299.26	1257.45
299.48	1320.94
299.69	1296.36
299.90	1236.97
300.12	1257.45
300.33	1210.35
300.55	1232.88
300.76	1183.73
300.98	1288.17
301.19	1271.79
301.40	1273.84
301.62	1314.80
301.83	1335.28
302.05	1198.06
302.26	1222.64
302.47	1261.55
302.69	1265.64
302.90	1322.99
303.12	1265.64
303.33	1279.98
303.54	1279.98
303.76	1345.52
303.97	1325.04
304.19	1306.60
304.40	1288.17
304.61	1265.64
304.83	1288.17
305.04	1257.45
305.26	1202.16
305.47	1220.59
305.68	1273.84
305.90	1214.45
306.11	1359.85
306.33	1236.97
306.54	1265.64
306.75	1329.13
306.97	1245.16
307.18	1249.26
307.39	1269.74
307.61	1331.18
307.82	1259.50
308.04	1216.49
308.25	1325.04
308.46	1249.26
308.68	1212.40
308.89	1269.74
309.10	1300.46
309.32	1251.31
309.53	1236.97
309.74	1271.79
309.96	1267.69
310.17	1228.78
310.39	1200.11
310.60	1271.79
310.81	1275.88
311.03	1263.60
311.24	1304.56
311.45	1236.97
311.67	1290.22
311.88	1290.22
312.09	1310.70
312.31	1290.22
312.52	1247.21
312.73	1312.75
312.95	1322.99
313.16	1347.56
313.37	1279.98
313.59	1339.37
313.80	1265.64
314.01	1259.50
314.23	1279.98
314.44	1290.22
314.65	1275.88
314.87	1267.69
315.08	1236.97
315.29	1314.80
315.51	1232.88
315.72	1224.69
315.93	1230.83
316.15	1312.75
316.36	1200.11
316.57	1304.56
316.79	1245.16
317.00	1277.93
317.21	1239.02
317.43	1189.87
317.64	1255.40
317.85	1292.27
318.07	1222.64
318.28	1284.08
318.49	1298.41
318.70	1271.79
318.92	1179.63
319.13	1388.52
319.34	1284.08
319.56	1222.64
319.77	1296.36
319.98	1267.69
320.20	1275.88
320.41	1312.75
320.62	1185.77
320.83	1196.01
321.05	1267.69
321.26	1224.69
321.47	1322.99
321.69	1290.22
321.90	1331.18
322.11	1198.06
322.32	1290.22
322.54	1337.32
322.75	1257.45
322.96	1353.71
323.18	1216.49
323.39	1259.50
323.60	1306.60
323.81	1279.98
324.03	1243.12
324.24	1241.07
324.45	1298.41
324.66	1296.36
324.88	1296.36
325.09	1290.22
325.30	1316.84
325.52	1335.28
325.73	1206.25
325.94	1206.25
326.15	1300.46
326.37	1220.59
326.58	1253.36
326.79	1277.93
327.00	1220.59
327.22	1294.32
327.43	1286.12
327.64	1286.12
327.85	1261.55
328.07	1257.45
328.28	1249.26
328.49	1230.83
328.70	1222.64
328.92	1286.12
329.13	1261.55
329.34	1222.64
329.55	1249.26
329.76	1310.70
329.98	1239.02
330.19	1284.08
330.40	1241.07
330.61	1220.59
330.83	1249.26
331.04	1255.40
331.25	1253.36
331.46	1269.74
331.68	1253.36
331.89	1320.94
332.10	1230.83
332.31	1325.04
332.52	1232.88
332.74	1279.98
332.95	1220.59
333.16	1269.74
333.37	1251.31
333.58	1320.94
333.80	1374.19
334.01	1279.98
334.22	1259.50
334.43	1298.41
334.64	1245.16
334.86	1294.32
335.07	1298.41
335.28	1282.03
335.49	1212.40
335.70	1204.21
335.92	1327.08
336.13	1275.88
336.34	1294.32
336.55	1302.51
336.76	1296.36
336.98	1249.26
337.19	1234.93
337.40	1267.69
337.61	1292.27
337.82	1343.47
338.04	1318.89
338.25	1228.78
338.46	1271.79
338.67	1255.40
338.88	1275.88
339.09	1220.59
339.31	1265.64
339.52	1288.17
339.73	1275.88
339.94	1218.54
340.15	1236.97
340.36	1288.17
340.58	1232.88
340.79	1230.83
341.00	1206.25
341.21	1288.17
341.42	1292.27
341.63	1193.97
341.85	1304.56
342.06	1191.92
342.27	1286.12
342.48	1263.60
342.69	1294.32
342.90	1257.45
343.12	1304.56
343.33	1300.46
343.54	1224.69
343.75	1259.50
343.96	1292.27
344.17	1241.07
344.38	1271.79
344.60	1304.56
344.81	1282.03
345.02	1232.88
345.23	1257.45
345.44	1327.08
345.65	1253.36
345.86	1275.88
346.07	1292.27
346.29	1312.75
346.50	1224.69
346.71	1294.32
346.92	1337.32
347.13	1271.79
347.34	1269.74
347.55	1273.84
347.76	1179.63
347.98	1228.78
348.19	1310.70
348.40	1241.07
348.61	1282.03
348.82	1290.22
349.03	1310.70
349.24	1329.13
349.45	1202.16
349.66	1306.60
349.88	1286.12
350.09	1247.21
350.30	1245.16
350.51	1275.88
350.72	1273.84
350.93	1296.36
351.14	1226.73
351.35	1333.23
351.56	1263.60
351.77	1245.16
351.99	1263.60
352.20	1196.01
352.41	1308.65
352.62	1300.46
352.83	1294.32
353.04	1304.56
353.25	1198.06
353.46	1222.64
353.67	1257.45
353.88	1245.16
354.09	1253.36
354.30	1357.80
354.52	1310.70
354.73	1308.65
354.94	1265.64
355.15	1282.03
355.36	1259.50
355.57	1249.26
355.78	1228.78
355.99	1239.02
356.20	1202.16
356.41	1263.60
356.62	1282.03
356.83	1320.94
357.04	1191.92
357.25	1298.41
357.46	1247.21
357.68	1234.93
357.89	1249.26
358.10	1255.40
358.31	1322.99
358.52	1263.60
358.73	1247.21
358.94	1181.68
359.15	1282.03
359.36	1259.50
359.57	1228.78
359.78	1277.93
359.99	1288.17
360.20	1292.27
360.41	1302.51
360.62	1253.36
360.83	1218.54
361.04	1320.94
361.25	1212.40
361.46	1241.07
361.67	1290.22
361.88	1275.88
362.09	1263.60
362.30	1286.12
362.51	1341.42
362.72	1304.56
362.93	1259.50
363.14	1261.55
363.35	1263.60
363.56	1249.26
363.78	1306.60
363.99	1320.94
364.20	1292.27
364.41	1228.78
364.62	1265.64
364.83	1261.55
365.04	1279.98
365.25	1277.93
365.46	1296.36
365.67	1300.46
365.88	1265.64
366.09	1314.80
366.30	1232.88
366.51	1265.64
366.72	1294.32
366.93	1241.07
367.14	1259.50
367.35	1286.12
367.56	1312.75
367.77	1255.40
367.98	1279.98
368.18	1265.64
368.39	1290.22
368.60	1230.83
368.81	1308.65
369.02	1261.55
369.23	1320.94
369.44	1236.97
369.65	1226.73
369.86	1253.36
370.07	1265.64
370.28	1202.16
370.49	1304.56
370.70	1255.40
370.91	1302.51
371.12	1249.26
371.33	1234.93
371.54	1288.17
371.75	1273.84
371.96	1265.64
372.17	1267.69
372.38	1279.98
372.59	1251.31
372.80	1245.16
373.01	1241.07
373.22	1279.98
373.43	1255.40
373.64	1222.64
373.85	1279.98
374.06	1239.02
374.26	1353.71
374.47	1339.37
374.68	1245.16
374.89	1218.54
375.10	1208.30
375.31	1306.60
375.52	1282.03
375.73	1265.64
375.94	1232.88
376.15	1306.60
376.36	1230.83
376.57	1210.35
376.78	1322.99
376.99	1331.18
377.20	1345.52
377.40	1232.88
377.61	1267.69
377.82	1282.03
378.03	1265.64
378.24	1337.32
378.45	1247.21
378.66	1329.13
378.87	1228.78
379.08	1236.97
379.29	1243.12
379.50	1294.32
379.71	1208.30
379.91	1322.99
380.12	1196.01
380.33	1224.69
380.54	1224.69
380.75	1284.08
380.96	1249.26
381.17	1288.17
381.38	1245.16
381.59	1249.26
381.80	1234.93
382.00	1267.69
382.21	1239.02
382.42	1265.64
382.63	1267.69
382.84	1353.71
383.05	1355.76
383.26	1320.94
383.47	1282.03
383.68	1249.26
383.88	1298.41
384.09	1257.45
384.30	1255.40
384.51	1210.35
384.72	1232.88
384.93	1288.17
385.14	1292.27
385.35	1220.59
385.55	1290.22
385.76	1290.22
385.97	1251.31
386.18	1259.50
386.39	1331.18
386.60	1269.74
386.81	1239.02
387.02	1259.50
387.22	1286.12
387.43	1282.03
387.64	1277.93
387.85	1222.64
388.06	1310.70
388.27	1292.27
388.48	1241.07
388.68	1284.08
388.89	1320.94
389.10	1222.64
389.31	1292.27
389.52	1261.55
389.73	1279.98
389.93	1298.41
390.14	1286.12
390.35	1322.99
390.56	1329.13
390.77	1339.37
390.98	1300.46
391.18	1337.32
391.39	1273.84
391.60	1265.64
391.81	1298.41
392.02	1255.40
392.23	1245.16
392.43	1296.36
392.64	1318.89
392.85	1241.07
393.06	1335.28
393.27	1294.32
393.47	1228.78
393.68	1210.35
393.89	1296.36
394.10	1228.78
394.31	1333.23
394.52	1267.69
394.72	1236.97
394.93	1269.74
395.14	1300.46
395.35	1214.45
395.56	1341.42
395.76	1349.61
395.97	1232.88
396.18	1241.07
396.39	1200.11
396.60	1263.60
396.80	1279.98
397.01	1171.44
397.22	1183.73
397.43	1279.98
397.64	1294.32
397.84	1310.70
398.05	1302.51
398.26	1261.55
398.47	1294.32
398.67	1222.64
398.88	1249.26
399.09	1228.78
399.30	1214.45
399.51	1316.84
399.71	1304.56
399.92	1271.79
400.13	1300.46
400.34	1318.89
400.54	1279.98
400.75	1320.94
400.96	1310.70
401.17	1292.27
401.37	1316.84
401.58	1191.92
401.79	1228.78
402.00	1290.22
402.21	1329.13
402.41	1282.03
402.62	1302.51
402.83	1312.75
403.04	1335.28
403.24	1300.46
403.45	1277.93
403.66	1230.83
403.87	1292.27
404.07	1292.27
404.28	1302.51
404.49	1329.13
404.70	1196.01
404.90	1298.41
405.11	1241.07
405.32	1271.79
405.52	1314.80
405.73	1357.80
405.94	1220.59
406.15	1296.36
406.35	1294.32
406.56	1329.13
406.77	1253.36
406.98	1304.56
407.18	1306.60
407.39	1255.40
407.60	1273.84
407.80	1224.69
408.01	1273.84
408.22	1314.80
408.43	1249.26
408.63	1261.55
408.84	1312.75
409.05	1308.65
409.25	1312.75
409.46	1196.01
409.67	1224.69
409.88	1255.40
410.08	1322.99
410.29	1273.84
410.50	1300.46
410.70	1302.51
410.91	1253.36
411.12	1282.03
411.32	1314.80
411.53	1296.36
411.74	1263.60
411.95	1243.12
412.15	1251.31
412.36	1300.46
412.57	1249.26
412.77	1271.79
412.98	1271.79
413.19	1257.45
413.39	1259.50
413.60	1249.26
413.81	1290.22
414.01	1257.45
414.22	1273.84
414.43	1253.36
414.63	1257.45
414.84	1302.51
415.05	1239.02
415.25	1284.08
415.46	1273.84
415.67	1232.88
415.87	1310.70
416.08	1273.84
416.29	1310.70
416.49	1339.37
416.70	1325.04
416.91	1312.75
417.11	1255.40
417.32	1212.40
417.53	1275.88
417.73	1341.42
417.94	1325.04
418.15	1267.69
418.35	1284.08
418.56	1214.45
418.77	1310.70
418.97	1349.61
419.18	1263.60
419.38	1282.03
419.59	1282.03
419.80	1263.60
420.00	1202.16
420.21	1226.73
420.42	1263.60
420.62	1239.02
420.83	1265.64
421.04	1181.68
421.24	1249.26
421.45	1302.51
421.65	1241.07
421.86	1288.17
422.07	1275.88
422.27	1320.94
422.48	1306.60
422.69	1275.88
422.89	1306.60
423.10	1228.78
423.30	1269.74
423.51	1230.83
423.72	1236.97
423.92	1277.93
424.13	1318.89
424.33	1234.93
424.54	1271.79
424.75	1247.21
424.95	1284.08
425.16	1265.64
425.36	1251.31
425.57	1241.07
425.78	1226.73
425.98	1187.82
426.19	1249.26
426.39	1265.64
426.60	1302.51
426.81	1234.93
427.01	1255.40
427.22	1208.30
427.42	1304.56
427.63	1263.60
427.83	1241.07
428.04	1288.17
428.25	1318.89
428.45	1279.98
428.66	1290.22
428.86	1259.50
429.07	1269.74
429.28	1239.02
429.48	1296.36
429.69	1222.64
429.89	1288.17
430.10	1236.97
430.30	1269.74
430.51	1277.93
430.71	1261.55
430.92	1329.13
431.13	1232.88
431.33	1216.49
431.54	1271.79
431.74	1249.26
431.95	1200.11
432.15	1282.03
432.36	1320.94
432.56	1228.78
432.77	1257.45
432.98	1304.56
433.18	1171.44
433.39	1288.17
433.59	1271.79
433.80	1265.64
434.00	1304.56
434.21	1216.49
434.41	1312.75
434.62	1282.03
434.82	1257.45
435.03	1269.74
435.23	1218.54
435.44	1265.64
435.64	1314.80
435.85	1282.03
436.06	1234.93
436.26	1232.88
436.47	1314.80
436.67	1329.13
436.88	1251.31
437.08	1320.94
437.29	1259.50
437.49	1290.22
437.70	1279.98
437.90	1339.37
438.11	1318.89
438.31	1214.45
438.52	1312.75
438.72	1224.69
438.93	1273.84
439.13	1304.56
439.34	1277.93
439.54	1263.60
439.75	1259.50
439.95	1216.49
440.16	1263.60
440.36	1214.45
440.57	1286.12
440.77	1320.94
440.98	1220.59
441.18	1298.41
441.39	1247.21
441.59	1314.80
441.80	1230.83
442.00	1325.04
442.21	1296.36
442.41	1245.16
442.62	1251.31
442.82	1298.41
443.02	1218.54
443.23	1292.27
443.43	1275.88
443.64	1372.14
443.84	1257.45
444.05	1290.22
444.25	1234.93
444.46	1282.03
444.66	1191.92
444.87	1275.88
445.07	1269.74
445.28	1257.45
445.48	1341.42
445.69	1296.36
445.89	1183.73
446.09	1273.84
446.30	1234.93
446.50	1292.27
446.71	1271.79
446.91	1239.02
447.12	1337.32
447.32	1228.78
447.53	1290.22
447.73	1296.36
447.93	1286.12
448.14	1290.22
448.34	1216.49
448.55	1267.69
448.75	1304.56
448.96	1337.32
449.16	1320.94
449.36	1288.17
449.57	1286.12
449.77	1247.21
449.98	1282.03
450.18	1245.16
450.39	1269.74
450.59	1232.88
450.79	1255.40
451.00	1298.41
451.20	1253.36
451.41	1308.65
451.61	1251.31
451.81	1269.74
452.02	1269.74
452.22	1198.06
452.43	1163.25
452.63	1355.76
