SpectraSuite Data File
++++++++++++++++++++++++++++++++++++
Date: Sun Apr 03 19:55:19 CEST 2016
User: root
Dark Spectrum Present: No
Reference Spectrum Present: No
Number of Sampled Component Spectra: 1
Spectrometers: USB4C02835
Integration Time (usec): 10000 (USB4C02835)
Spectra Averaged: 1 (USB4C02835)
Boxcar Smoothing: 0 (USB4C02835)
Correct for Electrical Dark: No (USB4C02835)
Strobe/Lamp Enabled: No (USB4C02835)
Correct for Detector Non-linearity: No (USB4C02835)
Correct for Stray Light: No (USB4C02835)
Number of Pixels in Processed Spectrum: 3648
>>>>>Begin Processed Spectral Data<<<<<
177.47	1208.30
177.69	1208.30
177.91	1208.30
178.13	1259.50
178.36	1279.98
178.58	1185.77
178.80	1253.36
179.02	1243.12
179.24	1214.45
179.46	1228.78
179.68	1302.51
179.90	1261.55
180.13	1232.88
180.35	1206.25
180.57	1284.08
180.79	1312.75
181.01	1253.36
181.23	1228.78
181.45	1300.46
181.67	1265.64
181.90	1243.12
182.12	1202.16
182.34	1304.56
182.56	1243.12
182.78	1284.08
183.00	1322.99
183.22	1183.73
183.44	1284.08
183.66	1243.12
183.89	1304.56
184.11	1279.98
184.33	1288.17
184.55	1259.50
184.77	1286.12
184.99	1308.65
185.21	1294.32
185.43	1304.56
185.65	1247.21
185.87	1329.13
186.10	1265.64
186.32	1267.69
186.54	1269.74
186.76	1220.59
186.98	1275.88
187.20	1181.68
187.42	1279.98
187.64	1296.36
187.86	1263.60
188.08	1251.31
188.30	1191.92
188.52	1255.40
188.75	1284.08
188.97	1302.51
189.19	1277.93
189.41	1196.01
189.63	1232.88
189.85	1282.03
190.07	1208.30
190.29	1245.16
190.51	1265.64
190.73	1255.40
190.95	1282.03
191.17	1239.02
191.39	1275.88
191.61	1236.97
191.84	1265.64
192.06	1241.07
192.28	1277.93
192.50	1265.64
192.72	1282.03
192.94	1228.78
193.16	1261.55
193.38	1335.28
193.60	1277.93
193.82	1304.56
194.04	1210.35
194.26	1216.49
194.48	1259.50
194.70	1290.22
194.92	1263.60
195.14	1300.46
195.36	1239.02
195.58	1249.26
195.80	1304.56
196.02	1335.28
196.24	1232.88
196.46	1288.17
196.69	1333.23
196.91	1310.70
197.13	1302.51
197.35	1269.74
197.57	1230.83
197.79	1300.46
198.01	1316.84
198.23	1230.83
198.45	1298.41
198.67	1310.70
198.89	1308.65
199.11	1282.03
199.33	1275.88
199.55	1275.88
199.77	1275.88
199.99	1308.65
200.21	1218.54
200.43	1243.12
200.65	1241.07
200.87	1216.49
201.09	1236.97
201.31	1304.56
201.53	1204.21
201.75	1306.60
201.97	1302.51
202.19	1312.75
202.41	1257.45
202.63	1312.75
202.85	1312.75
203.07	1198.06
203.29	1230.83
203.51	1312.75
203.73	1253.36
203.95	1292.27
204.17	1286.12
204.39	1304.56
204.61	1263.60
204.83	1331.18
205.05	1279.98
205.27	1249.26
205.49	1234.93
205.71	1331.18
205.93	1228.78
206.15	1370.09
206.37	1259.50
206.59	1269.74
206.81	1298.41
207.03	1200.11
207.25	1284.08
207.47	1267.69
207.69	1312.75
207.91	1249.26
208.13	1304.56
208.34	1298.41
208.56	1230.83
208.78	1267.69
209.00	1343.47
209.22	1298.41
209.44	1300.46
209.66	1220.59
209.88	1241.07
210.10	1253.36
210.32	1249.26
210.54	1314.80
210.76	1322.99
210.98	1298.41
211.20	1290.22
211.42	1255.40
211.64	1306.60
211.86	1222.64
212.08	1269.74
212.30	1288.17
212.52	1296.36
212.74	1314.80
212.96	1286.12
213.17	1245.16
213.39	1300.46
213.61	1263.60
213.83	1249.26
214.05	1302.51
214.27	1255.40
214.49	1236.97
214.71	1282.03
214.93	1345.52
215.15	1236.97
215.37	1288.17
215.59	1269.74
215.81	1288.17
216.03	1320.94
216.24	1232.88
216.46	1294.32
216.68	1322.99
216.90	1245.16
217.12	1282.03
217.34	1247.21
217.56	1243.12
217.78	1279.98
218.00	1261.55
218.22	1255.40
218.44	1325.04
218.66	1343.47
218.87	1288.17
219.09	1277.93
219.31	1243.12
219.53	1318.89
219.75	1212.40
219.97	1206.25
220.19	1206.25
220.41	1277.93
220.63	1331.18
220.85	1243.12
221.06	1212.40
221.28	1222.64
221.50	1236.97
221.72	1279.98
221.94	1306.60
222.16	1275.88
222.38	1200.11
222.60	1279.98
222.82	1253.36
223.03	1239.02
223.25	1271.79
223.47	1282.03
223.69	1325.04
223.91	1253.36
224.13	1228.78
224.35	1302.51
224.57	1226.73
224.78	1282.03
225.00	1228.78
225.22	1239.02
225.44	1269.74
225.66	1275.88
225.88	1357.80
226.10	1261.55
226.32	1255.40
226.53	1204.21
226.75	1269.74
226.97	1282.03
227.19	1302.51
227.41	1269.74
227.63	1263.60
227.85	1290.22
228.06	1304.56
228.28	1241.07
228.50	1234.93
228.72	1296.36
228.94	1265.64
229.16	1251.31
229.37	1298.41
229.59	1236.97
229.81	1247.21
230.03	1288.17
230.25	1249.26
230.47	1214.45
230.69	1218.54
230.90	1333.23
231.12	1296.36
231.34	1261.55
231.56	1247.21
231.78	1261.55
232.00	1239.02
232.21	1337.32
232.43	1191.92
232.65	1222.64
232.87	1232.88
233.09	1245.16
233.30	1288.17
233.52	1232.88
233.74	1253.36
233.96	1255.40
234.18	1292.27
234.40	1284.08
234.61	1261.55
234.83	1357.80
235.05	1214.45
235.27	1214.45
235.49	1257.45
235.70	1304.56
235.92	1267.69
236.14	1204.21
236.36	1279.98
236.58	1282.03
236.79	1335.28
237.01	1265.64
237.23	1277.93
237.45	1320.94
237.67	1269.74
237.88	1232.88
238.10	1296.36
238.32	1206.25
238.54	1316.84
238.76	1259.50
238.97	1273.84
239.19	1345.52
239.41	1253.36
239.63	1247.21
239.85	1239.02
240.06	1226.73
240.28	1275.88
240.50	1224.69
240.72	1345.52
240.93	1251.31
241.15	1273.84
241.37	1247.21
241.59	1322.99
241.81	1249.26
242.02	1230.83
242.24	1236.97
242.46	1298.41
242.68	1224.69
242.89	1292.27
243.11	1257.45
243.33	1294.32
243.55	1279.98
243.76	1277.93
243.98	1232.88
244.20	1241.07
244.42	1288.17
244.64	1298.41
244.85	1224.69
245.07	1253.36
245.29	1257.45
245.51	1257.45
245.72	1243.12
245.94	1312.75
246.16	1226.73
246.38	1277.93
246.59	1230.83
246.81	1273.84
247.03	1210.35
247.24	1304.56
247.46	1290.22
247.68	1318.89
247.90	1259.50
248.11	1263.60
248.33	1304.56
248.55	1325.04
248.77	1298.41
248.98	1214.45
249.20	1226.73
249.42	1380.33
249.64	1247.21
249.85	1296.36
250.07	1226.73
250.29	1224.69
250.50	1222.64
250.72	1251.31
250.94	1247.21
251.16	1335.28
251.37	1288.17
251.59	1216.49
251.81	1290.22
252.02	1286.12
252.24	1232.88
252.46	1306.60
252.68	1306.60
252.89	1279.98
253.11	1171.44
253.33	1277.93
253.54	1208.30
253.76	1249.26
253.98	1331.18
254.20	1277.93
254.41	1261.55
254.63	1271.79
254.85	1253.36
255.06	1273.84
255.28	1292.27
255.50	1222.64
255.71	1284.08
255.93	1294.32
256.15	1296.36
256.36	1263.60
256.58	1220.59
256.80	1273.84
257.02	1181.68
257.23	1282.03
257.45	1331.18
257.67	1226.73
257.88	1310.70
258.10	1294.32
258.32	1308.65
258.53	1273.84
258.75	1312.75
258.97	1304.56
259.18	1273.84
259.40	1234.93
259.62	1224.69
259.83	1257.45
260.05	1282.03
260.27	1282.03
260.48	1275.88
260.70	1277.93
260.92	1265.64
261.13	1228.78
261.35	1300.46
261.57	1202.16
261.78	1239.02
262.00	1345.52
262.22	1232.88
262.43	1236.97
262.65	1259.50
262.86	1271.79
263.08	1228.78
263.30	1282.03
263.51	1234.93
263.73	1171.44
263.95	1228.78
264.16	1306.60
264.38	1279.98
264.60	1265.64
264.81	1247.21
265.03	1282.03
265.25	1341.42
265.46	1253.36
265.68	1173.49
265.89	1255.40
266.11	1345.52
266.33	1298.41
266.54	1189.87
266.76	1292.27
266.98	1318.89
267.19	1300.46
267.41	1310.70
267.62	1316.84
267.84	1273.84
268.06	1279.98
268.27	1243.12
268.49	1300.46
268.70	1341.42
268.92	1298.41
269.14	1243.12
269.35	1216.49
269.57	1171.44
269.79	1320.94
270.00	1322.99
270.22	1300.46
270.43	1277.93
270.65	1290.22
270.87	1243.12
271.08	1282.03
271.30	1255.40
271.51	1269.74
271.73	1259.50
271.95	1267.69
272.16	1279.98
272.38	1292.27
272.59	1325.04
272.81	1325.04
273.02	1245.16
273.24	1282.03
273.46	1220.59
273.67	1331.18
273.89	1284.08
274.10	1335.28
274.32	1265.64
274.54	1234.93
274.75	1298.41
274.97	1259.50
275.18	1277.93
275.40	1306.60
275.61	1251.31
275.83	1255.40
276.05	1253.36
276.26	1312.75
276.48	1259.50
276.69	1370.09
276.91	1236.97
277.12	1267.69
277.34	1329.13
277.55	1257.45
277.77	1290.22
277.99	1218.54
278.20	1247.21
278.42	1241.07
278.63	1179.63
278.85	1314.80
279.06	1191.92
279.28	1241.07
279.49	1273.84
279.71	1239.02
279.93	1187.82
280.14	1232.88
280.36	1308.65
280.57	1314.80
280.79	1255.40
281.00	1284.08
281.22	1193.97
281.43	1282.03
281.65	1232.88
281.86	1249.26
282.08	1286.12
282.29	1312.75
282.51	1216.49
282.73	1329.13
282.94	1208.30
283.16	1210.35
283.37	1236.97
283.59	1286.12
283.80	1245.16
284.02	1355.76
284.23	1318.89
284.45	1212.40
284.66	1273.84
284.88	1312.75
285.09	1249.26
285.31	1216.49
285.52	1263.60
285.74	1294.32
285.95	1216.49
286.17	1263.60
286.38	1314.80
286.60	1234.93
286.81	1310.70
287.03	1282.03
287.24	1234.93
287.46	1298.41
287.67	1290.22
287.89	1284.08
288.10	1298.41
288.32	1239.02
288.53	1318.89
288.75	1249.26
288.96	1318.89
289.18	1251.31
289.39	1316.84
289.61	1296.36
289.82	1175.53
290.04	1318.89
290.25	1304.56
290.47	1261.55
290.68	1212.40
290.90	1261.55
291.11	1241.07
291.33	1331.18
291.54	1257.45
291.76	1239.02
291.97	1230.83
292.18	1239.02
292.40	1236.97
292.61	1261.55
292.83	1333.23
293.04	1284.08
293.26	1259.50
293.47	1284.08
293.69	1337.32
293.90	1273.84
294.12	1290.22
294.33	1282.03
294.55	1245.16
294.76	1204.21
294.97	1271.79
295.19	1249.26
295.40	1284.08
295.62	1267.69
295.83	1251.31
296.05	1193.97
296.26	1302.51
296.48	1267.69
296.69	1355.76
296.90	1249.26
297.12	1218.54
297.33	1337.32
297.55	1224.69
297.76	1265.64
297.98	1290.22
298.19	1290.22
298.41	1298.41
298.62	1249.26
298.83	1236.97
299.05	1310.70
299.26	1288.17
299.48	1247.21
299.69	1349.61
299.90	1245.16
300.12	1236.97
300.33	1261.55
300.55	1236.97
300.76	1306.60
300.98	1310.70
301.19	1282.03
301.40	1277.93
301.62	1247.21
301.83	1210.35
302.05	1294.32
302.26	1255.40
302.47	1200.11
302.69	1302.51
302.90	1288.17
303.12	1232.88
303.33	1277.93
303.54	1185.77
303.76	1216.49
303.97	1255.40
304.19	1277.93
304.40	1251.31
304.61	1263.60
304.83	1302.51
305.04	1316.84
305.26	1273.84
305.47	1220.59
305.68	1298.41
305.90	1230.83
306.11	1318.89
306.33	1222.64
306.54	1279.98
306.75	1294.32
306.97	1216.49
307.18	1279.98
307.39	1286.12
307.61	1294.32
307.82	1310.70
308.04	1290.22
308.25	1275.88
308.46	1329.13
308.68	1255.40
308.89	1200.11
309.10	1251.31
309.32	1335.28
309.53	1263.60
309.74	1294.32
309.96	1290.22
310.17	1296.36
310.39	1320.94
310.60	1339.37
310.81	1275.88
311.03	1300.46
311.24	1325.04
311.45	1329.13
311.67	1282.03
311.88	1202.16
312.09	1302.51
312.31	1234.93
312.52	1292.27
312.73	1314.80
312.95	1265.64
313.16	1216.49
313.37	1263.60
313.59	1253.36
313.80	1263.60
314.01	1300.46
314.23	1282.03
314.44	1263.60
314.65	1282.03
314.87	1296.36
315.08	1279.98
315.29	1255.40
315.51	1275.88
315.72	1249.26
315.93	1232.88
316.15	1269.74
316.36	1269.74
316.57	1247.21
316.79	1249.26
317.00	1275.88
317.21	1304.56
317.43	1224.69
317.64	1224.69
317.85	1196.01
318.07	1206.25
318.28	1257.45
318.49	1298.41
318.70	1241.07
318.92	1298.41
319.13	1298.41
319.34	1292.27
319.56	1294.32
319.77	1294.32
319.98	1318.89
320.20	1239.02
320.41	1302.51
320.62	1294.32
320.83	1257.45
321.05	1222.64
321.26	1290.22
321.47	1261.55
321.69	1282.03
321.90	1284.08
322.11	1277.93
322.32	1296.36
322.54	1286.12
322.75	1273.84
322.96	1310.70
323.18	1263.60
323.39	1224.69
323.60	1310.70
323.81	1284.08
324.03	1249.26
324.24	1224.69
324.45	1243.12
324.66	1267.69
324.88	1298.41
325.09	1339.37
325.30	1234.93
325.52	1284.08
325.73	1261.55
325.94	1304.56
326.15	1267.69
326.37	1312.75
326.58	1236.97
326.79	1306.60
327.00	1306.60
327.22	1150.96
327.43	1265.64
327.64	1228.78
327.85	1259.50
328.07	1230.83
328.28	1286.12
328.49	1286.12
328.70	1259.50
328.92	1302.51
329.13	1296.36
329.34	1298.41
329.55	1263.60
329.76	1306.60
329.98	1259.50
330.19	1302.51
330.40	1294.32
330.61	1279.98
330.83	1294.32
331.04	1236.97
331.25	1251.31
331.46	1241.07
331.68	1239.02
331.89	1349.61
332.10	1239.02
332.31	1282.03
332.52	1253.36
332.74	1282.03
332.95	1232.88
333.16	1247.21
333.37	1216.49
333.58	1306.60
333.80	1265.64
334.01	1265.64
334.22	1269.74
334.43	1269.74
334.64	1216.49
334.86	1249.26
335.07	1232.88
335.28	1255.40
335.49	1245.16
335.70	1239.02
335.92	1331.18
336.13	1263.60
336.34	1292.27
336.55	1259.50
336.76	1249.26
336.98	1294.32
337.19	1298.41
337.40	1257.45
337.61	1204.21
337.82	1232.88
338.04	1345.52
338.25	1261.55
338.46	1337.32
338.67	1263.60
338.88	1304.56
339.09	1249.26
339.31	1220.59
339.52	1331.18
339.73	1212.40
339.94	1353.71
340.15	1257.45
340.36	1279.98
340.58	1277.93
340.79	1263.60
341.00	1298.41
341.21	1294.32
341.42	1269.74
341.63	1249.26
341.85	1310.70
342.06	1279.98
342.27	1230.83
342.48	1241.07
342.69	1325.04
342.90	1316.84
343.12	1220.59
343.33	1251.31
343.54	1327.08
343.75	1322.99
343.96	1294.32
344.17	1310.70
344.38	1269.74
344.60	1257.45
344.81	1224.69
345.02	1247.21
345.23	1255.40
345.44	1273.84
345.65	1234.93
345.86	1249.26
346.07	1277.93
346.29	1202.16
346.50	1304.56
346.71	1228.78
346.92	1310.70
347.13	1265.64
347.34	1312.75
347.55	1279.98
347.76	1275.88
347.98	1175.53
348.19	1253.36
348.40	1325.04
348.61	1269.74
348.82	1267.69
349.03	1249.26
349.24	1312.75
349.45	1228.78
349.66	1181.68
349.88	1322.99
350.09	1228.78
350.30	1265.64
350.51	1273.84
350.72	1228.78
350.93	1253.36
351.14	1271.79
351.35	1282.03
351.56	1271.79
351.77	1257.45
351.99	1286.12
352.20	1142.77
352.41	1249.26
352.62	1222.64
352.83	1249.26
353.04	1292.27
353.25	1202.16
353.46	1259.50
353.67	1279.98
353.88	1292.27
354.09	1269.74
354.30	1226.73
354.52	1224.69
354.73	1259.50
354.94	1265.64
355.15	1271.79
355.36	1292.27
355.57	1247.21
355.78	1292.27
355.99	1249.26
356.20	1257.45
356.41	1169.39
356.62	1257.45
356.83	1306.60
357.04	1304.56
357.25	1304.56
357.46	1275.88
357.68	1292.27
357.89	1275.88
358.10	1275.88
358.31	1294.32
358.52	1273.84
358.73	1241.07
358.94	1286.12
359.15	1257.45
359.36	1306.60
359.57	1263.60
359.78	1277.93
359.99	1275.88
360.20	1257.45
360.41	1236.97
360.62	1290.22
360.83	1253.36
361.04	1267.69
361.25	1214.45
361.46	1271.79
361.67	1218.54
361.88	1335.28
362.09	1259.50
362.30	1259.50
362.51	1290.22
362.72	1284.08
362.93	1288.17
363.14	1304.56
363.35	1251.31
363.56	1294.32
363.78	1249.26
363.99	1245.16
364.20	1302.51
364.41	1214.45
364.62	1253.36
364.83	1271.79
365.04	1206.25
365.25	1241.07
365.46	1226.73
365.67	1359.85
365.88	1318.89
366.09	1216.49
366.30	1306.60
366.51	1255.40
366.72	1253.36
366.93	1220.59
367.14	1259.50
367.35	1331.18
367.56	1284.08
367.77	1257.45
367.98	1263.60
368.18	1253.36
368.39	1218.54
368.60	1216.49
368.81	1300.46
369.02	1284.08
369.23	1239.02
369.44	1269.74
369.65	1298.41
369.86	1218.54
370.07	1245.16
370.28	1261.55
370.49	1296.36
370.70	1253.36
370.91	1269.74
371.12	1216.49
371.33	1355.76
371.54	1216.49
371.75	1275.88
371.96	1232.88
372.17	1261.55
372.38	1341.42
372.59	1275.88
372.80	1247.21
373.01	1310.70
373.22	1259.50
373.43	1249.26
373.64	1302.51
373.85	1327.08
374.06	1296.36
374.26	1249.26
374.47	1286.12
374.68	1218.54
374.89	1294.32
375.10	1181.68
375.31	1331.18
375.52	1191.92
375.73	1185.77
375.94	1294.32
376.15	1343.47
376.36	1236.97
376.57	1255.40
376.78	1290.22
376.99	1257.45
377.20	1241.07
377.40	1335.28
377.61	1277.93
377.82	1234.93
378.03	1249.26
378.24	1296.36
378.45	1273.84
378.66	1292.27
378.87	1263.60
379.08	1247.21
379.29	1269.74
379.50	1296.36
379.71	1247.21
379.91	1282.03
380.12	1267.69
380.33	1239.02
380.54	1288.17
380.75	1308.65
380.96	1302.51
381.17	1304.56
381.38	1290.22
381.59	1277.93
381.80	1304.56
382.00	1292.27
382.21	1228.78
382.42	1316.84
382.63	1331.18
382.84	1249.26
383.05	1294.32
383.26	1255.40
383.47	1296.36
383.68	1230.83
383.88	1206.25
384.09	1193.97
384.30	1329.13
384.51	1212.40
384.72	1286.12
384.93	1279.98
385.14	1273.84
385.35	1251.31
385.55	1263.60
385.76	1265.64
385.97	1218.54
386.18	1239.02
386.39	1277.93
386.60	1208.30
386.81	1345.52
387.02	1314.80
387.22	1224.69
387.43	1245.16
387.64	1302.51
387.85	1286.12
388.06	1118.19
388.27	1226.73
388.48	1327.08
388.68	1290.22
388.89	1245.16
389.10	1214.45
389.31	1265.64
389.52	1286.12
389.73	1257.45
389.93	1259.50
390.14	1259.50
390.35	1169.39
390.56	1210.35
390.77	1265.64
390.98	1255.40
391.18	1245.16
391.39	1243.12
391.60	1187.82
391.81	1232.88
392.02	1198.06
392.23	1277.93
392.43	1277.93
392.64	1296.36
392.85	1175.53
393.06	1304.56
393.27	1267.69
393.47	1261.55
393.68	1198.06
393.89	1263.60
394.10	1257.45
394.31	1318.89
394.52	1204.21
394.72	1210.35
394.93	1226.73
395.14	1265.64
395.35	1236.97
395.56	1279.98
395.76	1318.89
395.97	1222.64
396.18	1236.97
396.39	1263.60
396.60	1273.84
396.80	1218.54
397.01	1230.83
397.22	1265.64
397.43	1273.84
397.64	1232.88
397.84	1271.79
398.05	1273.84
398.26	1243.12
398.47	1279.98
398.67	1302.51
398.88	1232.88
399.09	1224.69
399.30	1228.78
399.51	1230.83
399.71	1196.01
399.92	1314.80
400.13	1267.69
400.34	1271.79
400.54	1249.26
400.75	1267.69
400.96	1282.03
401.17	1306.60
401.37	1361.90
401.58	1298.41
401.79	1202.16
402.00	1277.93
402.21	1261.55
402.41	1249.26
402.62	1279.98
402.83	1257.45
403.04	1304.56
403.24	1269.74
403.45	1288.17
403.66	1208.30
403.87	1316.84
404.07	1243.12
404.28	1335.28
404.49	1191.92
404.70	1212.40
404.90	1292.27
405.11	1267.69
405.32	1316.84
405.52	1247.21
405.73	1271.79
405.94	1202.16
406.15	1331.18
406.35	1288.17
406.56	1208.30
406.77	1236.97
406.98	1257.45
407.18	1302.51
407.39	1257.45
407.60	1261.55
407.80	1322.99
408.01	1249.26
408.22	1282.03
408.43	1296.36
408.63	1243.12
408.84	1282.03
409.05	1298.41
409.25	1318.89
409.46	1275.88
409.67	1290.22
409.88	1329.13
410.08	1220.59
410.29	1267.69
410.50	1247.21
410.70	1222.64
410.91	1216.49
411.12	1236.97
411.32	1322.99
411.53	1306.60
411.74	1269.74
411.95	1347.56
412.15	1308.65
412.36	1302.51
412.57	1286.12
412.77	1263.60
412.98	1304.56
413.19	1263.60
413.39	1189.87
413.60	1253.36
413.81	1288.17
414.01	1314.80
414.22	1279.98
414.43	1294.32
414.63	1255.40
414.84	1300.46
415.05	1298.41
415.25	1263.60
415.46	1329.13
415.67	1185.77
415.87	1220.59
416.08	1298.41
416.29	1271.79
416.49	1259.50
416.70	1216.49
416.91	1284.08
417.11	1290.22
417.32	1343.47
417.53	1247.21
417.73	1343.47
417.94	1220.59
418.15	1224.69
418.35	1185.77
418.56	1265.64
418.77	1296.36
418.97	1200.11
419.18	1212.40
419.38	1339.37
419.59	1232.88
419.80	1241.07
420.00	1257.45
420.21	1253.36
420.42	1179.63
420.62	1241.07
420.83	1179.63
421.04	1296.36
421.24	1298.41
421.45	1232.88
421.65	1234.93
421.86	1288.17
422.07	1279.98
422.27	1288.17
422.48	1230.83
422.69	1257.45
422.89	1298.41
423.10	1288.17
423.30	1327.08
423.51	1216.49
423.72	1196.01
423.92	1286.12
424.13	1257.45
424.33	1253.36
424.54	1265.64
424.75	1290.22
424.95	1284.08
425.16	1259.50
425.36	1298.41
425.57	1370.09
425.78	1290.22
425.98	1212.40
426.19	1286.12
426.39	1232.88
426.60	1306.60
426.81	1310.70
427.01	1183.73
427.22	1249.26
427.42	1249.26
427.63	1183.73
427.83	1310.70
428.04	1353.71
428.25	1282.03
428.45	1349.61
428.66	1226.73
428.86	1236.97
429.07	1304.56
429.28	1286.12
429.48	1241.07
429.69	1331.18
429.89	1282.03
430.10	1263.60
430.30	1214.45
430.51	1302.51
430.71	1327.08
430.92	1228.78
431.13	1275.88
431.33	1269.74
431.54	1259.50
431.74	1292.27
431.95	1335.28
432.15	1230.83
432.36	1292.27
432.56	1259.50
432.77	1245.16
432.98	1290.22
433.18	1224.69
433.39	1298.41
433.59	1253.36
433.80	1296.36
434.00	1322.99
434.21	1255.40
434.41	1302.51
434.62	1271.79
434.82	1243.12
435.03	1249.26
435.23	1261.55
435.44	1284.08
435.64	1247.21
435.85	1298.41
436.06	1302.51
436.26	1335.28
436.47	1271.79
436.67	1275.88
436.88	1298.41
437.08	1325.04
437.29	1288.17
437.49	1228.78
437.70	1218.54
437.90	1294.32
438.11	1288.17
438.31	1232.88
438.52	1243.12
438.72	1253.36
438.93	1257.45
439.13	1198.06
439.34	1241.07
439.54	1282.03
439.75	1226.73
439.95	1288.17
440.16	1351.66
440.36	1275.88
440.57	1259.50
440.77	1265.64
440.98	1302.51
441.18	1284.08
441.39	1284.08
441.59	1298.41
441.80	1300.46
442.00	1277.93
442.21	1277.93
442.41	1275.88
442.62	1226.73
442.82	1298.41
443.02	1339.37
443.23	1302.51
443.43	1253.36
443.64	1282.03
443.84	1355.76
444.05	1251.31
444.25	1286.12
444.46	1249.26
444.66	1247.21
444.87	1277.93
445.07	1265.64
445.28	1320.94
445.48	1232.88
445.69	1271.79
445.89	1304.56
446.09	1306.60
446.30	1261.55
446.50	1286.12
446.71	1247.21
446.91	1267.69
447.12	1331.18
447.32	1257.45
447.53	1284.08
447.73	1298.41
447.93	1302.51
448.14	1265.64
448.34	1234.93
448.55	1218.54
448.75	1247.21
448.96	1284.08
449.16	1296.36
449.36	1345.52
449.57	1241.07
449.77	1298.41
449.98	1329.13
450.18	1271.79
450.39	1251.31
450.59	1279.98
450.79	1245.16
451.00	1239.02
451.20	1273.84
451.41	1292.27
451.61	1269.74
451.81	1202.16
452.02	1253.36
452.22	1325.04
452.43	1265.64
452.63	1245.16
