SpectraSuite Data File
++++++++++++++++++++++++++++++++++++
Date: Sun Apr 03 19:55:28 CEST 2016
User: root
Dark Spectrum Present: No
Reference Spectrum Present: No
Number of Sampled Component Spectra: 1
Spectrometers: USB4C02835
Integration Time (usec): 10000 (USB4C02835)
Spectra Averaged: 1 (USB4C02835)
Boxcar Smoothing: 0 (USB4C02835)
Correct for Electrical Dark: No (USB4C02835)
Strobe/Lamp Enabled: No (USB4C02835)
Correct for Detector Non-linearity: No (USB4C02835)
Correct for Stray Light: No (USB4C02835)
Number of Pixels in Processed Spectrum: 3648
>>>>>Begin Processed Spectral Data<<<<<
177.47	1230.83
177.69	1230.83
177.91	1230.83
178.13	1249.26
178.36	1296.36
178.58	1316.84
178.80	1232.88
179.02	1234.93
179.24	1314.80
179.46	1314.80
179.68	1271.79
179.90	1263.60
180.13	1275.88
180.35	1284.08
180.57	1273.84
180.79	1353.71
181.01	1241.07
181.23	1239.02
181.45	1306.60
181.67	1271.79
181.90	1296.36
182.12	1261.55
182.34	1261.55
182.56	1290.22
182.78	1257.45
183.00	1226.73
183.22	1265.64
183.44	1261.55
183.66	1241.07
183.89	1249.26
184.11	1261.55
184.33	1322.99
184.55	1214.45
184.77	1351.66
184.99	1279.98
185.21	1232.88
185.43	1249.26
185.65	1327.08
185.87	1267.69
186.10	1318.89
186.32	1220.59
186.54	1236.97
186.76	1306.60
186.98	1232.88
187.20	1239.02
187.42	1351.66
187.64	1288.17
187.86	1230.83
188.08	1298.41
188.30	1247.21
188.52	1249.26
188.75	1230.83
188.97	1236.97
189.19	1284.08
189.41	1312.75
189.63	1267.69
189.85	1290.22
190.07	1124.33
190.29	1284.08
190.51	1290.22
190.73	1271.79
190.95	1273.84
191.17	1286.12
191.39	1224.69
191.61	1241.07
191.84	1310.70
192.06	1298.41
192.28	1353.71
192.50	1204.21
192.72	1208.30
192.94	1253.36
193.16	1271.79
193.38	1243.12
193.60	1232.88
193.82	1257.45
194.04	1300.46
194.26	1200.11
194.48	1292.27
194.70	1277.93
194.92	1185.77
195.14	1263.60
195.36	1253.36
195.58	1236.97
195.80	1247.21
196.02	1243.12
196.24	1261.55
196.46	1259.50
196.69	1298.41
196.91	1300.46
197.13	1204.21
197.35	1279.98
197.57	1331.18
197.79	1290.22
198.01	1216.49
198.23	1294.32
198.45	1296.36
198.67	1298.41
198.89	1279.98
199.11	1220.59
199.33	1216.49
199.55	1263.60
199.77	1265.64
199.99	1310.70
200.21	1275.88
200.43	1249.26
200.65	1310.70
200.87	1220.59
201.09	1255.40
201.31	1277.93
201.53	1216.49
201.75	1372.14
201.97	1218.54
202.19	1189.87
202.41	1279.98
202.63	1316.84
202.85	1267.69
203.07	1261.55
203.29	1220.59
203.51	1271.79
203.73	1331.18
203.95	1216.49
204.17	1185.77
204.39	1255.40
204.61	1273.84
204.83	1286.12
205.05	1286.12
205.27	1275.88
205.49	1277.93
205.71	1322.99
205.93	1318.89
206.15	1239.02
206.37	1208.30
206.59	1193.97
206.81	1284.08
207.03	1339.37
207.25	1267.69
207.47	1279.98
207.69	1241.07
207.91	1294.32
208.13	1271.79
208.34	1327.08
208.56	1196.01
208.78	1284.08
209.00	1243.12
209.22	1288.17
209.44	1310.70
209.66	1263.60
209.88	1271.79
210.10	1284.08
210.32	1245.16
210.54	1243.12
210.76	1265.64
210.98	1247.21
211.20	1259.50
211.42	1290.22
211.64	1277.93
211.86	1263.60
212.08	1216.49
212.30	1257.45
212.52	1335.28
212.74	1275.88
212.96	1202.16
213.17	1245.16
213.39	1312.75
213.61	1216.49
213.83	1236.97
214.05	1271.79
214.27	1349.61
214.49	1206.25
214.71	1325.04
214.93	1339.37
215.15	1193.97
215.37	1204.21
215.59	1187.82
215.81	1222.64
216.03	1290.22
216.24	1304.56
216.46	1292.27
216.68	1345.52
216.90	1322.99
217.12	1257.45
217.34	1230.83
217.56	1279.98
217.78	1224.69
218.00	1253.36
218.22	1204.21
218.44	1286.12
218.66	1286.12
218.87	1253.36
219.09	1247.21
219.31	1284.08
219.53	1320.94
219.75	1157.10
219.97	1220.59
220.19	1224.69
220.41	1331.18
220.63	1251.31
220.85	1255.40
221.06	1288.17
221.28	1210.35
221.50	1200.11
221.72	1253.36
221.94	1267.69
222.16	1290.22
222.38	1300.46
222.60	1243.12
222.82	1320.94
223.03	1198.06
223.25	1265.64
223.47	1314.80
223.69	1241.07
223.91	1253.36
224.13	1212.40
224.35	1290.22
224.57	1267.69
224.78	1286.12
225.00	1236.97
225.22	1265.64
225.44	1312.75
225.66	1200.11
225.88	1300.46
226.10	1308.65
226.32	1265.64
226.53	1290.22
226.75	1296.36
226.97	1239.02
227.19	1253.36
227.41	1198.06
227.63	1308.65
227.85	1265.64
228.06	1292.27
228.28	1300.46
228.50	1204.21
228.72	1296.36
228.94	1277.93
229.16	1263.60
229.37	1316.84
229.59	1243.12
229.81	1255.40
230.03	1292.27
230.25	1306.60
230.47	1294.32
230.69	1257.45
230.90	1210.35
231.12	1318.89
231.34	1331.18
231.56	1333.23
231.78	1282.03
232.00	1320.94
232.21	1208.30
232.43	1226.73
232.65	1304.56
232.87	1247.21
233.09	1253.36
233.30	1339.37
233.52	1230.83
233.74	1218.54
233.96	1259.50
234.18	1355.76
234.40	1232.88
234.61	1191.92
234.83	1253.36
235.05	1245.16
235.27	1318.89
235.49	1290.22
235.70	1255.40
235.92	1261.55
236.14	1298.41
236.36	1345.52
236.58	1198.06
236.79	1245.16
237.01	1290.22
237.23	1286.12
237.45	1214.45
237.67	1257.45
237.88	1239.02
238.10	1290.22
238.32	1265.64
238.54	1269.74
238.76	1331.18
238.97	1255.40
239.19	1279.98
239.41	1216.49
239.63	1271.79
239.85	1220.59
240.06	1249.26
240.28	1294.32
240.50	1284.08
240.72	1198.06
240.93	1245.16
241.15	1310.70
241.37	1222.64
241.59	1345.52
241.81	1282.03
242.02	1304.56
242.24	1273.84
242.46	1216.49
242.68	1241.07
242.89	1226.73
243.11	1257.45
243.33	1333.23
243.55	1234.93
243.76	1212.40
243.98	1279.98
244.20	1269.74
244.42	1273.84
244.64	1214.45
244.85	1230.83
245.07	1198.06
245.29	1224.69
245.51	1320.94
245.72	1200.11
245.94	1296.36
246.16	1255.40
246.38	1288.17
246.59	1196.01
246.81	1308.65
247.03	1245.16
247.24	1279.98
247.46	1308.65
247.68	1267.69
247.90	1286.12
248.11	1318.89
248.33	1296.36
248.55	1243.12
248.77	1292.27
248.98	1298.41
249.20	1314.80
249.42	1253.36
249.64	1228.78
249.85	1292.27
250.07	1277.93
250.29	1255.40
250.50	1277.93
250.72	1241.07
250.94	1245.16
251.16	1263.60
251.37	1255.40
251.59	1302.51
251.81	1253.36
252.02	1247.21
252.24	1277.93
252.46	1275.88
252.68	1247.21
252.89	1353.71
253.11	1314.80
253.33	1253.36
253.54	1216.49
253.76	1294.32
253.98	1247.21
254.20	1308.65
254.41	1304.56
254.63	1302.51
254.85	1380.33
255.06	1267.69
255.28	1269.74
255.50	1261.55
255.71	1275.88
255.93	1359.85
256.15	1267.69
256.36	1267.69
256.58	1245.16
256.80	1228.78
257.02	1255.40
257.23	1282.03
257.45	1318.89
257.67	1292.27
257.88	1249.26
258.10	1290.22
258.32	1249.26
258.53	1241.07
258.75	1183.73
258.97	1230.83
259.18	1267.69
259.40	1331.18
259.62	1255.40
259.83	1253.36
260.05	1267.69
260.27	1308.65
260.48	1267.69
260.70	1273.84
260.92	1263.60
261.13	1265.64
261.35	1275.88
261.57	1243.12
261.78	1232.88
262.00	1173.49
262.22	1310.70
262.43	1230.83
262.65	1288.17
262.86	1224.69
263.08	1290.22
263.30	1257.45
263.51	1136.62
263.73	1314.80
263.95	1312.75
264.16	1294.32
264.38	1284.08
264.60	1255.40
264.81	1153.01
265.03	1312.75
265.25	1261.55
265.46	1245.16
265.68	1255.40
265.89	1322.99
266.11	1255.40
266.33	1275.88
266.54	1271.79
266.76	1306.60
266.98	1224.69
267.19	1273.84
267.41	1253.36
267.62	1232.88
267.84	1257.45
268.06	1269.74
268.27	1226.73
268.49	1320.94
268.70	1198.06
268.92	1312.75
269.14	1314.80
269.35	1255.40
269.57	1198.06
269.79	1241.07
270.00	1253.36
270.22	1273.84
270.43	1273.84
270.65	1263.60
270.87	1251.31
271.08	1230.83
271.30	1275.88
271.51	1196.01
271.73	1193.97
271.95	1208.30
272.16	1255.40
272.38	1241.07
272.59	1286.12
272.81	1253.36
273.02	1282.03
273.24	1269.74
273.46	1292.27
273.67	1304.56
273.89	1232.88
274.10	1279.98
274.32	1273.84
274.54	1255.40
274.75	1277.93
274.97	1222.64
275.18	1294.32
275.40	1271.79
275.61	1306.60
275.83	1286.12
276.05	1327.08
276.26	1267.69
276.48	1320.94
276.69	1284.08
276.91	1239.02
277.12	1294.32
277.34	1300.46
277.55	1243.12
277.77	1249.26
277.99	1312.75
278.20	1267.69
278.42	1308.65
278.63	1187.82
278.85	1279.98
279.06	1296.36
279.28	1279.98
279.49	1312.75
279.71	1234.93
279.93	1241.07
280.14	1286.12
280.36	1202.16
280.57	1251.31
280.79	1279.98
281.00	1312.75
281.22	1243.12
281.43	1273.84
281.65	1189.87
281.86	1296.36
282.08	1329.13
282.29	1279.98
282.51	1253.36
282.73	1286.12
282.94	1236.97
283.16	1304.56
283.37	1269.74
283.59	1292.27
283.80	1282.03
284.02	1226.73
284.23	1318.89
284.45	1329.13
284.66	1279.98
284.88	1257.45
285.09	1259.50
285.31	1267.69
285.52	1290.22
285.74	1290.22
285.95	1269.74
286.17	1337.32
286.38	1208.30
286.60	1275.88
286.81	1249.26
287.03	1269.74
287.24	1265.64
287.46	1251.31
287.67	1298.41
287.89	1228.78
288.10	1255.40
288.32	1255.40
288.53	1267.69
288.75	1296.36
288.96	1267.69
289.18	1271.79
289.39	1241.07
289.61	1200.11
289.82	1282.03
290.04	1335.28
290.25	1288.17
290.47	1222.64
290.68	1290.22
290.90	1236.97
291.11	1273.84
291.33	1298.41
291.54	1245.16
291.76	1265.64
291.97	1290.22
292.18	1304.56
292.40	1226.73
292.61	1279.98
292.83	1306.60
293.04	1271.79
293.26	1275.88
293.47	1232.88
293.69	1214.45
293.90	1189.87
294.12	1308.65
294.33	1198.06
294.55	1216.49
294.76	1247.21
294.97	1247.21
295.19	1277.93
295.40	1249.26
295.62	1271.79
295.83	1249.26
296.05	1251.31
296.26	1273.84
296.48	1245.16
296.69	1230.83
296.90	1320.94
297.12	1282.03
297.33	1208.30
297.55	1263.60
297.76	1239.02
297.98	1222.64
298.19	1282.03
298.41	1322.99
298.62	1282.03
298.83	1273.84
299.05	1265.64
299.26	1273.84
299.48	1292.27
299.69	1265.64
299.90	1279.98
300.12	1224.69
300.33	1284.08
300.55	1230.83
300.76	1343.47
300.98	1288.17
301.19	1265.64
301.40	1198.06
301.62	1306.60
301.83	1275.88
302.05	1275.88
302.26	1269.74
302.47	1249.26
302.69	1290.22
302.90	1282.03
303.12	1279.98
303.33	1288.17
303.54	1214.45
303.76	1218.54
303.97	1259.50
304.19	1216.49
304.40	1224.69
304.61	1247.21
304.83	1230.83
305.04	1290.22
305.26	1241.07
305.47	1259.50
305.68	1255.40
305.90	1265.64
306.11	1314.80
306.33	1325.04
306.54	1187.82
306.75	1226.73
306.97	1333.23
307.18	1277.93
307.39	1251.31
307.61	1290.22
307.82	1208.30
308.04	1329.13
308.25	1167.34
308.46	1355.76
308.68	1245.16
308.89	1257.45
309.10	1279.98
309.32	1306.60
309.53	1314.80
309.74	1261.55
309.96	1228.78
310.17	1267.69
310.39	1271.79
310.60	1267.69
310.81	1224.69
311.03	1263.60
311.24	1245.16
311.45	1228.78
311.67	1298.41
311.88	1232.88
312.09	1247.21
312.31	1286.12
312.52	1255.40
312.73	1247.21
312.95	1290.22
313.16	1257.45
313.37	1263.60
313.59	1257.45
313.80	1314.80
314.01	1259.50
314.23	1286.12
314.44	1214.45
314.65	1241.07
314.87	1269.74
315.08	1255.40
315.29	1290.22
315.51	1214.45
315.72	1228.78
315.93	1208.30
316.15	1226.73
316.36	1261.55
316.57	1277.93
316.79	1290.22
317.00	1261.55
317.21	1259.50
317.43	1257.45
317.64	1220.59
317.85	1271.79
318.07	1157.10
318.28	1357.80
318.49	1273.84
318.70	1218.54
318.92	1359.85
319.13	1165.29
319.34	1239.02
319.56	1249.26
319.77	1212.40
319.98	1282.03
320.20	1275.88
320.41	1337.32
320.62	1234.93
320.83	1224.69
321.05	1241.07
321.26	1300.46
321.47	1282.03
321.69	1275.88
321.90	1212.40
322.11	1271.79
322.32	1259.50
322.54	1273.84
322.75	1257.45
322.96	1304.56
323.18	1243.12
323.39	1202.16
323.60	1253.36
323.81	1222.64
324.03	1259.50
324.24	1208.30
324.45	1255.40
324.66	1216.49
324.88	1300.46
325.09	1288.17
325.30	1212.40
325.52	1337.32
325.73	1308.65
325.94	1265.64
326.15	1296.36
326.37	1222.64
326.58	1341.42
326.79	1234.93
327.00	1243.12
327.22	1325.04
327.43	1267.69
327.64	1294.32
327.85	1265.64
328.07	1282.03
328.28	1275.88
328.49	1318.89
328.70	1282.03
328.92	1243.12
329.13	1288.17
329.34	1234.93
329.55	1155.05
329.76	1187.82
329.98	1286.12
330.19	1300.46
330.40	1224.69
330.61	1271.79
330.83	1322.99
331.04	1245.16
331.25	1300.46
331.46	1241.07
331.68	1279.98
331.89	1257.45
332.10	1249.26
332.31	1349.61
332.52	1288.17
332.74	1292.27
332.95	1269.74
333.16	1331.18
333.37	1249.26
333.58	1241.07
333.80	1198.06
334.01	1226.73
334.22	1294.32
334.43	1243.12
334.64	1177.58
334.86	1255.40
335.07	1277.93
335.28	1245.16
335.49	1253.36
335.70	1249.26
335.92	1181.68
336.13	1261.55
336.34	1212.40
336.55	1265.64
336.76	1257.45
336.98	1241.07
337.19	1249.26
337.40	1273.84
337.61	1273.84
337.82	1318.89
338.04	1333.23
338.25	1214.45
338.46	1265.64
338.67	1251.31
338.88	1259.50
339.09	1230.83
339.31	1251.31
339.52	1239.02
339.73	1255.40
339.94	1245.16
340.15	1300.46
340.36	1216.49
340.58	1288.17
340.79	1275.88
341.00	1261.55
341.21	1228.78
341.42	1273.84
341.63	1232.88
341.85	1228.78
342.06	1308.65
342.27	1279.98
342.48	1296.36
342.69	1292.27
342.90	1335.28
343.12	1327.08
343.33	1257.45
343.54	1296.36
343.75	1282.03
343.96	1271.79
344.17	1269.74
344.38	1230.83
344.60	1267.69
344.81	1273.84
345.02	1239.02
345.23	1263.60
345.44	1279.98
345.65	1193.97
345.86	1296.36
346.07	1232.88
346.29	1224.69
346.50	1314.80
346.71	1275.88
346.92	1222.64
347.13	1255.40
347.34	1288.17
347.55	1277.93
347.76	1286.12
347.98	1288.17
348.19	1271.79
348.40	1255.40
348.61	1257.45
348.82	1271.79
349.03	1261.55
349.24	1310.70
349.45	1292.27
349.66	1239.02
349.88	1290.22
350.09	1273.84
350.30	1316.84
350.51	1351.66
350.72	1189.87
350.93	1249.26
351.14	1255.40
351.35	1294.32
351.56	1284.08
351.77	1245.16
351.99	1310.70
352.20	1210.35
352.41	1277.93
352.62	1259.50
352.83	1245.16
353.04	1288.17
353.25	1226.73
353.46	1308.65
353.67	1277.93
353.88	1239.02
354.09	1306.60
354.30	1230.83
354.52	1216.49
354.73	1222.64
354.94	1243.12
355.15	1304.56
355.36	1314.80
355.57	1251.31
355.78	1302.51
355.99	1331.18
356.20	1314.80
356.41	1267.69
356.62	1306.60
356.83	1273.84
357.04	1327.08
357.25	1232.88
357.46	1320.94
357.68	1261.55
357.89	1183.73
358.10	1271.79
358.31	1310.70
358.52	1255.40
358.73	1286.12
358.94	1345.52
359.15	1306.60
359.36	1206.25
359.57	1239.02
359.78	1288.17
359.99	1294.32
360.20	1298.41
360.41	1335.28
360.62	1249.26
360.83	1198.06
361.04	1253.36
361.25	1259.50
361.46	1298.41
361.67	1290.22
361.88	1259.50
362.09	1236.97
362.30	1300.46
362.51	1284.08
362.72	1314.80
362.93	1236.97
363.14	1255.40
363.35	1275.88
363.56	1286.12
363.78	1261.55
363.99	1290.22
364.20	1243.12
364.41	1253.36
364.62	1306.60
364.83	1232.88
365.04	1255.40
365.25	1185.77
365.46	1259.50
365.67	1363.95
365.88	1374.19
366.09	1363.95
366.30	1277.93
366.51	1236.97
366.72	1241.07
366.93	1325.04
367.14	1253.36
367.35	1255.40
367.56	1298.41
367.77	1294.32
367.98	1269.74
368.18	1269.74
368.39	1267.69
368.60	1253.36
368.81	1224.69
369.02	1236.97
369.23	1245.16
369.44	1216.49
369.65	1224.69
369.86	1261.55
370.07	1351.66
370.28	1249.26
370.49	1208.30
370.70	1261.55
370.91	1269.74
371.12	1304.56
371.33	1241.07
371.54	1292.27
371.75	1247.21
371.96	1214.45
372.17	1265.64
372.38	1202.16
372.59	1236.97
372.80	1204.21
373.01	1279.98
373.22	1232.88
373.43	1310.70
373.64	1253.36
373.85	1316.84
374.06	1263.60
374.26	1212.40
374.47	1243.12
374.68	1255.40
374.89	1181.68
375.10	1226.73
375.31	1234.93
375.52	1261.55
375.73	1271.79
375.94	1304.56
376.15	1232.88
376.36	1267.69
376.57	1345.52
376.78	1236.97
376.99	1275.88
377.20	1296.36
377.40	1292.27
377.61	1298.41
377.82	1290.22
378.03	1241.07
378.24	1236.97
378.45	1206.25
378.66	1308.65
378.87	1253.36
379.08	1335.28
379.29	1294.32
379.50	1232.88
379.71	1236.97
379.91	1277.93
380.12	1294.32
380.33	1255.40
380.54	1253.36
380.75	1292.27
380.96	1288.17
381.17	1290.22
381.38	1263.60
381.59	1265.64
381.80	1224.69
382.00	1200.11
382.21	1216.49
382.42	1310.70
382.63	1261.55
382.84	1232.88
383.05	1255.40
383.26	1279.98
383.47	1343.47
383.68	1284.08
383.88	1288.17
384.09	1230.83
384.30	1322.99
384.51	1314.80
384.72	1204.21
384.93	1263.60
385.14	1322.99
385.35	1316.84
385.55	1191.92
385.76	1210.35
385.97	1290.22
386.18	1230.83
386.39	1312.75
386.60	1296.36
386.81	1349.61
387.02	1284.08
387.22	1179.63
387.43	1239.02
387.64	1247.21
387.85	1304.56
388.06	1279.98
388.27	1363.95
388.48	1288.17
388.68	1282.03
388.89	1316.84
389.10	1208.30
389.31	1294.32
389.52	1257.45
389.73	1236.97
389.93	1296.36
390.14	1277.93
390.35	1257.45
390.56	1261.55
390.77	1224.69
390.98	1220.59
391.18	1206.25
391.39	1296.36
391.60	1241.07
391.81	1232.88
392.02	1263.60
392.23	1279.98
392.43	1243.12
392.64	1314.80
392.85	1343.47
393.06	1253.36
393.27	1243.12
393.47	1267.69
393.68	1347.56
393.89	1222.64
394.10	1282.03
394.31	1296.36
394.52	1269.74
394.72	1230.83
394.93	1265.64
395.14	1241.07
395.35	1271.79
395.56	1206.25
395.76	1265.64
395.97	1232.88
396.18	1210.35
396.39	1282.03
396.60	1273.84
396.80	1269.74
397.01	1224.69
397.22	1249.26
397.43	1232.88
397.64	1236.97
397.84	1239.02
398.05	1230.83
398.26	1214.45
398.47	1263.60
398.67	1345.52
398.88	1263.60
399.09	1245.16
399.30	1284.08
399.51	1322.99
399.71	1179.63
399.92	1259.50
400.13	1304.56
400.34	1257.45
400.54	1298.41
400.75	1247.21
400.96	1267.69
401.17	1275.88
401.37	1236.97
401.58	1284.08
401.79	1306.60
402.00	1232.88
402.21	1253.36
402.41	1290.22
402.62	1251.31
402.83	1312.75
403.04	1234.93
403.24	1232.88
403.45	1247.21
403.66	1265.64
403.87	1251.31
404.07	1282.03
404.28	1241.07
404.49	1325.04
404.70	1284.08
404.90	1273.84
405.11	1308.65
405.32	1310.70
405.52	1275.88
405.73	1263.60
405.94	1255.40
406.15	1257.45
406.35	1245.16
406.56	1269.74
406.77	1284.08
406.98	1265.64
407.18	1239.02
407.39	1271.79
407.60	1259.50
407.80	1271.79
408.01	1187.82
408.22	1216.49
408.43	1173.49
408.63	1263.60
408.84	1243.12
409.05	1286.12
409.25	1261.55
409.46	1273.84
409.67	1306.60
409.88	1306.60
410.08	1236.97
410.29	1361.90
410.50	1290.22
410.70	1265.64
410.91	1269.74
411.12	1320.94
411.32	1329.13
411.53	1234.93
411.74	1249.26
411.95	1261.55
412.15	1183.73
412.36	1275.88
412.57	1284.08
412.77	1275.88
412.98	1263.60
413.19	1232.88
413.39	1269.74
413.60	1273.84
413.81	1331.18
414.01	1222.64
414.22	1308.65
414.43	1288.17
414.63	1259.50
414.84	1302.51
415.05	1294.32
415.25	1257.45
415.46	1290.22
415.67	1286.12
415.87	1349.61
416.08	1249.26
416.29	1290.22
416.49	1257.45
416.70	1275.88
416.91	1294.32
417.11	1282.03
417.32	1214.45
417.53	1243.12
417.73	1288.17
417.94	1271.79
418.15	1259.50
418.35	1249.26
418.56	1200.11
418.77	1290.22
418.97	1304.56
419.18	1253.36
419.38	1265.64
419.59	1226.73
419.80	1327.08
420.00	1261.55
420.21	1236.97
420.42	1294.32
420.62	1224.69
420.83	1243.12
421.04	1255.40
421.24	1212.40
421.45	1177.58
421.65	1241.07
421.86	1322.99
422.07	1282.03
422.27	1224.69
422.48	1267.69
422.69	1314.80
422.89	1212.40
423.10	1239.02
423.30	1263.60
423.51	1228.78
423.72	1245.16
423.92	1292.27
424.13	1267.69
424.33	1265.64
424.54	1257.45
424.75	1298.41
424.95	1296.36
425.16	1183.73
425.36	1290.22
425.57	1296.36
425.78	1261.55
425.98	1308.65
426.19	1284.08
426.39	1241.07
426.60	1165.29
426.81	1331.18
427.01	1294.32
427.22	1249.26
427.42	1249.26
427.63	1273.84
427.83	1243.12
428.04	1263.60
428.25	1265.64
428.45	1284.08
428.66	1255.40
428.86	1284.08
429.07	1273.84
429.28	1222.64
429.48	1247.21
429.69	1247.21
429.89	1290.22
430.10	1212.40
430.30	1173.49
430.51	1277.93
430.71	1378.28
430.92	1251.31
431.13	1320.94
431.33	1271.79
431.54	1265.64
431.74	1331.18
431.95	1257.45
432.15	1204.21
432.36	1279.98
432.56	1243.12
432.77	1290.22
432.98	1304.56
433.18	1259.50
433.39	1304.56
433.59	1282.03
433.80	1222.64
434.00	1304.56
434.21	1226.73
434.41	1267.69
434.62	1247.21
434.82	1245.16
435.03	1245.16
435.23	1286.12
435.44	1249.26
435.64	1298.41
435.85	1347.56
436.06	1282.03
436.26	1300.46
436.47	1275.88
436.67	1218.54
436.88	1261.55
437.08	1306.60
437.29	1316.84
437.49	1298.41
437.70	1288.17
437.90	1288.17
438.11	1279.98
438.31	1294.32
438.52	1234.93
438.72	1306.60
438.93	1271.79
439.13	1267.69
439.34	1224.69
439.54	1296.36
439.75	1325.04
439.95	1294.32
440.16	1253.36
440.36	1296.36
440.57	1314.80
440.77	1316.84
440.98	1290.22
441.18	1218.54
441.39	1335.28
441.59	1230.83
441.80	1241.07
442.00	1282.03
442.21	1253.36
442.41	1148.91
442.62	1263.60
442.82	1271.79
443.02	1243.12
443.23	1300.46
443.43	1271.79
443.64	1327.08
443.84	1163.25
444.05	1298.41
444.25	1312.75
444.46	1255.40
444.66	1239.02
444.87	1251.31
445.07	1267.69
445.28	1286.12
445.48	1261.55
445.69	1275.88
445.89	1257.45
446.09	1286.12
446.30	1261.55
446.50	1284.08
446.71	1206.25
446.91	1300.46
447.12	1304.56
447.32	1308.65
447.53	1196.01
447.73	1312.75
447.93	1316.84
448.14	1290.22
448.34	1286.12
448.55	1296.36
448.75	1327.08
448.96	1341.42
449.16	1212.40
449.36	1296.36
449.57	1239.02
449.77	1247.21
449.98	1282.03
450.18	1263.60
450.39	1269.74
450.59	1339.37
450.79	1308.65
451.00	1292.27
451.20	1249.26
451.41	1259.50
451.61	1302.51
451.81	1339.37
452.02	1304.56
452.22	1277.93
452.43	1259.50
452.63	1345.52
