SpectraSuite Data File
++++++++++++++++++++++++++++++++++++
Date: Sun Apr 03 19:55:42 CEST 2016
User: root
Dark Spectrum Present: No
Reference Spectrum Present: No
Number of Sampled Component Spectra: 1
Spectrometers: USB4C02835
Integration Time (usec): 10000 (USB4C02835)
Spectra Averaged: 1 (USB4C02835)
Boxcar Smoothing: 0 (USB4C02835)
Correct for Electrical Dark: No (USB4C02835)
Strobe/Lamp Enabled: No (USB4C02835)
Correct for Detector Non-linearity: No (USB4C02835)
Correct for Stray Light: No (USB4C02835)
Number of Pixels in Processed Spectrum: 3648
>>>>>Begin Processed Spectral Data<<<<<
177.47	1296.36
177.69	1296.36
177.91	1296.36
178.13	1279.98
178.36	1171.44
178.58	1261.55
178.80	1322.99
179.02	1196.01
179.24	1296.36
179.46	1275.88
179.68	1277.93
179.90	1290.22
180.13	1232.88
180.35	1247.21
180.57	1224.69
180.79	1282.03
181.01	1263.60
181.23	1294.32
181.45	1277.93
181.67	1255.40
181.90	1290.22
182.12	1245.16
182.34	1257.45
182.56	1226.73
182.78	1286.12
183.00	1267.69
183.22	1239.02
183.44	1222.64
183.66	1196.01
183.89	1327.08
184.11	1267.69
184.33	1230.83
184.55	1302.51
184.77	1396.71
184.99	1249.26
185.21	1282.03
185.43	1304.56
185.65	1320.94
185.87	1357.80
186.10	1255.40
186.32	1198.06
186.54	1263.60
186.76	1255.40
186.98	1275.88
187.20	1241.07
187.42	1286.12
187.64	1263.60
187.86	1226.73
188.08	1286.12
188.30	1325.04
188.52	1200.11
188.75	1224.69
188.97	1298.41
189.19	1269.74
189.41	1331.18
189.63	1259.50
189.85	1245.16
190.07	1263.60
190.29	1277.93
190.51	1263.60
190.73	1253.36
190.95	1245.16
191.17	1318.89
191.39	1212.40
191.61	1226.73
191.84	1273.84
192.06	1302.51
192.28	1261.55
192.50	1161.20
192.72	1298.41
192.94	1294.32
193.16	1269.74
193.38	1220.59
193.60	1255.40
193.82	1277.93
194.04	1243.12
194.26	1251.31
194.48	1271.79
194.70	1241.07
194.92	1216.49
195.14	1216.49
195.36	1263.60
195.58	1257.45
195.80	1267.69
196.02	1228.78
196.24	1286.12
196.46	1187.82
196.69	1265.64
196.91	1282.03
197.13	1286.12
197.35	1263.60
197.57	1298.41
197.79	1269.74
198.01	1284.08
198.23	1275.88
198.45	1224.69
198.67	1232.88
198.89	1294.32
199.11	1249.26
199.33	1290.22
199.55	1232.88
199.77	1288.17
199.99	1325.04
200.21	1275.88
200.43	1206.25
200.65	1296.36
200.87	1329.13
201.09	1308.65
201.31	1265.64
201.53	1292.27
201.75	1290.22
201.97	1257.45
202.19	1290.22
202.41	1253.36
202.63	1288.17
202.85	1298.41
203.07	1318.89
203.29	1284.08
203.51	1325.04
203.73	1234.93
203.95	1325.04
204.17	1294.32
204.39	1247.21
204.61	1208.30
204.83	1257.45
205.05	1261.55
205.27	1306.60
205.49	1208.30
205.71	1347.56
205.93	1236.97
206.15	1228.78
206.37	1322.99
206.59	1322.99
206.81	1316.84
207.03	1216.49
207.25	1251.31
207.47	1251.31
207.69	1210.35
207.91	1263.60
208.13	1304.56
208.34	1247.21
208.56	1200.11
208.78	1230.83
209.00	1222.64
209.22	1261.55
209.44	1175.53
209.66	1314.80
209.88	1279.98
210.10	1265.64
210.32	1366.00
210.54	1347.56
210.76	1267.69
210.98	1316.84
211.20	1300.46
211.42	1359.85
211.64	1243.12
211.86	1263.60
212.08	1290.22
212.30	1247.21
212.52	1284.08
212.74	1251.31
212.96	1226.73
213.17	1224.69
213.39	1261.55
213.61	1277.93
213.83	1290.22
214.05	1273.84
214.27	1228.78
214.49	1298.41
214.71	1253.36
214.93	1275.88
215.15	1241.07
215.37	1327.08
215.59	1294.32
215.81	1269.74
216.03	1220.59
216.24	1296.36
216.46	1314.80
216.68	1222.64
216.90	1228.78
217.12	1335.28
217.34	1269.74
217.56	1267.69
217.78	1263.60
218.00	1304.56
218.22	1214.45
218.44	1261.55
218.66	1249.26
218.87	1296.36
219.09	1243.12
219.31	1253.36
219.53	1294.32
219.75	1177.58
219.97	1286.12
220.19	1255.40
220.41	1247.21
220.63	1304.56
220.85	1267.69
221.06	1265.64
221.28	1273.84
221.50	1355.76
221.72	1304.56
221.94	1255.40
222.16	1245.16
222.38	1286.12
222.60	1249.26
222.82	1230.83
223.03	1296.36
223.25	1224.69
223.47	1304.56
223.69	1351.66
223.91	1239.02
224.13	1271.79
224.35	1292.27
224.57	1220.59
224.78	1310.70
225.00	1249.26
225.22	1245.16
225.44	1333.23
225.66	1282.03
225.88	1333.23
226.10	1294.32
226.32	1261.55
226.53	1251.31
226.75	1255.40
226.97	1296.36
227.19	1312.75
227.41	1224.69
227.63	1193.97
227.85	1294.32
228.06	1247.21
228.28	1277.93
228.50	1249.26
228.72	1265.64
228.94	1222.64
229.16	1210.35
229.37	1325.04
229.59	1257.45
229.81	1296.36
230.03	1245.16
230.25	1286.12
230.47	1304.56
230.69	1247.21
230.90	1183.73
231.12	1337.32
231.34	1239.02
231.56	1302.51
231.78	1187.82
232.00	1253.36
232.21	1277.93
232.43	1286.12
232.65	1288.17
232.87	1183.73
233.09	1198.06
233.30	1363.95
233.52	1230.83
233.74	1239.02
233.96	1251.31
234.18	1277.93
234.40	1327.08
234.61	1279.98
234.83	1191.92
235.05	1251.31
235.27	1267.69
235.49	1243.12
235.70	1284.08
235.92	1296.36
236.14	1191.92
236.36	1282.03
236.58	1249.26
236.79	1220.59
237.01	1261.55
237.23	1263.60
237.45	1327.08
237.67	1273.84
237.88	1359.85
238.10	1265.64
238.32	1269.74
238.54	1306.60
238.76	1277.93
238.97	1255.40
239.19	1325.04
239.41	1351.66
239.63	1277.93
239.85	1239.02
240.06	1275.88
240.28	1204.21
240.50	1290.22
240.72	1239.02
240.93	1261.55
241.15	1204.21
241.37	1312.75
241.59	1271.79
241.81	1253.36
242.02	1275.88
242.24	1298.41
242.46	1218.54
242.68	1279.98
242.89	1304.56
243.11	1230.83
243.33	1165.29
243.55	1263.60
243.76	1277.93
243.98	1314.80
244.20	1292.27
244.42	1261.55
244.64	1220.59
244.85	1232.88
245.07	1312.75
245.29	1259.50
245.51	1290.22
245.72	1218.54
245.94	1286.12
246.16	1245.16
246.38	1286.12
246.59	1337.32
246.81	1310.70
247.03	1232.88
247.24	1249.26
247.46	1251.31
247.68	1265.64
247.90	1255.40
248.11	1247.21
248.33	1255.40
248.55	1263.60
248.77	1273.84
248.98	1286.12
249.20	1249.26
249.42	1255.40
249.64	1247.21
249.85	1239.02
250.07	1253.36
250.29	1259.50
250.50	1191.92
250.72	1318.89
250.94	1331.18
251.16	1228.78
251.37	1249.26
251.59	1335.28
251.81	1228.78
252.02	1292.27
252.24	1300.46
252.46	1298.41
252.68	1257.45
252.89	1277.93
253.11	1245.16
253.33	1296.36
253.54	1206.25
253.76	1189.87
253.98	1308.65
254.20	1300.46
254.41	1282.03
254.63	1222.64
254.85	1296.36
255.06	1257.45
255.28	1236.97
255.50	1263.60
255.71	1355.76
255.93	1241.07
256.15	1339.37
256.36	1302.51
256.58	1269.74
256.80	1300.46
257.02	1265.64
257.23	1279.98
257.45	1294.32
257.67	1300.46
257.88	1181.68
258.10	1286.12
258.32	1255.40
258.53	1224.69
258.75	1298.41
258.97	1241.07
259.18	1271.79
259.40	1271.79
259.62	1267.69
259.83	1288.17
260.05	1247.21
260.27	1228.78
260.48	1230.83
260.70	1226.73
260.92	1261.55
261.13	1232.88
261.35	1290.22
261.57	1302.51
261.78	1255.40
262.00	1265.64
262.22	1331.18
262.43	1277.93
262.65	1236.97
262.86	1249.26
263.08	1271.79
263.30	1279.98
263.51	1343.47
263.73	1224.69
263.95	1251.31
264.16	1282.03
264.38	1277.93
264.60	1279.98
264.81	1273.84
265.03	1329.13
265.25	1234.93
265.46	1298.41
265.68	1214.45
265.89	1257.45
266.11	1294.32
266.33	1306.60
266.54	1294.32
266.76	1298.41
266.98	1267.69
267.19	1251.31
267.41	1220.59
267.62	1265.64
267.84	1206.25
268.06	1269.74
268.27	1243.12
268.49	1273.84
268.70	1298.41
268.92	1327.08
269.14	1204.21
269.35	1292.27
269.57	1220.59
269.79	1333.23
270.00	1214.45
270.22	1304.56
270.43	1253.36
270.65	1204.21
270.87	1333.23
271.08	1241.07
271.30	1259.50
271.51	1243.12
271.73	1230.83
271.95	1277.93
272.16	1273.84
272.38	1265.64
272.59	1251.31
272.81	1265.64
273.02	1222.64
273.24	1247.21
273.46	1261.55
273.67	1222.64
273.89	1279.98
274.10	1300.46
274.32	1275.88
274.54	1253.36
274.75	1327.08
274.97	1279.98
275.18	1171.44
275.40	1318.89
275.61	1286.12
275.83	1261.55
276.05	1239.02
276.26	1284.08
276.48	1253.36
276.69	1189.87
276.91	1304.56
277.12	1298.41
277.34	1366.00
277.55	1318.89
277.77	1255.40
277.99	1212.40
278.20	1306.60
278.42	1267.69
278.63	1239.02
278.85	1263.60
279.06	1288.17
279.28	1286.12
279.49	1296.36
279.71	1290.22
279.93	1241.07
280.14	1241.07
280.36	1263.60
280.57	1263.60
280.79	1265.64
281.00	1236.97
281.22	1247.21
281.43	1267.69
281.65	1239.02
281.86	1310.70
282.08	1234.93
282.29	1269.74
282.51	1263.60
282.73	1316.84
282.94	1327.08
283.16	1271.79
283.37	1198.06
283.59	1239.02
283.80	1259.50
284.02	1216.49
284.23	1196.01
284.45	1314.80
284.66	1296.36
284.88	1179.63
285.09	1325.04
285.31	1298.41
285.52	1200.11
285.74	1290.22
285.95	1241.07
286.17	1292.27
286.38	1216.49
286.60	1249.26
286.81	1279.98
287.03	1294.32
287.24	1333.23
287.46	1224.69
287.67	1282.03
287.89	1284.08
288.10	1300.46
288.32	1335.28
288.53	1204.21
288.75	1245.16
288.96	1277.93
289.18	1243.12
289.39	1294.32
289.61	1210.35
289.82	1228.78
290.04	1286.12
290.25	1279.98
290.47	1236.97
290.68	1273.84
290.90	1298.41
291.11	1304.56
291.33	1273.84
291.54	1265.64
291.76	1226.73
291.97	1226.73
292.18	1318.89
292.40	1277.93
292.61	1228.78
292.83	1228.78
293.04	1273.84
293.26	1222.64
293.47	1318.89
293.69	1269.74
293.90	1259.50
294.12	1286.12
294.33	1306.60
294.55	1288.17
294.76	1335.28
294.97	1253.36
295.19	1329.13
295.40	1245.16
295.62	1312.75
295.83	1232.88
296.05	1265.64
296.26	1259.50
296.48	1298.41
296.69	1314.80
296.90	1306.60
297.12	1361.90
297.33	1322.99
297.55	1198.06
297.76	1265.64
297.98	1191.92
298.19	1302.51
298.41	1247.21
298.62	1320.94
298.83	1275.88
299.05	1226.73
299.26	1210.35
299.48	1222.64
299.69	1304.56
299.90	1296.36
300.12	1232.88
300.33	1347.56
300.55	1312.75
300.76	1279.98
300.98	1202.16
301.19	1312.75
301.40	1228.78
301.62	1239.02
301.83	1316.84
302.05	1304.56
302.26	1265.64
302.47	1284.08
302.69	1181.68
302.90	1255.40
303.12	1249.26
303.33	1265.64
303.54	1265.64
303.76	1298.41
303.97	1206.25
304.19	1255.40
304.40	1236.97
304.61	1279.98
304.83	1220.59
305.04	1265.64
305.26	1234.93
305.47	1167.34
305.68	1267.69
305.90	1228.78
306.11	1245.16
306.33	1224.69
306.54	1312.75
306.75	1255.40
306.97	1294.32
307.18	1247.21
307.39	1288.17
307.61	1259.50
307.82	1282.03
308.04	1292.27
308.25	1185.77
308.46	1222.64
308.68	1277.93
308.89	1218.54
309.10	1284.08
309.32	1239.02
309.53	1282.03
309.74	1271.79
309.96	1206.25
310.17	1185.77
310.39	1277.93
310.60	1284.08
310.81	1230.83
311.03	1241.07
311.24	1175.53
311.45	1314.80
311.67	1294.32
311.88	1273.84
312.09	1302.51
312.31	1220.59
312.52	1308.65
312.73	1322.99
312.95	1275.88
313.16	1234.93
313.37	1245.16
313.59	1265.64
313.80	1255.40
314.01	1314.80
314.23	1265.64
314.44	1249.26
314.65	1200.11
314.87	1316.84
315.08	1251.31
315.29	1282.03
315.51	1265.64
315.72	1269.74
315.93	1241.07
316.15	1241.07
316.36	1259.50
316.57	1241.07
316.79	1308.65
317.00	1265.64
317.21	1232.88
317.43	1261.55
317.64	1261.55
317.85	1335.28
318.07	1296.36
318.28	1247.21
318.49	1167.34
318.70	1212.40
318.92	1267.69
319.13	1253.36
319.34	1253.36
319.56	1271.79
319.77	1255.40
319.98	1251.31
320.20	1329.13
320.41	1175.53
320.62	1335.28
320.83	1290.22
321.05	1290.22
321.26	1292.27
321.47	1331.18
321.69	1265.64
321.90	1253.36
322.11	1329.13
322.32	1294.32
322.54	1245.16
322.75	1273.84
322.96	1282.03
323.18	1290.22
323.39	1210.35
323.60	1173.49
323.81	1306.60
324.03	1282.03
324.24	1284.08
324.45	1294.32
324.66	1263.60
324.88	1302.51
325.09	1314.80
325.30	1206.25
325.52	1202.16
325.73	1259.50
325.94	1234.93
326.15	1310.70
326.37	1263.60
326.58	1273.84
326.79	1329.13
327.00	1212.40
327.22	1251.31
327.43	1296.36
327.64	1259.50
327.85	1347.56
328.07	1271.79
328.28	1261.55
328.49	1296.36
328.70	1259.50
328.92	1271.79
329.13	1232.88
329.34	1236.97
329.55	1296.36
329.76	1286.12
329.98	1241.07
330.19	1318.89
330.40	1277.93
330.61	1277.93
330.83	1259.50
331.04	1253.36
331.25	1333.23
331.46	1288.17
331.68	1296.36
331.89	1228.78
332.10	1370.09
332.31	1349.61
332.52	1208.30
332.74	1234.93
332.95	1265.64
333.16	1267.69
333.37	1279.98
333.58	1275.88
333.80	1269.74
334.01	1312.75
334.22	1200.11
334.43	1259.50
334.64	1257.45
334.86	1284.08
335.07	1282.03
335.28	1306.60
335.49	1267.69
335.70	1259.50
335.92	1275.88
336.13	1210.35
336.34	1241.07
336.55	1243.12
336.76	1267.69
336.98	1171.44
337.19	1333.23
337.40	1300.46
337.61	1286.12
337.82	1265.64
338.04	1310.70
338.25	1249.26
338.46	1208.30
338.67	1249.26
338.88	1255.40
339.09	1314.80
339.31	1308.65
339.52	1290.22
339.73	1282.03
339.94	1292.27
340.15	1253.36
340.36	1253.36
340.58	1363.95
340.79	1257.45
341.00	1245.16
341.21	1265.64
341.42	1255.40
341.63	1257.45
341.85	1288.17
342.06	1271.79
342.27	1292.27
342.48	1368.04
342.69	1349.61
342.90	1312.75
343.12	1269.74
343.33	1241.07
343.54	1312.75
343.75	1302.51
343.96	1273.84
344.17	1236.97
344.38	1290.22
344.60	1247.21
344.81	1247.21
345.02	1316.84
345.23	1316.84
345.44	1288.17
345.65	1271.79
345.86	1243.12
346.07	1261.55
346.29	1249.26
346.50	1290.22
346.71	1228.78
346.92	1265.64
347.13	1279.98
347.34	1259.50
347.55	1269.74
347.76	1218.54
347.98	1249.26
348.19	1333.23
348.40	1331.18
348.61	1345.52
348.82	1320.94
349.03	1216.49
349.24	1339.37
349.45	1271.79
349.66	1189.87
349.88	1279.98
350.09	1243.12
350.30	1230.83
350.51	1232.88
350.72	1284.08
350.93	1310.70
351.14	1247.21
351.35	1232.88
351.56	1263.60
351.77	1259.50
351.99	1292.27
352.20	1232.88
352.41	1294.32
352.62	1255.40
352.83	1322.99
353.04	1294.32
353.25	1263.60
353.46	1177.58
353.67	1290.22
353.88	1286.12
354.09	1204.21
354.30	1218.54
354.52	1310.70
354.73	1241.07
354.94	1282.03
355.15	1269.74
355.36	1304.56
355.57	1267.69
355.78	1232.88
355.99	1251.31
356.20	1284.08
356.41	1347.56
356.62	1273.84
356.83	1234.93
357.04	1232.88
357.25	1239.02
357.46	1226.73
357.68	1300.46
357.89	1265.64
358.10	1292.27
358.31	1286.12
358.52	1218.54
358.73	1191.92
358.94	1306.60
359.15	1271.79
359.36	1230.83
359.57	1257.45
359.78	1277.93
359.99	1224.69
360.20	1282.03
360.41	1234.93
360.62	1320.94
360.83	1282.03
361.04	1267.69
361.25	1277.93
361.46	1296.36
361.67	1249.26
361.88	1249.26
362.09	1298.41
362.30	1224.69
362.51	1241.07
362.72	1226.73
362.93	1366.00
363.14	1251.31
363.35	1314.80
363.56	1247.21
363.78	1255.40
363.99	1245.16
364.20	1179.63
364.41	1234.93
364.62	1298.41
364.83	1185.77
365.04	1259.50
365.25	1277.93
365.46	1273.84
365.67	1245.16
365.88	1255.40
366.09	1249.26
366.30	1251.31
366.51	1206.25
366.72	1302.51
366.93	1308.65
367.14	1302.51
367.35	1284.08
367.56	1265.64
367.77	1263.60
367.98	1271.79
368.18	1239.02
368.39	1288.17
368.60	1243.12
368.81	1236.97
369.02	1273.84
369.23	1282.03
369.44	1359.85
369.65	1273.84
369.86	1257.45
370.07	1226.73
370.28	1255.40
370.49	1200.11
370.70	1253.36
370.91	1316.84
371.12	1224.69
371.33	1279.98
371.54	1261.55
371.75	1251.31
371.96	1314.80
372.17	1251.31
372.38	1275.88
372.59	1232.88
372.80	1247.21
373.01	1249.26
373.22	1310.70
373.43	1273.84
373.64	1247.21
373.85	1247.21
374.06	1275.88
374.26	1249.26
374.47	1337.32
374.68	1343.47
374.89	1224.69
375.10	1310.70
375.31	1224.69
375.52	1253.36
375.73	1204.21
375.94	1273.84
376.15	1273.84
376.36	1339.37
376.57	1241.07
376.78	1308.65
376.99	1325.04
377.20	1312.75
377.40	1312.75
377.61	1310.70
377.82	1267.69
378.03	1261.55
378.24	1331.18
378.45	1300.46
378.66	1243.12
378.87	1175.53
379.08	1239.02
379.29	1269.74
379.50	1236.97
379.71	1179.63
379.91	1279.98
380.12	1265.64
380.33	1310.70
380.54	1345.52
380.75	1376.24
380.96	1247.21
381.17	1251.31
381.38	1265.64
381.59	1310.70
381.80	1312.75
382.00	1337.32
382.21	1314.80
382.42	1236.97
382.63	1255.40
382.84	1275.88
383.05	1282.03
383.26	1243.12
383.47	1271.79
383.68	1255.40
383.88	1277.93
384.09	1316.84
384.30	1257.45
384.51	1224.69
384.72	1245.16
384.93	1241.07
385.14	1220.59
385.35	1275.88
385.55	1322.99
385.76	1255.40
385.97	1230.83
386.18	1277.93
386.39	1279.98
386.60	1261.55
386.81	1279.98
387.02	1325.04
387.22	1208.30
387.43	1263.60
387.64	1239.02
387.85	1339.37
388.06	1230.83
388.27	1306.60
388.48	1249.26
388.68	1261.55
388.89	1269.74
389.10	1267.69
389.31	1239.02
389.52	1187.82
389.73	1173.49
389.93	1218.54
390.14	1249.26
390.35	1257.45
390.56	1249.26
390.77	1249.26
390.98	1284.08
391.18	1265.64
391.39	1224.69
391.60	1327.08
391.81	1327.08
392.02	1310.70
392.23	1224.69
392.43	1378.28
392.64	1210.35
392.85	1230.83
393.06	1230.83
393.27	1263.60
393.47	1296.36
393.68	1230.83
393.89	1228.78
394.10	1331.18
394.31	1230.83
394.52	1298.41
394.72	1255.40
394.93	1308.65
395.14	1241.07
395.35	1275.88
395.56	1353.71
395.76	1259.50
395.97	1239.02
396.18	1314.80
396.39	1249.26
396.60	1234.93
396.80	1230.83
397.01	1263.60
397.22	1312.75
397.43	1345.52
397.64	1286.12
397.84	1300.46
398.05	1247.21
398.26	1228.78
398.47	1304.56
398.67	1325.04
398.88	1222.64
399.09	1228.78
399.30	1263.60
399.51	1279.98
399.71	1234.93
399.92	1325.04
400.13	1241.07
400.34	1310.70
400.54	1261.55
400.75	1290.22
400.96	1204.21
401.17	1267.69
401.37	1271.79
401.58	1271.79
401.79	1294.32
402.00	1257.45
402.21	1265.64
402.41	1243.12
402.62	1282.03
402.83	1286.12
403.04	1320.94
403.24	1286.12
403.45	1267.69
403.66	1273.84
403.87	1318.89
404.07	1273.84
404.28	1232.88
404.49	1249.26
404.70	1198.06
404.90	1257.45
405.11	1247.21
405.32	1271.79
405.52	1230.83
405.73	1220.59
405.94	1306.60
406.15	1234.93
406.35	1230.83
406.56	1310.70
406.77	1339.37
406.98	1312.75
407.18	1216.49
407.39	1318.89
407.60	1288.17
407.80	1284.08
408.01	1249.26
408.22	1234.93
408.43	1257.45
408.63	1202.16
408.84	1384.43
409.05	1351.66
409.25	1263.60
409.46	1273.84
409.67	1269.74
409.88	1284.08
410.08	1241.07
410.29	1337.32
410.50	1282.03
410.70	1302.51
410.91	1212.40
411.12	1288.17
411.32	1282.03
411.53	1292.27
411.74	1343.47
411.95	1265.64
412.15	1247.21
412.36	1226.73
412.57	1284.08
412.77	1236.97
412.98	1236.97
413.19	1298.41
413.39	1279.98
413.60	1232.88
413.81	1322.99
414.01	1243.12
414.22	1261.55
414.43	1310.70
414.63	1255.40
414.84	1226.73
415.05	1312.75
415.25	1230.83
415.46	1257.45
415.67	1282.03
415.87	1241.07
416.08	1224.69
416.29	1286.12
416.49	1296.36
416.70	1228.78
416.91	1357.80
417.11	1267.69
417.32	1216.49
417.53	1212.40
417.73	1273.84
417.94	1224.69
418.15	1282.03
418.35	1322.99
418.56	1316.84
418.77	1282.03
418.97	1251.31
419.18	1277.93
419.38	1304.56
419.59	1282.03
419.80	1290.22
420.00	1318.89
420.21	1288.17
420.42	1329.13
420.62	1325.04
420.83	1204.21
421.04	1290.22
421.24	1296.36
421.45	1216.49
421.65	1290.22
421.86	1292.27
422.07	1253.36
422.27	1282.03
422.48	1261.55
422.69	1232.88
422.89	1257.45
423.10	1261.55
423.30	1245.16
423.51	1282.03
423.72	1259.50
423.92	1218.54
424.13	1263.60
424.33	1322.99
424.54	1273.84
424.75	1314.80
424.95	1263.60
425.16	1271.79
425.36	1316.84
425.57	1282.03
425.78	1212.40
425.98	1296.36
426.19	1314.80
426.39	1220.59
426.60	1210.35
426.81	1218.54
427.01	1249.26
427.22	1230.83
427.42	1259.50
427.63	1339.37
427.83	1279.98
428.04	1210.35
428.25	1214.45
428.45	1314.80
428.66	1322.99
428.86	1273.84
429.07	1202.16
429.28	1212.40
429.48	1312.75
429.69	1304.56
429.89	1271.79
430.10	1196.01
430.30	1288.17
430.51	1279.98
430.71	1257.45
430.92	1230.83
431.13	1259.50
431.33	1288.17
431.54	1298.41
431.74	1298.41
431.95	1257.45
432.15	1265.64
432.36	1286.12
432.56	1257.45
432.77	1331.18
432.98	1290.22
433.18	1220.59
433.39	1273.84
433.59	1263.60
433.80	1269.74
434.00	1251.31
434.21	1208.30
434.41	1318.89
434.62	1228.78
434.82	1277.93
435.03	1265.64
435.23	1286.12
435.44	1243.12
435.64	1304.56
435.85	1292.27
436.06	1290.22
436.26	1222.64
436.47	1282.03
436.67	1282.03
436.88	1267.69
437.08	1279.98
437.29	1212.40
437.49	1222.64
437.70	1316.84
437.90	1271.79
438.11	1296.36
438.31	1290.22
438.52	1236.97
438.72	1232.88
438.93	1284.08
439.13	1163.25
439.34	1279.98
439.54	1271.79
439.75	1216.49
439.95	1249.26
440.16	1269.74
440.36	1198.06
440.57	1327.08
440.77	1263.60
440.98	1292.27
441.18	1212.40
441.39	1290.22
441.59	1271.79
441.80	1253.36
442.00	1282.03
442.21	1320.94
442.41	1292.27
442.62	1302.51
442.82	1273.84
443.02	1269.74
443.23	1271.79
443.43	1265.64
443.64	1269.74
443.84	1286.12
444.05	1218.54
444.25	1286.12
444.46	1325.04
444.66	1253.36
444.87	1198.06
445.07	1259.50
445.28	1261.55
445.48	1243.12
445.69	1318.89
445.89	1269.74
446.09	1333.23
446.30	1286.12
446.50	1232.88
446.71	1241.07
446.91	1222.64
447.12	1316.84
447.32	1282.03
447.53	1329.13
447.73	1292.27
447.93	1300.46
448.14	1325.04
448.34	1304.56
448.55	1222.64
448.75	1308.65
448.96	1302.51
449.16	1243.12
449.36	1306.60
449.57	1271.79
449.77	1271.79
449.98	1286.12
450.18	1331.18
450.39	1333.23
450.59	1263.60
450.79	1269.74
451.00	1214.45
451.20	1269.74
451.41	1333.23
451.61	1355.76
451.81	1327.08
452.02	1298.41
452.22	1247.21
452.43	1269.74
452.63	1273.84
