SpectraSuite Data File
++++++++++++++++++++++++++++++++++++
Date: Sun Apr 03 19:55:12 CEST 2016
User: root
Dark Spectrum Present: No
Reference Spectrum Present: No
Number of Sampled Component Spectra: 1
Spectrometers: USB4C02835
Integration Time (usec): 10000 (USB4C02835)
Spectra Averaged: 1 (USB4C02835)
Boxcar Smoothing: 0 (USB4C02835)
Correct for Electrical Dark: No (USB4C02835)
Strobe/Lamp Enabled: No (USB4C02835)
Correct for Detector Non-linearity: No (USB4C02835)
Correct for Stray Light: No (USB4C02835)
Number of Pixels in Processed Spectrum: 3648
>>>>>Begin Processed Spectral Data<<<<<
177.47	1167.34
177.69	1167.34
177.91	1167.34
178.13	1218.54
178.36	1173.49
178.58	1263.60
178.80	1228.78
179.02	1259.50
179.24	1284.08
179.46	1245.16
179.68	1282.03
179.90	1257.45
180.13	1261.55
180.35	1304.56
180.57	1292.27
180.79	1241.07
181.01	1282.03
181.23	1279.98
181.45	1296.36
181.67	1329.13
181.90	1327.08
182.12	1212.40
182.34	1249.26
182.56	1208.30
182.78	1290.22
183.00	1249.26
183.22	1191.92
183.44	1269.74
183.66	1359.85
183.89	1261.55
184.11	1228.78
184.33	1214.45
184.55	1224.69
184.77	1304.56
184.99	1198.06
185.21	1333.23
185.43	1255.40
185.65	1271.79
185.87	1271.79
186.10	1308.65
186.32	1304.56
186.54	1247.21
186.76	1296.36
186.98	1308.65
187.20	1263.60
187.42	1300.46
187.64	1296.36
187.86	1279.98
188.08	1259.50
188.30	1296.36
188.52	1224.69
188.75	1257.45
188.97	1218.54
189.19	1322.99
189.41	1282.03
189.63	1265.64
189.85	1255.40
190.07	1253.36
190.29	1234.93
190.51	1263.60
190.73	1224.69
190.95	1302.51
191.17	1249.26
191.39	1155.05
191.61	1251.31
191.84	1263.60
192.06	1269.74
192.28	1263.60
192.50	1318.89
192.72	1249.26
192.94	1310.70
193.16	1271.79
193.38	1269.74
193.60	1228.78
193.82	1275.88
194.04	1253.36
194.26	1290.22
194.48	1243.12
194.70	1263.60
194.92	1267.69
195.14	1269.74
195.36	1239.02
195.58	1263.60
195.80	1241.07
196.02	1271.79
196.24	1249.26
196.46	1279.98
196.69	1259.50
196.91	1351.66
197.13	1259.50
197.35	1265.64
197.57	1243.12
197.79	1290.22
198.01	1273.84
198.23	1316.84
198.45	1257.45
198.67	1275.88
198.89	1275.88
199.11	1230.83
199.33	1304.56
199.55	1230.83
199.77	1282.03
199.99	1253.36
200.21	1259.50
200.43	1247.21
200.65	1284.08
200.87	1265.64
201.09	1218.54
201.31	1271.79
201.53	1316.84
201.75	1271.79
201.97	1255.40
202.19	1312.75
202.41	1196.01
202.63	1212.40
202.85	1273.84
203.07	1286.12
203.29	1273.84
203.51	1325.04
203.73	1259.50
203.95	1322.99
204.17	1325.04
204.39	1282.03
204.61	1325.04
204.83	1241.07
205.05	1294.32
205.27	1255.40
205.49	1234.93
205.71	1339.37
205.93	1331.18
206.15	1216.49
206.37	1261.55
206.59	1257.45
206.81	1247.21
207.03	1286.12
207.25	1298.41
207.47	1202.16
207.69	1257.45
207.91	1329.13
208.13	1290.22
208.34	1300.46
208.56	1220.59
208.78	1288.17
209.00	1290.22
209.22	1318.89
209.44	1267.69
209.66	1181.68
209.88	1226.73
210.10	1267.69
210.32	1282.03
210.54	1318.89
210.76	1273.84
210.98	1261.55
211.20	1290.22
211.42	1230.83
211.64	1212.40
211.86	1316.84
212.08	1210.35
212.30	1243.12
212.52	1210.35
212.74	1318.89
212.96	1273.84
213.17	1273.84
213.39	1345.52
213.61	1255.40
213.83	1263.60
214.05	1279.98
214.27	1251.31
214.49	1228.78
214.71	1214.45
214.93	1245.16
215.15	1294.32
215.37	1224.69
215.59	1196.01
215.81	1232.88
216.03	1245.16
216.24	1249.26
216.46	1255.40
216.68	1183.73
216.90	1218.54
217.12	1292.27
217.34	1265.64
217.56	1259.50
217.78	1271.79
218.00	1247.21
218.22	1267.69
218.44	1206.25
218.66	1214.45
218.87	1236.97
219.09	1259.50
219.31	1304.56
219.53	1329.13
219.75	1294.32
219.97	1255.40
220.19	1218.54
220.41	1208.30
220.63	1224.69
220.85	1312.75
221.06	1241.07
221.28	1222.64
221.50	1234.93
221.72	1263.60
221.94	1261.55
222.16	1265.64
222.38	1353.71
222.60	1275.88
222.82	1271.79
223.03	1259.50
223.25	1337.32
223.47	1275.88
223.69	1273.84
223.91	1249.26
224.13	1230.83
224.35	1284.08
224.57	1312.75
224.78	1267.69
225.00	1282.03
225.22	1273.84
225.44	1269.74
225.66	1265.64
225.88	1282.03
226.10	1312.75
226.32	1282.03
226.53	1294.32
226.75	1322.99
226.97	1271.79
227.19	1239.02
227.41	1239.02
227.63	1267.69
227.85	1294.32
228.06	1239.02
228.28	1286.12
228.50	1239.02
228.72	1296.36
228.94	1245.16
229.16	1228.78
229.37	1277.93
229.59	1257.45
229.81	1230.83
230.03	1296.36
230.25	1380.33
230.47	1273.84
230.69	1249.26
230.90	1220.59
231.12	1261.55
231.34	1298.41
231.56	1277.93
231.78	1277.93
232.00	1288.17
232.21	1255.40
232.43	1247.21
232.65	1247.21
232.87	1327.08
233.09	1314.80
233.30	1236.97
233.52	1239.02
233.74	1251.31
233.96	1263.60
234.18	1363.95
234.40	1277.93
234.61	1259.50
234.83	1263.60
235.05	1263.60
235.27	1314.80
235.49	1353.71
235.70	1263.60
235.92	1232.88
236.14	1288.17
236.36	1327.08
236.58	1292.27
236.79	1269.74
237.01	1273.84
237.23	1333.23
237.45	1243.12
237.67	1257.45
237.88	1243.12
238.10	1247.21
238.32	1214.45
238.54	1304.56
238.76	1196.01
238.97	1271.79
239.19	1259.50
239.41	1282.03
239.63	1265.64
239.85	1286.12
240.06	1320.94
240.28	1271.79
240.50	1294.32
240.72	1263.60
240.93	1290.22
241.15	1263.60
241.37	1198.06
241.59	1241.07
241.81	1265.64
242.02	1269.74
242.24	1204.21
242.46	1275.88
242.68	1249.26
242.89	1271.79
243.11	1234.93
243.33	1300.46
243.55	1273.84
243.76	1279.98
243.98	1234.93
244.20	1275.88
244.42	1263.60
244.64	1275.88
244.85	1294.32
245.07	1212.40
245.29	1245.16
245.51	1298.41
245.72	1253.36
245.94	1243.12
246.16	1288.17
246.38	1265.64
246.59	1255.40
246.81	1277.93
247.03	1337.32
247.24	1288.17
247.46	1236.97
247.68	1322.99
247.90	1265.64
248.11	1249.26
248.33	1292.27
248.55	1290.22
248.77	1218.54
248.98	1234.93
249.20	1196.01
249.42	1263.60
249.64	1269.74
249.85	1337.32
250.07	1327.08
250.29	1245.16
250.50	1187.82
250.72	1263.60
250.94	1261.55
251.16	1230.83
251.37	1341.42
251.59	1210.35
251.81	1251.31
252.02	1226.73
252.24	1273.84
252.46	1298.41
252.68	1275.88
252.89	1271.79
253.11	1279.98
253.33	1249.26
253.54	1261.55
253.76	1234.93
253.98	1257.45
254.20	1232.88
254.41	1271.79
254.63	1333.23
254.85	1325.04
255.06	1214.45
255.28	1282.03
255.50	1282.03
255.71	1249.26
255.93	1290.22
256.15	1245.16
256.36	1218.54
256.58	1273.84
256.80	1343.47
257.02	1245.16
257.23	1185.77
257.45	1271.79
257.67	1292.27
257.88	1267.69
258.10	1312.75
258.32	1265.64
258.53	1249.26
258.75	1204.21
258.97	1218.54
259.18	1286.12
259.40	1263.60
259.62	1263.60
259.83	1183.73
260.05	1214.45
260.27	1236.97
260.48	1249.26
260.70	1320.94
260.92	1353.71
261.13	1322.99
261.35	1234.93
261.57	1288.17
261.78	1249.26
262.00	1271.79
262.22	1273.84
262.43	1241.07
262.65	1269.74
262.86	1216.49
263.08	1171.44
263.30	1265.64
263.51	1284.08
263.73	1212.40
263.95	1249.26
264.16	1230.83
264.38	1212.40
264.60	1322.99
264.81	1232.88
265.03	1265.64
265.25	1183.73
265.46	1222.64
265.68	1279.98
265.89	1255.40
266.11	1261.55
266.33	1257.45
266.54	1261.55
266.76	1243.12
266.98	1234.93
267.19	1314.80
267.41	1275.88
267.62	1304.56
267.84	1191.92
268.06	1210.35
268.27	1267.69
268.49	1263.60
268.70	1351.66
268.92	1253.36
269.14	1265.64
269.35	1308.65
269.57	1312.75
269.79	1249.26
270.00	1261.55
270.22	1279.98
270.43	1308.65
270.65	1267.69
270.87	1261.55
271.08	1271.79
271.30	1202.16
271.51	1329.13
271.73	1232.88
271.95	1329.13
272.16	1222.64
272.38	1282.03
272.59	1257.45
272.81	1249.26
273.02	1218.54
273.24	1314.80
273.46	1331.18
273.67	1265.64
273.89	1200.11
274.10	1249.26
274.32	1345.52
274.54	1306.60
274.75	1265.64
274.97	1208.30
275.18	1310.70
275.40	1220.59
275.61	1265.64
275.83	1214.45
276.05	1253.36
276.26	1267.69
276.48	1251.31
276.69	1333.23
276.91	1273.84
277.12	1284.08
277.34	1218.54
277.55	1294.32
277.77	1294.32
277.99	1282.03
278.20	1337.32
278.42	1210.35
278.63	1322.99
278.85	1269.74
279.06	1232.88
279.28	1257.45
279.49	1337.32
279.71	1282.03
279.93	1349.61
280.14	1312.75
280.36	1255.40
280.57	1271.79
280.79	1261.55
281.00	1288.17
281.22	1306.60
281.43	1257.45
281.65	1191.92
281.86	1279.98
282.08	1210.35
282.29	1296.36
282.51	1206.25
282.73	1343.47
282.94	1265.64
283.16	1226.73
283.37	1214.45
283.59	1296.36
283.80	1228.78
284.02	1277.93
284.23	1271.79
284.45	1273.84
284.66	1189.87
284.88	1243.12
285.09	1298.41
285.31	1257.45
285.52	1282.03
285.74	1224.69
285.95	1277.93
286.17	1257.45
286.38	1253.36
286.60	1304.56
286.81	1212.40
287.03	1269.74
287.24	1314.80
287.46	1298.41
287.67	1230.83
287.89	1200.11
288.10	1267.69
288.32	1286.12
288.53	1279.98
288.75	1316.84
288.96	1337.32
289.18	1257.45
289.39	1318.89
289.61	1304.56
289.82	1187.82
290.04	1255.40
290.25	1226.73
290.47	1290.22
290.68	1308.65
290.90	1220.59
291.11	1175.53
291.33	1275.88
291.54	1302.51
291.76	1277.93
291.97	1259.50
292.18	1257.45
292.40	1243.12
292.61	1257.45
292.83	1212.40
293.04	1249.26
293.26	1267.69
293.47	1206.25
293.69	1273.84
293.90	1314.80
294.12	1308.65
294.33	1292.27
294.55	1236.97
294.76	1249.26
294.97	1200.11
295.19	1286.12
295.40	1292.27
295.62	1253.36
295.83	1236.97
296.05	1257.45
296.26	1202.16
296.48	1257.45
296.69	1228.78
296.90	1292.27
297.12	1234.93
297.33	1308.65
297.55	1314.80
297.76	1249.26
297.98	1392.62
298.19	1277.93
298.41	1253.36
298.62	1337.32
298.83	1351.66
299.05	1259.50
299.26	1228.78
299.48	1265.64
299.69	1361.90
299.90	1310.70
300.12	1255.40
300.33	1275.88
300.55	1269.74
300.76	1310.70
300.98	1316.84
301.19	1282.03
301.40	1298.41
301.62	1343.47
301.83	1243.12
302.05	1314.80
302.26	1290.22
302.47	1253.36
302.69	1351.66
302.90	1304.56
303.12	1236.97
303.33	1347.56
303.54	1312.75
303.76	1351.66
303.97	1216.49
304.19	1331.18
304.40	1265.64
304.61	1337.32
304.83	1284.08
305.04	1216.49
305.26	1269.74
305.47	1275.88
305.68	1318.89
305.90	1312.75
306.11	1320.94
306.33	1224.69
306.54	1251.31
306.75	1239.02
306.97	1286.12
307.18	1288.17
307.39	1284.08
307.61	1253.36
307.82	1216.49
308.04	1288.17
308.25	1183.73
308.46	1269.74
308.68	1257.45
308.89	1251.31
309.10	1298.41
309.32	1275.88
309.53	1304.56
309.74	1243.12
309.96	1243.12
310.17	1263.60
310.39	1245.16
310.60	1202.16
310.81	1255.40
311.03	1249.26
311.24	1288.17
311.45	1208.30
311.67	1345.52
311.88	1312.75
312.09	1214.45
312.31	1269.74
312.52	1296.36
312.73	1187.82
312.95	1290.22
313.16	1261.55
313.37	1212.40
313.59	1253.36
313.80	1232.88
314.01	1298.41
314.23	1216.49
314.44	1294.32
314.65	1189.87
314.87	1200.11
315.08	1202.16
315.29	1318.89
315.51	1249.26
315.72	1265.64
315.93	1298.41
316.15	1286.12
316.36	1333.23
316.57	1279.98
316.79	1308.65
317.00	1232.88
317.21	1230.83
317.43	1329.13
317.64	1296.36
317.85	1318.89
318.07	1292.27
318.28	1249.26
318.49	1290.22
318.70	1239.02
318.92	1271.79
319.13	1294.32
319.34	1243.12
319.56	1239.02
319.77	1204.21
319.98	1322.99
320.20	1218.54
320.41	1230.83
320.62	1355.76
320.83	1224.69
321.05	1331.18
321.26	1271.79
321.47	1226.73
321.69	1302.51
321.90	1263.60
322.11	1333.23
322.32	1208.30
322.54	1255.40
322.75	1218.54
322.96	1259.50
323.18	1236.97
323.39	1253.36
323.60	1241.07
323.81	1282.03
324.03	1228.78
324.24	1298.41
324.45	1306.60
324.66	1232.88
324.88	1271.79
325.09	1310.70
325.30	1271.79
325.52	1236.97
325.73	1290.22
325.94	1202.16
326.15	1234.93
326.37	1257.45
326.58	1263.60
326.79	1302.51
327.00	1304.56
327.22	1310.70
327.43	1228.78
327.64	1247.21
327.85	1191.92
328.07	1304.56
328.28	1179.63
328.49	1282.03
328.70	1282.03
328.92	1251.31
329.13	1263.60
329.34	1232.88
329.55	1286.12
329.76	1304.56
329.98	1230.83
330.19	1236.97
330.40	1191.92
330.61	1304.56
330.83	1288.17
331.04	1286.12
331.25	1275.88
331.46	1306.60
331.68	1196.01
331.89	1310.70
332.10	1253.36
332.31	1286.12
332.52	1290.22
332.74	1239.02
332.95	1191.92
333.16	1249.26
333.37	1306.60
333.58	1320.94
333.80	1282.03
334.01	1232.88
334.22	1236.97
334.43	1214.45
334.64	1253.36
334.86	1259.50
335.07	1230.83
335.28	1265.64
335.49	1243.12
335.70	1226.73
335.92	1312.75
336.13	1290.22
336.34	1216.49
336.55	1259.50
336.76	1273.84
336.98	1298.41
337.19	1271.79
337.40	1222.64
337.61	1273.84
337.82	1245.16
338.04	1312.75
338.25	1230.83
338.46	1325.04
338.67	1275.88
338.88	1271.79
339.09	1286.12
339.31	1253.36
339.52	1298.41
339.73	1259.50
339.94	1304.56
340.15	1265.64
340.36	1325.04
340.58	1265.64
340.79	1284.08
341.00	1282.03
341.21	1288.17
341.42	1228.78
341.63	1363.95
341.85	1177.58
342.06	1279.98
342.27	1331.18
342.48	1230.83
342.69	1226.73
342.90	1257.45
343.12	1331.18
343.33	1292.27
343.54	1273.84
343.75	1282.03
343.96	1271.79
344.17	1249.26
344.38	1318.89
344.60	1277.93
344.81	1255.40
345.02	1327.08
345.23	1302.51
345.44	1245.16
345.65	1243.12
345.86	1288.17
346.07	1263.60
346.29	1263.60
346.50	1310.70
346.71	1290.22
346.92	1243.12
347.13	1273.84
347.34	1257.45
347.55	1259.50
347.76	1263.60
347.98	1202.16
348.19	1312.75
348.40	1261.55
348.61	1245.16
348.82	1257.45
349.03	1282.03
349.24	1269.74
349.45	1249.26
349.66	1230.83
349.88	1224.69
350.09	1249.26
350.30	1318.89
350.51	1282.03
350.72	1193.97
350.93	1226.73
351.14	1302.51
351.35	1249.26
351.56	1257.45
351.77	1222.64
351.99	1306.60
352.20	1343.47
352.41	1320.94
352.62	1288.17
352.83	1284.08
353.04	1271.79
353.25	1241.07
353.46	1257.45
353.67	1245.16
353.88	1322.99
354.09	1251.31
354.30	1241.07
354.52	1257.45
354.73	1183.73
354.94	1351.66
355.15	1257.45
355.36	1245.16
355.57	1249.26
355.78	1232.88
355.99	1202.16
356.20	1310.70
356.41	1239.02
356.62	1171.44
356.83	1290.22
357.04	1259.50
357.25	1247.21
357.46	1347.56
357.68	1183.73
357.89	1230.83
358.10	1320.94
358.31	1169.39
358.52	1271.79
358.73	1263.60
358.94	1310.70
359.15	1253.36
359.36	1257.45
359.57	1284.08
359.78	1339.37
359.99	1196.01
360.20	1228.78
360.41	1255.40
360.62	1226.73
360.83	1259.50
361.04	1271.79
361.25	1310.70
361.46	1288.17
361.67	1284.08
361.88	1279.98
362.09	1271.79
362.30	1320.94
362.51	1294.32
362.72	1286.12
362.93	1245.16
363.14	1331.18
363.35	1228.78
363.56	1304.56
363.78	1271.79
363.99	1300.46
364.20	1245.16
364.41	1337.32
364.62	1265.64
364.83	1228.78
365.04	1277.93
365.25	1282.03
365.46	1269.74
365.67	1279.98
365.88	1220.59
366.09	1265.64
366.30	1208.30
366.51	1230.83
366.72	1320.94
366.93	1296.36
367.14	1298.41
367.35	1265.64
367.56	1275.88
367.77	1292.27
367.98	1275.88
368.18	1224.69
368.39	1314.80
368.60	1277.93
368.81	1275.88
369.02	1279.98
369.23	1343.47
369.44	1218.54
369.65	1308.65
369.86	1292.27
370.07	1251.31
370.28	1271.79
370.49	1216.49
370.70	1318.89
370.91	1249.26
371.12	1253.36
371.33	1296.36
371.54	1277.93
371.75	1214.45
371.96	1292.27
372.17	1335.28
372.38	1249.26
372.59	1212.40
372.80	1290.22
373.01	1220.59
373.22	1167.34
373.43	1263.60
373.64	1290.22
373.85	1351.66
374.06	1257.45
374.26	1275.88
374.47	1290.22
374.68	1263.60
374.89	1261.55
375.10	1302.51
375.31	1314.80
375.52	1247.21
375.73	1265.64
375.94	1239.02
376.15	1273.84
376.36	1175.53
376.57	1388.52
376.78	1220.59
376.99	1298.41
377.20	1329.13
377.40	1265.64
377.61	1269.74
377.82	1288.17
378.03	1318.89
378.24	1257.45
378.45	1247.21
378.66	1232.88
378.87	1187.82
379.08	1314.80
379.29	1267.69
379.50	1314.80
379.71	1286.12
379.91	1279.98
380.12	1241.07
380.33	1284.08
380.54	1216.49
380.75	1228.78
380.96	1312.75
381.17	1263.60
381.38	1275.88
381.59	1234.93
381.80	1316.84
382.00	1359.85
382.21	1279.98
382.42	1294.32
382.63	1275.88
382.84	1277.93
383.05	1255.40
383.26	1189.87
383.47	1255.40
383.68	1216.49
383.88	1249.26
384.09	1241.07
384.30	1253.36
384.51	1310.70
384.72	1339.37
384.93	1230.83
385.14	1251.31
385.35	1331.18
385.55	1282.03
385.76	1298.41
385.97	1265.64
386.18	1292.27
386.39	1251.31
386.60	1271.79
386.81	1288.17
387.02	1222.64
387.22	1261.55
387.43	1273.84
387.64	1279.98
387.85	1273.84
388.06	1296.36
388.27	1271.79
388.48	1286.12
388.68	1308.65
388.89	1247.21
389.10	1249.26
389.31	1286.12
389.52	1259.50
389.73	1249.26
389.93	1269.74
390.14	1253.36
390.35	1271.79
390.56	1236.97
390.77	1279.98
390.98	1259.50
391.18	1277.93
391.39	1257.45
391.60	1212.40
391.81	1253.36
392.02	1294.32
392.23	1282.03
392.43	1277.93
392.64	1273.84
392.85	1220.59
393.06	1286.12
393.27	1271.79
393.47	1232.88
393.68	1282.03
393.89	1316.84
394.10	1263.60
394.31	1284.08
394.52	1282.03
394.72	1159.15
394.93	1343.47
395.14	1298.41
395.35	1204.21
395.56	1255.40
395.76	1261.55
395.97	1308.65
396.18	1282.03
396.39	1312.75
396.60	1269.74
396.80	1228.78
397.01	1259.50
397.22	1175.53
397.43	1216.49
397.64	1247.21
397.84	1275.88
398.05	1204.21
398.26	1259.50
398.47	1183.73
398.67	1255.40
398.88	1257.45
399.09	1249.26
399.30	1220.59
399.51	1296.36
399.71	1245.16
399.92	1341.42
400.13	1214.45
400.34	1284.08
400.54	1247.21
400.75	1273.84
400.96	1212.40
401.17	1282.03
401.37	1202.16
401.58	1271.79
401.79	1202.16
402.00	1249.26
402.21	1310.70
402.41	1320.94
402.62	1261.55
402.83	1277.93
403.04	1257.45
403.24	1269.74
403.45	1228.78
403.66	1290.22
403.87	1284.08
404.07	1333.23
404.28	1232.88
404.49	1329.13
404.70	1263.60
404.90	1353.71
405.11	1265.64
405.32	1320.94
405.52	1210.35
405.73	1261.55
405.94	1257.45
406.15	1275.88
406.35	1257.45
406.56	1316.84
406.77	1200.11
406.98	1308.65
407.18	1230.83
407.39	1296.36
407.60	1320.94
407.80	1224.69
408.01	1236.97
408.22	1310.70
408.43	1216.49
408.63	1247.21
408.84	1298.41
409.05	1224.69
409.25	1247.21
409.46	1226.73
409.67	1257.45
409.88	1247.21
410.08	1290.22
410.29	1263.60
410.50	1257.45
410.70	1296.36
410.91	1273.84
411.12	1331.18
411.32	1245.16
411.53	1228.78
411.74	1257.45
411.95	1308.65
412.15	1249.26
412.36	1267.69
412.57	1224.69
412.77	1226.73
412.98	1308.65
413.19	1216.49
413.39	1329.13
413.60	1214.45
413.81	1183.73
414.01	1325.04
414.22	1218.54
414.43	1325.04
414.63	1265.64
414.84	1265.64
415.05	1269.74
415.25	1206.25
415.46	1245.16
415.67	1249.26
415.87	1286.12
416.08	1214.45
416.29	1226.73
416.49	1310.70
416.70	1265.64
416.91	1204.21
417.11	1325.04
417.32	1329.13
417.53	1345.52
417.73	1267.69
417.94	1245.16
418.15	1249.26
418.35	1249.26
418.56	1265.64
418.77	1259.50
418.97	1253.36
419.18	1206.25
419.38	1288.17
419.59	1288.17
419.80	1292.27
420.00	1302.51
420.21	1279.98
420.42	1257.45
420.62	1288.17
420.83	1239.02
421.04	1359.85
421.24	1261.55
421.45	1234.93
421.65	1247.21
421.86	1251.31
422.07	1271.79
422.27	1208.30
422.48	1353.71
422.69	1288.17
422.89	1253.36
423.10	1214.45
423.30	1206.25
423.51	1322.99
423.72	1396.71
423.92	1298.41
424.13	1191.92
424.33	1288.17
424.54	1282.03
424.75	1275.88
424.95	1286.12
425.16	1253.36
425.36	1245.16
425.57	1253.36
425.78	1236.97
425.98	1271.79
426.19	1269.74
426.39	1247.21
426.60	1271.79
426.81	1327.08
427.01	1234.93
427.22	1261.55
427.42	1322.99
427.63	1300.46
427.83	1318.89
428.04	1251.31
428.25	1290.22
428.45	1251.31
428.66	1363.95
428.86	1292.27
429.07	1312.75
429.28	1228.78
429.48	1236.97
429.69	1234.93
429.89	1265.64
430.10	1298.41
430.30	1206.25
430.51	1298.41
430.71	1277.93
430.92	1265.64
431.13	1259.50
431.33	1304.56
431.54	1265.64
431.74	1290.22
431.95	1290.22
432.15	1337.32
432.36	1357.80
432.56	1255.40
432.77	1282.03
432.98	1314.80
433.18	1290.22
433.39	1263.60
433.59	1331.18
433.80	1228.78
434.00	1247.21
434.21	1273.84
434.41	1263.60
434.62	1259.50
434.82	1169.39
435.03	1275.88
435.23	1292.27
435.44	1247.21
435.64	1277.93
435.85	1232.88
436.06	1241.07
436.26	1282.03
436.47	1273.84
436.67	1193.97
436.88	1335.28
437.08	1255.40
437.29	1214.45
437.49	1241.07
437.70	1296.36
437.90	1284.08
438.11	1331.18
438.31	1251.31
438.52	1271.79
438.72	1345.52
438.93	1208.30
439.13	1290.22
439.34	1181.68
439.54	1306.60
439.75	1282.03
439.95	1288.17
440.16	1243.12
440.36	1294.32
440.57	1265.64
440.77	1292.27
440.98	1198.06
441.18	1292.27
441.39	1282.03
441.59	1257.45
441.80	1339.37
442.00	1269.74
442.21	1259.50
442.41	1331.18
442.62	1318.89
442.82	1230.83
443.02	1226.73
443.23	1273.84
443.43	1216.49
443.64	1282.03
443.84	1312.75
444.05	1251.31
444.25	1241.07
444.46	1224.69
444.66	1239.02
444.87	1257.45
445.07	1187.82
445.28	1245.16
445.48	1239.02
445.69	1241.07
445.89	1290.22
446.09	1300.46
446.30	1304.56
446.50	1318.89
446.71	1286.12
446.91	1263.60
447.12	1331.18
447.32	1241.07
447.53	1255.40
447.73	1273.84
447.93	1249.26
448.14	1212.40
448.34	1339.37
448.55	1286.12
448.75	1374.19
448.96	1294.32
449.16	1275.88
449.36	1286.12
449.57	1163.25
449.77	1304.56
449.98	1294.32
450.18	1282.03
450.39	1363.95
450.59	1374.19
450.79	1320.94
451.00	1290.22
451.20	1200.11
451.41	1288.17
451.61	1312.75
451.81	1302.51
452.02	1314.80
452.22	1335.28
452.43	1298.41
452.63	1255.40
