SpectraSuite Data File
++++++++++++++++++++++++++++++++++++
Date: Sun Apr 03 19:55:52 CEST 2016
User: root
Dark Spectrum Present: No
Reference Spectrum Present: No
Number of Sampled Component Spectra: 1
Spectrometers: USB4C02835
Integration Time (usec): 10000 (USB4C02835)
Spectra Averaged: 1 (USB4C02835)
Boxcar Smoothing: 0 (USB4C02835)
Correct for Electrical Dark: No (USB4C02835)
Strobe/Lamp Enabled: No (USB4C02835)
Correct for Detector Non-linearity: No (USB4C02835)
Correct for Stray Light: No (USB4C02835)
Number of Pixels in Processed Spectrum: 3648
>>>>>Begin Processed Spectral Data<<<<<
177.47	1200.11
177.69	1200.11
177.91	1200.11
178.13	1191.92
178.36	1218.54
178.58	1249.26
178.80	1257.45
179.02	1247.21
179.24	1302.51
179.46	1247.21
179.68	1249.26
179.90	1296.36
180.13	1181.68
180.35	1200.11
180.57	1290.22
180.79	1292.27
181.01	1263.60
181.23	1220.59
181.45	1310.70
181.67	1271.79
181.90	1226.73
182.12	1257.45
182.34	1263.60
182.56	1273.84
182.78	1241.07
183.00	1294.32
183.22	1206.25
183.44	1216.49
183.66	1255.40
183.89	1249.26
184.11	1273.84
184.33	1263.60
184.55	1277.93
184.77	1239.02
184.99	1292.27
185.21	1310.70
185.43	1331.18
185.65	1286.12
185.87	1261.55
186.10	1273.84
186.32	1241.07
186.54	1247.21
186.76	1347.56
186.98	1271.79
187.20	1263.60
187.42	1253.36
187.64	1267.69
187.86	1212.40
188.08	1279.98
188.30	1271.79
188.52	1308.65
188.75	1228.78
188.97	1257.45
189.19	1220.59
189.41	1255.40
189.63	1247.21
189.85	1267.69
190.07	1292.27
190.29	1251.31
190.51	1247.21
190.73	1273.84
190.95	1228.78
191.17	1347.56
191.39	1253.36
191.61	1257.45
191.84	1271.79
192.06	1306.60
192.28	1224.69
192.50	1349.61
192.72	1239.02
192.94	1257.45
193.16	1294.32
193.38	1181.68
193.60	1245.16
193.82	1306.60
194.04	1275.88
194.26	1255.40
194.48	1302.51
194.70	1239.02
194.92	1245.16
195.14	1243.12
195.36	1239.02
195.58	1304.56
195.80	1308.65
196.02	1363.95
196.24	1288.17
196.46	1202.16
196.69	1245.16
196.91	1288.17
197.13	1288.17
197.35	1351.66
197.57	1210.35
197.79	1265.64
198.01	1331.18
198.23	1277.93
198.45	1224.69
198.67	1320.94
198.89	1300.46
199.11	1257.45
199.33	1181.68
199.55	1255.40
199.77	1302.51
199.99	1216.49
200.21	1239.02
200.43	1216.49
200.65	1271.79
200.87	1275.88
201.09	1212.40
201.31	1292.27
201.53	1243.12
201.75	1306.60
201.97	1273.84
202.19	1259.50
202.41	1249.26
202.63	1243.12
202.85	1349.61
203.07	1302.51
203.29	1255.40
203.51	1255.40
203.73	1245.16
203.95	1284.08
204.17	1288.17
204.39	1196.01
204.61	1290.22
204.83	1265.64
205.05	1277.93
205.27	1282.03
205.49	1304.56
205.71	1282.03
205.93	1232.88
206.15	1261.55
206.37	1222.64
206.59	1279.98
206.81	1286.12
207.03	1322.99
207.25	1355.76
207.47	1251.31
207.69	1261.55
207.91	1181.68
208.13	1304.56
208.34	1249.26
208.56	1296.36
208.78	1288.17
209.00	1282.03
209.22	1298.41
209.44	1282.03
209.66	1314.80
209.88	1234.93
210.10	1263.60
210.32	1314.80
210.54	1310.70
210.76	1236.97
210.98	1312.75
211.20	1212.40
211.42	1251.31
211.64	1255.40
211.86	1302.51
212.08	1312.75
212.30	1257.45
212.52	1241.07
212.74	1294.32
212.96	1247.21
213.17	1277.93
213.39	1210.35
213.61	1298.41
213.83	1239.02
214.05	1284.08
214.27	1312.75
214.49	1282.03
214.71	1245.16
214.93	1232.88
215.15	1337.32
215.37	1241.07
215.59	1273.84
215.81	1208.30
216.03	1243.12
216.24	1222.64
216.46	1224.69
216.68	1314.80
216.90	1269.74
217.12	1171.44
217.34	1269.74
217.56	1292.27
217.78	1267.69
218.00	1290.22
218.22	1279.98
218.44	1277.93
218.66	1277.93
218.87	1269.74
219.09	1265.64
219.31	1255.40
219.53	1175.53
219.75	1294.32
219.97	1216.49
220.19	1302.51
220.41	1222.64
220.63	1265.64
220.85	1222.64
221.06	1255.40
221.28	1249.26
221.50	1263.60
221.72	1316.84
221.94	1273.84
222.16	1298.41
222.38	1290.22
222.60	1288.17
222.82	1275.88
223.03	1279.98
223.25	1286.12
223.47	1337.32
223.69	1265.64
223.91	1261.55
224.13	1294.32
224.35	1241.07
224.57	1247.21
224.78	1302.51
225.00	1320.94
225.22	1239.02
225.44	1247.21
225.66	1300.46
225.88	1284.08
226.10	1286.12
226.32	1261.55
226.53	1185.77
226.75	1343.47
226.97	1245.16
227.19	1257.45
227.41	1222.64
227.63	1296.36
227.85	1224.69
228.06	1253.36
228.28	1249.26
228.50	1228.78
228.72	1269.74
228.94	1282.03
229.16	1247.21
229.37	1247.21
229.59	1308.65
229.81	1255.40
230.03	1331.18
230.25	1206.25
230.47	1296.36
230.69	1279.98
230.90	1259.50
231.12	1218.54
231.34	1243.12
231.56	1224.69
231.78	1265.64
232.00	1265.64
232.21	1193.97
232.43	1359.85
232.65	1179.63
232.87	1267.69
233.09	1222.64
233.30	1284.08
233.52	1261.55
233.74	1249.26
233.96	1261.55
234.18	1265.64
234.40	1329.13
234.61	1302.51
234.83	1214.45
235.05	1220.59
235.27	1279.98
235.49	1345.52
235.70	1314.80
235.92	1255.40
236.14	1292.27
236.36	1292.27
236.58	1236.97
236.79	1279.98
237.01	1275.88
237.23	1216.49
237.45	1253.36
237.67	1284.08
237.88	1290.22
238.10	1353.71
238.32	1269.74
238.54	1239.02
238.76	1275.88
238.97	1294.32
239.19	1247.21
239.41	1275.88
239.63	1327.08
239.85	1171.44
240.06	1288.17
240.28	1284.08
240.50	1298.41
240.72	1228.78
240.93	1236.97
241.15	1300.46
241.37	1210.35
241.59	1202.16
241.81	1220.59
242.02	1267.69
242.24	1284.08
242.46	1302.51
242.68	1292.27
242.89	1282.03
243.11	1198.06
243.33	1216.49
243.55	1263.60
243.76	1228.78
243.98	1310.70
244.20	1212.40
244.42	1200.11
244.64	1277.93
244.85	1234.93
245.07	1234.93
245.29	1267.69
245.51	1230.83
245.72	1275.88
245.94	1271.79
246.16	1282.03
246.38	1292.27
246.59	1271.79
246.81	1273.84
247.03	1273.84
247.24	1259.50
247.46	1294.32
247.68	1239.02
247.90	1263.60
248.11	1269.74
248.33	1300.46
248.55	1189.87
248.77	1277.93
248.98	1286.12
249.20	1232.88
249.42	1265.64
249.64	1310.70
249.85	1325.04
250.07	1243.12
250.29	1273.84
250.50	1251.31
250.72	1316.84
250.94	1243.12
251.16	1263.60
251.37	1306.60
251.59	1325.04
251.81	1314.80
252.02	1302.51
252.24	1198.06
252.46	1236.97
252.68	1341.42
252.89	1218.54
253.11	1261.55
253.33	1253.36
253.54	1251.31
253.76	1271.79
253.98	1333.23
254.20	1216.49
254.41	1255.40
254.63	1279.98
254.85	1261.55
255.06	1312.75
255.28	1218.54
255.50	1243.12
255.71	1228.78
255.93	1288.17
256.15	1210.35
256.36	1310.70
256.58	1259.50
256.80	1271.79
257.02	1267.69
257.23	1329.13
257.45	1302.51
257.67	1314.80
257.88	1347.56
258.10	1284.08
258.32	1290.22
258.53	1308.65
258.75	1208.30
258.97	1298.41
259.18	1316.84
259.40	1310.70
259.62	1273.84
259.83	1261.55
260.05	1163.25
260.27	1265.64
260.48	1191.92
260.70	1273.84
260.92	1265.64
261.13	1335.28
261.35	1349.61
261.57	1239.02
261.78	1247.21
262.00	1320.94
262.22	1206.25
262.43	1267.69
262.65	1325.04
262.86	1241.07
263.08	1306.60
263.30	1241.07
263.51	1300.46
263.73	1306.60
263.95	1265.64
264.16	1300.46
264.38	1239.02
264.60	1210.35
264.81	1249.26
265.03	1288.17
265.25	1239.02
265.46	1275.88
265.68	1282.03
265.89	1296.36
266.11	1275.88
266.33	1191.92
266.54	1312.75
266.76	1210.35
266.98	1300.46
267.19	1314.80
267.41	1251.31
267.62	1224.69
267.84	1273.84
268.06	1269.74
268.27	1298.41
268.49	1241.07
268.70	1273.84
268.92	1222.64
269.14	1255.40
269.35	1255.40
269.57	1290.22
269.79	1312.75
270.00	1224.69
270.22	1292.27
270.43	1216.49
270.65	1294.32
270.87	1279.98
271.08	1271.79
271.30	1239.02
271.51	1282.03
271.73	1257.45
271.95	1345.52
272.16	1226.73
272.38	1304.56
272.59	1284.08
272.81	1251.31
273.02	1232.88
273.24	1247.21
273.46	1247.21
273.67	1251.31
273.89	1282.03
274.10	1292.27
274.32	1249.26
274.54	1204.21
274.75	1241.07
274.97	1282.03
275.18	1191.92
275.40	1255.40
275.61	1228.78
275.83	1284.08
276.05	1198.06
276.26	1265.64
276.48	1243.12
276.69	1255.40
276.91	1267.69
277.12	1241.07
277.34	1247.21
277.55	1341.42
277.77	1308.65
277.99	1306.60
278.20	1279.98
278.42	1236.97
278.63	1212.40
278.85	1310.70
279.06	1337.32
279.28	1300.46
279.49	1322.99
279.71	1316.84
279.93	1249.26
280.14	1296.36
280.36	1216.49
280.57	1239.02
280.79	1306.60
281.00	1247.21
281.22	1187.82
281.43	1273.84
281.65	1245.16
281.86	1222.64
282.08	1224.69
282.29	1312.75
282.51	1269.74
282.73	1312.75
282.94	1292.27
283.16	1314.80
283.37	1206.25
283.59	1230.83
283.80	1222.64
284.02	1284.08
284.23	1226.73
284.45	1345.52
284.66	1232.88
284.88	1286.12
285.09	1259.50
285.31	1304.56
285.52	1181.68
285.74	1208.30
285.95	1267.69
286.17	1292.27
286.38	1267.69
286.60	1261.55
286.81	1290.22
287.03	1279.98
287.24	1249.26
287.46	1251.31
287.67	1218.54
287.89	1290.22
288.10	1322.99
288.32	1261.55
288.53	1226.73
288.75	1261.55
288.96	1216.49
289.18	1263.60
289.39	1255.40
289.61	1228.78
289.82	1290.22
290.04	1271.79
290.25	1273.84
290.47	1257.45
290.68	1226.73
290.90	1208.30
291.11	1228.78
291.33	1306.60
291.54	1306.60
291.76	1232.88
291.97	1300.46
292.18	1331.18
292.40	1212.40
292.61	1314.80
292.83	1249.26
293.04	1275.88
293.26	1312.75
293.47	1279.98
293.69	1296.36
293.90	1290.22
294.12	1265.64
294.33	1271.79
294.55	1245.16
294.76	1306.60
294.97	1306.60
295.19	1322.99
295.40	1292.27
295.62	1314.80
295.83	1271.79
296.05	1222.64
296.26	1232.88
296.48	1249.26
296.69	1259.50
296.90	1230.83
297.12	1349.61
297.33	1277.93
297.55	1198.06
297.76	1255.40
297.98	1263.60
298.19	1312.75
298.41	1282.03
298.62	1318.89
298.83	1282.03
299.05	1212.40
299.26	1255.40
299.48	1357.80
299.69	1279.98
299.90	1267.69
300.12	1290.22
300.33	1294.32
300.55	1257.45
300.76	1335.28
300.98	1277.93
301.19	1224.69
301.40	1314.80
301.62	1257.45
301.83	1351.66
302.05	1228.78
302.26	1230.83
302.47	1370.09
302.69	1277.93
302.90	1343.47
303.12	1216.49
303.33	1230.83
303.54	1355.76
303.76	1279.98
303.97	1263.60
304.19	1273.84
304.40	1312.75
304.61	1277.93
304.83	1239.02
305.04	1181.68
305.26	1265.64
305.47	1302.51
305.68	1275.88
305.90	1343.47
306.11	1241.07
306.33	1296.36
306.54	1206.25
306.75	1241.07
306.97	1251.31
307.18	1335.28
307.39	1269.74
307.61	1241.07
307.82	1343.47
308.04	1232.88
308.25	1273.84
308.46	1204.21
308.68	1253.36
308.89	1253.36
309.10	1255.40
309.32	1298.41
309.53	1288.17
309.74	1257.45
309.96	1230.83
310.17	1243.12
310.39	1228.78
310.60	1179.63
310.81	1216.49
311.03	1310.70
311.24	1277.93
311.45	1331.18
311.67	1253.36
311.88	1220.59
312.09	1304.56
312.31	1257.45
312.52	1255.40
312.73	1220.59
312.95	1220.59
313.16	1261.55
313.37	1247.21
313.59	1275.88
313.80	1271.79
314.01	1290.22
314.23	1251.31
314.44	1271.79
314.65	1261.55
314.87	1249.26
315.08	1279.98
315.29	1335.28
315.51	1294.32
315.72	1171.44
315.93	1318.89
316.15	1251.31
316.36	1306.60
316.57	1241.07
316.79	1275.88
317.00	1259.50
317.21	1216.49
317.43	1249.26
317.64	1269.74
317.85	1251.31
318.07	1359.85
318.28	1286.12
318.49	1279.98
318.70	1265.64
318.92	1282.03
319.13	1286.12
319.34	1226.73
319.56	1220.59
319.77	1308.65
319.98	1304.56
320.20	1300.46
320.41	1261.55
320.62	1232.88
320.83	1269.74
321.05	1294.32
321.26	1343.47
321.47	1177.58
321.69	1214.45
321.90	1243.12
322.11	1263.60
322.32	1304.56
322.54	1267.69
322.75	1249.26
322.96	1216.49
323.18	1296.36
323.39	1284.08
323.60	1284.08
323.81	1273.84
324.03	1249.26
324.24	1251.31
324.45	1232.88
324.66	1298.41
324.88	1265.64
325.09	1224.69
325.30	1208.30
325.52	1255.40
325.73	1228.78
325.94	1294.32
326.15	1312.75
326.37	1298.41
326.58	1228.78
326.79	1241.07
327.00	1316.84
327.22	1183.73
327.43	1220.59
327.64	1249.26
327.85	1257.45
328.07	1183.73
328.28	1292.27
328.49	1212.40
328.70	1284.08
328.92	1314.80
329.13	1269.74
329.34	1288.17
329.55	1284.08
329.76	1292.27
329.98	1310.70
330.19	1208.30
330.40	1234.93
330.61	1216.49
330.83	1277.93
331.04	1284.08
331.25	1312.75
331.46	1284.08
331.68	1265.64
331.89	1286.12
332.10	1243.12
332.31	1249.26
332.52	1200.11
332.74	1196.01
332.95	1202.16
333.16	1263.60
333.37	1333.23
333.58	1271.79
333.80	1228.78
334.01	1279.98
334.22	1257.45
334.43	1239.02
334.64	1193.97
334.86	1284.08
335.07	1273.84
335.28	1292.27
335.49	1228.78
335.70	1265.64
335.92	1243.12
336.13	1241.07
336.34	1300.46
336.55	1257.45
336.76	1204.21
336.98	1253.36
337.19	1312.75
337.40	1284.08
337.61	1294.32
337.82	1241.07
338.04	1187.82
338.25	1253.36
338.46	1288.17
338.67	1255.40
338.88	1226.73
339.09	1239.02
339.31	1304.56
339.52	1331.18
339.73	1204.21
339.94	1261.55
340.15	1288.17
340.36	1251.31
340.58	1230.83
340.79	1224.69
341.00	1265.64
341.21	1306.60
341.42	1290.22
341.63	1286.12
341.85	1255.40
342.06	1267.69
342.27	1220.59
342.48	1300.46
342.69	1169.39
342.90	1286.12
343.12	1222.64
343.33	1349.61
343.54	1312.75
343.75	1282.03
343.96	1200.11
344.17	1322.99
344.38	1257.45
344.60	1271.79
344.81	1265.64
345.02	1263.60
345.23	1228.78
345.44	1218.54
345.65	1271.79
345.86	1288.17
346.07	1241.07
346.29	1277.93
346.50	1286.12
346.71	1212.40
346.92	1288.17
347.13	1232.88
347.34	1265.64
347.55	1327.08
347.76	1331.18
347.98	1263.60
348.19	1222.64
348.40	1284.08
348.61	1304.56
348.82	1306.60
349.03	1249.26
349.24	1273.84
349.45	1300.46
349.66	1261.55
349.88	1261.55
350.09	1257.45
350.30	1234.93
350.51	1265.64
350.72	1236.97
350.93	1341.42
351.14	1277.93
351.35	1273.84
351.56	1271.79
351.77	1277.93
351.99	1257.45
352.20	1310.70
352.41	1279.98
352.62	1273.84
352.83	1327.08
353.04	1249.26
353.25	1241.07
353.46	1275.88
353.67	1253.36
353.88	1226.73
354.09	1302.51
354.30	1271.79
354.52	1306.60
354.73	1339.37
354.94	1273.84
355.15	1208.30
355.36	1417.19
355.57	1296.36
355.78	1200.11
355.99	1222.64
356.20	1210.35
356.41	1277.93
356.62	1300.46
356.83	1239.02
357.04	1236.97
357.25	1222.64
357.46	1243.12
357.68	1269.74
357.89	1320.94
358.10	1228.78
358.31	1253.36
358.52	1263.60
358.73	1263.60
358.94	1284.08
359.15	1275.88
359.36	1226.73
359.57	1232.88
359.78	1255.40
359.99	1296.36
360.20	1228.78
360.41	1255.40
360.62	1198.06
360.83	1277.93
361.04	1279.98
361.25	1294.32
361.46	1247.21
361.67	1241.07
361.88	1312.75
362.09	1296.36
362.30	1294.32
362.51	1300.46
362.72	1296.36
362.93	1322.99
363.14	1247.21
363.35	1204.21
363.56	1341.42
363.78	1212.40
363.99	1294.32
364.20	1253.36
364.41	1298.41
364.62	1296.36
364.83	1312.75
365.04	1275.88
365.25	1306.60
365.46	1232.88
365.67	1282.03
365.88	1290.22
366.09	1277.93
366.30	1275.88
366.51	1277.93
366.72	1204.21
366.93	1304.56
367.14	1302.51
367.35	1318.89
367.56	1196.01
367.77	1247.21
367.98	1290.22
368.18	1300.46
368.39	1241.07
368.60	1304.56
368.81	1218.54
369.02	1216.49
369.23	1271.79
369.44	1230.83
369.65	1361.90
369.86	1282.03
370.07	1286.12
370.28	1355.76
370.49	1222.64
370.70	1236.97
370.91	1265.64
371.12	1216.49
371.33	1292.27
371.54	1265.64
371.75	1308.65
371.96	1236.97
372.17	1318.89
372.38	1218.54
372.59	1263.60
372.80	1277.93
373.01	1294.32
373.22	1261.55
373.43	1308.65
373.64	1294.32
373.85	1288.17
374.06	1329.13
374.26	1257.45
374.47	1282.03
374.68	1191.92
374.89	1230.83
375.10	1204.21
375.31	1241.07
375.52	1267.69
375.73	1320.94
375.94	1243.12
376.15	1251.31
376.36	1249.26
376.57	1282.03
376.78	1263.60
376.99	1273.84
377.20	1314.80
377.40	1216.49
377.61	1290.22
377.82	1255.40
378.03	1245.16
378.24	1275.88
378.45	1286.12
378.66	1273.84
378.87	1261.55
379.08	1296.36
379.29	1288.17
379.50	1347.56
379.71	1273.84
379.91	1290.22
380.12	1245.16
380.33	1241.07
380.54	1259.50
380.75	1265.64
380.96	1249.26
381.17	1273.84
381.38	1234.93
381.59	1304.56
381.80	1226.73
382.00	1277.93
382.21	1222.64
382.42	1220.59
382.63	1247.21
382.84	1333.23
383.05	1212.40
383.26	1247.21
383.47	1275.88
383.68	1241.07
383.88	1345.52
384.09	1220.59
384.30	1279.98
384.51	1335.28
384.72	1363.95
384.93	1259.50
385.14	1239.02
385.35	1267.69
385.55	1206.25
385.76	1257.45
385.97	1265.64
386.18	1222.64
386.39	1259.50
386.60	1232.88
386.81	1304.56
387.02	1300.46
387.22	1269.74
387.43	1282.03
387.64	1282.03
387.85	1224.69
388.06	1261.55
388.27	1314.80
388.48	1339.37
388.68	1271.79
388.89	1284.08
389.10	1329.13
389.31	1257.45
389.52	1318.89
389.73	1271.79
389.93	1269.74
390.14	1327.08
390.35	1282.03
390.56	1241.07
390.77	1316.84
390.98	1279.98
391.18	1216.49
391.39	1279.98
391.60	1302.51
391.81	1267.69
392.02	1218.54
392.23	1318.89
392.43	1275.88
392.64	1261.55
392.85	1257.45
393.06	1298.41
393.27	1322.99
393.47	1243.12
393.68	1230.83
393.89	1279.98
394.10	1257.45
394.31	1261.55
394.52	1220.59
394.72	1249.26
394.93	1243.12
395.14	1322.99
395.35	1232.88
395.56	1306.60
395.76	1347.56
395.97	1261.55
396.18	1273.84
396.39	1320.94
396.60	1290.22
396.80	1265.64
397.01	1224.69
397.22	1196.01
397.43	1273.84
397.64	1312.75
397.84	1314.80
398.05	1200.11
398.26	1308.65
398.47	1175.53
398.67	1308.65
398.88	1316.84
399.09	1247.21
399.30	1200.11
399.51	1269.74
399.71	1296.36
399.92	1214.45
400.13	1222.64
400.34	1247.21
400.54	1249.26
400.75	1222.64
400.96	1290.22
401.17	1273.84
401.37	1202.16
401.58	1275.88
401.79	1249.26
402.00	1304.56
402.21	1275.88
402.41	1288.17
402.62	1341.42
402.83	1243.12
403.04	1247.21
403.24	1267.69
403.45	1216.49
403.66	1251.31
403.87	1222.64
404.07	1279.98
404.28	1251.31
404.49	1271.79
404.70	1204.21
404.90	1269.74
405.11	1282.03
405.32	1296.36
405.52	1275.88
405.73	1241.07
405.94	1279.98
406.15	1279.98
406.35	1232.88
406.56	1286.12
406.77	1351.66
406.98	1234.93
407.18	1251.31
407.39	1310.70
407.60	1269.74
407.80	1277.93
408.01	1243.12
408.22	1218.54
408.43	1232.88
408.63	1208.30
408.84	1322.99
409.05	1232.88
409.25	1277.93
409.46	1312.75
409.67	1273.84
409.88	1296.36
410.08	1331.18
410.29	1300.46
410.50	1290.22
410.70	1279.98
410.91	1308.65
411.12	1290.22
411.32	1224.69
411.53	1271.79
411.74	1277.93
411.95	1220.59
412.15	1241.07
412.36	1241.07
412.57	1284.08
412.77	1331.18
412.98	1269.74
413.19	1269.74
413.39	1277.93
413.60	1247.21
413.81	1251.31
414.01	1267.69
414.22	1298.41
414.43	1241.07
414.63	1220.59
414.84	1259.50
415.05	1267.69
415.25	1241.07
415.46	1302.51
415.67	1279.98
415.87	1308.65
416.08	1290.22
416.29	1220.59
416.49	1220.59
416.70	1255.40
416.91	1308.65
417.11	1241.07
417.32	1261.55
417.53	1277.93
417.73	1220.59
417.94	1265.64
418.15	1230.83
418.35	1290.22
418.56	1267.69
418.77	1230.83
418.97	1208.30
419.18	1255.40
419.38	1228.78
419.59	1306.60
419.80	1339.37
420.00	1267.69
420.21	1296.36
420.42	1259.50
420.62	1222.64
420.83	1230.83
421.04	1296.36
421.24	1185.77
421.45	1312.75
421.65	1253.36
421.86	1284.08
422.07	1224.69
422.27	1247.21
422.48	1296.36
422.69	1193.97
422.89	1224.69
423.10	1298.41
423.30	1204.21
423.51	1308.65
423.72	1275.88
423.92	1271.79
424.13	1279.98
424.33	1251.31
424.54	1208.30
424.75	1327.08
424.95	1279.98
425.16	1245.16
425.36	1257.45
425.57	1290.22
425.78	1296.36
425.98	1292.27
426.19	1277.93
426.39	1284.08
426.60	1159.15
426.81	1286.12
427.01	1185.77
427.22	1214.45
427.42	1236.97
427.63	1239.02
427.83	1325.04
428.04	1288.17
428.25	1345.52
428.45	1279.98
428.66	1241.07
428.86	1325.04
429.07	1249.26
429.28	1288.17
429.48	1273.84
429.69	1261.55
429.89	1247.21
430.10	1200.11
430.30	1245.16
430.51	1255.40
430.71	1333.23
430.92	1232.88
431.13	1269.74
431.33	1282.03
431.54	1269.74
431.74	1210.35
431.95	1200.11
432.15	1341.42
432.36	1230.83
432.56	1290.22
432.77	1259.50
432.98	1357.80
433.18	1300.46
433.39	1277.93
433.59	1292.27
433.80	1335.28
434.00	1341.42
434.21	1290.22
434.41	1269.74
434.62	1284.08
434.82	1210.35
435.03	1259.50
435.23	1253.36
435.44	1288.17
435.64	1294.32
435.85	1230.83
436.06	1257.45
436.26	1200.11
436.47	1191.92
436.67	1241.07
436.88	1277.93
437.08	1308.65
437.29	1271.79
437.49	1239.02
437.70	1329.13
437.90	1261.55
438.11	1224.69
438.31	1306.60
438.52	1310.70
438.72	1232.88
438.93	1261.55
439.13	1286.12
439.34	1216.49
439.54	1232.88
439.75	1327.08
439.95	1302.51
440.16	1267.69
440.36	1259.50
440.57	1216.49
440.77	1310.70
440.98	1236.97
441.18	1267.69
441.39	1327.08
441.59	1263.60
441.80	1230.83
442.00	1310.70
442.21	1273.84
442.41	1312.75
442.62	1232.88
442.82	1263.60
443.02	1286.12
443.23	1216.49
443.43	1239.02
443.64	1253.36
443.84	1247.21
444.05	1312.75
444.25	1265.64
444.46	1284.08
444.66	1306.60
444.87	1222.64
445.07	1329.13
445.28	1361.90
445.48	1277.93
445.69	1255.40
445.89	1267.69
446.09	1286.12
446.30	1300.46
446.50	1298.41
446.71	1241.07
446.91	1263.60
447.12	1294.32
447.32	1255.40
447.53	1349.61
447.73	1189.87
447.93	1306.60
448.14	1220.59
448.34	1318.89
448.55	1277.93
448.75	1308.65
448.96	1304.56
449.16	1286.12
449.36	1222.64
449.57	1245.16
449.77	1232.88
449.98	1247.21
450.18	1316.84
450.39	1288.17
450.59	1310.70
450.79	1222.64
451.00	1277.93
451.20	1265.64
451.41	1236.97
451.61	1247.21
451.81	1282.03
452.02	1241.07
452.22	1226.73
452.43	1351.66
452.63	1247.21
