SpectraSuite Data File
++++++++++++++++++++++++++++++++++++
Date: Sun Apr 03 19:55:18 CEST 2016
User: root
Dark Spectrum Present: No
Reference Spectrum Present: No
Number of Sampled Component Spectra: 1
Spectrometers: USB4C02835
Integration Time (usec): 10000 (USB4C02835)
Spectra Averaged: 1 (USB4C02835)
Boxcar Smoothing: 0 (USB4C02835)
Correct for Electrical Dark: No (USB4C02835)
Strobe/Lamp Enabled: No (USB4C02835)
Correct for Detector Non-linearity: No (USB4C02835)
Correct for Stray Light: No (USB4C02835)
Number of Pixels in Processed Spectrum: 3648
>>>>>Begin Processed Spectral Data<<<<<
177.47	1239.02
177.69	1239.02
177.91	1239.02
178.13	1224.69
178.36	1277.93
178.58	1255.40
178.80	1263.60
179.02	1245.16
179.24	1314.80
179.46	1224.69
179.68	1271.79
179.90	1263.60
180.13	1265.64
180.35	1181.68
180.57	1370.09
180.79	1257.45
181.01	1183.73
181.23	1279.98
181.45	1306.60
181.67	1226.73
181.90	1222.64
182.12	1161.20
182.34	1251.31
182.56	1318.89
182.78	1183.73
183.00	1261.55
183.22	1232.88
183.44	1245.16
183.66	1310.70
183.89	1228.78
184.11	1284.08
184.33	1337.32
184.55	1286.12
184.77	1275.88
184.99	1310.70
185.21	1214.45
185.43	1255.40
185.65	1306.60
185.87	1257.45
186.10	1220.59
186.32	1236.97
186.54	1249.26
186.76	1302.51
186.98	1296.36
187.20	1226.73
187.42	1275.88
187.64	1212.40
187.86	1284.08
188.08	1314.80
188.30	1292.27
188.52	1220.59
188.75	1349.61
188.97	1284.08
189.19	1302.51
189.41	1275.88
189.63	1322.99
189.85	1249.26
190.07	1267.69
190.29	1288.17
190.51	1355.76
190.73	1259.50
190.95	1208.30
191.17	1228.78
191.39	1193.97
191.61	1243.12
191.84	1234.93
192.06	1282.03
192.28	1351.66
192.50	1286.12
192.72	1208.30
192.94	1261.55
193.16	1204.21
193.38	1236.97
193.60	1279.98
193.82	1239.02
194.04	1267.69
194.26	1228.78
194.48	1224.69
194.70	1263.60
194.92	1224.69
195.14	1294.32
195.36	1175.53
195.58	1308.65
195.80	1279.98
196.02	1314.80
196.24	1294.32
196.46	1316.84
196.69	1335.28
196.91	1265.64
197.13	1273.84
197.35	1255.40
197.57	1247.21
197.79	1241.07
198.01	1273.84
198.23	1304.56
198.45	1253.36
198.67	1273.84
198.89	1206.25
199.11	1294.32
199.33	1284.08
199.55	1206.25
199.77	1273.84
199.99	1304.56
200.21	1368.04
200.43	1292.27
200.65	1318.89
200.87	1312.75
201.09	1241.07
201.31	1288.17
201.53	1236.97
201.75	1277.93
201.97	1247.21
202.19	1282.03
202.41	1312.75
202.63	1282.03
202.85	1286.12
203.07	1251.31
203.29	1234.93
203.51	1226.73
203.73	1312.75
203.95	1286.12
204.17	1376.24
204.39	1241.07
204.61	1251.31
204.83	1232.88
205.05	1304.56
205.27	1277.93
205.49	1271.79
205.71	1218.54
205.93	1353.71
206.15	1239.02
206.37	1208.30
206.59	1253.36
206.81	1255.40
207.03	1304.56
207.25	1277.93
207.47	1320.94
207.69	1304.56
207.91	1265.64
208.13	1308.65
208.34	1245.16
208.56	1284.08
208.78	1275.88
209.00	1214.45
209.22	1312.75
209.44	1239.02
209.66	1241.07
209.88	1269.74
210.10	1298.41
210.32	1310.70
210.54	1277.93
210.76	1279.98
210.98	1265.64
211.20	1294.32
211.42	1196.01
211.64	1294.32
211.86	1310.70
212.08	1234.93
212.30	1314.80
212.52	1251.31
212.74	1249.26
212.96	1300.46
213.17	1259.50
213.39	1269.74
213.61	1230.83
213.83	1234.93
214.05	1261.55
214.27	1263.60
214.49	1230.83
214.71	1343.47
214.93	1261.55
215.15	1277.93
215.37	1224.69
215.59	1239.02
215.81	1198.06
216.03	1294.32
216.24	1298.41
216.46	1269.74
216.68	1292.27
216.90	1222.64
217.12	1206.25
217.34	1335.28
217.56	1232.88
217.78	1273.84
218.00	1277.93
218.22	1245.16
218.44	1267.69
218.66	1279.98
218.87	1269.74
219.09	1214.45
219.31	1298.41
219.53	1257.45
219.75	1200.11
219.97	1302.51
220.19	1241.07
220.41	1335.28
220.63	1312.75
220.85	1318.89
221.06	1322.99
221.28	1322.99
221.50	1275.88
221.72	1241.07
221.94	1226.73
222.16	1228.78
222.38	1298.41
222.60	1308.65
222.82	1253.36
223.03	1261.55
223.25	1327.08
223.47	1241.07
223.69	1267.69
223.91	1277.93
224.13	1273.84
224.35	1204.21
224.57	1251.31
224.78	1277.93
225.00	1284.08
225.22	1286.12
225.44	1265.64
225.66	1261.55
225.88	1247.21
226.10	1314.80
226.32	1271.79
226.53	1269.74
226.75	1290.22
226.97	1290.22
227.19	1298.41
227.41	1277.93
227.63	1275.88
227.85	1265.64
228.06	1335.28
228.28	1273.84
228.50	1290.22
228.72	1288.17
228.94	1271.79
229.16	1193.97
229.37	1312.75
229.59	1265.64
229.81	1286.12
230.03	1261.55
230.25	1271.79
230.47	1275.88
230.69	1257.45
230.90	1167.34
231.12	1282.03
231.34	1306.60
231.56	1325.04
231.78	1230.83
232.00	1234.93
232.21	1271.79
232.43	1290.22
232.65	1220.59
232.87	1247.21
233.09	1275.88
233.30	1300.46
233.52	1325.04
233.74	1310.70
233.96	1251.31
234.18	1263.60
234.40	1232.88
234.61	1363.95
234.83	1284.08
235.05	1247.21
235.27	1304.56
235.49	1314.80
235.70	1226.73
235.92	1273.84
236.14	1269.74
236.36	1292.27
236.58	1249.26
236.79	1347.56
237.01	1245.16
237.23	1277.93
237.45	1355.76
237.67	1249.26
237.88	1259.50
238.10	1282.03
238.32	1282.03
238.54	1198.06
238.76	1343.47
238.97	1296.36
239.19	1282.03
239.41	1329.13
239.63	1263.60
239.85	1216.49
240.06	1257.45
240.28	1191.92
240.50	1294.32
240.72	1259.50
240.93	1224.69
241.15	1218.54
241.37	1247.21
241.59	1255.40
241.81	1208.30
242.02	1288.17
242.24	1259.50
242.46	1277.93
242.68	1302.51
242.89	1257.45
243.11	1241.07
243.33	1271.79
243.55	1263.60
243.76	1234.93
243.98	1247.21
244.20	1284.08
244.42	1236.97
244.64	1292.27
244.85	1263.60
245.07	1320.94
245.29	1286.12
245.51	1265.64
245.72	1204.21
245.94	1204.21
246.16	1282.03
246.38	1257.45
246.59	1222.64
246.81	1234.93
247.03	1314.80
247.24	1251.31
247.46	1296.36
247.68	1232.88
247.90	1247.21
248.11	1374.19
248.33	1277.93
248.55	1286.12
248.77	1267.69
248.98	1232.88
249.20	1341.42
249.42	1380.33
249.64	1249.26
249.85	1284.08
250.07	1279.98
250.29	1249.26
250.50	1331.18
250.72	1247.21
250.94	1251.31
251.16	1282.03
251.37	1318.89
251.59	1273.84
251.81	1302.51
252.02	1267.69
252.24	1322.99
252.46	1251.31
252.68	1249.26
252.89	1228.78
253.11	1253.36
253.33	1271.79
253.54	1286.12
253.76	1277.93
253.98	1320.94
254.20	1245.16
254.41	1249.26
254.63	1234.93
254.85	1216.49
255.06	1329.13
255.28	1273.84
255.50	1232.88
255.71	1271.79
255.93	1320.94
256.15	1247.21
256.36	1222.64
256.58	1210.35
256.80	1181.68
257.02	1271.79
257.23	1333.23
257.45	1241.07
257.67	1269.74
257.88	1212.40
258.10	1288.17
258.32	1333.23
258.53	1312.75
258.75	1322.99
258.97	1253.36
259.18	1269.74
259.40	1304.56
259.62	1320.94
259.83	1249.26
260.05	1257.45
260.27	1314.80
260.48	1298.41
260.70	1204.21
260.92	1200.11
261.13	1230.83
261.35	1241.07
261.57	1310.70
261.78	1257.45
262.00	1239.02
262.22	1277.93
262.43	1325.04
262.65	1255.40
262.86	1273.84
263.08	1347.56
263.30	1236.97
263.51	1308.65
263.73	1259.50
263.95	1271.79
264.16	1298.41
264.38	1265.64
264.60	1322.99
264.81	1263.60
265.03	1249.26
265.25	1218.54
265.46	1337.32
265.68	1294.32
265.89	1196.01
266.11	1222.64
266.33	1288.17
266.54	1228.78
266.76	1236.97
266.98	1261.55
267.19	1245.16
267.41	1257.45
267.62	1263.60
267.84	1306.60
268.06	1286.12
268.27	1302.51
268.49	1259.50
268.70	1300.46
268.92	1253.36
269.14	1306.60
269.35	1273.84
269.57	1263.60
269.79	1282.03
270.00	1267.69
270.22	1249.26
270.43	1230.83
270.65	1271.79
270.87	1253.36
271.08	1253.36
271.30	1265.64
271.51	1292.27
271.73	1253.36
271.95	1300.46
272.16	1257.45
272.38	1265.64
272.59	1267.69
272.81	1251.31
273.02	1257.45
273.24	1296.36
273.46	1271.79
273.67	1310.70
273.89	1255.40
274.10	1257.45
274.32	1294.32
274.54	1222.64
274.75	1267.69
274.97	1255.40
275.18	1257.45
275.40	1288.17
275.61	1284.08
275.83	1306.60
276.05	1257.45
276.26	1253.36
276.48	1279.98
276.69	1298.41
276.91	1257.45
277.12	1275.88
277.34	1263.60
277.55	1269.74
277.77	1279.98
277.99	1214.45
278.20	1204.21
278.42	1230.83
278.63	1218.54
278.85	1218.54
279.06	1269.74
279.28	1267.69
279.49	1247.21
279.71	1275.88
279.93	1282.03
280.14	1239.02
280.36	1202.16
280.57	1298.41
280.79	1255.40
281.00	1294.32
281.22	1210.35
281.43	1241.07
281.65	1165.29
281.86	1255.40
282.08	1308.65
282.29	1275.88
282.51	1257.45
282.73	1302.51
282.94	1271.79
283.16	1318.89
283.37	1175.53
283.59	1288.17
283.80	1294.32
284.02	1298.41
284.23	1286.12
284.45	1296.36
284.66	1277.93
284.88	1232.88
285.09	1220.59
285.31	1261.55
285.52	1226.73
285.74	1269.74
285.95	1263.60
286.17	1247.21
286.38	1241.07
286.60	1284.08
286.81	1251.31
287.03	1318.89
287.24	1247.21
287.46	1298.41
287.67	1224.69
287.89	1290.22
288.10	1241.07
288.32	1218.54
288.53	1200.11
288.75	1263.60
288.96	1322.99
289.18	1282.03
289.39	1263.60
289.61	1304.56
289.82	1214.45
290.04	1310.70
290.25	1245.16
290.47	1236.97
290.68	1318.89
290.90	1253.36
291.11	1228.78
291.33	1298.41
291.54	1200.11
291.76	1243.12
291.97	1273.84
292.18	1314.80
292.40	1249.26
292.61	1341.42
292.83	1304.56
293.04	1263.60
293.26	1288.17
293.47	1292.27
293.69	1255.40
293.90	1300.46
294.12	1269.74
294.33	1259.50
294.55	1247.21
294.76	1261.55
294.97	1306.60
295.19	1183.73
295.40	1236.97
295.62	1290.22
295.83	1308.65
296.05	1314.80
296.26	1263.60
296.48	1218.54
296.69	1226.73
296.90	1282.03
297.12	1253.36
297.33	1329.13
297.55	1290.22
297.76	1249.26
297.98	1288.17
298.19	1241.07
298.41	1216.49
298.62	1247.21
298.83	1212.40
299.05	1314.80
299.26	1282.03
299.48	1261.55
299.69	1310.70
299.90	1282.03
300.12	1200.11
300.33	1249.26
300.55	1251.31
300.76	1302.51
300.98	1220.59
301.19	1325.04
301.40	1273.84
301.62	1253.36
301.83	1271.79
302.05	1304.56
302.26	1187.82
302.47	1257.45
302.69	1216.49
302.90	1282.03
303.12	1284.08
303.33	1292.27
303.54	1212.40
303.76	1279.98
303.97	1267.69
304.19	1234.93
304.40	1249.26
304.61	1308.65
304.83	1273.84
305.04	1226.73
305.26	1308.65
305.47	1243.12
305.68	1298.41
305.90	1282.03
306.11	1314.80
306.33	1296.36
306.54	1232.88
306.75	1214.45
306.97	1292.27
307.18	1210.35
307.39	1298.41
307.61	1263.60
307.82	1259.50
308.04	1257.45
308.25	1243.12
308.46	1327.08
308.68	1347.56
308.89	1292.27
309.10	1245.16
309.32	1224.69
309.53	1282.03
309.74	1335.28
309.96	1302.51
310.17	1306.60
310.39	1284.08
310.60	1230.83
310.81	1218.54
311.03	1253.36
311.24	1302.51
311.45	1263.60
311.67	1329.13
311.88	1259.50
312.09	1279.98
312.31	1255.40
312.52	1359.85
312.73	1228.78
312.95	1220.59
313.16	1275.88
313.37	1171.44
313.59	1312.75
313.80	1243.12
314.01	1333.23
314.23	1273.84
314.44	1243.12
314.65	1216.49
314.87	1325.04
315.08	1247.21
315.29	1314.80
315.51	1241.07
315.72	1279.98
315.93	1306.60
316.15	1363.95
316.36	1286.12
316.57	1320.94
316.79	1331.18
317.00	1259.50
317.21	1275.88
317.43	1322.99
317.64	1257.45
317.85	1312.75
318.07	1214.45
318.28	1271.79
318.49	1320.94
318.70	1245.16
318.92	1277.93
319.13	1337.32
319.34	1298.41
319.56	1271.79
319.77	1253.36
319.98	1271.79
320.20	1224.69
320.41	1320.94
320.62	1320.94
320.83	1259.50
321.05	1263.60
321.26	1253.36
321.47	1325.04
321.69	1292.27
321.90	1284.08
322.11	1263.60
322.32	1253.36
322.54	1286.12
322.75	1263.60
322.96	1228.78
323.18	1234.93
323.39	1247.21
323.60	1241.07
323.81	1271.79
324.03	1247.21
324.24	1224.69
324.45	1239.02
324.66	1300.46
324.88	1265.64
325.09	1202.16
325.30	1226.73
325.52	1304.56
325.73	1294.32
325.94	1208.30
326.15	1208.30
326.37	1269.74
326.58	1216.49
326.79	1314.80
327.00	1310.70
327.22	1259.50
327.43	1193.97
327.64	1279.98
327.85	1273.84
328.07	1288.17
328.28	1226.73
328.49	1241.07
328.70	1210.35
328.92	1314.80
329.13	1210.35
329.34	1316.84
329.55	1335.28
329.76	1241.07
329.98	1222.64
330.19	1253.36
330.40	1310.70
330.61	1327.08
330.83	1312.75
331.04	1312.75
331.25	1226.73
331.46	1230.83
331.68	1245.16
331.89	1239.02
332.10	1187.82
332.31	1290.22
332.52	1290.22
332.74	1312.75
332.95	1212.40
333.16	1282.03
333.37	1294.32
333.58	1239.02
333.80	1331.18
334.01	1271.79
334.22	1212.40
334.43	1236.97
334.64	1282.03
334.86	1222.64
335.07	1318.89
335.28	1273.84
335.49	1275.88
335.70	1236.97
335.92	1196.01
336.13	1271.79
336.34	1216.49
336.55	1226.73
336.76	1273.84
336.98	1239.02
337.19	1261.55
337.40	1232.88
337.61	1282.03
337.82	1257.45
338.04	1214.45
338.25	1247.21
338.46	1273.84
338.67	1290.22
338.88	1290.22
339.09	1275.88
339.31	1273.84
339.52	1265.64
339.73	1230.83
339.94	1257.45
340.15	1218.54
340.36	1347.56
340.58	1232.88
340.79	1222.64
341.00	1282.03
341.21	1269.74
341.42	1253.36
341.63	1253.36
341.85	1296.36
342.06	1253.36
342.27	1296.36
342.48	1265.64
342.69	1267.69
342.90	1279.98
343.12	1310.70
343.33	1173.49
343.54	1171.44
343.75	1304.56
343.96	1210.35
344.17	1327.08
344.38	1286.12
344.60	1269.74
344.81	1210.35
345.02	1304.56
345.23	1300.46
345.44	1286.12
345.65	1284.08
345.86	1271.79
346.07	1304.56
346.29	1314.80
346.50	1271.79
346.71	1234.93
346.92	1241.07
347.13	1275.88
347.34	1261.55
347.55	1232.88
347.76	1257.45
347.98	1279.98
348.19	1220.59
348.40	1267.69
348.61	1241.07
348.82	1275.88
349.03	1265.64
349.24	1288.17
349.45	1243.12
349.66	1232.88
349.88	1267.69
350.09	1282.03
350.30	1255.40
350.51	1257.45
350.72	1257.45
350.93	1312.75
351.14	1212.40
351.35	1308.65
351.56	1239.02
351.77	1269.74
351.99	1318.89
352.20	1234.93
352.41	1224.69
352.62	1255.40
352.83	1290.22
353.04	1290.22
353.25	1253.36
353.46	1312.75
353.67	1396.71
353.88	1286.12
354.09	1253.36
354.30	1282.03
354.52	1347.56
354.73	1269.74
354.94	1284.08
355.15	1320.94
355.36	1257.45
355.57	1290.22
355.78	1189.87
355.99	1286.12
356.20	1257.45
356.41	1263.60
356.62	1273.84
356.83	1241.07
357.04	1261.55
357.25	1216.49
357.46	1273.84
357.68	1241.07
357.89	1310.70
358.10	1243.12
358.31	1284.08
358.52	1286.12
358.73	1247.21
358.94	1312.75
359.15	1265.64
359.36	1271.79
359.57	1265.64
359.78	1314.80
359.99	1286.12
360.20	1263.60
360.41	1310.70
360.62	1306.60
360.83	1157.10
361.04	1279.98
361.25	1216.49
361.46	1179.63
361.67	1241.07
361.88	1249.26
362.09	1251.31
362.30	1206.25
362.51	1232.88
362.72	1277.93
362.93	1253.36
363.14	1343.47
363.35	1286.12
363.56	1247.21
363.78	1288.17
363.99	1279.98
364.20	1277.93
364.41	1320.94
364.62	1220.59
364.83	1355.76
365.04	1271.79
365.25	1372.14
365.46	1294.32
365.67	1261.55
365.88	1255.40
366.09	1310.70
366.30	1236.97
366.51	1257.45
366.72	1265.64
366.93	1255.40
367.14	1306.60
367.35	1183.73
367.56	1310.70
367.77	1282.03
367.98	1245.16
368.18	1275.88
368.39	1253.36
368.60	1306.60
368.81	1318.89
369.02	1255.40
369.23	1239.02
369.44	1263.60
369.65	1261.55
369.86	1269.74
370.07	1339.37
370.28	1218.54
370.49	1245.16
370.70	1294.32
370.91	1284.08
371.12	1234.93
371.33	1279.98
371.54	1247.21
371.75	1284.08
371.96	1220.59
372.17	1318.89
372.38	1314.80
372.59	1263.60
372.80	1271.79
373.01	1230.83
373.22	1269.74
373.43	1316.84
373.64	1198.06
373.85	1267.69
374.06	1218.54
374.26	1245.16
374.47	1277.93
374.68	1239.02
374.89	1333.23
375.10	1206.25
375.31	1331.18
375.52	1259.50
375.73	1206.25
375.94	1239.02
376.15	1294.32
376.36	1322.99
376.57	1343.47
376.78	1241.07
376.99	1212.40
377.20	1257.45
377.40	1230.83
377.61	1249.26
377.82	1282.03
378.03	1263.60
378.24	1312.75
378.45	1275.88
378.66	1279.98
378.87	1306.60
379.08	1308.65
379.29	1236.97
379.50	1265.64
379.71	1273.84
379.91	1249.26
380.12	1277.93
380.33	1290.22
380.54	1224.69
380.75	1282.03
380.96	1290.22
381.17	1271.79
381.38	1259.50
381.59	1372.14
381.80	1273.84
382.00	1310.70
382.21	1245.16
382.42	1294.32
382.63	1327.08
382.84	1245.16
383.05	1257.45
383.26	1226.73
383.47	1333.23
383.68	1298.41
383.88	1355.76
384.09	1314.80
384.30	1284.08
384.51	1267.69
384.72	1220.59
384.93	1228.78
385.14	1290.22
385.35	1296.36
385.55	1282.03
385.76	1314.80
385.97	1286.12
386.18	1310.70
386.39	1294.32
386.60	1257.45
386.81	1232.88
387.02	1298.41
387.22	1259.50
387.43	1220.59
387.64	1241.07
387.85	1273.84
388.06	1245.16
388.27	1298.41
388.48	1198.06
388.68	1314.80
388.89	1290.22
389.10	1230.83
389.31	1304.56
389.52	1241.07
389.73	1286.12
389.93	1259.50
390.14	1267.69
390.35	1310.70
390.56	1286.12
390.77	1345.52
390.98	1251.31
391.18	1282.03
391.39	1259.50
391.60	1189.87
391.81	1232.88
392.02	1341.42
392.23	1282.03
392.43	1247.21
392.64	1177.58
392.85	1216.49
393.06	1308.65
393.27	1245.16
393.47	1269.74
393.68	1273.84
393.89	1269.74
394.10	1234.93
394.31	1249.26
394.52	1306.60
394.72	1314.80
394.93	1175.53
395.14	1261.55
395.35	1230.83
395.56	1253.36
395.76	1282.03
395.97	1273.84
396.18	1228.78
396.39	1263.60
396.60	1282.03
396.80	1275.88
397.01	1249.26
397.22	1216.49
397.43	1296.36
397.64	1232.88
397.84	1341.42
398.05	1284.08
398.26	1284.08
398.47	1267.69
398.67	1267.69
398.88	1226.73
399.09	1253.36
399.30	1245.16
399.51	1239.02
399.71	1318.89
399.92	1230.83
400.13	1288.17
400.34	1333.23
400.54	1251.31
400.75	1286.12
400.96	1245.16
401.17	1298.41
401.37	1232.88
401.58	1228.78
401.79	1245.16
402.00	1322.99
402.21	1302.51
402.41	1296.36
402.62	1269.74
402.83	1269.74
403.04	1286.12
403.24	1290.22
403.45	1298.41
403.66	1284.08
403.87	1245.16
404.07	1306.60
404.28	1286.12
404.49	1304.56
404.70	1204.21
404.90	1361.90
405.11	1269.74
405.32	1257.45
405.52	1308.65
405.73	1298.41
405.94	1325.04
406.15	1247.21
406.35	1193.97
406.56	1224.69
406.77	1261.55
406.98	1271.79
407.18	1255.40
407.39	1355.76
407.60	1275.88
407.80	1351.66
408.01	1275.88
408.22	1271.79
408.43	1232.88
408.63	1302.51
408.84	1318.89
409.05	1349.61
409.25	1247.21
409.46	1253.36
409.67	1271.79
409.88	1232.88
410.08	1318.89
410.29	1298.41
410.50	1202.16
410.70	1267.69
410.91	1236.97
411.12	1253.36
411.32	1187.82
411.53	1273.84
411.74	1269.74
411.95	1290.22
412.15	1241.07
412.36	1284.08
412.57	1351.66
412.77	1282.03
412.98	1253.36
413.19	1298.41
413.39	1275.88
413.60	1259.50
413.81	1343.47
414.01	1257.45
414.22	1296.36
414.43	1206.25
414.63	1269.74
414.84	1245.16
415.05	1275.88
415.25	1257.45
415.46	1241.07
415.67	1298.41
415.87	1310.70
416.08	1247.21
416.29	1329.13
416.49	1294.32
416.70	1263.60
416.91	1322.99
417.11	1216.49
417.32	1277.93
417.53	1198.06
417.73	1273.84
417.94	1200.11
418.15	1261.55
418.35	1245.16
418.56	1271.79
418.77	1232.88
418.97	1224.69
419.18	1232.88
419.38	1304.56
419.59	1261.55
419.80	1206.25
420.00	1236.97
420.21	1263.60
420.42	1286.12
420.62	1239.02
420.83	1245.16
421.04	1316.84
421.24	1355.76
421.45	1337.32
421.65	1210.35
421.86	1296.36
422.07	1183.73
422.27	1341.42
422.48	1271.79
422.69	1271.79
422.89	1230.83
423.10	1292.27
423.30	1239.02
423.51	1288.17
423.72	1257.45
423.92	1284.08
424.13	1259.50
424.33	1263.60
424.54	1279.98
424.75	1296.36
424.95	1282.03
425.16	1325.04
425.36	1273.84
425.57	1277.93
425.78	1232.88
425.98	1296.36
426.19	1279.98
426.39	1267.69
426.60	1241.07
426.81	1275.88
427.01	1222.64
427.22	1288.17
427.42	1257.45
427.63	1241.07
427.83	1220.59
428.04	1265.64
428.25	1331.18
428.45	1243.12
428.66	1275.88
428.86	1296.36
429.07	1251.31
429.28	1259.50
429.48	1320.94
429.69	1239.02
429.89	1257.45
430.10	1273.84
430.30	1292.27
430.51	1249.26
430.71	1247.21
430.92	1226.73
431.13	1273.84
431.33	1261.55
431.54	1273.84
431.74	1325.04
431.95	1214.45
432.15	1253.36
432.36	1306.60
432.56	1282.03
432.77	1298.41
432.98	1279.98
433.18	1304.56
433.39	1284.08
433.59	1292.27
433.80	1300.46
434.00	1282.03
434.21	1253.36
434.41	1216.49
434.62	1294.32
434.82	1255.40
435.03	1288.17
435.23	1298.41
435.44	1241.07
435.64	1271.79
435.85	1255.40
436.06	1247.21
436.26	1351.66
436.47	1269.74
436.67	1220.59
436.88	1216.49
437.08	1222.64
437.29	1318.89
437.49	1234.93
437.70	1368.04
437.90	1353.71
438.11	1257.45
438.31	1298.41
438.52	1261.55
438.72	1271.79
438.93	1185.77
439.13	1318.89
439.34	1284.08
439.54	1259.50
439.75	1275.88
439.95	1247.21
440.16	1216.49
440.36	1325.04
440.57	1265.64
440.77	1277.93
440.98	1263.60
441.18	1263.60
441.39	1279.98
441.59	1249.26
441.80	1329.13
442.00	1282.03
442.21	1204.21
442.41	1306.60
442.62	1282.03
442.82	1222.64
443.02	1269.74
443.23	1282.03
443.43	1302.51
443.64	1310.70
443.84	1234.93
444.05	1230.83
444.25	1247.21
444.46	1263.60
444.66	1282.03
444.87	1257.45
445.07	1327.08
445.28	1288.17
445.48	1226.73
445.69	1290.22
445.89	1286.12
446.09	1288.17
446.30	1267.69
446.50	1163.25
446.71	1249.26
446.91	1214.45
447.12	1247.21
447.32	1308.65
447.53	1269.74
447.73	1329.13
447.93	1234.93
448.14	1312.75
448.34	1245.16
448.55	1320.94
448.75	1259.50
448.96	1333.23
449.16	1286.12
449.36	1325.04
449.57	1339.37
449.77	1249.26
449.98	1298.41
450.18	1249.26
450.39	1175.53
450.59	1290.22
450.79	1232.88
451.00	1329.13
451.20	1345.52
451.41	1282.03
451.61	1243.12
451.81	1314.80
452.02	1222.64
452.22	1224.69
452.43	1245.16
452.63	1265.64
