SpectraSuite Data File
++++++++++++++++++++++++++++++++++++
Date: Sun Apr 03 19:55:16 CEST 2016
User: root
Dark Spectrum Present: No
Reference Spectrum Present: No
Number of Sampled Component Spectra: 1
Spectrometers: USB4C02835
Integration Time (usec): 10000 (USB4C02835)
Spectra Averaged: 1 (USB4C02835)
Boxcar Smoothing: 0 (USB4C02835)
Correct for Electrical Dark: No (USB4C02835)
Strobe/Lamp Enabled: No (USB4C02835)
Correct for Detector Non-linearity: No (USB4C02835)
Correct for Stray Light: No (USB4C02835)
Number of Pixels in Processed Spectrum: 3648
>>>>>Begin Processed Spectral Data<<<<<
177.47	1265.64
177.69	1265.64
177.91	1265.64
178.13	1228.78
178.36	1261.55
178.58	1275.88
178.80	1263.60
179.02	1259.50
179.24	1312.75
179.46	1253.36
179.68	1351.66
179.90	1243.12
180.13	1206.25
180.35	1273.84
180.57	1236.97
180.79	1267.69
181.01	1255.40
181.23	1275.88
181.45	1269.74
181.67	1218.54
181.90	1294.32
182.12	1230.83
182.34	1282.03
182.56	1318.89
182.78	1312.75
183.00	1224.69
183.22	1247.21
183.44	1216.49
183.66	1230.83
183.89	1216.49
184.11	1335.28
184.33	1282.03
184.55	1261.55
184.77	1243.12
184.99	1292.27
185.21	1279.98
185.43	1279.98
185.65	1294.32
185.87	1243.12
186.10	1212.40
186.32	1255.40
186.54	1263.60
186.76	1234.93
186.98	1314.80
187.20	1376.24
187.42	1320.94
187.64	1275.88
187.86	1267.69
188.08	1196.01
188.30	1249.26
188.52	1243.12
188.75	1236.97
188.97	1255.40
189.19	1226.73
189.41	1232.88
189.63	1232.88
189.85	1339.37
190.07	1226.73
190.29	1230.83
190.51	1263.60
190.73	1208.30
190.95	1239.02
191.17	1259.50
191.39	1228.78
191.61	1331.18
191.84	1255.40
192.06	1296.36
192.28	1265.64
192.50	1259.50
192.72	1218.54
192.94	1239.02
193.16	1271.79
193.38	1269.74
193.60	1277.93
193.82	1271.79
194.04	1234.93
194.26	1249.26
194.48	1196.01
194.70	1339.37
194.92	1212.40
195.14	1294.32
195.36	1271.79
195.58	1298.41
195.80	1294.32
196.02	1288.17
196.24	1263.60
196.46	1206.25
196.69	1257.45
196.91	1329.13
197.13	1298.41
197.35	1259.50
197.57	1290.22
197.79	1331.18
198.01	1187.82
198.23	1263.60
198.45	1236.97
198.67	1257.45
198.89	1232.88
199.11	1232.88
199.33	1298.41
199.55	1290.22
199.77	1290.22
199.99	1279.98
200.21	1200.11
200.43	1273.84
200.65	1230.83
200.87	1271.79
201.09	1216.49
201.31	1337.32
201.53	1327.08
201.75	1320.94
201.97	1241.07
202.19	1306.60
202.41	1355.76
202.63	1279.98
202.85	1298.41
203.07	1310.70
203.29	1249.26
203.51	1290.22
203.73	1308.65
203.95	1304.56
204.17	1331.18
204.39	1294.32
204.61	1228.78
204.83	1279.98
205.05	1236.97
205.27	1263.60
205.49	1210.35
205.71	1263.60
205.93	1263.60
206.15	1275.88
206.37	1253.36
206.59	1337.32
206.81	1255.40
207.03	1286.12
207.25	1257.45
207.47	1288.17
207.69	1230.83
207.91	1382.38
208.13	1241.07
208.34	1249.26
208.56	1255.40
208.78	1329.13
209.00	1290.22
209.22	1325.04
209.44	1271.79
209.66	1271.79
209.88	1294.32
210.10	1247.21
210.32	1277.93
210.54	1298.41
210.76	1312.75
210.98	1247.21
211.20	1261.55
211.42	1263.60
211.64	1269.74
211.86	1288.17
212.08	1355.76
212.30	1316.84
212.52	1228.78
212.74	1263.60
212.96	1275.88
213.17	1339.37
213.39	1230.83
213.61	1257.45
213.83	1271.79
214.05	1269.74
214.27	1300.46
214.49	1255.40
214.71	1216.49
214.93	1257.45
215.15	1241.07
215.37	1290.22
215.59	1206.25
215.81	1310.70
216.03	1279.98
216.24	1282.03
216.46	1263.60
216.68	1232.88
216.90	1296.36
217.12	1259.50
217.34	1277.93
217.56	1333.23
217.78	1239.02
218.00	1312.75
218.22	1265.64
218.44	1255.40
218.66	1275.88
218.87	1271.79
219.09	1273.84
219.31	1263.60
219.53	1263.60
219.75	1241.07
219.97	1308.65
220.19	1275.88
220.41	1298.41
220.63	1271.79
220.85	1314.80
221.06	1290.22
221.28	1253.36
221.50	1325.04
221.72	1306.60
221.94	1230.83
222.16	1214.45
222.38	1228.78
222.60	1269.74
222.82	1261.55
223.03	1232.88
223.25	1284.08
223.47	1284.08
223.69	1300.46
223.91	1316.84
224.13	1306.60
224.35	1220.59
224.57	1296.36
224.78	1286.12
225.00	1302.51
225.22	1263.60
225.44	1267.69
225.66	1263.60
225.88	1308.65
226.10	1273.84
226.32	1208.30
226.53	1304.56
226.75	1239.02
226.97	1275.88
227.19	1294.32
227.41	1298.41
227.63	1273.84
227.85	1204.21
228.06	1335.28
228.28	1298.41
228.50	1288.17
228.72	1304.56
228.94	1290.22
229.16	1327.08
229.37	1286.12
229.59	1200.11
229.81	1316.84
230.03	1255.40
230.25	1232.88
230.47	1335.28
230.69	1220.59
230.90	1257.45
231.12	1261.55
231.34	1279.98
231.56	1271.79
231.78	1284.08
232.00	1298.41
232.21	1239.02
232.43	1316.84
232.65	1286.12
232.87	1290.22
233.09	1214.45
233.30	1279.98
233.52	1290.22
233.74	1271.79
233.96	1200.11
234.18	1347.56
234.40	1218.54
234.61	1208.30
234.83	1247.21
235.05	1300.46
235.27	1288.17
235.49	1322.99
235.70	1314.80
235.92	1273.84
236.14	1196.01
236.36	1294.32
236.58	1312.75
236.79	1279.98
237.01	1306.60
237.23	1206.25
237.45	1327.08
237.67	1247.21
237.88	1316.84
238.10	1329.13
238.32	1251.31
238.54	1302.51
238.76	1277.93
238.97	1183.73
239.19	1216.49
239.41	1259.50
239.63	1212.40
239.85	1191.92
240.06	1361.90
240.28	1249.26
240.50	1255.40
240.72	1279.98
240.93	1230.83
241.15	1302.51
241.37	1308.65
241.59	1247.21
241.81	1239.02
242.02	1300.46
242.24	1236.97
242.46	1282.03
242.68	1265.64
242.89	1173.49
243.11	1224.69
243.33	1239.02
243.55	1292.27
243.76	1296.36
243.98	1261.55
244.20	1366.00
244.42	1314.80
244.64	1236.97
244.85	1189.87
245.07	1320.94
245.29	1191.92
245.51	1234.93
245.72	1214.45
245.94	1306.60
246.16	1368.04
246.38	1212.40
246.59	1222.64
246.81	1218.54
247.03	1214.45
247.24	1282.03
247.46	1218.54
247.68	1255.40
247.90	1290.22
248.11	1265.64
248.33	1282.03
248.55	1294.32
248.77	1282.03
248.98	1228.78
249.20	1245.16
249.42	1200.11
249.64	1204.21
249.85	1202.16
250.07	1187.82
250.29	1279.98
250.50	1255.40
250.72	1284.08
250.94	1251.31
251.16	1257.45
251.37	1277.93
251.59	1234.93
251.81	1224.69
252.02	1355.76
252.24	1208.30
252.46	1337.32
252.68	1222.64
252.89	1251.31
253.11	1304.56
253.33	1300.46
253.54	1224.69
253.76	1243.12
253.98	1261.55
254.20	1306.60
254.41	1222.64
254.63	1273.84
254.85	1263.60
255.06	1218.54
255.28	1302.51
255.50	1234.93
255.71	1255.40
255.93	1306.60
256.15	1226.73
256.36	1263.60
256.58	1298.41
256.80	1279.98
257.02	1290.22
257.23	1329.13
257.45	1210.35
257.67	1222.64
257.88	1224.69
258.10	1224.69
258.32	1251.31
258.53	1286.12
258.75	1261.55
258.97	1267.69
259.18	1236.97
259.40	1196.01
259.62	1300.46
259.83	1265.64
260.05	1275.88
260.27	1257.45
260.48	1255.40
260.70	1193.97
260.92	1302.51
261.13	1275.88
261.35	1243.12
261.57	1263.60
261.78	1214.45
262.00	1273.84
262.22	1243.12
262.43	1279.98
262.65	1251.31
262.86	1312.75
263.08	1302.51
263.30	1259.50
263.51	1249.26
263.73	1267.69
263.95	1247.21
264.16	1269.74
264.38	1284.08
264.60	1279.98
264.81	1273.84
265.03	1370.09
265.25	1247.21
265.46	1296.36
265.68	1310.70
265.89	1288.17
266.11	1257.45
266.33	1247.21
266.54	1263.60
266.76	1234.93
266.98	1257.45
267.19	1277.93
267.41	1198.06
267.62	1271.79
267.84	1314.80
268.06	1208.30
268.27	1304.56
268.49	1261.55
268.70	1230.83
268.92	1290.22
269.14	1263.60
269.35	1282.03
269.57	1255.40
269.79	1269.74
270.00	1288.17
270.22	1216.49
270.43	1275.88
270.65	1218.54
270.87	1279.98
271.08	1269.74
271.30	1286.12
271.51	1241.07
271.73	1292.27
271.95	1236.97
272.16	1257.45
272.38	1247.21
272.59	1282.03
272.81	1265.64
273.02	1320.94
273.24	1284.08
273.46	1294.32
273.67	1339.37
273.89	1232.88
274.10	1322.99
274.32	1298.41
274.54	1294.32
274.75	1273.84
274.97	1277.93
275.18	1200.11
275.40	1288.17
275.61	1263.60
275.83	1251.31
276.05	1292.27
276.26	1222.64
276.48	1257.45
276.69	1218.54
276.91	1275.88
277.12	1271.79
277.34	1239.02
277.55	1271.79
277.77	1243.12
277.99	1286.12
278.20	1245.16
278.42	1273.84
278.63	1232.88
278.85	1257.45
279.06	1228.78
279.28	1298.41
279.49	1277.93
279.71	1243.12
279.93	1222.64
280.14	1208.30
280.36	1300.46
280.57	1288.17
280.79	1214.45
281.00	1282.03
281.22	1200.11
281.43	1232.88
281.65	1267.69
281.86	1290.22
282.08	1269.74
282.29	1257.45
282.51	1275.88
282.73	1327.08
282.94	1273.84
283.16	1247.21
283.37	1302.51
283.59	1310.70
283.80	1259.50
284.02	1263.60
284.23	1322.99
284.45	1286.12
284.66	1232.88
284.88	1239.02
285.09	1263.60
285.31	1230.83
285.52	1304.56
285.74	1298.41
285.95	1277.93
286.17	1247.21
286.38	1263.60
286.60	1288.17
286.81	1335.28
287.03	1288.17
287.24	1247.21
287.46	1241.07
287.67	1218.54
287.89	1331.18
288.10	1271.79
288.32	1249.26
288.53	1271.79
288.75	1290.22
288.96	1320.94
289.18	1282.03
289.39	1288.17
289.61	1255.40
289.82	1261.55
290.04	1222.64
290.25	1292.27
290.47	1259.50
290.68	1241.07
290.90	1232.88
291.11	1241.07
291.33	1345.52
291.54	1218.54
291.76	1302.51
291.97	1331.18
292.18	1228.78
292.40	1343.47
292.61	1296.36
292.83	1255.40
293.04	1333.23
293.26	1257.45
293.47	1245.16
293.69	1204.21
293.90	1292.27
294.12	1310.70
294.33	1265.64
294.55	1282.03
294.76	1269.74
294.97	1222.64
295.19	1310.70
295.40	1267.69
295.62	1273.84
295.83	1339.37
296.05	1267.69
296.26	1216.49
296.48	1185.77
296.69	1257.45
296.90	1249.26
297.12	1257.45
297.33	1249.26
297.55	1378.28
297.76	1284.08
297.98	1249.26
298.19	1267.69
298.41	1318.89
298.62	1300.46
298.83	1341.42
299.05	1193.97
299.26	1265.64
299.48	1306.60
299.69	1253.36
299.90	1171.44
300.12	1210.35
300.33	1265.64
300.55	1249.26
300.76	1230.83
300.98	1255.40
301.19	1257.45
301.40	1310.70
301.62	1239.02
301.83	1234.93
302.05	1196.01
302.26	1241.07
302.47	1290.22
302.69	1179.63
302.90	1282.03
303.12	1204.21
303.33	1269.74
303.54	1331.18
303.76	1224.69
303.97	1267.69
304.19	1241.07
304.40	1284.08
304.61	1337.32
304.83	1202.16
305.04	1212.40
305.26	1232.88
305.47	1189.87
305.68	1288.17
305.90	1282.03
306.11	1191.92
306.33	1255.40
306.54	1286.12
306.75	1255.40
306.97	1247.21
307.18	1269.74
307.39	1300.46
307.61	1308.65
307.82	1284.08
308.04	1253.36
308.25	1253.36
308.46	1308.65
308.68	1263.60
308.89	1286.12
309.10	1302.51
309.32	1314.80
309.53	1339.37
309.74	1232.88
309.96	1269.74
310.17	1265.64
310.39	1261.55
310.60	1271.79
310.81	1279.98
311.03	1308.65
311.24	1308.65
311.45	1255.40
311.67	1308.65
311.88	1290.22
312.09	1241.07
312.31	1282.03
312.52	1271.79
312.73	1245.16
312.95	1263.60
313.16	1257.45
313.37	1312.75
313.59	1298.41
313.80	1286.12
314.01	1251.31
314.23	1306.60
314.44	1279.98
314.65	1253.36
314.87	1255.40
315.08	1271.79
315.29	1230.83
315.51	1290.22
315.72	1263.60
315.93	1318.89
316.15	1273.84
316.36	1212.40
316.57	1255.40
316.79	1255.40
317.00	1216.49
317.21	1316.84
317.43	1187.82
317.64	1271.79
317.85	1290.22
318.07	1284.08
318.28	1279.98
318.49	1255.40
318.70	1234.93
318.92	1230.83
319.13	1288.17
319.34	1273.84
319.56	1251.31
319.77	1302.51
319.98	1304.56
320.20	1282.03
320.41	1261.55
320.62	1282.03
320.83	1259.50
321.05	1232.88
321.26	1275.88
321.47	1316.84
321.69	1212.40
321.90	1247.21
322.11	1349.61
322.32	1236.97
322.54	1265.64
322.75	1208.30
322.96	1245.16
323.18	1251.31
323.39	1282.03
323.60	1255.40
323.81	1318.89
324.03	1261.55
324.24	1247.21
324.45	1212.40
324.66	1296.36
324.88	1288.17
325.09	1277.93
325.30	1337.32
325.52	1325.04
325.73	1286.12
325.94	1259.50
326.15	1265.64
326.37	1253.36
326.58	1263.60
326.79	1232.88
327.00	1249.26
327.22	1296.36
327.43	1282.03
327.64	1292.27
327.85	1282.03
328.07	1288.17
328.28	1220.59
328.49	1314.80
328.70	1230.83
328.92	1314.80
329.13	1265.64
329.34	1263.60
329.55	1284.08
329.76	1234.93
329.98	1249.26
330.19	1226.73
330.40	1253.36
330.61	1327.08
330.83	1310.70
331.04	1243.12
331.25	1267.69
331.46	1277.93
331.68	1204.21
331.89	1279.98
332.10	1189.87
332.31	1347.56
332.52	1247.21
332.74	1275.88
332.95	1185.77
333.16	1304.56
333.37	1292.27
333.58	1282.03
333.80	1294.32
334.01	1296.36
334.22	1263.60
334.43	1183.73
334.64	1224.69
334.86	1273.84
335.07	1239.02
335.28	1302.51
335.49	1263.60
335.70	1247.21
335.92	1265.64
336.13	1337.32
336.34	1318.89
336.55	1232.88
336.76	1279.98
336.98	1251.31
337.19	1212.40
337.40	1282.03
337.61	1224.69
337.82	1241.07
338.04	1312.75
338.25	1259.50
338.46	1333.23
338.67	1294.32
338.88	1222.64
339.09	1269.74
339.31	1294.32
339.52	1290.22
339.73	1275.88
339.94	1263.60
340.15	1257.45
340.36	1277.93
340.58	1310.70
340.79	1269.74
341.00	1300.46
341.21	1265.64
341.42	1322.99
341.63	1241.07
341.85	1253.36
342.06	1282.03
342.27	1259.50
342.48	1273.84
342.69	1247.21
342.90	1298.41
343.12	1308.65
343.33	1261.55
343.54	1236.97
343.75	1228.78
343.96	1302.51
344.17	1261.55
344.38	1308.65
344.60	1271.79
344.81	1245.16
345.02	1245.16
345.23	1232.88
345.44	1265.64
345.65	1265.64
345.86	1226.73
346.07	1222.64
346.29	1253.36
346.50	1296.36
346.71	1261.55
346.92	1331.18
347.13	1247.21
347.34	1290.22
347.55	1226.73
347.76	1273.84
347.98	1232.88
348.19	1196.01
348.40	1269.74
348.61	1239.02
348.82	1335.28
349.03	1253.36
349.24	1302.51
349.45	1261.55
349.66	1196.01
349.88	1327.08
350.09	1216.49
350.30	1228.78
350.51	1292.27
350.72	1234.93
350.93	1298.41
351.14	1294.32
351.35	1279.98
351.56	1257.45
351.77	1290.22
351.99	1249.26
352.20	1337.32
352.41	1304.56
352.62	1327.08
352.83	1265.64
353.04	1296.36
353.25	1316.84
353.46	1314.80
353.67	1298.41
353.88	1275.88
354.09	1218.54
354.30	1363.95
354.52	1308.65
354.73	1255.40
354.94	1312.75
355.15	1269.74
355.36	1284.08
355.57	1282.03
355.78	1273.84
355.99	1302.51
356.20	1236.97
356.41	1306.60
356.62	1308.65
356.83	1273.84
357.04	1351.66
357.25	1206.25
357.46	1253.36
357.68	1325.04
357.89	1226.73
358.10	1218.54
358.31	1275.88
358.52	1249.26
358.73	1261.55
358.94	1298.41
359.15	1300.46
359.36	1263.60
359.57	1200.11
359.78	1253.36
359.99	1228.78
360.20	1241.07
360.41	1327.08
360.62	1228.78
360.83	1218.54
361.04	1335.28
361.25	1269.74
361.46	1263.60
361.67	1298.41
361.88	1275.88
362.09	1277.93
362.30	1320.94
362.51	1273.84
362.72	1316.84
362.93	1247.21
363.14	1314.80
363.35	1236.97
363.56	1304.56
363.78	1277.93
363.99	1275.88
364.20	1267.69
364.41	1282.03
364.62	1261.55
364.83	1327.08
365.04	1294.32
365.25	1243.12
365.46	1267.69
365.67	1191.92
365.88	1296.36
366.09	1208.30
366.30	1267.69
366.51	1220.59
366.72	1282.03
366.93	1210.35
367.14	1257.45
367.35	1234.93
367.56	1216.49
367.77	1210.35
367.98	1286.12
368.18	1257.45
368.39	1304.56
368.60	1282.03
368.81	1245.16
369.02	1290.22
369.23	1282.03
369.44	1245.16
369.65	1271.79
369.86	1345.52
370.07	1267.69
370.28	1247.21
370.49	1249.26
370.70	1191.92
370.91	1200.11
371.12	1214.45
371.33	1253.36
371.54	1282.03
371.75	1284.08
371.96	1255.40
372.17	1277.93
372.38	1300.46
372.59	1302.51
372.80	1239.02
373.01	1228.78
373.22	1279.98
373.43	1224.69
373.64	1216.49
373.85	1212.40
374.06	1294.32
374.26	1300.46
374.47	1277.93
374.68	1261.55
374.89	1306.60
375.10	1267.69
375.31	1279.98
375.52	1296.36
375.73	1271.79
375.94	1304.56
376.15	1232.88
376.36	1259.50
376.57	1347.56
376.78	1316.84
376.99	1241.07
377.20	1304.56
377.40	1261.55
377.61	1189.87
377.82	1269.74
378.03	1243.12
378.24	1232.88
378.45	1298.41
378.66	1288.17
378.87	1259.50
379.08	1277.93
379.29	1204.21
379.50	1380.33
379.71	1202.16
379.91	1306.60
380.12	1277.93
380.33	1269.74
380.54	1318.89
380.75	1212.40
380.96	1265.64
381.17	1230.83
381.38	1247.21
381.59	1202.16
381.80	1249.26
382.00	1308.65
382.21	1349.61
382.42	1239.02
382.63	1312.75
382.84	1300.46
383.05	1247.21
383.26	1271.79
383.47	1265.64
383.68	1263.60
383.88	1202.16
384.09	1329.13
384.30	1275.88
384.51	1322.99
384.72	1306.60
384.93	1247.21
385.14	1200.11
385.35	1304.56
385.55	1241.07
385.76	1279.98
385.97	1284.08
386.18	1269.74
386.39	1292.27
386.60	1200.11
386.81	1304.56
387.02	1292.27
387.22	1296.36
387.43	1271.79
387.64	1290.22
387.85	1212.40
388.06	1271.79
388.27	1341.42
388.48	1327.08
388.68	1322.99
388.89	1269.74
389.10	1277.93
389.31	1247.21
389.52	1236.97
389.73	1269.74
389.93	1267.69
390.14	1218.54
390.35	1312.75
390.56	1314.80
390.77	1290.22
390.98	1292.27
391.18	1224.69
391.39	1277.93
391.60	1304.56
391.81	1353.71
392.02	1239.02
392.23	1263.60
392.43	1335.28
392.64	1232.88
392.85	1261.55
393.06	1202.16
393.27	1253.36
393.47	1294.32
393.68	1320.94
393.89	1273.84
394.10	1292.27
394.31	1226.73
394.52	1302.51
394.72	1257.45
394.93	1288.17
395.14	1243.12
395.35	1286.12
395.56	1322.99
395.76	1290.22
395.97	1228.78
396.18	1245.16
396.39	1290.22
396.60	1239.02
396.80	1300.46
397.01	1241.07
397.22	1318.89
397.43	1282.03
397.64	1245.16
397.84	1226.73
398.05	1277.93
398.26	1298.41
398.47	1261.55
398.67	1306.60
398.88	1247.21
399.09	1292.27
399.30	1286.12
399.51	1320.94
399.71	1290.22
399.92	1341.42
400.13	1257.45
400.34	1325.04
400.54	1220.59
400.75	1337.32
400.96	1316.84
401.17	1255.40
401.37	1263.60
401.58	1273.84
401.79	1226.73
402.00	1312.75
402.21	1310.70
402.41	1232.88
402.62	1181.68
402.83	1191.92
403.04	1241.07
403.24	1351.66
403.45	1200.11
403.66	1222.64
403.87	1249.26
404.07	1239.02
404.28	1222.64
404.49	1226.73
404.70	1271.79
404.90	1277.93
405.11	1279.98
405.32	1259.50
405.52	1271.79
405.73	1322.99
405.94	1279.98
406.15	1265.64
406.35	1236.97
406.56	1249.26
406.77	1335.28
406.98	1275.88
407.18	1310.70
407.39	1345.52
407.60	1257.45
407.80	1193.97
408.01	1222.64
408.22	1263.60
408.43	1163.25
408.63	1318.89
408.84	1265.64
409.05	1153.01
409.25	1216.49
409.46	1308.65
409.67	1253.36
409.88	1241.07
410.08	1325.04
410.29	1257.45
410.50	1271.79
410.70	1253.36
410.91	1284.08
411.12	1273.84
411.32	1296.36
411.53	1263.60
411.74	1290.22
411.95	1232.88
412.15	1239.02
412.36	1247.21
412.57	1206.25
412.77	1259.50
412.98	1251.31
413.19	1308.65
413.39	1261.55
413.60	1310.70
413.81	1316.84
414.01	1275.88
414.22	1224.69
414.43	1251.31
414.63	1325.04
414.84	1212.40
415.05	1300.46
415.25	1341.42
415.46	1333.23
415.67	1253.36
415.87	1183.73
416.08	1298.41
416.29	1222.64
416.49	1212.40
416.70	1273.84
416.91	1263.60
417.11	1175.53
417.32	1314.80
417.53	1218.54
417.73	1294.32
417.94	1298.41
418.15	1279.98
418.35	1277.93
418.56	1277.93
418.77	1290.22
418.97	1216.49
419.18	1247.21
419.38	1300.46
419.59	1239.02
419.80	1187.82
420.00	1275.88
420.21	1206.25
420.42	1353.71
420.62	1187.82
420.83	1331.18
421.04	1257.45
421.24	1259.50
421.45	1310.70
421.65	1273.84
421.86	1198.06
422.07	1296.36
422.27	1220.59
422.48	1275.88
422.69	1296.36
422.89	1212.40
423.10	1253.36
423.30	1257.45
423.51	1271.79
423.72	1230.83
423.92	1236.97
424.13	1214.45
424.33	1279.98
424.54	1296.36
424.75	1241.07
424.95	1302.51
425.16	1302.51
425.36	1296.36
425.57	1236.97
425.78	1329.13
425.98	1214.45
426.19	1273.84
426.39	1296.36
426.60	1267.69
426.81	1282.03
427.01	1241.07
427.22	1249.26
427.42	1239.02
427.63	1290.22
427.83	1302.51
428.04	1247.21
428.25	1269.74
428.45	1273.84
428.66	1292.27
428.86	1257.45
429.07	1220.59
429.28	1288.17
429.48	1279.98
429.69	1202.16
429.89	1251.31
430.10	1212.40
430.30	1298.41
430.51	1247.21
430.71	1286.12
430.92	1232.88
431.13	1275.88
431.33	1310.70
431.54	1282.03
431.74	1243.12
431.95	1273.84
432.15	1222.64
432.36	1290.22
432.56	1322.99
432.77	1282.03
432.98	1277.93
433.18	1325.04
433.39	1327.08
433.59	1282.03
433.80	1230.83
434.00	1218.54
434.21	1306.60
434.41	1257.45
434.62	1271.79
434.82	1273.84
435.03	1251.31
435.23	1234.93
435.44	1253.36
435.64	1279.98
435.85	1341.42
436.06	1302.51
436.26	1253.36
436.47	1290.22
436.67	1265.64
436.88	1261.55
437.08	1279.98
437.29	1247.21
437.49	1241.07
437.70	1339.37
437.90	1247.21
438.11	1298.41
438.31	1255.40
438.52	1273.84
438.72	1312.75
438.93	1230.83
439.13	1347.56
439.34	1290.22
439.54	1236.97
439.75	1302.51
439.95	1316.84
440.16	1251.31
440.36	1228.78
440.57	1226.73
440.77	1312.75
440.98	1302.51
441.18	1310.70
441.39	1275.88
441.59	1261.55
441.80	1316.84
442.00	1267.69
442.21	1261.55
442.41	1239.02
442.62	1236.97
442.82	1349.61
443.02	1308.65
443.23	1277.93
443.43	1259.50
443.64	1282.03
443.84	1216.49
444.05	1279.98
444.25	1265.64
444.46	1222.64
444.66	1253.36
444.87	1249.26
445.07	1257.45
445.28	1273.84
445.48	1318.89
445.69	1236.97
445.89	1306.60
446.09	1279.98
446.30	1290.22
446.50	1259.50
446.71	1279.98
446.91	1277.93
447.12	1284.08
447.32	1279.98
447.53	1257.45
447.73	1245.16
447.93	1228.78
448.14	1337.32
448.34	1265.64
448.55	1292.27
448.75	1292.27
448.96	1298.41
449.16	1245.16
449.36	1249.26
449.57	1245.16
449.77	1314.80
449.98	1226.73
450.18	1284.08
450.39	1273.84
450.59	1224.69
450.79	1255.40
451.00	1214.45
451.20	1316.84
451.41	1224.69
451.61	1279.98
451.81	1253.36
452.02	1370.09
452.22	1261.55
452.43	1320.94
452.63	1220.59
