SpectraSuite Data File
++++++++++++++++++++++++++++++++++++
Date: Sun Apr 03 19:55:41 CEST 2016
User: root
Dark Spectrum Present: No
Reference Spectrum Present: No
Number of Sampled Component Spectra: 1
Spectrometers: USB4C02835
Integration Time (usec): 10000 (USB4C02835)
Spectra Averaged: 1 (USB4C02835)
Boxcar Smoothing: 0 (USB4C02835)
Correct for Electrical Dark: No (USB4C02835)
Strobe/Lamp Enabled: No (USB4C02835)
Correct for Detector Non-linearity: No (USB4C02835)
Correct for Stray Light: No (USB4C02835)
Number of Pixels in Processed Spectrum: 3648
>>>>>Begin Processed Spectral Data<<<<<
177.47	1189.87
177.69	1189.87
177.91	1189.87
178.13	1157.10
178.36	1210.35
178.58	1259.50
178.80	1247.21
179.02	1218.54
179.24	1310.70
179.46	1224.69
179.68	1279.98
179.90	1271.79
180.13	1282.03
180.35	1257.45
180.57	1259.50
180.79	1288.17
181.01	1261.55
181.23	1320.94
181.45	1255.40
181.67	1251.31
181.90	1245.16
182.12	1300.46
182.34	1255.40
182.56	1279.98
182.78	1234.93
183.00	1279.98
183.22	1259.50
183.44	1181.68
183.66	1298.41
183.89	1316.84
184.11	1261.55
184.33	1208.30
184.55	1271.79
184.77	1218.54
184.99	1251.31
185.21	1232.88
185.43	1265.64
185.65	1294.32
185.87	1232.88
186.10	1249.26
186.32	1331.18
186.54	1318.89
186.76	1277.93
186.98	1306.60
187.20	1312.75
187.42	1284.08
187.64	1273.84
187.86	1282.03
188.08	1269.74
188.30	1288.17
188.52	1296.36
188.75	1243.12
188.97	1345.52
189.19	1286.12
189.41	1271.79
189.63	1292.27
189.85	1327.08
190.07	1290.22
190.29	1243.12
190.51	1318.89
190.73	1339.37
190.95	1300.46
191.17	1222.64
191.39	1228.78
191.61	1290.22
191.84	1261.55
192.06	1288.17
192.28	1245.16
192.50	1257.45
192.72	1294.32
192.94	1288.17
193.16	1269.74
193.38	1294.32
193.60	1273.84
193.82	1224.69
194.04	1282.03
194.26	1212.40
194.48	1298.41
194.70	1267.69
194.92	1257.45
195.14	1202.16
195.36	1277.93
195.58	1320.94
195.80	1261.55
196.02	1261.55
196.24	1218.54
196.46	1322.99
196.69	1337.32
196.91	1232.88
197.13	1214.45
197.35	1259.50
197.57	1286.12
197.79	1208.30
198.01	1239.02
198.23	1189.87
198.45	1296.36
198.67	1257.45
198.89	1312.75
199.11	1279.98
199.33	1216.49
199.55	1320.94
199.77	1257.45
199.99	1298.41
200.21	1304.56
200.43	1263.60
200.65	1341.42
200.87	1273.84
201.09	1282.03
201.31	1261.55
201.53	1183.73
201.75	1216.49
201.97	1282.03
202.19	1286.12
202.41	1255.40
202.63	1292.27
202.85	1239.02
203.07	1253.36
203.29	1290.22
203.51	1218.54
203.73	1329.13
203.95	1214.45
204.17	1196.01
204.39	1261.55
204.61	1277.93
204.83	1263.60
205.05	1247.21
205.27	1267.69
205.49	1300.46
205.71	1271.79
205.93	1304.56
206.15	1257.45
206.37	1284.08
206.59	1267.69
206.81	1255.40
207.03	1308.65
207.25	1265.64
207.47	1312.75
207.69	1253.36
207.91	1286.12
208.13	1257.45
208.34	1204.21
208.56	1257.45
208.78	1257.45
209.00	1249.26
209.22	1189.87
209.44	1267.69
209.66	1187.82
209.88	1271.79
210.10	1286.12
210.32	1251.31
210.54	1255.40
210.76	1314.80
210.98	1343.47
211.20	1279.98
211.42	1282.03
211.64	1241.07
211.86	1296.36
212.08	1306.60
212.30	1310.70
212.52	1335.28
212.74	1304.56
212.96	1279.98
213.17	1312.75
213.39	1214.45
213.61	1261.55
213.83	1251.31
214.05	1226.73
214.27	1322.99
214.49	1314.80
214.71	1308.65
214.93	1241.07
215.15	1243.12
215.37	1265.64
215.59	1267.69
215.81	1210.35
216.03	1263.60
216.24	1314.80
216.46	1249.26
216.68	1251.31
216.90	1279.98
217.12	1271.79
217.34	1316.84
217.56	1196.01
217.78	1208.30
218.00	1322.99
218.22	1247.21
218.44	1290.22
218.66	1351.66
218.87	1290.22
219.09	1322.99
219.31	1267.69
219.53	1193.97
219.75	1220.59
219.97	1329.13
220.19	1374.19
220.41	1222.64
220.63	1277.93
220.85	1261.55
221.06	1292.27
221.28	1234.93
221.50	1253.36
221.72	1167.34
221.94	1261.55
222.16	1269.74
222.38	1322.99
222.60	1259.50
222.82	1241.07
223.03	1327.08
223.25	1265.64
223.47	1294.32
223.69	1282.03
223.91	1304.56
224.13	1312.75
224.35	1322.99
224.57	1284.08
224.78	1286.12
225.00	1314.80
225.22	1249.26
225.44	1232.88
225.66	1339.37
225.88	1218.54
226.10	1257.45
226.32	1210.35
226.53	1198.06
226.75	1306.60
226.97	1265.64
227.19	1339.37
227.41	1255.40
227.63	1345.52
227.85	1249.26
228.06	1251.31
228.28	1239.02
228.50	1314.80
228.72	1259.50
228.94	1259.50
229.16	1243.12
229.37	1230.83
229.59	1271.79
229.81	1296.36
230.03	1210.35
230.25	1290.22
230.47	1255.40
230.69	1318.89
230.90	1306.60
231.12	1300.46
231.34	1277.93
231.56	1335.28
231.78	1253.36
232.00	1265.64
232.21	1243.12
232.43	1230.83
232.65	1271.79
232.87	1224.69
233.09	1257.45
233.30	1333.23
233.52	1171.44
233.74	1236.97
233.96	1259.50
234.18	1322.99
234.40	1277.93
234.61	1341.42
234.83	1198.06
235.05	1257.45
235.27	1275.88
235.49	1277.93
235.70	1200.11
235.92	1255.40
236.14	1273.84
236.36	1298.41
236.58	1263.60
236.79	1310.70
237.01	1325.04
237.23	1296.36
237.45	1275.88
237.67	1312.75
237.88	1284.08
238.10	1241.07
238.32	1298.41
238.54	1245.16
238.76	1261.55
238.97	1245.16
239.19	1279.98
239.41	1267.69
239.63	1234.93
239.85	1279.98
240.06	1226.73
240.28	1216.49
240.50	1236.97
240.72	1310.70
240.93	1290.22
241.15	1286.12
241.37	1224.69
241.59	1345.52
241.81	1277.93
242.02	1263.60
242.24	1312.75
242.46	1267.69
242.68	1290.22
242.89	1241.07
243.11	1282.03
243.33	1335.28
243.55	1282.03
243.76	1245.16
243.98	1314.80
244.20	1200.11
244.42	1216.49
244.64	1243.12
244.85	1271.79
245.07	1269.74
245.29	1267.69
245.51	1282.03
245.72	1304.56
245.94	1243.12
246.16	1253.36
246.38	1302.51
246.59	1267.69
246.81	1259.50
247.03	1224.69
247.24	1222.64
247.46	1247.21
247.68	1304.56
247.90	1279.98
248.11	1314.80
248.33	1273.84
248.55	1269.74
248.77	1230.83
248.98	1271.79
249.20	1269.74
249.42	1259.50
249.64	1277.93
249.85	1296.36
250.07	1245.16
250.29	1267.69
250.50	1277.93
250.72	1228.78
250.94	1220.59
251.16	1271.79
251.37	1236.97
251.59	1300.46
251.81	1263.60
252.02	1241.07
252.24	1286.12
252.46	1320.94
252.68	1251.31
252.89	1314.80
253.11	1263.60
253.33	1247.21
253.54	1275.88
253.76	1200.11
253.98	1273.84
254.20	1241.07
254.41	1290.22
254.63	1331.18
254.85	1275.88
255.06	1273.84
255.28	1300.46
255.50	1275.88
255.71	1275.88
255.93	1236.97
256.15	1322.99
256.36	1243.12
256.58	1214.45
256.80	1189.87
257.02	1275.88
257.23	1286.12
257.45	1255.40
257.67	1333.23
257.88	1277.93
258.10	1279.98
258.32	1255.40
258.53	1302.51
258.75	1204.21
258.97	1247.21
259.18	1232.88
259.40	1212.40
259.62	1320.94
259.83	1279.98
260.05	1284.08
260.27	1249.26
260.48	1290.22
260.70	1279.98
260.92	1185.77
261.13	1232.88
261.35	1261.55
261.57	1298.41
261.78	1243.12
262.00	1296.36
262.22	1210.35
262.43	1275.88
262.65	1277.93
262.86	1257.45
263.08	1290.22
263.30	1294.32
263.51	1251.31
263.73	1282.03
263.95	1277.93
264.16	1304.56
264.38	1247.21
264.60	1286.12
264.81	1298.41
265.03	1277.93
265.25	1265.64
265.46	1271.79
265.68	1316.84
265.89	1279.98
266.11	1275.88
266.33	1312.75
266.54	1275.88
266.76	1333.23
266.98	1308.65
267.19	1265.64
267.41	1234.93
267.62	1220.59
267.84	1236.97
268.06	1279.98
268.27	1234.93
268.49	1279.98
268.70	1292.27
268.92	1265.64
269.14	1322.99
269.35	1247.21
269.57	1308.65
269.79	1290.22
270.00	1314.80
270.22	1284.08
270.43	1273.84
270.65	1271.79
270.87	1269.74
271.08	1335.28
271.30	1282.03
271.51	1310.70
271.73	1257.45
271.95	1290.22
272.16	1261.55
272.38	1224.69
272.59	1232.88
272.81	1263.60
273.02	1314.80
273.24	1284.08
273.46	1220.59
273.67	1249.26
273.89	1267.69
274.10	1263.60
274.32	1339.37
274.54	1304.56
274.75	1288.17
274.97	1308.65
275.18	1245.16
275.40	1271.79
275.61	1243.12
275.83	1290.22
276.05	1226.73
276.26	1222.64
276.48	1363.95
276.69	1290.22
276.91	1308.65
277.12	1249.26
277.34	1292.27
277.55	1226.73
277.77	1306.60
277.99	1269.74
278.20	1304.56
278.42	1290.22
278.63	1204.21
278.85	1265.64
279.06	1318.89
279.28	1273.84
279.49	1257.45
279.71	1308.65
279.93	1232.88
280.14	1249.26
280.36	1220.59
280.57	1255.40
280.79	1232.88
281.00	1265.64
281.22	1236.97
281.43	1247.21
281.65	1241.07
281.86	1327.08
282.08	1255.40
282.29	1331.18
282.51	1265.64
282.73	1296.36
282.94	1214.45
283.16	1206.25
283.37	1173.49
283.59	1312.75
283.80	1198.06
284.02	1275.88
284.23	1253.36
284.45	1269.74
284.66	1249.26
284.88	1345.52
285.09	1298.41
285.31	1245.16
285.52	1290.22
285.74	1265.64
285.95	1239.02
286.17	1286.12
286.38	1243.12
286.60	1302.51
286.81	1202.16
287.03	1261.55
287.24	1214.45
287.46	1359.85
287.67	1269.74
287.89	1288.17
288.10	1236.97
288.32	1279.98
288.53	1228.78
288.75	1265.64
288.96	1318.89
289.18	1243.12
289.39	1222.64
289.61	1214.45
289.82	1271.79
290.04	1308.65
290.25	1310.70
290.47	1300.46
290.68	1196.01
290.90	1284.08
291.11	1277.93
291.33	1312.75
291.54	1230.83
291.76	1269.74
291.97	1294.32
292.18	1253.36
292.40	1253.36
292.61	1218.54
292.83	1247.21
293.04	1259.50
293.26	1269.74
293.47	1239.02
293.69	1277.93
293.90	1372.14
294.12	1234.93
294.33	1239.02
294.55	1273.84
294.76	1294.32
294.97	1300.46
295.19	1265.64
295.40	1267.69
295.62	1261.55
295.83	1273.84
296.05	1279.98
296.26	1329.13
296.48	1286.12
296.69	1165.29
296.90	1271.79
297.12	1249.26
297.33	1224.69
297.55	1279.98
297.76	1236.97
297.98	1331.18
298.19	1245.16
298.41	1288.17
298.62	1234.93
298.83	1275.88
299.05	1234.93
299.26	1273.84
299.48	1236.97
299.69	1300.46
299.90	1208.30
300.12	1269.74
300.33	1288.17
300.55	1200.11
300.76	1261.55
300.98	1247.21
301.19	1271.79
301.40	1191.92
301.62	1284.08
301.83	1294.32
302.05	1284.08
302.26	1314.80
302.47	1259.50
302.69	1308.65
302.90	1265.64
303.12	1277.93
303.33	1277.93
303.54	1282.03
303.76	1302.51
303.97	1300.46
304.19	1261.55
304.40	1357.80
304.61	1230.83
304.83	1284.08
305.04	1218.54
305.26	1316.84
305.47	1193.97
305.68	1339.37
305.90	1234.93
306.11	1171.44
306.33	1282.03
306.54	1282.03
306.75	1249.26
306.97	1302.51
307.18	1230.83
307.39	1310.70
307.61	1306.60
307.82	1320.94
308.04	1292.27
308.25	1273.84
308.46	1249.26
308.68	1267.69
308.89	1368.04
309.10	1286.12
309.32	1282.03
309.53	1294.32
309.74	1259.50
309.96	1277.93
310.17	1263.60
310.39	1218.54
310.60	1269.74
310.81	1296.36
311.03	1251.31
311.24	1232.88
311.45	1320.94
311.67	1277.93
311.88	1196.01
312.09	1224.69
312.31	1255.40
312.52	1187.82
312.73	1273.84
312.95	1277.93
313.16	1337.32
313.37	1300.46
313.59	1273.84
313.80	1214.45
314.01	1290.22
314.23	1249.26
314.44	1396.71
314.65	1288.17
314.87	1271.79
315.08	1306.60
315.29	1310.70
315.51	1269.74
315.72	1204.21
315.93	1261.55
316.15	1263.60
316.36	1224.69
316.57	1200.11
316.79	1294.32
317.00	1204.21
317.21	1284.08
317.43	1286.12
317.64	1296.36
317.85	1306.60
318.07	1263.60
318.28	1257.45
318.49	1306.60
318.70	1282.03
318.92	1341.42
319.13	1222.64
319.34	1290.22
319.56	1277.93
319.77	1232.88
319.98	1267.69
320.20	1320.94
320.41	1296.36
320.62	1333.23
320.83	1212.40
321.05	1245.16
321.26	1265.64
321.47	1222.64
321.69	1327.08
321.90	1273.84
322.11	1253.36
322.32	1261.55
322.54	1279.98
322.75	1294.32
322.96	1282.03
323.18	1271.79
323.39	1308.65
323.60	1220.59
323.81	1325.04
324.03	1277.93
324.24	1337.32
324.45	1253.36
324.66	1249.26
324.88	1304.56
325.09	1232.88
325.30	1259.50
325.52	1236.97
325.73	1273.84
325.94	1273.84
326.15	1304.56
326.37	1292.27
326.58	1277.93
326.79	1239.02
327.00	1251.31
327.22	1275.88
327.43	1355.76
327.64	1263.60
327.85	1282.03
328.07	1284.08
328.28	1241.07
328.49	1222.64
328.70	1259.50
328.92	1204.21
329.13	1259.50
329.34	1269.74
329.55	1269.74
329.76	1257.45
329.98	1257.45
330.19	1253.36
330.40	1239.02
330.61	1300.46
330.83	1322.99
331.04	1296.36
331.25	1363.95
331.46	1196.01
331.68	1269.74
331.89	1306.60
332.10	1308.65
332.31	1269.74
332.52	1226.73
332.74	1206.25
332.95	1316.84
333.16	1273.84
333.37	1271.79
333.58	1257.45
333.80	1275.88
334.01	1253.36
334.22	1239.02
334.43	1288.17
334.64	1187.82
334.86	1251.31
335.07	1290.22
335.28	1312.75
335.49	1218.54
335.70	1212.40
335.92	1234.93
336.13	1308.65
336.34	1271.79
336.55	1304.56
336.76	1255.40
336.98	1261.55
337.19	1282.03
337.40	1255.40
337.61	1314.80
337.82	1347.56
338.04	1316.84
338.25	1255.40
338.46	1208.30
338.67	1275.88
338.88	1284.08
339.09	1193.97
339.31	1230.83
339.52	1279.98
339.73	1249.26
339.94	1306.60
340.15	1249.26
340.36	1269.74
340.58	1261.55
340.79	1284.08
341.00	1257.45
341.21	1259.50
341.42	1167.34
341.63	1308.65
341.85	1245.16
342.06	1308.65
342.27	1277.93
342.48	1269.74
342.69	1220.59
342.90	1282.03
343.12	1263.60
343.33	1243.12
343.54	1298.41
343.75	1259.50
343.96	1234.93
344.17	1322.99
344.38	1236.97
344.60	1167.34
344.81	1265.64
345.02	1253.36
345.23	1216.49
345.44	1269.74
345.65	1214.45
345.86	1325.04
346.07	1234.93
346.29	1261.55
346.50	1230.83
346.71	1312.75
346.92	1275.88
347.13	1255.40
347.34	1234.93
347.55	1271.79
347.76	1304.56
347.98	1230.83
348.19	1284.08
348.40	1300.46
348.61	1257.45
348.82	1263.60
349.03	1304.56
349.24	1232.88
349.45	1302.51
349.66	1320.94
349.88	1247.21
350.09	1353.71
350.30	1259.50
350.51	1296.36
350.72	1239.02
350.93	1312.75
351.14	1245.16
351.35	1267.69
351.56	1306.60
351.77	1306.60
351.99	1302.51
352.20	1279.98
352.41	1251.31
352.62	1222.64
352.83	1241.07
353.04	1261.55
353.25	1236.97
353.46	1357.80
353.67	1261.55
353.88	1322.99
354.09	1232.88
354.30	1288.17
354.52	1247.21
354.73	1257.45
354.94	1220.59
355.15	1228.78
355.36	1263.60
355.57	1275.88
355.78	1239.02
355.99	1296.36
356.20	1329.13
356.41	1273.84
356.62	1288.17
356.83	1282.03
357.04	1284.08
357.25	1271.79
357.46	1230.83
357.68	1333.23
357.89	1261.55
358.10	1288.17
358.31	1210.35
358.52	1259.50
358.73	1210.35
358.94	1255.40
359.15	1327.08
359.36	1366.00
359.57	1279.98
359.78	1275.88
359.99	1247.21
360.20	1208.30
360.41	1286.12
360.62	1273.84
360.83	1218.54
361.04	1273.84
361.25	1224.69
361.46	1206.25
361.67	1236.97
361.88	1255.40
362.09	1329.13
362.30	1275.88
362.51	1239.02
362.72	1290.22
362.93	1214.45
363.14	1249.26
363.35	1269.74
363.56	1275.88
363.78	1292.27
363.99	1157.10
364.20	1279.98
364.41	1243.12
364.62	1265.64
364.83	1331.18
365.04	1296.36
365.25	1282.03
365.46	1304.56
365.67	1312.75
365.88	1251.31
366.09	1296.36
366.30	1294.32
366.51	1292.27
366.72	1269.74
366.93	1298.41
367.14	1247.21
367.35	1241.07
367.56	1257.45
367.77	1288.17
367.98	1239.02
368.18	1288.17
368.39	1193.97
368.60	1288.17
368.81	1294.32
369.02	1263.60
369.23	1304.56
369.44	1284.08
369.65	1341.42
369.86	1198.06
370.07	1257.45
370.28	1267.69
370.49	1290.22
370.70	1214.45
370.91	1253.36
371.12	1292.27
371.33	1234.93
371.54	1220.59
371.75	1253.36
371.96	1247.21
372.17	1310.70
372.38	1267.69
372.59	1206.25
372.80	1282.03
373.01	1220.59
373.22	1288.17
373.43	1249.26
373.64	1327.08
373.85	1222.64
374.06	1216.49
374.26	1288.17
374.47	1275.88
374.68	1286.12
374.89	1312.75
375.10	1271.79
375.31	1282.03
375.52	1359.85
375.73	1277.93
375.94	1296.36
376.15	1279.98
376.36	1277.93
376.57	1234.93
376.78	1288.17
376.99	1257.45
377.20	1251.31
377.40	1249.26
377.61	1241.07
377.82	1306.60
378.03	1224.69
378.24	1261.55
378.45	1257.45
378.66	1220.59
378.87	1261.55
379.08	1230.83
379.29	1187.82
379.50	1284.08
379.71	1245.16
379.91	1275.88
380.12	1284.08
380.33	1282.03
380.54	1247.21
380.75	1292.27
380.96	1214.45
381.17	1409.00
381.38	1236.97
381.59	1247.21
381.80	1290.22
382.00	1171.44
382.21	1290.22
382.42	1193.97
382.63	1304.56
382.84	1247.21
383.05	1261.55
383.26	1294.32
383.47	1306.60
383.68	1265.64
383.88	1253.36
384.09	1277.93
384.30	1228.78
384.51	1314.80
384.72	1282.03
384.93	1228.78
385.14	1159.15
385.35	1251.31
385.55	1177.58
385.76	1267.69
385.97	1259.50
386.18	1347.56
386.39	1261.55
386.60	1255.40
386.81	1314.80
387.02	1245.16
387.22	1222.64
387.43	1263.60
387.64	1288.17
387.85	1282.03
388.06	1200.11
388.27	1284.08
388.48	1277.93
388.68	1329.13
388.89	1261.55
389.10	1234.93
389.31	1257.45
389.52	1251.31
389.73	1167.34
389.93	1318.89
390.14	1259.50
390.35	1320.94
390.56	1249.26
390.77	1353.71
390.98	1249.26
391.18	1245.16
391.39	1263.60
391.60	1302.51
391.81	1304.56
392.02	1236.97
392.23	1220.59
392.43	1318.89
392.64	1333.23
392.85	1261.55
393.06	1275.88
393.27	1286.12
393.47	1284.08
393.68	1249.26
393.89	1263.60
394.10	1331.18
394.31	1206.25
394.52	1247.21
394.72	1298.41
394.93	1277.93
395.14	1273.84
395.35	1189.87
395.56	1304.56
395.76	1335.28
395.97	1232.88
396.18	1282.03
396.39	1255.40
396.60	1230.83
396.80	1247.21
397.01	1236.97
397.22	1298.41
397.43	1294.32
397.64	1216.49
397.84	1206.25
398.05	1269.74
398.26	1267.69
398.47	1191.92
398.67	1257.45
398.88	1230.83
399.09	1216.49
399.30	1290.22
399.51	1286.12
399.71	1208.30
399.92	1271.79
400.13	1312.75
400.34	1279.98
400.54	1206.25
400.75	1234.93
400.96	1279.98
401.17	1259.50
401.37	1292.27
401.58	1269.74
401.79	1273.84
402.00	1267.69
402.21	1347.56
402.41	1257.45
402.62	1241.07
402.83	1245.16
403.04	1290.22
403.24	1261.55
403.45	1298.41
403.66	1376.24
403.87	1216.49
404.07	1322.99
404.28	1259.50
404.49	1314.80
404.70	1232.88
404.90	1243.12
405.11	1196.01
405.32	1236.97
405.52	1222.64
405.73	1267.69
405.94	1271.79
406.15	1290.22
406.35	1236.97
406.56	1241.07
406.77	1282.03
406.98	1290.22
407.18	1245.16
407.39	1296.36
407.60	1245.16
407.80	1341.42
408.01	1253.36
408.22	1282.03
408.43	1284.08
408.63	1271.79
408.84	1220.59
409.05	1304.56
409.25	1202.16
409.46	1318.89
409.67	1296.36
409.88	1263.60
410.08	1261.55
410.29	1247.21
410.50	1232.88
410.70	1318.89
410.91	1253.36
411.12	1318.89
411.32	1181.68
411.53	1275.88
411.74	1249.26
411.95	1333.23
412.15	1267.69
412.36	1265.64
412.57	1239.02
412.77	1331.18
412.98	1325.04
413.19	1273.84
413.39	1193.97
413.60	1255.40
413.81	1255.40
414.01	1279.98
414.22	1294.32
414.43	1333.23
414.63	1302.51
414.84	1232.88
415.05	1226.73
415.25	1253.36
415.46	1230.83
415.67	1312.75
415.87	1277.93
416.08	1265.64
416.29	1271.79
416.49	1294.32
416.70	1255.40
416.91	1286.12
417.11	1263.60
417.32	1226.73
417.53	1200.11
417.73	1288.17
417.94	1241.07
418.15	1304.56
418.35	1220.59
418.56	1292.27
418.77	1220.59
418.97	1325.04
419.18	1269.74
419.38	1239.02
419.59	1206.25
419.80	1255.40
420.00	1267.69
420.21	1222.64
420.42	1331.18
420.62	1339.37
420.83	1239.02
421.04	1255.40
421.24	1265.64
421.45	1245.16
421.65	1288.17
421.86	1337.32
422.07	1216.49
422.27	1273.84
422.48	1241.07
422.69	1247.21
422.89	1269.74
423.10	1236.97
423.30	1316.84
423.51	1169.39
423.72	1306.60
423.92	1312.75
424.13	1230.83
424.33	1275.88
424.54	1241.07
424.75	1255.40
424.95	1286.12
425.16	1279.98
425.36	1282.03
425.57	1251.31
425.78	1251.31
425.98	1257.45
426.19	1284.08
426.39	1179.63
426.60	1261.55
426.81	1345.52
427.01	1269.74
427.22	1251.31
427.42	1232.88
427.63	1224.69
427.83	1282.03
428.04	1306.60
428.25	1208.30
428.45	1273.84
428.66	1294.32
428.86	1310.70
429.07	1296.36
429.28	1249.26
429.48	1296.36
429.69	1286.12
429.89	1241.07
430.10	1257.45
430.30	1304.56
430.51	1318.89
430.71	1296.36
430.92	1275.88
431.13	1290.22
431.33	1302.51
431.54	1296.36
431.74	1261.55
431.95	1267.69
432.15	1284.08
432.36	1255.40
432.56	1253.36
432.77	1228.78
432.98	1265.64
433.18	1376.24
433.39	1282.03
433.59	1228.78
433.80	1241.07
434.00	1300.46
434.21	1241.07
434.41	1208.30
434.62	1236.97
434.82	1234.93
435.03	1339.37
435.23	1267.69
435.44	1265.64
435.64	1314.80
435.85	1236.97
436.06	1269.74
436.26	1249.26
436.47	1308.65
436.67	1230.83
436.88	1234.93
437.08	1245.16
437.29	1243.12
437.49	1325.04
437.70	1333.23
437.90	1191.92
438.11	1288.17
438.31	1243.12
438.52	1212.40
438.72	1298.41
438.93	1288.17
439.13	1269.74
439.34	1243.12
439.54	1249.26
439.75	1269.74
439.95	1228.78
440.16	1320.94
440.36	1282.03
440.57	1263.60
440.77	1277.93
440.98	1263.60
441.18	1251.31
441.39	1316.84
441.59	1255.40
441.80	1290.22
442.00	1345.52
442.21	1282.03
442.41	1226.73
442.62	1232.88
442.82	1284.08
443.02	1275.88
443.23	1314.80
443.43	1253.36
443.64	1302.51
443.84	1292.27
444.05	1314.80
444.25	1234.93
444.46	1304.56
444.66	1279.98
444.87	1366.00
445.07	1318.89
445.28	1298.41
445.48	1204.21
445.69	1288.17
445.89	1374.19
446.09	1296.36
446.30	1298.41
446.50	1277.93
446.71	1247.21
446.91	1275.88
447.12	1224.69
447.32	1290.22
447.53	1288.17
447.73	1286.12
447.93	1296.36
448.14	1282.03
448.34	1239.02
448.55	1298.41
448.75	1335.28
448.96	1314.80
449.16	1253.36
449.36	1263.60
449.57	1304.56
449.77	1339.37
449.98	1261.55
450.18	1265.64
450.39	1286.12
450.59	1296.36
450.79	1241.07
451.00	1288.17
451.20	1322.99
451.41	1206.25
451.61	1230.83
451.81	1239.02
452.02	1261.55
452.22	1249.26
452.43	1318.89
452.63	1306.60
