SpectraSuite Data File
++++++++++++++++++++++++++++++++++++
Date: Sun Apr 03 19:55:31 CEST 2016
User: root
Dark Spectrum Present: No
Reference Spectrum Present: No
Number of Sampled Component Spectra: 1
Spectrometers: USB4C02835
Integration Time (usec): 10000 (USB4C02835)
Spectra Averaged: 1 (USB4C02835)
Boxcar Smoothing: 0 (USB4C02835)
Correct for Electrical Dark: No (USB4C02835)
Strobe/Lamp Enabled: No (USB4C02835)
Correct for Detector Non-linearity: No (USB4C02835)
Correct for Stray Light: No (USB4C02835)
Number of Pixels in Processed Spectrum: 3648
>>>>>Begin Processed Spectral Data<<<<<
177.47	1220.59
177.69	1220.59
177.91	1220.59
178.13	1259.50
178.36	1306.60
178.58	1282.03
178.80	1284.08
179.02	1277.93
179.24	1263.60
179.46	1292.27
179.68	1218.54
179.90	1236.97
180.13	1275.88
180.35	1288.17
180.57	1312.75
180.79	1228.78
181.01	1224.69
181.23	1282.03
181.45	1249.26
181.67	1308.65
181.90	1335.28
182.12	1212.40
182.34	1214.45
182.56	1253.36
182.78	1290.22
183.00	1232.88
183.22	1269.74
183.44	1261.55
183.66	1263.60
183.89	1273.84
184.11	1279.98
184.33	1245.16
184.55	1224.69
184.77	1212.40
184.99	1208.30
185.21	1312.75
185.43	1304.56
185.65	1251.31
185.87	1329.13
186.10	1310.70
186.32	1249.26
186.54	1322.99
186.76	1298.41
186.98	1241.07
187.20	1189.87
187.42	1312.75
187.64	1255.40
187.86	1320.94
188.08	1290.22
188.30	1261.55
188.52	1288.17
188.75	1320.94
188.97	1279.98
189.19	1298.41
189.41	1304.56
189.63	1290.22
189.85	1277.93
190.07	1257.45
190.29	1232.88
190.51	1329.13
190.73	1314.80
190.95	1288.17
191.17	1310.70
191.39	1226.73
191.61	1263.60
191.84	1222.64
192.06	1267.69
192.28	1214.45
192.50	1314.80
192.72	1273.84
192.94	1286.12
193.16	1251.31
193.38	1236.97
193.60	1253.36
193.82	1335.28
194.04	1236.97
194.26	1302.51
194.48	1206.25
194.70	1257.45
194.92	1239.02
195.14	1263.60
195.36	1271.79
195.58	1288.17
195.80	1304.56
196.02	1239.02
196.24	1224.69
196.46	1302.51
196.69	1259.50
196.91	1251.31
197.13	1275.88
197.35	1298.41
197.57	1290.22
197.79	1214.45
198.01	1241.07
198.23	1253.36
198.45	1202.16
198.67	1345.52
198.89	1286.12
199.11	1247.21
199.33	1183.73
199.55	1298.41
199.77	1282.03
199.99	1269.74
200.21	1230.83
200.43	1314.80
200.65	1265.64
200.87	1228.78
201.09	1310.70
201.31	1236.97
201.53	1282.03
201.75	1218.54
201.97	1251.31
202.19	1298.41
202.41	1220.59
202.63	1218.54
202.85	1253.36
203.07	1228.78
203.29	1286.12
203.51	1277.93
203.73	1234.93
203.95	1331.18
204.17	1267.69
204.39	1327.08
204.61	1241.07
204.83	1290.22
205.05	1282.03
205.27	1241.07
205.49	1261.55
205.71	1200.11
205.93	1294.32
206.15	1279.98
206.37	1271.79
206.59	1263.60
206.81	1282.03
207.03	1277.93
207.25	1228.78
207.47	1273.84
207.69	1239.02
207.91	1265.64
208.13	1224.69
208.34	1308.65
208.56	1267.69
208.78	1296.36
209.00	1284.08
209.22	1271.79
209.44	1204.21
209.66	1312.75
209.88	1300.46
210.10	1269.74
210.32	1282.03
210.54	1312.75
210.76	1224.69
210.98	1288.17
211.20	1320.94
211.42	1259.50
211.64	1259.50
211.86	1257.45
212.08	1232.88
212.30	1253.36
212.52	1239.02
212.74	1267.69
212.96	1255.40
213.17	1300.46
213.39	1347.56
213.61	1228.78
213.83	1327.08
214.05	1277.93
214.27	1253.36
214.49	1196.01
214.71	1206.25
214.93	1261.55
215.15	1241.07
215.37	1343.47
215.59	1300.46
215.81	1224.69
216.03	1284.08
216.24	1304.56
216.46	1263.60
216.68	1275.88
216.90	1304.56
217.12	1304.56
217.34	1271.79
217.56	1247.21
217.78	1245.16
218.00	1290.22
218.22	1247.21
218.44	1208.30
218.66	1212.40
218.87	1298.41
219.09	1241.07
219.31	1304.56
219.53	1249.26
219.75	1191.92
219.97	1277.93
220.19	1265.64
220.41	1263.60
220.63	1230.83
220.85	1322.99
221.06	1318.89
221.28	1267.69
221.50	1265.64
221.72	1363.95
221.94	1296.36
222.16	1269.74
222.38	1271.79
222.60	1247.21
222.82	1343.47
223.03	1243.12
223.25	1271.79
223.47	1265.64
223.69	1304.56
223.91	1286.12
224.13	1294.32
224.35	1261.55
224.57	1226.73
224.78	1265.64
225.00	1288.17
225.22	1284.08
225.44	1259.50
225.66	1275.88
225.88	1228.78
226.10	1308.65
226.32	1255.40
226.53	1265.64
226.75	1189.87
226.97	1191.92
227.19	1249.26
227.41	1224.69
227.63	1230.83
227.85	1220.59
228.06	1208.30
228.28	1232.88
228.50	1204.21
228.72	1171.44
228.94	1222.64
229.16	1273.84
229.37	1308.65
229.59	1165.29
229.81	1253.36
230.03	1202.16
230.25	1232.88
230.47	1200.11
230.69	1236.97
230.90	1284.08
231.12	1222.64
231.34	1257.45
231.56	1232.88
231.78	1265.64
232.00	1267.69
232.21	1316.84
232.43	1263.60
232.65	1267.69
232.87	1294.32
233.09	1263.60
233.30	1245.16
233.52	1288.17
233.74	1345.52
233.96	1290.22
234.18	1273.84
234.40	1243.12
234.61	1269.74
234.83	1234.93
235.05	1279.98
235.27	1329.13
235.49	1263.60
235.70	1275.88
235.92	1349.61
236.14	1296.36
236.36	1286.12
236.58	1251.31
236.79	1259.50
237.01	1253.36
237.23	1239.02
237.45	1302.51
237.67	1214.45
237.88	1193.97
238.10	1286.12
238.32	1298.41
238.54	1279.98
238.76	1288.17
238.97	1263.60
239.19	1218.54
239.41	1386.47
239.63	1329.13
239.85	1277.93
240.06	1224.69
240.28	1349.61
240.50	1275.88
240.72	1322.99
240.93	1218.54
241.15	1318.89
241.37	1288.17
241.59	1357.80
241.81	1214.45
242.02	1228.78
242.24	1267.69
242.46	1316.84
242.68	1236.97
242.89	1267.69
243.11	1267.69
243.33	1282.03
243.55	1226.73
243.76	1320.94
243.98	1228.78
244.20	1271.79
244.42	1247.21
244.64	1279.98
244.85	1198.06
245.07	1314.80
245.29	1236.97
245.51	1275.88
245.72	1333.23
245.94	1286.12
246.16	1314.80
246.38	1251.31
246.59	1282.03
246.81	1179.63
247.03	1249.26
247.24	1263.60
247.46	1290.22
247.68	1226.73
247.90	1263.60
248.11	1241.07
248.33	1214.45
248.55	1261.55
248.77	1288.17
248.98	1337.32
249.20	1206.25
249.42	1271.79
249.64	1302.51
249.85	1300.46
250.07	1298.41
250.29	1230.83
250.50	1228.78
250.72	1257.45
250.94	1337.32
251.16	1183.73
251.37	1253.36
251.59	1265.64
251.81	1316.84
252.02	1271.79
252.24	1316.84
252.46	1208.30
252.68	1263.60
252.89	1275.88
253.11	1222.64
253.33	1300.46
253.54	1257.45
253.76	1224.69
253.98	1337.32
254.20	1271.79
254.41	1200.11
254.63	1306.60
254.85	1230.83
255.06	1284.08
255.28	1273.84
255.50	1322.99
255.71	1239.02
255.93	1290.22
256.15	1222.64
256.36	1247.21
256.58	1183.73
256.80	1257.45
257.02	1259.50
257.23	1296.36
257.45	1249.26
257.67	1286.12
257.88	1277.93
258.10	1200.11
258.32	1247.21
258.53	1241.07
258.75	1300.46
258.97	1259.50
259.18	1300.46
259.40	1236.97
259.62	1327.08
259.83	1224.69
260.05	1247.21
260.27	1288.17
260.48	1243.12
260.70	1253.36
260.92	1239.02
261.13	1232.88
261.35	1286.12
261.57	1257.45
261.78	1239.02
262.00	1228.78
262.22	1232.88
262.43	1232.88
262.65	1257.45
262.86	1228.78
263.08	1300.46
263.30	1288.17
263.51	1269.74
263.73	1357.80
263.95	1284.08
264.16	1310.70
264.38	1298.41
264.60	1306.60
264.81	1247.21
265.03	1232.88
265.25	1261.55
265.46	1294.32
265.68	1179.63
265.89	1329.13
266.11	1269.74
266.33	1200.11
266.54	1269.74
266.76	1261.55
266.98	1251.31
267.19	1296.36
267.41	1253.36
267.62	1253.36
267.84	1239.02
268.06	1181.68
268.27	1245.16
268.49	1255.40
268.70	1277.93
268.92	1263.60
269.14	1318.89
269.35	1318.89
269.57	1249.26
269.79	1314.80
270.00	1333.23
270.22	1224.69
270.43	1239.02
270.65	1247.21
270.87	1286.12
271.08	1300.46
271.30	1277.93
271.51	1290.22
271.73	1220.59
271.95	1372.14
272.16	1277.93
272.38	1200.11
272.59	1251.31
272.81	1312.75
273.02	1331.18
273.24	1318.89
273.46	1306.60
273.67	1247.21
273.89	1312.75
274.10	1302.51
274.32	1302.51
274.54	1277.93
274.75	1263.60
274.97	1243.12
275.18	1218.54
275.40	1222.64
275.61	1218.54
275.83	1273.84
276.05	1247.21
276.26	1232.88
276.48	1245.16
276.69	1222.64
276.91	1294.32
277.12	1245.16
277.34	1216.49
277.55	1290.22
277.77	1265.64
277.99	1234.93
278.20	1222.64
278.42	1286.12
278.63	1263.60
278.85	1312.75
279.06	1210.35
279.28	1208.30
279.49	1245.16
279.71	1261.55
279.93	1325.04
280.14	1241.07
280.36	1202.16
280.57	1290.22
280.79	1245.16
281.00	1267.69
281.22	1245.16
281.43	1263.60
281.65	1232.88
281.86	1290.22
282.08	1306.60
282.29	1239.02
282.51	1247.21
282.73	1261.55
282.94	1327.08
283.16	1218.54
283.37	1302.51
283.59	1298.41
283.80	1306.60
284.02	1239.02
284.23	1259.50
284.45	1212.40
284.66	1241.07
284.88	1247.21
285.09	1189.87
285.31	1271.79
285.52	1191.92
285.74	1263.60
285.95	1290.22
286.17	1277.93
286.38	1290.22
286.60	1249.26
286.81	1220.59
287.03	1277.93
287.24	1316.84
287.46	1347.56
287.67	1304.56
287.89	1261.55
288.10	1245.16
288.32	1239.02
288.53	1228.78
288.75	1259.50
288.96	1322.99
289.18	1214.45
289.39	1228.78
289.61	1275.88
289.82	1310.70
290.04	1284.08
290.25	1208.30
290.47	1327.08
290.68	1210.35
290.90	1312.75
291.11	1327.08
291.33	1318.89
291.54	1187.82
291.76	1316.84
291.97	1296.36
292.18	1277.93
292.40	1214.45
292.61	1224.69
292.83	1226.73
293.04	1257.45
293.26	1318.89
293.47	1304.56
293.69	1300.46
293.90	1282.03
294.12	1308.65
294.33	1222.64
294.55	1279.98
294.76	1331.18
294.97	1232.88
295.19	1267.69
295.40	1251.31
295.62	1243.12
295.83	1322.99
296.05	1282.03
296.26	1222.64
296.48	1298.41
296.69	1282.03
296.90	1265.64
297.12	1300.46
297.33	1255.40
297.55	1228.78
297.76	1312.75
297.98	1155.05
298.19	1259.50
298.41	1257.45
298.62	1247.21
298.83	1263.60
299.05	1335.28
299.26	1277.93
299.48	1284.08
299.69	1239.02
299.90	1292.27
300.12	1241.07
300.33	1224.69
300.55	1322.99
300.76	1230.83
300.98	1269.74
301.19	1243.12
301.40	1257.45
301.62	1273.84
301.83	1273.84
302.05	1220.59
302.26	1259.50
302.47	1320.94
302.69	1245.16
302.90	1290.22
303.12	1269.74
303.33	1259.50
303.54	1261.55
303.76	1257.45
303.97	1210.35
304.19	1306.60
304.40	1325.04
304.61	1310.70
304.83	1277.93
305.04	1320.94
305.26	1208.30
305.47	1282.03
305.68	1312.75
305.90	1290.22
306.11	1339.37
306.33	1320.94
306.54	1314.80
306.75	1343.47
306.97	1263.60
307.18	1275.88
307.39	1282.03
307.61	1187.82
307.82	1249.26
308.04	1228.78
308.25	1279.98
308.46	1302.51
308.68	1312.75
308.89	1271.79
309.10	1267.69
309.32	1294.32
309.53	1302.51
309.74	1294.32
309.96	1204.21
310.17	1253.36
310.39	1230.83
310.60	1302.51
310.81	1183.73
311.03	1226.73
311.24	1263.60
311.45	1232.88
311.67	1284.08
311.88	1224.69
312.09	1298.41
312.31	1251.31
312.52	1282.03
312.73	1269.74
312.95	1269.74
313.16	1234.93
313.37	1267.69
313.59	1253.36
313.80	1306.60
314.01	1327.08
314.23	1241.07
314.44	1271.79
314.65	1167.34
314.87	1224.69
315.08	1277.93
315.29	1267.69
315.51	1296.36
315.72	1193.97
315.93	1212.40
316.15	1216.49
316.36	1284.08
316.57	1236.97
316.79	1300.46
317.00	1222.64
317.21	1296.36
317.43	1232.88
317.64	1263.60
317.85	1275.88
318.07	1234.93
318.28	1282.03
318.49	1331.18
318.70	1204.21
318.92	1253.36
319.13	1234.93
319.34	1245.16
319.56	1259.50
319.77	1245.16
319.98	1257.45
320.20	1249.26
320.41	1269.74
320.62	1269.74
320.83	1345.52
321.05	1263.60
321.26	1228.78
321.47	1316.84
321.69	1325.04
321.90	1218.54
322.11	1341.42
322.32	1259.50
322.54	1224.69
322.75	1259.50
322.96	1222.64
323.18	1286.12
323.39	1292.27
323.60	1259.50
323.81	1329.13
324.03	1322.99
324.24	1247.21
324.45	1312.75
324.66	1265.64
324.88	1335.28
325.09	1232.88
325.30	1212.40
325.52	1228.78
325.73	1294.32
325.94	1265.64
326.15	1335.28
326.37	1253.36
326.58	1322.99
326.79	1257.45
327.00	1196.01
327.22	1337.32
327.43	1251.31
327.64	1263.60
327.85	1282.03
328.07	1296.36
328.28	1282.03
328.49	1253.36
328.70	1185.77
328.92	1265.64
329.13	1298.41
329.34	1288.17
329.55	1329.13
329.76	1359.85
329.98	1247.21
330.19	1257.45
330.40	1290.22
330.61	1245.16
330.83	1261.55
331.04	1261.55
331.25	1259.50
331.46	1265.64
331.68	1210.35
331.89	1230.83
332.10	1308.65
332.31	1265.64
332.52	1198.06
332.74	1290.22
332.95	1216.49
333.16	1269.74
333.37	1241.07
333.58	1251.31
333.80	1284.08
334.01	1216.49
334.22	1257.45
334.43	1249.26
334.64	1286.12
334.86	1236.97
335.07	1253.36
335.28	1284.08
335.49	1308.65
335.70	1210.35
335.92	1282.03
336.13	1255.40
336.34	1312.75
336.55	1259.50
336.76	1312.75
336.98	1294.32
337.19	1257.45
337.40	1273.84
337.61	1212.40
337.82	1269.74
338.04	1236.97
338.25	1249.26
338.46	1259.50
338.67	1337.32
338.88	1275.88
339.09	1282.03
339.31	1210.35
339.52	1193.97
339.73	1247.21
339.94	1236.97
340.15	1243.12
340.36	1279.98
340.58	1236.97
340.79	1228.78
341.00	1230.83
341.21	1175.53
341.42	1273.84
341.63	1275.88
341.85	1218.54
342.06	1224.69
342.27	1277.93
342.48	1279.98
342.69	1271.79
342.90	1212.40
343.12	1273.84
343.33	1232.88
343.54	1247.21
343.75	1271.79
343.96	1325.04
344.17	1255.40
344.38	1277.93
344.60	1284.08
344.81	1269.74
345.02	1306.60
345.23	1185.77
345.44	1239.02
345.65	1355.76
345.86	1226.73
346.07	1228.78
346.29	1290.22
346.50	1304.56
346.71	1255.40
346.92	1218.54
347.13	1230.83
347.34	1279.98
347.55	1271.79
347.76	1234.93
347.98	1273.84
348.19	1265.64
348.40	1269.74
348.61	1185.77
348.82	1259.50
349.03	1290.22
349.24	1275.88
349.45	1316.84
349.66	1216.49
349.88	1193.97
350.09	1263.60
350.30	1261.55
350.51	1269.74
350.72	1366.00
350.93	1282.03
351.14	1247.21
351.35	1210.35
351.56	1257.45
351.77	1286.12
351.99	1261.55
352.20	1243.12
352.41	1335.28
352.62	1279.98
352.83	1177.58
353.04	1275.88
353.25	1261.55
353.46	1275.88
353.67	1320.94
353.88	1296.36
354.09	1286.12
354.30	1304.56
354.52	1277.93
354.73	1302.51
354.94	1247.21
355.15	1290.22
355.36	1259.50
355.57	1304.56
355.78	1253.36
355.99	1353.71
356.20	1267.69
356.41	1239.02
356.62	1374.19
356.83	1267.69
357.04	1265.64
357.25	1275.88
357.46	1232.88
357.68	1296.36
357.89	1269.74
358.10	1329.13
358.31	1275.88
358.52	1222.64
358.73	1292.27
358.94	1290.22
359.15	1282.03
359.36	1282.03
359.57	1247.21
359.78	1288.17
359.99	1275.88
360.20	1243.12
360.41	1257.45
360.62	1302.51
360.83	1294.32
361.04	1277.93
361.25	1241.07
361.46	1241.07
361.67	1216.49
361.88	1312.75
362.09	1298.41
362.30	1296.36
362.51	1296.36
362.72	1279.98
362.93	1230.83
363.14	1279.98
363.35	1279.98
363.56	1298.41
363.78	1259.50
363.99	1263.60
364.20	1296.36
364.41	1316.84
364.62	1296.36
364.83	1228.78
365.04	1245.16
365.25	1347.56
365.46	1226.73
365.67	1296.36
365.88	1298.41
366.09	1357.80
366.30	1249.26
366.51	1247.21
366.72	1234.93
366.93	1271.79
367.14	1296.36
367.35	1290.22
367.56	1214.45
367.77	1253.36
367.98	1335.28
368.18	1359.85
368.39	1359.85
368.60	1247.21
368.81	1253.36
369.02	1275.88
369.23	1230.83
369.44	1263.60
369.65	1210.35
369.86	1214.45
370.07	1320.94
370.28	1249.26
370.49	1275.88
370.70	1308.65
370.91	1341.42
371.12	1204.21
371.33	1302.51
371.54	1257.45
371.75	1316.84
371.96	1310.70
372.17	1384.43
372.38	1251.31
372.59	1271.79
372.80	1251.31
373.01	1331.18
373.22	1331.18
373.43	1200.11
373.64	1263.60
373.85	1318.89
374.06	1263.60
374.26	1304.56
374.47	1275.88
374.68	1271.79
374.89	1318.89
375.10	1282.03
375.31	1249.26
375.52	1181.68
375.73	1265.64
375.94	1259.50
376.15	1269.74
376.36	1249.26
376.57	1310.70
376.78	1216.49
376.99	1300.46
377.20	1277.93
377.40	1312.75
377.61	1277.93
377.82	1261.55
378.03	1288.17
378.24	1271.79
378.45	1310.70
378.66	1306.60
378.87	1288.17
379.08	1224.69
379.29	1224.69
379.50	1236.97
379.71	1269.74
379.91	1200.11
380.12	1259.50
380.33	1294.32
380.54	1204.21
380.75	1214.45
380.96	1232.88
381.17	1308.65
381.38	1259.50
381.59	1302.51
381.80	1279.98
382.00	1230.83
382.21	1308.65
382.42	1273.84
382.63	1210.35
382.84	1322.99
383.05	1249.26
383.26	1259.50
383.47	1304.56
383.68	1302.51
383.88	1282.03
384.09	1282.03
384.30	1196.01
384.51	1257.45
384.72	1243.12
384.93	1282.03
385.14	1296.36
385.35	1210.35
385.55	1255.40
385.76	1312.75
385.97	1302.51
386.18	1265.64
386.39	1265.64
386.60	1208.30
386.81	1249.26
387.02	1314.80
387.22	1230.83
387.43	1271.79
387.64	1259.50
387.85	1265.64
388.06	1255.40
388.27	1241.07
388.48	1257.45
388.68	1267.69
388.89	1284.08
389.10	1271.79
389.31	1275.88
389.52	1247.21
389.73	1224.69
389.93	1255.40
390.14	1247.21
390.35	1288.17
390.56	1275.88
390.77	1247.21
390.98	1290.22
391.18	1253.36
391.39	1251.31
391.60	1271.79
391.81	1245.16
392.02	1263.60
392.23	1361.90
392.43	1302.51
392.64	1318.89
392.85	1245.16
393.06	1259.50
393.27	1298.41
393.47	1216.49
393.68	1177.58
393.89	1230.83
394.10	1202.16
394.31	1290.22
394.52	1265.64
394.72	1249.26
394.93	1226.73
395.14	1284.08
395.35	1271.79
395.56	1271.79
395.76	1222.64
395.97	1216.49
396.18	1304.56
396.39	1263.60
396.60	1284.08
396.80	1298.41
397.01	1259.50
397.22	1210.35
397.43	1325.04
397.64	1292.27
397.84	1236.97
398.05	1290.22
398.26	1243.12
398.47	1269.74
398.67	1286.12
398.88	1255.40
399.09	1286.12
399.30	1275.88
399.51	1290.22
399.71	1263.60
399.92	1239.02
400.13	1271.79
400.34	1261.55
400.54	1249.26
400.75	1286.12
400.96	1208.30
401.17	1267.69
401.37	1290.22
401.58	1288.17
401.79	1300.46
402.00	1296.36
402.21	1251.31
402.41	1212.40
402.62	1249.26
402.83	1191.92
403.04	1208.30
403.24	1314.80
403.45	1224.69
403.66	1275.88
403.87	1298.41
404.07	1284.08
404.28	1234.93
404.49	1269.74
404.70	1234.93
404.90	1247.21
405.11	1234.93
405.32	1257.45
405.52	1304.56
405.73	1296.36
405.94	1255.40
406.15	1255.40
406.35	1241.07
406.56	1253.36
406.77	1320.94
406.98	1191.92
407.18	1263.60
407.39	1314.80
407.60	1230.83
407.80	1269.74
408.01	1292.27
408.22	1269.74
408.43	1271.79
408.63	1228.78
408.84	1294.32
409.05	1259.50
409.25	1224.69
409.46	1259.50
409.67	1286.12
409.88	1273.84
410.08	1294.32
410.29	1255.40
410.50	1249.26
410.70	1275.88
410.91	1273.84
411.12	1200.11
411.32	1298.41
411.53	1353.71
411.74	1304.56
411.95	1314.80
412.15	1261.55
412.36	1212.40
412.57	1296.36
412.77	1216.49
412.98	1320.94
413.19	1271.79
413.39	1249.26
413.60	1298.41
413.81	1286.12
414.01	1247.21
414.22	1282.03
414.43	1286.12
414.63	1357.80
414.84	1206.25
415.05	1226.73
415.25	1292.27
415.46	1286.12
415.67	1288.17
415.87	1294.32
416.08	1228.78
416.29	1196.01
416.49	1261.55
416.70	1236.97
416.91	1273.84
417.11	1286.12
417.32	1255.40
417.53	1335.28
417.73	1343.47
417.94	1241.07
418.15	1220.59
418.35	1296.36
418.56	1273.84
418.77	1322.99
418.97	1261.55
419.18	1245.16
419.38	1286.12
419.59	1302.51
419.80	1292.27
420.00	1234.93
420.21	1279.98
420.42	1259.50
420.62	1318.89
420.83	1277.93
421.04	1296.36
421.24	1298.41
421.45	1273.84
421.65	1329.13
421.86	1239.02
422.07	1261.55
422.27	1210.35
422.48	1247.21
422.69	1329.13
422.89	1191.92
423.10	1314.80
423.30	1257.45
423.51	1228.78
423.72	1198.06
423.92	1202.16
424.13	1234.93
424.33	1255.40
424.54	1198.06
424.75	1230.83
424.95	1286.12
425.16	1247.21
425.36	1322.99
425.57	1247.21
425.78	1226.73
425.98	1370.09
426.19	1286.12
426.39	1298.41
426.60	1298.41
426.81	1220.59
427.01	1220.59
427.22	1189.87
427.42	1222.64
427.63	1241.07
427.83	1335.28
428.04	1294.32
428.25	1269.74
428.45	1366.00
428.66	1294.32
428.86	1302.51
429.07	1226.73
429.28	1327.08
429.48	1294.32
429.69	1255.40
429.89	1355.76
430.10	1247.21
430.30	1294.32
430.51	1290.22
430.71	1290.22
430.92	1286.12
431.13	1239.02
431.33	1265.64
431.54	1226.73
431.74	1296.36
431.95	1345.52
432.15	1249.26
432.36	1253.36
432.56	1318.89
432.77	1253.36
432.98	1232.88
433.18	1234.93
433.39	1288.17
433.59	1200.11
433.80	1314.80
434.00	1251.31
434.21	1277.93
434.41	1273.84
434.62	1288.17
434.82	1259.50
435.03	1279.98
435.23	1292.27
435.44	1224.69
435.64	1286.12
435.85	1241.07
436.06	1234.93
436.26	1265.64
436.47	1306.60
436.67	1216.49
436.88	1263.60
437.08	1236.97
437.29	1271.79
437.49	1273.84
437.70	1259.50
437.90	1308.65
438.11	1267.69
438.31	1322.99
438.52	1329.13
438.72	1212.40
438.93	1265.64
439.13	1282.03
439.34	1284.08
439.54	1288.17
439.75	1279.98
439.95	1189.87
440.16	1181.68
440.36	1306.60
440.57	1296.36
440.77	1290.22
440.98	1257.45
441.18	1329.13
441.39	1241.07
441.59	1277.93
441.80	1249.26
442.00	1263.60
442.21	1243.12
442.41	1239.02
442.62	1261.55
442.82	1320.94
443.02	1224.69
443.23	1263.60
443.43	1314.80
443.64	1230.83
443.84	1267.69
444.05	1322.99
444.25	1288.17
444.46	1277.93
444.66	1251.31
444.87	1329.13
445.07	1302.51
445.28	1263.60
445.48	1261.55
445.69	1325.04
445.89	1257.45
446.09	1269.74
446.30	1304.56
446.50	1257.45
446.71	1167.34
446.91	1279.98
447.12	1236.97
447.32	1302.51
447.53	1327.08
447.73	1273.84
447.93	1234.93
448.14	1341.42
448.34	1273.84
448.55	1247.21
448.75	1255.40
448.96	1261.55
449.16	1320.94
449.36	1292.27
449.57	1220.59
449.77	1232.88
449.98	1257.45
450.18	1273.84
450.39	1277.93
450.59	1269.74
450.79	1249.26
451.00	1275.88
451.20	1288.17
451.41	1273.84
451.61	1282.03
451.81	1228.78
452.02	1306.60
452.22	1263.60
452.43	1359.85
452.63	1314.80
