SpectraSuite Data File
++++++++++++++++++++++++++++++++++++
Date: Sun Apr 03 19:55:30 CEST 2016
User: root
Dark Spectrum Present: No
Reference Spectrum Present: No
Number of Sampled Component Spectra: 1
Spectrometers: USB4C02835
Integration Time (usec): 10000 (USB4C02835)
Spectra Averaged: 1 (USB4C02835)
Boxcar Smoothing: 0 (USB4C02835)
Correct for Electrical Dark: No (USB4C02835)
Strobe/Lamp Enabled: No (USB4C02835)
Correct for Detector Non-linearity: No (USB4C02835)
Correct for Stray Light: No (USB4C02835)
Number of Pixels in Processed Spectrum: 3648
>>>>>Begin Processed Spectral Data<<<<<
177.47	1206.25
177.69	1206.25
177.91	1206.25
178.13	1294.32
178.36	1257.45
178.58	1261.55
178.80	1282.03
179.02	1288.17
179.24	1257.45
179.46	1247.21
179.68	1351.66
179.90	1314.80
180.13	1273.84
180.35	1249.26
180.57	1286.12
180.79	1322.99
181.01	1167.34
181.23	1282.03
181.45	1257.45
181.67	1228.78
181.90	1222.64
182.12	1275.88
182.34	1259.50
182.56	1275.88
182.78	1241.07
183.00	1249.26
183.22	1271.79
183.44	1263.60
183.66	1228.78
183.89	1251.31
184.11	1296.36
184.33	1286.12
184.55	1275.88
184.77	1247.21
184.99	1296.36
185.21	1300.46
185.43	1253.36
185.65	1327.08
185.87	1247.21
186.10	1257.45
186.32	1279.98
186.54	1273.84
186.76	1169.39
186.98	1245.16
187.20	1257.45
187.42	1308.65
187.64	1259.50
187.86	1247.21
188.08	1267.69
188.30	1304.56
188.52	1282.03
188.75	1222.64
188.97	1339.37
189.19	1257.45
189.41	1222.64
189.63	1300.46
189.85	1245.16
190.07	1222.64
190.29	1232.88
190.51	1243.12
190.73	1273.84
190.95	1298.41
191.17	1249.26
191.39	1302.51
191.61	1263.60
191.84	1198.06
192.06	1316.84
192.28	1298.41
192.50	1241.07
192.72	1265.64
192.94	1255.40
193.16	1249.26
193.38	1273.84
193.60	1243.12
193.82	1193.97
194.04	1255.40
194.26	1259.50
194.48	1230.83
194.70	1259.50
194.92	1167.34
195.14	1241.07
195.36	1255.40
195.58	1265.64
195.80	1249.26
196.02	1253.36
196.24	1251.31
196.46	1273.84
196.69	1191.92
196.91	1263.60
197.13	1298.41
197.35	1234.93
197.57	1220.59
197.79	1308.65
198.01	1236.97
198.23	1306.60
198.45	1263.60
198.67	1206.25
198.89	1273.84
199.11	1298.41
199.33	1341.42
199.55	1290.22
199.77	1320.94
199.99	1296.36
200.21	1261.55
200.43	1265.64
200.65	1269.74
200.87	1263.60
201.09	1257.45
201.31	1296.36
201.53	1271.79
201.75	1261.55
201.97	1294.32
202.19	1251.31
202.41	1255.40
202.63	1355.76
202.85	1269.74
203.07	1312.75
203.29	1220.59
203.51	1359.85
203.73	1230.83
203.95	1300.46
204.17	1333.23
204.39	1253.36
204.61	1236.97
204.83	1322.99
205.05	1259.50
205.27	1247.21
205.49	1239.02
205.71	1234.93
205.93	1337.32
206.15	1200.11
206.37	1259.50
206.59	1206.25
206.81	1271.79
207.03	1294.32
207.25	1267.69
207.47	1257.45
207.69	1322.99
207.91	1320.94
208.13	1253.36
208.34	1232.88
208.56	1286.12
208.78	1312.75
209.00	1284.08
209.22	1308.65
209.44	1183.73
209.66	1212.40
209.88	1263.60
210.10	1263.60
210.32	1263.60
210.54	1306.60
210.76	1273.84
210.98	1243.12
211.20	1255.40
211.42	1196.01
211.64	1314.80
211.86	1290.22
212.08	1294.32
212.30	1271.79
212.52	1273.84
212.74	1255.40
212.96	1288.17
213.17	1241.07
213.39	1257.45
213.61	1325.04
213.83	1335.28
214.05	1251.31
214.27	1265.64
214.49	1261.55
214.71	1259.50
214.93	1282.03
215.15	1282.03
215.37	1265.64
215.59	1279.98
215.81	1214.45
216.03	1234.93
216.24	1224.69
216.46	1208.30
216.68	1187.82
216.90	1284.08
217.12	1290.22
217.34	1304.56
217.56	1288.17
217.78	1257.45
218.00	1241.07
218.22	1304.56
218.44	1273.84
218.66	1202.16
218.87	1282.03
219.09	1273.84
219.31	1236.97
219.53	1196.01
219.75	1294.32
219.97	1331.18
220.19	1239.02
220.41	1286.12
220.63	1255.40
220.85	1296.36
221.06	1290.22
221.28	1234.93
221.50	1251.31
221.72	1290.22
221.94	1204.21
222.16	1255.40
222.38	1296.36
222.60	1239.02
222.82	1290.22
223.03	1279.98
223.25	1255.40
223.47	1269.74
223.69	1320.94
223.91	1320.94
224.13	1335.28
224.35	1284.08
224.57	1296.36
224.78	1357.80
225.00	1196.01
225.22	1269.74
225.44	1198.06
225.66	1316.84
225.88	1261.55
226.10	1236.97
226.32	1290.22
226.53	1282.03
226.75	1241.07
226.97	1236.97
227.19	1232.88
227.41	1261.55
227.63	1312.75
227.85	1220.59
228.06	1279.98
228.28	1310.70
228.50	1296.36
228.72	1277.93
228.94	1310.70
229.16	1290.22
229.37	1249.26
229.59	1245.16
229.81	1220.59
230.03	1271.79
230.25	1212.40
230.47	1232.88
230.69	1247.21
230.90	1267.69
231.12	1292.27
231.34	1204.21
231.56	1339.37
231.78	1267.69
232.00	1247.21
232.21	1286.12
232.43	1331.18
232.65	1230.83
232.87	1322.99
233.09	1261.55
233.30	1206.25
233.52	1277.93
233.74	1249.26
233.96	1241.07
234.18	1249.26
234.40	1302.51
234.61	1259.50
234.83	1275.88
235.05	1273.84
235.27	1275.88
235.49	1306.60
235.70	1224.69
235.92	1263.60
236.14	1302.51
236.36	1300.46
236.58	1216.49
236.79	1271.79
237.01	1239.02
237.23	1304.56
237.45	1257.45
237.67	1271.79
237.88	1257.45
238.10	1239.02
238.32	1296.36
238.54	1298.41
238.76	1243.12
238.97	1263.60
239.19	1202.16
239.41	1265.64
239.63	1310.70
239.85	1247.21
240.06	1294.32
240.28	1320.94
240.50	1269.74
240.72	1308.65
240.93	1351.66
241.15	1210.35
241.37	1275.88
241.59	1357.80
241.81	1341.42
242.02	1212.40
242.24	1279.98
242.46	1304.56
242.68	1290.22
242.89	1320.94
243.11	1314.80
243.33	1261.55
243.55	1255.40
243.76	1255.40
243.98	1304.56
244.20	1277.93
244.42	1282.03
244.64	1273.84
244.85	1288.17
245.07	1282.03
245.29	1261.55
245.51	1277.93
245.72	1230.83
245.94	1255.40
246.16	1327.08
246.38	1232.88
246.59	1253.36
246.81	1314.80
247.03	1187.82
247.24	1255.40
247.46	1236.97
247.68	1292.27
247.90	1257.45
248.11	1312.75
248.33	1255.40
248.55	1261.55
248.77	1304.56
248.98	1265.64
249.20	1239.02
249.42	1277.93
249.64	1214.45
249.85	1288.17
250.07	1273.84
250.29	1239.02
250.50	1292.27
250.72	1273.84
250.94	1253.36
251.16	1239.02
251.37	1294.32
251.59	1239.02
251.81	1265.64
252.02	1339.37
252.24	1308.65
252.46	1279.98
252.68	1243.12
252.89	1222.64
253.11	1288.17
253.33	1236.97
253.54	1314.80
253.76	1345.52
253.98	1251.31
254.20	1214.45
254.41	1282.03
254.63	1282.03
254.85	1277.93
255.06	1185.77
255.28	1236.97
255.50	1253.36
255.71	1302.51
255.93	1273.84
256.15	1230.83
256.36	1269.74
256.58	1294.32
256.80	1308.65
257.02	1247.21
257.23	1245.16
257.45	1241.07
257.67	1265.64
257.88	1243.12
258.10	1290.22
258.32	1247.21
258.53	1255.40
258.75	1251.31
258.97	1312.75
259.18	1271.79
259.40	1216.49
259.62	1331.18
259.83	1312.75
260.05	1279.98
260.27	1247.21
260.48	1257.45
260.70	1234.93
260.92	1243.12
261.13	1255.40
261.35	1183.73
261.57	1257.45
261.78	1279.98
262.00	1286.12
262.22	1288.17
262.43	1249.26
262.65	1243.12
262.86	1288.17
263.08	1294.32
263.30	1243.12
263.51	1245.16
263.73	1284.08
263.95	1294.32
264.16	1267.69
264.38	1320.94
264.60	1290.22
264.81	1318.89
265.03	1220.59
265.25	1191.92
265.46	1261.55
265.68	1251.31
265.89	1269.74
266.11	1212.40
266.33	1290.22
266.54	1230.83
266.76	1290.22
266.98	1185.77
267.19	1347.56
267.41	1275.88
267.62	1230.83
267.84	1257.45
268.06	1253.36
268.27	1204.21
268.49	1337.32
268.70	1310.70
268.92	1286.12
269.14	1224.69
269.35	1275.88
269.57	1269.74
269.79	1269.74
270.00	1222.64
270.22	1282.03
270.43	1236.97
270.65	1239.02
270.87	1271.79
271.08	1243.12
271.30	1236.97
271.51	1294.32
271.73	1228.78
271.95	1245.16
272.16	1296.36
272.38	1341.42
272.59	1214.45
272.81	1288.17
273.02	1220.59
273.24	1239.02
273.46	1351.66
273.67	1284.08
273.89	1298.41
274.10	1247.21
274.32	1302.51
274.54	1239.02
274.75	1275.88
274.97	1286.12
275.18	1275.88
275.40	1300.46
275.61	1310.70
275.83	1343.47
276.05	1284.08
276.26	1239.02
276.48	1234.93
276.69	1314.80
276.91	1220.59
277.12	1232.88
277.34	1300.46
277.55	1292.27
277.77	1300.46
277.99	1232.88
278.20	1271.79
278.42	1304.56
278.63	1282.03
278.85	1345.52
279.06	1312.75
279.28	1271.79
279.49	1312.75
279.71	1263.60
279.93	1220.59
280.14	1265.64
280.36	1230.83
280.57	1234.93
280.79	1245.16
281.00	1243.12
281.22	1255.40
281.43	1320.94
281.65	1306.60
281.86	1331.18
282.08	1236.97
282.29	1257.45
282.51	1269.74
282.73	1216.49
282.94	1193.97
283.16	1263.60
283.37	1243.12
283.59	1261.55
283.80	1316.84
284.02	1257.45
284.23	1247.21
284.45	1288.17
284.66	1253.36
284.88	1288.17
285.09	1269.74
285.31	1273.84
285.52	1241.07
285.74	1300.46
285.95	1316.84
286.17	1308.65
286.38	1177.58
286.60	1275.88
286.81	1253.36
287.03	1251.31
287.24	1230.83
287.46	1277.93
287.67	1316.84
287.89	1275.88
288.10	1284.08
288.32	1286.12
288.53	1247.21
288.75	1282.03
288.96	1269.74
289.18	1310.70
289.39	1292.27
289.61	1263.60
289.82	1302.51
290.04	1243.12
290.25	1302.51
290.47	1228.78
290.68	1288.17
290.90	1279.98
291.11	1232.88
291.33	1167.34
291.54	1259.50
291.76	1288.17
291.97	1249.26
292.18	1296.36
292.40	1214.45
292.61	1355.76
292.83	1245.16
293.04	1271.79
293.26	1290.22
293.47	1206.25
293.69	1277.93
293.90	1247.21
294.12	1284.08
294.33	1255.40
294.55	1216.49
294.76	1236.97
294.97	1253.36
295.19	1316.84
295.40	1318.89
295.62	1230.83
295.83	1200.11
296.05	1296.36
296.26	1269.74
296.48	1247.21
296.69	1234.93
296.90	1308.65
297.12	1243.12
297.33	1222.64
297.55	1298.41
297.76	1265.64
297.98	1245.16
298.19	1216.49
298.41	1224.69
298.62	1277.93
298.83	1191.92
299.05	1292.27
299.26	1275.88
299.48	1249.26
299.69	1232.88
299.90	1269.74
300.12	1204.21
300.33	1232.88
300.55	1236.97
300.76	1357.80
300.98	1282.03
301.19	1245.16
301.40	1255.40
301.62	1273.84
301.83	1290.22
302.05	1267.69
302.26	1292.27
302.47	1218.54
302.69	1241.07
302.90	1232.88
303.12	1183.73
303.33	1183.73
303.54	1269.74
303.76	1202.16
303.97	1277.93
304.19	1255.40
304.40	1251.31
304.61	1236.97
304.83	1224.69
305.04	1245.16
305.26	1306.60
305.47	1296.36
305.68	1273.84
305.90	1253.36
306.11	1236.97
306.33	1273.84
306.54	1222.64
306.75	1259.50
306.97	1226.73
307.18	1183.73
307.39	1220.59
307.61	1220.59
307.82	1200.11
308.04	1288.17
308.25	1267.69
308.46	1298.41
308.68	1267.69
308.89	1331.18
309.10	1247.21
309.32	1200.11
309.53	1267.69
309.74	1253.36
309.96	1351.66
310.17	1277.93
310.39	1302.51
310.60	1255.40
310.81	1308.65
311.03	1312.75
311.24	1255.40
311.45	1253.36
311.67	1304.56
311.88	1261.55
312.09	1286.12
312.31	1269.74
312.52	1243.12
312.73	1286.12
312.95	1271.79
313.16	1220.59
313.37	1320.94
313.59	1275.88
313.80	1255.40
314.01	1263.60
314.23	1239.02
314.44	1314.80
314.65	1228.78
314.87	1298.41
315.08	1257.45
315.29	1298.41
315.51	1335.28
315.72	1294.32
315.93	1271.79
316.15	1292.27
316.36	1161.20
316.57	1310.70
316.79	1265.64
317.00	1259.50
317.21	1267.69
317.43	1308.65
317.64	1232.88
317.85	1275.88
318.07	1279.98
318.28	1329.13
318.49	1331.18
318.70	1292.27
318.92	1161.20
319.13	1210.35
319.34	1331.18
319.56	1314.80
319.77	1306.60
319.98	1279.98
320.20	1286.12
320.41	1243.12
320.62	1284.08
320.83	1345.52
321.05	1241.07
321.26	1312.75
321.47	1337.32
321.69	1222.64
321.90	1230.83
322.11	1226.73
322.32	1284.08
322.54	1286.12
322.75	1224.69
322.96	1288.17
323.18	1284.08
323.39	1286.12
323.60	1310.70
323.81	1302.51
324.03	1218.54
324.24	1259.50
324.45	1290.22
324.66	1353.71
324.88	1239.02
325.09	1236.97
325.30	1239.02
325.52	1304.56
325.73	1245.16
325.94	1353.71
326.15	1259.50
326.37	1261.55
326.58	1224.69
326.79	1279.98
327.00	1175.53
327.22	1251.31
327.43	1273.84
327.64	1255.40
327.85	1310.70
328.07	1239.02
328.28	1279.98
328.49	1300.46
328.70	1216.49
328.92	1335.28
329.13	1216.49
329.34	1271.79
329.55	1279.98
329.76	1298.41
329.98	1277.93
330.19	1322.99
330.40	1271.79
330.61	1216.49
330.83	1288.17
331.04	1226.73
331.25	1308.65
331.46	1304.56
331.68	1187.82
331.89	1279.98
332.10	1267.69
332.31	1257.45
332.52	1259.50
332.74	1261.55
332.95	1251.31
333.16	1216.49
333.37	1325.04
333.58	1259.50
333.80	1249.26
334.01	1269.74
334.22	1245.16
334.43	1206.25
334.64	1259.50
334.86	1251.31
335.07	1247.21
335.28	1273.84
335.49	1320.94
335.70	1200.11
335.92	1310.70
336.13	1316.84
336.34	1232.88
336.55	1241.07
336.76	1316.84
336.98	1185.77
337.19	1255.40
337.40	1259.50
337.61	1277.93
337.82	1304.56
338.04	1277.93
338.25	1196.01
338.46	1150.96
338.67	1282.03
338.88	1282.03
339.09	1249.26
339.31	1296.36
339.52	1300.46
339.73	1261.55
339.94	1255.40
340.15	1228.78
340.36	1290.22
340.58	1288.17
340.79	1214.45
341.00	1290.22
341.21	1265.64
341.42	1314.80
341.63	1331.18
341.85	1257.45
342.06	1257.45
342.27	1271.79
342.48	1267.69
342.69	1191.92
342.90	1290.22
343.12	1290.22
343.33	1257.45
343.54	1265.64
343.75	1226.73
343.96	1298.41
344.17	1255.40
344.38	1265.64
344.60	1232.88
344.81	1191.92
345.02	1325.04
345.23	1216.49
345.44	1261.55
345.65	1288.17
345.86	1222.64
346.07	1267.69
346.29	1277.93
346.50	1249.26
346.71	1306.60
346.92	1257.45
347.13	1183.73
347.34	1290.22
347.55	1261.55
347.76	1228.78
347.98	1241.07
348.19	1249.26
348.40	1277.93
348.61	1288.17
348.82	1308.65
349.03	1255.40
349.24	1245.16
349.45	1253.36
349.66	1200.11
349.88	1275.88
350.09	1282.03
350.30	1218.54
350.51	1265.64
350.72	1265.64
350.93	1263.60
351.14	1304.56
351.35	1312.75
351.56	1269.74
351.77	1269.74
351.99	1243.12
352.20	1337.32
352.41	1241.07
352.62	1284.08
352.83	1282.03
353.04	1173.49
353.25	1224.69
353.46	1247.21
353.67	1181.68
353.88	1296.36
354.09	1222.64
354.30	1241.07
354.52	1308.65
354.73	1245.16
354.94	1296.36
355.15	1263.60
355.36	1288.17
355.57	1236.97
355.78	1273.84
355.99	1232.88
356.20	1298.41
356.41	1294.32
356.62	1284.08
356.83	1232.88
357.04	1269.74
357.25	1202.16
357.46	1290.22
357.68	1337.32
357.89	1206.25
358.10	1193.97
358.31	1337.32
358.52	1255.40
358.73	1320.94
358.94	1257.45
359.15	1271.79
359.36	1275.88
359.57	1279.98
359.78	1304.56
359.99	1329.13
360.20	1253.36
360.41	1292.27
360.62	1351.66
360.83	1257.45
361.04	1216.49
361.25	1265.64
361.46	1243.12
361.67	1251.31
361.88	1253.36
362.09	1245.16
362.30	1282.03
362.51	1196.01
362.72	1259.50
362.93	1273.84
363.14	1347.56
363.35	1300.46
363.56	1288.17
363.78	1206.25
363.99	1292.27
364.20	1294.32
364.41	1243.12
364.62	1265.64
364.83	1191.92
365.04	1282.03
365.25	1306.60
365.46	1253.36
365.67	1298.41
365.88	1298.41
366.09	1331.18
366.30	1226.73
366.51	1236.97
366.72	1206.25
366.93	1232.88
367.14	1386.47
367.35	1230.83
367.56	1210.35
367.77	1253.36
367.98	1308.65
368.18	1320.94
368.39	1265.64
368.60	1282.03
368.81	1228.78
369.02	1226.73
369.23	1263.60
369.44	1361.90
369.65	1208.30
369.86	1304.56
370.07	1275.88
370.28	1286.12
370.49	1236.97
370.70	1226.73
370.91	1198.06
371.12	1331.18
371.33	1232.88
371.54	1263.60
371.75	1286.12
371.96	1208.30
372.17	1196.01
372.38	1204.21
372.59	1189.87
372.80	1339.37
373.01	1271.79
373.22	1175.53
373.43	1322.99
373.64	1341.42
373.85	1277.93
374.06	1279.98
374.26	1296.36
374.47	1277.93
374.68	1234.93
374.89	1290.22
375.10	1261.55
375.31	1234.93
375.52	1275.88
375.73	1183.73
375.94	1277.93
376.15	1298.41
376.36	1300.46
376.57	1265.64
376.78	1245.16
376.99	1277.93
377.20	1312.75
377.40	1325.04
377.61	1220.59
377.82	1279.98
378.03	1273.84
378.24	1251.31
378.45	1212.40
378.66	1224.69
378.87	1282.03
379.08	1300.46
379.29	1253.36
379.50	1292.27
379.71	1275.88
379.91	1279.98
380.12	1294.32
380.33	1193.97
380.54	1234.93
380.75	1288.17
380.96	1247.21
381.17	1333.23
381.38	1273.84
381.59	1294.32
381.80	1282.03
382.00	1296.36
382.21	1243.12
382.42	1300.46
382.63	1300.46
382.84	1296.36
383.05	1239.02
383.26	1310.70
383.47	1294.32
383.68	1314.80
383.88	1284.08
384.09	1243.12
384.30	1318.89
384.51	1245.16
384.72	1247.21
384.93	1255.40
385.14	1282.03
385.35	1279.98
385.55	1257.45
385.76	1288.17
385.97	1277.93
386.18	1239.02
386.39	1257.45
386.60	1251.31
386.81	1277.93
387.02	1300.46
387.22	1267.69
387.43	1271.79
387.64	1271.79
387.85	1277.93
388.06	1263.60
388.27	1259.50
388.48	1263.60
388.68	1255.40
388.89	1294.32
389.10	1304.56
389.31	1214.45
389.52	1263.60
389.73	1296.36
389.93	1243.12
390.14	1261.55
390.35	1341.42
390.56	1284.08
390.77	1204.21
390.98	1241.07
391.18	1282.03
391.39	1220.59
391.60	1306.60
391.81	1236.97
392.02	1306.60
392.23	1277.93
392.43	1273.84
392.64	1247.21
392.85	1277.93
393.06	1185.77
393.27	1193.97
393.47	1265.64
393.68	1271.79
393.89	1314.80
394.10	1247.21
394.31	1255.40
394.52	1263.60
394.72	1230.83
394.93	1304.56
395.14	1249.26
395.35	1210.35
395.56	1263.60
395.76	1241.07
395.97	1286.12
396.18	1322.99
396.39	1212.40
396.60	1249.26
396.80	1224.69
397.01	1267.69
397.22	1341.42
397.43	1298.41
397.64	1239.02
397.84	1304.56
398.05	1277.93
398.26	1314.80
398.47	1159.15
398.67	1312.75
398.88	1288.17
399.09	1239.02
399.30	1189.87
399.51	1322.99
399.71	1179.63
399.92	1257.45
400.13	1277.93
400.34	1267.69
400.54	1198.06
400.75	1247.21
400.96	1290.22
401.17	1232.88
401.37	1224.69
401.58	1263.60
401.79	1224.69
402.00	1267.69
402.21	1243.12
402.41	1277.93
402.62	1282.03
402.83	1228.78
403.04	1308.65
403.24	1187.82
403.45	1273.84
403.66	1239.02
403.87	1234.93
404.07	1275.88
404.28	1253.36
404.49	1345.52
404.70	1249.26
404.90	1306.60
405.11	1359.85
405.32	1261.55
405.52	1269.74
405.73	1273.84
405.94	1290.22
406.15	1282.03
406.35	1300.46
406.56	1314.80
406.77	1265.64
406.98	1318.89
407.18	1290.22
407.39	1220.59
407.60	1290.22
407.80	1220.59
408.01	1236.97
408.22	1247.21
408.43	1187.82
408.63	1343.47
408.84	1273.84
409.05	1247.21
409.25	1331.18
409.46	1282.03
409.67	1349.61
409.88	1329.13
410.08	1306.60
410.29	1216.49
410.50	1269.74
410.70	1286.12
410.91	1322.99
411.12	1232.88
411.32	1241.07
411.53	1298.41
411.74	1277.93
411.95	1232.88
412.15	1284.08
412.36	1261.55
412.57	1271.79
412.77	1282.03
412.98	1269.74
413.19	1282.03
413.39	1265.64
413.60	1228.78
413.81	1230.83
414.01	1259.50
414.22	1210.35
414.43	1257.45
414.63	1253.36
414.84	1224.69
415.05	1204.21
415.25	1245.16
415.46	1310.70
415.67	1282.03
415.87	1298.41
416.08	1294.32
416.29	1333.23
416.49	1136.62
416.70	1191.92
416.91	1259.50
417.11	1232.88
417.32	1171.44
417.53	1175.53
417.73	1261.55
417.94	1279.98
418.15	1302.51
418.35	1294.32
418.56	1249.26
418.77	1277.93
418.97	1224.69
419.18	1298.41
419.38	1226.73
419.59	1228.78
419.80	1310.70
420.00	1222.64
420.21	1294.32
420.42	1243.12
420.62	1314.80
420.83	1257.45
421.04	1255.40
421.24	1218.54
421.45	1353.71
421.65	1290.22
421.86	1361.90
422.07	1343.47
422.27	1187.82
422.48	1337.32
422.69	1255.40
422.89	1196.01
423.10	1239.02
423.30	1322.99
423.51	1294.32
423.72	1314.80
423.92	1261.55
424.13	1275.88
424.33	1239.02
424.54	1275.88
424.75	1251.31
424.95	1298.41
425.16	1265.64
425.36	1228.78
425.57	1243.12
425.78	1292.27
425.98	1222.64
426.19	1261.55
426.39	1304.56
426.60	1267.69
426.81	1232.88
427.01	1300.46
427.22	1298.41
427.42	1247.21
427.63	1320.94
427.83	1331.18
428.04	1279.98
428.25	1331.18
428.45	1327.08
428.66	1318.89
428.86	1325.04
429.07	1279.98
429.28	1298.41
429.48	1267.69
429.69	1318.89
429.89	1236.97
430.10	1253.36
430.30	1273.84
430.51	1372.14
430.71	1298.41
430.92	1245.16
431.13	1273.84
431.33	1251.31
431.54	1234.93
431.74	1312.75
431.95	1271.79
432.15	1284.08
432.36	1304.56
432.56	1230.83
432.77	1302.51
432.98	1263.60
433.18	1275.88
433.39	1245.16
433.59	1226.73
433.80	1263.60
434.00	1249.26
434.21	1228.78
434.41	1210.35
434.62	1251.31
434.82	1261.55
435.03	1224.69
435.23	1279.98
435.44	1279.98
435.64	1234.93
435.85	1320.94
436.06	1290.22
436.26	1249.26
436.47	1320.94
436.67	1247.21
436.88	1298.41
437.08	1298.41
437.29	1265.64
437.49	1304.56
437.70	1308.65
437.90	1310.70
438.11	1298.41
438.31	1191.92
438.52	1247.21
438.72	1257.45
438.93	1279.98
439.13	1312.75
439.34	1306.60
439.54	1265.64
439.75	1265.64
439.95	1273.84
440.16	1236.97
440.36	1263.60
440.57	1275.88
440.77	1243.12
440.98	1296.36
441.18	1282.03
441.39	1314.80
441.59	1159.15
441.80	1269.74
442.00	1265.64
442.21	1224.69
442.41	1349.61
442.62	1236.97
442.82	1402.86
443.02	1292.27
443.23	1277.93
443.43	1288.17
443.64	1269.74
443.84	1236.97
444.05	1345.52
444.25	1222.64
444.46	1267.69
444.66	1372.14
444.87	1298.41
445.07	1259.50
445.28	1236.97
445.48	1245.16
445.69	1224.69
445.89	1224.69
446.09	1253.36
446.30	1179.63
446.50	1277.93
446.71	1286.12
446.91	1271.79
447.12	1279.98
447.32	1263.60
447.53	1247.21
447.73	1290.22
447.93	1275.88
448.14	1337.32
448.34	1196.01
448.55	1241.07
448.75	1353.71
448.96	1187.82
449.16	1236.97
449.36	1337.32
449.57	1239.02
449.77	1296.36
449.98	1290.22
450.18	1294.32
450.39	1200.11
450.59	1279.98
450.79	1322.99
451.00	1277.93
451.20	1288.17
451.41	1312.75
451.61	1234.93
451.81	1290.22
452.02	1296.36
452.22	1279.98
452.43	1228.78
452.63	1296.36
