SpectraSuite Data File
++++++++++++++++++++++++++++++++++++
Date: Sun Apr 03 19:55:23 CEST 2016
User: root
Dark Spectrum Present: No
Reference Spectrum Present: No
Number of Sampled Component Spectra: 1
Spectrometers: USB4C02835
Integration Time (usec): 10000 (USB4C02835)
Spectra Averaged: 1 (USB4C02835)
Boxcar Smoothing: 0 (USB4C02835)
Correct for Electrical Dark: No (USB4C02835)
Strobe/Lamp Enabled: No (USB4C02835)
Correct for Detector Non-linearity: No (USB4C02835)
Correct for Stray Light: No (USB4C02835)
Number of Pixels in Processed Spectrum: 3648
>>>>>Begin Processed Spectral Data<<<<<
177.47	1314.80
177.69	1314.80
177.91	1314.80
178.13	1263.60
178.36	1273.84
178.58	1228.78
178.80	1241.07
179.02	1234.93
179.24	1204.21
179.46	1191.92
179.68	1288.17
179.90	1294.32
180.13	1228.78
180.35	1210.35
180.57	1277.93
180.79	1234.93
181.01	1314.80
181.23	1257.45
181.45	1241.07
181.67	1230.83
181.90	1263.60
182.12	1286.12
182.34	1273.84
182.56	1286.12
182.78	1271.79
183.00	1239.02
183.22	1253.36
183.44	1308.65
183.66	1312.75
183.89	1251.31
184.11	1312.75
184.33	1273.84
184.55	1306.60
184.77	1290.22
184.99	1320.94
185.21	1284.08
185.43	1269.74
185.65	1271.79
185.87	1306.60
186.10	1271.79
186.32	1290.22
186.54	1236.97
186.76	1222.64
186.98	1282.03
187.20	1304.56
187.42	1290.22
187.64	1247.21
187.86	1224.69
188.08	1288.17
188.30	1243.12
188.52	1288.17
188.75	1359.85
188.97	1253.36
189.19	1333.23
189.41	1329.13
189.63	1257.45
189.85	1302.51
190.07	1290.22
190.29	1279.98
190.51	1245.16
190.73	1275.88
190.95	1251.31
191.17	1318.89
191.39	1343.47
191.61	1187.82
191.84	1335.28
192.06	1284.08
192.28	1308.65
192.50	1271.79
192.72	1214.45
192.94	1218.54
193.16	1333.23
193.38	1273.84
193.60	1239.02
193.82	1300.46
194.04	1269.74
194.26	1318.89
194.48	1257.45
194.70	1296.36
194.92	1306.60
195.14	1228.78
195.36	1271.79
195.58	1241.07
195.80	1202.16
196.02	1304.56
196.24	1251.31
196.46	1277.93
196.69	1335.28
196.91	1273.84
197.13	1200.11
197.35	1271.79
197.57	1265.64
197.79	1314.80
198.01	1284.08
198.23	1337.32
198.45	1251.31
198.67	1265.64
198.89	1230.83
199.11	1273.84
199.33	1232.88
199.55	1204.21
199.77	1290.22
199.99	1290.22
200.21	1353.71
200.43	1337.32
200.65	1204.21
200.87	1259.50
201.09	1228.78
201.31	1345.52
201.53	1273.84
201.75	1273.84
201.97	1265.64
202.19	1224.69
202.41	1257.45
202.63	1279.98
202.85	1234.93
203.07	1216.49
203.29	1239.02
203.51	1239.02
203.73	1288.17
203.95	1206.25
204.17	1222.64
204.39	1226.73
204.61	1269.74
204.83	1290.22
205.05	1312.75
205.27	1228.78
205.49	1245.16
205.71	1177.58
205.93	1185.77
206.15	1232.88
206.37	1284.08
206.59	1220.59
206.81	1239.02
207.03	1263.60
207.25	1206.25
207.47	1306.60
207.69	1298.41
207.91	1234.93
208.13	1216.49
208.34	1247.21
208.56	1259.50
208.78	1210.35
209.00	1277.93
209.22	1216.49
209.44	1316.84
209.66	1261.55
209.88	1230.83
210.10	1261.55
210.32	1267.69
210.54	1220.59
210.76	1322.99
210.98	1306.60
211.20	1228.78
211.42	1265.64
211.64	1296.36
211.86	1329.13
212.08	1298.41
212.30	1251.31
212.52	1337.32
212.74	1308.65
212.96	1296.36
213.17	1216.49
213.39	1241.07
213.61	1277.93
213.83	1261.55
214.05	1255.40
214.27	1312.75
214.49	1304.56
214.71	1277.93
214.93	1279.98
215.15	1265.64
215.37	1363.95
215.59	1208.30
215.81	1290.22
216.03	1296.36
216.24	1320.94
216.46	1261.55
216.68	1241.07
216.90	1243.12
217.12	1134.57
217.34	1243.12
217.56	1232.88
217.78	1212.40
218.00	1275.88
218.22	1310.70
218.44	1312.75
218.66	1279.98
218.87	1282.03
219.09	1277.93
219.31	1173.49
219.53	1300.46
219.75	1282.03
219.97	1271.79
220.19	1265.64
220.41	1204.21
220.63	1284.08
220.85	1325.04
221.06	1255.40
221.28	1279.98
221.50	1249.26
221.72	1327.08
221.94	1296.36
222.16	1181.68
222.38	1312.75
222.60	1222.64
222.82	1314.80
223.03	1282.03
223.25	1241.07
223.47	1273.84
223.69	1353.71
223.91	1275.88
224.13	1226.73
224.35	1257.45
224.57	1232.88
224.78	1241.07
225.00	1241.07
225.22	1265.64
225.44	1284.08
225.66	1255.40
225.88	1208.30
226.10	1234.93
226.32	1253.36
226.53	1277.93
226.75	1304.56
226.97	1312.75
227.19	1259.50
227.41	1230.83
227.63	1261.55
227.85	1224.69
228.06	1271.79
228.28	1214.45
228.50	1257.45
228.72	1243.12
228.94	1298.41
229.16	1296.36
229.37	1222.64
229.59	1218.54
229.81	1298.41
230.03	1257.45
230.25	1267.69
230.47	1265.64
230.69	1363.95
230.90	1286.12
231.12	1277.93
231.34	1249.26
231.56	1261.55
231.78	1304.56
232.00	1290.22
232.21	1275.88
232.43	1273.84
232.65	1228.78
232.87	1325.04
233.09	1310.70
233.30	1257.45
233.52	1222.64
233.74	1265.64
233.96	1259.50
234.18	1187.82
234.40	1282.03
234.61	1271.79
234.83	1236.97
235.05	1329.13
235.27	1296.36
235.49	1320.94
235.70	1263.60
235.92	1261.55
236.14	1259.50
236.36	1292.27
236.58	1288.17
236.79	1247.21
237.01	1306.60
237.23	1292.27
237.45	1230.83
237.67	1249.26
237.88	1304.56
238.10	1304.56
238.32	1267.69
238.54	1228.78
238.76	1343.47
238.97	1222.64
239.19	1216.49
239.41	1345.52
239.63	1187.82
239.85	1259.50
240.06	1294.32
240.28	1183.73
240.50	1304.56
240.72	1312.75
240.93	1312.75
241.15	1384.43
241.37	1230.83
241.59	1253.36
241.81	1257.45
242.02	1239.02
242.24	1306.60
242.46	1261.55
242.68	1320.94
242.89	1251.31
243.11	1269.74
243.33	1341.42
243.55	1320.94
243.76	1228.78
243.98	1255.40
244.20	1273.84
244.42	1214.45
244.64	1292.27
244.85	1273.84
245.07	1279.98
245.29	1259.50
245.51	1269.74
245.72	1259.50
245.94	1302.51
246.16	1279.98
246.38	1232.88
246.59	1267.69
246.81	1271.79
247.03	1267.69
247.24	1312.75
247.46	1189.87
247.68	1255.40
247.90	1292.27
248.11	1329.13
248.33	1187.82
248.55	1329.13
248.77	1247.21
248.98	1290.22
249.20	1327.08
249.42	1308.65
249.64	1286.12
249.85	1269.74
250.07	1333.23
250.29	1269.74
250.50	1218.54
250.72	1277.93
250.94	1247.21
251.16	1269.74
251.37	1329.13
251.59	1232.88
251.81	1302.51
252.02	1257.45
252.24	1198.06
252.46	1302.51
252.68	1294.32
252.89	1267.69
253.11	1284.08
253.33	1255.40
253.54	1282.03
253.76	1236.97
253.98	1269.74
254.20	1261.55
254.41	1318.89
254.63	1228.78
254.85	1218.54
255.06	1288.17
255.28	1236.97
255.50	1245.16
255.71	1249.26
255.93	1318.89
256.15	1288.17
256.36	1306.60
256.58	1191.92
256.80	1277.93
257.02	1255.40
257.23	1230.83
257.45	1228.78
257.67	1279.98
257.88	1296.36
258.10	1273.84
258.32	1320.94
258.53	1232.88
258.75	1290.22
258.97	1294.32
259.18	1255.40
259.40	1290.22
259.62	1265.64
259.83	1314.80
260.05	1300.46
260.27	1292.27
260.48	1239.02
260.70	1277.93
260.92	1314.80
261.13	1247.21
261.35	1236.97
261.57	1232.88
261.78	1345.52
262.00	1232.88
262.22	1249.26
262.43	1292.27
262.65	1298.41
262.86	1249.26
263.08	1269.74
263.30	1282.03
263.51	1226.73
263.73	1271.79
263.95	1234.93
264.16	1306.60
264.38	1325.04
264.60	1304.56
264.81	1271.79
265.03	1277.93
265.25	1249.26
265.46	1286.12
265.68	1191.92
265.89	1306.60
266.11	1316.84
266.33	1284.08
266.54	1245.16
266.76	1159.15
266.98	1259.50
267.19	1230.83
267.41	1245.16
267.62	1290.22
267.84	1236.97
268.06	1269.74
268.27	1267.69
268.49	1279.98
268.70	1300.46
268.92	1269.74
269.14	1267.69
269.35	1271.79
269.57	1216.49
269.79	1261.55
270.00	1273.84
270.22	1312.75
270.43	1312.75
270.65	1290.22
270.87	1230.83
271.08	1257.45
271.30	1314.80
271.51	1298.41
271.73	1181.68
271.95	1339.37
272.16	1275.88
272.38	1232.88
272.59	1273.84
272.81	1298.41
273.02	1253.36
273.24	1265.64
273.46	1351.66
273.67	1290.22
273.89	1255.40
274.10	1208.30
274.32	1282.03
274.54	1265.64
274.75	1253.36
274.97	1265.64
275.18	1251.31
275.40	1263.60
275.61	1296.36
275.83	1218.54
276.05	1224.69
276.26	1196.01
276.48	1269.74
276.69	1228.78
276.91	1265.64
277.12	1290.22
277.34	1284.08
277.55	1247.21
277.77	1282.03
277.99	1230.83
278.20	1202.16
278.42	1292.27
278.63	1279.98
278.85	1224.69
279.06	1228.78
279.28	1300.46
279.49	1279.98
279.71	1275.88
279.93	1206.25
280.14	1245.16
280.36	1300.46
280.57	1224.69
280.79	1224.69
281.00	1368.04
281.22	1253.36
281.43	1255.40
281.65	1335.28
281.86	1318.89
282.08	1374.19
282.29	1302.51
282.51	1333.23
282.73	1273.84
282.94	1265.64
283.16	1220.59
283.37	1251.31
283.59	1327.08
283.80	1245.16
284.02	1253.36
284.23	1271.79
284.45	1263.60
284.66	1247.21
284.88	1310.70
285.09	1331.18
285.31	1230.83
285.52	1271.79
285.74	1265.64
285.95	1236.97
286.17	1277.93
286.38	1241.07
286.60	1277.93
286.81	1269.74
287.03	1277.93
287.24	1257.45
287.46	1239.02
287.67	1261.55
287.89	1243.12
288.10	1314.80
288.32	1234.93
288.53	1288.17
288.75	1155.05
288.96	1310.70
289.18	1347.56
289.39	1230.83
289.61	1249.26
289.82	1327.08
290.04	1339.37
290.25	1396.71
290.47	1286.12
290.68	1267.69
290.90	1302.51
291.11	1247.21
291.33	1230.83
291.54	1265.64
291.76	1304.56
291.97	1345.52
292.18	1230.83
292.40	1288.17
292.61	1249.26
292.83	1255.40
293.04	1271.79
293.26	1273.84
293.47	1257.45
293.69	1257.45
293.90	1292.27
294.12	1284.08
294.33	1259.50
294.55	1236.97
294.76	1247.21
294.97	1308.65
295.19	1271.79
295.40	1269.74
295.62	1241.07
295.83	1185.77
296.05	1316.84
296.26	1300.46
296.48	1261.55
296.69	1243.12
296.90	1226.73
297.12	1279.98
297.33	1263.60
297.55	1212.40
297.76	1216.49
297.98	1366.00
298.19	1245.16
298.41	1241.07
298.62	1255.40
298.83	1290.22
299.05	1296.36
299.26	1298.41
299.48	1288.17
299.69	1257.45
299.90	1247.21
300.12	1322.99
300.33	1263.60
300.55	1282.03
300.76	1298.41
300.98	1337.32
301.19	1267.69
301.40	1302.51
301.62	1257.45
301.83	1310.70
302.05	1282.03
302.26	1277.93
302.47	1298.41
302.69	1286.12
302.90	1222.64
303.12	1288.17
303.33	1232.88
303.54	1243.12
303.76	1286.12
303.97	1208.30
304.19	1208.30
304.40	1345.52
304.61	1261.55
304.83	1257.45
305.04	1296.36
305.26	1263.60
305.47	1245.16
305.68	1339.37
305.90	1298.41
306.11	1279.98
306.33	1265.64
306.54	1296.36
306.75	1286.12
306.97	1292.27
307.18	1259.50
307.39	1208.30
307.61	1284.08
307.82	1304.56
308.04	1251.31
308.25	1255.40
308.46	1271.79
308.68	1234.93
308.89	1300.46
309.10	1249.26
309.32	1310.70
309.53	1275.88
309.74	1245.16
309.96	1286.12
310.17	1298.41
310.39	1220.59
310.60	1218.54
310.81	1259.50
311.03	1302.51
311.24	1167.34
311.45	1282.03
311.67	1257.45
311.88	1271.79
312.09	1298.41
312.31	1267.69
312.52	1361.90
312.73	1245.16
312.95	1210.35
313.16	1304.56
313.37	1279.98
313.59	1306.60
313.80	1245.16
314.01	1284.08
314.23	1226.73
314.44	1232.88
314.65	1282.03
314.87	1216.49
315.08	1294.32
315.29	1265.64
315.51	1386.47
315.72	1177.58
315.93	1226.73
316.15	1183.73
316.36	1228.78
316.57	1308.65
316.79	1257.45
317.00	1253.36
317.21	1265.64
317.43	1228.78
317.64	1177.58
317.85	1224.69
318.07	1257.45
318.28	1216.49
318.49	1269.74
318.70	1310.70
318.92	1249.26
319.13	1220.59
319.34	1204.21
319.56	1306.60
319.77	1236.97
319.98	1308.65
320.20	1312.75
320.41	1316.84
320.62	1247.21
320.83	1269.74
321.05	1222.64
321.26	1204.21
321.47	1228.78
321.69	1296.36
321.90	1269.74
322.11	1294.32
322.32	1308.65
322.54	1271.79
322.75	1331.18
322.96	1288.17
323.18	1224.69
323.39	1198.06
323.60	1325.04
323.81	1265.64
324.03	1329.13
324.24	1271.79
324.45	1322.99
324.66	1251.31
324.88	1335.28
325.09	1271.79
325.30	1345.52
325.52	1247.21
325.73	1202.16
325.94	1220.59
326.15	1296.36
326.37	1294.32
326.58	1284.08
326.79	1273.84
327.00	1277.93
327.22	1275.88
327.43	1296.36
327.64	1304.56
327.85	1300.46
328.07	1347.56
328.28	1275.88
328.49	1212.40
328.70	1329.13
328.92	1214.45
329.13	1294.32
329.34	1220.59
329.55	1347.56
329.76	1261.55
329.98	1316.84
330.19	1292.27
330.40	1253.36
330.61	1247.21
330.83	1214.45
331.04	1273.84
331.25	1310.70
331.46	1247.21
331.68	1275.88
331.89	1251.31
332.10	1175.53
332.31	1298.41
332.52	1286.12
332.74	1255.40
332.95	1239.02
333.16	1310.70
333.37	1220.59
333.58	1253.36
333.80	1255.40
334.01	1306.60
334.22	1257.45
334.43	1226.73
334.64	1236.97
334.86	1247.21
335.07	1212.40
335.28	1257.45
335.49	1200.11
335.70	1267.69
335.92	1275.88
336.13	1265.64
336.34	1335.28
336.55	1269.74
336.76	1263.60
336.98	1298.41
337.19	1331.18
337.40	1288.17
337.61	1290.22
337.82	1304.56
338.04	1239.02
338.25	1239.02
338.46	1269.74
338.67	1247.21
338.88	1284.08
339.09	1261.55
339.31	1282.03
339.52	1247.21
339.73	1269.74
339.94	1269.74
340.15	1239.02
340.36	1304.56
340.58	1294.32
340.79	1271.79
341.00	1269.74
341.21	1239.02
341.42	1304.56
341.63	1361.90
341.85	1251.31
342.06	1261.55
342.27	1269.74
342.48	1284.08
342.69	1316.84
342.90	1284.08
343.12	1327.08
343.33	1292.27
343.54	1232.88
343.75	1236.97
343.96	1269.74
344.17	1318.89
344.38	1241.07
344.60	1269.74
344.81	1259.50
345.02	1263.60
345.23	1208.30
345.44	1232.88
345.65	1284.08
345.86	1216.49
346.07	1284.08
346.29	1279.98
346.50	1314.80
346.71	1230.83
346.92	1345.52
347.13	1341.42
347.34	1269.74
347.55	1228.78
347.76	1218.54
347.98	1339.37
348.19	1282.03
348.40	1273.84
348.61	1247.21
348.82	1322.99
349.03	1300.46
349.24	1239.02
349.45	1253.36
349.66	1230.83
349.88	1316.84
350.09	1265.64
350.30	1279.98
350.51	1228.78
350.72	1282.03
350.93	1292.27
351.14	1294.32
351.35	1177.58
351.56	1257.45
351.77	1263.60
351.99	1230.83
352.20	1310.70
352.41	1300.46
352.62	1251.31
352.83	1337.32
353.04	1206.25
353.25	1279.98
353.46	1241.07
353.67	1298.41
353.88	1306.60
354.09	1218.54
354.30	1290.22
354.52	1392.62
354.73	1236.97
354.94	1187.82
355.15	1288.17
355.36	1245.16
355.57	1263.60
355.78	1302.51
355.99	1292.27
356.20	1214.45
356.41	1265.64
356.62	1243.12
356.83	1259.50
357.04	1187.82
357.25	1232.88
357.46	1183.73
357.68	1339.37
357.89	1322.99
358.10	1269.74
358.31	1335.28
358.52	1279.98
358.73	1193.97
358.94	1259.50
359.15	1296.36
359.36	1290.22
359.57	1302.51
359.78	1214.45
359.99	1259.50
360.20	1267.69
360.41	1339.37
360.62	1294.32
360.83	1216.49
361.04	1290.22
361.25	1253.36
361.46	1339.37
361.67	1253.36
361.88	1214.45
362.09	1204.21
362.30	1277.93
362.51	1310.70
362.72	1282.03
362.93	1212.40
363.14	1335.28
363.35	1181.68
363.56	1269.74
363.78	1212.40
363.99	1245.16
364.20	1325.04
364.41	1282.03
364.62	1230.83
364.83	1196.01
365.04	1232.88
365.25	1236.97
365.46	1296.36
365.67	1247.21
365.88	1290.22
366.09	1253.36
366.30	1220.59
366.51	1288.17
366.72	1263.60
366.93	1263.60
367.14	1241.07
367.35	1216.49
367.56	1239.02
367.77	1208.30
367.98	1292.27
368.18	1226.73
368.39	1298.41
368.60	1284.08
368.81	1310.70
369.02	1224.69
369.23	1271.79
369.44	1259.50
369.65	1241.07
369.86	1241.07
370.07	1224.69
370.28	1282.03
370.49	1316.84
370.70	1320.94
370.91	1200.11
371.12	1249.26
371.33	1247.21
371.54	1298.41
371.75	1253.36
371.96	1302.51
372.17	1288.17
372.38	1189.87
372.59	1302.51
372.80	1322.99
373.01	1198.06
373.22	1257.45
373.43	1234.93
373.64	1230.83
373.85	1255.40
374.06	1376.24
374.26	1316.84
374.47	1255.40
374.68	1335.28
374.89	1271.79
375.10	1257.45
375.31	1370.09
375.52	1290.22
375.73	1214.45
375.94	1261.55
376.15	1234.93
376.36	1331.18
376.57	1265.64
376.78	1320.94
376.99	1275.88
377.20	1204.21
377.40	1284.08
377.61	1318.89
377.82	1255.40
378.03	1325.04
378.24	1277.93
378.45	1257.45
378.66	1310.70
378.87	1345.52
379.08	1228.78
379.29	1249.26
379.50	1298.41
379.71	1290.22
379.91	1314.80
380.12	1282.03
380.33	1224.69
380.54	1273.84
380.75	1241.07
380.96	1284.08
381.17	1329.13
381.38	1302.51
381.59	1302.51
381.80	1302.51
382.00	1257.45
382.21	1255.40
382.42	1243.12
382.63	1290.22
382.84	1294.32
383.05	1210.35
383.26	1261.55
383.47	1236.97
383.68	1339.37
383.88	1310.70
384.09	1273.84
384.30	1337.32
384.51	1212.40
384.72	1249.26
384.93	1261.55
385.14	1290.22
385.35	1329.13
385.55	1279.98
385.76	1216.49
385.97	1310.70
386.18	1310.70
386.39	1259.50
386.60	1253.36
386.81	1265.64
387.02	1232.88
387.22	1335.28
387.43	1200.11
387.64	1263.60
387.85	1296.36
388.06	1265.64
388.27	1247.21
388.48	1165.29
388.68	1234.93
388.89	1282.03
389.10	1214.45
389.31	1218.54
389.52	1253.36
389.73	1288.17
389.93	1288.17
390.14	1282.03
390.35	1298.41
390.56	1251.31
390.77	1232.88
390.98	1206.25
391.18	1282.03
391.39	1245.16
391.60	1232.88
391.81	1275.88
392.02	1255.40
392.23	1181.68
392.43	1335.28
392.64	1236.97
392.85	1298.41
393.06	1306.60
393.27	1271.79
393.47	1288.17
393.68	1279.98
393.89	1286.12
394.10	1279.98
394.31	1265.64
394.52	1298.41
394.72	1247.21
394.93	1267.69
395.14	1275.88
395.35	1325.04
395.56	1155.05
395.76	1282.03
395.97	1273.84
396.18	1300.46
396.39	1204.21
396.60	1261.55
396.80	1298.41
397.01	1300.46
397.22	1239.02
397.43	1206.25
397.64	1245.16
397.84	1261.55
398.05	1261.55
398.26	1275.88
398.47	1232.88
398.67	1228.78
398.88	1206.25
399.09	1318.89
399.30	1243.12
399.51	1271.79
399.71	1196.01
399.92	1224.69
400.13	1173.49
400.34	1277.93
400.54	1243.12
400.75	1259.50
400.96	1261.55
401.17	1265.64
401.37	1216.49
401.58	1212.40
401.79	1308.65
402.00	1282.03
402.21	1302.51
402.41	1236.97
402.62	1261.55
402.83	1198.06
403.04	1243.12
403.24	1232.88
403.45	1265.64
403.66	1228.78
403.87	1261.55
404.07	1288.17
404.28	1263.60
404.49	1282.03
404.70	1267.69
404.90	1269.74
405.11	1245.16
405.32	1232.88
405.52	1200.11
405.73	1288.17
405.94	1241.07
406.15	1255.40
406.35	1214.45
406.56	1329.13
406.77	1177.58
406.98	1279.98
407.18	1279.98
407.39	1247.21
407.60	1269.74
407.80	1261.55
408.01	1257.45
408.22	1322.99
408.43	1212.40
408.63	1183.73
408.84	1239.02
409.05	1343.47
409.25	1187.82
409.46	1271.79
409.67	1251.31
409.88	1263.60
410.08	1249.26
410.29	1288.17
410.50	1261.55
410.70	1267.69
410.91	1239.02
411.12	1298.41
411.32	1230.83
411.53	1239.02
411.74	1245.16
411.95	1279.98
412.15	1284.08
412.36	1314.80
412.57	1288.17
412.77	1277.93
412.98	1316.84
413.19	1249.26
413.39	1243.12
413.60	1282.03
413.81	1245.16
414.01	1294.32
414.22	1318.89
414.43	1267.69
414.63	1355.76
414.84	1224.69
415.05	1279.98
415.25	1261.55
415.46	1286.12
415.67	1232.88
415.87	1214.45
416.08	1279.98
416.29	1259.50
416.49	1265.64
416.70	1253.36
416.91	1304.56
417.11	1239.02
417.32	1255.40
417.53	1304.56
417.73	1277.93
417.94	1300.46
418.15	1218.54
418.35	1290.22
418.56	1282.03
418.77	1241.07
418.97	1269.74
419.18	1216.49
419.38	1310.70
419.59	1257.45
419.80	1312.75
420.00	1294.32
420.21	1257.45
420.42	1259.50
420.62	1247.21
420.83	1224.69
421.04	1275.88
421.24	1296.36
421.45	1210.35
421.65	1249.26
421.86	1290.22
422.07	1212.40
422.27	1265.64
422.48	1216.49
422.69	1259.50
422.89	1243.12
423.10	1312.75
423.30	1269.74
423.51	1290.22
423.72	1308.65
423.92	1232.88
424.13	1312.75
424.33	1257.45
424.54	1251.31
424.75	1259.50
424.95	1222.64
425.16	1300.46
425.36	1327.08
425.57	1263.60
425.78	1277.93
425.98	1343.47
426.19	1337.32
426.39	1239.02
426.60	1245.16
426.81	1322.99
427.01	1208.30
427.22	1275.88
427.42	1325.04
427.63	1259.50
427.83	1265.64
428.04	1294.32
428.25	1214.45
428.45	1363.95
428.66	1286.12
428.86	1253.36
429.07	1243.12
429.28	1331.18
429.48	1230.83
429.69	1331.18
429.89	1298.41
430.10	1271.79
430.30	1218.54
430.51	1304.56
430.71	1314.80
430.92	1202.16
431.13	1204.21
431.33	1308.65
431.54	1204.21
431.74	1300.46
431.95	1230.83
432.15	1298.41
432.36	1302.51
432.56	1232.88
432.77	1290.22
432.98	1300.46
433.18	1249.26
433.39	1273.84
433.59	1263.60
433.80	1167.34
434.00	1273.84
434.21	1267.69
434.41	1302.51
434.62	1300.46
434.82	1298.41
435.03	1245.16
435.23	1259.50
435.44	1257.45
435.64	1286.12
435.85	1282.03
436.06	1251.31
436.26	1282.03
436.47	1236.97
436.67	1245.16
436.88	1329.13
437.08	1290.22
437.29	1241.07
437.49	1263.60
437.70	1189.87
437.90	1249.26
438.11	1261.55
438.31	1363.95
438.52	1247.21
438.72	1267.69
438.93	1226.73
439.13	1308.65
439.34	1243.12
439.54	1251.31
439.75	1298.41
439.95	1259.50
440.16	1337.32
440.36	1282.03
440.57	1247.21
440.77	1239.02
440.98	1273.84
441.18	1302.51
441.39	1310.70
441.59	1300.46
441.80	1267.69
442.00	1263.60
442.21	1284.08
442.41	1298.41
442.62	1222.64
442.82	1210.35
443.02	1239.02
443.23	1243.12
443.43	1277.93
443.64	1355.76
443.84	1241.07
444.05	1290.22
444.25	1261.55
444.46	1253.36
444.66	1263.60
444.87	1239.02
445.07	1310.70
445.28	1257.45
445.48	1247.21
445.69	1236.97
445.89	1191.92
446.09	1249.26
446.30	1275.88
446.50	1234.93
446.71	1257.45
446.91	1312.75
447.12	1267.69
447.32	1273.84
447.53	1261.55
447.73	1345.52
447.93	1302.51
448.14	1312.75
448.34	1292.27
448.55	1191.92
448.75	1230.83
448.96	1304.56
449.16	1239.02
449.36	1282.03
449.57	1337.32
449.77	1286.12
449.98	1273.84
450.18	1269.74
450.39	1292.27
450.59	1253.36
450.79	1310.70
451.00	1310.70
451.20	1335.28
451.41	1327.08
451.61	1298.41
451.81	1224.69
452.02	1222.64
452.22	1265.64
452.43	1216.49
452.63	1318.89
