SpectraSuite Data File
++++++++++++++++++++++++++++++++++++
Date: Sun Apr 03 19:55:26 CEST 2016
User: root
Dark Spectrum Present: No
Reference Spectrum Present: No
Number of Sampled Component Spectra: 1
Spectrometers: USB4C02835
Integration Time (usec): 10000 (USB4C02835)
Spectra Averaged: 1 (USB4C02835)
Boxcar Smoothing: 0 (USB4C02835)
Correct for Electrical Dark: No (USB4C02835)
Strobe/Lamp Enabled: No (USB4C02835)
Correct for Detector Non-linearity: No (USB4C02835)
Correct for Stray Light: No (USB4C02835)
Number of Pixels in Processed Spectrum: 3648
>>>>>Begin Processed Spectral Data<<<<<
177.47	1288.17
177.69	1288.17
177.91	1288.17
178.13	1327.08
178.36	1206.25
178.58	1312.75
178.80	1255.40
179.02	1234.93
179.24	1286.12
179.46	1259.50
179.68	1269.74
179.90	1214.45
180.13	1286.12
180.35	1153.01
180.57	1263.60
180.79	1241.07
181.01	1279.98
181.23	1312.75
181.45	1228.78
181.67	1290.22
181.90	1282.03
182.12	1251.31
182.34	1265.64
182.56	1253.36
182.78	1255.40
183.00	1220.59
183.22	1337.32
183.44	1239.02
183.66	1300.46
183.89	1249.26
184.11	1279.98
184.33	1257.45
184.55	1286.12
184.77	1200.11
184.99	1247.21
185.21	1355.76
185.43	1292.27
185.65	1314.80
185.87	1249.26
186.10	1298.41
186.32	1241.07
186.54	1292.27
186.76	1275.88
186.98	1255.40
187.20	1239.02
187.42	1257.45
187.64	1249.26
187.86	1286.12
188.08	1288.17
188.30	1232.88
188.52	1292.27
188.75	1206.25
188.97	1234.93
189.19	1214.45
189.41	1249.26
189.63	1273.84
189.85	1294.32
190.07	1224.69
190.29	1308.65
190.51	1245.16
190.73	1241.07
190.95	1234.93
191.17	1331.18
191.39	1286.12
191.61	1294.32
191.84	1218.54
192.06	1222.64
192.28	1243.12
192.50	1300.46
192.72	1265.64
192.94	1245.16
193.16	1327.08
193.38	1288.17
193.60	1263.60
193.82	1286.12
194.04	1308.65
194.26	1304.56
194.48	1273.84
194.70	1247.21
194.92	1277.93
195.14	1286.12
195.36	1249.26
195.58	1245.16
195.80	1218.54
196.02	1298.41
196.24	1265.64
196.46	1290.22
196.69	1294.32
196.91	1263.60
197.13	1265.64
197.35	1241.07
197.57	1155.05
197.79	1259.50
198.01	1265.64
198.23	1312.75
198.45	1202.16
198.67	1267.69
198.89	1267.69
199.11	1226.73
199.33	1337.32
199.55	1269.74
199.77	1243.12
199.99	1294.32
200.21	1228.78
200.43	1302.51
200.65	1337.32
200.87	1267.69
201.09	1251.31
201.31	1230.83
201.53	1232.88
201.75	1292.27
201.97	1247.21
202.19	1298.41
202.41	1282.03
202.63	1316.84
202.85	1232.88
203.07	1316.84
203.29	1208.30
203.51	1325.04
203.73	1284.08
203.95	1282.03
204.17	1320.94
204.39	1318.89
204.61	1269.74
204.83	1275.88
205.05	1259.50
205.27	1216.49
205.49	1269.74
205.71	1216.49
205.93	1185.77
206.15	1255.40
206.37	1253.36
206.59	1279.98
206.81	1282.03
207.03	1290.22
207.25	1347.56
207.47	1241.07
207.69	1218.54
207.91	1257.45
208.13	1263.60
208.34	1226.73
208.56	1179.63
208.78	1269.74
209.00	1220.59
209.22	1206.25
209.44	1210.35
209.66	1282.03
209.88	1193.97
210.10	1302.51
210.32	1312.75
210.54	1202.16
210.76	1255.40
210.98	1208.30
211.20	1251.31
211.42	1263.60
211.64	1271.79
211.86	1202.16
212.08	1251.31
212.30	1243.12
212.52	1241.07
212.74	1296.36
212.96	1189.87
213.17	1232.88
213.39	1273.84
213.61	1261.55
213.83	1288.17
214.05	1267.69
214.27	1288.17
214.49	1269.74
214.71	1304.56
214.93	1263.60
215.15	1222.64
215.37	1245.16
215.59	1196.01
215.81	1236.97
216.03	1239.02
216.24	1263.60
216.46	1161.20
216.68	1243.12
216.90	1265.64
217.12	1292.27
217.34	1304.56
217.56	1226.73
217.78	1273.84
218.00	1273.84
218.22	1257.45
218.44	1249.26
218.66	1327.08
218.87	1218.54
219.09	1257.45
219.31	1288.17
219.53	1277.93
219.75	1257.45
219.97	1241.07
220.19	1292.27
220.41	1275.88
220.63	1265.64
220.85	1320.94
221.06	1271.79
221.28	1335.28
221.50	1294.32
221.72	1265.64
221.94	1261.55
222.16	1241.07
222.38	1294.32
222.60	1269.74
222.82	1255.40
223.03	1282.03
223.25	1200.11
223.47	1271.79
223.69	1212.40
223.91	1273.84
224.13	1271.79
224.35	1318.89
224.57	1251.31
224.78	1247.21
225.00	1224.69
225.22	1314.80
225.44	1232.88
225.66	1212.40
225.88	1282.03
226.10	1234.93
226.32	1236.97
226.53	1257.45
226.75	1220.59
226.97	1269.74
227.19	1296.36
227.41	1284.08
227.63	1222.64
227.85	1312.75
228.06	1286.12
228.28	1316.84
228.50	1312.75
228.72	1286.12
228.94	1245.16
229.16	1239.02
229.37	1220.59
229.59	1208.30
229.81	1198.06
230.03	1269.74
230.25	1288.17
230.47	1202.16
230.69	1247.21
230.90	1282.03
231.12	1269.74
231.34	1247.21
231.56	1296.36
231.78	1273.84
232.00	1275.88
232.21	1353.71
232.43	1232.88
232.65	1275.88
232.87	1294.32
233.09	1243.12
233.30	1269.74
233.52	1308.65
233.74	1284.08
233.96	1282.03
234.18	1265.64
234.40	1265.64
234.61	1282.03
234.83	1302.51
235.05	1290.22
235.27	1296.36
235.49	1296.36
235.70	1290.22
235.92	1273.84
236.14	1208.30
236.36	1273.84
236.58	1253.36
236.79	1282.03
237.01	1294.32
237.23	1282.03
237.45	1265.64
237.67	1187.82
237.88	1255.40
238.10	1304.56
238.32	1249.26
238.54	1337.32
238.76	1277.93
238.97	1304.56
239.19	1202.16
239.41	1282.03
239.63	1288.17
239.85	1257.45
240.06	1239.02
240.28	1314.80
240.50	1247.21
240.72	1322.99
240.93	1234.93
241.15	1288.17
241.37	1331.18
241.59	1273.84
241.81	1339.37
242.02	1230.83
242.24	1275.88
242.46	1230.83
242.68	1288.17
242.89	1294.32
243.11	1271.79
243.33	1243.12
243.55	1292.27
243.76	1257.45
243.98	1277.93
244.20	1230.83
244.42	1300.46
244.64	1325.04
244.85	1275.88
245.07	1277.93
245.29	1353.71
245.51	1253.36
245.72	1271.79
245.94	1218.54
246.16	1296.36
246.38	1345.52
246.59	1347.56
246.81	1312.75
247.03	1290.22
247.24	1191.92
247.46	1243.12
247.68	1175.53
247.90	1247.21
248.11	1296.36
248.33	1228.78
248.55	1200.11
248.77	1224.69
248.98	1239.02
249.20	1282.03
249.42	1263.60
249.64	1294.32
249.85	1212.40
250.07	1245.16
250.29	1269.74
250.50	1208.30
250.72	1247.21
250.94	1275.88
251.16	1200.11
251.37	1255.40
251.59	1273.84
251.81	1290.22
252.02	1304.56
252.24	1265.64
252.46	1279.98
252.68	1179.63
252.89	1249.26
253.11	1232.88
253.33	1325.04
253.54	1339.37
253.76	1286.12
253.98	1347.56
254.20	1255.40
254.41	1329.13
254.63	1218.54
254.85	1288.17
255.06	1253.36
255.28	1138.67
255.50	1314.80
255.71	1312.75
255.93	1249.26
256.15	1296.36
256.36	1329.13
256.58	1153.01
256.80	1298.41
257.02	1267.69
257.23	1208.30
257.45	1200.11
257.67	1273.84
257.88	1202.16
258.10	1257.45
258.32	1232.88
258.53	1302.51
258.75	1286.12
258.97	1253.36
259.18	1269.74
259.40	1310.70
259.62	1286.12
259.83	1253.36
260.05	1370.09
260.27	1398.76
260.48	1269.74
260.70	1304.56
260.92	1300.46
261.13	1265.64
261.35	1290.22
261.57	1298.41
261.78	1277.93
262.00	1279.98
262.22	1337.32
262.43	1322.99
262.65	1265.64
262.86	1239.02
263.08	1267.69
263.30	1185.77
263.51	1183.73
263.73	1277.93
263.95	1259.50
264.16	1251.31
264.38	1189.87
264.60	1296.36
264.81	1279.98
265.03	1181.68
265.25	1261.55
265.46	1304.56
265.68	1198.06
265.89	1294.32
266.11	1196.01
266.33	1243.12
266.54	1259.50
266.76	1200.11
266.98	1257.45
267.19	1290.22
267.41	1308.65
267.62	1327.08
267.84	1253.36
268.06	1230.83
268.27	1216.49
268.49	1255.40
268.70	1224.69
268.92	1273.84
269.14	1331.18
269.35	1288.17
269.57	1302.51
269.79	1347.56
270.00	1327.08
270.22	1216.49
270.43	1331.18
270.65	1216.49
270.87	1212.40
271.08	1247.21
271.30	1234.93
271.51	1206.25
271.73	1298.41
271.95	1275.88
272.16	1292.27
272.38	1257.45
272.59	1234.93
272.81	1259.50
273.02	1290.22
273.24	1243.12
273.46	1251.31
273.67	1333.23
273.89	1216.49
274.10	1316.84
274.32	1261.55
274.54	1236.97
274.75	1267.69
274.97	1325.04
275.18	1265.64
275.40	1325.04
275.61	1218.54
275.83	1288.17
276.05	1284.08
276.26	1345.52
276.48	1247.21
276.69	1232.88
276.91	1239.02
277.12	1294.32
277.34	1376.24
277.55	1239.02
277.77	1279.98
277.99	1300.46
278.20	1265.64
278.42	1314.80
278.63	1284.08
278.85	1318.89
279.06	1275.88
279.28	1243.12
279.49	1310.70
279.71	1251.31
279.93	1277.93
280.14	1241.07
280.36	1236.97
280.57	1175.53
280.79	1247.21
281.00	1310.70
281.22	1341.42
281.43	1277.93
281.65	1241.07
281.86	1255.40
282.08	1290.22
282.29	1314.80
282.51	1218.54
282.73	1249.26
282.94	1187.82
283.16	1271.79
283.37	1247.21
283.59	1232.88
283.80	1236.97
284.02	1306.60
284.23	1257.45
284.45	1269.74
284.66	1214.45
284.88	1228.78
285.09	1257.45
285.31	1322.99
285.52	1230.83
285.74	1316.84
285.95	1275.88
286.17	1304.56
286.38	1253.36
286.60	1279.98
286.81	1261.55
287.03	1277.93
287.24	1269.74
287.46	1265.64
287.67	1245.16
287.89	1271.79
288.10	1239.02
288.32	1296.36
288.53	1204.21
288.75	1277.93
288.96	1222.64
289.18	1263.60
289.39	1308.65
289.61	1298.41
289.82	1327.08
290.04	1306.60
290.25	1234.93
290.47	1259.50
290.68	1167.34
290.90	1214.45
291.11	1275.88
291.33	1282.03
291.54	1273.84
291.76	1275.88
291.97	1267.69
292.18	1322.99
292.40	1288.17
292.61	1282.03
292.83	1234.93
293.04	1282.03
293.26	1306.60
293.47	1261.55
293.69	1288.17
293.90	1275.88
294.12	1300.46
294.33	1277.93
294.55	1306.60
294.76	1259.50
294.97	1275.88
295.19	1320.94
295.40	1216.49
295.62	1249.26
295.83	1302.51
296.05	1345.52
296.26	1224.69
296.48	1253.36
296.69	1300.46
296.90	1277.93
297.12	1230.83
297.33	1296.36
297.55	1292.27
297.76	1277.93
297.98	1304.56
298.19	1325.04
298.41	1282.03
298.62	1300.46
298.83	1279.98
299.05	1249.26
299.26	1222.64
299.48	1230.83
299.69	1220.59
299.90	1282.03
300.12	1310.70
300.33	1298.41
300.55	1279.98
300.76	1325.04
300.98	1261.55
301.19	1298.41
301.40	1337.32
301.62	1226.73
301.83	1247.21
302.05	1230.83
302.26	1304.56
302.47	1279.98
302.69	1241.07
302.90	1320.94
303.12	1191.92
303.33	1228.78
303.54	1290.22
303.76	1339.37
303.97	1275.88
304.19	1261.55
304.40	1265.64
304.61	1310.70
304.83	1247.21
305.04	1216.49
305.26	1263.60
305.47	1257.45
305.68	1253.36
305.90	1265.64
306.11	1265.64
306.33	1363.95
306.54	1232.88
306.75	1222.64
306.97	1234.93
307.18	1245.16
307.39	1275.88
307.61	1267.69
307.82	1314.80
308.04	1290.22
308.25	1312.75
308.46	1288.17
308.68	1251.31
308.89	1253.36
309.10	1304.56
309.32	1253.36
309.53	1253.36
309.74	1294.32
309.96	1277.93
310.17	1296.36
310.39	1191.92
310.60	1273.84
310.81	1296.36
311.03	1234.93
311.24	1286.12
311.45	1306.60
311.67	1345.52
311.88	1255.40
312.09	1224.69
312.31	1286.12
312.52	1269.74
312.73	1304.56
312.95	1282.03
313.16	1230.83
313.37	1191.92
313.59	1282.03
313.80	1273.84
314.01	1279.98
314.23	1267.69
314.44	1269.74
314.65	1222.64
314.87	1308.65
315.08	1294.32
315.29	1279.98
315.51	1331.18
315.72	1282.03
315.93	1306.60
316.15	1355.76
316.36	1290.22
316.57	1304.56
316.79	1271.79
317.00	1257.45
317.21	1267.69
317.43	1253.36
317.64	1255.40
317.85	1218.54
318.07	1269.74
318.28	1292.27
318.49	1249.26
318.70	1224.69
318.92	1312.75
319.13	1228.78
319.34	1306.60
319.56	1257.45
319.77	1275.88
319.98	1306.60
320.20	1249.26
320.41	1226.73
320.62	1290.22
320.83	1236.97
321.05	1290.22
321.26	1312.75
321.47	1220.59
321.69	1294.32
321.90	1273.84
322.11	1304.56
322.32	1216.49
322.54	1351.66
322.75	1265.64
322.96	1267.69
323.18	1243.12
323.39	1241.07
323.60	1271.79
323.81	1239.02
324.03	1294.32
324.24	1282.03
324.45	1282.03
324.66	1314.80
324.88	1249.26
325.09	1220.59
325.30	1279.98
325.52	1263.60
325.73	1261.55
325.94	1261.55
326.15	1243.12
326.37	1263.60
326.58	1279.98
326.79	1327.08
327.00	1232.88
327.22	1249.26
327.43	1290.22
327.64	1255.40
327.85	1341.42
328.07	1282.03
328.28	1320.94
328.49	1282.03
328.70	1310.70
328.92	1275.88
329.13	1259.50
329.34	1265.64
329.55	1279.98
329.76	1224.69
329.98	1322.99
330.19	1239.02
330.40	1196.01
330.61	1343.47
330.83	1198.06
331.04	1236.97
331.25	1261.55
331.46	1273.84
331.68	1290.22
331.89	1241.07
332.10	1271.79
332.31	1269.74
332.52	1361.90
332.74	1247.21
332.95	1269.74
333.16	1259.50
333.37	1314.80
333.58	1353.71
333.80	1290.22
334.01	1292.27
334.22	1173.49
334.43	1247.21
334.64	1312.75
334.86	1226.73
335.07	1306.60
335.28	1230.83
335.49	1193.97
335.70	1239.02
335.92	1277.93
336.13	1253.36
336.34	1239.02
336.55	1282.03
336.76	1347.56
336.98	1249.26
337.19	1290.22
337.40	1288.17
337.61	1224.69
337.82	1310.70
338.04	1234.93
338.25	1259.50
338.46	1251.31
338.67	1208.30
338.88	1171.44
339.09	1234.93
339.31	1302.51
339.52	1226.73
339.73	1271.79
339.94	1245.16
340.15	1236.97
340.36	1277.93
340.58	1302.51
340.79	1312.75
341.00	1267.69
341.21	1251.31
341.42	1196.01
341.63	1318.89
341.85	1251.31
342.06	1269.74
342.27	1273.84
342.48	1263.60
342.69	1226.73
342.90	1251.31
343.12	1306.60
343.33	1249.26
343.54	1286.12
343.75	1306.60
343.96	1304.56
344.17	1335.28
344.38	1259.50
344.60	1204.21
344.81	1271.79
345.02	1267.69
345.23	1284.08
345.44	1277.93
345.65	1279.98
345.86	1372.14
346.07	1261.55
346.29	1298.41
346.50	1279.98
346.71	1284.08
346.92	1308.65
347.13	1234.93
347.34	1292.27
347.55	1296.36
347.76	1253.36
347.98	1294.32
348.19	1267.69
348.40	1257.45
348.61	1230.83
348.82	1327.08
349.03	1300.46
349.24	1294.32
349.45	1306.60
349.66	1331.18
349.88	1263.60
350.09	1363.95
350.30	1273.84
350.51	1341.42
350.72	1247.21
350.93	1288.17
351.14	1310.70
351.35	1312.75
351.56	1265.64
351.77	1265.64
351.99	1318.89
352.20	1277.93
352.41	1239.02
352.62	1325.04
352.83	1282.03
353.04	1279.98
353.25	1257.45
353.46	1290.22
353.67	1273.84
353.88	1284.08
354.09	1228.78
354.30	1247.21
354.52	1331.18
354.73	1290.22
354.94	1279.98
355.15	1271.79
355.36	1230.83
355.57	1337.32
355.78	1245.16
355.99	1232.88
356.20	1279.98
356.41	1245.16
356.62	1200.11
356.83	1253.36
357.04	1288.17
357.25	1212.40
357.46	1249.26
357.68	1304.56
357.89	1273.84
358.10	1388.52
358.31	1222.64
358.52	1271.79
358.73	1271.79
358.94	1282.03
359.15	1279.98
359.36	1277.93
359.57	1257.45
359.78	1267.69
359.99	1224.69
360.20	1243.12
360.41	1257.45
360.62	1245.16
360.83	1222.64
361.04	1247.21
361.25	1265.64
361.46	1298.41
361.67	1239.02
361.88	1263.60
362.09	1300.46
362.30	1255.40
362.51	1239.02
362.72	1282.03
362.93	1228.78
363.14	1314.80
363.35	1298.41
363.56	1267.69
363.78	1286.12
363.99	1294.32
364.20	1300.46
364.41	1312.75
364.62	1304.56
364.83	1288.17
365.04	1232.88
365.25	1251.31
365.46	1290.22
365.67	1267.69
365.88	1290.22
366.09	1322.99
366.30	1265.64
366.51	1294.32
366.72	1273.84
366.93	1282.03
367.14	1232.88
367.35	1193.97
367.56	1202.16
367.77	1320.94
367.98	1257.45
368.18	1292.27
368.39	1292.27
368.60	1286.12
368.81	1255.40
369.02	1259.50
369.23	1181.68
369.44	1320.94
369.65	1298.41
369.86	1169.39
370.07	1228.78
370.28	1204.21
370.49	1210.35
370.70	1290.22
370.91	1255.40
371.12	1257.45
371.33	1263.60
371.54	1325.04
371.75	1183.73
371.96	1216.49
372.17	1200.11
372.38	1257.45
372.59	1298.41
372.80	1273.84
373.01	1218.54
373.22	1316.84
373.43	1228.78
373.64	1234.93
373.85	1290.22
374.06	1275.88
374.26	1271.79
374.47	1212.40
374.68	1243.12
374.89	1253.36
375.10	1310.70
375.31	1202.16
375.52	1239.02
375.73	1245.16
375.94	1279.98
376.15	1241.07
376.36	1288.17
376.57	1304.56
376.78	1218.54
376.99	1249.26
377.20	1230.83
377.40	1226.73
377.61	1269.74
377.82	1198.06
378.03	1251.31
378.24	1296.36
378.45	1269.74
378.66	1230.83
378.87	1206.25
379.08	1236.97
379.29	1212.40
379.50	1275.88
379.71	1259.50
379.91	1282.03
380.12	1279.98
380.33	1257.45
380.54	1220.59
380.75	1345.52
380.96	1269.74
381.17	1327.08
381.38	1200.11
381.59	1251.31
381.80	1257.45
382.00	1275.88
382.21	1286.12
382.42	1318.89
382.63	1261.55
382.84	1286.12
383.05	1277.93
383.26	1224.69
383.47	1232.88
383.68	1296.36
383.88	1251.31
384.09	1273.84
384.30	1214.45
384.51	1322.99
384.72	1267.69
384.93	1245.16
385.14	1286.12
385.35	1320.94
385.55	1224.69
385.76	1275.88
385.97	1267.69
386.18	1204.21
386.39	1310.70
386.60	1275.88
386.81	1308.65
387.02	1257.45
387.22	1146.86
387.43	1277.93
387.64	1290.22
387.85	1284.08
388.06	1357.80
388.27	1263.60
388.48	1206.25
388.68	1284.08
388.89	1212.40
389.10	1282.03
389.31	1277.93
389.52	1318.89
389.73	1228.78
389.93	1306.60
390.14	1228.78
390.35	1273.84
390.56	1312.75
390.77	1292.27
390.98	1245.16
391.18	1232.88
391.39	1200.11
391.60	1271.79
391.81	1290.22
392.02	1271.79
392.23	1275.88
392.43	1298.41
392.64	1286.12
392.85	1247.21
393.06	1202.16
393.27	1183.73
393.47	1269.74
393.68	1253.36
393.89	1294.32
394.10	1241.07
394.31	1193.97
394.52	1249.26
394.72	1290.22
394.93	1239.02
395.14	1271.79
395.35	1325.04
395.56	1228.78
395.76	1251.31
395.97	1228.78
396.18	1257.45
396.39	1286.12
396.60	1312.75
396.80	1236.97
397.01	1234.93
397.22	1286.12
397.43	1230.83
397.64	1302.51
397.84	1265.64
398.05	1261.55
398.26	1167.34
398.47	1269.74
398.67	1259.50
398.88	1300.46
399.09	1322.99
399.30	1230.83
399.51	1249.26
399.71	1288.17
399.92	1263.60
400.13	1271.79
400.34	1327.08
400.54	1265.64
400.75	1296.36
400.96	1257.45
401.17	1341.42
401.37	1275.88
401.58	1241.07
401.79	1261.55
402.00	1339.37
402.21	1282.03
402.41	1294.32
402.62	1275.88
402.83	1361.90
403.04	1249.26
403.24	1261.55
403.45	1251.31
403.66	1282.03
403.87	1243.12
404.07	1275.88
404.28	1230.83
404.49	1310.70
404.70	1224.69
404.90	1257.45
405.11	1239.02
405.32	1335.28
405.52	1275.88
405.73	1282.03
405.94	1290.22
406.15	1224.69
406.35	1220.59
406.56	1288.17
406.77	1275.88
406.98	1206.25
407.18	1282.03
407.39	1230.83
407.60	1200.11
407.80	1292.27
408.01	1265.64
408.22	1257.45
408.43	1257.45
408.63	1216.49
408.84	1224.69
409.05	1212.40
409.25	1224.69
409.46	1312.75
409.67	1329.13
409.88	1218.54
410.08	1241.07
410.29	1224.69
410.50	1234.93
410.70	1378.28
410.91	1282.03
411.12	1257.45
411.32	1339.37
411.53	1253.36
411.74	1232.88
411.95	1216.49
412.15	1193.97
412.36	1222.64
412.57	1277.93
412.77	1286.12
412.98	1226.73
413.19	1255.40
413.39	1236.97
413.60	1304.56
413.81	1257.45
414.01	1304.56
414.22	1265.64
414.43	1275.88
414.63	1310.70
414.84	1239.02
415.05	1216.49
415.25	1251.31
415.46	1251.31
415.67	1216.49
415.87	1267.69
416.08	1269.74
416.29	1300.46
416.49	1224.69
416.70	1302.51
416.91	1310.70
417.11	1277.93
417.32	1284.08
417.53	1292.27
417.73	1290.22
417.94	1300.46
418.15	1312.75
418.35	1263.60
418.56	1245.16
418.77	1314.80
418.97	1267.69
419.18	1269.74
419.38	1318.89
419.59	1288.17
419.80	1290.22
420.00	1208.30
420.21	1304.56
420.42	1339.37
420.62	1306.60
420.83	1220.59
421.04	1232.88
421.24	1253.36
421.45	1296.36
421.65	1273.84
421.86	1275.88
422.07	1308.65
422.27	1267.69
422.48	1284.08
422.69	1273.84
422.89	1249.26
423.10	1308.65
423.30	1327.08
423.51	1284.08
423.72	1212.40
423.92	1300.46
424.13	1302.51
424.33	1277.93
424.54	1282.03
424.75	1257.45
424.95	1251.31
425.16	1243.12
425.36	1261.55
425.57	1322.99
425.78	1234.93
425.98	1239.02
426.19	1273.84
426.39	1325.04
426.60	1206.25
426.81	1335.28
427.01	1318.89
427.22	1302.51
427.42	1198.06
427.63	1288.17
427.83	1263.60
428.04	1302.51
428.25	1273.84
428.45	1208.30
428.66	1314.80
428.86	1312.75
429.07	1271.79
429.28	1290.22
429.48	1247.21
429.69	1273.84
429.89	1286.12
430.10	1341.42
430.30	1234.93
430.51	1282.03
430.71	1265.64
430.92	1320.94
431.13	1265.64
431.33	1212.40
431.54	1308.65
431.74	1277.93
431.95	1241.07
432.15	1282.03
432.36	1255.40
432.56	1325.04
432.77	1271.79
432.98	1331.18
433.18	1216.49
433.39	1239.02
433.59	1298.41
433.80	1288.17
434.00	1226.73
434.21	1310.70
434.41	1224.69
434.62	1224.69
434.82	1306.60
435.03	1302.51
435.23	1288.17
435.44	1294.32
435.64	1255.40
435.85	1245.16
436.06	1239.02
436.26	1269.74
436.47	1282.03
436.67	1290.22
436.88	1271.79
437.08	1304.56
437.29	1286.12
437.49	1277.93
437.70	1265.64
437.90	1290.22
438.11	1316.84
438.31	1224.69
438.52	1322.99
438.72	1275.88
438.93	1255.40
439.13	1273.84
439.34	1265.64
439.54	1216.49
439.75	1243.12
439.95	1269.74
440.16	1249.26
440.36	1200.11
440.57	1353.71
440.77	1353.71
440.98	1306.60
441.18	1271.79
441.39	1314.80
441.59	1275.88
441.80	1245.16
442.00	1298.41
442.21	1304.56
442.41	1261.55
442.62	1282.03
442.82	1271.79
443.02	1253.36
443.23	1267.69
443.43	1333.23
443.64	1279.98
443.84	1318.89
444.05	1255.40
444.25	1296.36
444.46	1251.31
444.66	1249.26
444.87	1298.41
445.07	1263.60
445.28	1288.17
445.48	1230.83
445.69	1249.26
445.89	1273.84
446.09	1249.26
446.30	1271.79
446.50	1271.79
446.71	1304.56
446.91	1243.12
447.12	1265.64
447.32	1343.47
447.53	1261.55
447.73	1271.79
447.93	1314.80
448.14	1286.12
448.34	1267.69
448.55	1261.55
448.75	1265.64
448.96	1308.65
449.16	1239.02
449.36	1251.31
449.57	1279.98
449.77	1241.07
449.98	1265.64
450.18	1259.50
450.39	1292.27
450.59	1241.07
450.79	1286.12
451.00	1277.93
451.20	1241.07
451.41	1265.64
451.61	1241.07
451.81	1243.12
452.02	1282.03
452.22	1331.18
452.43	1292.27
452.63	1282.03
