SpectraSuite Data File
++++++++++++++++++++++++++++++++++++
Date: Sun Apr 03 19:55:20 CEST 2016
User: root
Dark Spectrum Present: No
Reference Spectrum Present: No
Number of Sampled Component Spectra: 1
Spectrometers: USB4C02835
Integration Time (usec): 10000 (USB4C02835)
Spectra Averaged: 1 (USB4C02835)
Boxcar Smoothing: 0 (USB4C02835)
Correct for Electrical Dark: No (USB4C02835)
Strobe/Lamp Enabled: No (USB4C02835)
Correct for Detector Non-linearity: No (USB4C02835)
Correct for Stray Light: No (USB4C02835)
Number of Pixels in Processed Spectrum: 3648
>>>>>Begin Processed Spectral Data<<<<<
177.47	1318.89
177.69	1318.89
177.91	1318.89
178.13	1279.98
178.36	1204.21
178.58	1298.41
178.80	1284.08
179.02	1255.40
179.24	1341.42
179.46	1284.08
179.68	1241.07
179.90	1286.12
180.13	1253.36
180.35	1273.84
180.57	1269.74
180.79	1279.98
181.01	1292.27
181.23	1241.07
181.45	1325.04
181.67	1253.36
181.90	1286.12
182.12	1200.11
182.34	1206.25
182.56	1245.16
182.78	1277.93
183.00	1273.84
183.22	1308.65
183.44	1320.94
183.66	1298.41
183.89	1218.54
184.11	1236.97
184.33	1310.70
184.55	1257.45
184.77	1296.36
184.99	1253.36
185.21	1259.50
185.43	1245.16
185.65	1273.84
185.87	1216.49
186.10	1279.98
186.32	1298.41
186.54	1236.97
186.76	1290.22
186.98	1273.84
187.20	1249.26
187.42	1216.49
187.64	1161.20
187.86	1214.45
188.08	1380.33
188.30	1222.64
188.52	1306.60
188.75	1210.35
188.97	1329.13
189.19	1284.08
189.41	1284.08
189.63	1222.64
189.85	1296.36
190.07	1290.22
190.29	1208.30
190.51	1216.49
190.73	1273.84
190.95	1228.78
191.17	1296.36
191.39	1218.54
191.61	1296.36
191.84	1247.21
192.06	1282.03
192.28	1212.40
192.50	1206.25
192.72	1298.41
192.94	1275.88
193.16	1253.36
193.38	1288.17
193.60	1267.69
193.82	1261.55
194.04	1183.73
194.26	1208.30
194.48	1282.03
194.70	1296.36
194.92	1243.12
195.14	1308.65
195.36	1259.50
195.58	1312.75
195.80	1296.36
196.02	1218.54
196.24	1230.83
196.46	1322.99
196.69	1204.21
196.91	1261.55
197.13	1273.84
197.35	1259.50
197.57	1251.31
197.79	1296.36
198.01	1232.88
198.23	1273.84
198.45	1320.94
198.67	1208.30
198.89	1226.73
199.11	1302.51
199.33	1267.69
199.55	1239.02
199.77	1181.68
199.99	1265.64
200.21	1298.41
200.43	1286.12
200.65	1292.27
200.87	1259.50
201.09	1271.79
201.31	1294.32
201.53	1251.31
201.75	1247.21
201.97	1232.88
202.19	1282.03
202.41	1296.36
202.63	1214.45
202.85	1331.18
203.07	1273.84
203.29	1243.12
203.51	1271.79
203.73	1253.36
203.95	1253.36
204.17	1253.36
204.39	1312.75
204.61	1243.12
204.83	1222.64
205.05	1228.78
205.27	1318.89
205.49	1290.22
205.71	1206.25
205.93	1310.70
206.15	1265.64
206.37	1269.74
206.59	1314.80
206.81	1249.26
207.03	1255.40
207.25	1234.93
207.47	1282.03
207.69	1241.07
207.91	1314.80
208.13	1263.60
208.34	1210.35
208.56	1241.07
208.78	1241.07
209.00	1216.49
209.22	1241.07
209.44	1212.40
209.66	1292.27
209.88	1265.64
210.10	1243.12
210.32	1282.03
210.54	1284.08
210.76	1216.49
210.98	1241.07
211.20	1232.88
211.42	1277.93
211.64	1288.17
211.86	1239.02
212.08	1298.41
212.30	1286.12
212.52	1275.88
212.74	1282.03
212.96	1269.74
213.17	1294.32
213.39	1232.88
213.61	1267.69
213.83	1296.36
214.05	1245.16
214.27	1255.40
214.49	1239.02
214.71	1294.32
214.93	1357.80
215.15	1318.89
215.37	1361.90
215.59	1296.36
215.81	1282.03
216.03	1224.69
216.24	1228.78
216.46	1273.84
216.68	1304.56
216.90	1234.93
217.12	1322.99
217.34	1239.02
217.56	1279.98
217.78	1253.36
218.00	1210.35
218.22	1296.36
218.44	1296.36
218.66	1277.93
218.87	1257.45
219.09	1304.56
219.31	1236.97
219.53	1263.60
219.75	1167.34
219.97	1210.35
220.19	1286.12
220.41	1290.22
220.63	1200.11
220.85	1290.22
221.06	1288.17
221.28	1265.64
221.50	1304.56
221.72	1200.11
221.94	1331.18
222.16	1241.07
222.38	1255.40
222.60	1239.02
222.82	1212.40
223.03	1275.88
223.25	1249.26
223.47	1273.84
223.69	1234.93
223.91	1261.55
224.13	1298.41
224.35	1241.07
224.57	1316.84
224.78	1271.79
225.00	1312.75
225.22	1273.84
225.44	1308.65
225.66	1296.36
225.88	1220.59
226.10	1306.60
226.32	1255.40
226.53	1257.45
226.75	1230.83
226.97	1312.75
227.19	1298.41
227.41	1263.60
227.63	1222.64
227.85	1300.46
228.06	1333.23
228.28	1239.02
228.50	1245.16
228.72	1271.79
228.94	1275.88
229.16	1167.34
229.37	1277.93
229.59	1296.36
229.81	1269.74
230.03	1261.55
230.25	1220.59
230.47	1222.64
230.69	1282.03
230.90	1302.51
231.12	1255.40
231.34	1304.56
231.56	1279.98
231.78	1284.08
232.00	1263.60
232.21	1290.22
232.43	1214.45
232.65	1298.41
232.87	1277.93
233.09	1234.93
233.30	1318.89
233.52	1273.84
233.74	1216.49
233.96	1310.70
234.18	1310.70
234.40	1331.18
234.61	1353.71
234.83	1253.36
235.05	1232.88
235.27	1298.41
235.49	1247.21
235.70	1267.69
235.92	1218.54
236.14	1257.45
236.36	1257.45
236.58	1255.40
236.79	1181.68
237.01	1290.22
237.23	1271.79
237.45	1292.27
237.67	1329.13
237.88	1234.93
238.10	1294.32
238.32	1234.93
238.54	1259.50
238.76	1257.45
238.97	1361.90
239.19	1273.84
239.41	1232.88
239.63	1251.31
239.85	1263.60
240.06	1255.40
240.28	1263.60
240.50	1255.40
240.72	1265.64
240.93	1234.93
241.15	1273.84
241.37	1331.18
241.59	1263.60
241.81	1333.23
242.02	1296.36
242.24	1284.08
242.46	1263.60
242.68	1269.74
242.89	1251.31
243.11	1253.36
243.33	1325.04
243.55	1253.36
243.76	1255.40
243.98	1269.74
244.20	1206.25
244.42	1220.59
244.64	1241.07
244.85	1292.27
245.07	1273.84
245.29	1298.41
245.51	1257.45
245.72	1316.84
245.94	1200.11
246.16	1284.08
246.38	1279.98
246.59	1253.36
246.81	1269.74
247.03	1271.79
247.24	1241.07
247.46	1198.06
247.68	1243.12
247.90	1275.88
248.11	1282.03
248.33	1239.02
248.55	1249.26
248.77	1284.08
248.98	1181.68
249.20	1230.83
249.42	1284.08
249.64	1349.61
249.85	1271.79
250.07	1255.40
250.29	1329.13
250.50	1236.97
250.72	1337.32
250.94	1302.51
251.16	1224.69
251.37	1269.74
251.59	1253.36
251.81	1267.69
252.02	1282.03
252.24	1302.51
252.46	1310.70
252.68	1265.64
252.89	1294.32
253.11	1243.12
253.33	1269.74
253.54	1200.11
253.76	1167.34
253.98	1302.51
254.20	1255.40
254.41	1216.49
254.63	1255.40
254.85	1239.02
255.06	1292.27
255.28	1339.37
255.50	1206.25
255.71	1320.94
255.93	1318.89
256.15	1261.55
256.36	1255.40
256.58	1204.21
256.80	1316.84
257.02	1228.78
257.23	1247.21
257.45	1259.50
257.67	1263.60
257.88	1294.32
258.10	1245.16
258.32	1253.36
258.53	1257.45
258.75	1200.11
258.97	1335.28
259.18	1263.60
259.40	1243.12
259.62	1294.32
259.83	1224.69
260.05	1224.69
260.27	1325.04
260.48	1341.42
260.70	1335.28
260.92	1224.69
261.13	1304.56
261.35	1290.22
261.57	1245.16
261.78	1210.35
262.00	1216.49
262.22	1216.49
262.43	1224.69
262.65	1253.36
262.86	1239.02
263.08	1296.36
263.30	1304.56
263.51	1257.45
263.73	1310.70
263.95	1239.02
264.16	1232.88
264.38	1253.36
264.60	1316.84
264.81	1310.70
265.03	1290.22
265.25	1337.32
265.46	1312.75
265.68	1222.64
265.89	1271.79
266.11	1193.97
266.33	1335.28
266.54	1245.16
266.76	1273.84
266.98	1241.07
267.19	1241.07
267.41	1308.65
267.62	1302.51
267.84	1226.73
268.06	1265.64
268.27	1300.46
268.49	1306.60
268.70	1261.55
268.92	1255.40
269.14	1253.36
269.35	1318.89
269.57	1259.50
269.79	1279.98
270.00	1335.28
270.22	1288.17
270.43	1290.22
270.65	1275.88
270.87	1236.97
271.08	1302.51
271.30	1306.60
271.51	1253.36
271.73	1273.84
271.95	1261.55
272.16	1316.84
272.38	1314.80
272.59	1277.93
272.81	1263.60
273.02	1253.36
273.24	1343.47
273.46	1241.07
273.67	1273.84
273.89	1222.64
274.10	1196.01
274.32	1288.17
274.54	1265.64
274.75	1277.93
274.97	1300.46
275.18	1243.12
275.40	1329.13
275.61	1239.02
275.83	1247.21
276.05	1247.21
276.26	1257.45
276.48	1253.36
276.69	1259.50
276.91	1296.36
277.12	1253.36
277.34	1296.36
277.55	1298.41
277.77	1261.55
277.99	1333.23
278.20	1290.22
278.42	1273.84
278.63	1304.56
278.85	1206.25
279.06	1322.99
279.28	1290.22
279.49	1263.60
279.71	1228.78
279.93	1148.91
280.14	1310.70
280.36	1263.60
280.57	1273.84
280.79	1261.55
281.00	1306.60
281.22	1120.24
281.43	1290.22
281.65	1298.41
281.86	1279.98
282.08	1232.88
282.29	1308.65
282.51	1239.02
282.73	1239.02
282.94	1253.36
283.16	1320.94
283.37	1267.69
283.59	1241.07
283.80	1275.88
284.02	1267.69
284.23	1273.84
284.45	1245.16
284.66	1263.60
284.88	1304.56
285.09	1257.45
285.31	1335.28
285.52	1216.49
285.74	1236.97
285.95	1263.60
286.17	1230.83
286.38	1288.17
286.60	1275.88
286.81	1300.46
287.03	1304.56
287.24	1224.69
287.46	1329.13
287.67	1300.46
287.89	1179.63
288.10	1308.65
288.32	1327.08
288.53	1302.51
288.75	1259.50
288.96	1253.36
289.18	1232.88
289.39	1226.73
289.61	1343.47
289.82	1341.42
290.04	1325.04
290.25	1304.56
290.47	1302.51
290.68	1220.59
290.90	1271.79
291.11	1253.36
291.33	1308.65
291.54	1304.56
291.76	1239.02
291.97	1212.40
292.18	1259.50
292.40	1273.84
292.61	1378.28
292.83	1255.40
293.04	1267.69
293.26	1249.26
293.47	1265.64
293.69	1230.83
293.90	1200.11
294.12	1294.32
294.33	1263.60
294.55	1267.69
294.76	1259.50
294.97	1318.89
295.19	1298.41
295.40	1214.45
295.62	1239.02
295.83	1234.93
296.05	1249.26
296.26	1241.07
296.48	1265.64
296.69	1214.45
296.90	1273.84
297.12	1284.08
297.33	1304.56
297.55	1282.03
297.76	1222.64
297.98	1241.07
298.19	1314.80
298.41	1294.32
298.62	1247.21
298.83	1312.75
299.05	1286.12
299.26	1296.36
299.48	1298.41
299.69	1271.79
299.90	1273.84
300.12	1239.02
300.33	1234.93
300.55	1257.45
300.76	1277.93
300.98	1247.21
301.19	1310.70
301.40	1296.36
301.62	1257.45
301.83	1279.98
302.05	1216.49
302.26	1245.16
302.47	1298.41
302.69	1214.45
302.90	1292.27
303.12	1245.16
303.33	1206.25
303.54	1343.47
303.76	1294.32
303.97	1245.16
304.19	1349.61
304.40	1165.29
304.61	1255.40
304.83	1245.16
305.04	1261.55
305.26	1230.83
305.47	1247.21
305.68	1177.58
305.90	1277.93
306.11	1288.17
306.33	1263.60
306.54	1294.32
306.75	1302.51
306.97	1228.78
307.18	1290.22
307.39	1263.60
307.61	1263.60
307.82	1290.22
308.04	1304.56
308.25	1298.41
308.46	1214.45
308.68	1290.22
308.89	1198.06
309.10	1232.88
309.32	1167.34
309.53	1302.51
309.74	1331.18
309.96	1329.13
310.17	1222.64
310.39	1247.21
310.60	1249.26
310.81	1277.93
311.03	1218.54
311.24	1259.50
311.45	1228.78
311.67	1302.51
311.88	1206.25
312.09	1230.83
312.31	1241.07
312.52	1259.50
312.73	1271.79
312.95	1232.88
313.16	1253.36
313.37	1290.22
313.59	1243.12
313.80	1236.97
314.01	1288.17
314.23	1251.31
314.44	1261.55
314.65	1243.12
314.87	1286.12
315.08	1239.02
315.29	1228.78
315.51	1314.80
315.72	1368.04
315.93	1206.25
316.15	1353.71
316.36	1284.08
316.57	1275.88
316.79	1265.64
317.00	1251.31
317.21	1234.93
317.43	1257.45
317.64	1243.12
317.85	1214.45
318.07	1255.40
318.28	1279.98
318.49	1230.83
318.70	1296.36
318.92	1279.98
319.13	1282.03
319.34	1222.64
319.56	1208.30
319.77	1331.18
319.98	1290.22
320.20	1255.40
320.41	1316.84
320.62	1288.17
320.83	1245.16
321.05	1267.69
321.26	1286.12
321.47	1212.40
321.69	1255.40
321.90	1300.46
322.11	1275.88
322.32	1249.26
322.54	1187.82
322.75	1282.03
322.96	1282.03
323.18	1263.60
323.39	1271.79
323.60	1249.26
323.81	1251.31
324.03	1255.40
324.24	1267.69
324.45	1236.97
324.66	1241.07
324.88	1308.65
325.09	1275.88
325.30	1294.32
325.52	1222.64
325.73	1267.69
325.94	1255.40
326.15	1234.93
326.37	1236.97
326.58	1290.22
326.79	1265.64
327.00	1259.50
327.22	1279.98
327.43	1251.31
327.64	1286.12
327.85	1267.69
328.07	1255.40
328.28	1249.26
328.49	1239.02
328.70	1310.70
328.92	1167.34
329.13	1277.93
329.34	1230.83
329.55	1247.21
329.76	1279.98
329.98	1347.56
330.19	1298.41
330.40	1279.98
330.61	1259.50
330.83	1253.36
331.04	1257.45
331.25	1284.08
331.46	1300.46
331.68	1286.12
331.89	1257.45
332.10	1257.45
332.31	1220.59
332.52	1247.21
332.74	1241.07
332.95	1222.64
333.16	1245.16
333.37	1310.70
333.58	1263.60
333.80	1277.93
334.01	1269.74
334.22	1304.56
334.43	1259.50
334.64	1208.30
334.86	1265.64
335.07	1214.45
335.28	1286.12
335.49	1245.16
335.70	1241.07
335.92	1226.73
336.13	1247.21
336.34	1288.17
336.55	1277.93
336.76	1189.87
336.98	1275.88
337.19	1294.32
337.40	1220.59
337.61	1249.26
337.82	1196.01
338.04	1302.51
338.25	1271.79
338.46	1300.46
338.67	1220.59
338.88	1261.55
339.09	1159.15
339.31	1181.68
339.52	1269.74
339.73	1277.93
339.94	1259.50
340.15	1308.65
340.36	1222.64
340.58	1327.08
340.79	1255.40
341.00	1279.98
341.21	1284.08
341.42	1247.21
341.63	1294.32
341.85	1298.41
342.06	1255.40
342.27	1228.78
342.48	1312.75
342.69	1241.07
342.90	1353.71
343.12	1337.32
343.33	1226.73
343.54	1259.50
343.75	1265.64
343.96	1314.80
344.17	1282.03
344.38	1220.59
344.60	1257.45
344.81	1310.70
345.02	1265.64
345.23	1251.31
345.44	1271.79
345.65	1269.74
345.86	1304.56
346.07	1222.64
346.29	1224.69
346.50	1263.60
346.71	1232.88
346.92	1261.55
347.13	1282.03
347.34	1255.40
347.55	1298.41
347.76	1210.35
347.98	1243.12
348.19	1239.02
348.40	1239.02
348.61	1261.55
348.82	1243.12
349.03	1279.98
349.24	1282.03
349.45	1263.60
349.66	1265.64
349.88	1253.36
350.09	1263.60
350.30	1257.45
350.51	1265.64
350.72	1279.98
350.93	1279.98
351.14	1220.59
351.35	1312.75
351.56	1239.02
351.77	1327.08
351.99	1314.80
352.20	1277.93
352.41	1265.64
352.62	1318.89
352.83	1220.59
353.04	1312.75
353.25	1253.36
353.46	1267.69
353.67	1290.22
353.88	1204.21
354.09	1224.69
354.30	1220.59
354.52	1267.69
354.73	1259.50
354.94	1341.42
355.15	1290.22
355.36	1290.22
355.57	1349.61
355.78	1255.40
355.99	1218.54
356.20	1304.56
356.41	1284.08
356.62	1302.51
356.83	1288.17
357.04	1292.27
357.25	1302.51
357.46	1325.04
357.68	1224.69
357.89	1275.88
358.10	1263.60
358.31	1236.97
358.52	1230.83
358.73	1318.89
358.94	1247.21
359.15	1230.83
359.36	1273.84
359.57	1265.64
359.78	1275.88
359.99	1198.06
360.20	1279.98
360.41	1269.74
360.62	1306.60
360.83	1212.40
361.04	1310.70
361.25	1224.69
361.46	1253.36
361.67	1179.63
361.88	1206.25
362.09	1257.45
362.30	1224.69
362.51	1234.93
362.72	1236.97
362.93	1329.13
363.14	1253.36
363.35	1277.93
363.56	1232.88
363.78	1386.47
363.99	1265.64
364.20	1273.84
364.41	1220.59
364.62	1261.55
364.83	1247.21
365.04	1263.60
365.25	1300.46
365.46	1318.89
365.67	1282.03
365.88	1261.55
366.09	1243.12
366.30	1294.32
366.51	1239.02
366.72	1273.84
366.93	1243.12
367.14	1286.12
367.35	1277.93
367.56	1245.16
367.77	1282.03
367.98	1331.18
368.18	1273.84
368.39	1322.99
368.60	1316.84
368.81	1232.88
369.02	1236.97
369.23	1279.98
369.44	1214.45
369.65	1226.73
369.86	1298.41
370.07	1230.83
370.28	1290.22
370.49	1298.41
370.70	1259.50
370.91	1214.45
371.12	1241.07
371.33	1290.22
371.54	1361.90
371.75	1296.36
371.96	1288.17
372.17	1298.41
372.38	1241.07
372.59	1357.80
372.80	1216.49
373.01	1200.11
373.22	1259.50
373.43	1304.56
373.64	1198.06
373.85	1251.31
374.06	1189.87
374.26	1224.69
374.47	1271.79
374.68	1236.97
374.89	1314.80
375.10	1189.87
375.31	1222.64
375.52	1228.78
375.73	1208.30
375.94	1325.04
376.15	1335.28
376.36	1259.50
376.57	1253.36
376.78	1241.07
376.99	1253.36
377.20	1284.08
377.40	1347.56
377.61	1277.93
377.82	1275.88
378.03	1247.21
378.24	1257.45
378.45	1271.79
378.66	1208.30
378.87	1236.97
379.08	1325.04
379.29	1269.74
379.50	1224.69
379.71	1298.41
379.91	1247.21
380.12	1316.84
380.33	1329.13
380.54	1271.79
380.75	1296.36
380.96	1255.40
381.17	1327.08
381.38	1189.87
381.59	1241.07
381.80	1245.16
382.00	1302.51
382.21	1271.79
382.42	1310.70
382.63	1232.88
382.84	1253.36
383.05	1251.31
383.26	1304.56
383.47	1312.75
383.68	1282.03
383.88	1259.50
384.09	1249.26
384.30	1345.52
384.51	1314.80
384.72	1228.78
384.93	1247.21
385.14	1148.91
385.35	1306.60
385.55	1298.41
385.76	1210.35
385.97	1226.73
386.18	1228.78
386.39	1310.70
386.60	1282.03
386.81	1232.88
387.02	1304.56
387.22	1265.64
387.43	1241.07
387.64	1298.41
387.85	1273.84
388.06	1300.46
388.27	1257.45
388.48	1308.65
388.68	1279.98
388.89	1265.64
389.10	1271.79
389.31	1320.94
389.52	1245.16
389.73	1259.50
389.93	1236.97
390.14	1286.12
390.35	1279.98
390.56	1304.56
390.77	1322.99
390.98	1251.31
391.18	1304.56
391.39	1327.08
391.60	1341.42
391.81	1304.56
392.02	1325.04
392.23	1265.64
392.43	1284.08
392.64	1241.07
392.85	1292.27
393.06	1236.97
393.27	1259.50
393.47	1228.78
393.68	1279.98
393.89	1146.86
394.10	1232.88
394.31	1261.55
394.52	1269.74
394.72	1236.97
394.93	1275.88
395.14	1304.56
395.35	1271.79
395.56	1191.92
395.76	1265.64
395.97	1220.59
396.18	1191.92
396.39	1275.88
396.60	1224.69
396.80	1191.92
397.01	1269.74
397.22	1302.51
397.43	1284.08
397.64	1314.80
397.84	1232.88
398.05	1243.12
398.26	1273.84
398.47	1288.17
398.67	1241.07
398.88	1343.47
399.09	1327.08
399.30	1279.98
399.51	1298.41
399.71	1214.45
399.92	1304.56
400.13	1234.93
400.34	1243.12
400.54	1212.40
400.75	1279.98
400.96	1234.93
401.17	1339.37
401.37	1208.30
401.58	1214.45
401.79	1288.17
402.00	1275.88
402.21	1191.92
402.41	1279.98
402.62	1257.45
402.83	1189.87
403.04	1239.02
403.24	1300.46
403.45	1257.45
403.66	1245.16
403.87	1312.75
404.07	1331.18
404.28	1230.83
404.49	1245.16
404.70	1226.73
404.90	1259.50
405.11	1236.97
405.32	1290.22
405.52	1312.75
405.73	1216.49
405.94	1292.27
406.15	1261.55
406.35	1241.07
406.56	1327.08
406.77	1298.41
406.98	1282.03
407.18	1284.08
407.39	1306.60
407.60	1308.65
407.80	1269.74
408.01	1253.36
408.22	1206.25
408.43	1302.51
408.63	1253.36
408.84	1200.11
409.05	1253.36
409.25	1339.37
409.46	1191.92
409.67	1304.56
409.88	1236.97
410.08	1196.01
410.29	1222.64
410.50	1247.21
410.70	1273.84
410.91	1269.74
411.12	1265.64
411.32	1179.63
411.53	1247.21
411.74	1161.20
411.95	1273.84
412.15	1347.56
412.36	1306.60
412.57	1216.49
412.77	1298.41
412.98	1296.36
413.19	1273.84
413.39	1271.79
413.60	1255.40
413.81	1345.52
414.01	1230.83
414.22	1316.84
414.43	1239.02
414.63	1234.93
414.84	1318.89
415.05	1243.12
415.25	1226.73
415.46	1259.50
415.67	1261.55
415.87	1279.98
416.08	1251.31
416.29	1273.84
416.49	1193.97
416.70	1277.93
416.91	1308.65
417.11	1318.89
417.32	1220.59
417.53	1259.50
417.73	1294.32
417.94	1277.93
418.15	1273.84
418.35	1206.25
418.56	1206.25
418.77	1298.41
418.97	1290.22
419.18	1294.32
419.38	1245.16
419.59	1271.79
419.80	1257.45
420.00	1277.93
420.21	1284.08
420.42	1232.88
420.62	1302.51
420.83	1224.69
421.04	1286.12
421.24	1327.08
421.45	1314.80
421.65	1290.22
421.86	1314.80
422.07	1294.32
422.27	1202.16
422.48	1271.79
422.69	1320.94
422.89	1224.69
423.10	1282.03
423.30	1273.84
423.51	1284.08
423.72	1288.17
423.92	1261.55
424.13	1271.79
424.33	1234.93
424.54	1306.60
424.75	1247.21
424.95	1302.51
425.16	1279.98
425.36	1243.12
425.57	1302.51
425.78	1314.80
425.98	1312.75
426.19	1249.26
426.39	1314.80
426.60	1263.60
426.81	1269.74
427.01	1241.07
427.22	1327.08
427.42	1173.49
427.63	1216.49
427.83	1230.83
428.04	1271.79
428.25	1273.84
428.45	1265.64
428.66	1220.59
428.86	1288.17
429.07	1304.56
429.28	1279.98
429.48	1277.93
429.69	1228.78
429.89	1220.59
430.10	1198.06
430.30	1277.93
430.51	1310.70
430.71	1234.93
430.92	1255.40
431.13	1210.35
431.33	1239.02
431.54	1273.84
431.74	1318.89
431.95	1300.46
432.15	1279.98
432.36	1263.60
432.56	1290.22
432.77	1236.97
432.98	1271.79
433.18	1253.36
433.39	1286.12
433.59	1300.46
433.80	1218.54
434.00	1292.27
434.21	1271.79
434.41	1290.22
434.62	1376.24
434.82	1320.94
435.03	1339.37
435.23	1314.80
435.44	1273.84
435.64	1286.12
435.85	1290.22
436.06	1288.17
436.26	1253.36
436.47	1220.59
436.67	1265.64
436.88	1202.16
437.08	1294.32
437.29	1257.45
437.49	1292.27
437.70	1320.94
437.90	1316.84
438.11	1290.22
438.31	1298.41
438.52	1279.98
438.72	1275.88
438.93	1265.64
439.13	1224.69
439.34	1277.93
439.54	1267.69
439.75	1218.54
439.95	1296.36
440.16	1271.79
440.36	1310.70
440.57	1290.22
440.77	1294.32
440.98	1290.22
441.18	1232.88
441.39	1273.84
441.59	1308.65
441.80	1265.64
442.00	1263.60
442.21	1261.55
442.41	1294.32
442.62	1218.54
442.82	1239.02
443.02	1243.12
443.23	1247.21
443.43	1271.79
443.64	1224.69
443.84	1273.84
444.05	1286.12
444.25	1257.45
444.46	1286.12
444.66	1329.13
444.87	1306.60
445.07	1322.99
445.28	1198.06
445.48	1275.88
445.69	1206.25
445.89	1284.08
446.09	1245.16
446.30	1279.98
446.50	1351.66
446.71	1294.32
446.91	1296.36
447.12	1224.69
447.32	1206.25
447.53	1288.17
447.73	1292.27
447.93	1241.07
448.14	1320.94
448.34	1325.04
448.55	1331.18
448.75	1308.65
448.96	1269.74
449.16	1290.22
449.36	1290.22
449.57	1263.60
449.77	1239.02
449.98	1306.60
450.18	1335.28
450.39	1310.70
450.59	1243.12
450.79	1269.74
451.00	1261.55
451.20	1241.07
451.41	1312.75
451.61	1308.65
451.81	1286.12
452.02	1279.98
452.22	1232.88
452.43	1263.60
452.63	1265.64
