SpectraSuite Data File
++++++++++++++++++++++++++++++++++++
Date: Sun Apr 03 19:55:53 CEST 2016
User: root
Dark Spectrum Present: No
Reference Spectrum Present: No
Number of Sampled Component Spectra: 1
Spectrometers: USB4C02835
Integration Time (usec): 10000 (USB4C02835)
Spectra Averaged: 1 (USB4C02835)
Boxcar Smoothing: 0 (USB4C02835)
Correct for Electrical Dark: No (USB4C02835)
Strobe/Lamp Enabled: No (USB4C02835)
Correct for Detector Non-linearity: No (USB4C02835)
Correct for Stray Light: No (USB4C02835)
Number of Pixels in Processed Spectrum: 3648
>>>>>Begin Processed Spectral Data<<<<<
177.47	1210.35
177.69	1210.35
177.91	1210.35
178.13	1232.88
178.36	1228.78
178.58	1298.41
178.80	1282.03
179.02	1198.06
179.24	1239.02
179.46	1251.31
179.68	1355.76
179.90	1331.18
180.13	1263.60
180.35	1277.93
180.57	1239.02
180.79	1310.70
181.01	1290.22
181.23	1296.36
181.45	1257.45
181.67	1226.73
181.90	1282.03
182.12	1327.08
182.34	1275.88
182.56	1196.01
182.78	1304.56
183.00	1335.28
183.22	1273.84
183.44	1267.69
183.66	1251.31
183.89	1241.07
184.11	1269.74
184.33	1296.36
184.55	1308.65
184.77	1327.08
184.99	1306.60
185.21	1218.54
185.43	1279.98
185.65	1286.12
185.87	1271.79
186.10	1288.17
186.32	1261.55
186.54	1302.51
186.76	1279.98
186.98	1263.60
187.20	1322.99
187.42	1220.59
187.64	1290.22
187.86	1306.60
188.08	1263.60
188.30	1200.11
188.52	1302.51
188.75	1208.30
188.97	1234.93
189.19	1196.01
189.41	1304.56
189.63	1343.47
189.85	1241.07
190.07	1208.30
190.29	1318.89
190.51	1251.31
190.73	1286.12
190.95	1290.22
191.17	1253.36
191.39	1228.78
191.61	1249.26
191.84	1263.60
192.06	1351.66
192.28	1249.26
192.50	1255.40
192.72	1267.69
192.94	1232.88
193.16	1224.69
193.38	1261.55
193.60	1247.21
193.82	1245.16
194.04	1302.51
194.26	1255.40
194.48	1255.40
194.70	1282.03
194.92	1345.52
195.14	1271.79
195.36	1306.60
195.58	1239.02
195.80	1269.74
196.02	1298.41
196.24	1212.40
196.46	1247.21
196.69	1179.63
196.91	1296.36
197.13	1314.80
197.35	1261.55
197.57	1314.80
197.79	1243.12
198.01	1251.31
198.23	1353.71
198.45	1331.18
198.67	1232.88
198.89	1294.32
199.11	1282.03
199.33	1251.31
199.55	1310.70
199.77	1286.12
199.99	1300.46
200.21	1236.97
200.43	1212.40
200.65	1257.45
200.87	1249.26
201.09	1265.64
201.31	1273.84
201.53	1269.74
201.75	1290.22
201.97	1345.52
202.19	1312.75
202.41	1335.28
202.63	1320.94
202.85	1253.36
203.07	1296.36
203.29	1273.84
203.51	1302.51
203.73	1298.41
203.95	1198.06
204.17	1257.45
204.39	1314.80
204.61	1304.56
204.83	1269.74
205.05	1247.21
205.27	1208.30
205.49	1277.93
205.71	1292.27
205.93	1318.89
206.15	1257.45
206.37	1286.12
206.59	1322.99
206.81	1212.40
207.03	1284.08
207.25	1290.22
207.47	1273.84
207.69	1277.93
207.91	1263.60
208.13	1261.55
208.34	1286.12
208.56	1257.45
208.78	1300.46
209.00	1316.84
209.22	1269.74
209.44	1322.99
209.66	1265.64
209.88	1349.61
210.10	1290.22
210.32	1259.50
210.54	1269.74
210.76	1236.97
210.98	1279.98
211.20	1245.16
211.42	1320.94
211.64	1298.41
211.86	1306.60
212.08	1273.84
212.30	1275.88
212.52	1259.50
212.74	1222.64
212.96	1314.80
213.17	1284.08
213.39	1279.98
213.61	1247.21
213.83	1232.88
214.05	1257.45
214.27	1298.41
214.49	1232.88
214.71	1259.50
214.93	1322.99
215.15	1263.60
215.37	1320.94
215.59	1271.79
215.81	1271.79
216.03	1224.69
216.24	1275.88
216.46	1314.80
216.68	1329.13
216.90	1269.74
217.12	1314.80
217.34	1224.69
217.56	1282.03
217.78	1292.27
218.00	1232.88
218.22	1314.80
218.44	1322.99
218.66	1312.75
218.87	1341.42
219.09	1273.84
219.31	1206.25
219.53	1294.32
219.75	1292.27
219.97	1327.08
220.19	1314.80
220.41	1265.64
220.63	1234.93
220.85	1296.36
221.06	1277.93
221.28	1236.97
221.50	1265.64
221.72	1181.68
221.94	1216.49
222.16	1218.54
222.38	1269.74
222.60	1267.69
222.82	1282.03
223.03	1267.69
223.25	1261.55
223.47	1253.36
223.69	1259.50
223.91	1269.74
224.13	1288.17
224.35	1257.45
224.57	1314.80
224.78	1282.03
225.00	1214.45
225.22	1185.77
225.44	1265.64
225.66	1253.36
225.88	1271.79
226.10	1247.21
226.32	1212.40
226.53	1335.28
226.75	1218.54
226.97	1243.12
227.19	1269.74
227.41	1261.55
227.63	1290.22
227.85	1222.64
228.06	1329.13
228.28	1300.46
228.50	1308.65
228.72	1284.08
228.94	1220.59
229.16	1286.12
229.37	1251.31
229.59	1314.80
229.81	1353.71
230.03	1196.01
230.25	1224.69
230.47	1267.69
230.69	1273.84
230.90	1200.11
231.12	1298.41
231.34	1232.88
231.56	1263.60
231.78	1177.58
232.00	1279.98
232.21	1302.51
232.43	1230.83
232.65	1224.69
232.87	1210.35
233.09	1302.51
233.30	1312.75
233.52	1265.64
233.74	1277.93
233.96	1290.22
234.18	1357.80
234.40	1271.79
234.61	1218.54
234.83	1286.12
235.05	1236.97
235.27	1320.94
235.49	1277.93
235.70	1271.79
235.92	1329.13
236.14	1232.88
236.36	1288.17
236.58	1224.69
236.79	1271.79
237.01	1290.22
237.23	1253.36
237.45	1265.64
237.67	1273.84
237.88	1232.88
238.10	1263.60
238.32	1314.80
238.54	1284.08
238.76	1253.36
238.97	1218.54
239.19	1302.51
239.41	1331.18
239.63	1286.12
239.85	1222.64
240.06	1249.26
240.28	1257.45
240.50	1187.82
240.72	1173.49
240.93	1245.16
241.15	1325.04
241.37	1310.70
241.59	1243.12
241.81	1193.97
242.02	1261.55
242.24	1220.59
242.46	1249.26
242.68	1196.01
242.89	1232.88
243.11	1314.80
243.33	1269.74
243.55	1214.45
243.76	1257.45
243.98	1234.93
244.20	1296.36
244.42	1304.56
244.64	1386.47
244.85	1308.65
245.07	1251.31
245.29	1249.26
245.51	1292.27
245.72	1191.92
245.94	1288.17
246.16	1228.78
246.38	1251.31
246.59	1288.17
246.81	1216.49
247.03	1245.16
247.24	1257.45
247.46	1347.56
247.68	1327.08
247.90	1296.36
248.11	1228.78
248.33	1298.41
248.55	1253.36
248.77	1282.03
248.98	1224.69
249.20	1257.45
249.42	1239.02
249.64	1241.07
249.85	1263.60
250.07	1273.84
250.29	1224.69
250.50	1259.50
250.72	1261.55
250.94	1261.55
251.16	1253.36
251.37	1271.79
251.59	1279.98
251.81	1220.59
252.02	1245.16
252.24	1228.78
252.46	1277.93
252.68	1302.51
252.89	1279.98
253.11	1249.26
253.33	1284.08
253.54	1310.70
253.76	1263.60
253.98	1245.16
254.20	1263.60
254.41	1241.07
254.63	1204.21
254.85	1249.26
255.06	1206.25
255.28	1282.03
255.50	1335.28
255.71	1327.08
255.93	1175.53
256.15	1239.02
256.36	1333.23
256.58	1257.45
256.80	1302.51
257.02	1339.37
257.23	1300.46
257.45	1259.50
257.67	1263.60
257.88	1316.84
258.10	1247.21
258.32	1234.93
258.53	1228.78
258.75	1302.51
258.97	1288.17
259.18	1259.50
259.40	1290.22
259.62	1304.56
259.83	1316.84
260.05	1327.08
260.27	1314.80
260.48	1308.65
260.70	1263.60
260.92	1263.60
261.13	1269.74
261.35	1222.64
261.57	1331.18
261.78	1279.98
262.00	1198.06
262.22	1300.46
262.43	1308.65
262.65	1339.37
262.86	1249.26
263.08	1292.27
263.30	1247.21
263.51	1263.60
263.73	1335.28
263.95	1239.02
264.16	1249.26
264.38	1265.64
264.60	1257.45
264.81	1265.64
265.03	1208.30
265.25	1294.32
265.46	1271.79
265.68	1257.45
265.89	1296.36
266.11	1314.80
266.33	1220.59
266.54	1318.89
266.76	1265.64
266.98	1327.08
267.19	1230.83
267.41	1292.27
267.62	1204.21
267.84	1206.25
268.06	1279.98
268.27	1167.34
268.49	1292.27
268.70	1273.84
268.92	1327.08
269.14	1118.19
269.35	1245.16
269.57	1286.12
269.79	1290.22
270.00	1247.21
270.22	1327.08
270.43	1296.36
270.65	1284.08
270.87	1222.64
271.08	1257.45
271.30	1279.98
271.51	1327.08
271.73	1265.64
271.95	1284.08
272.16	1310.70
272.38	1224.69
272.59	1298.41
272.81	1286.12
273.02	1273.84
273.24	1171.44
273.46	1259.50
273.67	1257.45
273.89	1185.77
274.10	1202.16
274.32	1343.47
274.54	1273.84
274.75	1327.08
274.97	1253.36
275.18	1271.79
275.40	1222.64
275.61	1271.79
275.83	1259.50
276.05	1218.54
276.26	1224.69
276.48	1257.45
276.69	1253.36
276.91	1277.93
277.12	1308.65
277.34	1320.94
277.55	1284.08
277.77	1363.95
277.99	1241.07
278.20	1181.68
278.42	1243.12
278.63	1318.89
278.85	1265.64
279.06	1210.35
279.28	1294.32
279.49	1294.32
279.71	1216.49
279.93	1296.36
280.14	1267.69
280.36	1200.11
280.57	1224.69
280.79	1220.59
281.00	1314.80
281.22	1277.93
281.43	1345.52
281.65	1273.84
281.86	1259.50
282.08	1198.06
282.29	1214.45
282.51	1273.84
282.73	1247.21
282.94	1230.83
283.16	1251.31
283.37	1294.32
283.59	1279.98
283.80	1296.36
284.02	1296.36
284.23	1241.07
284.45	1232.88
284.66	1236.97
284.88	1204.21
285.09	1241.07
285.31	1263.60
285.52	1271.79
285.74	1245.16
285.95	1316.84
286.17	1282.03
286.38	1220.59
286.60	1234.93
286.81	1296.36
287.03	1296.36
287.24	1220.59
287.46	1239.02
287.67	1226.73
287.89	1290.22
288.10	1290.22
288.32	1331.18
288.53	1253.36
288.75	1318.89
288.96	1222.64
289.18	1296.36
289.39	1173.49
289.61	1290.22
289.82	1249.26
290.04	1306.60
290.25	1247.21
290.47	1214.45
290.68	1220.59
290.90	1167.34
291.11	1298.41
291.33	1245.16
291.54	1177.58
291.76	1224.69
291.97	1226.73
292.18	1298.41
292.40	1337.32
292.61	1261.55
292.83	1253.36
293.04	1208.30
293.26	1234.93
293.47	1288.17
293.69	1273.84
293.90	1214.45
294.12	1335.28
294.33	1277.93
294.55	1335.28
294.76	1251.31
294.97	1230.83
295.19	1239.02
295.40	1284.08
295.62	1200.11
295.83	1255.40
296.05	1239.02
296.26	1322.99
296.48	1298.41
296.69	1261.55
296.90	1306.60
297.12	1222.64
297.33	1300.46
297.55	1204.21
297.76	1339.37
297.98	1267.69
298.19	1277.93
298.41	1277.93
298.62	1312.75
298.83	1314.80
299.05	1325.04
299.26	1267.69
299.48	1241.07
299.69	1193.97
299.90	1275.88
300.12	1226.73
300.33	1232.88
300.55	1271.79
300.76	1306.60
300.98	1243.12
301.19	1234.93
301.40	1308.65
301.62	1282.03
301.83	1251.31
302.05	1314.80
302.26	1345.52
302.47	1267.69
302.69	1308.65
302.90	1316.84
303.12	1245.16
303.33	1310.70
303.54	1337.32
303.76	1265.64
303.97	1245.16
304.19	1228.78
304.40	1222.64
304.61	1232.88
304.83	1263.60
305.04	1261.55
305.26	1327.08
305.47	1394.67
305.68	1296.36
305.90	1296.36
306.11	1282.03
306.33	1239.02
306.54	1249.26
306.75	1261.55
306.97	1271.79
307.18	1249.26
307.39	1277.93
307.61	1302.51
307.82	1243.12
308.04	1257.45
308.25	1288.17
308.46	1267.69
308.68	1284.08
308.89	1271.79
309.10	1253.36
309.32	1259.50
309.53	1306.60
309.74	1214.45
309.96	1316.84
310.17	1310.70
310.39	1245.16
310.60	1200.11
310.81	1286.12
311.03	1339.37
311.24	1277.93
311.45	1302.51
311.67	1265.64
311.88	1296.36
312.09	1249.26
312.31	1236.97
312.52	1314.80
312.73	1312.75
312.95	1284.08
313.16	1267.69
313.37	1288.17
313.59	1284.08
313.80	1241.07
314.01	1304.56
314.23	1318.89
314.44	1265.64
314.65	1275.88
314.87	1263.60
315.08	1265.64
315.29	1310.70
315.51	1304.56
315.72	1306.60
315.93	1247.21
316.15	1310.70
316.36	1298.41
316.57	1253.36
316.79	1322.99
317.00	1339.37
317.21	1335.28
317.43	1294.32
317.64	1296.36
317.85	1263.60
318.07	1284.08
318.28	1218.54
318.49	1228.78
318.70	1314.80
318.92	1273.84
319.13	1279.98
319.34	1294.32
319.56	1261.55
319.77	1306.60
319.98	1259.50
320.20	1226.73
320.41	1357.80
320.62	1302.51
320.83	1282.03
321.05	1236.97
321.26	1296.36
321.47	1265.64
321.69	1329.13
321.90	1335.28
322.11	1247.21
322.32	1284.08
322.54	1249.26
322.75	1288.17
322.96	1214.45
323.18	1243.12
323.39	1230.83
323.60	1284.08
323.81	1277.93
324.03	1243.12
324.24	1282.03
324.45	1308.65
324.66	1286.12
324.88	1302.51
325.09	1286.12
325.30	1318.89
325.52	1279.98
325.73	1228.78
325.94	1232.88
326.15	1234.93
326.37	1292.27
326.58	1259.50
326.79	1273.84
327.00	1284.08
327.22	1304.56
327.43	1261.55
327.64	1292.27
327.85	1286.12
328.07	1257.45
328.28	1236.97
328.49	1327.08
328.70	1234.93
328.92	1331.18
329.13	1273.84
329.34	1210.35
329.55	1220.59
329.76	1277.93
329.98	1232.88
330.19	1232.88
330.40	1259.50
330.61	1298.41
330.83	1284.08
331.04	1267.69
331.25	1228.78
331.46	1257.45
331.68	1327.08
331.89	1200.11
332.10	1269.74
332.31	1249.26
332.52	1310.70
332.74	1331.18
332.95	1288.17
333.16	1222.64
333.37	1308.65
333.58	1271.79
333.80	1249.26
334.01	1290.22
334.22	1296.36
334.43	1325.04
334.64	1306.60
334.86	1257.45
335.07	1230.83
335.28	1282.03
335.49	1329.13
335.70	1286.12
335.92	1288.17
336.13	1277.93
336.34	1277.93
336.55	1259.50
336.76	1275.88
336.98	1222.64
337.19	1282.03
337.40	1279.98
337.61	1296.36
337.82	1210.35
338.04	1208.30
338.25	1259.50
338.46	1253.36
338.67	1269.74
338.88	1275.88
339.09	1230.83
339.31	1263.60
339.52	1230.83
339.73	1255.40
339.94	1249.26
340.15	1232.88
340.36	1290.22
340.58	1267.69
340.79	1312.75
341.00	1312.75
341.21	1284.08
341.42	1243.12
341.63	1253.36
341.85	1155.05
342.06	1314.80
342.27	1271.79
342.48	1306.60
342.69	1312.75
342.90	1284.08
343.12	1198.06
343.33	1302.51
343.54	1341.42
343.75	1196.01
343.96	1275.88
344.17	1271.79
344.38	1251.31
344.60	1271.79
344.81	1212.40
345.02	1214.45
345.23	1284.08
345.44	1296.36
345.65	1234.93
345.86	1241.07
346.07	1236.97
346.29	1312.75
346.50	1312.75
346.71	1314.80
346.92	1261.55
347.13	1263.60
347.34	1263.60
347.55	1265.64
347.76	1236.97
347.98	1304.56
348.19	1241.07
348.40	1310.70
348.61	1243.12
348.82	1265.64
349.03	1277.93
349.24	1255.40
349.45	1232.88
349.66	1241.07
349.88	1257.45
350.09	1314.80
350.30	1296.36
350.51	1269.74
350.72	1284.08
350.93	1249.26
351.14	1296.36
351.35	1339.37
351.56	1265.64
351.77	1232.88
351.99	1253.36
352.20	1292.27
352.41	1271.79
352.62	1320.94
352.83	1269.74
353.04	1208.30
353.25	1245.16
353.46	1241.07
353.67	1236.97
353.88	1224.69
354.09	1269.74
354.30	1310.70
354.52	1284.08
354.73	1304.56
354.94	1267.69
355.15	1347.56
355.36	1304.56
355.57	1218.54
355.78	1271.79
355.99	1292.27
356.20	1228.78
356.41	1290.22
356.62	1298.41
356.83	1267.69
357.04	1282.03
357.25	1263.60
357.46	1304.56
357.68	1298.41
357.89	1290.22
358.10	1185.77
358.31	1243.12
358.52	1282.03
358.73	1366.00
358.94	1189.87
359.15	1234.93
359.36	1257.45
359.57	1216.49
359.78	1263.60
359.99	1277.93
360.20	1269.74
360.41	1247.21
360.62	1282.03
360.83	1277.93
361.04	1196.01
361.25	1351.66
361.46	1263.60
361.67	1273.84
361.88	1273.84
362.09	1329.13
362.30	1286.12
362.51	1320.94
362.72	1241.07
362.93	1230.83
363.14	1265.64
363.35	1271.79
363.56	1249.26
363.78	1187.82
363.99	1253.36
364.20	1212.40
364.41	1204.21
364.62	1277.93
364.83	1322.99
365.04	1271.79
365.25	1294.32
365.46	1239.02
365.67	1267.69
365.88	1357.80
366.09	1271.79
366.30	1265.64
366.51	1298.41
366.72	1251.31
366.93	1296.36
367.14	1300.46
367.35	1288.17
367.56	1273.84
367.77	1322.99
367.98	1296.36
368.18	1267.69
368.39	1273.84
368.60	1277.93
368.81	1265.64
369.02	1241.07
369.23	1275.88
369.44	1288.17
369.65	1218.54
369.86	1339.37
370.07	1228.78
370.28	1312.75
370.49	1318.89
370.70	1322.99
370.91	1282.03
371.12	1284.08
371.33	1327.08
371.54	1216.49
371.75	1271.79
371.96	1245.16
372.17	1314.80
372.38	1253.36
372.59	1196.01
372.80	1288.17
373.01	1265.64
373.22	1222.64
373.43	1275.88
373.64	1265.64
373.85	1357.80
374.06	1378.28
374.26	1331.18
374.47	1228.78
374.68	1284.08
374.89	1206.25
375.10	1310.70
375.31	1298.41
375.52	1351.66
375.73	1282.03
375.94	1267.69
376.15	1263.60
376.36	1263.60
376.57	1306.60
376.78	1222.64
376.99	1282.03
377.20	1245.16
377.40	1196.01
377.61	1284.08
377.82	1273.84
378.03	1239.02
378.24	1239.02
378.45	1232.88
378.66	1269.74
378.87	1249.26
379.08	1288.17
379.29	1263.60
379.50	1316.84
379.71	1261.55
379.91	1310.70
380.12	1271.79
380.33	1273.84
380.54	1290.22
380.75	1247.21
380.96	1298.41
381.17	1224.69
381.38	1353.71
381.59	1230.83
381.80	1200.11
382.00	1306.60
382.21	1243.12
382.42	1232.88
382.63	1243.12
382.84	1275.88
383.05	1294.32
383.26	1310.70
383.47	1331.18
383.68	1222.64
383.88	1265.64
384.09	1275.88
384.30	1290.22
384.51	1228.78
384.72	1294.32
384.93	1239.02
385.14	1265.64
385.35	1296.36
385.55	1267.69
385.76	1304.56
385.97	1294.32
386.18	1271.79
386.39	1284.08
386.60	1228.78
386.81	1304.56
387.02	1304.56
387.22	1247.21
387.43	1271.79
387.64	1222.64
387.85	1255.40
388.06	1253.36
388.27	1290.22
388.48	1345.52
388.68	1216.49
388.89	1265.64
389.10	1210.35
389.31	1327.08
389.52	1290.22
389.73	1251.31
389.93	1318.89
390.14	1267.69
390.35	1298.41
390.56	1193.97
390.77	1308.65
390.98	1271.79
391.18	1288.17
391.39	1284.08
391.60	1316.84
391.81	1193.97
392.02	1249.26
392.23	1265.64
392.43	1247.21
392.64	1251.31
392.85	1208.30
393.06	1239.02
393.27	1279.98
393.47	1257.45
393.68	1275.88
393.89	1302.51
394.10	1296.36
394.31	1253.36
394.52	1239.02
394.72	1185.77
394.93	1347.56
395.14	1273.84
395.35	1316.84
395.56	1253.36
395.76	1290.22
395.97	1249.26
396.18	1269.74
396.39	1245.16
396.60	1273.84
396.80	1292.27
397.01	1277.93
397.22	1222.64
397.43	1279.98
397.64	1304.56
397.84	1259.50
398.05	1253.36
398.26	1251.31
398.47	1239.02
398.67	1302.51
398.88	1222.64
399.09	1245.16
399.30	1314.80
399.51	1241.07
399.71	1271.79
399.92	1279.98
400.13	1273.84
400.34	1372.14
400.54	1339.37
400.75	1322.99
400.96	1271.79
401.17	1298.41
401.37	1179.63
401.58	1265.64
401.79	1228.78
402.00	1241.07
402.21	1216.49
402.41	1282.03
402.62	1288.17
402.83	1228.78
403.04	1282.03
403.24	1288.17
403.45	1290.22
403.66	1277.93
403.87	1247.21
404.07	1269.74
404.28	1279.98
404.49	1292.27
404.70	1310.70
404.90	1282.03
405.11	1251.31
405.32	1245.16
405.52	1251.31
405.73	1263.60
405.94	1247.21
406.15	1251.31
406.35	1263.60
406.56	1271.79
406.77	1355.76
406.98	1228.78
407.18	1253.36
407.39	1265.64
407.60	1294.32
407.80	1257.45
408.01	1284.08
408.22	1290.22
408.43	1269.74
408.63	1239.02
408.84	1277.93
409.05	1249.26
409.25	1267.69
409.46	1269.74
409.67	1294.32
409.88	1232.88
410.08	1279.98
410.29	1325.04
410.50	1257.45
410.70	1349.61
410.91	1263.60
411.12	1298.41
411.32	1282.03
411.53	1273.84
411.74	1236.97
411.95	1288.17
412.15	1251.31
412.36	1312.75
412.57	1298.41
412.77	1279.98
412.98	1261.55
413.19	1302.51
413.39	1247.21
413.60	1290.22
413.81	1290.22
414.01	1253.36
414.22	1271.79
414.43	1290.22
414.63	1329.13
414.84	1337.32
415.05	1286.12
415.25	1243.12
415.46	1232.88
415.67	1267.69
415.87	1265.64
416.08	1298.41
416.29	1175.53
416.49	1322.99
416.70	1236.97
416.91	1312.75
417.11	1288.17
417.32	1310.70
417.53	1302.51
417.73	1296.36
417.94	1257.45
418.15	1239.02
418.35	1267.69
418.56	1245.16
418.77	1306.60
418.97	1294.32
419.18	1239.02
419.38	1263.60
419.59	1257.45
419.80	1259.50
420.00	1191.92
420.21	1269.74
420.42	1271.79
420.62	1288.17
420.83	1234.93
421.04	1304.56
421.24	1302.51
421.45	1236.97
421.65	1179.63
421.86	1282.03
422.07	1306.60
422.27	1251.31
422.48	1273.84
422.69	1230.83
422.89	1243.12
423.10	1269.74
423.30	1224.69
423.51	1230.83
423.72	1191.92
423.92	1298.41
424.13	1269.74
424.33	1288.17
424.54	1275.88
424.75	1325.04
424.95	1185.77
425.16	1277.93
425.36	1243.12
425.57	1296.36
425.78	1245.16
425.98	1253.36
426.19	1220.59
426.39	1249.26
426.60	1269.74
426.81	1263.60
427.01	1273.84
427.22	1222.64
427.42	1159.15
427.63	1279.98
427.83	1267.69
428.04	1255.40
428.25	1253.36
428.45	1269.74
428.66	1261.55
428.86	1257.45
429.07	1163.25
429.28	1163.25
429.48	1273.84
429.69	1255.40
429.89	1261.55
430.10	1322.99
430.30	1249.26
430.51	1185.77
430.71	1275.88
430.92	1284.08
431.13	1200.11
431.33	1273.84
431.54	1216.49
431.74	1310.70
431.95	1243.12
432.15	1249.26
432.36	1189.87
432.56	1300.46
432.77	1267.69
432.98	1370.09
433.18	1214.45
433.39	1286.12
433.59	1257.45
433.80	1273.84
434.00	1253.36
434.21	1343.47
434.41	1288.17
434.62	1269.74
434.82	1239.02
435.03	1253.36
435.23	1267.69
435.44	1241.07
435.64	1304.56
435.85	1224.69
436.06	1261.55
436.26	1300.46
436.47	1241.07
436.67	1214.45
436.88	1327.08
437.08	1318.89
437.29	1318.89
437.49	1261.55
437.70	1322.99
437.90	1257.45
438.11	1290.22
438.31	1175.53
438.52	1314.80
438.72	1335.28
438.93	1226.73
439.13	1310.70
439.34	1259.50
439.54	1210.35
439.75	1290.22
439.95	1290.22
440.16	1232.88
440.36	1351.66
440.57	1261.55
440.77	1284.08
440.98	1249.26
441.18	1261.55
441.39	1241.07
441.59	1331.18
441.80	1314.80
442.00	1275.88
442.21	1249.26
442.41	1247.21
442.62	1333.23
442.82	1255.40
443.02	1300.46
443.23	1236.97
443.43	1273.84
443.64	1234.93
443.84	1271.79
444.05	1304.56
444.25	1294.32
444.46	1253.36
444.66	1216.49
444.87	1345.52
445.07	1296.36
445.28	1308.65
445.48	1298.41
445.69	1232.88
445.89	1282.03
446.09	1277.93
446.30	1218.54
446.50	1275.88
446.71	1343.47
446.91	1265.64
447.12	1253.36
447.32	1236.97
447.53	1239.02
447.73	1247.21
447.93	1308.65
448.14	1282.03
448.34	1163.25
448.55	1257.45
448.75	1300.46
448.96	1275.88
449.16	1241.07
449.36	1263.60
449.57	1247.21
449.77	1300.46
449.98	1230.83
450.18	1263.60
450.39	1265.64
450.59	1361.90
450.79	1234.93
451.00	1261.55
451.20	1230.83
451.41	1284.08
451.61	1234.93
451.81	1347.56
452.02	1232.88
452.22	1239.02
452.43	1298.41
452.63	1306.60
