SpectraSuite Data File
++++++++++++++++++++++++++++++++++++
Date: Sun Apr 03 19:55:17 CEST 2016
User: root
Dark Spectrum Present: No
Reference Spectrum Present: No
Number of Sampled Component Spectra: 1
Spectrometers: USB4C02835
Integration Time (usec): 10000 (USB4C02835)
Spectra Averaged: 1 (USB4C02835)
Boxcar Smoothing: 0 (USB4C02835)
Correct for Electrical Dark: No (USB4C02835)
Strobe/Lamp Enabled: No (USB4C02835)
Correct for Detector Non-linearity: No (USB4C02835)
Correct for Stray Light: No (USB4C02835)
Number of Pixels in Processed Spectrum: 3648
>>>>>Begin Processed Spectral Data<<<<<
177.47	1273.84
177.69	1273.84
177.91	1273.84
178.13	1216.49
178.36	1234.93
178.58	1255.40
178.80	1279.98
179.02	1288.17
179.24	1216.49
179.46	1341.42
179.68	1304.56
179.90	1206.25
180.13	1249.26
180.35	1361.90
180.57	1298.41
180.79	1218.54
181.01	1232.88
181.23	1265.64
181.45	1269.74
181.67	1234.93
181.90	1310.70
182.12	1310.70
182.34	1316.84
182.56	1204.21
182.78	1349.61
183.00	1314.80
183.22	1198.06
183.44	1148.91
183.66	1251.31
183.89	1263.60
184.11	1204.21
184.33	1212.40
184.55	1298.41
184.77	1226.73
184.99	1322.99
185.21	1232.88
185.43	1282.03
185.65	1255.40
185.87	1333.23
186.10	1296.36
186.32	1212.40
186.54	1200.11
186.76	1277.93
186.98	1277.93
187.20	1243.12
187.42	1255.40
187.64	1241.07
187.86	1202.16
188.08	1320.94
188.30	1296.36
188.52	1243.12
188.75	1224.69
188.97	1236.97
189.19	1263.60
189.41	1239.02
189.63	1251.31
189.85	1234.93
190.07	1269.74
190.29	1267.69
190.51	1277.93
190.73	1269.74
190.95	1267.69
191.17	1259.50
191.39	1241.07
191.61	1218.54
191.84	1265.64
192.06	1167.34
192.28	1261.55
192.50	1247.21
192.72	1241.07
192.94	1234.93
193.16	1275.88
193.38	1253.36
193.60	1259.50
193.82	1216.49
194.04	1288.17
194.26	1294.32
194.48	1282.03
194.70	1279.98
194.92	1216.49
195.14	1212.40
195.36	1277.93
195.58	1279.98
195.80	1275.88
196.02	1204.21
196.24	1282.03
196.46	1181.68
196.69	1236.97
196.91	1279.98
197.13	1249.26
197.35	1239.02
197.57	1249.26
197.79	1312.75
198.01	1296.36
198.23	1288.17
198.45	1253.36
198.67	1286.12
198.89	1257.45
199.11	1316.84
199.33	1253.36
199.55	1325.04
199.77	1292.27
199.99	1210.35
200.21	1277.93
200.43	1275.88
200.65	1251.31
200.87	1251.31
201.09	1310.70
201.31	1259.50
201.53	1243.12
201.75	1253.36
201.97	1288.17
202.19	1275.88
202.41	1286.12
202.63	1279.98
202.85	1277.93
203.07	1236.97
203.29	1265.64
203.51	1312.75
203.73	1327.08
203.95	1306.60
204.17	1173.49
204.39	1273.84
204.61	1214.45
204.83	1216.49
205.05	1230.83
205.27	1284.08
205.49	1265.64
205.71	1294.32
205.93	1232.88
206.15	1259.50
206.37	1363.95
206.59	1267.69
206.81	1294.32
207.03	1224.69
207.25	1304.56
207.47	1277.93
207.69	1232.88
207.91	1296.36
208.13	1294.32
208.34	1232.88
208.56	1241.07
208.78	1327.08
209.00	1310.70
209.22	1288.17
209.44	1284.08
209.66	1257.45
209.88	1234.93
210.10	1218.54
210.32	1265.64
210.54	1230.83
210.76	1277.93
210.98	1282.03
211.20	1249.26
211.42	1249.26
211.64	1247.21
211.86	1216.49
212.08	1298.41
212.30	1310.70
212.52	1249.26
212.74	1214.45
212.96	1249.26
213.17	1249.26
213.39	1271.79
213.61	1327.08
213.83	1316.84
214.05	1222.64
214.27	1275.88
214.49	1286.12
214.71	1189.87
214.93	1212.40
215.15	1318.89
215.37	1236.97
215.59	1294.32
215.81	1212.40
216.03	1333.23
216.24	1294.32
216.46	1259.50
216.68	1251.31
216.90	1275.88
217.12	1320.94
217.34	1267.69
217.56	1198.06
217.78	1277.93
218.00	1208.30
218.22	1267.69
218.44	1331.18
218.66	1298.41
218.87	1288.17
219.09	1302.51
219.31	1298.41
219.53	1236.97
219.75	1312.75
219.97	1316.84
220.19	1228.78
220.41	1257.45
220.63	1259.50
220.85	1216.49
221.06	1232.88
221.28	1263.60
221.50	1245.16
221.72	1265.64
221.94	1290.22
222.16	1255.40
222.38	1312.75
222.60	1265.64
222.82	1249.26
223.03	1318.89
223.25	1267.69
223.47	1216.49
223.69	1232.88
223.91	1304.56
224.13	1263.60
224.35	1284.08
224.57	1312.75
224.78	1282.03
225.00	1279.98
225.22	1271.79
225.44	1243.12
225.66	1275.88
225.88	1204.21
226.10	1294.32
226.32	1224.69
226.53	1210.35
226.75	1230.83
226.97	1253.36
227.19	1308.65
227.41	1198.06
227.63	1363.95
227.85	1189.87
228.06	1345.52
228.28	1257.45
228.50	1331.18
228.72	1216.49
228.94	1247.21
229.16	1263.60
229.37	1267.69
229.59	1239.02
229.81	1261.55
230.03	1339.37
230.25	1329.13
230.47	1351.66
230.69	1282.03
230.90	1273.84
231.12	1341.42
231.34	1251.31
231.56	1257.45
231.78	1226.73
232.00	1312.75
232.21	1286.12
232.43	1255.40
232.65	1271.79
232.87	1282.03
233.09	1265.64
233.30	1177.58
233.52	1230.83
233.74	1249.26
233.96	1218.54
234.18	1304.56
234.40	1228.78
234.61	1265.64
234.83	1279.98
235.05	1288.17
235.27	1232.88
235.49	1263.60
235.70	1222.64
235.92	1196.01
236.14	1337.32
236.36	1298.41
236.58	1206.25
236.79	1255.40
237.01	1271.79
237.23	1253.36
237.45	1228.78
237.67	1214.45
237.88	1249.26
238.10	1159.15
238.32	1325.04
238.54	1263.60
238.76	1261.55
238.97	1269.74
239.19	1261.55
239.41	1257.45
239.63	1228.78
239.85	1304.56
240.06	1259.50
240.28	1236.97
240.50	1185.77
240.72	1212.40
240.93	1304.56
241.15	1267.69
241.37	1263.60
241.59	1302.51
241.81	1277.93
242.02	1275.88
242.24	1257.45
242.46	1275.88
242.68	1253.36
242.89	1265.64
243.11	1265.64
243.33	1331.18
243.55	1236.97
243.76	1325.04
243.98	1267.69
244.20	1273.84
244.42	1257.45
244.64	1294.32
244.85	1212.40
245.07	1269.74
245.29	1249.26
245.51	1239.02
245.72	1282.03
245.94	1294.32
246.16	1247.21
246.38	1251.31
246.59	1257.45
246.81	1300.46
247.03	1239.02
247.24	1232.88
247.46	1222.64
247.68	1304.56
247.90	1308.65
248.11	1224.69
248.33	1286.12
248.55	1306.60
248.77	1234.93
248.98	1239.02
249.20	1275.88
249.42	1253.36
249.64	1331.18
249.85	1261.55
250.07	1273.84
250.29	1222.64
250.50	1267.69
250.72	1267.69
250.94	1243.12
251.16	1282.03
251.37	1279.98
251.59	1302.51
251.81	1296.36
252.02	1282.03
252.24	1279.98
252.46	1302.51
252.68	1249.26
252.89	1251.31
253.11	1316.84
253.33	1255.40
253.54	1267.69
253.76	1245.16
253.98	1341.42
254.20	1327.08
254.41	1361.90
254.63	1290.22
254.85	1306.60
255.06	1239.02
255.28	1279.98
255.50	1351.66
255.71	1306.60
255.93	1267.69
256.15	1226.73
256.36	1218.54
256.58	1331.18
256.80	1284.08
257.02	1265.64
257.23	1224.69
257.45	1214.45
257.67	1314.80
257.88	1232.88
258.10	1269.74
258.32	1222.64
258.53	1290.22
258.75	1257.45
258.97	1267.69
259.18	1228.78
259.40	1204.21
259.62	1251.31
259.83	1245.16
260.05	1290.22
260.27	1306.60
260.48	1300.46
260.70	1277.93
260.92	1269.74
261.13	1306.60
261.35	1249.26
261.57	1214.45
261.78	1249.26
262.00	1267.69
262.22	1173.49
262.43	1277.93
262.65	1153.01
262.86	1292.27
263.08	1243.12
263.30	1226.73
263.51	1249.26
263.73	1241.07
263.95	1298.41
264.16	1216.49
264.38	1218.54
264.60	1236.97
264.81	1267.69
265.03	1220.59
265.25	1292.27
265.46	1284.08
265.68	1279.98
265.89	1290.22
266.11	1249.26
266.33	1282.03
266.54	1294.32
266.76	1265.64
266.98	1273.84
267.19	1286.12
267.41	1228.78
267.62	1251.31
267.84	1243.12
268.06	1236.97
268.27	1230.83
268.49	1302.51
268.70	1220.59
268.92	1277.93
269.14	1312.75
269.35	1288.17
269.57	1294.32
269.79	1288.17
270.00	1212.40
270.22	1294.32
270.43	1316.84
270.65	1232.88
270.87	1370.09
271.08	1347.56
271.30	1267.69
271.51	1222.64
271.73	1236.97
271.95	1275.88
272.16	1290.22
272.38	1353.71
272.59	1228.78
272.81	1279.98
273.02	1318.89
273.24	1273.84
273.46	1236.97
273.67	1251.31
273.89	1288.17
274.10	1290.22
274.32	1267.69
274.54	1290.22
274.75	1320.94
274.97	1212.40
275.18	1255.40
275.40	1269.74
275.61	1239.02
275.83	1290.22
276.05	1251.31
276.26	1267.69
276.48	1247.21
276.69	1255.40
276.91	1298.41
277.12	1228.78
277.34	1290.22
277.55	1265.64
277.77	1300.46
277.99	1189.87
278.20	1245.16
278.42	1284.08
278.63	1286.12
278.85	1239.02
279.06	1269.74
279.28	1296.36
279.49	1298.41
279.71	1284.08
279.93	1292.27
280.14	1277.93
280.36	1312.75
280.57	1288.17
280.79	1236.97
281.00	1357.80
281.22	1277.93
281.43	1312.75
281.65	1228.78
281.86	1286.12
282.08	1279.98
282.29	1318.89
282.51	1310.70
282.73	1327.08
282.94	1312.75
283.16	1265.64
283.37	1286.12
283.59	1226.73
283.80	1290.22
284.02	1296.36
284.23	1294.32
284.45	1257.45
284.66	1245.16
284.88	1298.41
285.09	1261.55
285.31	1269.74
285.52	1185.77
285.74	1259.50
285.95	1230.83
286.17	1241.07
286.38	1300.46
286.60	1275.88
286.81	1255.40
287.03	1259.50
287.24	1214.45
287.46	1224.69
287.67	1286.12
287.89	1263.60
288.10	1265.64
288.32	1292.27
288.53	1236.97
288.75	1261.55
288.96	1284.08
289.18	1286.12
289.39	1286.12
289.61	1310.70
289.82	1232.88
290.04	1253.36
290.25	1300.46
290.47	1214.45
290.68	1255.40
290.90	1259.50
291.11	1263.60
291.33	1265.64
291.54	1312.75
291.76	1259.50
291.97	1304.56
292.18	1224.69
292.40	1243.12
292.61	1282.03
292.83	1220.59
293.04	1288.17
293.26	1269.74
293.47	1286.12
293.69	1216.49
293.90	1265.64
294.12	1282.03
294.33	1318.89
294.55	1228.78
294.76	1279.98
294.97	1251.31
295.19	1284.08
295.40	1282.03
295.62	1261.55
295.83	1216.49
296.05	1245.16
296.26	1230.83
296.48	1257.45
296.69	1296.36
296.90	1294.32
297.12	1200.11
297.33	1210.35
297.55	1282.03
297.76	1337.32
297.98	1304.56
298.19	1271.79
298.41	1236.97
298.62	1320.94
298.83	1298.41
299.05	1220.59
299.26	1224.69
299.48	1226.73
299.69	1255.40
299.90	1253.36
300.12	1243.12
300.33	1226.73
300.55	1290.22
300.76	1241.07
300.98	1331.18
301.19	1275.88
301.40	1271.79
301.62	1261.55
301.83	1288.17
302.05	1228.78
302.26	1286.12
302.47	1196.01
302.69	1300.46
302.90	1218.54
303.12	1263.60
303.33	1347.56
303.54	1296.36
303.76	1204.21
303.97	1263.60
304.19	1218.54
304.40	1226.73
304.61	1277.93
304.83	1308.65
305.04	1279.98
305.26	1275.88
305.47	1286.12
305.68	1259.50
305.90	1310.70
306.11	1257.45
306.33	1314.80
306.54	1308.65
306.75	1255.40
306.97	1255.40
307.18	1261.55
307.39	1241.07
307.61	1230.83
307.82	1226.73
308.04	1251.31
308.25	1335.28
308.46	1294.32
308.68	1286.12
308.89	1243.12
309.10	1273.84
309.32	1273.84
309.53	1288.17
309.74	1267.69
309.96	1220.59
310.17	1245.16
310.39	1273.84
310.60	1277.93
310.81	1310.70
311.03	1181.68
311.24	1148.91
311.45	1329.13
311.67	1269.74
311.88	1310.70
312.09	1316.84
312.31	1277.93
312.52	1251.31
312.73	1300.46
312.95	1249.26
313.16	1253.36
313.37	1296.36
313.59	1343.47
313.80	1279.98
314.01	1198.06
314.23	1327.08
314.44	1216.49
314.65	1288.17
314.87	1275.88
315.08	1263.60
315.29	1206.25
315.51	1247.21
315.72	1241.07
315.93	1218.54
316.15	1304.56
316.36	1142.77
316.57	1282.03
316.79	1263.60
317.00	1267.69
317.21	1245.16
317.43	1230.83
317.64	1318.89
317.85	1249.26
318.07	1198.06
318.28	1257.45
318.49	1257.45
318.70	1314.80
318.92	1259.50
319.13	1249.26
319.34	1282.03
319.56	1286.12
319.77	1284.08
319.98	1304.56
320.20	1208.30
320.41	1267.69
320.62	1212.40
320.83	1296.36
321.05	1288.17
321.26	1222.64
321.47	1206.25
321.69	1335.28
321.90	1247.21
322.11	1234.93
322.32	1193.97
322.54	1271.79
322.75	1290.22
322.96	1282.03
323.18	1282.03
323.39	1286.12
323.60	1218.54
323.81	1320.94
324.03	1304.56
324.24	1232.88
324.45	1212.40
324.66	1294.32
324.88	1368.04
325.09	1277.93
325.30	1243.12
325.52	1327.08
325.73	1271.79
325.94	1263.60
326.15	1257.45
326.37	1251.31
326.58	1271.79
326.79	1253.36
327.00	1249.26
327.22	1277.93
327.43	1243.12
327.64	1277.93
327.85	1269.74
328.07	1284.08
328.28	1351.66
328.49	1269.74
328.70	1218.54
328.92	1314.80
329.13	1251.31
329.34	1271.79
329.55	1325.04
329.76	1298.41
329.98	1290.22
330.19	1322.99
330.40	1253.36
330.61	1263.60
330.83	1290.22
331.04	1226.73
331.25	1288.17
331.46	1288.17
331.68	1216.49
331.89	1292.27
332.10	1269.74
332.31	1345.52
332.52	1286.12
332.74	1331.18
332.95	1226.73
333.16	1261.55
333.37	1261.55
333.58	1288.17
333.80	1253.36
334.01	1218.54
334.22	1329.13
334.43	1337.32
334.64	1255.40
334.86	1288.17
335.07	1230.83
335.28	1298.41
335.49	1234.93
335.70	1187.82
335.92	1277.93
336.13	1253.36
336.34	1333.23
336.55	1318.89
336.76	1253.36
336.98	1251.31
337.19	1269.74
337.40	1273.84
337.61	1329.13
337.82	1245.16
338.04	1239.02
338.25	1241.07
338.46	1214.45
338.67	1267.69
338.88	1277.93
339.09	1210.35
339.31	1222.64
339.52	1243.12
339.73	1296.36
339.94	1269.74
340.15	1257.45
340.36	1249.26
340.58	1298.41
340.79	1222.64
341.00	1222.64
341.21	1267.69
341.42	1216.49
341.63	1294.32
341.85	1347.56
342.06	1247.21
342.27	1247.21
342.48	1294.32
342.69	1234.93
342.90	1282.03
343.12	1239.02
343.33	1259.50
343.54	1257.45
343.75	1296.36
343.96	1322.99
344.17	1308.65
344.38	1196.01
344.60	1275.88
344.81	1255.40
345.02	1302.51
345.23	1308.65
345.44	1241.07
345.65	1284.08
345.86	1316.84
346.07	1230.83
346.29	1241.07
346.50	1310.70
346.71	1239.02
346.92	1255.40
347.13	1294.32
347.34	1292.27
347.55	1292.27
347.76	1267.69
347.98	1230.83
348.19	1216.49
348.40	1189.87
348.61	1316.84
348.82	1247.21
349.03	1300.46
349.24	1288.17
349.45	1273.84
349.66	1198.06
349.88	1196.01
350.09	1265.64
350.30	1294.32
350.51	1228.78
350.72	1366.00
350.93	1302.51
351.14	1265.64
351.35	1275.88
351.56	1251.31
351.77	1271.79
351.99	1286.12
352.20	1267.69
352.41	1251.31
352.62	1232.88
352.83	1294.32
353.04	1337.32
353.25	1216.49
353.46	1275.88
353.67	1279.98
353.88	1265.64
354.09	1294.32
354.30	1304.56
354.52	1275.88
354.73	1347.56
354.94	1261.55
355.15	1247.21
355.36	1261.55
355.57	1273.84
355.78	1220.59
355.99	1232.88
356.20	1284.08
356.41	1298.41
356.62	1257.45
356.83	1191.92
357.04	1282.03
357.25	1320.94
357.46	1259.50
357.68	1284.08
357.89	1294.32
358.10	1267.69
358.31	1216.49
358.52	1257.45
358.73	1298.41
358.94	1216.49
359.15	1243.12
359.36	1259.50
359.57	1251.31
359.78	1343.47
359.99	1310.70
360.20	1265.64
360.41	1265.64
360.62	1241.07
360.83	1216.49
361.04	1269.74
361.25	1253.36
361.46	1282.03
361.67	1236.97
361.88	1273.84
362.09	1263.60
362.30	1247.21
362.51	1263.60
362.72	1312.75
362.93	1277.93
363.14	1220.59
363.35	1300.46
363.56	1247.21
363.78	1257.45
363.99	1290.22
364.20	1304.56
364.41	1261.55
364.62	1302.51
364.83	1263.60
365.04	1357.80
365.25	1202.16
365.46	1296.36
365.67	1204.21
365.88	1267.69
366.09	1220.59
366.30	1306.60
366.51	1284.08
366.72	1286.12
366.93	1249.26
367.14	1308.65
367.35	1259.50
367.56	1361.90
367.77	1202.16
367.98	1230.83
368.18	1290.22
368.39	1288.17
368.60	1234.93
368.81	1337.32
369.02	1273.84
369.23	1265.64
369.44	1224.69
369.65	1226.73
369.86	1255.40
370.07	1298.41
370.28	1210.35
370.49	1216.49
370.70	1232.88
370.91	1255.40
371.12	1263.60
371.33	1273.84
371.54	1253.36
371.75	1265.64
371.96	1284.08
372.17	1286.12
372.38	1257.45
372.59	1308.65
372.80	1286.12
373.01	1271.79
373.22	1216.49
373.43	1300.46
373.64	1187.82
373.85	1239.02
374.06	1277.93
374.26	1239.02
374.47	1296.36
374.68	1308.65
374.89	1282.03
375.10	1286.12
375.31	1282.03
375.52	1331.18
375.73	1269.74
375.94	1294.32
376.15	1267.69
376.36	1294.32
376.57	1277.93
376.78	1312.75
376.99	1214.45
377.20	1247.21
377.40	1259.50
377.61	1249.26
377.82	1314.80
378.03	1193.97
378.24	1269.74
378.45	1288.17
378.66	1228.78
378.87	1222.64
379.08	1253.36
379.29	1298.41
379.50	1279.98
379.71	1286.12
379.91	1271.79
380.12	1275.88
380.33	1273.84
380.54	1232.88
380.75	1214.45
380.96	1247.21
381.17	1290.22
381.38	1325.04
381.59	1245.16
381.80	1269.74
382.00	1212.40
382.21	1232.88
382.42	1265.64
382.63	1249.26
382.84	1269.74
383.05	1269.74
383.26	1259.50
383.47	1220.59
383.68	1222.64
383.88	1265.64
384.09	1322.99
384.30	1232.88
384.51	1329.13
384.72	1265.64
384.93	1245.16
385.14	1312.75
385.35	1265.64
385.55	1251.31
385.76	1251.31
385.97	1269.74
386.18	1316.84
386.39	1191.92
386.60	1257.45
386.81	1249.26
387.02	1279.98
387.22	1335.28
387.43	1224.69
387.64	1263.60
387.85	1220.59
388.06	1277.93
388.27	1202.16
388.48	1304.56
388.68	1261.55
388.89	1310.70
389.10	1361.90
389.31	1331.18
389.52	1284.08
389.73	1249.26
389.93	1267.69
390.14	1275.88
390.35	1228.78
390.56	1304.56
390.77	1318.89
390.98	1236.97
391.18	1265.64
391.39	1222.64
391.60	1312.75
391.81	1259.50
392.02	1228.78
392.23	1316.84
392.43	1251.31
392.64	1269.74
392.85	1247.21
393.06	1308.65
393.27	1265.64
393.47	1247.21
393.68	1263.60
393.89	1247.21
394.10	1206.25
394.31	1243.12
394.52	1239.02
394.72	1306.60
394.93	1261.55
395.14	1247.21
395.35	1331.18
395.56	1325.04
395.76	1247.21
395.97	1282.03
396.18	1271.79
396.39	1247.21
396.60	1288.17
396.80	1265.64
397.01	1171.44
397.22	1247.21
397.43	1253.36
397.64	1226.73
397.84	1183.73
398.05	1294.32
398.26	1257.45
398.47	1212.40
398.67	1294.32
398.88	1263.60
399.09	1239.02
399.30	1261.55
399.51	1236.97
399.71	1306.60
399.92	1267.69
400.13	1249.26
400.34	1275.88
400.54	1230.83
400.75	1325.04
400.96	1261.55
401.17	1265.64
401.37	1265.64
401.58	1232.88
401.79	1284.08
402.00	1216.49
402.21	1322.99
402.41	1230.83
402.62	1265.64
402.83	1251.31
403.04	1294.32
403.24	1265.64
403.45	1243.12
403.66	1286.12
403.87	1226.73
404.07	1220.59
404.28	1269.74
404.49	1282.03
404.70	1288.17
404.90	1263.60
405.11	1294.32
405.32	1269.74
405.52	1269.74
405.73	1241.07
405.94	1228.78
406.15	1247.21
406.35	1310.70
406.56	1177.58
406.77	1210.35
406.98	1310.70
407.18	1253.36
407.39	1271.79
407.60	1245.16
407.80	1243.12
408.01	1206.25
408.22	1347.56
408.43	1236.97
408.63	1286.12
408.84	1308.65
409.05	1294.32
409.25	1279.98
409.46	1239.02
409.67	1232.88
409.88	1277.93
410.08	1261.55
410.29	1234.93
410.50	1288.17
410.70	1308.65
410.91	1255.40
411.12	1306.60
411.32	1263.60
411.53	1200.11
411.74	1261.55
411.95	1216.49
412.15	1290.22
412.36	1279.98
412.57	1294.32
412.77	1218.54
412.98	1320.94
413.19	1320.94
413.39	1308.65
413.60	1296.36
413.81	1310.70
414.01	1286.12
414.22	1298.41
414.43	1212.40
414.63	1220.59
414.84	1224.69
415.05	1236.97
415.25	1206.25
415.46	1253.36
415.67	1255.40
415.87	1325.04
416.08	1259.50
416.29	1279.98
416.49	1322.99
416.70	1239.02
416.91	1249.26
417.11	1282.03
417.32	1288.17
417.53	1314.80
417.73	1288.17
417.94	1271.79
418.15	1257.45
418.35	1320.94
418.56	1265.64
418.77	1249.26
418.97	1241.07
419.18	1263.60
419.38	1161.20
419.59	1288.17
419.80	1279.98
420.00	1296.36
420.21	1273.84
420.42	1308.65
420.62	1337.32
420.83	1298.41
421.04	1255.40
421.24	1269.74
421.45	1228.78
421.65	1243.12
421.86	1286.12
422.07	1249.26
422.27	1200.11
422.48	1245.16
422.69	1193.97
422.89	1279.98
423.10	1245.16
423.30	1284.08
423.51	1212.40
423.72	1261.55
423.92	1288.17
424.13	1191.92
424.33	1318.89
424.54	1265.64
424.75	1265.64
424.95	1282.03
425.16	1249.26
425.36	1222.64
425.57	1255.40
425.78	1200.11
425.98	1232.88
426.19	1294.32
426.39	1271.79
426.60	1333.23
426.81	1331.18
427.01	1216.49
427.22	1273.84
427.42	1286.12
427.63	1265.64
427.83	1132.53
428.04	1206.25
428.25	1306.60
428.45	1325.04
428.66	1322.99
428.86	1191.92
429.07	1279.98
429.28	1224.69
429.48	1255.40
429.69	1224.69
429.89	1298.41
430.10	1269.74
430.30	1204.21
430.51	1273.84
430.71	1243.12
430.92	1257.45
431.13	1241.07
431.33	1316.84
431.54	1310.70
431.74	1257.45
431.95	1296.36
432.15	1325.04
432.36	1306.60
432.56	1294.32
432.77	1210.35
432.98	1224.69
433.18	1265.64
433.39	1312.75
433.59	1230.83
433.80	1310.70
434.00	1224.69
434.21	1257.45
434.41	1198.06
434.62	1230.83
434.82	1255.40
435.03	1204.21
435.23	1343.47
435.44	1251.31
435.64	1261.55
435.85	1310.70
436.06	1267.69
436.26	1304.56
436.47	1243.12
436.67	1282.03
436.88	1300.46
437.08	1261.55
437.29	1290.22
437.49	1306.60
437.70	1239.02
437.90	1239.02
438.11	1251.31
438.31	1294.32
438.52	1279.98
438.72	1206.25
438.93	1275.88
439.13	1279.98
439.34	1271.79
439.54	1222.64
439.75	1314.80
439.95	1273.84
440.16	1298.41
440.36	1331.18
440.57	1257.45
440.77	1218.54
440.98	1292.27
441.18	1263.60
441.39	1259.50
441.59	1232.88
441.80	1318.89
442.00	1247.21
442.21	1245.16
442.41	1265.64
442.62	1249.26
442.82	1302.51
443.02	1187.82
443.23	1308.65
443.43	1282.03
443.64	1228.78
443.84	1314.80
444.05	1310.70
444.25	1282.03
444.46	1228.78
444.66	1288.17
444.87	1265.64
445.07	1312.75
445.28	1269.74
445.48	1298.41
445.69	1257.45
445.89	1255.40
446.09	1239.02
446.30	1284.08
446.50	1277.93
446.71	1284.08
446.91	1261.55
447.12	1282.03
447.32	1316.84
447.53	1259.50
447.73	1294.32
447.93	1335.28
448.14	1255.40
448.34	1257.45
448.55	1318.89
448.75	1282.03
448.96	1273.84
449.16	1208.30
449.36	1298.41
449.57	1314.80
449.77	1257.45
449.98	1263.60
450.18	1288.17
450.39	1202.16
450.59	1269.74
450.79	1282.03
451.00	1208.30
451.20	1267.69
451.41	1282.03
451.61	1257.45
451.81	1241.07
452.02	1353.71
452.22	1296.36
452.43	1288.17
452.63	1306.60
