SpectraSuite Data File
++++++++++++++++++++++++++++++++++++
Date: Sun Apr 03 19:55:44 CEST 2016
User: root
Dark Spectrum Present: No
Reference Spectrum Present: No
Number of Sampled Component Spectra: 1
Spectrometers: USB4C02835
Integration Time (usec): 10000 (USB4C02835)
Spectra Averaged: 1 (USB4C02835)
Boxcar Smoothing: 0 (USB4C02835)
Correct for Electrical Dark: No (USB4C02835)
Strobe/Lamp Enabled: No (USB4C02835)
Correct for Detector Non-linearity: No (USB4C02835)
Correct for Stray Light: No (USB4C02835)
Number of Pixels in Processed Spectrum: 3648
>>>>>Begin Processed Spectral Data<<<<<
177.47	1247.21
177.69	1247.21
177.91	1247.21
178.13	1220.59
178.36	1279.98
178.58	1261.55
178.80	1241.07
179.02	1292.27
179.24	1208.30
179.46	1316.84
179.68	1230.83
179.90	1271.79
180.13	1253.36
180.35	1286.12
180.57	1220.59
180.79	1273.84
181.01	1322.99
181.23	1269.74
181.45	1214.45
181.67	1224.69
181.90	1331.18
182.12	1249.26
182.34	1257.45
182.56	1222.64
182.78	1230.83
183.00	1253.36
183.22	1292.27
183.44	1222.64
183.66	1300.46
183.89	1320.94
184.11	1339.37
184.33	1222.64
184.55	1241.07
184.77	1228.78
184.99	1204.21
185.21	1279.98
185.43	1255.40
185.65	1220.59
185.87	1288.17
186.10	1208.30
186.32	1290.22
186.54	1271.79
186.76	1310.70
186.98	1224.69
187.20	1282.03
187.42	1232.88
187.64	1251.31
187.86	1239.02
188.08	1239.02
188.30	1312.75
188.52	1245.16
188.75	1302.51
188.97	1216.49
189.19	1294.32
189.41	1253.36
189.63	1300.46
189.85	1210.35
190.07	1220.59
190.29	1271.79
190.51	1306.60
190.73	1308.65
190.95	1241.07
191.17	1275.88
191.39	1306.60
191.61	1216.49
191.84	1302.51
192.06	1325.04
192.28	1312.75
192.50	1275.88
192.72	1245.16
192.94	1290.22
193.16	1298.41
193.38	1331.18
193.60	1228.78
193.82	1247.21
194.04	1220.59
194.26	1249.26
194.48	1282.03
194.70	1329.13
194.92	1239.02
195.14	1247.21
195.36	1247.21
195.58	1255.40
195.80	1173.49
196.02	1236.97
196.24	1208.30
196.46	1345.52
196.69	1208.30
196.91	1284.08
197.13	1265.64
197.35	1290.22
197.57	1312.75
197.79	1269.74
198.01	1214.45
198.23	1294.32
198.45	1261.55
198.67	1327.08
198.89	1234.93
199.11	1318.89
199.33	1355.76
199.55	1249.26
199.77	1308.65
199.99	1370.09
200.21	1236.97
200.43	1269.74
200.65	1253.36
200.87	1210.35
201.09	1273.84
201.31	1282.03
201.53	1271.79
201.75	1288.17
201.97	1265.64
202.19	1288.17
202.41	1302.51
202.63	1208.30
202.85	1325.04
203.07	1200.11
203.29	1273.84
203.51	1249.26
203.73	1232.88
203.95	1234.93
204.17	1282.03
204.39	1337.32
204.61	1204.21
204.83	1232.88
205.05	1253.36
205.27	1288.17
205.49	1347.56
205.71	1316.84
205.93	1312.75
206.15	1290.22
206.37	1306.60
206.59	1245.16
206.81	1284.08
207.03	1337.32
207.25	1218.54
207.47	1273.84
207.69	1327.08
207.91	1288.17
208.13	1284.08
208.34	1306.60
208.56	1185.77
208.78	1335.28
209.00	1243.12
209.22	1368.04
209.44	1232.88
209.66	1247.21
209.88	1275.88
210.10	1325.04
210.32	1300.46
210.54	1269.74
210.76	1279.98
210.98	1220.59
211.20	1247.21
211.42	1277.93
211.64	1226.73
211.86	1259.50
212.08	1216.49
212.30	1282.03
212.52	1282.03
212.74	1306.60
212.96	1298.41
213.17	1157.10
213.39	1288.17
213.61	1232.88
213.83	1296.36
214.05	1241.07
214.27	1298.41
214.49	1232.88
214.71	1296.36
214.93	1304.56
215.15	1214.45
215.37	1308.65
215.59	1277.93
215.81	1232.88
216.03	1318.89
216.24	1255.40
216.46	1302.51
216.68	1196.01
216.90	1236.97
217.12	1292.27
217.34	1308.65
217.56	1234.93
217.78	1216.49
218.00	1208.30
218.22	1273.84
218.44	1275.88
218.66	1187.82
218.87	1335.28
219.09	1214.45
219.31	1302.51
219.53	1249.26
219.75	1302.51
219.97	1322.99
220.19	1347.56
220.41	1208.30
220.63	1331.18
220.85	1286.12
221.06	1298.41
221.28	1255.40
221.50	1382.38
221.72	1269.74
221.94	1304.56
222.16	1259.50
222.38	1222.64
222.60	1320.94
222.82	1312.75
223.03	1282.03
223.25	1335.28
223.47	1296.36
223.69	1282.03
223.91	1282.03
224.13	1247.21
224.35	1239.02
224.57	1279.98
224.78	1308.65
225.00	1243.12
225.22	1314.80
225.44	1294.32
225.66	1265.64
225.88	1269.74
226.10	1288.17
226.32	1241.07
226.53	1253.36
226.75	1249.26
226.97	1206.25
227.19	1189.87
227.41	1224.69
227.63	1277.93
227.85	1300.46
228.06	1245.16
228.28	1316.84
228.50	1351.66
228.72	1282.03
228.94	1167.34
229.16	1112.05
229.37	1222.64
229.59	1290.22
229.81	1267.69
230.03	1247.21
230.25	1236.97
230.47	1298.41
230.69	1277.93
230.90	1306.60
231.12	1282.03
231.34	1263.60
231.56	1322.99
231.78	1239.02
232.00	1372.14
232.21	1216.49
232.43	1214.45
232.65	1200.11
232.87	1214.45
233.09	1239.02
233.30	1265.64
233.52	1257.45
233.74	1251.31
233.96	1259.50
234.18	1265.64
234.40	1232.88
234.61	1253.36
234.83	1232.88
235.05	1220.59
235.27	1245.16
235.49	1314.80
235.70	1251.31
235.92	1277.93
236.14	1277.93
236.36	1265.64
236.58	1187.82
236.79	1320.94
237.01	1249.26
237.23	1206.25
237.45	1165.29
237.67	1241.07
237.88	1239.02
238.10	1230.83
238.32	1255.40
238.54	1228.78
238.76	1335.28
238.97	1189.87
239.19	1265.64
239.41	1288.17
239.63	1286.12
239.85	1300.46
240.06	1243.12
240.28	1271.79
240.50	1249.26
240.72	1282.03
240.93	1271.79
241.15	1327.08
241.37	1271.79
241.59	1277.93
241.81	1218.54
242.02	1236.97
242.24	1206.25
242.46	1261.55
242.68	1277.93
242.89	1288.17
243.11	1353.71
243.33	1234.93
243.55	1247.21
243.76	1277.93
243.98	1306.60
244.20	1322.99
244.42	1265.64
244.64	1337.32
244.85	1269.74
245.07	1273.84
245.29	1236.97
245.51	1353.71
245.72	1253.36
245.94	1298.41
246.16	1316.84
246.38	1247.21
246.59	1271.79
246.81	1222.64
247.03	1353.71
247.24	1279.98
247.46	1239.02
247.68	1247.21
247.90	1302.51
248.11	1335.28
248.33	1257.45
248.55	1255.40
248.77	1247.21
248.98	1245.16
249.20	1267.69
249.42	1257.45
249.64	1196.01
249.85	1322.99
250.07	1261.55
250.29	1277.93
250.50	1308.65
250.72	1302.51
250.94	1234.93
251.16	1269.74
251.37	1271.79
251.59	1245.16
251.81	1249.26
252.02	1222.64
252.24	1302.51
252.46	1304.56
252.68	1193.97
252.89	1290.22
253.11	1259.50
253.33	1265.64
253.54	1271.79
253.76	1241.07
253.98	1265.64
254.20	1304.56
254.41	1230.83
254.63	1253.36
254.85	1331.18
255.06	1308.65
255.28	1273.84
255.50	1286.12
255.71	1265.64
255.93	1220.59
256.15	1316.84
256.36	1296.36
256.58	1275.88
256.80	1261.55
257.02	1173.49
257.23	1279.98
257.45	1230.83
257.67	1341.42
257.88	1200.11
258.10	1261.55
258.32	1202.16
258.53	1277.93
258.75	1206.25
258.97	1306.60
259.18	1302.51
259.40	1288.17
259.62	1302.51
259.83	1241.07
260.05	1245.16
260.27	1230.83
260.48	1282.03
260.70	1257.45
260.92	1189.87
261.13	1349.61
261.35	1236.97
261.57	1306.60
261.78	1284.08
262.00	1206.25
262.22	1261.55
262.43	1273.84
262.65	1247.21
262.86	1290.22
263.08	1245.16
263.30	1257.45
263.51	1267.69
263.73	1239.02
263.95	1226.73
264.16	1224.69
264.38	1275.88
264.60	1294.32
264.81	1296.36
265.03	1279.98
265.25	1243.12
265.46	1241.07
265.68	1263.60
265.89	1314.80
266.11	1310.70
266.33	1316.84
266.54	1247.21
266.76	1304.56
266.98	1243.12
267.19	1355.76
267.41	1234.93
267.62	1329.13
267.84	1214.45
268.06	1292.27
268.27	1232.88
268.49	1222.64
268.70	1245.16
268.92	1304.56
269.14	1292.27
269.35	1273.84
269.57	1239.02
269.79	1294.32
270.00	1316.84
270.22	1366.00
270.43	1251.31
270.65	1292.27
270.87	1245.16
271.08	1263.60
271.30	1224.69
271.51	1232.88
271.73	1341.42
271.95	1216.49
272.16	1294.32
272.38	1306.60
272.59	1351.66
272.81	1279.98
273.02	1255.40
273.24	1257.45
273.46	1247.21
273.67	1286.12
273.89	1257.45
274.10	1290.22
274.32	1304.56
274.54	1247.21
274.75	1230.83
274.97	1308.65
275.18	1294.32
275.40	1265.64
275.61	1273.84
275.83	1265.64
276.05	1325.04
276.26	1245.16
276.48	1208.30
276.69	1255.40
276.91	1304.56
277.12	1251.31
277.34	1224.69
277.55	1341.42
277.77	1337.32
277.99	1239.02
278.20	1234.93
278.42	1282.03
278.63	1253.36
278.85	1288.17
279.06	1277.93
279.28	1267.69
279.49	1247.21
279.71	1273.84
279.93	1261.55
280.14	1290.22
280.36	1234.93
280.57	1318.89
280.79	1279.98
281.00	1204.21
281.22	1236.97
281.43	1236.97
281.65	1241.07
281.86	1230.83
282.08	1230.83
282.29	1304.56
282.51	1265.64
282.73	1286.12
282.94	1210.35
283.16	1263.60
283.37	1282.03
283.59	1146.86
283.80	1279.98
284.02	1243.12
284.23	1292.27
284.45	1308.65
284.66	1210.35
284.88	1273.84
285.09	1259.50
285.31	1292.27
285.52	1263.60
285.74	1261.55
285.95	1259.50
286.17	1331.18
286.38	1316.84
286.60	1267.69
286.81	1275.88
287.03	1177.58
287.24	1253.36
287.46	1206.25
287.67	1228.78
287.89	1331.18
288.10	1212.40
288.32	1349.61
288.53	1218.54
288.75	1327.08
288.96	1265.64
289.18	1288.17
289.39	1316.84
289.61	1273.84
289.82	1290.22
290.04	1298.41
290.25	1249.26
290.47	1306.60
290.68	1294.32
290.90	1327.08
291.11	1286.12
291.33	1210.35
291.54	1226.73
291.76	1296.36
291.97	1257.45
292.18	1292.27
292.40	1243.12
292.61	1296.36
292.83	1204.21
293.04	1363.95
293.26	1243.12
293.47	1298.41
293.69	1282.03
293.90	1267.69
294.12	1322.99
294.33	1255.40
294.55	1232.88
294.76	1298.41
294.97	1261.55
295.19	1222.64
295.40	1255.40
295.62	1320.94
295.83	1343.47
296.05	1306.60
296.26	1355.76
296.48	1292.27
296.69	1277.93
296.90	1282.03
297.12	1318.89
297.33	1279.98
297.55	1259.50
297.76	1263.60
297.98	1148.91
298.19	1241.07
298.41	1269.74
298.62	1239.02
298.83	1304.56
299.05	1265.64
299.26	1226.73
299.48	1261.55
299.69	1286.12
299.90	1253.36
300.12	1306.60
300.33	1282.03
300.55	1249.26
300.76	1329.13
300.98	1353.71
301.19	1247.21
301.40	1212.40
301.62	1282.03
301.83	1279.98
302.05	1314.80
302.26	1216.49
302.47	1279.98
302.69	1292.27
302.90	1214.45
303.12	1210.35
303.33	1282.03
303.54	1343.47
303.76	1288.17
303.97	1282.03
304.19	1304.56
304.40	1265.64
304.61	1292.27
304.83	1279.98
305.04	1298.41
305.26	1247.21
305.47	1316.84
305.68	1306.60
305.90	1331.18
306.11	1249.26
306.33	1232.88
306.54	1265.64
306.75	1247.21
306.97	1277.93
307.18	1286.12
307.39	1243.12
307.61	1204.21
307.82	1286.12
308.04	1261.55
308.25	1257.45
308.46	1310.70
308.68	1284.08
308.89	1187.82
309.10	1290.22
309.32	1222.64
309.53	1271.79
309.74	1218.54
309.96	1288.17
310.17	1298.41
310.39	1314.80
310.60	1226.73
310.81	1265.64
311.03	1294.32
311.24	1273.84
311.45	1263.60
311.67	1263.60
311.88	1251.31
312.09	1279.98
312.31	1265.64
312.52	1234.93
312.73	1153.01
312.95	1275.88
313.16	1220.59
313.37	1265.64
313.59	1290.22
313.80	1296.36
314.01	1253.36
314.23	1239.02
314.44	1230.83
314.65	1269.74
314.87	1314.80
315.08	1230.83
315.29	1300.46
315.51	1224.69
315.72	1226.73
315.93	1148.91
316.15	1322.99
316.36	1304.56
316.57	1259.50
316.79	1314.80
317.00	1282.03
317.21	1273.84
317.43	1292.27
317.64	1300.46
317.85	1269.74
318.07	1294.32
318.28	1232.88
318.49	1191.92
318.70	1325.04
318.92	1322.99
319.13	1273.84
319.34	1265.64
319.56	1267.69
319.77	1220.59
319.98	1327.08
320.20	1191.92
320.41	1228.78
320.62	1216.49
320.83	1204.21
321.05	1259.50
321.26	1241.07
321.47	1220.59
321.69	1232.88
321.90	1261.55
322.11	1216.49
322.32	1247.21
322.54	1286.12
322.75	1288.17
322.96	1210.35
323.18	1234.93
323.39	1267.69
323.60	1187.82
323.81	1263.60
324.03	1232.88
324.24	1294.32
324.45	1247.21
324.66	1300.46
324.88	1329.13
325.09	1284.08
325.30	1284.08
325.52	1286.12
325.73	1282.03
325.94	1257.45
326.15	1257.45
326.37	1288.17
326.58	1265.64
326.79	1247.21
327.00	1212.40
327.22	1366.00
327.43	1275.88
327.64	1214.45
327.85	1296.36
328.07	1275.88
328.28	1284.08
328.49	1282.03
328.70	1251.31
328.92	1251.31
329.13	1275.88
329.34	1236.97
329.55	1228.78
329.76	1271.79
329.98	1234.93
330.19	1255.40
330.40	1302.51
330.61	1189.87
330.83	1249.26
331.04	1322.99
331.25	1191.92
331.46	1253.36
331.68	1179.63
331.89	1331.18
332.10	1236.97
332.31	1177.58
332.52	1267.69
332.74	1282.03
332.95	1206.25
333.16	1253.36
333.37	1349.61
333.58	1310.70
333.80	1224.69
334.01	1230.83
334.22	1277.93
334.43	1243.12
334.64	1271.79
334.86	1359.85
335.07	1284.08
335.28	1290.22
335.49	1277.93
335.70	1247.21
335.92	1253.36
336.13	1263.60
336.34	1314.80
336.55	1298.41
336.76	1284.08
336.98	1261.55
337.19	1279.98
337.40	1302.51
337.61	1249.26
337.82	1271.79
338.04	1277.93
338.25	1239.02
338.46	1263.60
338.67	1304.56
338.88	1275.88
339.09	1204.21
339.31	1327.08
339.52	1298.41
339.73	1273.84
339.94	1200.11
340.15	1191.92
340.36	1206.25
340.58	1228.78
340.79	1245.16
341.00	1234.93
341.21	1302.51
341.42	1279.98
341.63	1263.60
341.85	1222.64
342.06	1312.75
342.27	1333.23
342.48	1368.04
342.69	1247.21
342.90	1282.03
343.12	1269.74
343.33	1331.18
343.54	1265.64
343.75	1388.52
343.96	1300.46
344.17	1296.36
344.38	1261.55
344.60	1243.12
344.81	1267.69
345.02	1341.42
345.23	1263.60
345.44	1279.98
345.65	1212.40
345.86	1224.69
346.07	1271.79
346.29	1312.75
346.50	1224.69
346.71	1239.02
346.92	1236.97
347.13	1322.99
347.34	1236.97
347.55	1306.60
347.76	1296.36
347.98	1327.08
348.19	1230.83
348.40	1320.94
348.61	1294.32
348.82	1310.70
349.03	1288.17
349.24	1251.31
349.45	1314.80
349.66	1261.55
349.88	1255.40
350.09	1241.07
350.30	1249.26
350.51	1329.13
350.72	1210.35
350.93	1263.60
351.14	1241.07
351.35	1271.79
351.56	1310.70
351.77	1212.40
351.99	1206.25
352.20	1275.88
352.41	1282.03
352.62	1259.50
352.83	1271.79
353.04	1251.31
353.25	1202.16
353.46	1273.84
353.67	1310.70
353.88	1322.99
354.09	1273.84
354.30	1241.07
354.52	1165.29
354.73	1263.60
354.94	1189.87
355.15	1306.60
355.36	1257.45
355.57	1245.16
355.78	1228.78
355.99	1269.74
356.20	1247.21
356.41	1218.54
356.62	1257.45
356.83	1216.49
357.04	1282.03
357.25	1253.36
357.46	1304.56
357.68	1226.73
357.89	1265.64
358.10	1279.98
358.31	1257.45
358.52	1290.22
358.73	1279.98
358.94	1277.93
359.15	1314.80
359.36	1241.07
359.57	1282.03
359.78	1249.26
359.99	1249.26
360.20	1222.64
360.41	1320.94
360.62	1265.64
360.83	1245.16
361.04	1292.27
361.25	1298.41
361.46	1390.57
361.67	1415.15
361.88	1288.17
362.09	1232.88
362.30	1255.40
362.51	1181.68
362.72	1212.40
362.93	1277.93
363.14	1292.27
363.35	1263.60
363.56	1259.50
363.78	1275.88
363.99	1341.42
364.20	1322.99
364.41	1271.79
364.62	1277.93
364.83	1224.69
365.04	1273.84
365.25	1269.74
365.46	1275.88
365.67	1298.41
365.88	1275.88
366.09	1212.40
366.30	1263.60
366.51	1333.23
366.72	1290.22
366.93	1310.70
367.14	1308.65
367.35	1294.32
367.56	1212.40
367.77	1277.93
367.98	1304.56
368.18	1296.36
368.39	1222.64
368.60	1249.26
368.81	1267.69
369.02	1310.70
369.23	1380.33
369.44	1363.95
369.65	1329.13
369.86	1337.32
370.07	1302.51
370.28	1310.70
370.49	1335.28
370.70	1267.69
370.91	1249.26
371.12	1228.78
371.33	1306.60
371.54	1273.84
371.75	1286.12
371.96	1243.12
372.17	1282.03
372.38	1249.26
372.59	1220.59
372.80	1273.84
373.01	1267.69
373.22	1273.84
373.43	1218.54
373.64	1277.93
373.85	1273.84
374.06	1316.84
374.26	1316.84
374.47	1357.80
374.68	1222.64
374.89	1331.18
375.10	1232.88
375.31	1304.56
375.52	1243.12
375.73	1261.55
375.94	1265.64
376.15	1277.93
376.36	1265.64
376.57	1267.69
376.78	1224.69
376.99	1288.17
377.20	1298.41
377.40	1322.99
377.61	1261.55
377.82	1284.08
378.03	1224.69
378.24	1257.45
378.45	1198.06
378.66	1267.69
378.87	1286.12
379.08	1279.98
379.29	1222.64
379.50	1253.36
379.71	1277.93
379.91	1214.45
380.12	1282.03
380.33	1322.99
380.54	1236.97
380.75	1290.22
380.96	1224.69
381.17	1296.36
381.38	1327.08
381.59	1312.75
381.80	1341.42
382.00	1218.54
382.21	1257.45
382.42	1290.22
382.63	1279.98
382.84	1200.11
383.05	1296.36
383.26	1267.69
383.47	1232.88
383.68	1257.45
383.88	1355.76
384.09	1273.84
384.30	1239.02
384.51	1310.70
384.72	1261.55
384.93	1224.69
385.14	1275.88
385.35	1241.07
385.55	1175.53
385.76	1306.60
385.97	1265.64
386.18	1273.84
386.39	1294.32
386.60	1286.12
386.81	1316.84
387.02	1322.99
387.22	1245.16
387.43	1234.93
387.64	1224.69
387.85	1253.36
388.06	1259.50
388.27	1224.69
388.48	1320.94
388.68	1249.26
388.89	1259.50
389.10	1241.07
389.31	1257.45
389.52	1316.84
389.73	1296.36
389.93	1214.45
390.14	1265.64
390.35	1333.23
390.56	1265.64
390.77	1241.07
390.98	1284.08
391.18	1304.56
391.39	1255.40
391.60	1273.84
391.81	1249.26
392.02	1284.08
392.23	1302.51
392.43	1204.21
392.64	1273.84
392.85	1279.98
393.06	1269.74
393.27	1308.65
393.47	1296.36
393.68	1279.98
393.89	1318.89
394.10	1257.45
394.31	1263.60
394.52	1273.84
394.72	1300.46
394.93	1304.56
395.14	1163.25
395.35	1282.03
395.56	1322.99
395.76	1243.12
395.97	1230.83
396.18	1282.03
396.39	1202.16
396.60	1239.02
396.80	1206.25
397.01	1261.55
397.22	1294.32
397.43	1269.74
397.64	1189.87
397.84	1183.73
398.05	1245.16
398.26	1226.73
398.47	1310.70
398.67	1316.84
398.88	1302.51
399.09	1275.88
399.30	1263.60
399.51	1239.02
399.71	1259.50
399.92	1259.50
400.13	1275.88
400.34	1288.17
400.54	1312.75
400.75	1320.94
400.96	1273.84
401.17	1263.60
401.37	1288.17
401.58	1232.88
401.79	1302.51
402.00	1282.03
402.21	1271.79
402.41	1298.41
402.62	1347.56
402.83	1329.13
403.04	1255.40
403.24	1290.22
403.45	1265.64
403.66	1331.18
403.87	1222.64
404.07	1239.02
404.28	1286.12
404.49	1298.41
404.70	1232.88
404.90	1279.98
405.11	1218.54
405.32	1222.64
405.52	1269.74
405.73	1265.64
405.94	1316.84
406.15	1288.17
406.35	1200.11
406.56	1300.46
406.77	1286.12
406.98	1234.93
407.18	1273.84
407.39	1269.74
407.60	1245.16
407.80	1259.50
408.01	1290.22
408.22	1294.32
408.43	1216.49
408.63	1284.08
408.84	1243.12
409.05	1230.83
409.25	1208.30
409.46	1312.75
409.67	1230.83
409.88	1253.36
410.08	1261.55
410.29	1279.98
410.50	1208.30
410.70	1232.88
410.91	1239.02
411.12	1290.22
411.32	1234.93
411.53	1241.07
411.74	1265.64
411.95	1271.79
412.15	1259.50
412.36	1216.49
412.57	1263.60
412.77	1271.79
412.98	1212.40
413.19	1265.64
413.39	1220.59
413.60	1337.32
413.81	1253.36
414.01	1279.98
414.22	1198.06
414.43	1306.60
414.63	1230.83
414.84	1282.03
415.05	1322.99
415.25	1310.70
415.46	1265.64
415.67	1290.22
415.87	1302.51
416.08	1302.51
416.29	1296.36
416.49	1308.65
416.70	1275.88
416.91	1239.02
417.11	1320.94
417.32	1302.51
417.53	1271.79
417.73	1243.12
417.94	1247.21
418.15	1232.88
418.35	1245.16
418.56	1312.75
418.77	1345.52
418.97	1279.98
419.18	1255.40
419.38	1239.02
419.59	1224.69
419.80	1308.65
420.00	1265.64
420.21	1335.28
420.42	1294.32
420.62	1284.08
420.83	1222.64
421.04	1261.55
421.24	1247.21
421.45	1325.04
421.65	1275.88
421.86	1232.88
422.07	1191.92
422.27	1320.94
422.48	1216.49
422.69	1206.25
422.89	1335.28
423.10	1236.97
423.30	1179.63
423.51	1243.12
423.72	1298.41
423.92	1216.49
424.13	1316.84
424.33	1230.83
424.54	1310.70
424.75	1265.64
424.95	1239.02
425.16	1335.28
425.36	1179.63
425.57	1216.49
425.78	1253.36
425.98	1224.69
426.19	1257.45
426.39	1255.40
426.60	1261.55
426.81	1265.64
427.01	1320.94
427.22	1220.59
427.42	1290.22
427.63	1370.09
427.83	1265.64
428.04	1247.21
428.25	1159.15
428.45	1247.21
428.66	1298.41
428.86	1288.17
429.07	1269.74
429.28	1214.45
429.48	1296.36
429.69	1249.26
429.89	1288.17
430.10	1261.55
430.30	1322.99
430.51	1247.21
430.71	1273.84
430.92	1175.53
431.13	1275.88
431.33	1259.50
431.54	1322.99
431.74	1261.55
431.95	1265.64
432.15	1275.88
432.36	1269.74
432.56	1329.13
432.77	1247.21
432.98	1259.50
433.18	1232.88
433.39	1282.03
433.59	1308.65
433.80	1220.59
434.00	1253.36
434.21	1247.21
434.41	1253.36
434.62	1327.08
434.82	1314.80
435.03	1232.88
435.23	1273.84
435.44	1288.17
435.64	1243.12
435.85	1298.41
436.06	1284.08
436.26	1322.99
436.47	1247.21
436.67	1257.45
436.88	1337.32
437.08	1320.94
437.29	1257.45
437.49	1306.60
437.70	1273.84
437.90	1232.88
438.11	1263.60
438.31	1345.52
438.52	1290.22
438.72	1337.32
438.93	1255.40
439.13	1239.02
439.34	1265.64
439.54	1298.41
439.75	1230.83
439.95	1159.15
440.16	1320.94
440.36	1279.98
440.57	1247.21
440.77	1214.45
440.98	1351.66
441.18	1277.93
441.39	1269.74
441.59	1294.32
441.80	1380.33
442.00	1296.36
442.21	1216.49
442.41	1204.21
442.62	1265.64
442.82	1296.36
443.02	1290.22
443.23	1294.32
443.43	1308.65
443.64	1214.45
443.84	1249.26
444.05	1318.89
444.25	1302.51
444.46	1224.69
444.66	1366.00
444.87	1331.18
445.07	1239.02
445.28	1300.46
445.48	1243.12
445.69	1257.45
445.89	1290.22
446.09	1339.37
446.30	1249.26
446.50	1196.01
446.71	1329.13
446.91	1296.36
447.12	1320.94
447.32	1236.97
447.53	1277.93
447.73	1261.55
447.93	1333.23
448.14	1230.83
448.34	1335.28
448.55	1290.22
448.75	1265.64
448.96	1279.98
449.16	1302.51
449.36	1183.73
449.57	1271.79
449.77	1320.94
449.98	1308.65
450.18	1253.36
450.39	1290.22
450.59	1300.46
450.79	1318.89
451.00	1322.99
451.20	1261.55
451.41	1353.71
451.61	1249.26
451.81	1277.93
452.02	1273.84
452.22	1302.51
452.43	1241.07
452.63	1312.75
