SpectraSuite Data File
++++++++++++++++++++++++++++++++++++
Date: Sun Apr 03 19:55:48 CEST 2016
User: root
Dark Spectrum Present: No
Reference Spectrum Present: No
Number of Sampled Component Spectra: 1
Spectrometers: USB4C02835
Integration Time (usec): 10000 (USB4C02835)
Spectra Averaged: 1 (USB4C02835)
Boxcar Smoothing: 0 (USB4C02835)
Correct for Electrical Dark: No (USB4C02835)
Strobe/Lamp Enabled: No (USB4C02835)
Correct for Detector Non-linearity: No (USB4C02835)
Correct for Stray Light: No (USB4C02835)
Number of Pixels in Processed Spectrum: 3648
>>>>>Begin Processed Spectral Data<<<<<
177.47	1284.08
177.69	1284.08
177.91	1284.08
178.13	1253.36
178.36	1247.21
178.58	1329.13
178.80	1261.55
179.02	1232.88
179.24	1241.07
179.46	1277.93
179.68	1374.19
179.90	1193.97
180.13	1239.02
180.35	1208.30
180.57	1253.36
180.79	1257.45
181.01	1241.07
181.23	1202.16
181.45	1259.50
181.67	1314.80
181.90	1277.93
182.12	1282.03
182.34	1288.17
182.56	1302.51
182.78	1306.60
183.00	1296.36
183.22	1273.84
183.44	1284.08
183.66	1355.76
183.89	1273.84
184.11	1282.03
184.33	1261.55
184.55	1253.36
184.77	1193.97
184.99	1255.40
185.21	1241.07
185.43	1232.88
185.65	1302.51
185.87	1302.51
186.10	1279.98
186.32	1312.75
186.54	1335.28
186.76	1245.16
186.98	1292.27
187.20	1249.26
187.42	1261.55
187.64	1288.17
187.86	1331.18
188.08	1214.45
188.30	1271.79
188.52	1257.45
188.75	1212.40
188.97	1294.32
189.19	1179.63
189.41	1296.36
189.63	1314.80
189.85	1288.17
190.07	1273.84
190.29	1273.84
190.51	1314.80
190.73	1239.02
190.95	1261.55
191.17	1263.60
191.39	1265.64
191.61	1200.11
191.84	1206.25
192.06	1253.36
192.28	1312.75
192.50	1298.41
192.72	1218.54
192.94	1304.56
193.16	1183.73
193.38	1271.79
193.60	1298.41
193.82	1249.26
194.04	1298.41
194.26	1314.80
194.48	1181.68
194.70	1320.94
194.92	1200.11
195.14	1187.82
195.36	1218.54
195.58	1282.03
195.80	1282.03
196.02	1241.07
196.24	1210.35
196.46	1259.50
196.69	1249.26
196.91	1300.46
197.13	1329.13
197.35	1257.45
197.57	1269.74
197.79	1171.44
198.01	1351.66
198.23	1253.36
198.45	1181.68
198.67	1279.98
198.89	1298.41
199.11	1325.04
199.33	1259.50
199.55	1208.30
199.77	1282.03
199.99	1236.97
200.21	1239.02
200.43	1288.17
200.65	1245.16
200.87	1277.93
201.09	1290.22
201.31	1331.18
201.53	1279.98
201.75	1288.17
201.97	1185.77
202.19	1275.88
202.41	1306.60
202.63	1284.08
202.85	1257.45
203.07	1265.64
203.29	1247.21
203.51	1290.22
203.73	1290.22
203.95	1339.37
204.17	1261.55
204.39	1224.69
204.61	1271.79
204.83	1257.45
205.05	1245.16
205.27	1296.36
205.49	1296.36
205.71	1189.87
205.93	1269.74
206.15	1284.08
206.37	1316.84
206.59	1288.17
206.81	1236.97
207.03	1294.32
207.25	1296.36
207.47	1286.12
207.69	1327.08
207.91	1288.17
208.13	1261.55
208.34	1314.80
208.56	1300.46
208.78	1322.99
209.00	1220.59
209.22	1351.66
209.44	1261.55
209.66	1269.74
209.88	1226.73
210.10	1269.74
210.32	1255.40
210.54	1265.64
210.76	1253.36
210.98	1243.12
211.20	1284.08
211.42	1245.16
211.64	1257.45
211.86	1275.88
212.08	1314.80
212.30	1277.93
212.52	1232.88
212.74	1271.79
212.96	1265.64
213.17	1331.18
213.39	1236.97
213.61	1251.31
213.83	1282.03
214.05	1247.21
214.27	1273.84
214.49	1282.03
214.71	1214.45
214.93	1320.94
215.15	1275.88
215.37	1265.64
215.59	1261.55
215.81	1286.12
216.03	1355.76
216.24	1251.31
216.46	1320.94
216.68	1302.51
216.90	1308.65
217.12	1251.31
217.34	1273.84
217.56	1200.11
217.78	1245.16
218.00	1331.18
218.22	1249.26
218.44	1228.78
218.66	1300.46
218.87	1314.80
219.09	1286.12
219.31	1296.36
219.53	1228.78
219.75	1255.40
219.97	1296.36
220.19	1335.28
220.41	1273.84
220.63	1241.07
220.85	1245.16
221.06	1228.78
221.28	1310.70
221.50	1251.31
221.72	1271.79
221.94	1320.94
222.16	1245.16
222.38	1296.36
222.60	1302.51
222.82	1247.21
223.03	1224.69
223.25	1241.07
223.47	1279.98
223.69	1263.60
223.91	1253.36
224.13	1284.08
224.35	1277.93
224.57	1339.37
224.78	1228.78
225.00	1288.17
225.22	1310.70
225.44	1267.69
225.66	1208.30
225.88	1279.98
226.10	1226.73
226.32	1314.80
226.53	1269.74
226.75	1306.60
226.97	1265.64
227.19	1232.88
227.41	1259.50
227.63	1288.17
227.85	1224.69
228.06	1316.84
228.28	1277.93
228.50	1220.59
228.72	1306.60
228.94	1241.07
229.16	1193.97
229.37	1288.17
229.59	1255.40
229.81	1300.46
230.03	1263.60
230.25	1232.88
230.47	1298.41
230.69	1306.60
230.90	1273.84
231.12	1212.40
231.34	1263.60
231.56	1249.26
231.78	1286.12
232.00	1257.45
232.21	1179.63
232.43	1284.08
232.65	1263.60
232.87	1228.78
233.09	1310.70
233.30	1247.21
233.52	1298.41
233.74	1259.50
233.96	1290.22
234.18	1265.64
234.40	1288.17
234.61	1269.74
234.83	1284.08
235.05	1247.21
235.27	1316.84
235.49	1320.94
235.70	1286.12
235.92	1351.66
236.14	1316.84
236.36	1267.69
236.58	1257.45
236.79	1273.84
237.01	1300.46
237.23	1282.03
237.45	1241.07
237.67	1239.02
237.88	1316.84
238.10	1306.60
238.32	1288.17
238.54	1257.45
238.76	1322.99
238.97	1284.08
239.19	1255.40
239.41	1236.97
239.63	1259.50
239.85	1279.98
240.06	1288.17
240.28	1271.79
240.50	1249.26
240.72	1249.26
240.93	1302.51
241.15	1263.60
241.37	1318.89
241.59	1208.30
241.81	1226.73
242.02	1343.47
242.24	1269.74
242.46	1265.64
242.68	1296.36
242.89	1228.78
243.11	1247.21
243.33	1222.64
243.55	1325.04
243.76	1304.56
243.98	1335.28
244.20	1284.08
244.42	1228.78
244.64	1290.22
244.85	1331.18
245.07	1273.84
245.29	1245.16
245.51	1290.22
245.72	1286.12
245.94	1298.41
246.16	1273.84
246.38	1327.08
246.59	1269.74
246.81	1255.40
247.03	1312.75
247.24	1263.60
247.46	1300.46
247.68	1335.28
247.90	1175.53
248.11	1271.79
248.33	1263.60
248.55	1216.49
248.77	1296.36
248.98	1282.03
249.20	1202.16
249.42	1282.03
249.64	1263.60
249.85	1286.12
250.07	1230.83
250.29	1286.12
250.50	1269.74
250.72	1228.78
250.94	1327.08
251.16	1312.75
251.37	1300.46
251.59	1236.97
251.81	1273.84
252.02	1269.74
252.24	1325.04
252.46	1214.45
252.68	1306.60
252.89	1290.22
253.11	1245.16
253.33	1245.16
253.54	1214.45
253.76	1253.36
253.98	1290.22
254.20	1255.40
254.41	1316.84
254.63	1200.11
254.85	1222.64
255.06	1363.95
255.28	1191.92
255.50	1251.31
255.71	1298.41
255.93	1208.30
256.15	1271.79
256.36	1306.60
256.58	1282.03
256.80	1204.21
257.02	1316.84
257.23	1210.35
257.45	1304.56
257.67	1279.98
257.88	1259.50
258.10	1228.78
258.32	1277.93
258.53	1228.78
258.75	1271.79
258.97	1292.27
259.18	1273.84
259.40	1306.60
259.62	1288.17
259.83	1271.79
260.05	1279.98
260.27	1208.30
260.48	1218.54
260.70	1267.69
260.92	1269.74
261.13	1224.69
261.35	1267.69
261.57	1331.18
261.78	1200.11
262.00	1216.49
262.22	1263.60
262.43	1277.93
262.65	1218.54
262.86	1288.17
263.08	1304.56
263.30	1331.18
263.51	1275.88
263.73	1279.98
263.95	1314.80
264.16	1298.41
264.38	1230.83
264.60	1282.03
264.81	1282.03
265.03	1286.12
265.25	1245.16
265.46	1230.83
265.68	1271.79
265.89	1275.88
266.11	1253.36
266.33	1226.73
266.54	1241.07
266.76	1253.36
266.98	1263.60
267.19	1228.78
267.41	1327.08
267.62	1243.12
267.84	1228.78
268.06	1298.41
268.27	1249.26
268.49	1282.03
268.70	1214.45
268.92	1255.40
269.14	1327.08
269.35	1259.50
269.57	1214.45
269.79	1208.30
270.00	1257.45
270.22	1275.88
270.43	1261.55
270.65	1294.32
270.87	1247.21
271.08	1296.36
271.30	1347.56
271.51	1259.50
271.73	1210.35
271.95	1193.97
272.16	1253.36
272.38	1204.21
272.59	1243.12
272.81	1273.84
273.02	1257.45
273.24	1253.36
273.46	1322.99
273.67	1243.12
273.89	1269.74
274.10	1257.45
274.32	1212.40
274.54	1253.36
274.75	1290.22
274.97	1355.76
275.18	1255.40
275.40	1357.80
275.61	1279.98
275.83	1257.45
276.05	1261.55
276.26	1236.97
276.48	1255.40
276.69	1212.40
276.91	1265.64
277.12	1226.73
277.34	1224.69
277.55	1275.88
277.77	1282.03
277.99	1314.80
278.20	1255.40
278.42	1294.32
278.63	1251.31
278.85	1298.41
279.06	1310.70
279.28	1230.83
279.49	1316.84
279.71	1279.98
279.93	1286.12
280.14	1243.12
280.36	1265.64
280.57	1286.12
280.79	1263.60
281.00	1284.08
281.22	1208.30
281.43	1261.55
281.65	1288.17
281.86	1296.36
282.08	1298.41
282.29	1269.74
282.51	1243.12
282.73	1298.41
282.94	1273.84
283.16	1277.93
283.37	1245.16
283.59	1290.22
283.80	1261.55
284.02	1296.36
284.23	1243.12
284.45	1230.83
284.66	1234.93
284.88	1275.88
285.09	1249.26
285.31	1241.07
285.52	1261.55
285.74	1333.23
285.95	1257.45
286.17	1261.55
286.38	1370.09
286.60	1300.46
286.81	1214.45
287.03	1341.42
287.24	1251.31
287.46	1325.04
287.67	1243.12
287.89	1273.84
288.10	1234.93
288.32	1253.36
288.53	1279.98
288.75	1327.08
288.96	1331.18
289.18	1300.46
289.39	1282.03
289.61	1318.89
289.82	1236.97
290.04	1294.32
290.25	1277.93
290.47	1316.84
290.68	1267.69
290.90	1279.98
291.11	1236.97
291.33	1249.26
291.54	1288.17
291.76	1228.78
291.97	1249.26
292.18	1255.40
292.40	1259.50
292.61	1232.88
292.83	1173.49
293.04	1302.51
293.26	1277.93
293.47	1220.59
293.69	1224.69
293.90	1333.23
294.12	1310.70
294.33	1312.75
294.55	1257.45
294.76	1273.84
294.97	1337.32
295.19	1247.21
295.40	1286.12
295.62	1329.13
295.83	1191.92
296.05	1327.08
296.26	1259.50
296.48	1290.22
296.69	1275.88
296.90	1226.73
297.12	1376.24
297.33	1245.16
297.55	1312.75
297.76	1318.89
297.98	1249.26
298.19	1243.12
298.41	1239.02
298.62	1257.45
298.83	1277.93
299.05	1322.99
299.26	1320.94
299.48	1232.88
299.69	1296.36
299.90	1341.42
300.12	1314.80
300.33	1247.21
300.55	1232.88
300.76	1255.40
300.98	1249.26
301.19	1239.02
301.40	1298.41
301.62	1218.54
301.83	1269.74
302.05	1300.46
302.26	1263.60
302.47	1304.56
302.69	1247.21
302.90	1314.80
303.12	1245.16
303.33	1224.69
303.54	1290.22
303.76	1261.55
303.97	1249.26
304.19	1322.99
304.40	1247.21
304.61	1310.70
304.83	1265.64
305.04	1322.99
305.26	1189.87
305.47	1271.79
305.68	1239.02
305.90	1320.94
306.11	1265.64
306.33	1296.36
306.54	1288.17
306.75	1245.16
306.97	1247.21
307.18	1255.40
307.39	1345.52
307.61	1247.21
307.82	1218.54
308.04	1261.55
308.25	1306.60
308.46	1329.13
308.68	1292.27
308.89	1261.55
309.10	1271.79
309.32	1253.36
309.53	1200.11
309.74	1304.56
309.96	1310.70
310.17	1222.64
310.39	1298.41
310.60	1306.60
310.81	1193.97
311.03	1263.60
311.24	1249.26
311.45	1300.46
311.67	1232.88
311.88	1290.22
312.09	1255.40
312.31	1273.84
312.52	1230.83
312.73	1249.26
312.95	1318.89
313.16	1288.17
313.37	1279.98
313.59	1245.16
313.80	1347.56
314.01	1298.41
314.23	1314.80
314.44	1261.55
314.65	1306.60
314.87	1261.55
315.08	1296.36
315.29	1306.60
315.51	1171.44
315.72	1253.36
315.93	1263.60
316.15	1236.97
316.36	1216.49
316.57	1300.46
316.79	1290.22
317.00	1290.22
317.21	1265.64
317.43	1277.93
317.64	1206.25
317.85	1224.69
318.07	1220.59
318.28	1228.78
318.49	1243.12
318.70	1269.74
318.92	1245.16
319.13	1239.02
319.34	1189.87
319.56	1298.41
319.77	1284.08
319.98	1157.10
320.20	1232.88
320.41	1269.74
320.62	1316.84
320.83	1277.93
321.05	1220.59
321.26	1265.64
321.47	1284.08
321.69	1206.25
321.90	1261.55
322.11	1220.59
322.32	1308.65
322.54	1251.31
322.75	1279.98
322.96	1302.51
323.18	1318.89
323.39	1277.93
323.60	1212.40
323.81	1220.59
324.03	1292.27
324.24	1271.79
324.45	1259.50
324.66	1198.06
324.88	1318.89
325.09	1239.02
325.30	1273.84
325.52	1271.79
325.73	1230.83
325.94	1218.54
326.15	1253.36
326.37	1251.31
326.58	1247.21
326.79	1245.16
327.00	1232.88
327.22	1343.47
327.43	1230.83
327.64	1318.89
327.85	1226.73
328.07	1196.01
328.28	1331.18
328.49	1261.55
328.70	1236.97
328.92	1265.64
329.13	1279.98
329.34	1322.99
329.55	1224.69
329.76	1271.79
329.98	1243.12
330.19	1361.90
330.40	1288.17
330.61	1241.07
330.83	1273.84
331.04	1257.45
331.25	1271.79
331.46	1353.71
331.68	1279.98
331.89	1253.36
332.10	1314.80
332.31	1279.98
332.52	1308.65
332.74	1239.02
332.95	1269.74
333.16	1261.55
333.37	1341.42
333.58	1353.71
333.80	1302.51
334.01	1271.79
334.22	1259.50
334.43	1329.13
334.64	1241.07
334.86	1226.73
335.07	1257.45
335.28	1335.28
335.49	1286.12
335.70	1298.41
335.92	1292.27
336.13	1331.18
336.34	1331.18
336.55	1232.88
336.76	1191.92
336.98	1316.84
337.19	1271.79
337.40	1341.42
337.61	1251.31
337.82	1286.12
338.04	1322.99
338.25	1279.98
338.46	1300.46
338.67	1208.30
338.88	1255.40
339.09	1261.55
339.31	1267.69
339.52	1284.08
339.73	1245.16
339.94	1271.79
340.15	1273.84
340.36	1273.84
340.58	1263.60
340.79	1241.07
341.00	1273.84
341.21	1337.32
341.42	1255.40
341.63	1357.80
341.85	1335.28
342.06	1253.36
342.27	1216.49
342.48	1282.03
342.69	1247.21
342.90	1282.03
343.12	1247.21
343.33	1267.69
343.54	1286.12
343.75	1271.79
343.96	1331.18
344.17	1275.88
344.38	1206.25
344.60	1271.79
344.81	1239.02
345.02	1187.82
345.23	1335.28
345.44	1302.51
345.65	1292.27
345.86	1263.60
346.07	1294.32
346.29	1241.07
346.50	1191.92
346.71	1327.08
346.92	1230.83
347.13	1277.93
347.34	1300.46
347.55	1259.50
347.76	1228.78
347.98	1290.22
348.19	1329.13
348.40	1325.04
348.61	1273.84
348.82	1249.26
349.03	1282.03
349.24	1230.83
349.45	1253.36
349.66	1224.69
349.88	1269.74
350.09	1284.08
350.30	1275.88
350.51	1306.60
350.72	1288.17
350.93	1224.69
351.14	1239.02
351.35	1271.79
351.56	1314.80
351.77	1249.26
351.99	1302.51
352.20	1312.75
352.41	1300.46
352.62	1249.26
352.83	1327.08
353.04	1288.17
353.25	1273.84
353.46	1282.03
353.67	1271.79
353.88	1228.78
354.09	1257.45
354.30	1284.08
354.52	1288.17
354.73	1339.37
354.94	1279.98
355.15	1222.64
355.36	1355.76
355.57	1261.55
355.78	1294.32
355.99	1304.56
356.20	1271.79
356.41	1273.84
356.62	1302.51
356.83	1257.45
357.04	1284.08
357.25	1294.32
357.46	1269.74
357.68	1245.16
357.89	1277.93
358.10	1255.40
358.31	1226.73
358.52	1273.84
358.73	1331.18
358.94	1232.88
359.15	1296.36
359.36	1214.45
359.57	1253.36
359.78	1224.69
359.99	1163.25
360.20	1290.22
360.41	1245.16
360.62	1296.36
360.83	1275.88
361.04	1228.78
361.25	1245.16
361.46	1255.40
361.67	1282.03
361.88	1236.97
362.09	1282.03
362.30	1255.40
362.51	1265.64
362.72	1378.28
362.93	1206.25
363.14	1284.08
363.35	1265.64
363.56	1222.64
363.78	1310.70
363.99	1290.22
364.20	1259.50
364.41	1271.79
364.62	1212.40
364.83	1269.74
365.04	1294.32
365.25	1284.08
365.46	1265.64
365.67	1245.16
365.88	1308.65
366.09	1316.84
366.30	1288.17
366.51	1320.94
366.72	1286.12
366.93	1232.88
367.14	1234.93
367.35	1306.60
367.56	1318.89
367.77	1290.22
367.98	1241.07
368.18	1296.36
368.39	1269.74
368.60	1265.64
368.81	1228.78
369.02	1263.60
369.23	1308.65
369.44	1290.22
369.65	1163.25
369.86	1259.50
370.07	1269.74
370.28	1255.40
370.49	1269.74
370.70	1265.64
370.91	1337.32
371.12	1224.69
371.33	1239.02
371.54	1173.49
371.75	1327.08
371.96	1236.97
372.17	1282.03
372.38	1249.26
372.59	1331.18
372.80	1292.27
373.01	1302.51
373.22	1327.08
373.43	1273.84
373.64	1255.40
373.85	1230.83
374.06	1310.70
374.26	1259.50
374.47	1222.64
374.68	1255.40
374.89	1222.64
375.10	1308.65
375.31	1265.64
375.52	1312.75
375.73	1331.18
375.94	1261.55
376.15	1322.99
376.36	1257.45
376.57	1243.12
376.78	1271.79
376.99	1333.23
377.20	1298.41
377.40	1249.26
377.61	1247.21
377.82	1325.04
378.03	1339.37
378.24	1349.61
378.45	1255.40
378.66	1279.98
378.87	1228.78
379.08	1265.64
379.29	1224.69
379.50	1298.41
379.71	1236.97
379.91	1261.55
380.12	1259.50
380.33	1263.60
380.54	1335.28
380.75	1273.84
380.96	1257.45
381.17	1290.22
381.38	1347.56
381.59	1292.27
381.80	1318.89
382.00	1306.60
382.21	1282.03
382.42	1222.64
382.63	1282.03
382.84	1339.37
383.05	1247.21
383.26	1210.35
383.47	1273.84
383.68	1236.97
383.88	1282.03
384.09	1292.27
384.30	1320.94
384.51	1243.12
384.72	1232.88
384.93	1214.45
385.14	1284.08
385.35	1329.13
385.55	1220.59
385.76	1339.37
385.97	1247.21
386.18	1212.40
386.39	1261.55
386.60	1290.22
386.81	1298.41
387.02	1261.55
387.22	1230.83
387.43	1314.80
387.64	1341.42
387.85	1251.31
388.06	1273.84
388.27	1232.88
388.48	1251.31
388.68	1337.32
388.89	1232.88
389.10	1308.65
389.31	1263.60
389.52	1181.68
389.73	1261.55
389.93	1257.45
390.14	1193.97
390.35	1265.64
390.56	1277.93
390.77	1304.56
390.98	1277.93
391.18	1249.26
391.39	1294.32
391.60	1331.18
391.81	1300.46
392.02	1273.84
392.23	1345.52
392.43	1296.36
392.64	1234.93
392.85	1282.03
393.06	1196.01
393.27	1230.83
393.47	1257.45
393.68	1214.45
393.89	1327.08
394.10	1263.60
394.31	1275.88
394.52	1208.30
394.72	1253.36
394.93	1306.60
395.14	1325.04
395.35	1253.36
395.56	1220.59
395.76	1322.99
395.97	1290.22
396.18	1304.56
396.39	1259.50
396.60	1245.16
396.80	1310.70
397.01	1302.51
397.22	1298.41
397.43	1214.45
397.64	1204.21
397.84	1273.84
398.05	1331.18
398.26	1222.64
398.47	1290.22
398.67	1234.93
398.88	1236.97
399.09	1300.46
399.30	1265.64
399.51	1253.36
399.71	1222.64
399.92	1245.16
400.13	1206.25
400.34	1230.83
400.54	1322.99
400.75	1298.41
400.96	1290.22
401.17	1345.52
401.37	1304.56
401.58	1247.21
401.79	1212.40
402.00	1378.28
402.21	1279.98
402.41	1232.88
402.62	1292.27
402.83	1267.69
403.04	1255.40
403.24	1273.84
403.45	1249.26
403.66	1222.64
403.87	1298.41
404.07	1273.84
404.28	1191.92
404.49	1234.93
404.70	1230.83
404.90	1320.94
405.11	1290.22
405.32	1239.02
405.52	1249.26
405.73	1271.79
405.94	1261.55
406.15	1251.31
406.35	1300.46
406.56	1288.17
406.77	1273.84
406.98	1322.99
407.18	1181.68
407.39	1271.79
407.60	1275.88
407.80	1288.17
408.01	1292.27
408.22	1210.35
408.43	1288.17
408.63	1271.79
408.84	1245.16
409.05	1259.50
409.25	1212.40
409.46	1273.84
409.67	1351.66
409.88	1284.08
410.08	1255.40
410.29	1261.55
410.50	1257.45
410.70	1226.73
410.91	1245.16
411.12	1290.22
411.32	1267.69
411.53	1316.84
411.74	1245.16
411.95	1282.03
412.15	1245.16
412.36	1308.65
412.57	1298.41
412.77	1279.98
412.98	1284.08
413.19	1273.84
413.39	1279.98
413.60	1275.88
413.81	1320.94
414.01	1310.70
414.22	1261.55
414.43	1218.54
414.63	1331.18
414.84	1304.56
415.05	1210.35
415.25	1300.46
415.46	1210.35
415.67	1294.32
415.87	1269.74
416.08	1257.45
416.29	1226.73
416.49	1220.59
416.70	1273.84
416.91	1226.73
417.11	1265.64
417.32	1314.80
417.53	1187.82
417.73	1247.21
417.94	1339.37
418.15	1306.60
418.35	1216.49
418.56	1279.98
418.77	1316.84
418.97	1222.64
419.18	1269.74
419.38	1265.64
419.59	1222.64
419.80	1249.26
420.00	1212.40
420.21	1236.97
420.42	1269.74
420.62	1169.39
420.83	1220.59
421.04	1230.83
421.24	1253.36
421.45	1286.12
421.65	1253.36
421.86	1290.22
422.07	1310.70
422.27	1228.78
422.48	1239.02
422.69	1320.94
422.89	1290.22
423.10	1239.02
423.30	1331.18
423.51	1189.87
423.72	1234.93
423.92	1294.32
424.13	1329.13
424.33	1298.41
424.54	1265.64
424.75	1290.22
424.95	1290.22
425.16	1222.64
425.36	1267.69
425.57	1325.04
425.78	1263.60
425.98	1322.99
426.19	1314.80
426.39	1247.21
426.60	1284.08
426.81	1308.65
427.01	1304.56
427.22	1245.16
427.42	1216.49
427.63	1302.51
427.83	1306.60
428.04	1312.75
428.25	1265.64
428.45	1249.26
428.66	1335.28
428.86	1282.03
429.07	1275.88
429.28	1255.40
429.48	1333.23
429.69	1269.74
429.89	1226.73
430.10	1363.95
430.30	1290.22
430.51	1290.22
430.71	1318.89
430.92	1312.75
431.13	1286.12
431.33	1253.36
431.54	1189.87
431.74	1245.16
431.95	1251.31
432.15	1306.60
432.36	1191.92
432.56	1224.69
432.77	1253.36
432.98	1320.94
433.18	1277.93
433.39	1335.28
433.59	1269.74
433.80	1271.79
434.00	1363.95
434.21	1282.03
434.41	1239.02
434.62	1316.84
434.82	1273.84
435.03	1255.40
435.23	1277.93
435.44	1310.70
435.64	1183.73
435.85	1241.07
436.06	1204.21
436.26	1234.93
436.47	1275.88
436.67	1284.08
436.88	1247.21
437.08	1329.13
437.29	1320.94
437.49	1267.69
437.70	1269.74
437.90	1331.18
438.11	1306.60
438.31	1247.21
438.52	1255.40
438.72	1296.36
438.93	1261.55
439.13	1161.20
439.34	1257.45
439.54	1300.46
439.75	1282.03
439.95	1335.28
440.16	1216.49
440.36	1261.55
440.57	1245.16
440.77	1214.45
440.98	1257.45
441.18	1239.02
441.39	1318.89
441.59	1251.31
441.80	1210.35
442.00	1318.89
442.21	1335.28
442.41	1312.75
442.62	1288.17
442.82	1296.36
443.02	1269.74
443.23	1282.03
443.43	1234.93
443.64	1247.21
443.84	1275.88
444.05	1277.93
444.25	1269.74
444.46	1191.92
444.66	1243.12
444.87	1273.84
445.07	1322.99
445.28	1267.69
445.48	1302.51
445.69	1308.65
445.89	1249.26
446.09	1302.51
446.30	1261.55
446.50	1236.97
446.71	1286.12
446.91	1314.80
447.12	1298.41
447.32	1230.83
447.53	1327.08
447.73	1261.55
447.93	1296.36
448.14	1318.89
448.34	1275.88
448.55	1308.65
448.75	1273.84
448.96	1271.79
449.16	1259.50
449.36	1181.68
449.57	1257.45
449.77	1298.41
449.98	1288.17
450.18	1322.99
450.39	1292.27
450.59	1284.08
450.79	1298.41
451.00	1318.89
451.20	1277.93
451.41	1282.03
451.61	1253.36
451.81	1277.93
452.02	1292.27
452.22	1329.13
452.43	1261.55
452.63	1257.45
