SpectraSuite Data File
++++++++++++++++++++++++++++++++++++
Date: Sun Apr 03 19:55:39 CEST 2016
User: root
Dark Spectrum Present: No
Reference Spectrum Present: No
Number of Sampled Component Spectra: 1
Spectrometers: USB4C02835
Integration Time (usec): 10000 (USB4C02835)
Spectra Averaged: 1 (USB4C02835)
Boxcar Smoothing: 0 (USB4C02835)
Correct for Electrical Dark: No (USB4C02835)
Strobe/Lamp Enabled: No (USB4C02835)
Correct for Detector Non-linearity: No (USB4C02835)
Correct for Stray Light: No (USB4C02835)
Number of Pixels in Processed Spectrum: 3648
>>>>>Begin Processed Spectral Data<<<<<
177.47	1257.45
177.69	1257.45
177.91	1257.45
178.13	1298.41
178.36	1249.26
178.58	1275.88
178.80	1263.60
179.02	1298.41
179.24	1212.40
179.46	1279.98
179.68	1282.03
179.90	1298.41
180.13	1267.69
180.35	1232.88
180.57	1259.50
180.79	1333.23
181.01	1253.36
181.23	1200.11
181.45	1204.21
181.67	1230.83
181.90	1302.51
182.12	1236.97
182.34	1308.65
182.56	1290.22
182.78	1337.32
183.00	1265.64
183.22	1306.60
183.44	1251.31
183.66	1361.90
183.89	1253.36
184.11	1265.64
184.33	1198.06
184.55	1265.64
184.77	1329.13
184.99	1325.04
185.21	1222.64
185.43	1290.22
185.65	1228.78
185.87	1267.69
186.10	1282.03
186.32	1239.02
186.54	1308.65
186.76	1363.95
186.98	1351.66
187.20	1333.23
187.42	1302.51
187.64	1275.88
187.86	1261.55
188.08	1263.60
188.30	1243.12
188.52	1277.93
188.75	1249.26
188.97	1247.21
189.19	1284.08
189.41	1255.40
189.63	1245.16
189.85	1245.16
190.07	1173.49
190.29	1257.45
190.51	1277.93
190.73	1310.70
190.95	1232.88
191.17	1273.84
191.39	1269.74
191.61	1271.79
191.84	1222.64
192.06	1267.69
192.28	1279.98
192.50	1247.21
192.72	1259.50
192.94	1234.93
193.16	1302.51
193.38	1286.12
193.60	1255.40
193.82	1261.55
194.04	1304.56
194.26	1204.21
194.48	1275.88
194.70	1251.31
194.92	1249.26
195.14	1230.83
195.36	1320.94
195.58	1312.75
195.80	1263.60
196.02	1198.06
196.24	1277.93
196.46	1265.64
196.69	1308.65
196.91	1230.83
197.13	1322.99
197.35	1222.64
197.57	1226.73
197.79	1253.36
198.01	1210.35
198.23	1232.88
198.45	1216.49
198.67	1306.60
198.89	1296.36
199.11	1185.77
199.33	1255.40
199.55	1239.02
199.77	1247.21
199.99	1222.64
200.21	1251.31
200.43	1198.06
200.65	1290.22
200.87	1284.08
201.09	1241.07
201.31	1296.36
201.53	1298.41
201.75	1263.60
201.97	1273.84
202.19	1230.83
202.41	1224.69
202.63	1331.18
202.85	1247.21
203.07	1189.87
203.29	1271.79
203.51	1380.33
203.73	1175.53
203.95	1269.74
204.17	1249.26
204.39	1269.74
204.61	1230.83
204.83	1232.88
205.05	1210.35
205.27	1290.22
205.49	1257.45
205.71	1230.83
205.93	1271.79
206.15	1232.88
206.37	1210.35
206.59	1290.22
206.81	1265.64
207.03	1222.64
207.25	1302.51
207.47	1142.77
207.69	1269.74
207.91	1322.99
208.13	1218.54
208.34	1279.98
208.56	1273.84
208.78	1263.60
209.00	1263.60
209.22	1277.93
209.44	1275.88
209.66	1245.16
209.88	1230.83
210.10	1306.60
210.32	1255.40
210.54	1263.60
210.76	1263.60
210.98	1198.06
211.20	1220.59
211.42	1292.27
211.64	1273.84
211.86	1259.50
212.08	1325.04
212.30	1273.84
212.52	1302.51
212.74	1298.41
212.96	1224.69
213.17	1329.13
213.39	1290.22
213.61	1265.64
213.83	1267.69
214.05	1239.02
214.27	1335.28
214.49	1294.32
214.71	1273.84
214.93	1284.08
215.15	1286.12
215.37	1269.74
215.59	1337.32
215.81	1306.60
216.03	1241.07
216.24	1261.55
216.46	1318.89
216.68	1304.56
216.90	1267.69
217.12	1265.64
217.34	1273.84
217.56	1316.84
217.78	1322.99
218.00	1345.52
218.22	1208.30
218.44	1261.55
218.66	1310.70
218.87	1282.03
219.09	1239.02
219.31	1241.07
219.53	1298.41
219.75	1279.98
219.97	1302.51
220.19	1273.84
220.41	1290.22
220.63	1251.31
220.85	1263.60
221.06	1259.50
221.28	1298.41
221.50	1255.40
221.72	1257.45
221.94	1286.12
222.16	1333.23
222.38	1273.84
222.60	1361.90
222.82	1312.75
223.03	1316.84
223.25	1329.13
223.47	1288.17
223.69	1359.85
223.91	1349.61
224.13	1318.89
224.35	1314.80
224.57	1212.40
224.78	1277.93
225.00	1282.03
225.22	1251.31
225.44	1329.13
225.66	1216.49
225.88	1296.36
226.10	1245.16
226.32	1279.98
226.53	1320.94
226.75	1296.36
226.97	1241.07
227.19	1282.03
227.41	1245.16
227.63	1374.19
227.85	1249.26
228.06	1214.45
228.28	1216.49
228.50	1294.32
228.72	1269.74
228.94	1277.93
229.16	1265.64
229.37	1277.93
229.59	1277.93
229.81	1294.32
230.03	1282.03
230.25	1259.50
230.47	1232.88
230.69	1249.26
230.90	1273.84
231.12	1284.08
231.34	1200.11
231.56	1267.69
231.78	1249.26
232.00	1333.23
232.21	1384.43
232.43	1261.55
232.65	1269.74
232.87	1257.45
233.09	1359.85
233.30	1277.93
233.52	1255.40
233.74	1300.46
233.96	1325.04
234.18	1236.97
234.40	1335.28
234.61	1304.56
234.83	1208.30
235.05	1322.99
235.27	1269.74
235.49	1228.78
235.70	1284.08
235.92	1300.46
236.14	1212.40
236.36	1279.98
236.58	1269.74
236.79	1273.84
237.01	1273.84
237.23	1296.36
237.45	1269.74
237.67	1312.75
237.88	1288.17
238.10	1228.78
238.32	1290.22
238.54	1245.16
238.76	1224.69
238.97	1273.84
239.19	1236.97
239.41	1333.23
239.63	1253.36
239.85	1288.17
240.06	1249.26
240.28	1282.03
240.50	1253.36
240.72	1288.17
240.93	1253.36
241.15	1310.70
241.37	1277.93
241.59	1267.69
241.81	1273.84
242.02	1255.40
242.24	1236.97
242.46	1222.64
242.68	1294.32
242.89	1236.97
243.11	1288.17
243.33	1292.27
243.55	1277.93
243.76	1271.79
243.98	1269.74
244.20	1261.55
244.42	1296.36
244.64	1312.75
244.85	1310.70
245.07	1189.87
245.29	1251.31
245.51	1318.89
245.72	1306.60
245.94	1206.25
246.16	1277.93
246.38	1282.03
246.59	1273.84
246.81	1202.16
247.03	1261.55
247.24	1228.78
247.46	1230.83
247.68	1292.27
247.90	1279.98
248.11	1327.08
248.33	1234.93
248.55	1263.60
248.77	1255.40
248.98	1322.99
249.20	1253.36
249.42	1206.25
249.64	1230.83
249.85	1304.56
250.07	1245.16
250.29	1306.60
250.50	1320.94
250.72	1282.03
250.94	1249.26
251.16	1226.73
251.37	1269.74
251.59	1214.45
251.81	1265.64
252.02	1261.55
252.24	1245.16
252.46	1243.12
252.68	1318.89
252.89	1292.27
253.11	1257.45
253.33	1298.41
253.54	1329.13
253.76	1333.23
253.98	1286.12
254.20	1327.08
254.41	1302.51
254.63	1230.83
254.85	1284.08
255.06	1255.40
255.28	1312.75
255.50	1255.40
255.71	1267.69
255.93	1273.84
256.15	1232.88
256.36	1253.36
256.58	1329.13
256.80	1282.03
257.02	1241.07
257.23	1310.70
257.45	1263.60
257.67	1308.65
257.88	1320.94
258.10	1222.64
258.32	1208.30
258.53	1220.59
258.75	1376.24
258.97	1284.08
259.18	1282.03
259.40	1314.80
259.62	1316.84
259.83	1284.08
260.05	1310.70
260.27	1329.13
260.48	1226.73
260.70	1198.06
260.92	1306.60
261.13	1279.98
261.35	1277.93
261.57	1257.45
261.78	1259.50
262.00	1277.93
262.22	1322.99
262.43	1249.26
262.65	1257.45
262.86	1261.55
263.08	1279.98
263.30	1304.56
263.51	1232.88
263.73	1257.45
263.95	1273.84
264.16	1267.69
264.38	1341.42
264.60	1232.88
264.81	1282.03
265.03	1232.88
265.25	1208.30
265.46	1300.46
265.68	1290.22
265.89	1241.07
266.11	1265.64
266.33	1269.74
266.54	1255.40
266.76	1271.79
266.98	1241.07
267.19	1292.27
267.41	1259.50
267.62	1251.31
267.84	1136.62
268.06	1282.03
268.27	1216.49
268.49	1267.69
268.70	1228.78
268.92	1312.75
269.14	1316.84
269.35	1245.16
269.57	1187.82
269.79	1220.59
270.00	1286.12
270.22	1208.30
270.43	1255.40
270.65	1224.69
270.87	1253.36
271.08	1294.32
271.30	1224.69
271.51	1327.08
271.73	1255.40
271.95	1310.70
272.16	1284.08
272.38	1290.22
272.59	1249.26
272.81	1282.03
273.02	1279.98
273.24	1243.12
273.46	1294.32
273.67	1230.83
273.89	1232.88
274.10	1292.27
274.32	1288.17
274.54	1249.26
274.75	1253.36
274.97	1302.51
275.18	1308.65
275.40	1318.89
275.61	1236.97
275.83	1269.74
276.05	1312.75
276.26	1214.45
276.48	1198.06
276.69	1253.36
276.91	1302.51
277.12	1292.27
277.34	1191.92
277.55	1273.84
277.77	1189.87
277.99	1263.60
278.20	1255.40
278.42	1247.21
278.63	1304.56
278.85	1257.45
279.06	1175.53
279.28	1247.21
279.49	1257.45
279.71	1296.36
279.93	1212.40
280.14	1232.88
280.36	1341.42
280.57	1277.93
280.79	1290.22
281.00	1222.64
281.22	1269.74
281.43	1198.06
281.65	1263.60
281.86	1322.99
282.08	1249.26
282.29	1288.17
282.51	1263.60
282.73	1222.64
282.94	1271.79
283.16	1241.07
283.37	1290.22
283.59	1294.32
283.80	1273.84
284.02	1243.12
284.23	1277.93
284.45	1239.02
284.66	1193.97
284.88	1312.75
285.09	1230.83
285.31	1271.79
285.52	1335.28
285.74	1232.88
285.95	1275.88
286.17	1222.64
286.38	1353.71
286.60	1261.55
286.81	1212.40
287.03	1198.06
287.24	1271.79
287.46	1304.56
287.67	1318.89
287.89	1271.79
288.10	1312.75
288.32	1259.50
288.53	1294.32
288.75	1214.45
288.96	1314.80
289.18	1241.07
289.39	1193.97
289.61	1296.36
289.82	1271.79
290.04	1333.23
290.25	1251.31
290.47	1273.84
290.68	1300.46
290.90	1245.16
291.11	1247.21
291.33	1234.93
291.54	1294.32
291.76	1259.50
291.97	1245.16
292.18	1218.54
292.40	1294.32
292.61	1183.73
292.83	1269.74
293.04	1284.08
293.26	1230.83
293.47	1286.12
293.69	1179.63
293.90	1249.26
294.12	1245.16
294.33	1284.08
294.55	1294.32
294.76	1308.65
294.97	1288.17
295.19	1277.93
295.40	1331.18
295.62	1265.64
295.83	1284.08
296.05	1318.89
296.26	1234.93
296.48	1316.84
296.69	1294.32
296.90	1304.56
297.12	1253.36
297.33	1320.94
297.55	1269.74
297.76	1288.17
297.98	1253.36
298.19	1304.56
298.41	1232.88
298.62	1263.60
298.83	1302.51
299.05	1255.40
299.26	1296.36
299.48	1265.64
299.69	1226.73
299.90	1300.46
300.12	1234.93
300.33	1247.21
300.55	1247.21
300.76	1304.56
300.98	1253.36
301.19	1255.40
301.40	1187.82
301.62	1267.69
301.83	1208.30
302.05	1257.45
302.26	1247.21
302.47	1320.94
302.69	1230.83
302.90	1239.02
303.12	1267.69
303.33	1306.60
303.54	1284.08
303.76	1325.04
303.97	1267.69
304.19	1249.26
304.40	1263.60
304.61	1290.22
304.83	1210.35
305.04	1288.17
305.26	1290.22
305.47	1300.46
305.68	1271.79
305.90	1245.16
306.11	1271.79
306.33	1245.16
306.54	1193.97
306.75	1241.07
306.97	1282.03
307.18	1277.93
307.39	1284.08
307.61	1279.98
307.82	1304.56
308.04	1259.50
308.25	1183.73
308.46	1239.02
308.68	1320.94
308.89	1257.45
309.10	1257.45
309.32	1273.84
309.53	1298.41
309.74	1279.98
309.96	1228.78
310.17	1279.98
310.39	1249.26
310.60	1325.04
310.81	1220.59
311.03	1318.89
311.24	1271.79
311.45	1200.11
311.67	1249.26
311.88	1245.16
312.09	1273.84
312.31	1306.60
312.52	1275.88
312.73	1279.98
312.95	1257.45
313.16	1193.97
313.37	1271.79
313.59	1322.99
313.80	1251.31
314.01	1265.64
314.23	1183.73
314.44	1255.40
314.65	1228.78
314.87	1312.75
315.08	1286.12
315.29	1284.08
315.51	1298.41
315.72	1249.26
315.93	1200.11
316.15	1271.79
316.36	1298.41
316.57	1302.51
316.79	1243.12
317.00	1236.97
317.21	1261.55
317.43	1220.59
317.64	1232.88
317.85	1222.64
318.07	1247.21
318.28	1208.30
318.49	1314.80
318.70	1290.22
318.92	1279.98
319.13	1228.78
319.34	1232.88
319.56	1247.21
319.77	1284.08
319.98	1214.45
320.20	1239.02
320.41	1312.75
320.62	1273.84
320.83	1257.45
321.05	1312.75
321.26	1241.07
321.47	1325.04
321.69	1286.12
321.90	1218.54
322.11	1245.16
322.32	1253.36
322.54	1261.55
322.75	1265.64
322.96	1255.40
323.18	1232.88
323.39	1263.60
323.60	1310.70
323.81	1239.02
324.03	1314.80
324.24	1253.36
324.45	1366.00
324.66	1333.23
324.88	1302.51
325.09	1241.07
325.30	1322.99
325.52	1255.40
325.73	1355.76
325.94	1294.32
326.15	1236.97
326.37	1294.32
326.58	1251.31
326.79	1366.00
327.00	1308.65
327.22	1239.02
327.43	1265.64
327.64	1288.17
327.85	1273.84
328.07	1257.45
328.28	1308.65
328.49	1249.26
328.70	1284.08
328.92	1263.60
329.13	1288.17
329.34	1312.75
329.55	1282.03
329.76	1298.41
329.98	1247.21
330.19	1302.51
330.40	1234.93
330.61	1232.88
330.83	1265.64
331.04	1269.74
331.25	1304.56
331.46	1279.98
331.68	1308.65
331.89	1196.01
332.10	1193.97
332.31	1331.18
332.52	1290.22
332.74	1222.64
332.95	1329.13
333.16	1279.98
333.37	1193.97
333.58	1298.41
333.80	1232.88
334.01	1263.60
334.22	1171.44
334.43	1298.41
334.64	1259.50
334.86	1259.50
335.07	1269.74
335.28	1230.83
335.49	1275.88
335.70	1286.12
335.92	1243.12
336.13	1304.56
336.34	1316.84
336.55	1226.73
336.76	1224.69
336.98	1292.27
337.19	1284.08
337.40	1224.69
337.61	1251.31
337.82	1251.31
338.04	1226.73
338.25	1212.40
338.46	1275.88
338.67	1257.45
338.88	1214.45
339.09	1216.49
339.31	1261.55
339.52	1259.50
339.73	1251.31
339.94	1247.21
340.15	1263.60
340.36	1320.94
340.58	1261.55
340.79	1302.51
341.00	1251.31
341.21	1263.60
341.42	1294.32
341.63	1234.93
341.85	1372.14
342.06	1236.97
342.27	1298.41
342.48	1275.88
342.69	1257.45
342.90	1318.89
343.12	1239.02
343.33	1239.02
343.54	1261.55
343.75	1202.16
343.96	1296.36
344.17	1271.79
344.38	1239.02
344.60	1202.16
344.81	1243.12
345.02	1296.36
345.23	1261.55
345.44	1249.26
345.65	1206.25
345.86	1279.98
346.07	1243.12
346.29	1306.60
346.50	1275.88
346.71	1255.40
346.92	1261.55
347.13	1234.93
347.34	1247.21
347.55	1306.60
347.76	1308.65
347.98	1296.36
348.19	1218.54
348.40	1290.22
348.61	1294.32
348.82	1304.56
349.03	1314.80
349.24	1290.22
349.45	1226.73
349.66	1257.45
349.88	1261.55
350.09	1306.60
350.30	1282.03
350.51	1288.17
350.72	1230.83
350.93	1263.60
351.14	1210.35
351.35	1220.59
351.56	1253.36
351.77	1265.64
351.99	1222.64
352.20	1187.82
352.41	1306.60
352.62	1224.69
352.83	1296.36
353.04	1271.79
353.25	1200.11
353.46	1265.64
353.67	1255.40
353.88	1273.84
354.09	1288.17
354.30	1239.02
354.52	1318.89
354.73	1284.08
354.94	1218.54
355.15	1277.93
355.36	1228.78
355.57	1263.60
355.78	1249.26
355.99	1265.64
356.20	1300.46
356.41	1378.28
356.62	1275.88
356.83	1241.07
357.04	1308.65
357.25	1210.35
357.46	1314.80
357.68	1269.74
357.89	1329.13
358.10	1286.12
358.31	1222.64
358.52	1306.60
358.73	1271.79
358.94	1304.56
359.15	1226.73
359.36	1298.41
359.57	1210.35
359.78	1277.93
359.99	1298.41
360.20	1226.73
360.41	1302.51
360.62	1259.50
360.83	1298.41
361.04	1189.87
361.25	1210.35
361.46	1265.64
361.67	1230.83
361.88	1247.21
362.09	1279.98
362.30	1292.27
362.51	1265.64
362.72	1165.29
362.93	1314.80
363.14	1253.36
363.35	1243.12
363.56	1249.26
363.78	1245.16
363.99	1290.22
364.20	1288.17
364.41	1253.36
364.62	1288.17
364.83	1257.45
365.04	1212.40
365.25	1259.50
365.46	1318.89
365.67	1277.93
365.88	1263.60
366.09	1222.64
366.30	1312.75
366.51	1212.40
366.72	1279.98
366.93	1286.12
367.14	1271.79
367.35	1312.75
367.56	1290.22
367.77	1329.13
367.98	1245.16
368.18	1271.79
368.39	1292.27
368.60	1282.03
368.81	1269.74
369.02	1257.45
369.23	1148.91
369.44	1275.88
369.65	1191.92
369.86	1247.21
370.07	1273.84
370.28	1251.31
370.49	1220.59
370.70	1267.69
370.91	1185.77
371.12	1292.27
371.33	1286.12
371.54	1232.88
371.75	1279.98
371.96	1245.16
372.17	1277.93
372.38	1263.60
372.59	1265.64
372.80	1296.36
373.01	1288.17
373.22	1263.60
373.43	1239.02
373.64	1247.21
373.85	1288.17
374.06	1277.93
374.26	1259.50
374.47	1310.70
374.68	1267.69
374.89	1265.64
375.10	1288.17
375.31	1288.17
375.52	1204.21
375.73	1282.03
375.94	1257.45
376.15	1277.93
376.36	1243.12
376.57	1239.02
376.78	1298.41
376.99	1222.64
377.20	1306.60
377.40	1271.79
377.61	1296.36
377.82	1269.74
378.03	1310.70
378.24	1222.64
378.45	1230.83
378.66	1181.68
378.87	1247.21
379.08	1234.93
379.29	1304.56
379.50	1298.41
379.71	1214.45
379.91	1239.02
380.12	1253.36
380.33	1228.78
380.54	1306.60
380.75	1318.89
380.96	1249.26
381.17	1216.49
381.38	1277.93
381.59	1253.36
381.80	1310.70
382.00	1181.68
382.21	1251.31
382.42	1286.12
382.63	1226.73
382.84	1236.97
383.05	1353.71
383.26	1271.79
383.47	1294.32
383.68	1232.88
383.88	1304.56
384.09	1292.27
384.30	1290.22
384.51	1269.74
384.72	1212.40
384.93	1271.79
385.14	1251.31
385.35	1271.79
385.55	1273.84
385.76	1282.03
385.97	1187.82
386.18	1304.56
386.39	1271.79
386.60	1224.69
386.81	1355.76
387.02	1296.36
387.22	1345.52
387.43	1292.27
387.64	1255.40
387.85	1239.02
388.06	1267.69
388.27	1290.22
388.48	1187.82
388.68	1286.12
388.89	1306.60
389.10	1284.08
389.31	1265.64
389.52	1292.27
389.73	1275.88
389.93	1294.32
390.14	1265.64
390.35	1261.55
390.56	1234.93
390.77	1282.03
390.98	1302.51
391.18	1234.93
391.39	1253.36
391.60	1300.46
391.81	1343.47
392.02	1267.69
392.23	1232.88
392.43	1298.41
392.64	1261.55
392.85	1271.79
393.06	1263.60
393.27	1325.04
393.47	1241.07
393.68	1314.80
393.89	1269.74
394.10	1290.22
394.31	1290.22
394.52	1218.54
394.72	1331.18
394.93	1255.40
395.14	1273.84
395.35	1243.12
395.56	1261.55
395.76	1263.60
395.97	1267.69
396.18	1282.03
396.39	1286.12
396.60	1339.37
396.80	1255.40
397.01	1353.71
397.22	1298.41
397.43	1286.12
397.64	1210.35
397.84	1308.65
398.05	1271.79
398.26	1347.56
398.47	1327.08
398.67	1273.84
398.88	1263.60
399.09	1259.50
399.30	1243.12
399.51	1329.13
399.71	1273.84
399.92	1294.32
400.13	1255.40
400.34	1251.31
400.54	1232.88
400.75	1331.18
400.96	1218.54
401.17	1314.80
401.37	1306.60
401.58	1259.50
401.79	1226.73
402.00	1228.78
402.21	1273.84
402.41	1232.88
402.62	1230.83
402.83	1216.49
403.04	1288.17
403.24	1357.80
403.45	1298.41
403.66	1337.32
403.87	1290.22
404.07	1259.50
404.28	1253.36
404.49	1206.25
404.70	1271.79
404.90	1269.74
405.11	1222.64
405.32	1236.97
405.52	1257.45
405.73	1306.60
405.94	1228.78
406.15	1298.41
406.35	1296.36
406.56	1361.90
406.77	1243.12
406.98	1216.49
407.18	1265.64
407.39	1302.51
407.60	1282.03
407.80	1275.88
408.01	1329.13
408.22	1318.89
408.43	1294.32
408.63	1265.64
408.84	1251.31
409.05	1251.31
409.25	1255.40
409.46	1210.35
409.67	1228.78
409.88	1322.99
410.08	1304.56
410.29	1320.94
410.50	1259.50
410.70	1288.17
410.91	1228.78
411.12	1249.26
411.32	1222.64
411.53	1212.40
411.74	1245.16
411.95	1282.03
412.15	1214.45
412.36	1312.75
412.57	1263.60
412.77	1245.16
412.98	1333.23
413.19	1187.82
413.39	1212.40
413.60	1269.74
413.81	1304.56
414.01	1316.84
414.22	1296.36
414.43	1261.55
414.63	1239.02
414.84	1310.70
415.05	1263.60
415.25	1214.45
415.46	1251.31
415.67	1302.51
415.87	1243.12
416.08	1247.21
416.29	1277.93
416.49	1263.60
416.70	1220.59
416.91	1286.12
417.11	1206.25
417.32	1275.88
417.53	1306.60
417.73	1232.88
417.94	1298.41
418.15	1284.08
418.35	1277.93
418.56	1284.08
418.77	1290.22
418.97	1259.50
419.18	1257.45
419.38	1310.70
419.59	1277.93
419.80	1284.08
420.00	1298.41
420.21	1255.40
420.42	1257.45
420.62	1224.69
420.83	1314.80
421.04	1306.60
421.24	1290.22
421.45	1288.17
421.65	1234.93
421.86	1308.65
422.07	1269.74
422.27	1263.60
422.48	1269.74
422.69	1337.32
422.89	1288.17
423.10	1312.75
423.30	1198.06
423.51	1271.79
423.72	1271.79
423.92	1202.16
424.13	1253.36
424.33	1294.32
424.54	1226.73
424.75	1269.74
424.95	1247.21
425.16	1282.03
425.36	1271.79
425.57	1230.83
425.78	1220.59
425.98	1257.45
426.19	1216.49
426.39	1259.50
426.60	1265.64
426.81	1247.21
427.01	1298.41
427.22	1265.64
427.42	1310.70
427.63	1263.60
427.83	1310.70
428.04	1302.51
428.25	1232.88
428.45	1284.08
428.66	1277.93
428.86	1255.40
429.07	1226.73
429.28	1210.35
429.48	1247.21
429.69	1359.85
429.89	1271.79
430.10	1273.84
430.30	1318.89
430.51	1294.32
430.71	1259.50
430.92	1210.35
431.13	1279.98
431.33	1265.64
431.54	1245.16
431.74	1314.80
431.95	1226.73
432.15	1236.97
432.36	1304.56
432.56	1282.03
432.77	1284.08
432.98	1267.69
433.18	1273.84
433.39	1255.40
433.59	1228.78
433.80	1212.40
434.00	1337.32
434.21	1187.82
434.41	1327.08
434.62	1265.64
434.82	1241.07
435.03	1288.17
435.23	1261.55
435.44	1269.74
435.64	1277.93
435.85	1202.16
436.06	1257.45
436.26	1312.75
436.47	1345.52
436.67	1337.32
436.88	1298.41
437.08	1232.88
437.29	1284.08
437.49	1271.79
437.70	1271.79
437.90	1255.40
438.11	1310.70
438.31	1249.26
438.52	1273.84
438.72	1251.31
438.93	1243.12
439.13	1271.79
439.34	1376.24
439.54	1261.55
439.75	1275.88
439.95	1255.40
440.16	1181.68
440.36	1249.26
440.57	1310.70
440.77	1265.64
440.98	1232.88
441.18	1273.84
441.39	1214.45
441.59	1220.59
441.80	1259.50
442.00	1294.32
442.21	1337.32
442.41	1279.98
442.62	1269.74
442.82	1343.47
443.02	1183.73
443.23	1273.84
443.43	1255.40
443.64	1269.74
443.84	1261.55
444.05	1263.60
444.25	1259.50
444.46	1294.32
444.66	1226.73
444.87	1261.55
445.07	1286.12
445.28	1265.64
445.48	1345.52
445.69	1271.79
445.89	1325.04
446.09	1286.12
446.30	1232.88
446.50	1282.03
446.71	1185.77
446.91	1245.16
447.12	1320.94
447.32	1277.93
447.53	1255.40
447.73	1320.94
447.93	1259.50
448.14	1290.22
448.34	1259.50
448.55	1298.41
448.75	1284.08
448.96	1271.79
449.16	1236.97
449.36	1245.16
449.57	1263.60
449.77	1265.64
449.98	1259.50
450.18	1282.03
450.39	1306.60
450.59	1189.87
450.79	1265.64
451.00	1255.40
451.20	1257.45
451.41	1298.41
451.61	1261.55
451.81	1271.79
452.02	1329.13
452.22	1214.45
452.43	1355.76
452.63	1277.93
