SpectraSuite Data File
++++++++++++++++++++++++++++++++++++
Date: Sun Apr 03 19:55:19 CEST 2016
User: root
Dark Spectrum Present: No
Reference Spectrum Present: No
Number of Sampled Component Spectra: 1
Spectrometers: USB4C02835
Integration Time (usec): 10000 (USB4C02835)
Spectra Averaged: 1 (USB4C02835)
Boxcar Smoothing: 0 (USB4C02835)
Correct for Electrical Dark: No (USB4C02835)
Strobe/Lamp Enabled: No (USB4C02835)
Correct for Detector Non-linearity: No (USB4C02835)
Correct for Stray Light: No (USB4C02835)
Number of Pixels in Processed Spectrum: 3648
>>>>>Begin Processed Spectral Data<<<<<
177.47	1243.12
177.69	1243.12
177.91	1243.12
178.13	1312.75
178.36	1271.79
178.58	1220.59
178.80	1253.36
179.02	1257.45
179.24	1241.07
179.46	1232.88
179.68	1214.45
179.90	1224.69
180.13	1357.80
180.35	1218.54
180.57	1257.45
180.79	1261.55
181.01	1220.59
181.23	1255.40
181.45	1247.21
181.67	1243.12
181.90	1187.82
182.12	1251.31
182.34	1271.79
182.56	1306.60
182.78	1284.08
183.00	1345.52
183.22	1263.60
183.44	1312.75
183.66	1286.12
183.89	1230.83
184.11	1271.79
184.33	1247.21
184.55	1290.22
184.77	1294.32
184.99	1288.17
185.21	1247.21
185.43	1292.27
185.65	1275.88
185.87	1220.59
186.10	1333.23
186.32	1177.58
186.54	1196.01
186.76	1251.31
186.98	1222.64
187.20	1320.94
187.42	1282.03
187.64	1269.74
187.86	1245.16
188.08	1253.36
188.30	1222.64
188.52	1300.46
188.75	1269.74
188.97	1191.92
189.19	1337.32
189.41	1241.07
189.63	1286.12
189.85	1279.98
190.07	1300.46
190.29	1179.63
190.51	1271.79
190.73	1290.22
190.95	1294.32
191.17	1292.27
191.39	1306.60
191.61	1265.64
191.84	1329.13
192.06	1228.78
192.28	1271.79
192.50	1279.98
192.72	1239.02
192.94	1284.08
193.16	1310.70
193.38	1236.97
193.60	1314.80
193.82	1247.21
194.04	1271.79
194.26	1269.74
194.48	1251.31
194.70	1200.11
194.92	1292.27
195.14	1251.31
195.36	1312.75
195.58	1257.45
195.80	1337.32
196.02	1220.59
196.24	1288.17
196.46	1298.41
196.69	1271.79
196.91	1325.04
197.13	1347.56
197.35	1275.88
197.57	1300.46
197.79	1234.93
198.01	1284.08
198.23	1224.69
198.45	1261.55
198.67	1273.84
198.89	1214.45
199.11	1253.36
199.33	1267.69
199.55	1236.97
199.77	1279.98
199.99	1282.03
200.21	1230.83
200.43	1279.98
200.65	1206.25
200.87	1232.88
201.09	1294.32
201.31	1265.64
201.53	1335.28
201.75	1255.40
201.97	1234.93
202.19	1306.60
202.41	1304.56
202.63	1218.54
202.85	1255.40
203.07	1257.45
203.29	1267.69
203.51	1241.07
203.73	1265.64
203.95	1241.07
204.17	1267.69
204.39	1308.65
204.61	1302.51
204.83	1241.07
205.05	1273.84
205.27	1269.74
205.49	1181.68
205.71	1208.30
205.93	1380.33
206.15	1288.17
206.37	1273.84
206.59	1271.79
206.81	1241.07
207.03	1273.84
207.25	1286.12
207.47	1343.47
207.69	1255.40
207.91	1279.98
208.13	1339.37
208.34	1341.42
208.56	1216.49
208.78	1290.22
209.00	1263.60
209.22	1259.50
209.44	1282.03
209.66	1191.92
209.88	1255.40
210.10	1290.22
210.32	1298.41
210.54	1271.79
210.76	1255.40
210.98	1316.84
211.20	1224.69
211.42	1277.93
211.64	1314.80
211.86	1255.40
212.08	1224.69
212.30	1288.17
212.52	1210.35
212.74	1331.18
212.96	1259.50
213.17	1249.26
213.39	1279.98
213.61	1286.12
213.83	1290.22
214.05	1304.56
214.27	1306.60
214.49	1294.32
214.71	1249.26
214.93	1288.17
215.15	1298.41
215.37	1357.80
215.59	1306.60
215.81	1298.41
216.03	1320.94
216.24	1257.45
216.46	1251.31
216.68	1275.88
216.90	1239.02
217.12	1249.26
217.34	1239.02
217.56	1290.22
217.78	1316.84
218.00	1314.80
218.22	1212.40
218.44	1249.26
218.66	1271.79
218.87	1251.31
219.09	1259.50
219.31	1259.50
219.53	1284.08
219.75	1308.65
219.97	1279.98
220.19	1273.84
220.41	1263.60
220.63	1206.25
220.85	1196.01
221.06	1265.64
221.28	1290.22
221.50	1267.69
221.72	1212.40
221.94	1290.22
222.16	1286.12
222.38	1349.61
222.60	1208.30
222.82	1245.16
223.03	1300.46
223.25	1345.52
223.47	1243.12
223.69	1220.59
223.91	1312.75
224.13	1241.07
224.35	1251.31
224.57	1257.45
224.78	1322.99
225.00	1273.84
225.22	1318.89
225.44	1282.03
225.66	1279.98
225.88	1294.32
226.10	1265.64
226.32	1216.49
226.53	1261.55
226.75	1292.27
226.97	1247.21
227.19	1243.12
227.41	1273.84
227.63	1263.60
227.85	1263.60
228.06	1210.35
228.28	1206.25
228.50	1255.40
228.72	1247.21
228.94	1267.69
229.16	1322.99
229.37	1253.36
229.59	1304.56
229.81	1263.60
230.03	1214.45
230.25	1308.65
230.47	1212.40
230.69	1308.65
230.90	1304.56
231.12	1337.32
231.34	1282.03
231.56	1265.64
231.78	1263.60
232.00	1249.26
232.21	1343.47
232.43	1228.78
232.65	1275.88
232.87	1286.12
233.09	1277.93
233.30	1294.32
233.52	1234.93
233.74	1316.84
233.96	1341.42
234.18	1286.12
234.40	1284.08
234.61	1247.21
234.83	1239.02
235.05	1259.50
235.27	1337.32
235.49	1306.60
235.70	1269.74
235.92	1294.32
236.14	1245.16
236.36	1318.89
236.58	1241.07
236.79	1290.22
237.01	1236.97
237.23	1282.03
237.45	1292.27
237.67	1277.93
237.88	1224.69
238.10	1253.36
238.32	1249.26
238.54	1243.12
238.76	1243.12
238.97	1263.60
239.19	1253.36
239.41	1241.07
239.63	1222.64
239.85	1224.69
240.06	1251.31
240.28	1267.69
240.50	1239.02
240.72	1234.93
240.93	1249.26
241.15	1234.93
241.37	1159.15
241.59	1333.23
241.81	1263.60
242.02	1261.55
242.24	1279.98
242.46	1218.54
242.68	1284.08
242.89	1239.02
243.11	1277.93
243.33	1263.60
243.55	1224.69
243.76	1286.12
243.98	1296.36
244.20	1288.17
244.42	1304.56
244.64	1290.22
244.85	1277.93
245.07	1265.64
245.29	1290.22
245.51	1232.88
245.72	1247.21
245.94	1273.84
246.16	1277.93
246.38	1282.03
246.59	1202.16
246.81	1255.40
247.03	1273.84
247.24	1198.06
247.46	1282.03
247.68	1292.27
247.90	1228.78
248.11	1279.98
248.33	1275.88
248.55	1193.97
248.77	1257.45
248.98	1300.46
249.20	1216.49
249.42	1296.36
249.64	1267.69
249.85	1298.41
250.07	1288.17
250.29	1306.60
250.50	1253.36
250.72	1261.55
250.94	1261.55
251.16	1331.18
251.37	1216.49
251.59	1296.36
251.81	1259.50
252.02	1271.79
252.24	1279.98
252.46	1298.41
252.68	1288.17
252.89	1265.64
253.11	1236.97
253.33	1343.47
253.54	1277.93
253.76	1234.93
253.98	1265.64
254.20	1292.27
254.41	1273.84
254.63	1245.16
254.85	1271.79
255.06	1269.74
255.28	1275.88
255.50	1279.98
255.71	1271.79
255.93	1261.55
256.15	1275.88
256.36	1284.08
256.58	1251.31
256.80	1243.12
257.02	1331.18
257.23	1322.99
257.45	1247.21
257.67	1230.83
257.88	1245.16
258.10	1339.37
258.32	1308.65
258.53	1316.84
258.75	1247.21
258.97	1318.89
259.18	1259.50
259.40	1279.98
259.62	1290.22
259.83	1294.32
260.05	1269.74
260.27	1298.41
260.48	1284.08
260.70	1196.01
260.92	1294.32
261.13	1290.22
261.35	1288.17
261.57	1277.93
261.78	1300.46
262.00	1277.93
262.22	1263.60
262.43	1288.17
262.65	1286.12
262.86	1290.22
263.08	1282.03
263.30	1304.56
263.51	1257.45
263.73	1236.97
263.95	1247.21
264.16	1335.28
264.38	1253.36
264.60	1234.93
264.81	1290.22
265.03	1191.92
265.25	1304.56
265.46	1249.26
265.68	1304.56
265.89	1273.84
266.11	1230.83
266.33	1294.32
266.54	1265.64
266.76	1269.74
266.98	1212.40
267.19	1263.60
267.41	1306.60
267.62	1302.51
267.84	1273.84
268.06	1273.84
268.27	1296.36
268.49	1232.88
268.70	1366.00
268.92	1284.08
269.14	1271.79
269.35	1279.98
269.57	1241.07
269.79	1255.40
270.00	1357.80
270.22	1255.40
270.43	1191.92
270.65	1241.07
270.87	1259.50
271.08	1271.79
271.30	1298.41
271.51	1198.06
271.73	1224.69
271.95	1224.69
272.16	1290.22
272.38	1302.51
272.59	1261.55
272.81	1366.00
273.02	1294.32
273.24	1241.07
273.46	1306.60
273.67	1263.60
273.89	1232.88
274.10	1208.30
274.32	1253.36
274.54	1241.07
274.75	1249.26
274.97	1284.08
275.18	1269.74
275.40	1232.88
275.61	1320.94
275.83	1243.12
276.05	1277.93
276.26	1200.11
276.48	1304.56
276.69	1361.90
276.91	1255.40
277.12	1239.02
277.34	1232.88
277.55	1249.26
277.77	1218.54
277.99	1298.41
278.20	1267.69
278.42	1306.60
278.63	1363.95
278.85	1279.98
279.06	1263.60
279.28	1234.93
279.49	1329.13
279.71	1286.12
279.93	1210.35
280.14	1261.55
280.36	1175.53
280.57	1263.60
280.79	1189.87
281.00	1255.40
281.22	1247.21
281.43	1226.73
281.65	1269.74
281.86	1251.31
282.08	1239.02
282.29	1294.32
282.51	1202.16
282.73	1241.07
282.94	1210.35
283.16	1294.32
283.37	1331.18
283.59	1279.98
283.80	1245.16
284.02	1212.40
284.23	1275.88
284.45	1312.75
284.66	1257.45
284.88	1232.88
285.09	1257.45
285.31	1308.65
285.52	1273.84
285.74	1294.32
285.95	1374.19
286.17	1306.60
286.38	1279.98
286.60	1175.53
286.81	1216.49
287.03	1284.08
287.24	1314.80
287.46	1253.36
287.67	1320.94
287.89	1236.97
288.10	1247.21
288.32	1222.64
288.53	1220.59
288.75	1249.26
288.96	1306.60
289.18	1228.78
289.39	1228.78
289.61	1228.78
289.82	1339.37
290.04	1286.12
290.25	1245.16
290.47	1284.08
290.68	1316.84
290.90	1241.07
291.11	1325.04
291.33	1279.98
291.54	1261.55
291.76	1277.93
291.97	1243.12
292.18	1322.99
292.40	1245.16
292.61	1230.83
292.83	1343.47
293.04	1200.11
293.26	1298.41
293.47	1255.40
293.69	1292.27
293.90	1232.88
294.12	1253.36
294.33	1290.22
294.55	1214.45
294.76	1290.22
294.97	1216.49
295.19	1306.60
295.40	1267.69
295.62	1282.03
295.83	1263.60
296.05	1288.17
296.26	1310.70
296.48	1290.22
296.69	1232.88
296.90	1243.12
297.12	1236.97
297.33	1202.16
297.55	1247.21
297.76	1253.36
297.98	1294.32
298.19	1241.07
298.41	1277.93
298.62	1245.16
298.83	1206.25
299.05	1304.56
299.26	1224.69
299.48	1265.64
299.69	1294.32
299.90	1204.21
300.12	1298.41
300.33	1284.08
300.55	1302.51
300.76	1282.03
300.98	1191.92
301.19	1288.17
301.40	1257.45
301.62	1261.55
301.83	1249.26
302.05	1218.54
302.26	1208.30
302.47	1167.34
302.69	1286.12
302.90	1282.03
303.12	1261.55
303.33	1226.73
303.54	1259.50
303.76	1306.60
303.97	1282.03
304.19	1241.07
304.40	1228.78
304.61	1361.90
304.83	1239.02
305.04	1302.51
305.26	1269.74
305.47	1253.36
305.68	1275.88
305.90	1222.64
306.11	1343.47
306.33	1253.36
306.54	1234.93
306.75	1257.45
306.97	1306.60
307.18	1251.31
307.39	1159.15
307.61	1218.54
307.82	1265.64
308.04	1259.50
308.25	1298.41
308.46	1273.84
308.68	1189.87
308.89	1269.74
309.10	1286.12
309.32	1218.54
309.53	1222.64
309.74	1292.27
309.96	1335.28
310.17	1300.46
310.39	1265.64
310.60	1290.22
310.81	1288.17
311.03	1232.88
311.24	1249.26
311.45	1288.17
311.67	1288.17
311.88	1247.21
312.09	1282.03
312.31	1265.64
312.52	1243.12
312.73	1220.59
312.95	1234.93
313.16	1220.59
313.37	1230.83
313.59	1282.03
313.80	1210.35
314.01	1253.36
314.23	1251.31
314.44	1312.75
314.65	1271.79
314.87	1265.64
315.08	1263.60
315.29	1294.32
315.51	1232.88
315.72	1239.02
315.93	1284.08
316.15	1279.98
316.36	1282.03
316.57	1253.36
316.79	1239.02
317.00	1249.26
317.21	1239.02
317.43	1286.12
317.64	1294.32
317.85	1304.56
318.07	1232.88
318.28	1286.12
318.49	1249.26
318.70	1257.45
318.92	1224.69
319.13	1279.98
319.34	1234.93
319.56	1245.16
319.77	1241.07
319.98	1224.69
320.20	1265.64
320.41	1298.41
320.62	1228.78
320.83	1259.50
321.05	1273.84
321.26	1253.36
321.47	1245.16
321.69	1224.69
321.90	1247.21
322.11	1298.41
322.32	1310.70
322.54	1290.22
322.75	1302.51
322.96	1253.36
323.18	1282.03
323.39	1259.50
323.60	1226.73
323.81	1345.52
324.03	1208.30
324.24	1275.88
324.45	1216.49
324.66	1253.36
324.88	1204.21
325.09	1279.98
325.30	1228.78
325.52	1294.32
325.73	1267.69
325.94	1232.88
326.15	1271.79
326.37	1208.30
326.58	1198.06
326.79	1261.55
327.00	1198.06
327.22	1277.93
327.43	1230.83
327.64	1282.03
327.85	1210.35
328.07	1308.65
328.28	1294.32
328.49	1320.94
328.70	1271.79
328.92	1282.03
329.13	1288.17
329.34	1232.88
329.55	1210.35
329.76	1222.64
329.98	1210.35
330.19	1275.88
330.40	1228.78
330.61	1271.79
330.83	1247.21
331.04	1271.79
331.25	1351.66
331.46	1322.99
331.68	1253.36
331.89	1277.93
332.10	1267.69
332.31	1325.04
332.52	1271.79
332.74	1320.94
332.95	1359.85
333.16	1282.03
333.37	1222.64
333.58	1312.75
333.80	1263.60
334.01	1263.60
334.22	1236.97
334.43	1314.80
334.64	1351.66
334.86	1236.97
335.07	1249.26
335.28	1245.16
335.49	1265.64
335.70	1241.07
335.92	1304.56
336.13	1273.84
336.34	1288.17
336.55	1310.70
336.76	1275.88
336.98	1277.93
337.19	1308.65
337.40	1345.52
337.61	1294.32
337.82	1245.16
338.04	1288.17
338.25	1284.08
338.46	1259.50
338.67	1284.08
338.88	1288.17
339.09	1261.55
339.31	1322.99
339.52	1310.70
339.73	1294.32
339.94	1273.84
340.15	1200.11
340.36	1288.17
340.58	1310.70
340.79	1261.55
341.00	1220.59
341.21	1239.02
341.42	1302.51
341.63	1333.23
341.85	1259.50
342.06	1288.17
342.27	1153.01
342.48	1298.41
342.69	1202.16
342.90	1318.89
343.12	1241.07
343.33	1202.16
343.54	1331.18
343.75	1331.18
343.96	1300.46
344.17	1265.64
344.38	1261.55
344.60	1290.22
344.81	1230.83
345.02	1308.65
345.23	1255.40
345.44	1222.64
345.65	1257.45
345.86	1290.22
346.07	1290.22
346.29	1236.97
346.50	1275.88
346.71	1228.78
346.92	1255.40
347.13	1239.02
347.34	1286.12
347.55	1230.83
347.76	1320.94
347.98	1284.08
348.19	1265.64
348.40	1187.82
348.61	1259.50
348.82	1298.41
349.03	1226.73
349.24	1271.79
349.45	1320.94
349.66	1245.16
349.88	1282.03
350.09	1249.26
350.30	1241.07
350.51	1282.03
350.72	1230.83
350.93	1236.97
351.14	1181.68
351.35	1265.64
351.56	1243.12
351.77	1304.56
351.99	1175.53
352.20	1279.98
352.41	1298.41
352.62	1257.45
352.83	1288.17
353.04	1277.93
353.25	1249.26
353.46	1292.27
353.67	1202.16
353.88	1337.32
354.09	1177.58
354.30	1249.26
354.52	1249.26
354.73	1206.25
354.94	1234.93
355.15	1216.49
355.36	1273.84
355.57	1310.70
355.78	1202.16
355.99	1263.60
356.20	1263.60
356.41	1263.60
356.62	1228.78
356.83	1259.50
357.04	1245.16
357.25	1267.69
357.46	1271.79
357.68	1275.88
357.89	1249.26
358.10	1214.45
358.31	1239.02
358.52	1263.60
358.73	1228.78
358.94	1267.69
359.15	1300.46
359.36	1312.75
359.57	1284.08
359.78	1318.89
359.99	1255.40
360.20	1251.31
360.41	1306.60
360.62	1245.16
360.83	1257.45
361.04	1318.89
361.25	1228.78
361.46	1308.65
361.67	1259.50
361.88	1282.03
362.09	1200.11
362.30	1271.79
362.51	1245.16
362.72	1279.98
362.93	1269.74
363.14	1290.22
363.35	1265.64
363.56	1271.79
363.78	1269.74
363.99	1269.74
364.20	1263.60
364.41	1316.84
364.62	1214.45
364.83	1271.79
365.04	1189.87
365.25	1208.30
365.46	1298.41
365.67	1290.22
365.88	1341.42
366.09	1220.59
366.30	1298.41
366.51	1306.60
366.72	1236.97
366.93	1294.32
367.14	1239.02
367.35	1198.06
367.56	1257.45
367.77	1216.49
367.98	1216.49
368.18	1290.22
368.39	1243.12
368.60	1247.21
368.81	1302.51
369.02	1212.40
369.23	1263.60
369.44	1239.02
369.65	1249.26
369.86	1290.22
370.07	1286.12
370.28	1265.64
370.49	1331.18
370.70	1239.02
370.91	1306.60
371.12	1265.64
371.33	1286.12
371.54	1196.01
371.75	1236.97
371.96	1296.36
372.17	1288.17
372.38	1249.26
372.59	1275.88
372.80	1247.21
373.01	1284.08
373.22	1325.04
373.43	1284.08
373.64	1249.26
373.85	1284.08
374.06	1282.03
374.26	1288.17
374.47	1314.80
374.68	1310.70
374.89	1261.55
375.10	1236.97
375.31	1306.60
375.52	1206.25
375.73	1296.36
375.94	1259.50
376.15	1288.17
376.36	1255.40
376.57	1214.45
376.78	1292.27
376.99	1341.42
377.20	1316.84
377.40	1275.88
377.61	1255.40
377.82	1261.55
378.03	1294.32
378.24	1302.51
378.45	1314.80
378.66	1298.41
378.87	1169.39
379.08	1290.22
379.29	1255.40
379.50	1288.17
379.71	1320.94
379.91	1370.09
380.12	1226.73
380.33	1286.12
380.54	1292.27
380.75	1249.26
380.96	1261.55
381.17	1308.65
381.38	1234.93
381.59	1241.07
381.80	1218.54
382.00	1296.36
382.21	1306.60
382.42	1214.45
382.63	1325.04
382.84	1222.64
383.05	1318.89
383.26	1230.83
383.47	1257.45
383.68	1331.18
383.88	1275.88
384.09	1282.03
384.30	1245.16
384.51	1259.50
384.72	1232.88
384.93	1308.65
385.14	1339.37
385.35	1304.56
385.55	1261.55
385.76	1306.60
385.97	1249.26
386.18	1263.60
386.39	1267.69
386.60	1243.12
386.81	1243.12
387.02	1300.46
387.22	1327.08
387.43	1277.93
387.64	1310.70
387.85	1251.31
388.06	1253.36
388.27	1193.97
388.48	1245.16
388.68	1232.88
388.89	1279.98
389.10	1325.04
389.31	1259.50
389.52	1284.08
389.73	1228.78
389.93	1230.83
390.14	1187.82
390.35	1263.60
390.56	1279.98
390.77	1257.45
390.98	1239.02
391.18	1271.79
391.39	1267.69
391.60	1259.50
391.81	1290.22
392.02	1251.31
392.23	1318.89
392.43	1249.26
392.64	1333.23
392.85	1273.84
393.06	1257.45
393.27	1232.88
393.47	1220.59
393.68	1265.64
393.89	1308.65
394.10	1265.64
394.31	1232.88
394.52	1294.32
394.72	1206.25
394.93	1265.64
395.14	1306.60
395.35	1286.12
395.56	1243.12
395.76	1269.74
395.97	1284.08
396.18	1306.60
396.39	1259.50
396.60	1247.21
396.80	1249.26
397.01	1193.97
397.22	1214.45
397.43	1300.46
397.64	1208.30
397.84	1316.84
398.05	1312.75
398.26	1273.84
398.47	1310.70
398.67	1265.64
398.88	1284.08
399.09	1290.22
399.30	1279.98
399.51	1200.11
399.71	1218.54
399.92	1282.03
400.13	1222.64
400.34	1269.74
400.54	1249.26
400.75	1288.17
400.96	1306.60
401.17	1267.69
401.37	1304.56
401.58	1282.03
401.79	1249.26
402.00	1267.69
402.21	1353.71
402.41	1273.84
402.62	1261.55
402.83	1220.59
403.04	1239.02
403.24	1279.98
403.45	1279.98
403.66	1257.45
403.87	1243.12
404.07	1304.56
404.28	1292.27
404.49	1290.22
404.70	1216.49
404.90	1234.93
405.11	1220.59
405.32	1222.64
405.52	1277.93
405.73	1230.83
405.94	1322.99
406.15	1277.93
406.35	1198.06
406.56	1306.60
406.77	1327.08
406.98	1273.84
407.18	1212.40
407.39	1271.79
407.60	1277.93
407.80	1322.99
408.01	1271.79
408.22	1296.36
408.43	1243.12
408.63	1279.98
408.84	1282.03
409.05	1239.02
409.25	1230.83
409.46	1257.45
409.67	1224.69
409.88	1288.17
410.08	1251.31
410.29	1277.93
410.50	1292.27
410.70	1259.50
410.91	1216.49
411.12	1243.12
411.32	1249.26
411.53	1265.64
411.74	1271.79
411.95	1282.03
412.15	1333.23
412.36	1318.89
412.57	1290.22
412.77	1239.02
412.98	1296.36
413.19	1298.41
413.39	1304.56
413.60	1271.79
413.81	1216.49
414.01	1296.36
414.22	1372.14
414.43	1241.07
414.63	1206.25
414.84	1275.88
415.05	1353.71
415.25	1282.03
415.46	1263.60
415.67	1277.93
415.87	1296.36
416.08	1230.83
416.29	1275.88
416.49	1318.89
416.70	1214.45
416.91	1241.07
417.11	1277.93
417.32	1304.56
417.53	1304.56
417.73	1230.83
417.94	1290.22
418.15	1255.40
418.35	1245.16
418.56	1314.80
418.77	1318.89
418.97	1253.36
419.18	1269.74
419.38	1245.16
419.59	1214.45
419.80	1279.98
420.00	1298.41
420.21	1282.03
420.42	1241.07
420.62	1257.45
420.83	1230.83
421.04	1249.26
421.24	1269.74
421.45	1253.36
421.65	1224.69
421.86	1304.56
422.07	1294.32
422.27	1253.36
422.48	1257.45
422.69	1255.40
422.89	1224.69
423.10	1316.84
423.30	1325.04
423.51	1267.69
423.72	1204.21
423.92	1351.66
424.13	1239.02
424.33	1224.69
424.54	1314.80
424.75	1316.84
424.95	1261.55
425.16	1273.84
425.36	1286.12
425.57	1337.32
425.78	1288.17
425.98	1271.79
426.19	1302.51
426.39	1269.74
426.60	1269.74
426.81	1251.31
427.01	1255.40
427.22	1314.80
427.42	1239.02
427.63	1273.84
427.83	1224.69
428.04	1265.64
428.25	1318.89
428.45	1236.97
428.66	1253.36
428.86	1245.16
429.07	1243.12
429.28	1261.55
429.48	1331.18
429.69	1351.66
429.89	1271.79
430.10	1234.93
430.30	1245.16
430.51	1265.64
430.71	1257.45
430.92	1259.50
431.13	1265.64
431.33	1288.17
431.54	1329.13
431.74	1249.26
431.95	1261.55
432.15	1304.56
432.36	1318.89
432.56	1191.92
432.77	1286.12
432.98	1296.36
433.18	1286.12
433.39	1277.93
433.59	1251.31
433.80	1216.49
434.00	1335.28
434.21	1314.80
434.41	1236.97
434.62	1327.08
434.82	1243.12
435.03	1216.49
435.23	1298.41
435.44	1351.66
435.64	1271.79
435.85	1288.17
436.06	1220.59
436.26	1329.13
436.47	1257.45
436.67	1284.08
436.88	1251.31
437.08	1206.25
437.29	1265.64
437.49	1292.27
437.70	1290.22
437.90	1206.25
438.11	1284.08
438.31	1220.59
438.52	1294.32
438.72	1222.64
438.93	1273.84
439.13	1220.59
439.34	1245.16
439.54	1232.88
439.75	1331.18
439.95	1294.32
440.16	1325.04
440.36	1255.40
440.57	1263.60
440.77	1259.50
440.98	1255.40
441.18	1210.35
441.39	1257.45
441.59	1206.25
441.80	1296.36
442.00	1337.32
442.21	1228.78
442.41	1284.08
442.62	1300.46
442.82	1239.02
443.02	1318.89
443.23	1228.78
443.43	1290.22
443.64	1218.54
443.84	1286.12
444.05	1314.80
444.25	1239.02
444.46	1298.41
444.66	1261.55
444.87	1275.88
445.07	1251.31
445.28	1288.17
445.48	1247.21
445.69	1243.12
445.89	1292.27
446.09	1300.46
446.30	1243.12
446.50	1282.03
446.71	1279.98
446.91	1239.02
447.12	1306.60
447.32	1267.69
447.53	1284.08
447.73	1275.88
447.93	1290.22
448.14	1343.47
448.34	1265.64
448.55	1275.88
448.75	1191.92
448.96	1249.26
449.16	1279.98
449.36	1277.93
449.57	1263.60
449.77	1269.74
449.98	1277.93
450.18	1279.98
450.39	1296.36
450.59	1220.59
450.79	1298.41
451.00	1269.74
451.20	1267.69
451.41	1257.45
451.61	1341.42
451.81	1322.99
452.02	1304.56
452.22	1286.12
452.43	1308.65
452.63	1327.08
