SpectraSuite Data File
++++++++++++++++++++++++++++++++++++
Date: Sun Apr 03 19:55:28 CEST 2016
User: root
Dark Spectrum Present: No
Reference Spectrum Present: No
Number of Sampled Component Spectra: 1
Spectrometers: USB4C02835
Integration Time (usec): 10000 (USB4C02835)
Spectra Averaged: 1 (USB4C02835)
Boxcar Smoothing: 0 (USB4C02835)
Correct for Electrical Dark: No (USB4C02835)
Strobe/Lamp Enabled: No (USB4C02835)
Correct for Detector Non-linearity: No (USB4C02835)
Correct for Stray Light: No (USB4C02835)
Number of Pixels in Processed Spectrum: 3648
>>>>>Begin Processed Spectral Data<<<<<
177.47	1253.36
177.69	1253.36
177.91	1253.36
178.13	1282.03
178.36	1236.97
178.58	1284.08
178.80	1249.26
179.02	1304.56
179.24	1208.30
179.46	1232.88
179.68	1279.98
179.90	1202.16
180.13	1247.21
180.35	1210.35
180.57	1245.16
180.79	1273.84
181.01	1372.14
181.23	1208.30
181.45	1306.60
181.67	1175.53
181.90	1234.93
182.12	1189.87
182.34	1273.84
182.56	1306.60
182.78	1263.60
183.00	1247.21
183.22	1243.12
183.44	1210.35
183.66	1204.21
183.89	1253.36
184.11	1257.45
184.33	1239.02
184.55	1290.22
184.77	1282.03
184.99	1265.64
185.21	1228.78
185.43	1361.90
185.65	1298.41
185.87	1241.07
186.10	1249.26
186.32	1316.84
186.54	1247.21
186.76	1339.37
186.98	1329.13
187.20	1253.36
187.42	1310.70
187.64	1277.93
187.86	1189.87
188.08	1314.80
188.30	1267.69
188.52	1322.99
188.75	1359.85
188.97	1234.93
189.19	1322.99
189.41	1318.89
189.63	1298.41
189.85	1286.12
190.07	1257.45
190.29	1259.50
190.51	1189.87
190.73	1296.36
190.95	1255.40
191.17	1304.56
191.39	1286.12
191.61	1228.78
191.84	1236.97
192.06	1185.77
192.28	1331.18
192.50	1294.32
192.72	1216.49
192.94	1312.75
193.16	1290.22
193.38	1288.17
193.60	1200.11
193.82	1286.12
194.04	1206.25
194.26	1329.13
194.48	1279.98
194.70	1298.41
194.92	1247.21
195.14	1210.35
195.36	1247.21
195.58	1269.74
195.80	1292.27
196.02	1255.40
196.24	1271.79
196.46	1269.74
196.69	1187.82
196.91	1282.03
197.13	1249.26
197.35	1257.45
197.57	1245.16
197.79	1255.40
198.01	1239.02
198.23	1239.02
198.45	1255.40
198.67	1298.41
198.89	1255.40
199.11	1193.97
199.33	1247.21
199.55	1243.12
199.77	1279.98
199.99	1251.31
200.21	1273.84
200.43	1251.31
200.65	1273.84
200.87	1290.22
201.09	1304.56
201.31	1288.17
201.53	1279.98
201.75	1269.74
201.97	1267.69
202.19	1273.84
202.41	1232.88
202.63	1241.07
202.85	1245.16
203.07	1226.73
203.29	1304.56
203.51	1251.31
203.73	1200.11
203.95	1257.45
204.17	1257.45
204.39	1314.80
204.61	1177.58
204.83	1314.80
205.05	1269.74
205.27	1247.21
205.49	1230.83
205.71	1355.76
205.93	1329.13
206.15	1282.03
206.37	1245.16
206.59	1236.97
206.81	1243.12
207.03	1239.02
207.25	1271.79
207.47	1220.59
207.69	1290.22
207.91	1275.88
208.13	1296.36
208.34	1261.55
208.56	1243.12
208.78	1267.69
209.00	1327.08
209.22	1296.36
209.44	1257.45
209.66	1308.65
209.88	1378.28
210.10	1320.94
210.32	1259.50
210.54	1275.88
210.76	1290.22
210.98	1267.69
211.20	1308.65
211.42	1275.88
211.64	1261.55
211.86	1298.41
212.08	1243.12
212.30	1261.55
212.52	1308.65
212.74	1327.08
212.96	1306.60
213.17	1271.79
213.39	1236.97
213.61	1302.51
213.83	1361.90
214.05	1282.03
214.27	1171.44
214.49	1263.60
214.71	1230.83
214.93	1243.12
215.15	1234.93
215.37	1351.66
215.59	1296.36
215.81	1329.13
216.03	1247.21
216.24	1271.79
216.46	1185.77
216.68	1261.55
216.90	1314.80
217.12	1279.98
217.34	1257.45
217.56	1241.07
217.78	1288.17
218.00	1257.45
218.22	1288.17
218.44	1298.41
218.66	1298.41
218.87	1320.94
219.09	1241.07
219.31	1312.75
219.53	1288.17
219.75	1202.16
219.97	1206.25
220.19	1322.99
220.41	1288.17
220.63	1255.40
220.85	1236.97
221.06	1267.69
221.28	1247.21
221.50	1290.22
221.72	1290.22
221.94	1308.65
222.16	1286.12
222.38	1277.93
222.60	1339.37
222.82	1265.64
223.03	1298.41
223.25	1247.21
223.47	1308.65
223.69	1255.40
223.91	1271.79
224.13	1310.70
224.35	1218.54
224.57	1273.84
224.78	1271.79
225.00	1241.07
225.22	1277.93
225.44	1277.93
225.66	1234.93
225.88	1300.46
226.10	1210.35
226.32	1314.80
226.53	1245.16
226.75	1306.60
226.97	1247.21
227.19	1296.36
227.41	1294.32
227.63	1306.60
227.85	1263.60
228.06	1290.22
228.28	1228.78
228.50	1206.25
228.72	1251.31
228.94	1298.41
229.16	1290.22
229.37	1177.58
229.59	1251.31
229.81	1259.50
230.03	1257.45
230.25	1269.74
230.47	1241.07
230.69	1282.03
230.90	1220.59
231.12	1251.31
231.34	1222.64
231.56	1245.16
231.78	1259.50
232.00	1247.21
232.21	1255.40
232.43	1216.49
232.65	1243.12
232.87	1318.89
233.09	1226.73
233.30	1314.80
233.52	1316.84
233.74	1314.80
233.96	1308.65
234.18	1312.75
234.40	1249.26
234.61	1292.27
234.83	1239.02
235.05	1212.40
235.27	1290.22
235.49	1322.99
235.70	1267.69
235.92	1243.12
236.14	1290.22
236.36	1290.22
236.58	1300.46
236.79	1224.69
237.01	1265.64
237.23	1230.83
237.45	1269.74
237.67	1306.60
237.88	1300.46
238.10	1302.51
238.32	1300.46
238.54	1261.55
238.76	1224.69
238.97	1318.89
239.19	1234.93
239.41	1257.45
239.63	1265.64
239.85	1232.88
240.06	1259.50
240.28	1282.03
240.50	1257.45
240.72	1288.17
240.93	1271.79
241.15	1269.74
241.37	1265.64
241.59	1230.83
241.81	1267.69
242.02	1316.84
242.24	1290.22
242.46	1249.26
242.68	1257.45
242.89	1185.77
243.11	1259.50
243.33	1267.69
243.55	1269.74
243.76	1243.12
243.98	1294.32
244.20	1193.97
244.42	1271.79
244.64	1239.02
244.85	1175.53
245.07	1292.27
245.29	1304.56
245.51	1288.17
245.72	1263.60
245.94	1271.79
246.16	1294.32
246.38	1271.79
246.59	1273.84
246.81	1234.93
247.03	1279.98
247.24	1298.41
247.46	1288.17
247.68	1279.98
247.90	1236.97
248.11	1290.22
248.33	1322.99
248.55	1282.03
248.77	1302.51
248.98	1228.78
249.20	1267.69
249.42	1308.65
249.64	1243.12
249.85	1267.69
250.07	1294.32
250.29	1318.89
250.50	1296.36
250.72	1243.12
250.94	1366.00
251.16	1300.46
251.37	1284.08
251.59	1320.94
251.81	1277.93
252.02	1222.64
252.24	1257.45
252.46	1322.99
252.68	1269.74
252.89	1290.22
253.11	1212.40
253.33	1322.99
253.54	1300.46
253.76	1286.12
253.98	1212.40
254.20	1300.46
254.41	1284.08
254.63	1265.64
254.85	1298.41
255.06	1271.79
255.28	1306.60
255.50	1245.16
255.71	1282.03
255.93	1325.04
256.15	1230.83
256.36	1230.83
256.58	1234.93
256.80	1325.04
257.02	1284.08
257.23	1189.87
257.45	1269.74
257.67	1257.45
257.88	1255.40
258.10	1210.35
258.32	1327.08
258.53	1255.40
258.75	1249.26
258.97	1306.60
259.18	1218.54
259.40	1179.63
259.62	1263.60
259.83	1294.32
260.05	1282.03
260.27	1222.64
260.48	1269.74
260.70	1265.64
260.92	1310.70
261.13	1296.36
261.35	1251.31
261.57	1282.03
261.78	1279.98
262.00	1249.26
262.22	1269.74
262.43	1212.40
262.65	1263.60
262.86	1302.51
263.08	1255.40
263.30	1275.88
263.51	1290.22
263.73	1243.12
263.95	1290.22
264.16	1273.84
264.38	1282.03
264.60	1290.22
264.81	1218.54
265.03	1306.60
265.25	1261.55
265.46	1263.60
265.68	1314.80
265.89	1271.79
266.11	1247.21
266.33	1269.74
266.54	1236.97
266.76	1288.17
266.98	1277.93
267.19	1191.92
267.41	1343.47
267.62	1241.07
267.84	1292.27
268.06	1308.65
268.27	1226.73
268.49	1277.93
268.70	1286.12
268.92	1191.92
269.14	1224.69
269.35	1249.26
269.57	1355.76
269.79	1310.70
270.00	1284.08
270.22	1271.79
270.43	1241.07
270.65	1232.88
270.87	1251.31
271.08	1310.70
271.30	1263.60
271.51	1302.51
271.73	1312.75
271.95	1236.97
272.16	1355.76
272.38	1339.37
272.59	1275.88
272.81	1304.56
273.02	1228.78
273.24	1200.11
273.46	1282.03
273.67	1306.60
273.89	1304.56
274.10	1329.13
274.32	1234.93
274.54	1335.28
274.75	1247.21
274.97	1198.06
275.18	1224.69
275.40	1290.22
275.61	1220.59
275.83	1296.36
276.05	1253.36
276.26	1208.30
276.48	1314.80
276.69	1263.60
276.91	1251.31
277.12	1261.55
277.34	1298.41
277.55	1255.40
277.77	1271.79
277.99	1200.11
278.20	1273.84
278.42	1222.64
278.63	1259.50
278.85	1300.46
279.06	1306.60
279.28	1298.41
279.49	1275.88
279.71	1271.79
279.93	1292.27
280.14	1275.88
280.36	1234.93
280.57	1263.60
280.79	1200.11
281.00	1253.36
281.22	1318.89
281.43	1239.02
281.65	1243.12
281.86	1255.40
282.08	1298.41
282.29	1257.45
282.51	1308.65
282.73	1314.80
282.94	1249.26
283.16	1298.41
283.37	1169.39
283.59	1232.88
283.80	1267.69
284.02	1290.22
284.23	1261.55
284.45	1394.67
284.66	1265.64
284.88	1263.60
285.09	1300.46
285.31	1228.78
285.52	1210.35
285.74	1232.88
285.95	1275.88
286.17	1316.84
286.38	1226.73
286.60	1298.41
286.81	1224.69
287.03	1198.06
287.24	1247.21
287.46	1282.03
287.67	1288.17
287.89	1320.94
288.10	1363.95
288.32	1224.69
288.53	1269.74
288.75	1304.56
288.96	1241.07
289.18	1298.41
289.39	1339.37
289.61	1243.12
289.82	1257.45
290.04	1273.84
290.25	1265.64
290.47	1228.78
290.68	1288.17
290.90	1241.07
291.11	1282.03
291.33	1200.11
291.54	1210.35
291.76	1259.50
291.97	1243.12
292.18	1296.36
292.40	1277.93
292.61	1259.50
292.83	1288.17
293.04	1230.83
293.26	1243.12
293.47	1218.54
293.69	1284.08
293.90	1290.22
294.12	1269.74
294.33	1234.93
294.55	1306.60
294.76	1261.55
294.97	1318.89
295.19	1284.08
295.40	1310.70
295.62	1279.98
295.83	1269.74
296.05	1257.45
296.26	1216.49
296.48	1314.80
296.69	1216.49
296.90	1271.79
297.12	1259.50
297.33	1220.59
297.55	1337.32
297.76	1245.16
297.98	1257.45
298.19	1249.26
298.41	1255.40
298.62	1308.65
298.83	1263.60
299.05	1339.37
299.26	1216.49
299.48	1259.50
299.69	1282.03
299.90	1296.36
300.12	1322.99
300.33	1353.71
300.55	1228.78
300.76	1298.41
300.98	1279.98
301.19	1265.64
301.40	1251.31
301.62	1316.84
301.83	1259.50
302.05	1273.84
302.26	1282.03
302.47	1273.84
302.69	1267.69
302.90	1257.45
303.12	1267.69
303.33	1345.52
303.54	1269.74
303.76	1277.93
303.97	1241.07
304.19	1253.36
304.40	1198.06
304.61	1255.40
304.83	1263.60
305.04	1279.98
305.26	1241.07
305.47	1308.65
305.68	1314.80
305.90	1259.50
306.11	1304.56
306.33	1220.59
306.54	1239.02
306.75	1273.84
306.97	1249.26
307.18	1279.98
307.39	1277.93
307.61	1273.84
307.82	1261.55
308.04	1243.12
308.25	1210.35
308.46	1279.98
308.68	1288.17
308.89	1370.09
309.10	1269.74
309.32	1288.17
309.53	1269.74
309.74	1312.75
309.96	1290.22
310.17	1308.65
310.39	1228.78
310.60	1292.27
310.81	1232.88
311.03	1296.36
311.24	1236.97
311.45	1314.80
311.67	1273.84
311.88	1212.40
312.09	1234.93
312.31	1333.23
312.52	1257.45
312.73	1269.74
312.95	1175.53
313.16	1251.31
313.37	1306.60
313.59	1292.27
313.80	1304.56
314.01	1216.49
314.23	1269.74
314.44	1228.78
314.65	1175.53
314.87	1210.35
315.08	1249.26
315.29	1308.65
315.51	1306.60
315.72	1290.22
315.93	1329.13
316.15	1241.07
316.36	1255.40
316.57	1269.74
316.79	1224.69
317.00	1251.31
317.21	1224.69
317.43	1273.84
317.64	1218.54
317.85	1165.29
318.07	1253.36
318.28	1265.64
318.49	1253.36
318.70	1273.84
318.92	1230.83
319.13	1241.07
319.34	1308.65
319.56	1239.02
319.77	1267.69
319.98	1300.46
320.20	1224.69
320.41	1335.28
320.62	1277.93
320.83	1277.93
321.05	1325.04
321.26	1312.75
321.47	1320.94
321.69	1308.65
321.90	1304.56
322.11	1275.88
322.32	1288.17
322.54	1292.27
322.75	1265.64
322.96	1337.32
323.18	1196.01
323.39	1245.16
323.60	1236.97
323.81	1263.60
324.03	1212.40
324.24	1310.70
324.45	1320.94
324.66	1318.89
324.88	1265.64
325.09	1329.13
325.30	1267.69
325.52	1306.60
325.73	1288.17
325.94	1236.97
326.15	1232.88
326.37	1351.66
326.58	1234.93
326.79	1325.04
327.00	1241.07
327.22	1359.85
327.43	1267.69
327.64	1255.40
327.85	1275.88
328.07	1312.75
328.28	1284.08
328.49	1335.28
328.70	1269.74
328.92	1224.69
329.13	1273.84
329.34	1241.07
329.55	1298.41
329.76	1255.40
329.98	1214.45
330.19	1314.80
330.40	1241.07
330.61	1230.83
330.83	1269.74
331.04	1288.17
331.25	1265.64
331.46	1284.08
331.68	1224.69
331.89	1253.36
332.10	1345.52
332.31	1337.32
332.52	1282.03
332.74	1286.12
332.95	1269.74
333.16	1290.22
333.37	1228.78
333.58	1251.31
333.80	1214.45
334.01	1322.99
334.22	1230.83
334.43	1167.34
334.64	1275.88
334.86	1294.32
335.07	1320.94
335.28	1253.36
335.49	1208.30
335.70	1265.64
335.92	1322.99
336.13	1320.94
336.34	1286.12
336.55	1322.99
336.76	1232.88
336.98	1255.40
337.19	1271.79
337.40	1263.60
337.61	1294.32
337.82	1261.55
338.04	1298.41
338.25	1261.55
338.46	1275.88
338.67	1210.35
338.88	1269.74
339.09	1255.40
339.31	1277.93
339.52	1202.16
339.73	1261.55
339.94	1269.74
340.15	1259.50
340.36	1251.31
340.58	1300.46
340.79	1304.56
341.00	1273.84
341.21	1243.12
341.42	1220.59
341.63	1288.17
341.85	1222.64
342.06	1302.51
342.27	1208.30
342.48	1253.36
342.69	1292.27
342.90	1255.40
343.12	1294.32
343.33	1253.36
343.54	1318.89
343.75	1273.84
343.96	1314.80
344.17	1318.89
344.38	1249.26
344.60	1279.98
344.81	1288.17
345.02	1257.45
345.23	1249.26
345.44	1271.79
345.65	1277.93
345.86	1304.56
346.07	1337.32
346.29	1361.90
346.50	1298.41
346.71	1282.03
346.92	1271.79
347.13	1331.18
347.34	1239.02
347.55	1257.45
347.76	1263.60
347.98	1312.75
348.19	1200.11
348.40	1251.31
348.61	1275.88
348.82	1296.36
349.03	1251.31
349.24	1275.88
349.45	1292.27
349.66	1320.94
349.88	1247.21
350.09	1271.79
350.30	1312.75
350.51	1318.89
350.72	1220.59
350.93	1255.40
351.14	1302.51
351.35	1308.65
351.56	1288.17
351.77	1255.40
351.99	1267.69
352.20	1243.12
352.41	1290.22
352.62	1308.65
352.83	1257.45
353.04	1265.64
353.25	1234.93
353.46	1298.41
353.67	1261.55
353.88	1325.04
354.09	1173.49
354.30	1345.52
354.52	1196.01
354.73	1273.84
354.94	1232.88
355.15	1261.55
355.36	1255.40
355.57	1277.93
355.78	1224.69
355.99	1318.89
356.20	1308.65
356.41	1255.40
356.62	1286.12
356.83	1265.64
357.04	1288.17
357.25	1263.60
357.46	1232.88
357.68	1298.41
357.89	1322.99
358.10	1255.40
358.31	1224.69
358.52	1269.74
358.73	1245.16
358.94	1290.22
359.15	1236.97
359.36	1232.88
359.57	1193.97
359.78	1212.40
359.99	1273.84
360.20	1294.32
360.41	1275.88
360.62	1275.88
360.83	1228.78
361.04	1325.04
361.25	1282.03
361.46	1232.88
361.67	1310.70
361.88	1290.22
362.09	1267.69
362.30	1282.03
362.51	1249.26
362.72	1259.50
362.93	1204.21
363.14	1298.41
363.35	1292.27
363.56	1232.88
363.78	1259.50
363.99	1236.97
364.20	1193.97
364.41	1320.94
364.62	1249.26
364.83	1255.40
365.04	1275.88
365.25	1273.84
365.46	1259.50
365.67	1296.36
365.88	1251.31
366.09	1181.68
366.30	1269.74
366.51	1273.84
366.72	1277.93
366.93	1214.45
367.14	1232.88
367.35	1273.84
367.56	1353.71
367.77	1331.18
367.98	1253.36
368.18	1257.45
368.39	1314.80
368.60	1302.51
368.81	1271.79
369.02	1263.60
369.23	1214.45
369.44	1253.36
369.65	1304.56
369.86	1275.88
370.07	1232.88
370.28	1282.03
370.49	1243.12
370.70	1306.60
370.91	1265.64
371.12	1267.69
371.33	1159.15
371.54	1378.28
371.75	1300.46
371.96	1271.79
372.17	1282.03
372.38	1288.17
372.59	1267.69
372.80	1290.22
373.01	1204.21
373.22	1294.32
373.43	1206.25
373.64	1241.07
373.85	1261.55
374.06	1265.64
374.26	1265.64
374.47	1269.74
374.68	1273.84
374.89	1286.12
375.10	1239.02
375.31	1269.74
375.52	1261.55
375.73	1279.98
375.94	1222.64
376.15	1200.11
376.36	1247.21
376.57	1277.93
376.78	1222.64
376.99	1239.02
377.20	1345.52
377.40	1239.02
377.61	1290.22
377.82	1298.41
378.03	1288.17
378.24	1261.55
378.45	1239.02
378.66	1302.51
378.87	1226.73
379.08	1232.88
379.29	1220.59
379.50	1249.26
379.71	1298.41
379.91	1288.17
380.12	1241.07
380.33	1249.26
380.54	1333.23
380.75	1265.64
380.96	1298.41
381.17	1294.32
381.38	1310.70
381.59	1331.18
381.80	1265.64
382.00	1335.28
382.21	1247.21
382.42	1288.17
382.63	1236.97
382.84	1310.70
383.05	1234.93
383.26	1267.69
383.47	1318.89
383.68	1282.03
383.88	1259.50
384.09	1214.45
384.30	1296.36
384.51	1318.89
384.72	1249.26
384.93	1251.31
385.14	1312.75
385.35	1292.27
385.55	1277.93
385.76	1261.55
385.97	1210.35
386.18	1212.40
386.39	1269.74
386.60	1286.12
386.81	1241.07
387.02	1290.22
387.22	1230.83
387.43	1228.78
387.64	1271.79
387.85	1292.27
388.06	1284.08
388.27	1234.93
388.48	1257.45
388.68	1220.59
388.89	1286.12
389.10	1189.87
389.31	1282.03
389.52	1255.40
389.73	1304.56
389.93	1288.17
390.14	1232.88
390.35	1286.12
390.56	1208.30
390.77	1341.42
390.98	1247.21
391.18	1304.56
391.39	1206.25
391.60	1228.78
391.81	1181.68
392.02	1212.40
392.23	1273.84
392.43	1222.64
392.64	1216.49
392.85	1271.79
393.06	1249.26
393.27	1310.70
393.47	1234.93
393.68	1277.93
393.89	1220.59
394.10	1279.98
394.31	1249.26
394.52	1255.40
394.72	1269.74
394.93	1232.88
395.14	1251.31
395.35	1284.08
395.56	1239.02
395.76	1286.12
395.97	1277.93
396.18	1259.50
396.39	1191.92
396.60	1257.45
396.80	1218.54
397.01	1226.73
397.22	1267.69
397.43	1228.78
397.64	1208.30
397.84	1267.69
398.05	1245.16
398.26	1228.78
398.47	1333.23
398.67	1210.35
398.88	1236.97
399.09	1310.70
399.30	1322.99
399.51	1265.64
399.71	1263.60
399.92	1257.45
400.13	1282.03
400.34	1265.64
400.54	1284.08
400.75	1255.40
400.96	1236.97
401.17	1310.70
401.37	1224.69
401.58	1216.49
401.79	1282.03
402.00	1292.27
402.21	1255.40
402.41	1282.03
402.62	1236.97
402.83	1306.60
403.04	1234.93
403.24	1245.16
403.45	1255.40
403.66	1249.26
403.87	1230.83
404.07	1302.51
404.28	1193.97
404.49	1191.92
404.70	1200.11
404.90	1263.60
405.11	1243.12
405.32	1159.15
405.52	1347.56
405.73	1294.32
405.94	1288.17
406.15	1296.36
406.35	1279.98
406.56	1255.40
406.77	1265.64
406.98	1251.31
407.18	1265.64
407.39	1316.84
407.60	1329.13
407.80	1255.40
408.01	1269.74
408.22	1327.08
408.43	1331.18
408.63	1314.80
408.84	1282.03
409.05	1236.97
409.25	1247.21
409.46	1298.41
409.67	1251.31
409.88	1261.55
410.08	1273.84
410.29	1320.94
410.50	1185.77
410.70	1249.26
410.91	1243.12
411.12	1331.18
411.32	1284.08
411.53	1253.36
411.74	1279.98
411.95	1333.23
412.15	1236.97
412.36	1292.27
412.57	1296.36
412.77	1228.78
412.98	1263.60
413.19	1257.45
413.39	1259.50
413.60	1239.02
413.81	1320.94
414.01	1372.14
414.22	1284.08
414.43	1298.41
414.63	1261.55
414.84	1220.59
415.05	1210.35
415.25	1271.79
415.46	1263.60
415.67	1322.99
415.87	1302.51
416.08	1251.31
416.29	1230.83
416.49	1300.46
416.70	1271.79
416.91	1302.51
417.11	1327.08
417.32	1288.17
417.53	1286.12
417.73	1337.32
417.94	1196.01
418.15	1300.46
418.35	1247.21
418.56	1263.60
418.77	1265.64
418.97	1263.60
419.18	1230.83
419.38	1202.16
419.59	1277.93
419.80	1308.65
420.00	1251.31
420.21	1279.98
420.42	1236.97
420.62	1257.45
420.83	1275.88
421.04	1327.08
421.24	1267.69
421.45	1331.18
421.65	1284.08
421.86	1339.37
422.07	1320.94
422.27	1314.80
422.48	1306.60
422.69	1257.45
422.89	1185.77
423.10	1368.04
423.30	1251.31
423.51	1230.83
423.72	1230.83
423.92	1236.97
424.13	1239.02
424.33	1261.55
424.54	1255.40
424.75	1239.02
424.95	1296.36
425.16	1363.95
425.36	1296.36
425.57	1255.40
425.78	1329.13
425.98	1261.55
426.19	1277.93
426.39	1277.93
426.60	1253.36
426.81	1220.59
427.01	1224.69
427.22	1206.25
427.42	1234.93
427.63	1265.64
427.83	1302.51
428.04	1306.60
428.25	1282.03
428.45	1267.69
428.66	1210.35
428.86	1275.88
429.07	1251.31
429.28	1269.74
429.48	1243.12
429.69	1257.45
429.89	1277.93
430.10	1290.22
430.30	1193.97
430.51	1265.64
430.71	1249.26
430.92	1212.40
431.13	1239.02
431.33	1310.70
431.54	1298.41
431.74	1271.79
431.95	1320.94
432.15	1296.36
432.36	1232.88
432.56	1310.70
432.77	1228.78
432.98	1290.22
433.18	1316.84
433.39	1327.08
433.59	1249.26
433.80	1351.66
434.00	1255.40
434.21	1304.56
434.41	1308.65
434.62	1228.78
434.82	1239.02
435.03	1269.74
435.23	1267.69
435.44	1259.50
435.64	1259.50
435.85	1257.45
436.06	1284.08
436.26	1288.17
436.47	1259.50
436.67	1189.87
436.88	1247.21
437.08	1267.69
437.29	1243.12
437.49	1279.98
437.70	1142.77
437.90	1255.40
438.11	1208.30
438.31	1269.74
438.52	1257.45
438.72	1310.70
438.93	1228.78
439.13	1239.02
439.34	1288.17
439.54	1282.03
439.75	1325.04
439.95	1290.22
440.16	1220.59
440.36	1265.64
440.57	1253.36
440.77	1333.23
440.98	1302.51
441.18	1226.73
441.39	1284.08
441.59	1282.03
441.80	1243.12
442.00	1298.41
442.21	1322.99
442.41	1239.02
442.62	1216.49
442.82	1259.50
443.02	1259.50
443.23	1347.56
443.43	1366.00
443.64	1302.51
443.84	1206.25
444.05	1327.08
444.25	1153.01
444.46	1261.55
444.66	1275.88
444.87	1296.36
445.07	1239.02
445.28	1290.22
445.48	1251.31
445.69	1218.54
445.89	1273.84
446.09	1214.45
446.30	1191.92
446.50	1314.80
446.71	1347.56
446.91	1261.55
447.12	1228.78
447.32	1351.66
447.53	1286.12
447.73	1298.41
447.93	1224.69
448.14	1220.59
448.34	1251.31
448.55	1259.50
448.75	1286.12
448.96	1284.08
449.16	1331.18
449.36	1288.17
449.57	1331.18
449.77	1286.12
449.98	1298.41
450.18	1226.73
450.39	1312.75
450.59	1269.74
450.79	1331.18
451.00	1341.42
451.20	1230.83
451.41	1282.03
451.61	1282.03
451.81	1308.65
452.02	1265.64
452.22	1214.45
452.43	1236.97
452.63	1314.80
