SpectraSuite Data File
++++++++++++++++++++++++++++++++++++
Date: Sun Apr 03 19:55:18 CEST 2016
User: root
Dark Spectrum Present: No
Reference Spectrum Present: No
Number of Sampled Component Spectra: 1
Spectrometers: USB4C02835
Integration Time (usec): 10000 (USB4C02835)
Spectra Averaged: 1 (USB4C02835)
Boxcar Smoothing: 0 (USB4C02835)
Correct for Electrical Dark: No (USB4C02835)
Strobe/Lamp Enabled: No (USB4C02835)
Correct for Detector Non-linearity: No (USB4C02835)
Correct for Stray Light: No (USB4C02835)
Number of Pixels in Processed Spectrum: 3648
>>>>>Begin Processed Spectral Data<<<<<
177.47	1251.31
177.69	1251.31
177.91	1251.31
178.13	1239.02
178.36	1279.98
178.58	1241.07
178.80	1210.35
179.02	1216.49
179.24	1279.98
179.46	1193.97
179.68	1251.31
179.90	1304.56
180.13	1294.32
180.35	1269.74
180.57	1275.88
180.79	1333.23
181.01	1318.89
181.23	1226.73
181.45	1271.79
181.67	1265.64
181.90	1288.17
182.12	1243.12
182.34	1247.21
182.56	1245.16
182.78	1236.97
183.00	1298.41
183.22	1241.07
183.44	1290.22
183.66	1265.64
183.89	1245.16
184.11	1277.93
184.33	1310.70
184.55	1282.03
184.77	1298.41
184.99	1193.97
185.21	1216.49
185.43	1320.94
185.65	1284.08
185.87	1335.28
186.10	1277.93
186.32	1257.45
186.54	1345.52
186.76	1286.12
186.98	1286.12
187.20	1282.03
187.42	1284.08
187.64	1265.64
187.86	1230.83
188.08	1314.80
188.30	1214.45
188.52	1261.55
188.75	1234.93
188.97	1310.70
189.19	1267.69
189.41	1282.03
189.63	1302.51
189.85	1241.07
190.07	1245.16
190.29	1236.97
190.51	1204.21
190.73	1234.93
190.95	1236.97
191.17	1304.56
191.39	1288.17
191.61	1306.60
191.84	1206.25
192.06	1290.22
192.28	1214.45
192.50	1279.98
192.72	1255.40
192.94	1230.83
193.16	1232.88
193.38	1290.22
193.60	1255.40
193.82	1271.79
194.04	1259.50
194.26	1288.17
194.48	1249.26
194.70	1351.66
194.92	1261.55
195.14	1279.98
195.36	1224.69
195.58	1271.79
195.80	1230.83
196.02	1271.79
196.24	1275.88
196.46	1333.23
196.69	1304.56
196.91	1253.36
197.13	1255.40
197.35	1249.26
197.57	1275.88
197.79	1304.56
198.01	1228.78
198.23	1314.80
198.45	1185.77
198.67	1333.23
198.89	1259.50
199.11	1216.49
199.33	1265.64
199.55	1302.51
199.77	1189.87
199.99	1265.64
200.21	1316.84
200.43	1230.83
200.65	1318.89
200.87	1263.60
201.09	1290.22
201.31	1288.17
201.53	1333.23
201.75	1222.64
201.97	1204.21
202.19	1320.94
202.41	1232.88
202.63	1288.17
202.85	1253.36
203.07	1296.36
203.29	1222.64
203.51	1247.21
203.73	1300.46
203.95	1286.12
204.17	1261.55
204.39	1216.49
204.61	1191.92
204.83	1284.08
205.05	1245.16
205.27	1306.60
205.49	1312.75
205.71	1286.12
205.93	1222.64
206.15	1271.79
206.37	1251.31
206.59	1241.07
206.81	1230.83
207.03	1302.51
207.25	1234.93
207.47	1275.88
207.69	1351.66
207.91	1329.13
208.13	1216.49
208.34	1290.22
208.56	1277.93
208.78	1284.08
209.00	1183.73
209.22	1214.45
209.44	1247.21
209.66	1208.30
209.88	1245.16
210.10	1288.17
210.32	1288.17
210.54	1288.17
210.76	1302.51
210.98	1212.40
211.20	1216.49
211.42	1249.26
211.64	1251.31
211.86	1247.21
212.08	1363.95
212.30	1282.03
212.52	1177.58
212.74	1267.69
212.96	1322.99
213.17	1318.89
213.39	1251.31
213.61	1282.03
213.83	1257.45
214.05	1251.31
214.27	1320.94
214.49	1277.93
214.71	1286.12
214.93	1200.11
215.15	1298.41
215.37	1273.84
215.59	1263.60
215.81	1267.69
216.03	1294.32
216.24	1347.56
216.46	1253.36
216.68	1269.74
216.90	1327.08
217.12	1368.04
217.34	1298.41
217.56	1302.51
217.78	1214.45
218.00	1273.84
218.22	1263.60
218.44	1253.36
218.66	1282.03
218.87	1294.32
219.09	1286.12
219.31	1279.98
219.53	1253.36
219.75	1273.84
219.97	1251.31
220.19	1253.36
220.41	1245.16
220.63	1257.45
220.85	1322.99
221.06	1214.45
221.28	1282.03
221.50	1329.13
221.72	1279.98
221.94	1271.79
222.16	1253.36
222.38	1308.65
222.60	1253.36
222.82	1196.01
223.03	1269.74
223.25	1261.55
223.47	1302.51
223.69	1239.02
223.91	1275.88
224.13	1263.60
224.35	1325.04
224.57	1292.27
224.78	1263.60
225.00	1241.07
225.22	1316.84
225.44	1208.30
225.66	1239.02
225.88	1265.64
226.10	1282.03
226.32	1165.29
226.53	1255.40
226.75	1331.18
226.97	1251.31
227.19	1288.17
227.41	1294.32
227.63	1251.31
227.85	1243.12
228.06	1239.02
228.28	1167.34
228.50	1345.52
228.72	1224.69
228.94	1239.02
229.16	1320.94
229.37	1247.21
229.59	1277.93
229.81	1241.07
230.03	1232.88
230.25	1300.46
230.47	1247.21
230.69	1337.32
230.90	1269.74
231.12	1275.88
231.34	1236.97
231.56	1273.84
231.78	1224.69
232.00	1239.02
232.21	1255.40
232.43	1312.75
232.65	1249.26
232.87	1269.74
233.09	1282.03
233.30	1249.26
233.52	1236.97
233.74	1316.84
233.96	1304.56
234.18	1306.60
234.40	1310.70
234.61	1259.50
234.83	1265.64
235.05	1298.41
235.27	1277.93
235.49	1269.74
235.70	1296.36
235.92	1224.69
236.14	1263.60
236.36	1288.17
236.58	1300.46
236.79	1230.83
237.01	1277.93
237.23	1331.18
237.45	1261.55
237.67	1271.79
237.88	1236.97
238.10	1249.26
238.32	1302.51
238.54	1310.70
238.76	1218.54
238.97	1245.16
239.19	1322.99
239.41	1294.32
239.63	1288.17
239.85	1286.12
240.06	1337.32
240.28	1292.27
240.50	1277.93
240.72	1325.04
240.93	1253.36
241.15	1222.64
241.37	1320.94
241.59	1247.21
241.81	1296.36
242.02	1241.07
242.24	1341.42
242.46	1255.40
242.68	1255.40
242.89	1245.16
243.11	1298.41
243.33	1320.94
243.55	1200.11
243.76	1320.94
243.98	1310.70
244.20	1312.75
244.42	1325.04
244.64	1308.65
244.85	1185.77
245.07	1193.97
245.29	1341.42
245.51	1286.12
245.72	1279.98
245.94	1241.07
246.16	1314.80
246.38	1269.74
246.59	1224.69
246.81	1255.40
247.03	1284.08
247.24	1241.07
247.46	1290.22
247.68	1220.59
247.90	1308.65
248.11	1198.06
248.33	1222.64
248.55	1316.84
248.77	1200.11
248.98	1339.37
249.20	1265.64
249.42	1249.26
249.64	1306.60
249.85	1265.64
250.07	1259.50
250.29	1269.74
250.50	1275.88
250.72	1241.07
250.94	1273.84
251.16	1261.55
251.37	1265.64
251.59	1331.18
251.81	1247.21
252.02	1298.41
252.24	1249.26
252.46	1288.17
252.68	1204.21
252.89	1230.83
253.11	1224.69
253.33	1302.51
253.54	1265.64
253.76	1269.74
253.98	1228.78
254.20	1251.31
254.41	1226.73
254.63	1255.40
254.85	1257.45
255.06	1282.03
255.28	1261.55
255.50	1191.92
255.71	1284.08
255.93	1232.88
256.15	1177.58
256.36	1220.59
256.58	1236.97
256.80	1245.16
257.02	1236.97
257.23	1230.83
257.45	1247.21
257.67	1359.85
257.88	1282.03
258.10	1351.66
258.32	1259.50
258.53	1212.40
258.75	1314.80
258.97	1234.93
259.18	1343.47
259.40	1290.22
259.62	1273.84
259.83	1179.63
260.05	1245.16
260.27	1310.70
260.48	1290.22
260.70	1316.84
260.92	1298.41
261.13	1200.11
261.35	1263.60
261.57	1220.59
261.78	1230.83
262.00	1271.79
262.22	1234.93
262.43	1222.64
262.65	1290.22
262.86	1239.02
263.08	1298.41
263.30	1310.70
263.51	1202.16
263.73	1279.98
263.95	1255.40
264.16	1273.84
264.38	1286.12
264.60	1331.18
264.81	1290.22
265.03	1300.46
265.25	1239.02
265.46	1216.49
265.68	1247.21
265.89	1329.13
266.11	1228.78
266.33	1241.07
266.54	1288.17
266.76	1277.93
266.98	1306.60
267.19	1284.08
267.41	1277.93
267.62	1220.59
267.84	1234.93
268.06	1247.21
268.27	1284.08
268.49	1232.88
268.70	1310.70
268.92	1298.41
269.14	1165.29
269.35	1263.60
269.57	1290.22
269.79	1275.88
270.00	1196.01
270.22	1282.03
270.43	1300.46
270.65	1214.45
270.87	1292.27
271.08	1267.69
271.30	1241.07
271.51	1306.60
271.73	1290.22
271.95	1269.74
272.16	1267.69
272.38	1245.16
272.59	1265.64
272.81	1206.25
273.02	1265.64
273.24	1210.35
273.46	1232.88
273.67	1316.84
273.89	1306.60
274.10	1292.27
274.32	1253.36
274.54	1288.17
274.75	1314.80
274.97	1230.83
275.18	1288.17
275.40	1286.12
275.61	1298.41
275.83	1277.93
276.05	1308.65
276.26	1239.02
276.48	1279.98
276.69	1284.08
276.91	1241.07
277.12	1255.40
277.34	1210.35
277.55	1310.70
277.77	1245.16
277.99	1316.84
278.20	1232.88
278.42	1259.50
278.63	1236.97
278.85	1302.51
279.06	1343.47
279.28	1298.41
279.49	1290.22
279.71	1275.88
279.93	1245.16
280.14	1204.21
280.36	1357.80
280.57	1273.84
280.79	1230.83
281.00	1275.88
281.22	1230.83
281.43	1263.60
281.65	1259.50
281.86	1259.50
282.08	1243.12
282.29	1337.32
282.51	1282.03
282.73	1333.23
282.94	1275.88
283.16	1290.22
283.37	1208.30
283.59	1265.64
283.80	1226.73
284.02	1259.50
284.23	1245.16
284.45	1302.51
284.66	1236.97
284.88	1339.37
285.09	1230.83
285.31	1261.55
285.52	1312.75
285.74	1277.93
285.95	1312.75
286.17	1298.41
286.38	1247.21
286.60	1284.08
286.81	1275.88
287.03	1253.36
287.24	1300.46
287.46	1269.74
287.67	1294.32
287.89	1290.22
288.10	1337.32
288.32	1271.79
288.53	1286.12
288.75	1337.32
288.96	1269.74
289.18	1249.26
289.39	1273.84
289.61	1271.79
289.82	1273.84
290.04	1304.56
290.25	1257.45
290.47	1294.32
290.68	1222.64
290.90	1263.60
291.11	1265.64
291.33	1247.21
291.54	1331.18
291.76	1284.08
291.97	1339.37
292.18	1320.94
292.40	1208.30
292.61	1232.88
292.83	1218.54
293.04	1273.84
293.26	1294.32
293.47	1337.32
293.69	1226.73
293.90	1288.17
294.12	1282.03
294.33	1300.46
294.55	1226.73
294.76	1191.92
294.97	1312.75
295.19	1271.79
295.40	1327.08
295.62	1277.93
295.83	1241.07
296.05	1271.79
296.26	1226.73
296.48	1230.83
296.69	1247.21
296.90	1279.98
297.12	1347.56
297.33	1261.55
297.55	1216.49
297.76	1282.03
297.98	1282.03
298.19	1284.08
298.41	1200.11
298.62	1236.97
298.83	1255.40
299.05	1247.21
299.26	1220.59
299.48	1249.26
299.69	1230.83
299.90	1243.12
300.12	1226.73
300.33	1300.46
300.55	1218.54
300.76	1243.12
300.98	1279.98
301.19	1265.64
301.40	1208.30
301.62	1329.13
301.83	1247.21
302.05	1226.73
302.26	1265.64
302.47	1220.59
302.69	1228.78
302.90	1189.87
303.12	1318.89
303.33	1255.40
303.54	1296.36
303.76	1331.18
303.97	1318.89
304.19	1284.08
304.40	1288.17
304.61	1255.40
304.83	1300.46
305.04	1325.04
305.26	1288.17
305.47	1308.65
305.68	1304.56
305.90	1294.32
306.11	1265.64
306.33	1234.93
306.54	1290.22
306.75	1267.69
306.97	1236.97
307.18	1312.75
307.39	1304.56
307.61	1261.55
307.82	1253.36
308.04	1304.56
308.25	1275.88
308.46	1251.31
308.68	1296.36
308.89	1298.41
309.10	1312.75
309.32	1322.99
309.53	1304.56
309.74	1259.50
309.96	1249.26
310.17	1294.32
310.39	1290.22
310.60	1249.26
310.81	1245.16
311.03	1204.21
311.24	1279.98
311.45	1216.49
311.67	1296.36
311.88	1286.12
312.09	1275.88
312.31	1320.94
312.52	1271.79
312.73	1267.69
312.95	1245.16
313.16	1255.40
313.37	1236.97
313.59	1341.42
313.80	1312.75
314.01	1325.04
314.23	1245.16
314.44	1316.84
314.65	1288.17
314.87	1204.21
315.08	1236.97
315.29	1241.07
315.51	1320.94
315.72	1200.11
315.93	1230.83
316.15	1316.84
316.36	1265.64
316.57	1216.49
316.79	1261.55
317.00	1236.97
317.21	1220.59
317.43	1222.64
317.64	1284.08
317.85	1255.40
318.07	1255.40
318.28	1277.93
318.49	1269.74
318.70	1236.97
318.92	1265.64
319.13	1345.52
319.34	1273.84
319.56	1339.37
319.77	1322.99
319.98	1257.45
320.20	1288.17
320.41	1277.93
320.62	1255.40
320.83	1253.36
321.05	1267.69
321.26	1224.69
321.47	1206.25
321.69	1273.84
321.90	1202.16
322.11	1296.36
322.32	1290.22
322.54	1300.46
322.75	1343.47
322.96	1224.69
323.18	1234.93
323.39	1259.50
323.60	1255.40
323.81	1269.74
324.03	1222.64
324.24	1296.36
324.45	1341.42
324.66	1282.03
324.88	1269.74
325.09	1259.50
325.30	1290.22
325.52	1220.59
325.73	1325.04
325.94	1310.70
326.15	1282.03
326.37	1257.45
326.58	1277.93
326.79	1271.79
327.00	1255.40
327.22	1282.03
327.43	1353.71
327.64	1284.08
327.85	1292.27
328.07	1265.64
328.28	1325.04
328.49	1265.64
328.70	1302.51
328.92	1226.73
329.13	1257.45
329.34	1279.98
329.55	1261.55
329.76	1378.28
329.98	1261.55
330.19	1247.21
330.40	1288.17
330.61	1298.41
330.83	1331.18
331.04	1214.45
331.25	1236.97
331.46	1236.97
331.68	1304.56
331.89	1302.51
332.10	1200.11
332.31	1300.46
332.52	1269.74
332.74	1249.26
332.95	1247.21
333.16	1243.12
333.37	1239.02
333.58	1282.03
333.80	1304.56
334.01	1284.08
334.22	1298.41
334.43	1183.73
334.64	1267.69
334.86	1296.36
335.07	1310.70
335.28	1253.36
335.49	1284.08
335.70	1290.22
335.92	1331.18
336.13	1310.70
336.34	1325.04
336.55	1257.45
336.76	1232.88
336.98	1243.12
337.19	1314.80
337.40	1265.64
337.61	1259.50
337.82	1296.36
338.04	1277.93
338.25	1263.60
338.46	1304.56
338.67	1298.41
338.88	1255.40
339.09	1259.50
339.31	1177.58
339.52	1202.16
339.73	1302.51
339.94	1286.12
340.15	1267.69
340.36	1331.18
340.58	1232.88
340.79	1273.84
341.00	1290.22
341.21	1288.17
341.42	1183.73
341.63	1198.06
341.85	1208.30
342.06	1259.50
342.27	1220.59
342.48	1378.28
342.69	1196.01
342.90	1222.64
343.12	1298.41
343.33	1298.41
343.54	1245.16
343.75	1261.55
343.96	1273.84
344.17	1273.84
344.38	1294.32
344.60	1277.93
344.81	1216.49
345.02	1228.78
345.23	1300.46
345.44	1267.69
345.65	1304.56
345.86	1284.08
346.07	1318.89
346.29	1269.74
346.50	1277.93
346.71	1206.25
346.92	1265.64
347.13	1282.03
347.34	1265.64
347.55	1337.32
347.76	1353.71
347.98	1214.45
348.19	1275.88
348.40	1300.46
348.61	1277.93
348.82	1257.45
349.03	1239.02
349.24	1279.98
349.45	1251.31
349.66	1239.02
349.88	1222.64
350.09	1331.18
350.30	1249.26
350.51	1265.64
350.72	1273.84
350.93	1193.97
351.14	1216.49
351.35	1302.51
351.56	1318.89
351.77	1273.84
351.99	1261.55
352.20	1312.75
352.41	1279.98
352.62	1343.47
352.83	1312.75
353.04	1251.31
353.25	1288.17
353.46	1239.02
353.67	1337.32
353.88	1249.26
354.09	1312.75
354.30	1177.58
354.52	1277.93
354.73	1263.60
354.94	1306.60
355.15	1265.64
355.36	1177.58
355.57	1261.55
355.78	1249.26
355.99	1239.02
356.20	1239.02
356.41	1310.70
356.62	1251.31
356.83	1214.45
357.04	1310.70
357.25	1269.74
357.46	1271.79
357.68	1228.78
357.89	1232.88
358.10	1279.98
358.31	1273.84
358.52	1224.69
358.73	1284.08
358.94	1282.03
359.15	1236.97
359.36	1251.31
359.57	1302.51
359.78	1286.12
359.99	1222.64
360.20	1257.45
360.41	1265.64
360.62	1304.56
360.83	1245.16
361.04	1286.12
361.25	1257.45
361.46	1363.95
361.67	1232.88
361.88	1257.45
362.09	1245.16
362.30	1288.17
362.51	1265.64
362.72	1228.78
362.93	1275.88
363.14	1294.32
363.35	1308.65
363.56	1279.98
363.78	1320.94
363.99	1288.17
364.20	1259.50
364.41	1288.17
364.62	1196.01
364.83	1220.59
365.04	1325.04
365.25	1224.69
365.46	1214.45
365.67	1288.17
365.88	1239.02
366.09	1329.13
366.30	1271.79
366.51	1220.59
366.72	1257.45
366.93	1230.83
367.14	1224.69
367.35	1325.04
367.56	1304.56
367.77	1349.61
367.98	1206.25
368.18	1279.98
368.39	1322.99
368.60	1331.18
368.81	1269.74
369.02	1282.03
369.23	1140.72
369.44	1234.93
369.65	1275.88
369.86	1298.41
370.07	1269.74
370.28	1191.92
370.49	1263.60
370.70	1255.40
370.91	1325.04
371.12	1251.31
371.33	1236.97
371.54	1241.07
371.75	1228.78
371.96	1296.36
372.17	1245.16
372.38	1294.32
372.59	1265.64
372.80	1245.16
373.01	1314.80
373.22	1298.41
373.43	1214.45
373.64	1269.74
373.85	1249.26
374.06	1275.88
374.26	1228.78
374.47	1318.89
374.68	1298.41
374.89	1314.80
375.10	1265.64
375.31	1288.17
375.52	1204.21
375.73	1300.46
375.94	1265.64
376.15	1265.64
376.36	1271.79
376.57	1290.22
376.78	1224.69
376.99	1210.35
377.20	1312.75
377.40	1230.83
377.61	1253.36
377.82	1175.53
378.03	1255.40
378.24	1302.51
378.45	1253.36
378.66	1339.37
378.87	1253.36
379.08	1241.07
379.29	1329.13
379.50	1273.84
379.71	1267.69
379.91	1310.70
380.12	1216.49
380.33	1292.27
380.54	1230.83
380.75	1257.45
380.96	1267.69
381.17	1259.50
381.38	1249.26
381.59	1298.41
381.80	1273.84
382.00	1249.26
382.21	1316.84
382.42	1292.27
382.63	1265.64
382.84	1275.88
383.05	1302.51
383.26	1335.28
383.47	1277.93
383.68	1202.16
383.88	1255.40
384.09	1275.88
384.30	1333.23
384.51	1322.99
384.72	1259.50
384.93	1284.08
385.14	1241.07
385.35	1292.27
385.55	1269.74
385.76	1296.36
385.97	1241.07
386.18	1306.60
386.39	1257.45
386.60	1259.50
386.81	1247.21
387.02	1282.03
387.22	1312.75
387.43	1230.83
387.64	1292.27
387.85	1378.28
388.06	1251.31
388.27	1294.32
388.48	1286.12
388.68	1322.99
388.89	1368.04
389.10	1255.40
389.31	1216.49
389.52	1220.59
389.73	1187.82
389.93	1279.98
390.14	1247.21
390.35	1271.79
390.56	1294.32
390.77	1208.30
390.98	1282.03
391.18	1249.26
391.39	1329.13
391.60	1212.40
391.81	1282.03
392.02	1234.93
392.23	1286.12
392.43	1296.36
392.64	1357.80
392.85	1251.31
393.06	1257.45
393.27	1286.12
393.47	1267.69
393.68	1320.94
393.89	1224.69
394.10	1247.21
394.31	1320.94
394.52	1279.98
394.72	1224.69
394.93	1345.52
395.14	1314.80
395.35	1288.17
395.56	1267.69
395.76	1265.64
395.97	1314.80
396.18	1251.31
396.39	1251.31
396.60	1288.17
396.80	1273.84
397.01	1318.89
397.22	1331.18
397.43	1241.07
397.64	1308.65
397.84	1243.12
398.05	1279.98
398.26	1234.93
398.47	1269.74
398.67	1310.70
398.88	1339.37
399.09	1255.40
399.30	1239.02
399.51	1214.45
399.71	1320.94
399.92	1271.79
400.13	1245.16
400.34	1251.31
400.54	1226.73
400.75	1228.78
400.96	1243.12
401.17	1329.13
401.37	1243.12
401.58	1279.98
401.79	1255.40
402.00	1224.69
402.21	1312.75
402.41	1275.88
402.62	1265.64
402.83	1234.93
403.04	1210.35
403.24	1353.71
403.45	1292.27
403.66	1300.46
403.87	1251.31
404.07	1179.63
404.28	1255.40
404.49	1253.36
404.70	1253.36
404.90	1273.84
405.11	1275.88
405.32	1279.98
405.52	1259.50
405.73	1253.36
405.94	1263.60
406.15	1253.36
406.35	1269.74
406.56	1312.75
406.77	1255.40
406.98	1304.56
407.18	1304.56
407.39	1290.22
407.60	1286.12
407.80	1175.53
408.01	1333.23
408.22	1257.45
408.43	1269.74
408.63	1241.07
408.84	1277.93
409.05	1267.69
409.25	1245.16
409.46	1296.36
409.67	1224.69
409.88	1230.83
410.08	1300.46
410.29	1284.08
410.50	1261.55
410.70	1245.16
410.91	1294.32
411.12	1302.51
411.32	1294.32
411.53	1220.59
411.74	1185.77
411.95	1300.46
412.15	1327.08
412.36	1206.25
412.57	1245.16
412.77	1214.45
412.98	1314.80
413.19	1259.50
413.39	1220.59
413.60	1273.84
413.81	1200.11
414.01	1263.60
414.22	1253.36
414.43	1288.17
414.63	1296.36
414.84	1306.60
415.05	1308.65
415.25	1222.64
415.46	1325.04
415.67	1216.49
415.87	1327.08
416.08	1265.64
416.29	1279.98
416.49	1296.36
416.70	1220.59
416.91	1245.16
417.11	1308.65
417.32	1282.03
417.53	1220.59
417.73	1312.75
417.94	1286.12
418.15	1312.75
418.35	1216.49
418.56	1226.73
418.77	1349.61
418.97	1277.93
419.18	1288.17
419.38	1204.21
419.59	1216.49
419.80	1298.41
420.00	1198.06
420.21	1290.22
420.42	1239.02
420.62	1277.93
420.83	1234.93
421.04	1271.79
421.24	1228.78
421.45	1257.45
421.65	1253.36
421.86	1224.69
422.07	1327.08
422.27	1288.17
422.48	1277.93
422.69	1263.60
422.89	1226.73
423.10	1259.50
423.30	1239.02
423.51	1253.36
423.72	1271.79
423.92	1243.12
424.13	1271.79
424.33	1329.13
424.54	1204.21
424.75	1292.27
424.95	1282.03
425.16	1318.89
425.36	1245.16
425.57	1290.22
425.78	1279.98
425.98	1265.64
426.19	1304.56
426.39	1204.21
426.60	1277.93
426.81	1288.17
427.01	1298.41
427.22	1306.60
427.42	1220.59
427.63	1255.40
427.83	1253.36
428.04	1228.78
428.25	1279.98
428.45	1277.93
428.66	1265.64
428.86	1304.56
429.07	1310.70
429.28	1241.07
429.48	1232.88
429.69	1241.07
429.89	1220.59
430.10	1269.74
430.30	1304.56
430.51	1275.88
430.71	1200.11
430.92	1247.21
431.13	1261.55
431.33	1335.28
431.54	1261.55
431.74	1296.36
431.95	1253.36
432.15	1286.12
432.36	1339.37
432.56	1304.56
432.77	1331.18
432.98	1292.27
433.18	1302.51
433.39	1267.69
433.59	1275.88
433.80	1286.12
434.00	1288.17
434.21	1210.35
434.41	1275.88
434.62	1241.07
434.82	1267.69
435.03	1245.16
435.23	1167.34
435.44	1327.08
435.64	1232.88
435.85	1247.21
436.06	1304.56
436.26	1239.02
436.47	1224.69
436.67	1206.25
436.88	1290.22
437.08	1245.16
437.29	1279.98
437.49	1271.79
437.70	1298.41
437.90	1290.22
438.11	1245.16
438.31	1247.21
438.52	1224.69
438.72	1234.93
438.93	1298.41
439.13	1241.07
439.34	1247.21
439.54	1288.17
439.75	1271.79
439.95	1234.93
440.16	1359.85
440.36	1327.08
440.57	1286.12
440.77	1263.60
440.98	1267.69
441.18	1265.64
441.39	1263.60
441.59	1239.02
441.80	1239.02
442.00	1308.65
442.21	1249.26
442.41	1257.45
442.62	1318.89
442.82	1273.84
443.02	1222.64
443.23	1282.03
443.43	1261.55
443.64	1288.17
443.84	1273.84
444.05	1279.98
444.25	1288.17
444.46	1267.69
444.66	1230.83
444.87	1341.42
445.07	1275.88
445.28	1288.17
445.48	1234.93
445.69	1314.80
445.89	1306.60
446.09	1335.28
446.30	1294.32
446.50	1267.69
446.71	1263.60
446.91	1325.04
447.12	1282.03
447.32	1220.59
447.53	1277.93
447.73	1253.36
447.93	1230.83
448.14	1310.70
448.34	1271.79
448.55	1298.41
448.75	1304.56
448.96	1273.84
449.16	1288.17
449.36	1230.83
449.57	1322.99
449.77	1224.69
449.98	1296.36
450.18	1232.88
450.39	1308.65
450.59	1271.79
450.79	1232.88
451.00	1253.36
451.20	1210.35
451.41	1282.03
451.61	1275.88
451.81	1265.64
452.02	1263.60
452.22	1200.11
452.43	1302.51
452.63	1253.36
