SpectraSuite Data File
++++++++++++++++++++++++++++++++++++
Date: Sun Apr 03 19:55:50 CEST 2016
User: root
Dark Spectrum Present: No
Reference Spectrum Present: No
Number of Sampled Component Spectra: 1
Spectrometers: USB4C02835
Integration Time (usec): 10000 (USB4C02835)
Spectra Averaged: 1 (USB4C02835)
Boxcar Smoothing: 0 (USB4C02835)
Correct for Electrical Dark: No (USB4C02835)
Strobe/Lamp Enabled: No (USB4C02835)
Correct for Detector Non-linearity: No (USB4C02835)
Correct for Stray Light: No (USB4C02835)
Number of Pixels in Processed Spectrum: 3648
>>>>>Begin Processed Spectral Data<<<<<
177.47	1226.73
177.69	1226.73
177.91	1226.73
178.13	1212.40
178.36	1234.93
178.58	1282.03
178.80	1263.60
179.02	1271.79
179.24	1271.79
179.46	1210.35
179.68	1259.50
179.90	1261.55
180.13	1243.12
180.35	1200.11
180.57	1253.36
180.79	1259.50
181.01	1312.75
181.23	1302.51
181.45	1198.06
181.67	1279.98
181.90	1288.17
182.12	1245.16
182.34	1290.22
182.56	1230.83
182.78	1357.80
183.00	1292.27
183.22	1374.19
183.44	1286.12
183.66	1265.64
183.89	1288.17
184.11	1265.64
184.33	1310.70
184.55	1230.83
184.77	1249.26
184.99	1253.36
185.21	1286.12
185.43	1261.55
185.65	1208.30
185.87	1308.65
186.10	1253.36
186.32	1314.80
186.54	1343.47
186.76	1261.55
186.98	1269.74
187.20	1265.64
187.42	1218.54
187.64	1353.71
187.86	1212.40
188.08	1298.41
188.30	1269.74
188.52	1277.93
188.75	1245.16
188.97	1277.93
189.19	1236.97
189.41	1271.79
189.63	1259.50
189.85	1351.66
190.07	1261.55
190.29	1220.59
190.51	1271.79
190.73	1267.69
190.95	1325.04
191.17	1302.51
191.39	1220.59
191.61	1279.98
191.84	1279.98
192.06	1251.31
192.28	1220.59
192.50	1279.98
192.72	1279.98
192.94	1259.50
193.16	1234.93
193.38	1214.45
193.60	1294.32
193.82	1226.73
194.04	1220.59
194.26	1204.21
194.48	1282.03
194.70	1265.64
194.92	1300.46
195.14	1230.83
195.36	1216.49
195.58	1265.64
195.80	1200.11
196.02	1224.69
196.24	1286.12
196.46	1320.94
196.69	1284.08
196.91	1318.89
197.13	1232.88
197.35	1255.40
197.57	1263.60
197.79	1282.03
198.01	1265.64
198.23	1296.36
198.45	1239.02
198.67	1230.83
198.89	1275.88
199.11	1298.41
199.33	1304.56
199.55	1228.78
199.77	1302.51
199.99	1312.75
200.21	1245.16
200.43	1282.03
200.65	1290.22
200.87	1267.69
201.09	1279.98
201.31	1218.54
201.53	1286.12
201.75	1308.65
201.97	1228.78
202.19	1273.84
202.41	1257.45
202.63	1212.40
202.85	1267.69
203.07	1257.45
203.29	1308.65
203.51	1349.61
203.73	1290.22
203.95	1275.88
204.17	1277.93
204.39	1239.02
204.61	1298.41
204.83	1271.79
205.05	1271.79
205.27	1245.16
205.49	1275.88
205.71	1222.64
205.93	1236.97
206.15	1320.94
206.37	1273.84
206.59	1216.49
206.81	1263.60
207.03	1218.54
207.25	1253.36
207.47	1331.18
207.69	1267.69
207.91	1292.27
208.13	1325.04
208.34	1298.41
208.56	1208.30
208.78	1314.80
209.00	1284.08
209.22	1200.11
209.44	1298.41
209.66	1239.02
209.88	1296.36
210.10	1245.16
210.32	1239.02
210.54	1275.88
210.76	1200.11
210.98	1273.84
211.20	1245.16
211.42	1239.02
211.64	1314.80
211.86	1241.07
212.08	1304.56
212.30	1335.28
212.52	1220.59
212.74	1325.04
212.96	1271.79
213.17	1271.79
213.39	1288.17
213.61	1322.99
213.83	1193.97
214.05	1271.79
214.27	1253.36
214.49	1265.64
214.71	1376.24
214.93	1273.84
215.15	1191.92
215.37	1232.88
215.59	1228.78
215.81	1239.02
216.03	1292.27
216.24	1314.80
216.46	1267.69
216.68	1251.31
216.90	1239.02
217.12	1306.60
217.34	1290.22
217.56	1279.98
217.78	1253.36
218.00	1282.03
218.22	1234.93
218.44	1214.45
218.66	1271.79
218.87	1214.45
219.09	1206.25
219.31	1286.12
219.53	1292.27
219.75	1239.02
219.97	1202.16
220.19	1232.88
220.41	1234.93
220.63	1234.93
220.85	1302.51
221.06	1363.95
221.28	1292.27
221.50	1230.83
221.72	1230.83
221.94	1241.07
222.16	1294.32
222.38	1267.69
222.60	1304.56
222.82	1355.76
223.03	1214.45
223.25	1376.24
223.47	1286.12
223.69	1282.03
223.91	1271.79
224.13	1298.41
224.35	1294.32
224.57	1232.88
224.78	1277.93
225.00	1314.80
225.22	1329.13
225.44	1245.16
225.66	1351.66
225.88	1316.84
226.10	1265.64
226.32	1236.97
226.53	1294.32
226.75	1245.16
226.97	1257.45
227.19	1320.94
227.41	1177.58
227.63	1253.36
227.85	1269.74
228.06	1265.64
228.28	1210.35
228.50	1273.84
228.72	1271.79
228.94	1220.59
229.16	1273.84
229.37	1265.64
229.59	1269.74
229.81	1318.89
230.03	1259.50
230.25	1355.76
230.47	1257.45
230.69	1312.75
230.90	1359.85
231.12	1257.45
231.34	1210.35
231.56	1271.79
231.78	1271.79
232.00	1279.98
232.21	1189.87
232.43	1318.89
232.65	1267.69
232.87	1290.22
233.09	1286.12
233.30	1261.55
233.52	1257.45
233.74	1269.74
233.96	1304.56
234.18	1271.79
234.40	1292.27
234.61	1351.66
234.83	1318.89
235.05	1249.26
235.27	1239.02
235.49	1273.84
235.70	1236.97
235.92	1243.12
236.14	1273.84
236.36	1185.77
236.58	1298.41
236.79	1249.26
237.01	1329.13
237.23	1218.54
237.45	1239.02
237.67	1294.32
237.88	1228.78
238.10	1247.21
238.32	1198.06
238.54	1187.82
238.76	1259.50
238.97	1259.50
239.19	1296.36
239.41	1288.17
239.63	1310.70
239.85	1263.60
240.06	1261.55
240.28	1228.78
240.50	1261.55
240.72	1253.36
240.93	1249.26
241.15	1292.27
241.37	1247.21
241.59	1294.32
241.81	1241.07
242.02	1273.84
242.24	1220.59
242.46	1308.65
242.68	1239.02
242.89	1273.84
243.11	1251.31
243.33	1251.31
243.55	1232.88
243.76	1255.40
243.98	1304.56
244.20	1263.60
244.42	1234.93
244.64	1310.70
244.85	1275.88
245.07	1318.89
245.29	1196.01
245.51	1249.26
245.72	1286.12
245.94	1372.14
246.16	1222.64
246.38	1249.26
246.59	1318.89
246.81	1267.69
247.03	1290.22
247.24	1208.30
247.46	1275.88
247.68	1265.64
247.90	1216.49
248.11	1241.07
248.33	1322.99
248.55	1282.03
248.77	1310.70
248.98	1298.41
249.20	1269.74
249.42	1253.36
249.64	1239.02
249.85	1279.98
250.07	1331.18
250.29	1302.51
250.50	1273.84
250.72	1239.02
250.94	1228.78
251.16	1343.47
251.37	1286.12
251.59	1314.80
251.81	1271.79
252.02	1243.12
252.24	1282.03
252.46	1361.90
252.68	1310.70
252.89	1275.88
253.11	1222.64
253.33	1259.50
253.54	1308.65
253.76	1247.21
253.98	1222.64
254.20	1230.83
254.41	1263.60
254.63	1294.32
254.85	1218.54
255.06	1329.13
255.28	1275.88
255.50	1304.56
255.71	1306.60
255.93	1304.56
256.15	1261.55
256.36	1314.80
256.58	1277.93
256.80	1273.84
257.02	1294.32
257.23	1300.46
257.45	1198.06
257.67	1273.84
257.88	1234.93
258.10	1290.22
258.32	1253.36
258.53	1304.56
258.75	1251.31
258.97	1269.74
259.18	1298.41
259.40	1290.22
259.62	1239.02
259.83	1314.80
260.05	1288.17
260.27	1265.64
260.48	1243.12
260.70	1265.64
260.92	1298.41
261.13	1273.84
261.35	1282.03
261.57	1290.22
261.78	1245.16
262.00	1341.42
262.22	1267.69
262.43	1286.12
262.65	1261.55
262.86	1251.31
263.08	1261.55
263.30	1269.74
263.51	1265.64
263.73	1288.17
263.95	1294.32
264.16	1255.40
264.38	1284.08
264.60	1282.03
264.81	1316.84
265.03	1282.03
265.25	1282.03
265.46	1263.60
265.68	1253.36
265.89	1325.04
266.11	1273.84
266.33	1286.12
266.54	1247.21
266.76	1224.69
266.98	1247.21
267.19	1265.64
267.41	1298.41
267.62	1292.27
267.84	1261.55
268.06	1216.49
268.27	1230.83
268.49	1245.16
268.70	1239.02
268.92	1320.94
269.14	1320.94
269.35	1296.36
269.57	1318.89
269.79	1282.03
270.00	1284.08
270.22	1296.36
270.43	1210.35
270.65	1220.59
270.87	1243.12
271.08	1210.35
271.30	1292.27
271.51	1271.79
271.73	1271.79
271.95	1310.70
272.16	1251.31
272.38	1277.93
272.59	1320.94
272.81	1298.41
273.02	1312.75
273.24	1224.69
273.46	1210.35
273.67	1261.55
273.89	1241.07
274.10	1304.56
274.32	1251.31
274.54	1257.45
274.75	1218.54
274.97	1273.84
275.18	1257.45
275.40	1230.83
275.61	1267.69
275.83	1275.88
276.05	1308.65
276.26	1314.80
276.48	1239.02
276.69	1316.84
276.91	1253.36
277.12	1263.60
277.34	1183.73
277.55	1312.75
277.77	1253.36
277.99	1267.69
278.20	1216.49
278.42	1304.56
278.63	1245.16
278.85	1193.97
279.06	1263.60
279.28	1277.93
279.49	1275.88
279.71	1241.07
279.93	1224.69
280.14	1318.89
280.36	1253.36
280.57	1261.55
280.79	1253.36
281.00	1251.31
281.22	1269.74
281.43	1247.21
281.65	1196.01
281.86	1241.07
282.08	1282.03
282.29	1259.50
282.51	1290.22
282.73	1292.27
282.94	1261.55
283.16	1263.60
283.37	1300.46
283.59	1282.03
283.80	1212.40
284.02	1257.45
284.23	1255.40
284.45	1261.55
284.66	1210.35
284.88	1300.46
285.09	1228.78
285.31	1269.74
285.52	1314.80
285.74	1304.56
285.95	1292.27
286.17	1271.79
286.38	1273.84
286.60	1218.54
286.81	1271.79
287.03	1202.16
287.24	1339.37
287.46	1279.98
287.67	1294.32
287.89	1204.21
288.10	1288.17
288.32	1232.88
288.53	1277.93
288.75	1210.35
288.96	1316.84
289.18	1333.23
289.39	1339.37
289.61	1282.03
289.82	1253.36
290.04	1271.79
290.25	1279.98
290.47	1224.69
290.68	1216.49
290.90	1288.17
291.11	1267.69
291.33	1300.46
291.54	1298.41
291.76	1263.60
291.97	1312.75
292.18	1284.08
292.40	1253.36
292.61	1210.35
292.83	1300.46
293.04	1245.16
293.26	1300.46
293.47	1298.41
293.69	1212.40
293.90	1257.45
294.12	1284.08
294.33	1271.79
294.55	1318.89
294.76	1296.36
294.97	1255.40
295.19	1261.55
295.40	1273.84
295.62	1257.45
295.83	1275.88
296.05	1271.79
296.26	1322.99
296.48	1241.07
296.69	1261.55
296.90	1345.52
297.12	1253.36
297.33	1273.84
297.55	1153.01
297.76	1290.22
297.98	1304.56
298.19	1224.69
298.41	1218.54
298.62	1331.18
298.83	1294.32
299.05	1257.45
299.26	1232.88
299.48	1255.40
299.69	1302.51
299.90	1267.69
300.12	1239.02
300.33	1347.56
300.55	1214.45
300.76	1290.22
300.98	1292.27
301.19	1216.49
301.40	1259.50
301.62	1275.88
301.83	1298.41
302.05	1286.12
302.26	1271.79
302.47	1314.80
302.69	1234.93
302.90	1279.98
303.12	1286.12
303.33	1286.12
303.54	1363.95
303.76	1265.64
303.97	1329.13
304.19	1249.26
304.40	1296.36
304.61	1322.99
304.83	1277.93
305.04	1304.56
305.26	1249.26
305.47	1343.47
305.68	1232.88
305.90	1298.41
306.11	1331.18
306.33	1241.07
306.54	1329.13
306.75	1341.42
306.97	1275.88
307.18	1257.45
307.39	1275.88
307.61	1243.12
307.82	1265.64
308.04	1232.88
308.25	1251.31
308.46	1357.80
308.68	1310.70
308.89	1279.98
309.10	1181.68
309.32	1222.64
309.53	1269.74
309.74	1236.97
309.96	1306.60
310.17	1282.03
310.39	1310.70
310.60	1247.21
310.81	1191.92
311.03	1273.84
311.24	1271.79
311.45	1232.88
311.67	1239.02
311.88	1327.08
312.09	1325.04
312.31	1234.93
312.52	1189.87
312.73	1335.28
312.95	1224.69
313.16	1271.79
313.37	1234.93
313.59	1312.75
313.80	1286.12
314.01	1277.93
314.23	1247.21
314.44	1210.35
314.65	1290.22
314.87	1234.93
315.08	1208.30
315.29	1210.35
315.51	1351.66
315.72	1241.07
315.93	1247.21
316.15	1273.84
316.36	1255.40
316.57	1318.89
316.79	1265.64
317.00	1222.64
317.21	1316.84
317.43	1236.97
317.64	1218.54
317.85	1214.45
318.07	1183.73
318.28	1341.42
318.49	1249.26
318.70	1316.84
318.92	1239.02
319.13	1277.93
319.34	1320.94
319.56	1212.40
319.77	1282.03
319.98	1298.41
320.20	1185.77
320.41	1339.37
320.62	1239.02
320.83	1224.69
321.05	1331.18
321.26	1282.03
321.47	1275.88
321.69	1292.27
321.90	1267.69
322.11	1271.79
322.32	1189.87
322.54	1282.03
322.75	1294.32
322.96	1277.93
323.18	1308.65
323.39	1267.69
323.60	1286.12
323.81	1179.63
324.03	1208.30
324.24	1294.32
324.45	1230.83
324.66	1300.46
324.88	1245.16
325.09	1251.31
325.30	1269.74
325.52	1241.07
325.73	1239.02
325.94	1339.37
326.15	1288.17
326.37	1302.51
326.58	1267.69
326.79	1279.98
327.00	1212.40
327.22	1306.60
327.43	1255.40
327.64	1269.74
327.85	1286.12
328.07	1312.75
328.28	1228.78
328.49	1284.08
328.70	1214.45
328.92	1249.26
329.13	1167.34
329.34	1329.13
329.55	1224.69
329.76	1261.55
329.98	1273.84
330.19	1247.21
330.40	1179.63
330.61	1249.26
330.83	1288.17
331.04	1296.36
331.25	1298.41
331.46	1282.03
331.68	1261.55
331.89	1279.98
332.10	1236.97
332.31	1316.84
332.52	1208.30
332.74	1310.70
332.95	1261.55
333.16	1255.40
333.37	1282.03
333.58	1271.79
333.80	1275.88
334.01	1241.07
334.22	1253.36
334.43	1247.21
334.64	1255.40
334.86	1314.80
335.07	1232.88
335.28	1273.84
335.49	1345.52
335.70	1243.12
335.92	1257.45
336.13	1310.70
336.34	1279.98
336.55	1300.46
336.76	1255.40
336.98	1232.88
337.19	1304.56
337.40	1279.98
337.61	1257.45
337.82	1290.22
338.04	1236.97
338.25	1239.02
338.46	1200.11
338.67	1292.27
338.88	1277.93
339.09	1222.64
339.31	1232.88
339.52	1263.60
339.73	1261.55
339.94	1245.16
340.15	1288.17
340.36	1261.55
340.58	1212.40
340.79	1198.06
341.00	1255.40
341.21	1191.92
341.42	1318.89
341.63	1306.60
341.85	1310.70
342.06	1212.40
342.27	1232.88
342.48	1290.22
342.69	1263.60
342.90	1361.90
343.12	1181.68
343.33	1259.50
343.54	1222.64
343.75	1320.94
343.96	1265.64
344.17	1284.08
344.38	1183.73
344.60	1163.25
344.81	1279.98
345.02	1296.36
345.23	1275.88
345.44	1277.93
345.65	1318.89
345.86	1308.65
346.07	1290.22
346.29	1288.17
346.50	1245.16
346.71	1253.36
346.92	1290.22
347.13	1265.64
347.34	1302.51
347.55	1232.88
347.76	1294.32
347.98	1263.60
348.19	1275.88
348.40	1308.65
348.61	1265.64
348.82	1308.65
349.03	1210.35
349.24	1300.46
349.45	1294.32
349.66	1298.41
349.88	1277.93
350.09	1353.71
350.30	1255.40
350.51	1255.40
350.72	1222.64
350.93	1245.16
351.14	1253.36
351.35	1179.63
351.56	1331.18
351.77	1271.79
351.99	1294.32
352.20	1261.55
352.41	1253.36
352.62	1206.25
352.83	1251.31
353.04	1228.78
353.25	1265.64
353.46	1288.17
353.67	1247.21
353.88	1284.08
354.09	1288.17
354.30	1200.11
354.52	1279.98
354.73	1253.36
354.94	1220.59
355.15	1304.56
355.36	1259.50
355.57	1249.26
355.78	1269.74
355.99	1271.79
356.20	1261.55
356.41	1216.49
356.62	1239.02
356.83	1224.69
357.04	1312.75
357.25	1263.60
357.46	1302.51
357.68	1241.07
357.89	1222.64
358.10	1277.93
358.31	1267.69
358.52	1286.12
358.73	1300.46
358.94	1312.75
359.15	1298.41
359.36	1271.79
359.57	1269.74
359.78	1294.32
359.99	1273.84
360.20	1236.97
360.41	1298.41
360.62	1290.22
360.83	1265.64
361.04	1277.93
361.25	1230.83
361.46	1257.45
361.67	1263.60
361.88	1353.71
362.09	1220.59
362.30	1249.26
362.51	1261.55
362.72	1267.69
362.93	1247.21
363.14	1261.55
363.35	1175.53
363.56	1206.25
363.78	1255.40
363.99	1288.17
364.20	1232.88
364.41	1224.69
364.62	1218.54
364.83	1300.46
365.04	1314.80
365.25	1247.21
365.46	1245.16
365.67	1290.22
365.88	1269.74
366.09	1279.98
366.30	1345.52
366.51	1320.94
366.72	1302.51
366.93	1218.54
367.14	1234.93
367.35	1265.64
367.56	1269.74
367.77	1234.93
367.98	1251.31
368.18	1247.21
368.39	1292.27
368.60	1232.88
368.81	1259.50
369.02	1269.74
369.23	1228.78
369.44	1386.47
369.65	1206.25
369.86	1208.30
370.07	1257.45
370.28	1322.99
370.49	1277.93
370.70	1234.93
370.91	1308.65
371.12	1193.97
371.33	1302.51
371.54	1290.22
371.75	1286.12
371.96	1343.47
372.17	1214.45
372.38	1273.84
372.59	1329.13
372.80	1245.16
373.01	1204.21
373.22	1224.69
373.43	1337.32
373.64	1222.64
373.85	1245.16
374.06	1249.26
374.26	1228.78
374.47	1249.26
374.68	1286.12
374.89	1228.78
375.10	1230.83
375.31	1304.56
375.52	1249.26
375.73	1249.26
375.94	1230.83
376.15	1247.21
376.36	1286.12
376.57	1216.49
376.78	1243.12
376.99	1318.89
377.20	1302.51
377.40	1306.60
377.61	1325.04
377.82	1265.64
378.03	1302.51
378.24	1210.35
378.45	1245.16
378.66	1239.02
378.87	1228.78
379.08	1259.50
379.29	1341.42
379.50	1232.88
379.71	1294.32
379.91	1314.80
380.12	1265.64
380.33	1249.26
380.54	1251.31
380.75	1247.21
380.96	1273.84
381.17	1290.22
381.38	1298.41
381.59	1218.54
381.80	1296.36
382.00	1245.16
382.21	1257.45
382.42	1243.12
382.63	1245.16
382.84	1257.45
383.05	1288.17
383.26	1333.23
383.47	1263.60
383.68	1290.22
383.88	1173.49
384.09	1257.45
384.30	1230.83
384.51	1261.55
384.72	1296.36
384.93	1230.83
385.14	1298.41
385.35	1339.37
385.55	1236.97
385.76	1304.56
385.97	1327.08
386.18	1302.51
386.39	1169.39
386.60	1224.69
386.81	1308.65
387.02	1253.36
387.22	1251.31
387.43	1308.65
387.64	1335.28
387.85	1292.27
388.06	1277.93
388.27	1232.88
388.48	1249.26
388.68	1337.32
388.89	1214.45
389.10	1288.17
389.31	1331.18
389.52	1282.03
389.73	1243.12
389.93	1308.65
390.14	1298.41
390.35	1273.84
390.56	1261.55
390.77	1245.16
390.98	1253.36
391.18	1232.88
391.39	1222.64
391.60	1265.64
391.81	1277.93
392.02	1282.03
392.23	1302.51
392.43	1284.08
392.64	1261.55
392.85	1189.87
393.06	1206.25
393.27	1181.68
393.47	1269.74
393.68	1292.27
393.89	1302.51
394.10	1290.22
394.31	1232.88
394.52	1308.65
394.72	1273.84
394.93	1333.23
395.14	1202.16
395.35	1306.60
395.56	1290.22
395.76	1228.78
395.97	1282.03
396.18	1198.06
396.39	1300.46
396.60	1292.27
396.80	1267.69
397.01	1228.78
397.22	1206.25
397.43	1214.45
397.64	1296.36
397.84	1247.21
398.05	1236.97
398.26	1318.89
398.47	1265.64
398.67	1265.64
398.88	1241.07
399.09	1302.51
399.30	1249.26
399.51	1312.75
399.71	1277.93
399.92	1253.36
400.13	1253.36
400.34	1257.45
400.54	1247.21
400.75	1204.21
400.96	1290.22
401.17	1296.36
401.37	1320.94
401.58	1198.06
401.79	1286.12
402.00	1296.36
402.21	1308.65
402.41	1314.80
402.62	1259.50
402.83	1339.37
403.04	1292.27
403.24	1245.16
403.45	1220.59
403.66	1253.36
403.87	1263.60
404.07	1257.45
404.28	1316.84
404.49	1249.26
404.70	1300.46
404.90	1300.46
405.11	1261.55
405.32	1257.45
405.52	1243.12
405.73	1259.50
405.94	1261.55
406.15	1273.84
406.35	1202.16
406.56	1263.60
406.77	1296.36
406.98	1306.60
407.18	1284.08
407.39	1282.03
407.60	1411.05
407.80	1306.60
408.01	1302.51
408.22	1261.55
408.43	1243.12
408.63	1204.21
408.84	1265.64
409.05	1263.60
409.25	1269.74
409.46	1290.22
409.67	1253.36
409.88	1273.84
410.08	1294.32
410.29	1296.36
410.50	1273.84
410.70	1224.69
410.91	1267.69
411.12	1318.89
411.32	1341.42
411.53	1310.70
411.74	1325.04
411.95	1275.88
412.15	1220.59
412.36	1210.35
412.57	1245.16
412.77	1275.88
412.98	1247.21
413.19	1255.40
413.39	1245.16
413.60	1257.45
413.81	1282.03
414.01	1249.26
414.22	1310.70
414.43	1218.54
414.63	1337.32
414.84	1296.36
415.05	1298.41
415.25	1282.03
415.46	1255.40
415.67	1245.16
415.87	1183.73
416.08	1269.74
416.29	1286.12
416.49	1234.93
416.70	1298.41
416.91	1259.50
417.11	1296.36
417.32	1265.64
417.53	1288.17
417.73	1267.69
417.94	1261.55
418.15	1208.30
418.35	1331.18
418.56	1249.26
418.77	1251.31
418.97	1220.59
419.18	1239.02
419.38	1282.03
419.59	1333.23
419.80	1226.73
420.00	1230.83
420.21	1259.50
420.42	1261.55
420.62	1249.26
420.83	1318.89
421.04	1210.35
421.24	1241.07
421.45	1320.94
421.65	1234.93
421.86	1269.74
422.07	1269.74
422.27	1273.84
422.48	1290.22
422.69	1312.75
422.89	1267.69
423.10	1296.36
423.30	1259.50
423.51	1236.97
423.72	1298.41
423.92	1357.80
424.13	1277.93
424.33	1214.45
424.54	1296.36
424.75	1222.64
424.95	1259.50
425.16	1251.31
425.36	1191.92
425.57	1294.32
425.78	1288.17
425.98	1271.79
426.19	1191.92
426.39	1247.21
426.60	1318.89
426.81	1257.45
427.01	1265.64
427.22	1277.93
427.42	1243.12
427.63	1302.51
427.83	1243.12
428.04	1306.60
428.25	1331.18
428.45	1292.27
428.66	1275.88
428.86	1257.45
429.07	1273.84
429.28	1259.50
429.48	1187.82
429.69	1306.60
429.89	1327.08
430.10	1255.40
430.30	1308.65
430.51	1239.02
430.71	1243.12
430.92	1279.98
431.13	1249.26
431.33	1263.60
431.54	1261.55
431.74	1271.79
431.95	1294.32
432.15	1296.36
432.36	1243.12
432.56	1282.03
432.77	1322.99
432.98	1247.21
433.18	1265.64
433.39	1290.22
433.59	1288.17
433.80	1273.84
434.00	1288.17
434.21	1267.69
434.41	1286.12
434.62	1257.45
434.82	1341.42
435.03	1208.30
435.23	1288.17
435.44	1306.60
435.64	1179.63
435.85	1351.66
436.06	1316.84
436.26	1347.56
436.47	1253.36
436.67	1282.03
436.88	1232.88
437.08	1298.41
437.29	1296.36
437.49	1232.88
437.70	1234.93
437.90	1230.83
438.11	1236.97
438.31	1347.56
438.52	1249.26
438.72	1232.88
438.93	1282.03
439.13	1359.85
439.34	1290.22
439.54	1333.23
439.75	1255.40
439.95	1263.60
440.16	1337.32
440.36	1279.98
440.57	1257.45
440.77	1257.45
440.98	1286.12
441.18	1255.40
441.39	1249.26
441.59	1329.13
441.80	1351.66
442.00	1232.88
442.21	1273.84
442.41	1220.59
442.62	1277.93
442.82	1257.45
443.02	1269.74
443.23	1288.17
443.43	1255.40
443.64	1318.89
443.84	1261.55
444.05	1218.54
444.25	1232.88
444.46	1304.56
444.66	1327.08
444.87	1277.93
445.07	1247.21
445.28	1253.36
445.48	1247.21
445.69	1228.78
445.89	1273.84
446.09	1193.97
446.30	1275.88
446.50	1220.59
446.71	1259.50
446.91	1239.02
447.12	1269.74
447.32	1204.21
447.53	1290.22
447.73	1298.41
447.93	1275.88
448.14	1220.59
448.34	1304.56
448.55	1273.84
448.75	1347.56
448.96	1288.17
449.16	1232.88
449.36	1265.64
449.57	1253.36
449.77	1292.27
449.98	1327.08
450.18	1288.17
450.39	1257.45
450.59	1290.22
450.79	1347.56
451.00	1236.97
451.20	1267.69
451.41	1261.55
451.61	1241.07
451.81	1286.12
452.02	1337.32
452.22	1249.26
452.43	1312.75
452.63	1247.21
