SpectraSuite Data File
++++++++++++++++++++++++++++++++++++
Date: Sun Apr 03 19:55:14 CEST 2016
User: root
Dark Spectrum Present: No
Reference Spectrum Present: No
Number of Sampled Component Spectra: 1
Spectrometers: USB4C02835
Integration Time (usec): 10000 (USB4C02835)
Spectra Averaged: 1 (USB4C02835)
Boxcar Smoothing: 0 (USB4C02835)
Correct for Electrical Dark: No (USB4C02835)
Strobe/Lamp Enabled: No (USB4C02835)
Correct for Detector Non-linearity: No (USB4C02835)
Correct for Stray Light: No (USB4C02835)
Number of Pixels in Processed Spectrum: 3648
>>>>>Begin Processed Spectral Data<<<<<
177.47	1236.97
177.69	1236.97
177.91	1236.97
178.13	1200.11
178.36	1189.87
178.58	1193.97
178.80	1386.47
179.02	1329.13
179.24	1306.60
179.46	1298.41
179.68	1355.76
179.90	1216.49
180.13	1265.64
180.35	1222.64
180.57	1210.35
180.79	1251.31
181.01	1187.82
181.23	1300.46
181.45	1226.73
181.67	1236.97
181.90	1282.03
182.12	1343.47
182.34	1263.60
182.56	1282.03
182.78	1230.83
183.00	1261.55
183.22	1222.64
183.44	1239.02
183.66	1255.40
183.89	1210.35
184.11	1310.70
184.33	1218.54
184.55	1296.36
184.77	1241.07
184.99	1277.93
185.21	1292.27
185.43	1247.21
185.65	1306.60
185.87	1318.89
186.10	1290.22
186.32	1271.79
186.54	1277.93
186.76	1214.45
186.98	1282.03
187.20	1298.41
187.42	1308.65
187.64	1216.49
187.86	1222.64
188.08	1290.22
188.30	1220.59
188.52	1179.63
188.75	1265.64
188.97	1304.56
189.19	1230.83
189.41	1304.56
189.63	1271.79
189.85	1200.11
190.07	1216.49
190.29	1134.57
190.51	1290.22
190.73	1245.16
190.95	1214.45
191.17	1253.36
191.39	1216.49
191.61	1273.84
191.84	1282.03
192.06	1288.17
192.28	1177.58
192.50	1267.69
192.72	1290.22
192.94	1298.41
193.16	1277.93
193.38	1241.07
193.60	1255.40
193.82	1290.22
194.04	1247.21
194.26	1306.60
194.48	1265.64
194.70	1191.92
194.92	1290.22
195.14	1302.51
195.36	1304.56
195.58	1320.94
195.80	1206.25
196.02	1271.79
196.24	1267.69
196.46	1261.55
196.69	1255.40
196.91	1273.84
197.13	1255.40
197.35	1173.49
197.57	1222.64
197.79	1257.45
198.01	1286.12
198.23	1267.69
198.45	1296.36
198.67	1271.79
198.89	1232.88
199.11	1314.80
199.33	1300.46
199.55	1269.74
199.77	1288.17
199.99	1318.89
200.21	1202.16
200.43	1239.02
200.65	1234.93
200.87	1265.64
201.09	1200.11
201.31	1257.45
201.53	1251.31
201.75	1239.02
201.97	1206.25
202.19	1335.28
202.41	1253.36
202.63	1308.65
202.85	1239.02
203.07	1251.31
203.29	1263.60
203.51	1304.56
203.73	1251.31
203.95	1335.28
204.17	1314.80
204.39	1257.45
204.61	1193.97
204.83	1234.93
205.05	1247.21
205.27	1277.93
205.49	1273.84
205.71	1300.46
205.93	1263.60
206.15	1298.41
206.37	1292.27
206.59	1220.59
206.81	1245.16
207.03	1255.40
207.25	1279.98
207.47	1284.08
207.69	1269.74
207.91	1277.93
208.13	1284.08
208.34	1202.16
208.56	1255.40
208.78	1314.80
209.00	1251.31
209.22	1224.69
209.44	1284.08
209.66	1284.08
209.88	1290.22
210.10	1239.02
210.32	1261.55
210.54	1222.64
210.76	1241.07
210.98	1288.17
211.20	1314.80
211.42	1308.65
211.64	1255.40
211.86	1304.56
212.08	1298.41
212.30	1277.93
212.52	1234.93
212.74	1302.51
212.96	1271.79
213.17	1312.75
213.39	1312.75
213.61	1296.36
213.83	1200.11
214.05	1247.21
214.27	1249.26
214.49	1312.75
214.71	1239.02
214.93	1265.64
215.15	1298.41
215.37	1251.31
215.59	1304.56
215.81	1212.40
216.03	1267.69
216.24	1230.83
216.46	1273.84
216.68	1275.88
216.90	1257.45
217.12	1265.64
217.34	1222.64
217.56	1241.07
217.78	1234.93
218.00	1288.17
218.22	1200.11
218.44	1306.60
218.66	1247.21
218.87	1271.79
219.09	1263.60
219.31	1325.04
219.53	1320.94
219.75	1249.26
219.97	1228.78
220.19	1271.79
220.41	1288.17
220.63	1273.84
220.85	1271.79
221.06	1341.42
221.28	1308.65
221.50	1298.41
221.72	1271.79
221.94	1265.64
222.16	1171.44
222.38	1320.94
222.60	1288.17
222.82	1308.65
223.03	1288.17
223.25	1282.03
223.47	1222.64
223.69	1318.89
223.91	1314.80
224.13	1282.03
224.35	1269.74
224.57	1265.64
224.78	1265.64
225.00	1273.84
225.22	1290.22
225.44	1298.41
225.66	1204.21
225.88	1261.55
226.10	1241.07
226.32	1273.84
226.53	1284.08
226.75	1279.98
226.97	1302.51
227.19	1290.22
227.41	1331.18
227.63	1230.83
227.85	1210.35
228.06	1243.12
228.28	1263.60
228.50	1314.80
228.72	1296.36
228.94	1335.28
229.16	1220.59
229.37	1251.31
229.59	1257.45
229.81	1208.30
230.03	1257.45
230.25	1277.93
230.47	1253.36
230.69	1257.45
230.90	1271.79
231.12	1243.12
231.34	1277.93
231.56	1304.56
231.78	1273.84
232.00	1239.02
232.21	1277.93
232.43	1279.98
232.65	1216.49
232.87	1232.88
233.09	1208.30
233.30	1249.26
233.52	1282.03
233.74	1314.80
233.96	1196.01
234.18	1249.26
234.40	1245.16
234.61	1290.22
234.83	1277.93
235.05	1232.88
235.27	1282.03
235.49	1267.69
235.70	1263.60
235.92	1245.16
236.14	1196.01
236.36	1286.12
236.58	1263.60
236.79	1243.12
237.01	1349.61
237.23	1282.03
237.45	1310.70
237.67	1150.96
237.88	1288.17
238.10	1263.60
238.32	1222.64
238.54	1234.93
238.76	1308.65
238.97	1183.73
239.19	1316.84
239.41	1343.47
239.63	1275.88
239.85	1292.27
240.06	1269.74
240.28	1345.52
240.50	1275.88
240.72	1386.47
240.93	1316.84
241.15	1290.22
241.37	1279.98
241.59	1325.04
241.81	1183.73
242.02	1236.97
242.24	1339.37
242.46	1257.45
242.68	1234.93
242.89	1294.32
243.11	1282.03
243.33	1279.98
243.55	1255.40
243.76	1241.07
243.98	1236.97
244.20	1282.03
244.42	1241.07
244.64	1337.32
244.85	1234.93
245.07	1314.80
245.29	1243.12
245.51	1239.02
245.72	1327.08
245.94	1259.50
246.16	1294.32
246.38	1163.25
246.59	1243.12
246.81	1320.94
247.03	1236.97
247.24	1310.70
247.46	1290.22
247.68	1265.64
247.90	1239.02
248.11	1370.09
248.33	1284.08
248.55	1300.46
248.77	1294.32
248.98	1296.36
249.20	1191.92
249.42	1222.64
249.64	1214.45
249.85	1312.75
250.07	1230.83
250.29	1249.26
250.50	1198.06
250.72	1275.88
250.94	1247.21
251.16	1212.40
251.37	1288.17
251.59	1279.98
251.81	1245.16
252.02	1355.76
252.24	1247.21
252.46	1345.52
252.68	1224.69
252.89	1294.32
253.11	1241.07
253.33	1290.22
253.54	1322.99
253.76	1232.88
253.98	1265.64
254.20	1310.70
254.41	1277.93
254.63	1247.21
254.85	1282.03
255.06	1286.12
255.28	1290.22
255.50	1253.36
255.71	1222.64
255.93	1294.32
256.15	1273.84
256.36	1259.50
256.58	1261.55
256.80	1275.88
257.02	1296.36
257.23	1247.21
257.45	1243.12
257.67	1269.74
257.88	1251.31
258.10	1353.71
258.32	1320.94
258.53	1210.35
258.75	1255.40
258.97	1302.51
259.18	1216.49
259.40	1286.12
259.62	1327.08
259.83	1198.06
260.05	1255.40
260.27	1269.74
260.48	1298.41
260.70	1224.69
260.92	1314.80
261.13	1267.69
261.35	1271.79
261.57	1282.03
261.78	1236.97
262.00	1222.64
262.22	1267.69
262.43	1279.98
262.65	1210.35
262.86	1224.69
263.08	1286.12
263.30	1279.98
263.51	1224.69
263.73	1222.64
263.95	1204.21
264.16	1329.13
264.38	1208.30
264.60	1296.36
264.81	1253.36
265.03	1259.50
265.25	1261.55
265.46	1236.97
265.68	1318.89
265.89	1306.60
266.11	1347.56
266.33	1302.51
266.54	1322.99
266.76	1257.45
266.98	1234.93
267.19	1341.42
267.41	1290.22
267.62	1239.02
267.84	1206.25
268.06	1304.56
268.27	1212.40
268.49	1343.47
268.70	1263.60
268.92	1282.03
269.14	1232.88
269.35	1314.80
269.57	1181.68
269.79	1271.79
270.00	1294.32
270.22	1263.60
270.43	1263.60
270.65	1271.79
270.87	1185.77
271.08	1232.88
271.30	1247.21
271.51	1212.40
271.73	1273.84
271.95	1226.73
272.16	1294.32
272.38	1241.07
272.59	1187.82
272.81	1284.08
273.02	1210.35
273.24	1302.51
273.46	1232.88
273.67	1279.98
273.89	1220.59
274.10	1265.64
274.32	1318.89
274.54	1320.94
274.75	1290.22
274.97	1294.32
275.18	1257.45
275.40	1304.56
275.61	1253.36
275.83	1255.40
276.05	1228.78
276.26	1255.40
276.48	1257.45
276.69	1318.89
276.91	1251.31
277.12	1212.40
277.34	1316.84
277.55	1337.32
277.77	1247.21
277.99	1290.22
278.20	1263.60
278.42	1265.64
278.63	1288.17
278.85	1249.26
279.06	1298.41
279.28	1325.04
279.49	1294.32
279.71	1279.98
279.93	1263.60
280.14	1239.02
280.36	1214.45
280.57	1304.56
280.79	1296.36
281.00	1218.54
281.22	1265.64
281.43	1282.03
281.65	1312.75
281.86	1316.84
282.08	1259.50
282.29	1269.74
282.51	1259.50
282.73	1261.55
282.94	1257.45
283.16	1384.43
283.37	1282.03
283.59	1273.84
283.80	1275.88
284.02	1310.70
284.23	1263.60
284.45	1306.60
284.66	1218.54
284.88	1269.74
285.09	1271.79
285.31	1263.60
285.52	1273.84
285.74	1304.56
285.95	1241.07
286.17	1265.64
286.38	1253.36
286.60	1239.02
286.81	1269.74
287.03	1306.60
287.24	1282.03
287.46	1230.83
287.67	1239.02
287.89	1343.47
288.10	1306.60
288.32	1316.84
288.53	1290.22
288.75	1275.88
288.96	1292.27
289.18	1257.45
289.39	1322.99
289.61	1261.55
289.82	1214.45
290.04	1347.56
290.25	1177.58
290.47	1271.79
290.68	1224.69
290.90	1247.21
291.11	1191.92
291.33	1265.64
291.54	1187.82
291.76	1257.45
291.97	1261.55
292.18	1247.21
292.40	1290.22
292.61	1243.12
292.83	1308.65
293.04	1269.74
293.26	1208.30
293.47	1236.97
293.69	1284.08
293.90	1263.60
294.12	1239.02
294.33	1263.60
294.55	1275.88
294.76	1310.70
294.97	1300.46
295.19	1200.11
295.40	1294.32
295.62	1294.32
295.83	1277.93
296.05	1216.49
296.26	1224.69
296.48	1279.98
296.69	1210.35
296.90	1239.02
297.12	1341.42
297.33	1249.26
297.55	1322.99
297.76	1370.09
297.98	1206.25
298.19	1349.61
298.41	1269.74
298.62	1320.94
298.83	1300.46
299.05	1273.84
299.26	1290.22
299.48	1261.55
299.69	1290.22
299.90	1271.79
300.12	1273.84
300.33	1298.41
300.55	1355.76
300.76	1222.64
300.98	1236.97
301.19	1249.26
301.40	1363.95
301.62	1296.36
301.83	1263.60
302.05	1282.03
302.26	1269.74
302.47	1232.88
302.69	1339.37
302.90	1267.69
303.12	1228.78
303.33	1230.83
303.54	1282.03
303.76	1294.32
303.97	1304.56
304.19	1253.36
304.40	1284.08
304.61	1269.74
304.83	1257.45
305.04	1251.31
305.26	1249.26
305.47	1322.99
305.68	1232.88
305.90	1282.03
306.11	1294.32
306.33	1253.36
306.54	1228.78
306.75	1308.65
306.97	1288.17
307.18	1232.88
307.39	1306.60
307.61	1316.84
307.82	1308.65
308.04	1322.99
308.25	1277.93
308.46	1310.70
308.68	1214.45
308.89	1327.08
309.10	1228.78
309.32	1259.50
309.53	1228.78
309.74	1282.03
309.96	1271.79
310.17	1234.93
310.39	1312.75
310.60	1259.50
310.81	1288.17
311.03	1218.54
311.24	1245.16
311.45	1339.37
311.67	1320.94
311.88	1226.73
312.09	1318.89
312.31	1249.26
312.52	1255.40
312.73	1228.78
312.95	1269.74
313.16	1218.54
313.37	1269.74
313.59	1247.21
313.80	1314.80
314.01	1361.90
314.23	1208.30
314.44	1239.02
314.65	1259.50
314.87	1249.26
315.08	1282.03
315.29	1288.17
315.51	1314.80
315.72	1271.79
315.93	1191.92
316.15	1308.65
316.36	1224.69
316.57	1310.70
316.79	1253.36
317.00	1261.55
317.21	1206.25
317.43	1269.74
317.64	1236.97
317.85	1253.36
318.07	1261.55
318.28	1292.27
318.49	1236.97
318.70	1226.73
318.92	1232.88
319.13	1234.93
319.34	1265.64
319.56	1234.93
319.77	1261.55
319.98	1243.12
320.20	1259.50
320.41	1249.26
320.62	1196.01
320.83	1243.12
321.05	1279.98
321.26	1329.13
321.47	1294.32
321.69	1241.07
321.90	1247.21
322.11	1247.21
322.32	1187.82
322.54	1257.45
322.75	1243.12
322.96	1288.17
323.18	1294.32
323.39	1236.97
323.60	1241.07
323.81	1263.60
324.03	1249.26
324.24	1247.21
324.45	1267.69
324.66	1275.88
324.88	1282.03
325.09	1347.56
325.30	1269.74
325.52	1265.64
325.73	1218.54
325.94	1282.03
326.15	1245.16
326.37	1314.80
326.58	1263.60
326.79	1239.02
327.00	1224.69
327.22	1261.55
327.43	1263.60
327.64	1214.45
327.85	1239.02
328.07	1320.94
328.28	1310.70
328.49	1263.60
328.70	1288.17
328.92	1304.56
329.13	1302.51
329.34	1232.88
329.55	1275.88
329.76	1239.02
329.98	1255.40
330.19	1277.93
330.40	1302.51
330.61	1255.40
330.83	1320.94
331.04	1337.32
331.25	1290.22
331.46	1271.79
331.68	1265.64
331.89	1200.11
332.10	1210.35
332.31	1236.97
332.52	1157.10
332.74	1236.97
332.95	1265.64
333.16	1255.40
333.37	1249.26
333.58	1286.12
333.80	1277.93
334.01	1277.93
334.22	1251.31
334.43	1230.83
334.64	1210.35
334.86	1273.84
335.07	1282.03
335.28	1189.87
335.49	1239.02
335.70	1263.60
335.92	1279.98
336.13	1271.79
336.34	1202.16
336.55	1277.93
336.76	1253.36
336.98	1245.16
337.19	1273.84
337.40	1241.07
337.61	1241.07
337.82	1241.07
338.04	1306.60
338.25	1277.93
338.46	1216.49
338.67	1271.79
338.88	1236.97
339.09	1241.07
339.31	1314.80
339.52	1308.65
339.73	1118.19
339.94	1302.51
340.15	1200.11
340.36	1247.21
340.58	1265.64
340.79	1228.78
341.00	1316.84
341.21	1259.50
341.42	1333.23
341.63	1263.60
341.85	1241.07
342.06	1282.03
342.27	1288.17
342.48	1304.56
342.69	1279.98
342.90	1353.71
343.12	1230.83
343.33	1370.09
343.54	1284.08
343.75	1259.50
343.96	1249.26
344.17	1304.56
344.38	1294.32
344.60	1261.55
344.81	1318.89
345.02	1275.88
345.23	1247.21
345.44	1249.26
345.65	1306.60
345.86	1298.41
346.07	1341.42
346.29	1273.84
346.50	1335.28
346.71	1212.40
346.92	1290.22
347.13	1275.88
347.34	1210.35
347.55	1294.32
347.76	1286.12
347.98	1284.08
348.19	1216.49
348.40	1298.41
348.61	1337.32
348.82	1288.17
349.03	1255.40
349.24	1243.12
349.45	1286.12
349.66	1269.74
349.88	1228.78
350.09	1259.50
350.30	1245.16
350.51	1253.36
350.72	1265.64
350.93	1273.84
351.14	1322.99
351.35	1269.74
351.56	1325.04
351.77	1322.99
351.99	1255.40
352.20	1200.11
352.41	1216.49
352.62	1208.30
352.83	1204.21
353.04	1314.80
353.25	1196.01
353.46	1331.18
353.67	1290.22
353.88	1187.82
354.09	1236.97
354.30	1273.84
354.52	1277.93
354.73	1241.07
354.94	1253.36
355.15	1271.79
355.36	1222.64
355.57	1234.93
355.78	1220.59
355.99	1316.84
356.20	1169.39
356.41	1312.75
356.62	1273.84
356.83	1275.88
357.04	1236.97
357.25	1335.28
357.46	1214.45
357.68	1247.21
357.89	1302.51
358.10	1241.07
358.31	1314.80
358.52	1216.49
358.73	1286.12
358.94	1253.36
359.15	1316.84
359.36	1312.75
359.57	1241.07
359.78	1239.02
359.99	1243.12
360.20	1290.22
360.41	1218.54
360.62	1249.26
360.83	1308.65
361.04	1275.88
361.25	1243.12
361.46	1310.70
361.67	1273.84
361.88	1257.45
362.09	1247.21
362.30	1224.69
362.51	1282.03
362.72	1216.49
362.93	1273.84
363.14	1241.07
363.35	1263.60
363.56	1206.25
363.78	1239.02
363.99	1187.82
364.20	1259.50
364.41	1320.94
364.62	1236.97
364.83	1224.69
365.04	1189.87
365.25	1347.56
365.46	1204.21
365.67	1257.45
365.88	1322.99
366.09	1259.50
366.30	1261.55
366.51	1316.84
366.72	1239.02
366.93	1191.92
367.14	1329.13
367.35	1345.52
367.56	1263.60
367.77	1277.93
367.98	1267.69
368.18	1275.88
368.39	1294.32
368.60	1288.17
368.81	1241.07
369.02	1271.79
369.23	1236.97
369.44	1357.80
369.65	1277.93
369.86	1386.47
370.07	1339.37
370.28	1302.51
370.49	1191.92
370.70	1265.64
370.91	1173.49
371.12	1314.80
371.33	1300.46
371.54	1234.93
371.75	1126.38
371.96	1236.97
372.17	1275.88
372.38	1206.25
372.59	1339.37
372.80	1249.26
373.01	1392.62
373.22	1236.97
373.43	1292.27
373.64	1239.02
373.85	1320.94
374.06	1290.22
374.26	1310.70
374.47	1171.44
374.68	1259.50
374.89	1200.11
375.10	1208.30
375.31	1249.26
375.52	1273.84
375.73	1351.66
375.94	1265.64
376.15	1325.04
376.36	1300.46
376.57	1320.94
376.78	1204.21
376.99	1284.08
377.20	1298.41
377.40	1306.60
377.61	1247.21
377.82	1290.22
378.03	1212.40
378.24	1187.82
378.45	1196.01
378.66	1296.36
378.87	1331.18
379.08	1267.69
379.29	1257.45
379.50	1279.98
379.71	1267.69
379.91	1214.45
380.12	1314.80
380.33	1265.64
380.54	1271.79
380.75	1249.26
380.96	1191.92
381.17	1206.25
381.38	1185.77
381.59	1193.97
381.80	1275.88
382.00	1284.08
382.21	1267.69
382.42	1292.27
382.63	1224.69
382.84	1257.45
383.05	1306.60
383.26	1306.60
383.47	1220.59
383.68	1273.84
383.88	1236.97
384.09	1241.07
384.30	1329.13
384.51	1286.12
384.72	1296.36
384.93	1249.26
385.14	1204.21
385.35	1271.79
385.55	1245.16
385.76	1282.03
385.97	1247.21
386.18	1200.11
386.39	1200.11
386.60	1261.55
386.81	1318.89
387.02	1306.60
387.22	1212.40
387.43	1224.69
387.64	1294.32
387.85	1253.36
388.06	1251.31
388.27	1257.45
388.48	1230.83
388.68	1232.88
388.89	1208.30
389.10	1200.11
389.31	1245.16
389.52	1255.40
389.73	1245.16
389.93	1292.27
390.14	1284.08
390.35	1284.08
390.56	1214.45
390.77	1351.66
390.98	1277.93
391.18	1341.42
391.39	1306.60
391.60	1368.04
391.81	1275.88
392.02	1212.40
392.23	1298.41
392.43	1335.28
392.64	1267.69
392.85	1241.07
393.06	1288.17
393.27	1224.69
393.47	1253.36
393.68	1271.79
393.89	1310.70
394.10	1218.54
394.31	1271.79
394.52	1261.55
394.72	1255.40
394.93	1290.22
395.14	1269.74
395.35	1259.50
395.56	1245.16
395.76	1273.84
395.97	1214.45
396.18	1282.03
396.39	1292.27
396.60	1341.42
396.80	1298.41
397.01	1263.60
397.22	1239.02
397.43	1269.74
397.64	1232.88
397.84	1273.84
398.05	1243.12
398.26	1314.80
398.47	1255.40
398.67	1243.12
398.88	1337.32
399.09	1202.16
399.30	1251.31
399.51	1249.26
399.71	1189.87
399.92	1265.64
400.13	1284.08
400.34	1282.03
400.54	1277.93
400.75	1241.07
400.96	1175.53
401.17	1331.18
401.37	1183.73
401.58	1247.21
401.79	1253.36
402.00	1255.40
402.21	1245.16
402.41	1239.02
402.62	1261.55
402.83	1318.89
403.04	1196.01
403.24	1251.31
403.45	1185.77
403.66	1288.17
403.87	1261.55
404.07	1292.27
404.28	1218.54
404.49	1257.45
404.70	1187.82
404.90	1267.69
405.11	1249.26
405.32	1183.73
405.52	1277.93
405.73	1271.79
405.94	1302.51
406.15	1210.35
406.35	1282.03
406.56	1296.36
406.77	1253.36
406.98	1247.21
407.18	1304.56
407.39	1349.61
407.60	1236.97
407.80	1232.88
408.01	1257.45
408.22	1243.12
408.43	1282.03
408.63	1286.12
408.84	1247.21
409.05	1234.93
409.25	1269.74
409.46	1224.69
409.67	1228.78
409.88	1271.79
410.08	1279.98
410.29	1265.64
410.50	1288.17
410.70	1331.18
410.91	1296.36
411.12	1294.32
411.32	1171.44
411.53	1247.21
411.74	1322.99
411.95	1263.60
412.15	1306.60
412.36	1245.16
412.57	1318.89
412.77	1259.50
412.98	1200.11
413.19	1271.79
413.39	1320.94
413.60	1241.07
413.81	1257.45
414.01	1306.60
414.22	1339.37
414.43	1253.36
414.63	1263.60
414.84	1292.27
415.05	1187.82
415.25	1329.13
415.46	1204.21
415.67	1251.31
415.87	1290.22
416.08	1261.55
416.29	1236.97
416.49	1292.27
416.70	1239.02
416.91	1306.60
417.11	1249.26
417.32	1294.32
417.53	1279.98
417.73	1261.55
417.94	1226.73
418.15	1259.50
418.35	1273.84
418.56	1232.88
418.77	1341.42
418.97	1312.75
419.18	1298.41
419.38	1261.55
419.59	1243.12
419.80	1230.83
420.00	1288.17
420.21	1265.64
420.42	1257.45
420.62	1282.03
420.83	1261.55
421.04	1249.26
421.24	1286.12
421.45	1335.28
421.65	1292.27
421.86	1239.02
422.07	1261.55
422.27	1294.32
422.48	1353.71
422.69	1282.03
422.89	1261.55
423.10	1191.92
423.30	1327.08
423.51	1251.31
423.72	1351.66
423.92	1243.12
424.13	1263.60
424.33	1267.69
424.54	1232.88
424.75	1191.92
424.95	1296.36
425.16	1255.40
425.36	1255.40
425.57	1206.25
425.78	1239.02
425.98	1261.55
426.19	1245.16
426.39	1337.32
426.60	1290.22
426.81	1275.88
427.01	1316.84
427.22	1304.56
427.42	1222.64
427.63	1273.84
427.83	1327.08
428.04	1306.60
428.25	1304.56
428.45	1277.93
428.66	1259.50
428.86	1284.08
429.07	1261.55
429.28	1300.46
429.48	1220.59
429.69	1318.89
429.89	1296.36
430.10	1220.59
430.30	1212.40
430.51	1269.74
430.71	1359.85
430.92	1226.73
431.13	1232.88
431.33	1243.12
431.54	1292.27
431.74	1257.45
431.95	1263.60
432.15	1243.12
432.36	1257.45
432.56	1292.27
432.77	1247.21
432.98	1292.27
433.18	1314.80
433.39	1304.56
433.59	1196.01
433.80	1243.12
434.00	1310.70
434.21	1212.40
434.41	1288.17
434.62	1331.18
434.82	1239.02
435.03	1310.70
435.23	1314.80
435.44	1236.97
435.64	1265.64
435.85	1249.26
436.06	1236.97
436.26	1271.79
436.47	1243.12
436.67	1314.80
436.88	1279.98
437.08	1230.83
437.29	1245.16
437.49	1218.54
437.70	1255.40
437.90	1269.74
438.11	1267.69
438.31	1253.36
438.52	1224.69
438.72	1288.17
438.93	1275.88
439.13	1286.12
439.34	1210.35
439.54	1277.93
439.75	1306.60
439.95	1249.26
440.16	1271.79
440.36	1294.32
440.57	1279.98
440.77	1351.66
440.98	1234.93
441.18	1286.12
441.39	1157.10
441.59	1327.08
441.80	1329.13
442.00	1247.21
442.21	1275.88
442.41	1220.59
442.62	1282.03
442.82	1273.84
443.02	1259.50
443.23	1294.32
443.43	1294.32
443.64	1204.21
443.84	1267.69
444.05	1265.64
444.25	1310.70
444.46	1271.79
444.66	1318.89
444.87	1214.45
445.07	1290.22
445.28	1273.84
445.48	1320.94
445.69	1261.55
445.89	1271.79
446.09	1345.52
446.30	1247.21
446.50	1277.93
446.71	1298.41
446.91	1292.27
447.12	1261.55
447.32	1239.02
447.53	1335.28
447.73	1275.88
447.93	1251.31
448.14	1331.18
448.34	1306.60
448.55	1329.13
448.75	1249.26
448.96	1294.32
449.16	1267.69
449.36	1277.93
449.57	1196.01
449.77	1247.21
449.98	1288.17
450.18	1230.83
450.39	1300.46
450.59	1298.41
450.79	1261.55
451.00	1288.17
451.20	1263.60
451.41	1363.95
451.61	1320.94
451.81	1314.80
452.02	1251.31
452.22	1222.64
452.43	1279.98
452.63	1279.98
