SpectraSuite Data File
++++++++++++++++++++++++++++++++++++
Date: Sun Apr 03 19:55:53 CEST 2016
User: root
Dark Spectrum Present: No
Reference Spectrum Present: No
Number of Sampled Component Spectra: 1
Spectrometers: USB4C02835
Integration Time (usec): 10000 (USB4C02835)
Spectra Averaged: 1 (USB4C02835)
Boxcar Smoothing: 0 (USB4C02835)
Correct for Electrical Dark: No (USB4C02835)
Strobe/Lamp Enabled: No (USB4C02835)
Correct for Detector Non-linearity: No (USB4C02835)
Correct for Stray Light: No (USB4C02835)
Number of Pixels in Processed Spectrum: 3648
>>>>>Begin Processed Spectral Data<<<<<
177.47	1228.78
177.69	1228.78
177.91	1228.78
178.13	1241.07
178.36	1269.74
178.58	1239.02
178.80	1228.78
179.02	1222.64
179.24	1292.27
179.46	1306.60
179.68	1271.79
179.90	1269.74
180.13	1320.94
180.35	1290.22
180.57	1310.70
180.79	1243.12
181.01	1286.12
181.23	1288.17
181.45	1318.89
181.67	1288.17
181.90	1263.60
182.12	1306.60
182.34	1275.88
182.56	1296.36
182.78	1196.01
183.00	1214.45
183.22	1347.56
183.44	1271.79
183.66	1269.74
183.89	1284.08
184.11	1241.07
184.33	1335.28
184.55	1302.51
184.77	1300.46
184.99	1271.79
185.21	1243.12
185.43	1273.84
185.65	1224.69
185.87	1263.60
186.10	1232.88
186.32	1275.88
186.54	1308.65
186.76	1269.74
186.98	1269.74
187.20	1355.76
187.42	1275.88
187.64	1269.74
187.86	1265.64
188.08	1220.59
188.30	1234.93
188.52	1290.22
188.75	1296.36
188.97	1314.80
189.19	1337.32
189.41	1241.07
189.63	1253.36
189.85	1257.45
190.07	1208.30
190.29	1255.40
190.51	1247.21
190.73	1234.93
190.95	1279.98
191.17	1329.13
191.39	1253.36
191.61	1314.80
191.84	1216.49
192.06	1255.40
192.28	1327.08
192.50	1261.55
192.72	1251.31
192.94	1286.12
193.16	1282.03
193.38	1279.98
193.60	1273.84
193.82	1243.12
194.04	1216.49
194.26	1220.59
194.48	1275.88
194.70	1345.52
194.92	1245.16
195.14	1226.73
195.36	1273.84
195.58	1224.69
195.80	1345.52
196.02	1200.11
196.24	1255.40
196.46	1339.37
196.69	1208.30
196.91	1329.13
197.13	1314.80
197.35	1304.56
197.57	1286.12
197.79	1198.06
198.01	1279.98
198.23	1273.84
198.45	1255.40
198.67	1239.02
198.89	1222.64
199.11	1261.55
199.33	1335.28
199.55	1320.94
199.77	1267.69
199.99	1275.88
200.21	1300.46
200.43	1245.16
200.65	1306.60
200.87	1288.17
201.09	1185.77
201.31	1249.26
201.53	1366.00
201.75	1337.32
201.97	1261.55
202.19	1257.45
202.41	1222.64
202.63	1265.64
202.85	1271.79
203.07	1263.60
203.29	1306.60
203.51	1257.45
203.73	1230.83
203.95	1282.03
204.17	1320.94
204.39	1189.87
204.61	1267.69
204.83	1322.99
205.05	1249.26
205.27	1275.88
205.49	1261.55
205.71	1249.26
205.93	1286.12
206.15	1257.45
206.37	1290.22
206.59	1345.52
206.81	1282.03
207.03	1222.64
207.25	1249.26
207.47	1257.45
207.69	1296.36
207.91	1257.45
208.13	1284.08
208.34	1296.36
208.56	1185.77
208.78	1265.64
209.00	1325.04
209.22	1249.26
209.44	1298.41
209.66	1288.17
209.88	1249.26
210.10	1232.88
210.32	1277.93
210.54	1302.51
210.76	1210.35
210.98	1253.36
211.20	1226.73
211.42	1247.21
211.64	1304.56
211.86	1296.36
212.08	1286.12
212.30	1245.16
212.52	1286.12
212.74	1304.56
212.96	1236.97
213.17	1257.45
213.39	1204.21
213.61	1284.08
213.83	1251.31
214.05	1265.64
214.27	1239.02
214.49	1222.64
214.71	1230.83
214.93	1226.73
215.15	1339.37
215.37	1327.08
215.59	1251.31
215.81	1325.04
216.03	1257.45
216.24	1265.64
216.46	1302.51
216.68	1347.56
216.90	1417.19
217.12	1314.80
217.34	1224.69
217.56	1286.12
217.78	1196.01
218.00	1273.84
218.22	1298.41
218.44	1279.98
218.66	1265.64
218.87	1251.31
219.09	1267.69
219.31	1310.70
219.53	1239.02
219.75	1337.32
219.97	1245.16
220.19	1247.21
220.41	1290.22
220.63	1263.60
220.85	1284.08
221.06	1292.27
221.28	1333.23
221.50	1216.49
221.72	1288.17
221.94	1245.16
222.16	1273.84
222.38	1302.51
222.60	1279.98
222.82	1308.65
223.03	1253.36
223.25	1257.45
223.47	1196.01
223.69	1329.13
223.91	1191.92
224.13	1228.78
224.35	1249.26
224.57	1228.78
224.78	1191.92
225.00	1325.04
225.22	1337.32
225.44	1298.41
225.66	1279.98
225.88	1222.64
226.10	1269.74
226.32	1279.98
226.53	1224.69
226.75	1251.31
226.97	1261.55
227.19	1271.79
227.41	1265.64
227.63	1298.41
227.85	1269.74
228.06	1245.16
228.28	1290.22
228.50	1316.84
228.72	1320.94
228.94	1214.45
229.16	1216.49
229.37	1249.26
229.59	1122.29
229.81	1257.45
230.03	1191.92
230.25	1200.11
230.47	1208.30
230.69	1241.07
230.90	1267.69
231.12	1320.94
231.34	1282.03
231.56	1273.84
231.78	1292.27
232.00	1288.17
232.21	1257.45
232.43	1294.32
232.65	1232.88
232.87	1265.64
233.09	1267.69
233.30	1294.32
233.52	1224.69
233.74	1236.97
233.96	1294.32
234.18	1265.64
234.40	1249.26
234.61	1273.84
234.83	1255.40
235.05	1230.83
235.27	1234.93
235.49	1292.27
235.70	1200.11
235.92	1255.40
236.14	1277.93
236.36	1261.55
236.58	1269.74
236.79	1284.08
237.01	1267.69
237.23	1228.78
237.45	1288.17
237.67	1251.31
237.88	1150.96
238.10	1243.12
238.32	1298.41
238.54	1308.65
238.76	1169.39
238.97	1249.26
239.19	1333.23
239.41	1306.60
239.63	1269.74
239.85	1292.27
240.06	1183.73
240.28	1286.12
240.50	1196.01
240.72	1329.13
240.93	1314.80
241.15	1232.88
241.37	1277.93
241.59	1310.70
241.81	1228.78
242.02	1306.60
242.24	1302.51
242.46	1175.53
242.68	1267.69
242.89	1239.02
243.11	1316.84
243.33	1322.99
243.55	1308.65
243.76	1259.50
243.98	1224.69
244.20	1302.51
244.42	1224.69
244.64	1312.75
244.85	1251.31
245.07	1279.98
245.29	1333.23
245.51	1273.84
245.72	1318.89
245.94	1261.55
246.16	1341.42
246.38	1273.84
246.59	1279.98
246.81	1200.11
247.03	1251.31
247.24	1239.02
247.46	1351.66
247.68	1286.12
247.90	1284.08
248.11	1284.08
248.33	1265.64
248.55	1290.22
248.77	1267.69
248.98	1245.16
249.20	1239.02
249.42	1302.51
249.64	1267.69
249.85	1234.93
250.07	1224.69
250.29	1259.50
250.50	1284.08
250.72	1230.83
250.94	1214.45
251.16	1226.73
251.37	1261.55
251.59	1292.27
251.81	1304.56
252.02	1304.56
252.24	1234.93
252.46	1306.60
252.68	1257.45
252.89	1277.93
253.11	1294.32
253.33	1298.41
253.54	1263.60
253.76	1294.32
253.98	1251.31
254.20	1320.94
254.41	1290.22
254.63	1249.26
254.85	1193.97
255.06	1325.04
255.28	1282.03
255.50	1267.69
255.71	1249.26
255.93	1277.93
256.15	1265.64
256.36	1216.49
256.58	1306.60
256.80	1269.74
257.02	1257.45
257.23	1255.40
257.45	1273.84
257.67	1288.17
257.88	1216.49
258.10	1210.35
258.32	1253.36
258.53	1271.79
258.75	1306.60
258.97	1236.97
259.18	1222.64
259.40	1304.56
259.62	1288.17
259.83	1312.75
260.05	1306.60
260.27	1290.22
260.48	1286.12
260.70	1320.94
260.92	1286.12
261.13	1294.32
261.35	1261.55
261.57	1282.03
261.78	1265.64
262.00	1269.74
262.22	1202.16
262.43	1306.60
262.65	1306.60
262.86	1312.75
263.08	1282.03
263.30	1245.16
263.51	1208.30
263.73	1320.94
263.95	1255.40
264.16	1290.22
264.38	1241.07
264.60	1239.02
264.81	1271.79
265.03	1306.60
265.25	1279.98
265.46	1261.55
265.68	1302.51
265.89	1296.36
266.11	1265.64
266.33	1329.13
266.54	1220.59
266.76	1343.47
266.98	1214.45
267.19	1171.44
267.41	1294.32
267.62	1302.51
267.84	1249.26
268.06	1185.77
268.27	1282.03
268.49	1236.97
268.70	1314.80
268.92	1294.32
269.14	1253.36
269.35	1220.59
269.57	1296.36
269.79	1290.22
270.00	1249.26
270.22	1230.83
270.43	1267.69
270.65	1241.07
270.87	1193.97
271.08	1294.32
271.30	1222.64
271.51	1241.07
271.73	1273.84
271.95	1329.13
272.16	1255.40
272.38	1312.75
272.59	1224.69
272.81	1234.93
273.02	1300.46
273.24	1363.95
273.46	1320.94
273.67	1177.58
273.89	1243.12
274.10	1234.93
274.32	1224.69
274.54	1327.08
274.75	1269.74
274.97	1329.13
275.18	1232.88
275.40	1279.98
275.61	1216.49
275.83	1325.04
276.05	1288.17
276.26	1257.45
276.48	1298.41
276.69	1294.32
276.91	1259.50
277.12	1316.84
277.34	1257.45
277.55	1284.08
277.77	1267.69
277.99	1327.08
278.20	1282.03
278.42	1261.55
278.63	1261.55
278.85	1273.84
279.06	1198.06
279.28	1341.42
279.49	1302.51
279.71	1271.79
279.93	1206.25
280.14	1249.26
280.36	1204.21
280.57	1257.45
280.79	1226.73
281.00	1279.98
281.22	1286.12
281.43	1232.88
281.65	1247.21
281.86	1273.84
282.08	1259.50
282.29	1290.22
282.51	1298.41
282.73	1273.84
282.94	1286.12
283.16	1298.41
283.37	1210.35
283.59	1337.32
283.80	1331.18
284.02	1300.46
284.23	1208.30
284.45	1257.45
284.66	1218.54
284.88	1257.45
285.09	1208.30
285.31	1212.40
285.52	1269.74
285.74	1286.12
285.95	1232.88
286.17	1286.12
286.38	1308.65
286.60	1273.84
286.81	1316.84
287.03	1230.83
287.24	1312.75
287.46	1181.68
287.67	1259.50
287.89	1314.80
288.10	1212.40
288.32	1234.93
288.53	1327.08
288.75	1263.60
288.96	1218.54
289.18	1314.80
289.39	1286.12
289.61	1337.32
289.82	1273.84
290.04	1282.03
290.25	1253.36
290.47	1243.12
290.68	1267.69
290.90	1251.31
291.11	1275.88
291.33	1294.32
291.54	1279.98
291.76	1253.36
291.97	1304.56
292.18	1306.60
292.40	1222.64
292.61	1296.36
292.83	1251.31
293.04	1333.23
293.26	1255.40
293.47	1296.36
293.69	1257.45
293.90	1333.23
294.12	1245.16
294.33	1279.98
294.55	1255.40
294.76	1259.50
294.97	1265.64
295.19	1353.71
295.40	1257.45
295.62	1239.02
295.83	1277.93
296.05	1306.60
296.26	1230.83
296.48	1255.40
296.69	1228.78
296.90	1239.02
297.12	1329.13
297.33	1226.73
297.55	1284.08
297.76	1298.41
297.98	1322.99
298.19	1347.56
298.41	1296.36
298.62	1273.84
298.83	1249.26
299.05	1376.24
299.26	1275.88
299.48	1265.64
299.69	1273.84
299.90	1185.77
300.12	1290.22
300.33	1255.40
300.55	1241.07
300.76	1282.03
300.98	1255.40
301.19	1261.55
301.40	1259.50
301.62	1302.51
301.83	1261.55
302.05	1228.78
302.26	1265.64
302.47	1282.03
302.69	1265.64
302.90	1271.79
303.12	1247.21
303.33	1265.64
303.54	1300.46
303.76	1279.98
303.97	1263.60
304.19	1263.60
304.40	1300.46
304.61	1284.08
304.83	1247.21
305.04	1277.93
305.26	1296.36
305.47	1277.93
305.68	1198.06
305.90	1314.80
306.11	1286.12
306.33	1241.07
306.54	1335.28
306.75	1275.88
306.97	1273.84
307.18	1322.99
307.39	1247.21
307.61	1288.17
307.82	1353.71
308.04	1284.08
308.25	1253.36
308.46	1306.60
308.68	1236.97
308.89	1253.36
309.10	1351.66
309.32	1275.88
309.53	1292.27
309.74	1306.60
309.96	1239.02
310.17	1220.59
310.39	1204.21
310.60	1288.17
310.81	1265.64
311.03	1249.26
311.24	1257.45
311.45	1296.36
311.67	1263.60
311.88	1255.40
312.09	1245.16
312.31	1226.73
312.52	1232.88
312.73	1269.74
312.95	1300.46
313.16	1300.46
313.37	1265.64
313.59	1339.37
313.80	1292.27
314.01	1282.03
314.23	1239.02
314.44	1271.79
314.65	1296.36
314.87	1263.60
315.08	1353.71
315.29	1271.79
315.51	1263.60
315.72	1247.21
315.93	1255.40
316.15	1232.88
316.36	1277.93
316.57	1304.56
316.79	1243.12
317.00	1228.78
317.21	1191.92
317.43	1253.36
317.64	1226.73
317.85	1236.97
318.07	1239.02
318.28	1320.94
318.49	1269.74
318.70	1279.98
318.92	1286.12
319.13	1335.28
319.34	1282.03
319.56	1269.74
319.77	1318.89
319.98	1282.03
320.20	1261.55
320.41	1290.22
320.62	1230.83
320.83	1261.55
321.05	1294.32
321.26	1279.98
321.47	1310.70
321.69	1269.74
321.90	1226.73
322.11	1316.84
322.32	1261.55
322.54	1282.03
322.75	1265.64
322.96	1304.56
323.18	1236.97
323.39	1333.23
323.60	1189.87
323.81	1302.51
324.03	1206.25
324.24	1277.93
324.45	1284.08
324.66	1228.78
324.88	1234.93
325.09	1288.17
325.30	1236.97
325.52	1298.41
325.73	1208.30
325.94	1357.80
326.15	1234.93
326.37	1259.50
326.58	1279.98
326.79	1347.56
327.00	1320.94
327.22	1259.50
327.43	1298.41
327.64	1226.73
327.85	1210.35
328.07	1271.79
328.28	1249.26
328.49	1222.64
328.70	1269.74
328.92	1273.84
329.13	1310.70
329.34	1228.78
329.55	1290.22
329.76	1253.36
329.98	1228.78
330.19	1329.13
330.40	1198.06
330.61	1232.88
330.83	1329.13
331.04	1368.04
331.25	1302.51
331.46	1243.12
331.68	1222.64
331.89	1318.89
332.10	1312.75
332.31	1249.26
332.52	1290.22
332.74	1308.65
332.95	1241.07
333.16	1206.25
333.37	1275.88
333.58	1224.69
333.80	1222.64
334.01	1337.32
334.22	1261.55
334.43	1249.26
334.64	1236.97
334.86	1236.97
335.07	1288.17
335.28	1322.99
335.49	1275.88
335.70	1302.51
335.92	1271.79
336.13	1310.70
336.34	1220.59
336.55	1318.89
336.76	1282.03
336.98	1251.31
337.19	1296.36
337.40	1320.94
337.61	1275.88
337.82	1302.51
338.04	1325.04
338.25	1269.74
338.46	1241.07
338.67	1241.07
338.88	1275.88
339.09	1314.80
339.31	1302.51
339.52	1208.30
339.73	1230.83
339.94	1322.99
340.15	1241.07
340.36	1230.83
340.58	1286.12
340.79	1189.87
341.00	1245.16
341.21	1325.04
341.42	1277.93
341.63	1294.32
341.85	1314.80
342.06	1255.40
342.27	1306.60
342.48	1263.60
342.69	1282.03
342.90	1212.40
343.12	1304.56
343.33	1271.79
343.54	1257.45
343.75	1247.21
343.96	1228.78
344.17	1331.18
344.38	1288.17
344.60	1308.65
344.81	1196.01
345.02	1312.75
345.23	1345.52
345.44	1255.40
345.65	1257.45
345.86	1259.50
346.07	1259.50
346.29	1300.46
346.50	1261.55
346.71	1243.12
346.92	1284.08
347.13	1261.55
347.34	1257.45
347.55	1239.02
347.76	1230.83
347.98	1249.26
348.19	1175.53
348.40	1271.79
348.61	1259.50
348.82	1345.52
349.03	1261.55
349.24	1216.49
349.45	1261.55
349.66	1310.70
349.88	1273.84
350.09	1193.97
350.30	1241.07
350.51	1253.36
350.72	1355.76
350.93	1239.02
351.14	1310.70
351.35	1236.97
351.56	1322.99
351.77	1253.36
351.99	1279.98
352.20	1255.40
352.41	1183.73
352.62	1265.64
352.83	1320.94
353.04	1257.45
353.25	1259.50
353.46	1384.43
353.67	1236.97
353.88	1224.69
354.09	1277.93
354.30	1345.52
354.52	1302.51
354.73	1257.45
354.94	1257.45
355.15	1282.03
355.36	1239.02
355.57	1196.01
355.78	1275.88
355.99	1179.63
356.20	1255.40
356.41	1306.60
356.62	1241.07
356.83	1339.37
357.04	1273.84
357.25	1288.17
357.46	1191.92
357.68	1298.41
357.89	1306.60
358.10	1269.74
358.31	1204.21
358.52	1282.03
358.73	1245.16
358.94	1230.83
359.15	1302.51
359.36	1247.21
359.57	1298.41
359.78	1257.45
359.99	1290.22
360.20	1216.49
360.41	1284.08
360.62	1265.64
360.83	1257.45
361.04	1236.97
361.25	1341.42
361.46	1267.69
361.67	1261.55
361.88	1310.70
362.09	1288.17
362.30	1228.78
362.51	1286.12
362.72	1275.88
362.93	1232.88
363.14	1236.97
363.35	1232.88
363.56	1226.73
363.78	1253.36
363.99	1320.94
364.20	1171.44
364.41	1185.77
364.62	1275.88
364.83	1263.60
365.04	1314.80
365.25	1310.70
365.46	1310.70
365.67	1286.12
365.88	1300.46
366.09	1200.11
366.30	1218.54
366.51	1265.64
366.72	1228.78
366.93	1204.21
367.14	1241.07
367.35	1318.89
367.56	1261.55
367.77	1234.93
367.98	1249.26
368.18	1286.12
368.39	1318.89
368.60	1273.84
368.81	1271.79
369.02	1286.12
369.23	1245.16
369.44	1374.19
369.65	1218.54
369.86	1316.84
370.07	1247.21
370.28	1282.03
370.49	1282.03
370.70	1316.84
370.91	1232.88
371.12	1255.40
371.33	1224.69
371.54	1230.83
371.75	1271.79
371.96	1150.96
372.17	1247.21
372.38	1243.12
372.59	1243.12
372.80	1175.53
373.01	1279.98
373.22	1234.93
373.43	1335.28
373.64	1292.27
373.85	1349.61
374.06	1294.32
374.26	1290.22
374.47	1284.08
374.68	1259.50
374.89	1353.71
375.10	1210.35
375.31	1331.18
375.52	1263.60
375.73	1253.36
375.94	1277.93
376.15	1224.69
376.36	1206.25
376.57	1343.47
376.78	1282.03
376.99	1249.26
377.20	1277.93
377.40	1263.60
377.61	1277.93
377.82	1304.56
378.03	1271.79
378.24	1292.27
378.45	1228.78
378.66	1290.22
378.87	1277.93
379.08	1257.45
379.29	1298.41
379.50	1236.97
379.71	1232.88
379.91	1247.21
380.12	1228.78
380.33	1331.18
380.54	1230.83
380.75	1245.16
380.96	1277.93
381.17	1251.31
381.38	1204.21
381.59	1251.31
381.80	1239.02
382.00	1202.16
382.21	1275.88
382.42	1261.55
382.63	1277.93
382.84	1279.98
383.05	1222.64
383.26	1239.02
383.47	1290.22
383.68	1230.83
383.88	1216.49
384.09	1314.80
384.30	1257.45
384.51	1204.21
384.72	1308.65
384.93	1253.36
385.14	1243.12
385.35	1236.97
385.55	1206.25
385.76	1241.07
385.97	1275.88
386.18	1259.50
386.39	1239.02
386.60	1273.84
386.81	1288.17
387.02	1306.60
387.22	1290.22
387.43	1230.83
387.64	1308.65
387.85	1216.49
388.06	1302.51
388.27	1314.80
388.48	1251.31
388.68	1296.36
388.89	1261.55
389.10	1286.12
389.31	1265.64
389.52	1325.04
389.73	1273.84
389.93	1290.22
390.14	1271.79
390.35	1306.60
390.56	1273.84
390.77	1245.16
390.98	1255.40
391.18	1226.73
391.39	1277.93
391.60	1251.31
391.81	1337.32
392.02	1300.46
392.23	1288.17
392.43	1253.36
392.64	1241.07
392.85	1259.50
393.06	1263.60
393.27	1279.98
393.47	1210.35
393.68	1273.84
393.89	1247.21
394.10	1255.40
394.31	1253.36
394.52	1298.41
394.72	1316.84
394.93	1251.31
395.14	1277.93
395.35	1298.41
395.56	1290.22
395.76	1198.06
395.97	1261.55
396.18	1273.84
396.39	1331.18
396.60	1222.64
396.80	1181.68
397.01	1277.93
397.22	1245.16
397.43	1292.27
397.64	1251.31
397.84	1286.12
398.05	1284.08
398.26	1261.55
398.47	1212.40
398.67	1353.71
398.88	1265.64
399.09	1279.98
399.30	1263.60
399.51	1230.83
399.71	1316.84
399.92	1286.12
400.13	1277.93
400.34	1310.70
400.54	1247.21
400.75	1306.60
400.96	1259.50
401.17	1333.23
401.37	1269.74
401.58	1304.56
401.79	1247.21
402.00	1292.27
402.21	1226.73
402.41	1290.22
402.62	1232.88
402.83	1253.36
403.04	1230.83
403.24	1257.45
403.45	1343.47
403.66	1202.16
403.87	1169.39
404.07	1302.51
404.28	1302.51
404.49	1331.18
404.70	1306.60
404.90	1245.16
405.11	1310.70
405.32	1251.31
405.52	1241.07
405.73	1216.49
405.94	1257.45
406.15	1271.79
406.35	1169.39
406.56	1302.51
406.77	1228.78
406.98	1263.60
407.18	1282.03
407.39	1335.28
407.60	1320.94
407.80	1273.84
408.01	1224.69
408.22	1265.64
408.43	1275.88
408.63	1347.56
408.84	1243.12
409.05	1185.77
409.25	1196.01
409.46	1286.12
409.67	1263.60
409.88	1296.36
410.08	1269.74
410.29	1290.22
410.50	1282.03
410.70	1271.79
410.91	1249.26
411.12	1273.84
411.32	1263.60
411.53	1282.03
411.74	1275.88
411.95	1247.21
412.15	1267.69
412.36	1279.98
412.57	1318.89
412.77	1282.03
412.98	1265.64
413.19	1259.50
413.39	1284.08
413.60	1288.17
413.81	1263.60
414.01	1230.83
414.22	1230.83
414.43	1214.45
414.63	1257.45
414.84	1279.98
415.05	1269.74
415.25	1378.28
415.46	1290.22
415.67	1232.88
415.87	1265.64
416.08	1282.03
416.29	1150.96
416.49	1212.40
416.70	1296.36
416.91	1243.12
417.11	1216.49
417.32	1296.36
417.53	1181.68
417.73	1286.12
417.94	1271.79
418.15	1314.80
418.35	1251.31
418.56	1259.50
418.77	1271.79
418.97	1318.89
419.18	1288.17
419.38	1294.32
419.59	1251.31
419.80	1218.54
420.00	1245.16
420.21	1208.30
420.42	1298.41
420.62	1300.46
420.83	1320.94
421.04	1263.60
421.24	1273.84
421.45	1239.02
421.65	1239.02
421.86	1265.64
422.07	1294.32
422.27	1218.54
422.48	1294.32
422.69	1226.73
422.89	1296.36
423.10	1249.26
423.30	1286.12
423.51	1216.49
423.72	1245.16
423.92	1257.45
424.13	1206.25
424.33	1322.99
424.54	1331.18
424.75	1261.55
424.95	1284.08
425.16	1300.46
425.36	1257.45
425.57	1185.77
425.78	1286.12
425.98	1249.26
426.19	1230.83
426.39	1193.97
426.60	1269.74
426.81	1275.88
427.01	1255.40
427.22	1249.26
427.42	1224.69
427.63	1239.02
427.83	1310.70
428.04	1279.98
428.25	1255.40
428.45	1288.17
428.66	1314.80
428.86	1257.45
429.07	1226.73
429.28	1331.18
429.48	1288.17
429.69	1265.64
429.89	1253.36
430.10	1245.16
430.30	1282.03
430.51	1255.40
430.71	1224.69
430.92	1329.13
431.13	1224.69
431.33	1208.30
431.54	1257.45
431.74	1261.55
431.95	1316.84
432.15	1312.75
432.36	1232.88
432.56	1263.60
432.77	1261.55
432.98	1304.56
433.18	1232.88
433.39	1296.36
433.59	1179.63
433.80	1263.60
434.00	1187.82
434.21	1239.02
434.41	1267.69
434.62	1314.80
434.82	1239.02
435.03	1294.32
435.23	1241.07
435.44	1378.28
435.64	1263.60
435.85	1245.16
436.06	1312.75
436.26	1253.36
436.47	1222.64
436.67	1257.45
436.88	1239.02
437.08	1335.28
437.29	1302.51
437.49	1286.12
437.70	1208.30
437.90	1294.32
438.11	1241.07
438.31	1224.69
438.52	1179.63
438.72	1226.73
438.93	1294.32
439.13	1300.46
439.34	1247.21
439.54	1353.71
439.75	1251.31
439.95	1273.84
440.16	1263.60
440.36	1222.64
440.57	1279.98
440.77	1241.07
440.98	1269.74
441.18	1284.08
441.39	1337.32
441.59	1206.25
441.80	1232.88
442.00	1261.55
442.21	1290.22
442.41	1257.45
442.62	1253.36
442.82	1257.45
443.02	1224.69
443.23	1243.12
443.43	1263.60
443.64	1234.93
443.84	1318.89
444.05	1224.69
444.25	1282.03
444.46	1226.73
444.66	1241.07
444.87	1304.56
445.07	1314.80
445.28	1277.93
445.48	1226.73
445.69	1329.13
445.89	1296.36
446.09	1329.13
446.30	1230.83
446.50	1279.98
446.71	1273.84
446.91	1337.32
447.12	1298.41
447.32	1312.75
447.53	1245.16
447.73	1267.69
447.93	1226.73
448.14	1222.64
448.34	1314.80
448.55	1314.80
448.75	1257.45
448.96	1306.60
449.16	1322.99
449.36	1202.16
449.57	1247.21
449.77	1263.60
449.98	1263.60
450.18	1269.74
450.39	1279.98
450.59	1339.37
450.79	1273.84
451.00	1271.79
451.20	1228.78
451.41	1318.89
451.61	1327.08
451.81	1294.32
452.02	1331.18
452.22	1206.25
452.43	1239.02
452.63	1273.84
