SpectraSuite Data File
++++++++++++++++++++++++++++++++++++
Date: Sun Apr 03 19:55:20 CEST 2016
User: root
Dark Spectrum Present: No
Reference Spectrum Present: No
Number of Sampled Component Spectra: 1
Spectrometers: USB4C02835
Integration Time (usec): 10000 (USB4C02835)
Spectra Averaged: 1 (USB4C02835)
Boxcar Smoothing: 0 (USB4C02835)
Correct for Electrical Dark: No (USB4C02835)
Strobe/Lamp Enabled: No (USB4C02835)
Correct for Detector Non-linearity: No (USB4C02835)
Correct for Stray Light: No (USB4C02835)
Number of Pixels in Processed Spectrum: 3648
>>>>>Begin Processed Spectral Data<<<<<
177.47	1279.98
177.69	1279.98
177.91	1279.98
178.13	1181.68
178.36	1202.16
178.58	1298.41
178.80	1300.46
179.02	1288.17
179.24	1239.02
179.46	1279.98
179.68	1253.36
179.90	1286.12
180.13	1271.79
180.35	1234.93
180.57	1257.45
180.79	1298.41
181.01	1292.27
181.23	1263.60
181.45	1257.45
181.67	1179.63
181.90	1271.79
182.12	1239.02
182.34	1247.21
182.56	1316.84
182.78	1208.30
183.00	1275.88
183.22	1239.02
183.44	1230.83
183.66	1247.21
183.89	1232.88
184.11	1290.22
184.33	1327.08
184.55	1204.21
184.77	1308.65
184.99	1329.13
185.21	1218.54
185.43	1335.28
185.65	1277.93
185.87	1304.56
186.10	1314.80
186.32	1257.45
186.54	1284.08
186.76	1290.22
186.98	1290.22
187.20	1253.36
187.42	1314.80
187.64	1185.77
187.86	1191.92
188.08	1255.40
188.30	1302.51
188.52	1239.02
188.75	1269.74
188.97	1267.69
189.19	1261.55
189.41	1173.49
189.63	1355.76
189.85	1265.64
190.07	1202.16
190.29	1241.07
190.51	1300.46
190.73	1269.74
190.95	1255.40
191.17	1347.56
191.39	1282.03
191.61	1265.64
191.84	1282.03
192.06	1277.93
192.28	1267.69
192.50	1284.08
192.72	1282.03
192.94	1271.79
193.16	1304.56
193.38	1282.03
193.60	1228.78
193.82	1241.07
194.04	1277.93
194.26	1245.16
194.48	1296.36
194.70	1247.21
194.92	1236.97
195.14	1290.22
195.36	1249.26
195.58	1249.26
195.80	1210.35
196.02	1263.60
196.24	1241.07
196.46	1271.79
196.69	1282.03
196.91	1294.32
197.13	1316.84
197.35	1255.40
197.57	1302.51
197.79	1261.55
198.01	1251.31
198.23	1271.79
198.45	1292.27
198.67	1255.40
198.89	1181.68
199.11	1282.03
199.33	1208.30
199.55	1308.65
199.77	1288.17
199.99	1265.64
200.21	1288.17
200.43	1251.31
200.65	1257.45
200.87	1282.03
201.09	1275.88
201.31	1265.64
201.53	1273.84
201.75	1292.27
201.97	1261.55
202.19	1273.84
202.41	1239.02
202.63	1239.02
202.85	1279.98
203.07	1335.28
203.29	1314.80
203.51	1253.36
203.73	1251.31
203.95	1298.41
204.17	1294.32
204.39	1273.84
204.61	1263.60
204.83	1148.91
205.05	1288.17
205.27	1318.89
205.49	1312.75
205.71	1230.83
205.93	1183.73
206.15	1263.60
206.37	1261.55
206.59	1249.26
206.81	1265.64
207.03	1322.99
207.25	1247.21
207.47	1300.46
207.69	1294.32
207.91	1341.42
208.13	1212.40
208.34	1370.09
208.56	1322.99
208.78	1253.36
209.00	1220.59
209.22	1265.64
209.44	1202.16
209.66	1255.40
209.88	1294.32
210.10	1269.74
210.32	1259.50
210.54	1220.59
210.76	1218.54
210.98	1253.36
211.20	1271.79
211.42	1259.50
211.64	1265.64
211.86	1247.21
212.08	1198.06
212.30	1277.93
212.52	1277.93
212.74	1249.26
212.96	1300.46
213.17	1296.36
213.39	1296.36
213.61	1273.84
213.83	1282.03
214.05	1241.07
214.27	1279.98
214.49	1277.93
214.71	1277.93
214.93	1214.45
215.15	1226.73
215.37	1320.94
215.59	1191.92
215.81	1228.78
216.03	1329.13
216.24	1269.74
216.46	1298.41
216.68	1290.22
216.90	1257.45
217.12	1294.32
217.34	1288.17
217.56	1218.54
217.78	1292.27
218.00	1206.25
218.22	1339.37
218.44	1271.79
218.66	1300.46
218.87	1265.64
219.09	1259.50
219.31	1259.50
219.53	1226.73
219.75	1216.49
219.97	1302.51
220.19	1230.83
220.41	1294.32
220.63	1282.03
220.85	1327.08
221.06	1269.74
221.28	1335.28
221.50	1273.84
221.72	1245.16
221.94	1236.97
222.16	1224.69
222.38	1282.03
222.60	1208.30
222.82	1218.54
223.03	1312.75
223.25	1282.03
223.47	1351.66
223.69	1368.04
223.91	1261.55
224.13	1320.94
224.35	1243.12
224.57	1265.64
224.78	1325.04
225.00	1224.69
225.22	1269.74
225.44	1216.49
225.66	1251.31
225.88	1284.08
226.10	1267.69
226.32	1310.70
226.53	1335.28
226.75	1282.03
226.97	1302.51
227.19	1279.98
227.41	1228.78
227.63	1316.84
227.85	1220.59
228.06	1282.03
228.28	1306.60
228.50	1318.89
228.72	1265.64
228.94	1245.16
229.16	1249.26
229.37	1265.64
229.59	1224.69
229.81	1255.40
230.03	1249.26
230.25	1312.75
230.47	1263.60
230.69	1312.75
230.90	1322.99
231.12	1230.83
231.34	1325.04
231.56	1269.74
231.78	1245.16
232.00	1284.08
232.21	1224.69
232.43	1202.16
232.65	1249.26
232.87	1261.55
233.09	1212.40
233.30	1175.53
233.52	1249.26
233.74	1273.84
233.96	1282.03
234.18	1267.69
234.40	1292.27
234.61	1171.44
234.83	1312.75
235.05	1282.03
235.27	1202.16
235.49	1212.40
235.70	1253.36
235.92	1273.84
236.14	1284.08
236.36	1318.89
236.58	1216.49
236.79	1292.27
237.01	1243.12
237.23	1253.36
237.45	1259.50
237.67	1232.88
237.88	1224.69
238.10	1300.46
238.32	1298.41
238.54	1249.26
238.76	1222.64
238.97	1234.93
239.19	1253.36
239.41	1347.56
239.63	1279.98
239.85	1208.30
240.06	1275.88
240.28	1263.60
240.50	1296.36
240.72	1249.26
240.93	1331.18
241.15	1306.60
241.37	1247.21
241.59	1249.26
241.81	1257.45
242.02	1282.03
242.24	1263.60
242.46	1294.32
242.68	1292.27
242.89	1222.64
243.11	1234.93
243.33	1265.64
243.55	1236.97
243.76	1228.78
243.98	1253.36
244.20	1296.36
244.42	1333.23
244.64	1269.74
244.85	1300.46
245.07	1261.55
245.29	1247.21
245.51	1263.60
245.72	1222.64
245.94	1302.51
246.16	1263.60
246.38	1339.37
246.59	1325.04
246.81	1273.84
247.03	1202.16
247.24	1290.22
247.46	1288.17
247.68	1212.40
247.90	1236.97
248.11	1265.64
248.33	1169.39
248.55	1310.70
248.77	1306.60
248.98	1249.26
249.20	1294.32
249.42	1294.32
249.64	1306.60
249.85	1265.64
250.07	1312.75
250.29	1304.56
250.50	1239.02
250.72	1288.17
250.94	1277.93
251.16	1259.50
251.37	1234.93
251.59	1339.37
251.81	1263.60
252.02	1275.88
252.24	1255.40
252.46	1269.74
252.68	1224.69
252.89	1249.26
253.11	1157.10
253.33	1239.02
253.54	1267.69
253.76	1353.71
253.98	1183.73
254.20	1243.12
254.41	1279.98
254.63	1314.80
254.85	1286.12
255.06	1210.35
255.28	1300.46
255.50	1318.89
255.71	1341.42
255.93	1331.18
256.15	1279.98
256.36	1222.64
256.58	1239.02
256.80	1236.97
257.02	1269.74
257.23	1255.40
257.45	1173.49
257.67	1247.21
257.88	1257.45
258.10	1322.99
258.32	1290.22
258.53	1304.56
258.75	1239.02
258.97	1222.64
259.18	1202.16
259.40	1253.36
259.62	1257.45
259.83	1284.08
260.05	1298.41
260.27	1347.56
260.48	1329.13
260.70	1265.64
260.92	1239.02
261.13	1257.45
261.35	1320.94
261.57	1243.12
261.78	1198.06
262.00	1327.08
262.22	1257.45
262.43	1286.12
262.65	1224.69
262.86	1288.17
263.08	1265.64
263.30	1288.17
263.51	1228.78
263.73	1230.83
263.95	1290.22
264.16	1249.26
264.38	1290.22
264.60	1302.51
264.81	1263.60
265.03	1275.88
265.25	1249.26
265.46	1259.50
265.68	1265.64
265.89	1189.87
266.11	1216.49
266.33	1245.16
266.54	1269.74
266.76	1277.93
266.98	1277.93
267.19	1226.73
267.41	1245.16
267.62	1349.61
267.84	1294.32
268.06	1247.21
268.27	1230.83
268.49	1329.13
268.70	1257.45
268.92	1296.36
269.14	1257.45
269.35	1292.27
269.57	1255.40
269.79	1306.60
270.00	1294.32
270.22	1257.45
270.43	1224.69
270.65	1310.70
270.87	1265.64
271.08	1290.22
271.30	1232.88
271.51	1339.37
271.73	1308.65
271.95	1353.71
272.16	1253.36
272.38	1310.70
272.59	1292.27
272.81	1214.45
273.02	1224.69
273.24	1234.93
273.46	1308.65
273.67	1290.22
273.89	1269.74
274.10	1310.70
274.32	1271.79
274.54	1282.03
274.75	1269.74
274.97	1247.21
275.18	1234.93
275.40	1265.64
275.61	1247.21
275.83	1282.03
276.05	1224.69
276.26	1271.79
276.48	1265.64
276.69	1290.22
276.91	1265.64
277.12	1273.84
277.34	1288.17
277.55	1261.55
277.77	1259.50
277.99	1337.32
278.20	1279.98
278.42	1304.56
278.63	1271.79
278.85	1255.40
279.06	1226.73
279.28	1361.90
279.49	1263.60
279.71	1265.64
279.93	1226.73
280.14	1224.69
280.36	1198.06
280.57	1271.79
280.79	1245.16
281.00	1275.88
281.22	1271.79
281.43	1208.30
281.65	1200.11
281.86	1212.40
282.08	1230.83
282.29	1226.73
282.51	1306.60
282.73	1224.69
282.94	1243.12
283.16	1288.17
283.37	1243.12
283.59	1282.03
283.80	1208.30
284.02	1327.08
284.23	1298.41
284.45	1314.80
284.66	1175.53
284.88	1271.79
285.09	1218.54
285.31	1267.69
285.52	1302.51
285.74	1220.59
285.95	1325.04
286.17	1269.74
286.38	1284.08
286.60	1255.40
286.81	1265.64
287.03	1220.59
287.24	1239.02
287.46	1282.03
287.67	1282.03
287.89	1308.65
288.10	1261.55
288.32	1259.50
288.53	1271.79
288.75	1230.83
288.96	1232.88
289.18	1284.08
289.39	1286.12
289.61	1288.17
289.82	1325.04
290.04	1372.14
290.25	1253.36
290.47	1292.27
290.68	1298.41
290.90	1249.26
291.11	1222.64
291.33	1165.29
291.54	1284.08
291.76	1292.27
291.97	1247.21
292.18	1261.55
292.40	1290.22
292.61	1282.03
292.83	1302.51
293.04	1202.16
293.26	1200.11
293.47	1300.46
293.69	1290.22
293.90	1314.80
294.12	1267.69
294.33	1241.07
294.55	1290.22
294.76	1263.60
294.97	1253.36
295.19	1265.64
295.40	1275.88
295.62	1333.23
295.83	1208.30
296.05	1261.55
296.26	1271.79
296.48	1206.25
296.69	1261.55
296.90	1232.88
297.12	1259.50
297.33	1314.80
297.55	1298.41
297.76	1310.70
297.98	1277.93
298.19	1329.13
298.41	1284.08
298.62	1329.13
298.83	1277.93
299.05	1306.60
299.26	1196.01
299.48	1284.08
299.69	1282.03
299.90	1279.98
300.12	1208.30
300.33	1263.60
300.55	1325.04
300.76	1351.66
300.98	1253.36
301.19	1282.03
301.40	1294.32
301.62	1224.69
301.83	1308.65
302.05	1286.12
302.26	1271.79
302.47	1226.73
302.69	1310.70
302.90	1249.26
303.12	1316.84
303.33	1279.98
303.54	1236.97
303.76	1232.88
303.97	1296.36
304.19	1302.51
304.40	1304.56
304.61	1273.84
304.83	1310.70
305.04	1173.49
305.26	1374.19
305.47	1191.92
305.68	1263.60
305.90	1239.02
306.11	1247.21
306.33	1292.27
306.54	1308.65
306.75	1222.64
306.97	1253.36
307.18	1236.97
307.39	1259.50
307.61	1273.84
307.82	1214.45
308.04	1255.40
308.25	1259.50
308.46	1273.84
308.68	1167.34
308.89	1275.88
309.10	1257.45
309.32	1204.21
309.53	1267.69
309.74	1243.12
309.96	1275.88
310.17	1228.78
310.39	1226.73
310.60	1261.55
310.81	1185.77
311.03	1282.03
311.24	1212.40
311.45	1308.65
311.67	1271.79
311.88	1300.46
312.09	1241.07
312.31	1232.88
312.52	1263.60
312.73	1267.69
312.95	1251.31
313.16	1263.60
313.37	1261.55
313.59	1247.21
313.80	1277.93
314.01	1294.32
314.23	1265.64
314.44	1308.65
314.65	1327.08
314.87	1224.69
315.08	1245.16
315.29	1275.88
315.51	1277.93
315.72	1253.36
315.93	1304.56
316.15	1306.60
316.36	1191.92
316.57	1337.32
316.79	1288.17
317.00	1239.02
317.21	1308.65
317.43	1146.86
317.64	1228.78
317.85	1331.18
318.07	1234.93
318.28	1263.60
318.49	1279.98
318.70	1298.41
318.92	1247.21
319.13	1206.25
319.34	1279.98
319.56	1222.64
319.77	1368.04
319.98	1230.83
320.20	1277.93
320.41	1275.88
320.62	1214.45
320.83	1247.21
321.05	1275.88
321.26	1306.60
321.47	1284.08
321.69	1269.74
321.90	1239.02
322.11	1273.84
322.32	1249.26
322.54	1265.64
322.75	1255.40
322.96	1353.71
323.18	1333.23
323.39	1265.64
323.60	1249.26
323.81	1232.88
324.03	1232.88
324.24	1249.26
324.45	1267.69
324.66	1302.51
324.88	1294.32
325.09	1228.78
325.30	1277.93
325.52	1245.16
325.73	1302.51
325.94	1298.41
326.15	1249.26
326.37	1247.21
326.58	1327.08
326.79	1230.83
327.00	1267.69
327.22	1267.69
327.43	1245.16
327.64	1202.16
327.85	1308.65
328.07	1261.55
328.28	1251.31
328.49	1263.60
328.70	1269.74
328.92	1318.89
329.13	1189.87
329.34	1265.64
329.55	1261.55
329.76	1261.55
329.98	1243.12
330.19	1286.12
330.40	1294.32
330.61	1208.30
330.83	1261.55
331.04	1257.45
331.25	1230.83
331.46	1232.88
331.68	1302.51
331.89	1261.55
332.10	1363.95
332.31	1220.59
332.52	1257.45
332.74	1282.03
332.95	1325.04
333.16	1275.88
333.37	1282.03
333.58	1265.64
333.80	1277.93
334.01	1257.45
334.22	1245.16
334.43	1255.40
334.64	1298.41
334.86	1282.03
335.07	1290.22
335.28	1312.75
335.49	1298.41
335.70	1277.93
335.92	1267.69
336.13	1251.31
336.34	1239.02
336.55	1357.80
336.76	1189.87
336.98	1251.31
337.19	1343.47
337.40	1292.27
337.61	1273.84
337.82	1202.16
338.04	1284.08
338.25	1273.84
338.46	1314.80
338.67	1312.75
338.88	1304.56
339.09	1265.64
339.31	1271.79
339.52	1265.64
339.73	1271.79
339.94	1265.64
340.15	1296.36
340.36	1304.56
340.58	1273.84
340.79	1257.45
341.00	1333.23
341.21	1265.64
341.42	1193.97
341.63	1255.40
341.85	1269.74
342.06	1232.88
342.27	1257.45
342.48	1302.51
342.69	1296.36
342.90	1290.22
343.12	1294.32
343.33	1257.45
343.54	1277.93
343.75	1302.51
343.96	1312.75
344.17	1284.08
344.38	1329.13
344.60	1275.88
344.81	1265.64
345.02	1230.83
345.23	1294.32
345.44	1232.88
345.65	1247.21
345.86	1251.31
346.07	1253.36
346.29	1331.18
346.50	1243.12
346.71	1243.12
346.92	1212.40
347.13	1251.31
347.34	1253.36
347.55	1245.16
347.76	1292.27
347.98	1177.58
348.19	1249.26
348.40	1208.30
348.61	1214.45
348.82	1290.22
349.03	1277.93
349.24	1255.40
349.45	1327.08
349.66	1308.65
349.88	1263.60
350.09	1277.93
350.30	1298.41
350.51	1290.22
350.72	1230.83
350.93	1245.16
351.14	1267.69
351.35	1292.27
351.56	1187.82
351.77	1302.51
351.99	1255.40
352.20	1255.40
352.41	1261.55
352.62	1255.40
352.83	1282.03
353.04	1257.45
353.25	1241.07
353.46	1279.98
353.67	1251.31
353.88	1245.16
354.09	1333.23
354.30	1292.27
354.52	1271.79
354.73	1294.32
354.94	1257.45
355.15	1239.02
355.36	1302.51
355.57	1249.26
355.78	1302.51
355.99	1292.27
356.20	1269.74
356.41	1304.56
356.62	1294.32
356.83	1249.26
357.04	1269.74
357.25	1339.37
357.46	1257.45
357.68	1249.26
357.89	1269.74
358.10	1222.64
358.31	1271.79
358.52	1275.88
358.73	1245.16
358.94	1232.88
359.15	1263.60
359.36	1265.64
359.57	1275.88
359.78	1241.07
359.99	1267.69
360.20	1277.93
360.41	1243.12
360.62	1255.40
360.83	1273.84
361.04	1277.93
361.25	1239.02
361.46	1267.69
361.67	1327.08
361.88	1241.07
362.09	1322.99
362.30	1261.55
362.51	1284.08
362.72	1265.64
362.93	1255.40
363.14	1226.73
363.35	1269.74
363.56	1247.21
363.78	1245.16
363.99	1329.13
364.20	1271.79
364.41	1261.55
364.62	1296.36
364.83	1294.32
365.04	1142.77
365.25	1202.16
365.46	1222.64
365.67	1265.64
365.88	1279.98
366.09	1255.40
366.30	1241.07
366.51	1275.88
366.72	1302.51
366.93	1327.08
367.14	1210.35
367.35	1218.54
367.56	1308.65
367.77	1282.03
367.98	1206.25
368.18	1316.84
368.39	1228.78
368.60	1251.31
368.81	1234.93
369.02	1253.36
369.23	1302.51
369.44	1271.79
369.65	1279.98
369.86	1267.69
370.07	1290.22
370.28	1304.56
370.49	1202.16
370.70	1284.08
370.91	1261.55
371.12	1265.64
371.33	1249.26
371.54	1167.34
371.75	1296.36
371.96	1277.93
372.17	1325.04
372.38	1312.75
372.59	1275.88
372.80	1239.02
373.01	1284.08
373.22	1366.00
373.43	1273.84
373.64	1312.75
373.85	1298.41
374.06	1269.74
374.26	1286.12
374.47	1247.21
374.68	1267.69
374.89	1247.21
375.10	1314.80
375.31	1257.45
375.52	1308.65
375.73	1325.04
375.94	1320.94
376.15	1263.60
376.36	1337.32
376.57	1245.16
376.78	1300.46
376.99	1251.31
377.20	1269.74
377.40	1243.12
377.61	1269.74
377.82	1277.93
378.03	1265.64
378.24	1200.11
378.45	1304.56
378.66	1216.49
378.87	1249.26
379.08	1271.79
379.29	1290.22
379.50	1304.56
379.71	1292.27
379.91	1261.55
380.12	1234.93
380.33	1245.16
380.54	1230.83
380.75	1226.73
380.96	1310.70
381.17	1261.55
381.38	1257.45
381.59	1312.75
381.80	1279.98
382.00	1255.40
382.21	1273.84
382.42	1263.60
382.63	1210.35
382.84	1222.64
383.05	1253.36
383.26	1249.26
383.47	1200.11
383.68	1259.50
383.88	1222.64
384.09	1265.64
384.30	1150.96
384.51	1226.73
384.72	1243.12
384.93	1261.55
385.14	1277.93
385.35	1275.88
385.55	1239.02
385.76	1277.93
385.97	1265.64
386.18	1234.93
386.39	1216.49
386.60	1339.37
386.81	1228.78
387.02	1310.70
387.22	1251.31
387.43	1294.32
387.64	1259.50
387.85	1331.18
388.06	1257.45
388.27	1288.17
388.48	1198.06
388.68	1214.45
388.89	1269.74
389.10	1243.12
389.31	1177.58
389.52	1282.03
389.73	1210.35
389.93	1316.84
390.14	1265.64
390.35	1210.35
390.56	1269.74
390.77	1267.69
390.98	1284.08
391.18	1239.02
391.39	1284.08
391.60	1282.03
391.81	1261.55
392.02	1206.25
392.23	1290.22
392.43	1296.36
392.64	1298.41
392.85	1296.36
393.06	1265.64
393.27	1361.90
393.47	1200.11
393.68	1202.16
393.89	1243.12
394.10	1273.84
394.31	1290.22
394.52	1247.21
394.72	1214.45
394.93	1249.26
395.14	1282.03
395.35	1247.21
395.56	1259.50
395.76	1169.39
395.97	1247.21
396.18	1210.35
396.39	1204.21
396.60	1284.08
396.80	1286.12
397.01	1206.25
397.22	1265.64
397.43	1322.99
397.64	1267.69
397.84	1282.03
398.05	1296.36
398.26	1282.03
398.47	1314.80
398.67	1273.84
398.88	1277.93
399.09	1273.84
399.30	1224.69
399.51	1286.12
399.71	1257.45
399.92	1298.41
400.13	1216.49
400.34	1271.79
400.54	1263.60
400.75	1294.32
400.96	1333.23
401.17	1290.22
401.37	1189.87
401.58	1200.11
401.79	1253.36
402.00	1232.88
402.21	1265.64
402.41	1275.88
402.62	1218.54
402.83	1292.27
403.04	1241.07
403.24	1261.55
403.45	1257.45
403.66	1200.11
403.87	1247.21
404.07	1310.70
404.28	1253.36
404.49	1265.64
404.70	1265.64
404.90	1300.46
405.11	1279.98
405.32	1251.31
405.52	1318.89
405.73	1198.06
405.94	1286.12
406.15	1263.60
406.35	1245.16
406.56	1267.69
406.77	1251.31
406.98	1282.03
407.18	1247.21
407.39	1253.36
407.60	1290.22
407.80	1265.64
408.01	1253.36
408.22	1294.32
408.43	1214.45
408.63	1224.69
408.84	1327.08
409.05	1284.08
409.25	1232.88
409.46	1275.88
409.67	1374.19
409.88	1255.40
410.08	1222.64
410.29	1288.17
410.50	1261.55
410.70	1253.36
410.91	1265.64
411.12	1296.36
411.32	1189.87
411.53	1261.55
411.74	1257.45
411.95	1347.56
412.15	1290.22
412.36	1282.03
412.57	1144.81
412.77	1312.75
412.98	1187.82
413.19	1222.64
413.39	1136.62
413.60	1335.28
413.81	1290.22
414.01	1253.36
414.22	1241.07
414.43	1298.41
414.63	1298.41
414.84	1308.65
415.05	1292.27
415.25	1228.78
415.46	1333.23
415.67	1249.26
415.87	1243.12
416.08	1271.79
416.29	1236.97
416.49	1216.49
416.70	1273.84
416.91	1333.23
417.11	1214.45
417.32	1306.60
417.53	1279.98
417.73	1286.12
417.94	1239.02
418.15	1282.03
418.35	1249.26
418.56	1243.12
418.77	1343.47
418.97	1253.36
419.18	1220.59
419.38	1200.11
419.59	1265.64
419.80	1333.23
420.00	1257.45
420.21	1290.22
420.42	1224.69
420.62	1253.36
420.83	1153.01
421.04	1304.56
421.24	1191.92
421.45	1255.40
421.65	1241.07
421.86	1243.12
422.07	1279.98
422.27	1251.31
422.48	1271.79
422.69	1249.26
422.89	1298.41
423.10	1245.16
423.30	1245.16
423.51	1247.21
423.72	1259.50
423.92	1216.49
424.13	1279.98
424.33	1279.98
424.54	1277.93
424.75	1193.97
424.95	1251.31
425.16	1298.41
425.36	1284.08
425.57	1296.36
425.78	1232.88
425.98	1284.08
426.19	1251.31
426.39	1282.03
426.60	1277.93
426.81	1290.22
427.01	1255.40
427.22	1226.73
427.42	1206.25
427.63	1275.88
427.83	1306.60
428.04	1306.60
428.25	1284.08
428.45	1230.83
428.66	1212.40
428.86	1257.45
429.07	1171.44
429.28	1282.03
429.48	1312.75
429.69	1241.07
429.89	1236.97
430.10	1230.83
430.30	1255.40
430.51	1273.84
430.71	1224.69
430.92	1286.12
431.13	1273.84
431.33	1249.26
431.54	1275.88
431.74	1265.64
431.95	1298.41
432.15	1345.52
432.36	1265.64
432.56	1296.36
432.77	1198.06
432.98	1308.65
433.18	1257.45
433.39	1288.17
433.59	1333.23
433.80	1327.08
434.00	1298.41
434.21	1253.36
434.41	1196.01
434.62	1234.93
434.82	1267.69
435.03	1247.21
435.23	1275.88
435.44	1255.40
435.64	1257.45
435.85	1296.36
436.06	1284.08
436.26	1279.98
436.47	1288.17
436.67	1294.32
436.88	1286.12
437.08	1320.94
437.29	1277.93
437.49	1271.79
437.70	1286.12
437.90	1243.12
438.11	1343.47
438.31	1251.31
438.52	1243.12
438.72	1294.32
438.93	1245.16
439.13	1243.12
439.34	1325.04
439.54	1259.50
439.75	1288.17
439.95	1222.64
440.16	1288.17
440.36	1335.28
440.57	1320.94
440.77	1247.21
440.98	1224.69
441.18	1193.97
441.39	1251.31
441.59	1234.93
441.80	1224.69
442.00	1273.84
442.21	1263.60
442.41	1370.09
442.62	1273.84
442.82	1290.22
443.02	1239.02
443.23	1331.18
443.43	1310.70
443.64	1273.84
443.84	1224.69
444.05	1357.80
444.25	1259.50
444.46	1300.46
444.66	1243.12
444.87	1316.84
445.07	1306.60
445.28	1249.26
445.48	1239.02
445.69	1290.22
445.89	1329.13
446.09	1257.45
446.30	1363.95
446.50	1228.78
446.71	1251.31
446.91	1230.83
447.12	1239.02
447.32	1337.32
447.53	1271.79
447.73	1259.50
447.93	1275.88
448.14	1196.01
448.34	1218.54
448.55	1222.64
448.75	1298.41
448.96	1357.80
449.16	1245.16
449.36	1298.41
449.57	1294.32
449.77	1226.73
449.98	1300.46
450.18	1286.12
450.39	1224.69
450.59	1290.22
450.79	1296.36
451.00	1228.78
451.20	1294.32
451.41	1265.64
451.61	1386.47
451.81	1284.08
452.02	1296.36
452.22	1275.88
452.43	1234.93
452.63	1226.73
