SpectraSuite Data File
++++++++++++++++++++++++++++++++++++
Date: Sun Apr 03 19:55:19 CEST 2016
User: root
Dark Spectrum Present: No
Reference Spectrum Present: No
Number of Sampled Component Spectra: 1
Spectrometers: USB4C02835
Integration Time (usec): 10000 (USB4C02835)
Spectra Averaged: 1 (USB4C02835)
Boxcar Smoothing: 0 (USB4C02835)
Correct for Electrical Dark: No (USB4C02835)
Strobe/Lamp Enabled: No (USB4C02835)
Correct for Detector Non-linearity: No (USB4C02835)
Correct for Stray Light: No (USB4C02835)
Number of Pixels in Processed Spectrum: 3648
>>>>>Begin Processed Spectral Data<<<<<
177.47	1179.63
177.69	1179.63
177.91	1179.63
178.13	1269.74
178.36	1236.97
178.58	1294.32
178.80	1284.08
179.02	1265.64
179.24	1189.87
179.46	1204.21
179.68	1261.55
179.90	1294.32
180.13	1228.78
180.35	1230.83
180.57	1191.92
180.79	1339.37
181.01	1267.69
181.23	1265.64
181.45	1339.37
181.67	1259.50
181.90	1318.89
182.12	1175.53
182.34	1232.88
182.56	1267.69
182.78	1277.93
183.00	1335.28
183.22	1273.84
183.44	1273.84
183.66	1253.36
183.89	1271.79
184.11	1167.34
184.33	1249.26
184.55	1269.74
184.77	1282.03
184.99	1261.55
185.21	1222.64
185.43	1325.04
185.65	1331.18
185.87	1294.32
186.10	1296.36
186.32	1263.60
186.54	1210.35
186.76	1208.30
186.98	1247.21
187.20	1261.55
187.42	1239.02
187.64	1257.45
187.86	1234.93
188.08	1245.16
188.30	1269.74
188.52	1304.56
188.75	1224.69
188.97	1288.17
189.19	1183.73
189.41	1298.41
189.63	1300.46
189.85	1212.40
190.07	1288.17
190.29	1157.10
190.51	1265.64
190.73	1216.49
190.95	1316.84
191.17	1241.07
191.39	1259.50
191.61	1298.41
191.84	1316.84
192.06	1269.74
192.28	1226.73
192.50	1353.71
192.72	1216.49
192.94	1273.84
193.16	1322.99
193.38	1312.75
193.60	1228.78
193.82	1224.69
194.04	1277.93
194.26	1198.06
194.48	1286.12
194.70	1290.22
194.92	1261.55
195.14	1316.84
195.36	1259.50
195.58	1290.22
195.80	1241.07
196.02	1314.80
196.24	1239.02
196.46	1232.88
196.69	1263.60
196.91	1267.69
197.13	1271.79
197.35	1251.31
197.57	1255.40
197.79	1312.75
198.01	1275.88
198.23	1185.77
198.45	1318.89
198.67	1241.07
198.89	1312.75
199.11	1232.88
199.33	1292.27
199.55	1304.56
199.77	1200.11
199.99	1298.41
200.21	1294.32
200.43	1302.51
200.65	1273.84
200.87	1269.74
201.09	1292.27
201.31	1279.98
201.53	1296.36
201.75	1216.49
201.97	1298.41
202.19	1218.54
202.41	1208.30
202.63	1265.64
202.85	1265.64
203.07	1290.22
203.29	1279.98
203.51	1175.53
203.73	1253.36
203.95	1263.60
204.17	1206.25
204.39	1228.78
204.61	1220.59
204.83	1232.88
205.05	1282.03
205.27	1239.02
205.49	1228.78
205.71	1351.66
205.93	1226.73
206.15	1253.36
206.37	1269.74
206.59	1349.61
206.81	1210.35
207.03	1245.16
207.25	1214.45
207.47	1282.03
207.69	1251.31
207.91	1286.12
208.13	1288.17
208.34	1267.69
208.56	1245.16
208.78	1290.22
209.00	1159.15
209.22	1247.21
209.44	1251.31
209.66	1202.16
209.88	1288.17
210.10	1185.77
210.32	1290.22
210.54	1267.69
210.76	1279.98
210.98	1282.03
211.20	1247.21
211.42	1202.16
211.64	1339.37
211.86	1331.18
212.08	1261.55
212.30	1318.89
212.52	1357.80
212.74	1208.30
212.96	1277.93
213.17	1306.60
213.39	1193.97
213.61	1263.60
213.83	1314.80
214.05	1282.03
214.27	1255.40
214.49	1269.74
214.71	1279.98
214.93	1312.75
215.15	1239.02
215.37	1292.27
215.59	1198.06
215.81	1282.03
216.03	1255.40
216.24	1277.93
216.46	1265.64
216.68	1322.99
216.90	1298.41
217.12	1175.53
217.34	1279.98
217.56	1236.97
217.78	1282.03
218.00	1222.64
218.22	1232.88
218.44	1265.64
218.66	1206.25
218.87	1243.12
219.09	1269.74
219.31	1226.73
219.53	1298.41
219.75	1228.78
219.97	1206.25
220.19	1298.41
220.41	1312.75
220.63	1259.50
220.85	1277.93
221.06	1230.83
221.28	1234.93
221.50	1347.56
221.72	1286.12
221.94	1245.16
222.16	1273.84
222.38	1239.02
222.60	1318.89
222.82	1247.21
223.03	1279.98
223.25	1267.69
223.47	1239.02
223.69	1212.40
223.91	1226.73
224.13	1208.30
224.35	1310.70
224.57	1271.79
224.78	1243.12
225.00	1275.88
225.22	1320.94
225.44	1273.84
225.66	1239.02
225.88	1310.70
226.10	1265.64
226.32	1249.26
226.53	1279.98
226.75	1355.76
226.97	1241.07
227.19	1310.70
227.41	1261.55
227.63	1314.80
227.85	1267.69
228.06	1325.04
228.28	1284.08
228.50	1179.63
228.72	1267.69
228.94	1298.41
229.16	1282.03
229.37	1310.70
229.59	1202.16
229.81	1214.45
230.03	1304.56
230.25	1232.88
230.47	1282.03
230.69	1372.14
230.90	1249.26
231.12	1253.36
231.34	1243.12
231.56	1255.40
231.78	1257.45
232.00	1277.93
232.21	1241.07
232.43	1230.83
232.65	1257.45
232.87	1234.93
233.09	1232.88
233.30	1226.73
233.52	1306.60
233.74	1273.84
233.96	1366.00
234.18	1296.36
234.40	1251.31
234.61	1333.23
234.83	1251.31
235.05	1177.58
235.27	1296.36
235.49	1265.64
235.70	1222.64
235.92	1288.17
236.14	1277.93
236.36	1322.99
236.58	1304.56
236.79	1265.64
237.01	1222.64
237.23	1304.56
237.45	1304.56
237.67	1257.45
237.88	1263.60
238.10	1335.28
238.32	1210.35
238.54	1247.21
238.76	1265.64
238.97	1273.84
239.19	1198.06
239.41	1314.80
239.63	1230.83
239.85	1232.88
240.06	1228.78
240.28	1345.52
240.50	1255.40
240.72	1302.51
240.93	1228.78
241.15	1255.40
241.37	1232.88
241.59	1339.37
241.81	1267.69
242.02	1331.18
242.24	1296.36
242.46	1322.99
242.68	1275.88
242.89	1286.12
243.11	1187.82
243.33	1222.64
243.55	1239.02
243.76	1271.79
243.98	1298.41
244.20	1279.98
244.42	1253.36
244.64	1298.41
244.85	1284.08
245.07	1253.36
245.29	1347.56
245.51	1304.56
245.72	1306.60
245.94	1236.97
246.16	1253.36
246.38	1245.16
246.59	1286.12
246.81	1286.12
247.03	1185.77
247.24	1259.50
247.46	1255.40
247.68	1251.31
247.90	1261.55
248.11	1243.12
248.33	1339.37
248.55	1312.75
248.77	1292.27
248.98	1247.21
249.20	1304.56
249.42	1269.74
249.64	1310.70
249.85	1290.22
250.07	1265.64
250.29	1286.12
250.50	1243.12
250.72	1224.69
250.94	1304.56
251.16	1265.64
251.37	1255.40
251.59	1253.36
251.81	1247.21
252.02	1275.88
252.24	1304.56
252.46	1288.17
252.68	1222.64
252.89	1294.32
253.11	1273.84
253.33	1298.41
253.54	1251.31
253.76	1236.97
253.98	1216.49
254.20	1339.37
254.41	1257.45
254.63	1251.31
254.85	1251.31
255.06	1230.83
255.28	1261.55
255.50	1236.97
255.71	1243.12
255.93	1273.84
256.15	1232.88
256.36	1296.36
256.58	1239.02
256.80	1232.88
257.02	1275.88
257.23	1220.59
257.45	1234.93
257.67	1261.55
257.88	1228.78
258.10	1306.60
258.32	1249.26
258.53	1263.60
258.75	1228.78
258.97	1232.88
259.18	1241.07
259.40	1298.41
259.62	1243.12
259.83	1310.70
260.05	1288.17
260.27	1318.89
260.48	1224.69
260.70	1232.88
260.92	1239.02
261.13	1339.37
261.35	1298.41
261.57	1216.49
261.78	1263.60
262.00	1255.40
262.22	1292.27
262.43	1273.84
262.65	1294.32
262.86	1288.17
263.08	1232.88
263.30	1239.02
263.51	1261.55
263.73	1247.21
263.95	1279.98
264.16	1245.16
264.38	1204.21
264.60	1255.40
264.81	1265.64
265.03	1249.26
265.25	1269.74
265.46	1265.64
265.68	1308.65
265.89	1282.03
266.11	1241.07
266.33	1277.93
266.54	1179.63
266.76	1310.70
266.98	1275.88
267.19	1308.65
267.41	1232.88
267.62	1216.49
267.84	1275.88
268.06	1296.36
268.27	1286.12
268.49	1269.74
268.70	1243.12
268.92	1232.88
269.14	1275.88
269.35	1277.93
269.57	1292.27
269.79	1329.13
270.00	1302.51
270.22	1255.40
270.43	1275.88
270.65	1234.93
270.87	1343.47
271.08	1310.70
271.30	1351.66
271.51	1230.83
271.73	1282.03
271.95	1208.30
272.16	1282.03
272.38	1284.08
272.59	1267.69
272.81	1325.04
273.02	1247.21
273.24	1261.55
273.46	1249.26
273.67	1322.99
273.89	1247.21
274.10	1259.50
274.32	1261.55
274.54	1253.36
274.75	1243.12
274.97	1239.02
275.18	1228.78
275.40	1273.84
275.61	1249.26
275.83	1288.17
276.05	1255.40
276.26	1288.17
276.48	1261.55
276.69	1269.74
276.91	1292.27
277.12	1277.93
277.34	1273.84
277.55	1314.80
277.77	1255.40
277.99	1271.79
278.20	1218.54
278.42	1236.97
278.63	1255.40
278.85	1206.25
279.06	1241.07
279.28	1279.98
279.49	1290.22
279.71	1239.02
279.93	1275.88
280.14	1255.40
280.36	1300.46
280.57	1216.49
280.79	1327.08
281.00	1236.97
281.22	1224.69
281.43	1282.03
281.65	1236.97
281.86	1273.84
282.08	1206.25
282.29	1347.56
282.51	1296.36
282.73	1298.41
282.94	1288.17
283.16	1226.73
283.37	1265.64
283.59	1249.26
283.80	1253.36
284.02	1265.64
284.23	1329.13
284.45	1279.98
284.66	1257.45
284.88	1155.05
285.09	1300.46
285.31	1306.60
285.52	1279.98
285.74	1263.60
285.95	1216.49
286.17	1282.03
286.38	1318.89
286.60	1279.98
286.81	1261.55
287.03	1308.65
287.24	1261.55
287.46	1200.11
287.67	1284.08
287.89	1265.64
288.10	1232.88
288.32	1204.21
288.53	1302.51
288.75	1228.78
288.96	1267.69
289.18	1314.80
289.39	1290.22
289.61	1275.88
289.82	1294.32
290.04	1325.04
290.25	1349.61
290.47	1230.83
290.68	1222.64
290.90	1267.69
291.11	1239.02
291.33	1290.22
291.54	1294.32
291.76	1314.80
291.97	1306.60
292.18	1308.65
292.40	1286.12
292.61	1282.03
292.83	1267.69
293.04	1259.50
293.26	1316.84
293.47	1298.41
293.69	1253.36
293.90	1294.32
294.12	1261.55
294.33	1261.55
294.55	1253.36
294.76	1333.23
294.97	1249.26
295.19	1273.84
295.40	1275.88
295.62	1271.79
295.83	1267.69
296.05	1290.22
296.26	1347.56
296.48	1214.45
296.69	1230.83
296.90	1239.02
297.12	1224.69
297.33	1282.03
297.55	1220.59
297.76	1345.52
297.98	1243.12
298.19	1292.27
298.41	1218.54
298.62	1255.40
298.83	1316.84
299.05	1267.69
299.26	1226.73
299.48	1298.41
299.69	1286.12
299.90	1259.50
300.12	1171.44
300.33	1284.08
300.55	1286.12
300.76	1255.40
300.98	1259.50
301.19	1316.84
301.40	1341.42
301.62	1239.02
301.83	1257.45
302.05	1306.60
302.26	1191.92
302.47	1273.84
302.69	1296.36
302.90	1292.27
303.12	1249.26
303.33	1206.25
303.54	1263.60
303.76	1228.78
303.97	1236.97
304.19	1271.79
304.40	1288.17
304.61	1257.45
304.83	1361.90
305.04	1216.49
305.26	1228.78
305.47	1310.70
305.68	1251.31
305.90	1239.02
306.11	1284.08
306.33	1290.22
306.54	1304.56
306.75	1267.69
306.97	1290.22
307.18	1226.73
307.39	1230.83
307.61	1316.84
307.82	1290.22
308.04	1212.40
308.25	1294.32
308.46	1232.88
308.68	1187.82
308.89	1269.74
309.10	1269.74
309.32	1300.46
309.53	1304.56
309.74	1296.36
309.96	1265.64
310.17	1273.84
310.39	1279.98
310.60	1228.78
310.81	1261.55
311.03	1314.80
311.24	1247.21
311.45	1314.80
311.67	1179.63
311.88	1290.22
312.09	1228.78
312.31	1357.80
312.52	1269.74
312.73	1282.03
312.95	1296.36
313.16	1347.56
313.37	1230.83
313.59	1308.65
313.80	1245.16
314.01	1320.94
314.23	1187.82
314.44	1269.74
314.65	1279.98
314.87	1253.36
315.08	1267.69
315.29	1279.98
315.51	1222.64
315.72	1345.52
315.93	1279.98
316.15	1294.32
316.36	1331.18
316.57	1228.78
316.79	1288.17
317.00	1296.36
317.21	1234.93
317.43	1224.69
317.64	1249.26
317.85	1249.26
318.07	1271.79
318.28	1290.22
318.49	1296.36
318.70	1277.93
318.92	1290.22
319.13	1230.83
319.34	1251.31
319.56	1308.65
319.77	1273.84
319.98	1234.93
320.20	1165.29
320.41	1222.64
320.62	1302.51
320.83	1259.50
321.05	1306.60
321.26	1253.36
321.47	1206.25
321.69	1222.64
321.90	1169.39
322.11	1202.16
322.32	1284.08
322.54	1306.60
322.75	1304.56
322.96	1257.45
323.18	1224.69
323.39	1322.99
323.60	1298.41
323.81	1255.40
324.03	1308.65
324.24	1196.01
324.45	1267.69
324.66	1253.36
324.88	1277.93
325.09	1271.79
325.30	1347.56
325.52	1304.56
325.73	1206.25
325.94	1288.17
326.15	1261.55
326.37	1167.34
326.58	1267.69
326.79	1269.74
327.00	1273.84
327.22	1302.51
327.43	1271.79
327.64	1284.08
327.85	1263.60
328.07	1204.21
328.28	1259.50
328.49	1286.12
328.70	1263.60
328.92	1245.16
329.13	1322.99
329.34	1343.47
329.55	1263.60
329.76	1253.36
329.98	1247.21
330.19	1259.50
330.40	1296.36
330.61	1265.64
330.83	1298.41
331.04	1286.12
331.25	1265.64
331.46	1257.45
331.68	1277.93
331.89	1300.46
332.10	1239.02
332.31	1292.27
332.52	1322.99
332.74	1224.69
332.95	1273.84
333.16	1302.51
333.37	1312.75
333.58	1255.40
333.80	1247.21
334.01	1228.78
334.22	1247.21
334.43	1204.21
334.64	1212.40
334.86	1269.74
335.07	1290.22
335.28	1288.17
335.49	1282.03
335.70	1259.50
335.92	1249.26
336.13	1320.94
336.34	1302.51
336.55	1255.40
336.76	1212.40
336.98	1288.17
337.19	1277.93
337.40	1200.11
337.61	1273.84
337.82	1331.18
338.04	1314.80
338.25	1249.26
338.46	1241.07
338.67	1208.30
338.88	1247.21
339.09	1320.94
339.31	1312.75
339.52	1230.83
339.73	1236.97
339.94	1310.70
340.15	1245.16
340.36	1292.27
340.58	1224.69
340.79	1296.36
341.00	1316.84
341.21	1294.32
341.42	1288.17
341.63	1302.51
341.85	1210.35
342.06	1302.51
342.27	1271.79
342.48	1288.17
342.69	1288.17
342.90	1269.74
343.12	1218.54
343.33	1204.21
343.54	1341.42
343.75	1271.79
343.96	1208.30
344.17	1267.69
344.38	1302.51
344.60	1249.26
344.81	1327.08
345.02	1284.08
345.23	1288.17
345.44	1316.84
345.65	1314.80
345.86	1245.16
346.07	1200.11
346.29	1222.64
346.50	1314.80
346.71	1269.74
346.92	1300.46
347.13	1277.93
347.34	1210.35
347.55	1230.83
347.76	1282.03
347.98	1320.94
348.19	1265.64
348.40	1341.42
348.61	1224.69
348.82	1212.40
349.03	1347.56
349.24	1275.88
349.45	1335.28
349.66	1255.40
349.88	1282.03
350.09	1290.22
350.30	1269.74
350.51	1294.32
350.72	1318.89
350.93	1179.63
351.14	1273.84
351.35	1273.84
351.56	1241.07
351.77	1212.40
351.99	1210.35
352.20	1251.31
352.41	1220.59
352.62	1304.56
352.83	1304.56
353.04	1275.88
353.25	1251.31
353.46	1196.01
353.67	1271.79
353.88	1265.64
354.09	1261.55
354.30	1312.75
354.52	1230.83
354.73	1257.45
354.94	1267.69
355.15	1249.26
355.36	1257.45
355.57	1320.94
355.78	1286.12
355.99	1306.60
356.20	1261.55
356.41	1253.36
356.62	1275.88
356.83	1267.69
357.04	1290.22
357.25	1302.51
357.46	1261.55
357.68	1247.21
357.89	1218.54
358.10	1232.88
358.31	1271.79
358.52	1337.32
358.73	1253.36
358.94	1214.45
359.15	1234.93
359.36	1294.32
359.57	1298.41
359.78	1337.32
359.99	1247.21
360.20	1267.69
360.41	1322.99
360.62	1282.03
360.83	1234.93
361.04	1228.78
361.25	1308.65
361.46	1288.17
361.67	1273.84
361.88	1257.45
362.09	1245.16
362.30	1279.98
362.51	1202.16
362.72	1241.07
362.93	1224.69
363.14	1312.75
363.35	1236.97
363.56	1253.36
363.78	1267.69
363.99	1333.23
364.20	1257.45
364.41	1275.88
364.62	1327.08
364.83	1290.22
365.04	1257.45
365.25	1200.11
365.46	1271.79
365.67	1290.22
365.88	1261.55
366.09	1236.97
366.30	1267.69
366.51	1275.88
366.72	1290.22
366.93	1230.83
367.14	1302.51
367.35	1277.93
367.56	1261.55
367.77	1279.98
367.98	1226.73
368.18	1265.64
368.39	1308.65
368.60	1263.60
368.81	1271.79
369.02	1234.93
369.23	1279.98
369.44	1245.16
369.65	1210.35
369.86	1310.70
370.07	1292.27
370.28	1236.97
370.49	1216.49
370.70	1296.36
370.91	1230.83
371.12	1263.60
371.33	1228.78
371.54	1226.73
371.75	1200.11
371.96	1228.78
372.17	1310.70
372.38	1263.60
372.59	1302.51
372.80	1208.30
373.01	1271.79
373.22	1318.89
373.43	1337.32
373.64	1331.18
373.85	1277.93
374.06	1243.12
374.26	1247.21
374.47	1335.28
374.68	1290.22
374.89	1228.78
375.10	1230.83
375.31	1245.16
375.52	1312.75
375.73	1290.22
375.94	1265.64
376.15	1232.88
376.36	1265.64
376.57	1325.04
376.78	1175.53
376.99	1318.89
377.20	1185.77
377.40	1214.45
377.61	1312.75
377.82	1290.22
378.03	1277.93
378.24	1335.28
378.45	1322.99
378.66	1232.88
378.87	1224.69
379.08	1288.17
379.29	1273.84
379.50	1226.73
379.71	1294.32
379.91	1284.08
380.12	1271.79
380.33	1306.60
380.54	1327.08
380.75	1232.88
380.96	1277.93
381.17	1294.32
381.38	1296.36
381.59	1255.40
381.80	1226.73
382.00	1265.64
382.21	1232.88
382.42	1333.23
382.63	1228.78
382.84	1306.60
383.05	1284.08
383.26	1265.64
383.47	1243.12
383.68	1265.64
383.88	1224.69
384.09	1284.08
384.30	1253.36
384.51	1249.26
384.72	1259.50
384.93	1267.69
385.14	1255.40
385.35	1306.60
385.55	1273.84
385.76	1304.56
385.97	1193.97
386.18	1300.46
386.39	1267.69
386.60	1286.12
386.81	1261.55
387.02	1273.84
387.22	1257.45
387.43	1318.89
387.64	1224.69
387.85	1300.46
388.06	1243.12
388.27	1279.98
388.48	1232.88
388.68	1312.75
388.89	1253.36
389.10	1236.97
389.31	1269.74
389.52	1243.12
389.73	1161.20
389.93	1296.36
390.14	1279.98
390.35	1253.36
390.56	1292.27
390.77	1255.40
390.98	1300.46
391.18	1214.45
391.39	1216.49
391.60	1263.60
391.81	1261.55
392.02	1228.78
392.23	1228.78
392.43	1290.22
392.64	1265.64
392.85	1316.84
393.06	1214.45
393.27	1202.16
393.47	1255.40
393.68	1306.60
393.89	1189.87
394.10	1247.21
394.31	1222.64
394.52	1247.21
394.72	1265.64
394.93	1263.60
395.14	1257.45
395.35	1331.18
395.56	1257.45
395.76	1296.36
395.97	1304.56
396.18	1241.07
396.39	1236.97
396.60	1251.31
396.80	1298.41
397.01	1282.03
397.22	1341.42
397.43	1226.73
397.64	1308.65
397.84	1249.26
398.05	1253.36
398.26	1206.25
398.47	1263.60
398.67	1288.17
398.88	1232.88
399.09	1267.69
399.30	1267.69
399.51	1249.26
399.71	1224.69
399.92	1282.03
400.13	1269.74
400.34	1210.35
400.54	1226.73
400.75	1277.93
400.96	1269.74
401.17	1255.40
401.37	1306.60
401.58	1222.64
401.79	1267.69
402.00	1273.84
402.21	1241.07
402.41	1218.54
402.62	1247.21
402.83	1263.60
403.04	1318.89
403.24	1294.32
403.45	1290.22
403.66	1273.84
403.87	1200.11
404.07	1286.12
404.28	1239.02
404.49	1306.60
404.70	1253.36
404.90	1275.88
405.11	1247.21
405.32	1222.64
405.52	1277.93
405.73	1312.75
405.94	1337.32
406.15	1331.18
406.35	1243.12
406.56	1222.64
406.77	1282.03
406.98	1228.78
407.18	1255.40
407.39	1302.51
407.60	1214.45
407.80	1228.78
408.01	1216.49
408.22	1267.69
408.43	1325.04
408.63	1314.80
408.84	1316.84
409.05	1267.69
409.25	1245.16
409.46	1314.80
409.67	1239.02
409.88	1306.60
410.08	1216.49
410.29	1263.60
410.50	1300.46
410.70	1374.19
410.91	1191.92
411.12	1245.16
411.32	1251.31
411.53	1255.40
411.74	1302.51
411.95	1222.64
412.15	1183.73
412.36	1257.45
412.57	1249.26
412.77	1251.31
412.98	1263.60
413.19	1322.99
413.39	1273.84
413.60	1263.60
413.81	1277.93
414.01	1304.56
414.22	1208.30
414.43	1265.64
414.63	1208.30
414.84	1255.40
415.05	1288.17
415.25	1259.50
415.46	1255.40
415.67	1255.40
415.87	1339.37
416.08	1232.88
416.29	1306.60
416.49	1251.31
416.70	1277.93
416.91	1222.64
417.11	1245.16
417.32	1257.45
417.53	1210.35
417.73	1271.79
417.94	1300.46
418.15	1279.98
418.35	1220.59
418.56	1288.17
418.77	1226.73
418.97	1300.46
419.18	1251.31
419.38	1294.32
419.59	1306.60
419.80	1259.50
420.00	1253.36
420.21	1265.64
420.42	1241.07
420.62	1345.52
420.83	1284.08
421.04	1304.56
421.24	1255.40
421.45	1228.78
421.65	1298.41
421.86	1267.69
422.07	1245.16
422.27	1279.98
422.48	1271.79
422.69	1273.84
422.89	1181.68
423.10	1241.07
423.30	1236.97
423.51	1255.40
423.72	1253.36
423.92	1243.12
424.13	1269.74
424.33	1228.78
424.54	1259.50
424.75	1241.07
424.95	1286.12
425.16	1310.70
425.36	1257.45
425.57	1316.84
425.78	1245.16
425.98	1273.84
426.19	1241.07
426.39	1312.75
426.60	1196.01
426.81	1292.27
427.01	1245.16
427.22	1263.60
427.42	1234.93
427.63	1282.03
427.83	1165.29
428.04	1269.74
428.25	1214.45
428.45	1286.12
428.66	1253.36
428.86	1249.26
429.07	1253.36
429.28	1292.27
429.48	1245.16
429.69	1220.59
429.89	1214.45
430.10	1187.82
430.30	1335.28
430.51	1269.74
430.71	1263.60
430.92	1279.98
431.13	1384.43
431.33	1286.12
431.54	1255.40
431.74	1279.98
431.95	1265.64
432.15	1261.55
432.36	1196.01
432.56	1290.22
432.77	1228.78
432.98	1232.88
433.18	1286.12
433.39	1339.37
433.59	1198.06
433.80	1251.31
434.00	1300.46
434.21	1325.04
434.41	1226.73
434.62	1271.79
434.82	1230.83
435.03	1255.40
435.23	1239.02
435.44	1220.59
435.64	1239.02
435.85	1327.08
436.06	1257.45
436.26	1269.74
436.47	1341.42
436.67	1290.22
436.88	1212.40
437.08	1222.64
437.29	1314.80
437.49	1243.12
437.70	1331.18
437.90	1306.60
438.11	1329.13
438.31	1234.93
438.52	1333.23
438.72	1259.50
438.93	1228.78
439.13	1247.21
439.34	1245.16
439.54	1253.36
439.75	1294.32
439.95	1259.50
440.16	1267.69
440.36	1296.36
440.57	1265.64
440.77	1279.98
440.98	1308.65
441.18	1312.75
441.39	1314.80
441.59	1361.90
441.80	1275.88
442.00	1259.50
442.21	1265.64
442.41	1261.55
442.62	1304.56
442.82	1331.18
443.02	1345.52
443.23	1318.89
443.43	1265.64
443.64	1300.46
443.84	1318.89
444.05	1310.70
444.25	1226.73
444.46	1228.78
444.66	1294.32
444.87	1263.60
445.07	1216.49
445.28	1269.74
445.48	1261.55
445.69	1286.12
445.89	1284.08
446.09	1261.55
446.30	1263.60
446.50	1255.40
446.71	1232.88
446.91	1187.82
447.12	1265.64
447.32	1316.84
447.53	1222.64
447.73	1302.51
447.93	1320.94
448.14	1267.69
448.34	1312.75
448.55	1304.56
448.75	1218.54
448.96	1366.00
449.16	1232.88
449.36	1267.69
449.57	1314.80
449.77	1193.97
449.98	1279.98
450.18	1249.26
450.39	1298.41
450.59	1273.84
450.79	1218.54
451.00	1275.88
451.20	1263.60
451.41	1198.06
451.61	1249.26
451.81	1320.94
452.02	1249.26
452.22	1247.21
452.43	1294.32
452.63	1273.84
