SpectraSuite Data File
++++++++++++++++++++++++++++++++++++
Date: Sun Apr 03 19:55:40 CEST 2016
User: root
Dark Spectrum Present: No
Reference Spectrum Present: No
Number of Sampled Component Spectra: 1
Spectrometers: USB4C02835
Integration Time (usec): 10000 (USB4C02835)
Spectra Averaged: 1 (USB4C02835)
Boxcar Smoothing: 0 (USB4C02835)
Correct for Electrical Dark: No (USB4C02835)
Strobe/Lamp Enabled: No (USB4C02835)
Correct for Detector Non-linearity: No (USB4C02835)
Correct for Stray Light: No (USB4C02835)
Number of Pixels in Processed Spectrum: 3648
>>>>>Begin Processed Spectral Data<<<<<
177.47	1243.12
177.69	1243.12
177.91	1243.12
178.13	1173.49
178.36	1368.04
178.58	1239.02
178.80	1241.07
179.02	1253.36
179.24	1243.12
179.46	1279.98
179.68	1191.92
179.90	1257.45
180.13	1261.55
180.35	1216.49
180.57	1224.69
180.79	1288.17
181.01	1228.78
181.23	1282.03
181.45	1333.23
181.67	1243.12
181.90	1236.97
182.12	1265.64
182.34	1243.12
182.56	1259.50
182.78	1265.64
183.00	1284.08
183.22	1265.64
183.44	1290.22
183.66	1277.93
183.89	1245.16
184.11	1224.69
184.33	1269.74
184.55	1304.56
184.77	1290.22
184.99	1298.41
185.21	1247.21
185.43	1331.18
185.65	1208.30
185.87	1337.32
186.10	1271.79
186.32	1214.45
186.54	1261.55
186.76	1257.45
186.98	1191.92
187.20	1284.08
187.42	1267.69
187.64	1249.26
187.86	1249.26
188.08	1261.55
188.30	1263.60
188.52	1265.64
188.75	1308.65
188.97	1247.21
189.19	1208.30
189.41	1265.64
189.63	1249.26
189.85	1210.35
190.07	1261.55
190.29	1282.03
190.51	1279.98
190.73	1228.78
190.95	1302.51
191.17	1308.65
191.39	1226.73
191.61	1249.26
191.84	1243.12
192.06	1236.97
192.28	1204.21
192.50	1269.74
192.72	1251.31
192.94	1306.60
193.16	1247.21
193.38	1181.68
193.60	1228.78
193.82	1239.02
194.04	1302.51
194.26	1226.73
194.48	1277.93
194.70	1304.56
194.92	1290.22
195.14	1273.84
195.36	1224.69
195.58	1288.17
195.80	1251.31
196.02	1271.79
196.24	1255.40
196.46	1243.12
196.69	1300.46
196.91	1304.56
197.13	1337.32
197.35	1251.31
197.57	1310.70
197.79	1382.38
198.01	1243.12
198.23	1245.16
198.45	1251.31
198.67	1245.16
198.89	1275.88
199.11	1335.28
199.33	1232.88
199.55	1286.12
199.77	1241.07
199.99	1286.12
200.21	1249.26
200.43	1290.22
200.65	1277.93
200.87	1241.07
201.09	1359.85
201.31	1241.07
201.53	1275.88
201.75	1273.84
201.97	1261.55
202.19	1327.08
202.41	1327.08
202.63	1310.70
202.85	1232.88
203.07	1322.99
203.29	1288.17
203.51	1175.53
203.73	1282.03
203.95	1294.32
204.17	1312.75
204.39	1200.11
204.61	1261.55
204.83	1292.27
205.05	1322.99
205.27	1296.36
205.49	1261.55
205.71	1216.49
205.93	1210.35
206.15	1202.16
206.37	1241.07
206.59	1316.84
206.81	1247.21
207.03	1245.16
207.25	1198.06
207.47	1290.22
207.69	1249.26
207.91	1304.56
208.13	1255.40
208.34	1318.89
208.56	1212.40
208.78	1259.50
209.00	1249.26
209.22	1247.21
209.44	1261.55
209.66	1263.60
209.88	1261.55
210.10	1232.88
210.32	1253.36
210.54	1261.55
210.76	1261.55
210.98	1239.02
211.20	1257.45
211.42	1222.64
211.64	1171.44
211.86	1179.63
212.08	1275.88
212.30	1306.60
212.52	1327.08
212.74	1212.40
212.96	1224.69
213.17	1335.28
213.39	1259.50
213.61	1236.97
213.83	1310.70
214.05	1271.79
214.27	1249.26
214.49	1232.88
214.71	1320.94
214.93	1288.17
215.15	1306.60
215.37	1306.60
215.59	1304.56
215.81	1204.21
216.03	1275.88
216.24	1224.69
216.46	1200.11
216.68	1298.41
216.90	1279.98
217.12	1269.74
217.34	1261.55
217.56	1230.83
217.78	1216.49
218.00	1243.12
218.22	1255.40
218.44	1265.64
218.66	1284.08
218.87	1314.80
219.09	1310.70
219.31	1230.83
219.53	1310.70
219.75	1226.73
219.97	1347.56
220.19	1214.45
220.41	1241.07
220.63	1320.94
220.85	1322.99
221.06	1296.36
221.28	1320.94
221.50	1265.64
221.72	1300.46
221.94	1206.25
222.16	1308.65
222.38	1247.21
222.60	1243.12
222.82	1261.55
223.03	1273.84
223.25	1290.22
223.47	1267.69
223.69	1267.69
223.91	1302.51
224.13	1263.60
224.35	1245.16
224.57	1234.93
224.78	1290.22
225.00	1306.60
225.22	1304.56
225.44	1306.60
225.66	1249.26
225.88	1257.45
226.10	1239.02
226.32	1288.17
226.53	1284.08
226.75	1325.04
226.97	1298.41
227.19	1257.45
227.41	1290.22
227.63	1241.07
227.85	1261.55
228.06	1279.98
228.28	1247.21
228.50	1286.12
228.72	1308.65
228.94	1288.17
229.16	1249.26
229.37	1224.69
229.59	1179.63
229.81	1296.36
230.03	1284.08
230.25	1218.54
230.47	1230.83
230.69	1286.12
230.90	1243.12
231.12	1292.27
231.34	1257.45
231.56	1232.88
231.78	1306.60
232.00	1214.45
232.21	1236.97
232.43	1271.79
232.65	1282.03
232.87	1241.07
233.09	1249.26
233.30	1267.69
233.52	1263.60
233.74	1339.37
233.96	1306.60
234.18	1331.18
234.40	1257.45
234.61	1239.02
234.83	1177.58
235.05	1261.55
235.27	1224.69
235.49	1239.02
235.70	1265.64
235.92	1224.69
236.14	1370.09
236.36	1308.65
236.58	1214.45
236.79	1300.46
237.01	1236.97
237.23	1247.21
237.45	1277.93
237.67	1322.99
237.88	1277.93
238.10	1298.41
238.32	1290.22
238.54	1304.56
238.76	1275.88
238.97	1343.47
239.19	1261.55
239.41	1251.31
239.63	1167.34
239.85	1320.94
240.06	1193.97
240.28	1310.70
240.50	1239.02
240.72	1261.55
240.93	1298.41
241.15	1271.79
241.37	1267.69
241.59	1316.84
241.81	1273.84
242.02	1273.84
242.24	1216.49
242.46	1226.73
242.68	1316.84
242.89	1230.83
243.11	1363.95
243.33	1294.32
243.55	1329.13
243.76	1257.45
243.98	1191.92
244.20	1286.12
244.42	1265.64
244.64	1247.21
244.85	1300.46
245.07	1341.42
245.29	1265.64
245.51	1259.50
245.72	1259.50
245.94	1206.25
246.16	1302.51
246.38	1208.30
246.59	1282.03
246.81	1310.70
247.03	1239.02
247.24	1302.51
247.46	1292.27
247.68	1312.75
247.90	1347.56
248.11	1259.50
248.33	1265.64
248.55	1294.32
248.77	1196.01
248.98	1357.80
249.20	1306.60
249.42	1261.55
249.64	1193.97
249.85	1257.45
250.07	1271.79
250.29	1322.99
250.50	1304.56
250.72	1263.60
250.94	1263.60
251.16	1226.73
251.37	1302.51
251.59	1247.21
251.81	1370.09
252.02	1275.88
252.24	1249.26
252.46	1236.97
252.68	1198.06
252.89	1290.22
253.11	1298.41
253.33	1286.12
253.54	1249.26
253.76	1298.41
253.98	1251.31
254.20	1265.64
254.41	1232.88
254.63	1288.17
254.85	1292.27
255.06	1232.88
255.28	1279.98
255.50	1249.26
255.71	1253.36
255.93	1257.45
256.15	1286.12
256.36	1288.17
256.58	1255.40
256.80	1259.50
257.02	1175.53
257.23	1212.40
257.45	1241.07
257.67	1214.45
257.88	1288.17
258.10	1265.64
258.32	1236.97
258.53	1247.21
258.75	1245.16
258.97	1206.25
259.18	1261.55
259.40	1216.49
259.62	1376.24
259.83	1277.93
260.05	1253.36
260.27	1308.65
260.48	1224.69
260.70	1329.13
260.92	1210.35
261.13	1224.69
261.35	1269.74
261.57	1316.84
261.78	1206.25
262.00	1255.40
262.22	1273.84
262.43	1294.32
262.65	1279.98
262.86	1198.06
263.08	1282.03
263.30	1286.12
263.51	1282.03
263.73	1259.50
263.95	1200.11
264.16	1263.60
264.38	1277.93
264.60	1210.35
264.81	1263.60
265.03	1251.31
265.25	1282.03
265.46	1243.12
265.68	1275.88
265.89	1322.99
266.11	1193.97
266.33	1279.98
266.54	1314.80
266.76	1290.22
266.98	1253.36
267.19	1247.21
267.41	1263.60
267.62	1353.71
267.84	1318.89
268.06	1239.02
268.27	1263.60
268.49	1181.68
268.70	1245.16
268.92	1302.51
269.14	1224.69
269.35	1288.17
269.57	1220.59
269.79	1290.22
270.00	1277.93
270.22	1263.60
270.43	1259.50
270.65	1298.41
270.87	1335.28
271.08	1331.18
271.30	1224.69
271.51	1265.64
271.73	1296.36
271.95	1279.98
272.16	1290.22
272.38	1239.02
272.59	1243.12
272.81	1306.60
273.02	1343.47
273.24	1298.41
273.46	1320.94
273.67	1288.17
273.89	1290.22
274.10	1265.64
274.32	1279.98
274.54	1275.88
274.75	1339.37
274.97	1275.88
275.18	1288.17
275.40	1228.78
275.61	1208.30
275.83	1302.51
276.05	1359.85
276.26	1249.26
276.48	1267.69
276.69	1271.79
276.91	1331.18
277.12	1279.98
277.34	1300.46
277.55	1253.36
277.77	1234.93
277.99	1312.75
278.20	1306.60
278.42	1282.03
278.63	1261.55
278.85	1232.88
279.06	1255.40
279.28	1333.23
279.49	1222.64
279.71	1339.37
279.93	1255.40
280.14	1275.88
280.36	1257.45
280.57	1234.93
280.79	1275.88
281.00	1243.12
281.22	1239.02
281.43	1279.98
281.65	1294.32
281.86	1298.41
282.08	1279.98
282.29	1288.17
282.51	1257.45
282.73	1286.12
282.94	1236.97
283.16	1298.41
283.37	1259.50
283.59	1284.08
283.80	1220.59
284.02	1253.36
284.23	1267.69
284.45	1288.17
284.66	1179.63
284.88	1267.69
285.09	1263.60
285.31	1312.75
285.52	1302.51
285.74	1179.63
285.95	1257.45
286.17	1269.74
286.38	1212.40
286.60	1230.83
286.81	1337.32
287.03	1316.84
287.24	1261.55
287.46	1224.69
287.67	1226.73
287.89	1263.60
288.10	1241.07
288.32	1239.02
288.53	1232.88
288.75	1343.47
288.96	1249.26
289.18	1259.50
289.39	1300.46
289.61	1179.63
289.82	1294.32
290.04	1279.98
290.25	1253.36
290.47	1245.16
290.68	1247.21
290.90	1249.26
291.11	1253.36
291.33	1265.64
291.54	1189.87
291.76	1277.93
291.97	1290.22
292.18	1288.17
292.40	1306.60
292.61	1282.03
292.83	1263.60
293.04	1249.26
293.26	1185.77
293.47	1277.93
293.69	1257.45
293.90	1282.03
294.12	1284.08
294.33	1265.64
294.55	1279.98
294.76	1243.12
294.97	1333.23
295.19	1265.64
295.40	1298.41
295.62	1298.41
295.83	1292.27
296.05	1255.40
296.26	1245.16
296.48	1302.51
296.69	1300.46
296.90	1288.17
297.12	1210.35
297.33	1259.50
297.55	1271.79
297.76	1236.97
297.98	1224.69
298.19	1251.31
298.41	1220.59
298.62	1247.21
298.83	1292.27
299.05	1351.66
299.26	1251.31
299.48	1236.97
299.69	1226.73
299.90	1279.98
300.12	1288.17
300.33	1282.03
300.55	1204.21
300.76	1273.84
300.98	1271.79
301.19	1275.88
301.40	1284.08
301.62	1273.84
301.83	1267.69
302.05	1298.41
302.26	1241.07
302.47	1220.59
302.69	1187.82
302.90	1322.99
303.12	1228.78
303.33	1390.57
303.54	1220.59
303.76	1259.50
303.97	1327.08
304.19	1308.65
304.40	1251.31
304.61	1286.12
304.83	1329.13
305.04	1339.37
305.26	1214.45
305.47	1255.40
305.68	1236.97
305.90	1204.21
306.11	1304.56
306.33	1312.75
306.54	1249.26
306.75	1249.26
306.97	1253.36
307.18	1329.13
307.39	1206.25
307.61	1320.94
307.82	1302.51
308.04	1286.12
308.25	1265.64
308.46	1253.36
308.68	1282.03
308.89	1140.72
309.10	1273.84
309.32	1294.32
309.53	1220.59
309.74	1251.31
309.96	1245.16
310.17	1331.18
310.39	1228.78
310.60	1312.75
310.81	1263.60
311.03	1304.56
311.24	1333.23
311.45	1206.25
311.67	1363.95
311.88	1269.74
312.09	1277.93
312.31	1282.03
312.52	1265.64
312.73	1265.64
312.95	1267.69
313.16	1306.60
313.37	1273.84
313.59	1286.12
313.80	1294.32
314.01	1257.45
314.23	1275.88
314.44	1271.79
314.65	1290.22
314.87	1249.26
315.08	1275.88
315.29	1257.45
315.51	1277.93
315.72	1302.51
315.93	1292.27
316.15	1286.12
316.36	1279.98
316.57	1286.12
316.79	1198.06
317.00	1267.69
317.21	1302.51
317.43	1267.69
317.64	1216.49
317.85	1234.93
318.07	1306.60
318.28	1216.49
318.49	1249.26
318.70	1298.41
318.92	1335.28
319.13	1271.79
319.34	1322.99
319.56	1243.12
319.77	1269.74
319.98	1284.08
320.20	1249.26
320.41	1308.65
320.62	1271.79
320.83	1255.40
321.05	1286.12
321.26	1294.32
321.47	1325.04
321.69	1284.08
321.90	1267.69
322.11	1304.56
322.32	1265.64
322.54	1224.69
322.75	1253.36
322.96	1236.97
323.18	1200.11
323.39	1208.30
323.60	1306.60
323.81	1243.12
324.03	1265.64
324.24	1253.36
324.45	1300.46
324.66	1316.84
324.88	1261.55
325.09	1318.89
325.30	1263.60
325.52	1308.65
325.73	1292.27
325.94	1228.78
326.15	1267.69
326.37	1275.88
326.58	1282.03
326.79	1290.22
327.00	1261.55
327.22	1308.65
327.43	1232.88
327.64	1300.46
327.85	1251.31
328.07	1220.59
328.28	1220.59
328.49	1331.18
328.70	1288.17
328.92	1196.01
329.13	1318.89
329.34	1257.45
329.55	1257.45
329.76	1279.98
329.98	1288.17
330.19	1318.89
330.40	1228.78
330.61	1200.11
330.83	1251.31
331.04	1282.03
331.25	1175.53
331.46	1298.41
331.68	1275.88
331.89	1245.16
332.10	1269.74
332.31	1224.69
332.52	1243.12
332.74	1226.73
332.95	1257.45
333.16	1298.41
333.37	1267.69
333.58	1304.56
333.80	1302.51
334.01	1312.75
334.22	1308.65
334.43	1288.17
334.64	1306.60
334.86	1284.08
335.07	1273.84
335.28	1314.80
335.49	1298.41
335.70	1290.22
335.92	1204.21
336.13	1255.40
336.34	1243.12
336.55	1279.98
336.76	1302.51
336.98	1249.26
337.19	1249.26
337.40	1251.31
337.61	1255.40
337.82	1273.84
338.04	1345.52
338.25	1294.32
338.46	1191.92
338.67	1257.45
338.88	1232.88
339.09	1314.80
339.31	1241.07
339.52	1310.70
339.73	1265.64
339.94	1339.37
340.15	1302.51
340.36	1277.93
340.58	1257.45
340.79	1271.79
341.00	1140.72
341.21	1290.22
341.42	1216.49
341.63	1171.44
341.85	1300.46
342.06	1298.41
342.27	1333.23
342.48	1314.80
342.69	1269.74
342.90	1343.47
343.12	1312.75
343.33	1300.46
343.54	1257.45
343.75	1294.32
343.96	1314.80
344.17	1247.21
344.38	1257.45
344.60	1187.82
344.81	1204.21
345.02	1216.49
345.23	1249.26
345.44	1298.41
345.65	1269.74
345.86	1257.45
346.07	1261.55
346.29	1343.47
346.50	1214.45
346.71	1267.69
346.92	1224.69
347.13	1251.31
347.34	1277.93
347.55	1273.84
347.76	1251.31
347.98	1206.25
348.19	1253.36
348.40	1296.36
348.61	1251.31
348.82	1241.07
349.03	1275.88
349.24	1247.21
349.45	1275.88
349.66	1316.84
349.88	1234.93
350.09	1247.21
350.30	1267.69
350.51	1294.32
350.72	1257.45
350.93	1304.56
351.14	1241.07
351.35	1259.50
351.56	1335.28
351.77	1255.40
351.99	1292.27
352.20	1198.06
352.41	1277.93
352.62	1318.89
352.83	1216.49
353.04	1222.64
353.25	1232.88
353.46	1216.49
353.67	1216.49
353.88	1259.50
354.09	1241.07
354.30	1234.93
354.52	1247.21
354.73	1220.59
354.94	1230.83
355.15	1253.36
355.36	1263.60
355.57	1255.40
355.78	1234.93
355.99	1271.79
356.20	1251.31
356.41	1224.69
356.62	1243.12
356.83	1279.98
357.04	1312.75
357.25	1298.41
357.46	1306.60
357.68	1288.17
357.89	1284.08
358.10	1279.98
358.31	1273.84
358.52	1245.16
358.73	1253.36
358.94	1269.74
359.15	1241.07
359.36	1206.25
359.57	1296.36
359.78	1290.22
359.99	1243.12
360.20	1318.89
360.41	1224.69
360.62	1273.84
360.83	1269.74
361.04	1265.64
361.25	1267.69
361.46	1282.03
361.67	1282.03
361.88	1249.26
362.09	1241.07
362.30	1263.60
362.51	1226.73
362.72	1292.27
362.93	1251.31
363.14	1239.02
363.35	1193.97
363.56	1343.47
363.78	1294.32
363.99	1273.84
364.20	1269.74
364.41	1277.93
364.62	1273.84
364.83	1241.07
365.04	1243.12
365.25	1247.21
365.46	1189.87
365.67	1241.07
365.88	1226.73
366.09	1302.51
366.30	1220.59
366.51	1239.02
366.72	1275.88
366.93	1193.97
367.14	1212.40
367.35	1239.02
367.56	1271.79
367.77	1257.45
367.98	1279.98
368.18	1245.16
368.39	1187.82
368.60	1214.45
368.81	1267.69
369.02	1255.40
369.23	1228.78
369.44	1245.16
369.65	1357.80
369.86	1208.30
370.07	1255.40
370.28	1269.74
370.49	1234.93
370.70	1243.12
370.91	1198.06
371.12	1183.73
371.33	1247.21
371.54	1282.03
371.75	1286.12
371.96	1218.54
372.17	1230.83
372.38	1329.13
372.59	1277.93
372.80	1165.29
373.01	1343.47
373.22	1263.60
373.43	1298.41
373.64	1308.65
373.85	1251.31
374.06	1257.45
374.26	1206.25
374.47	1265.64
374.68	1220.59
374.89	1251.31
375.10	1310.70
375.31	1230.83
375.52	1269.74
375.73	1282.03
375.94	1306.60
376.15	1255.40
376.36	1318.89
376.57	1298.41
376.78	1228.78
376.99	1263.60
377.20	1255.40
377.40	1265.64
377.61	1282.03
377.82	1269.74
378.03	1306.60
378.24	1255.40
378.45	1257.45
378.66	1261.55
378.87	1335.28
379.08	1279.98
379.29	1253.36
379.50	1265.64
379.71	1185.77
379.91	1320.94
380.12	1210.35
380.33	1255.40
380.54	1288.17
380.75	1269.74
380.96	1275.88
381.17	1273.84
381.38	1277.93
381.59	1261.55
381.80	1300.46
382.00	1316.84
382.21	1282.03
382.42	1224.69
382.63	1333.23
382.84	1247.21
383.05	1216.49
383.26	1261.55
383.47	1314.80
383.68	1255.40
383.88	1282.03
384.09	1277.93
384.30	1253.36
384.51	1241.07
384.72	1239.02
384.93	1220.59
385.14	1255.40
385.35	1306.60
385.55	1310.70
385.76	1337.32
385.97	1279.98
386.18	1247.21
386.39	1282.03
386.60	1255.40
386.81	1275.88
387.02	1273.84
387.22	1277.93
387.43	1161.20
387.64	1263.60
387.85	1298.41
388.06	1296.36
388.27	1284.08
388.48	1198.06
388.68	1345.52
388.89	1277.93
389.10	1320.94
389.31	1191.92
389.52	1214.45
389.73	1253.36
389.93	1204.21
390.14	1263.60
390.35	1265.64
390.56	1300.46
390.77	1294.32
390.98	1251.31
391.18	1302.51
391.39	1249.26
391.60	1218.54
391.81	1261.55
392.02	1245.16
392.23	1239.02
392.43	1167.34
392.64	1255.40
392.85	1257.45
393.06	1306.60
393.27	1236.97
393.47	1224.69
393.68	1286.12
393.89	1302.51
394.10	1148.91
394.31	1284.08
394.52	1265.64
394.72	1261.55
394.93	1271.79
395.14	1198.06
395.35	1277.93
395.56	1279.98
395.76	1202.16
395.97	1249.26
396.18	1216.49
396.39	1251.31
396.60	1275.88
396.80	1159.15
397.01	1255.40
397.22	1279.98
397.43	1345.52
397.64	1232.88
397.84	1255.40
398.05	1310.70
398.26	1247.21
398.47	1259.50
398.67	1216.49
398.88	1304.56
399.09	1271.79
399.30	1286.12
399.51	1259.50
399.71	1306.60
399.92	1306.60
400.13	1259.50
400.34	1261.55
400.54	1282.03
400.75	1267.69
400.96	1341.42
401.17	1292.27
401.37	1261.55
401.58	1265.64
401.79	1267.69
402.00	1306.60
402.21	1216.49
402.41	1277.93
402.62	1275.88
402.83	1335.28
403.04	1243.12
403.24	1263.60
403.45	1259.50
403.66	1355.76
403.87	1267.69
404.07	1247.21
404.28	1200.11
404.49	1267.69
404.70	1306.60
404.90	1230.83
405.11	1243.12
405.32	1271.79
405.52	1271.79
405.73	1304.56
405.94	1218.54
406.15	1245.16
406.35	1220.59
406.56	1275.88
406.77	1277.93
406.98	1265.64
407.18	1255.40
407.39	1255.40
407.60	1269.74
407.80	1257.45
408.01	1232.88
408.22	1234.93
408.43	1259.50
408.63	1312.75
408.84	1298.41
409.05	1241.07
409.25	1198.06
409.46	1290.22
409.67	1236.97
409.88	1257.45
410.08	1284.08
410.29	1263.60
410.50	1239.02
410.70	1322.99
410.91	1196.01
411.12	1282.03
411.32	1259.50
411.53	1277.93
411.74	1275.88
411.95	1234.93
412.15	1245.16
412.36	1243.12
412.57	1212.40
412.77	1341.42
412.98	1247.21
413.19	1271.79
413.39	1347.56
413.60	1298.41
413.81	1249.26
414.01	1306.60
414.22	1261.55
414.43	1331.18
414.63	1239.02
414.84	1322.99
415.05	1198.06
415.25	1224.69
415.46	1308.65
415.67	1286.12
415.87	1253.36
416.08	1241.07
416.29	1181.68
416.49	1259.50
416.70	1251.31
416.91	1263.60
417.11	1247.21
417.32	1298.41
417.53	1271.79
417.73	1277.93
417.94	1202.16
418.15	1271.79
418.35	1253.36
418.56	1351.66
418.77	1187.82
418.97	1306.60
419.18	1298.41
419.38	1261.55
419.59	1234.93
419.80	1290.22
420.00	1269.74
420.21	1288.17
420.42	1273.84
420.62	1271.79
420.83	1232.88
421.04	1355.76
421.24	1234.93
421.45	1275.88
421.65	1243.12
421.86	1355.76
422.07	1261.55
422.27	1292.27
422.48	1202.16
422.69	1249.26
422.89	1282.03
423.10	1245.16
423.30	1275.88
423.51	1298.41
423.72	1347.56
423.92	1269.74
424.13	1288.17
424.33	1265.64
424.54	1290.22
424.75	1267.69
424.95	1243.12
425.16	1290.22
425.36	1308.65
425.57	1327.08
425.78	1275.88
425.98	1277.93
426.19	1257.45
426.39	1257.45
426.60	1300.46
426.81	1333.23
427.01	1239.02
427.22	1282.03
427.42	1337.32
427.63	1284.08
427.83	1261.55
428.04	1304.56
428.25	1230.83
428.45	1296.36
428.66	1228.78
428.86	1271.79
429.07	1183.73
429.28	1322.99
429.48	1263.60
429.69	1279.98
429.89	1329.13
430.10	1271.79
430.30	1282.03
430.51	1249.26
430.71	1271.79
430.92	1288.17
431.13	1230.83
431.33	1222.64
431.54	1273.84
431.74	1236.97
431.95	1331.18
432.15	1255.40
432.36	1300.46
432.56	1249.26
432.77	1255.40
432.98	1318.89
433.18	1241.07
433.39	1314.80
433.59	1253.36
433.80	1320.94
434.00	1292.27
434.21	1282.03
434.41	1282.03
434.62	1245.16
434.82	1261.55
435.03	1263.60
435.23	1224.69
435.44	1226.73
435.64	1234.93
435.85	1288.17
436.06	1341.42
436.26	1290.22
436.47	1265.64
436.67	1279.98
436.88	1267.69
437.08	1294.32
437.29	1314.80
437.49	1273.84
437.70	1273.84
437.90	1271.79
438.11	1316.84
438.31	1247.21
438.52	1267.69
438.72	1249.26
438.93	1308.65
439.13	1263.60
439.34	1290.22
439.54	1351.66
439.75	1314.80
439.95	1282.03
440.16	1337.32
440.36	1261.55
440.57	1226.73
440.77	1316.84
440.98	1304.56
441.18	1357.80
441.39	1232.88
441.59	1279.98
441.80	1312.75
442.00	1259.50
442.21	1259.50
442.41	1304.56
442.62	1234.93
442.82	1263.60
443.02	1259.50
443.23	1282.03
443.43	1249.26
443.64	1224.69
443.84	1249.26
444.05	1267.69
444.25	1183.73
444.46	1333.23
444.66	1230.83
444.87	1341.42
445.07	1267.69
445.28	1275.88
445.48	1294.32
445.69	1271.79
445.89	1314.80
446.09	1327.08
446.30	1191.92
446.50	1271.79
446.71	1257.45
446.91	1277.93
447.12	1325.04
447.32	1222.64
447.53	1286.12
447.73	1279.98
447.93	1320.94
448.14	1255.40
448.34	1316.84
448.55	1298.41
448.75	1308.65
448.96	1296.36
449.16	1243.12
449.36	1290.22
449.57	1239.02
449.77	1282.03
449.98	1298.41
450.18	1296.36
450.39	1282.03
450.59	1241.07
450.79	1333.23
451.00	1255.40
451.20	1298.41
451.41	1245.16
451.61	1279.98
451.81	1263.60
452.02	1290.22
452.22	1312.75
452.43	1314.80
452.63	1239.02
