SpectraSuite Data File
++++++++++++++++++++++++++++++++++++
Date: Sun Apr 03 19:55:42 CEST 2016
User: root
Dark Spectrum Present: No
Reference Spectrum Present: No
Number of Sampled Component Spectra: 1
Spectrometers: USB4C02835
Integration Time (usec): 10000 (USB4C02835)
Spectra Averaged: 1 (USB4C02835)
Boxcar Smoothing: 0 (USB4C02835)
Correct for Electrical Dark: No (USB4C02835)
Strobe/Lamp Enabled: No (USB4C02835)
Correct for Detector Non-linearity: No (USB4C02835)
Correct for Stray Light: No (USB4C02835)
Number of Pixels in Processed Spectrum: 3648
>>>>>Begin Processed Spectral Data<<<<<
177.47	1228.78
177.69	1228.78
177.91	1228.78
178.13	1169.39
178.36	1247.21
178.58	1288.17
178.80	1257.45
179.02	1261.55
179.24	1265.64
179.46	1288.17
179.68	1259.50
179.90	1298.41
180.13	1204.21
180.35	1220.59
180.57	1222.64
180.79	1298.41
181.01	1271.79
181.23	1253.36
181.45	1212.40
181.67	1251.31
181.90	1245.16
182.12	1288.17
182.34	1300.46
182.56	1249.26
182.78	1312.75
183.00	1243.12
183.22	1259.50
183.44	1267.69
183.66	1288.17
183.89	1206.25
184.11	1290.22
184.33	1226.73
184.55	1290.22
184.77	1312.75
184.99	1220.59
185.21	1212.40
185.43	1271.79
185.65	1282.03
185.87	1335.28
186.10	1318.89
186.32	1222.64
186.54	1243.12
186.76	1249.26
186.98	1282.03
187.20	1255.40
187.42	1302.51
187.64	1249.26
187.86	1259.50
188.08	1253.36
188.30	1337.32
188.52	1200.11
188.75	1298.41
188.97	1308.65
189.19	1288.17
189.41	1318.89
189.63	1275.88
189.85	1343.47
190.07	1327.08
190.29	1222.64
190.51	1277.93
190.73	1257.45
190.95	1325.04
191.17	1249.26
191.39	1245.16
191.61	1224.69
191.84	1261.55
192.06	1249.26
192.28	1251.31
192.50	1220.59
192.72	1282.03
192.94	1290.22
193.16	1273.84
193.38	1316.84
193.60	1277.93
193.82	1241.07
194.04	1279.98
194.26	1232.88
194.48	1232.88
194.70	1245.16
194.92	1239.02
195.14	1329.13
195.36	1226.73
195.58	1273.84
195.80	1239.02
196.02	1337.32
196.24	1331.18
196.46	1273.84
196.69	1314.80
196.91	1273.84
197.13	1314.80
197.35	1314.80
197.57	1304.56
197.79	1292.27
198.01	1331.18
198.23	1232.88
198.45	1273.84
198.67	1247.21
198.89	1277.93
199.11	1212.40
199.33	1277.93
199.55	1294.32
199.77	1300.46
199.99	1206.25
200.21	1239.02
200.43	1245.16
200.65	1257.45
200.87	1304.56
201.09	1279.98
201.31	1277.93
201.53	1277.93
201.75	1222.64
201.97	1206.25
202.19	1267.69
202.41	1226.73
202.63	1202.16
202.85	1253.36
203.07	1255.40
203.29	1290.22
203.51	1277.93
203.73	1253.36
203.95	1277.93
204.17	1236.97
204.39	1236.97
204.61	1210.35
204.83	1269.74
205.05	1333.23
205.27	1296.36
205.49	1279.98
205.71	1318.89
205.93	1218.54
206.15	1306.60
206.37	1265.64
206.59	1279.98
206.81	1312.75
207.03	1239.02
207.25	1236.97
207.47	1298.41
207.69	1251.31
207.91	1228.78
208.13	1282.03
208.34	1210.35
208.56	1230.83
208.78	1255.40
209.00	1284.08
209.22	1271.79
209.44	1255.40
209.66	1236.97
209.88	1316.84
210.10	1196.01
210.32	1290.22
210.54	1261.55
210.76	1349.61
210.98	1193.97
211.20	1284.08
211.42	1243.12
211.64	1253.36
211.86	1247.21
212.08	1298.41
212.30	1271.79
212.52	1286.12
212.74	1255.40
212.96	1310.70
213.17	1257.45
213.39	1259.50
213.61	1310.70
213.83	1220.59
214.05	1265.64
214.27	1216.49
214.49	1267.69
214.71	1265.64
214.93	1302.51
215.15	1212.40
215.37	1300.46
215.59	1271.79
215.81	1269.74
216.03	1290.22
216.24	1273.84
216.46	1265.64
216.68	1183.73
216.90	1204.21
217.12	1331.18
217.34	1220.59
217.56	1241.07
217.78	1251.31
218.00	1216.49
218.22	1228.78
218.44	1286.12
218.66	1249.26
218.87	1269.74
219.09	1251.31
219.31	1290.22
219.53	1302.51
219.75	1239.02
219.97	1279.98
220.19	1322.99
220.41	1226.73
220.63	1230.83
220.85	1277.93
221.06	1220.59
221.28	1355.76
221.50	1222.64
221.72	1243.12
221.94	1230.83
222.16	1269.74
222.38	1228.78
222.60	1288.17
222.82	1271.79
223.03	1282.03
223.25	1298.41
223.47	1261.55
223.69	1312.75
223.91	1255.40
224.13	1298.41
224.35	1292.27
224.57	1337.32
224.78	1308.65
225.00	1175.53
225.22	1325.04
225.44	1265.64
225.66	1294.32
225.88	1335.28
226.10	1253.36
226.32	1265.64
226.53	1239.02
226.75	1275.88
226.97	1310.70
227.19	1273.84
227.41	1255.40
227.63	1241.07
227.85	1230.83
228.06	1273.84
228.28	1241.07
228.50	1275.88
228.72	1271.79
228.94	1290.22
229.16	1232.88
229.37	1284.08
229.59	1296.36
229.81	1275.88
230.03	1271.79
230.25	1294.32
230.47	1236.97
230.69	1255.40
230.90	1339.37
231.12	1261.55
231.34	1200.11
231.56	1372.14
231.78	1236.97
232.00	1218.54
232.21	1157.10
232.43	1277.93
232.65	1228.78
232.87	1296.36
233.09	1267.69
233.30	1345.52
233.52	1239.02
233.74	1245.16
233.96	1308.65
234.18	1351.66
234.40	1232.88
234.61	1304.56
234.83	1310.70
235.05	1265.64
235.27	1236.97
235.49	1269.74
235.70	1316.84
235.92	1320.94
236.14	1196.01
236.36	1261.55
236.58	1241.07
236.79	1284.08
237.01	1232.88
237.23	1255.40
237.45	1296.36
237.67	1312.75
237.88	1255.40
238.10	1243.12
238.32	1300.46
238.54	1265.64
238.76	1275.88
238.97	1255.40
239.19	1236.97
239.41	1234.93
239.63	1255.40
239.85	1208.30
240.06	1314.80
240.28	1312.75
240.50	1277.93
240.72	1220.59
240.93	1245.16
241.15	1228.78
241.37	1257.45
241.59	1298.41
241.81	1239.02
242.02	1320.94
242.24	1191.92
242.46	1314.80
242.68	1198.06
242.89	1353.71
243.11	1320.94
243.33	1378.28
243.55	1163.25
243.76	1282.03
243.98	1228.78
244.20	1259.50
244.42	1273.84
244.64	1329.13
244.85	1282.03
245.07	1282.03
245.29	1173.49
245.51	1372.14
245.72	1257.45
245.94	1261.55
246.16	1271.79
246.38	1337.32
246.59	1329.13
246.81	1247.21
247.03	1245.16
247.24	1228.78
247.46	1308.65
247.68	1337.32
247.90	1251.31
248.11	1353.71
248.33	1286.12
248.55	1388.52
248.77	1284.08
248.98	1273.84
249.20	1243.12
249.42	1296.36
249.64	1261.55
249.85	1296.36
250.07	1261.55
250.29	1263.60
250.50	1261.55
250.72	1337.32
250.94	1230.83
251.16	1230.83
251.37	1269.74
251.59	1234.93
251.81	1222.64
252.02	1325.04
252.24	1306.60
252.46	1300.46
252.68	1337.32
252.89	1300.46
253.11	1206.25
253.33	1308.65
253.54	1290.22
253.76	1302.51
253.98	1302.51
254.20	1304.56
254.41	1304.56
254.63	1308.65
254.85	1267.69
255.06	1267.69
255.28	1226.73
255.50	1290.22
255.71	1239.02
255.93	1335.28
256.15	1255.40
256.36	1241.07
256.58	1337.32
256.80	1216.49
257.02	1228.78
257.23	1255.40
257.45	1279.98
257.67	1298.41
257.88	1282.03
258.10	1228.78
258.32	1312.75
258.53	1310.70
258.75	1282.03
258.97	1294.32
259.18	1288.17
259.40	1310.70
259.62	1239.02
259.83	1241.07
260.05	1286.12
260.27	1208.30
260.48	1245.16
260.70	1257.45
260.92	1216.49
261.13	1259.50
261.35	1337.32
261.57	1279.98
261.78	1300.46
262.00	1226.73
262.22	1239.02
262.43	1253.36
262.65	1232.88
262.86	1298.41
263.08	1263.60
263.30	1261.55
263.51	1253.36
263.73	1212.40
263.95	1261.55
264.16	1269.74
264.38	1296.36
264.60	1265.64
264.81	1345.52
265.03	1277.93
265.25	1282.03
265.46	1312.75
265.68	1241.07
265.89	1253.36
266.11	1228.78
266.33	1282.03
266.54	1294.32
266.76	1216.49
266.98	1284.08
267.19	1320.94
267.41	1265.64
267.62	1300.46
267.84	1284.08
268.06	1230.83
268.27	1236.97
268.49	1249.26
268.70	1218.54
268.92	1245.16
269.14	1306.60
269.35	1312.75
269.57	1288.17
269.79	1376.24
270.00	1310.70
270.22	1333.23
270.43	1200.11
270.65	1249.26
270.87	1261.55
271.08	1249.26
271.30	1267.69
271.51	1263.60
271.73	1241.07
271.95	1304.56
272.16	1253.36
272.38	1284.08
272.59	1261.55
272.81	1322.99
273.02	1259.50
273.24	1255.40
273.46	1253.36
273.67	1241.07
273.89	1247.21
274.10	1261.55
274.32	1306.60
274.54	1212.40
274.75	1191.92
274.97	1236.97
275.18	1267.69
275.40	1247.21
275.61	1296.36
275.83	1329.13
276.05	1302.51
276.26	1261.55
276.48	1310.70
276.69	1228.78
276.91	1298.41
277.12	1222.64
277.34	1214.45
277.55	1269.74
277.77	1339.37
277.99	1279.98
278.20	1239.02
278.42	1271.79
278.63	1298.41
278.85	1312.75
279.06	1261.55
279.28	1296.36
279.49	1241.07
279.71	1282.03
279.93	1218.54
280.14	1253.36
280.36	1214.45
280.57	1263.60
280.79	1322.99
281.00	1218.54
281.22	1202.16
281.43	1253.36
281.65	1222.64
281.86	1259.50
282.08	1259.50
282.29	1277.93
282.51	1368.04
282.73	1236.97
282.94	1263.60
283.16	1212.40
283.37	1204.21
283.59	1298.41
283.80	1267.69
284.02	1216.49
284.23	1300.46
284.45	1228.78
284.66	1214.45
284.88	1161.20
285.09	1239.02
285.31	1261.55
285.52	1292.27
285.74	1230.83
285.95	1245.16
286.17	1228.78
286.38	1284.08
286.60	1259.50
286.81	1202.16
287.03	1337.32
287.24	1308.65
287.46	1341.42
287.67	1253.36
287.89	1267.69
288.10	1261.55
288.32	1259.50
288.53	1204.21
288.75	1257.45
288.96	1290.22
289.18	1239.02
289.39	1263.60
289.61	1286.12
289.82	1269.74
290.04	1226.73
290.25	1245.16
290.47	1366.00
290.68	1296.36
290.90	1269.74
291.11	1239.02
291.33	1245.16
291.54	1251.31
291.76	1216.49
291.97	1228.78
292.18	1320.94
292.40	1279.98
292.61	1245.16
292.83	1230.83
293.04	1308.65
293.26	1271.79
293.47	1286.12
293.69	1249.26
293.90	1290.22
294.12	1306.60
294.33	1279.98
294.55	1247.21
294.76	1222.64
294.97	1275.88
295.19	1253.36
295.40	1308.65
295.62	1282.03
295.83	1279.98
296.05	1269.74
296.26	1298.41
296.48	1210.35
296.69	1265.64
296.90	1226.73
297.12	1271.79
297.33	1341.42
297.55	1255.40
297.76	1302.51
297.98	1226.73
298.19	1204.21
298.41	1271.79
298.62	1247.21
298.83	1236.97
299.05	1263.60
299.26	1273.84
299.48	1361.90
299.69	1200.11
299.90	1265.64
300.12	1257.45
300.33	1312.75
300.55	1226.73
300.76	1302.51
300.98	1245.16
301.19	1325.04
301.40	1298.41
301.62	1304.56
301.83	1374.19
302.05	1249.26
302.26	1230.83
302.47	1253.36
302.69	1300.46
302.90	1263.60
303.12	1296.36
303.33	1275.88
303.54	1288.17
303.76	1241.07
303.97	1271.79
304.19	1234.93
304.40	1275.88
304.61	1351.66
304.83	1241.07
305.04	1286.12
305.26	1304.56
305.47	1282.03
305.68	1275.88
305.90	1312.75
306.11	1269.74
306.33	1245.16
306.54	1206.25
306.75	1253.36
306.97	1220.59
307.18	1310.70
307.39	1220.59
307.61	1343.47
307.82	1296.36
308.04	1333.23
308.25	1269.74
308.46	1292.27
308.68	1290.22
308.89	1275.88
309.10	1259.50
309.32	1226.73
309.53	1249.26
309.74	1267.69
309.96	1296.36
310.17	1296.36
310.39	1279.98
310.60	1308.65
310.81	1224.69
311.03	1234.93
311.24	1241.07
311.45	1288.17
311.67	1261.55
311.88	1284.08
312.09	1312.75
312.31	1167.34
312.52	1273.84
312.73	1273.84
312.95	1267.69
313.16	1187.82
313.37	1261.55
313.59	1253.36
313.80	1273.84
314.01	1275.88
314.23	1273.84
314.44	1300.46
314.65	1273.84
314.87	1267.69
315.08	1208.30
315.29	1286.12
315.51	1318.89
315.72	1257.45
315.93	1300.46
316.15	1273.84
316.36	1255.40
316.57	1224.69
316.79	1271.79
317.00	1327.08
317.21	1316.84
317.43	1296.36
317.64	1292.27
317.85	1320.94
318.07	1198.06
318.28	1337.32
318.49	1284.08
318.70	1308.65
318.92	1343.47
319.13	1206.25
319.34	1267.69
319.56	1296.36
319.77	1212.40
319.98	1263.60
320.20	1288.17
320.41	1366.00
320.62	1298.41
320.83	1279.98
321.05	1241.07
321.26	1347.56
321.47	1314.80
321.69	1300.46
321.90	1284.08
322.11	1216.49
322.32	1228.78
322.54	1251.31
322.75	1314.80
322.96	1327.08
323.18	1322.99
323.39	1212.40
323.60	1265.64
323.81	1216.49
324.03	1308.65
324.24	1277.93
324.45	1271.79
324.66	1228.78
324.88	1322.99
325.09	1257.45
325.30	1236.97
325.52	1241.07
325.73	1308.65
325.94	1243.12
326.15	1224.69
326.37	1249.26
326.58	1249.26
326.79	1232.88
327.00	1228.78
327.22	1294.32
327.43	1335.28
327.64	1251.31
327.85	1216.49
328.07	1273.84
328.28	1183.73
328.49	1304.56
328.70	1222.64
328.92	1271.79
329.13	1218.54
329.34	1249.26
329.55	1220.59
329.76	1292.27
329.98	1263.60
330.19	1181.68
330.40	1320.94
330.61	1298.41
330.83	1251.31
331.04	1255.40
331.25	1259.50
331.46	1282.03
331.68	1239.02
331.89	1198.06
332.10	1224.69
332.31	1241.07
332.52	1245.16
332.74	1265.64
332.95	1273.84
333.16	1241.07
333.37	1308.65
333.58	1222.64
333.80	1331.18
334.01	1294.32
334.22	1236.97
334.43	1230.83
334.64	1322.99
334.86	1302.51
335.07	1329.13
335.28	1271.79
335.49	1212.40
335.70	1218.54
335.92	1245.16
336.13	1298.41
336.34	1263.60
336.55	1228.78
336.76	1265.64
336.98	1304.56
337.19	1339.37
337.40	1296.36
337.61	1247.21
337.82	1239.02
338.04	1247.21
338.25	1212.40
338.46	1282.03
338.67	1265.64
338.88	1232.88
339.09	1243.12
339.31	1310.70
339.52	1241.07
339.73	1251.31
339.94	1208.30
340.15	1292.27
340.36	1304.56
340.58	1247.21
340.79	1304.56
341.00	1312.75
341.21	1327.08
341.42	1339.37
341.63	1322.99
341.85	1302.51
342.06	1269.74
342.27	1206.25
342.48	1339.37
342.69	1302.51
342.90	1263.60
343.12	1253.36
343.33	1351.66
343.54	1339.37
343.75	1251.31
343.96	1265.64
344.17	1304.56
344.38	1259.50
344.60	1269.74
344.81	1239.02
345.02	1279.98
345.23	1290.22
345.44	1286.12
345.65	1204.21
345.86	1232.88
346.07	1220.59
346.29	1234.93
346.50	1275.88
346.71	1216.49
346.92	1232.88
347.13	1247.21
347.34	1224.69
347.55	1294.32
347.76	1329.13
347.98	1292.27
348.19	1302.51
348.40	1234.93
348.61	1316.84
348.82	1247.21
349.03	1236.97
349.24	1282.03
349.45	1279.98
349.66	1263.60
349.88	1236.97
350.09	1392.62
350.30	1316.84
350.51	1312.75
350.72	1243.12
350.93	1298.41
351.14	1302.51
351.35	1298.41
351.56	1312.75
351.77	1243.12
351.99	1277.93
352.20	1249.26
352.41	1234.93
352.62	1210.35
352.83	1259.50
353.04	1341.42
353.25	1241.07
353.46	1239.02
353.67	1296.36
353.88	1200.11
354.09	1279.98
354.30	1290.22
354.52	1288.17
354.73	1253.36
354.94	1271.79
355.15	1265.64
355.36	1294.32
355.57	1259.50
355.78	1253.36
355.99	1290.22
356.20	1349.61
356.41	1263.60
356.62	1234.93
356.83	1214.45
357.04	1273.84
357.25	1271.79
357.46	1177.58
357.68	1304.56
357.89	1228.78
358.10	1273.84
358.31	1294.32
358.52	1335.28
358.73	1230.83
358.94	1230.83
359.15	1216.49
359.36	1286.12
359.57	1286.12
359.78	1275.88
359.99	1228.78
360.20	1243.12
360.41	1306.60
360.62	1306.60
360.83	1300.46
361.04	1232.88
361.25	1259.50
361.46	1282.03
361.67	1316.84
361.88	1298.41
362.09	1279.98
362.30	1255.40
362.51	1271.79
362.72	1249.26
362.93	1249.26
363.14	1284.08
363.35	1249.26
363.56	1325.04
363.78	1230.83
363.99	1232.88
364.20	1325.04
364.41	1343.47
364.62	1247.21
364.83	1298.41
365.04	1255.40
365.25	1286.12
365.46	1263.60
365.67	1312.75
365.88	1296.36
366.09	1243.12
366.30	1341.42
366.51	1255.40
366.72	1234.93
366.93	1286.12
367.14	1228.78
367.35	1277.93
367.56	1206.25
367.77	1286.12
367.98	1230.83
368.18	1230.83
368.39	1220.59
368.60	1222.64
368.81	1282.03
369.02	1286.12
369.23	1253.36
369.44	1245.16
369.65	1269.74
369.86	1300.46
370.07	1220.59
370.28	1279.98
370.49	1239.02
370.70	1261.55
370.91	1241.07
371.12	1284.08
371.33	1210.35
371.54	1292.27
371.75	1226.73
371.96	1206.25
372.17	1239.02
372.38	1273.84
372.59	1288.17
372.80	1222.64
373.01	1306.60
373.22	1249.26
373.43	1241.07
373.64	1210.35
373.85	1247.21
374.06	1269.74
374.26	1239.02
374.47	1259.50
374.68	1245.16
374.89	1302.51
375.10	1224.69
375.31	1249.26
375.52	1314.80
375.73	1329.13
375.94	1234.93
376.15	1228.78
376.36	1226.73
376.57	1290.22
376.78	1366.00
376.99	1241.07
377.20	1273.84
377.40	1259.50
377.61	1247.21
377.82	1279.98
378.03	1279.98
378.24	1249.26
378.45	1220.59
378.66	1212.40
378.87	1263.60
379.08	1241.07
379.29	1206.25
379.50	1275.88
379.71	1302.51
379.91	1220.59
380.12	1165.29
380.33	1267.69
380.54	1241.07
380.75	1306.60
380.96	1245.16
381.17	1310.70
381.38	1228.78
381.59	1308.65
381.80	1329.13
382.00	1275.88
382.21	1245.16
382.42	1234.93
382.63	1277.93
382.84	1345.52
383.05	1333.23
383.26	1267.69
383.47	1241.07
383.68	1257.45
383.88	1255.40
384.09	1263.60
384.30	1247.21
384.51	1335.28
384.72	1257.45
384.93	1314.80
385.14	1288.17
385.35	1245.16
385.55	1247.21
385.76	1339.37
385.97	1247.21
386.18	1226.73
386.39	1308.65
386.60	1300.46
386.81	1257.45
387.02	1306.60
387.22	1290.22
387.43	1273.84
387.64	1337.32
387.85	1261.55
388.06	1327.08
388.27	1234.93
388.48	1284.08
388.68	1322.99
388.89	1271.79
389.10	1249.26
389.31	1236.97
389.52	1187.82
389.73	1273.84
389.93	1333.23
390.14	1249.26
390.35	1296.36
390.56	1290.22
390.77	1290.22
390.98	1234.93
391.18	1294.32
391.39	1306.60
391.60	1294.32
391.81	1277.93
392.02	1279.98
392.23	1265.64
392.43	1181.68
392.64	1230.83
392.85	1193.97
393.06	1263.60
393.27	1298.41
393.47	1251.31
393.68	1304.56
393.89	1243.12
394.10	1247.21
394.31	1312.75
394.52	1302.51
394.72	1236.97
394.93	1218.54
395.14	1263.60
395.35	1257.45
395.56	1255.40
395.76	1298.41
395.97	1298.41
396.18	1304.56
396.39	1249.26
396.60	1312.75
396.80	1243.12
397.01	1286.12
397.22	1247.21
397.43	1320.94
397.64	1245.16
397.84	1183.73
398.05	1267.69
398.26	1282.03
398.47	1271.79
398.67	1343.47
398.88	1263.60
399.09	1218.54
399.30	1224.69
399.51	1300.46
399.71	1245.16
399.92	1320.94
400.13	1273.84
400.34	1292.27
400.54	1269.74
400.75	1263.60
400.96	1271.79
401.17	1306.60
401.37	1204.21
401.58	1222.64
401.79	1271.79
402.00	1290.22
402.21	1241.07
402.41	1241.07
402.62	1247.21
402.83	1206.25
403.04	1308.65
403.24	1290.22
403.45	1327.08
403.66	1284.08
403.87	1228.78
404.07	1251.31
404.28	1255.40
404.49	1292.27
404.70	1214.45
404.90	1255.40
405.11	1232.88
405.32	1279.98
405.52	1232.88
405.73	1210.35
405.94	1222.64
406.15	1290.22
406.35	1271.79
406.56	1251.31
406.77	1241.07
406.98	1282.03
407.18	1218.54
407.39	1284.08
407.60	1249.26
407.80	1320.94
408.01	1310.70
408.22	1331.18
408.43	1277.93
408.63	1282.03
408.84	1292.27
409.05	1236.97
409.25	1224.69
409.46	1337.32
409.67	1222.64
409.88	1306.60
410.08	1257.45
410.29	1282.03
410.50	1275.88
410.70	1228.78
410.91	1257.45
411.12	1286.12
411.32	1325.04
411.53	1265.64
411.74	1247.21
411.95	1206.25
412.15	1259.50
412.36	1259.50
412.57	1239.02
412.77	1255.40
412.98	1236.97
413.19	1306.60
413.39	1302.51
413.60	1245.16
413.81	1327.08
414.01	1234.93
414.22	1318.89
414.43	1255.40
414.63	1322.99
414.84	1327.08
415.05	1202.16
415.25	1218.54
415.46	1222.64
415.67	1202.16
415.87	1320.94
416.08	1251.31
416.29	1265.64
416.49	1294.32
416.70	1261.55
416.91	1273.84
417.11	1261.55
417.32	1286.12
417.53	1271.79
417.73	1294.32
417.94	1214.45
418.15	1325.04
418.35	1208.30
418.56	1253.36
418.77	1277.93
418.97	1314.80
419.18	1265.64
419.38	1253.36
419.59	1255.40
419.80	1288.17
420.00	1273.84
420.21	1243.12
420.42	1214.45
420.62	1290.22
420.83	1253.36
421.04	1359.85
421.24	1251.31
421.45	1286.12
421.65	1216.49
421.86	1253.36
422.07	1257.45
422.27	1288.17
422.48	1210.35
422.69	1253.36
422.89	1265.64
423.10	1310.70
423.30	1284.08
423.51	1302.51
423.72	1282.03
423.92	1341.42
424.13	1224.69
424.33	1357.80
424.54	1241.07
424.75	1153.01
424.95	1302.51
425.16	1290.22
425.36	1298.41
425.57	1296.36
425.78	1327.08
425.98	1275.88
426.19	1249.26
426.39	1249.26
426.60	1275.88
426.81	1247.21
427.01	1263.60
427.22	1193.97
427.42	1271.79
427.63	1220.59
427.83	1224.69
428.04	1269.74
428.25	1243.12
428.45	1269.74
428.66	1243.12
428.86	1318.89
429.07	1275.88
429.28	1191.92
429.48	1257.45
429.69	1273.84
429.89	1241.07
430.10	1212.40
430.30	1255.40
430.51	1259.50
430.71	1286.12
430.92	1273.84
431.13	1261.55
431.33	1187.82
431.54	1273.84
431.74	1234.93
431.95	1292.27
432.15	1370.09
432.36	1304.56
432.56	1208.30
432.77	1222.64
432.98	1279.98
433.18	1265.64
433.39	1271.79
433.59	1239.02
433.80	1259.50
434.00	1304.56
434.21	1372.14
434.41	1183.73
434.62	1263.60
434.82	1288.17
435.03	1257.45
435.23	1236.97
435.44	1341.42
435.64	1269.74
435.85	1267.69
436.06	1243.12
436.26	1345.52
436.47	1267.69
436.67	1241.07
436.88	1286.12
437.08	1327.08
437.29	1271.79
437.49	1322.99
437.70	1241.07
437.90	1228.78
438.11	1296.36
438.31	1322.99
438.52	1288.17
438.72	1298.41
438.93	1304.56
439.13	1200.11
439.34	1265.64
439.54	1249.26
439.75	1277.93
439.95	1339.37
440.16	1249.26
440.36	1294.32
440.57	1273.84
440.77	1269.74
440.98	1310.70
441.18	1288.17
441.39	1196.01
441.59	1271.79
441.80	1290.22
442.00	1304.56
442.21	1243.12
442.41	1241.07
442.62	1216.49
442.82	1302.51
443.02	1224.69
443.23	1210.35
443.43	1196.01
443.64	1265.64
443.84	1249.26
444.05	1222.64
444.25	1277.93
444.46	1290.22
444.66	1239.02
444.87	1255.40
445.07	1167.34
445.28	1327.08
445.48	1282.03
445.69	1290.22
445.89	1253.36
446.09	1265.64
446.30	1265.64
446.50	1210.35
446.71	1232.88
446.91	1251.31
447.12	1290.22
447.32	1322.99
447.53	1275.88
447.73	1386.47
447.93	1206.25
448.14	1279.98
448.34	1318.89
448.55	1279.98
448.75	1286.12
448.96	1337.32
449.16	1269.74
449.36	1286.12
449.57	1230.83
449.77	1257.45
449.98	1212.40
450.18	1314.80
450.39	1296.36
450.59	1284.08
450.79	1279.98
451.00	1310.70
451.20	1302.51
451.41	1290.22
451.61	1247.21
451.81	1308.65
452.02	1277.93
452.22	1294.32
452.43	1259.50
452.63	1273.84
