SpectraSuite Data File
++++++++++++++++++++++++++++++++++++
Date: Sun Apr 03 19:55:29 CEST 2016
User: root
Dark Spectrum Present: No
Reference Spectrum Present: No
Number of Sampled Component Spectra: 1
Spectrometers: USB4C02835
Integration Time (usec): 10000 (USB4C02835)
Spectra Averaged: 1 (USB4C02835)
Boxcar Smoothing: 0 (USB4C02835)
Correct for Electrical Dark: No (USB4C02835)
Strobe/Lamp Enabled: No (USB4C02835)
Correct for Detector Non-linearity: No (USB4C02835)
Correct for Stray Light: No (USB4C02835)
Number of Pixels in Processed Spectrum: 3648
>>>>>Begin Processed Spectral Data<<<<<
177.47	1337.32
177.69	1337.32
177.91	1337.32
178.13	1290.22
178.36	1288.17
178.58	1236.97
178.80	1232.88
179.02	1239.02
179.24	1331.18
179.46	1286.12
179.68	1290.22
179.90	1267.69
180.13	1269.74
180.35	1247.21
180.57	1325.04
180.79	1253.36
181.01	1329.13
181.23	1222.64
181.45	1249.26
181.67	1224.69
181.90	1333.23
182.12	1304.56
182.34	1288.17
182.56	1212.40
182.78	1253.36
183.00	1261.55
183.22	1253.36
183.44	1228.78
183.66	1259.50
183.89	1196.01
184.11	1318.89
184.33	1282.03
184.55	1271.79
184.77	1310.70
184.99	1273.84
185.21	1322.99
185.43	1234.93
185.65	1282.03
185.87	1296.36
186.10	1257.45
186.32	1220.59
186.54	1288.17
186.76	1185.77
186.98	1261.55
187.20	1312.75
187.42	1286.12
187.64	1241.07
187.86	1296.36
188.08	1263.60
188.30	1288.17
188.52	1169.39
188.75	1339.37
188.97	1249.26
189.19	1210.35
189.41	1333.23
189.63	1271.79
189.85	1249.26
190.07	1216.49
190.29	1249.26
190.51	1249.26
190.73	1179.63
190.95	1296.36
191.17	1269.74
191.39	1216.49
191.61	1232.88
191.84	1261.55
192.06	1257.45
192.28	1218.54
192.50	1302.51
192.72	1206.25
192.94	1290.22
193.16	1224.69
193.38	1228.78
193.60	1232.88
193.82	1255.40
194.04	1286.12
194.26	1265.64
194.48	1259.50
194.70	1339.37
194.92	1245.16
195.14	1249.26
195.36	1239.02
195.58	1179.63
195.80	1269.74
196.02	1253.36
196.24	1269.74
196.46	1269.74
196.69	1210.35
196.91	1253.36
197.13	1253.36
197.35	1230.83
197.57	1214.45
197.79	1378.28
198.01	1279.98
198.23	1208.30
198.45	1239.02
198.67	1306.60
198.89	1269.74
199.11	1241.07
199.33	1292.27
199.55	1279.98
199.77	1220.59
199.99	1239.02
200.21	1353.71
200.43	1277.93
200.65	1255.40
200.87	1253.36
201.09	1290.22
201.31	1245.16
201.53	1259.50
201.75	1327.08
201.97	1288.17
202.19	1279.98
202.41	1279.98
202.63	1150.96
202.85	1279.98
203.07	1241.07
203.29	1177.58
203.51	1261.55
203.73	1222.64
203.95	1318.89
204.17	1314.80
204.39	1316.84
204.61	1255.40
204.83	1294.32
205.05	1249.26
205.27	1269.74
205.49	1259.50
205.71	1257.45
205.93	1189.87
206.15	1282.03
206.37	1282.03
206.59	1241.07
206.81	1265.64
207.03	1316.84
207.25	1279.98
207.47	1232.88
207.69	1249.26
207.91	1265.64
208.13	1277.93
208.34	1210.35
208.56	1333.23
208.78	1255.40
209.00	1210.35
209.22	1333.23
209.44	1298.41
209.66	1263.60
209.88	1259.50
210.10	1265.64
210.32	1271.79
210.54	1257.45
210.76	1220.59
210.98	1304.56
211.20	1284.08
211.42	1322.99
211.64	1234.93
211.86	1294.32
212.08	1269.74
212.30	1296.36
212.52	1257.45
212.74	1212.40
212.96	1253.36
213.17	1308.65
213.39	1239.02
213.61	1245.16
213.83	1300.46
214.05	1284.08
214.27	1259.50
214.49	1267.69
214.71	1243.12
214.93	1359.85
215.15	1204.21
215.37	1275.88
215.59	1261.55
215.81	1314.80
216.03	1228.78
216.24	1239.02
216.46	1257.45
216.68	1296.36
216.90	1245.16
217.12	1206.25
217.34	1310.70
217.56	1355.76
217.78	1271.79
218.00	1345.52
218.22	1232.88
218.44	1171.44
218.66	1243.12
218.87	1232.88
219.09	1294.32
219.31	1232.88
219.53	1253.36
219.75	1249.26
219.97	1200.11
220.19	1271.79
220.41	1279.98
220.63	1316.84
220.85	1251.31
221.06	1226.73
221.28	1284.08
221.50	1234.93
221.72	1269.74
221.94	1236.97
222.16	1187.82
222.38	1333.23
222.60	1251.31
222.82	1288.17
223.03	1325.04
223.25	1273.84
223.47	1220.59
223.69	1296.36
223.91	1265.64
224.13	1247.21
224.35	1361.90
224.57	1310.70
224.78	1257.45
225.00	1261.55
225.22	1263.60
225.44	1222.64
225.66	1251.31
225.88	1247.21
226.10	1257.45
226.32	1261.55
226.53	1318.89
226.75	1290.22
226.97	1292.27
227.19	1259.50
227.41	1236.97
227.63	1269.74
227.85	1202.16
228.06	1288.17
228.28	1249.26
228.50	1200.11
228.72	1298.41
228.94	1206.25
229.16	1243.12
229.37	1216.49
229.59	1267.69
229.81	1318.89
230.03	1239.02
230.25	1245.16
230.47	1181.68
230.69	1257.45
230.90	1259.50
231.12	1247.21
231.34	1290.22
231.56	1286.12
231.78	1236.97
232.00	1298.41
232.21	1257.45
232.43	1277.93
232.65	1257.45
232.87	1275.88
233.09	1284.08
233.30	1228.78
233.52	1230.83
233.74	1310.70
233.96	1292.27
234.18	1302.51
234.40	1181.68
234.61	1312.75
234.83	1239.02
235.05	1239.02
235.27	1300.46
235.49	1322.99
235.70	1298.41
235.92	1187.82
236.14	1298.41
236.36	1239.02
236.58	1265.64
236.79	1271.79
237.01	1245.16
237.23	1318.89
237.45	1267.69
237.67	1300.46
237.88	1251.31
238.10	1267.69
238.32	1269.74
238.54	1220.59
238.76	1296.36
238.97	1265.64
239.19	1370.09
239.41	1339.37
239.63	1343.47
239.85	1290.22
240.06	1187.82
240.28	1228.78
240.50	1251.31
240.72	1308.65
240.93	1277.93
241.15	1257.45
241.37	1275.88
241.59	1294.32
241.81	1210.35
242.02	1306.60
242.24	1296.36
242.46	1300.46
242.68	1302.51
242.89	1257.45
243.11	1271.79
243.33	1273.84
243.55	1273.84
243.76	1259.50
243.98	1181.68
244.20	1302.51
244.42	1273.84
244.64	1341.42
244.85	1218.54
245.07	1277.93
245.29	1265.64
245.51	1263.60
245.72	1275.88
245.94	1337.32
246.16	1271.79
246.38	1292.27
246.59	1239.02
246.81	1341.42
247.03	1255.40
247.24	1228.78
247.46	1269.74
247.68	1257.45
247.90	1261.55
248.11	1259.50
248.33	1253.36
248.55	1296.36
248.77	1249.26
248.98	1329.13
249.20	1255.40
249.42	1234.93
249.64	1306.60
249.85	1247.21
250.07	1228.78
250.29	1265.64
250.50	1327.08
250.72	1245.16
250.94	1333.23
251.16	1316.84
251.37	1239.02
251.59	1267.69
251.81	1216.49
252.02	1247.21
252.24	1263.60
252.46	1255.40
252.68	1259.50
252.89	1335.28
253.11	1228.78
253.33	1279.98
253.54	1247.21
253.76	1279.98
253.98	1271.79
254.20	1216.49
254.41	1277.93
254.63	1284.08
254.85	1316.84
255.06	1372.14
255.28	1177.58
255.50	1282.03
255.71	1251.31
255.93	1230.83
256.15	1277.93
256.36	1249.26
256.58	1202.16
256.80	1306.60
257.02	1218.54
257.23	1247.21
257.45	1290.22
257.67	1288.17
257.88	1298.41
258.10	1298.41
258.32	1277.93
258.53	1263.60
258.75	1263.60
258.97	1255.40
259.18	1300.46
259.40	1273.84
259.62	1282.03
259.83	1329.13
260.05	1265.64
260.27	1282.03
260.48	1214.45
260.70	1222.64
260.92	1263.60
261.13	1271.79
261.35	1277.93
261.57	1255.40
261.78	1222.64
262.00	1259.50
262.22	1320.94
262.43	1298.41
262.65	1300.46
262.86	1329.13
263.08	1228.78
263.30	1292.27
263.51	1243.12
263.73	1310.70
263.95	1275.88
264.16	1304.56
264.38	1179.63
264.60	1304.56
264.81	1273.84
265.03	1327.08
265.25	1302.51
265.46	1265.64
265.68	1288.17
265.89	1249.26
266.11	1275.88
266.33	1333.23
266.54	1222.64
266.76	1259.50
266.98	1304.56
267.19	1359.85
267.41	1212.40
267.62	1232.88
267.84	1273.84
268.06	1265.64
268.27	1267.69
268.49	1212.40
268.70	1304.56
268.92	1302.51
269.14	1239.02
269.35	1181.68
269.57	1253.36
269.79	1271.79
270.00	1269.74
270.22	1290.22
270.43	1216.49
270.65	1249.26
270.87	1304.56
271.08	1263.60
271.30	1288.17
271.51	1249.26
271.73	1331.18
271.95	1320.94
272.16	1327.08
272.38	1273.84
272.59	1228.78
272.81	1224.69
273.02	1251.31
273.24	1253.36
273.46	1298.41
273.67	1206.25
273.89	1216.49
274.10	1298.41
274.32	1310.70
274.54	1202.16
274.75	1196.01
274.97	1322.99
275.18	1245.16
275.40	1249.26
275.61	1253.36
275.83	1253.36
276.05	1239.02
276.26	1228.78
276.48	1279.98
276.69	1247.21
276.91	1191.92
277.12	1275.88
277.34	1275.88
277.55	1292.27
277.77	1282.03
277.99	1243.12
278.20	1298.41
278.42	1187.82
278.63	1314.80
278.85	1212.40
279.06	1296.36
279.28	1310.70
279.49	1261.55
279.71	1267.69
279.93	1243.12
280.14	1263.60
280.36	1224.69
280.57	1312.75
280.79	1271.79
281.00	1296.36
281.22	1282.03
281.43	1310.70
281.65	1214.45
281.86	1249.26
282.08	1273.84
282.29	1335.28
282.51	1325.04
282.73	1306.60
282.94	1318.89
283.16	1298.41
283.37	1216.49
283.59	1294.32
283.80	1253.36
284.02	1208.30
284.23	1193.97
284.45	1282.03
284.66	1302.51
284.88	1249.26
285.09	1259.50
285.31	1212.40
285.52	1218.54
285.74	1335.28
285.95	1275.88
286.17	1312.75
286.38	1267.69
286.60	1245.16
286.81	1243.12
287.03	1288.17
287.24	1277.93
287.46	1290.22
287.67	1341.42
287.89	1230.83
288.10	1247.21
288.32	1325.04
288.53	1234.93
288.75	1263.60
288.96	1312.75
289.18	1216.49
289.39	1271.79
289.61	1322.99
289.82	1277.93
290.04	1236.97
290.25	1351.66
290.47	1196.01
290.68	1273.84
290.90	1239.02
291.11	1245.16
291.33	1273.84
291.54	1282.03
291.76	1234.93
291.97	1263.60
292.18	1320.94
292.40	1294.32
292.61	1214.45
292.83	1310.70
293.04	1263.60
293.26	1335.28
293.47	1273.84
293.69	1351.66
293.90	1273.84
294.12	1234.93
294.33	1294.32
294.55	1263.60
294.76	1282.03
294.97	1298.41
295.19	1269.74
295.40	1214.45
295.62	1320.94
295.83	1296.36
296.05	1216.49
296.26	1318.89
296.48	1292.27
296.69	1273.84
296.90	1282.03
297.12	1322.99
297.33	1208.30
297.55	1255.40
297.76	1198.06
297.98	1247.21
298.19	1253.36
298.41	1239.02
298.62	1214.45
298.83	1302.51
299.05	1216.49
299.26	1251.31
299.48	1359.85
299.69	1265.64
299.90	1273.84
300.12	1318.89
300.33	1222.64
300.55	1267.69
300.76	1296.36
300.98	1208.30
301.19	1210.35
301.40	1245.16
301.62	1288.17
301.83	1259.50
302.05	1191.92
302.26	1249.26
302.47	1249.26
302.69	1349.61
302.90	1302.51
303.12	1247.21
303.33	1247.21
303.54	1304.56
303.76	1263.60
303.97	1275.88
304.19	1271.79
304.40	1308.65
304.61	1318.89
304.83	1241.07
305.04	1286.12
305.26	1290.22
305.47	1271.79
305.68	1241.07
305.90	1255.40
306.11	1253.36
306.33	1265.64
306.54	1310.70
306.75	1261.55
306.97	1183.73
307.18	1314.80
307.39	1275.88
307.61	1275.88
307.82	1290.22
308.04	1384.43
308.25	1241.07
308.46	1282.03
308.68	1220.59
308.89	1286.12
309.10	1204.21
309.32	1257.45
309.53	1230.83
309.74	1232.88
309.96	1263.60
310.17	1314.80
310.39	1294.32
310.60	1208.30
310.81	1249.26
311.03	1251.31
311.24	1253.36
311.45	1228.78
311.67	1261.55
311.88	1320.94
312.09	1251.31
312.31	1273.84
312.52	1226.73
312.73	1273.84
312.95	1335.28
313.16	1236.97
313.37	1243.12
313.59	1226.73
313.80	1253.36
314.01	1228.78
314.23	1292.27
314.44	1247.21
314.65	1251.31
314.87	1343.47
315.08	1230.83
315.29	1179.63
315.51	1335.28
315.72	1310.70
315.93	1302.51
316.15	1300.46
316.36	1273.84
316.57	1202.16
316.79	1239.02
317.00	1306.60
317.21	1267.69
317.43	1304.56
317.64	1261.55
317.85	1279.98
318.07	1261.55
318.28	1241.07
318.49	1259.50
318.70	1173.49
318.92	1265.64
319.13	1361.90
319.34	1349.61
319.56	1271.79
319.77	1312.75
319.98	1255.40
320.20	1247.21
320.41	1251.31
320.62	1288.17
320.83	1193.97
321.05	1277.93
321.26	1257.45
321.47	1257.45
321.69	1277.93
321.90	1263.60
322.11	1320.94
322.32	1167.34
322.54	1230.83
322.75	1282.03
322.96	1302.51
323.18	1294.32
323.39	1312.75
323.60	1312.75
323.81	1304.56
324.03	1286.12
324.24	1279.98
324.45	1271.79
324.66	1271.79
324.88	1247.21
325.09	1288.17
325.30	1236.97
325.52	1286.12
325.73	1257.45
325.94	1251.31
326.15	1245.16
326.37	1206.25
326.58	1282.03
326.79	1290.22
327.00	1228.78
327.22	1273.84
327.43	1349.61
327.64	1222.64
327.85	1241.07
328.07	1298.41
328.28	1337.32
328.49	1271.79
328.70	1189.87
328.92	1320.94
329.13	1220.59
329.34	1232.88
329.55	1322.99
329.76	1220.59
329.98	1310.70
330.19	1308.65
330.40	1318.89
330.61	1241.07
330.83	1306.60
331.04	1296.36
331.25	1331.18
331.46	1265.64
331.68	1306.60
331.89	1226.73
332.10	1202.16
332.31	1261.55
332.52	1185.77
332.74	1310.70
332.95	1284.08
333.16	1316.84
333.37	1255.40
333.58	1251.31
333.80	1284.08
334.01	1314.80
334.22	1279.98
334.43	1236.97
334.64	1273.84
334.86	1183.73
335.07	1294.32
335.28	1279.98
335.49	1214.45
335.70	1357.80
335.92	1214.45
336.13	1370.09
336.34	1226.73
336.55	1300.46
336.76	1222.64
336.98	1241.07
337.19	1306.60
337.40	1355.76
337.61	1234.93
337.82	1200.11
338.04	1310.70
338.25	1167.34
338.46	1345.52
338.67	1249.26
338.88	1298.41
339.09	1212.40
339.31	1261.55
339.52	1300.46
339.73	1212.40
339.94	1255.40
340.15	1222.64
340.36	1263.60
340.58	1284.08
340.79	1296.36
341.00	1286.12
341.21	1253.36
341.42	1218.54
341.63	1265.64
341.85	1298.41
342.06	1267.69
342.27	1294.32
342.48	1269.74
342.69	1282.03
342.90	1261.55
343.12	1224.69
343.33	1273.84
343.54	1294.32
343.75	1308.65
343.96	1200.11
344.17	1314.80
344.38	1232.88
344.60	1179.63
344.81	1320.94
345.02	1290.22
345.23	1204.21
345.44	1277.93
345.65	1216.49
345.86	1279.98
346.07	1204.21
346.29	1255.40
346.50	1224.69
346.71	1210.35
346.92	1292.27
347.13	1312.75
347.34	1294.32
347.55	1267.69
347.76	1204.21
347.98	1200.11
348.19	1294.32
348.40	1247.21
348.61	1245.16
348.82	1320.94
349.03	1275.88
349.24	1271.79
349.45	1331.18
349.66	1286.12
349.88	1247.21
350.09	1304.56
350.30	1257.45
350.51	1308.65
350.72	1335.28
350.93	1286.12
351.14	1273.84
351.35	1298.41
351.56	1259.50
351.77	1247.21
351.99	1245.16
352.20	1259.50
352.41	1212.40
352.62	1259.50
352.83	1230.83
353.04	1312.75
353.25	1241.07
353.46	1222.64
353.67	1298.41
353.88	1239.02
354.09	1191.92
354.30	1273.84
354.52	1230.83
354.73	1339.37
354.94	1300.46
355.15	1259.50
355.36	1331.18
355.57	1249.26
355.78	1292.27
355.99	1228.78
356.20	1234.93
356.41	1288.17
356.62	1341.42
356.83	1282.03
357.04	1232.88
357.25	1218.54
357.46	1241.07
357.68	1284.08
357.89	1265.64
358.10	1253.36
358.31	1333.23
358.52	1300.46
358.73	1259.50
358.94	1282.03
359.15	1277.93
359.36	1239.02
359.57	1300.46
359.78	1269.74
359.99	1245.16
360.20	1239.02
360.41	1261.55
360.62	1208.30
360.83	1255.40
361.04	1255.40
361.25	1257.45
361.46	1288.17
361.67	1273.84
361.88	1290.22
362.09	1318.89
362.30	1267.69
362.51	1271.79
362.72	1193.97
362.93	1218.54
363.14	1277.93
363.35	1275.88
363.56	1306.60
363.78	1196.01
363.99	1253.36
364.20	1263.60
364.41	1234.93
364.62	1288.17
364.83	1267.69
365.04	1320.94
365.25	1253.36
365.46	1230.83
365.67	1269.74
365.88	1275.88
366.09	1271.79
366.30	1282.03
366.51	1312.75
366.72	1218.54
366.93	1298.41
367.14	1226.73
367.35	1347.56
367.56	1241.07
367.77	1273.84
367.98	1269.74
368.18	1298.41
368.39	1331.18
368.60	1316.84
368.81	1191.92
369.02	1306.60
369.23	1290.22
369.44	1265.64
369.65	1286.12
369.86	1333.23
370.07	1224.69
370.28	1261.55
370.49	1294.32
370.70	1282.03
370.91	1257.45
371.12	1310.70
371.33	1247.21
371.54	1255.40
371.75	1220.59
371.96	1273.84
372.17	1153.01
372.38	1173.49
372.59	1239.02
372.80	1249.26
373.01	1249.26
373.22	1273.84
373.43	1316.84
373.64	1228.78
373.85	1220.59
374.06	1245.16
374.26	1263.60
374.47	1261.55
374.68	1200.11
374.89	1208.30
375.10	1304.56
375.31	1263.60
375.52	1327.08
375.73	1331.18
375.94	1314.80
376.15	1189.87
376.36	1191.92
376.57	1325.04
376.78	1284.08
376.99	1255.40
377.20	1271.79
377.40	1245.16
377.61	1232.88
377.82	1249.26
378.03	1245.16
378.24	1222.64
378.45	1230.83
378.66	1296.36
378.87	1239.02
379.08	1208.30
379.29	1218.54
379.50	1253.36
379.71	1296.36
379.91	1310.70
380.12	1310.70
380.33	1243.12
380.54	1255.40
380.75	1329.13
380.96	1353.71
381.17	1257.45
381.38	1245.16
381.59	1249.26
381.80	1341.42
382.00	1269.74
382.21	1292.27
382.42	1304.56
382.63	1318.89
382.84	1204.21
383.05	1275.88
383.26	1339.37
383.47	1279.98
383.68	1292.27
383.88	1247.21
384.09	1251.31
384.30	1247.21
384.51	1273.84
384.72	1284.08
384.93	1306.60
385.14	1292.27
385.35	1322.99
385.55	1310.70
385.76	1273.84
385.97	1249.26
386.18	1253.36
386.39	1251.31
386.60	1218.54
386.81	1224.69
387.02	1247.21
387.22	1312.75
387.43	1288.17
387.64	1320.94
387.85	1341.42
388.06	1243.12
388.27	1329.13
388.48	1251.31
388.68	1267.69
388.89	1310.70
389.10	1253.36
389.31	1302.51
389.52	1279.98
389.73	1275.88
389.93	1312.75
390.14	1273.84
390.35	1155.05
390.56	1312.75
390.77	1306.60
390.98	1249.26
391.18	1241.07
391.39	1261.55
391.60	1279.98
391.81	1222.64
392.02	1265.64
392.23	1216.49
392.43	1249.26
392.64	1290.22
392.85	1255.40
393.06	1247.21
393.27	1312.75
393.47	1259.50
393.68	1261.55
393.89	1273.84
394.10	1294.32
394.31	1265.64
394.52	1271.79
394.72	1284.08
394.93	1288.17
395.14	1245.16
395.35	1341.42
395.56	1275.88
395.76	1239.02
395.97	1210.35
396.18	1271.79
396.39	1290.22
396.60	1210.35
396.80	1331.18
397.01	1220.59
397.22	1267.69
397.43	1302.51
397.64	1224.69
397.84	1236.97
398.05	1241.07
398.26	1277.93
398.47	1183.73
398.67	1288.17
398.88	1218.54
399.09	1322.99
399.30	1257.45
399.51	1355.76
399.71	1263.60
399.92	1333.23
400.13	1259.50
400.34	1198.06
400.54	1218.54
400.75	1265.64
400.96	1265.64
401.17	1337.32
401.37	1202.16
401.58	1232.88
401.79	1245.16
402.00	1253.36
402.21	1316.84
402.41	1245.16
402.62	1232.88
402.83	1183.73
403.04	1314.80
403.24	1290.22
403.45	1304.56
403.66	1216.49
403.87	1261.55
404.07	1300.46
404.28	1243.12
404.49	1245.16
404.70	1277.93
404.90	1269.74
405.11	1300.46
405.32	1243.12
405.52	1241.07
405.73	1232.88
405.94	1224.69
406.15	1292.27
406.35	1286.12
406.56	1228.78
406.77	1255.40
406.98	1249.26
407.18	1279.98
407.39	1279.98
407.60	1218.54
407.80	1353.71
408.01	1292.27
408.22	1286.12
408.43	1208.30
408.63	1288.17
408.84	1277.93
409.05	1212.40
409.25	1220.59
409.46	1269.74
409.67	1232.88
409.88	1232.88
410.08	1191.92
410.29	1247.21
410.50	1292.27
410.70	1296.36
410.91	1179.63
411.12	1247.21
411.32	1220.59
411.53	1263.60
411.74	1255.40
411.95	1331.18
412.15	1234.93
412.36	1249.26
412.57	1241.07
412.77	1298.41
412.98	1302.51
413.19	1273.84
413.39	1210.35
413.60	1284.08
413.81	1257.45
414.01	1290.22
414.22	1277.93
414.43	1273.84
414.63	1232.88
414.84	1214.45
415.05	1241.07
415.25	1249.26
415.46	1202.16
415.67	1249.26
415.87	1327.08
416.08	1318.89
416.29	1265.64
416.49	1273.84
416.70	1230.83
416.91	1279.98
417.11	1247.21
417.32	1269.74
417.53	1296.36
417.73	1241.07
417.94	1261.55
418.15	1214.45
418.35	1255.40
418.56	1292.27
418.77	1298.41
418.97	1249.26
419.18	1273.84
419.38	1255.40
419.59	1267.69
419.80	1269.74
420.00	1282.03
420.21	1230.83
420.42	1224.69
420.62	1273.84
420.83	1200.11
421.04	1282.03
421.24	1273.84
421.45	1273.84
421.65	1253.36
421.86	1327.08
422.07	1202.16
422.27	1273.84
422.48	1191.92
422.69	1273.84
422.89	1261.55
423.10	1304.56
423.30	1234.93
423.51	1275.88
423.72	1288.17
423.92	1337.32
424.13	1261.55
424.33	1337.32
424.54	1310.70
424.75	1269.74
424.95	1316.84
425.16	1255.40
425.36	1277.93
425.57	1286.12
425.78	1232.88
425.98	1322.99
426.19	1279.98
426.39	1318.89
426.60	1282.03
426.81	1271.79
427.01	1251.31
427.22	1265.64
427.42	1282.03
427.63	1263.60
427.83	1236.97
428.04	1306.60
428.25	1271.79
428.45	1273.84
428.66	1314.80
428.86	1306.60
429.07	1271.79
429.28	1286.12
429.48	1257.45
429.69	1222.64
429.89	1335.28
430.10	1245.16
430.30	1269.74
430.51	1310.70
430.71	1261.55
430.92	1355.76
431.13	1257.45
431.33	1296.36
431.54	1302.51
431.74	1294.32
431.95	1290.22
432.15	1236.97
432.36	1206.25
432.56	1388.52
432.77	1265.64
432.98	1314.80
433.18	1224.69
433.39	1247.21
433.59	1277.93
433.80	1376.24
434.00	1265.64
434.21	1257.45
434.41	1261.55
434.62	1300.46
434.82	1277.93
435.03	1277.93
435.23	1318.89
435.44	1261.55
435.64	1322.99
435.85	1187.82
436.06	1308.65
436.26	1335.28
436.47	1249.26
436.67	1208.30
436.88	1247.21
437.08	1282.03
437.29	1218.54
437.49	1257.45
437.70	1210.35
437.90	1288.17
438.11	1271.79
438.31	1234.93
438.52	1273.84
438.72	1284.08
438.93	1269.74
439.13	1265.64
439.34	1288.17
439.54	1269.74
439.75	1279.98
439.95	1302.51
440.16	1273.84
440.36	1224.69
440.57	1294.32
440.77	1265.64
440.98	1298.41
441.18	1277.93
441.39	1210.35
441.59	1286.12
441.80	1341.42
442.00	1239.02
442.21	1286.12
442.41	1247.21
442.62	1279.98
442.82	1304.56
443.02	1241.07
443.23	1320.94
443.43	1208.30
443.64	1304.56
443.84	1312.75
444.05	1251.31
444.25	1316.84
444.46	1196.01
444.66	1232.88
444.87	1284.08
445.07	1216.49
445.28	1241.07
445.48	1374.19
445.69	1302.51
445.89	1359.85
446.09	1212.40
446.30	1259.50
446.50	1277.93
446.71	1251.31
446.91	1298.41
447.12	1277.93
447.32	1265.64
447.53	1361.90
447.73	1247.21
447.93	1271.79
448.14	1306.60
448.34	1320.94
448.55	1296.36
448.75	1210.35
448.96	1271.79
449.16	1288.17
449.36	1265.64
449.57	1251.31
449.77	1302.51
449.98	1296.36
450.18	1212.40
450.39	1296.36
450.59	1325.04
450.79	1255.40
451.00	1318.89
451.20	1292.27
451.41	1302.51
451.61	1261.55
451.81	1325.04
452.02	1322.99
452.22	1279.98
452.43	1286.12
452.63	1318.89
