SpectraSuite Data File
++++++++++++++++++++++++++++++++++++
Date: Sun Apr 03 19:55:38 CEST 2016
User: root
Dark Spectrum Present: No
Reference Spectrum Present: No
Number of Sampled Component Spectra: 1
Spectrometers: USB4C02835
Integration Time (usec): 10000 (USB4C02835)
Spectra Averaged: 1 (USB4C02835)
Boxcar Smoothing: 0 (USB4C02835)
Correct for Electrical Dark: No (USB4C02835)
Strobe/Lamp Enabled: No (USB4C02835)
Correct for Detector Non-linearity: No (USB4C02835)
Correct for Stray Light: No (USB4C02835)
Number of Pixels in Processed Spectrum: 3648
>>>>>Begin Processed Spectral Data<<<<<
177.47	1292.27
177.69	1292.27
177.91	1292.27
178.13	1253.36
178.36	1173.49
178.58	1312.75
178.80	1263.60
179.02	1216.49
179.24	1263.60
179.46	1253.36
179.68	1265.64
179.90	1288.17
180.13	1212.40
180.35	1241.07
180.57	1226.73
180.79	1284.08
181.01	1265.64
181.23	1298.41
181.45	1286.12
181.67	1279.98
181.90	1310.70
182.12	1226.73
182.34	1265.64
182.56	1263.60
182.78	1249.26
183.00	1236.97
183.22	1294.32
183.44	1263.60
183.66	1275.88
183.89	1286.12
184.11	1273.84
184.33	1212.40
184.55	1261.55
184.77	1241.07
184.99	1251.31
185.21	1290.22
185.43	1253.36
185.65	1290.22
185.87	1286.12
186.10	1185.77
186.32	1304.56
186.54	1247.21
186.76	1241.07
186.98	1284.08
187.20	1325.04
187.42	1269.74
187.64	1277.93
187.86	1245.16
188.08	1304.56
188.30	1204.21
188.52	1239.02
188.75	1267.69
188.97	1284.08
189.19	1259.50
189.41	1241.07
189.63	1267.69
189.85	1267.69
190.07	1327.08
190.29	1257.45
190.51	1220.59
190.73	1249.26
190.95	1255.40
191.17	1300.46
191.39	1253.36
191.61	1300.46
191.84	1271.79
192.06	1265.64
192.28	1204.21
192.50	1290.22
192.72	1257.45
192.94	1249.26
193.16	1290.22
193.38	1259.50
193.60	1288.17
193.82	1355.76
194.04	1294.32
194.26	1300.46
194.48	1245.16
194.70	1282.03
194.92	1239.02
195.14	1322.99
195.36	1306.60
195.58	1292.27
195.80	1267.69
196.02	1318.89
196.24	1306.60
196.46	1298.41
196.69	1241.07
196.91	1232.88
197.13	1239.02
197.35	1222.64
197.57	1218.54
197.79	1239.02
198.01	1230.83
198.23	1296.36
198.45	1294.32
198.67	1275.88
198.89	1282.03
199.11	1216.49
199.33	1234.93
199.55	1374.19
199.77	1232.88
199.99	1277.93
200.21	1345.52
200.43	1327.08
200.65	1222.64
200.87	1318.89
201.09	1292.27
201.31	1257.45
201.53	1294.32
201.75	1277.93
201.97	1282.03
202.19	1316.84
202.41	1310.70
202.63	1210.35
202.85	1331.18
203.07	1261.55
203.29	1296.36
203.51	1314.80
203.73	1290.22
203.95	1329.13
204.17	1339.37
204.39	1275.88
204.61	1232.88
204.83	1312.75
205.05	1277.93
205.27	1263.60
205.49	1255.40
205.71	1337.32
205.93	1261.55
206.15	1279.98
206.37	1318.89
206.59	1279.98
206.81	1234.93
207.03	1247.21
207.25	1259.50
207.47	1273.84
207.69	1239.02
207.91	1210.35
208.13	1253.36
208.34	1279.98
208.56	1269.74
208.78	1224.69
209.00	1284.08
209.22	1253.36
209.44	1187.82
209.66	1314.80
209.88	1232.88
210.10	1279.98
210.32	1286.12
210.54	1325.04
210.76	1202.16
210.98	1312.75
211.20	1279.98
211.42	1284.08
211.64	1302.51
211.86	1228.78
212.08	1292.27
212.30	1241.07
212.52	1277.93
212.74	1333.23
212.96	1271.79
213.17	1265.64
213.39	1269.74
213.61	1249.26
213.83	1269.74
214.05	1255.40
214.27	1345.52
214.49	1226.73
214.71	1253.36
214.93	1306.60
215.15	1261.55
215.37	1318.89
215.59	1218.54
215.81	1288.17
216.03	1300.46
216.24	1370.09
216.46	1234.93
216.68	1261.55
216.90	1228.78
217.12	1245.16
217.34	1245.16
217.56	1300.46
217.78	1331.18
218.00	1230.83
218.22	1253.36
218.44	1257.45
218.66	1275.88
218.87	1257.45
219.09	1243.12
219.31	1198.06
219.53	1333.23
219.75	1261.55
219.97	1296.36
220.19	1230.83
220.41	1226.73
220.63	1220.59
220.85	1236.97
221.06	1193.97
221.28	1204.21
221.50	1234.93
221.72	1187.82
221.94	1288.17
222.16	1259.50
222.38	1277.93
222.60	1253.36
222.82	1339.37
223.03	1294.32
223.25	1265.64
223.47	1267.69
223.69	1253.36
223.91	1247.21
224.13	1230.83
224.35	1306.60
224.57	1282.03
224.78	1247.21
225.00	1288.17
225.22	1304.56
225.44	1247.21
225.66	1253.36
225.88	1189.87
226.10	1290.22
226.32	1357.80
226.53	1212.40
226.75	1232.88
226.97	1216.49
227.19	1312.75
227.41	1208.30
227.63	1263.60
227.85	1279.98
228.06	1269.74
228.28	1200.11
228.50	1273.84
228.72	1253.36
228.94	1267.69
229.16	1134.57
229.37	1273.84
229.59	1298.41
229.81	1300.46
230.03	1314.80
230.25	1220.59
230.47	1224.69
230.69	1171.44
230.90	1234.93
231.12	1185.77
231.34	1230.83
231.56	1261.55
231.78	1241.07
232.00	1249.26
232.21	1138.67
232.43	1288.17
232.65	1271.79
232.87	1236.97
233.09	1310.70
233.30	1224.69
233.52	1306.60
233.74	1265.64
233.96	1284.08
234.18	1249.26
234.40	1288.17
234.61	1251.31
234.83	1239.02
235.05	1294.32
235.27	1230.83
235.49	1261.55
235.70	1279.98
235.92	1308.65
236.14	1200.11
236.36	1230.83
236.58	1347.56
236.79	1216.49
237.01	1226.73
237.23	1349.61
237.45	1261.55
237.67	1296.36
237.88	1271.79
238.10	1259.50
238.32	1300.46
238.54	1294.32
238.76	1206.25
238.97	1263.60
239.19	1222.64
239.41	1214.45
239.63	1255.40
239.85	1308.65
240.06	1273.84
240.28	1255.40
240.50	1243.12
240.72	1282.03
240.93	1222.64
241.15	1322.99
241.37	1236.97
241.59	1259.50
241.81	1265.64
242.02	1261.55
242.24	1200.11
242.46	1275.88
242.68	1222.64
242.89	1232.88
243.11	1236.97
243.33	1259.50
243.55	1253.36
243.76	1269.74
243.98	1245.16
244.20	1306.60
244.42	1310.70
244.64	1261.55
244.85	1236.97
245.07	1284.08
245.29	1282.03
245.51	1282.03
245.72	1284.08
245.94	1339.37
246.16	1286.12
246.38	1339.37
246.59	1230.83
246.81	1232.88
247.03	1282.03
247.24	1206.25
247.46	1304.56
247.68	1239.02
247.90	1329.13
248.11	1267.69
248.33	1277.93
248.55	1294.32
248.77	1265.64
248.98	1275.88
249.20	1263.60
249.42	1325.04
249.64	1271.79
249.85	1310.70
250.07	1302.51
250.29	1284.08
250.50	1388.52
250.72	1255.40
250.94	1249.26
251.16	1320.94
251.37	1288.17
251.59	1249.26
251.81	1294.32
252.02	1259.50
252.24	1318.89
252.46	1249.26
252.68	1302.51
252.89	1257.45
253.11	1296.36
253.33	1239.02
253.54	1236.97
253.76	1222.64
253.98	1241.07
254.20	1239.02
254.41	1191.92
254.63	1296.36
254.85	1253.36
255.06	1310.70
255.28	1286.12
255.50	1269.74
255.71	1306.60
255.93	1249.26
256.15	1306.60
256.36	1292.27
256.58	1269.74
256.80	1333.23
257.02	1263.60
257.23	1279.98
257.45	1255.40
257.67	1259.50
257.88	1257.45
258.10	1339.37
258.32	1259.50
258.53	1286.12
258.75	1251.31
258.97	1271.79
259.18	1181.68
259.40	1271.79
259.62	1279.98
259.83	1314.80
260.05	1310.70
260.27	1284.08
260.48	1302.51
260.70	1212.40
260.92	1298.41
261.13	1292.27
261.35	1257.45
261.57	1226.73
261.78	1318.89
262.00	1249.26
262.22	1282.03
262.43	1273.84
262.65	1253.36
262.86	1265.64
263.08	1253.36
263.30	1279.98
263.51	1273.84
263.73	1218.54
263.95	1335.28
264.16	1282.03
264.38	1253.36
264.60	1239.02
264.81	1216.49
265.03	1212.40
265.25	1273.84
265.46	1249.26
265.68	1339.37
265.89	1286.12
266.11	1228.78
266.33	1290.22
266.54	1253.36
266.76	1269.74
266.98	1267.69
267.19	1243.12
267.41	1288.17
267.62	1271.79
267.84	1214.45
268.06	1255.40
268.27	1349.61
268.49	1300.46
268.70	1288.17
268.92	1230.83
269.14	1275.88
269.35	1253.36
269.57	1273.84
269.79	1265.64
270.00	1222.64
270.22	1265.64
270.43	1187.82
270.65	1191.92
270.87	1304.56
271.08	1300.46
271.30	1236.97
271.51	1320.94
271.73	1284.08
271.95	1265.64
272.16	1298.41
272.38	1204.21
272.59	1243.12
272.81	1345.52
273.02	1245.16
273.24	1327.08
273.46	1241.07
273.67	1214.45
273.89	1263.60
274.10	1247.21
274.32	1232.88
274.54	1255.40
274.75	1308.65
274.97	1308.65
275.18	1279.98
275.40	1337.32
275.61	1292.27
275.83	1271.79
276.05	1300.46
276.26	1234.93
276.48	1202.16
276.69	1218.54
276.91	1273.84
277.12	1218.54
277.34	1251.31
277.55	1277.93
277.77	1230.83
277.99	1271.79
278.20	1257.45
278.42	1120.24
278.63	1271.79
278.85	1329.13
279.06	1214.45
279.28	1306.60
279.49	1339.37
279.71	1261.55
279.93	1273.84
280.14	1261.55
280.36	1253.36
280.57	1228.78
280.79	1279.98
281.00	1322.99
281.22	1259.50
281.43	1292.27
281.65	1232.88
281.86	1232.88
282.08	1265.64
282.29	1279.98
282.51	1300.46
282.73	1232.88
282.94	1290.22
283.16	1216.49
283.37	1286.12
283.59	1228.78
283.80	1163.25
284.02	1245.16
284.23	1329.13
284.45	1269.74
284.66	1257.45
284.88	1228.78
285.09	1294.32
285.31	1271.79
285.52	1304.56
285.74	1165.29
285.95	1259.50
286.17	1259.50
286.38	1263.60
286.60	1200.11
286.81	1331.18
287.03	1261.55
287.24	1329.13
287.46	1322.99
287.67	1245.16
287.89	1257.45
288.10	1271.79
288.32	1286.12
288.53	1275.88
288.75	1298.41
288.96	1282.03
289.18	1345.52
289.39	1251.31
289.61	1286.12
289.82	1318.89
290.04	1269.74
290.25	1269.74
290.47	1249.26
290.68	1208.30
290.90	1245.16
291.11	1282.03
291.33	1241.07
291.54	1208.30
291.76	1226.73
291.97	1265.64
292.18	1261.55
292.40	1300.46
292.61	1251.31
292.83	1245.16
293.04	1226.73
293.26	1296.36
293.47	1335.28
293.69	1245.16
293.90	1273.84
294.12	1200.11
294.33	1193.97
294.55	1263.60
294.76	1214.45
294.97	1239.02
295.19	1212.40
295.40	1239.02
295.62	1300.46
295.83	1284.08
296.05	1279.98
296.26	1273.84
296.48	1261.55
296.69	1161.20
296.90	1339.37
297.12	1327.08
297.33	1320.94
297.55	1236.97
297.76	1282.03
297.98	1284.08
298.19	1298.41
298.41	1228.78
298.62	1253.36
298.83	1304.56
299.05	1312.75
299.26	1224.69
299.48	1284.08
299.69	1239.02
299.90	1241.07
300.12	1224.69
300.33	1292.27
300.55	1200.11
300.76	1204.21
300.98	1243.12
301.19	1243.12
301.40	1210.35
301.62	1226.73
301.83	1208.30
302.05	1230.83
302.26	1257.45
302.47	1206.25
302.69	1259.50
302.90	1230.83
303.12	1277.93
303.33	1277.93
303.54	1304.56
303.76	1210.35
303.97	1327.08
304.19	1306.60
304.40	1210.35
304.61	1284.08
304.83	1230.83
305.04	1290.22
305.26	1243.12
305.47	1232.88
305.68	1247.21
305.90	1218.54
306.11	1322.99
306.33	1241.07
306.54	1327.08
306.75	1255.40
306.97	1269.74
307.18	1253.36
307.39	1329.13
307.61	1210.35
307.82	1206.25
308.04	1290.22
308.25	1288.17
308.46	1282.03
308.68	1271.79
308.89	1247.21
309.10	1292.27
309.32	1302.51
309.53	1259.50
309.74	1339.37
309.96	1259.50
310.17	1314.80
310.39	1253.36
310.60	1302.51
310.81	1310.70
311.03	1269.74
311.24	1286.12
311.45	1259.50
311.67	1347.56
311.88	1257.45
312.09	1193.97
312.31	1329.13
312.52	1277.93
312.73	1267.69
312.95	1218.54
313.16	1265.64
313.37	1267.69
313.59	1243.12
313.80	1339.37
314.01	1267.69
314.23	1220.59
314.44	1228.78
314.65	1273.84
314.87	1263.60
315.08	1312.75
315.29	1241.07
315.51	1189.87
315.72	1290.22
315.93	1263.60
316.15	1224.69
316.36	1335.28
316.57	1245.16
316.79	1243.12
317.00	1351.66
317.21	1249.26
317.43	1206.25
317.64	1245.16
317.85	1206.25
318.07	1314.80
318.28	1304.56
318.49	1247.21
318.70	1241.07
318.92	1286.12
319.13	1218.54
319.34	1312.75
319.56	1286.12
319.77	1294.32
319.98	1271.79
320.20	1282.03
320.41	1261.55
320.62	1243.12
320.83	1314.80
321.05	1275.88
321.26	1267.69
321.47	1282.03
321.69	1181.68
321.90	1249.26
322.11	1290.22
322.32	1255.40
322.54	1253.36
322.75	1294.32
322.96	1261.55
323.18	1314.80
323.39	1341.42
323.60	1261.55
323.81	1232.88
324.03	1290.22
324.24	1322.99
324.45	1314.80
324.66	1296.36
324.88	1247.21
325.09	1282.03
325.30	1228.78
325.52	1249.26
325.73	1282.03
325.94	1296.36
326.15	1296.36
326.37	1320.94
326.58	1216.49
326.79	1269.74
327.00	1267.69
327.22	1279.98
327.43	1263.60
327.64	1191.92
327.85	1247.21
328.07	1296.36
328.28	1214.45
328.49	1282.03
328.70	1216.49
328.92	1292.27
329.13	1290.22
329.34	1308.65
329.55	1275.88
329.76	1232.88
329.98	1349.61
330.19	1292.27
330.40	1329.13
330.61	1247.21
330.83	1259.50
331.04	1193.97
331.25	1234.93
331.46	1269.74
331.68	1245.16
331.89	1286.12
332.10	1165.29
332.31	1292.27
332.52	1275.88
332.74	1277.93
332.95	1228.78
333.16	1257.45
333.37	1304.56
333.58	1232.88
333.80	1286.12
334.01	1322.99
334.22	1234.93
334.43	1273.84
334.64	1273.84
334.86	1228.78
335.07	1263.60
335.28	1320.94
335.49	1288.17
335.70	1230.83
335.92	1234.93
336.13	1214.45
336.34	1288.17
336.55	1304.56
336.76	1282.03
336.98	1239.02
337.19	1214.45
337.40	1259.50
337.61	1300.46
337.82	1284.08
338.04	1282.03
338.25	1282.03
338.46	1255.40
338.67	1196.01
338.88	1314.80
339.09	1247.21
339.31	1220.59
339.52	1261.55
339.73	1261.55
339.94	1259.50
340.15	1296.36
340.36	1212.40
340.58	1245.16
340.79	1269.74
341.00	1271.79
341.21	1269.74
341.42	1322.99
341.63	1183.73
341.85	1329.13
342.06	1196.01
342.27	1327.08
342.48	1298.41
342.69	1200.11
342.90	1243.12
343.12	1198.06
343.33	1259.50
343.54	1253.36
343.75	1200.11
343.96	1294.32
344.17	1204.21
344.38	1318.89
344.60	1208.30
344.81	1279.98
345.02	1314.80
345.23	1204.21
345.44	1212.40
345.65	1279.98
345.86	1216.49
346.07	1261.55
346.29	1216.49
346.50	1361.90
346.71	1218.54
346.92	1282.03
347.13	1290.22
347.34	1228.78
347.55	1271.79
347.76	1241.07
347.98	1269.74
348.19	1183.73
348.40	1316.84
348.61	1277.93
348.82	1286.12
349.03	1232.88
349.24	1251.31
349.45	1210.35
349.66	1308.65
349.88	1312.75
350.09	1298.41
350.30	1243.12
350.51	1296.36
350.72	1196.01
350.93	1294.32
351.14	1275.88
351.35	1339.37
351.56	1253.36
351.77	1306.60
351.99	1337.32
352.20	1337.32
352.41	1232.88
352.62	1314.80
352.83	1239.02
353.04	1200.11
353.25	1288.17
353.46	1259.50
353.67	1355.76
353.88	1228.78
354.09	1316.84
354.30	1273.84
354.52	1187.82
354.73	1329.13
354.94	1277.93
355.15	1204.21
355.36	1275.88
355.57	1196.01
355.78	1282.03
355.99	1277.93
356.20	1294.32
356.41	1202.16
356.62	1288.17
356.83	1241.07
357.04	1220.59
357.25	1353.71
357.46	1204.21
357.68	1228.78
357.89	1322.99
358.10	1265.64
358.31	1243.12
358.52	1208.30
358.73	1271.79
358.94	1247.21
359.15	1288.17
359.36	1247.21
359.57	1230.83
359.78	1214.45
359.99	1271.79
360.20	1206.25
360.41	1255.40
360.62	1343.47
360.83	1269.74
361.04	1298.41
361.25	1286.12
361.46	1279.98
361.67	1239.02
361.88	1296.36
362.09	1245.16
362.30	1284.08
362.51	1251.31
362.72	1349.61
362.93	1308.65
363.14	1331.18
363.35	1308.65
363.56	1245.16
363.78	1267.69
363.99	1259.50
364.20	1208.30
364.41	1267.69
364.62	1214.45
364.83	1232.88
365.04	1198.06
365.25	1277.93
365.46	1286.12
365.67	1241.07
365.88	1282.03
366.09	1294.32
366.30	1224.69
366.51	1261.55
366.72	1236.97
366.93	1253.36
367.14	1271.79
367.35	1351.66
367.56	1308.65
367.77	1329.13
367.98	1220.59
368.18	1302.51
368.39	1269.74
368.60	1269.74
368.81	1308.65
369.02	1222.64
369.23	1234.93
369.44	1204.21
369.65	1259.50
369.86	1257.45
370.07	1302.51
370.28	1202.16
370.49	1202.16
370.70	1257.45
370.91	1232.88
371.12	1228.78
371.33	1251.31
371.54	1206.25
371.75	1243.12
371.96	1222.64
372.17	1265.64
372.38	1300.46
372.59	1294.32
372.80	1253.36
373.01	1327.08
373.22	1228.78
373.43	1216.49
373.64	1275.88
373.85	1269.74
374.06	1286.12
374.26	1300.46
374.47	1239.02
374.68	1267.69
374.89	1255.40
375.10	1247.21
375.31	1282.03
375.52	1290.22
375.73	1206.25
375.94	1318.89
376.15	1294.32
376.36	1294.32
376.57	1241.07
376.78	1337.32
376.99	1290.22
377.20	1335.28
377.40	1279.98
377.61	1277.93
377.82	1206.25
378.03	1257.45
378.24	1296.36
378.45	1296.36
378.66	1265.64
378.87	1243.12
379.08	1214.45
379.29	1271.79
379.50	1247.21
379.71	1417.19
379.91	1269.74
380.12	1249.26
380.33	1249.26
380.54	1320.94
380.75	1263.60
380.96	1265.64
381.17	1343.47
381.38	1239.02
381.59	1257.45
381.80	1210.35
382.00	1261.55
382.21	1236.97
382.42	1269.74
382.63	1224.69
382.84	1228.78
383.05	1302.51
383.26	1241.07
383.47	1224.69
383.68	1290.22
383.88	1310.70
384.09	1271.79
384.30	1255.40
384.51	1253.36
384.72	1271.79
384.93	1271.79
385.14	1228.78
385.35	1282.03
385.55	1265.64
385.76	1230.83
385.97	1306.60
386.18	1226.73
386.39	1263.60
386.60	1269.74
386.81	1261.55
387.02	1245.16
387.22	1294.32
387.43	1271.79
387.64	1245.16
387.85	1232.88
388.06	1218.54
388.27	1261.55
388.48	1267.69
388.68	1314.80
388.89	1279.98
389.10	1245.16
389.31	1292.27
389.52	1243.12
389.73	1247.21
389.93	1269.74
390.14	1302.51
390.35	1206.25
390.56	1239.02
390.77	1277.93
390.98	1275.88
391.18	1282.03
391.39	1331.18
391.60	1298.41
391.81	1335.28
392.02	1245.16
392.23	1282.03
392.43	1300.46
392.64	1298.41
392.85	1243.12
393.06	1249.26
393.27	1337.32
393.47	1220.59
393.68	1245.16
393.89	1265.64
394.10	1296.36
394.31	1247.21
394.52	1279.98
394.72	1261.55
394.93	1271.79
395.14	1308.65
395.35	1308.65
395.56	1230.83
395.76	1312.75
395.97	1253.36
396.18	1189.87
396.39	1249.26
396.60	1279.98
396.80	1271.79
397.01	1308.65
397.22	1236.97
397.43	1372.14
397.64	1314.80
397.84	1267.69
398.05	1251.31
398.26	1255.40
398.47	1308.65
398.67	1198.06
398.88	1269.74
399.09	1193.97
399.30	1222.64
399.51	1255.40
399.71	1341.42
399.92	1206.25
400.13	1327.08
400.34	1179.63
400.54	1290.22
400.75	1314.80
400.96	1218.54
401.17	1286.12
401.37	1292.27
401.58	1236.97
401.79	1277.93
402.00	1218.54
402.21	1284.08
402.41	1282.03
402.62	1222.64
402.83	1259.50
403.04	1271.79
403.24	1322.99
403.45	1271.79
403.66	1288.17
403.87	1267.69
404.07	1339.37
404.28	1179.63
404.49	1292.27
404.70	1296.36
404.90	1261.55
405.11	1245.16
405.32	1282.03
405.52	1228.78
405.73	1273.84
405.94	1337.32
406.15	1214.45
406.35	1255.40
406.56	1314.80
406.77	1294.32
406.98	1243.12
407.18	1298.41
407.39	1314.80
407.60	1257.45
407.80	1298.41
408.01	1288.17
408.22	1320.94
408.43	1329.13
408.63	1263.60
408.84	1286.12
409.05	1333.23
409.25	1150.96
409.46	1277.93
409.67	1247.21
409.88	1239.02
410.08	1345.52
410.29	1257.45
410.50	1267.69
410.70	1277.93
410.91	1232.88
411.12	1267.69
411.32	1228.78
411.53	1292.27
411.74	1288.17
411.95	1279.98
412.15	1286.12
412.36	1247.21
412.57	1224.69
412.77	1259.50
412.98	1263.60
413.19	1255.40
413.39	1204.21
413.60	1208.30
413.81	1294.32
414.01	1306.60
414.22	1177.58
414.43	1279.98
414.63	1277.93
414.84	1288.17
415.05	1296.36
415.25	1314.80
415.46	1273.84
415.67	1257.45
415.87	1257.45
416.08	1286.12
416.29	1245.16
416.49	1277.93
416.70	1282.03
416.91	1288.17
417.11	1275.88
417.32	1353.71
417.53	1230.83
417.73	1302.51
417.94	1284.08
418.15	1191.92
418.35	1241.07
418.56	1269.74
418.77	1259.50
418.97	1259.50
419.18	1271.79
419.38	1245.16
419.59	1306.60
419.80	1286.12
420.00	1275.88
420.21	1294.32
420.42	1214.45
420.62	1263.60
420.83	1269.74
421.04	1200.11
421.24	1255.40
421.45	1261.55
421.65	1232.88
421.86	1251.31
422.07	1267.69
422.27	1222.64
422.48	1253.36
422.69	1277.93
422.89	1259.50
423.10	1341.42
423.30	1253.36
423.51	1255.40
423.72	1220.59
423.92	1239.02
424.13	1232.88
424.33	1298.41
424.54	1314.80
424.75	1288.17
424.95	1247.21
425.16	1224.69
425.36	1339.37
425.57	1259.50
425.78	1271.79
425.98	1241.07
426.19	1247.21
426.39	1208.30
426.60	1306.60
426.81	1257.45
427.01	1218.54
427.22	1277.93
427.42	1257.45
427.63	1318.89
427.83	1247.21
428.04	1251.31
428.25	1251.31
428.45	1236.97
428.66	1325.04
428.86	1273.84
429.07	1277.93
429.28	1296.36
429.48	1257.45
429.69	1259.50
429.89	1210.35
430.10	1271.79
430.30	1239.02
430.51	1279.98
430.71	1302.51
430.92	1265.64
431.13	1245.16
431.33	1226.73
431.54	1243.12
431.74	1261.55
431.95	1261.55
432.15	1267.69
432.36	1292.27
432.56	1368.04
432.77	1232.88
432.98	1191.92
433.18	1298.41
433.39	1230.83
433.59	1273.84
433.80	1290.22
434.00	1167.34
434.21	1261.55
434.41	1230.83
434.62	1308.65
434.82	1255.40
435.03	1265.64
435.23	1259.50
435.44	1232.88
435.64	1191.92
435.85	1239.02
436.06	1234.93
436.26	1296.36
436.47	1275.88
436.67	1212.40
436.88	1333.23
437.08	1286.12
437.29	1263.60
437.49	1234.93
437.70	1306.60
437.90	1333.23
438.11	1247.21
438.31	1322.99
438.52	1249.26
438.72	1273.84
438.93	1173.49
439.13	1228.78
439.34	1329.13
439.54	1286.12
439.75	1251.31
439.95	1259.50
440.16	1343.47
440.36	1261.55
440.57	1271.79
440.77	1263.60
440.98	1288.17
441.18	1263.60
441.39	1232.88
441.59	1296.36
441.80	1286.12
442.00	1316.84
442.21	1308.65
442.41	1265.64
442.62	1290.22
442.82	1249.26
443.02	1294.32
443.23	1320.94
443.43	1228.78
443.64	1261.55
443.84	1245.16
444.05	1325.04
444.25	1302.51
444.46	1329.13
444.66	1327.08
444.87	1265.64
445.07	1304.56
445.28	1261.55
445.48	1206.25
445.69	1329.13
445.89	1292.27
446.09	1230.83
446.30	1279.98
446.50	1243.12
446.71	1331.18
446.91	1288.17
447.12	1308.65
447.32	1257.45
447.53	1249.26
447.73	1359.85
447.93	1263.60
448.14	1253.36
448.34	1298.41
448.55	1253.36
448.75	1251.31
448.96	1265.64
449.16	1290.22
449.36	1239.02
449.57	1265.64
449.77	1341.42
449.98	1275.88
450.18	1322.99
450.39	1333.23
450.59	1245.16
450.79	1255.40
451.00	1210.35
451.20	1292.27
451.41	1193.97
451.61	1261.55
451.81	1279.98
452.02	1302.51
452.22	1310.70
452.43	1249.26
452.63	1273.84
