SpectraSuite Data File
++++++++++++++++++++++++++++++++++++
Date: Sun Apr 03 19:55:25 CEST 2016
User: root
Dark Spectrum Present: No
Reference Spectrum Present: No
Number of Sampled Component Spectra: 1
Spectrometers: USB4C02835
Integration Time (usec): 10000 (USB4C02835)
Spectra Averaged: 1 (USB4C02835)
Boxcar Smoothing: 0 (USB4C02835)
Correct for Electrical Dark: No (USB4C02835)
Strobe/Lamp Enabled: No (USB4C02835)
Correct for Detector Non-linearity: No (USB4C02835)
Correct for Stray Light: No (USB4C02835)
Number of Pixels in Processed Spectrum: 3648
>>>>>Begin Processed Spectral Data<<<<<
177.47	1318.89
177.69	1318.89
177.91	1318.89
178.13	1271.79
178.36	1261.55
178.58	1267.69
178.80	1187.82
179.02	1284.08
179.24	1318.89
179.46	1251.31
179.68	1290.22
179.90	1245.16
180.13	1288.17
180.35	1228.78
180.57	1329.13
180.79	1261.55
181.01	1228.78
181.23	1312.75
181.45	1300.46
181.67	1212.40
181.90	1269.74
182.12	1257.45
182.34	1261.55
182.56	1255.40
182.78	1224.69
183.00	1196.01
183.22	1243.12
183.44	1296.36
183.66	1228.78
183.89	1236.97
184.11	1296.36
184.33	1228.78
184.55	1239.02
184.77	1277.93
184.99	1320.94
185.21	1226.73
185.43	1288.17
185.65	1243.12
185.87	1304.56
186.10	1302.51
186.32	1271.79
186.54	1257.45
186.76	1261.55
186.98	1247.21
187.20	1247.21
187.42	1308.65
187.64	1255.40
187.86	1284.08
188.08	1218.54
188.30	1239.02
188.52	1277.93
188.75	1249.26
188.97	1241.07
189.19	1345.52
189.41	1265.64
189.63	1261.55
189.85	1372.14
190.07	1263.60
190.29	1265.64
190.51	1273.84
190.73	1284.08
190.95	1263.60
191.17	1341.42
191.39	1284.08
191.61	1290.22
191.84	1232.88
192.06	1210.35
192.28	1290.22
192.50	1337.32
192.72	1284.08
192.94	1382.38
193.16	1277.93
193.38	1253.36
193.60	1271.79
193.82	1241.07
194.04	1314.80
194.26	1288.17
194.48	1345.52
194.70	1249.26
194.92	1200.11
195.14	1277.93
195.36	1224.69
195.58	1206.25
195.80	1249.26
196.02	1335.28
196.24	1300.46
196.46	1241.07
196.69	1251.31
196.91	1306.60
197.13	1234.93
197.35	1273.84
197.57	1216.49
197.79	1279.98
198.01	1241.07
198.23	1257.45
198.45	1284.08
198.67	1220.59
198.89	1306.60
199.11	1316.84
199.33	1222.64
199.55	1220.59
199.77	1288.17
199.99	1304.56
200.21	1267.69
200.43	1236.97
200.65	1284.08
200.87	1198.06
201.09	1236.97
201.31	1150.96
201.53	1292.27
201.75	1241.07
201.97	1259.50
202.19	1271.79
202.41	1196.01
202.63	1214.45
202.85	1378.28
203.07	1273.84
203.29	1318.89
203.51	1290.22
203.73	1269.74
203.95	1257.45
204.17	1267.69
204.39	1304.56
204.61	1273.84
204.83	1263.60
205.05	1290.22
205.27	1320.94
205.49	1232.88
205.71	1185.77
205.93	1275.88
206.15	1247.21
206.37	1284.08
206.59	1257.45
206.81	1230.83
207.03	1296.36
207.25	1279.98
207.47	1261.55
207.69	1206.25
207.91	1288.17
208.13	1337.32
208.34	1271.79
208.56	1318.89
208.78	1271.79
209.00	1220.59
209.22	1222.64
209.44	1234.93
209.66	1241.07
209.88	1220.59
210.10	1275.88
210.32	1277.93
210.54	1230.83
210.76	1341.42
210.98	1312.75
211.20	1257.45
211.42	1232.88
211.64	1353.71
211.86	1325.04
212.08	1294.32
212.30	1376.24
212.52	1345.52
212.74	1316.84
212.96	1247.21
213.17	1302.51
213.39	1267.69
213.61	1290.22
213.83	1218.54
214.05	1230.83
214.27	1279.98
214.49	1298.41
214.71	1249.26
214.93	1243.12
215.15	1292.27
215.37	1298.41
215.59	1318.89
215.81	1308.65
216.03	1204.21
216.24	1279.98
216.46	1200.11
216.68	1314.80
216.90	1259.50
217.12	1275.88
217.34	1267.69
217.56	1294.32
217.78	1267.69
218.00	1269.74
218.22	1251.31
218.44	1191.92
218.66	1239.02
218.87	1282.03
219.09	1255.40
219.31	1286.12
219.53	1288.17
219.75	1302.51
219.97	1265.64
220.19	1245.16
220.41	1290.22
220.63	1286.12
220.85	1228.78
221.06	1234.93
221.28	1273.84
221.50	1286.12
221.72	1269.74
221.94	1282.03
222.16	1269.74
222.38	1265.64
222.60	1249.26
222.82	1243.12
223.03	1284.08
223.25	1325.04
223.47	1263.60
223.69	1271.79
223.91	1296.36
224.13	1273.84
224.35	1290.22
224.57	1284.08
224.78	1220.59
225.00	1282.03
225.22	1257.45
225.44	1257.45
225.66	1284.08
225.88	1265.64
226.10	1339.37
226.32	1193.97
226.53	1296.36
226.75	1255.40
226.97	1236.97
227.19	1257.45
227.41	1245.16
227.63	1216.49
227.85	1255.40
228.06	1247.21
228.28	1247.21
228.50	1239.02
228.72	1337.32
228.94	1200.11
229.16	1312.75
229.37	1255.40
229.59	1286.12
229.81	1245.16
230.03	1273.84
230.25	1296.36
230.47	1296.36
230.69	1247.21
230.90	1245.16
231.12	1245.16
231.34	1224.69
231.56	1245.16
231.78	1314.80
232.00	1228.78
232.21	1292.27
232.43	1306.60
232.65	1247.21
232.87	1275.88
233.09	1286.12
233.30	1290.22
233.52	1318.89
233.74	1294.32
233.96	1284.08
234.18	1306.60
234.40	1241.07
234.61	1271.79
234.83	1290.22
235.05	1204.21
235.27	1214.45
235.49	1259.50
235.70	1228.78
235.92	1306.60
236.14	1224.69
236.36	1253.36
236.58	1191.92
236.79	1208.30
237.01	1218.54
237.23	1234.93
237.45	1267.69
237.67	1273.84
237.88	1310.70
238.10	1318.89
238.32	1259.50
238.54	1318.89
238.76	1271.79
238.97	1249.26
239.19	1353.71
239.41	1243.12
239.63	1247.21
239.85	1249.26
240.06	1263.60
240.28	1263.60
240.50	1267.69
240.72	1308.65
240.93	1230.83
241.15	1337.32
241.37	1271.79
241.59	1253.36
241.81	1255.40
242.02	1308.65
242.24	1251.31
242.46	1189.87
242.68	1300.46
242.89	1290.22
243.11	1255.40
243.33	1265.64
243.55	1370.09
243.76	1210.35
243.98	1259.50
244.20	1294.32
244.42	1300.46
244.64	1263.60
244.85	1214.45
245.07	1271.79
245.29	1308.65
245.51	1282.03
245.72	1243.12
245.94	1282.03
246.16	1292.27
246.38	1261.55
246.59	1216.49
246.81	1304.56
247.03	1294.32
247.24	1243.12
247.46	1245.16
247.68	1277.93
247.90	1284.08
248.11	1292.27
248.33	1222.64
248.55	1224.69
248.77	1191.92
248.98	1269.74
249.20	1206.25
249.42	1259.50
249.64	1316.84
249.85	1245.16
250.07	1312.75
250.29	1236.97
250.50	1286.12
250.72	1232.88
250.94	1298.41
251.16	1263.60
251.37	1261.55
251.59	1232.88
251.81	1257.45
252.02	1296.36
252.24	1200.11
252.46	1245.16
252.68	1230.83
252.89	1224.69
253.11	1241.07
253.33	1275.88
253.54	1269.74
253.76	1263.60
253.98	1335.28
254.20	1251.31
254.41	1224.69
254.63	1249.26
254.85	1290.22
255.06	1220.59
255.28	1224.69
255.50	1255.40
255.71	1271.79
255.93	1308.65
256.15	1282.03
256.36	1288.17
256.58	1241.07
256.80	1220.59
257.02	1269.74
257.23	1234.93
257.45	1269.74
257.67	1226.73
257.88	1298.41
258.10	1275.88
258.32	1236.97
258.53	1314.80
258.75	1243.12
258.97	1271.79
259.18	1308.65
259.40	1232.88
259.62	1271.79
259.83	1204.21
260.05	1230.83
260.27	1310.70
260.48	1239.02
260.70	1255.40
260.92	1253.36
261.13	1259.50
261.35	1286.12
261.57	1316.84
261.78	1228.78
262.00	1347.56
262.22	1331.18
262.43	1210.35
262.65	1263.60
262.86	1253.36
263.08	1284.08
263.30	1259.50
263.51	1267.69
263.73	1208.30
263.95	1353.71
264.16	1288.17
264.38	1302.51
264.60	1257.45
264.81	1368.04
265.03	1294.32
265.25	1275.88
265.46	1261.55
265.68	1173.49
265.89	1243.12
266.11	1282.03
266.33	1273.84
266.54	1257.45
266.76	1361.90
266.98	1193.97
267.19	1284.08
267.41	1224.69
267.62	1218.54
267.84	1265.64
268.06	1286.12
268.27	1253.36
268.49	1241.07
268.70	1378.28
268.92	1232.88
269.14	1204.21
269.35	1273.84
269.57	1320.94
269.79	1322.99
270.00	1261.55
270.22	1300.46
270.43	1322.99
270.65	1236.97
270.87	1224.69
271.08	1255.40
271.30	1300.46
271.51	1265.64
271.73	1263.60
271.95	1241.07
272.16	1216.49
272.38	1249.26
272.59	1267.69
272.81	1253.36
273.02	1298.41
273.24	1228.78
273.46	1255.40
273.67	1210.35
273.89	1226.73
274.10	1243.12
274.32	1298.41
274.54	1314.80
274.75	1284.08
274.97	1259.50
275.18	1282.03
275.40	1310.70
275.61	1271.79
275.83	1277.93
276.05	1245.16
276.26	1300.46
276.48	1193.97
276.69	1271.79
276.91	1257.45
277.12	1314.80
277.34	1263.60
277.55	1220.59
277.77	1267.69
277.99	1277.93
278.20	1226.73
278.42	1239.02
278.63	1304.56
278.85	1234.93
279.06	1306.60
279.28	1216.49
279.49	1234.93
279.71	1234.93
279.93	1292.27
280.14	1271.79
280.36	1316.84
280.57	1296.36
280.79	1236.97
281.00	1232.88
281.22	1245.16
281.43	1312.75
281.65	1251.31
281.86	1292.27
282.08	1300.46
282.29	1247.21
282.51	1275.88
282.73	1253.36
282.94	1243.12
283.16	1251.31
283.37	1298.41
283.59	1193.97
283.80	1294.32
284.02	1259.50
284.23	1349.61
284.45	1292.27
284.66	1159.15
284.88	1288.17
285.09	1263.60
285.31	1134.57
285.52	1202.16
285.74	1187.82
285.95	1300.46
286.17	1304.56
286.38	1214.45
286.60	1220.59
286.81	1271.79
287.03	1351.66
287.24	1337.32
287.46	1245.16
287.67	1298.41
287.89	1279.98
288.10	1261.55
288.32	1228.78
288.53	1239.02
288.75	1290.22
288.96	1249.26
289.18	1232.88
289.39	1234.93
289.61	1245.16
289.82	1279.98
290.04	1263.60
290.25	1208.30
290.47	1304.56
290.68	1249.26
290.90	1200.11
291.11	1245.16
291.33	1263.60
291.54	1236.97
291.76	1292.27
291.97	1232.88
292.18	1232.88
292.40	1335.28
292.61	1306.60
292.83	1257.45
293.04	1251.31
293.26	1318.89
293.47	1306.60
293.69	1286.12
293.90	1284.08
294.12	1263.60
294.33	1228.78
294.55	1259.50
294.76	1220.59
294.97	1308.65
295.19	1253.36
295.40	1224.69
295.62	1249.26
295.83	1322.99
296.05	1327.08
296.26	1222.64
296.48	1269.74
296.69	1212.40
296.90	1179.63
297.12	1234.93
297.33	1249.26
297.55	1249.26
297.76	1273.84
297.98	1263.60
298.19	1310.70
298.41	1257.45
298.62	1202.16
298.83	1279.98
299.05	1286.12
299.26	1222.64
299.48	1312.75
299.69	1226.73
299.90	1286.12
300.12	1263.60
300.33	1269.74
300.55	1230.83
300.76	1247.21
300.98	1292.27
301.19	1339.37
301.40	1318.89
301.62	1263.60
301.83	1302.51
302.05	1239.02
302.26	1169.39
302.47	1361.90
302.69	1208.30
302.90	1314.80
303.12	1232.88
303.33	1320.94
303.54	1288.17
303.76	1312.75
303.97	1267.69
304.19	1292.27
304.40	1243.12
304.61	1335.28
304.83	1302.51
305.04	1261.55
305.26	1302.51
305.47	1273.84
305.68	1241.07
305.90	1273.84
306.11	1318.89
306.33	1236.97
306.54	1236.97
306.75	1277.93
306.97	1253.36
307.18	1288.17
307.39	1230.83
307.61	1261.55
307.82	1292.27
308.04	1208.30
308.25	1140.72
308.46	1234.93
308.68	1320.94
308.89	1302.51
309.10	1325.04
309.32	1337.32
309.53	1232.88
309.74	1189.87
309.96	1277.93
310.17	1267.69
310.39	1236.97
310.60	1298.41
310.81	1228.78
311.03	1314.80
311.24	1239.02
311.45	1320.94
311.67	1228.78
311.88	1259.50
312.09	1230.83
312.31	1322.99
312.52	1353.71
312.73	1234.93
312.95	1267.69
313.16	1204.21
313.37	1239.02
313.59	1269.74
313.80	1245.16
314.01	1290.22
314.23	1249.26
314.44	1306.60
314.65	1277.93
314.87	1275.88
315.08	1310.70
315.29	1251.31
315.51	1255.40
315.72	1286.12
315.93	1314.80
316.15	1232.88
316.36	1337.32
316.57	1273.84
316.79	1271.79
317.00	1251.31
317.21	1294.32
317.43	1275.88
317.64	1239.02
317.85	1339.37
318.07	1265.64
318.28	1333.23
318.49	1279.98
318.70	1327.08
318.92	1288.17
319.13	1251.31
319.34	1253.36
319.56	1232.88
319.77	1269.74
319.98	1363.95
320.20	1273.84
320.41	1265.64
320.62	1224.69
320.83	1216.49
321.05	1273.84
321.26	1241.07
321.47	1288.17
321.69	1232.88
321.90	1228.78
322.11	1255.40
322.32	1245.16
322.54	1267.69
322.75	1202.16
322.96	1310.70
323.18	1300.46
323.39	1239.02
323.60	1243.12
323.81	1241.07
324.03	1275.88
324.24	1187.82
324.45	1265.64
324.66	1314.80
324.88	1263.60
325.09	1345.52
325.30	1271.79
325.52	1214.45
325.73	1296.36
325.94	1230.83
326.15	1314.80
326.37	1312.75
326.58	1247.21
326.79	1322.99
327.00	1300.46
327.22	1251.31
327.43	1230.83
327.64	1279.98
327.85	1251.31
328.07	1222.64
328.28	1351.66
328.49	1279.98
328.70	1257.45
328.92	1314.80
329.13	1277.93
329.34	1261.55
329.55	1300.46
329.76	1249.26
329.98	1298.41
330.19	1339.37
330.40	1239.02
330.61	1239.02
330.83	1271.79
331.04	1269.74
331.25	1284.08
331.46	1189.87
331.68	1239.02
331.89	1290.22
332.10	1269.74
332.31	1241.07
332.52	1255.40
332.74	1253.36
332.95	1320.94
333.16	1251.31
333.37	1191.92
333.58	1210.35
333.80	1214.45
334.01	1226.73
334.22	1247.21
334.43	1269.74
334.64	1247.21
334.86	1255.40
335.07	1234.93
335.28	1267.69
335.49	1241.07
335.70	1380.33
335.92	1263.60
336.13	1312.75
336.34	1329.13
336.55	1271.79
336.76	1239.02
336.98	1292.27
337.19	1269.74
337.40	1263.60
337.61	1265.64
337.82	1335.28
338.04	1284.08
338.25	1257.45
338.46	1306.60
338.67	1251.31
338.88	1325.04
339.09	1230.83
339.31	1277.93
339.52	1204.21
339.73	1279.98
339.94	1339.37
340.15	1298.41
340.36	1239.02
340.58	1179.63
340.79	1282.03
341.00	1337.32
341.21	1193.97
341.42	1279.98
341.63	1318.89
341.85	1304.56
342.06	1290.22
342.27	1193.97
342.48	1318.89
342.69	1214.45
342.90	1232.88
343.12	1226.73
343.33	1306.60
343.54	1269.74
343.75	1226.73
343.96	1214.45
344.17	1304.56
344.38	1284.08
344.60	1263.60
344.81	1249.26
345.02	1310.70
345.23	1228.78
345.44	1239.02
345.65	1245.16
345.86	1320.94
346.07	1263.60
346.29	1216.49
346.50	1339.37
346.71	1312.75
346.92	1329.13
347.13	1355.76
347.34	1286.12
347.55	1310.70
347.76	1226.73
347.98	1290.22
348.19	1247.21
348.40	1267.69
348.61	1294.32
348.82	1279.98
349.03	1277.93
349.24	1306.60
349.45	1302.51
349.66	1245.16
349.88	1241.07
350.09	1335.28
350.30	1269.74
350.51	1312.75
350.72	1214.45
350.93	1292.27
351.14	1261.55
351.35	1282.03
351.56	1210.35
351.77	1294.32
351.99	1241.07
352.20	1269.74
352.41	1275.88
352.62	1261.55
352.83	1259.50
353.04	1214.45
353.25	1253.36
353.46	1265.64
353.67	1241.07
353.88	1236.97
354.09	1331.18
354.30	1269.74
354.52	1241.07
354.73	1243.12
354.94	1290.22
355.15	1316.84
355.36	1267.69
355.57	1296.36
355.78	1275.88
355.99	1175.53
356.20	1239.02
356.41	1306.60
356.62	1261.55
356.83	1312.75
357.04	1267.69
357.25	1282.03
357.46	1212.40
357.68	1361.90
357.89	1267.69
358.10	1249.26
358.31	1247.21
358.52	1288.17
358.73	1277.93
358.94	1271.79
359.15	1228.78
359.36	1253.36
359.57	1327.08
359.78	1214.45
359.99	1292.27
360.20	1308.65
360.41	1255.40
360.62	1247.21
360.83	1269.74
361.04	1245.16
361.25	1261.55
361.46	1337.32
361.67	1234.93
361.88	1296.36
362.09	1214.45
362.30	1308.65
362.51	1257.45
362.72	1306.60
362.93	1212.40
363.14	1228.78
363.35	1251.31
363.56	1347.56
363.78	1275.88
363.99	1257.45
364.20	1277.93
364.41	1198.06
364.62	1269.74
364.83	1292.27
365.04	1191.92
365.25	1279.98
365.46	1275.88
365.67	1202.16
365.88	1218.54
366.09	1282.03
366.30	1308.65
366.51	1261.55
366.72	1187.82
366.93	1228.78
367.14	1257.45
367.35	1236.97
367.56	1257.45
367.77	1273.84
367.98	1224.69
368.18	1239.02
368.39	1220.59
368.60	1322.99
368.81	1208.30
369.02	1273.84
369.23	1275.88
369.44	1259.50
369.65	1294.32
369.86	1216.49
370.07	1214.45
370.28	1275.88
370.49	1314.80
370.70	1253.36
370.91	1265.64
371.12	1212.40
371.33	1288.17
371.54	1292.27
371.75	1159.15
371.96	1259.50
372.17	1296.36
372.38	1241.07
372.59	1277.93
372.80	1251.31
373.01	1257.45
373.22	1267.69
373.43	1304.56
373.64	1284.08
373.85	1255.40
374.06	1236.97
374.26	1228.78
374.47	1265.64
374.68	1277.93
374.89	1196.01
375.10	1265.64
375.31	1251.31
375.52	1259.50
375.73	1277.93
375.94	1263.60
376.15	1234.93
376.36	1255.40
376.57	1331.18
376.78	1236.97
376.99	1241.07
377.20	1275.88
377.40	1183.73
377.61	1286.12
377.82	1267.69
378.03	1347.56
378.24	1249.26
378.45	1263.60
378.66	1234.93
378.87	1257.45
379.08	1263.60
379.29	1193.97
379.50	1255.40
379.71	1310.70
379.91	1286.12
380.12	1314.80
380.33	1257.45
380.54	1294.32
380.75	1206.25
380.96	1296.36
381.17	1322.99
381.38	1257.45
381.59	1320.94
381.80	1300.46
382.00	1302.51
382.21	1298.41
382.42	1222.64
382.63	1259.50
382.84	1286.12
383.05	1284.08
383.26	1304.56
383.47	1263.60
383.68	1255.40
383.88	1253.36
384.09	1288.17
384.30	1279.98
384.51	1286.12
384.72	1353.71
384.93	1265.64
385.14	1316.84
385.35	1294.32
385.55	1239.02
385.76	1251.31
385.97	1333.23
386.18	1241.07
386.39	1284.08
386.60	1306.60
386.81	1222.64
387.02	1337.32
387.22	1249.26
387.43	1277.93
387.64	1290.22
387.85	1286.12
388.06	1257.45
388.27	1304.56
388.48	1255.40
388.68	1249.26
388.89	1265.64
389.10	1392.62
389.31	1284.08
389.52	1249.26
389.73	1202.16
389.93	1296.36
390.14	1314.80
390.35	1247.21
390.56	1259.50
390.77	1282.03
390.98	1290.22
391.18	1267.69
391.39	1187.82
391.60	1296.36
391.81	1325.04
392.02	1357.80
392.23	1239.02
392.43	1218.54
392.64	1230.83
392.85	1265.64
393.06	1224.69
393.27	1298.41
393.47	1245.16
393.68	1214.45
393.89	1282.03
394.10	1288.17
394.31	1214.45
394.52	1277.93
394.72	1294.32
394.93	1241.07
395.14	1206.25
395.35	1265.64
395.56	1284.08
395.76	1269.74
395.97	1255.40
396.18	1310.70
396.39	1290.22
396.60	1255.40
396.80	1314.80
397.01	1259.50
397.22	1245.16
397.43	1259.50
397.64	1230.83
397.84	1253.36
398.05	1247.21
398.26	1355.76
398.47	1265.64
398.67	1282.03
398.88	1337.32
399.09	1298.41
399.30	1308.65
399.51	1185.77
399.71	1232.88
399.92	1261.55
400.13	1314.80
400.34	1292.27
400.54	1298.41
400.75	1236.97
400.96	1337.32
401.17	1298.41
401.37	1261.55
401.58	1267.69
401.79	1204.21
402.00	1232.88
402.21	1343.47
402.41	1269.74
402.62	1290.22
402.83	1312.75
403.04	1279.98
403.24	1282.03
403.45	1308.65
403.66	1275.88
403.87	1284.08
404.07	1212.40
404.28	1208.30
404.49	1261.55
404.70	1198.06
404.90	1216.49
405.11	1249.26
405.32	1306.60
405.52	1247.21
405.73	1249.26
405.94	1357.80
406.15	1288.17
406.35	1277.93
406.56	1234.93
406.77	1247.21
406.98	1259.50
407.18	1308.65
407.39	1157.10
407.60	1224.69
407.80	1214.45
408.01	1288.17
408.22	1320.94
408.43	1236.97
408.63	1271.79
408.84	1320.94
409.05	1255.40
409.25	1218.54
409.46	1318.89
409.67	1255.40
409.88	1239.02
410.08	1312.75
410.29	1269.74
410.50	1210.35
410.70	1277.93
410.91	1216.49
411.12	1243.12
411.32	1318.89
411.53	1261.55
411.74	1316.84
411.95	1230.83
412.15	1239.02
412.36	1306.60
412.57	1247.21
412.77	1273.84
412.98	1296.36
413.19	1196.01
413.39	1279.98
413.60	1296.36
413.81	1251.31
414.01	1271.79
414.22	1265.64
414.43	1265.64
414.63	1234.93
414.84	1179.63
415.05	1296.36
415.25	1312.75
415.46	1255.40
415.67	1247.21
415.87	1312.75
416.08	1267.69
416.29	1243.12
416.49	1265.64
416.70	1298.41
416.91	1282.03
417.11	1130.48
417.32	1308.65
417.53	1288.17
417.73	1204.21
417.94	1236.97
418.15	1269.74
418.35	1320.94
418.56	1275.88
418.77	1286.12
418.97	1265.64
419.18	1304.56
419.38	1271.79
419.59	1249.26
419.80	1251.31
420.00	1277.93
420.21	1241.07
420.42	1322.99
420.62	1339.37
420.83	1271.79
421.04	1279.98
421.24	1206.25
421.45	1296.36
421.65	1275.88
421.86	1269.74
422.07	1263.60
422.27	1310.70
422.48	1275.88
422.69	1269.74
422.89	1234.93
423.10	1294.32
423.30	1322.99
423.51	1232.88
423.72	1259.50
423.92	1198.06
424.13	1296.36
424.33	1259.50
424.54	1265.64
424.75	1296.36
424.95	1173.49
425.16	1239.02
425.36	1224.69
425.57	1263.60
425.78	1300.46
425.98	1269.74
426.19	1286.12
426.39	1247.21
426.60	1290.22
426.81	1255.40
427.01	1314.80
427.22	1292.27
427.42	1267.69
427.63	1183.73
427.83	1214.45
428.04	1320.94
428.25	1249.26
428.45	1298.41
428.66	1288.17
428.86	1310.70
429.07	1255.40
429.28	1290.22
429.48	1234.93
429.69	1316.84
429.89	1257.45
430.10	1267.69
430.30	1261.55
430.51	1288.17
430.71	1296.36
430.92	1312.75
431.13	1214.45
431.33	1294.32
431.54	1306.60
431.74	1290.22
431.95	1378.28
432.15	1282.03
432.36	1322.99
432.56	1288.17
432.77	1277.93
432.98	1236.97
433.18	1314.80
433.39	1232.88
433.59	1259.50
433.80	1306.60
434.00	1228.78
434.21	1288.17
434.41	1290.22
434.62	1335.28
434.82	1271.79
435.03	1288.17
435.23	1269.74
435.44	1273.84
435.64	1302.51
435.85	1273.84
436.06	1261.55
436.26	1183.73
436.47	1271.79
436.67	1241.07
436.88	1314.80
437.08	1294.32
437.29	1320.94
437.49	1306.60
437.70	1279.98
437.90	1200.11
438.11	1277.93
438.31	1202.16
438.52	1267.69
438.72	1263.60
438.93	1261.55
439.13	1337.32
439.34	1243.12
439.54	1277.93
439.75	1333.23
439.95	1214.45
440.16	1263.60
440.36	1273.84
440.57	1273.84
440.77	1255.40
440.98	1298.41
441.18	1236.97
441.39	1302.51
441.59	1275.88
441.80	1255.40
442.00	1267.69
442.21	1269.74
442.41	1232.88
442.62	1239.02
442.82	1251.31
443.02	1298.41
443.23	1294.32
443.43	1306.60
443.64	1298.41
443.84	1288.17
444.05	1347.56
444.25	1325.04
444.46	1286.12
444.66	1279.98
444.87	1220.59
445.07	1257.45
445.28	1206.25
445.48	1230.83
445.69	1286.12
445.89	1302.51
446.09	1292.27
446.30	1310.70
446.50	1288.17
446.71	1200.11
446.91	1329.13
447.12	1368.04
447.32	1329.13
447.53	1331.18
447.73	1304.56
447.93	1189.87
448.14	1290.22
448.34	1296.36
448.55	1271.79
448.75	1286.12
448.96	1304.56
449.16	1339.37
449.36	1331.18
449.57	1208.30
449.77	1279.98
449.98	1216.49
450.18	1265.64
450.39	1261.55
450.59	1257.45
450.79	1308.65
451.00	1220.59
451.20	1243.12
451.41	1306.60
451.61	1243.12
451.81	1261.55
452.02	1312.75
452.22	1310.70
452.43	1226.73
452.63	1322.99
