SpectraSuite Data File
++++++++++++++++++++++++++++++++++++
Date: Sun Apr 03 19:55:39 CEST 2016
User: root
Dark Spectrum Present: No
Reference Spectrum Present: No
Number of Sampled Component Spectra: 1
Spectrometers: USB4C02835
Integration Time (usec): 10000 (USB4C02835)
Spectra Averaged: 1 (USB4C02835)
Boxcar Smoothing: 0 (USB4C02835)
Correct for Electrical Dark: No (USB4C02835)
Strobe/Lamp Enabled: No (USB4C02835)
Correct for Detector Non-linearity: No (USB4C02835)
Correct for Stray Light: No (USB4C02835)
Number of Pixels in Processed Spectrum: 3648
>>>>>Begin Processed Spectral Data<<<<<
177.47	1206.25
177.69	1206.25
177.91	1206.25
178.13	1220.59
178.36	1173.49
178.58	1218.54
178.80	1228.78
179.02	1222.64
179.24	1284.08
179.46	1247.21
179.68	1243.12
179.90	1210.35
180.13	1263.60
180.35	1288.17
180.57	1304.56
180.79	1294.32
181.01	1306.60
181.23	1296.36
181.45	1257.45
181.67	1261.55
181.90	1279.98
182.12	1292.27
182.34	1263.60
182.56	1259.50
182.78	1265.64
183.00	1249.26
183.22	1294.32
183.44	1265.64
183.66	1273.84
183.89	1255.40
184.11	1269.74
184.33	1277.93
184.55	1277.93
184.77	1236.97
184.99	1212.40
185.21	1279.98
185.43	1355.76
185.65	1243.12
185.87	1327.08
186.10	1239.02
186.32	1239.02
186.54	1198.06
186.76	1310.70
186.98	1202.16
187.20	1286.12
187.42	1329.13
187.64	1263.60
187.86	1220.59
188.08	1273.84
188.30	1247.21
188.52	1226.73
188.75	1275.88
188.97	1300.46
189.19	1177.58
189.41	1247.21
189.63	1255.40
189.85	1312.75
190.07	1232.88
190.29	1308.65
190.51	1255.40
190.73	1245.16
190.95	1271.79
191.17	1191.92
191.39	1239.02
191.61	1255.40
191.84	1277.93
192.06	1284.08
192.28	1216.49
192.50	1339.37
192.72	1241.07
192.94	1273.84
193.16	1183.73
193.38	1282.03
193.60	1349.61
193.82	1208.30
194.04	1300.46
194.26	1267.69
194.48	1265.64
194.70	1308.65
194.92	1200.11
195.14	1306.60
195.36	1251.31
195.58	1318.89
195.80	1228.78
196.02	1200.11
196.24	1284.08
196.46	1253.36
196.69	1269.74
196.91	1239.02
197.13	1255.40
197.35	1251.31
197.57	1257.45
197.79	1241.07
198.01	1298.41
198.23	1320.94
198.45	1302.51
198.67	1251.31
198.89	1273.84
199.11	1214.45
199.33	1261.55
199.55	1247.21
199.77	1310.70
199.99	1282.03
200.21	1241.07
200.43	1251.31
200.65	1304.56
200.87	1279.98
201.09	1198.06
201.31	1349.61
201.53	1185.77
201.75	1327.08
201.97	1247.21
202.19	1239.02
202.41	1275.88
202.63	1288.17
202.85	1204.21
203.07	1302.51
203.29	1294.32
203.51	1265.64
203.73	1214.45
203.95	1265.64
204.17	1234.93
204.39	1271.79
204.61	1216.49
204.83	1335.28
205.05	1243.12
205.27	1286.12
205.49	1298.41
205.71	1282.03
205.93	1265.64
206.15	1267.69
206.37	1294.32
206.59	1290.22
206.81	1261.55
207.03	1302.51
207.25	1187.82
207.47	1292.27
207.69	1265.64
207.91	1284.08
208.13	1253.36
208.34	1304.56
208.56	1247.21
208.78	1282.03
209.00	1296.36
209.22	1241.07
209.44	1300.46
209.66	1267.69
209.88	1277.93
210.10	1208.30
210.32	1239.02
210.54	1341.42
210.76	1173.49
210.98	1259.50
211.20	1208.30
211.42	1259.50
211.64	1277.93
211.86	1269.74
212.08	1267.69
212.30	1193.97
212.52	1263.60
212.74	1296.36
212.96	1200.11
213.17	1282.03
213.39	1316.84
213.61	1286.12
213.83	1212.40
214.05	1290.22
214.27	1241.07
214.49	1210.35
214.71	1273.84
214.93	1341.42
215.15	1265.64
215.37	1187.82
215.59	1312.75
215.81	1232.88
216.03	1265.64
216.24	1277.93
216.46	1263.60
216.68	1290.22
216.90	1314.80
217.12	1312.75
217.34	1300.46
217.56	1196.01
217.78	1161.20
218.00	1247.21
218.22	1251.31
218.44	1306.60
218.66	1318.89
218.87	1232.88
219.09	1267.69
219.31	1288.17
219.53	1343.47
219.75	1325.04
219.97	1286.12
220.19	1279.98
220.41	1253.36
220.63	1271.79
220.85	1232.88
221.06	1333.23
221.28	1271.79
221.50	1261.55
221.72	1294.32
221.94	1228.78
222.16	1284.08
222.38	1261.55
222.60	1361.90
222.82	1300.46
223.03	1247.21
223.25	1271.79
223.47	1302.51
223.69	1220.59
223.91	1308.65
224.13	1312.75
224.35	1261.55
224.57	1241.07
224.78	1333.23
225.00	1312.75
225.22	1286.12
225.44	1306.60
225.66	1322.99
225.88	1226.73
226.10	1251.31
226.32	1259.50
226.53	1253.36
226.75	1304.56
226.97	1329.13
227.19	1370.09
227.41	1234.93
227.63	1271.79
227.85	1288.17
228.06	1325.04
228.28	1204.21
228.50	1286.12
228.72	1275.88
228.94	1312.75
229.16	1239.02
229.37	1296.36
229.59	1220.59
229.81	1251.31
230.03	1279.98
230.25	1318.89
230.47	1243.12
230.69	1370.09
230.90	1292.27
231.12	1218.54
231.34	1226.73
231.56	1247.21
231.78	1228.78
232.00	1337.32
232.21	1286.12
232.43	1234.93
232.65	1296.36
232.87	1288.17
233.09	1279.98
233.30	1308.65
233.52	1202.16
233.74	1200.11
233.96	1265.64
234.18	1265.64
234.40	1273.84
234.61	1255.40
234.83	1290.22
235.05	1378.28
235.27	1349.61
235.49	1282.03
235.70	1255.40
235.92	1288.17
236.14	1370.09
236.36	1292.27
236.58	1269.74
236.79	1292.27
237.01	1257.45
237.23	1327.08
237.45	1183.73
237.67	1273.84
237.88	1294.32
238.10	1267.69
238.32	1314.80
238.54	1228.78
238.76	1216.49
238.97	1304.56
239.19	1372.14
239.41	1241.07
239.63	1224.69
239.85	1249.26
240.06	1245.16
240.28	1204.21
240.50	1286.12
240.72	1298.41
240.93	1265.64
241.15	1300.46
241.37	1267.69
241.59	1245.16
241.81	1277.93
242.02	1216.49
242.24	1261.55
242.46	1228.78
242.68	1310.70
242.89	1290.22
243.11	1228.78
243.33	1265.64
243.55	1218.54
243.76	1300.46
243.98	1218.54
244.20	1226.73
244.42	1253.36
244.64	1200.11
244.85	1239.02
245.07	1271.79
245.29	1282.03
245.51	1257.45
245.72	1279.98
245.94	1200.11
246.16	1275.88
246.38	1243.12
246.59	1282.03
246.81	1277.93
247.03	1292.27
247.24	1296.36
247.46	1308.65
247.68	1288.17
247.90	1222.64
248.11	1263.60
248.33	1308.65
248.55	1216.49
248.77	1224.69
248.98	1210.35
249.20	1282.03
249.42	1255.40
249.64	1255.40
249.85	1239.02
250.07	1214.45
250.29	1298.41
250.50	1251.31
250.72	1277.93
250.94	1247.21
251.16	1294.32
251.37	1288.17
251.59	1265.64
251.81	1292.27
252.02	1232.88
252.24	1247.21
252.46	1294.32
252.68	1239.02
252.89	1318.89
253.11	1210.35
253.33	1277.93
253.54	1232.88
253.76	1322.99
253.98	1290.22
254.20	1304.56
254.41	1263.60
254.63	1308.65
254.85	1271.79
255.06	1247.21
255.28	1279.98
255.50	1298.41
255.71	1267.69
255.93	1216.49
256.15	1255.40
256.36	1265.64
256.58	1273.84
256.80	1220.59
257.02	1234.93
257.23	1306.60
257.45	1236.97
257.67	1257.45
257.88	1263.60
258.10	1282.03
258.32	1257.45
258.53	1255.40
258.75	1304.56
258.97	1253.36
259.18	1236.97
259.40	1282.03
259.62	1273.84
259.83	1304.56
260.05	1341.42
260.27	1269.74
260.48	1249.26
260.70	1318.89
260.92	1288.17
261.13	1286.12
261.35	1275.88
261.57	1265.64
261.78	1255.40
262.00	1257.45
262.22	1257.45
262.43	1210.35
262.65	1279.98
262.86	1216.49
263.08	1263.60
263.30	1200.11
263.51	1257.45
263.73	1255.40
263.95	1224.69
264.16	1314.80
264.38	1155.05
264.60	1275.88
264.81	1363.95
265.03	1284.08
265.25	1286.12
265.46	1282.03
265.68	1267.69
265.89	1286.12
266.11	1279.98
266.33	1292.27
266.54	1275.88
266.76	1253.36
266.98	1271.79
267.19	1288.17
267.41	1286.12
267.62	1269.74
267.84	1288.17
268.06	1288.17
268.27	1236.97
268.49	1247.21
268.70	1247.21
268.92	1308.65
269.14	1214.45
269.35	1220.59
269.57	1236.97
269.79	1269.74
270.00	1279.98
270.22	1300.46
270.43	1236.97
270.65	1241.07
270.87	1275.88
271.08	1247.21
271.30	1322.99
271.51	1208.30
271.73	1331.18
271.95	1239.02
272.16	1239.02
272.38	1226.73
272.59	1282.03
272.81	1290.22
273.02	1318.89
273.24	1413.10
273.46	1277.93
273.67	1273.84
273.89	1224.69
274.10	1298.41
274.32	1234.93
274.54	1314.80
274.75	1257.45
274.97	1263.60
275.18	1243.12
275.40	1247.21
275.61	1282.03
275.83	1193.97
276.05	1181.68
276.26	1234.93
276.48	1191.92
276.69	1310.70
276.91	1245.16
277.12	1331.18
277.34	1284.08
277.55	1302.51
277.77	1273.84
277.99	1304.56
278.20	1204.21
278.42	1304.56
278.63	1189.87
278.85	1259.50
279.06	1349.61
279.28	1218.54
279.49	1259.50
279.71	1286.12
279.93	1292.27
280.14	1302.51
280.36	1255.40
280.57	1273.84
280.79	1222.64
281.00	1290.22
281.22	1224.69
281.43	1306.60
281.65	1193.97
281.86	1210.35
282.08	1241.07
282.29	1265.64
282.51	1271.79
282.73	1224.69
282.94	1249.26
283.16	1228.78
283.37	1249.26
283.59	1288.17
283.80	1261.55
284.02	1337.32
284.23	1220.59
284.45	1327.08
284.66	1253.36
284.88	1279.98
285.09	1288.17
285.31	1224.69
285.52	1290.22
285.74	1239.02
285.95	1257.45
286.17	1267.69
286.38	1298.41
286.60	1247.21
286.81	1347.56
287.03	1234.93
287.24	1292.27
287.46	1282.03
287.67	1282.03
287.89	1325.04
288.10	1292.27
288.32	1259.50
288.53	1296.36
288.75	1263.60
288.96	1286.12
289.18	1263.60
289.39	1343.47
289.61	1292.27
289.82	1298.41
290.04	1306.60
290.25	1251.31
290.47	1232.88
290.68	1271.79
290.90	1198.06
291.11	1257.45
291.33	1322.99
291.54	1273.84
291.76	1265.64
291.97	1234.93
292.18	1306.60
292.40	1210.35
292.61	1196.01
292.83	1292.27
293.04	1251.31
293.26	1337.32
293.47	1267.69
293.69	1183.73
293.90	1269.74
294.12	1273.84
294.33	1267.69
294.55	1308.65
294.76	1222.64
294.97	1271.79
295.19	1312.75
295.40	1279.98
295.62	1310.70
295.83	1282.03
296.05	1267.69
296.26	1312.75
296.48	1286.12
296.69	1267.69
296.90	1273.84
297.12	1251.31
297.33	1259.50
297.55	1251.31
297.76	1273.84
297.98	1243.12
298.19	1269.74
298.41	1271.79
298.62	1234.93
298.83	1269.74
299.05	1265.64
299.26	1296.36
299.48	1304.56
299.69	1216.49
299.90	1247.21
300.12	1282.03
300.33	1265.64
300.55	1251.31
300.76	1245.16
300.98	1300.46
301.19	1279.98
301.40	1214.45
301.62	1257.45
301.83	1200.11
302.05	1302.51
302.26	1292.27
302.47	1253.36
302.69	1314.80
302.90	1306.60
303.12	1279.98
303.33	1251.31
303.54	1236.97
303.76	1265.64
303.97	1210.35
304.19	1251.31
304.40	1245.16
304.61	1183.73
304.83	1236.97
305.04	1251.31
305.26	1261.55
305.47	1298.41
305.68	1310.70
305.90	1267.69
306.11	1298.41
306.33	1257.45
306.54	1286.12
306.75	1257.45
306.97	1286.12
307.18	1269.74
307.39	1253.36
307.61	1251.31
307.82	1284.08
308.04	1294.32
308.25	1204.21
308.46	1277.93
308.68	1234.93
308.89	1331.18
309.10	1253.36
309.32	1271.79
309.53	1257.45
309.74	1300.46
309.96	1310.70
310.17	1220.59
310.39	1239.02
310.60	1255.40
310.81	1187.82
311.03	1232.88
311.24	1187.82
311.45	1245.16
311.67	1236.97
311.88	1224.69
312.09	1320.94
312.31	1320.94
312.52	1308.65
312.73	1191.92
312.95	1271.79
313.16	1296.36
313.37	1230.83
313.59	1398.76
313.80	1198.06
314.01	1302.51
314.23	1257.45
314.44	1218.54
314.65	1296.36
314.87	1212.40
315.08	1292.27
315.29	1210.35
315.51	1232.88
315.72	1302.51
315.93	1300.46
316.15	1177.58
316.36	1267.69
316.57	1304.56
316.79	1187.82
317.00	1292.27
317.21	1251.31
317.43	1185.77
317.64	1234.93
317.85	1218.54
318.07	1230.83
318.28	1271.79
318.49	1239.02
318.70	1234.93
318.92	1241.07
319.13	1273.84
319.34	1228.78
319.56	1286.12
319.77	1286.12
319.98	1267.69
320.20	1236.97
320.41	1257.45
320.62	1273.84
320.83	1286.12
321.05	1165.29
321.26	1165.29
321.47	1245.16
321.69	1241.07
321.90	1345.52
322.11	1263.60
322.32	1296.36
322.54	1261.55
322.75	1269.74
322.96	1359.85
323.18	1232.88
323.39	1226.73
323.60	1271.79
323.81	1253.36
324.03	1269.74
324.24	1255.40
324.45	1314.80
324.66	1286.12
324.88	1273.84
325.09	1306.60
325.30	1247.21
325.52	1292.27
325.73	1236.97
325.94	1271.79
326.15	1259.50
326.37	1284.08
326.58	1329.13
326.79	1245.16
327.00	1269.74
327.22	1189.87
327.43	1241.07
327.64	1259.50
327.85	1275.88
328.07	1290.22
328.28	1259.50
328.49	1255.40
328.70	1230.83
328.92	1290.22
329.13	1251.31
329.34	1282.03
329.55	1214.45
329.76	1249.26
329.98	1265.64
330.19	1353.71
330.40	1245.16
330.61	1218.54
330.83	1273.84
331.04	1302.51
331.25	1310.70
331.46	1230.83
331.68	1314.80
331.89	1257.45
332.10	1273.84
332.31	1290.22
332.52	1300.46
332.74	1292.27
332.95	1243.12
333.16	1220.59
333.37	1300.46
333.58	1273.84
333.80	1247.21
334.01	1257.45
334.22	1204.21
334.43	1318.89
334.64	1251.31
334.86	1269.74
335.07	1349.61
335.28	1249.26
335.49	1298.41
335.70	1253.36
335.92	1279.98
336.13	1300.46
336.34	1288.17
336.55	1300.46
336.76	1255.40
336.98	1224.69
337.19	1277.93
337.40	1300.46
337.61	1255.40
337.82	1249.26
338.04	1333.23
338.25	1165.29
338.46	1279.98
338.67	1294.32
338.88	1234.93
339.09	1251.31
339.31	1230.83
339.52	1290.22
339.73	1294.32
339.94	1279.98
340.15	1269.74
340.36	1292.27
340.58	1247.21
340.79	1208.30
341.00	1245.16
341.21	1290.22
341.42	1269.74
341.63	1265.64
341.85	1222.64
342.06	1239.02
342.27	1269.74
342.48	1236.97
342.69	1322.99
342.90	1290.22
343.12	1284.08
343.33	1347.56
343.54	1304.56
343.75	1257.45
343.96	1296.36
344.17	1241.07
344.38	1267.69
344.60	1200.11
344.81	1284.08
345.02	1210.35
345.23	1212.40
345.44	1279.98
345.65	1236.97
345.86	1273.84
346.07	1327.08
346.29	1282.03
346.50	1257.45
346.71	1265.64
346.92	1300.46
347.13	1243.12
347.34	1271.79
347.55	1290.22
347.76	1257.45
347.98	1284.08
348.19	1249.26
348.40	1329.13
348.61	1261.55
348.82	1275.88
349.03	1241.07
349.24	1245.16
349.45	1357.80
349.66	1175.53
349.88	1327.08
350.09	1259.50
350.30	1294.32
350.51	1226.73
350.72	1241.07
350.93	1277.93
351.14	1241.07
351.35	1255.40
351.56	1269.74
351.77	1226.73
351.99	1265.64
352.20	1298.41
352.41	1308.65
352.62	1298.41
352.83	1304.56
353.04	1273.84
353.25	1308.65
353.46	1314.80
353.67	1224.69
353.88	1331.18
354.09	1302.51
354.30	1263.60
354.52	1294.32
354.73	1257.45
354.94	1345.52
355.15	1296.36
355.36	1214.45
355.57	1279.98
355.78	1251.31
355.99	1263.60
356.20	1265.64
356.41	1327.08
356.62	1282.03
356.83	1259.50
357.04	1339.37
357.25	1228.78
357.46	1269.74
357.68	1239.02
357.89	1306.60
358.10	1208.30
358.31	1212.40
358.52	1255.40
358.73	1146.86
358.94	1296.36
359.15	1200.11
359.36	1322.99
359.57	1277.93
359.78	1239.02
359.99	1267.69
360.20	1329.13
360.41	1294.32
360.62	1275.88
360.83	1271.79
361.04	1218.54
361.25	1212.40
361.46	1329.13
361.67	1222.64
361.88	1298.41
362.09	1316.84
362.30	1271.79
362.51	1296.36
362.72	1288.17
362.93	1206.25
363.14	1296.36
363.35	1351.66
363.56	1267.69
363.78	1269.74
363.99	1243.12
364.20	1263.60
364.41	1279.98
364.62	1318.89
364.83	1236.97
365.04	1294.32
365.25	1249.26
365.46	1232.88
365.67	1230.83
365.88	1236.97
366.09	1245.16
366.30	1284.08
366.51	1304.56
366.72	1302.51
366.93	1257.45
367.14	1232.88
367.35	1236.97
367.56	1222.64
367.77	1263.60
367.98	1296.36
368.18	1296.36
368.39	1286.12
368.60	1275.88
368.81	1245.16
369.02	1269.74
369.23	1292.27
369.44	1298.41
369.65	1304.56
369.86	1265.64
370.07	1251.31
370.28	1232.88
370.49	1241.07
370.70	1282.03
370.91	1327.08
371.12	1265.64
371.33	1239.02
371.54	1204.21
371.75	1286.12
371.96	1269.74
372.17	1314.80
372.38	1279.98
372.59	1284.08
372.80	1249.26
373.01	1271.79
373.22	1310.70
373.43	1273.84
373.64	1343.47
373.85	1275.88
374.06	1275.88
374.26	1284.08
374.47	1277.93
374.68	1265.64
374.89	1202.16
375.10	1228.78
375.31	1243.12
375.52	1318.89
375.73	1292.27
375.94	1282.03
376.15	1247.21
376.36	1265.64
376.57	1249.26
376.78	1329.13
376.99	1273.84
377.20	1286.12
377.40	1187.82
377.61	1265.64
377.82	1226.73
378.03	1218.54
378.24	1249.26
378.45	1286.12
378.66	1316.84
378.87	1212.40
379.08	1273.84
379.29	1269.74
379.50	1261.55
379.71	1249.26
379.91	1257.45
380.12	1292.27
380.33	1290.22
380.54	1251.31
380.75	1349.61
380.96	1255.40
381.17	1271.79
381.38	1275.88
381.59	1306.60
381.80	1218.54
382.00	1210.35
382.21	1253.36
382.42	1292.27
382.63	1331.18
382.84	1202.16
383.05	1298.41
383.26	1298.41
383.47	1279.98
383.68	1218.54
383.88	1277.93
384.09	1259.50
384.30	1302.51
384.51	1339.37
384.72	1245.16
384.93	1300.46
385.14	1327.08
385.35	1308.65
385.55	1253.36
385.76	1292.27
385.97	1322.99
386.18	1271.79
386.39	1300.46
386.60	1306.60
386.81	1206.25
387.02	1247.21
387.22	1335.28
387.43	1282.03
387.64	1284.08
387.85	1320.94
388.06	1267.69
388.27	1286.12
388.48	1208.30
388.68	1226.73
388.89	1314.80
389.10	1257.45
389.31	1343.47
389.52	1183.73
389.73	1224.69
389.93	1245.16
390.14	1286.12
390.35	1212.40
390.56	1241.07
390.77	1298.41
390.98	1222.64
391.18	1232.88
391.39	1226.73
391.60	1241.07
391.81	1255.40
392.02	1302.51
392.23	1286.12
392.43	1294.32
392.64	1226.73
392.85	1322.99
393.06	1216.49
393.27	1241.07
393.47	1204.21
393.68	1261.55
393.89	1292.27
394.10	1249.26
394.31	1265.64
394.52	1249.26
394.72	1253.36
394.93	1304.56
395.14	1318.89
395.35	1294.32
395.56	1320.94
395.76	1269.74
395.97	1241.07
396.18	1249.26
396.39	1300.46
396.60	1189.87
396.80	1261.55
397.01	1263.60
397.22	1204.21
397.43	1298.41
397.64	1282.03
397.84	1249.26
398.05	1284.08
398.26	1302.51
398.47	1253.36
398.67	1271.79
398.88	1294.32
399.09	1290.22
399.30	1241.07
399.51	1282.03
399.71	1253.36
399.92	1265.64
400.13	1236.97
400.34	1222.64
400.54	1220.59
400.75	1288.17
400.96	1257.45
401.17	1322.99
401.37	1226.73
401.58	1322.99
401.79	1232.88
402.00	1271.79
402.21	1222.64
402.41	1241.07
402.62	1243.12
402.83	1284.08
403.04	1214.45
403.24	1232.88
403.45	1239.02
403.66	1243.12
403.87	1253.36
404.07	1265.64
404.28	1228.78
404.49	1282.03
404.70	1294.32
404.90	1249.26
405.11	1247.21
405.32	1290.22
405.52	1306.60
405.73	1249.26
405.94	1187.82
406.15	1316.84
406.35	1232.88
406.56	1275.88
406.77	1298.41
406.98	1298.41
407.18	1284.08
407.39	1255.40
407.60	1343.47
407.80	1255.40
408.01	1312.75
408.22	1267.69
408.43	1310.70
408.63	1298.41
408.84	1245.16
409.05	1216.49
409.25	1331.18
409.46	1273.84
409.67	1273.84
409.88	1251.31
410.08	1257.45
410.29	1247.21
410.50	1273.84
410.70	1191.92
410.91	1267.69
411.12	1245.16
411.32	1267.69
411.53	1302.51
411.74	1196.01
411.95	1267.69
412.15	1267.69
412.36	1220.59
412.57	1232.88
412.77	1302.51
412.98	1279.98
413.19	1279.98
413.39	1286.12
413.60	1298.41
413.81	1296.36
414.01	1241.07
414.22	1212.40
414.43	1226.73
414.63	1241.07
414.84	1255.40
415.05	1294.32
415.25	1253.36
415.46	1249.26
415.67	1316.84
415.87	1275.88
416.08	1273.84
416.29	1259.50
416.49	1226.73
416.70	1216.49
416.91	1290.22
417.11	1290.22
417.32	1361.90
417.53	1273.84
417.73	1357.80
417.94	1275.88
418.15	1282.03
418.35	1300.46
418.56	1306.60
418.77	1224.69
418.97	1247.21
419.18	1216.49
419.38	1290.22
419.59	1298.41
419.80	1284.08
420.00	1226.73
420.21	1265.64
420.42	1279.98
420.62	1314.80
420.83	1282.03
421.04	1312.75
421.24	1232.88
421.45	1247.21
421.65	1263.60
421.86	1263.60
422.07	1247.21
422.27	1236.97
422.48	1177.58
422.69	1335.28
422.89	1251.31
423.10	1239.02
423.30	1236.97
423.51	1267.69
423.72	1247.21
423.92	1282.03
424.13	1316.84
424.33	1294.32
424.54	1294.32
424.75	1296.36
424.95	1294.32
425.16	1296.36
425.36	1236.97
425.57	1298.41
425.78	1329.13
425.98	1306.60
426.19	1232.88
426.39	1292.27
426.60	1226.73
426.81	1191.92
427.01	1216.49
427.22	1253.36
427.42	1275.88
427.63	1239.02
427.83	1290.22
428.04	1308.65
428.25	1271.79
428.45	1259.50
428.66	1202.16
428.86	1275.88
429.07	1288.17
429.28	1228.78
429.48	1284.08
429.69	1292.27
429.89	1327.08
430.10	1239.02
430.30	1267.69
430.51	1277.93
430.71	1269.74
430.92	1273.84
431.13	1269.74
431.33	1253.36
431.54	1241.07
431.74	1282.03
431.95	1304.56
432.15	1263.60
432.36	1286.12
432.56	1308.65
432.77	1312.75
432.98	1142.77
433.18	1279.98
433.39	1279.98
433.59	1230.83
433.80	1314.80
434.00	1239.02
434.21	1384.43
434.41	1286.12
434.62	1314.80
434.82	1290.22
435.03	1232.88
435.23	1277.93
435.44	1271.79
435.64	1269.74
435.85	1310.70
436.06	1228.78
436.26	1335.28
436.47	1255.40
436.67	1290.22
436.88	1191.92
437.08	1269.74
437.29	1275.88
437.49	1259.50
437.70	1286.12
437.90	1296.36
438.11	1236.97
438.31	1298.41
438.52	1230.83
438.72	1327.08
438.93	1337.32
439.13	1279.98
439.34	1222.64
439.54	1259.50
439.75	1290.22
439.95	1255.40
440.16	1230.83
440.36	1314.80
440.57	1282.03
440.77	1269.74
440.98	1284.08
441.18	1290.22
441.39	1275.88
441.59	1239.02
441.80	1296.36
442.00	1355.76
442.21	1300.46
442.41	1230.83
442.62	1290.22
442.82	1282.03
443.02	1255.40
443.23	1304.56
443.43	1271.79
443.64	1298.41
443.84	1243.12
444.05	1284.08
444.25	1251.31
444.46	1288.17
444.66	1298.41
444.87	1253.36
445.07	1273.84
445.28	1249.26
445.48	1282.03
445.69	1261.55
445.89	1302.51
446.09	1380.33
446.30	1347.56
446.50	1355.76
446.71	1318.89
446.91	1335.28
447.12	1214.45
447.32	1191.92
447.53	1236.97
447.73	1329.13
447.93	1241.07
448.14	1259.50
448.34	1318.89
448.55	1292.27
448.75	1249.26
448.96	1300.46
449.16	1222.64
449.36	1251.31
449.57	1226.73
449.77	1214.45
449.98	1374.19
450.18	1296.36
450.39	1126.38
450.59	1288.17
450.79	1366.00
451.00	1228.78
451.20	1208.30
451.41	1261.55
451.61	1294.32
451.81	1282.03
452.02	1288.17
452.22	1304.56
452.43	1327.08
452.63	1282.03
