SpectraSuite Data File
++++++++++++++++++++++++++++++++++++
Date: Sun Apr 03 19:55:27 CEST 2016
User: root
Dark Spectrum Present: No
Reference Spectrum Present: No
Number of Sampled Component Spectra: 1
Spectrometers: USB4C02835
Integration Time (usec): 10000 (USB4C02835)
Spectra Averaged: 1 (USB4C02835)
Boxcar Smoothing: 0 (USB4C02835)
Correct for Electrical Dark: No (USB4C02835)
Strobe/Lamp Enabled: No (USB4C02835)
Correct for Detector Non-linearity: No (USB4C02835)
Correct for Stray Light: No (USB4C02835)
Number of Pixels in Processed Spectrum: 3648
>>>>>Begin Processed Spectral Data<<<<<
177.47	1288.17
177.69	1288.17
177.91	1288.17
178.13	1265.64
178.36	1239.02
178.58	1282.03
178.80	1226.73
179.02	1277.93
179.24	1218.54
179.46	1277.93
179.68	1296.36
179.90	1298.41
180.13	1257.45
180.35	1312.75
180.57	1306.60
180.79	1271.79
181.01	1218.54
181.23	1331.18
181.45	1292.27
181.67	1241.07
181.90	1345.52
182.12	1200.11
182.34	1273.84
182.56	1185.77
182.78	1277.93
183.00	1241.07
183.22	1247.21
183.44	1245.16
183.66	1261.55
183.89	1222.64
184.11	1271.79
184.33	1298.41
184.55	1337.32
184.77	1247.21
184.99	1259.50
185.21	1286.12
185.43	1378.28
185.65	1298.41
185.87	1263.60
186.10	1267.69
186.32	1208.30
186.54	1288.17
186.76	1290.22
186.98	1269.74
187.20	1232.88
187.42	1228.78
187.64	1325.04
187.86	1200.11
188.08	1251.31
188.30	1312.75
188.52	1222.64
188.75	1277.93
188.97	1265.64
189.19	1216.49
189.41	1310.70
189.63	1193.97
189.85	1257.45
190.07	1253.36
190.29	1253.36
190.51	1294.32
190.73	1232.88
190.95	1294.32
191.17	1316.84
191.39	1314.80
191.61	1271.79
191.84	1279.98
192.06	1247.21
192.28	1247.21
192.50	1290.22
192.72	1368.04
192.94	1288.17
193.16	1245.16
193.38	1282.03
193.60	1261.55
193.82	1312.75
194.04	1259.50
194.26	1251.31
194.48	1230.83
194.70	1222.64
194.92	1275.88
195.14	1251.31
195.36	1212.40
195.58	1300.46
195.80	1181.68
196.02	1286.12
196.24	1269.74
196.46	1304.56
196.69	1284.08
196.91	1298.41
197.13	1230.83
197.35	1282.03
197.57	1249.26
197.79	1286.12
198.01	1294.32
198.23	1269.74
198.45	1261.55
198.67	1259.50
198.89	1218.54
199.11	1230.83
199.33	1234.93
199.55	1253.36
199.77	1259.50
199.99	1288.17
200.21	1167.34
200.43	1302.51
200.65	1220.59
200.87	1267.69
201.09	1269.74
201.31	1243.12
201.53	1236.97
201.75	1320.94
201.97	1236.97
202.19	1288.17
202.41	1228.78
202.63	1325.04
202.85	1204.21
203.07	1265.64
203.29	1241.07
203.51	1269.74
203.73	1243.12
203.95	1273.84
204.17	1290.22
204.39	1245.16
204.61	1286.12
204.83	1302.51
205.05	1282.03
205.27	1189.87
205.49	1277.93
205.71	1226.73
205.93	1177.58
206.15	1226.73
206.37	1269.74
206.59	1302.51
206.81	1273.84
207.03	1241.07
207.25	1329.13
207.47	1290.22
207.69	1228.78
207.91	1304.56
208.13	1273.84
208.34	1263.60
208.56	1284.08
208.78	1236.97
209.00	1232.88
209.22	1312.75
209.44	1282.03
209.66	1241.07
209.88	1210.35
210.10	1294.32
210.32	1245.16
210.54	1271.79
210.76	1234.93
210.98	1212.40
211.20	1218.54
211.42	1308.65
211.64	1298.41
211.86	1288.17
212.08	1275.88
212.30	1236.97
212.52	1273.84
212.74	1255.40
212.96	1273.84
213.17	1277.93
213.39	1269.74
213.61	1261.55
213.83	1206.25
214.05	1241.07
214.27	1230.83
214.49	1279.98
214.71	1255.40
214.93	1282.03
215.15	1243.12
215.37	1226.73
215.59	1269.74
215.81	1296.36
216.03	1316.84
216.24	1275.88
216.46	1241.07
216.68	1290.22
216.90	1269.74
217.12	1320.94
217.34	1337.32
217.56	1230.83
217.78	1204.21
218.00	1314.80
218.22	1243.12
218.44	1314.80
218.66	1273.84
218.87	1253.36
219.09	1251.31
219.31	1296.36
219.53	1241.07
219.75	1196.01
219.97	1300.46
220.19	1239.02
220.41	1255.40
220.63	1263.60
220.85	1294.32
221.06	1331.18
221.28	1245.16
221.50	1269.74
221.72	1241.07
221.94	1220.59
222.16	1226.73
222.38	1236.97
222.60	1275.88
222.82	1202.16
223.03	1255.40
223.25	1259.50
223.47	1249.26
223.69	1232.88
223.91	1335.28
224.13	1243.12
224.35	1269.74
224.57	1331.18
224.78	1298.41
225.00	1290.22
225.22	1290.22
225.44	1294.32
225.66	1310.70
225.88	1200.11
226.10	1312.75
226.32	1308.65
226.53	1220.59
226.75	1279.98
226.97	1232.88
227.19	1290.22
227.41	1267.69
227.63	1294.32
227.85	1191.92
228.06	1282.03
228.28	1282.03
228.50	1286.12
228.72	1277.93
228.94	1275.88
229.16	1265.64
229.37	1257.45
229.59	1224.69
229.81	1322.99
230.03	1236.97
230.25	1216.49
230.47	1300.46
230.69	1239.02
230.90	1345.52
231.12	1257.45
231.34	1277.93
231.56	1304.56
231.78	1257.45
232.00	1247.21
232.21	1228.78
232.43	1384.43
232.65	1306.60
232.87	1374.19
233.09	1271.79
233.30	1292.27
233.52	1261.55
233.74	1251.31
233.96	1296.36
234.18	1251.31
234.40	1277.93
234.61	1259.50
234.83	1312.75
235.05	1273.84
235.27	1314.80
235.49	1173.49
235.70	1269.74
235.92	1261.55
236.14	1322.99
236.36	1279.98
236.58	1200.11
236.79	1267.69
237.01	1234.93
237.23	1277.93
237.45	1277.93
237.67	1234.93
237.88	1202.16
238.10	1290.22
238.32	1249.26
238.54	1271.79
238.76	1327.08
238.97	1308.65
239.19	1296.36
239.41	1273.84
239.63	1273.84
239.85	1267.69
240.06	1234.93
240.28	1296.36
240.50	1296.36
240.72	1310.70
240.93	1279.98
241.15	1288.17
241.37	1269.74
241.59	1214.45
241.81	1263.60
242.02	1216.49
242.24	1224.69
242.46	1316.84
242.68	1298.41
242.89	1290.22
243.11	1282.03
243.33	1288.17
243.55	1306.60
243.76	1355.76
243.98	1234.93
244.20	1273.84
244.42	1259.50
244.64	1273.84
244.85	1271.79
245.07	1275.88
245.29	1327.08
245.51	1265.64
245.72	1316.84
245.94	1265.64
246.16	1269.74
246.38	1265.64
246.59	1320.94
246.81	1232.88
247.03	1308.65
247.24	1253.36
247.46	1298.41
247.68	1361.90
247.90	1243.12
248.11	1331.18
248.33	1208.30
248.55	1228.78
248.77	1275.88
248.98	1245.16
249.20	1236.97
249.42	1271.79
249.64	1249.26
249.85	1294.32
250.07	1279.98
250.29	1261.55
250.50	1292.27
250.72	1245.16
250.94	1269.74
251.16	1257.45
251.37	1247.21
251.59	1279.98
251.81	1247.21
252.02	1206.25
252.24	1247.21
252.46	1279.98
252.68	1294.32
252.89	1329.13
253.11	1236.97
253.33	1236.97
253.54	1224.69
253.76	1296.36
253.98	1335.28
254.20	1255.40
254.41	1216.49
254.63	1239.02
254.85	1333.23
255.06	1304.56
255.28	1312.75
255.50	1189.87
255.71	1224.69
255.93	1318.89
256.15	1236.97
256.36	1286.12
256.58	1189.87
256.80	1265.64
257.02	1298.41
257.23	1243.12
257.45	1286.12
257.67	1277.93
257.88	1306.60
258.10	1239.02
258.32	1253.36
258.53	1273.84
258.75	1314.80
258.97	1267.69
259.18	1306.60
259.40	1275.88
259.62	1265.64
259.83	1327.08
260.05	1243.12
260.27	1251.31
260.48	1259.50
260.70	1226.73
260.92	1236.97
261.13	1353.71
261.35	1245.16
261.57	1282.03
261.78	1288.17
262.00	1312.75
262.22	1277.93
262.43	1267.69
262.65	1247.21
262.86	1294.32
263.08	1302.51
263.30	1239.02
263.51	1286.12
263.73	1253.36
263.95	1202.16
264.16	1279.98
264.38	1308.65
264.60	1296.36
264.81	1322.99
265.03	1322.99
265.25	1202.16
265.46	1271.79
265.68	1208.30
265.89	1251.31
266.11	1275.88
266.33	1243.12
266.54	1226.73
266.76	1263.60
266.98	1265.64
267.19	1273.84
267.41	1304.56
267.62	1224.69
267.84	1292.27
268.06	1314.80
268.27	1249.26
268.49	1316.84
268.70	1243.12
268.92	1288.17
269.14	1206.25
269.35	1249.26
269.57	1267.69
269.79	1296.36
270.00	1210.35
270.22	1265.64
270.43	1290.22
270.65	1232.88
270.87	1294.32
271.08	1239.02
271.30	1169.39
271.51	1261.55
271.73	1236.97
271.95	1261.55
272.16	1271.79
272.38	1239.02
272.59	1292.27
272.81	1296.36
273.02	1253.36
273.24	1198.06
273.46	1245.16
273.67	1298.41
273.89	1271.79
274.10	1202.16
274.32	1247.21
274.54	1249.26
274.75	1306.60
274.97	1273.84
275.18	1232.88
275.40	1200.11
275.61	1261.55
275.83	1206.25
276.05	1226.73
276.26	1329.13
276.48	1284.08
276.69	1247.21
276.91	1271.79
277.12	1265.64
277.34	1245.16
277.55	1239.02
277.77	1294.32
277.99	1286.12
278.20	1312.75
278.42	1294.32
278.63	1134.57
278.85	1288.17
279.06	1232.88
279.28	1150.96
279.49	1255.40
279.71	1224.69
279.93	1275.88
280.14	1318.89
280.36	1302.51
280.57	1259.50
280.79	1292.27
281.00	1232.88
281.22	1351.66
281.43	1249.26
281.65	1294.32
281.86	1318.89
282.08	1290.22
282.29	1308.65
282.51	1329.13
282.73	1187.82
282.94	1302.51
283.16	1224.69
283.37	1261.55
283.59	1247.21
283.80	1257.45
284.02	1288.17
284.23	1224.69
284.45	1228.78
284.66	1255.40
284.88	1306.60
285.09	1253.36
285.31	1335.28
285.52	1337.32
285.74	1300.46
285.95	1282.03
286.17	1257.45
286.38	1314.80
286.60	1259.50
286.81	1277.93
287.03	1296.36
287.24	1296.36
287.46	1345.52
287.67	1232.88
287.89	1206.25
288.10	1306.60
288.32	1214.45
288.53	1198.06
288.75	1288.17
288.96	1339.37
289.18	1302.51
289.39	1296.36
289.61	1234.93
289.82	1189.87
290.04	1253.36
290.25	1183.73
290.47	1247.21
290.68	1171.44
290.90	1290.22
291.11	1247.21
291.33	1325.04
291.54	1224.69
291.76	1247.21
291.97	1273.84
292.18	1316.84
292.40	1230.83
292.61	1249.26
292.83	1366.00
293.04	1222.64
293.26	1253.36
293.47	1181.68
293.69	1298.41
293.90	1253.36
294.12	1296.36
294.33	1239.02
294.55	1271.79
294.76	1255.40
294.97	1347.56
295.19	1263.60
295.40	1216.49
295.62	1263.60
295.83	1261.55
296.05	1359.85
296.26	1290.22
296.48	1216.49
296.69	1251.31
296.90	1294.32
297.12	1253.36
297.33	1279.98
297.55	1265.64
297.76	1316.84
297.98	1251.31
298.19	1269.74
298.41	1286.12
298.62	1216.49
298.83	1275.88
299.05	1216.49
299.26	1253.36
299.48	1243.12
299.69	1249.26
299.90	1296.36
300.12	1290.22
300.33	1265.64
300.55	1230.83
300.76	1193.97
300.98	1243.12
301.19	1275.88
301.40	1290.22
301.62	1265.64
301.83	1224.69
302.05	1255.40
302.26	1198.06
302.47	1265.64
302.69	1216.49
302.90	1282.03
303.12	1243.12
303.33	1300.46
303.54	1288.17
303.76	1245.16
303.97	1255.40
304.19	1294.32
304.40	1286.12
304.61	1275.88
304.83	1275.88
305.04	1263.60
305.26	1245.16
305.47	1245.16
305.68	1251.31
305.90	1241.07
306.11	1284.08
306.33	1269.74
306.54	1271.79
306.75	1282.03
306.97	1228.78
307.18	1296.36
307.39	1265.64
307.61	1226.73
307.82	1335.28
308.04	1263.60
308.25	1282.03
308.46	1257.45
308.68	1314.80
308.89	1243.12
309.10	1210.35
309.32	1232.88
309.53	1273.84
309.74	1253.36
309.96	1212.40
310.17	1302.51
310.39	1214.45
310.60	1247.21
310.81	1245.16
311.03	1279.98
311.24	1222.64
311.45	1302.51
311.67	1257.45
311.88	1318.89
312.09	1286.12
312.31	1239.02
312.52	1312.75
312.73	1300.46
312.95	1230.83
313.16	1273.84
313.37	1275.88
313.59	1372.14
313.80	1251.31
314.01	1224.69
314.23	1206.25
314.44	1275.88
314.65	1249.26
314.87	1226.73
315.08	1214.45
315.29	1271.79
315.51	1202.16
315.72	1271.79
315.93	1298.41
316.15	1279.98
316.36	1245.16
316.57	1226.73
316.79	1247.21
317.00	1263.60
317.21	1255.40
317.43	1284.08
317.64	1214.45
317.85	1222.64
318.07	1298.41
318.28	1241.07
318.49	1228.78
318.70	1247.21
318.92	1267.69
319.13	1216.49
319.34	1169.39
319.56	1271.79
319.77	1230.83
319.98	1226.73
320.20	1253.36
320.41	1253.36
320.62	1312.75
320.83	1277.93
321.05	1325.04
321.26	1236.97
321.47	1239.02
321.69	1236.97
321.90	1318.89
322.11	1275.88
322.32	1320.94
322.54	1253.36
322.75	1243.12
322.96	1232.88
323.18	1279.98
323.39	1300.46
323.60	1290.22
323.81	1304.56
324.03	1302.51
324.24	1331.18
324.45	1359.85
324.66	1308.65
324.88	1228.78
325.09	1243.12
325.30	1230.83
325.52	1320.94
325.73	1204.21
325.94	1265.64
326.15	1337.32
326.37	1292.27
326.58	1304.56
326.79	1325.04
327.00	1228.78
327.22	1322.99
327.43	1286.12
327.64	1282.03
327.85	1290.22
328.07	1296.36
328.28	1271.79
328.49	1261.55
328.70	1212.40
328.92	1222.64
329.13	1191.92
329.34	1339.37
329.55	1284.08
329.76	1214.45
329.98	1259.50
330.19	1322.99
330.40	1275.88
330.61	1220.59
330.83	1228.78
331.04	1286.12
331.25	1298.41
331.46	1214.45
331.68	1193.97
331.89	1335.28
332.10	1257.45
332.31	1257.45
332.52	1298.41
332.74	1216.49
332.95	1300.46
333.16	1226.73
333.37	1245.16
333.58	1218.54
333.80	1302.51
334.01	1325.04
334.22	1241.07
334.43	1275.88
334.64	1226.73
334.86	1228.78
335.07	1308.65
335.28	1329.13
335.49	1210.35
335.70	1279.98
335.92	1294.32
336.13	1249.26
336.34	1267.69
336.55	1286.12
336.76	1241.07
336.98	1292.27
337.19	1206.25
337.40	1275.88
337.61	1220.59
337.82	1245.16
338.04	1277.93
338.25	1298.41
338.46	1294.32
338.67	1271.79
338.88	1282.03
339.09	1298.41
339.31	1279.98
339.52	1255.40
339.73	1314.80
339.94	1249.26
340.15	1243.12
340.36	1279.98
340.58	1267.69
340.79	1288.17
341.00	1263.60
341.21	1234.93
341.42	1298.41
341.63	1222.64
341.85	1296.36
342.06	1253.36
342.27	1269.74
342.48	1263.60
342.69	1257.45
342.90	1249.26
343.12	1245.16
343.33	1216.49
343.54	1269.74
343.75	1294.32
343.96	1214.45
344.17	1251.31
344.38	1335.28
344.60	1196.01
344.81	1277.93
345.02	1341.42
345.23	1288.17
345.44	1298.41
345.65	1249.26
345.86	1320.94
346.07	1255.40
346.29	1273.84
346.50	1249.26
346.71	1275.88
346.92	1286.12
347.13	1269.74
347.34	1267.69
347.55	1261.55
347.76	1302.51
347.98	1216.49
348.19	1230.83
348.40	1214.45
348.61	1245.16
348.82	1275.88
349.03	1185.77
349.24	1224.69
349.45	1232.88
349.66	1267.69
349.88	1218.54
350.09	1255.40
350.30	1282.03
350.51	1325.04
350.72	1314.80
350.93	1292.27
351.14	1265.64
351.35	1279.98
351.56	1288.17
351.77	1300.46
351.99	1177.58
352.20	1251.31
352.41	1271.79
352.62	1255.40
352.83	1286.12
353.04	1263.60
353.25	1294.32
353.46	1308.65
353.67	1337.32
353.88	1241.07
354.09	1243.12
354.30	1245.16
354.52	1236.97
354.73	1296.36
354.94	1245.16
355.15	1269.74
355.36	1232.88
355.57	1304.56
355.78	1257.45
355.99	1224.69
356.20	1273.84
356.41	1241.07
356.62	1308.65
356.83	1273.84
357.04	1286.12
357.25	1306.60
357.46	1222.64
357.68	1224.69
357.89	1232.88
358.10	1275.88
358.31	1306.60
358.52	1212.40
358.73	1286.12
358.94	1251.31
359.15	1249.26
359.36	1359.85
359.57	1325.04
359.78	1259.50
359.99	1282.03
360.20	1306.60
360.41	1282.03
360.62	1226.73
360.83	1314.80
361.04	1247.21
361.25	1243.12
361.46	1212.40
361.67	1271.79
361.88	1214.45
362.09	1234.93
362.30	1298.41
362.51	1234.93
362.72	1245.16
362.93	1273.84
363.14	1253.36
363.35	1210.35
363.56	1253.36
363.78	1325.04
363.99	1208.30
364.20	1292.27
364.41	1306.60
364.62	1200.11
364.83	1279.98
365.04	1218.54
365.25	1243.12
365.46	1271.79
365.67	1251.31
365.88	1261.55
366.09	1279.98
366.30	1193.97
366.51	1290.22
366.72	1132.53
366.93	1249.26
367.14	1275.88
367.35	1224.69
367.56	1282.03
367.77	1273.84
367.98	1183.73
368.18	1261.55
368.39	1220.59
368.60	1212.40
368.81	1265.64
369.02	1236.97
369.23	1247.21
369.44	1236.97
369.65	1279.98
369.86	1275.88
370.07	1292.27
370.28	1261.55
370.49	1302.51
370.70	1327.08
370.91	1249.26
371.12	1255.40
371.33	1290.22
371.54	1253.36
371.75	1265.64
371.96	1279.98
372.17	1212.40
372.38	1275.88
372.59	1279.98
372.80	1247.21
373.01	1196.01
373.22	1261.55
373.43	1304.56
373.64	1290.22
373.85	1236.97
374.06	1318.89
374.26	1222.64
374.47	1271.79
374.68	1275.88
374.89	1249.26
375.10	1318.89
375.31	1257.45
375.52	1335.28
375.73	1282.03
375.94	1269.74
376.15	1304.56
376.36	1239.02
376.57	1308.65
376.78	1214.45
376.99	1218.54
377.20	1191.92
377.40	1320.94
377.61	1236.97
377.82	1224.69
378.03	1249.26
378.24	1230.83
378.45	1277.93
378.66	1296.36
378.87	1255.40
379.08	1239.02
379.29	1253.36
379.50	1257.45
379.71	1198.06
379.91	1253.36
380.12	1294.32
380.33	1251.31
380.54	1290.22
380.75	1196.01
380.96	1234.93
381.17	1251.31
381.38	1228.78
381.59	1224.69
381.80	1345.52
382.00	1216.49
382.21	1320.94
382.42	1249.26
382.63	1243.12
382.84	1265.64
383.05	1302.51
383.26	1255.40
383.47	1210.35
383.68	1329.13
383.88	1271.79
384.09	1183.73
384.30	1275.88
384.51	1257.45
384.72	1349.61
384.93	1200.11
385.14	1288.17
385.35	1269.74
385.55	1308.65
385.76	1284.08
385.97	1267.69
386.18	1230.83
386.39	1298.41
386.60	1232.88
386.81	1312.75
387.02	1279.98
387.22	1226.73
387.43	1279.98
387.64	1212.40
387.85	1228.78
388.06	1253.36
388.27	1282.03
388.48	1249.26
388.68	1257.45
388.89	1257.45
389.10	1253.36
389.31	1269.74
389.52	1239.02
389.73	1224.69
389.93	1316.84
390.14	1267.69
390.35	1325.04
390.56	1306.60
390.77	1263.60
390.98	1308.65
391.18	1216.49
391.39	1300.46
391.60	1243.12
391.81	1271.79
392.02	1288.17
392.23	1257.45
392.43	1292.27
392.64	1269.74
392.85	1273.84
393.06	1212.40
393.27	1331.18
393.47	1279.98
393.68	1257.45
393.89	1257.45
394.10	1236.97
394.31	1243.12
394.52	1327.08
394.72	1208.30
394.93	1290.22
395.14	1183.73
395.35	1271.79
395.56	1218.54
395.76	1241.07
395.97	1232.88
396.18	1335.28
396.39	1279.98
396.60	1247.21
396.80	1228.78
397.01	1259.50
397.22	1322.99
397.43	1253.36
397.64	1261.55
397.84	1251.31
398.05	1337.32
398.26	1251.31
398.47	1261.55
398.67	1267.69
398.88	1253.36
399.09	1249.26
399.30	1337.32
399.51	1259.50
399.71	1257.45
399.92	1314.80
400.13	1376.24
400.34	1273.84
400.54	1224.69
400.75	1304.56
400.96	1271.79
401.17	1290.22
401.37	1222.64
401.58	1282.03
401.79	1320.94
402.00	1322.99
402.21	1314.80
402.41	1249.26
402.62	1308.65
402.83	1261.55
403.04	1314.80
403.24	1304.56
403.45	1296.36
403.66	1249.26
403.87	1247.21
404.07	1372.14
404.28	1277.93
404.49	1198.06
404.70	1304.56
404.90	1296.36
405.11	1220.59
405.32	1267.69
405.52	1296.36
405.73	1257.45
405.94	1302.51
406.15	1298.41
406.35	1306.60
406.56	1261.55
406.77	1241.07
406.98	1298.41
407.18	1228.78
407.39	1296.36
407.60	1294.32
407.80	1273.84
408.01	1275.88
408.22	1261.55
408.43	1267.69
408.63	1247.21
408.84	1273.84
409.05	1322.99
409.25	1290.22
409.46	1189.87
409.67	1284.08
409.88	1294.32
410.08	1284.08
410.29	1279.98
410.50	1222.64
410.70	1157.10
410.91	1263.60
411.12	1302.51
411.32	1204.21
411.53	1228.78
411.74	1265.64
411.95	1232.88
412.15	1230.83
412.36	1265.64
412.57	1212.40
412.77	1294.32
412.98	1269.74
413.19	1257.45
413.39	1232.88
413.60	1275.88
413.81	1279.98
414.01	1331.18
414.22	1273.84
414.43	1222.64
414.63	1290.22
414.84	1308.65
415.05	1257.45
415.25	1214.45
415.46	1316.84
415.67	1265.64
415.87	1222.64
416.08	1261.55
416.29	1255.40
416.49	1249.26
416.70	1314.80
416.91	1239.02
417.11	1269.74
417.32	1196.01
417.53	1255.40
417.73	1212.40
417.94	1257.45
418.15	1339.37
418.35	1312.75
418.56	1349.61
418.77	1191.92
418.97	1255.40
419.18	1210.35
419.38	1228.78
419.59	1298.41
419.80	1296.36
420.00	1296.36
420.21	1286.12
420.42	1296.36
420.62	1196.01
420.83	1198.06
421.04	1261.55
421.24	1259.50
421.45	1322.99
421.65	1275.88
421.86	1300.46
422.07	1277.93
422.27	1282.03
422.48	1234.93
422.69	1318.89
422.89	1239.02
423.10	1265.64
423.30	1204.21
423.51	1245.16
423.72	1263.60
423.92	1347.56
424.13	1241.07
424.33	1286.12
424.54	1374.19
424.75	1218.54
424.95	1279.98
425.16	1316.84
425.36	1185.77
425.57	1265.64
425.78	1288.17
425.98	1257.45
426.19	1325.04
426.39	1243.12
426.60	1255.40
426.81	1255.40
427.01	1239.02
427.22	1247.21
427.42	1288.17
427.63	1261.55
427.83	1320.94
428.04	1265.64
428.25	1255.40
428.45	1284.08
428.66	1277.93
428.86	1183.73
429.07	1320.94
429.28	1337.32
429.48	1202.16
429.69	1290.22
429.89	1243.12
430.10	1314.80
430.30	1249.26
430.51	1251.31
430.71	1230.83
430.92	1355.76
431.13	1302.51
431.33	1306.60
431.54	1261.55
431.74	1325.04
431.95	1200.11
432.15	1284.08
432.36	1271.79
432.56	1234.93
432.77	1234.93
432.98	1304.56
433.18	1191.92
433.39	1282.03
433.59	1314.80
433.80	1284.08
434.00	1366.00
434.21	1236.97
434.41	1273.84
434.62	1261.55
434.82	1300.46
435.03	1284.08
435.23	1275.88
435.44	1294.32
435.64	1288.17
435.85	1216.49
436.06	1247.21
436.26	1347.56
436.47	1320.94
436.67	1298.41
436.88	1224.69
437.08	1279.98
437.29	1224.69
437.49	1275.88
437.70	1316.84
437.90	1304.56
438.11	1310.70
438.31	1204.21
438.52	1249.26
438.72	1282.03
438.93	1343.47
439.13	1294.32
439.34	1234.93
439.54	1300.46
439.75	1255.40
439.95	1271.79
440.16	1255.40
440.36	1294.32
440.57	1236.97
440.77	1228.78
440.98	1290.22
441.18	1255.40
441.39	1245.16
441.59	1265.64
441.80	1277.93
442.00	1277.93
442.21	1320.94
442.41	1271.79
442.62	1249.26
442.82	1224.69
443.02	1259.50
443.23	1282.03
443.43	1286.12
443.64	1337.32
443.84	1279.98
444.05	1271.79
444.25	1265.64
444.46	1243.12
444.66	1249.26
444.87	1298.41
445.07	1257.45
445.28	1331.18
445.48	1243.12
445.69	1325.04
445.89	1347.56
446.09	1243.12
446.30	1222.64
446.50	1275.88
446.71	1306.60
446.91	1296.36
447.12	1349.61
447.32	1302.51
447.53	1249.26
447.73	1343.47
447.93	1249.26
448.14	1310.70
448.34	1277.93
448.55	1273.84
448.75	1267.69
448.96	1320.94
449.16	1269.74
449.36	1241.07
449.57	1255.40
449.77	1284.08
449.98	1216.49
450.18	1253.36
450.39	1273.84
450.59	1214.45
450.79	1220.59
451.00	1261.55
451.20	1318.89
451.41	1284.08
451.61	1271.79
451.81	1228.78
452.02	1279.98
452.22	1228.78
452.43	1331.18
452.63	1312.75
