SpectraSuite Data File
++++++++++++++++++++++++++++++++++++
Date: Sun Apr 03 19:55:31 CEST 2016
User: root
Dark Spectrum Present: No
Reference Spectrum Present: No
Number of Sampled Component Spectra: 1
Spectrometers: USB4C02835
Integration Time (usec): 10000 (USB4C02835)
Spectra Averaged: 1 (USB4C02835)
Boxcar Smoothing: 0 (USB4C02835)
Correct for Electrical Dark: No (USB4C02835)
Strobe/Lamp Enabled: No (USB4C02835)
Correct for Detector Non-linearity: No (USB4C02835)
Correct for Stray Light: No (USB4C02835)
Number of Pixels in Processed Spectrum: 3648
>>>>>Begin Processed Spectral Data<<<<<
177.47	1247.21
177.69	1247.21
177.91	1247.21
178.13	1277.93
178.36	1263.60
178.58	1230.83
178.80	1296.36
179.02	1267.69
179.24	1294.32
179.46	1300.46
179.68	1279.98
179.90	1187.82
180.13	1255.40
180.35	1286.12
180.57	1241.07
180.79	1273.84
181.01	1314.80
181.23	1310.70
181.45	1247.21
181.67	1273.84
181.90	1312.75
182.12	1279.98
182.34	1308.65
182.56	1257.45
182.78	1216.49
183.00	1347.56
183.22	1228.78
183.44	1234.93
183.66	1255.40
183.89	1277.93
184.11	1271.79
184.33	1267.69
184.55	1269.74
184.77	1275.88
184.99	1255.40
185.21	1193.97
185.43	1261.55
185.65	1265.64
185.87	1333.23
186.10	1255.40
186.32	1255.40
186.54	1230.83
186.76	1206.25
186.98	1253.36
187.20	1288.17
187.42	1245.16
187.64	1275.88
187.86	1230.83
188.08	1265.64
188.30	1259.50
188.52	1206.25
188.75	1247.21
188.97	1226.73
189.19	1255.40
189.41	1284.08
189.63	1218.54
189.85	1218.54
190.07	1234.93
190.29	1226.73
190.51	1279.98
190.73	1273.84
190.95	1234.93
191.17	1198.06
191.39	1253.36
191.61	1306.60
191.84	1277.93
192.06	1359.85
192.28	1282.03
192.50	1277.93
192.72	1273.84
192.94	1277.93
193.16	1275.88
193.38	1277.93
193.60	1269.74
193.82	1296.36
194.04	1263.60
194.26	1277.93
194.48	1255.40
194.70	1308.65
194.92	1261.55
195.14	1316.84
195.36	1290.22
195.58	1267.69
195.80	1226.73
196.02	1265.64
196.24	1288.17
196.46	1312.75
196.69	1241.07
196.91	1308.65
197.13	1306.60
197.35	1314.80
197.57	1277.93
197.79	1306.60
198.01	1308.65
198.23	1312.75
198.45	1247.21
198.67	1241.07
198.89	1300.46
199.11	1282.03
199.33	1286.12
199.55	1296.36
199.77	1286.12
199.99	1304.56
200.21	1245.16
200.43	1275.88
200.65	1243.12
200.87	1322.99
201.09	1286.12
201.31	1245.16
201.53	1208.30
201.75	1300.46
201.97	1259.50
202.19	1271.79
202.41	1298.41
202.63	1273.84
202.85	1261.55
203.07	1353.71
203.29	1259.50
203.51	1249.26
203.73	1308.65
203.95	1304.56
204.17	1282.03
204.39	1265.64
204.61	1210.35
204.83	1282.03
205.05	1247.21
205.27	1245.16
205.49	1286.12
205.71	1312.75
205.93	1271.79
206.15	1234.93
206.37	1232.88
206.59	1189.87
206.81	1222.64
207.03	1331.18
207.25	1286.12
207.47	1331.18
207.69	1320.94
207.91	1224.69
208.13	1216.49
208.34	1187.82
208.56	1255.40
208.78	1288.17
209.00	1275.88
209.22	1234.93
209.44	1267.69
209.66	1214.45
209.88	1224.69
210.10	1257.45
210.32	1210.35
210.54	1306.60
210.76	1331.18
210.98	1247.21
211.20	1204.21
211.42	1300.46
211.64	1208.30
211.86	1312.75
212.08	1226.73
212.30	1239.02
212.52	1253.36
212.74	1239.02
212.96	1257.45
213.17	1218.54
213.39	1269.74
213.61	1265.64
213.83	1277.93
214.05	1263.60
214.27	1224.69
214.49	1210.35
214.71	1253.36
214.93	1245.16
215.15	1349.61
215.37	1304.56
215.59	1198.06
215.81	1243.12
216.03	1257.45
216.24	1226.73
216.46	1275.88
216.68	1296.36
216.90	1288.17
217.12	1265.64
217.34	1312.75
217.56	1288.17
217.78	1296.36
218.00	1282.03
218.22	1263.60
218.44	1245.16
218.66	1275.88
218.87	1251.31
219.09	1226.73
219.31	1286.12
219.53	1304.56
219.75	1302.51
219.97	1249.26
220.19	1253.36
220.41	1273.84
220.63	1286.12
220.85	1318.89
221.06	1335.28
221.28	1243.12
221.50	1279.98
221.72	1273.84
221.94	1230.83
222.16	1288.17
222.38	1222.64
222.60	1249.26
222.82	1263.60
223.03	1296.36
223.25	1290.22
223.47	1228.78
223.69	1271.79
223.91	1263.60
224.13	1257.45
224.35	1234.93
224.57	1261.55
224.78	1212.40
225.00	1230.83
225.22	1236.97
225.44	1292.27
225.66	1263.60
225.88	1349.61
226.10	1288.17
226.32	1236.97
226.53	1267.69
226.75	1259.50
226.97	1286.12
227.19	1308.65
227.41	1220.59
227.63	1294.32
227.85	1286.12
228.06	1300.46
228.28	1267.69
228.50	1216.49
228.72	1265.64
228.94	1263.60
229.16	1183.73
229.37	1290.22
229.59	1273.84
229.81	1241.07
230.03	1294.32
230.25	1226.73
230.47	1253.36
230.69	1279.98
230.90	1271.79
231.12	1198.06
231.34	1230.83
231.56	1239.02
231.78	1257.45
232.00	1204.21
232.21	1296.36
232.43	1318.89
232.65	1298.41
232.87	1282.03
233.09	1216.49
233.30	1306.60
233.52	1304.56
233.74	1261.55
233.96	1292.27
234.18	1236.97
234.40	1269.74
234.61	1263.60
234.83	1320.94
235.05	1290.22
235.27	1245.16
235.49	1263.60
235.70	1234.93
235.92	1290.22
236.14	1320.94
236.36	1239.02
236.58	1265.64
236.79	1236.97
237.01	1292.27
237.23	1292.27
237.45	1239.02
237.67	1239.02
237.88	1261.55
238.10	1202.16
238.32	1277.93
238.54	1261.55
238.76	1224.69
238.97	1263.60
239.19	1249.26
239.41	1314.80
239.63	1286.12
239.85	1259.50
240.06	1279.98
240.28	1322.99
240.50	1210.35
240.72	1257.45
240.93	1277.93
241.15	1273.84
241.37	1322.99
241.59	1236.97
241.81	1263.60
242.02	1251.31
242.24	1210.35
242.46	1312.75
242.68	1187.82
242.89	1267.69
243.11	1298.41
243.33	1249.26
243.55	1294.32
243.76	1331.18
243.98	1255.40
244.20	1255.40
244.42	1232.88
244.64	1230.83
244.85	1243.12
245.07	1222.64
245.29	1312.75
245.51	1279.98
245.72	1282.03
245.94	1282.03
246.16	1232.88
246.38	1226.73
246.59	1220.59
246.81	1277.93
247.03	1269.74
247.24	1271.79
247.46	1230.83
247.68	1279.98
247.90	1230.83
248.11	1335.28
248.33	1202.16
248.55	1298.41
248.77	1212.40
248.98	1282.03
249.20	1275.88
249.42	1273.84
249.64	1241.07
249.85	1310.70
250.07	1271.79
250.29	1335.28
250.50	1298.41
250.72	1239.02
250.94	1322.99
251.16	1282.03
251.37	1251.31
251.59	1279.98
251.81	1255.40
252.02	1271.79
252.24	1228.78
252.46	1302.51
252.68	1247.21
252.89	1269.74
253.11	1288.17
253.33	1202.16
253.54	1208.30
253.76	1279.98
253.98	1282.03
254.20	1271.79
254.41	1306.60
254.63	1292.27
254.85	1261.55
255.06	1325.04
255.28	1249.26
255.50	1255.40
255.71	1210.35
255.93	1288.17
256.15	1245.16
256.36	1273.84
256.58	1347.56
256.80	1269.74
257.02	1275.88
257.23	1226.73
257.45	1255.40
257.67	1249.26
257.88	1212.40
258.10	1318.89
258.32	1228.78
258.53	1273.84
258.75	1216.49
258.97	1292.27
259.18	1286.12
259.40	1327.08
259.62	1218.54
259.83	1245.16
260.05	1222.64
260.27	1370.09
260.48	1204.21
260.70	1286.12
260.92	1294.32
261.13	1232.88
261.35	1316.84
261.57	1191.92
261.78	1243.12
262.00	1275.88
262.22	1310.70
262.43	1277.93
262.65	1294.32
262.86	1271.79
263.08	1230.83
263.30	1273.84
263.51	1279.98
263.73	1259.50
263.95	1265.64
264.16	1306.60
264.38	1312.75
264.60	1355.76
264.81	1236.97
265.03	1374.19
265.25	1290.22
265.46	1255.40
265.68	1261.55
265.89	1259.50
266.11	1243.12
266.33	1271.79
266.54	1220.59
266.76	1302.51
266.98	1275.88
267.19	1288.17
267.41	1222.64
267.62	1261.55
267.84	1304.56
268.06	1259.50
268.27	1294.32
268.49	1273.84
268.70	1191.92
268.92	1310.70
269.14	1236.97
269.35	1198.06
269.57	1279.98
269.79	1263.60
270.00	1255.40
270.22	1271.79
270.43	1269.74
270.65	1271.79
270.87	1247.21
271.08	1296.36
271.30	1239.02
271.51	1263.60
271.73	1255.40
271.95	1214.45
272.16	1300.46
272.38	1263.60
272.59	1308.65
272.81	1370.09
273.02	1247.21
273.24	1173.49
273.46	1216.49
273.67	1304.56
273.89	1310.70
274.10	1277.93
274.32	1239.02
274.54	1339.37
274.75	1286.12
274.97	1273.84
275.18	1253.36
275.40	1271.79
275.61	1245.16
275.83	1181.68
276.05	1220.59
276.26	1310.70
276.48	1232.88
276.69	1316.84
276.91	1275.88
277.12	1224.69
277.34	1294.32
277.55	1310.70
277.77	1255.40
277.99	1290.22
278.20	1261.55
278.42	1284.08
278.63	1247.21
278.85	1282.03
279.06	1243.12
279.28	1363.95
279.49	1196.01
279.71	1249.26
279.93	1275.88
280.14	1290.22
280.36	1271.79
280.57	1306.60
280.79	1245.16
281.00	1339.37
281.22	1366.00
281.43	1308.65
281.65	1261.55
281.86	1239.02
282.08	1273.84
282.29	1275.88
282.51	1277.93
282.73	1202.16
282.94	1286.12
283.16	1302.51
283.37	1320.94
283.59	1294.32
283.80	1228.78
284.02	1273.84
284.23	1290.22
284.45	1263.60
284.66	1271.79
284.88	1241.07
285.09	1226.73
285.31	1294.32
285.52	1255.40
285.74	1200.11
285.95	1316.84
286.17	1214.45
286.38	1267.69
286.60	1320.94
286.81	1251.31
287.03	1253.36
287.24	1269.74
287.46	1325.04
287.67	1253.36
287.89	1277.93
288.10	1218.54
288.32	1298.41
288.53	1282.03
288.75	1279.98
288.96	1290.22
289.18	1286.12
289.39	1171.44
289.61	1308.65
289.82	1288.17
290.04	1322.99
290.25	1249.26
290.47	1331.18
290.68	1265.64
290.90	1228.78
291.11	1165.29
291.33	1271.79
291.54	1294.32
291.76	1325.04
291.97	1232.88
292.18	1343.47
292.40	1187.82
292.61	1298.41
292.83	1355.76
293.04	1288.17
293.26	1288.17
293.47	1236.97
293.69	1263.60
293.90	1243.12
294.12	1232.88
294.33	1267.69
294.55	1300.46
294.76	1212.40
294.97	1226.73
295.19	1224.69
295.40	1314.80
295.62	1222.64
295.83	1267.69
296.05	1282.03
296.26	1230.83
296.48	1208.30
296.69	1249.26
296.90	1198.06
297.12	1308.65
297.33	1325.04
297.55	1341.42
297.76	1269.74
297.98	1306.60
298.19	1263.60
298.41	1345.52
298.62	1310.70
298.83	1257.45
299.05	1286.12
299.26	1198.06
299.48	1314.80
299.69	1267.69
299.90	1224.69
300.12	1298.41
300.33	1191.92
300.55	1230.83
300.76	1267.69
300.98	1277.93
301.19	1286.12
301.40	1275.88
301.62	1267.69
301.83	1234.93
302.05	1339.37
302.26	1261.55
302.47	1296.36
302.69	1275.88
302.90	1286.12
303.12	1224.69
303.33	1292.27
303.54	1245.16
303.76	1241.07
303.97	1251.31
304.19	1261.55
304.40	1310.70
304.61	1329.13
304.83	1292.27
305.04	1298.41
305.26	1292.27
305.47	1277.93
305.68	1220.59
305.90	1300.46
306.11	1290.22
306.33	1314.80
306.54	1247.21
306.75	1267.69
306.97	1306.60
307.18	1241.07
307.39	1286.12
307.61	1241.07
307.82	1294.32
308.04	1273.84
308.25	1236.97
308.46	1216.49
308.68	1234.93
308.89	1302.51
309.10	1294.32
309.32	1316.84
309.53	1255.40
309.74	1243.12
309.96	1263.60
310.17	1224.69
310.39	1224.69
310.60	1296.36
310.81	1245.16
311.03	1341.42
311.24	1292.27
311.45	1198.06
311.67	1269.74
311.88	1181.68
312.09	1253.36
312.31	1261.55
312.52	1275.88
312.73	1357.80
312.95	1284.08
313.16	1282.03
313.37	1263.60
313.59	1189.87
313.80	1292.27
314.01	1286.12
314.23	1310.70
314.44	1304.56
314.65	1286.12
314.87	1222.64
315.08	1282.03
315.29	1179.63
315.51	1167.34
315.72	1279.98
315.93	1298.41
316.15	1277.93
316.36	1232.88
316.57	1222.64
316.79	1335.28
317.00	1265.64
317.21	1279.98
317.43	1210.35
317.64	1290.22
317.85	1222.64
318.07	1265.64
318.28	1253.36
318.49	1302.51
318.70	1269.74
318.92	1202.16
319.13	1273.84
319.34	1271.79
319.56	1277.93
319.77	1277.93
319.98	1294.32
320.20	1216.49
320.41	1282.03
320.62	1249.26
320.83	1333.23
321.05	1263.60
321.26	1212.40
321.47	1355.76
321.69	1267.69
321.90	1329.13
322.11	1253.36
322.32	1255.40
322.54	1271.79
322.75	1228.78
322.96	1284.08
323.18	1290.22
323.39	1181.68
323.60	1257.45
323.81	1193.97
324.03	1277.93
324.24	1206.25
324.45	1212.40
324.66	1230.83
324.88	1236.97
325.09	1306.60
325.30	1271.79
325.52	1310.70
325.73	1269.74
325.94	1308.65
326.15	1241.07
326.37	1284.08
326.58	1183.73
326.79	1298.41
327.00	1312.75
327.22	1249.26
327.43	1292.27
327.64	1243.12
327.85	1259.50
328.07	1333.23
328.28	1322.99
328.49	1259.50
328.70	1259.50
328.92	1212.40
329.13	1249.26
329.34	1265.64
329.55	1202.16
329.76	1249.26
329.98	1306.60
330.19	1261.55
330.40	1302.51
330.61	1363.95
330.83	1210.35
331.04	1339.37
331.25	1265.64
331.46	1277.93
331.68	1279.98
331.89	1210.35
332.10	1271.79
332.31	1228.78
332.52	1234.93
332.74	1239.02
332.95	1214.45
333.16	1226.73
333.37	1286.12
333.58	1257.45
333.80	1306.60
334.01	1255.40
334.22	1279.98
334.43	1259.50
334.64	1279.98
334.86	1245.16
335.07	1265.64
335.28	1316.84
335.49	1259.50
335.70	1234.93
335.92	1302.51
336.13	1239.02
336.34	1236.97
336.55	1241.07
336.76	1320.94
336.98	1271.79
337.19	1308.65
337.40	1271.79
337.61	1282.03
337.82	1286.12
338.04	1331.18
338.25	1261.55
338.46	1257.45
338.67	1327.08
338.88	1236.97
339.09	1277.93
339.31	1202.16
339.52	1226.73
339.73	1224.69
339.94	1273.84
340.15	1308.65
340.36	1292.27
340.58	1255.40
340.79	1245.16
341.00	1290.22
341.21	1249.26
341.42	1304.56
341.63	1222.64
341.85	1269.74
342.06	1290.22
342.27	1277.93
342.48	1296.36
342.69	1292.27
342.90	1355.76
343.12	1320.94
343.33	1236.97
343.54	1261.55
343.75	1232.88
343.96	1241.07
344.17	1261.55
344.38	1249.26
344.60	1310.70
344.81	1337.32
345.02	1230.83
345.23	1259.50
345.44	1253.36
345.65	1273.84
345.86	1247.21
346.07	1304.56
346.29	1279.98
346.50	1322.99
346.71	1273.84
346.92	1298.41
347.13	1220.59
347.34	1363.95
347.55	1247.21
347.76	1282.03
347.98	1290.22
348.19	1245.16
348.40	1288.17
348.61	1275.88
348.82	1263.60
349.03	1271.79
349.24	1204.21
349.45	1259.50
349.66	1277.93
349.88	1208.30
350.09	1327.08
350.30	1245.16
350.51	1236.97
350.72	1267.69
350.93	1220.59
351.14	1339.37
351.35	1327.08
351.56	1200.11
351.77	1196.01
351.99	1265.64
352.20	1294.32
352.41	1224.69
352.62	1298.41
352.83	1259.50
353.04	1218.54
353.25	1247.21
353.46	1366.00
353.67	1269.74
353.88	1265.64
354.09	1261.55
354.30	1306.60
354.52	1210.35
354.73	1329.13
354.94	1277.93
355.15	1261.55
355.36	1165.29
355.57	1339.37
355.78	1337.32
355.99	1296.36
356.20	1275.88
356.41	1292.27
356.62	1196.01
356.83	1183.73
357.04	1284.08
357.25	1310.70
357.46	1296.36
357.68	1298.41
357.89	1322.99
358.10	1241.07
358.31	1226.73
358.52	1294.32
358.73	1277.93
358.94	1265.64
359.15	1273.84
359.36	1269.74
359.57	1304.56
359.78	1193.97
359.99	1232.88
360.20	1249.26
360.41	1320.94
360.62	1257.45
360.83	1275.88
361.04	1286.12
361.25	1269.74
361.46	1300.46
361.67	1198.06
361.88	1294.32
362.09	1253.36
362.30	1271.79
362.51	1226.73
362.72	1300.46
362.93	1269.74
363.14	1271.79
363.35	1259.50
363.56	1232.88
363.78	1230.83
363.99	1255.40
364.20	1271.79
364.41	1251.31
364.62	1239.02
364.83	1271.79
365.04	1222.64
365.25	1263.60
365.46	1292.27
365.67	1288.17
365.88	1279.98
366.09	1302.51
366.30	1271.79
366.51	1265.64
366.72	1298.41
366.93	1251.31
367.14	1234.93
367.35	1204.21
367.56	1298.41
367.77	1322.99
367.98	1236.97
368.18	1359.85
368.39	1310.70
368.60	1245.16
368.81	1273.84
369.02	1275.88
369.23	1245.16
369.44	1218.54
369.65	1267.69
369.86	1249.26
370.07	1251.31
370.28	1247.21
370.49	1253.36
370.70	1239.02
370.91	1290.22
371.12	1249.26
371.33	1318.89
371.54	1234.93
371.75	1349.61
371.96	1247.21
372.17	1224.69
372.38	1232.88
372.59	1210.35
372.80	1282.03
373.01	1228.78
373.22	1265.64
373.43	1269.74
373.64	1339.37
373.85	1302.51
374.06	1341.42
374.26	1222.64
374.47	1316.84
374.68	1228.78
374.89	1308.65
375.10	1224.69
375.31	1269.74
375.52	1247.21
375.73	1306.60
375.94	1245.16
376.15	1308.65
376.36	1310.70
376.57	1269.74
376.78	1308.65
376.99	1347.56
377.20	1353.71
377.40	1282.03
377.61	1175.53
377.82	1214.45
378.03	1286.12
378.24	1265.64
378.45	1196.01
378.66	1331.18
378.87	1282.03
379.08	1263.60
379.29	1310.70
379.50	1370.09
379.71	1318.89
379.91	1277.93
380.12	1333.23
380.33	1337.32
380.54	1247.21
380.75	1255.40
380.96	1316.84
381.17	1275.88
381.38	1189.87
381.59	1290.22
381.80	1220.59
382.00	1249.26
382.21	1296.36
382.42	1273.84
382.63	1218.54
382.84	1288.17
383.05	1263.60
383.26	1277.93
383.47	1224.69
383.68	1277.93
383.88	1222.64
384.09	1306.60
384.30	1271.79
384.51	1226.73
384.72	1282.03
384.93	1265.64
385.14	1159.15
385.35	1290.22
385.55	1243.12
385.76	1304.56
385.97	1243.12
386.18	1249.26
386.39	1282.03
386.60	1222.64
386.81	1261.55
387.02	1327.08
387.22	1249.26
387.43	1218.54
387.64	1210.35
387.85	1200.11
388.06	1257.45
388.27	1218.54
388.48	1325.04
388.68	1290.22
388.89	1290.22
389.10	1208.30
389.31	1173.49
389.52	1290.22
389.73	1216.49
389.93	1271.79
390.14	1249.26
390.35	1370.09
390.56	1253.36
390.77	1263.60
390.98	1273.84
391.18	1261.55
391.39	1239.02
391.60	1312.75
391.81	1320.94
392.02	1251.31
392.23	1232.88
392.43	1193.97
392.64	1263.60
392.85	1325.04
393.06	1245.16
393.27	1320.94
393.47	1284.08
393.68	1220.59
393.89	1196.01
394.10	1249.26
394.31	1300.46
394.52	1298.41
394.72	1302.51
394.93	1269.74
395.14	1302.51
395.35	1292.27
395.56	1286.12
395.76	1265.64
395.97	1316.84
396.18	1296.36
396.39	1253.36
396.60	1361.90
396.80	1249.26
397.01	1232.88
397.22	1290.22
397.43	1298.41
397.64	1265.64
397.84	1265.64
398.05	1173.49
398.26	1345.52
398.47	1241.07
398.67	1271.79
398.88	1308.65
399.09	1273.84
399.30	1251.31
399.51	1232.88
399.71	1257.45
399.92	1241.07
400.13	1277.93
400.34	1279.98
400.54	1271.79
400.75	1224.69
400.96	1234.93
401.17	1228.78
401.37	1325.04
401.58	1300.46
401.79	1259.50
402.00	1288.17
402.21	1263.60
402.41	1318.89
402.62	1255.40
402.83	1288.17
403.04	1269.74
403.24	1232.88
403.45	1226.73
403.66	1241.07
403.87	1257.45
404.07	1290.22
404.28	1312.75
404.49	1261.55
404.70	1265.64
404.90	1259.50
405.11	1314.80
405.32	1257.45
405.52	1296.36
405.73	1290.22
405.94	1193.97
406.15	1251.31
406.35	1245.16
406.56	1236.97
406.77	1259.50
406.98	1310.70
407.18	1282.03
407.39	1282.03
407.60	1226.73
407.80	1320.94
408.01	1308.65
408.22	1316.84
408.43	1277.93
408.63	1193.97
408.84	1239.02
409.05	1290.22
409.25	1294.32
409.46	1282.03
409.67	1329.13
409.88	1273.84
410.08	1355.76
410.29	1230.83
410.50	1193.97
410.70	1275.88
410.91	1279.98
411.12	1253.36
411.32	1261.55
411.53	1234.93
411.74	1261.55
411.95	1300.46
412.15	1288.17
412.36	1273.84
412.57	1214.45
412.77	1310.70
412.98	1249.26
413.19	1222.64
413.39	1277.93
413.60	1253.36
413.81	1234.93
414.01	1249.26
414.22	1263.60
414.43	1230.83
414.63	1269.74
414.84	1253.36
415.05	1261.55
415.25	1279.98
415.46	1259.50
415.67	1269.74
415.87	1294.32
416.08	1282.03
416.29	1263.60
416.49	1232.88
416.70	1226.73
416.91	1351.66
417.11	1263.60
417.32	1286.12
417.53	1286.12
417.73	1294.32
417.94	1245.16
418.15	1294.32
418.35	1249.26
418.56	1292.27
418.77	1259.50
418.97	1249.26
419.18	1249.26
419.38	1249.26
419.59	1187.82
419.80	1316.84
420.00	1230.83
420.21	1277.93
420.42	1271.79
420.62	1267.69
420.83	1320.94
421.04	1284.08
421.24	1232.88
421.45	1320.94
421.65	1222.64
421.86	1247.21
422.07	1308.65
422.27	1322.99
422.48	1265.64
422.69	1261.55
422.89	1384.43
423.10	1286.12
423.30	1300.46
423.51	1339.37
423.72	1255.40
423.92	1279.98
424.13	1255.40
424.33	1243.12
424.54	1261.55
424.75	1269.74
424.95	1253.36
425.16	1337.32
425.36	1298.41
425.57	1273.84
425.78	1263.60
425.98	1290.22
426.19	1306.60
426.39	1216.49
426.60	1257.45
426.81	1273.84
427.01	1298.41
427.22	1292.27
427.42	1290.22
427.63	1241.07
427.83	1288.17
428.04	1236.97
428.25	1351.66
428.45	1265.64
428.66	1284.08
428.86	1294.32
429.07	1253.36
429.28	1339.37
429.48	1304.56
429.69	1314.80
429.89	1265.64
430.10	1251.31
430.30	1327.08
430.51	1292.27
430.71	1232.88
430.92	1257.45
431.13	1275.88
431.33	1230.83
431.54	1241.07
431.74	1333.23
431.95	1236.97
432.15	1257.45
432.36	1273.84
432.56	1257.45
432.77	1382.38
432.98	1308.65
433.18	1277.93
433.39	1316.84
433.59	1234.93
433.80	1265.64
434.00	1239.02
434.21	1265.64
434.41	1282.03
434.62	1325.04
434.82	1325.04
435.03	1263.60
435.23	1320.94
435.44	1193.97
435.64	1159.15
435.85	1251.31
436.06	1216.49
436.26	1296.36
436.47	1265.64
436.67	1290.22
436.88	1271.79
437.08	1277.93
437.29	1243.12
437.49	1271.79
437.70	1282.03
437.90	1263.60
438.11	1251.31
438.31	1253.36
438.52	1275.88
438.72	1271.79
438.93	1298.41
439.13	1263.60
439.34	1249.26
439.54	1282.03
439.75	1267.69
439.95	1329.13
440.16	1333.23
440.36	1249.26
440.57	1314.80
440.77	1263.60
440.98	1314.80
441.18	1214.45
441.39	1273.84
441.59	1284.08
441.80	1265.64
442.00	1282.03
442.21	1292.27
442.41	1255.40
442.62	1275.88
442.82	1271.79
443.02	1322.99
443.23	1249.26
443.43	1255.40
443.64	1298.41
443.84	1273.84
444.05	1333.23
444.25	1312.75
444.46	1232.88
444.66	1243.12
444.87	1331.18
445.07	1329.13
445.28	1228.78
445.48	1224.69
445.69	1298.41
445.89	1255.40
446.09	1296.36
446.30	1275.88
446.50	1249.26
446.71	1255.40
446.91	1267.69
447.12	1218.54
447.32	1273.84
447.53	1198.06
447.73	1263.60
447.93	1339.37
448.14	1292.27
448.34	1374.19
448.55	1198.06
448.75	1300.46
448.96	1290.22
449.16	1249.26
449.36	1245.16
449.57	1282.03
449.77	1241.07
449.98	1230.83
450.18	1331.18
450.39	1275.88
450.59	1277.93
450.79	1312.75
451.00	1271.79
451.20	1308.65
451.41	1294.32
451.61	1300.46
451.81	1308.65
452.02	1265.64
452.22	1329.13
452.43	1255.40
452.63	1320.94
