SpectraSuite Data File
++++++++++++++++++++++++++++++++++++
Date: Sun Apr 03 19:55:16 CEST 2016
User: root
Dark Spectrum Present: No
Reference Spectrum Present: No
Number of Sampled Component Spectra: 1
Spectrometers: USB4C02835
Integration Time (usec): 10000 (USB4C02835)
Spectra Averaged: 1 (USB4C02835)
Boxcar Smoothing: 0 (USB4C02835)
Correct for Electrical Dark: No (USB4C02835)
Strobe/Lamp Enabled: No (USB4C02835)
Correct for Detector Non-linearity: No (USB4C02835)
Correct for Stray Light: No (USB4C02835)
Number of Pixels in Processed Spectrum: 3648
>>>>>Begin Processed Spectral Data<<<<<
177.47	1208.30
177.69	1208.30
177.91	1208.30
178.13	1267.69
178.36	1312.75
178.58	1249.26
178.80	1327.08
179.02	1300.46
179.24	1191.92
179.46	1142.77
179.68	1228.78
179.90	1226.73
180.13	1310.70
180.35	1288.17
180.57	1234.93
180.79	1206.25
181.01	1351.66
181.23	1261.55
181.45	1292.27
181.67	1277.93
181.90	1267.69
182.12	1241.07
182.34	1232.88
182.56	1310.70
182.78	1282.03
183.00	1218.54
183.22	1277.93
183.44	1310.70
183.66	1296.36
183.89	1290.22
184.11	1286.12
184.33	1218.54
184.55	1322.99
184.77	1335.28
184.99	1214.45
185.21	1292.27
185.43	1273.84
185.65	1290.22
185.87	1290.22
186.10	1265.64
186.32	1259.50
186.54	1255.40
186.76	1267.69
186.98	1226.73
187.20	1218.54
187.42	1282.03
187.64	1228.78
187.86	1267.69
188.08	1335.28
188.30	1331.18
188.52	1325.04
188.75	1284.08
188.97	1288.17
189.19	1284.08
189.41	1318.89
189.63	1181.68
189.85	1271.79
190.07	1288.17
190.29	1212.40
190.51	1224.69
190.73	1255.40
190.95	1222.64
191.17	1292.27
191.39	1292.27
191.61	1269.74
191.84	1257.45
192.06	1355.76
192.28	1296.36
192.50	1232.88
192.72	1271.79
192.94	1255.40
193.16	1284.08
193.38	1271.79
193.60	1243.12
193.82	1234.93
194.04	1247.21
194.26	1247.21
194.48	1243.12
194.70	1327.08
194.92	1282.03
195.14	1296.36
195.36	1249.26
195.58	1263.60
195.80	1202.16
196.02	1302.51
196.24	1263.60
196.46	1302.51
196.69	1257.45
196.91	1224.69
197.13	1284.08
197.35	1230.83
197.57	1368.04
197.79	1275.88
198.01	1269.74
198.23	1359.85
198.45	1290.22
198.67	1165.29
198.89	1255.40
199.11	1310.70
199.33	1288.17
199.55	1228.78
199.77	1302.51
199.99	1308.65
200.21	1257.45
200.43	1241.07
200.65	1228.78
200.87	1255.40
201.09	1218.54
201.31	1230.83
201.53	1267.69
201.75	1267.69
201.97	1259.50
202.19	1286.12
202.41	1316.84
202.63	1282.03
202.85	1312.75
203.07	1279.98
203.29	1288.17
203.51	1230.83
203.73	1208.30
203.95	1331.18
204.17	1230.83
204.39	1284.08
204.61	1314.80
204.83	1206.25
205.05	1257.45
205.27	1355.76
205.49	1265.64
205.71	1257.45
205.93	1236.97
206.15	1226.73
206.37	1327.08
206.59	1290.22
206.81	1300.46
207.03	1269.74
207.25	1177.58
207.47	1236.97
207.69	1273.84
207.91	1273.84
208.13	1265.64
208.34	1271.79
208.56	1243.12
208.78	1208.30
209.00	1239.02
209.22	1243.12
209.44	1275.88
209.66	1296.36
209.88	1275.88
210.10	1265.64
210.32	1255.40
210.54	1214.45
210.76	1261.55
210.98	1243.12
211.20	1310.70
211.42	1335.28
211.64	1275.88
211.86	1288.17
212.08	1279.98
212.30	1306.60
212.52	1290.22
212.74	1239.02
212.96	1249.26
213.17	1245.16
213.39	1214.45
213.61	1296.36
213.83	1243.12
214.05	1284.08
214.27	1193.97
214.49	1318.89
214.71	1290.22
214.93	1230.83
215.15	1273.84
215.37	1265.64
215.59	1308.65
215.81	1282.03
216.03	1222.64
216.24	1300.46
216.46	1331.18
216.68	1316.84
216.90	1300.46
217.12	1294.32
217.34	1288.17
217.56	1218.54
217.78	1318.89
218.00	1282.03
218.22	1245.16
218.44	1251.31
218.66	1261.55
218.87	1284.08
219.09	1243.12
219.31	1277.93
219.53	1320.94
219.75	1294.32
219.97	1312.75
220.19	1279.98
220.41	1335.28
220.63	1300.46
220.85	1282.03
221.06	1263.60
221.28	1290.22
221.50	1222.64
221.72	1230.83
221.94	1212.40
222.16	1263.60
222.38	1341.42
222.60	1298.41
222.82	1251.31
223.03	1339.37
223.25	1232.88
223.47	1302.51
223.69	1298.41
223.91	1241.07
224.13	1241.07
224.35	1282.03
224.57	1279.98
224.78	1222.64
225.00	1290.22
225.22	1259.50
225.44	1206.25
225.66	1279.98
225.88	1232.88
226.10	1261.55
226.32	1214.45
226.53	1210.35
226.75	1273.84
226.97	1275.88
227.19	1245.16
227.41	1333.23
227.63	1253.36
227.85	1253.36
228.06	1327.08
228.28	1290.22
228.50	1298.41
228.72	1263.60
228.94	1251.31
229.16	1236.97
229.37	1345.52
229.59	1249.26
229.81	1306.60
230.03	1275.88
230.25	1298.41
230.47	1296.36
230.69	1333.23
230.90	1355.76
231.12	1275.88
231.34	1224.69
231.56	1191.92
231.78	1206.25
232.00	1286.12
232.21	1275.88
232.43	1304.56
232.65	1234.93
232.87	1316.84
233.09	1230.83
233.30	1337.32
233.52	1286.12
233.74	1294.32
233.96	1279.98
234.18	1243.12
234.40	1271.79
234.61	1320.94
234.83	1245.16
235.05	1218.54
235.27	1284.08
235.49	1284.08
235.70	1239.02
235.92	1320.94
236.14	1243.12
236.36	1249.26
236.58	1294.32
236.79	1320.94
237.01	1196.01
237.23	1282.03
237.45	1267.69
237.67	1282.03
237.88	1304.56
238.10	1294.32
238.32	1230.83
238.54	1277.93
238.76	1310.70
238.97	1198.06
239.19	1228.78
239.41	1255.40
239.63	1187.82
239.85	1249.26
240.06	1275.88
240.28	1204.21
240.50	1236.97
240.72	1265.64
240.93	1308.65
241.15	1314.80
241.37	1294.32
241.59	1279.98
241.81	1296.36
242.02	1290.22
242.24	1300.46
242.46	1300.46
242.68	1241.07
242.89	1265.64
243.11	1251.31
243.33	1282.03
243.55	1302.51
243.76	1271.79
243.98	1218.54
244.20	1286.12
244.42	1245.16
244.64	1269.74
244.85	1255.40
245.07	1230.83
245.29	1286.12
245.51	1273.84
245.72	1294.32
245.94	1269.74
246.16	1198.06
246.38	1245.16
246.59	1275.88
246.81	1316.84
247.03	1236.97
247.24	1304.56
247.46	1216.49
247.68	1314.80
247.90	1255.40
248.11	1259.50
248.33	1320.94
248.55	1282.03
248.77	1288.17
248.98	1271.79
249.20	1290.22
249.42	1247.21
249.64	1355.76
249.85	1204.21
250.07	1187.82
250.29	1249.26
250.50	1318.89
250.72	1271.79
250.94	1355.76
251.16	1296.36
251.37	1341.42
251.59	1331.18
251.81	1271.79
252.02	1329.13
252.24	1230.83
252.46	1247.21
252.68	1230.83
252.89	1290.22
253.11	1214.45
253.33	1296.36
253.54	1288.17
253.76	1249.26
253.98	1267.69
254.20	1347.56
254.41	1304.56
254.63	1271.79
254.85	1232.88
255.06	1306.60
255.28	1273.84
255.50	1261.55
255.71	1269.74
255.93	1288.17
256.15	1298.41
256.36	1200.11
256.58	1251.31
256.80	1247.21
257.02	1294.32
257.23	1216.49
257.45	1247.21
257.67	1361.90
257.88	1236.97
258.10	1292.27
258.32	1249.26
258.53	1306.60
258.75	1302.51
258.97	1263.60
259.18	1361.90
259.40	1331.18
259.62	1253.36
259.83	1218.54
260.05	1265.64
260.27	1275.88
260.48	1257.45
260.70	1230.83
260.92	1206.25
261.13	1243.12
261.35	1310.70
261.57	1261.55
261.78	1282.03
262.00	1271.79
262.22	1265.64
262.43	1294.32
262.65	1312.75
262.86	1343.47
263.08	1224.69
263.30	1255.40
263.51	1255.40
263.73	1271.79
263.95	1271.79
264.16	1277.93
264.38	1269.74
264.60	1214.45
264.81	1208.30
265.03	1224.69
265.25	1214.45
265.46	1273.84
265.68	1343.47
265.89	1247.21
266.11	1294.32
266.33	1216.49
266.54	1325.04
266.76	1228.78
266.98	1275.88
267.19	1267.69
267.41	1316.84
267.62	1206.25
267.84	1239.02
268.06	1245.16
268.27	1312.75
268.49	1218.54
268.70	1257.45
268.92	1257.45
269.14	1302.51
269.35	1212.40
269.57	1277.93
269.79	1273.84
270.00	1286.12
270.22	1263.60
270.43	1318.89
270.65	1269.74
270.87	1236.97
271.08	1214.45
271.30	1239.02
271.51	1339.37
271.73	1220.59
271.95	1257.45
272.16	1261.55
272.38	1267.69
272.59	1196.01
272.81	1271.79
273.02	1290.22
273.24	1298.41
273.46	1279.98
273.67	1259.50
273.89	1271.79
274.10	1198.06
274.32	1210.35
274.54	1368.04
274.75	1298.41
274.97	1298.41
275.18	1271.79
275.40	1288.17
275.61	1271.79
275.83	1226.73
276.05	1171.44
276.26	1298.41
276.48	1230.83
276.69	1261.55
276.91	1234.93
277.12	1247.21
277.34	1245.16
277.55	1232.88
277.77	1216.49
277.99	1267.69
278.20	1253.36
278.42	1279.98
278.63	1255.40
278.85	1333.23
279.06	1263.60
279.28	1255.40
279.49	1290.22
279.71	1146.86
279.93	1236.97
280.14	1263.60
280.36	1200.11
280.57	1304.56
280.79	1290.22
281.00	1239.02
281.22	1275.88
281.43	1286.12
281.65	1298.41
281.86	1304.56
282.08	1224.69
282.29	1353.71
282.51	1302.51
282.73	1337.32
282.94	1294.32
283.16	1359.85
283.37	1232.88
283.59	1279.98
283.80	1267.69
284.02	1282.03
284.23	1277.93
284.45	1212.40
284.66	1243.12
284.88	1273.84
285.09	1298.41
285.31	1255.40
285.52	1345.52
285.74	1255.40
285.95	1325.04
286.17	1284.08
286.38	1304.56
286.60	1179.63
286.81	1286.12
287.03	1239.02
287.24	1232.88
287.46	1269.74
287.67	1308.65
287.89	1310.70
288.10	1310.70
288.32	1259.50
288.53	1224.69
288.75	1298.41
288.96	1286.12
289.18	1196.01
289.39	1290.22
289.61	1304.56
289.82	1339.37
290.04	1288.17
290.25	1279.98
290.47	1288.17
290.68	1322.99
290.90	1271.79
291.11	1249.26
291.33	1224.69
291.54	1271.79
291.76	1290.22
291.97	1347.56
292.18	1314.80
292.40	1302.51
292.61	1259.50
292.83	1312.75
293.04	1265.64
293.26	1277.93
293.47	1187.82
293.69	1257.45
293.90	1200.11
294.12	1296.36
294.33	1234.93
294.55	1257.45
294.76	1302.51
294.97	1318.89
295.19	1265.64
295.40	1234.93
295.62	1288.17
295.83	1277.93
296.05	1249.26
296.26	1206.25
296.48	1236.97
296.69	1263.60
296.90	1292.27
297.12	1185.77
297.33	1302.51
297.55	1239.02
297.76	1294.32
297.98	1322.99
298.19	1214.45
298.41	1257.45
298.62	1236.97
298.83	1239.02
299.05	1271.79
299.26	1218.54
299.48	1198.06
299.69	1275.88
299.90	1249.26
300.12	1269.74
300.33	1222.64
300.55	1239.02
300.76	1261.55
300.98	1214.45
301.19	1335.28
301.40	1279.98
301.62	1208.30
301.83	1265.64
302.05	1269.74
302.26	1331.18
302.47	1261.55
302.69	1359.85
302.90	1234.93
303.12	1300.46
303.33	1214.45
303.54	1228.78
303.76	1296.36
303.97	1279.98
304.19	1306.60
304.40	1298.41
304.61	1314.80
304.83	1345.52
305.04	1257.45
305.26	1359.85
305.47	1294.32
305.68	1253.36
305.90	1290.22
306.11	1294.32
306.33	1183.73
306.54	1355.76
306.75	1279.98
306.97	1228.78
307.18	1222.64
307.39	1257.45
307.61	1302.51
307.82	1243.12
308.04	1331.18
308.25	1310.70
308.46	1249.26
308.68	1294.32
308.89	1261.55
309.10	1193.97
309.32	1243.12
309.53	1134.57
309.74	1298.41
309.96	1298.41
310.17	1286.12
310.39	1290.22
310.60	1269.74
310.81	1294.32
311.03	1279.98
311.24	1228.78
311.45	1216.49
311.67	1314.80
311.88	1370.09
312.09	1247.21
312.31	1247.21
312.52	1306.60
312.73	1210.35
312.95	1243.12
313.16	1249.26
313.37	1322.99
313.59	1320.94
313.80	1294.32
314.01	1282.03
314.23	1296.36
314.44	1251.31
314.65	1261.55
314.87	1189.87
315.08	1214.45
315.29	1214.45
315.51	1239.02
315.72	1312.75
315.93	1259.50
316.15	1271.79
316.36	1331.18
316.57	1277.93
316.79	1214.45
317.00	1345.52
317.21	1228.78
317.43	1241.07
317.64	1253.36
317.85	1290.22
318.07	1234.93
318.28	1279.98
318.49	1232.88
318.70	1255.40
318.92	1247.21
319.13	1216.49
319.34	1214.45
319.56	1296.36
319.77	1279.98
319.98	1279.98
320.20	1269.74
320.41	1294.32
320.62	1214.45
320.83	1267.69
321.05	1228.78
321.26	1191.92
321.47	1222.64
321.69	1247.21
321.90	1286.12
322.11	1331.18
322.32	1314.80
322.54	1345.52
322.75	1247.21
322.96	1271.79
323.18	1259.50
323.39	1200.11
323.60	1222.64
323.81	1304.56
324.03	1277.93
324.24	1263.60
324.45	1333.23
324.66	1277.93
324.88	1286.12
325.09	1282.03
325.30	1239.02
325.52	1282.03
325.73	1282.03
325.94	1312.75
326.15	1161.20
326.37	1282.03
326.58	1208.30
326.79	1206.25
327.00	1239.02
327.22	1318.89
327.43	1183.73
327.64	1239.02
327.85	1191.92
328.07	1282.03
328.28	1284.08
328.49	1269.74
328.70	1269.74
328.92	1222.64
329.13	1163.25
329.34	1279.98
329.55	1249.26
329.76	1228.78
329.98	1224.69
330.19	1269.74
330.40	1255.40
330.61	1296.36
330.83	1277.93
331.04	1279.98
331.25	1327.08
331.46	1277.93
331.68	1245.16
331.89	1245.16
332.10	1241.07
332.31	1181.68
332.52	1282.03
332.74	1275.88
332.95	1277.93
333.16	1275.88
333.37	1220.59
333.58	1193.97
333.80	1249.26
334.01	1263.60
334.22	1284.08
334.43	1288.17
334.64	1286.12
334.86	1282.03
335.07	1292.27
335.28	1247.21
335.49	1245.16
335.70	1275.88
335.92	1228.78
336.13	1241.07
336.34	1302.51
336.55	1263.60
336.76	1253.36
336.98	1318.89
337.19	1269.74
337.40	1277.93
337.61	1296.36
337.82	1249.26
338.04	1290.22
338.25	1275.88
338.46	1253.36
338.67	1185.77
338.88	1230.83
339.09	1353.71
339.31	1230.83
339.52	1304.56
339.73	1249.26
339.94	1263.60
340.15	1310.70
340.36	1292.27
340.58	1284.08
340.79	1208.30
341.00	1202.16
341.21	1234.93
341.42	1306.60
341.63	1327.08
341.85	1302.51
342.06	1288.17
342.27	1239.02
342.48	1279.98
342.69	1245.16
342.90	1212.40
343.12	1279.98
343.33	1271.79
343.54	1257.45
343.75	1302.51
343.96	1312.75
344.17	1230.83
344.38	1241.07
344.60	1277.93
344.81	1304.56
345.02	1261.55
345.23	1212.40
345.44	1325.04
345.65	1265.64
345.86	1243.12
346.07	1282.03
346.29	1290.22
346.50	1255.40
346.71	1255.40
346.92	1333.23
347.13	1282.03
347.34	1245.16
347.55	1392.62
347.76	1259.50
347.98	1294.32
348.19	1292.27
348.40	1284.08
348.61	1224.69
348.82	1314.80
349.03	1310.70
349.24	1224.69
349.45	1335.28
349.66	1216.49
349.88	1224.69
350.09	1279.98
350.30	1359.85
350.51	1271.79
350.72	1282.03
350.93	1269.74
351.14	1292.27
351.35	1329.13
351.56	1292.27
351.77	1320.94
351.99	1249.26
352.20	1230.83
352.41	1208.30
352.62	1269.74
352.83	1286.12
353.04	1245.16
353.25	1304.56
353.46	1241.07
353.67	1312.75
353.88	1269.74
354.09	1290.22
354.30	1234.93
354.52	1275.88
354.73	1222.64
354.94	1327.08
355.15	1265.64
355.36	1294.32
355.57	1234.93
355.78	1366.00
355.99	1249.26
356.20	1226.73
356.41	1249.26
356.62	1269.74
356.83	1290.22
357.04	1251.31
357.25	1306.60
357.46	1286.12
357.68	1286.12
357.89	1245.16
358.10	1300.46
358.31	1271.79
358.52	1302.51
358.73	1236.97
358.94	1288.17
359.15	1318.89
359.36	1212.40
359.57	1232.88
359.78	1296.36
359.99	1292.27
360.20	1245.16
360.41	1208.30
360.62	1171.44
360.83	1322.99
361.04	1296.36
361.25	1294.32
361.46	1267.69
361.67	1267.69
361.88	1331.18
362.09	1359.85
362.30	1312.75
362.51	1267.69
362.72	1267.69
362.93	1263.60
363.14	1265.64
363.35	1261.55
363.56	1239.02
363.78	1271.79
363.99	1312.75
364.20	1275.88
364.41	1359.85
364.62	1210.35
364.83	1271.79
365.04	1269.74
365.25	1222.64
365.46	1267.69
365.67	1271.79
365.88	1314.80
366.09	1265.64
366.30	1302.51
366.51	1345.52
366.72	1183.73
366.93	1198.06
367.14	1298.41
367.35	1271.79
367.56	1228.78
367.77	1251.31
367.98	1183.73
368.18	1292.27
368.39	1335.28
368.60	1310.70
368.81	1294.32
369.02	1277.93
369.23	1224.69
369.44	1290.22
369.65	1220.59
369.86	1259.50
370.07	1212.40
370.28	1263.60
370.49	1284.08
370.70	1292.27
370.91	1312.75
371.12	1247.21
371.33	1220.59
371.54	1308.65
371.75	1257.45
371.96	1214.45
372.17	1263.60
372.38	1273.84
372.59	1277.93
372.80	1331.18
373.01	1222.64
373.22	1265.64
373.43	1384.43
373.64	1269.74
373.85	1251.31
374.06	1255.40
374.26	1191.92
374.47	1329.13
374.68	1263.60
374.89	1265.64
375.10	1263.60
375.31	1341.42
375.52	1245.16
375.73	1275.88
375.94	1239.02
376.15	1357.80
376.36	1333.23
376.57	1314.80
376.78	1245.16
376.99	1302.51
377.20	1275.88
377.40	1218.54
377.61	1196.01
377.82	1273.84
378.03	1267.69
378.24	1265.64
378.45	1228.78
378.66	1345.52
378.87	1239.02
379.08	1247.21
379.29	1310.70
379.50	1261.55
379.71	1228.78
379.91	1331.18
380.12	1279.98
380.33	1273.84
380.54	1208.30
380.75	1288.17
380.96	1294.32
381.17	1308.65
381.38	1292.27
381.59	1259.50
381.80	1247.21
382.00	1232.88
382.21	1273.84
382.42	1241.07
382.63	1245.16
382.84	1269.74
383.05	1349.61
383.26	1286.12
383.47	1251.31
383.68	1230.83
383.88	1236.97
384.09	1230.83
384.30	1267.69
384.51	1265.64
384.72	1286.12
384.93	1286.12
385.14	1245.16
385.35	1279.98
385.55	1230.83
385.76	1241.07
385.97	1206.25
386.18	1226.73
386.39	1241.07
386.60	1308.65
386.81	1247.21
387.02	1288.17
387.22	1245.16
387.43	1230.83
387.64	1210.35
387.85	1302.51
388.06	1196.01
388.27	1208.30
388.48	1277.93
388.68	1218.54
388.89	1284.08
389.10	1277.93
389.31	1318.89
389.52	1259.50
389.73	1243.12
389.93	1241.07
390.14	1294.32
390.35	1353.71
390.56	1335.28
390.77	1239.02
390.98	1226.73
391.18	1304.56
391.39	1310.70
391.60	1302.51
391.81	1265.64
392.02	1273.84
392.23	1349.61
392.43	1265.64
392.64	1232.88
392.85	1279.98
393.06	1273.84
393.27	1265.64
393.47	1282.03
393.68	1337.32
393.89	1187.82
394.10	1251.31
394.31	1241.07
394.52	1300.46
394.72	1275.88
394.93	1341.42
395.14	1312.75
395.35	1261.55
395.56	1329.13
395.76	1257.45
395.97	1320.94
396.18	1296.36
396.39	1329.13
396.60	1271.79
396.80	1265.64
397.01	1279.98
397.22	1220.59
397.43	1290.22
397.64	1265.64
397.84	1325.04
398.05	1189.87
398.26	1304.56
398.47	1282.03
398.67	1265.64
398.88	1259.50
399.09	1236.97
399.30	1318.89
399.51	1298.41
399.71	1372.14
399.92	1325.04
400.13	1249.26
400.34	1228.78
400.54	1241.07
400.75	1193.97
400.96	1318.89
401.17	1263.60
401.37	1277.93
401.58	1284.08
401.79	1265.64
402.00	1279.98
402.21	1257.45
402.41	1247.21
402.62	1325.04
402.83	1214.45
403.04	1271.79
403.24	1275.88
403.45	1263.60
403.66	1282.03
403.87	1243.12
404.07	1257.45
404.28	1243.12
404.49	1298.41
404.70	1265.64
404.90	1230.83
405.11	1259.50
405.32	1220.59
405.52	1261.55
405.73	1271.79
405.94	1239.02
406.15	1222.64
406.35	1277.93
406.56	1290.22
406.77	1259.50
406.98	1279.98
407.18	1255.40
407.39	1296.36
407.60	1255.40
407.80	1200.11
408.01	1310.70
408.22	1341.42
408.43	1312.75
408.63	1271.79
408.84	1245.16
409.05	1322.99
409.25	1224.69
409.46	1279.98
409.67	1259.50
409.88	1267.69
410.08	1210.35
410.29	1292.27
410.50	1255.40
410.70	1273.84
410.91	1306.60
411.12	1220.59
411.32	1236.97
411.53	1312.75
411.74	1279.98
411.95	1271.79
412.15	1198.06
412.36	1308.65
412.57	1320.94
412.77	1290.22
412.98	1230.83
413.19	1220.59
413.39	1292.27
413.60	1286.12
413.81	1282.03
414.01	1296.36
414.22	1212.40
414.43	1335.28
414.63	1263.60
414.84	1298.41
415.05	1310.70
415.25	1296.36
415.46	1294.32
415.67	1288.17
415.87	1236.97
416.08	1304.56
416.29	1245.16
416.49	1294.32
416.70	1261.55
416.91	1302.51
417.11	1234.93
417.32	1271.79
417.53	1277.93
417.73	1304.56
417.94	1300.46
418.15	1243.12
418.35	1322.99
418.56	1257.45
418.77	1200.11
418.97	1232.88
419.18	1322.99
419.38	1255.40
419.59	1275.88
419.80	1253.36
420.00	1224.69
420.21	1243.12
420.42	1273.84
420.62	1302.51
420.83	1279.98
421.04	1368.04
421.24	1226.73
421.45	1228.78
421.65	1208.30
421.86	1378.28
422.07	1390.57
422.27	1265.64
422.48	1290.22
422.69	1271.79
422.89	1257.45
423.10	1220.59
423.30	1239.02
423.51	1343.47
423.72	1228.78
423.92	1255.40
424.13	1196.01
424.33	1263.60
424.54	1253.36
424.75	1304.56
424.95	1228.78
425.16	1310.70
425.36	1208.30
425.57	1282.03
425.78	1271.79
425.98	1318.89
426.19	1277.93
426.39	1286.12
426.60	1271.79
426.81	1241.07
427.01	1286.12
427.22	1232.88
427.42	1284.08
427.63	1253.36
427.83	1335.28
428.04	1304.56
428.25	1253.36
428.45	1282.03
428.66	1273.84
428.86	1288.17
429.07	1376.24
429.28	1300.46
429.48	1286.12
429.69	1245.16
429.89	1257.45
430.10	1275.88
430.30	1308.65
430.51	1318.89
430.71	1279.98
430.92	1249.26
431.13	1234.93
431.33	1294.32
431.54	1286.12
431.74	1306.60
431.95	1300.46
432.15	1257.45
432.36	1245.16
432.56	1253.36
432.77	1218.54
432.98	1275.88
433.18	1224.69
433.39	1267.69
433.59	1275.88
433.80	1286.12
434.00	1314.80
434.21	1306.60
434.41	1206.25
434.62	1294.32
434.82	1196.01
435.03	1275.88
435.23	1251.31
435.44	1247.21
435.64	1341.42
435.85	1269.74
436.06	1271.79
436.26	1265.64
436.47	1288.17
436.67	1214.45
436.88	1175.53
437.08	1312.75
437.29	1247.21
437.49	1286.12
437.70	1310.70
437.90	1310.70
438.11	1312.75
438.31	1265.64
438.52	1222.64
438.72	1320.94
438.93	1236.97
439.13	1220.59
439.34	1273.84
439.54	1282.03
439.75	1282.03
439.95	1325.04
440.16	1277.93
440.36	1241.07
440.57	1220.59
440.77	1286.12
440.98	1247.21
441.18	1298.41
441.39	1245.16
441.59	1316.84
441.80	1239.02
442.00	1277.93
442.21	1228.78
442.41	1179.63
442.62	1245.16
442.82	1273.84
443.02	1279.98
443.23	1255.40
443.43	1245.16
443.64	1329.13
443.84	1273.84
444.05	1269.74
444.25	1224.69
444.46	1216.49
444.66	1165.29
444.87	1345.52
445.07	1279.98
445.28	1314.80
445.48	1263.60
445.69	1257.45
445.89	1249.26
446.09	1253.36
446.30	1337.32
446.50	1200.11
446.71	1271.79
446.91	1302.51
447.12	1253.36
447.32	1300.46
447.53	1302.51
447.73	1239.02
447.93	1273.84
448.14	1292.27
448.34	1249.26
448.55	1263.60
448.75	1224.69
448.96	1292.27
449.16	1284.08
449.36	1265.64
449.57	1236.97
449.77	1267.69
449.98	1327.08
450.18	1312.75
450.39	1232.88
450.59	1224.69
450.79	1306.60
451.00	1222.64
451.20	1279.98
451.41	1314.80
451.61	1277.93
451.81	1308.65
452.02	1349.61
452.22	1263.60
452.43	1261.55
452.63	1292.27
