SpectraSuite Data File
++++++++++++++++++++++++++++++++++++
Date: Sun Apr 03 19:55:33 CEST 2016
User: root
Dark Spectrum Present: No
Reference Spectrum Present: No
Number of Sampled Component Spectra: 1
Spectrometers: USB4C02835
Integration Time (usec): 10000 (USB4C02835)
Spectra Averaged: 1 (USB4C02835)
Boxcar Smoothing: 0 (USB4C02835)
Correct for Electrical Dark: No (USB4C02835)
Strobe/Lamp Enabled: No (USB4C02835)
Correct for Detector Non-linearity: No (USB4C02835)
Correct for Stray Light: No (USB4C02835)
Number of Pixels in Processed Spectrum: 3648
>>>>>Begin Processed Spectral Data<<<<<
177.47	1253.36
177.69	1253.36
177.91	1253.36
178.13	1249.26
178.36	1308.65
178.58	1282.03
178.80	1302.51
179.02	1306.60
179.24	1312.75
179.46	1216.49
179.68	1304.56
179.90	1349.61
180.13	1265.64
180.35	1294.32
180.57	1216.49
180.79	1230.83
181.01	1236.97
181.23	1290.22
181.45	1232.88
181.67	1284.08
181.90	1286.12
182.12	1269.74
182.34	1271.79
182.56	1282.03
182.78	1198.06
183.00	1255.40
183.22	1279.98
183.44	1247.21
183.66	1337.32
183.89	1298.41
184.11	1241.07
184.33	1259.50
184.55	1220.59
184.77	1234.93
184.99	1341.42
185.21	1241.07
185.43	1310.70
185.65	1210.35
185.87	1279.98
186.10	1304.56
186.32	1261.55
186.54	1212.40
186.76	1214.45
186.98	1243.12
187.20	1261.55
187.42	1261.55
187.64	1253.36
187.86	1265.64
188.08	1245.16
188.30	1259.50
188.52	1232.88
188.75	1241.07
188.97	1273.84
189.19	1292.27
189.41	1265.64
189.63	1259.50
189.85	1275.88
190.07	1269.74
190.29	1189.87
190.51	1282.03
190.73	1288.17
190.95	1204.21
191.17	1226.73
191.39	1228.78
191.61	1210.35
191.84	1257.45
192.06	1273.84
192.28	1193.97
192.50	1243.12
192.72	1261.55
192.94	1257.45
193.16	1316.84
193.38	1298.41
193.60	1261.55
193.82	1312.75
194.04	1208.30
194.26	1300.46
194.48	1234.93
194.70	1279.98
194.92	1316.84
195.14	1298.41
195.36	1314.80
195.58	1292.27
195.80	1234.93
196.02	1202.16
196.24	1239.02
196.46	1234.93
196.69	1292.27
196.91	1273.84
197.13	1216.49
197.35	1267.69
197.57	1331.18
197.79	1290.22
198.01	1239.02
198.23	1288.17
198.45	1292.27
198.67	1257.45
198.89	1400.81
199.11	1257.45
199.33	1261.55
199.55	1232.88
199.77	1204.21
199.99	1267.69
200.21	1325.04
200.43	1261.55
200.65	1189.87
200.87	1275.88
201.09	1282.03
201.31	1312.75
201.53	1273.84
201.75	1210.35
201.97	1189.87
202.19	1243.12
202.41	1243.12
202.63	1322.99
202.85	1316.84
203.07	1263.60
203.29	1269.74
203.51	1259.50
203.73	1269.74
203.95	1263.60
204.17	1277.93
204.39	1245.16
204.61	1251.31
204.83	1232.88
205.05	1277.93
205.27	1273.84
205.49	1241.07
205.71	1316.84
205.93	1251.31
206.15	1251.31
206.37	1251.31
206.59	1298.41
206.81	1302.51
207.03	1241.07
207.25	1273.84
207.47	1265.64
207.69	1232.88
207.91	1181.68
208.13	1288.17
208.34	1269.74
208.56	1294.32
208.78	1318.89
209.00	1212.40
209.22	1271.79
209.44	1232.88
209.66	1298.41
209.88	1296.36
210.10	1261.55
210.32	1245.16
210.54	1286.12
210.76	1247.21
210.98	1228.78
211.20	1310.70
211.42	1279.98
211.64	1232.88
211.86	1271.79
212.08	1265.64
212.30	1316.84
212.52	1279.98
212.74	1263.60
212.96	1216.49
213.17	1179.63
213.39	1200.11
213.61	1261.55
213.83	1290.22
214.05	1333.23
214.27	1259.50
214.49	1302.51
214.71	1316.84
214.93	1337.32
215.15	1249.26
215.37	1275.88
215.59	1261.55
215.81	1343.47
216.03	1284.08
216.24	1251.31
216.46	1169.39
216.68	1183.73
216.90	1214.45
217.12	1263.60
217.34	1263.60
217.56	1273.84
217.78	1288.17
218.00	1183.73
218.22	1304.56
218.44	1275.88
218.66	1302.51
218.87	1288.17
219.09	1261.55
219.31	1343.47
219.53	1286.12
219.75	1247.21
219.97	1343.47
220.19	1255.40
220.41	1263.60
220.63	1300.46
220.85	1316.84
221.06	1241.07
221.28	1290.22
221.50	1290.22
221.72	1279.98
221.94	1265.64
222.16	1241.07
222.38	1288.17
222.60	1193.97
222.82	1331.18
223.03	1284.08
223.25	1267.69
223.47	1251.31
223.69	1208.30
223.91	1286.12
224.13	1245.16
224.35	1247.21
224.57	1292.27
224.78	1236.97
225.00	1267.69
225.22	1331.18
225.44	1388.52
225.66	1320.94
225.88	1333.23
226.10	1269.74
226.32	1253.36
226.53	1351.66
226.75	1222.64
226.97	1255.40
227.19	1228.78
227.41	1239.02
227.63	1296.36
227.85	1239.02
228.06	1263.60
228.28	1302.51
228.50	1247.21
228.72	1284.08
228.94	1284.08
229.16	1275.88
229.37	1257.45
229.59	1292.27
229.81	1288.17
230.03	1277.93
230.25	1251.31
230.47	1234.93
230.69	1261.55
230.90	1277.93
231.12	1218.54
231.34	1222.64
231.56	1380.33
231.78	1300.46
232.00	1206.25
232.21	1214.45
232.43	1284.08
232.65	1198.06
232.87	1337.32
233.09	1269.74
233.30	1259.50
233.52	1374.19
233.74	1239.02
233.96	1296.36
234.18	1298.41
234.40	1290.22
234.61	1284.08
234.83	1314.80
235.05	1210.35
235.27	1263.60
235.49	1374.19
235.70	1243.12
235.92	1284.08
236.14	1232.88
236.36	1329.13
236.58	1277.93
236.79	1196.01
237.01	1290.22
237.23	1253.36
237.45	1241.07
237.67	1259.50
237.88	1265.64
238.10	1333.23
238.32	1232.88
238.54	1277.93
238.76	1275.88
238.97	1243.12
239.19	1251.31
239.41	1253.36
239.63	1271.79
239.85	1304.56
240.06	1275.88
240.28	1325.04
240.50	1232.88
240.72	1300.46
240.93	1271.79
241.15	1247.21
241.37	1232.88
241.59	1249.26
241.81	1216.49
242.02	1294.32
242.24	1183.73
242.46	1286.12
242.68	1251.31
242.89	1249.26
243.11	1306.60
243.33	1327.08
243.55	1277.93
243.76	1265.64
243.98	1241.07
244.20	1349.61
244.42	1288.17
244.64	1261.55
244.85	1251.31
245.07	1296.36
245.29	1255.40
245.51	1298.41
245.72	1230.83
245.94	1277.93
246.16	1249.26
246.38	1241.07
246.59	1239.02
246.81	1161.20
247.03	1296.36
247.24	1249.26
247.46	1259.50
247.68	1318.89
247.90	1267.69
248.11	1273.84
248.33	1259.50
248.55	1247.21
248.77	1224.69
248.98	1345.52
249.20	1312.75
249.42	1318.89
249.64	1218.54
249.85	1261.55
250.07	1236.97
250.29	1265.64
250.50	1243.12
250.72	1226.73
250.94	1325.04
251.16	1261.55
251.37	1302.51
251.59	1232.88
251.81	1286.12
252.02	1355.76
252.24	1236.97
252.46	1267.69
252.68	1304.56
252.89	1234.93
253.11	1259.50
253.33	1306.60
253.54	1220.59
253.76	1288.17
253.98	1277.93
254.20	1241.07
254.41	1265.64
254.63	1269.74
254.85	1327.08
255.06	1206.25
255.28	1277.93
255.50	1224.69
255.71	1255.40
255.93	1255.40
256.15	1224.69
256.36	1269.74
256.58	1310.70
256.80	1267.69
257.02	1245.16
257.23	1282.03
257.45	1267.69
257.67	1306.60
257.88	1267.69
258.10	1208.30
258.32	1302.51
258.53	1306.60
258.75	1292.27
258.97	1212.40
259.18	1251.31
259.40	1253.36
259.62	1279.98
259.83	1218.54
260.05	1263.60
260.27	1320.94
260.48	1249.26
260.70	1284.08
260.92	1279.98
261.13	1302.51
261.35	1255.40
261.57	1271.79
261.78	1288.17
262.00	1284.08
262.22	1253.36
262.43	1220.59
262.65	1255.40
262.86	1298.41
263.08	1224.69
263.30	1284.08
263.51	1269.74
263.73	1308.65
263.95	1257.45
264.16	1271.79
264.38	1253.36
264.60	1282.03
264.81	1234.93
265.03	1263.60
265.25	1267.69
265.46	1284.08
265.68	1249.26
265.89	1216.49
266.11	1181.68
266.33	1277.93
266.54	1224.69
266.76	1368.04
266.98	1239.02
267.19	1314.80
267.41	1290.22
267.62	1251.31
267.84	1269.74
268.06	1300.46
268.27	1286.12
268.49	1228.78
268.70	1288.17
268.92	1290.22
269.14	1316.84
269.35	1296.36
269.57	1243.12
269.79	1275.88
270.00	1247.21
270.22	1249.26
270.43	1286.12
270.65	1177.58
270.87	1296.36
271.08	1277.93
271.30	1265.64
271.51	1255.40
271.73	1320.94
271.95	1257.45
272.16	1230.83
272.38	1232.88
272.59	1245.16
272.81	1271.79
273.02	1314.80
273.24	1230.83
273.46	1218.54
273.67	1306.60
273.89	1290.22
274.10	1230.83
274.32	1372.14
274.54	1269.74
274.75	1265.64
274.97	1206.25
275.18	1327.08
275.40	1275.88
275.61	1220.59
275.83	1279.98
276.05	1245.16
276.26	1292.27
276.48	1322.99
276.69	1263.60
276.91	1189.87
277.12	1259.50
277.34	1314.80
277.55	1249.26
277.77	1331.18
277.99	1265.64
278.20	1312.75
278.42	1228.78
278.63	1253.36
278.85	1329.13
279.06	1300.46
279.28	1292.27
279.49	1306.60
279.71	1232.88
279.93	1220.59
280.14	1245.16
280.36	1257.45
280.57	1335.28
280.79	1218.54
281.00	1275.88
281.22	1232.88
281.43	1202.16
281.65	1273.84
281.86	1259.50
282.08	1243.12
282.29	1269.74
282.51	1218.54
282.73	1230.83
282.94	1212.40
283.16	1236.97
283.37	1239.02
283.59	1243.12
283.80	1257.45
284.02	1249.26
284.23	1261.55
284.45	1214.45
284.66	1261.55
284.88	1239.02
285.09	1247.21
285.31	1193.97
285.52	1224.69
285.74	1279.98
285.95	1306.60
286.17	1316.84
286.38	1275.88
286.60	1329.13
286.81	1257.45
287.03	1247.21
287.24	1302.51
287.46	1298.41
287.67	1277.93
287.89	1245.16
288.10	1314.80
288.32	1222.64
288.53	1249.26
288.75	1239.02
288.96	1273.84
289.18	1312.75
289.39	1337.32
289.61	1337.32
289.82	1290.22
290.04	1271.79
290.25	1286.12
290.47	1296.36
290.68	1282.03
290.90	1277.93
291.11	1273.84
291.33	1290.22
291.54	1247.21
291.76	1273.84
291.97	1247.21
292.18	1378.28
292.40	1275.88
292.61	1263.60
292.83	1298.41
293.04	1259.50
293.26	1273.84
293.47	1335.28
293.69	1265.64
293.90	1261.55
294.12	1255.40
294.33	1232.88
294.55	1218.54
294.76	1259.50
294.97	1245.16
295.19	1275.88
295.40	1191.92
295.62	1239.02
295.83	1271.79
296.05	1230.83
296.26	1282.03
296.48	1275.88
296.69	1269.74
296.90	1286.12
297.12	1249.26
297.33	1234.93
297.55	1286.12
297.76	1304.56
297.98	1243.12
298.19	1298.41
298.41	1263.60
298.62	1253.36
298.83	1267.69
299.05	1261.55
299.26	1308.65
299.48	1279.98
299.69	1212.40
299.90	1302.51
300.12	1210.35
300.33	1224.69
300.55	1253.36
300.76	1255.40
300.98	1267.69
301.19	1277.93
301.40	1255.40
301.62	1327.08
301.83	1316.84
302.05	1368.04
302.26	1167.34
302.47	1210.35
302.69	1265.64
302.90	1167.34
303.12	1337.32
303.33	1339.37
303.54	1310.70
303.76	1247.21
303.97	1198.06
304.19	1306.60
304.40	1257.45
304.61	1271.79
304.83	1189.87
305.04	1257.45
305.26	1308.65
305.47	1290.22
305.68	1325.04
305.90	1255.40
306.11	1310.70
306.33	1302.51
306.54	1269.74
306.75	1234.93
306.97	1245.16
307.18	1271.79
307.39	1257.45
307.61	1290.22
307.82	1312.75
308.04	1288.17
308.25	1300.46
308.46	1253.36
308.68	1275.88
308.89	1216.49
309.10	1216.49
309.32	1243.12
309.53	1296.36
309.74	1236.97
309.96	1294.32
310.17	1277.93
310.39	1173.49
310.60	1275.88
310.81	1259.50
311.03	1288.17
311.24	1314.80
311.45	1300.46
311.67	1275.88
311.88	1226.73
312.09	1273.84
312.31	1273.84
312.52	1282.03
312.73	1253.36
312.95	1302.51
313.16	1284.08
313.37	1271.79
313.59	1269.74
313.80	1312.75
314.01	1208.30
314.23	1236.97
314.44	1243.12
314.65	1255.40
314.87	1208.30
315.08	1218.54
315.29	1259.50
315.51	1302.51
315.72	1232.88
315.93	1269.74
316.15	1310.70
316.36	1230.83
316.57	1196.01
316.79	1380.33
317.00	1191.92
317.21	1314.80
317.43	1239.02
317.64	1277.93
317.85	1259.50
318.07	1292.27
318.28	1267.69
318.49	1273.84
318.70	1271.79
318.92	1259.50
319.13	1249.26
319.34	1255.40
319.56	1241.07
319.77	1239.02
319.98	1286.12
320.20	1267.69
320.41	1261.55
320.62	1292.27
320.83	1337.32
321.05	1320.94
321.26	1267.69
321.47	1275.88
321.69	1239.02
321.90	1273.84
322.11	1279.98
322.32	1265.64
322.54	1275.88
322.75	1310.70
322.96	1273.84
323.18	1320.94
323.39	1265.64
323.60	1224.69
323.81	1361.90
324.03	1286.12
324.24	1234.93
324.45	1306.60
324.66	1282.03
324.88	1355.76
325.09	1308.65
325.30	1245.16
325.52	1257.45
325.73	1222.64
325.94	1310.70
326.15	1380.33
326.37	1353.71
326.58	1275.88
326.79	1310.70
327.00	1322.99
327.22	1253.36
327.43	1241.07
327.64	1273.84
327.85	1273.84
328.07	1206.25
328.28	1318.89
328.49	1255.40
328.70	1275.88
328.92	1249.26
329.13	1267.69
329.34	1306.60
329.55	1228.78
329.76	1298.41
329.98	1333.23
330.19	1251.31
330.40	1279.98
330.61	1277.93
330.83	1243.12
331.04	1224.69
331.25	1232.88
331.46	1259.50
331.68	1267.69
331.89	1351.66
332.10	1269.74
332.31	1269.74
332.52	1249.26
332.74	1212.40
332.95	1279.98
333.16	1279.98
333.37	1290.22
333.58	1257.45
333.80	1261.55
334.01	1312.75
334.22	1189.87
334.43	1263.60
334.64	1312.75
334.86	1279.98
335.07	1308.65
335.28	1302.51
335.49	1208.30
335.70	1273.84
335.92	1261.55
336.13	1347.56
336.34	1290.22
336.55	1265.64
336.76	1267.69
336.98	1294.32
337.19	1286.12
337.40	1294.32
337.61	1286.12
337.82	1312.75
338.04	1212.40
338.25	1275.88
338.46	1222.64
338.67	1282.03
338.88	1257.45
339.09	1259.50
339.31	1214.45
339.52	1310.70
339.73	1200.11
339.94	1335.28
340.15	1290.22
340.36	1316.84
340.58	1271.79
340.79	1255.40
341.00	1234.93
341.21	1267.69
341.42	1316.84
341.63	1312.75
341.85	1210.35
342.06	1261.55
342.27	1247.21
342.48	1296.36
342.69	1218.54
342.90	1220.59
343.12	1232.88
343.33	1249.26
343.54	1341.42
343.75	1253.36
343.96	1273.84
344.17	1228.78
344.38	1282.03
344.60	1273.84
344.81	1247.21
345.02	1282.03
345.23	1269.74
345.44	1245.16
345.65	1265.64
345.86	1253.36
346.07	1337.32
346.29	1308.65
346.50	1284.08
346.71	1236.97
346.92	1269.74
347.13	1277.93
347.34	1245.16
347.55	1265.64
347.76	1302.51
347.98	1224.69
348.19	1322.99
348.40	1269.74
348.61	1318.89
348.82	1230.83
349.03	1320.94
349.24	1318.89
349.45	1249.26
349.66	1269.74
349.88	1185.77
350.09	1279.98
350.30	1370.09
350.51	1271.79
350.72	1228.78
350.93	1290.22
351.14	1253.36
351.35	1314.80
351.56	1310.70
351.77	1222.64
351.99	1304.56
352.20	1294.32
352.41	1306.60
352.62	1302.51
352.83	1214.45
353.04	1261.55
353.25	1220.59
353.46	1230.83
353.67	1269.74
353.88	1279.98
354.09	1249.26
354.30	1265.64
354.52	1296.36
354.73	1265.64
354.94	1265.64
355.15	1329.13
355.36	1327.08
355.57	1220.59
355.78	1243.12
355.99	1269.74
356.20	1230.83
356.41	1337.32
356.62	1282.03
356.83	1220.59
357.04	1290.22
357.25	1239.02
357.46	1218.54
357.68	1245.16
357.89	1253.36
358.10	1202.16
358.31	1193.97
358.52	1304.56
358.73	1243.12
358.94	1224.69
359.15	1263.60
359.36	1337.32
359.57	1284.08
359.78	1306.60
359.99	1290.22
360.20	1290.22
360.41	1298.41
360.62	1292.27
360.83	1179.63
361.04	1251.31
361.25	1286.12
361.46	1249.26
361.67	1216.49
361.88	1265.64
362.09	1236.97
362.30	1288.17
362.51	1277.93
362.72	1269.74
362.93	1253.36
363.14	1259.50
363.35	1232.88
363.56	1308.65
363.78	1253.36
363.99	1275.88
364.20	1318.89
364.41	1294.32
364.62	1282.03
364.83	1322.99
365.04	1224.69
365.25	1249.26
365.46	1251.31
365.67	1134.57
365.88	1224.69
366.09	1273.84
366.30	1294.32
366.51	1251.31
366.72	1267.69
366.93	1183.73
367.14	1269.74
367.35	1370.09
367.56	1288.17
367.77	1249.26
367.98	1245.16
368.18	1290.22
368.39	1292.27
368.60	1243.12
368.81	1335.28
369.02	1288.17
369.23	1253.36
369.44	1286.12
369.65	1234.93
369.86	1222.64
370.07	1302.51
370.28	1261.55
370.49	1306.60
370.70	1347.56
370.91	1212.40
371.12	1257.45
371.33	1290.22
371.54	1251.31
371.75	1302.51
371.96	1279.98
372.17	1275.88
372.38	1308.65
372.59	1239.02
372.80	1320.94
373.01	1357.80
373.22	1200.11
373.43	1284.08
373.64	1216.49
373.85	1251.31
374.06	1304.56
374.26	1298.41
374.47	1224.69
374.68	1300.46
374.89	1265.64
375.10	1279.98
375.31	1306.60
375.52	1327.08
375.73	1337.32
375.94	1294.32
376.15	1337.32
376.36	1296.36
376.57	1282.03
376.78	1300.46
376.99	1255.40
377.20	1187.82
377.40	1214.45
377.61	1269.74
377.82	1294.32
378.03	1337.32
378.24	1236.97
378.45	1214.45
378.66	1335.28
378.87	1271.79
379.08	1304.56
379.29	1316.84
379.50	1220.59
379.71	1269.74
379.91	1263.60
380.12	1269.74
380.33	1302.51
380.54	1308.65
380.75	1314.80
380.96	1282.03
381.17	1183.73
381.38	1343.47
381.59	1257.45
381.80	1339.37
382.00	1243.12
382.21	1253.36
382.42	1271.79
382.63	1267.69
382.84	1216.49
383.05	1249.26
383.26	1200.11
383.47	1271.79
383.68	1230.83
383.88	1243.12
384.09	1290.22
384.30	1208.30
384.51	1241.07
384.72	1277.93
384.93	1232.88
385.14	1279.98
385.35	1228.78
385.55	1296.36
385.76	1308.65
385.97	1298.41
386.18	1236.97
386.39	1251.31
386.60	1259.50
386.81	1273.84
387.02	1310.70
387.22	1325.04
387.43	1255.40
387.64	1224.69
387.85	1255.40
388.06	1185.77
388.27	1247.21
388.48	1271.79
388.68	1226.73
388.89	1306.60
389.10	1284.08
389.31	1286.12
389.52	1288.17
389.73	1249.26
389.93	1241.07
390.14	1288.17
390.35	1320.94
390.56	1249.26
390.77	1265.64
390.98	1261.55
391.18	1222.64
391.39	1310.70
391.60	1263.60
391.81	1259.50
392.02	1263.60
392.23	1230.83
392.43	1279.98
392.64	1222.64
392.85	1269.74
393.06	1214.45
393.27	1331.18
393.47	1308.65
393.68	1347.56
393.89	1224.69
394.10	1230.83
394.31	1302.51
394.52	1345.52
394.72	1286.12
394.93	1320.94
395.14	1251.31
395.35	1255.40
395.56	1320.94
395.76	1249.26
395.97	1279.98
396.18	1292.27
396.39	1204.21
396.60	1277.93
396.80	1271.79
397.01	1273.84
397.22	1212.40
397.43	1257.45
397.64	1257.45
397.84	1306.60
398.05	1228.78
398.26	1226.73
398.47	1292.27
398.67	1298.41
398.88	1261.55
399.09	1239.02
399.30	1245.16
399.51	1271.79
399.71	1212.40
399.92	1216.49
400.13	1327.08
400.34	1277.93
400.54	1304.56
400.75	1320.94
400.96	1210.35
401.17	1259.50
401.37	1298.41
401.58	1253.36
401.79	1247.21
402.00	1279.98
402.21	1247.21
402.41	1284.08
402.62	1347.56
402.83	1230.83
403.04	1300.46
403.24	1308.65
403.45	1210.35
403.66	1239.02
403.87	1329.13
404.07	1271.79
404.28	1310.70
404.49	1263.60
404.70	1214.45
404.90	1277.93
405.11	1269.74
405.32	1296.36
405.52	1265.64
405.73	1277.93
405.94	1253.36
406.15	1318.89
406.35	1243.12
406.56	1236.97
406.77	1282.03
406.98	1320.94
407.18	1271.79
407.39	1247.21
407.60	1269.74
407.80	1230.83
408.01	1308.65
408.22	1273.84
408.43	1333.23
408.63	1261.55
408.84	1322.99
409.05	1361.90
409.25	1306.60
409.46	1284.08
409.67	1322.99
409.88	1288.17
410.08	1259.50
410.29	1251.31
410.50	1275.88
410.70	1253.36
410.91	1239.02
411.12	1230.83
411.32	1277.93
411.53	1296.36
411.74	1261.55
411.95	1218.54
412.15	1322.99
412.36	1382.38
412.57	1318.89
412.77	1298.41
412.98	1245.16
413.19	1284.08
413.39	1206.25
413.60	1282.03
413.81	1279.98
414.01	1263.60
414.22	1222.64
414.43	1386.47
414.63	1243.12
414.84	1259.50
415.05	1286.12
415.25	1271.79
415.46	1253.36
415.67	1267.69
415.87	1333.23
416.08	1275.88
416.29	1232.88
416.49	1306.60
416.70	1202.16
416.91	1267.69
417.11	1239.02
417.32	1232.88
417.53	1304.56
417.73	1273.84
417.94	1236.97
418.15	1247.21
418.35	1320.94
418.56	1220.59
418.77	1284.08
418.97	1245.16
419.18	1314.80
419.38	1212.40
419.59	1277.93
419.80	1275.88
420.00	1284.08
420.21	1218.54
420.42	1216.49
420.62	1320.94
420.83	1224.69
421.04	1331.18
421.24	1210.35
421.45	1310.70
421.65	1320.94
421.86	1243.12
422.07	1277.93
422.27	1312.75
422.48	1228.78
422.69	1247.21
422.89	1298.41
423.10	1255.40
423.30	1185.77
423.51	1271.79
423.72	1335.28
423.92	1241.07
424.13	1134.57
424.33	1171.44
424.54	1267.69
424.75	1249.26
424.95	1275.88
425.16	1236.97
425.36	1282.03
425.57	1259.50
425.78	1296.36
425.98	1277.93
426.19	1241.07
426.39	1308.65
426.60	1228.78
426.81	1232.88
427.01	1200.11
427.22	1298.41
427.42	1259.50
427.63	1247.21
427.83	1265.64
428.04	1325.04
428.25	1275.88
428.45	1198.06
428.66	1290.22
428.86	1273.84
429.07	1220.59
429.28	1263.60
429.48	1271.79
429.69	1286.12
429.89	1234.93
430.10	1337.32
430.30	1269.74
430.51	1290.22
430.71	1279.98
430.92	1329.13
431.13	1222.64
431.33	1253.36
431.54	1306.60
431.74	1314.80
431.95	1277.93
432.15	1224.69
432.36	1275.88
432.56	1267.69
432.77	1335.28
432.98	1306.60
433.18	1259.50
433.39	1245.16
433.59	1333.23
433.80	1296.36
434.00	1331.18
434.21	1220.59
434.41	1273.84
434.62	1320.94
434.82	1269.74
435.03	1331.18
435.23	1284.08
435.44	1290.22
435.64	1298.41
435.85	1355.76
436.06	1202.16
436.26	1273.84
436.47	1253.36
436.67	1318.89
436.88	1198.06
437.08	1198.06
437.29	1230.83
437.49	1269.74
437.70	1216.49
437.90	1284.08
438.11	1277.93
438.31	1243.12
438.52	1249.26
438.72	1253.36
438.93	1259.50
439.13	1230.83
439.34	1316.84
439.54	1294.32
439.75	1277.93
439.95	1261.55
440.16	1216.49
440.36	1241.07
440.57	1251.31
440.77	1251.31
440.98	1335.28
441.18	1310.70
441.39	1269.74
441.59	1302.51
441.80	1271.79
442.00	1286.12
442.21	1241.07
442.41	1339.37
442.62	1306.60
442.82	1273.84
443.02	1257.45
443.23	1308.65
443.43	1286.12
443.64	1279.98
443.84	1247.21
444.05	1267.69
444.25	1214.45
444.46	1329.13
444.66	1282.03
444.87	1310.70
445.07	1255.40
445.28	1255.40
445.48	1271.79
445.69	1320.94
445.89	1267.69
446.09	1253.36
446.30	1290.22
446.50	1298.41
446.71	1253.36
446.91	1241.07
447.12	1202.16
447.32	1304.56
447.53	1236.97
447.73	1294.32
447.93	1284.08
448.14	1339.37
448.34	1286.12
448.55	1322.99
448.75	1294.32
448.96	1357.80
449.16	1187.82
449.36	1259.50
449.57	1275.88
449.77	1320.94
449.98	1236.97
450.18	1349.61
450.39	1261.55
450.59	1257.45
450.79	1230.83
451.00	1232.88
451.20	1277.93
451.41	1279.98
451.61	1265.64
451.81	1302.51
452.02	1279.98
452.22	1241.07
452.43	1282.03
452.63	1265.64
