SpectraSuite Data File
++++++++++++++++++++++++++++++++++++
Date: Sun Apr 03 19:55:33 CEST 2016
User: root
Dark Spectrum Present: No
Reference Spectrum Present: No
Number of Sampled Component Spectra: 1
Spectrometers: USB4C02835
Integration Time (usec): 10000 (USB4C02835)
Spectra Averaged: 1 (USB4C02835)
Boxcar Smoothing: 0 (USB4C02835)
Correct for Electrical Dark: No (USB4C02835)
Strobe/Lamp Enabled: No (USB4C02835)
Correct for Detector Non-linearity: No (USB4C02835)
Correct for Stray Light: No (USB4C02835)
Number of Pixels in Processed Spectrum: 3648
>>>>>Begin Processed Spectral Data<<<<<
177.47	1275.88
177.69	1275.88
177.91	1275.88
178.13	1306.60
178.36	1226.73
178.58	1327.08
178.80	1277.93
179.02	1259.50
179.24	1310.70
179.46	1216.49
179.68	1304.56
179.90	1214.45
180.13	1230.83
180.35	1261.55
180.57	1306.60
180.79	1296.36
181.01	1320.94
181.23	1279.98
181.45	1325.04
181.67	1267.69
181.90	1234.93
182.12	1234.93
182.34	1349.61
182.56	1200.11
182.78	1300.46
183.00	1314.80
183.22	1298.41
183.44	1269.74
183.66	1269.74
183.89	1263.60
184.11	1239.02
184.33	1200.11
184.55	1241.07
184.77	1224.69
184.99	1286.12
185.21	1263.60
185.43	1226.73
185.65	1208.30
185.87	1269.74
186.10	1269.74
186.32	1230.83
186.54	1245.16
186.76	1329.13
186.98	1308.65
187.20	1366.00
187.42	1249.26
187.64	1273.84
187.86	1290.22
188.08	1273.84
188.30	1236.97
188.52	1206.25
188.75	1265.64
188.97	1277.93
189.19	1269.74
189.41	1232.88
189.63	1249.26
189.85	1206.25
190.07	1200.11
190.29	1282.03
190.51	1290.22
190.73	1210.35
190.95	1226.73
191.17	1214.45
191.39	1243.12
191.61	1277.93
191.84	1294.32
192.06	1236.97
192.28	1245.16
192.50	1339.37
192.72	1335.28
192.94	1206.25
193.16	1241.07
193.38	1234.93
193.60	1306.60
193.82	1282.03
194.04	1277.93
194.26	1275.88
194.48	1210.35
194.70	1310.70
194.92	1288.17
195.14	1355.76
195.36	1236.97
195.58	1288.17
195.80	1243.12
196.02	1271.79
196.24	1318.89
196.46	1228.78
196.69	1329.13
196.91	1241.07
197.13	1277.93
197.35	1357.80
197.57	1243.12
197.79	1320.94
198.01	1222.64
198.23	1296.36
198.45	1333.23
198.67	1265.64
198.89	1304.56
199.11	1279.98
199.33	1308.65
199.55	1351.66
199.77	1288.17
199.99	1251.31
200.21	1239.02
200.43	1359.85
200.65	1241.07
200.87	1279.98
201.09	1261.55
201.31	1247.21
201.53	1286.12
201.75	1273.84
201.97	1212.40
202.19	1247.21
202.41	1310.70
202.63	1318.89
202.85	1187.82
203.07	1177.58
203.29	1220.59
203.51	1241.07
203.73	1273.84
203.95	1277.93
204.17	1329.13
204.39	1261.55
204.61	1290.22
204.83	1259.50
205.05	1290.22
205.27	1292.27
205.49	1224.69
205.71	1294.32
205.93	1310.70
206.15	1277.93
206.37	1257.45
206.59	1343.47
206.81	1251.31
207.03	1279.98
207.25	1255.40
207.47	1341.42
207.69	1265.64
207.91	1275.88
208.13	1314.80
208.34	1249.26
208.56	1349.61
208.78	1292.27
209.00	1259.50
209.22	1224.69
209.44	1288.17
209.66	1320.94
209.88	1277.93
210.10	1298.41
210.32	1298.41
210.54	1288.17
210.76	1259.50
210.98	1288.17
211.20	1255.40
211.42	1257.45
211.64	1224.69
211.86	1298.41
212.08	1273.84
212.30	1304.56
212.52	1226.73
212.74	1273.84
212.96	1304.56
213.17	1337.32
213.39	1314.80
213.61	1220.59
213.83	1191.92
214.05	1296.36
214.27	1327.08
214.49	1200.11
214.71	1302.51
214.93	1296.36
215.15	1304.56
215.37	1183.73
215.59	1257.45
215.81	1298.41
216.03	1232.88
216.24	1271.79
216.46	1220.59
216.68	1337.32
216.90	1271.79
217.12	1282.03
217.34	1253.36
217.56	1263.60
217.78	1253.36
218.00	1298.41
218.22	1265.64
218.44	1333.23
218.66	1232.88
218.87	1239.02
219.09	1329.13
219.31	1325.04
219.53	1208.30
219.75	1290.22
219.97	1208.30
220.19	1282.03
220.41	1363.95
220.63	1277.93
220.85	1284.08
221.06	1284.08
221.28	1331.18
221.50	1241.07
221.72	1202.16
221.94	1224.69
222.16	1349.61
222.38	1282.03
222.60	1232.88
222.82	1222.64
223.03	1312.75
223.25	1273.84
223.47	1271.79
223.69	1263.60
223.91	1202.16
224.13	1292.27
224.35	1290.22
224.57	1304.56
224.78	1312.75
225.00	1261.55
225.22	1236.97
225.44	1257.45
225.66	1275.88
225.88	1331.18
226.10	1339.37
226.32	1271.79
226.53	1249.26
226.75	1314.80
226.97	1325.04
227.19	1243.12
227.41	1284.08
227.63	1333.23
227.85	1206.25
228.06	1298.41
228.28	1267.69
228.50	1296.36
228.72	1216.49
228.94	1243.12
229.16	1257.45
229.37	1257.45
229.59	1253.36
229.81	1261.55
230.03	1155.05
230.25	1282.03
230.47	1275.88
230.69	1316.84
230.90	1335.28
231.12	1320.94
231.34	1224.69
231.56	1220.59
231.78	1357.80
232.00	1277.93
232.21	1306.60
232.43	1335.28
232.65	1230.83
232.87	1337.32
233.09	1259.50
233.30	1275.88
233.52	1253.36
233.74	1286.12
233.96	1224.69
234.18	1296.36
234.40	1308.65
234.61	1191.92
234.83	1318.89
235.05	1247.21
235.27	1261.55
235.49	1333.23
235.70	1331.18
235.92	1263.60
236.14	1234.93
236.36	1282.03
236.58	1226.73
236.79	1302.51
237.01	1257.45
237.23	1279.98
237.45	1224.69
237.67	1273.84
237.88	1275.88
238.10	1261.55
238.32	1198.06
238.54	1308.65
238.76	1261.55
238.97	1245.16
239.19	1228.78
239.41	1228.78
239.63	1302.51
239.85	1284.08
240.06	1306.60
240.28	1308.65
240.50	1187.82
240.72	1277.93
240.93	1308.65
241.15	1277.93
241.37	1259.50
241.59	1282.03
241.81	1247.21
242.02	1208.30
242.24	1269.74
242.46	1314.80
242.68	1230.83
242.89	1320.94
243.11	1251.31
243.33	1253.36
243.55	1265.64
243.76	1269.74
243.98	1210.35
244.20	1263.60
244.42	1294.32
244.64	1259.50
244.85	1286.12
245.07	1292.27
245.29	1243.12
245.51	1236.97
245.72	1243.12
245.94	1290.22
246.16	1263.60
246.38	1251.31
246.59	1320.94
246.81	1249.26
247.03	1200.11
247.24	1337.32
247.46	1226.73
247.68	1273.84
247.90	1279.98
248.11	1298.41
248.33	1277.93
248.55	1320.94
248.77	1359.85
248.98	1249.26
249.20	1239.02
249.42	1312.75
249.64	1218.54
249.85	1314.80
250.07	1267.69
250.29	1282.03
250.50	1243.12
250.72	1286.12
250.94	1290.22
251.16	1306.60
251.37	1241.07
251.59	1306.60
251.81	1314.80
252.02	1279.98
252.24	1318.89
252.46	1286.12
252.68	1241.07
252.89	1267.69
253.11	1282.03
253.33	1335.28
253.54	1249.26
253.76	1216.49
253.98	1312.75
254.20	1265.64
254.41	1277.93
254.63	1279.98
254.85	1234.93
255.06	1286.12
255.28	1290.22
255.50	1312.75
255.71	1241.07
255.93	1312.75
256.15	1251.31
256.36	1200.11
256.58	1308.65
256.80	1228.78
257.02	1177.58
257.23	1271.79
257.45	1337.32
257.67	1234.93
257.88	1243.12
258.10	1273.84
258.32	1214.45
258.53	1294.32
258.75	1236.97
258.97	1247.21
259.18	1267.69
259.40	1253.36
259.62	1288.17
259.83	1239.02
260.05	1216.49
260.27	1282.03
260.48	1316.84
260.70	1257.45
260.92	1216.49
261.13	1294.32
261.35	1263.60
261.57	1220.59
261.78	1298.41
262.00	1239.02
262.22	1306.60
262.43	1261.55
262.65	1243.12
262.86	1314.80
263.08	1255.40
263.30	1226.73
263.51	1257.45
263.73	1290.22
263.95	1263.60
264.16	1296.36
264.38	1271.79
264.60	1273.84
264.81	1329.13
265.03	1255.40
265.25	1286.12
265.46	1198.06
265.68	1261.55
265.89	1234.93
266.11	1339.37
266.33	1263.60
266.54	1226.73
266.76	1312.75
266.98	1282.03
267.19	1308.65
267.41	1226.73
267.62	1300.46
267.84	1255.40
268.06	1261.55
268.27	1263.60
268.49	1228.78
268.70	1273.84
268.92	1308.65
269.14	1257.45
269.35	1308.65
269.57	1193.97
269.79	1300.46
270.00	1267.69
270.22	1318.89
270.43	1292.27
270.65	1214.45
270.87	1277.93
271.08	1275.88
271.30	1263.60
271.51	1181.68
271.73	1230.83
271.95	1306.60
272.16	1228.78
272.38	1218.54
272.59	1277.93
272.81	1200.11
273.02	1275.88
273.24	1247.21
273.46	1337.32
273.67	1322.99
273.89	1210.35
274.10	1210.35
274.32	1286.12
274.54	1286.12
274.75	1284.08
274.97	1318.89
275.18	1259.50
275.40	1245.16
275.61	1265.64
275.83	1277.93
276.05	1320.94
276.26	1263.60
276.48	1286.12
276.69	1306.60
276.91	1304.56
277.12	1208.30
277.34	1251.31
277.55	1277.93
277.77	1292.27
277.99	1243.12
278.20	1251.31
278.42	1249.26
278.63	1277.93
278.85	1296.36
279.06	1249.26
279.28	1234.93
279.49	1273.84
279.71	1282.03
279.93	1339.37
280.14	1253.36
280.36	1345.52
280.57	1210.35
280.79	1265.64
281.00	1273.84
281.22	1312.75
281.43	1277.93
281.65	1302.51
281.86	1265.64
282.08	1300.46
282.29	1331.18
282.51	1286.12
282.73	1292.27
282.94	1247.21
283.16	1218.54
283.37	1222.64
283.59	1247.21
283.80	1339.37
284.02	1218.54
284.23	1226.73
284.45	1228.78
284.66	1300.46
284.88	1226.73
285.09	1335.28
285.31	1302.51
285.52	1257.45
285.74	1271.79
285.95	1277.93
286.17	1294.32
286.38	1275.88
286.60	1363.95
286.81	1220.59
287.03	1265.64
287.24	1263.60
287.46	1265.64
287.67	1243.12
287.89	1279.98
288.10	1322.99
288.32	1265.64
288.53	1318.89
288.75	1298.41
288.96	1228.78
289.18	1257.45
289.39	1232.88
289.61	1171.44
289.82	1267.69
290.04	1220.59
290.25	1241.07
290.47	1288.17
290.68	1255.40
290.90	1345.52
291.11	1191.92
291.33	1349.61
291.54	1271.79
291.76	1265.64
291.97	1247.21
292.18	1193.97
292.40	1265.64
292.61	1349.61
292.83	1302.51
293.04	1224.69
293.26	1189.87
293.47	1226.73
293.69	1320.94
293.90	1259.50
294.12	1259.50
294.33	1277.93
294.55	1296.36
294.76	1306.60
294.97	1302.51
295.19	1230.83
295.40	1265.64
295.62	1288.17
295.83	1216.49
296.05	1300.46
296.26	1275.88
296.48	1196.01
296.69	1230.83
296.90	1290.22
297.12	1210.35
297.33	1269.74
297.55	1267.69
297.76	1263.60
297.98	1333.23
298.19	1286.12
298.41	1247.21
298.62	1236.97
298.83	1216.49
299.05	1333.23
299.26	1239.02
299.48	1239.02
299.69	1230.83
299.90	1263.60
300.12	1249.26
300.33	1300.46
300.55	1294.32
300.76	1198.06
300.98	1290.22
301.19	1308.65
301.40	1298.41
301.62	1314.80
301.83	1220.59
302.05	1316.84
302.26	1257.45
302.47	1253.36
302.69	1265.64
302.90	1253.36
303.12	1284.08
303.33	1302.51
303.54	1261.55
303.76	1191.92
303.97	1310.70
304.19	1261.55
304.40	1273.84
304.61	1288.17
304.83	1277.93
305.04	1290.22
305.26	1253.36
305.47	1331.18
305.68	1282.03
305.90	1304.56
306.11	1327.08
306.33	1277.93
306.54	1316.84
306.75	1284.08
306.97	1308.65
307.18	1259.50
307.39	1308.65
307.61	1210.35
307.82	1327.08
308.04	1228.78
308.25	1298.41
308.46	1312.75
308.68	1300.46
308.89	1316.84
309.10	1282.03
309.32	1247.21
309.53	1236.97
309.74	1284.08
309.96	1236.97
310.17	1226.73
310.39	1277.93
310.60	1224.69
310.81	1255.40
311.03	1316.84
311.24	1275.88
311.45	1277.93
311.67	1312.75
311.88	1337.32
312.09	1327.08
312.31	1196.01
312.52	1290.22
312.73	1277.93
312.95	1298.41
313.16	1249.26
313.37	1228.78
313.59	1290.22
313.80	1232.88
314.01	1318.89
314.23	1220.59
314.44	1259.50
314.65	1265.64
314.87	1261.55
315.08	1331.18
315.29	1322.99
315.51	1206.25
315.72	1269.74
315.93	1196.01
316.15	1198.06
316.36	1343.47
316.57	1259.50
316.79	1257.45
317.00	1302.51
317.21	1245.16
317.43	1241.07
317.64	1316.84
317.85	1249.26
318.07	1290.22
318.28	1304.56
318.49	1267.69
318.70	1290.22
318.92	1288.17
319.13	1257.45
319.34	1275.88
319.56	1302.51
319.77	1212.40
319.98	1277.93
320.20	1290.22
320.41	1343.47
320.62	1390.57
320.83	1253.36
321.05	1306.60
321.26	1357.80
321.47	1304.56
321.69	1282.03
321.90	1200.11
322.11	1325.04
322.32	1265.64
322.54	1372.14
322.75	1222.64
322.96	1245.16
323.18	1269.74
323.39	1269.74
323.60	1206.25
323.81	1288.17
324.03	1206.25
324.24	1220.59
324.45	1292.27
324.66	1234.93
324.88	1245.16
325.09	1269.74
325.30	1236.97
325.52	1269.74
325.73	1230.83
325.94	1288.17
326.15	1282.03
326.37	1249.26
326.58	1273.84
326.79	1265.64
327.00	1269.74
327.22	1261.55
327.43	1181.68
327.64	1279.98
327.85	1224.69
328.07	1263.60
328.28	1216.49
328.49	1261.55
328.70	1228.78
328.92	1273.84
329.13	1245.16
329.34	1230.83
329.55	1251.31
329.76	1273.84
329.98	1224.69
330.19	1261.55
330.40	1265.64
330.61	1271.79
330.83	1208.30
331.04	1232.88
331.25	1251.31
331.46	1302.51
331.68	1306.60
331.89	1298.41
332.10	1267.69
332.31	1267.69
332.52	1286.12
332.74	1329.13
332.95	1263.60
333.16	1312.75
333.37	1253.36
333.58	1267.69
333.80	1224.69
334.01	1243.12
334.22	1247.21
334.43	1259.50
334.64	1222.64
334.86	1288.17
335.07	1196.01
335.28	1308.65
335.49	1273.84
335.70	1265.64
335.92	1310.70
336.13	1220.59
336.34	1161.20
336.55	1282.03
336.76	1269.74
336.98	1308.65
337.19	1282.03
337.40	1243.12
337.61	1333.23
337.82	1261.55
338.04	1286.12
338.25	1325.04
338.46	1224.69
338.67	1269.74
338.88	1253.36
339.09	1257.45
339.31	1263.60
339.52	1298.41
339.73	1249.26
339.94	1267.69
340.15	1239.02
340.36	1294.32
340.58	1214.45
340.79	1304.56
341.00	1253.36
341.21	1273.84
341.42	1222.64
341.63	1292.27
341.85	1236.97
342.06	1288.17
342.27	1216.49
342.48	1302.51
342.69	1271.79
342.90	1314.80
343.12	1296.36
343.33	1228.78
343.54	1173.49
343.75	1273.84
343.96	1282.03
344.17	1200.11
344.38	1265.64
344.60	1236.97
344.81	1255.40
345.02	1241.07
345.23	1228.78
345.44	1236.97
345.65	1257.45
345.86	1282.03
346.07	1255.40
346.29	1224.69
346.50	1277.93
346.71	1404.91
346.92	1255.40
347.13	1284.08
347.34	1249.26
347.55	1271.79
347.76	1275.88
347.98	1286.12
348.19	1331.18
348.40	1243.12
348.61	1267.69
348.82	1325.04
349.03	1249.26
349.24	1282.03
349.45	1263.60
349.66	1255.40
349.88	1269.74
350.09	1224.69
350.30	1277.93
350.51	1222.64
350.72	1345.52
350.93	1226.73
351.14	1286.12
351.35	1273.84
351.56	1269.74
351.77	1187.82
351.99	1314.80
352.20	1204.21
352.41	1333.23
352.62	1251.31
352.83	1316.84
353.04	1232.88
353.25	1273.84
353.46	1286.12
353.67	1322.99
353.88	1263.60
354.09	1214.45
354.30	1325.04
354.52	1322.99
354.73	1335.28
354.94	1241.07
355.15	1282.03
355.36	1310.70
355.57	1249.26
355.78	1292.27
355.99	1282.03
356.20	1290.22
356.41	1282.03
356.62	1335.28
356.83	1314.80
357.04	1279.98
357.25	1222.64
357.46	1286.12
357.68	1300.46
357.89	1298.41
358.10	1179.63
358.31	1265.64
358.52	1265.64
358.73	1196.01
358.94	1259.50
359.15	1267.69
359.36	1251.31
359.57	1335.28
359.78	1279.98
359.99	1239.02
360.20	1222.64
360.41	1243.12
360.62	1284.08
360.83	1286.12
361.04	1286.12
361.25	1222.64
361.46	1214.45
361.67	1236.97
361.88	1253.36
362.09	1310.70
362.30	1208.30
362.51	1212.40
362.72	1347.56
362.93	1290.22
363.14	1202.16
363.35	1290.22
363.56	1288.17
363.78	1259.50
363.99	1265.64
364.20	1251.31
364.41	1292.27
364.62	1265.64
364.83	1249.26
365.04	1271.79
365.25	1298.41
365.46	1331.18
365.67	1236.97
365.88	1273.84
366.09	1284.08
366.30	1335.28
366.51	1294.32
366.72	1396.71
366.93	1292.27
367.14	1265.64
367.35	1288.17
367.56	1241.07
367.77	1314.80
367.98	1308.65
368.18	1267.69
368.39	1265.64
368.60	1269.74
368.81	1255.40
369.02	1263.60
369.23	1259.50
369.44	1306.60
369.65	1329.13
369.86	1286.12
370.07	1241.07
370.28	1243.12
370.49	1271.79
370.70	1298.41
370.91	1234.93
371.12	1259.50
371.33	1347.56
371.54	1286.12
371.75	1298.41
371.96	1216.49
372.17	1253.36
372.38	1263.60
372.59	1316.84
372.80	1255.40
373.01	1294.32
373.22	1245.16
373.43	1292.27
373.64	1208.30
373.85	1241.07
374.06	1245.16
374.26	1294.32
374.47	1214.45
374.68	1239.02
374.89	1210.35
375.10	1245.16
375.31	1279.98
375.52	1327.08
375.73	1269.74
375.94	1241.07
376.15	1329.13
376.36	1249.26
376.57	1239.02
376.78	1259.50
376.99	1222.64
377.20	1298.41
377.40	1316.84
377.61	1279.98
377.82	1286.12
378.03	1286.12
378.24	1267.69
378.45	1259.50
378.66	1230.83
378.87	1212.40
379.08	1228.78
379.29	1255.40
379.50	1249.26
379.71	1282.03
379.91	1259.50
380.12	1363.95
380.33	1325.04
380.54	1271.79
380.75	1331.18
380.96	1279.98
381.17	1310.70
381.38	1247.21
381.59	1343.47
381.80	1314.80
382.00	1279.98
382.21	1302.51
382.42	1245.16
382.63	1290.22
382.84	1232.88
383.05	1263.60
383.26	1282.03
383.47	1257.45
383.68	1247.21
383.88	1198.06
384.09	1271.79
384.30	1267.69
384.51	1308.65
384.72	1279.98
384.93	1318.89
385.14	1236.97
385.35	1245.16
385.55	1316.84
385.76	1265.64
385.97	1187.82
386.18	1304.56
386.39	1239.02
386.60	1265.64
386.81	1241.07
387.02	1241.07
387.22	1298.41
387.43	1265.64
387.64	1318.89
387.85	1308.65
388.06	1261.55
388.27	1247.21
388.48	1292.27
388.68	1279.98
388.89	1288.17
389.10	1239.02
389.31	1277.93
389.52	1312.75
389.73	1345.52
389.93	1251.31
390.14	1331.18
390.35	1312.75
390.56	1257.45
390.77	1234.93
390.98	1267.69
391.18	1304.56
391.39	1243.12
391.60	1279.98
391.81	1269.74
392.02	1282.03
392.23	1249.26
392.43	1308.65
392.64	1224.69
392.85	1198.06
393.06	1343.47
393.27	1271.79
393.47	1267.69
393.68	1302.51
393.89	1253.36
394.10	1212.40
394.31	1230.83
394.52	1343.47
394.72	1210.35
394.93	1206.25
395.14	1247.21
395.35	1241.07
395.56	1282.03
395.76	1230.83
395.97	1300.46
396.18	1288.17
396.39	1320.94
396.60	1298.41
396.80	1339.37
397.01	1236.97
397.22	1331.18
397.43	1284.08
397.64	1198.06
397.84	1218.54
398.05	1267.69
398.26	1261.55
398.47	1320.94
398.67	1320.94
398.88	1267.69
399.09	1290.22
399.30	1239.02
399.51	1288.17
399.71	1239.02
399.92	1318.89
400.13	1206.25
400.34	1224.69
400.54	1212.40
400.75	1294.32
400.96	1286.12
401.17	1345.52
401.37	1255.40
401.58	1261.55
401.79	1212.40
402.00	1327.08
402.21	1224.69
402.41	1351.66
402.62	1216.49
402.83	1277.93
403.04	1261.55
403.24	1286.12
403.45	1212.40
403.66	1273.84
403.87	1286.12
404.07	1236.97
404.28	1286.12
404.49	1230.83
404.70	1165.29
404.90	1329.13
405.11	1318.89
405.32	1265.64
405.52	1243.12
405.73	1290.22
405.94	1224.69
406.15	1259.50
406.35	1271.79
406.56	1318.89
406.77	1294.32
406.98	1284.08
407.18	1249.26
407.39	1222.64
407.60	1171.44
407.80	1232.88
408.01	1259.50
408.22	1329.13
408.43	1310.70
408.63	1249.26
408.84	1208.30
409.05	1265.64
409.25	1261.55
409.46	1292.27
409.67	1230.83
409.88	1239.02
410.08	1236.97
410.29	1255.40
410.50	1245.16
410.70	1175.53
410.91	1249.26
411.12	1290.22
411.32	1255.40
411.53	1310.70
411.74	1267.69
411.95	1279.98
412.15	1284.08
412.36	1316.84
412.57	1265.64
412.77	1253.36
412.98	1284.08
413.19	1302.51
413.39	1267.69
413.60	1267.69
413.81	1165.29
414.01	1284.08
414.22	1220.59
414.43	1312.75
414.63	1271.79
414.84	1273.84
415.05	1327.08
415.25	1263.60
415.46	1210.35
415.67	1312.75
415.87	1282.03
416.08	1253.36
416.29	1257.45
416.49	1247.21
416.70	1279.98
416.91	1255.40
417.11	1257.45
417.32	1243.12
417.53	1253.36
417.73	1253.36
417.94	1214.45
418.15	1263.60
418.35	1298.41
418.56	1257.45
418.77	1290.22
418.97	1296.36
419.18	1206.25
419.38	1302.51
419.59	1292.27
419.80	1292.27
420.00	1247.21
420.21	1277.93
420.42	1314.80
420.62	1343.47
420.83	1228.78
421.04	1279.98
421.24	1279.98
421.45	1273.84
421.65	1216.49
421.86	1259.50
422.07	1322.99
422.27	1294.32
422.48	1296.36
422.69	1288.17
422.89	1257.45
423.10	1282.03
423.30	1290.22
423.51	1310.70
423.72	1282.03
423.92	1230.83
424.13	1273.84
424.33	1230.83
424.54	1257.45
424.75	1241.07
424.95	1304.56
425.16	1304.56
425.36	1249.26
425.57	1286.12
425.78	1191.92
425.98	1290.22
426.19	1226.73
426.39	1239.02
426.60	1259.50
426.81	1282.03
427.01	1277.93
427.22	1292.27
427.42	1204.21
427.63	1310.70
427.83	1247.21
428.04	1251.31
428.25	1300.46
428.45	1206.25
428.66	1292.27
428.86	1312.75
429.07	1249.26
429.28	1312.75
429.48	1189.87
429.69	1200.11
429.89	1298.41
430.10	1208.30
430.30	1275.88
430.51	1325.04
430.71	1339.37
430.92	1294.32
431.13	1241.07
431.33	1269.74
431.54	1216.49
431.74	1296.36
431.95	1304.56
432.15	1308.65
432.36	1261.55
432.56	1284.08
432.77	1165.29
432.98	1249.26
433.18	1298.41
433.39	1261.55
433.59	1253.36
433.80	1234.93
434.00	1286.12
434.21	1314.80
434.41	1333.23
434.62	1282.03
434.82	1271.79
435.03	1269.74
435.23	1234.93
435.44	1294.32
435.64	1261.55
435.85	1290.22
436.06	1333.23
436.26	1333.23
436.47	1226.73
436.67	1306.60
436.88	1247.21
437.08	1263.60
437.29	1253.36
437.49	1267.69
437.70	1269.74
437.90	1294.32
438.11	1220.59
438.31	1253.36
438.52	1282.03
438.72	1253.36
438.93	1288.17
439.13	1234.93
439.34	1265.64
439.54	1153.01
439.75	1220.59
439.95	1306.60
440.16	1294.32
440.36	1232.88
440.57	1343.47
440.77	1247.21
440.98	1249.26
441.18	1308.65
441.39	1322.99
441.59	1232.88
441.80	1329.13
442.00	1243.12
442.21	1288.17
442.41	1265.64
442.62	1296.36
442.82	1298.41
443.02	1275.88
443.23	1222.64
443.43	1273.84
443.64	1290.22
443.84	1275.88
444.05	1239.02
444.25	1279.98
444.46	1290.22
444.66	1212.40
444.87	1271.79
445.07	1247.21
445.28	1273.84
445.48	1228.78
445.69	1292.27
445.89	1267.69
446.09	1247.21
446.30	1314.80
446.50	1345.52
446.71	1273.84
446.91	1286.12
447.12	1257.45
447.32	1232.88
447.53	1261.55
447.73	1234.93
447.93	1218.54
448.14	1327.08
448.34	1279.98
448.55	1320.94
448.75	1286.12
448.96	1302.51
449.16	1267.69
449.36	1277.93
449.57	1318.89
449.77	1243.12
449.98	1277.93
450.18	1286.12
450.39	1363.95
450.59	1255.40
450.79	1282.03
451.00	1312.75
451.20	1267.69
451.41	1339.37
451.61	1275.88
451.81	1265.64
452.02	1251.31
452.22	1259.50
452.43	1296.36
452.63	1302.51
