SpectraSuite Data File
++++++++++++++++++++++++++++++++++++
Date: Sun Apr 03 19:55:53 CEST 2016
User: root
Dark Spectrum Present: No
Reference Spectrum Present: No
Number of Sampled Component Spectra: 1
Spectrometers: USB4C02835
Integration Time (usec): 10000 (USB4C02835)
Spectra Averaged: 1 (USB4C02835)
Boxcar Smoothing: 0 (USB4C02835)
Correct for Electrical Dark: No (USB4C02835)
Strobe/Lamp Enabled: No (USB4C02835)
Correct for Detector Non-linearity: No (USB4C02835)
Correct for Stray Light: No (USB4C02835)
Number of Pixels in Processed Spectrum: 3648
>>>>>Begin Processed Spectral Data<<<<<
177.47	1155.05
177.69	1155.05
177.91	1155.05
178.13	1271.79
178.36	1282.03
178.58	1263.60
178.80	1247.21
179.02	1230.83
179.24	1218.54
179.46	1198.06
179.68	1271.79
179.90	1202.16
180.13	1275.88
180.35	1198.06
180.57	1290.22
180.79	1243.12
181.01	1228.78
181.23	1312.75
181.45	1239.02
181.67	1290.22
181.90	1222.64
182.12	1288.17
182.34	1257.45
182.56	1275.88
182.78	1232.88
183.00	1279.98
183.22	1279.98
183.44	1265.64
183.66	1282.03
183.89	1298.41
184.11	1269.74
184.33	1189.87
184.55	1314.80
184.77	1339.37
184.99	1167.34
185.21	1267.69
185.43	1290.22
185.65	1251.31
185.87	1232.88
186.10	1239.02
186.32	1232.88
186.54	1316.84
186.76	1236.97
186.98	1257.45
187.20	1261.55
187.42	1277.93
187.64	1310.70
187.86	1220.59
188.08	1298.41
188.30	1290.22
188.52	1232.88
188.75	1286.12
188.97	1241.07
189.19	1282.03
189.41	1204.21
189.63	1267.69
189.85	1286.12
190.07	1320.94
190.29	1253.36
190.51	1224.69
190.73	1212.40
190.95	1230.83
191.17	1279.98
191.39	1302.51
191.61	1253.36
191.84	1224.69
192.06	1357.80
192.28	1224.69
192.50	1269.74
192.72	1228.78
192.94	1241.07
193.16	1216.49
193.38	1222.64
193.60	1193.97
193.82	1327.08
194.04	1296.36
194.26	1214.45
194.48	1277.93
194.70	1245.16
194.92	1185.77
195.14	1196.01
195.36	1257.45
195.58	1224.69
195.80	1279.98
196.02	1271.79
196.24	1247.21
196.46	1265.64
196.69	1239.02
196.91	1234.93
197.13	1273.84
197.35	1275.88
197.57	1282.03
197.79	1300.46
198.01	1222.64
198.23	1294.32
198.45	1236.97
198.67	1273.84
198.89	1290.22
199.11	1257.45
199.33	1202.16
199.55	1239.02
199.77	1204.21
199.99	1298.41
200.21	1249.26
200.43	1232.88
200.65	1253.36
200.87	1243.12
201.09	1314.80
201.31	1232.88
201.53	1302.51
201.75	1196.01
201.97	1189.87
202.19	1259.50
202.41	1273.84
202.63	1298.41
202.85	1275.88
203.07	1232.88
203.29	1349.61
203.51	1314.80
203.73	1286.12
203.95	1222.64
204.17	1333.23
204.39	1314.80
204.61	1179.63
204.83	1331.18
205.05	1251.31
205.27	1363.95
205.49	1226.73
205.71	1255.40
205.93	1269.74
206.15	1169.39
206.37	1312.75
206.59	1292.27
206.81	1222.64
207.03	1236.97
207.25	1316.84
207.47	1298.41
207.69	1232.88
207.91	1269.74
208.13	1253.36
208.34	1247.21
208.56	1269.74
208.78	1230.83
209.00	1345.52
209.22	1243.12
209.44	1267.69
209.66	1320.94
209.88	1236.97
210.10	1279.98
210.32	1226.73
210.54	1251.31
210.76	1204.21
210.98	1193.97
211.20	1271.79
211.42	1269.74
211.64	1228.78
211.86	1249.26
212.08	1257.45
212.30	1284.08
212.52	1239.02
212.74	1198.06
212.96	1290.22
213.17	1263.60
213.39	1232.88
213.61	1263.60
213.83	1226.73
214.05	1259.50
214.27	1290.22
214.49	1312.75
214.71	1308.65
214.93	1232.88
215.15	1263.60
215.37	1234.93
215.59	1257.45
215.81	1325.04
216.03	1228.78
216.24	1251.31
216.46	1196.01
216.68	1198.06
216.90	1277.93
217.12	1296.36
217.34	1304.56
217.56	1210.35
217.78	1208.30
218.00	1314.80
218.22	1245.16
218.44	1302.51
218.66	1226.73
218.87	1320.94
219.09	1202.16
219.31	1282.03
219.53	1339.37
219.75	1314.80
219.97	1265.64
220.19	1251.31
220.41	1230.83
220.63	1314.80
220.85	1292.27
221.06	1253.36
221.28	1230.83
221.50	1275.88
221.72	1245.16
221.94	1239.02
222.16	1234.93
222.38	1269.74
222.60	1294.32
222.82	1222.64
223.03	1232.88
223.25	1288.17
223.47	1193.97
223.69	1271.79
223.91	1239.02
224.13	1282.03
224.35	1339.37
224.57	1263.60
224.78	1220.59
225.00	1294.32
225.22	1257.45
225.44	1255.40
225.66	1234.93
225.88	1255.40
226.10	1304.56
226.32	1300.46
226.53	1247.21
226.75	1282.03
226.97	1257.45
227.19	1232.88
227.41	1226.73
227.63	1318.89
227.85	1232.88
228.06	1316.84
228.28	1243.12
228.50	1257.45
228.72	1204.21
228.94	1228.78
229.16	1224.69
229.37	1288.17
229.59	1212.40
229.81	1267.69
230.03	1271.79
230.25	1275.88
230.47	1224.69
230.69	1234.93
230.90	1234.93
231.12	1259.50
231.34	1269.74
231.56	1306.60
231.78	1306.60
232.00	1243.12
232.21	1249.26
232.43	1241.07
232.65	1267.69
232.87	1284.08
233.09	1273.84
233.30	1226.73
233.52	1187.82
233.74	1224.69
233.96	1259.50
234.18	1253.36
234.40	1198.06
234.61	1353.71
234.83	1249.26
235.05	1224.69
235.27	1282.03
235.49	1325.04
235.70	1210.35
235.92	1263.60
236.14	1234.93
236.36	1290.22
236.58	1306.60
236.79	1216.49
237.01	1310.70
237.23	1259.50
237.45	1243.12
237.67	1259.50
237.88	1290.22
238.10	1292.27
238.32	1261.55
238.54	1267.69
238.76	1228.78
238.97	1263.60
239.19	1232.88
239.41	1245.16
239.63	1200.11
239.85	1279.98
240.06	1277.93
240.28	1247.21
240.50	1284.08
240.72	1275.88
240.93	1177.58
241.15	1273.84
241.37	1288.17
241.59	1279.98
241.81	1269.74
242.02	1263.60
242.24	1255.40
242.46	1273.84
242.68	1273.84
242.89	1304.56
243.11	1306.60
243.33	1288.17
243.55	1251.31
243.76	1273.84
243.98	1245.16
244.20	1273.84
244.42	1224.69
244.64	1206.25
244.85	1241.07
245.07	1245.16
245.29	1255.40
245.51	1259.50
245.72	1253.36
245.94	1314.80
246.16	1220.59
246.38	1234.93
246.59	1286.12
246.81	1241.07
247.03	1294.32
247.24	1255.40
247.46	1333.23
247.68	1261.55
247.90	1255.40
248.11	1226.73
248.33	1247.21
248.55	1208.30
248.77	1210.35
248.98	1304.56
249.20	1226.73
249.42	1249.26
249.64	1239.02
249.85	1318.89
250.07	1249.26
250.29	1259.50
250.50	1279.98
250.72	1337.32
250.94	1300.46
251.16	1312.75
251.37	1261.55
251.59	1198.06
251.81	1306.60
252.02	1269.74
252.24	1222.64
252.46	1241.07
252.68	1230.83
252.89	1341.42
253.11	1220.59
253.33	1294.32
253.54	1236.97
253.76	1222.64
253.98	1302.51
254.20	1251.31
254.41	1298.41
254.63	1341.42
254.85	1257.45
255.06	1249.26
255.28	1253.36
255.50	1343.47
255.71	1257.45
255.93	1196.01
256.15	1269.74
256.36	1257.45
256.58	1302.51
256.80	1298.41
257.02	1216.49
257.23	1251.31
257.45	1226.73
257.67	1288.17
257.88	1202.16
258.10	1249.26
258.32	1296.36
258.53	1257.45
258.75	1198.06
258.97	1261.55
259.18	1265.64
259.40	1279.98
259.62	1314.80
259.83	1292.27
260.05	1259.50
260.27	1353.71
260.48	1220.59
260.70	1265.64
260.92	1325.04
261.13	1257.45
261.35	1302.51
261.57	1269.74
261.78	1302.51
262.00	1298.41
262.22	1198.06
262.43	1241.07
262.65	1218.54
262.86	1279.98
263.08	1300.46
263.30	1251.31
263.51	1218.54
263.73	1208.30
263.95	1325.04
264.16	1191.92
264.38	1253.36
264.60	1322.99
264.81	1284.08
265.03	1292.27
265.25	1218.54
265.46	1177.58
265.68	1261.55
265.89	1253.36
266.11	1230.83
266.33	1302.51
266.54	1253.36
266.76	1302.51
266.98	1302.51
267.19	1259.50
267.41	1273.84
267.62	1257.45
267.84	1286.12
268.06	1282.03
268.27	1279.98
268.49	1208.30
268.70	1245.16
268.92	1239.02
269.14	1261.55
269.35	1239.02
269.57	1265.64
269.79	1189.87
270.00	1343.47
270.22	1273.84
270.43	1273.84
270.65	1222.64
270.87	1247.21
271.08	1320.94
271.30	1210.35
271.51	1257.45
271.73	1200.11
271.95	1255.40
272.16	1236.97
272.38	1200.11
272.59	1226.73
272.81	1279.98
273.02	1253.36
273.24	1249.26
273.46	1316.84
273.67	1257.45
273.89	1216.49
274.10	1234.93
274.32	1224.69
274.54	1263.60
274.75	1298.41
274.97	1275.88
275.18	1259.50
275.40	1290.22
275.61	1224.69
275.83	1224.69
276.05	1189.87
276.26	1239.02
276.48	1208.30
276.69	1263.60
276.91	1316.84
277.12	1230.83
277.34	1292.27
277.55	1308.65
277.77	1239.02
277.99	1282.03
278.20	1282.03
278.42	1263.60
278.63	1234.93
278.85	1214.45
279.06	1327.08
279.28	1284.08
279.49	1290.22
279.71	1255.40
279.93	1230.83
280.14	1224.69
280.36	1259.50
280.57	1290.22
280.79	1263.60
281.00	1286.12
281.22	1193.97
281.43	1273.84
281.65	1300.46
281.86	1292.27
282.08	1277.93
282.29	1249.26
282.51	1304.56
282.73	1263.60
282.94	1140.72
283.16	1210.35
283.37	1253.36
283.59	1214.45
283.80	1239.02
284.02	1198.06
284.23	1329.13
284.45	1196.01
284.66	1183.73
284.88	1218.54
285.09	1286.12
285.31	1351.66
285.52	1318.89
285.74	1228.78
285.95	1218.54
286.17	1279.98
286.38	1265.64
286.60	1257.45
286.81	1234.93
287.03	1290.22
287.24	1261.55
287.46	1241.07
287.67	1355.76
287.89	1208.30
288.10	1245.16
288.32	1253.36
288.53	1226.73
288.75	1216.49
288.96	1277.93
289.18	1243.12
289.39	1230.83
289.61	1275.88
289.82	1322.99
290.04	1255.40
290.25	1290.22
290.47	1329.13
290.68	1202.16
290.90	1286.12
291.11	1239.02
291.33	1292.27
291.54	1239.02
291.76	1284.08
291.97	1288.17
292.18	1271.79
292.40	1232.88
292.61	1253.36
292.83	1312.75
293.04	1261.55
293.26	1310.70
293.47	1267.69
293.69	1236.97
293.90	1304.56
294.12	1286.12
294.33	1196.01
294.55	1224.69
294.76	1226.73
294.97	1249.26
295.19	1267.69
295.40	1292.27
295.62	1261.55
295.83	1279.98
296.05	1327.08
296.26	1224.69
296.48	1269.74
296.69	1198.06
296.90	1222.64
297.12	1349.61
297.33	1234.93
297.55	1212.40
297.76	1208.30
297.98	1206.25
298.19	1277.93
298.41	1253.36
298.62	1153.01
298.83	1222.64
299.05	1193.97
299.26	1257.45
299.48	1265.64
299.69	1232.88
299.90	1222.64
300.12	1220.59
300.33	1265.64
300.55	1232.88
300.76	1288.17
300.98	1322.99
301.19	1241.07
301.40	1241.07
301.62	1247.21
301.83	1214.45
302.05	1245.16
302.26	1253.36
302.47	1261.55
302.69	1265.64
302.90	1329.13
303.12	1277.93
303.33	1282.03
303.54	1245.16
303.76	1251.31
303.97	1189.87
304.19	1259.50
304.40	1282.03
304.61	1335.28
304.83	1279.98
305.04	1325.04
305.26	1267.69
305.47	1286.12
305.68	1335.28
305.90	1241.07
306.11	1259.50
306.33	1245.16
306.54	1327.08
306.75	1318.89
306.97	1263.60
307.18	1232.88
307.39	1255.40
307.61	1273.84
307.82	1312.75
308.04	1243.12
308.25	1228.78
308.46	1296.36
308.68	1267.69
308.89	1214.45
309.10	1187.82
309.32	1230.83
309.53	1249.26
309.74	1271.79
309.96	1202.16
310.17	1222.64
310.39	1300.46
310.60	1347.56
310.81	1298.41
311.03	1314.80
311.24	1335.28
311.45	1224.69
311.67	1241.07
311.88	1224.69
312.09	1267.69
312.31	1298.41
312.52	1286.12
312.73	1339.37
312.95	1261.55
313.16	1292.27
313.37	1239.02
313.59	1193.97
313.80	1282.03
314.01	1290.22
314.23	1322.99
314.44	1245.16
314.65	1290.22
314.87	1269.74
315.08	1286.12
315.29	1282.03
315.51	1226.73
315.72	1302.51
315.93	1259.50
316.15	1296.36
316.36	1230.83
316.57	1312.75
316.79	1339.37
317.00	1286.12
317.21	1306.60
317.43	1249.26
317.64	1288.17
317.85	1224.69
318.07	1261.55
318.28	1327.08
318.49	1224.69
318.70	1245.16
318.92	1292.27
319.13	1290.22
319.34	1208.30
319.56	1208.30
319.77	1206.25
319.98	1288.17
320.20	1259.50
320.41	1277.93
320.62	1196.01
320.83	1275.88
321.05	1277.93
321.26	1304.56
321.47	1236.97
321.69	1298.41
321.90	1224.69
322.11	1320.94
322.32	1308.65
322.54	1259.50
322.75	1224.69
322.96	1247.21
323.18	1271.79
323.39	1306.60
323.60	1267.69
323.81	1239.02
324.03	1255.40
324.24	1216.49
324.45	1263.60
324.66	1224.69
324.88	1259.50
325.09	1335.28
325.30	1300.46
325.52	1224.69
325.73	1218.54
325.94	1275.88
326.15	1267.69
326.37	1245.16
326.58	1255.40
326.79	1288.17
327.00	1220.59
327.22	1216.49
327.43	1308.65
327.64	1286.12
327.85	1277.93
328.07	1322.99
328.28	1251.31
328.49	1298.41
328.70	1282.03
328.92	1282.03
329.13	1255.40
329.34	1292.27
329.55	1308.65
329.76	1322.99
329.98	1232.88
330.19	1226.73
330.40	1251.31
330.61	1294.32
330.83	1259.50
331.04	1243.12
331.25	1220.59
331.46	1230.83
331.68	1245.16
331.89	1286.12
332.10	1288.17
332.31	1239.02
332.52	1234.93
332.74	1232.88
332.95	1310.70
333.16	1282.03
333.37	1304.56
333.58	1269.74
333.80	1286.12
334.01	1284.08
334.22	1232.88
334.43	1296.36
334.64	1206.25
334.86	1234.93
335.07	1277.93
335.28	1259.50
335.49	1329.13
335.70	1282.03
335.92	1179.63
336.13	1284.08
336.34	1325.04
336.55	1322.99
336.76	1294.32
336.98	1257.45
337.19	1331.18
337.40	1222.64
337.61	1273.84
337.82	1239.02
338.04	1243.12
338.25	1269.74
338.46	1202.16
338.67	1230.83
338.88	1253.36
339.09	1337.32
339.31	1257.45
339.52	1187.82
339.73	1284.08
339.94	1329.13
340.15	1216.49
340.36	1310.70
340.58	1204.21
340.79	1290.22
341.00	1308.65
341.21	1200.11
341.42	1232.88
341.63	1282.03
341.85	1257.45
342.06	1282.03
342.27	1255.40
342.48	1343.47
342.69	1273.84
342.90	1155.05
343.12	1300.46
343.33	1325.04
343.54	1292.27
343.75	1308.65
343.96	1284.08
344.17	1214.45
344.38	1318.89
344.60	1265.64
344.81	1226.73
345.02	1241.07
345.23	1314.80
345.44	1318.89
345.65	1224.69
345.86	1279.98
346.07	1218.54
346.29	1257.45
346.50	1273.84
346.71	1214.45
346.92	1224.69
347.13	1232.88
347.34	1204.21
347.55	1298.41
347.76	1212.40
347.98	1302.51
348.19	1239.02
348.40	1302.51
348.61	1257.45
348.82	1271.79
349.03	1312.75
349.24	1282.03
349.45	1261.55
349.66	1259.50
349.88	1279.98
350.09	1236.97
350.30	1267.69
350.51	1249.26
350.72	1273.84
350.93	1198.06
351.14	1302.51
351.35	1245.16
351.56	1275.88
351.77	1284.08
351.99	1294.32
352.20	1267.69
352.41	1236.97
352.62	1243.12
352.83	1222.64
353.04	1257.45
353.25	1269.74
353.46	1241.07
353.67	1275.88
353.88	1263.60
354.09	1261.55
354.30	1234.93
354.52	1286.12
354.73	1216.49
354.94	1277.93
355.15	1269.74
355.36	1294.32
355.57	1255.40
355.78	1241.07
355.99	1273.84
356.20	1257.45
356.41	1261.55
356.62	1269.74
356.83	1370.09
357.04	1255.40
357.25	1243.12
357.46	1224.69
357.68	1234.93
357.89	1286.12
358.10	1234.93
358.31	1308.65
358.52	1314.80
358.73	1259.50
358.94	1245.16
359.15	1243.12
359.36	1165.29
359.57	1226.73
359.78	1265.64
359.99	1257.45
360.20	1241.07
360.41	1265.64
360.62	1273.84
360.83	1288.17
361.04	1271.79
361.25	1286.12
361.46	1333.23
361.67	1259.50
361.88	1322.99
362.09	1261.55
362.30	1290.22
362.51	1300.46
362.72	1275.88
362.93	1290.22
363.14	1288.17
363.35	1269.74
363.56	1251.31
363.78	1257.45
363.99	1243.12
364.20	1282.03
364.41	1251.31
364.62	1245.16
364.83	1206.25
365.04	1271.79
365.25	1302.51
365.46	1376.24
365.67	1294.32
365.88	1294.32
366.09	1267.69
366.30	1312.75
366.51	1339.37
366.72	1218.54
366.93	1351.66
367.14	1245.16
367.35	1228.78
367.56	1257.45
367.77	1310.70
367.98	1337.32
368.18	1220.59
368.39	1292.27
368.60	1247.21
368.81	1327.08
369.02	1310.70
369.23	1273.84
369.44	1204.21
369.65	1298.41
369.86	1296.36
370.07	1230.83
370.28	1193.97
370.49	1232.88
370.70	1269.74
370.91	1247.21
371.12	1245.16
371.33	1187.82
371.54	1271.79
371.75	1296.36
371.96	1284.08
372.17	1292.27
372.38	1251.31
372.59	1271.79
372.80	1279.98
373.01	1253.36
373.22	1298.41
373.43	1296.36
373.64	1224.69
373.85	1230.83
374.06	1261.55
374.26	1251.31
374.47	1214.45
374.68	1294.32
374.89	1292.27
375.10	1265.64
375.31	1243.12
375.52	1271.79
375.73	1288.17
375.94	1251.31
376.15	1312.75
376.36	1273.84
376.57	1253.36
376.78	1290.22
376.99	1175.53
377.20	1249.26
377.40	1232.88
377.61	1269.74
377.82	1267.69
378.03	1243.12
378.24	1298.41
378.45	1267.69
378.66	1304.56
378.87	1239.02
379.08	1292.27
379.29	1232.88
379.50	1279.98
379.71	1304.56
379.91	1216.49
380.12	1269.74
380.33	1222.64
380.54	1267.69
380.75	1310.70
380.96	1224.69
381.17	1241.07
381.38	1275.88
381.59	1304.56
381.80	1279.98
382.00	1279.98
382.21	1181.68
382.42	1292.27
382.63	1282.03
382.84	1296.36
383.05	1380.33
383.26	1296.36
383.47	1288.17
383.68	1259.50
383.88	1228.78
384.09	1288.17
384.30	1327.08
384.51	1298.41
384.72	1304.56
384.93	1294.32
385.14	1304.56
385.35	1327.08
385.55	1218.54
385.76	1298.41
385.97	1204.21
386.18	1241.07
386.39	1263.60
386.60	1312.75
386.81	1261.55
387.02	1284.08
387.22	1279.98
387.43	1310.70
387.64	1269.74
387.85	1331.18
388.06	1241.07
388.27	1249.26
388.48	1310.70
388.68	1226.73
388.89	1226.73
389.10	1259.50
389.31	1241.07
389.52	1243.12
389.73	1236.97
389.93	1249.26
390.14	1253.36
390.35	1206.25
390.56	1267.69
390.77	1290.22
390.98	1230.83
391.18	1277.93
391.39	1294.32
391.60	1236.97
391.81	1251.31
392.02	1271.79
392.23	1310.70
392.43	1322.99
392.64	1269.74
392.85	1277.93
393.06	1247.21
393.27	1171.44
393.47	1218.54
393.68	1267.69
393.89	1236.97
394.10	1257.45
394.31	1298.41
394.52	1282.03
394.72	1214.45
394.93	1241.07
395.14	1181.68
395.35	1220.59
395.56	1267.69
395.76	1308.65
395.97	1218.54
396.18	1296.36
396.39	1253.36
396.60	1357.80
396.80	1263.60
397.01	1279.98
397.22	1216.49
397.43	1302.51
397.64	1232.88
397.84	1290.22
398.05	1286.12
398.26	1327.08
398.47	1245.16
398.67	1236.97
398.88	1273.84
399.09	1243.12
399.30	1232.88
399.51	1216.49
399.71	1204.21
399.92	1259.50
400.13	1288.17
400.34	1183.73
400.54	1216.49
400.75	1214.45
400.96	1232.88
401.17	1249.26
401.37	1310.70
401.58	1292.27
401.79	1232.88
402.00	1239.02
402.21	1191.92
402.41	1271.79
402.62	1286.12
402.83	1265.64
403.04	1277.93
403.24	1214.45
403.45	1294.32
403.66	1320.94
403.87	1271.79
404.07	1322.99
404.28	1322.99
404.49	1224.69
404.70	1271.79
404.90	1247.21
405.11	1290.22
405.32	1263.60
405.52	1253.36
405.73	1218.54
405.94	1322.99
406.15	1247.21
406.35	1243.12
406.56	1234.93
406.77	1302.51
406.98	1175.53
407.18	1265.64
407.39	1279.98
407.60	1308.65
407.80	1257.45
408.01	1271.79
408.22	1314.80
408.43	1306.60
408.63	1255.40
408.84	1239.02
409.05	1257.45
409.25	1218.54
409.46	1331.18
409.67	1196.01
409.88	1193.97
410.08	1304.56
410.29	1220.59
410.50	1263.60
410.70	1241.07
410.91	1292.27
411.12	1230.83
411.32	1267.69
411.53	1212.40
411.74	1279.98
411.95	1261.55
412.15	1333.23
412.36	1302.51
412.57	1296.36
412.77	1251.31
412.98	1236.97
413.19	1165.29
413.39	1273.84
413.60	1259.50
413.81	1282.03
414.01	1306.60
414.22	1187.82
414.43	1318.89
414.63	1202.16
414.84	1273.84
415.05	1224.69
415.25	1271.79
415.46	1245.16
415.67	1284.08
415.87	1236.97
416.08	1249.26
416.29	1288.17
416.49	1314.80
416.70	1239.02
416.91	1275.88
417.11	1279.98
417.32	1310.70
417.53	1247.21
417.73	1259.50
417.94	1212.40
418.15	1290.22
418.35	1269.74
418.56	1302.51
418.77	1282.03
418.97	1273.84
419.18	1302.51
419.38	1288.17
419.59	1257.45
419.80	1269.74
420.00	1208.30
420.21	1214.45
420.42	1230.83
420.62	1279.98
420.83	1220.59
421.04	1333.23
421.24	1249.26
421.45	1269.74
421.65	1279.98
421.86	1257.45
422.07	1191.92
422.27	1257.45
422.48	1239.02
422.69	1239.02
422.89	1308.65
423.10	1316.84
423.30	1218.54
423.51	1263.60
423.72	1366.00
423.92	1187.82
424.13	1269.74
424.33	1286.12
424.54	1214.45
424.75	1290.22
424.95	1200.11
425.16	1327.08
425.36	1277.93
425.57	1302.51
425.78	1267.69
425.98	1269.74
426.19	1265.64
426.39	1271.79
426.60	1271.79
426.81	1224.69
427.01	1222.64
427.22	1261.55
427.42	1214.45
427.63	1249.26
427.83	1259.50
428.04	1304.56
428.25	1296.36
428.45	1284.08
428.66	1273.84
428.86	1232.88
429.07	1210.35
429.28	1288.17
429.48	1257.45
429.69	1275.88
429.89	1296.36
430.10	1232.88
430.30	1282.03
430.51	1304.56
430.71	1232.88
430.92	1329.13
431.13	1198.06
431.33	1239.02
431.54	1286.12
431.74	1273.84
431.95	1257.45
432.15	1327.08
432.36	1333.23
432.56	1259.50
432.77	1155.05
432.98	1202.16
433.18	1335.28
433.39	1298.41
433.59	1247.21
433.80	1277.93
434.00	1255.40
434.21	1288.17
434.41	1216.49
434.62	1304.56
434.82	1271.79
435.03	1282.03
435.23	1292.27
435.44	1210.35
435.64	1239.02
435.85	1294.32
436.06	1253.36
436.26	1294.32
436.47	1286.12
436.67	1251.31
436.88	1239.02
437.08	1269.74
437.29	1257.45
437.49	1282.03
437.70	1269.74
437.90	1226.73
438.11	1279.98
438.31	1333.23
438.52	1241.07
438.72	1208.30
438.93	1302.51
439.13	1277.93
439.34	1259.50
439.54	1208.30
439.75	1308.65
439.95	1300.46
440.16	1206.25
440.36	1234.93
440.57	1282.03
440.77	1269.74
440.98	1284.08
441.18	1282.03
441.39	1216.49
441.59	1273.84
441.80	1282.03
442.00	1292.27
442.21	1239.02
442.41	1236.97
442.62	1314.80
442.82	1259.50
443.02	1224.69
443.23	1325.04
443.43	1228.78
443.64	1257.45
443.84	1277.93
444.05	1218.54
444.25	1241.07
444.46	1241.07
444.66	1314.80
444.87	1277.93
445.07	1232.88
445.28	1181.68
445.48	1284.08
445.69	1320.94
445.89	1298.41
446.09	1249.26
446.30	1335.28
446.50	1239.02
446.71	1245.16
446.91	1275.88
447.12	1312.75
447.32	1271.79
447.53	1337.32
447.73	1282.03
447.93	1320.94
448.14	1286.12
448.34	1308.65
448.55	1265.64
448.75	1318.89
448.96	1294.32
449.16	1273.84
449.36	1257.45
449.57	1257.45
449.77	1271.79
449.98	1341.42
450.18	1327.08
450.39	1349.61
450.59	1308.65
450.79	1216.49
451.00	1322.99
451.20	1288.17
451.41	1322.99
451.61	1286.12
451.81	1316.84
452.02	1277.93
452.22	1271.79
452.43	1320.94
452.63	1234.93
