SpectraSuite Data File
++++++++++++++++++++++++++++++++++++
Date: Sun Apr 03 19:55:14 CEST 2016
User: root
Dark Spectrum Present: No
Reference Spectrum Present: No
Number of Sampled Component Spectra: 1
Spectrometers: USB4C02835
Integration Time (usec): 10000 (USB4C02835)
Spectra Averaged: 1 (USB4C02835)
Boxcar Smoothing: 0 (USB4C02835)
Correct for Electrical Dark: No (USB4C02835)
Strobe/Lamp Enabled: No (USB4C02835)
Correct for Detector Non-linearity: No (USB4C02835)
Correct for Stray Light: No (USB4C02835)
Number of Pixels in Processed Spectrum: 3648
>>>>>Begin Processed Spectral Data<<<<<
177.47	1257.45
177.69	1257.45
177.91	1257.45
178.13	1177.58
178.36	1292.27
178.58	1230.83
178.80	1282.03
179.02	1222.64
179.24	1257.45
179.46	1269.74
179.68	1251.31
179.90	1239.02
180.13	1271.79
180.35	1269.74
180.57	1196.01
180.79	1271.79
181.01	1277.93
181.23	1306.60
181.45	1329.13
181.67	1290.22
181.90	1257.45
182.12	1267.69
182.34	1271.79
182.56	1282.03
182.78	1277.93
183.00	1261.55
183.22	1282.03
183.44	1300.46
183.66	1214.45
183.89	1259.50
184.11	1290.22
184.33	1296.36
184.55	1230.83
184.77	1275.88
184.99	1245.16
185.21	1279.98
185.43	1302.51
185.65	1234.93
185.87	1318.89
186.10	1322.99
186.32	1216.49
186.54	1216.49
186.76	1247.21
186.98	1236.97
187.20	1302.51
187.42	1253.36
187.64	1191.92
187.86	1306.60
188.08	1320.94
188.30	1269.74
188.52	1206.25
188.75	1255.40
188.97	1224.69
189.19	1220.59
189.41	1282.03
189.63	1187.82
189.85	1249.26
190.07	1320.94
190.29	1277.93
190.51	1298.41
190.73	1286.12
190.95	1292.27
191.17	1265.64
191.39	1282.03
191.61	1247.21
191.84	1187.82
192.06	1347.56
192.28	1234.93
192.50	1269.74
192.72	1173.49
192.94	1302.51
193.16	1259.50
193.38	1232.88
193.60	1208.30
193.82	1263.60
194.04	1236.97
194.26	1265.64
194.48	1269.74
194.70	1331.18
194.92	1269.74
195.14	1210.35
195.36	1288.17
195.58	1322.99
195.80	1212.40
196.02	1284.08
196.24	1259.50
196.46	1306.60
196.69	1308.65
196.91	1296.36
197.13	1269.74
197.35	1236.97
197.57	1308.65
197.79	1265.64
198.01	1341.42
198.23	1263.60
198.45	1243.12
198.67	1243.12
198.89	1228.78
199.11	1386.47
199.33	1236.97
199.55	1279.98
199.77	1230.83
199.99	1314.80
200.21	1275.88
200.43	1275.88
200.65	1222.64
200.87	1234.93
201.09	1191.92
201.31	1279.98
201.53	1329.13
201.75	1370.09
201.97	1300.46
202.19	1267.69
202.41	1161.20
202.63	1329.13
202.85	1241.07
203.07	1216.49
203.29	1269.74
203.51	1257.45
203.73	1290.22
203.95	1253.36
204.17	1314.80
204.39	1243.12
204.61	1284.08
204.83	1189.87
205.05	1245.16
205.27	1275.88
205.49	1259.50
205.71	1308.65
205.93	1265.64
206.15	1347.56
206.37	1267.69
206.59	1312.75
206.81	1261.55
207.03	1214.45
207.25	1196.01
207.47	1226.73
207.69	1226.73
207.91	1193.97
208.13	1312.75
208.34	1282.03
208.56	1253.36
208.78	1224.69
209.00	1232.88
209.22	1253.36
209.44	1200.11
209.66	1355.76
209.88	1257.45
210.10	1234.93
210.32	1253.36
210.54	1325.04
210.76	1306.60
210.98	1263.60
211.20	1249.26
211.42	1277.93
211.64	1275.88
211.86	1275.88
212.08	1335.28
212.30	1261.55
212.52	1234.93
212.74	1294.32
212.96	1232.88
213.17	1269.74
213.39	1312.75
213.61	1232.88
213.83	1290.22
214.05	1204.21
214.27	1288.17
214.49	1298.41
214.71	1275.88
214.93	1245.16
215.15	1277.93
215.37	1292.27
215.59	1296.36
215.81	1236.97
216.03	1343.47
216.24	1345.52
216.46	1239.02
216.68	1284.08
216.90	1273.84
217.12	1189.87
217.34	1202.16
217.56	1234.93
217.78	1298.41
218.00	1290.22
218.22	1241.07
218.44	1269.74
218.66	1198.06
218.87	1314.80
219.09	1230.83
219.31	1253.36
219.53	1241.07
219.75	1185.77
219.97	1292.27
220.19	1269.74
220.41	1206.25
220.63	1320.94
220.85	1265.64
221.06	1318.89
221.28	1325.04
221.50	1314.80
221.72	1261.55
221.94	1204.21
222.16	1304.56
222.38	1255.40
222.60	1308.65
222.82	1322.99
223.03	1277.93
223.25	1368.04
223.47	1216.49
223.69	1234.93
223.91	1275.88
224.13	1316.84
224.35	1218.54
224.57	1265.64
224.78	1275.88
225.00	1200.11
225.22	1325.04
225.44	1306.60
225.66	1228.78
225.88	1302.51
226.10	1261.55
226.32	1265.64
226.53	1347.56
226.75	1228.78
226.97	1290.22
227.19	1243.12
227.41	1275.88
227.63	1265.64
227.85	1265.64
228.06	1255.40
228.28	1282.03
228.50	1282.03
228.72	1247.21
228.94	1325.04
229.16	1253.36
229.37	1306.60
229.59	1279.98
229.81	1288.17
230.03	1226.73
230.25	1241.07
230.47	1230.83
230.69	1267.69
230.90	1282.03
231.12	1267.69
231.34	1310.70
231.56	1279.98
231.78	1204.21
232.00	1304.56
232.21	1279.98
232.43	1282.03
232.65	1189.87
232.87	1202.16
233.09	1253.36
233.30	1273.84
233.52	1253.36
233.74	1206.25
233.96	1284.08
234.18	1275.88
234.40	1308.65
234.61	1290.22
234.83	1224.69
235.05	1241.07
235.27	1284.08
235.49	1306.60
235.70	1322.99
235.92	1263.60
236.14	1249.26
236.36	1224.69
236.58	1273.84
236.79	1212.40
237.01	1294.32
237.23	1298.41
237.45	1316.84
237.67	1245.16
237.88	1314.80
238.10	1234.93
238.32	1267.69
238.54	1239.02
238.76	1277.93
238.97	1249.26
239.19	1269.74
239.41	1241.07
239.63	1234.93
239.85	1198.06
240.06	1253.36
240.28	1216.49
240.50	1290.22
240.72	1245.16
240.93	1189.87
241.15	1253.36
241.37	1302.51
241.59	1261.55
241.81	1236.97
242.02	1265.64
242.24	1243.12
242.46	1247.21
242.68	1212.40
242.89	1284.08
243.11	1261.55
243.33	1359.85
243.55	1251.31
243.76	1245.16
243.98	1302.51
244.20	1226.73
244.42	1279.98
244.64	1273.84
244.85	1261.55
245.07	1331.18
245.29	1263.60
245.51	1196.01
245.72	1284.08
245.94	1249.26
246.16	1247.21
246.38	1259.50
246.59	1253.36
246.81	1220.59
247.03	1236.97
247.24	1263.60
247.46	1265.64
247.68	1286.12
247.90	1220.59
248.11	1230.83
248.33	1298.41
248.55	1279.98
248.77	1218.54
248.98	1234.93
249.20	1277.93
249.42	1265.64
249.64	1228.78
249.85	1302.51
250.07	1226.73
250.29	1347.56
250.50	1224.69
250.72	1255.40
250.94	1273.84
251.16	1251.31
251.37	1318.89
251.59	1290.22
251.81	1191.92
252.02	1282.03
252.24	1191.92
252.46	1222.64
252.68	1230.83
252.89	1288.17
253.11	1351.66
253.33	1269.74
253.54	1261.55
253.76	1271.79
253.98	1269.74
254.20	1329.13
254.41	1296.36
254.63	1284.08
254.85	1239.02
255.06	1208.30
255.28	1218.54
255.50	1210.35
255.71	1294.32
255.93	1220.59
256.15	1222.64
256.36	1298.41
256.58	1286.12
256.80	1310.70
257.02	1257.45
257.23	1269.74
257.45	1253.36
257.67	1275.88
257.88	1288.17
258.10	1187.82
258.32	1290.22
258.53	1200.11
258.75	1341.42
258.97	1275.88
259.18	1284.08
259.40	1249.26
259.62	1249.26
259.83	1243.12
260.05	1322.99
260.27	1312.75
260.48	1241.07
260.70	1322.99
260.92	1187.82
261.13	1310.70
261.35	1269.74
261.57	1249.26
261.78	1208.30
262.00	1314.80
262.22	1300.46
262.43	1265.64
262.65	1267.69
262.86	1167.34
263.08	1239.02
263.30	1185.77
263.51	1300.46
263.73	1282.03
263.95	1279.98
264.16	1232.88
264.38	1312.75
264.60	1255.40
264.81	1269.74
265.03	1234.93
265.25	1265.64
265.46	1318.89
265.68	1245.16
265.89	1339.37
266.11	1284.08
266.33	1296.36
266.54	1325.04
266.76	1265.64
266.98	1218.54
267.19	1298.41
267.41	1230.83
267.62	1261.55
267.84	1255.40
268.06	1273.84
268.27	1296.36
268.49	1214.45
268.70	1279.98
268.92	1284.08
269.14	1284.08
269.35	1292.27
269.57	1245.16
269.79	1181.68
270.00	1179.63
270.22	1298.41
270.43	1286.12
270.65	1257.45
270.87	1181.68
271.08	1261.55
271.30	1290.22
271.51	1243.12
271.73	1327.08
271.95	1282.03
272.16	1288.17
272.38	1247.21
272.59	1279.98
272.81	1294.32
273.02	1275.88
273.24	1306.60
273.46	1249.26
273.67	1271.79
273.89	1259.50
274.10	1208.30
274.32	1292.27
274.54	1245.16
274.75	1206.25
274.97	1265.64
275.18	1261.55
275.40	1261.55
275.61	1290.22
275.83	1259.50
276.05	1284.08
276.26	1247.21
276.48	1277.93
276.69	1198.06
276.91	1247.21
277.12	1279.98
277.34	1189.87
277.55	1224.69
277.77	1314.80
277.99	1284.08
278.20	1265.64
278.42	1261.55
278.63	1302.51
278.85	1284.08
279.06	1267.69
279.28	1288.17
279.49	1282.03
279.71	1357.80
279.93	1263.60
280.14	1275.88
280.36	1222.64
280.57	1337.32
280.79	1294.32
281.00	1296.36
281.22	1265.64
281.43	1224.69
281.65	1196.01
281.86	1183.73
282.08	1230.83
282.29	1255.40
282.51	1218.54
282.73	1275.88
282.94	1286.12
283.16	1312.75
283.37	1269.74
283.59	1236.97
283.80	1316.84
284.02	1306.60
284.23	1271.79
284.45	1253.36
284.66	1243.12
284.88	1216.49
285.09	1208.30
285.31	1230.83
285.52	1200.11
285.74	1206.25
285.95	1312.75
286.17	1279.98
286.38	1204.21
286.60	1257.45
286.81	1308.65
287.03	1286.12
287.24	1275.88
287.46	1263.60
287.67	1251.31
287.89	1284.08
288.10	1288.17
288.32	1298.41
288.53	1273.84
288.75	1300.46
288.96	1286.12
289.18	1277.93
289.39	1255.40
289.61	1210.35
289.82	1286.12
290.04	1243.12
290.25	1290.22
290.47	1322.99
290.68	1183.73
290.90	1269.74
291.11	1216.49
291.33	1339.37
291.54	1269.74
291.76	1292.27
291.97	1249.26
292.18	1259.50
292.40	1253.36
292.61	1343.47
292.83	1255.40
293.04	1218.54
293.26	1241.07
293.47	1279.98
293.69	1290.22
293.90	1271.79
294.12	1210.35
294.33	1251.31
294.55	1239.02
294.76	1257.45
294.97	1273.84
295.19	1253.36
295.40	1300.46
295.62	1318.89
295.83	1288.17
296.05	1210.35
296.26	1269.74
296.48	1265.64
296.69	1275.88
296.90	1279.98
297.12	1353.71
297.33	1232.88
297.55	1306.60
297.76	1279.98
297.98	1279.98
298.19	1275.88
298.41	1230.83
298.62	1288.17
298.83	1269.74
299.05	1304.56
299.26	1267.69
299.48	1259.50
299.69	1314.80
299.90	1318.89
300.12	1267.69
300.33	1316.84
300.55	1286.12
300.76	1308.65
300.98	1189.87
301.19	1249.26
301.40	1337.32
301.62	1273.84
301.83	1279.98
302.05	1253.36
302.26	1259.50
302.47	1308.65
302.69	1220.59
302.90	1183.73
303.12	1325.04
303.33	1306.60
303.54	1288.17
303.76	1232.88
303.97	1265.64
304.19	1273.84
304.40	1261.55
304.61	1347.56
304.83	1277.93
305.04	1247.21
305.26	1255.40
305.47	1269.74
305.68	1263.60
305.90	1206.25
306.11	1296.36
306.33	1300.46
306.54	1273.84
306.75	1263.60
306.97	1232.88
307.18	1304.56
307.39	1288.17
307.61	1261.55
307.82	1241.07
308.04	1269.74
308.25	1249.26
308.46	1204.21
308.68	1279.98
308.89	1329.13
309.10	1239.02
309.32	1304.56
309.53	1206.25
309.74	1339.37
309.96	1302.51
310.17	1234.93
310.39	1277.93
310.60	1318.89
310.81	1308.65
311.03	1275.88
311.24	1282.03
311.45	1255.40
311.67	1312.75
311.88	1267.69
312.09	1292.27
312.31	1255.40
312.52	1265.64
312.73	1284.08
312.95	1302.51
313.16	1308.65
313.37	1249.26
313.59	1265.64
313.80	1286.12
314.01	1263.60
314.23	1183.73
314.44	1273.84
314.65	1245.16
314.87	1216.49
315.08	1282.03
315.29	1245.16
315.51	1271.79
315.72	1243.12
315.93	1239.02
316.15	1273.84
316.36	1257.45
316.57	1214.45
316.79	1232.88
317.00	1232.88
317.21	1286.12
317.43	1275.88
317.64	1304.56
317.85	1267.69
318.07	1224.69
318.28	1292.27
318.49	1279.98
318.70	1292.27
318.92	1261.55
319.13	1327.08
319.34	1220.59
319.56	1212.40
319.77	1249.26
319.98	1286.12
320.20	1263.60
320.41	1267.69
320.62	1263.60
320.83	1259.50
321.05	1318.89
321.26	1257.45
321.47	1314.80
321.69	1353.71
321.90	1210.35
322.11	1236.97
322.32	1263.60
322.54	1251.31
322.75	1224.69
322.96	1314.80
323.18	1251.31
323.39	1277.93
323.60	1265.64
323.81	1290.22
324.03	1226.73
324.24	1286.12
324.45	1257.45
324.66	1234.93
324.88	1271.79
325.09	1325.04
325.30	1234.93
325.52	1277.93
325.73	1318.89
325.94	1261.55
326.15	1318.89
326.37	1261.55
326.58	1222.64
326.79	1273.84
327.00	1222.64
327.22	1239.02
327.43	1255.40
327.64	1279.98
327.85	1304.56
328.07	1353.71
328.28	1259.50
328.49	1232.88
328.70	1239.02
328.92	1282.03
329.13	1224.69
329.34	1290.22
329.55	1234.93
329.76	1286.12
329.98	1230.83
330.19	1249.26
330.40	1261.55
330.61	1269.74
330.83	1267.69
331.04	1271.79
331.25	1259.50
331.46	1224.69
331.68	1239.02
331.89	1241.07
332.10	1296.36
332.31	1212.40
332.52	1288.17
332.74	1255.40
332.95	1300.46
333.16	1222.64
333.37	1257.45
333.58	1261.55
333.80	1345.52
334.01	1298.41
334.22	1241.07
334.43	1279.98
334.64	1273.84
334.86	1294.32
335.07	1230.83
335.28	1265.64
335.49	1290.22
335.70	1302.51
335.92	1355.76
336.13	1236.97
336.34	1247.21
336.55	1259.50
336.76	1316.84
336.98	1206.25
337.19	1298.41
337.40	1288.17
337.61	1279.98
337.82	1286.12
338.04	1310.70
338.25	1228.78
338.46	1267.69
338.67	1288.17
338.88	1259.50
339.09	1318.89
339.31	1277.93
339.52	1228.78
339.73	1257.45
339.94	1261.55
340.15	1232.88
340.36	1175.53
340.58	1249.26
340.79	1243.12
341.00	1216.49
341.21	1316.84
341.42	1284.08
341.63	1370.09
341.85	1279.98
342.06	1271.79
342.27	1208.30
342.48	1216.49
342.69	1163.25
342.90	1302.51
343.12	1236.97
343.33	1333.23
343.54	1275.88
343.75	1347.56
343.96	1290.22
344.17	1216.49
344.38	1363.95
344.60	1345.52
344.81	1191.92
345.02	1318.89
345.23	1306.60
345.44	1341.42
345.65	1259.50
345.86	1269.74
346.07	1304.56
346.29	1275.88
346.50	1251.31
346.71	1304.56
346.92	1396.71
347.13	1282.03
347.34	1284.08
347.55	1255.40
347.76	1263.60
347.98	1253.36
348.19	1236.97
348.40	1263.60
348.61	1269.74
348.82	1275.88
349.03	1347.56
349.24	1296.36
349.45	1185.77
349.66	1228.78
349.88	1282.03
350.09	1333.23
350.30	1273.84
350.51	1292.27
350.72	1275.88
350.93	1259.50
351.14	1282.03
351.35	1337.32
351.56	1290.22
351.77	1210.35
351.99	1279.98
352.20	1288.17
352.41	1220.59
352.62	1239.02
352.83	1327.08
353.04	1306.60
353.25	1251.31
353.46	1241.07
353.67	1249.26
353.88	1212.40
354.09	1218.54
354.30	1216.49
354.52	1271.79
354.73	1212.40
354.94	1243.12
355.15	1263.60
355.36	1271.79
355.57	1216.49
355.78	1232.88
355.99	1243.12
356.20	1220.59
356.41	1249.26
356.62	1343.47
356.83	1284.08
357.04	1263.60
357.25	1251.31
357.46	1224.69
357.68	1292.27
357.89	1243.12
358.10	1282.03
358.31	1214.45
358.52	1275.88
358.73	1224.69
358.94	1308.65
359.15	1298.41
359.36	1296.36
359.57	1253.36
359.78	1191.92
359.99	1243.12
360.20	1279.98
360.41	1275.88
360.62	1267.69
360.83	1230.83
361.04	1300.46
361.25	1294.32
361.46	1294.32
361.67	1304.56
361.88	1298.41
362.09	1179.63
362.30	1335.28
362.51	1300.46
362.72	1261.55
362.93	1322.99
363.14	1335.28
363.35	1331.18
363.56	1298.41
363.78	1230.83
363.99	1228.78
364.20	1265.64
364.41	1220.59
364.62	1273.84
364.83	1310.70
365.04	1286.12
365.25	1261.55
365.46	1267.69
365.67	1232.88
365.88	1322.99
366.09	1286.12
366.30	1286.12
366.51	1232.88
366.72	1271.79
366.93	1322.99
367.14	1329.13
367.35	1257.45
367.56	1241.07
367.77	1314.80
367.98	1269.74
368.18	1232.88
368.39	1257.45
368.60	1255.40
368.81	1306.60
369.02	1298.41
369.23	1269.74
369.44	1232.88
369.65	1269.74
369.86	1251.31
370.07	1243.12
370.28	1230.83
370.49	1288.17
370.70	1304.56
370.91	1341.42
371.12	1290.22
371.33	1349.61
371.54	1282.03
371.75	1265.64
371.96	1298.41
372.17	1247.21
372.38	1234.93
372.59	1241.07
372.80	1220.59
373.01	1327.08
373.22	1232.88
373.43	1212.40
373.64	1204.21
373.85	1273.84
374.06	1298.41
374.26	1183.73
374.47	1275.88
374.68	1265.64
374.89	1325.04
375.10	1208.30
375.31	1302.51
375.52	1259.50
375.73	1325.04
375.94	1212.40
376.15	1216.49
376.36	1269.74
376.57	1255.40
376.78	1183.73
376.99	1304.56
377.20	1269.74
377.40	1198.06
377.61	1214.45
377.82	1181.68
378.03	1320.94
378.24	1239.02
378.45	1230.83
378.66	1288.17
378.87	1226.73
379.08	1241.07
379.29	1271.79
379.50	1257.45
379.71	1218.54
379.91	1259.50
380.12	1273.84
380.33	1271.79
380.54	1241.07
380.75	1234.93
380.96	1249.26
381.17	1304.56
381.38	1314.80
381.59	1247.21
381.80	1322.99
382.00	1269.74
382.21	1271.79
382.42	1341.42
382.63	1249.26
382.84	1249.26
383.05	1222.64
383.26	1269.74
383.47	1296.36
383.68	1234.93
383.88	1288.17
384.09	1269.74
384.30	1179.63
384.51	1296.36
384.72	1267.69
384.93	1236.97
385.14	1339.37
385.35	1322.99
385.55	1249.26
385.76	1243.12
385.97	1251.31
386.18	1302.51
386.39	1220.59
386.60	1294.32
386.81	1318.89
387.02	1255.40
387.22	1210.35
387.43	1228.78
387.64	1314.80
387.85	1216.49
388.06	1310.70
388.27	1216.49
388.48	1259.50
388.68	1282.03
388.89	1206.25
389.10	1259.50
389.31	1232.88
389.52	1341.42
389.73	1249.26
389.93	1290.22
390.14	1267.69
390.35	1212.40
390.56	1267.69
390.77	1282.03
390.98	1228.78
391.18	1234.93
391.39	1255.40
391.60	1269.74
391.81	1269.74
392.02	1318.89
392.23	1279.98
392.43	1247.21
392.64	1220.59
392.85	1320.94
393.06	1247.21
393.27	1232.88
393.47	1220.59
393.68	1288.17
393.89	1259.50
394.10	1218.54
394.31	1292.27
394.52	1275.88
394.72	1304.56
394.93	1267.69
395.14	1249.26
395.35	1253.36
395.56	1279.98
395.76	1277.93
395.97	1249.26
396.18	1232.88
396.39	1218.54
396.60	1269.74
396.80	1337.32
397.01	1243.12
397.22	1249.26
397.43	1230.83
397.64	1255.40
397.84	1298.41
398.05	1288.17
398.26	1288.17
398.47	1290.22
398.67	1241.07
398.88	1230.83
399.09	1277.93
399.30	1322.99
399.51	1267.69
399.71	1290.22
399.92	1220.59
400.13	1251.31
400.34	1255.40
400.54	1335.28
400.75	1318.89
400.96	1241.07
401.17	1269.74
401.37	1325.04
401.58	1241.07
401.79	1230.83
402.00	1239.02
402.21	1230.83
402.41	1277.93
402.62	1351.66
402.83	1206.25
403.04	1273.84
403.24	1302.51
403.45	1296.36
403.66	1241.07
403.87	1224.69
404.07	1314.80
404.28	1263.60
404.49	1298.41
404.70	1251.31
404.90	1212.40
405.11	1234.93
405.32	1257.45
405.52	1302.51
405.73	1386.47
405.94	1220.59
406.15	1363.95
406.35	1325.04
406.56	1320.94
406.77	1271.79
406.98	1249.26
407.18	1251.31
407.39	1331.18
407.60	1286.12
407.80	1351.66
408.01	1187.82
408.22	1288.17
408.43	1318.89
408.63	1251.31
408.84	1247.21
409.05	1259.50
409.25	1277.93
409.46	1290.22
409.67	1249.26
409.88	1216.49
410.08	1214.45
410.29	1347.56
410.50	1263.60
410.70	1310.70
410.91	1273.84
411.12	1308.65
411.32	1222.64
411.53	1189.87
411.74	1179.63
411.95	1224.69
412.15	1318.89
412.36	1228.78
412.57	1304.56
412.77	1296.36
412.98	1228.78
413.19	1314.80
413.39	1292.27
413.60	1310.70
413.81	1271.79
414.01	1257.45
414.22	1275.88
414.43	1241.07
414.63	1302.51
414.84	1273.84
415.05	1300.46
415.25	1222.64
415.46	1261.55
415.67	1277.93
415.87	1261.55
416.08	1216.49
416.29	1208.30
416.49	1343.47
416.70	1261.55
416.91	1288.17
417.11	1265.64
417.32	1290.22
417.53	1222.64
417.73	1218.54
417.94	1271.79
418.15	1259.50
418.35	1187.82
418.56	1310.70
418.77	1234.93
418.97	1230.83
419.18	1222.64
419.38	1273.84
419.59	1290.22
419.80	1193.97
420.00	1300.46
420.21	1286.12
420.42	1302.51
420.62	1239.02
420.83	1210.35
421.04	1345.52
421.24	1261.55
421.45	1306.60
421.65	1314.80
421.86	1286.12
422.07	1265.64
422.27	1234.93
422.48	1284.08
422.69	1230.83
422.89	1245.16
423.10	1263.60
423.30	1265.64
423.51	1206.25
423.72	1236.97
423.92	1286.12
424.13	1228.78
424.33	1312.75
424.54	1322.99
424.75	1226.73
424.95	1339.37
425.16	1345.52
425.36	1214.45
425.57	1316.84
425.78	1210.35
425.98	1230.83
426.19	1253.36
426.39	1296.36
426.60	1325.04
426.81	1232.88
427.01	1316.84
427.22	1300.46
427.42	1247.21
427.63	1302.51
427.83	1300.46
428.04	1304.56
428.25	1284.08
428.45	1361.90
428.66	1368.04
428.86	1290.22
429.07	1210.35
429.28	1224.69
429.48	1286.12
429.69	1232.88
429.89	1312.75
430.10	1212.40
430.30	1269.74
430.51	1310.70
430.71	1267.69
430.92	1277.93
431.13	1277.93
431.33	1241.07
431.54	1146.86
431.74	1298.41
431.95	1273.84
432.15	1267.69
432.36	1269.74
432.56	1294.32
432.77	1277.93
432.98	1271.79
433.18	1271.79
433.39	1275.88
433.59	1189.87
433.80	1273.84
434.00	1300.46
434.21	1296.36
434.41	1253.36
434.62	1261.55
434.82	1218.54
435.03	1241.07
435.23	1257.45
435.44	1288.17
435.64	1239.02
435.85	1263.60
436.06	1247.21
436.26	1255.40
436.47	1308.65
436.67	1318.89
436.88	1206.25
437.08	1216.49
437.29	1288.17
437.49	1267.69
437.70	1251.31
437.90	1282.03
438.11	1320.94
438.31	1296.36
438.52	1257.45
438.72	1212.40
438.93	1279.98
439.13	1245.16
439.34	1298.41
439.54	1277.93
439.75	1279.98
439.95	1329.13
440.16	1222.64
440.36	1320.94
440.57	1261.55
440.77	1265.64
440.98	1261.55
441.18	1253.36
441.39	1210.35
441.59	1282.03
441.80	1277.93
442.00	1257.45
442.21	1279.98
442.41	1273.84
442.62	1265.64
442.82	1304.56
443.02	1335.28
443.23	1302.51
443.43	1290.22
443.64	1310.70
443.84	1275.88
444.05	1261.55
444.25	1261.55
444.46	1282.03
444.66	1284.08
444.87	1294.32
445.07	1232.88
445.28	1222.64
445.48	1279.98
445.69	1245.16
445.89	1243.12
446.09	1290.22
446.30	1265.64
446.50	1214.45
446.71	1308.65
446.91	1257.45
447.12	1363.95
447.32	1353.71
447.53	1239.02
447.73	1255.40
447.93	1241.07
448.14	1363.95
448.34	1335.28
448.55	1294.32
448.75	1282.03
448.96	1292.27
449.16	1294.32
449.36	1224.69
449.57	1189.87
449.77	1290.22
449.98	1253.36
450.18	1263.60
450.39	1230.83
450.59	1320.94
450.79	1372.14
451.00	1292.27
451.20	1253.36
451.41	1329.13
451.61	1226.73
451.81	1271.79
452.02	1335.28
452.22	1212.40
452.43	1245.16
452.63	1271.79
