SpectraSuite Data File
++++++++++++++++++++++++++++++++++++
Date: Sun Apr 03 19:55:52 CEST 2016
User: root
Dark Spectrum Present: No
Reference Spectrum Present: No
Number of Sampled Component Spectra: 1
Spectrometers: USB4C02835
Integration Time (usec): 10000 (USB4C02835)
Spectra Averaged: 1 (USB4C02835)
Boxcar Smoothing: 0 (USB4C02835)
Correct for Electrical Dark: No (USB4C02835)
Strobe/Lamp Enabled: No (USB4C02835)
Correct for Detector Non-linearity: No (USB4C02835)
Correct for Stray Light: No (USB4C02835)
Number of Pixels in Processed Spectrum: 3648
>>>>>Begin Processed Spectral Data<<<<<
177.47	1263.60
177.69	1263.60
177.91	1263.60
178.13	1228.78
178.36	1232.88
178.58	1206.25
178.80	1294.32
179.02	1241.07
179.24	1239.02
179.46	1294.32
179.68	1259.50
179.90	1286.12
180.13	1292.27
180.35	1308.65
180.57	1271.79
180.79	1218.54
181.01	1165.29
181.23	1222.64
181.45	1327.08
181.67	1253.36
181.90	1296.36
182.12	1277.93
182.34	1222.64
182.56	1322.99
182.78	1222.64
183.00	1265.64
183.22	1243.12
183.44	1189.87
183.66	1290.22
183.89	1253.36
184.11	1236.97
184.33	1286.12
184.55	1290.22
184.77	1245.16
184.99	1265.64
185.21	1232.88
185.43	1204.21
185.65	1239.02
185.87	1259.50
186.10	1325.04
186.32	1251.31
186.54	1290.22
186.76	1245.16
186.98	1286.12
187.20	1218.54
187.42	1294.32
187.64	1255.40
187.86	1308.65
188.08	1279.98
188.30	1230.83
188.52	1296.36
188.75	1259.50
188.97	1314.80
189.19	1327.08
189.41	1298.41
189.63	1239.02
189.85	1292.27
190.07	1222.64
190.29	1298.41
190.51	1261.55
190.73	1224.69
190.95	1288.17
191.17	1269.74
191.39	1267.69
191.61	1318.89
191.84	1273.84
192.06	1234.93
192.28	1230.83
192.50	1327.08
192.72	1341.42
192.94	1265.64
193.16	1183.73
193.38	1212.40
193.60	1265.64
193.82	1261.55
194.04	1247.21
194.26	1314.80
194.48	1255.40
194.70	1245.16
194.92	1275.88
195.14	1318.89
195.36	1208.30
195.58	1253.36
195.80	1325.04
196.02	1220.59
196.24	1249.26
196.46	1288.17
196.69	1294.32
196.91	1265.64
197.13	1302.51
197.35	1249.26
197.57	1222.64
197.79	1290.22
198.01	1271.79
198.23	1189.87
198.45	1300.46
198.67	1288.17
198.89	1343.47
199.11	1284.08
199.33	1312.75
199.55	1269.74
199.77	1290.22
199.99	1329.13
200.21	1230.83
200.43	1259.50
200.65	1310.70
200.87	1378.28
201.09	1236.97
201.31	1298.41
201.53	1236.97
201.75	1273.84
201.97	1239.02
202.19	1214.45
202.41	1251.31
202.63	1337.32
202.85	1247.21
203.07	1279.98
203.29	1279.98
203.51	1239.02
203.73	1263.60
203.95	1198.06
204.17	1259.50
204.39	1277.93
204.61	1273.84
204.83	1273.84
205.05	1288.17
205.27	1257.45
205.49	1290.22
205.71	1263.60
205.93	1275.88
206.15	1234.93
206.37	1253.36
206.59	1273.84
206.81	1302.51
207.03	1306.60
207.25	1218.54
207.47	1230.83
207.69	1269.74
207.91	1228.78
208.13	1277.93
208.34	1286.12
208.56	1239.02
208.78	1239.02
209.00	1222.64
209.22	1277.93
209.44	1216.49
209.66	1259.50
209.88	1310.70
210.10	1284.08
210.32	1263.60
210.54	1292.27
210.76	1333.23
210.98	1300.46
211.20	1175.53
211.42	1294.32
211.64	1243.12
211.86	1247.21
212.08	1249.26
212.30	1191.92
212.52	1288.17
212.74	1318.89
212.96	1312.75
213.17	1273.84
213.39	1277.93
213.61	1271.79
213.83	1183.73
214.05	1189.87
214.27	1306.60
214.49	1218.54
214.71	1267.69
214.93	1312.75
215.15	1206.25
215.37	1247.21
215.59	1290.22
215.81	1249.26
216.03	1300.46
216.24	1316.84
216.46	1351.66
216.68	1273.84
216.90	1288.17
217.12	1314.80
217.34	1308.65
217.56	1282.03
217.78	1267.69
218.00	1208.30
218.22	1247.21
218.44	1263.60
218.66	1294.32
218.87	1257.45
219.09	1251.31
219.31	1331.18
219.53	1191.92
219.75	1279.98
219.97	1308.65
220.19	1284.08
220.41	1226.73
220.63	1251.31
220.85	1337.32
221.06	1257.45
221.28	1372.14
221.50	1282.03
221.72	1267.69
221.94	1234.93
222.16	1255.40
222.38	1318.89
222.60	1218.54
222.82	1265.64
223.03	1269.74
223.25	1310.70
223.47	1327.08
223.69	1286.12
223.91	1353.71
224.13	1329.13
224.35	1249.26
224.57	1263.60
224.78	1269.74
225.00	1300.46
225.22	1302.51
225.44	1245.16
225.66	1212.40
225.88	1288.17
226.10	1361.90
226.32	1253.36
226.53	1267.69
226.75	1318.89
226.97	1261.55
227.19	1239.02
227.41	1298.41
227.63	1243.12
227.85	1304.56
228.06	1275.88
228.28	1181.68
228.50	1294.32
228.72	1277.93
228.94	1255.40
229.16	1298.41
229.37	1220.59
229.59	1251.31
229.81	1318.89
230.03	1183.73
230.25	1269.74
230.47	1255.40
230.69	1255.40
230.90	1251.31
231.12	1273.84
231.34	1288.17
231.56	1169.39
231.78	1208.30
232.00	1196.01
232.21	1294.32
232.43	1312.75
232.65	1261.55
232.87	1220.59
233.09	1183.73
233.30	1322.99
233.52	1251.31
233.74	1230.83
233.96	1263.60
234.18	1245.16
234.40	1271.79
234.61	1304.56
234.83	1282.03
235.05	1290.22
235.27	1318.89
235.49	1183.73
235.70	1243.12
235.92	1251.31
236.14	1331.18
236.36	1261.55
236.58	1239.02
236.79	1277.93
237.01	1308.65
237.23	1241.07
237.45	1253.36
237.67	1306.60
237.88	1290.22
238.10	1247.21
238.32	1232.88
238.54	1304.56
238.76	1292.27
238.97	1224.69
239.19	1267.69
239.41	1314.80
239.63	1247.21
239.85	1257.45
240.06	1191.92
240.28	1294.32
240.50	1337.32
240.72	1316.84
240.93	1345.52
241.15	1236.97
241.37	1298.41
241.59	1288.17
241.81	1298.41
242.02	1267.69
242.24	1275.88
242.46	1263.60
242.68	1249.26
242.89	1269.74
243.11	1327.08
243.33	1341.42
243.55	1267.69
243.76	1327.08
243.98	1245.16
244.20	1273.84
244.42	1251.31
244.64	1251.31
244.85	1318.89
245.07	1322.99
245.29	1185.77
245.51	1230.83
245.72	1302.51
245.94	1294.32
246.16	1290.22
246.38	1243.12
246.59	1255.40
246.81	1202.16
247.03	1206.25
247.24	1316.84
247.46	1230.83
247.68	1249.26
247.90	1384.43
248.11	1273.84
248.33	1265.64
248.55	1314.80
248.77	1239.02
248.98	1284.08
249.20	1239.02
249.42	1216.49
249.64	1327.08
249.85	1271.79
250.07	1200.11
250.29	1259.50
250.50	1292.27
250.72	1277.93
250.94	1279.98
251.16	1320.94
251.37	1325.04
251.59	1257.45
251.81	1224.69
252.02	1239.02
252.24	1206.25
252.46	1271.79
252.68	1224.69
252.89	1249.26
253.11	1261.55
253.33	1253.36
253.54	1271.79
253.76	1345.52
253.98	1302.51
254.20	1304.56
254.41	1275.88
254.63	1198.06
254.85	1265.64
255.06	1236.97
255.28	1216.49
255.50	1327.08
255.71	1294.32
255.93	1239.02
256.15	1325.04
256.36	1243.12
256.58	1218.54
256.80	1259.50
257.02	1259.50
257.23	1265.64
257.45	1261.55
257.67	1339.37
257.88	1208.30
258.10	1253.36
258.32	1288.17
258.53	1261.55
258.75	1173.49
258.97	1191.92
259.18	1310.70
259.40	1232.88
259.62	1228.78
259.83	1310.70
260.05	1331.18
260.27	1316.84
260.48	1247.21
260.70	1245.16
260.92	1304.56
261.13	1232.88
261.35	1269.74
261.57	1222.64
261.78	1267.69
262.00	1259.50
262.22	1314.80
262.43	1249.26
262.65	1245.16
262.86	1337.32
263.08	1282.03
263.30	1232.88
263.51	1275.88
263.73	1339.37
263.95	1239.02
264.16	1251.31
264.38	1288.17
264.60	1269.74
264.81	1329.13
265.03	1277.93
265.25	1263.60
265.46	1286.12
265.68	1261.55
265.89	1251.31
266.11	1277.93
266.33	1259.50
266.54	1269.74
266.76	1204.21
266.98	1228.78
267.19	1318.89
267.41	1322.99
267.62	1304.56
267.84	1220.59
268.06	1284.08
268.27	1222.64
268.49	1232.88
268.70	1241.07
268.92	1247.21
269.14	1282.03
269.35	1257.45
269.57	1265.64
269.79	1288.17
270.00	1261.55
270.22	1263.60
270.43	1290.22
270.65	1273.84
270.87	1329.13
271.08	1241.07
271.30	1333.23
271.51	1275.88
271.73	1226.73
271.95	1241.07
272.16	1306.60
272.38	1316.84
272.59	1255.40
272.81	1220.59
273.02	1265.64
273.24	1259.50
273.46	1269.74
273.67	1273.84
273.89	1290.22
274.10	1241.07
274.32	1265.64
274.54	1261.55
274.75	1181.68
274.97	1232.88
275.18	1263.60
275.40	1224.69
275.61	1288.17
275.83	1263.60
276.05	1296.36
276.26	1255.40
276.48	1224.69
276.69	1247.21
276.91	1249.26
277.12	1312.75
277.34	1269.74
277.55	1236.97
277.77	1275.88
277.99	1257.45
278.20	1271.79
278.42	1167.34
278.63	1306.60
278.85	1292.27
279.06	1286.12
279.28	1257.45
279.49	1255.40
279.71	1234.93
279.93	1218.54
280.14	1234.93
280.36	1372.14
280.57	1288.17
280.79	1253.36
281.00	1232.88
281.22	1335.28
281.43	1245.16
281.65	1282.03
281.86	1239.02
282.08	1308.65
282.29	1277.93
282.51	1232.88
282.73	1277.93
282.94	1310.70
283.16	1302.51
283.37	1220.59
283.59	1277.93
283.80	1226.73
284.02	1249.26
284.23	1226.73
284.45	1245.16
284.66	1261.55
284.88	1226.73
285.09	1249.26
285.31	1359.85
285.52	1355.76
285.74	1277.93
285.95	1271.79
286.17	1306.60
286.38	1241.07
286.60	1169.39
286.81	1322.99
287.03	1294.32
287.24	1271.79
287.46	1247.21
287.67	1284.08
287.89	1296.36
288.10	1198.06
288.32	1269.74
288.53	1216.49
288.75	1292.27
288.96	1267.69
289.18	1269.74
289.39	1247.21
289.61	1380.33
289.82	1228.78
290.04	1257.45
290.25	1257.45
290.47	1302.51
290.68	1247.21
290.90	1310.70
291.11	1292.27
291.33	1273.84
291.54	1249.26
291.76	1312.75
291.97	1269.74
292.18	1265.64
292.40	1216.49
292.61	1269.74
292.83	1333.23
293.04	1265.64
293.26	1226.73
293.47	1296.36
293.69	1234.93
293.90	1218.54
294.12	1241.07
294.33	1347.56
294.55	1202.16
294.76	1269.74
294.97	1249.26
295.19	1275.88
295.40	1269.74
295.62	1296.36
295.83	1253.36
296.05	1288.17
296.26	1275.88
296.48	1292.27
296.69	1245.16
296.90	1288.17
297.12	1193.97
297.33	1284.08
297.55	1325.04
297.76	1265.64
297.98	1191.92
298.19	1277.93
298.41	1292.27
298.62	1249.26
298.83	1249.26
299.05	1269.74
299.26	1284.08
299.48	1218.54
299.69	1322.99
299.90	1318.89
300.12	1204.21
300.33	1257.45
300.55	1230.83
300.76	1255.40
300.98	1353.71
301.19	1292.27
301.40	1155.05
301.62	1341.42
301.83	1232.88
302.05	1275.88
302.26	1239.02
302.47	1198.06
302.69	1224.69
302.90	1271.79
303.12	1243.12
303.33	1273.84
303.54	1243.12
303.76	1271.79
303.97	1277.93
304.19	1249.26
304.40	1271.79
304.61	1255.40
304.83	1302.51
305.04	1304.56
305.26	1169.39
305.47	1214.45
305.68	1308.65
305.90	1241.07
306.11	1318.89
306.33	1257.45
306.54	1259.50
306.75	1267.69
306.97	1294.32
307.18	1214.45
307.39	1314.80
307.61	1286.12
307.82	1325.04
308.04	1345.52
308.25	1296.36
308.46	1275.88
308.68	1310.70
308.89	1234.93
309.10	1327.08
309.32	1290.22
309.53	1333.23
309.74	1271.79
309.96	1267.69
310.17	1273.84
310.39	1257.45
310.60	1265.64
310.81	1249.26
311.03	1269.74
311.24	1296.36
311.45	1279.98
311.67	1271.79
311.88	1290.22
312.09	1273.84
312.31	1245.16
312.52	1314.80
312.73	1304.56
312.95	1275.88
313.16	1269.74
313.37	1251.31
313.59	1314.80
313.80	1212.40
314.01	1339.37
314.23	1234.93
314.44	1271.79
314.65	1189.87
314.87	1267.69
315.08	1284.08
315.29	1286.12
315.51	1236.97
315.72	1275.88
315.93	1275.88
316.15	1357.80
316.36	1267.69
316.57	1263.60
316.79	1269.74
317.00	1222.64
317.21	1247.21
317.43	1263.60
317.64	1273.84
317.85	1357.80
318.07	1220.59
318.28	1355.76
318.49	1290.22
318.70	1222.64
318.92	1251.31
319.13	1259.50
319.34	1282.03
319.56	1292.27
319.77	1234.93
319.98	1249.26
320.20	1220.59
320.41	1298.41
320.62	1259.50
320.83	1232.88
321.05	1273.84
321.26	1263.60
321.47	1255.40
321.69	1247.21
321.90	1304.56
322.11	1236.97
322.32	1249.26
322.54	1286.12
322.75	1196.01
322.96	1329.13
323.18	1232.88
323.39	1239.02
323.60	1247.21
323.81	1279.98
324.03	1245.16
324.24	1380.33
324.45	1277.93
324.66	1234.93
324.88	1273.84
325.09	1241.07
325.30	1286.12
325.52	1255.40
325.73	1263.60
325.94	1245.16
326.15	1226.73
326.37	1310.70
326.58	1359.85
326.79	1304.56
327.00	1288.17
327.22	1271.79
327.43	1232.88
327.64	1239.02
327.85	1247.21
328.07	1271.79
328.28	1212.40
328.49	1261.55
328.70	1232.88
328.92	1249.26
329.13	1298.41
329.34	1224.69
329.55	1308.65
329.76	1290.22
329.98	1308.65
330.19	1265.64
330.40	1247.21
330.61	1228.78
330.83	1216.49
331.04	1298.41
331.25	1218.54
331.46	1269.74
331.68	1251.31
331.89	1316.84
332.10	1222.64
332.31	1230.83
332.52	1259.50
332.74	1298.41
332.95	1331.18
333.16	1173.49
333.37	1339.37
333.58	1294.32
333.80	1318.89
334.01	1282.03
334.22	1300.46
334.43	1247.21
334.64	1284.08
334.86	1247.21
335.07	1261.55
335.28	1206.25
335.49	1290.22
335.70	1253.36
335.92	1220.59
336.13	1318.89
336.34	1298.41
336.55	1247.21
336.76	1320.94
336.98	1239.02
337.19	1191.92
337.40	1298.41
337.61	1300.46
337.82	1249.26
338.04	1318.89
338.25	1212.40
338.46	1239.02
338.67	1181.68
338.88	1249.26
339.09	1269.74
339.31	1282.03
339.52	1253.36
339.73	1279.98
339.94	1251.31
340.15	1263.60
340.36	1331.18
340.58	1269.74
340.79	1279.98
341.00	1249.26
341.21	1236.97
341.42	1282.03
341.63	1224.69
341.85	1316.84
342.06	1255.40
342.27	1312.75
342.48	1208.30
342.69	1343.47
342.90	1255.40
343.12	1316.84
343.33	1279.98
343.54	1259.50
343.75	1290.22
343.96	1222.64
344.17	1351.66
344.38	1261.55
344.60	1236.97
344.81	1228.78
345.02	1271.79
345.23	1279.98
345.44	1265.64
345.65	1310.70
345.86	1253.36
346.07	1224.69
346.29	1286.12
346.50	1349.61
346.71	1318.89
346.92	1265.64
347.13	1218.54
347.34	1261.55
347.55	1232.88
347.76	1312.75
347.98	1288.17
348.19	1273.84
348.40	1269.74
348.61	1253.36
348.82	1288.17
349.03	1232.88
349.24	1222.64
349.45	1286.12
349.66	1275.88
349.88	1204.21
350.09	1230.83
350.30	1259.50
350.51	1322.99
350.72	1314.80
350.93	1288.17
351.14	1261.55
351.35	1198.06
351.56	1232.88
351.77	1298.41
351.99	1255.40
352.20	1216.49
352.41	1234.93
352.62	1200.11
352.83	1318.89
353.04	1177.58
353.25	1327.08
353.46	1300.46
353.67	1222.64
353.88	1316.84
354.09	1306.60
354.30	1267.69
354.52	1261.55
354.73	1296.36
354.94	1175.53
355.15	1234.93
355.36	1263.60
355.57	1259.50
355.78	1314.80
355.99	1239.02
356.20	1288.17
356.41	1257.45
356.62	1206.25
356.83	1259.50
357.04	1298.41
357.25	1193.97
357.46	1239.02
357.68	1312.75
357.89	1279.98
358.10	1286.12
358.31	1259.50
358.52	1263.60
358.73	1222.64
358.94	1273.84
359.15	1251.31
359.36	1284.08
359.57	1243.12
359.78	1249.26
359.99	1245.16
360.20	1302.51
360.41	1292.27
360.62	1267.69
360.83	1279.98
361.04	1292.27
361.25	1208.30
361.46	1286.12
361.67	1273.84
361.88	1273.84
362.09	1222.64
362.30	1265.64
362.51	1232.88
362.72	1226.73
362.93	1253.36
363.14	1284.08
363.35	1187.82
363.56	1255.40
363.78	1275.88
363.99	1351.66
364.20	1304.56
364.41	1230.83
364.62	1320.94
364.83	1253.36
365.04	1316.84
365.25	1239.02
365.46	1322.99
365.67	1329.13
365.88	1286.12
366.09	1306.60
366.30	1245.16
366.51	1333.23
366.72	1239.02
366.93	1255.40
367.14	1161.20
367.35	1275.88
367.56	1357.80
367.77	1253.36
367.98	1257.45
368.18	1228.78
368.39	1298.41
368.60	1277.93
368.81	1316.84
369.02	1247.21
369.23	1257.45
369.44	1193.97
369.65	1269.74
369.86	1185.77
370.07	1245.16
370.28	1269.74
370.49	1189.87
370.70	1257.45
370.91	1288.17
371.12	1253.36
371.33	1310.70
371.54	1249.26
371.75	1263.60
371.96	1216.49
372.17	1327.08
372.38	1277.93
372.59	1267.69
372.80	1210.35
373.01	1196.01
373.22	1214.45
373.43	1247.21
373.64	1259.50
373.85	1312.75
374.06	1251.31
374.26	1255.40
374.47	1322.99
374.68	1234.93
374.89	1265.64
375.10	1200.11
375.31	1247.21
375.52	1294.32
375.73	1234.93
375.94	1320.94
376.15	1269.74
376.36	1224.69
376.57	1196.01
376.78	1290.22
376.99	1279.98
377.20	1298.41
377.40	1298.41
377.61	1224.69
377.82	1271.79
378.03	1181.68
378.24	1302.51
378.45	1241.07
378.66	1228.78
378.87	1261.55
379.08	1257.45
379.29	1322.99
379.50	1259.50
379.71	1241.07
379.91	1204.21
380.12	1245.16
380.33	1226.73
380.54	1222.64
380.75	1273.84
380.96	1269.74
381.17	1288.17
381.38	1216.49
381.59	1216.49
381.80	1202.16
382.00	1273.84
382.21	1181.68
382.42	1206.25
382.63	1249.26
382.84	1273.84
383.05	1314.80
383.26	1253.36
383.47	1290.22
383.68	1253.36
383.88	1253.36
384.09	1349.61
384.30	1191.92
384.51	1249.26
384.72	1249.26
384.93	1279.98
385.14	1296.36
385.35	1175.53
385.55	1224.69
385.76	1243.12
385.97	1298.41
386.18	1310.70
386.39	1224.69
386.60	1343.47
386.81	1296.36
387.02	1284.08
387.22	1212.40
387.43	1322.99
387.64	1245.16
387.85	1271.79
388.06	1304.56
388.27	1257.45
388.48	1247.21
388.68	1249.26
388.89	1263.60
389.10	1331.18
389.31	1279.98
389.52	1204.21
389.73	1290.22
389.93	1298.41
390.14	1257.45
390.35	1241.07
390.56	1320.94
390.77	1261.55
390.98	1253.36
391.18	1314.80
391.39	1241.07
391.60	1234.93
391.81	1249.26
392.02	1232.88
392.23	1247.21
392.43	1234.93
392.64	1310.70
392.85	1253.36
393.06	1265.64
393.27	1277.93
393.47	1220.59
393.68	1222.64
393.89	1269.74
394.10	1259.50
394.31	1204.21
394.52	1212.40
394.72	1296.36
394.93	1279.98
395.14	1322.99
395.35	1300.46
395.56	1277.93
395.76	1191.92
395.97	1282.03
396.18	1257.45
396.39	1251.31
396.60	1226.73
396.80	1243.12
397.01	1316.84
397.22	1181.68
397.43	1269.74
397.64	1222.64
397.84	1325.04
398.05	1286.12
398.26	1249.26
398.47	1257.45
398.67	1228.78
398.88	1251.31
399.09	1259.50
399.30	1185.77
399.51	1282.03
399.71	1218.54
399.92	1265.64
400.13	1294.32
400.34	1239.02
400.54	1255.40
400.75	1265.64
400.96	1318.89
401.17	1245.16
401.37	1220.59
401.58	1247.21
401.79	1286.12
402.00	1208.30
402.21	1253.36
402.41	1253.36
402.62	1310.70
402.83	1288.17
403.04	1294.32
403.24	1222.64
403.45	1232.88
403.66	1249.26
403.87	1302.51
404.07	1273.84
404.28	1249.26
404.49	1312.75
404.70	1351.66
404.90	1325.04
405.11	1230.83
405.32	1216.49
405.52	1269.74
405.73	1294.32
405.94	1251.31
406.15	1228.78
406.35	1366.00
406.56	1255.40
406.77	1290.22
406.98	1269.74
407.18	1181.68
407.39	1163.25
407.60	1245.16
407.80	1259.50
408.01	1245.16
408.22	1294.32
408.43	1251.31
408.63	1302.51
408.84	1222.64
409.05	1290.22
409.25	1265.64
409.46	1200.11
409.67	1249.26
409.88	1245.16
410.08	1325.04
410.29	1249.26
410.50	1284.08
410.70	1318.89
410.91	1265.64
411.12	1212.40
411.32	1275.88
411.53	1249.26
411.74	1314.80
411.95	1300.46
412.15	1275.88
412.36	1249.26
412.57	1275.88
412.77	1249.26
412.98	1261.55
413.19	1284.08
413.39	1239.02
413.60	1210.35
413.81	1275.88
414.01	1271.79
414.22	1236.97
414.43	1247.21
414.63	1265.64
414.84	1249.26
415.05	1302.51
415.25	1325.04
415.46	1249.26
415.67	1216.49
415.87	1322.99
416.08	1249.26
416.29	1333.23
416.49	1314.80
416.70	1279.98
416.91	1304.56
417.11	1222.64
417.32	1279.98
417.53	1322.99
417.73	1257.45
417.94	1318.89
418.15	1322.99
418.35	1286.12
418.56	1247.21
418.77	1275.88
418.97	1226.73
419.18	1226.73
419.38	1171.44
419.59	1271.79
419.80	1284.08
420.00	1261.55
420.21	1304.56
420.42	1282.03
420.62	1306.60
420.83	1277.93
421.04	1226.73
421.24	1331.18
421.45	1279.98
421.65	1298.41
421.86	1277.93
422.07	1282.03
422.27	1257.45
422.48	1261.55
422.69	1312.75
422.89	1253.36
423.10	1284.08
423.30	1296.36
423.51	1267.69
423.72	1302.51
423.92	1290.22
424.13	1239.02
424.33	1265.64
424.54	1322.99
424.75	1173.49
424.95	1325.04
425.16	1294.32
425.36	1290.22
425.57	1255.40
425.78	1216.49
425.98	1269.74
426.19	1259.50
426.39	1284.08
426.60	1232.88
426.81	1265.64
427.01	1304.56
427.22	1255.40
427.42	1239.02
427.63	1249.26
427.83	1232.88
428.04	1271.79
428.25	1331.18
428.45	1329.13
428.66	1318.89
428.86	1216.49
429.07	1351.66
429.28	1265.64
429.48	1273.84
429.69	1304.56
429.89	1243.12
430.10	1347.56
430.30	1257.45
430.51	1253.36
430.71	1273.84
430.92	1208.30
431.13	1214.45
431.33	1230.83
431.54	1239.02
431.74	1275.88
431.95	1263.60
432.15	1294.32
432.36	1263.60
432.56	1273.84
432.77	1239.02
432.98	1191.92
433.18	1220.59
433.39	1275.88
433.59	1275.88
433.80	1263.60
434.00	1306.60
434.21	1310.70
434.41	1290.22
434.62	1259.50
434.82	1193.97
435.03	1284.08
435.23	1263.60
435.44	1232.88
435.64	1243.12
435.85	1193.97
436.06	1265.64
436.26	1243.12
436.47	1259.50
436.67	1302.51
436.88	1253.36
437.08	1275.88
437.29	1290.22
437.49	1302.51
437.70	1245.16
437.90	1277.93
438.11	1230.83
438.31	1325.04
438.52	1253.36
438.72	1294.32
438.93	1318.89
439.13	1257.45
439.34	1236.97
439.54	1286.12
439.75	1247.21
439.95	1339.37
440.16	1234.93
440.36	1282.03
440.57	1177.58
440.77	1320.94
440.98	1333.23
441.18	1214.45
441.39	1300.46
441.59	1202.16
441.80	1236.97
442.00	1255.40
442.21	1335.28
442.41	1257.45
442.62	1261.55
442.82	1247.21
443.02	1224.69
443.23	1261.55
443.43	1222.64
443.64	1245.16
443.84	1306.60
444.05	1222.64
444.25	1232.88
444.46	1298.41
444.66	1243.12
444.87	1253.36
445.07	1302.51
445.28	1216.49
445.48	1300.46
445.69	1282.03
445.89	1220.59
446.09	1312.75
446.30	1331.18
446.50	1331.18
446.71	1286.12
446.91	1236.97
447.12	1316.84
447.32	1341.42
447.53	1322.99
447.73	1269.74
447.93	1263.60
448.14	1290.22
448.34	1267.69
448.55	1296.36
448.75	1249.26
448.96	1232.88
449.16	1366.00
449.36	1232.88
449.57	1214.45
449.77	1294.32
449.98	1263.60
450.18	1284.08
450.39	1351.66
450.59	1286.12
450.79	1327.08
451.00	1341.42
451.20	1255.40
451.41	1251.31
451.61	1316.84
451.81	1288.17
452.02	1208.30
452.22	1335.28
452.43	1388.52
452.63	1251.31
