SpectraSuite Data File
++++++++++++++++++++++++++++++++++++
Date: Sun Apr 03 19:55:54 CEST 2016
User: root
Dark Spectrum Present: No
Reference Spectrum Present: No
Number of Sampled Component Spectra: 1
Spectrometers: USB4C02835
Integration Time (usec): 10000 (USB4C02835)
Spectra Averaged: 1 (USB4C02835)
Boxcar Smoothing: 0 (USB4C02835)
Correct for Electrical Dark: No (USB4C02835)
Strobe/Lamp Enabled: No (USB4C02835)
Correct for Detector Non-linearity: No (USB4C02835)
Correct for Stray Light: No (USB4C02835)
Number of Pixels in Processed Spectrum: 3648
>>>>>Begin Processed Spectral Data<<<<<
177.47	1273.84
177.69	1273.84
177.91	1273.84
178.13	1259.50
178.36	1224.69
178.58	1224.69
178.80	1304.56
179.02	1208.30
179.24	1300.46
179.46	1314.80
179.68	1286.12
179.90	1218.54
180.13	1279.98
180.35	1284.08
180.57	1259.50
180.79	1275.88
181.01	1253.36
181.23	1236.97
181.45	1288.17
181.67	1312.75
181.90	1265.64
182.12	1247.21
182.34	1232.88
182.56	1251.31
182.78	1271.79
183.00	1288.17
183.22	1228.78
183.44	1259.50
183.66	1310.70
183.89	1204.21
184.11	1290.22
184.33	1306.60
184.55	1292.27
184.77	1267.69
184.99	1232.88
185.21	1271.79
185.43	1296.36
185.65	1267.69
185.87	1310.70
186.10	1308.65
186.32	1234.93
186.54	1163.25
186.76	1286.12
186.98	1277.93
187.20	1292.27
187.42	1251.31
187.64	1290.22
187.86	1275.88
188.08	1279.98
188.30	1282.03
188.52	1320.94
188.75	1191.92
188.97	1296.36
189.19	1198.06
189.41	1251.31
189.63	1224.69
189.85	1193.97
190.07	1185.77
190.29	1318.89
190.51	1269.74
190.73	1378.28
190.95	1257.45
191.17	1288.17
191.39	1304.56
191.61	1322.99
191.84	1257.45
192.06	1263.60
192.28	1218.54
192.50	1308.65
192.72	1263.60
192.94	1302.51
193.16	1251.31
193.38	1257.45
193.60	1259.50
193.82	1218.54
194.04	1261.55
194.26	1249.26
194.48	1245.16
194.70	1318.89
194.92	1234.93
195.14	1353.71
195.36	1210.35
195.58	1310.70
195.80	1206.25
196.02	1306.60
196.24	1312.75
196.46	1298.41
196.69	1265.64
196.91	1275.88
197.13	1277.93
197.35	1228.78
197.57	1251.31
197.79	1292.27
198.01	1292.27
198.23	1257.45
198.45	1320.94
198.67	1245.16
198.89	1220.59
199.11	1271.79
199.33	1222.64
199.55	1232.88
199.77	1214.45
199.99	1255.40
200.21	1239.02
200.43	1273.84
200.65	1249.26
200.87	1286.12
201.09	1298.41
201.31	1318.89
201.53	1245.16
201.75	1298.41
201.97	1228.78
202.19	1216.49
202.41	1288.17
202.63	1275.88
202.85	1234.93
203.07	1265.64
203.29	1316.84
203.51	1302.51
203.73	1271.79
203.95	1368.04
204.17	1298.41
204.39	1218.54
204.61	1277.93
204.83	1253.36
205.05	1218.54
205.27	1243.12
205.49	1218.54
205.71	1292.27
205.93	1316.84
206.15	1239.02
206.37	1167.34
206.59	1279.98
206.81	1325.04
207.03	1327.08
207.25	1259.50
207.47	1257.45
207.69	1241.07
207.91	1284.08
208.13	1333.23
208.34	1339.37
208.56	1290.22
208.78	1349.61
209.00	1206.25
209.22	1308.65
209.44	1265.64
209.66	1322.99
209.88	1220.59
210.10	1230.83
210.32	1273.84
210.54	1306.60
210.76	1191.92
210.98	1265.64
211.20	1243.12
211.42	1232.88
211.64	1253.36
211.86	1279.98
212.08	1218.54
212.30	1228.78
212.52	1241.07
212.74	1269.74
212.96	1296.36
213.17	1290.22
213.39	1304.56
213.61	1226.73
213.83	1265.64
214.05	1157.10
214.27	1296.36
214.49	1318.89
214.71	1204.21
214.93	1243.12
215.15	1259.50
215.37	1296.36
215.59	1306.60
215.81	1269.74
216.03	1306.60
216.24	1288.17
216.46	1271.79
216.68	1304.56
216.90	1265.64
217.12	1241.07
217.34	1265.64
217.56	1239.02
217.78	1226.73
218.00	1245.16
218.22	1253.36
218.44	1300.46
218.66	1236.97
218.87	1249.26
219.09	1292.27
219.31	1220.59
219.53	1296.36
219.75	1300.46
219.97	1282.03
220.19	1279.98
220.41	1259.50
220.63	1337.32
220.85	1308.65
221.06	1306.60
221.28	1275.88
221.50	1306.60
221.72	1288.17
221.94	1341.42
222.16	1275.88
222.38	1302.51
222.60	1216.49
222.82	1296.36
223.03	1261.55
223.25	1253.36
223.47	1253.36
223.69	1294.32
223.91	1214.45
224.13	1329.13
224.35	1296.36
224.57	1302.51
224.78	1214.45
225.00	1202.16
225.22	1296.36
225.44	1386.47
225.66	1290.22
225.88	1339.37
226.10	1224.69
226.32	1279.98
226.53	1327.08
226.75	1284.08
226.97	1306.60
227.19	1255.40
227.41	1263.60
227.63	1292.27
227.85	1329.13
228.06	1314.80
228.28	1200.11
228.50	1253.36
228.72	1241.07
228.94	1228.78
229.16	1234.93
229.37	1255.40
229.59	1288.17
229.81	1306.60
230.03	1300.46
230.25	1355.76
230.47	1282.03
230.69	1296.36
230.90	1265.64
231.12	1255.40
231.34	1316.84
231.56	1249.26
231.78	1277.93
232.00	1329.13
232.21	1269.74
232.43	1304.56
232.65	1265.64
232.87	1306.60
233.09	1230.83
233.30	1241.07
233.52	1302.51
233.74	1212.40
233.96	1292.27
234.18	1271.79
234.40	1288.17
234.61	1212.40
234.83	1296.36
235.05	1187.82
235.27	1288.17
235.49	1306.60
235.70	1251.31
235.92	1261.55
236.14	1200.11
236.36	1269.74
236.58	1304.56
236.79	1312.75
237.01	1261.55
237.23	1243.12
237.45	1257.45
237.67	1288.17
237.88	1253.36
238.10	1282.03
238.32	1271.79
238.54	1306.60
238.76	1288.17
238.97	1279.98
239.19	1261.55
239.41	1355.76
239.63	1298.41
239.85	1257.45
240.06	1257.45
240.28	1292.27
240.50	1304.56
240.72	1284.08
240.93	1224.69
241.15	1267.69
241.37	1224.69
241.59	1210.35
241.81	1257.45
242.02	1257.45
242.24	1249.26
242.46	1253.36
242.68	1241.07
242.89	1290.22
243.11	1255.40
243.33	1255.40
243.55	1277.93
243.76	1251.31
243.98	1320.94
244.20	1267.69
244.42	1236.97
244.64	1267.69
244.85	1275.88
245.07	1257.45
245.29	1275.88
245.51	1265.64
245.72	1263.60
245.94	1314.80
246.16	1220.59
246.38	1292.27
246.59	1292.27
246.81	1304.56
247.03	1275.88
247.24	1261.55
247.46	1302.51
247.68	1331.18
247.90	1290.22
248.11	1277.93
248.33	1294.32
248.55	1288.17
248.77	1310.70
248.98	1353.71
249.20	1220.59
249.42	1282.03
249.64	1198.06
249.85	1243.12
250.07	1245.16
250.29	1288.17
250.50	1247.21
250.72	1275.88
250.94	1294.32
251.16	1198.06
251.37	1232.88
251.59	1253.36
251.81	1282.03
252.02	1306.60
252.24	1222.64
252.46	1261.55
252.68	1337.32
252.89	1253.36
253.11	1228.78
253.33	1251.31
253.54	1245.16
253.76	1249.26
253.98	1304.56
254.20	1175.53
254.41	1255.40
254.63	1263.60
254.85	1208.30
255.06	1253.36
255.28	1228.78
255.50	1249.26
255.71	1228.78
255.93	1249.26
256.15	1259.50
256.36	1279.98
256.58	1236.97
256.80	1277.93
257.02	1226.73
257.23	1261.55
257.45	1183.73
257.67	1269.74
257.88	1302.51
258.10	1296.36
258.32	1296.36
258.53	1290.22
258.75	1214.45
258.97	1308.65
259.18	1171.44
259.40	1335.28
259.62	1222.64
259.83	1200.11
260.05	1273.84
260.27	1312.75
260.48	1302.51
260.70	1284.08
260.92	1288.17
261.13	1271.79
261.35	1277.93
261.57	1267.69
261.78	1275.88
262.00	1232.88
262.22	1271.79
262.43	1167.34
262.65	1245.16
262.86	1306.60
263.08	1222.64
263.30	1212.40
263.51	1277.93
263.73	1296.36
263.95	1202.16
264.16	1349.61
264.38	1259.50
264.60	1341.42
264.81	1257.45
265.03	1261.55
265.25	1277.93
265.46	1288.17
265.68	1322.99
265.89	1302.51
266.11	1253.36
266.33	1277.93
266.54	1263.60
266.76	1265.64
266.98	1187.82
267.19	1247.21
267.41	1314.80
267.62	1294.32
267.84	1232.88
268.06	1296.36
268.27	1257.45
268.49	1245.16
268.70	1282.03
268.92	1226.73
269.14	1275.88
269.35	1208.30
269.57	1320.94
269.79	1288.17
270.00	1290.22
270.22	1224.69
270.43	1257.45
270.65	1294.32
270.87	1284.08
271.08	1300.46
271.30	1232.88
271.51	1269.74
271.73	1275.88
271.95	1304.56
272.16	1208.30
272.38	1286.12
272.59	1294.32
272.81	1243.12
273.02	1245.16
273.24	1267.69
273.46	1277.93
273.67	1232.88
273.89	1331.18
274.10	1271.79
274.32	1288.17
274.54	1273.84
274.75	1329.13
274.97	1296.36
275.18	1269.74
275.40	1337.32
275.61	1351.66
275.83	1200.11
276.05	1257.45
276.26	1273.84
276.48	1368.04
276.69	1222.64
276.91	1214.45
277.12	1296.36
277.34	1232.88
277.55	1282.03
277.77	1224.69
277.99	1259.50
278.20	1312.75
278.42	1277.93
278.63	1298.41
278.85	1220.59
279.06	1206.25
279.28	1277.93
279.49	1286.12
279.71	1226.73
279.93	1282.03
280.14	1257.45
280.36	1288.17
280.57	1282.03
280.79	1189.87
281.00	1241.07
281.22	1302.51
281.43	1259.50
281.65	1273.84
281.86	1271.79
282.08	1249.26
282.29	1218.54
282.51	1239.02
282.73	1273.84
282.94	1239.02
283.16	1288.17
283.37	1236.97
283.59	1269.74
283.80	1181.68
284.02	1255.40
284.23	1267.69
284.45	1282.03
284.66	1220.59
284.88	1208.30
285.09	1255.40
285.31	1267.69
285.52	1271.79
285.74	1275.88
285.95	1304.56
286.17	1224.69
286.38	1269.74
286.60	1333.23
286.81	1284.08
287.03	1306.60
287.24	1308.65
287.46	1265.64
287.67	1372.14
287.89	1232.88
288.10	1290.22
288.32	1325.04
288.53	1277.93
288.75	1284.08
288.96	1290.22
289.18	1318.89
289.39	1247.21
289.61	1257.45
289.82	1241.07
290.04	1294.32
290.25	1331.18
290.47	1189.87
290.68	1234.93
290.90	1316.84
291.11	1267.69
291.33	1290.22
291.54	1228.78
291.76	1308.65
291.97	1234.93
292.18	1245.16
292.40	1220.59
292.61	1249.26
292.83	1304.56
293.04	1300.46
293.26	1304.56
293.47	1327.08
293.69	1234.93
293.90	1216.49
294.12	1331.18
294.33	1212.40
294.55	1185.77
294.76	1257.45
294.97	1271.79
295.19	1241.07
295.40	1224.69
295.62	1226.73
295.83	1284.08
296.05	1300.46
296.26	1245.16
296.48	1320.94
296.69	1263.60
296.90	1341.42
297.12	1310.70
297.33	1269.74
297.55	1216.49
297.76	1216.49
297.98	1343.47
298.19	1308.65
298.41	1322.99
298.62	1279.98
298.83	1288.17
299.05	1273.84
299.26	1241.07
299.48	1230.83
299.69	1214.45
299.90	1216.49
300.12	1310.70
300.33	1374.19
300.55	1267.69
300.76	1216.49
300.98	1288.17
301.19	1271.79
301.40	1273.84
301.62	1257.45
301.83	1392.62
302.05	1200.11
302.26	1249.26
302.47	1265.64
302.69	1265.64
302.90	1241.07
303.12	1202.16
303.33	1263.60
303.54	1298.41
303.76	1273.84
303.97	1251.31
304.19	1263.60
304.40	1259.50
304.61	1261.55
304.83	1273.84
305.04	1263.60
305.26	1243.12
305.47	1263.60
305.68	1200.11
305.90	1218.54
306.11	1290.22
306.33	1282.03
306.54	1265.64
306.75	1232.88
306.97	1234.93
307.18	1236.97
307.39	1253.36
307.61	1329.13
307.82	1269.74
308.04	1345.52
308.25	1271.79
308.46	1351.66
308.68	1298.41
308.89	1234.93
309.10	1249.26
309.32	1294.32
309.53	1353.71
309.74	1292.27
309.96	1175.53
310.17	1241.07
310.39	1290.22
310.60	1271.79
310.81	1226.73
311.03	1318.89
311.24	1236.97
311.45	1288.17
311.67	1320.94
311.88	1284.08
312.09	1243.12
312.31	1308.65
312.52	1290.22
312.73	1267.69
312.95	1183.73
313.16	1159.15
313.37	1239.02
313.59	1226.73
313.80	1200.11
314.01	1247.21
314.23	1253.36
314.44	1218.54
314.65	1234.93
314.87	1286.12
315.08	1175.53
315.29	1257.45
315.51	1220.59
315.72	1302.51
315.93	1322.99
316.15	1312.75
316.36	1316.84
316.57	1273.84
316.79	1269.74
317.00	1275.88
317.21	1210.35
317.43	1312.75
317.64	1304.56
317.85	1302.51
318.07	1230.83
318.28	1200.11
318.49	1269.74
318.70	1263.60
318.92	1322.99
319.13	1243.12
319.34	1277.93
319.56	1310.70
319.77	1228.78
319.98	1304.56
320.20	1251.31
320.41	1251.31
320.62	1284.08
320.83	1284.08
321.05	1269.74
321.26	1232.88
321.47	1286.12
321.69	1261.55
321.90	1310.70
322.11	1284.08
322.32	1294.32
322.54	1255.40
322.75	1304.56
322.96	1279.98
323.18	1271.79
323.39	1249.26
323.60	1277.93
323.81	1294.32
324.03	1290.22
324.24	1327.08
324.45	1355.76
324.66	1345.52
324.88	1267.69
325.09	1226.73
325.30	1290.22
325.52	1212.40
325.73	1228.78
325.94	1333.23
326.15	1284.08
326.37	1249.26
326.58	1202.16
326.79	1228.78
327.00	1327.08
327.22	1259.50
327.43	1214.45
327.64	1288.17
327.85	1298.41
328.07	1198.06
328.28	1239.02
328.49	1232.88
328.70	1228.78
328.92	1273.84
329.13	1241.07
329.34	1226.73
329.55	1232.88
329.76	1296.36
329.98	1245.16
330.19	1284.08
330.40	1275.88
330.61	1298.41
330.83	1263.60
331.04	1294.32
331.25	1265.64
331.46	1329.13
331.68	1142.77
331.89	1253.36
332.10	1269.74
332.31	1282.03
332.52	1296.36
332.74	1286.12
332.95	1263.60
333.16	1298.41
333.37	1261.55
333.58	1286.12
333.80	1183.73
334.01	1253.36
334.22	1286.12
334.43	1239.02
334.64	1249.26
334.86	1286.12
335.07	1286.12
335.28	1218.54
335.49	1267.69
335.70	1257.45
335.92	1255.40
336.13	1290.22
336.34	1294.32
336.55	1253.36
336.76	1243.12
336.98	1216.49
337.19	1257.45
337.40	1300.46
337.61	1277.93
337.82	1255.40
338.04	1318.89
338.25	1284.08
338.46	1269.74
338.67	1277.93
338.88	1218.54
339.09	1275.88
339.31	1355.76
339.52	1296.36
339.73	1277.93
339.94	1226.73
340.15	1282.03
340.36	1292.27
340.58	1290.22
340.79	1241.07
341.00	1265.64
341.21	1232.88
341.42	1220.59
341.63	1257.45
341.85	1279.98
342.06	1232.88
342.27	1304.56
342.48	1245.16
342.69	1261.55
342.90	1239.02
343.12	1226.73
343.33	1224.69
343.54	1247.21
343.75	1310.70
343.96	1329.13
344.17	1234.93
344.38	1277.93
344.60	1284.08
344.81	1269.74
345.02	1277.93
345.23	1198.06
345.44	1265.64
345.65	1241.07
345.86	1345.52
346.07	1261.55
346.29	1236.97
346.50	1277.93
346.71	1236.97
346.92	1259.50
347.13	1255.40
347.34	1339.37
347.55	1257.45
347.76	1302.51
347.98	1259.50
348.19	1255.40
348.40	1255.40
348.61	1279.98
348.82	1275.88
349.03	1370.09
349.24	1216.49
349.45	1224.69
349.66	1282.03
349.88	1286.12
350.09	1234.93
350.30	1208.30
350.51	1273.84
350.72	1327.08
350.93	1257.45
351.14	1253.36
351.35	1273.84
351.56	1257.45
351.77	1288.17
351.99	1288.17
352.20	1230.83
352.41	1284.08
352.62	1251.31
352.83	1310.70
353.04	1267.69
353.25	1273.84
353.46	1208.30
353.67	1271.79
353.88	1298.41
354.09	1308.65
354.30	1345.52
354.52	1253.36
354.73	1232.88
354.94	1271.79
355.15	1265.64
355.36	1263.60
355.57	1318.89
355.78	1294.32
355.99	1265.64
356.20	1300.46
356.41	1234.93
356.62	1296.36
356.83	1216.49
357.04	1347.56
357.25	1202.16
357.46	1320.94
357.68	1236.97
357.89	1249.26
358.10	1263.60
358.31	1247.21
358.52	1279.98
358.73	1255.40
358.94	1271.79
359.15	1220.59
359.36	1187.82
359.57	1259.50
359.78	1245.16
359.99	1322.99
360.20	1226.73
360.41	1191.92
360.62	1372.14
360.83	1243.12
361.04	1302.51
361.25	1265.64
361.46	1331.18
361.67	1236.97
361.88	1253.36
362.09	1218.54
362.30	1329.13
362.51	1286.12
362.72	1271.79
362.93	1210.35
363.14	1335.28
363.35	1226.73
363.56	1220.59
363.78	1249.26
363.99	1327.08
364.20	1236.97
364.41	1257.45
364.62	1245.16
364.83	1316.84
365.04	1206.25
365.25	1290.22
365.46	1255.40
365.67	1255.40
365.88	1273.84
366.09	1257.45
366.30	1220.59
366.51	1247.21
366.72	1253.36
366.93	1263.60
367.14	1273.84
367.35	1296.36
367.56	1263.60
367.77	1214.45
367.98	1300.46
368.18	1251.31
368.39	1249.26
368.60	1251.31
368.81	1298.41
369.02	1284.08
369.23	1220.59
369.44	1277.93
369.65	1263.60
369.86	1251.31
370.07	1267.69
370.28	1243.12
370.49	1251.31
370.70	1294.32
370.91	1255.40
371.12	1279.98
371.33	1265.64
371.54	1239.02
371.75	1206.25
371.96	1279.98
372.17	1269.74
372.38	1239.02
372.59	1212.40
372.80	1296.36
373.01	1275.88
373.22	1269.74
373.43	1234.93
373.64	1218.54
373.85	1282.03
374.06	1288.17
374.26	1257.45
374.47	1312.75
374.68	1288.17
374.89	1236.97
375.10	1277.93
375.31	1277.93
375.52	1200.11
375.73	1261.55
375.94	1267.69
376.15	1273.84
376.36	1060.85
376.57	1261.55
376.78	1286.12
376.99	1210.35
377.20	1204.21
377.40	1302.51
377.61	1265.64
377.82	1304.56
378.03	1261.55
378.24	1247.21
378.45	1212.40
378.66	1261.55
378.87	1275.88
379.08	1212.40
379.29	1228.78
379.50	1292.27
379.71	1249.26
379.91	1255.40
380.12	1255.40
380.33	1224.69
380.54	1261.55
380.75	1257.45
380.96	1275.88
381.17	1228.78
381.38	1322.99
381.59	1249.26
381.80	1337.32
382.00	1316.84
382.21	1279.98
382.42	1236.97
382.63	1265.64
382.84	1257.45
383.05	1226.73
383.26	1232.88
383.47	1261.55
383.68	1239.02
383.88	1220.59
384.09	1277.93
384.30	1228.78
384.51	1298.41
384.72	1320.94
384.93	1232.88
385.14	1251.31
385.35	1329.13
385.55	1204.21
385.76	1282.03
385.97	1304.56
386.18	1179.63
386.39	1228.78
386.60	1243.12
386.81	1286.12
387.02	1271.79
387.22	1198.06
387.43	1245.16
387.64	1279.98
387.85	1249.26
388.06	1273.84
388.27	1314.80
388.48	1208.30
388.68	1241.07
388.89	1193.97
389.10	1202.16
389.31	1214.45
389.52	1294.32
389.73	1314.80
389.93	1273.84
390.14	1300.46
390.35	1325.04
390.56	1216.49
390.77	1347.56
390.98	1241.07
391.18	1347.56
391.39	1212.40
391.60	1216.49
391.81	1245.16
392.02	1302.51
392.23	1269.74
392.43	1249.26
392.64	1241.07
392.85	1206.25
393.06	1277.93
393.27	1288.17
393.47	1261.55
393.68	1320.94
393.89	1284.08
394.10	1265.64
394.31	1177.58
394.52	1255.40
394.72	1232.88
394.93	1314.80
395.14	1271.79
395.35	1224.69
395.56	1286.12
395.76	1284.08
395.97	1271.79
396.18	1322.99
396.39	1202.16
396.60	1232.88
396.80	1230.83
397.01	1255.40
397.22	1275.88
397.43	1226.73
397.64	1271.79
397.84	1243.12
398.05	1214.45
398.26	1284.08
398.47	1226.73
398.67	1275.88
398.88	1300.46
399.09	1265.64
399.30	1222.64
399.51	1249.26
399.71	1247.21
399.92	1232.88
400.13	1261.55
400.34	1222.64
400.54	1212.40
400.75	1267.69
400.96	1208.30
401.17	1208.30
401.37	1232.88
401.58	1265.64
401.79	1292.27
402.00	1302.51
402.21	1275.88
402.41	1355.76
402.62	1191.92
402.83	1265.64
403.04	1257.45
403.24	1224.69
403.45	1212.40
403.66	1253.36
403.87	1222.64
404.07	1368.04
404.28	1273.84
404.49	1249.26
404.70	1241.07
404.90	1241.07
405.11	1216.49
405.32	1284.08
405.52	1284.08
405.73	1275.88
405.94	1273.84
406.15	1294.32
406.35	1277.93
406.56	1189.87
406.77	1255.40
406.98	1275.88
407.18	1288.17
407.39	1275.88
407.60	1210.35
407.80	1265.64
408.01	1222.64
408.22	1273.84
408.43	1259.50
408.63	1245.16
408.84	1243.12
409.05	1224.69
409.25	1204.21
409.46	1257.45
409.67	1331.18
409.88	1253.36
410.08	1284.08
410.29	1310.70
410.50	1220.59
410.70	1290.22
410.91	1167.34
411.12	1255.40
411.32	1239.02
411.53	1239.02
411.74	1327.08
411.95	1249.26
412.15	1273.84
412.36	1316.84
412.57	1306.60
412.77	1263.60
412.98	1282.03
413.19	1257.45
413.39	1275.88
413.60	1331.18
413.81	1247.21
414.01	1253.36
414.22	1298.41
414.43	1290.22
414.63	1269.74
414.84	1239.02
415.05	1277.93
415.25	1300.46
415.46	1310.70
415.67	1255.40
415.87	1234.93
416.08	1282.03
416.29	1316.84
416.49	1269.74
416.70	1277.93
416.91	1282.03
417.11	1243.12
417.32	1286.12
417.53	1214.45
417.73	1259.50
417.94	1257.45
418.15	1265.64
418.35	1322.99
418.56	1290.22
418.77	1277.93
418.97	1286.12
419.18	1236.97
419.38	1282.03
419.59	1296.36
419.80	1255.40
420.00	1183.73
420.21	1269.74
420.42	1247.21
420.62	1228.78
420.83	1239.02
421.04	1255.40
421.24	1284.08
421.45	1277.93
421.65	1241.07
421.86	1298.41
422.07	1298.41
422.27	1230.83
422.48	1300.46
422.69	1236.97
422.89	1234.93
423.10	1230.83
423.30	1241.07
423.51	1271.79
423.72	1249.26
423.92	1320.94
424.13	1294.32
424.33	1259.50
424.54	1304.56
424.75	1322.99
424.95	1204.21
425.16	1257.45
425.36	1208.30
425.57	1269.74
425.78	1290.22
425.98	1314.80
426.19	1200.11
426.39	1179.63
426.60	1253.36
426.81	1282.03
427.01	1253.36
427.22	1263.60
427.42	1290.22
427.63	1232.88
427.83	1247.21
428.04	1202.16
428.25	1290.22
428.45	1269.74
428.66	1263.60
428.86	1277.93
429.07	1294.32
429.28	1312.75
429.48	1228.78
429.69	1230.83
429.89	1347.56
430.10	1277.93
430.30	1286.12
430.51	1269.74
430.71	1261.55
430.92	1325.04
431.13	1245.16
431.33	1210.35
431.54	1320.94
431.74	1247.21
431.95	1308.65
432.15	1322.99
432.36	1218.54
432.56	1306.60
432.77	1269.74
432.98	1304.56
433.18	1345.52
433.39	1261.55
433.59	1222.64
433.80	1279.98
434.00	1275.88
434.21	1275.88
434.41	1296.36
434.62	1214.45
434.82	1191.92
435.03	1267.69
435.23	1314.80
435.44	1263.60
435.64	1204.21
435.85	1339.37
436.06	1279.98
436.26	1286.12
436.47	1298.41
436.67	1249.26
436.88	1296.36
437.08	1300.46
437.29	1308.65
437.49	1263.60
437.70	1343.47
437.90	1236.97
438.11	1308.65
438.31	1249.26
438.52	1368.04
438.72	1212.40
438.93	1259.50
439.13	1286.12
439.34	1298.41
439.54	1284.08
439.75	1265.64
439.95	1230.83
440.16	1300.46
440.36	1247.21
440.57	1282.03
440.77	1257.45
440.98	1304.56
441.18	1288.17
441.39	1286.12
441.59	1292.27
441.80	1282.03
442.00	1320.94
442.21	1239.02
442.41	1232.88
442.62	1241.07
442.82	1232.88
443.02	1327.08
443.23	1269.74
443.43	1318.89
443.64	1298.41
443.84	1267.69
444.05	1308.65
444.25	1314.80
444.46	1271.79
444.66	1239.02
444.87	1257.45
445.07	1267.69
445.28	1290.22
445.48	1329.13
445.69	1243.12
445.89	1288.17
446.09	1196.01
446.30	1294.32
446.50	1271.79
446.71	1282.03
446.91	1279.98
447.12	1265.64
447.32	1263.60
447.53	1275.88
447.73	1292.27
447.93	1284.08
448.14	1310.70
448.34	1245.16
448.55	1306.60
448.75	1282.03
448.96	1273.84
449.16	1277.93
449.36	1294.32
449.57	1245.16
449.77	1298.41
449.98	1286.12
450.18	1255.40
450.39	1267.69
450.59	1282.03
450.79	1224.69
451.00	1222.64
451.20	1245.16
451.41	1314.80
451.61	1347.56
451.81	1275.88
452.02	1325.04
452.22	1335.28
452.43	1202.16
452.63	1296.36
