SpectraSuite Data File
++++++++++++++++++++++++++++++++++++
Date: Sun Apr 03 19:55:31 CEST 2016
User: root
Dark Spectrum Present: No
Reference Spectrum Present: No
Number of Sampled Component Spectra: 1
Spectrometers: USB4C02835
Integration Time (usec): 10000 (USB4C02835)
Spectra Averaged: 1 (USB4C02835)
Boxcar Smoothing: 0 (USB4C02835)
Correct for Electrical Dark: No (USB4C02835)
Strobe/Lamp Enabled: No (USB4C02835)
Correct for Detector Non-linearity: No (USB4C02835)
Correct for Stray Light: No (USB4C02835)
Number of Pixels in Processed Spectrum: 3648
>>>>>Begin Processed Spectral Data<<<<<
177.47	1232.88
177.69	1232.88
177.91	1232.88
178.13	1259.50
178.36	1273.84
178.58	1212.40
178.80	1245.16
179.02	1253.36
179.24	1224.69
179.46	1265.64
179.68	1296.36
179.90	1345.52
180.13	1216.49
180.35	1296.36
180.57	1253.36
180.79	1210.35
181.01	1263.60
181.23	1243.12
181.45	1257.45
181.67	1290.22
181.90	1239.02
182.12	1202.16
182.34	1212.40
182.56	1339.37
182.78	1282.03
183.00	1349.61
183.22	1259.50
183.44	1263.60
183.66	1288.17
183.89	1306.60
184.11	1214.45
184.33	1304.56
184.55	1304.56
184.77	1251.31
184.99	1259.50
185.21	1241.07
185.43	1343.47
185.65	1277.93
185.87	1204.21
186.10	1206.25
186.32	1286.12
186.54	1286.12
186.76	1206.25
186.98	1312.75
187.20	1288.17
187.42	1271.79
187.64	1236.97
187.86	1275.88
188.08	1214.45
188.30	1220.59
188.52	1236.97
188.75	1224.69
188.97	1255.40
189.19	1220.59
189.41	1314.80
189.63	1200.11
189.85	1329.13
190.07	1249.26
190.29	1300.46
190.51	1202.16
190.73	1290.22
190.95	1212.40
191.17	1318.89
191.39	1251.31
191.61	1265.64
191.84	1300.46
192.06	1302.51
192.28	1214.45
192.50	1290.22
192.72	1193.97
192.94	1288.17
193.16	1226.73
193.38	1255.40
193.60	1308.65
193.82	1243.12
194.04	1353.71
194.26	1275.88
194.48	1255.40
194.70	1271.79
194.92	1251.31
195.14	1306.60
195.36	1286.12
195.58	1284.08
195.80	1253.36
196.02	1275.88
196.24	1370.09
196.46	1210.35
196.69	1306.60
196.91	1320.94
197.13	1288.17
197.35	1247.21
197.57	1210.35
197.79	1245.16
198.01	1191.92
198.23	1306.60
198.45	1261.55
198.67	1341.42
198.89	1296.36
199.11	1245.16
199.33	1288.17
199.55	1273.84
199.77	1218.54
199.99	1300.46
200.21	1243.12
200.43	1292.27
200.65	1234.93
200.87	1218.54
201.09	1261.55
201.31	1236.97
201.53	1236.97
201.75	1308.65
201.97	1204.21
202.19	1282.03
202.41	1249.26
202.63	1249.26
202.85	1216.49
203.07	1294.32
203.29	1277.93
203.51	1284.08
203.73	1316.84
203.95	1277.93
204.17	1187.82
204.39	1269.74
204.61	1196.01
204.83	1300.46
205.05	1298.41
205.27	1228.78
205.49	1228.78
205.71	1255.40
205.93	1208.30
206.15	1189.87
206.37	1230.83
206.59	1282.03
206.81	1290.22
207.03	1337.32
207.25	1284.08
207.47	1249.26
207.69	1265.64
207.91	1265.64
208.13	1269.74
208.34	1286.12
208.56	1288.17
208.78	1216.49
209.00	1259.50
209.22	1320.94
209.44	1249.26
209.66	1312.75
209.88	1304.56
210.10	1214.45
210.32	1279.98
210.54	1284.08
210.76	1269.74
210.98	1279.98
211.20	1243.12
211.42	1318.89
211.64	1325.04
211.86	1269.74
212.08	1226.73
212.30	1286.12
212.52	1331.18
212.74	1259.50
212.96	1251.31
213.17	1284.08
213.39	1273.84
213.61	1247.21
213.83	1314.80
214.05	1267.69
214.27	1253.36
214.49	1214.45
214.71	1212.40
214.93	1279.98
215.15	1226.73
215.37	1214.45
215.59	1288.17
215.81	1245.16
216.03	1255.40
216.24	1261.55
216.46	1206.25
216.68	1279.98
216.90	1284.08
217.12	1286.12
217.34	1224.69
217.56	1292.27
217.78	1253.36
218.00	1306.60
218.22	1267.69
218.44	1265.64
218.66	1232.88
218.87	1300.46
219.09	1302.51
219.31	1288.17
219.53	1191.92
219.75	1259.50
219.97	1294.32
220.19	1337.32
220.41	1224.69
220.63	1275.88
220.85	1290.22
221.06	1269.74
221.28	1318.89
221.50	1273.84
221.72	1277.93
221.94	1304.56
222.16	1228.78
222.38	1267.69
222.60	1325.04
222.82	1263.60
223.03	1253.36
223.25	1239.02
223.47	1290.22
223.69	1269.74
223.91	1292.27
224.13	1269.74
224.35	1204.21
224.57	1263.60
224.78	1282.03
225.00	1271.79
225.22	1347.56
225.44	1255.40
225.66	1261.55
225.88	1249.26
226.10	1249.26
226.32	1243.12
226.53	1265.64
226.75	1230.83
226.97	1249.26
227.19	1271.79
227.41	1271.79
227.63	1288.17
227.85	1269.74
228.06	1329.13
228.28	1316.84
228.50	1314.80
228.72	1204.21
228.94	1259.50
229.16	1196.01
229.37	1284.08
229.59	1228.78
229.81	1282.03
230.03	1243.12
230.25	1241.07
230.47	1288.17
230.69	1191.92
230.90	1202.16
231.12	1228.78
231.34	1337.32
231.56	1245.16
231.78	1298.41
232.00	1349.61
232.21	1290.22
232.43	1271.79
232.65	1245.16
232.87	1279.98
233.09	1298.41
233.30	1284.08
233.52	1193.97
233.74	1167.34
233.96	1318.89
234.18	1310.70
234.40	1208.30
234.61	1243.12
234.83	1327.08
235.05	1290.22
235.27	1294.32
235.49	1181.68
235.70	1304.56
235.92	1304.56
236.14	1347.56
236.36	1232.88
236.58	1322.99
236.79	1273.84
237.01	1290.22
237.23	1208.30
237.45	1298.41
237.67	1284.08
237.88	1228.78
238.10	1247.21
238.32	1232.88
238.54	1263.60
238.76	1277.93
238.97	1226.73
239.19	1263.60
239.41	1230.83
239.63	1236.97
239.85	1255.40
240.06	1230.83
240.28	1269.74
240.50	1322.99
240.72	1269.74
240.93	1282.03
241.15	1306.60
241.37	1304.56
241.59	1300.46
241.81	1298.41
242.02	1206.25
242.24	1228.78
242.46	1271.79
242.68	1355.76
242.89	1312.75
243.11	1302.51
243.33	1220.59
243.55	1200.11
243.76	1261.55
243.98	1318.89
244.20	1279.98
244.42	1335.28
244.64	1257.45
244.85	1230.83
245.07	1216.49
245.29	1318.89
245.51	1236.97
245.72	1263.60
245.94	1224.69
246.16	1269.74
246.38	1298.41
246.59	1224.69
246.81	1296.36
247.03	1353.71
247.24	1257.45
247.46	1296.36
247.68	1277.93
247.90	1261.55
248.11	1191.92
248.33	1279.98
248.55	1273.84
248.77	1275.88
248.98	1286.12
249.20	1259.50
249.42	1251.31
249.64	1243.12
249.85	1327.08
250.07	1312.75
250.29	1306.60
250.50	1222.64
250.72	1247.21
250.94	1271.79
251.16	1302.51
251.37	1298.41
251.59	1224.69
251.81	1216.49
252.02	1175.53
252.24	1259.50
252.46	1210.35
252.68	1327.08
252.89	1249.26
253.11	1257.45
253.33	1372.14
253.54	1247.21
253.76	1263.60
253.98	1212.40
254.20	1306.60
254.41	1277.93
254.63	1329.13
254.85	1216.49
255.06	1316.84
255.28	1249.26
255.50	1257.45
255.71	1282.03
255.93	1282.03
256.15	1247.21
256.36	1220.59
256.58	1247.21
256.80	1316.84
257.02	1290.22
257.23	1300.46
257.45	1261.55
257.67	1249.26
257.88	1243.12
258.10	1290.22
258.32	1314.80
258.53	1245.16
258.75	1286.12
258.97	1259.50
259.18	1239.02
259.40	1298.41
259.62	1241.07
259.83	1247.21
260.05	1288.17
260.27	1243.12
260.48	1224.69
260.70	1314.80
260.92	1257.45
261.13	1265.64
261.35	1312.75
261.57	1251.31
261.78	1216.49
262.00	1253.36
262.22	1239.02
262.43	1306.60
262.65	1339.37
262.86	1218.54
263.08	1322.99
263.30	1292.27
263.51	1294.32
263.73	1279.98
263.95	1243.12
264.16	1320.94
264.38	1277.93
264.60	1175.53
264.81	1390.57
265.03	1296.36
265.25	1288.17
265.46	1288.17
265.68	1257.45
265.89	1265.64
266.11	1200.11
266.33	1312.75
266.54	1230.83
266.76	1273.84
266.98	1343.47
267.19	1275.88
267.41	1261.55
267.62	1245.16
267.84	1259.50
268.06	1282.03
268.27	1306.60
268.49	1257.45
268.70	1286.12
268.92	1300.46
269.14	1267.69
269.35	1312.75
269.57	1273.84
269.79	1251.31
270.00	1206.25
270.22	1230.83
270.43	1308.65
270.65	1273.84
270.87	1279.98
271.08	1355.76
271.30	1273.84
271.51	1279.98
271.73	1298.41
271.95	1308.65
272.16	1304.56
272.38	1249.26
272.59	1243.12
272.81	1296.36
273.02	1251.31
273.24	1232.88
273.46	1273.84
273.67	1269.74
273.89	1257.45
274.10	1292.27
274.32	1261.55
274.54	1241.07
274.75	1271.79
274.97	1200.11
275.18	1314.80
275.40	1290.22
275.61	1298.41
275.83	1253.36
276.05	1271.79
276.26	1257.45
276.48	1226.73
276.69	1232.88
276.91	1232.88
277.12	1251.31
277.34	1187.82
277.55	1341.42
277.77	1249.26
277.99	1273.84
278.20	1284.08
278.42	1255.40
278.63	1198.06
278.85	1314.80
279.06	1277.93
279.28	1279.98
279.49	1318.89
279.71	1267.69
279.93	1290.22
280.14	1322.99
280.36	1230.83
280.57	1282.03
280.79	1310.70
281.00	1236.97
281.22	1284.08
281.43	1277.93
281.65	1193.97
281.86	1294.32
282.08	1249.26
282.29	1304.56
282.51	1253.36
282.73	1208.30
282.94	1282.03
283.16	1320.94
283.37	1261.55
283.59	1230.83
283.80	1236.97
284.02	1165.29
284.23	1243.12
284.45	1255.40
284.66	1253.36
284.88	1251.31
285.09	1290.22
285.31	1269.74
285.52	1275.88
285.74	1265.64
285.95	1228.78
286.17	1333.23
286.38	1286.12
286.60	1224.69
286.81	1261.55
287.03	1236.97
287.24	1290.22
287.46	1296.36
287.67	1341.42
287.89	1269.74
288.10	1269.74
288.32	1329.13
288.53	1224.69
288.75	1273.84
288.96	1269.74
289.18	1271.79
289.39	1314.80
289.61	1239.02
289.82	1331.18
290.04	1306.60
290.25	1304.56
290.47	1261.55
290.68	1312.75
290.90	1374.19
291.11	1308.65
291.33	1347.56
291.54	1247.21
291.76	1267.69
291.97	1279.98
292.18	1239.02
292.40	1208.30
292.61	1253.36
292.83	1253.36
293.04	1236.97
293.26	1169.39
293.47	1249.26
293.69	1353.71
293.90	1255.40
294.12	1255.40
294.33	1290.22
294.55	1282.03
294.76	1306.60
294.97	1284.08
295.19	1269.74
295.40	1279.98
295.62	1253.36
295.83	1279.98
296.05	1228.78
296.26	1265.64
296.48	1282.03
296.69	1257.45
296.90	1279.98
297.12	1259.50
297.33	1282.03
297.55	1263.60
297.76	1320.94
297.98	1286.12
298.19	1314.80
298.41	1331.18
298.62	1241.07
298.83	1245.16
299.05	1259.50
299.26	1247.21
299.48	1265.64
299.69	1232.88
299.90	1251.31
300.12	1310.70
300.33	1265.64
300.55	1261.55
300.76	1222.64
300.98	1265.64
301.19	1290.22
301.40	1222.64
301.62	1312.75
301.83	1314.80
302.05	1298.41
302.26	1267.69
302.47	1245.16
302.69	1206.25
302.90	1267.69
303.12	1290.22
303.33	1292.27
303.54	1239.02
303.76	1302.51
303.97	1239.02
304.19	1290.22
304.40	1318.89
304.61	1308.65
304.83	1232.88
305.04	1230.83
305.26	1298.41
305.47	1251.31
305.68	1255.40
305.90	1263.60
306.11	1247.21
306.33	1247.21
306.54	1341.42
306.75	1302.51
306.97	1273.84
307.18	1302.51
307.39	1191.92
307.61	1255.40
307.82	1302.51
308.04	1259.50
308.25	1286.12
308.46	1224.69
308.68	1277.93
308.89	1269.74
309.10	1257.45
309.32	1228.78
309.53	1249.26
309.74	1282.03
309.96	1239.02
310.17	1361.90
310.39	1232.88
310.60	1208.30
310.81	1214.45
311.03	1269.74
311.24	1302.51
311.45	1282.03
311.67	1245.16
311.88	1255.40
312.09	1206.25
312.31	1337.32
312.52	1308.65
312.73	1245.16
312.95	1310.70
313.16	1234.93
313.37	1331.18
313.59	1316.84
313.80	1267.69
314.01	1241.07
314.23	1216.49
314.44	1212.40
314.65	1312.75
314.87	1306.60
315.08	1228.78
315.29	1161.20
315.51	1218.54
315.72	1282.03
315.93	1265.64
316.15	1222.64
316.36	1236.97
316.57	1247.21
316.79	1314.80
317.00	1314.80
317.21	1251.31
317.43	1243.12
317.64	1304.56
317.85	1255.40
318.07	1245.16
318.28	1234.93
318.49	1269.74
318.70	1228.78
318.92	1265.64
319.13	1300.46
319.34	1275.88
319.56	1263.60
319.77	1216.49
319.98	1247.21
320.20	1249.26
320.41	1269.74
320.62	1269.74
320.83	1253.36
321.05	1247.21
321.26	1224.69
321.47	1275.88
321.69	1292.27
321.90	1196.01
322.11	1316.84
322.32	1204.21
322.54	1163.25
322.75	1290.22
322.96	1255.40
323.18	1255.40
323.39	1265.64
323.60	1267.69
323.81	1267.69
324.03	1245.16
324.24	1224.69
324.45	1243.12
324.66	1259.50
324.88	1282.03
325.09	1241.07
325.30	1279.98
325.52	1290.22
325.73	1292.27
325.94	1241.07
326.15	1234.93
326.37	1318.89
326.58	1257.45
326.79	1234.93
327.00	1265.64
327.22	1265.64
327.43	1191.92
327.64	1271.79
327.85	1198.06
328.07	1202.16
328.28	1243.12
328.49	1290.22
328.70	1265.64
328.92	1310.70
329.13	1304.56
329.34	1294.32
329.55	1169.39
329.76	1306.60
329.98	1202.16
330.19	1273.84
330.40	1230.83
330.61	1241.07
330.83	1263.60
331.04	1249.26
331.25	1243.12
331.46	1253.36
331.68	1333.23
331.89	1304.56
332.10	1263.60
332.31	1249.26
332.52	1245.16
332.74	1228.78
332.95	1222.64
333.16	1173.49
333.37	1261.55
333.58	1243.12
333.80	1300.46
334.01	1261.55
334.22	1239.02
334.43	1318.89
334.64	1271.79
334.86	1286.12
335.07	1230.83
335.28	1288.17
335.49	1261.55
335.70	1198.06
335.92	1306.60
336.13	1269.74
336.34	1302.51
336.55	1288.17
336.76	1265.64
336.98	1214.45
337.19	1277.93
337.40	1224.69
337.61	1329.13
337.82	1290.22
338.04	1245.16
338.25	1273.84
338.46	1339.37
338.67	1200.11
338.88	1210.35
339.09	1255.40
339.31	1251.31
339.52	1239.02
339.73	1294.32
339.94	1279.98
340.15	1251.31
340.36	1204.21
340.58	1300.46
340.79	1257.45
341.00	1306.60
341.21	1224.69
341.42	1277.93
341.63	1245.16
341.85	1322.99
342.06	1357.80
342.27	1261.55
342.48	1306.60
342.69	1259.50
342.90	1277.93
343.12	1296.36
343.33	1304.56
343.54	1310.70
343.75	1329.13
343.96	1230.83
344.17	1277.93
344.38	1257.45
344.60	1177.58
344.81	1222.64
345.02	1265.64
345.23	1220.59
345.44	1253.36
345.65	1312.75
345.86	1245.16
346.07	1253.36
346.29	1263.60
346.50	1271.79
346.71	1245.16
346.92	1298.41
347.13	1322.99
347.34	1175.53
347.55	1310.70
347.76	1245.16
347.98	1282.03
348.19	1286.12
348.40	1341.42
348.61	1236.97
348.82	1273.84
349.03	1294.32
349.24	1257.45
349.45	1320.94
349.66	1359.85
349.88	1247.21
350.09	1269.74
350.30	1257.45
350.51	1265.64
350.72	1363.95
350.93	1304.56
351.14	1255.40
351.35	1263.60
351.56	1304.56
351.77	1304.56
351.99	1226.73
352.20	1279.98
352.41	1228.78
352.62	1206.25
352.83	1216.49
353.04	1222.64
353.25	1341.42
353.46	1198.06
353.67	1304.56
353.88	1175.53
354.09	1216.49
354.30	1230.83
354.52	1239.02
354.73	1228.78
354.94	1275.88
355.15	1275.88
355.36	1288.17
355.57	1298.41
355.78	1292.27
355.99	1269.74
356.20	1247.21
356.41	1304.56
356.62	1282.03
356.83	1224.69
357.04	1286.12
357.25	1273.84
357.46	1294.32
357.68	1304.56
357.89	1277.93
358.10	1316.84
358.31	1249.26
358.52	1292.27
358.73	1327.08
358.94	1302.51
359.15	1251.31
359.36	1296.36
359.57	1257.45
359.78	1245.16
359.99	1245.16
360.20	1247.21
360.41	1236.97
360.62	1341.42
360.83	1214.45
361.04	1232.88
361.25	1300.46
361.46	1216.49
361.67	1257.45
361.88	1241.07
362.09	1253.36
362.30	1224.69
362.51	1200.11
362.72	1325.04
362.93	1255.40
363.14	1255.40
363.35	1249.26
363.56	1243.12
363.78	1155.05
363.99	1228.78
364.20	1290.22
364.41	1279.98
364.62	1335.28
364.83	1261.55
365.04	1290.22
365.25	1296.36
365.46	1255.40
365.67	1275.88
365.88	1271.79
366.09	1253.36
366.30	1255.40
366.51	1277.93
366.72	1247.21
366.93	1247.21
367.14	1277.93
367.35	1282.03
367.56	1265.64
367.77	1222.64
367.98	1251.31
368.18	1220.59
368.39	1243.12
368.60	1298.41
368.81	1318.89
369.02	1296.36
369.23	1267.69
369.44	1200.11
369.65	1267.69
369.86	1298.41
370.07	1265.64
370.28	1224.69
370.49	1228.78
370.70	1255.40
370.91	1265.64
371.12	1200.11
371.33	1243.12
371.54	1253.36
371.75	1290.22
371.96	1200.11
372.17	1218.54
372.38	1232.88
372.59	1306.60
372.80	1298.41
373.01	1290.22
373.22	1187.82
373.43	1218.54
373.64	1271.79
373.85	1284.08
374.06	1263.60
374.26	1269.74
374.47	1204.21
374.68	1247.21
374.89	1298.41
375.10	1294.32
375.31	1212.40
375.52	1282.03
375.73	1294.32
375.94	1247.21
376.15	1249.26
376.36	1224.69
376.57	1239.02
376.78	1251.31
376.99	1206.25
377.20	1236.97
377.40	1327.08
377.61	1212.40
377.82	1198.06
378.03	1247.21
378.24	1296.36
378.45	1234.93
378.66	1306.60
378.87	1249.26
379.08	1288.17
379.29	1220.59
379.50	1282.03
379.71	1261.55
379.91	1226.73
380.12	1308.65
380.33	1214.45
380.54	1279.98
380.75	1361.90
380.96	1267.69
381.17	1247.21
381.38	1261.55
381.59	1228.78
381.80	1255.40
382.00	1261.55
382.21	1277.93
382.42	1288.17
382.63	1200.11
382.84	1333.23
383.05	1275.88
383.26	1320.94
383.47	1300.46
383.68	1308.65
383.88	1292.27
384.09	1236.97
384.30	1220.59
384.51	1290.22
384.72	1224.69
384.93	1306.60
385.14	1269.74
385.35	1298.41
385.55	1294.32
385.76	1239.02
385.97	1304.56
386.18	1271.79
386.39	1294.32
386.60	1275.88
386.81	1230.83
387.02	1216.49
387.22	1230.83
387.43	1325.04
387.64	1263.60
387.85	1220.59
388.06	1308.65
388.27	1249.26
388.48	1222.64
388.68	1224.69
388.89	1210.35
389.10	1300.46
389.31	1239.02
389.52	1247.21
389.73	1257.45
389.93	1267.69
390.14	1245.16
390.35	1271.79
390.56	1302.51
390.77	1263.60
390.98	1255.40
391.18	1286.12
391.39	1255.40
391.60	1316.84
391.81	1290.22
392.02	1282.03
392.23	1265.64
392.43	1263.60
392.64	1292.27
392.85	1277.93
393.06	1253.36
393.27	1232.88
393.47	1241.07
393.68	1294.32
393.89	1329.13
394.10	1333.23
394.31	1239.02
394.52	1241.07
394.72	1247.21
394.93	1286.12
395.14	1251.31
395.35	1304.56
395.56	1310.70
395.76	1236.97
395.97	1189.87
396.18	1355.76
396.39	1220.59
396.60	1269.74
396.80	1261.55
397.01	1382.38
397.22	1259.50
397.43	1296.36
397.64	1257.45
397.84	1345.52
398.05	1247.21
398.26	1304.56
398.47	1173.49
398.67	1255.40
398.88	1243.12
399.09	1273.84
399.30	1273.84
399.51	1245.16
399.71	1306.60
399.92	1208.30
400.13	1224.69
400.34	1216.49
400.54	1230.83
400.75	1193.97
400.96	1294.32
401.17	1253.36
401.37	1273.84
401.58	1275.88
401.79	1402.86
402.00	1363.95
402.21	1253.36
402.41	1343.47
402.62	1267.69
402.83	1290.22
403.04	1263.60
403.24	1255.40
403.45	1224.69
403.66	1255.40
403.87	1251.31
404.07	1255.40
404.28	1251.31
404.49	1298.41
404.70	1271.79
404.90	1284.08
405.11	1292.27
405.32	1249.26
405.52	1243.12
405.73	1228.78
405.94	1230.83
406.15	1228.78
406.35	1259.50
406.56	1308.65
406.77	1245.16
406.98	1298.41
407.18	1296.36
407.39	1245.16
407.60	1290.22
407.80	1236.97
408.01	1251.31
408.22	1304.56
408.43	1302.51
408.63	1306.60
408.84	1230.83
409.05	1236.97
409.25	1236.97
409.46	1222.64
409.67	1298.41
409.88	1196.01
410.08	1208.30
410.29	1304.56
410.50	1284.08
410.70	1345.52
410.91	1218.54
411.12	1302.51
411.32	1298.41
411.53	1294.32
411.74	1279.98
411.95	1257.45
412.15	1261.55
412.36	1302.51
412.57	1232.88
412.77	1271.79
412.98	1245.16
413.19	1325.04
413.39	1277.93
413.60	1222.64
413.81	1282.03
414.01	1230.83
414.22	1191.92
414.43	1275.88
414.63	1232.88
414.84	1220.59
415.05	1218.54
415.25	1241.07
415.46	1239.02
415.67	1261.55
415.87	1290.22
416.08	1294.32
416.29	1288.17
416.49	1306.60
416.70	1347.56
416.91	1271.79
417.11	1261.55
417.32	1255.40
417.53	1243.12
417.73	1220.59
417.94	1284.08
418.15	1292.27
418.35	1245.16
418.56	1243.12
418.77	1267.69
418.97	1279.98
419.18	1220.59
419.38	1163.25
419.59	1271.79
419.80	1273.84
420.00	1230.83
420.21	1261.55
420.42	1257.45
420.62	1232.88
420.83	1284.08
421.04	1243.12
421.24	1232.88
421.45	1257.45
421.65	1306.60
421.86	1282.03
422.07	1282.03
422.27	1282.03
422.48	1261.55
422.69	1243.12
422.89	1255.40
423.10	1275.88
423.30	1239.02
423.51	1314.80
423.72	1193.97
423.92	1265.64
424.13	1241.07
424.33	1312.75
424.54	1226.73
424.75	1353.71
424.95	1298.41
425.16	1308.65
425.36	1245.16
425.57	1308.65
425.78	1306.60
425.98	1253.36
426.19	1275.88
426.39	1327.08
426.60	1312.75
426.81	1263.60
427.01	1212.40
427.22	1222.64
427.42	1296.36
427.63	1241.07
427.83	1224.69
428.04	1210.35
428.25	1261.55
428.45	1304.56
428.66	1284.08
428.86	1230.83
429.07	1230.83
429.28	1257.45
429.48	1241.07
429.69	1251.31
429.89	1259.50
430.10	1306.60
430.30	1251.31
430.51	1345.52
430.71	1347.56
430.92	1288.17
431.13	1204.21
431.33	1380.33
431.54	1298.41
431.74	1355.76
431.95	1337.32
432.15	1277.93
432.36	1243.12
432.56	1255.40
432.77	1263.60
432.98	1298.41
433.18	1286.12
433.39	1232.88
433.59	1282.03
433.80	1331.18
434.00	1316.84
434.21	1288.17
434.41	1261.55
434.62	1282.03
434.82	1310.70
435.03	1298.41
435.23	1189.87
435.44	1273.84
435.64	1216.49
435.85	1265.64
436.06	1239.02
436.26	1257.45
436.47	1271.79
436.67	1388.52
436.88	1310.70
437.08	1255.40
437.29	1341.42
437.49	1177.58
437.70	1226.73
437.90	1341.42
438.11	1310.70
438.31	1271.79
438.52	1265.64
438.72	1222.64
438.93	1318.89
439.13	1273.84
439.34	1298.41
439.54	1275.88
439.75	1251.31
439.95	1286.12
440.16	1304.56
440.36	1257.45
440.57	1234.93
440.77	1241.07
440.98	1249.26
441.18	1247.21
441.39	1257.45
441.59	1265.64
441.80	1230.83
442.00	1304.56
442.21	1282.03
442.41	1290.22
442.62	1306.60
442.82	1306.60
443.02	1296.36
443.23	1277.93
443.43	1329.13
443.64	1296.36
443.84	1282.03
444.05	1265.64
444.25	1243.12
444.46	1277.93
444.66	1320.94
444.87	1294.32
445.07	1366.00
445.28	1275.88
445.48	1294.32
445.69	1236.97
445.89	1263.60
446.09	1277.93
446.30	1212.40
446.50	1288.17
446.71	1308.65
446.91	1271.79
447.12	1282.03
447.32	1269.74
447.53	1320.94
447.73	1275.88
447.93	1366.00
448.14	1241.07
448.34	1322.99
448.55	1300.46
448.75	1302.51
448.96	1290.22
449.16	1265.64
449.36	1355.76
449.57	1312.75
449.77	1251.31
449.98	1290.22
450.18	1257.45
450.39	1288.17
450.59	1183.73
450.79	1239.02
451.00	1239.02
451.20	1277.93
451.41	1331.18
451.61	1294.32
451.81	1282.03
452.02	1263.60
452.22	1271.79
452.43	1249.26
452.63	1335.28
