SpectraSuite Data File
++++++++++++++++++++++++++++++++++++
Date: Sun Apr 03 19:55:50 CEST 2016
User: root
Dark Spectrum Present: No
Reference Spectrum Present: No
Number of Sampled Component Spectra: 1
Spectrometers: USB4C02835
Integration Time (usec): 10000 (USB4C02835)
Spectra Averaged: 1 (USB4C02835)
Boxcar Smoothing: 0 (USB4C02835)
Correct for Electrical Dark: No (USB4C02835)
Strobe/Lamp Enabled: No (USB4C02835)
Correct for Detector Non-linearity: No (USB4C02835)
Correct for Stray Light: No (USB4C02835)
Number of Pixels in Processed Spectrum: 3648
>>>>>Begin Processed Spectral Data<<<<<
177.47	1245.16
177.69	1245.16
177.91	1245.16
178.13	1300.46
178.36	1261.55
178.58	1282.03
178.80	1320.94
179.02	1263.60
179.24	1329.13
179.46	1267.69
179.68	1282.03
179.90	1204.21
180.13	1208.30
180.35	1265.64
180.57	1232.88
180.79	1208.30
181.01	1320.94
181.23	1286.12
181.45	1269.74
181.67	1308.65
181.90	1247.21
182.12	1271.79
182.34	1234.93
182.56	1226.73
182.78	1357.80
183.00	1243.12
183.22	1265.64
183.44	1282.03
183.66	1226.73
183.89	1310.70
184.11	1353.71
184.33	1320.94
184.55	1206.25
184.77	1236.97
184.99	1306.60
185.21	1282.03
185.43	1214.45
185.65	1275.88
185.87	1273.84
186.10	1306.60
186.32	1271.79
186.54	1224.69
186.76	1353.71
186.98	1249.26
187.20	1298.41
187.42	1290.22
187.64	1298.41
187.86	1187.82
188.08	1292.27
188.30	1316.84
188.52	1265.64
188.75	1214.45
188.97	1286.12
189.19	1230.83
189.41	1267.69
189.63	1282.03
189.85	1265.64
190.07	1298.41
190.29	1247.21
190.51	1273.84
190.73	1296.36
190.95	1216.49
191.17	1247.21
191.39	1200.11
191.61	1259.50
191.84	1277.93
192.06	1306.60
192.28	1239.02
192.50	1310.70
192.72	1355.76
192.94	1198.06
193.16	1247.21
193.38	1320.94
193.60	1210.35
193.82	1210.35
194.04	1300.46
194.26	1331.18
194.48	1202.16
194.70	1261.55
194.92	1275.88
195.14	1210.35
195.36	1265.64
195.58	1304.56
195.80	1298.41
196.02	1271.79
196.24	1325.04
196.46	1255.40
196.69	1230.83
196.91	1236.97
197.13	1282.03
197.35	1267.69
197.57	1234.93
197.79	1288.17
198.01	1239.02
198.23	1239.02
198.45	1208.30
198.67	1318.89
198.89	1224.69
199.11	1241.07
199.33	1251.31
199.55	1290.22
199.77	1275.88
199.99	1271.79
200.21	1271.79
200.43	1253.36
200.65	1277.93
200.87	1304.56
201.09	1263.60
201.31	1296.36
201.53	1322.99
201.75	1339.37
201.97	1210.35
202.19	1249.26
202.41	1296.36
202.63	1241.07
202.85	1320.94
203.07	1208.30
203.29	1249.26
203.51	1239.02
203.73	1230.83
203.95	1228.78
204.17	1267.69
204.39	1288.17
204.61	1263.60
204.83	1263.60
205.05	1226.73
205.27	1210.35
205.49	1290.22
205.71	1277.93
205.93	1327.08
206.15	1198.06
206.37	1322.99
206.59	1290.22
206.81	1218.54
207.03	1259.50
207.25	1292.27
207.47	1214.45
207.69	1261.55
207.91	1257.45
208.13	1294.32
208.34	1273.84
208.56	1232.88
208.78	1253.36
209.00	1208.30
209.22	1314.80
209.44	1212.40
209.66	1259.50
209.88	1277.93
210.10	1245.16
210.32	1263.60
210.54	1308.65
210.76	1275.88
210.98	1271.79
211.20	1349.61
211.42	1296.36
211.64	1263.60
211.86	1320.94
212.08	1253.36
212.30	1265.64
212.52	1277.93
212.74	1341.42
212.96	1216.49
213.17	1271.79
213.39	1269.74
213.61	1265.64
213.83	1337.32
214.05	1228.78
214.27	1267.69
214.49	1320.94
214.71	1269.74
214.93	1253.36
215.15	1261.55
215.37	1292.27
215.59	1316.84
215.81	1286.12
216.03	1263.60
216.24	1230.83
216.46	1290.22
216.68	1239.02
216.90	1286.12
217.12	1277.93
217.34	1347.56
217.56	1372.14
217.78	1271.79
218.00	1275.88
218.22	1273.84
218.44	1349.61
218.66	1241.07
218.87	1279.98
219.09	1273.84
219.31	1290.22
219.53	1232.88
219.75	1241.07
219.97	1179.63
220.19	1316.84
220.41	1230.83
220.63	1312.75
220.85	1277.93
221.06	1337.32
221.28	1288.17
221.50	1302.51
221.72	1210.35
221.94	1296.36
222.16	1284.08
222.38	1343.47
222.60	1255.40
222.82	1255.40
223.03	1232.88
223.25	1294.32
223.47	1232.88
223.69	1232.88
223.91	1249.26
224.13	1347.56
224.35	1273.84
224.57	1232.88
224.78	1271.79
225.00	1208.30
225.22	1259.50
225.44	1212.40
225.66	1275.88
225.88	1239.02
226.10	1259.50
226.32	1253.36
226.53	1239.02
226.75	1292.27
226.97	1257.45
227.19	1277.93
227.41	1282.03
227.63	1292.27
227.85	1236.97
228.06	1343.47
228.28	1232.88
228.50	1208.30
228.72	1302.51
228.94	1257.45
229.16	1210.35
229.37	1232.88
229.59	1204.21
229.81	1370.09
230.03	1273.84
230.25	1339.37
230.47	1288.17
230.69	1322.99
230.90	1298.41
231.12	1200.11
231.34	1251.31
231.56	1302.51
231.78	1290.22
232.00	1322.99
232.21	1265.64
232.43	1312.75
232.65	1298.41
232.87	1320.94
233.09	1290.22
233.30	1279.98
233.52	1273.84
233.74	1304.56
233.96	1267.69
234.18	1212.40
234.40	1255.40
234.61	1310.70
234.83	1275.88
235.05	1282.03
235.27	1226.73
235.49	1314.80
235.70	1222.64
235.92	1314.80
236.14	1308.65
236.36	1220.59
236.58	1265.64
236.79	1275.88
237.01	1306.60
237.23	1239.02
237.45	1257.45
237.67	1300.46
237.88	1314.80
238.10	1245.16
238.32	1314.80
238.54	1265.64
238.76	1224.69
238.97	1320.94
239.19	1259.50
239.41	1331.18
239.63	1234.93
239.85	1226.73
240.06	1247.21
240.28	1314.80
240.50	1275.88
240.72	1273.84
240.93	1261.55
241.15	1249.26
241.37	1290.22
241.59	1173.49
241.81	1243.12
242.02	1279.98
242.24	1284.08
242.46	1306.60
242.68	1234.93
242.89	1247.21
243.11	1249.26
243.33	1249.26
243.55	1322.99
243.76	1218.54
243.98	1263.60
244.20	1273.84
244.42	1243.12
244.64	1314.80
244.85	1288.17
245.07	1222.64
245.29	1251.31
245.51	1263.60
245.72	1271.79
245.94	1327.08
246.16	1255.40
246.38	1261.55
246.59	1269.74
246.81	1216.49
247.03	1294.32
247.24	1234.93
247.46	1345.52
247.68	1292.27
247.90	1232.88
248.11	1267.69
248.33	1253.36
248.55	1198.06
248.77	1327.08
248.98	1253.36
249.20	1273.84
249.42	1255.40
249.64	1183.73
249.85	1230.83
250.07	1253.36
250.29	1269.74
250.50	1261.55
250.72	1277.93
250.94	1222.64
251.16	1290.22
251.37	1308.65
251.59	1284.08
251.81	1253.36
252.02	1327.08
252.24	1216.49
252.46	1241.07
252.68	1267.69
252.89	1259.50
253.11	1243.12
253.33	1282.03
253.54	1282.03
253.76	1265.64
253.98	1296.36
254.20	1310.70
254.41	1241.07
254.63	1327.08
254.85	1333.23
255.06	1306.60
255.28	1265.64
255.50	1345.52
255.71	1228.78
255.93	1210.35
256.15	1253.36
256.36	1208.30
256.58	1226.73
256.80	1298.41
257.02	1292.27
257.23	1253.36
257.45	1239.02
257.67	1261.55
257.88	1333.23
258.10	1206.25
258.32	1294.32
258.53	1206.25
258.75	1279.98
258.97	1308.65
259.18	1196.01
259.40	1269.74
259.62	1257.45
259.83	1333.23
260.05	1300.46
260.27	1271.79
260.48	1220.59
260.70	1216.49
260.92	1216.49
261.13	1269.74
261.35	1308.65
261.57	1263.60
261.78	1239.02
262.00	1208.30
262.22	1261.55
262.43	1249.26
262.65	1316.84
262.86	1247.21
263.08	1232.88
263.30	1249.26
263.51	1263.60
263.73	1341.42
263.95	1288.17
264.16	1308.65
264.38	1277.93
264.60	1269.74
264.81	1279.98
265.03	1239.02
265.25	1325.04
265.46	1279.98
265.68	1271.79
265.89	1191.92
266.11	1290.22
266.33	1265.64
266.54	1279.98
266.76	1255.40
266.98	1255.40
267.19	1339.37
267.41	1265.64
267.62	1249.26
267.84	1216.49
268.06	1294.32
268.27	1273.84
268.49	1265.64
268.70	1366.00
268.92	1236.97
269.14	1241.07
269.35	1271.79
269.57	1288.17
269.79	1277.93
270.00	1298.41
270.22	1304.56
270.43	1282.03
270.65	1296.36
270.87	1333.23
271.08	1259.50
271.30	1196.01
271.51	1228.78
271.73	1284.08
271.95	1271.79
272.16	1218.54
272.38	1257.45
272.59	1224.69
272.81	1222.64
273.02	1296.36
273.24	1320.94
273.46	1243.12
273.67	1265.64
273.89	1234.93
274.10	1271.79
274.32	1218.54
274.54	1325.04
274.75	1208.30
274.97	1275.88
275.18	1245.16
275.40	1159.15
275.61	1277.93
275.83	1329.13
276.05	1230.83
276.26	1279.98
276.48	1257.45
276.69	1210.35
276.91	1271.79
277.12	1298.41
277.34	1306.60
277.55	1261.55
277.77	1234.93
277.99	1308.65
278.20	1243.12
278.42	1275.88
278.63	1249.26
278.85	1261.55
279.06	1306.60
279.28	1185.77
279.49	1284.08
279.71	1282.03
279.93	1282.03
280.14	1239.02
280.36	1230.83
280.57	1230.83
280.79	1331.18
281.00	1265.64
281.22	1218.54
281.43	1247.21
281.65	1196.01
281.86	1302.51
282.08	1208.30
282.29	1300.46
282.51	1269.74
282.73	1310.70
282.94	1275.88
283.16	1304.56
283.37	1273.84
283.59	1241.07
283.80	1241.07
284.02	1249.26
284.23	1304.56
284.45	1257.45
284.66	1288.17
284.88	1236.97
285.09	1296.36
285.31	1308.65
285.52	1288.17
285.74	1282.03
285.95	1288.17
286.17	1298.41
286.38	1286.12
286.60	1220.59
286.81	1265.64
287.03	1247.21
287.24	1312.75
287.46	1265.64
287.67	1298.41
287.89	1189.87
288.10	1279.98
288.32	1271.79
288.53	1228.78
288.75	1239.02
288.96	1269.74
289.18	1294.32
289.39	1337.32
289.61	1224.69
289.82	1251.31
290.04	1325.04
290.25	1282.03
290.47	1282.03
290.68	1345.52
290.90	1234.93
291.11	1255.40
291.33	1271.79
291.54	1271.79
291.76	1277.93
291.97	1339.37
292.18	1204.21
292.40	1302.51
292.61	1263.60
292.83	1255.40
293.04	1216.49
293.26	1232.88
293.47	1290.22
293.69	1218.54
293.90	1247.21
294.12	1261.55
294.33	1355.76
294.55	1269.74
294.76	1308.65
294.97	1329.13
295.19	1282.03
295.40	1263.60
295.62	1230.83
295.83	1251.31
296.05	1257.45
296.26	1273.84
296.48	1208.30
296.69	1322.99
296.90	1294.32
297.12	1331.18
297.33	1294.32
297.55	1273.84
297.76	1255.40
297.98	1247.21
298.19	1255.40
298.41	1212.40
298.62	1222.64
298.83	1261.55
299.05	1275.88
299.26	1230.83
299.48	1298.41
299.69	1312.75
299.90	1304.56
300.12	1255.40
300.33	1273.84
300.55	1249.26
300.76	1218.54
300.98	1298.41
301.19	1292.27
301.40	1339.37
301.62	1302.51
301.83	1359.85
302.05	1183.73
302.26	1251.31
302.47	1230.83
302.69	1226.73
302.90	1290.22
303.12	1214.45
303.33	1277.93
303.54	1171.44
303.76	1298.41
303.97	1247.21
304.19	1265.64
304.40	1212.40
304.61	1273.84
304.83	1314.80
305.04	1300.46
305.26	1333.23
305.47	1304.56
305.68	1265.64
305.90	1271.79
306.11	1341.42
306.33	1288.17
306.54	1290.22
306.75	1214.45
306.97	1224.69
307.18	1243.12
307.39	1337.32
307.61	1247.21
307.82	1290.22
308.04	1251.31
308.25	1226.73
308.46	1282.03
308.68	1245.16
308.89	1282.03
309.10	1314.80
309.32	1236.97
309.53	1279.98
309.74	1277.93
309.96	1261.55
310.17	1239.02
310.39	1204.21
310.60	1230.83
310.81	1265.64
311.03	1222.64
311.24	1355.76
311.45	1302.51
311.67	1300.46
311.88	1212.40
312.09	1230.83
312.31	1255.40
312.52	1290.22
312.73	1273.84
312.95	1290.22
313.16	1226.73
313.37	1359.85
313.59	1277.93
313.80	1245.16
314.01	1284.08
314.23	1275.88
314.44	1277.93
314.65	1263.60
314.87	1245.16
315.08	1294.32
315.29	1220.59
315.51	1220.59
315.72	1263.60
315.93	1314.80
316.15	1232.88
316.36	1257.45
316.57	1249.26
316.79	1288.17
317.00	1355.76
317.21	1239.02
317.43	1279.98
317.64	1271.79
317.85	1265.64
318.07	1220.59
318.28	1187.82
318.49	1304.56
318.70	1277.93
318.92	1322.99
319.13	1273.84
319.34	1288.17
319.56	1228.78
319.77	1296.36
319.98	1318.89
320.20	1255.40
320.41	1300.46
320.62	1284.08
320.83	1273.84
321.05	1275.88
321.26	1232.88
321.47	1257.45
321.69	1273.84
321.90	1271.79
322.11	1216.49
322.32	1359.85
322.54	1210.35
322.75	1290.22
322.96	1325.04
323.18	1259.50
323.39	1271.79
323.60	1306.60
323.81	1271.79
324.03	1173.49
324.24	1288.17
324.45	1304.56
324.66	1218.54
324.88	1236.97
325.09	1339.37
325.30	1314.80
325.52	1245.16
325.73	1239.02
325.94	1236.97
326.15	1269.74
326.37	1306.60
326.58	1271.79
326.79	1269.74
327.00	1228.78
327.22	1245.16
327.43	1304.56
327.64	1267.69
327.85	1234.93
328.07	1308.65
328.28	1290.22
328.49	1251.31
328.70	1327.08
328.92	1294.32
329.13	1292.27
329.34	1259.50
329.55	1253.36
329.76	1275.88
329.98	1249.26
330.19	1320.94
330.40	1251.31
330.61	1239.02
330.83	1202.16
331.04	1271.79
331.25	1298.41
331.46	1335.28
331.68	1265.64
331.89	1273.84
332.10	1239.02
332.31	1351.66
332.52	1234.93
332.74	1298.41
332.95	1265.64
333.16	1277.93
333.37	1259.50
333.58	1226.73
333.80	1249.26
334.01	1232.88
334.22	1228.78
334.43	1249.26
334.64	1296.36
334.86	1251.31
335.07	1239.02
335.28	1247.21
335.49	1218.54
335.70	1286.12
335.92	1318.89
336.13	1216.49
336.34	1255.40
336.55	1241.07
336.76	1214.45
336.98	1277.93
337.19	1247.21
337.40	1337.32
337.61	1316.84
337.82	1259.50
338.04	1261.55
338.25	1271.79
338.46	1257.45
338.67	1314.80
338.88	1210.35
339.09	1230.83
339.31	1316.84
339.52	1279.98
339.73	1234.93
339.94	1234.93
340.15	1294.32
340.36	1312.75
340.58	1384.43
340.79	1263.60
341.00	1288.17
341.21	1226.73
341.42	1163.25
341.63	1261.55
341.85	1275.88
342.06	1306.60
342.27	1236.97
342.48	1284.08
342.69	1308.65
342.90	1210.35
343.12	1284.08
343.33	1230.83
343.54	1253.36
343.75	1232.88
343.96	1327.08
344.17	1220.59
344.38	1273.84
344.60	1273.84
344.81	1273.84
345.02	1232.88
345.23	1245.16
345.44	1284.08
345.65	1212.40
345.86	1200.11
346.07	1279.98
346.29	1234.93
346.50	1263.60
346.71	1216.49
346.92	1245.16
347.13	1263.60
347.34	1249.26
347.55	1253.36
347.76	1189.87
347.98	1273.84
348.19	1271.79
348.40	1290.22
348.61	1267.69
348.82	1298.41
349.03	1261.55
349.24	1232.88
349.45	1267.69
349.66	1265.64
349.88	1261.55
350.09	1318.89
350.30	1271.79
350.51	1263.60
350.72	1286.12
350.93	1282.03
351.14	1288.17
351.35	1337.32
351.56	1241.07
351.77	1247.21
351.99	1257.45
352.20	1241.07
352.41	1230.83
352.62	1286.12
352.83	1253.36
353.04	1271.79
353.25	1263.60
353.46	1288.17
353.67	1265.64
353.88	1273.84
354.09	1284.08
354.30	1232.88
354.52	1241.07
354.73	1241.07
354.94	1269.74
355.15	1302.51
355.36	1282.03
355.57	1269.74
355.78	1255.40
355.99	1322.99
356.20	1298.41
356.41	1302.51
356.62	1228.78
356.83	1251.31
357.04	1261.55
357.25	1298.41
357.46	1269.74
357.68	1218.54
357.89	1251.31
358.10	1267.69
358.31	1247.21
358.52	1202.16
358.73	1232.88
358.94	1275.88
359.15	1288.17
359.36	1296.36
359.57	1173.49
359.78	1284.08
359.99	1353.71
360.20	1259.50
360.41	1327.08
360.62	1224.69
360.83	1179.63
361.04	1279.98
361.25	1232.88
361.46	1306.60
361.67	1271.79
361.88	1275.88
362.09	1271.79
362.30	1310.70
362.51	1232.88
362.72	1228.78
362.93	1173.49
363.14	1312.75
363.35	1212.40
363.56	1234.93
363.78	1259.50
363.99	1220.59
364.20	1230.83
364.41	1230.83
364.62	1337.32
364.83	1320.94
365.04	1208.30
365.25	1200.11
365.46	1230.83
365.67	1177.58
365.88	1282.03
366.09	1261.55
366.30	1142.77
366.51	1263.60
366.72	1288.17
366.93	1220.59
367.14	1245.16
367.35	1306.60
367.56	1259.50
367.77	1261.55
367.98	1257.45
368.18	1249.26
368.39	1193.97
368.60	1241.07
368.81	1286.12
369.02	1282.03
369.23	1312.75
369.44	1234.93
369.65	1273.84
369.86	1286.12
370.07	1257.45
370.28	1220.59
370.49	1241.07
370.70	1206.25
370.91	1267.69
371.12	1196.01
371.33	1234.93
371.54	1277.93
371.75	1222.64
371.96	1206.25
372.17	1255.40
372.38	1239.02
372.59	1339.37
372.80	1204.21
373.01	1298.41
373.22	1167.34
373.43	1198.06
373.64	1282.03
373.85	1200.11
374.06	1306.60
374.26	1288.17
374.47	1288.17
374.68	1243.12
374.89	1245.16
375.10	1304.56
375.31	1236.97
375.52	1329.13
375.73	1345.52
375.94	1300.46
376.15	1273.84
376.36	1294.32
376.57	1245.16
376.78	1255.40
376.99	1155.05
377.20	1292.27
377.40	1224.69
377.61	1249.26
377.82	1277.93
378.03	1275.88
378.24	1279.98
378.45	1193.97
378.66	1292.27
378.87	1306.60
379.08	1286.12
379.29	1273.84
379.50	1300.46
379.71	1251.31
379.91	1236.97
380.12	1241.07
380.33	1339.37
380.54	1296.36
380.75	1325.04
380.96	1253.36
381.17	1236.97
381.38	1290.22
381.59	1265.64
381.80	1253.36
382.00	1265.64
382.21	1239.02
382.42	1255.40
382.63	1198.06
382.84	1241.07
383.05	1259.50
383.26	1245.16
383.47	1245.16
383.68	1306.60
383.88	1320.94
384.09	1275.88
384.30	1277.93
384.51	1282.03
384.72	1234.93
384.93	1296.36
385.14	1284.08
385.35	1286.12
385.55	1232.88
385.76	1316.84
385.97	1243.12
386.18	1241.07
386.39	1216.49
386.60	1296.36
386.81	1265.64
387.02	1220.59
387.22	1290.22
387.43	1290.22
387.64	1249.26
387.85	1308.65
388.06	1279.98
388.27	1255.40
388.48	1216.49
388.68	1243.12
388.89	1349.61
389.10	1296.36
389.31	1279.98
389.52	1290.22
389.73	1284.08
389.93	1282.03
390.14	1273.84
390.35	1265.64
390.56	1259.50
390.77	1263.60
390.98	1308.65
391.18	1206.25
391.39	1249.26
391.60	1243.12
391.81	1241.07
392.02	1271.79
392.23	1300.46
392.43	1251.31
392.64	1312.75
392.85	1286.12
393.06	1269.74
393.27	1308.65
393.47	1243.12
393.68	1322.99
393.89	1355.76
394.10	1255.40
394.31	1271.79
394.52	1331.18
394.72	1261.55
394.93	1269.74
395.14	1290.22
395.35	1249.26
395.56	1269.74
395.76	1296.36
395.97	1267.69
396.18	1327.08
396.39	1277.93
396.60	1241.07
396.80	1255.40
397.01	1275.88
397.22	1261.55
397.43	1282.03
397.64	1284.08
397.84	1327.08
398.05	1329.13
398.26	1253.36
398.47	1245.16
398.67	1267.69
398.88	1177.58
399.09	1300.46
399.30	1249.26
399.51	1241.07
399.71	1253.36
399.92	1298.41
400.13	1224.69
400.34	1302.51
400.54	1255.40
400.75	1255.40
400.96	1292.27
401.17	1198.06
401.37	1277.93
401.58	1359.85
401.79	1275.88
402.00	1208.30
402.21	1263.60
402.41	1296.36
402.62	1282.03
402.83	1189.87
403.04	1265.64
403.24	1245.16
403.45	1310.70
403.66	1255.40
403.87	1271.79
404.07	1263.60
404.28	1279.98
404.49	1331.18
404.70	1257.45
404.90	1236.97
405.11	1251.31
405.32	1210.35
405.52	1220.59
405.73	1294.32
405.94	1298.41
406.15	1255.40
406.35	1228.78
406.56	1277.93
406.77	1331.18
406.98	1331.18
407.18	1304.56
407.39	1265.64
407.60	1208.30
407.80	1236.97
408.01	1259.50
408.22	1286.12
408.43	1347.56
408.63	1271.79
408.84	1204.21
409.05	1249.26
409.25	1191.92
409.46	1316.84
409.67	1232.88
409.88	1288.17
410.08	1230.83
410.29	1257.45
410.50	1267.69
410.70	1304.56
410.91	1259.50
411.12	1263.60
411.32	1284.08
411.53	1275.88
411.74	1253.36
411.95	1255.40
412.15	1320.94
412.36	1222.64
412.57	1259.50
412.77	1253.36
412.98	1259.50
413.19	1275.88
413.39	1271.79
413.60	1230.83
413.81	1273.84
414.01	1261.55
414.22	1308.65
414.43	1255.40
414.63	1239.02
414.84	1273.84
415.05	1239.02
415.25	1347.56
415.46	1275.88
415.67	1277.93
415.87	1271.79
416.08	1249.26
416.29	1245.16
416.49	1220.59
416.70	1378.28
416.91	1308.65
417.11	1257.45
417.32	1296.36
417.53	1322.99
417.73	1267.69
417.94	1220.59
418.15	1331.18
418.35	1255.40
418.56	1263.60
418.77	1232.88
418.97	1228.78
419.18	1210.35
419.38	1282.03
419.59	1216.49
419.80	1261.55
420.00	1267.69
420.21	1267.69
420.42	1275.88
420.62	1329.13
420.83	1265.64
421.04	1259.50
421.24	1204.21
421.45	1351.66
421.65	1273.84
421.86	1312.75
422.07	1247.21
422.27	1220.59
422.48	1228.78
422.69	1275.88
422.89	1277.93
423.10	1243.12
423.30	1230.83
423.51	1282.03
423.72	1228.78
423.92	1351.66
424.13	1216.49
424.33	1298.41
424.54	1310.70
424.75	1263.60
424.95	1271.79
425.16	1193.97
425.36	1234.93
425.57	1230.83
425.78	1308.65
425.98	1343.47
426.19	1265.64
426.39	1179.63
426.60	1290.22
426.81	1277.93
427.01	1220.59
427.22	1226.73
427.42	1273.84
427.63	1302.51
427.83	1251.31
428.04	1259.50
428.25	1288.17
428.45	1267.69
428.66	1208.30
428.86	1329.13
429.07	1206.25
429.28	1273.84
429.48	1255.40
429.69	1310.70
429.89	1175.53
430.10	1290.22
430.30	1210.35
430.51	1253.36
430.71	1341.42
430.92	1257.45
431.13	1257.45
431.33	1349.61
431.54	1255.40
431.74	1290.22
431.95	1255.40
432.15	1218.54
432.36	1222.64
432.56	1267.69
432.77	1290.22
432.98	1253.36
433.18	1230.83
433.39	1255.40
433.59	1245.16
433.80	1286.12
434.00	1288.17
434.21	1322.99
434.41	1277.93
434.62	1224.69
434.82	1259.50
435.03	1251.31
435.23	1247.21
435.44	1222.64
435.64	1296.36
435.85	1230.83
436.06	1275.88
436.26	1265.64
436.47	1271.79
436.67	1247.21
436.88	1241.07
437.08	1253.36
437.29	1239.02
437.49	1126.38
437.70	1232.88
437.90	1316.84
438.11	1220.59
438.31	1269.74
438.52	1329.13
438.72	1312.75
438.93	1312.75
439.13	1277.93
439.34	1239.02
439.54	1271.79
439.75	1316.84
439.95	1304.56
440.16	1255.40
440.36	1247.21
440.57	1255.40
440.77	1294.32
440.98	1271.79
441.18	1220.59
441.39	1247.21
441.59	1267.69
441.80	1292.27
442.00	1271.79
442.21	1232.88
442.41	1300.46
442.62	1234.93
442.82	1277.93
443.02	1284.08
443.23	1269.74
443.43	1316.84
443.64	1269.74
443.84	1253.36
444.05	1335.28
444.25	1265.64
444.46	1279.98
444.66	1282.03
444.87	1249.26
445.07	1243.12
445.28	1193.97
445.48	1249.26
445.69	1314.80
445.89	1271.79
446.09	1208.30
446.30	1273.84
446.50	1263.60
446.71	1308.65
446.91	1226.73
447.12	1357.80
447.32	1314.80
447.53	1269.74
447.73	1236.97
447.93	1171.44
448.14	1230.83
448.34	1263.60
448.55	1288.17
448.75	1355.76
448.96	1245.16
449.16	1279.98
449.36	1253.36
449.57	1343.47
449.77	1247.21
449.98	1343.47
450.18	1327.08
450.39	1249.26
450.59	1269.74
450.79	1263.60
451.00	1312.75
451.20	1275.88
451.41	1230.83
451.61	1308.65
451.81	1298.41
452.02	1275.88
452.22	1275.88
452.43	1351.66
452.63	1302.51
