SpectraSuite Data File
++++++++++++++++++++++++++++++++++++
Date: Sun Apr 03 19:55:18 CEST 2016
User: root
Dark Spectrum Present: No
Reference Spectrum Present: No
Number of Sampled Component Spectra: 1
Spectrometers: USB4C02835
Integration Time (usec): 10000 (USB4C02835)
Spectra Averaged: 1 (USB4C02835)
Boxcar Smoothing: 0 (USB4C02835)
Correct for Electrical Dark: No (USB4C02835)
Strobe/Lamp Enabled: No (USB4C02835)
Correct for Detector Non-linearity: No (USB4C02835)
Correct for Stray Light: No (USB4C02835)
Number of Pixels in Processed Spectrum: 3648
>>>>>Begin Processed Spectral Data<<<<<
177.47	1306.60
177.69	1306.60
177.91	1306.60
178.13	1304.56
178.36	1296.36
178.58	1204.21
178.80	1210.35
179.02	1335.28
179.24	1284.08
179.46	1204.21
179.68	1196.01
179.90	1218.54
180.13	1269.74
180.35	1253.36
180.57	1226.73
180.79	1230.83
181.01	1292.27
181.23	1337.32
181.45	1214.45
181.67	1277.93
181.90	1275.88
182.12	1245.16
182.34	1257.45
182.56	1239.02
182.78	1226.73
183.00	1239.02
183.22	1263.60
183.44	1261.55
183.66	1226.73
183.89	1243.12
184.11	1279.98
184.33	1249.26
184.55	1282.03
184.77	1292.27
184.99	1312.75
185.21	1261.55
185.43	1296.36
185.65	1265.64
185.87	1259.50
186.10	1288.17
186.32	1314.80
186.54	1259.50
186.76	1183.73
186.98	1261.55
187.20	1253.36
187.42	1224.69
187.64	1314.80
187.86	1335.28
188.08	1200.11
188.30	1282.03
188.52	1198.06
188.75	1359.85
188.97	1165.29
189.19	1271.79
189.41	1286.12
189.63	1243.12
189.85	1269.74
190.07	1247.21
190.29	1239.02
190.51	1286.12
190.73	1286.12
190.95	1224.69
191.17	1196.01
191.39	1277.93
191.61	1224.69
191.84	1187.82
192.06	1275.88
192.28	1261.55
192.50	1361.90
192.72	1298.41
192.94	1239.02
193.16	1234.93
193.38	1271.79
193.60	1232.88
193.82	1247.21
194.04	1294.32
194.26	1329.13
194.48	1226.73
194.70	1259.50
194.92	1269.74
195.14	1189.87
195.36	1353.71
195.58	1198.06
195.80	1232.88
196.02	1267.69
196.24	1255.40
196.46	1247.21
196.69	1255.40
196.91	1259.50
197.13	1329.13
197.35	1263.60
197.57	1304.56
197.79	1267.69
198.01	1253.36
198.23	1292.27
198.45	1277.93
198.67	1296.36
198.89	1275.88
199.11	1378.28
199.33	1253.36
199.55	1234.93
199.77	1271.79
199.99	1273.84
200.21	1329.13
200.43	1337.32
200.65	1253.36
200.87	1265.64
201.09	1275.88
201.31	1282.03
201.53	1228.78
201.75	1212.40
201.97	1263.60
202.19	1245.16
202.41	1314.80
202.63	1273.84
202.85	1212.40
203.07	1271.79
203.29	1302.51
203.51	1259.50
203.73	1275.88
203.95	1191.92
204.17	1308.65
204.39	1241.07
204.61	1314.80
204.83	1198.06
205.05	1243.12
205.27	1189.87
205.49	1302.51
205.71	1228.78
205.93	1218.54
206.15	1298.41
206.37	1263.60
206.59	1218.54
206.81	1216.49
207.03	1269.74
207.25	1284.08
207.47	1304.56
207.69	1257.45
207.91	1185.77
208.13	1200.11
208.34	1271.79
208.56	1249.26
208.78	1273.84
209.00	1269.74
209.22	1269.74
209.44	1314.80
209.66	1236.97
209.88	1159.15
210.10	1241.07
210.32	1282.03
210.54	1271.79
210.76	1255.40
210.98	1232.88
211.20	1259.50
211.42	1212.40
211.64	1277.93
211.86	1259.50
212.08	1292.27
212.30	1263.60
212.52	1212.40
212.74	1288.17
212.96	1320.94
213.17	1255.40
213.39	1265.64
213.61	1339.37
213.83	1290.22
214.05	1308.65
214.27	1245.16
214.49	1271.79
214.71	1255.40
214.93	1286.12
215.15	1306.60
215.37	1277.93
215.59	1265.64
215.81	1306.60
216.03	1220.59
216.24	1247.21
216.46	1261.55
216.68	1288.17
216.90	1232.88
217.12	1288.17
217.34	1228.78
217.56	1282.03
217.78	1306.60
218.00	1314.80
218.22	1267.69
218.44	1288.17
218.66	1359.85
218.87	1271.79
219.09	1302.51
219.31	1167.34
219.53	1275.88
219.75	1245.16
219.97	1310.70
220.19	1337.32
220.41	1257.45
220.63	1271.79
220.85	1218.54
221.06	1282.03
221.28	1191.92
221.50	1257.45
221.72	1308.65
221.94	1331.18
222.16	1290.22
222.38	1261.55
222.60	1318.89
222.82	1249.26
223.03	1288.17
223.25	1232.88
223.47	1251.31
223.69	1382.38
223.91	1239.02
224.13	1351.66
224.35	1300.46
224.57	1245.16
224.78	1312.75
225.00	1255.40
225.22	1261.55
225.44	1269.74
225.66	1341.42
225.88	1165.29
226.10	1271.79
226.32	1277.93
226.53	1263.60
226.75	1253.36
226.97	1277.93
227.19	1187.82
227.41	1222.64
227.63	1294.32
227.85	1286.12
228.06	1253.36
228.28	1179.63
228.50	1286.12
228.72	1236.97
228.94	1296.36
229.16	1255.40
229.37	1232.88
229.59	1294.32
229.81	1300.46
230.03	1189.87
230.25	1282.03
230.47	1357.80
230.69	1263.60
230.90	1284.08
231.12	1241.07
231.34	1294.32
231.56	1249.26
231.78	1298.41
232.00	1331.18
232.21	1253.36
232.43	1292.27
232.65	1191.92
232.87	1253.36
233.09	1245.16
233.30	1273.84
233.52	1325.04
233.74	1271.79
233.96	1222.64
234.18	1253.36
234.40	1265.64
234.61	1292.27
234.83	1300.46
235.05	1304.56
235.27	1257.45
235.49	1255.40
235.70	1243.12
235.92	1337.32
236.14	1318.89
236.36	1284.08
236.58	1265.64
236.79	1345.52
237.01	1236.97
237.23	1255.40
237.45	1282.03
237.67	1292.27
237.88	1279.98
238.10	1296.36
238.32	1216.49
238.54	1218.54
238.76	1298.41
238.97	1337.32
239.19	1296.36
239.41	1290.22
239.63	1269.74
239.85	1296.36
240.06	1316.84
240.28	1263.60
240.50	1306.60
240.72	1304.56
240.93	1236.97
241.15	1290.22
241.37	1290.22
241.59	1300.46
241.81	1234.93
242.02	1179.63
242.24	1282.03
242.46	1243.12
242.68	1259.50
242.89	1230.83
243.11	1241.07
243.33	1279.98
243.55	1298.41
243.76	1298.41
243.98	1234.93
244.20	1208.30
244.42	1292.27
244.64	1241.07
244.85	1267.69
245.07	1312.75
245.29	1265.64
245.51	1306.60
245.72	1181.68
245.94	1247.21
246.16	1292.27
246.38	1226.73
246.59	1329.13
246.81	1236.97
247.03	1312.75
247.24	1245.16
247.46	1249.26
247.68	1273.84
247.90	1243.12
248.11	1265.64
248.33	1247.21
248.55	1263.60
248.77	1249.26
248.98	1282.03
249.20	1255.40
249.42	1275.88
249.64	1183.73
249.85	1267.69
250.07	1243.12
250.29	1271.79
250.50	1200.11
250.72	1277.93
250.94	1247.21
251.16	1222.64
251.37	1228.78
251.59	1314.80
251.81	1222.64
252.02	1247.21
252.24	1232.88
252.46	1265.64
252.68	1230.83
252.89	1271.79
253.11	1230.83
253.33	1294.32
253.54	1228.78
253.76	1275.88
253.98	1312.75
254.20	1294.32
254.41	1294.32
254.63	1267.69
254.85	1228.78
255.06	1337.32
255.28	1241.07
255.50	1245.16
255.71	1234.93
255.93	1269.74
256.15	1290.22
256.36	1349.61
256.58	1341.42
256.80	1247.21
257.02	1257.45
257.23	1200.11
257.45	1277.93
257.67	1271.79
257.88	1210.35
258.10	1269.74
258.32	1193.97
258.53	1310.70
258.75	1271.79
258.97	1155.05
259.18	1282.03
259.40	1290.22
259.62	1288.17
259.83	1300.46
260.05	1206.25
260.27	1322.99
260.48	1290.22
260.70	1245.16
260.92	1222.64
261.13	1306.60
261.35	1214.45
261.57	1310.70
261.78	1257.45
262.00	1273.84
262.22	1296.36
262.43	1234.93
262.65	1306.60
262.86	1322.99
263.08	1304.56
263.30	1249.26
263.51	1167.34
263.73	1239.02
263.95	1273.84
264.16	1337.32
264.38	1259.50
264.60	1208.30
264.81	1271.79
265.03	1343.47
265.25	1239.02
265.46	1247.21
265.68	1204.21
265.89	1288.17
266.11	1267.69
266.33	1261.55
266.54	1212.40
266.76	1267.69
266.98	1249.26
267.19	1228.78
267.41	1214.45
267.62	1198.06
267.84	1251.31
268.06	1232.88
268.27	1247.21
268.49	1236.97
268.70	1222.64
268.92	1214.45
269.14	1290.22
269.35	1271.79
269.57	1331.18
269.79	1236.97
270.00	1300.46
270.22	1296.36
270.43	1261.55
270.65	1136.62
270.87	1310.70
271.08	1284.08
271.30	1318.89
271.51	1294.32
271.73	1298.41
271.95	1347.56
272.16	1269.74
272.38	1306.60
272.59	1259.50
272.81	1251.31
273.02	1234.93
273.24	1222.64
273.46	1320.94
273.67	1279.98
273.89	1226.73
274.10	1331.18
274.32	1175.53
274.54	1220.59
274.75	1333.23
274.97	1288.17
275.18	1267.69
275.40	1275.88
275.61	1308.65
275.83	1329.13
276.05	1288.17
276.26	1288.17
276.48	1261.55
276.69	1236.97
276.91	1249.26
277.12	1337.32
277.34	1232.88
277.55	1325.04
277.77	1279.98
277.99	1222.64
278.20	1314.80
278.42	1277.93
278.63	1284.08
278.85	1255.40
279.06	1261.55
279.28	1239.02
279.49	1296.36
279.71	1234.93
279.93	1335.28
280.14	1341.42
280.36	1273.84
280.57	1304.56
280.79	1282.03
281.00	1263.60
281.22	1232.88
281.43	1241.07
281.65	1224.69
281.86	1226.73
282.08	1314.80
282.29	1253.36
282.51	1234.93
282.73	1214.45
282.94	1261.55
283.16	1302.51
283.37	1255.40
283.59	1284.08
283.80	1296.36
284.02	1327.08
284.23	1300.46
284.45	1267.69
284.66	1224.69
284.88	1265.64
285.09	1286.12
285.31	1312.75
285.52	1331.18
285.74	1271.79
285.95	1220.59
286.17	1216.49
286.38	1253.36
286.60	1222.64
286.81	1273.84
287.03	1290.22
287.24	1243.12
287.46	1236.97
287.67	1347.56
287.89	1312.75
288.10	1282.03
288.32	1222.64
288.53	1193.97
288.75	1243.12
288.96	1271.79
289.18	1273.84
289.39	1245.16
289.61	1288.17
289.82	1294.32
290.04	1300.46
290.25	1214.45
290.47	1335.28
290.68	1296.36
290.90	1265.64
291.11	1279.98
291.33	1298.41
291.54	1214.45
291.76	1226.73
291.97	1306.60
292.18	1320.94
292.40	1318.89
292.61	1226.73
292.83	1251.31
293.04	1263.60
293.26	1292.27
293.47	1292.27
293.69	1269.74
293.90	1275.88
294.12	1234.93
294.33	1257.45
294.55	1251.31
294.76	1329.13
294.97	1294.32
295.19	1325.04
295.40	1296.36
295.62	1339.37
295.83	1269.74
296.05	1245.16
296.26	1320.94
296.48	1325.04
296.69	1294.32
296.90	1273.84
297.12	1249.26
297.33	1265.64
297.55	1222.64
297.76	1218.54
297.98	1236.97
298.19	1210.35
298.41	1290.22
298.62	1239.02
298.83	1263.60
299.05	1267.69
299.26	1253.36
299.48	1257.45
299.69	1265.64
299.90	1294.32
300.12	1206.25
300.33	1298.41
300.55	1294.32
300.76	1255.40
300.98	1261.55
301.19	1277.93
301.40	1300.46
301.62	1304.56
301.83	1228.78
302.05	1253.36
302.26	1284.08
302.47	1228.78
302.69	1302.51
302.90	1269.74
303.12	1284.08
303.33	1251.31
303.54	1277.93
303.76	1275.88
303.97	1257.45
304.19	1243.12
304.40	1290.22
304.61	1376.24
304.83	1247.21
305.04	1322.99
305.26	1267.69
305.47	1290.22
305.68	1216.49
305.90	1261.55
306.11	1308.65
306.33	1277.93
306.54	1290.22
306.75	1265.64
306.97	1277.93
307.18	1290.22
307.39	1316.84
307.61	1247.21
307.82	1308.65
308.04	1228.78
308.25	1263.60
308.46	1255.40
308.68	1296.36
308.89	1224.69
309.10	1263.60
309.32	1216.49
309.53	1255.40
309.74	1234.93
309.96	1212.40
310.17	1322.99
310.39	1318.89
310.60	1284.08
310.81	1239.02
311.03	1296.36
311.24	1284.08
311.45	1329.13
311.67	1288.17
311.88	1298.41
312.09	1271.79
312.31	1263.60
312.52	1300.46
312.73	1271.79
312.95	1277.93
313.16	1239.02
313.37	1275.88
313.59	1302.51
313.80	1218.54
314.01	1271.79
314.23	1273.84
314.44	1228.78
314.65	1368.04
314.87	1198.06
315.08	1239.02
315.29	1255.40
315.51	1218.54
315.72	1298.41
315.93	1267.69
316.15	1304.56
316.36	1306.60
316.57	1259.50
316.79	1239.02
317.00	1226.73
317.21	1284.08
317.43	1310.70
317.64	1314.80
317.85	1247.21
318.07	1241.07
318.28	1247.21
318.49	1325.04
318.70	1267.69
318.92	1275.88
319.13	1275.88
319.34	1290.22
319.56	1296.36
319.77	1273.84
319.98	1318.89
320.20	1259.50
320.41	1314.80
320.62	1322.99
320.83	1228.78
321.05	1179.63
321.26	1224.69
321.47	1298.41
321.69	1253.36
321.90	1241.07
322.11	1306.60
322.32	1232.88
322.54	1249.26
322.75	1277.93
322.96	1292.27
323.18	1331.18
323.39	1218.54
323.60	1222.64
323.81	1177.58
324.03	1249.26
324.24	1257.45
324.45	1355.76
324.66	1261.55
324.88	1202.16
325.09	1236.97
325.30	1327.08
325.52	1210.35
325.73	1208.30
325.94	1259.50
326.15	1275.88
326.37	1241.07
326.58	1335.28
326.79	1282.03
327.00	1255.40
327.22	1234.93
327.43	1271.79
327.64	1263.60
327.85	1306.60
328.07	1279.98
328.28	1267.69
328.49	1263.60
328.70	1251.31
328.92	1239.02
329.13	1263.60
329.34	1284.08
329.55	1312.75
329.76	1232.88
329.98	1230.83
330.19	1288.17
330.40	1204.21
330.61	1298.41
330.83	1249.26
331.04	1236.97
331.25	1228.78
331.46	1239.02
331.68	1286.12
331.89	1288.17
332.10	1263.60
332.31	1198.06
332.52	1314.80
332.74	1347.56
332.95	1218.54
333.16	1273.84
333.37	1304.56
333.58	1239.02
333.80	1232.88
334.01	1239.02
334.22	1253.36
334.43	1271.79
334.64	1312.75
334.86	1253.36
335.07	1222.64
335.28	1302.51
335.49	1267.69
335.70	1222.64
335.92	1257.45
336.13	1267.69
336.34	1269.74
336.55	1208.30
336.76	1234.93
336.98	1310.70
337.19	1257.45
337.40	1255.40
337.61	1251.31
337.82	1318.89
338.04	1204.21
338.25	1298.41
338.46	1257.45
338.67	1279.98
338.88	1304.56
339.09	1259.50
339.31	1220.59
339.52	1247.21
339.73	1255.40
339.94	1308.65
340.15	1318.89
340.36	1304.56
340.58	1296.36
340.79	1290.22
341.00	1265.64
341.21	1279.98
341.42	1177.58
341.63	1226.73
341.85	1210.35
342.06	1234.93
342.27	1251.31
342.48	1255.40
342.69	1269.74
342.90	1279.98
343.12	1241.07
343.33	1298.41
343.54	1325.04
343.75	1351.66
343.96	1259.50
344.17	1314.80
344.38	1265.64
344.60	1273.84
344.81	1269.74
345.02	1288.17
345.23	1355.76
345.44	1282.03
345.65	1271.79
345.86	1226.73
346.07	1282.03
346.29	1298.41
346.50	1259.50
346.71	1222.64
346.92	1320.94
347.13	1331.18
347.34	1267.69
347.55	1282.03
347.76	1298.41
347.98	1290.22
348.19	1187.82
348.40	1333.23
348.61	1228.78
348.82	1245.16
349.03	1236.97
349.24	1300.46
349.45	1226.73
349.66	1292.27
349.88	1261.55
350.09	1277.93
350.30	1198.06
350.51	1316.84
350.72	1247.21
350.93	1308.65
351.14	1310.70
351.35	1234.93
351.56	1265.64
351.77	1171.44
351.99	1359.85
352.20	1257.45
352.41	1257.45
352.62	1241.07
352.83	1249.26
353.04	1259.50
353.25	1249.26
353.46	1333.23
353.67	1277.93
353.88	1245.16
354.09	1234.93
354.30	1273.84
354.52	1370.09
354.73	1255.40
354.94	1269.74
355.15	1271.79
355.36	1239.02
355.57	1290.22
355.78	1226.73
355.99	1331.18
356.20	1273.84
356.41	1286.12
356.62	1314.80
356.83	1273.84
357.04	1288.17
357.25	1249.26
357.46	1275.88
357.68	1288.17
357.89	1216.49
358.10	1320.94
358.31	1247.21
358.52	1271.79
358.73	1271.79
358.94	1232.88
359.15	1214.45
359.36	1241.07
359.57	1253.36
359.78	1253.36
359.99	1208.30
360.20	1345.52
360.41	1275.88
360.62	1282.03
360.83	1292.27
361.04	1308.65
361.25	1304.56
361.46	1306.60
361.67	1202.16
361.88	1277.93
362.09	1191.92
362.30	1273.84
362.51	1267.69
362.72	1314.80
362.93	1243.12
363.14	1200.11
363.35	1269.74
363.56	1253.36
363.78	1228.78
363.99	1269.74
364.20	1322.99
364.41	1271.79
364.62	1296.36
364.83	1275.88
365.04	1230.83
365.25	1288.17
365.46	1206.25
365.67	1271.79
365.88	1247.21
366.09	1275.88
366.30	1290.22
366.51	1279.98
366.72	1236.97
366.93	1251.31
367.14	1179.63
367.35	1228.78
367.56	1294.32
367.77	1273.84
367.98	1300.46
368.18	1269.74
368.39	1226.73
368.60	1282.03
368.81	1167.34
369.02	1333.23
369.23	1273.84
369.44	1325.04
369.65	1273.84
369.86	1239.02
370.07	1230.83
370.28	1230.83
370.49	1257.45
370.70	1257.45
370.91	1269.74
371.12	1255.40
371.33	1279.98
371.54	1333.23
371.75	1279.98
371.96	1259.50
372.17	1294.32
372.38	1222.64
372.59	1224.69
372.80	1284.08
373.01	1232.88
373.22	1222.64
373.43	1267.69
373.64	1306.60
373.85	1265.64
374.06	1193.97
374.26	1288.17
374.47	1331.18
374.68	1255.40
374.89	1306.60
375.10	1161.20
375.31	1271.79
375.52	1208.30
375.73	1273.84
375.94	1214.45
376.15	1275.88
376.36	1312.75
376.57	1302.51
376.78	1220.59
376.99	1261.55
377.20	1347.56
377.40	1312.75
377.61	1294.32
377.82	1271.79
378.03	1265.64
378.24	1259.50
378.45	1206.25
378.66	1230.83
378.87	1232.88
379.08	1273.84
379.29	1261.55
379.50	1294.32
379.71	1257.45
379.91	1310.70
380.12	1251.31
380.33	1298.41
380.54	1286.12
380.75	1265.64
380.96	1282.03
381.17	1263.60
381.38	1200.11
381.59	1284.08
381.80	1228.78
382.00	1286.12
382.21	1206.25
382.42	1282.03
382.63	1290.22
382.84	1290.22
383.05	1257.45
383.26	1296.36
383.47	1298.41
383.68	1249.26
383.88	1296.36
384.09	1320.94
384.30	1368.04
384.51	1298.41
384.72	1224.69
384.93	1320.94
385.14	1271.79
385.35	1310.70
385.55	1234.93
385.76	1363.95
385.97	1249.26
386.18	1279.98
386.39	1263.60
386.60	1173.49
386.81	1333.23
387.02	1279.98
387.22	1277.93
387.43	1261.55
387.64	1306.60
387.85	1234.93
388.06	1212.40
388.27	1286.12
388.48	1290.22
388.68	1273.84
388.89	1263.60
389.10	1249.26
389.31	1273.84
389.52	1282.03
389.73	1226.73
389.93	1269.74
390.14	1159.15
390.35	1273.84
390.56	1296.36
390.77	1218.54
390.98	1314.80
391.18	1157.10
391.39	1214.45
391.60	1318.89
391.81	1228.78
392.02	1308.65
392.23	1292.27
392.43	1294.32
392.64	1300.46
392.85	1279.98
393.06	1249.26
393.27	1361.90
393.47	1255.40
393.68	1277.93
393.89	1286.12
394.10	1368.04
394.31	1312.75
394.52	1222.64
394.72	1245.16
394.93	1273.84
395.14	1206.25
395.35	1249.26
395.56	1236.97
395.76	1269.74
395.97	1187.82
396.18	1245.16
396.39	1290.22
396.60	1265.64
396.80	1282.03
397.01	1249.26
397.22	1333.23
397.43	1247.21
397.64	1210.35
397.84	1255.40
398.05	1265.64
398.26	1232.88
398.47	1245.16
398.67	1251.31
398.88	1247.21
399.09	1286.12
399.30	1327.08
399.51	1275.88
399.71	1251.31
399.92	1241.07
400.13	1339.37
400.34	1288.17
400.54	1294.32
400.75	1306.60
400.96	1265.64
401.17	1251.31
401.37	1241.07
401.58	1279.98
401.79	1226.73
402.00	1245.16
402.21	1302.51
402.41	1282.03
402.62	1150.96
402.83	1247.21
403.04	1269.74
403.24	1228.78
403.45	1269.74
403.66	1251.31
403.87	1220.59
404.07	1296.36
404.28	1361.90
404.49	1322.99
404.70	1245.16
404.90	1304.56
405.11	1310.70
405.32	1273.84
405.52	1243.12
405.73	1306.60
405.94	1222.64
406.15	1294.32
406.35	1288.17
406.56	1261.55
406.77	1224.69
406.98	1261.55
407.18	1228.78
407.39	1255.40
407.60	1320.94
407.80	1267.69
408.01	1247.21
408.22	1269.74
408.43	1210.35
408.63	1251.31
408.84	1153.01
409.05	1271.79
409.25	1306.60
409.46	1265.64
409.67	1331.18
409.88	1292.27
410.08	1308.65
410.29	1288.17
410.50	1275.88
410.70	1290.22
410.91	1232.88
411.12	1226.73
411.32	1234.93
411.53	1202.16
411.74	1286.12
411.95	1290.22
412.15	1292.27
412.36	1282.03
412.57	1232.88
412.77	1261.55
412.98	1245.16
413.19	1241.07
413.39	1224.69
413.60	1208.30
413.81	1253.36
414.01	1232.88
414.22	1198.06
414.43	1269.74
414.63	1308.65
414.84	1202.16
415.05	1218.54
415.25	1265.64
415.46	1216.49
415.67	1275.88
415.87	1331.18
416.08	1255.40
416.29	1232.88
416.49	1279.98
416.70	1286.12
416.91	1306.60
417.11	1245.16
417.32	1253.36
417.53	1290.22
417.73	1279.98
417.94	1331.18
418.15	1247.21
418.35	1259.50
418.56	1279.98
418.77	1282.03
418.97	1222.64
419.18	1230.83
419.38	1366.00
419.59	1228.78
419.80	1236.97
420.00	1247.21
420.21	1210.35
420.42	1181.68
420.62	1224.69
420.83	1265.64
421.04	1216.49
421.24	1183.73
421.45	1269.74
421.65	1214.45
421.86	1327.08
422.07	1255.40
422.27	1249.26
422.48	1239.02
422.69	1163.25
422.89	1261.55
423.10	1247.21
423.30	1245.16
423.51	1206.25
423.72	1239.02
423.92	1284.08
424.13	1294.32
424.33	1284.08
424.54	1239.02
424.75	1251.31
424.95	1306.60
425.16	1224.69
425.36	1341.42
425.57	1216.49
425.78	1224.69
425.98	1316.84
426.19	1234.93
426.39	1208.30
426.60	1282.03
426.81	1267.69
427.01	1241.07
427.22	1251.31
427.42	1286.12
427.63	1220.59
427.83	1314.80
428.04	1290.22
428.25	1187.82
428.45	1333.23
428.66	1273.84
428.86	1263.60
429.07	1255.40
429.28	1335.28
429.48	1306.60
429.69	1345.52
429.89	1294.32
430.10	1306.60
430.30	1230.83
430.51	1298.41
430.71	1339.37
430.92	1331.18
431.13	1249.26
431.33	1216.49
431.54	1241.07
431.74	1273.84
431.95	1277.93
432.15	1279.98
432.36	1169.39
432.56	1230.83
432.77	1234.93
432.98	1327.08
433.18	1363.95
433.39	1265.64
433.59	1253.36
433.80	1300.46
434.00	1181.68
434.21	1265.64
434.41	1261.55
434.62	1335.28
434.82	1290.22
435.03	1224.69
435.23	1296.36
435.44	1273.84
435.64	1292.27
435.85	1253.36
436.06	1271.79
436.26	1210.35
436.47	1306.60
436.67	1228.78
436.88	1226.73
437.08	1312.75
437.29	1300.46
437.49	1249.26
437.70	1255.40
437.90	1234.93
438.11	1320.94
438.31	1269.74
438.52	1216.49
438.72	1255.40
438.93	1255.40
439.13	1306.60
439.34	1253.36
439.54	1312.75
439.75	1282.03
439.95	1273.84
440.16	1271.79
440.36	1255.40
440.57	1298.41
440.77	1282.03
440.98	1286.12
441.18	1249.26
441.39	1372.14
441.59	1230.83
441.80	1243.12
442.00	1310.70
442.21	1277.93
442.41	1320.94
442.62	1296.36
442.82	1290.22
443.02	1298.41
443.23	1243.12
443.43	1234.93
443.64	1230.83
443.84	1325.04
444.05	1212.40
444.25	1296.36
444.46	1241.07
444.66	1292.27
444.87	1306.60
445.07	1249.26
445.28	1331.18
445.48	1282.03
445.69	1196.01
445.89	1241.07
446.09	1302.51
446.30	1316.84
446.50	1320.94
446.71	1335.28
446.91	1327.08
447.12	1265.64
447.32	1269.74
447.53	1210.35
447.73	1236.97
447.93	1224.69
448.14	1349.61
448.34	1208.30
448.55	1257.45
448.75	1249.26
448.96	1220.59
449.16	1306.60
449.36	1349.61
449.57	1234.93
449.77	1314.80
449.98	1298.41
450.18	1216.49
450.39	1308.65
450.59	1341.42
450.79	1257.45
451.00	1277.93
451.20	1261.55
451.41	1304.56
451.61	1251.31
451.81	1236.97
452.02	1294.32
452.22	1241.07
452.43	1224.69
452.63	1279.98
