SpectraSuite Data File
++++++++++++++++++++++++++++++++++++
Date: Sun Apr 03 19:55:30 CEST 2016
User: root
Dark Spectrum Present: No
Reference Spectrum Present: No
Number of Sampled Component Spectra: 1
Spectrometers: USB4C02835
Integration Time (usec): 10000 (USB4C02835)
Spectra Averaged: 1 (USB4C02835)
Boxcar Smoothing: 0 (USB4C02835)
Correct for Electrical Dark: No (USB4C02835)
Strobe/Lamp Enabled: No (USB4C02835)
Correct for Detector Non-linearity: No (USB4C02835)
Correct for Stray Light: No (USB4C02835)
Number of Pixels in Processed Spectrum: 3648
>>>>>Begin Processed Spectral Data<<<<<
177.47	1290.22
177.69	1290.22
177.91	1290.22
178.13	1234.93
178.36	1243.12
178.58	1193.97
178.80	1220.59
179.02	1193.97
179.24	1273.84
179.46	1234.93
179.68	1263.60
179.90	1263.60
180.13	1339.37
180.35	1251.31
180.57	1185.77
180.79	1245.16
181.01	1263.60
181.23	1284.08
181.45	1265.64
181.67	1208.30
181.90	1310.70
182.12	1286.12
182.34	1259.50
182.56	1206.25
182.78	1312.75
183.00	1310.70
183.22	1288.17
183.44	1226.73
183.66	1232.88
183.89	1202.16
184.11	1294.32
184.33	1302.51
184.55	1282.03
184.77	1308.65
184.99	1261.55
185.21	1267.69
185.43	1288.17
185.65	1273.84
185.87	1327.08
186.10	1298.41
186.32	1239.02
186.54	1265.64
186.76	1167.34
186.98	1288.17
187.20	1275.88
187.42	1282.03
187.64	1259.50
187.86	1296.36
188.08	1249.26
188.30	1259.50
188.52	1249.26
188.75	1318.89
188.97	1322.99
189.19	1236.97
189.41	1265.64
189.63	1218.54
189.85	1259.50
190.07	1277.93
190.29	1300.46
190.51	1273.84
190.73	1296.36
190.95	1255.40
191.17	1265.64
191.39	1214.45
191.61	1261.55
191.84	1261.55
192.06	1339.37
192.28	1255.40
192.50	1355.76
192.72	1275.88
192.94	1245.16
193.16	1318.89
193.38	1275.88
193.60	1267.69
193.82	1294.32
194.04	1257.45
194.26	1249.26
194.48	1333.23
194.70	1286.12
194.92	1228.78
195.14	1206.25
195.36	1230.83
195.58	1212.40
195.80	1253.36
196.02	1294.32
196.24	1308.65
196.46	1273.84
196.69	1273.84
196.91	1275.88
197.13	1269.74
197.35	1243.12
197.57	1259.50
197.79	1263.60
198.01	1249.26
198.23	1273.84
198.45	1239.02
198.67	1247.21
198.89	1269.74
199.11	1296.36
199.33	1349.61
199.55	1255.40
199.77	1247.21
199.99	1226.73
200.21	1253.36
200.43	1214.45
200.65	1269.74
200.87	1257.45
201.09	1347.56
201.31	1310.70
201.53	1204.21
201.75	1269.74
201.97	1245.16
202.19	1202.16
202.41	1257.45
202.63	1314.80
202.85	1214.45
203.07	1243.12
203.29	1226.73
203.51	1239.02
203.73	1296.36
203.95	1224.69
204.17	1224.69
204.39	1224.69
204.61	1339.37
204.83	1304.56
205.05	1222.64
205.27	1241.07
205.49	1230.83
205.71	1259.50
205.93	1288.17
206.15	1267.69
206.37	1187.82
206.59	1292.27
206.81	1181.68
207.03	1253.36
207.25	1325.04
207.47	1292.27
207.69	1257.45
207.91	1247.21
208.13	1228.78
208.34	1310.70
208.56	1290.22
208.78	1181.68
209.00	1243.12
209.22	1261.55
209.44	1277.93
209.66	1218.54
209.88	1300.46
210.10	1308.65
210.32	1249.26
210.54	1193.97
210.76	1216.49
210.98	1257.45
211.20	1245.16
211.42	1277.93
211.64	1327.08
211.86	1286.12
212.08	1296.36
212.30	1214.45
212.52	1284.08
212.74	1331.18
212.96	1282.03
213.17	1259.50
213.39	1257.45
213.61	1290.22
213.83	1318.89
214.05	1208.30
214.27	1220.59
214.49	1298.41
214.71	1226.73
214.93	1304.56
215.15	1329.13
215.37	1198.06
215.59	1292.27
215.81	1243.12
216.03	1232.88
216.24	1390.57
216.46	1267.69
216.68	1196.01
216.90	1191.92
217.12	1331.18
217.34	1318.89
217.56	1288.17
217.78	1310.70
218.00	1226.73
218.22	1302.51
218.44	1292.27
218.66	1292.27
218.87	1259.50
219.09	1277.93
219.31	1239.02
219.53	1226.73
219.75	1312.75
219.97	1298.41
220.19	1232.88
220.41	1310.70
220.63	1206.25
220.85	1251.31
221.06	1257.45
221.28	1232.88
221.50	1249.26
221.72	1288.17
221.94	1241.07
222.16	1214.45
222.38	1243.12
222.60	1202.16
222.82	1271.79
223.03	1267.69
223.25	1220.59
223.47	1288.17
223.69	1241.07
223.91	1296.36
224.13	1275.88
224.35	1267.69
224.57	1269.74
224.78	1282.03
225.00	1222.64
225.22	1251.31
225.44	1265.64
225.66	1282.03
225.88	1216.49
226.10	1306.60
226.32	1261.55
226.53	1273.84
226.75	1249.26
226.97	1302.51
227.19	1290.22
227.41	1282.03
227.63	1255.40
227.85	1327.08
228.06	1312.75
228.28	1241.07
228.50	1226.73
228.72	1255.40
228.94	1304.56
229.16	1245.16
229.37	1271.79
229.59	1236.97
229.81	1300.46
230.03	1265.64
230.25	1312.75
230.47	1179.63
230.69	1306.60
230.90	1292.27
231.12	1265.64
231.34	1333.23
231.56	1316.84
231.78	1224.69
232.00	1259.50
232.21	1214.45
232.43	1292.27
232.65	1255.40
232.87	1277.93
233.09	1241.07
233.30	1343.47
233.52	1216.49
233.74	1282.03
233.96	1282.03
234.18	1284.08
234.40	1249.26
234.61	1269.74
234.83	1304.56
235.05	1232.88
235.27	1302.51
235.49	1218.54
235.70	1316.84
235.92	1329.13
236.14	1300.46
236.36	1294.32
236.58	1218.54
236.79	1261.55
237.01	1372.14
237.23	1310.70
237.45	1300.46
237.67	1302.51
237.88	1304.56
238.10	1279.98
238.32	1230.83
238.54	1230.83
238.76	1239.02
238.97	1245.16
239.19	1226.73
239.41	1263.60
239.63	1216.49
239.85	1363.95
240.06	1253.36
240.28	1275.88
240.50	1290.22
240.72	1284.08
240.93	1277.93
241.15	1257.45
241.37	1296.36
241.59	1306.60
241.81	1259.50
242.02	1261.55
242.24	1267.69
242.46	1279.98
242.68	1255.40
242.89	1263.60
243.11	1308.65
243.33	1277.93
243.55	1222.64
243.76	1298.41
243.98	1243.12
244.20	1282.03
244.42	1226.73
244.64	1265.64
244.85	1232.88
245.07	1232.88
245.29	1333.23
245.51	1318.89
245.72	1265.64
245.94	1218.54
246.16	1261.55
246.38	1312.75
246.59	1198.06
246.81	1277.93
247.03	1255.40
247.24	1286.12
247.46	1314.80
247.68	1271.79
247.90	1273.84
248.11	1296.36
248.33	1282.03
248.55	1241.07
248.77	1230.83
248.98	1257.45
249.20	1239.02
249.42	1349.61
249.64	1271.79
249.85	1249.26
250.07	1271.79
250.29	1288.17
250.50	1339.37
250.72	1286.12
250.94	1224.69
251.16	1325.04
251.37	1279.98
251.59	1245.16
251.81	1312.75
252.02	1284.08
252.24	1247.21
252.46	1253.36
252.68	1294.32
252.89	1261.55
253.11	1247.21
253.33	1265.64
253.54	1236.97
253.76	1255.40
253.98	1138.67
254.20	1222.64
254.41	1267.69
254.63	1265.64
254.85	1265.64
255.06	1236.97
255.28	1255.40
255.50	1187.82
255.71	1329.13
255.93	1294.32
256.15	1277.93
256.36	1167.34
256.58	1265.64
256.80	1310.70
257.02	1216.49
257.23	1206.25
257.45	1253.36
257.67	1208.30
257.88	1277.93
258.10	1290.22
258.32	1208.30
258.53	1286.12
258.75	1228.78
258.97	1191.92
259.18	1265.64
259.40	1300.46
259.62	1247.21
259.83	1316.84
260.05	1273.84
260.27	1288.17
260.48	1290.22
260.70	1241.07
260.92	1210.35
261.13	1214.45
261.35	1175.53
261.57	1341.42
261.78	1208.30
262.00	1251.31
262.22	1275.88
262.43	1251.31
262.65	1273.84
262.86	1210.35
263.08	1292.27
263.30	1368.04
263.51	1179.63
263.73	1263.60
263.95	1255.40
264.16	1255.40
264.38	1206.25
264.60	1224.69
264.81	1247.21
265.03	1318.89
265.25	1218.54
265.46	1210.35
265.68	1232.88
265.89	1318.89
266.11	1294.32
266.33	1308.65
266.54	1314.80
266.76	1218.54
266.98	1249.26
267.19	1279.98
267.41	1284.08
267.62	1214.45
267.84	1220.59
268.06	1284.08
268.27	1308.65
268.49	1251.31
268.70	1282.03
268.92	1253.36
269.14	1232.88
269.35	1306.60
269.57	1247.21
269.79	1292.27
270.00	1298.41
270.22	1325.04
270.43	1263.60
270.65	1286.12
270.87	1294.32
271.08	1271.79
271.30	1259.50
271.51	1236.97
271.73	1241.07
271.95	1329.13
272.16	1257.45
272.38	1218.54
272.59	1286.12
272.81	1179.63
273.02	1298.41
273.24	1296.36
273.46	1269.74
273.67	1259.50
273.89	1273.84
274.10	1316.84
274.32	1249.26
274.54	1314.80
274.75	1245.16
274.97	1312.75
275.18	1220.59
275.40	1335.28
275.61	1325.04
275.83	1251.31
276.05	1290.22
276.26	1284.08
276.48	1191.92
276.69	1337.32
276.91	1236.97
277.12	1255.40
277.34	1351.66
277.55	1275.88
277.77	1271.79
277.99	1306.60
278.20	1263.60
278.42	1306.60
278.63	1202.16
278.85	1306.60
279.06	1290.22
279.28	1236.97
279.49	1179.63
279.71	1239.02
279.93	1261.55
280.14	1257.45
280.36	1236.97
280.57	1282.03
280.79	1286.12
281.00	1253.36
281.22	1247.21
281.43	1257.45
281.65	1333.23
281.86	1275.88
282.08	1265.64
282.29	1263.60
282.51	1331.18
282.73	1232.88
282.94	1247.21
283.16	1320.94
283.37	1331.18
283.59	1193.97
283.80	1243.12
284.02	1222.64
284.23	1308.65
284.45	1243.12
284.66	1304.56
284.88	1206.25
285.09	1157.10
285.31	1185.77
285.52	1290.22
285.74	1255.40
285.95	1355.76
286.17	1269.74
286.38	1259.50
286.60	1249.26
286.81	1249.26
287.03	1279.98
287.24	1298.41
287.46	1214.45
287.67	1230.83
287.89	1263.60
288.10	1241.07
288.32	1247.21
288.53	1245.16
288.75	1261.55
288.96	1298.41
289.18	1208.30
289.39	1269.74
289.61	1290.22
289.82	1204.21
290.04	1228.78
290.25	1333.23
290.47	1193.97
290.68	1298.41
290.90	1279.98
291.11	1302.51
291.33	1224.69
291.54	1341.42
291.76	1216.49
291.97	1310.70
292.18	1239.02
292.40	1241.07
292.61	1271.79
292.83	1255.40
293.04	1269.74
293.26	1298.41
293.47	1200.11
293.69	1277.93
293.90	1271.79
294.12	1271.79
294.33	1298.41
294.55	1290.22
294.76	1236.97
294.97	1216.49
295.19	1267.69
295.40	1239.02
295.62	1198.06
295.83	1325.04
296.05	1259.50
296.26	1218.54
296.48	1320.94
296.69	1327.08
296.90	1202.16
297.12	1273.84
297.33	1271.79
297.55	1239.02
297.76	1193.97
297.98	1279.98
298.19	1255.40
298.41	1351.66
298.62	1206.25
298.83	1239.02
299.05	1222.64
299.26	1273.84
299.48	1318.89
299.69	1216.49
299.90	1282.03
300.12	1222.64
300.33	1279.98
300.55	1271.79
300.76	1298.41
300.98	1222.64
301.19	1210.35
301.40	1265.64
301.62	1298.41
301.83	1214.45
302.05	1320.94
302.26	1304.56
302.47	1265.64
302.69	1306.60
302.90	1294.32
303.12	1234.93
303.33	1232.88
303.54	1275.88
303.76	1253.36
303.97	1294.32
304.19	1265.64
304.40	1279.98
304.61	1271.79
304.83	1333.23
305.04	1304.56
305.26	1241.07
305.47	1357.80
305.68	1329.13
305.90	1247.21
306.11	1316.84
306.33	1220.59
306.54	1236.97
306.75	1310.70
306.97	1222.64
307.18	1335.28
307.39	1189.87
307.61	1296.36
307.82	1302.51
308.04	1306.60
308.25	1343.47
308.46	1232.88
308.68	1232.88
308.89	1304.56
309.10	1198.06
309.32	1273.84
309.53	1243.12
309.74	1255.40
309.96	1265.64
310.17	1241.07
310.39	1206.25
310.60	1288.17
310.81	1312.75
311.03	1259.50
311.24	1257.45
311.45	1322.99
311.67	1333.23
311.88	1257.45
312.09	1232.88
312.31	1263.60
312.52	1310.70
312.73	1257.45
312.95	1251.31
313.16	1228.78
313.37	1236.97
313.59	1277.93
313.80	1243.12
314.01	1234.93
314.23	1284.08
314.44	1216.49
314.65	1239.02
314.87	1273.84
315.08	1269.74
315.29	1230.83
315.51	1286.12
315.72	1232.88
315.93	1314.80
316.15	1277.93
316.36	1308.65
316.57	1247.21
316.79	1306.60
317.00	1255.40
317.21	1259.50
317.43	1224.69
317.64	1232.88
317.85	1318.89
318.07	1204.21
318.28	1279.98
318.49	1298.41
318.70	1318.89
318.92	1267.69
319.13	1216.49
319.34	1224.69
319.56	1267.69
319.77	1351.66
319.98	1298.41
320.20	1251.31
320.41	1267.69
320.62	1261.55
320.83	1314.80
321.05	1302.51
321.26	1259.50
321.47	1279.98
321.69	1312.75
321.90	1306.60
322.11	1226.73
322.32	1234.93
322.54	1243.12
322.75	1275.88
322.96	1298.41
323.18	1257.45
323.39	1212.40
323.60	1271.79
323.81	1282.03
324.03	1245.16
324.24	1310.70
324.45	1298.41
324.66	1290.22
324.88	1257.45
325.09	1282.03
325.30	1263.60
325.52	1243.12
325.73	1255.40
325.94	1175.53
326.15	1296.36
326.37	1296.36
326.58	1255.40
326.79	1316.84
327.00	1345.52
327.22	1282.03
327.43	1234.93
327.64	1267.69
327.85	1216.49
328.07	1241.07
328.28	1304.56
328.49	1226.73
328.70	1267.69
328.92	1241.07
329.13	1310.70
329.34	1290.22
329.55	1310.70
329.76	1251.31
329.98	1286.12
330.19	1304.56
330.40	1196.01
330.61	1306.60
330.83	1286.12
331.04	1286.12
331.25	1236.97
331.46	1310.70
331.68	1275.88
331.89	1185.77
332.10	1243.12
332.31	1314.80
332.52	1239.02
332.74	1265.64
332.95	1220.59
333.16	1279.98
333.37	1343.47
333.58	1290.22
333.80	1185.77
334.01	1343.47
334.22	1339.37
334.43	1294.32
334.64	1208.30
334.86	1241.07
335.07	1277.93
335.28	1226.73
335.49	1306.60
335.70	1273.84
335.92	1261.55
336.13	1329.13
336.34	1216.49
336.55	1249.26
336.76	1294.32
336.98	1314.80
337.19	1241.07
337.40	1325.04
337.61	1239.02
337.82	1216.49
338.04	1265.64
338.25	1329.13
338.46	1337.32
338.67	1249.26
338.88	1247.21
339.09	1306.60
339.31	1300.46
339.52	1279.98
339.73	1294.32
339.94	1265.64
340.15	1261.55
340.36	1271.79
340.58	1239.02
340.79	1245.16
341.00	1208.30
341.21	1277.93
341.42	1261.55
341.63	1179.63
341.85	1386.47
342.06	1316.84
342.27	1304.56
342.48	1232.88
342.69	1216.49
342.90	1314.80
343.12	1294.32
343.33	1253.36
343.54	1247.21
343.75	1286.12
343.96	1267.69
344.17	1198.06
344.38	1296.36
344.60	1290.22
344.81	1232.88
345.02	1257.45
345.23	1296.36
345.44	1284.08
345.65	1273.84
345.86	1327.08
346.07	1290.22
346.29	1292.27
346.50	1245.16
346.71	1265.64
346.92	1347.56
347.13	1241.07
347.34	1220.59
347.55	1241.07
347.76	1302.51
347.98	1288.17
348.19	1267.69
348.40	1294.32
348.61	1333.23
348.82	1275.88
349.03	1216.49
349.24	1222.64
349.45	1282.03
349.66	1318.89
349.88	1216.49
350.09	1196.01
350.30	1247.21
350.51	1265.64
350.72	1214.45
350.93	1234.93
351.14	1300.46
351.35	1241.07
351.56	1282.03
351.77	1206.25
351.99	1265.64
352.20	1247.21
352.41	1208.30
352.62	1247.21
352.83	1294.32
353.04	1255.40
353.25	1261.55
353.46	1253.36
353.67	1288.17
353.88	1232.88
354.09	1273.84
354.30	1200.11
354.52	1292.27
354.73	1222.64
354.94	1279.98
355.15	1241.07
355.36	1255.40
355.57	1208.30
355.78	1259.50
355.99	1224.69
356.20	1349.61
356.41	1312.75
356.62	1263.60
356.83	1327.08
357.04	1230.83
357.25	1290.22
357.46	1220.59
357.68	1243.12
357.89	1263.60
358.10	1206.25
358.31	1304.56
358.52	1308.65
358.73	1290.22
358.94	1308.65
359.15	1273.84
359.36	1271.79
359.57	1302.51
359.78	1298.41
359.99	1263.60
360.20	1222.64
360.41	1247.21
360.62	1261.55
360.83	1230.83
361.04	1163.25
361.25	1314.80
361.46	1282.03
361.67	1294.32
361.88	1302.51
362.09	1251.31
362.30	1288.17
362.51	1243.12
362.72	1218.54
362.93	1351.66
363.14	1232.88
363.35	1296.36
363.56	1279.98
363.78	1288.17
363.99	1279.98
364.20	1241.07
364.41	1271.79
364.62	1269.74
364.83	1251.31
365.04	1239.02
365.25	1271.79
365.46	1286.12
365.67	1302.51
365.88	1294.32
366.09	1185.77
366.30	1261.55
366.51	1255.40
366.72	1306.60
366.93	1310.70
367.14	1290.22
367.35	1275.88
367.56	1273.84
367.77	1273.84
367.98	1257.45
368.18	1341.42
368.39	1304.56
368.60	1316.84
368.81	1288.17
369.02	1267.69
369.23	1224.69
369.44	1222.64
369.65	1296.36
369.86	1378.28
370.07	1257.45
370.28	1249.26
370.49	1308.65
370.70	1284.08
370.91	1261.55
371.12	1198.06
371.33	1257.45
371.54	1300.46
371.75	1339.37
371.96	1290.22
372.17	1257.45
372.38	1247.21
372.59	1236.97
372.80	1312.75
373.01	1304.56
373.22	1226.73
373.43	1275.88
373.64	1282.03
373.85	1183.73
374.06	1212.40
374.26	1220.59
374.47	1267.69
374.68	1247.21
374.89	1292.27
375.10	1320.94
375.31	1322.99
375.52	1318.89
375.73	1261.55
375.94	1259.50
376.15	1275.88
376.36	1333.23
376.57	1263.60
376.78	1245.16
376.99	1279.98
377.20	1341.42
377.40	1241.07
377.61	1316.84
377.82	1271.79
378.03	1288.17
378.24	1212.40
378.45	1249.26
378.66	1247.21
378.87	1286.12
379.08	1271.79
379.29	1226.73
379.50	1245.16
379.71	1282.03
379.91	1259.50
380.12	1292.27
380.33	1234.93
380.54	1261.55
380.75	1294.32
380.96	1198.06
381.17	1259.50
381.38	1290.22
381.59	1298.41
381.80	1259.50
382.00	1247.21
382.21	1269.74
382.42	1271.79
382.63	1234.93
382.84	1282.03
383.05	1296.36
383.26	1286.12
383.47	1257.45
383.68	1247.21
383.88	1310.70
384.09	1273.84
384.30	1273.84
384.51	1253.36
384.72	1228.78
384.93	1269.74
385.14	1253.36
385.35	1232.88
385.55	1263.60
385.76	1318.89
385.97	1288.17
386.18	1222.64
386.39	1243.12
386.60	1255.40
386.81	1257.45
387.02	1177.58
387.22	1271.79
387.43	1312.75
387.64	1286.12
387.85	1308.65
388.06	1249.26
388.27	1277.93
388.48	1257.45
388.68	1294.32
388.89	1300.46
389.10	1261.55
389.31	1290.22
389.52	1302.51
389.73	1247.21
389.93	1241.07
390.14	1277.93
390.35	1314.80
390.56	1277.93
390.77	1286.12
390.98	1275.88
391.18	1257.45
391.39	1239.02
391.60	1306.60
391.81	1265.64
392.02	1222.64
392.23	1275.88
392.43	1306.60
392.64	1243.12
392.85	1251.31
393.06	1292.27
393.27	1277.93
393.47	1232.88
393.68	1241.07
393.89	1263.60
394.10	1218.54
394.31	1251.31
394.52	1241.07
394.72	1284.08
394.93	1361.90
395.14	1296.36
395.35	1339.37
395.56	1286.12
395.76	1306.60
395.97	1236.97
396.18	1282.03
396.39	1296.36
396.60	1255.40
396.80	1296.36
397.01	1245.16
397.22	1316.84
397.43	1304.56
397.64	1267.69
397.84	1253.36
398.05	1253.36
398.26	1296.36
398.47	1218.54
398.67	1232.88
398.88	1251.31
399.09	1230.83
399.30	1290.22
399.51	1265.64
399.71	1185.77
399.92	1222.64
400.13	1331.18
400.34	1282.03
400.54	1265.64
400.75	1271.79
400.96	1265.64
401.17	1253.36
401.37	1308.65
401.58	1222.64
401.79	1327.08
402.00	1300.46
402.21	1177.58
402.41	1296.36
402.62	1222.64
402.83	1239.02
403.04	1257.45
403.24	1206.25
403.45	1239.02
403.66	1302.51
403.87	1273.84
404.07	1255.40
404.28	1308.65
404.49	1353.71
404.70	1263.60
404.90	1251.31
405.11	1341.42
405.32	1259.50
405.52	1288.17
405.73	1265.64
405.94	1320.94
406.15	1214.45
406.35	1288.17
406.56	1294.32
406.77	1265.64
406.98	1292.27
407.18	1239.02
407.39	1257.45
407.60	1331.18
407.80	1245.16
408.01	1279.98
408.22	1277.93
408.43	1294.32
408.63	1253.36
408.84	1232.88
409.05	1247.21
409.25	1306.60
409.46	1282.03
409.67	1236.97
409.88	1259.50
410.08	1251.31
410.29	1271.79
410.50	1282.03
410.70	1218.54
410.91	1329.13
411.12	1288.17
411.32	1251.31
411.53	1292.27
411.74	1284.08
411.95	1134.57
412.15	1282.03
412.36	1196.01
412.57	1288.17
412.77	1290.22
412.98	1300.46
413.19	1243.12
413.39	1216.49
413.60	1300.46
413.81	1249.26
414.01	1230.83
414.22	1267.69
414.43	1251.31
414.63	1318.89
414.84	1259.50
415.05	1273.84
415.25	1263.60
415.46	1269.74
415.67	1339.37
415.87	1222.64
416.08	1290.22
416.29	1222.64
416.49	1241.07
416.70	1181.68
416.91	1294.32
417.11	1232.88
417.32	1290.22
417.53	1304.56
417.73	1302.51
417.94	1234.93
418.15	1183.73
418.35	1232.88
418.56	1308.65
418.77	1290.22
418.97	1314.80
419.18	1220.59
419.38	1255.40
419.59	1269.74
419.80	1208.30
420.00	1204.21
420.21	1267.69
420.42	1210.35
420.62	1216.49
420.83	1331.18
421.04	1316.84
421.24	1241.07
421.45	1273.84
421.65	1261.55
421.86	1249.26
422.07	1286.12
422.27	1255.40
422.48	1304.56
422.69	1243.12
422.89	1247.21
423.10	1279.98
423.30	1263.60
423.51	1239.02
423.72	1327.08
423.92	1339.37
424.13	1218.54
424.33	1230.83
424.54	1200.11
424.75	1296.36
424.95	1273.84
425.16	1320.94
425.36	1245.16
425.57	1243.12
425.78	1294.32
425.98	1232.88
426.19	1269.74
426.39	1232.88
426.60	1318.89
426.81	1153.01
427.01	1292.27
427.22	1226.73
427.42	1251.31
427.63	1306.60
427.83	1304.56
428.04	1271.79
428.25	1265.64
428.45	1259.50
428.66	1300.46
428.86	1185.77
429.07	1277.93
429.28	1232.88
429.48	1245.16
429.69	1271.79
429.89	1376.24
430.10	1230.83
430.30	1300.46
430.51	1234.93
430.71	1269.74
430.92	1265.64
431.13	1230.83
431.33	1234.93
431.54	1265.64
431.74	1308.65
431.95	1216.49
432.15	1245.16
432.36	1243.12
432.56	1351.66
432.77	1314.80
432.98	1279.98
433.18	1339.37
433.39	1273.84
433.59	1239.02
433.80	1335.28
434.00	1226.73
434.21	1241.07
434.41	1273.84
434.62	1288.17
434.82	1314.80
435.03	1273.84
435.23	1286.12
435.44	1331.18
435.64	1277.93
435.85	1241.07
436.06	1243.12
436.26	1288.17
436.47	1253.36
436.67	1261.55
436.88	1228.78
437.08	1275.88
437.29	1263.60
437.49	1216.49
437.70	1380.33
437.90	1181.68
438.11	1284.08
438.31	1273.84
438.52	1247.21
438.72	1298.41
438.93	1241.07
439.13	1322.99
439.34	1267.69
439.54	1292.27
439.75	1216.49
439.95	1265.64
440.16	1292.27
440.36	1245.16
440.57	1300.46
440.77	1273.84
440.98	1247.21
441.18	1247.21
441.39	1263.60
441.59	1271.79
441.80	1277.93
442.00	1257.45
442.21	1273.84
442.41	1273.84
442.62	1304.56
442.82	1271.79
443.02	1310.70
443.23	1202.16
443.43	1337.32
443.64	1308.65
443.84	1255.40
444.05	1259.50
444.25	1202.16
444.46	1288.17
444.66	1312.75
444.87	1363.95
445.07	1245.16
445.28	1265.64
445.48	1361.90
445.69	1329.13
445.89	1273.84
446.09	1185.77
446.30	1267.69
446.50	1222.64
446.71	1286.12
446.91	1273.84
447.12	1327.08
447.32	1314.80
447.53	1343.47
447.73	1298.41
447.93	1224.69
448.14	1265.64
448.34	1290.22
448.55	1273.84
448.75	1308.65
448.96	1335.28
449.16	1294.32
449.36	1241.07
449.57	1265.64
449.77	1282.03
449.98	1290.22
450.18	1327.08
450.39	1294.32
450.59	1181.68
450.79	1249.26
451.00	1282.03
451.20	1286.12
451.41	1279.98
451.61	1269.74
451.81	1253.36
452.02	1257.45
452.22	1236.97
452.43	1259.50
452.63	1275.88
