SpectraSuite Data File
++++++++++++++++++++++++++++++++++++
Date: Sun Apr 03 19:55:45 CEST 2016
User: root
Dark Spectrum Present: No
Reference Spectrum Present: No
Number of Sampled Component Spectra: 1
Spectrometers: USB4C02835
Integration Time (usec): 10000 (USB4C02835)
Spectra Averaged: 1 (USB4C02835)
Boxcar Smoothing: 0 (USB4C02835)
Correct for Electrical Dark: No (USB4C02835)
Strobe/Lamp Enabled: No (USB4C02835)
Correct for Detector Non-linearity: No (USB4C02835)
Correct for Stray Light: No (USB4C02835)
Number of Pixels in Processed Spectrum: 3648
>>>>>Begin Processed Spectral Data<<<<<
177.47	1251.31
177.69	1251.31
177.91	1251.31
178.13	1210.35
178.36	1241.07
178.58	1298.41
178.80	1247.21
179.02	1298.41
179.24	1263.60
179.46	1329.13
179.68	1269.74
179.90	1273.84
180.13	1187.82
180.35	1216.49
180.57	1341.42
180.79	1251.31
181.01	1329.13
181.23	1347.56
181.45	1177.58
181.67	1327.08
181.90	1220.59
182.12	1249.26
182.34	1216.49
182.56	1198.06
182.78	1284.08
183.00	1271.79
183.22	1228.78
183.44	1159.15
183.66	1228.78
183.89	1259.50
184.11	1257.45
184.33	1247.21
184.55	1273.84
184.77	1294.32
184.99	1302.51
185.21	1271.79
185.43	1279.98
185.65	1296.36
185.87	1331.18
186.10	1357.80
186.32	1247.21
186.54	1292.27
186.76	1271.79
186.98	1298.41
187.20	1228.78
187.42	1243.12
187.64	1277.93
187.86	1294.32
188.08	1279.98
188.30	1361.90
188.52	1265.64
188.75	1273.84
188.97	1286.12
189.19	1282.03
189.41	1277.93
189.63	1279.98
189.85	1288.17
190.07	1208.30
190.29	1206.25
190.51	1382.38
190.73	1312.75
190.95	1275.88
191.17	1198.06
191.39	1253.36
191.61	1286.12
191.84	1228.78
192.06	1263.60
192.28	1325.04
192.50	1265.64
192.72	1249.26
192.94	1290.22
193.16	1259.50
193.38	1310.70
193.60	1245.16
193.82	1224.69
194.04	1277.93
194.26	1247.21
194.48	1308.65
194.70	1290.22
194.92	1249.26
195.14	1337.32
195.36	1251.31
195.58	1265.64
195.80	1251.31
196.02	1290.22
196.24	1275.88
196.46	1306.60
196.69	1267.69
196.91	1327.08
197.13	1298.41
197.35	1271.79
197.57	1226.73
197.79	1263.60
198.01	1282.03
198.23	1290.22
198.45	1263.60
198.67	1234.93
198.89	1357.80
199.11	1271.79
199.33	1284.08
199.55	1218.54
199.77	1294.32
199.99	1275.88
200.21	1234.93
200.43	1290.22
200.65	1286.12
200.87	1251.31
201.09	1271.79
201.31	1249.26
201.53	1310.70
201.75	1206.25
201.97	1243.12
202.19	1286.12
202.41	1239.02
202.63	1296.36
202.85	1292.27
203.07	1290.22
203.29	1232.88
203.51	1325.04
203.73	1251.31
203.95	1329.13
204.17	1206.25
204.39	1202.16
204.61	1337.32
204.83	1263.60
205.05	1269.74
205.27	1259.50
205.49	1286.12
205.71	1257.45
205.93	1222.64
206.15	1370.09
206.37	1275.88
206.59	1320.94
206.81	1335.28
207.03	1286.12
207.25	1243.12
207.47	1353.71
207.69	1298.41
207.91	1327.08
208.13	1200.11
208.34	1224.69
208.56	1198.06
208.78	1308.65
209.00	1298.41
209.22	1271.79
209.44	1271.79
209.66	1275.88
209.88	1265.64
210.10	1224.69
210.32	1312.75
210.54	1208.30
210.76	1298.41
210.98	1263.60
211.20	1232.88
211.42	1290.22
211.64	1265.64
211.86	1275.88
212.08	1282.03
212.30	1220.59
212.52	1216.49
212.74	1304.56
212.96	1163.25
213.17	1232.88
213.39	1249.26
213.61	1230.83
213.83	1271.79
214.05	1267.69
214.27	1277.93
214.49	1275.88
214.71	1202.16
214.93	1255.40
215.15	1310.70
215.37	1261.55
215.59	1232.88
215.81	1253.36
216.03	1279.98
216.24	1310.70
216.46	1253.36
216.68	1277.93
216.90	1294.32
217.12	1275.88
217.34	1228.78
217.56	1300.46
217.78	1269.74
218.00	1327.08
218.22	1216.49
218.44	1253.36
218.66	1212.40
218.87	1286.12
219.09	1351.66
219.31	1349.61
219.53	1335.28
219.75	1249.26
219.97	1322.99
220.19	1335.28
220.41	1306.60
220.63	1357.80
220.85	1302.51
221.06	1282.03
221.28	1249.26
221.50	1282.03
221.72	1247.21
221.94	1251.31
222.16	1269.74
222.38	1245.16
222.60	1279.98
222.82	1286.12
223.03	1333.23
223.25	1306.60
223.47	1316.84
223.69	1333.23
223.91	1232.88
224.13	1288.17
224.35	1279.98
224.57	1277.93
224.78	1353.71
225.00	1187.82
225.22	1277.93
225.44	1292.27
225.66	1288.17
225.88	1265.64
226.10	1304.56
226.32	1165.29
226.53	1234.93
226.75	1339.37
226.97	1304.56
227.19	1236.97
227.41	1290.22
227.63	1322.99
227.85	1314.80
228.06	1292.27
228.28	1269.74
228.50	1265.64
228.72	1175.53
228.94	1267.69
229.16	1212.40
229.37	1236.97
229.59	1265.64
229.81	1257.45
230.03	1271.79
230.25	1198.06
230.47	1269.74
230.69	1320.94
230.90	1267.69
231.12	1279.98
231.34	1263.60
231.56	1292.27
231.78	1290.22
232.00	1230.83
232.21	1232.88
232.43	1200.11
232.65	1253.36
232.87	1241.07
233.09	1236.97
233.30	1259.50
233.52	1271.79
233.74	1265.64
233.96	1243.12
234.18	1271.79
234.40	1191.92
234.61	1331.18
234.83	1300.46
235.05	1239.02
235.27	1241.07
235.49	1247.21
235.70	1222.64
235.92	1243.12
236.14	1279.98
236.36	1216.49
236.58	1255.40
236.79	1290.22
237.01	1247.21
237.23	1271.79
237.45	1298.41
237.67	1259.50
237.88	1290.22
238.10	1269.74
238.32	1230.83
238.54	1239.02
238.76	1292.27
238.97	1247.21
239.19	1282.03
239.41	1271.79
239.63	1234.93
239.85	1220.59
240.06	1257.45
240.28	1306.60
240.50	1273.84
240.72	1288.17
240.93	1296.36
241.15	1298.41
241.37	1245.16
241.59	1253.36
241.81	1271.79
242.02	1275.88
242.24	1345.52
242.46	1236.97
242.68	1310.70
242.89	1308.65
243.11	1318.89
243.33	1222.64
243.55	1327.08
243.76	1267.69
243.98	1269.74
244.20	1249.26
244.42	1322.99
244.64	1341.42
244.85	1173.49
245.07	1206.25
245.29	1273.84
245.51	1304.56
245.72	1255.40
245.94	1222.64
246.16	1247.21
246.38	1247.21
246.59	1306.60
246.81	1243.12
247.03	1249.26
247.24	1277.93
247.46	1220.59
247.68	1261.55
247.90	1300.46
248.11	1230.83
248.33	1204.21
248.55	1290.22
248.77	1306.60
248.98	1253.36
249.20	1261.55
249.42	1261.55
249.64	1189.87
249.85	1245.16
250.07	1327.08
250.29	1249.26
250.50	1294.32
250.72	1271.79
250.94	1300.46
251.16	1296.36
251.37	1288.17
251.59	1296.36
251.81	1294.32
252.02	1271.79
252.24	1230.83
252.46	1267.69
252.68	1302.51
252.89	1263.60
253.11	1300.46
253.33	1282.03
253.54	1306.60
253.76	1224.69
253.98	1318.89
254.20	1251.31
254.41	1202.16
254.63	1255.40
254.85	1318.89
255.06	1310.70
255.28	1191.92
255.50	1259.50
255.71	1310.70
255.93	1216.49
256.15	1251.31
256.36	1210.35
256.58	1294.32
256.80	1243.12
257.02	1302.51
257.23	1271.79
257.45	1282.03
257.67	1343.47
257.88	1327.08
258.10	1290.22
258.32	1253.36
258.53	1282.03
258.75	1257.45
258.97	1286.12
259.18	1241.07
259.40	1331.18
259.62	1249.26
259.83	1259.50
260.05	1300.46
260.27	1335.28
260.48	1288.17
260.70	1269.74
260.92	1296.36
261.13	1245.16
261.35	1277.93
261.57	1298.41
261.78	1308.65
262.00	1300.46
262.22	1286.12
262.43	1228.78
262.65	1335.28
262.86	1265.64
263.08	1265.64
263.30	1277.93
263.51	1234.93
263.73	1191.92
263.95	1259.50
264.16	1255.40
264.38	1286.12
264.60	1257.45
264.81	1245.16
265.03	1316.84
265.25	1361.90
265.46	1253.36
265.68	1251.31
265.89	1312.75
266.11	1196.01
266.33	1263.60
266.54	1263.60
266.76	1251.31
266.98	1210.35
267.19	1249.26
267.41	1302.51
267.62	1261.55
267.84	1228.78
268.06	1263.60
268.27	1314.80
268.49	1282.03
268.70	1312.75
268.92	1241.07
269.14	1267.69
269.35	1318.89
269.57	1314.80
269.79	1284.08
270.00	1245.16
270.22	1312.75
270.43	1191.92
270.65	1249.26
270.87	1261.55
271.08	1296.36
271.30	1282.03
271.51	1249.26
271.73	1216.49
271.95	1363.95
272.16	1243.12
272.38	1255.40
272.59	1316.84
272.81	1314.80
273.02	1214.45
273.24	1300.46
273.46	1302.51
273.67	1249.26
273.89	1243.12
274.10	1257.45
274.32	1314.80
274.54	1310.70
274.75	1286.12
274.97	1282.03
275.18	1296.36
275.40	1290.22
275.61	1267.69
275.83	1349.61
276.05	1294.32
276.26	1263.60
276.48	1241.07
276.69	1282.03
276.91	1271.79
277.12	1312.75
277.34	1245.16
277.55	1294.32
277.77	1267.69
277.99	1257.45
278.20	1300.46
278.42	1282.03
278.63	1282.03
278.85	1322.99
279.06	1193.97
279.28	1214.45
279.49	1214.45
279.71	1189.87
279.93	1243.12
280.14	1224.69
280.36	1292.27
280.57	1288.17
280.79	1304.56
281.00	1243.12
281.22	1218.54
281.43	1290.22
281.65	1318.89
281.86	1290.22
282.08	1241.07
282.29	1273.84
282.51	1132.53
282.73	1327.08
282.94	1253.36
283.16	1279.98
283.37	1296.36
283.59	1279.98
283.80	1296.36
284.02	1216.49
284.23	1232.88
284.45	1286.12
284.66	1206.25
284.88	1249.26
285.09	1273.84
285.31	1304.56
285.52	1314.80
285.74	1275.88
285.95	1273.84
286.17	1284.08
286.38	1296.36
286.60	1310.70
286.81	1275.88
287.03	1279.98
287.24	1226.73
287.46	1204.21
287.67	1259.50
287.89	1259.50
288.10	1245.16
288.32	1322.99
288.53	1243.12
288.75	1286.12
288.96	1300.46
289.18	1320.94
289.39	1275.88
289.61	1181.68
289.82	1216.49
290.04	1245.16
290.25	1279.98
290.47	1241.07
290.68	1304.56
290.90	1247.21
291.11	1216.49
291.33	1322.99
291.54	1306.60
291.76	1224.69
291.97	1290.22
292.18	1271.79
292.40	1175.53
292.61	1239.02
292.83	1298.41
293.04	1257.45
293.26	1329.13
293.47	1271.79
293.69	1259.50
293.90	1284.08
294.12	1257.45
294.33	1224.69
294.55	1236.97
294.76	1271.79
294.97	1245.16
295.19	1263.60
295.40	1288.17
295.62	1245.16
295.83	1279.98
296.05	1294.32
296.26	1286.12
296.48	1218.54
296.69	1241.07
296.90	1247.21
297.12	1253.36
297.33	1273.84
297.55	1296.36
297.76	1300.46
297.98	1349.61
298.19	1275.88
298.41	1234.93
298.62	1171.44
298.83	1308.65
299.05	1314.80
299.26	1298.41
299.48	1308.65
299.69	1230.83
299.90	1255.40
300.12	1236.97
300.33	1279.98
300.55	1275.88
300.76	1234.93
300.98	1220.59
301.19	1265.64
301.40	1232.88
301.62	1196.01
301.83	1232.88
302.05	1273.84
302.26	1226.73
302.47	1325.04
302.69	1241.07
302.90	1288.17
303.12	1241.07
303.33	1269.74
303.54	1312.75
303.76	1302.51
303.97	1314.80
304.19	1286.12
304.40	1261.55
304.61	1322.99
304.83	1316.84
305.04	1308.65
305.26	1337.32
305.47	1214.45
305.68	1277.93
305.90	1245.16
306.11	1296.36
306.33	1282.03
306.54	1343.47
306.75	1290.22
306.97	1214.45
307.18	1239.02
307.39	1265.64
307.61	1298.41
307.82	1239.02
308.04	1284.08
308.25	1282.03
308.46	1267.69
308.68	1208.30
308.89	1265.64
309.10	1222.64
309.32	1275.88
309.53	1263.60
309.74	1327.08
309.96	1245.16
310.17	1294.32
310.39	1253.36
310.60	1269.74
310.81	1284.08
311.03	1206.25
311.24	1148.91
311.45	1257.45
311.67	1304.56
311.88	1279.98
312.09	1208.30
312.31	1236.97
312.52	1282.03
312.73	1259.50
312.95	1232.88
313.16	1290.22
313.37	1224.69
313.59	1241.07
313.80	1286.12
314.01	1222.64
314.23	1216.49
314.44	1294.32
314.65	1329.13
314.87	1329.13
315.08	1316.84
315.29	1288.17
315.51	1222.64
315.72	1343.47
315.93	1282.03
316.15	1312.75
316.36	1153.01
316.57	1327.08
316.79	1282.03
317.00	1261.55
317.21	1275.88
317.43	1243.12
317.64	1245.16
317.85	1226.73
318.07	1263.60
318.28	1236.97
318.49	1302.51
318.70	1243.12
318.92	1341.42
319.13	1288.17
319.34	1196.01
319.56	1312.75
319.77	1267.69
319.98	1310.70
320.20	1296.36
320.41	1322.99
320.62	1249.26
320.83	1265.64
321.05	1275.88
321.26	1306.60
321.47	1257.45
321.69	1234.93
321.90	1284.08
322.11	1257.45
322.32	1292.27
322.54	1241.07
322.75	1320.94
322.96	1282.03
323.18	1261.55
323.39	1253.36
323.60	1282.03
323.81	1232.88
324.03	1185.77
324.24	1279.98
324.45	1288.17
324.66	1245.16
324.88	1220.59
325.09	1273.84
325.30	1216.49
325.52	1271.79
325.73	1320.94
325.94	1316.84
326.15	1314.80
326.37	1312.75
326.58	1177.58
326.79	1239.02
327.00	1253.36
327.22	1247.21
327.43	1259.50
327.64	1267.69
327.85	1271.79
328.07	1251.31
328.28	1271.79
328.49	1232.88
328.70	1239.02
328.92	1257.45
329.13	1294.32
329.34	1337.32
329.55	1296.36
329.76	1306.60
329.98	1318.89
330.19	1267.69
330.40	1265.64
330.61	1298.41
330.83	1224.69
331.04	1296.36
331.25	1316.84
331.46	1247.21
331.68	1253.36
331.89	1253.36
332.10	1312.75
332.31	1294.32
332.52	1327.08
332.74	1263.60
332.95	1226.73
333.16	1239.02
333.37	1247.21
333.58	1374.19
333.80	1212.40
334.01	1279.98
334.22	1267.69
334.43	1304.56
334.64	1267.69
334.86	1247.21
335.07	1327.08
335.28	1298.41
335.49	1255.40
335.70	1191.92
335.92	1329.13
336.13	1271.79
336.34	1286.12
336.55	1245.16
336.76	1239.02
336.98	1308.65
337.19	1331.18
337.40	1271.79
337.61	1239.02
337.82	1245.16
338.04	1267.69
338.25	1296.36
338.46	1331.18
338.67	1257.45
338.88	1284.08
339.09	1243.12
339.31	1251.31
339.52	1253.36
339.73	1282.03
339.94	1302.51
340.15	1308.65
340.36	1202.16
340.58	1286.12
340.79	1277.93
341.00	1247.21
341.21	1308.65
341.42	1261.55
341.63	1304.56
341.85	1236.97
342.06	1220.59
342.27	1277.93
342.48	1333.23
342.69	1241.07
342.90	1241.07
343.12	1329.13
343.33	1181.68
343.54	1288.17
343.75	1253.36
343.96	1259.50
344.17	1290.22
344.38	1273.84
344.60	1263.60
344.81	1228.78
345.02	1232.88
345.23	1265.64
345.44	1261.55
345.65	1243.12
345.86	1210.35
346.07	1224.69
346.29	1267.69
346.50	1296.36
346.71	1255.40
346.92	1239.02
347.13	1273.84
347.34	1302.51
347.55	1241.07
347.76	1214.45
347.98	1292.27
348.19	1234.93
348.40	1279.98
348.61	1263.60
348.82	1304.56
349.03	1333.23
349.24	1255.40
349.45	1306.60
349.66	1290.22
349.88	1269.74
350.09	1259.50
350.30	1257.45
350.51	1322.99
350.72	1228.78
350.93	1216.49
351.14	1239.02
351.35	1255.40
351.56	1257.45
351.77	1210.35
351.99	1290.22
352.20	1265.64
352.41	1290.22
352.62	1224.69
352.83	1277.93
353.04	1216.49
353.25	1241.07
353.46	1239.02
353.67	1224.69
353.88	1282.03
354.09	1275.88
354.30	1259.50
354.52	1267.69
354.73	1224.69
354.94	1263.60
355.15	1247.21
355.36	1298.41
355.57	1232.88
355.78	1339.37
355.99	1181.68
356.20	1296.36
356.41	1232.88
356.62	1267.69
356.83	1316.84
357.04	1241.07
357.25	1247.21
357.46	1312.75
357.68	1310.70
357.89	1302.51
358.10	1343.47
358.31	1169.39
358.52	1304.56
358.73	1236.97
358.94	1241.07
359.15	1273.84
359.36	1261.55
359.57	1320.94
359.78	1279.98
359.99	1282.03
360.20	1269.74
360.41	1298.41
360.62	1241.07
360.83	1210.35
361.04	1277.93
361.25	1191.92
361.46	1267.69
361.67	1234.93
361.88	1216.49
362.09	1138.67
362.30	1284.08
362.51	1279.98
362.72	1247.21
362.93	1255.40
363.14	1306.60
363.35	1232.88
363.56	1261.55
363.78	1185.77
363.99	1239.02
364.20	1232.88
364.41	1288.17
364.62	1245.16
364.83	1345.52
365.04	1253.36
365.25	1200.11
365.46	1251.31
365.67	1304.56
365.88	1277.93
366.09	1206.25
366.30	1226.73
366.51	1292.27
366.72	1308.65
366.93	1302.51
367.14	1275.88
367.35	1230.83
367.56	1368.04
367.77	1263.60
367.98	1271.79
368.18	1282.03
368.39	1241.07
368.60	1241.07
368.81	1212.40
369.02	1306.60
369.23	1286.12
369.44	1241.07
369.65	1277.93
369.86	1265.64
370.07	1239.02
370.28	1304.56
370.49	1241.07
370.70	1269.74
370.91	1349.61
371.12	1257.45
371.33	1259.50
371.54	1331.18
371.75	1316.84
371.96	1191.92
372.17	1284.08
372.38	1224.69
372.59	1255.40
372.80	1273.84
373.01	1241.07
373.22	1265.64
373.43	1318.89
373.64	1255.40
373.85	1279.98
374.06	1257.45
374.26	1245.16
374.47	1247.21
374.68	1398.76
374.89	1273.84
375.10	1255.40
375.31	1382.38
375.52	1239.02
375.73	1253.36
375.94	1271.79
376.15	1220.59
376.36	1296.36
376.57	1300.46
376.78	1271.79
376.99	1181.68
377.20	1243.12
377.40	1247.21
377.61	1243.12
377.82	1314.80
378.03	1257.45
378.24	1286.12
378.45	1273.84
378.66	1255.40
378.87	1234.93
379.08	1282.03
379.29	1322.99
379.50	1249.26
379.71	1316.84
379.91	1265.64
380.12	1228.78
380.33	1306.60
380.54	1275.88
380.75	1335.28
380.96	1286.12
381.17	1318.89
381.38	1329.13
381.59	1198.06
381.80	1232.88
382.00	1232.88
382.21	1261.55
382.42	1253.36
382.63	1308.65
382.84	1292.27
383.05	1198.06
383.26	1310.70
383.47	1241.07
383.68	1255.40
383.88	1230.83
384.09	1253.36
384.30	1273.84
384.51	1236.97
384.72	1200.11
384.93	1247.21
385.14	1298.41
385.35	1288.17
385.55	1234.93
385.76	1243.12
385.97	1275.88
386.18	1247.21
386.39	1241.07
386.60	1255.40
386.81	1226.73
387.02	1284.08
387.22	1279.98
387.43	1216.49
387.64	1327.08
387.85	1247.21
388.06	1275.88
388.27	1241.07
388.48	1329.13
388.68	1312.75
388.89	1267.69
389.10	1224.69
389.31	1269.74
389.52	1249.26
389.73	1214.45
389.93	1232.88
390.14	1304.56
390.35	1290.22
390.56	1286.12
390.77	1261.55
390.98	1159.15
391.18	1279.98
391.39	1279.98
391.60	1212.40
391.81	1226.73
392.02	1216.49
392.23	1224.69
392.43	1329.13
392.64	1275.88
392.85	1241.07
393.06	1245.16
393.27	1331.18
393.47	1300.46
393.68	1275.88
393.89	1304.56
394.10	1282.03
394.31	1259.50
394.52	1273.84
394.72	1204.21
394.93	1257.45
395.14	1263.60
395.35	1239.02
395.56	1279.98
395.76	1302.51
395.97	1234.93
396.18	1208.30
396.39	1245.16
396.60	1275.88
396.80	1286.12
397.01	1300.46
397.22	1290.22
397.43	1325.04
397.64	1239.02
397.84	1228.78
398.05	1292.27
398.26	1282.03
398.47	1265.64
398.67	1259.50
398.88	1349.61
399.09	1284.08
399.30	1224.69
399.51	1251.31
399.71	1282.03
399.92	1325.04
400.13	1208.30
400.34	1290.22
400.54	1265.64
400.75	1275.88
400.96	1296.36
401.17	1325.04
401.37	1296.36
401.58	1398.76
401.79	1279.98
402.00	1286.12
402.21	1198.06
402.41	1214.45
402.62	1257.45
402.83	1257.45
403.04	1241.07
403.24	1279.98
403.45	1335.28
403.66	1259.50
403.87	1304.56
404.07	1296.36
404.28	1294.32
404.49	1267.69
404.70	1230.83
404.90	1212.40
405.11	1234.93
405.32	1279.98
405.52	1335.28
405.73	1241.07
405.94	1294.32
406.15	1216.49
406.35	1294.32
406.56	1296.36
406.77	1249.26
406.98	1253.36
407.18	1304.56
407.39	1282.03
407.60	1325.04
407.80	1273.84
408.01	1331.18
408.22	1261.55
408.43	1296.36
408.63	1306.60
408.84	1320.94
409.05	1263.60
409.25	1282.03
409.46	1322.99
409.67	1279.98
409.88	1314.80
410.08	1239.02
410.29	1261.55
410.50	1286.12
410.70	1241.07
410.91	1279.98
411.12	1241.07
411.32	1208.30
411.53	1243.12
411.74	1253.36
411.95	1251.31
412.15	1271.79
412.36	1320.94
412.57	1312.75
412.77	1312.75
412.98	1245.16
413.19	1292.27
413.39	1282.03
413.60	1345.52
413.81	1232.88
414.01	1224.69
414.22	1226.73
414.43	1259.50
414.63	1257.45
414.84	1247.21
415.05	1267.69
415.25	1191.92
415.46	1286.12
415.67	1331.18
415.87	1224.69
416.08	1314.80
416.29	1292.27
416.49	1232.88
416.70	1284.08
416.91	1279.98
417.11	1265.64
417.32	1302.51
417.53	1284.08
417.73	1249.26
417.94	1234.93
418.15	1337.32
418.35	1279.98
418.56	1329.13
418.77	1273.84
418.97	1277.93
419.18	1284.08
419.38	1294.32
419.59	1290.22
419.80	1259.50
420.00	1226.73
420.21	1208.30
420.42	1308.65
420.62	1294.32
420.83	1247.21
421.04	1245.16
421.24	1282.03
421.45	1355.76
421.65	1251.31
421.86	1193.97
422.07	1245.16
422.27	1255.40
422.48	1294.32
422.69	1241.07
422.89	1290.22
423.10	1279.98
423.30	1271.79
423.51	1271.79
423.72	1247.21
423.92	1300.46
424.13	1290.22
424.33	1267.69
424.54	1261.55
424.75	1263.60
424.95	1249.26
425.16	1171.44
425.36	1218.54
425.57	1269.74
425.78	1273.84
425.98	1277.93
426.19	1230.83
426.39	1279.98
426.60	1290.22
426.81	1292.27
427.01	1296.36
427.22	1269.74
427.42	1292.27
427.63	1296.36
427.83	1261.55
428.04	1310.70
428.25	1269.74
428.45	1261.55
428.66	1298.41
428.86	1241.07
429.07	1279.98
429.28	1228.78
429.48	1206.25
429.69	1282.03
429.89	1298.41
430.10	1288.17
430.30	1306.60
430.51	1304.56
430.71	1245.16
430.92	1259.50
431.13	1241.07
431.33	1314.80
431.54	1251.31
431.74	1226.73
431.95	1255.40
432.15	1312.75
432.36	1230.83
432.56	1279.98
432.77	1263.60
432.98	1335.28
433.18	1318.89
433.39	1220.59
433.59	1320.94
433.80	1304.56
434.00	1294.32
434.21	1234.93
434.41	1236.97
434.62	1337.32
434.82	1251.31
435.03	1204.21
435.23	1204.21
435.44	1198.06
435.64	1290.22
435.85	1320.94
436.06	1183.73
436.26	1220.59
436.47	1212.40
436.67	1308.65
436.88	1224.69
437.08	1230.83
437.29	1228.78
437.49	1282.03
437.70	1298.41
437.90	1243.12
438.11	1241.07
438.31	1251.31
438.52	1316.84
438.72	1261.55
438.93	1290.22
439.13	1261.55
439.34	1310.70
439.54	1261.55
439.75	1208.30
439.95	1234.93
440.16	1243.12
440.36	1261.55
440.57	1196.01
440.77	1212.40
440.98	1312.75
441.18	1304.56
441.39	1220.59
441.59	1228.78
441.80	1232.88
442.00	1267.69
442.21	1263.60
442.41	1288.17
442.62	1232.88
442.82	1304.56
443.02	1245.16
443.23	1228.78
443.43	1306.60
443.64	1275.88
443.84	1275.88
444.05	1320.94
444.25	1294.32
444.46	1298.41
444.66	1275.88
444.87	1273.84
445.07	1243.12
445.28	1239.02
445.48	1228.78
445.69	1288.17
445.89	1310.70
446.09	1267.69
446.30	1292.27
446.50	1306.60
446.71	1269.74
446.91	1284.08
447.12	1259.50
447.32	1249.26
447.53	1271.79
447.73	1282.03
447.93	1239.02
448.14	1277.93
448.34	1255.40
448.55	1214.45
448.75	1296.36
448.96	1249.26
449.16	1339.37
449.36	1298.41
449.57	1273.84
449.77	1288.17
449.98	1198.06
450.18	1277.93
450.39	1290.22
450.59	1271.79
450.79	1310.70
451.00	1345.52
451.20	1267.69
451.41	1241.07
451.61	1304.56
451.81	1226.73
452.02	1273.84
452.22	1343.47
452.43	1286.12
452.63	1282.03
