SpectraSuite Data File
++++++++++++++++++++++++++++++++++++
Date: Sun Apr 03 19:55:16 CEST 2016
User: root
Dark Spectrum Present: No
Reference Spectrum Present: No
Number of Sampled Component Spectra: 1
Spectrometers: USB4C02835
Integration Time (usec): 10000 (USB4C02835)
Spectra Averaged: 1 (USB4C02835)
Boxcar Smoothing: 0 (USB4C02835)
Correct for Electrical Dark: No (USB4C02835)
Strobe/Lamp Enabled: No (USB4C02835)
Correct for Detector Non-linearity: No (USB4C02835)
Correct for Stray Light: No (USB4C02835)
Number of Pixels in Processed Spectrum: 3648
>>>>>Begin Processed Spectral Data<<<<<
177.47	1224.69
177.69	1224.69
177.91	1224.69
178.13	1337.32
178.36	1222.64
178.58	1230.83
178.80	1216.49
179.02	1228.78
179.24	1204.21
179.46	1288.17
179.68	1226.73
179.90	1247.21
180.13	1181.68
180.35	1234.93
180.57	1316.84
180.79	1271.79
181.01	1279.98
181.23	1306.60
181.45	1265.64
181.67	1230.83
181.90	1257.45
182.12	1290.22
182.34	1279.98
182.56	1320.94
182.78	1253.36
183.00	1359.85
183.22	1290.22
183.44	1298.41
183.66	1232.88
183.89	1292.27
184.11	1255.40
184.33	1275.88
184.55	1243.12
184.77	1294.32
184.99	1224.69
185.21	1196.01
185.43	1288.17
185.65	1327.08
185.87	1372.14
186.10	1304.56
186.32	1249.26
186.54	1361.90
186.76	1273.84
186.98	1241.07
187.20	1236.97
187.42	1265.64
187.64	1265.64
187.86	1210.35
188.08	1263.60
188.30	1312.75
188.52	1267.69
188.75	1249.26
188.97	1271.79
189.19	1216.49
189.41	1320.94
189.63	1226.73
189.85	1290.22
190.07	1253.36
190.29	1216.49
190.51	1322.99
190.73	1239.02
190.95	1216.49
191.17	1208.30
191.39	1204.21
191.61	1300.46
191.84	1277.93
192.06	1294.32
192.28	1316.84
192.50	1251.31
192.72	1249.26
192.94	1363.95
193.16	1249.26
193.38	1279.98
193.60	1279.98
193.82	1279.98
194.04	1271.79
194.26	1226.73
194.48	1327.08
194.70	1232.88
194.92	1298.41
195.14	1308.65
195.36	1275.88
195.58	1259.50
195.80	1241.07
196.02	1249.26
196.24	1284.08
196.46	1249.26
196.69	1331.18
196.91	1224.69
197.13	1183.73
197.35	1261.55
197.57	1271.79
197.79	1236.97
198.01	1241.07
198.23	1226.73
198.45	1351.66
198.67	1325.04
198.89	1320.94
199.11	1271.79
199.33	1273.84
199.55	1273.84
199.77	1300.46
199.99	1196.01
200.21	1269.74
200.43	1247.21
200.65	1267.69
200.87	1273.84
201.09	1282.03
201.31	1312.75
201.53	1253.36
201.75	1251.31
201.97	1243.12
202.19	1251.31
202.41	1296.36
202.63	1224.69
202.85	1306.60
203.07	1273.84
203.29	1284.08
203.51	1296.36
203.73	1245.16
203.95	1247.21
204.17	1304.56
204.39	1216.49
204.61	1167.34
204.83	1298.41
205.05	1179.63
205.27	1265.64
205.49	1261.55
205.71	1290.22
205.93	1236.97
206.15	1355.76
206.37	1279.98
206.59	1267.69
206.81	1320.94
207.03	1236.97
207.25	1247.21
207.47	1253.36
207.69	1302.51
207.91	1259.50
208.13	1290.22
208.34	1236.97
208.56	1286.12
208.78	1208.30
209.00	1290.22
209.22	1347.56
209.44	1296.36
209.66	1232.88
209.88	1259.50
210.10	1247.21
210.32	1265.64
210.54	1269.74
210.76	1284.08
210.98	1251.31
211.20	1269.74
211.42	1327.08
211.64	1271.79
211.86	1245.16
212.08	1294.32
212.30	1279.98
212.52	1234.93
212.74	1243.12
212.96	1273.84
213.17	1304.56
213.39	1263.60
213.61	1243.12
213.83	1212.40
214.05	1273.84
214.27	1290.22
214.49	1271.79
214.71	1204.21
214.93	1204.21
215.15	1226.73
215.37	1366.00
215.59	1302.51
215.81	1230.83
216.03	1279.98
216.24	1249.26
216.46	1304.56
216.68	1216.49
216.90	1245.16
217.12	1304.56
217.34	1214.45
217.56	1316.84
217.78	1277.93
218.00	1282.03
218.22	1290.22
218.44	1296.36
218.66	1239.02
218.87	1265.64
219.09	1220.59
219.31	1263.60
219.53	1253.36
219.75	1249.26
219.97	1220.59
220.19	1298.41
220.41	1271.79
220.63	1304.56
220.85	1257.45
221.06	1163.25
221.28	1222.64
221.50	1251.31
221.72	1284.08
221.94	1312.75
222.16	1247.21
222.38	1228.78
222.60	1308.65
222.82	1222.64
223.03	1308.65
223.25	1265.64
223.47	1224.69
223.69	1269.74
223.91	1249.26
224.13	1232.88
224.35	1226.73
224.57	1257.45
224.78	1337.32
225.00	1214.45
225.22	1257.45
225.44	1214.45
225.66	1259.50
225.88	1279.98
226.10	1261.55
226.32	1253.36
226.53	1304.56
226.75	1282.03
226.97	1279.98
227.19	1224.69
227.41	1300.46
227.63	1331.18
227.85	1216.49
228.06	1224.69
228.28	1275.88
228.50	1255.40
228.72	1239.02
228.94	1249.26
229.16	1200.11
229.37	1284.08
229.59	1351.66
229.81	1300.46
230.03	1304.56
230.25	1247.21
230.47	1273.84
230.69	1314.80
230.90	1265.64
231.12	1284.08
231.34	1267.69
231.56	1294.32
231.78	1255.40
232.00	1345.52
232.21	1241.07
232.43	1275.88
232.65	1247.21
232.87	1253.36
233.09	1306.60
233.30	1232.88
233.52	1282.03
233.74	1226.73
233.96	1271.79
234.18	1191.92
234.40	1247.21
234.61	1304.56
234.83	1224.69
235.05	1296.36
235.27	1322.99
235.49	1322.99
235.70	1296.36
235.92	1247.21
236.14	1251.31
236.36	1296.36
236.58	1271.79
236.79	1314.80
237.01	1241.07
237.23	1288.17
237.45	1335.28
237.67	1255.40
237.88	1329.13
238.10	1298.41
238.32	1204.21
238.54	1302.51
238.76	1232.88
238.97	1253.36
239.19	1355.76
239.41	1288.17
239.63	1302.51
239.85	1310.70
240.06	1339.37
240.28	1298.41
240.50	1265.64
240.72	1232.88
240.93	1314.80
241.15	1259.50
241.37	1277.93
241.59	1284.08
241.81	1224.69
242.02	1247.21
242.24	1288.17
242.46	1306.60
242.68	1304.56
242.89	1224.69
243.11	1232.88
243.33	1290.22
243.55	1255.40
243.76	1292.27
243.98	1265.64
244.20	1251.31
244.42	1320.94
244.64	1224.69
244.85	1234.93
245.07	1288.17
245.29	1269.74
245.51	1292.27
245.72	1314.80
245.94	1239.02
246.16	1216.49
246.38	1288.17
246.59	1306.60
246.81	1236.97
247.03	1290.22
247.24	1206.25
247.46	1251.31
247.68	1318.89
247.90	1206.25
248.11	1279.98
248.33	1290.22
248.55	1279.98
248.77	1216.49
248.98	1327.08
249.20	1341.42
249.42	1249.26
249.64	1204.21
249.85	1234.93
250.07	1187.82
250.29	1282.03
250.50	1275.88
250.72	1232.88
250.94	1251.31
251.16	1247.21
251.37	1288.17
251.59	1310.70
251.81	1255.40
252.02	1249.26
252.24	1298.41
252.46	1214.45
252.68	1187.82
252.89	1327.08
253.11	1214.45
253.33	1236.97
253.54	1284.08
253.76	1243.12
253.98	1277.93
254.20	1259.50
254.41	1255.40
254.63	1308.65
254.85	1282.03
255.06	1218.54
255.28	1296.36
255.50	1296.36
255.71	1355.76
255.93	1257.45
256.15	1372.14
256.36	1263.60
256.58	1216.49
256.80	1308.65
257.02	1329.13
257.23	1298.41
257.45	1255.40
257.67	1310.70
257.88	1304.56
258.10	1220.59
258.32	1308.65
258.53	1259.50
258.75	1239.02
258.97	1265.64
259.18	1284.08
259.40	1249.26
259.62	1271.79
259.83	1255.40
260.05	1230.83
260.27	1228.78
260.48	1253.36
260.70	1218.54
260.92	1187.82
261.13	1286.12
261.35	1253.36
261.57	1263.60
261.78	1247.21
262.00	1302.51
262.22	1232.88
262.43	1288.17
262.65	1271.79
262.86	1263.60
263.08	1277.93
263.30	1257.45
263.51	1279.98
263.73	1302.51
263.95	1239.02
264.16	1347.56
264.38	1257.45
264.60	1347.56
264.81	1284.08
265.03	1226.73
265.25	1294.32
265.46	1239.02
265.68	1304.56
265.89	1193.97
266.11	1314.80
266.33	1302.51
266.54	1263.60
266.76	1222.64
266.98	1284.08
267.19	1290.22
267.41	1224.69
267.62	1298.41
267.84	1232.88
268.06	1210.35
268.27	1261.55
268.49	1230.83
268.70	1218.54
268.92	1267.69
269.14	1232.88
269.35	1271.79
269.57	1228.78
269.79	1236.97
270.00	1263.60
270.22	1322.99
270.43	1271.79
270.65	1257.45
270.87	1282.03
271.08	1239.02
271.30	1275.88
271.51	1261.55
271.73	1290.22
271.95	1265.64
272.16	1181.68
272.38	1339.37
272.59	1294.32
272.81	1269.74
273.02	1249.26
273.24	1257.45
273.46	1333.23
273.67	1253.36
273.89	1341.42
274.10	1290.22
274.32	1325.04
274.54	1286.12
274.75	1265.64
274.97	1224.69
275.18	1202.16
275.40	1255.40
275.61	1308.65
275.83	1273.84
276.05	1224.69
276.26	1306.60
276.48	1247.21
276.69	1304.56
276.91	1226.73
277.12	1247.21
277.34	1232.88
277.55	1269.74
277.77	1271.79
277.99	1296.36
278.20	1314.80
278.42	1333.23
278.63	1318.89
278.85	1220.59
279.06	1230.83
279.28	1241.07
279.49	1318.89
279.71	1282.03
279.93	1345.52
280.14	1320.94
280.36	1245.16
280.57	1251.31
280.79	1255.40
281.00	1282.03
281.22	1304.56
281.43	1263.60
281.65	1284.08
281.86	1257.45
282.08	1312.75
282.29	1347.56
282.51	1290.22
282.73	1163.25
282.94	1257.45
283.16	1275.88
283.37	1308.65
283.59	1218.54
283.80	1284.08
284.02	1277.93
284.23	1257.45
284.45	1249.26
284.66	1316.84
284.88	1284.08
285.09	1228.78
285.31	1257.45
285.52	1259.50
285.74	1288.17
285.95	1261.55
286.17	1282.03
286.38	1234.93
286.60	1314.80
286.81	1261.55
287.03	1306.60
287.24	1208.30
287.46	1261.55
287.67	1275.88
287.89	1241.07
288.10	1181.68
288.32	1288.17
288.53	1316.84
288.75	1249.26
288.96	1253.36
289.18	1318.89
289.39	1384.43
289.61	1247.21
289.82	1265.64
290.04	1314.80
290.25	1243.12
290.47	1292.27
290.68	1232.88
290.90	1220.59
291.11	1302.51
291.33	1290.22
291.54	1261.55
291.76	1247.21
291.97	1239.02
292.18	1271.79
292.40	1282.03
292.61	1263.60
292.83	1257.45
293.04	1282.03
293.26	1296.36
293.47	1232.88
293.69	1251.31
293.90	1249.26
294.12	1202.16
294.33	1243.12
294.55	1333.23
294.76	1249.26
294.97	1265.64
295.19	1284.08
295.40	1306.60
295.62	1187.82
295.83	1241.07
296.05	1302.51
296.26	1253.36
296.48	1343.47
296.69	1253.36
296.90	1282.03
297.12	1286.12
297.33	1265.64
297.55	1286.12
297.76	1296.36
297.98	1277.93
298.19	1259.50
298.41	1228.78
298.62	1277.93
298.83	1251.31
299.05	1294.32
299.26	1189.87
299.48	1329.13
299.69	1228.78
299.90	1286.12
300.12	1374.19
300.33	1259.50
300.55	1286.12
300.76	1310.70
300.98	1241.07
301.19	1251.31
301.40	1279.98
301.62	1298.41
301.83	1251.31
302.05	1247.21
302.26	1234.93
302.47	1243.12
302.69	1257.45
302.90	1236.97
303.12	1302.51
303.33	1275.88
303.54	1282.03
303.76	1310.70
303.97	1294.32
304.19	1273.84
304.40	1263.60
304.61	1249.26
304.83	1261.55
305.04	1189.87
305.26	1234.93
305.47	1236.97
305.68	1282.03
305.90	1243.12
306.11	1259.50
306.33	1222.64
306.54	1232.88
306.75	1206.25
306.97	1282.03
307.18	1259.50
307.39	1306.60
307.61	1331.18
307.82	1265.64
308.04	1228.78
308.25	1290.22
308.46	1239.02
308.68	1259.50
308.89	1214.45
309.10	1261.55
309.32	1316.84
309.53	1232.88
309.74	1263.60
309.96	1298.41
310.17	1269.74
310.39	1257.45
310.60	1275.88
310.81	1245.16
311.03	1294.32
311.24	1228.78
311.45	1263.60
311.67	1216.49
311.88	1214.45
312.09	1245.16
312.31	1226.73
312.52	1294.32
312.73	1261.55
312.95	1204.21
313.16	1304.56
313.37	1304.56
313.59	1228.78
313.80	1259.50
314.01	1255.40
314.23	1288.17
314.44	1282.03
314.65	1277.93
314.87	1228.78
315.08	1234.93
315.29	1269.74
315.51	1267.69
315.72	1298.41
315.93	1271.79
316.15	1282.03
316.36	1216.49
316.57	1273.84
316.79	1306.60
317.00	1327.08
317.21	1292.27
317.43	1257.45
317.64	1265.64
317.85	1263.60
318.07	1249.26
318.28	1282.03
318.49	1271.79
318.70	1245.16
318.92	1279.98
319.13	1288.17
319.34	1249.26
319.56	1202.16
319.77	1347.56
319.98	1251.31
320.20	1318.89
320.41	1259.50
320.62	1271.79
320.83	1322.99
321.05	1304.56
321.26	1273.84
321.47	1273.84
321.69	1370.09
321.90	1290.22
322.11	1273.84
322.32	1302.51
322.54	1251.31
322.75	1284.08
322.96	1251.31
323.18	1359.85
323.39	1263.60
323.60	1171.44
323.81	1247.21
324.03	1191.92
324.24	1234.93
324.45	1282.03
324.66	1304.56
324.88	1224.69
325.09	1232.88
325.30	1249.26
325.52	1271.79
325.73	1224.69
325.94	1308.65
326.15	1284.08
326.37	1267.69
326.58	1271.79
326.79	1294.32
327.00	1232.88
327.22	1298.41
327.43	1236.97
327.64	1189.87
327.85	1286.12
328.07	1296.36
328.28	1288.17
328.49	1314.80
328.70	1271.79
328.92	1325.04
329.13	1241.07
329.34	1265.64
329.55	1234.93
329.76	1310.70
329.98	1296.36
330.19	1279.98
330.40	1212.40
330.61	1304.56
330.83	1271.79
331.04	1236.97
331.25	1198.06
331.46	1253.36
331.68	1241.07
331.89	1277.93
332.10	1294.32
332.31	1232.88
332.52	1245.16
332.74	1265.64
332.95	1253.36
333.16	1294.32
333.37	1232.88
333.58	1282.03
333.80	1261.55
334.01	1273.84
334.22	1251.31
334.43	1296.36
334.64	1187.82
334.86	1282.03
335.07	1228.78
335.28	1255.40
335.49	1212.40
335.70	1314.80
335.92	1300.46
336.13	1320.94
336.34	1257.45
336.55	1206.25
336.76	1269.74
336.98	1249.26
337.19	1284.08
337.40	1269.74
337.61	1271.79
337.82	1255.40
338.04	1200.11
338.25	1232.88
338.46	1292.27
338.67	1269.74
338.88	1363.95
339.09	1312.75
339.31	1239.02
339.52	1277.93
339.73	1271.79
339.94	1263.60
340.15	1200.11
340.36	1300.46
340.58	1320.94
340.79	1257.45
341.00	1298.41
341.21	1200.11
341.42	1288.17
341.63	1220.59
341.85	1306.60
342.06	1267.69
342.27	1243.12
342.48	1308.65
342.69	1189.87
342.90	1255.40
343.12	1288.17
343.33	1230.83
343.54	1247.21
343.75	1255.40
343.96	1277.93
344.17	1206.25
344.38	1292.27
344.60	1251.31
344.81	1200.11
345.02	1314.80
345.23	1284.08
345.44	1304.56
345.65	1243.12
345.86	1322.99
346.07	1269.74
346.29	1249.26
346.50	1224.69
346.71	1296.36
346.92	1306.60
347.13	1279.98
347.34	1333.23
347.55	1257.45
347.76	1329.13
347.98	1298.41
348.19	1302.51
348.40	1273.84
348.61	1251.31
348.82	1320.94
349.03	1226.73
349.24	1279.98
349.45	1277.93
349.66	1314.80
349.88	1304.56
350.09	1269.74
350.30	1296.36
350.51	1257.45
350.72	1212.40
350.93	1255.40
351.14	1212.40
351.35	1241.07
351.56	1292.27
351.77	1265.64
351.99	1337.32
352.20	1255.40
352.41	1271.79
352.62	1275.88
352.83	1257.45
353.04	1310.70
353.25	1255.40
353.46	1288.17
353.67	1261.55
353.88	1325.04
354.09	1284.08
354.30	1279.98
354.52	1241.07
354.73	1236.97
354.94	1222.64
355.15	1257.45
355.36	1290.22
355.57	1185.77
355.78	1318.89
355.99	1236.97
356.20	1322.99
356.41	1228.78
356.62	1247.21
356.83	1245.16
357.04	1257.45
357.25	1275.88
357.46	1241.07
357.68	1222.64
357.89	1249.26
358.10	1263.60
358.31	1302.51
358.52	1265.64
358.73	1294.32
358.94	1220.59
359.15	1230.83
359.36	1277.93
359.57	1247.21
359.78	1269.74
359.99	1271.79
360.20	1302.51
360.41	1318.89
360.62	1327.08
360.83	1234.93
361.04	1181.68
361.25	1265.64
361.46	1312.75
361.67	1269.74
361.88	1298.41
362.09	1228.78
362.30	1298.41
362.51	1239.02
362.72	1245.16
362.93	1269.74
363.14	1234.93
363.35	1228.78
363.56	1300.46
363.78	1267.69
363.99	1333.23
364.20	1206.25
364.41	1218.54
364.62	1290.22
364.83	1251.31
365.04	1245.16
365.25	1306.60
365.46	1288.17
365.67	1320.94
365.88	1277.93
366.09	1368.04
366.30	1247.21
366.51	1318.89
366.72	1224.69
366.93	1265.64
367.14	1308.65
367.35	1271.79
367.56	1255.40
367.77	1380.33
367.98	1236.97
368.18	1279.98
368.39	1312.75
368.60	1216.49
368.81	1300.46
369.02	1265.64
369.23	1284.08
369.44	1239.02
369.65	1245.16
369.86	1290.22
370.07	1224.69
370.28	1300.46
370.49	1269.74
370.70	1220.59
370.91	1226.73
371.12	1277.93
371.33	1275.88
371.54	1325.04
371.75	1277.93
371.96	1261.55
372.17	1214.45
372.38	1263.60
372.59	1271.79
372.80	1290.22
373.01	1294.32
373.22	1279.98
373.43	1208.30
373.64	1288.17
373.85	1279.98
374.06	1288.17
374.26	1288.17
374.47	1271.79
374.68	1261.55
374.89	1290.22
375.10	1224.69
375.31	1296.36
375.52	1282.03
375.73	1277.93
375.94	1232.88
376.15	1314.80
376.36	1259.50
376.57	1304.56
376.78	1265.64
376.99	1286.12
377.20	1308.65
377.40	1243.12
377.61	1329.13
377.82	1279.98
378.03	1320.94
378.24	1214.45
378.45	1296.36
378.66	1253.36
378.87	1251.31
379.08	1265.64
379.29	1255.40
379.50	1288.17
379.71	1189.87
379.91	1284.08
380.12	1275.88
380.33	1327.08
380.54	1279.98
380.75	1269.74
380.96	1253.36
381.17	1208.30
381.38	1224.69
381.59	1284.08
381.80	1279.98
382.00	1236.97
382.21	1271.79
382.42	1232.88
382.63	1236.97
382.84	1275.88
383.05	1284.08
383.26	1343.47
383.47	1222.64
383.68	1286.12
383.88	1286.12
384.09	1306.60
384.30	1236.97
384.51	1322.99
384.72	1341.42
384.93	1220.59
385.14	1228.78
385.35	1282.03
385.55	1290.22
385.76	1306.60
385.97	1271.79
386.18	1316.84
386.39	1302.51
386.60	1255.40
386.81	1253.36
387.02	1302.51
387.22	1214.45
387.43	1259.50
387.64	1212.40
387.85	1249.26
388.06	1159.15
388.27	1296.36
388.48	1208.30
388.68	1241.07
388.89	1226.73
389.10	1296.36
389.31	1290.22
389.52	1286.12
389.73	1228.78
389.93	1327.08
390.14	1273.84
390.35	1247.21
390.56	1257.45
390.77	1269.74
390.98	1208.30
391.18	1302.51
391.39	1234.93
391.60	1290.22
391.81	1296.36
392.02	1316.84
392.23	1257.45
392.43	1316.84
392.64	1210.35
392.85	1202.16
393.06	1310.70
393.27	1259.50
393.47	1245.16
393.68	1282.03
393.89	1208.30
394.10	1275.88
394.31	1222.64
394.52	1288.17
394.72	1296.36
394.93	1241.07
395.14	1271.79
395.35	1189.87
395.56	1290.22
395.76	1306.60
395.97	1224.69
396.18	1257.45
396.39	1296.36
396.60	1265.64
396.80	1327.08
397.01	1259.50
397.22	1284.08
397.43	1230.83
397.64	1314.80
397.84	1189.87
398.05	1284.08
398.26	1226.73
398.47	1306.60
398.67	1275.88
398.88	1228.78
399.09	1214.45
399.30	1271.79
399.51	1224.69
399.71	1300.46
399.92	1259.50
400.13	1212.40
400.34	1230.83
400.54	1327.08
400.75	1200.11
400.96	1265.64
401.17	1247.21
401.37	1275.88
401.58	1325.04
401.79	1294.32
402.00	1302.51
402.21	1241.07
402.41	1247.21
402.62	1343.47
402.83	1234.93
403.04	1234.93
403.24	1318.89
403.45	1234.93
403.66	1314.80
403.87	1290.22
404.07	1300.46
404.28	1308.65
404.49	1261.55
404.70	1312.75
404.90	1296.36
405.11	1191.92
405.32	1277.93
405.52	1236.97
405.73	1331.18
405.94	1306.60
406.15	1228.78
406.35	1312.75
406.56	1232.88
406.77	1269.74
406.98	1282.03
407.18	1269.74
407.39	1325.04
407.60	1220.59
407.80	1298.41
408.01	1298.41
408.22	1286.12
408.43	1290.22
408.63	1249.26
408.84	1333.23
409.05	1296.36
409.25	1265.64
409.46	1296.36
409.67	1265.64
409.88	1259.50
410.08	1290.22
410.29	1296.36
410.50	1247.21
410.70	1267.69
410.91	1296.36
411.12	1286.12
411.32	1292.27
411.53	1259.50
411.74	1308.65
411.95	1265.64
412.15	1292.27
412.36	1245.16
412.57	1284.08
412.77	1306.60
412.98	1310.70
413.19	1277.93
413.39	1296.36
413.60	1247.21
413.81	1261.55
414.01	1236.97
414.22	1224.69
414.43	1271.79
414.63	1226.73
414.84	1236.97
415.05	1273.84
415.25	1200.11
415.46	1327.08
415.67	1284.08
415.87	1312.75
416.08	1259.50
416.29	1302.51
416.49	1216.49
416.70	1288.17
416.91	1347.56
417.11	1245.16
417.32	1236.97
417.53	1202.16
417.73	1273.84
417.94	1255.40
418.15	1300.46
418.35	1273.84
418.56	1325.04
418.77	1290.22
418.97	1296.36
419.18	1251.31
419.38	1298.41
419.59	1171.44
419.80	1284.08
420.00	1224.69
420.21	1218.54
420.42	1232.88
420.62	1206.25
420.83	1306.60
421.04	1310.70
421.24	1273.84
421.45	1214.45
421.65	1216.49
421.86	1245.16
422.07	1241.07
422.27	1273.84
422.48	1296.36
422.69	1243.12
422.89	1234.93
423.10	1216.49
423.30	1284.08
423.51	1314.80
423.72	1265.64
423.92	1241.07
424.13	1261.55
424.33	1259.50
424.54	1312.75
424.75	1253.36
424.95	1304.56
425.16	1216.49
425.36	1286.12
425.57	1292.27
425.78	1224.69
425.98	1314.80
426.19	1273.84
426.39	1236.97
426.60	1265.64
426.81	1255.40
427.01	1251.31
427.22	1273.84
427.42	1241.07
427.63	1261.55
427.83	1245.16
428.04	1329.13
428.25	1292.27
428.45	1288.17
428.66	1277.93
428.86	1247.21
429.07	1214.45
429.28	1343.47
429.48	1210.35
429.69	1279.98
429.89	1241.07
430.10	1306.60
430.30	1288.17
430.51	1273.84
430.71	1298.41
430.92	1261.55
431.13	1247.21
431.33	1310.70
431.54	1298.41
431.74	1198.06
431.95	1288.17
432.15	1193.97
432.36	1359.85
432.56	1212.40
432.77	1314.80
432.98	1247.21
433.18	1253.36
433.39	1196.01
433.59	1228.78
433.80	1239.02
434.00	1157.10
434.21	1386.47
434.41	1273.84
434.62	1282.03
434.82	1335.28
435.03	1228.78
435.23	1411.05
435.44	1355.76
435.64	1308.65
435.85	1298.41
436.06	1236.97
436.26	1269.74
436.47	1310.70
436.67	1198.06
436.88	1243.12
437.08	1239.02
437.29	1277.93
437.49	1304.56
437.70	1247.21
437.90	1318.89
438.11	1239.02
438.31	1232.88
438.52	1224.69
438.72	1275.88
438.93	1263.60
439.13	1249.26
439.34	1337.32
439.54	1296.36
439.75	1271.79
439.95	1286.12
440.16	1243.12
440.36	1226.73
440.57	1290.22
440.77	1288.17
440.98	1261.55
441.18	1255.40
441.39	1300.46
441.59	1296.36
441.80	1247.21
442.00	1261.55
442.21	1251.31
442.41	1269.74
442.62	1331.18
442.82	1249.26
443.02	1286.12
443.23	1200.11
443.43	1241.07
443.64	1304.56
443.84	1284.08
444.05	1306.60
444.25	1294.32
444.46	1257.45
444.66	1239.02
444.87	1230.83
445.07	1318.89
445.28	1320.94
445.48	1200.11
445.69	1290.22
445.89	1327.08
446.09	1273.84
446.30	1337.32
446.50	1306.60
446.71	1273.84
446.91	1279.98
447.12	1335.28
447.32	1232.88
447.53	1343.47
447.73	1312.75
447.93	1259.50
448.14	1273.84
448.34	1230.83
448.55	1230.83
448.75	1212.40
448.96	1239.02
449.16	1345.52
449.36	1269.74
449.57	1331.18
449.77	1302.51
449.98	1265.64
450.18	1214.45
450.39	1322.99
450.59	1279.98
450.79	1308.65
451.00	1288.17
451.20	1279.98
451.41	1216.49
451.61	1259.50
451.81	1236.97
452.02	1259.50
452.22	1263.60
452.43	1286.12
452.63	1322.99
