SpectraSuite Data File
++++++++++++++++++++++++++++++++++++
Date: Sun Apr 03 19:55:35 CEST 2016
User: root
Dark Spectrum Present: No
Reference Spectrum Present: No
Number of Sampled Component Spectra: 1
Spectrometers: USB4C02835
Integration Time (usec): 10000 (USB4C02835)
Spectra Averaged: 1 (USB4C02835)
Boxcar Smoothing: 0 (USB4C02835)
Correct for Electrical Dark: No (USB4C02835)
Strobe/Lamp Enabled: No (USB4C02835)
Correct for Detector Non-linearity: No (USB4C02835)
Correct for Stray Light: No (USB4C02835)
Number of Pixels in Processed Spectrum: 3648
>>>>>Begin Processed Spectral Data<<<<<
177.47	1300.46
177.69	1300.46
177.91	1300.46
178.13	1239.02
178.36	1241.07
178.58	1282.03
178.80	1230.83
179.02	1251.31
179.24	1279.98
179.46	1273.84
179.68	1257.45
179.90	1239.02
180.13	1224.69
180.35	1253.36
180.57	1263.60
180.79	1271.79
181.01	1273.84
181.23	1212.40
181.45	1286.12
181.67	1204.21
181.90	1243.12
182.12	1249.26
182.34	1318.89
182.56	1282.03
182.78	1318.89
183.00	1335.28
183.22	1296.36
183.44	1243.12
183.66	1232.88
183.89	1298.41
184.11	1292.27
184.33	1202.16
184.55	1351.66
184.77	1306.60
184.99	1245.16
185.21	1210.35
185.43	1275.88
185.65	1269.74
185.87	1304.56
186.10	1318.89
186.32	1275.88
186.54	1271.79
186.76	1218.54
186.98	1241.07
187.20	1232.88
187.42	1224.69
187.64	1271.79
187.86	1284.08
188.08	1212.40
188.30	1269.74
188.52	1273.84
188.75	1329.13
188.97	1253.36
189.19	1261.55
189.41	1245.16
189.63	1243.12
189.85	1273.84
190.07	1208.30
190.29	1292.27
190.51	1294.32
190.73	1255.40
190.95	1316.84
191.17	1228.78
191.39	1251.31
191.61	1279.98
191.84	1263.60
192.06	1333.23
192.28	1273.84
192.50	1249.26
192.72	1226.73
192.94	1320.94
193.16	1241.07
193.38	1284.08
193.60	1290.22
193.82	1320.94
194.04	1255.40
194.26	1302.51
194.48	1322.99
194.70	1222.64
194.92	1150.96
195.14	1226.73
195.36	1222.64
195.58	1232.88
195.80	1279.98
196.02	1259.50
196.24	1239.02
196.46	1183.73
196.69	1275.88
196.91	1251.31
197.13	1310.70
197.35	1286.12
197.57	1347.56
197.79	1265.64
198.01	1314.80
198.23	1232.88
198.45	1210.35
198.67	1224.69
198.89	1273.84
199.11	1282.03
199.33	1251.31
199.55	1320.94
199.77	1257.45
199.99	1292.27
200.21	1277.93
200.43	1228.78
200.65	1329.13
200.87	1245.16
201.09	1327.08
201.31	1318.89
201.53	1271.79
201.75	1296.36
201.97	1263.60
202.19	1325.04
202.41	1290.22
202.63	1249.26
202.85	1290.22
203.07	1296.36
203.29	1189.87
203.51	1218.54
203.73	1300.46
203.95	1333.23
204.17	1322.99
204.39	1216.49
204.61	1259.50
204.83	1322.99
205.05	1265.64
205.27	1269.74
205.49	1312.75
205.71	1279.98
205.93	1282.03
206.15	1253.36
206.37	1234.93
206.59	1292.27
206.81	1329.13
207.03	1286.12
207.25	1296.36
207.47	1325.04
207.69	1267.69
207.91	1310.70
208.13	1271.79
208.34	1267.69
208.56	1255.40
208.78	1312.75
209.00	1286.12
209.22	1318.89
209.44	1263.60
209.66	1249.26
209.88	1282.03
210.10	1243.12
210.32	1243.12
210.54	1333.23
210.76	1208.30
210.98	1325.04
211.20	1271.79
211.42	1306.60
211.64	1345.52
211.86	1294.32
212.08	1275.88
212.30	1304.56
212.52	1288.17
212.74	1318.89
212.96	1196.01
213.17	1269.74
213.39	1286.12
213.61	1265.64
213.83	1282.03
214.05	1253.36
214.27	1245.16
214.49	1247.21
214.71	1284.08
214.93	1271.79
215.15	1267.69
215.37	1263.60
215.59	1277.93
215.81	1286.12
216.03	1314.80
216.24	1392.62
216.46	1271.79
216.68	1292.27
216.90	1239.02
217.12	1333.23
217.34	1220.59
217.56	1347.56
217.78	1277.93
218.00	1236.97
218.22	1220.59
218.44	1222.64
218.66	1236.97
218.87	1286.12
219.09	1292.27
219.31	1292.27
219.53	1263.60
219.75	1378.28
219.97	1228.78
220.19	1265.64
220.41	1275.88
220.63	1314.80
220.85	1263.60
221.06	1179.63
221.28	1234.93
221.50	1267.69
221.72	1228.78
221.94	1265.64
222.16	1251.31
222.38	1271.79
222.60	1286.12
222.82	1210.35
223.03	1236.97
223.25	1257.45
223.47	1257.45
223.69	1275.88
223.91	1269.74
224.13	1304.56
224.35	1306.60
224.57	1380.33
224.78	1245.16
225.00	1279.98
225.22	1241.07
225.44	1230.83
225.66	1290.22
225.88	1269.74
226.10	1267.69
226.32	1290.22
226.53	1202.16
226.75	1175.53
226.97	1253.36
227.19	1269.74
227.41	1282.03
227.63	1308.65
227.85	1228.78
228.06	1257.45
228.28	1267.69
228.50	1314.80
228.72	1267.69
228.94	1220.59
229.16	1224.69
229.37	1249.26
229.59	1255.40
229.81	1259.50
230.03	1269.74
230.25	1253.36
230.47	1269.74
230.69	1241.07
230.90	1312.75
231.12	1269.74
231.34	1257.45
231.56	1284.08
231.78	1263.60
232.00	1279.98
232.21	1220.59
232.43	1267.69
232.65	1232.88
232.87	1216.49
233.09	1247.21
233.30	1282.03
233.52	1345.52
233.74	1261.55
233.96	1300.46
234.18	1282.03
234.40	1292.27
234.61	1300.46
234.83	1267.69
235.05	1308.65
235.27	1171.44
235.49	1308.65
235.70	1308.65
235.92	1288.17
236.14	1290.22
236.36	1273.84
236.58	1239.02
236.79	1300.46
237.01	1302.51
237.23	1279.98
237.45	1296.36
237.67	1265.64
237.88	1271.79
238.10	1298.41
238.32	1261.55
238.54	1304.56
238.76	1275.88
238.97	1138.67
239.19	1200.11
239.41	1273.84
239.63	1286.12
239.85	1226.73
240.06	1353.71
240.28	1249.26
240.50	1284.08
240.72	1245.16
240.93	1267.69
241.15	1292.27
241.37	1220.59
241.59	1232.88
241.81	1286.12
242.02	1286.12
242.24	1325.04
242.46	1253.36
242.68	1241.07
242.89	1249.26
243.11	1275.88
243.33	1290.22
243.55	1247.21
243.76	1284.08
243.98	1288.17
244.20	1239.02
244.42	1257.45
244.64	1294.32
244.85	1335.28
245.07	1234.93
245.29	1298.41
245.51	1308.65
245.72	1245.16
245.94	1214.45
246.16	1259.50
246.38	1306.60
246.59	1302.51
246.81	1329.13
247.03	1253.36
247.24	1290.22
247.46	1273.84
247.68	1335.28
247.90	1196.01
248.11	1310.70
248.33	1196.01
248.55	1320.94
248.77	1214.45
248.98	1241.07
249.20	1257.45
249.42	1282.03
249.64	1275.88
249.85	1220.59
250.07	1245.16
250.29	1204.21
250.50	1273.84
250.72	1255.40
250.94	1249.26
251.16	1355.76
251.37	1322.99
251.59	1306.60
251.81	1210.35
252.02	1265.64
252.24	1239.02
252.46	1236.97
252.68	1236.97
252.89	1177.58
253.11	1267.69
253.33	1263.60
253.54	1294.32
253.76	1226.73
253.98	1267.69
254.20	1247.21
254.41	1290.22
254.63	1298.41
254.85	1292.27
255.06	1226.73
255.28	1236.97
255.50	1222.64
255.71	1271.79
255.93	1277.93
256.15	1249.26
256.36	1230.83
256.58	1247.21
256.80	1304.56
257.02	1282.03
257.23	1255.40
257.45	1290.22
257.67	1304.56
257.88	1249.26
258.10	1279.98
258.32	1185.77
258.53	1232.88
258.75	1241.07
258.97	1230.83
259.18	1300.46
259.40	1277.93
259.62	1273.84
259.83	1181.68
260.05	1282.03
260.27	1310.70
260.48	1251.31
260.70	1247.21
260.92	1251.31
261.13	1275.88
261.35	1259.50
261.57	1327.08
261.78	1204.21
262.00	1290.22
262.22	1277.93
262.43	1228.78
262.65	1230.83
262.86	1265.64
263.08	1269.74
263.30	1230.83
263.51	1273.84
263.73	1210.35
263.95	1310.70
264.16	1245.16
264.38	1241.07
264.60	1234.93
264.81	1243.12
265.03	1224.69
265.25	1241.07
265.46	1327.08
265.68	1273.84
265.89	1290.22
266.11	1325.04
266.33	1279.98
266.54	1288.17
266.76	1230.83
266.98	1279.98
267.19	1277.93
267.41	1282.03
267.62	1253.36
267.84	1288.17
268.06	1310.70
268.27	1200.11
268.49	1380.33
268.70	1247.21
268.92	1294.32
269.14	1296.36
269.35	1322.99
269.57	1306.60
269.79	1304.56
270.00	1269.74
270.22	1325.04
270.43	1277.93
270.65	1275.88
270.87	1224.69
271.08	1259.50
271.30	1251.31
271.51	1212.40
271.73	1292.27
271.95	1245.16
272.16	1273.84
272.38	1214.45
272.59	1388.52
272.81	1208.30
273.02	1224.69
273.24	1222.64
273.46	1337.32
273.67	1288.17
273.89	1249.26
274.10	1253.36
274.32	1320.94
274.54	1271.79
274.75	1273.84
274.97	1247.21
275.18	1255.40
275.40	1290.22
275.61	1325.04
275.83	1282.03
276.05	1277.93
276.26	1320.94
276.48	1284.08
276.69	1277.93
276.91	1239.02
277.12	1314.80
277.34	1265.64
277.55	1214.45
277.77	1208.30
277.99	1304.56
278.20	1294.32
278.42	1236.97
278.63	1257.45
278.85	1290.22
279.06	1261.55
279.28	1220.59
279.49	1339.37
279.71	1265.64
279.93	1263.60
280.14	1279.98
280.36	1290.22
280.57	1263.60
280.79	1282.03
281.00	1337.32
281.22	1232.88
281.43	1284.08
281.65	1241.07
281.86	1220.59
282.08	1296.36
282.29	1239.02
282.51	1243.12
282.73	1249.26
282.94	1230.83
283.16	1196.01
283.37	1255.40
283.59	1271.79
283.80	1273.84
284.02	1257.45
284.23	1222.64
284.45	1234.93
284.66	1243.12
284.88	1282.03
285.09	1218.54
285.31	1290.22
285.52	1314.80
285.74	1261.55
285.95	1245.16
286.17	1263.60
286.38	1253.36
286.60	1253.36
286.81	1245.16
287.03	1265.64
287.24	1253.36
287.46	1269.74
287.67	1222.64
287.89	1257.45
288.10	1247.21
288.32	1298.41
288.53	1298.41
288.75	1327.08
288.96	1325.04
289.18	1282.03
289.39	1308.65
289.61	1224.69
289.82	1261.55
290.04	1304.56
290.25	1265.64
290.47	1263.60
290.68	1224.69
290.90	1347.56
291.11	1304.56
291.33	1253.36
291.54	1214.45
291.76	1269.74
291.97	1249.26
292.18	1275.88
292.40	1228.78
292.61	1339.37
292.83	1232.88
293.04	1255.40
293.26	1306.60
293.47	1282.03
293.69	1296.36
293.90	1343.47
294.12	1316.84
294.33	1243.12
294.55	1288.17
294.76	1249.26
294.97	1325.04
295.19	1245.16
295.40	1271.79
295.62	1312.75
295.83	1275.88
296.05	1292.27
296.26	1226.73
296.48	1271.79
296.69	1343.47
296.90	1271.79
297.12	1290.22
297.33	1314.80
297.55	1259.50
297.76	1249.26
297.98	1185.77
298.19	1249.26
298.41	1331.18
298.62	1267.69
298.83	1247.21
299.05	1335.28
299.26	1161.20
299.48	1163.25
299.69	1277.93
299.90	1222.64
300.12	1277.93
300.33	1292.27
300.55	1261.55
300.76	1316.84
300.98	1236.97
301.19	1255.40
301.40	1204.21
301.62	1251.31
301.83	1259.50
302.05	1239.02
302.26	1282.03
302.47	1290.22
302.69	1306.60
302.90	1288.17
303.12	1259.50
303.33	1224.69
303.54	1296.36
303.76	1277.93
303.97	1296.36
304.19	1304.56
304.40	1308.65
304.61	1279.98
304.83	1357.80
305.04	1177.58
305.26	1212.40
305.47	1384.43
305.68	1282.03
305.90	1251.31
306.11	1257.45
306.33	1271.79
306.54	1224.69
306.75	1343.47
306.97	1218.54
307.18	1239.02
307.39	1226.73
307.61	1212.40
307.82	1290.22
308.04	1277.93
308.25	1232.88
308.46	1316.84
308.68	1306.60
308.89	1269.74
309.10	1279.98
309.32	1230.83
309.53	1265.64
309.74	1228.78
309.96	1253.36
310.17	1306.60
310.39	1271.79
310.60	1271.79
310.81	1216.49
311.03	1200.11
311.24	1296.36
311.45	1298.41
311.67	1265.64
311.88	1284.08
312.09	1234.93
312.31	1261.55
312.52	1206.25
312.73	1193.97
312.95	1290.22
313.16	1249.26
313.37	1347.56
313.59	1232.88
313.80	1329.13
314.01	1206.25
314.23	1216.49
314.44	1273.84
314.65	1241.07
314.87	1290.22
315.08	1255.40
315.29	1294.32
315.51	1247.21
315.72	1267.69
315.93	1312.75
316.15	1284.08
316.36	1310.70
316.57	1200.11
316.79	1265.64
317.00	1212.40
317.21	1198.06
317.43	1339.37
317.64	1261.55
317.85	1271.79
318.07	1286.12
318.28	1267.69
318.49	1271.79
318.70	1255.40
318.92	1249.26
319.13	1144.81
319.34	1196.01
319.56	1228.78
319.77	1320.94
319.98	1331.18
320.20	1277.93
320.41	1245.16
320.62	1271.79
320.83	1218.54
321.05	1243.12
321.26	1232.88
321.47	1300.46
321.69	1304.56
321.90	1263.60
322.11	1224.69
322.32	1224.69
322.54	1239.02
322.75	1310.70
322.96	1198.06
323.18	1241.07
323.39	1279.98
323.60	1236.97
323.81	1230.83
324.03	1282.03
324.24	1269.74
324.45	1284.08
324.66	1226.73
324.88	1308.65
325.09	1224.69
325.30	1232.88
325.52	1282.03
325.73	1259.50
325.94	1269.74
326.15	1241.07
326.37	1351.66
326.58	1273.84
326.79	1255.40
327.00	1314.80
327.22	1302.51
327.43	1269.74
327.64	1253.36
327.85	1236.97
328.07	1255.40
328.28	1241.07
328.49	1267.69
328.70	1189.87
328.92	1243.12
329.13	1185.77
329.34	1314.80
329.55	1239.02
329.76	1368.04
329.98	1226.73
330.19	1263.60
330.40	1261.55
330.61	1320.94
330.83	1253.36
331.04	1236.97
331.25	1337.32
331.46	1257.45
331.68	1210.35
331.89	1286.12
332.10	1257.45
332.31	1189.87
332.52	1310.70
332.74	1353.71
332.95	1249.26
333.16	1296.36
333.37	1300.46
333.58	1292.27
333.80	1200.11
334.01	1380.33
334.22	1296.36
334.43	1273.84
334.64	1271.79
334.86	1222.64
335.07	1191.92
335.28	1261.55
335.49	1300.46
335.70	1279.98
335.92	1216.49
336.13	1304.56
336.34	1337.32
336.55	1302.51
336.76	1347.56
336.98	1282.03
337.19	1282.03
337.40	1265.64
337.61	1304.56
337.82	1359.85
338.04	1228.78
338.25	1308.65
338.46	1261.55
338.67	1294.32
338.88	1257.45
339.09	1267.69
339.31	1247.21
339.52	1243.12
339.73	1196.01
339.94	1257.45
340.15	1345.52
340.36	1259.50
340.58	1300.46
340.79	1265.64
341.00	1245.16
341.21	1282.03
341.42	1226.73
341.63	1284.08
341.85	1277.93
342.06	1282.03
342.27	1243.12
342.48	1261.55
342.69	1241.07
342.90	1306.60
343.12	1271.79
343.33	1249.26
343.54	1288.17
343.75	1249.26
343.96	1275.88
344.17	1236.97
344.38	1306.60
344.60	1282.03
344.81	1214.45
345.02	1318.89
345.23	1271.79
345.44	1265.64
345.65	1216.49
345.86	1263.60
346.07	1245.16
346.29	1279.98
346.50	1273.84
346.71	1304.56
346.92	1273.84
347.13	1294.32
347.34	1294.32
347.55	1214.45
347.76	1273.84
347.98	1308.65
348.19	1241.07
348.40	1312.75
348.61	1282.03
348.82	1261.55
349.03	1241.07
349.24	1343.47
349.45	1232.88
349.66	1298.41
349.88	1304.56
350.09	1269.74
350.30	1294.32
350.51	1300.46
350.72	1251.31
350.93	1222.64
351.14	1308.65
351.35	1325.04
351.56	1327.08
351.77	1210.35
351.99	1314.80
352.20	1220.59
352.41	1273.84
352.62	1279.98
352.83	1263.60
353.04	1253.36
353.25	1210.35
353.46	1314.80
353.67	1282.03
353.88	1263.60
354.09	1255.40
354.30	1304.56
354.52	1243.12
354.73	1212.40
354.94	1304.56
355.15	1298.41
355.36	1263.60
355.57	1267.69
355.78	1261.55
355.99	1331.18
356.20	1273.84
356.41	1216.49
356.62	1275.88
356.83	1306.60
357.04	1284.08
357.25	1232.88
357.46	1300.46
357.68	1200.11
357.89	1236.97
358.10	1247.21
358.31	1239.02
358.52	1222.64
358.73	1296.36
358.94	1241.07
359.15	1277.93
359.36	1226.73
359.57	1234.93
359.78	1247.21
359.99	1253.36
360.20	1216.49
360.41	1257.45
360.62	1216.49
360.83	1333.23
361.04	1286.12
361.25	1308.65
361.46	1261.55
361.67	1273.84
361.88	1261.55
362.09	1261.55
362.30	1202.16
362.51	1204.21
362.72	1214.45
362.93	1249.26
363.14	1294.32
363.35	1282.03
363.56	1261.55
363.78	1290.22
363.99	1271.79
364.20	1251.31
364.41	1228.78
364.62	1236.97
364.83	1259.50
365.04	1282.03
365.25	1259.50
365.46	1243.12
365.67	1282.03
365.88	1282.03
366.09	1267.69
366.30	1273.84
366.51	1257.45
366.72	1267.69
366.93	1298.41
367.14	1249.26
367.35	1253.36
367.56	1271.79
367.77	1275.88
367.98	1306.60
368.18	1259.50
368.39	1243.12
368.60	1318.89
368.81	1288.17
369.02	1247.21
369.23	1249.26
369.44	1331.18
369.65	1314.80
369.86	1284.08
370.07	1253.36
370.28	1255.40
370.49	1259.50
370.70	1273.84
370.91	1310.70
371.12	1230.83
371.33	1249.26
371.54	1214.45
371.75	1247.21
371.96	1243.12
372.17	1282.03
372.38	1380.33
372.59	1277.93
372.80	1277.93
373.01	1191.92
373.22	1320.94
373.43	1265.64
373.64	1253.36
373.85	1286.12
374.06	1288.17
374.26	1208.30
374.47	1263.60
374.68	1230.83
374.89	1351.66
375.10	1282.03
375.31	1243.12
375.52	1279.98
375.73	1236.97
375.94	1316.84
376.15	1220.59
376.36	1236.97
376.57	1306.60
376.78	1220.59
376.99	1236.97
377.20	1292.27
377.40	1282.03
377.61	1298.41
377.82	1249.26
378.03	1302.51
378.24	1210.35
378.45	1329.13
378.66	1288.17
378.87	1259.50
379.08	1251.31
379.29	1355.76
379.50	1216.49
379.71	1259.50
379.91	1279.98
380.12	1290.22
380.33	1269.74
380.54	1146.86
380.75	1218.54
380.96	1251.31
381.17	1267.69
381.38	1239.02
381.59	1337.32
381.80	1228.78
382.00	1173.49
382.21	1294.32
382.42	1277.93
382.63	1310.70
382.84	1249.26
383.05	1286.12
383.26	1230.83
383.47	1359.85
383.68	1241.07
383.88	1245.16
384.09	1259.50
384.30	1259.50
384.51	1249.26
384.72	1181.68
384.93	1255.40
385.14	1187.82
385.35	1249.26
385.55	1257.45
385.76	1306.60
385.97	1292.27
386.18	1259.50
386.39	1279.98
386.60	1208.30
386.81	1257.45
387.02	1245.16
387.22	1257.45
387.43	1263.60
387.64	1271.79
387.85	1275.88
388.06	1294.32
388.27	1273.84
388.48	1255.40
388.68	1347.56
388.89	1329.13
389.10	1243.12
389.31	1286.12
389.52	1273.84
389.73	1136.62
389.93	1284.08
390.14	1234.93
390.35	1331.18
390.56	1318.89
390.77	1200.11
390.98	1271.79
391.18	1241.07
391.39	1322.99
391.60	1243.12
391.81	1292.27
392.02	1236.97
392.23	1302.51
392.43	1251.31
392.64	1263.60
392.85	1273.84
393.06	1292.27
393.27	1308.65
393.47	1214.45
393.68	1181.68
393.89	1273.84
394.10	1210.35
394.31	1234.93
394.52	1361.90
394.72	1230.83
394.93	1341.42
395.14	1251.31
395.35	1218.54
395.56	1241.07
395.76	1257.45
395.97	1255.40
396.18	1314.80
396.39	1273.84
396.60	1261.55
396.80	1288.17
397.01	1257.45
397.22	1247.21
397.43	1202.16
397.64	1212.40
397.84	1222.64
398.05	1259.50
398.26	1255.40
398.47	1279.98
398.67	1277.93
398.88	1243.12
399.09	1329.13
399.30	1294.32
399.51	1261.55
399.71	1249.26
399.92	1300.46
400.13	1312.75
400.34	1277.93
400.54	1236.97
400.75	1325.04
400.96	1218.54
401.17	1302.51
401.37	1236.97
401.58	1325.04
401.79	1277.93
402.00	1230.83
402.21	1288.17
402.41	1271.79
402.62	1224.69
402.83	1335.28
403.04	1286.12
403.24	1222.64
403.45	1257.45
403.66	1216.49
403.87	1177.58
404.07	1282.03
404.28	1183.73
404.49	1302.51
404.70	1282.03
404.90	1245.16
405.11	1202.16
405.32	1322.99
405.52	1169.39
405.73	1226.73
405.94	1267.69
406.15	1243.12
406.35	1265.64
406.56	1261.55
406.77	1259.50
406.98	1232.88
407.18	1253.36
407.39	1302.51
407.60	1288.17
407.80	1288.17
408.01	1325.04
408.22	1277.93
408.43	1271.79
408.63	1271.79
408.84	1290.22
409.05	1271.79
409.25	1198.06
409.46	1327.08
409.67	1232.88
409.88	1282.03
410.08	1306.60
410.29	1302.51
410.50	1247.21
410.70	1329.13
410.91	1284.08
411.12	1232.88
411.32	1286.12
411.53	1273.84
411.74	1230.83
411.95	1200.11
412.15	1236.97
412.36	1310.70
412.57	1228.78
412.77	1339.37
412.98	1257.45
413.19	1228.78
413.39	1261.55
413.60	1222.64
413.81	1191.92
414.01	1261.55
414.22	1284.08
414.43	1214.45
414.63	1333.23
414.84	1263.60
415.05	1251.31
415.25	1271.79
415.46	1288.17
415.67	1288.17
415.87	1236.97
416.08	1322.99
416.29	1316.84
416.49	1267.69
416.70	1296.36
416.91	1263.60
417.11	1257.45
417.32	1279.98
417.53	1196.01
417.73	1288.17
417.94	1337.32
418.15	1222.64
418.35	1253.36
418.56	1228.78
418.77	1228.78
418.97	1298.41
419.18	1263.60
419.38	1298.41
419.59	1310.70
419.80	1294.32
420.00	1263.60
420.21	1282.03
420.42	1275.88
420.62	1251.31
420.83	1282.03
421.04	1249.26
421.24	1282.03
421.45	1241.07
421.65	1245.16
421.86	1269.74
422.07	1261.55
422.27	1224.69
422.48	1206.25
422.69	1294.32
422.89	1290.22
423.10	1257.45
423.30	1269.74
423.51	1247.21
423.72	1236.97
423.92	1308.65
424.13	1257.45
424.33	1312.75
424.54	1261.55
424.75	1314.80
424.95	1249.26
425.16	1279.98
425.36	1257.45
425.57	1290.22
425.78	1296.36
425.98	1286.12
426.19	1269.74
426.39	1251.31
426.60	1230.83
426.81	1312.75
427.01	1279.98
427.22	1232.88
427.42	1247.21
427.63	1261.55
427.83	1333.23
428.04	1314.80
428.25	1267.69
428.45	1232.88
428.66	1243.12
428.86	1230.83
429.07	1198.06
429.28	1232.88
429.48	1224.69
429.69	1232.88
429.89	1331.18
430.10	1222.64
430.30	1284.08
430.51	1187.82
430.71	1290.22
430.92	1259.50
431.13	1269.74
431.33	1236.97
431.54	1333.23
431.74	1290.22
431.95	1226.73
432.15	1210.35
432.36	1279.98
432.56	1292.27
432.77	1304.56
432.98	1318.89
433.18	1320.94
433.39	1345.52
433.59	1210.35
433.80	1234.93
434.00	1265.64
434.21	1241.07
434.41	1165.29
434.62	1273.84
434.82	1282.03
435.03	1249.26
435.23	1261.55
435.44	1253.36
435.64	1232.88
435.85	1294.32
436.06	1220.59
436.26	1263.60
436.47	1279.98
436.67	1271.79
436.88	1294.32
437.08	1230.83
437.29	1296.36
437.49	1290.22
437.70	1234.93
437.90	1310.70
438.11	1322.99
438.31	1292.27
438.52	1304.56
438.72	1290.22
438.93	1239.02
439.13	1261.55
439.34	1259.50
439.54	1318.89
439.75	1316.84
439.95	1259.50
440.16	1261.55
440.36	1214.45
440.57	1253.36
440.77	1257.45
440.98	1247.21
441.18	1267.69
441.39	1294.32
441.59	1271.79
441.80	1251.31
442.00	1239.02
442.21	1255.40
442.41	1241.07
442.62	1236.97
442.82	1279.98
443.02	1277.93
443.23	1249.26
443.43	1314.80
443.64	1294.32
443.84	1316.84
444.05	1308.65
444.25	1269.74
444.46	1282.03
444.66	1222.64
444.87	1208.30
445.07	1212.40
445.28	1275.88
445.48	1218.54
445.69	1247.21
445.89	1220.59
446.09	1271.79
446.30	1214.45
446.50	1318.89
446.71	1265.64
446.91	1206.25
447.12	1251.31
447.32	1316.84
447.53	1279.98
447.73	1310.70
447.93	1282.03
448.14	1267.69
448.34	1239.02
448.55	1253.36
448.75	1228.78
448.96	1224.69
449.16	1279.98
449.36	1265.64
449.57	1226.73
449.77	1253.36
449.98	1298.41
450.18	1296.36
450.39	1263.60
450.59	1224.69
450.79	1265.64
451.00	1320.94
451.20	1300.46
451.41	1236.97
451.61	1288.17
451.81	1331.18
452.02	1306.60
452.22	1304.56
452.43	1273.84
452.63	1261.55
