SpectraSuite Data File
++++++++++++++++++++++++++++++++++++
Date: Sun Apr 03 19:55:18 CEST 2016
User: root
Dark Spectrum Present: No
Reference Spectrum Present: No
Number of Sampled Component Spectra: 1
Spectrometers: USB4C02835
Integration Time (usec): 10000 (USB4C02835)
Spectra Averaged: 1 (USB4C02835)
Boxcar Smoothing: 0 (USB4C02835)
Correct for Electrical Dark: No (USB4C02835)
Strobe/Lamp Enabled: No (USB4C02835)
Correct for Detector Non-linearity: No (USB4C02835)
Correct for Stray Light: No (USB4C02835)
Number of Pixels in Processed Spectrum: 3648
>>>>>Begin Processed Spectral Data<<<<<
177.47	1216.49
177.69	1216.49
177.91	1216.49
178.13	1290.22
178.36	1234.93
178.58	1261.55
178.80	1210.35
179.02	1273.84
179.24	1234.93
179.46	1236.97
179.68	1306.60
179.90	1150.96
180.13	1277.93
180.35	1273.84
180.57	1216.49
180.79	1320.94
181.01	1210.35
181.23	1322.99
181.45	1275.88
181.67	1273.84
181.90	1228.78
182.12	1302.51
182.34	1234.93
182.56	1306.60
182.78	1310.70
183.00	1236.97
183.22	1263.60
183.44	1333.23
183.66	1273.84
183.89	1210.35
184.11	1273.84
184.33	1357.80
184.55	1263.60
184.77	1218.54
184.99	1343.47
185.21	1290.22
185.43	1294.32
185.65	1228.78
185.87	1230.83
186.10	1273.84
186.32	1351.66
186.54	1257.45
186.76	1320.94
186.98	1263.60
187.20	1251.31
187.42	1316.84
187.64	1290.22
187.86	1241.07
188.08	1245.16
188.30	1214.45
188.52	1243.12
188.75	1300.46
188.97	1269.74
189.19	1282.03
189.41	1275.88
189.63	1253.36
189.85	1273.84
190.07	1308.65
190.29	1314.80
190.51	1196.01
190.73	1212.40
190.95	1359.85
191.17	1202.16
191.39	1243.12
191.61	1222.64
191.84	1257.45
192.06	1255.40
192.28	1230.83
192.50	1314.80
192.72	1257.45
192.94	1302.51
193.16	1312.75
193.38	1249.26
193.60	1150.96
193.82	1300.46
194.04	1261.55
194.26	1310.70
194.48	1224.69
194.70	1343.47
194.92	1255.40
195.14	1220.59
195.36	1175.53
195.58	1282.03
195.80	1265.64
196.02	1300.46
196.24	1304.56
196.46	1265.64
196.69	1284.08
196.91	1243.12
197.13	1208.30
197.35	1351.66
197.57	1343.47
197.79	1331.18
198.01	1241.07
198.23	1210.35
198.45	1177.58
198.67	1298.41
198.89	1300.46
199.11	1243.12
199.33	1239.02
199.55	1263.60
199.77	1284.08
199.99	1230.83
200.21	1247.21
200.43	1214.45
200.65	1308.65
200.87	1308.65
201.09	1253.36
201.31	1241.07
201.53	1142.77
201.75	1257.45
201.97	1275.88
202.19	1255.40
202.41	1247.21
202.63	1253.36
202.85	1214.45
203.07	1300.46
203.29	1306.60
203.51	1206.25
203.73	1279.98
203.95	1220.59
204.17	1204.21
204.39	1216.49
204.61	1247.21
204.83	1261.55
205.05	1251.31
205.27	1329.13
205.49	1300.46
205.71	1322.99
205.93	1331.18
206.15	1368.04
206.37	1181.68
206.59	1253.36
206.81	1298.41
207.03	1284.08
207.25	1218.54
207.47	1193.97
207.69	1339.37
207.91	1259.50
208.13	1245.16
208.34	1279.98
208.56	1337.32
208.78	1300.46
209.00	1265.64
209.22	1206.25
209.44	1220.59
209.66	1329.13
209.88	1294.32
210.10	1277.93
210.32	1265.64
210.54	1327.08
210.76	1173.49
210.98	1236.97
211.20	1200.11
211.42	1228.78
211.64	1214.45
211.86	1306.60
212.08	1216.49
212.30	1308.65
212.52	1251.31
212.74	1241.07
212.96	1224.69
213.17	1267.69
213.39	1345.52
213.61	1314.80
213.83	1251.31
214.05	1206.25
214.27	1234.93
214.49	1253.36
214.71	1282.03
214.93	1212.40
215.15	1282.03
215.37	1284.08
215.59	1282.03
215.81	1243.12
216.03	1279.98
216.24	1218.54
216.46	1306.60
216.68	1290.22
216.90	1347.56
217.12	1286.12
217.34	1294.32
217.56	1245.16
217.78	1306.60
218.00	1191.92
218.22	1218.54
218.44	1261.55
218.66	1290.22
218.87	1273.84
219.09	1249.26
219.31	1273.84
219.53	1241.07
219.75	1257.45
219.97	1251.31
220.19	1224.69
220.41	1284.08
220.63	1308.65
220.85	1329.13
221.06	1343.47
221.28	1224.69
221.50	1286.12
221.72	1210.35
221.94	1271.79
222.16	1218.54
222.38	1312.75
222.60	1267.69
222.82	1234.93
223.03	1318.89
223.25	1208.30
223.47	1239.02
223.69	1263.60
223.91	1304.56
224.13	1357.80
224.35	1296.36
224.57	1320.94
224.78	1304.56
225.00	1239.02
225.22	1308.65
225.44	1318.89
225.66	1239.02
225.88	1333.23
226.10	1212.40
226.32	1273.84
226.53	1306.60
226.75	1261.55
226.97	1263.60
227.19	1314.80
227.41	1275.88
227.63	1265.64
227.85	1230.83
228.06	1273.84
228.28	1247.21
228.50	1292.27
228.72	1234.93
228.94	1263.60
229.16	1232.88
229.37	1259.50
229.59	1220.59
229.81	1239.02
230.03	1259.50
230.25	1259.50
230.47	1294.32
230.69	1349.61
230.90	1306.60
231.12	1249.26
231.34	1263.60
231.56	1304.56
231.78	1200.11
232.00	1265.64
232.21	1230.83
232.43	1271.79
232.65	1269.74
232.87	1327.08
233.09	1267.69
233.30	1218.54
233.52	1300.46
233.74	1312.75
233.96	1265.64
234.18	1327.08
234.40	1253.36
234.61	1306.60
234.83	1218.54
235.05	1253.36
235.27	1282.03
235.49	1269.74
235.70	1257.45
235.92	1353.71
236.14	1304.56
236.36	1210.35
236.58	1277.93
236.79	1265.64
237.01	1198.06
237.23	1239.02
237.45	1255.40
237.67	1216.49
237.88	1253.36
238.10	1322.99
238.32	1249.26
238.54	1216.49
238.76	1316.84
238.97	1288.17
239.19	1263.60
239.41	1249.26
239.63	1282.03
239.85	1279.98
240.06	1294.32
240.28	1236.97
240.50	1245.16
240.72	1296.36
240.93	1234.93
241.15	1279.98
241.37	1257.45
241.59	1255.40
241.81	1218.54
242.02	1275.88
242.24	1251.31
242.46	1273.84
242.68	1308.65
242.89	1234.93
243.11	1286.12
243.33	1241.07
243.55	1241.07
243.76	1263.60
243.98	1255.40
244.20	1210.35
244.42	1259.50
244.64	1261.55
244.85	1263.60
245.07	1222.64
245.29	1253.36
245.51	1249.26
245.72	1224.69
245.94	1306.60
246.16	1236.97
246.38	1288.17
246.59	1271.79
246.81	1290.22
247.03	1271.79
247.24	1312.75
247.46	1179.63
247.68	1257.45
247.90	1267.69
248.11	1314.80
248.33	1296.36
248.55	1300.46
248.77	1271.79
248.98	1279.98
249.20	1351.66
249.42	1302.51
249.64	1273.84
249.85	1208.30
250.07	1241.07
250.29	1259.50
250.50	1298.41
250.72	1335.28
250.94	1308.65
251.16	1304.56
251.37	1245.16
251.59	1308.65
251.81	1243.12
252.02	1312.75
252.24	1296.36
252.46	1288.17
252.68	1294.32
252.89	1282.03
253.11	1282.03
253.33	1208.30
253.54	1206.25
253.76	1314.80
253.98	1241.07
254.20	1269.74
254.41	1222.64
254.63	1265.64
254.85	1296.36
255.06	1210.35
255.28	1279.98
255.50	1232.88
255.71	1239.02
255.93	1310.70
256.15	1277.93
256.36	1279.98
256.58	1267.69
256.80	1230.83
257.02	1232.88
257.23	1249.26
257.45	1314.80
257.67	1273.84
257.88	1312.75
258.10	1361.90
258.32	1234.93
258.53	1224.69
258.75	1304.56
258.97	1259.50
259.18	1282.03
259.40	1288.17
259.62	1232.88
259.83	1230.83
260.05	1337.32
260.27	1300.46
260.48	1306.60
260.70	1265.64
260.92	1275.88
261.13	1208.30
261.35	1249.26
261.57	1302.51
261.78	1290.22
262.00	1253.36
262.22	1208.30
262.43	1271.79
262.65	1243.12
262.86	1282.03
263.08	1273.84
263.30	1224.69
263.51	1292.27
263.73	1279.98
263.95	1298.41
264.16	1275.88
264.38	1275.88
264.60	1214.45
264.81	1271.79
265.03	1316.84
265.25	1224.69
265.46	1353.71
265.68	1259.50
265.89	1318.89
266.11	1247.21
266.33	1216.49
266.54	1279.98
266.76	1236.97
266.98	1259.50
267.19	1331.18
267.41	1245.16
267.62	1282.03
267.84	1261.55
268.06	1277.93
268.27	1318.89
268.49	1257.45
268.70	1361.90
268.92	1263.60
269.14	1282.03
269.35	1206.25
269.57	1320.94
269.79	1290.22
270.00	1157.10
270.22	1290.22
270.43	1220.59
270.65	1265.64
270.87	1271.79
271.08	1243.12
271.30	1249.26
271.51	1271.79
271.73	1296.36
271.95	1290.22
272.16	1183.73
272.38	1247.21
272.59	1265.64
272.81	1273.84
273.02	1226.73
273.24	1249.26
273.46	1226.73
273.67	1318.89
273.89	1296.36
274.10	1310.70
274.32	1253.36
274.54	1267.69
274.75	1263.60
274.97	1290.22
275.18	1226.73
275.40	1271.79
275.61	1298.41
275.83	1308.65
276.05	1253.36
276.26	1232.88
276.48	1318.89
276.69	1263.60
276.91	1212.40
277.12	1230.83
277.34	1282.03
277.55	1282.03
277.77	1259.50
277.99	1255.40
278.20	1279.98
278.42	1241.07
278.63	1284.08
278.85	1265.64
279.06	1255.40
279.28	1249.26
279.49	1191.92
279.71	1288.17
279.93	1286.12
280.14	1261.55
280.36	1204.21
280.57	1263.60
280.79	1296.36
281.00	1298.41
281.22	1243.12
281.43	1290.22
281.65	1284.08
281.86	1230.83
282.08	1265.64
282.29	1239.02
282.51	1216.49
282.73	1286.12
282.94	1247.21
283.16	1312.75
283.37	1310.70
283.59	1314.80
283.80	1286.12
284.02	1277.93
284.23	1275.88
284.45	1294.32
284.66	1263.60
284.88	1255.40
285.09	1236.97
285.31	1245.16
285.52	1273.84
285.74	1216.49
285.95	1314.80
286.17	1263.60
286.38	1310.70
286.60	1230.83
286.81	1296.36
287.03	1308.65
287.24	1224.69
287.46	1230.83
287.67	1236.97
287.89	1304.56
288.10	1185.77
288.32	1265.64
288.53	1243.12
288.75	1222.64
288.96	1290.22
289.18	1187.82
289.39	1259.50
289.61	1294.32
289.82	1230.83
290.04	1277.93
290.25	1261.55
290.47	1288.17
290.68	1333.23
290.90	1282.03
291.11	1214.45
291.33	1265.64
291.54	1269.74
291.76	1269.74
291.97	1312.75
292.18	1243.12
292.40	1302.51
292.61	1241.07
292.83	1279.98
293.04	1198.06
293.26	1210.35
293.47	1226.73
293.69	1236.97
293.90	1300.46
294.12	1261.55
294.33	1263.60
294.55	1304.56
294.76	1275.88
294.97	1306.60
295.19	1277.93
295.40	1282.03
295.62	1253.36
295.83	1253.36
296.05	1275.88
296.26	1269.74
296.48	1361.90
296.69	1245.16
296.90	1304.56
297.12	1196.01
297.33	1302.51
297.55	1257.45
297.76	1257.45
297.98	1329.13
298.19	1230.83
298.41	1282.03
298.62	1263.60
298.83	1230.83
299.05	1224.69
299.26	1296.36
299.48	1239.02
299.69	1284.08
299.90	1292.27
300.12	1253.36
300.33	1273.84
300.55	1187.82
300.76	1275.88
300.98	1245.16
301.19	1304.56
301.40	1302.51
301.62	1259.50
301.83	1222.64
302.05	1310.70
302.26	1216.49
302.47	1253.36
302.69	1275.88
302.90	1257.45
303.12	1292.27
303.33	1341.42
303.54	1261.55
303.76	1226.73
303.97	1204.21
304.19	1290.22
304.40	1333.23
304.61	1234.93
304.83	1265.64
305.04	1304.56
305.26	1253.36
305.47	1269.74
305.68	1306.60
305.90	1288.17
306.11	1304.56
306.33	1265.64
306.54	1234.93
306.75	1255.40
306.97	1239.02
307.18	1349.61
307.39	1265.64
307.61	1279.98
307.82	1290.22
308.04	1263.60
308.25	1296.36
308.46	1218.54
308.68	1290.22
308.89	1257.45
309.10	1314.80
309.32	1255.40
309.53	1273.84
309.74	1230.83
309.96	1275.88
310.17	1239.02
310.39	1302.51
310.60	1318.89
310.81	1333.23
311.03	1318.89
311.24	1286.12
311.45	1230.83
311.67	1304.56
311.88	1259.50
312.09	1267.69
312.31	1253.36
312.52	1294.32
312.73	1198.06
312.95	1208.30
313.16	1187.82
313.37	1286.12
313.59	1312.75
313.80	1271.79
314.01	1288.17
314.23	1216.49
314.44	1302.51
314.65	1185.77
314.87	1296.36
315.08	1314.80
315.29	1294.32
315.51	1251.31
315.72	1325.04
315.93	1282.03
316.15	1310.70
316.36	1282.03
316.57	1288.17
316.79	1253.36
317.00	1245.16
317.21	1310.70
317.43	1239.02
317.64	1167.34
317.85	1310.70
318.07	1224.69
318.28	1255.40
318.49	1247.21
318.70	1220.59
318.92	1290.22
319.13	1181.68
319.34	1253.36
319.56	1300.46
319.77	1247.21
319.98	1249.26
320.20	1294.32
320.41	1185.77
320.62	1249.26
320.83	1214.45
321.05	1243.12
321.26	1312.75
321.47	1347.56
321.69	1255.40
321.90	1236.97
322.11	1312.75
322.32	1224.69
322.54	1312.75
322.75	1220.59
322.96	1275.88
323.18	1322.99
323.39	1277.93
323.60	1267.69
323.81	1316.84
324.03	1257.45
324.24	1214.45
324.45	1249.26
324.66	1290.22
324.88	1273.84
325.09	1243.12
325.30	1259.50
325.52	1200.11
325.73	1290.22
325.94	1275.88
326.15	1261.55
326.37	1265.64
326.58	1304.56
326.79	1341.42
327.00	1316.84
327.22	1286.12
327.43	1304.56
327.64	1247.21
327.85	1298.41
328.07	1286.12
328.28	1245.16
328.49	1202.16
328.70	1306.60
328.92	1290.22
329.13	1236.97
329.34	1241.07
329.55	1296.36
329.76	1245.16
329.98	1300.46
330.19	1333.23
330.40	1220.59
330.61	1236.97
330.83	1341.42
331.04	1265.64
331.25	1302.51
331.46	1286.12
331.68	1243.12
331.89	1267.69
332.10	1288.17
332.31	1249.26
332.52	1282.03
332.74	1255.40
332.95	1259.50
333.16	1357.80
333.37	1339.37
333.58	1228.78
333.80	1314.80
334.01	1259.50
334.22	1226.73
334.43	1279.98
334.64	1241.07
334.86	1255.40
335.07	1320.94
335.28	1222.64
335.49	1220.59
335.70	1320.94
335.92	1288.17
336.13	1239.02
336.34	1290.22
336.55	1273.84
336.76	1255.40
336.98	1261.55
337.19	1232.88
337.40	1322.99
337.61	1241.07
337.82	1275.88
338.04	1245.16
338.25	1261.55
338.46	1193.97
338.67	1263.60
338.88	1304.56
339.09	1220.59
339.31	1253.36
339.52	1239.02
339.73	1320.94
339.94	1337.32
340.15	1271.79
340.36	1273.84
340.58	1251.31
340.79	1277.93
341.00	1236.97
341.21	1284.08
341.42	1253.36
341.63	1265.64
341.85	1302.51
342.06	1261.55
342.27	1253.36
342.48	1255.40
342.69	1259.50
342.90	1308.65
343.12	1298.41
343.33	1249.26
343.54	1224.69
343.75	1230.83
343.96	1263.60
344.17	1341.42
344.38	1247.21
344.60	1296.36
344.81	1245.16
345.02	1216.49
345.23	1261.55
345.44	1298.41
345.65	1245.16
345.86	1265.64
346.07	1241.07
346.29	1316.84
346.50	1345.52
346.71	1218.54
346.92	1286.12
347.13	1226.73
347.34	1193.97
347.55	1243.12
347.76	1261.55
347.98	1292.27
348.19	1265.64
348.40	1320.94
348.61	1241.07
348.82	1312.75
349.03	1275.88
349.24	1239.02
349.45	1366.00
349.66	1261.55
349.88	1275.88
350.09	1251.31
350.30	1236.97
350.51	1275.88
350.72	1284.08
350.93	1329.13
351.14	1212.40
351.35	1271.79
351.56	1253.36
351.77	1288.17
351.99	1230.83
352.20	1251.31
352.41	1298.41
352.62	1286.12
352.83	1269.74
353.04	1331.18
353.25	1269.74
353.46	1308.65
353.67	1259.50
353.88	1296.36
354.09	1304.56
354.30	1212.40
354.52	1286.12
354.73	1325.04
354.94	1245.16
355.15	1265.64
355.36	1337.32
355.57	1286.12
355.78	1239.02
355.99	1273.84
356.20	1282.03
356.41	1232.88
356.62	1230.83
356.83	1232.88
357.04	1286.12
357.25	1263.60
357.46	1234.93
357.68	1277.93
357.89	1359.85
358.10	1339.37
358.31	1275.88
358.52	1230.83
358.73	1288.17
358.94	1269.74
359.15	1265.64
359.36	1265.64
359.57	1206.25
359.78	1263.60
359.99	1308.65
360.20	1251.31
360.41	1325.04
360.62	1296.36
360.83	1249.26
361.04	1279.98
361.25	1253.36
361.46	1296.36
361.67	1271.79
361.88	1269.74
362.09	1234.93
362.30	1249.26
362.51	1265.64
362.72	1259.50
362.93	1298.41
363.14	1232.88
363.35	1257.45
363.56	1284.08
363.78	1288.17
363.99	1279.98
364.20	1290.22
364.41	1251.31
364.62	1253.36
364.83	1267.69
365.04	1339.37
365.25	1273.84
365.46	1296.36
365.67	1341.42
365.88	1249.26
366.09	1288.17
366.30	1331.18
366.51	1300.46
366.72	1290.22
366.93	1257.45
367.14	1236.97
367.35	1347.56
367.56	1247.21
367.77	1230.83
367.98	1259.50
368.18	1257.45
368.39	1228.78
368.60	1290.22
368.81	1275.88
369.02	1273.84
369.23	1318.89
369.44	1253.36
369.65	1253.36
369.86	1279.98
370.07	1224.69
370.28	1368.04
370.49	1339.37
370.70	1245.16
370.91	1296.36
371.12	1267.69
371.33	1310.70
371.54	1269.74
371.75	1241.07
371.96	1269.74
372.17	1263.60
372.38	1212.40
372.59	1308.65
372.80	1251.31
373.01	1202.16
373.22	1296.36
373.43	1329.13
373.64	1292.27
373.85	1263.60
374.06	1230.83
374.26	1286.12
374.47	1204.21
374.68	1236.97
374.89	1288.17
375.10	1286.12
375.31	1263.60
375.52	1314.80
375.73	1210.35
375.94	1294.32
376.15	1296.36
376.36	1210.35
376.57	1230.83
376.78	1220.59
376.99	1296.36
377.20	1331.18
377.40	1288.17
377.61	1263.60
377.82	1257.45
378.03	1234.93
378.24	1300.46
378.45	1288.17
378.66	1206.25
378.87	1290.22
379.08	1314.80
379.29	1222.64
379.50	1288.17
379.71	1212.40
379.91	1292.27
380.12	1216.49
380.33	1279.98
380.54	1226.73
380.75	1232.88
380.96	1257.45
381.17	1341.42
381.38	1267.69
381.59	1298.41
381.80	1202.16
382.00	1241.07
382.21	1273.84
382.42	1355.76
382.63	1159.15
382.84	1214.45
383.05	1249.26
383.26	1265.64
383.47	1245.16
383.68	1279.98
383.88	1257.45
384.09	1310.70
384.30	1306.60
384.51	1294.32
384.72	1259.50
384.93	1245.16
385.14	1277.93
385.35	1273.84
385.55	1253.36
385.76	1331.18
385.97	1224.69
386.18	1267.69
386.39	1245.16
386.60	1230.83
386.81	1282.03
387.02	1265.64
387.22	1275.88
387.43	1351.66
387.64	1292.27
387.85	1302.51
388.06	1290.22
388.27	1230.83
388.48	1265.64
388.68	1331.18
388.89	1296.36
389.10	1302.51
389.31	1202.16
389.52	1239.02
389.73	1322.99
389.93	1249.26
390.14	1277.93
390.35	1316.84
390.56	1249.26
390.77	1222.64
390.98	1224.69
391.18	1216.49
391.39	1230.83
391.60	1298.41
391.81	1208.30
392.02	1185.77
392.23	1316.84
392.43	1302.51
392.64	1198.06
392.85	1282.03
393.06	1247.21
393.27	1241.07
393.47	1239.02
393.68	1228.78
393.89	1310.70
394.10	1257.45
394.31	1298.41
394.52	1347.56
394.72	1232.88
394.93	1236.97
395.14	1292.27
395.35	1230.83
395.56	1247.21
395.76	1263.60
395.97	1298.41
396.18	1239.02
396.39	1316.84
396.60	1314.80
396.80	1245.16
397.01	1275.88
397.22	1263.60
397.43	1271.79
397.64	1257.45
397.84	1284.08
398.05	1226.73
398.26	1249.26
398.47	1218.54
398.67	1294.32
398.88	1339.37
399.09	1249.26
399.30	1282.03
399.51	1206.25
399.71	1249.26
399.92	1306.60
400.13	1318.89
400.34	1290.22
400.54	1304.56
400.75	1259.50
400.96	1269.74
401.17	1183.73
401.37	1273.84
401.58	1271.79
401.79	1245.16
402.00	1234.93
402.21	1234.93
402.41	1343.47
402.62	1200.11
402.83	1224.69
403.04	1228.78
403.24	1286.12
403.45	1255.40
403.66	1198.06
403.87	1294.32
404.07	1288.17
404.28	1253.36
404.49	1228.78
404.70	1249.26
404.90	1253.36
405.11	1327.08
405.32	1263.60
405.52	1198.06
405.73	1257.45
405.94	1253.36
406.15	1200.11
406.35	1204.21
406.56	1282.03
406.77	1277.93
406.98	1257.45
407.18	1271.79
407.39	1282.03
407.60	1294.32
407.80	1302.51
408.01	1282.03
408.22	1214.45
408.43	1247.21
408.63	1304.56
408.84	1236.97
409.05	1277.93
409.25	1206.25
409.46	1259.50
409.67	1282.03
409.88	1183.73
410.08	1273.84
410.29	1312.75
410.50	1234.93
410.70	1224.69
410.91	1333.23
411.12	1259.50
411.32	1222.64
411.53	1290.22
411.74	1220.59
411.95	1286.12
412.15	1282.03
412.36	1263.60
412.57	1189.87
412.77	1273.84
412.98	1310.70
413.19	1298.41
413.39	1220.59
413.60	1263.60
413.81	1308.65
414.01	1251.31
414.22	1245.16
414.43	1255.40
414.63	1214.45
414.84	1212.40
415.05	1212.40
415.25	1263.60
415.46	1241.07
415.67	1271.79
415.87	1208.30
416.08	1304.56
416.29	1255.40
416.49	1279.98
416.70	1214.45
416.91	1245.16
417.11	1257.45
417.32	1279.98
417.53	1269.74
417.73	1302.51
417.94	1271.79
418.15	1290.22
418.35	1253.36
418.56	1224.69
418.77	1216.49
418.97	1284.08
419.18	1257.45
419.38	1277.93
419.59	1318.89
419.80	1241.07
420.00	1249.26
420.21	1273.84
420.42	1259.50
420.62	1304.56
420.83	1298.41
421.04	1331.18
421.24	1294.32
421.45	1298.41
421.65	1196.01
421.86	1232.88
422.07	1308.65
422.27	1294.32
422.48	1230.83
422.69	1236.97
422.89	1263.60
423.10	1265.64
423.30	1288.17
423.51	1239.02
423.72	1251.31
423.92	1271.79
424.13	1253.36
424.33	1292.27
424.54	1282.03
424.75	1322.99
424.95	1306.60
425.16	1290.22
425.36	1277.93
425.57	1341.42
425.78	1269.74
425.98	1263.60
426.19	1265.64
426.39	1277.93
426.60	1243.12
426.81	1306.60
427.01	1261.55
427.22	1214.45
427.42	1298.41
427.63	1304.56
427.83	1257.45
428.04	1220.59
428.25	1269.74
428.45	1279.98
428.66	1337.32
428.86	1245.16
429.07	1290.22
429.28	1298.41
429.48	1214.45
429.69	1271.79
429.89	1200.11
430.10	1236.97
430.30	1320.94
430.51	1329.13
430.71	1234.93
430.92	1302.51
431.13	1265.64
431.33	1265.64
431.54	1294.32
431.74	1306.60
431.95	1298.41
432.15	1263.60
432.36	1253.36
432.56	1241.07
432.77	1210.35
432.98	1292.27
433.18	1253.36
433.39	1288.17
433.59	1269.74
433.80	1247.21
434.00	1304.56
434.21	1236.97
434.41	1296.36
434.62	1198.06
434.82	1204.21
435.03	1232.88
435.23	1249.26
435.44	1273.84
435.64	1187.82
435.85	1189.87
436.06	1304.56
436.26	1222.64
436.47	1232.88
436.67	1296.36
436.88	1282.03
437.08	1220.59
437.29	1187.82
437.49	1290.22
437.70	1255.40
437.90	1292.27
438.11	1220.59
438.31	1265.64
438.52	1173.49
438.72	1302.51
438.93	1232.88
439.13	1230.83
439.34	1239.02
439.54	1249.26
439.75	1263.60
439.95	1263.60
440.16	1273.84
440.36	1261.55
440.57	1202.16
440.77	1279.98
440.98	1271.79
441.18	1271.79
441.39	1191.92
441.59	1226.73
441.80	1241.07
442.00	1394.67
442.21	1294.32
442.41	1331.18
442.62	1273.84
442.82	1239.02
443.02	1300.46
443.23	1239.02
443.43	1208.30
443.64	1370.09
443.84	1273.84
444.05	1314.80
444.25	1290.22
444.46	1296.36
444.66	1275.88
444.87	1269.74
445.07	1341.42
445.28	1273.84
445.48	1243.12
445.69	1273.84
445.89	1243.12
446.09	1208.30
446.30	1230.83
446.50	1245.16
446.71	1253.36
446.91	1247.21
447.12	1249.26
447.32	1310.70
447.53	1265.64
447.73	1286.12
447.93	1277.93
448.14	1314.80
448.34	1243.12
448.55	1228.78
448.75	1269.74
448.96	1320.94
449.16	1302.51
449.36	1296.36
449.57	1331.18
449.77	1222.64
449.98	1196.01
450.18	1277.93
450.39	1306.60
450.59	1239.02
450.79	1273.84
451.00	1294.32
451.20	1279.98
451.41	1411.05
451.61	1316.84
451.81	1187.82
452.02	1249.26
452.22	1290.22
452.43	1239.02
452.63	1255.40
