SpectraSuite Data File
++++++++++++++++++++++++++++++++++++
Date: Sun Apr 03 19:55:51 CEST 2016
User: root
Dark Spectrum Present: No
Reference Spectrum Present: No
Number of Sampled Component Spectra: 1
Spectrometers: USB4C02835
Integration Time (usec): 10000 (USB4C02835)
Spectra Averaged: 1 (USB4C02835)
Boxcar Smoothing: 0 (USB4C02835)
Correct for Electrical Dark: No (USB4C02835)
Strobe/Lamp Enabled: No (USB4C02835)
Correct for Detector Non-linearity: No (USB4C02835)
Correct for Stray Light: No (USB4C02835)
Number of Pixels in Processed Spectrum: 3648
>>>>>Begin Processed Spectral Data<<<<<
177.47	1171.44
177.69	1171.44
177.91	1171.44
178.13	1294.32
178.36	1212.40
178.58	1257.45
178.80	1265.64
179.02	1300.46
179.24	1298.41
179.46	1279.98
179.68	1275.88
179.90	1257.45
180.13	1239.02
180.35	1312.75
180.57	1251.31
180.79	1232.88
181.01	1290.22
181.23	1183.73
181.45	1273.84
181.67	1261.55
181.90	1236.97
182.12	1245.16
182.34	1302.51
182.56	1271.79
182.78	1179.63
183.00	1239.02
183.22	1273.84
183.44	1247.21
183.66	1294.32
183.89	1304.56
184.11	1298.41
184.33	1290.22
184.55	1239.02
184.77	1183.73
184.99	1243.12
185.21	1329.13
185.43	1290.22
185.65	1292.27
185.87	1234.93
186.10	1253.36
186.32	1300.46
186.54	1247.21
186.76	1308.65
186.98	1286.12
187.20	1257.45
187.42	1288.17
187.64	1284.08
187.86	1327.08
188.08	1288.17
188.30	1300.46
188.52	1243.12
188.75	1234.93
188.97	1271.79
189.19	1243.12
189.41	1279.98
189.63	1273.84
189.85	1298.41
190.07	1183.73
190.29	1275.88
190.51	1232.88
190.73	1345.52
190.95	1263.60
191.17	1282.03
191.39	1236.97
191.61	1343.47
191.84	1245.16
192.06	1329.13
192.28	1236.97
192.50	1165.29
192.72	1206.25
192.94	1259.50
193.16	1277.93
193.38	1241.07
193.60	1282.03
193.82	1273.84
194.04	1318.89
194.26	1316.84
194.48	1312.75
194.70	1247.21
194.92	1269.74
195.14	1230.83
195.36	1214.45
195.58	1255.40
195.80	1253.36
196.02	1290.22
196.24	1271.79
196.46	1222.64
196.69	1286.12
196.91	1329.13
197.13	1208.30
197.35	1286.12
197.57	1267.69
197.79	1241.07
198.01	1308.65
198.23	1320.94
198.45	1255.40
198.67	1273.84
198.89	1222.64
199.11	1359.85
199.33	1241.07
199.55	1298.41
199.77	1245.16
199.99	1279.98
200.21	1292.27
200.43	1279.98
200.65	1331.18
200.87	1302.51
201.09	1271.79
201.31	1243.12
201.53	1263.60
201.75	1306.60
201.97	1273.84
202.19	1288.17
202.41	1226.73
202.63	1218.54
202.85	1218.54
203.07	1251.31
203.29	1251.31
203.51	1259.50
203.73	1322.99
203.95	1277.93
204.17	1263.60
204.39	1236.97
204.61	1239.02
204.83	1316.84
205.05	1177.58
205.27	1296.36
205.49	1353.71
205.71	1222.64
205.93	1179.63
206.15	1263.60
206.37	1241.07
206.59	1308.65
206.81	1286.12
207.03	1269.74
207.25	1351.66
207.47	1232.88
207.69	1296.36
207.91	1282.03
208.13	1234.93
208.34	1304.56
208.56	1294.32
208.78	1273.84
209.00	1247.21
209.22	1275.88
209.44	1282.03
209.66	1224.69
209.88	1294.32
210.10	1279.98
210.32	1284.08
210.54	1325.04
210.76	1261.55
210.98	1331.18
211.20	1253.36
211.42	1286.12
211.64	1273.84
211.86	1308.65
212.08	1191.92
212.30	1275.88
212.52	1292.27
212.74	1255.40
212.96	1271.79
213.17	1279.98
213.39	1298.41
213.61	1339.37
213.83	1353.71
214.05	1275.88
214.27	1312.75
214.49	1263.60
214.71	1241.07
214.93	1275.88
215.15	1290.22
215.37	1263.60
215.59	1294.32
215.81	1257.45
216.03	1267.69
216.24	1277.93
216.46	1269.74
216.68	1286.12
216.90	1226.73
217.12	1224.69
217.34	1320.94
217.56	1341.42
217.78	1249.26
218.00	1298.41
218.22	1232.88
218.44	1249.26
218.66	1241.07
218.87	1318.89
219.09	1224.69
219.31	1251.31
219.53	1302.51
219.75	1284.08
219.97	1226.73
220.19	1396.71
220.41	1273.84
220.63	1296.36
220.85	1196.01
221.06	1200.11
221.28	1339.37
221.50	1226.73
221.72	1306.60
221.94	1282.03
222.16	1185.77
222.38	1284.08
222.60	1218.54
222.82	1314.80
223.03	1171.44
223.25	1208.30
223.47	1251.31
223.69	1239.02
223.91	1294.32
224.13	1265.64
224.35	1214.45
224.57	1298.41
224.78	1294.32
225.00	1247.21
225.22	1263.60
225.44	1279.98
225.66	1210.35
225.88	1232.88
226.10	1239.02
226.32	1226.73
226.53	1214.45
226.75	1277.93
226.97	1228.78
227.19	1271.79
227.41	1300.46
227.63	1279.98
227.85	1263.60
228.06	1232.88
228.28	1269.74
228.50	1249.26
228.72	1232.88
228.94	1247.21
229.16	1243.12
229.37	1230.83
229.59	1228.78
229.81	1279.98
230.03	1230.83
230.25	1210.35
230.47	1294.32
230.69	1212.40
230.90	1290.22
231.12	1249.26
231.34	1228.78
231.56	1273.84
231.78	1312.75
232.00	1245.16
232.21	1292.27
232.43	1253.36
232.65	1208.30
232.87	1239.02
233.09	1269.74
233.30	1261.55
233.52	1282.03
233.74	1265.64
233.96	1298.41
234.18	1288.17
234.40	1288.17
234.61	1290.22
234.83	1206.25
235.05	1257.45
235.27	1257.45
235.49	1296.36
235.70	1294.32
235.92	1343.47
236.14	1325.04
236.36	1257.45
236.58	1245.16
236.79	1265.64
237.01	1267.69
237.23	1271.79
237.45	1296.36
237.67	1265.64
237.88	1253.36
238.10	1308.65
238.32	1234.93
238.54	1282.03
238.76	1239.02
238.97	1271.79
239.19	1236.97
239.41	1343.47
239.63	1241.07
239.85	1224.69
240.06	1277.93
240.28	1222.64
240.50	1284.08
240.72	1310.70
240.93	1224.69
241.15	1245.16
241.37	1296.36
241.59	1255.40
241.81	1249.26
242.02	1292.27
242.24	1316.84
242.46	1275.88
242.68	1251.31
242.89	1292.27
243.11	1277.93
243.33	1320.94
243.55	1245.16
243.76	1228.78
243.98	1267.69
244.20	1333.23
244.42	1210.35
244.64	1255.40
244.85	1232.88
245.07	1249.26
245.29	1310.70
245.51	1294.32
245.72	1245.16
245.94	1261.55
246.16	1226.73
246.38	1337.32
246.59	1282.03
246.81	1253.36
247.03	1339.37
247.24	1263.60
247.46	1255.40
247.68	1239.02
247.90	1257.45
248.11	1265.64
248.33	1234.93
248.55	1273.84
248.77	1300.46
248.98	1335.28
249.20	1214.45
249.42	1279.98
249.64	1187.82
249.85	1320.94
250.07	1277.93
250.29	1236.97
250.50	1269.74
250.72	1345.52
250.94	1300.46
251.16	1269.74
251.37	1243.12
251.59	1288.17
251.81	1206.25
252.02	1273.84
252.24	1253.36
252.46	1277.93
252.68	1279.98
252.89	1286.12
253.11	1267.69
253.33	1198.06
253.54	1300.46
253.76	1243.12
253.98	1300.46
254.20	1200.11
254.41	1302.51
254.63	1271.79
254.85	1310.70
255.06	1282.03
255.28	1208.30
255.50	1239.02
255.71	1310.70
255.93	1329.13
256.15	1202.16
256.36	1298.41
256.58	1210.35
256.80	1282.03
257.02	1304.56
257.23	1288.17
257.45	1243.12
257.67	1300.46
257.88	1255.40
258.10	1302.51
258.32	1259.50
258.53	1302.51
258.75	1230.83
258.97	1255.40
259.18	1226.73
259.40	1298.41
259.62	1296.36
259.83	1298.41
260.05	1247.21
260.27	1218.54
260.48	1232.88
260.70	1177.58
260.92	1208.30
261.13	1263.60
261.35	1253.36
261.57	1298.41
261.78	1275.88
262.00	1243.12
262.22	1273.84
262.43	1263.60
262.65	1241.07
262.86	1310.70
263.08	1239.02
263.30	1191.92
263.51	1269.74
263.73	1290.22
263.95	1318.89
264.16	1255.40
264.38	1306.60
264.60	1241.07
264.81	1245.16
265.03	1310.70
265.25	1263.60
265.46	1327.08
265.68	1249.26
265.89	1185.77
266.11	1241.07
266.33	1320.94
266.54	1259.50
266.76	1296.36
266.98	1294.32
267.19	1284.08
267.41	1300.46
267.62	1249.26
267.84	1251.31
268.06	1316.84
268.27	1277.93
268.49	1273.84
268.70	1277.93
268.92	1239.02
269.14	1255.40
269.35	1214.45
269.57	1232.88
269.79	1290.22
270.00	1245.16
270.22	1275.88
270.43	1261.55
270.65	1265.64
270.87	1269.74
271.08	1318.89
271.30	1189.87
271.51	1271.79
271.73	1243.12
271.95	1306.60
272.16	1257.45
272.38	1228.78
272.59	1351.66
272.81	1310.70
273.02	1226.73
273.24	1327.08
273.46	1251.31
273.67	1183.73
273.89	1302.51
274.10	1292.27
274.32	1253.36
274.54	1253.36
274.75	1212.40
274.97	1314.80
275.18	1308.65
275.40	1183.73
275.61	1263.60
275.83	1279.98
276.05	1218.54
276.26	1202.16
276.48	1243.12
276.69	1290.22
276.91	1359.85
277.12	1310.70
277.34	1271.79
277.55	1298.41
277.77	1228.78
277.99	1275.88
278.20	1284.08
278.42	1251.31
278.63	1292.27
278.85	1279.98
279.06	1292.27
279.28	1224.69
279.49	1298.41
279.71	1239.02
279.93	1269.74
280.14	1236.97
280.36	1302.51
280.57	1216.49
280.79	1269.74
281.00	1292.27
281.22	1306.60
281.43	1286.12
281.65	1196.01
281.86	1273.84
282.08	1198.06
282.29	1271.79
282.51	1210.35
282.73	1222.64
282.94	1288.17
283.16	1232.88
283.37	1279.98
283.59	1267.69
283.80	1216.49
284.02	1296.36
284.23	1347.56
284.45	1167.34
284.66	1232.88
284.88	1257.45
285.09	1277.93
285.31	1275.88
285.52	1193.97
285.74	1241.07
285.95	1267.69
286.17	1251.31
286.38	1259.50
286.60	1228.78
286.81	1232.88
287.03	1255.40
287.24	1249.26
287.46	1302.51
287.67	1314.80
287.89	1267.69
288.10	1210.35
288.32	1353.71
288.53	1286.12
288.75	1284.08
288.96	1331.18
289.18	1253.36
289.39	1267.69
289.61	1255.40
289.82	1236.97
290.04	1288.17
290.25	1243.12
290.47	1296.36
290.68	1200.11
290.90	1228.78
291.11	1271.79
291.33	1243.12
291.54	1275.88
291.76	1271.79
291.97	1300.46
292.18	1277.93
292.40	1255.40
292.61	1286.12
292.83	1318.89
293.04	1210.35
293.26	1312.75
293.47	1296.36
293.69	1257.45
293.90	1349.61
294.12	1239.02
294.33	1304.56
294.55	1286.12
294.76	1257.45
294.97	1312.75
295.19	1353.71
295.40	1265.64
295.62	1327.08
295.83	1263.60
296.05	1257.45
296.26	1279.98
296.48	1261.55
296.69	1226.73
296.90	1224.69
297.12	1249.26
297.33	1267.69
297.55	1267.69
297.76	1239.02
297.98	1322.99
298.19	1216.49
298.41	1288.17
298.62	1243.12
298.83	1253.36
299.05	1355.76
299.26	1224.69
299.48	1288.17
299.69	1269.74
299.90	1290.22
300.12	1216.49
300.33	1265.64
300.55	1224.69
300.76	1325.04
300.98	1220.59
301.19	1181.68
301.40	1265.64
301.62	1302.51
301.83	1232.88
302.05	1263.60
302.26	1255.40
302.47	1232.88
302.69	1284.08
302.90	1228.78
303.12	1249.26
303.33	1300.46
303.54	1310.70
303.76	1216.49
303.97	1251.31
304.19	1302.51
304.40	1261.55
304.61	1253.36
304.83	1294.32
305.04	1282.03
305.26	1249.26
305.47	1247.21
305.68	1187.82
305.90	1353.71
306.11	1230.83
306.33	1294.32
306.54	1206.25
306.75	1222.64
306.97	1322.99
307.18	1265.64
307.39	1259.50
307.61	1236.97
307.82	1150.96
308.04	1349.61
308.25	1253.36
308.46	1290.22
308.68	1312.75
308.89	1279.98
309.10	1236.97
309.32	1310.70
309.53	1290.22
309.74	1298.41
309.96	1306.60
310.17	1265.64
310.39	1279.98
310.60	1288.17
310.81	1302.51
311.03	1230.83
311.24	1259.50
311.45	1245.16
311.67	1279.98
311.88	1239.02
312.09	1277.93
312.31	1306.60
312.52	1226.73
312.73	1247.21
312.95	1292.27
313.16	1347.56
313.37	1265.64
313.59	1298.41
313.80	1277.93
314.01	1296.36
314.23	1265.64
314.44	1265.64
314.65	1249.26
314.87	1226.73
315.08	1267.69
315.29	1245.16
315.51	1261.55
315.72	1257.45
315.93	1251.31
316.15	1404.91
316.36	1230.83
316.57	1220.59
316.79	1224.69
317.00	1232.88
317.21	1329.13
317.43	1345.52
317.64	1251.31
317.85	1167.34
318.07	1236.97
318.28	1310.70
318.49	1257.45
318.70	1396.71
318.92	1284.08
319.13	1306.60
319.34	1232.88
319.56	1292.27
319.77	1286.12
319.98	1288.17
320.20	1273.84
320.41	1241.07
320.62	1335.28
320.83	1206.25
321.05	1288.17
321.26	1273.84
321.47	1204.21
321.69	1331.18
321.90	1224.69
322.11	1310.70
322.32	1263.60
322.54	1236.97
322.75	1306.60
322.96	1251.31
323.18	1247.21
323.39	1265.64
323.60	1228.78
323.81	1259.50
324.03	1300.46
324.24	1304.56
324.45	1241.07
324.66	1298.41
324.88	1304.56
325.09	1302.51
325.30	1236.97
325.52	1251.31
325.73	1224.69
325.94	1337.32
326.15	1257.45
326.37	1226.73
326.58	1257.45
326.79	1236.97
327.00	1286.12
327.22	1302.51
327.43	1290.22
327.64	1239.02
327.85	1259.50
328.07	1327.08
328.28	1257.45
328.49	1159.15
328.70	1294.32
328.92	1279.98
329.13	1314.80
329.34	1175.53
329.55	1286.12
329.76	1212.40
329.98	1263.60
330.19	1214.45
330.40	1179.63
330.61	1263.60
330.83	1273.84
331.04	1220.59
331.25	1230.83
331.46	1265.64
331.68	1251.31
331.89	1286.12
332.10	1224.69
332.31	1312.75
332.52	1363.95
332.74	1241.07
332.95	1279.98
333.16	1302.51
333.37	1153.01
333.58	1220.59
333.80	1177.58
334.01	1265.64
334.22	1265.64
334.43	1257.45
334.64	1322.99
334.86	1265.64
335.07	1236.97
335.28	1228.78
335.49	1257.45
335.70	1191.92
335.92	1267.69
336.13	1310.70
336.34	1282.03
336.55	1236.97
336.76	1298.41
336.98	1304.56
337.19	1284.08
337.40	1320.94
337.61	1277.93
337.82	1310.70
338.04	1220.59
338.25	1282.03
338.46	1224.69
338.67	1220.59
338.88	1284.08
339.09	1308.65
339.31	1269.74
339.52	1312.75
339.73	1277.93
339.94	1224.69
340.15	1357.80
340.36	1302.51
340.58	1302.51
340.79	1247.21
341.00	1210.35
341.21	1327.08
341.42	1302.51
341.63	1208.30
341.85	1286.12
342.06	1302.51
342.27	1255.40
342.48	1304.56
342.69	1282.03
342.90	1202.16
343.12	1337.32
343.33	1312.75
343.54	1261.55
343.75	1222.64
343.96	1224.69
344.17	1271.79
344.38	1296.36
344.60	1318.89
344.81	1279.98
345.02	1220.59
345.23	1271.79
345.44	1279.98
345.65	1310.70
345.86	1271.79
346.07	1271.79
346.29	1277.93
346.50	1312.75
346.71	1331.18
346.92	1243.12
347.13	1310.70
347.34	1224.69
347.55	1265.64
347.76	1251.31
347.98	1286.12
348.19	1224.69
348.40	1265.64
348.61	1204.21
348.82	1222.64
349.03	1249.26
349.24	1329.13
349.45	1279.98
349.66	1282.03
349.88	1257.45
350.09	1288.17
350.30	1300.46
350.51	1290.22
350.72	1318.89
350.93	1210.35
351.14	1269.74
351.35	1304.56
351.56	1245.16
351.77	1275.88
351.99	1288.17
352.20	1214.45
352.41	1302.51
352.62	1286.12
352.83	1300.46
353.04	1296.36
353.25	1253.36
353.46	1325.04
353.67	1288.17
353.88	1298.41
354.09	1267.69
354.30	1259.50
354.52	1359.85
354.73	1286.12
354.94	1241.07
355.15	1271.79
355.36	1288.17
355.57	1279.98
355.78	1286.12
355.99	1253.36
356.20	1275.88
356.41	1273.84
356.62	1228.78
356.83	1243.12
357.04	1179.63
357.25	1312.75
357.46	1277.93
357.68	1269.74
357.89	1187.82
358.10	1277.93
358.31	1257.45
358.52	1325.04
358.73	1292.27
358.94	1255.40
359.15	1255.40
359.36	1245.16
359.57	1300.46
359.78	1249.26
359.99	1296.36
360.20	1230.83
360.41	1220.59
360.62	1290.22
360.83	1273.84
361.04	1210.35
361.25	1302.51
361.46	1339.37
361.67	1247.21
361.88	1308.65
362.09	1267.69
362.30	1353.71
362.51	1236.97
362.72	1222.64
362.93	1277.93
363.14	1263.60
363.35	1232.88
363.56	1269.74
363.78	1298.41
363.99	1228.78
364.20	1263.60
364.41	1230.83
364.62	1243.12
364.83	1271.79
365.04	1310.70
365.25	1292.27
365.46	1265.64
365.67	1273.84
365.88	1255.40
366.09	1286.12
366.30	1261.55
366.51	1306.60
366.72	1216.49
366.93	1304.56
367.14	1236.97
367.35	1220.59
367.56	1275.88
367.77	1329.13
367.98	1241.07
368.18	1257.45
368.39	1288.17
368.60	1208.30
368.81	1232.88
369.02	1249.26
369.23	1288.17
369.44	1267.69
369.65	1232.88
369.86	1241.07
370.07	1318.89
370.28	1306.60
370.49	1249.26
370.70	1251.31
370.91	1155.05
371.12	1310.70
371.33	1282.03
371.54	1265.64
371.75	1263.60
371.96	1210.35
372.17	1193.97
372.38	1255.40
372.59	1269.74
372.80	1239.02
373.01	1277.93
373.22	1302.51
373.43	1259.50
373.64	1304.56
373.85	1310.70
374.06	1327.08
374.26	1222.64
374.47	1216.49
374.68	1333.23
374.89	1259.50
375.10	1269.74
375.31	1251.31
375.52	1273.84
375.73	1239.02
375.94	1193.97
376.15	1290.22
376.36	1263.60
376.57	1259.50
376.78	1279.98
376.99	1265.64
377.20	1312.75
377.40	1241.07
377.61	1279.98
377.82	1273.84
378.03	1322.99
378.24	1257.45
378.45	1267.69
378.66	1290.22
378.87	1259.50
379.08	1277.93
379.29	1220.59
379.50	1288.17
379.71	1269.74
379.91	1245.16
380.12	1277.93
380.33	1273.84
380.54	1277.93
380.75	1331.18
380.96	1261.55
381.17	1232.88
381.38	1243.12
381.59	1275.88
381.80	1228.78
382.00	1247.21
382.21	1288.17
382.42	1304.56
382.63	1271.79
382.84	1259.50
383.05	1265.64
383.26	1308.65
383.47	1214.45
383.68	1327.08
383.88	1243.12
384.09	1212.40
384.30	1232.88
384.51	1200.11
384.72	1204.21
384.93	1335.28
385.14	1230.83
385.35	1337.32
385.55	1228.78
385.76	1253.36
385.97	1251.31
386.18	1259.50
386.39	1327.08
386.60	1269.74
386.81	1239.02
387.02	1314.80
387.22	1294.32
387.43	1318.89
387.64	1243.12
387.85	1290.22
388.06	1230.83
388.27	1265.64
388.48	1267.69
388.68	1261.55
388.89	1284.08
389.10	1165.29
389.31	1320.94
389.52	1314.80
389.73	1255.40
389.93	1239.02
390.14	1300.46
390.35	1251.31
390.56	1300.46
390.77	1226.73
390.98	1286.12
391.18	1216.49
391.39	1267.69
391.60	1271.79
391.81	1279.98
392.02	1234.93
392.23	1290.22
392.43	1243.12
392.64	1265.64
392.85	1241.07
393.06	1218.54
393.27	1376.24
393.47	1282.03
393.68	1298.41
393.89	1232.88
394.10	1284.08
394.31	1300.46
394.52	1247.21
394.72	1279.98
394.93	1298.41
395.14	1333.23
395.35	1216.49
395.56	1292.27
395.76	1316.84
395.97	1239.02
396.18	1257.45
396.39	1239.02
396.60	1251.31
396.80	1230.83
397.01	1261.55
397.22	1222.64
397.43	1261.55
397.64	1234.93
397.84	1314.80
398.05	1282.03
398.26	1255.40
398.47	1247.21
398.67	1296.36
398.88	1257.45
399.09	1191.92
399.30	1236.97
399.51	1343.47
399.71	1255.40
399.92	1253.36
400.13	1304.56
400.34	1314.80
400.54	1230.83
400.75	1275.88
400.96	1284.08
401.17	1204.21
401.37	1282.03
401.58	1298.41
401.79	1251.31
402.00	1310.70
402.21	1288.17
402.41	1253.36
402.62	1220.59
402.83	1251.31
403.04	1288.17
403.24	1210.35
403.45	1279.98
403.66	1271.79
403.87	1282.03
404.07	1304.56
404.28	1318.89
404.49	1292.27
404.70	1239.02
404.90	1255.40
405.11	1284.08
405.32	1253.36
405.52	1226.73
405.73	1230.83
405.94	1284.08
406.15	1183.73
406.35	1290.22
406.56	1267.69
406.77	1302.51
406.98	1253.36
407.18	1243.12
407.39	1271.79
407.60	1337.32
407.80	1259.50
408.01	1232.88
408.22	1279.98
408.43	1200.11
408.63	1308.65
408.84	1206.25
409.05	1265.64
409.25	1294.32
409.46	1282.03
409.67	1245.16
409.88	1298.41
410.08	1198.06
410.29	1245.16
410.50	1249.26
410.70	1363.95
410.91	1255.40
411.12	1247.21
411.32	1253.36
411.53	1249.26
411.74	1189.87
411.95	1255.40
412.15	1292.27
412.36	1265.64
412.57	1249.26
412.77	1269.74
412.98	1263.60
413.19	1204.21
413.39	1239.02
413.60	1314.80
413.81	1310.70
414.01	1212.40
414.22	1308.65
414.43	1302.51
414.63	1304.56
414.84	1259.50
415.05	1294.32
415.25	1277.93
415.46	1337.32
415.67	1253.36
415.87	1196.01
416.08	1320.94
416.29	1284.08
416.49	1331.18
416.70	1144.81
416.91	1349.61
417.11	1325.04
417.32	1265.64
417.53	1294.32
417.73	1288.17
417.94	1228.78
418.15	1253.36
418.35	1241.07
418.56	1322.99
418.77	1247.21
418.97	1271.79
419.18	1284.08
419.38	1212.40
419.59	1210.35
419.80	1275.88
420.00	1292.27
420.21	1286.12
420.42	1198.06
420.62	1312.75
420.83	1220.59
421.04	1357.80
421.24	1212.40
421.45	1277.93
421.65	1265.64
421.86	1296.36
422.07	1259.50
422.27	1333.23
422.48	1241.07
422.69	1275.88
422.89	1312.75
423.10	1279.98
423.30	1368.04
423.51	1286.12
423.72	1275.88
423.92	1351.66
424.13	1171.44
424.33	1290.22
424.54	1329.13
424.75	1314.80
424.95	1304.56
425.16	1228.78
425.36	1290.22
425.57	1282.03
425.78	1300.46
425.98	1292.27
426.19	1265.64
426.39	1216.49
426.60	1349.61
426.81	1269.74
427.01	1245.16
427.22	1249.26
427.42	1288.17
427.63	1247.21
427.83	1314.80
428.04	1261.55
428.25	1290.22
428.45	1329.13
428.66	1273.84
428.86	1228.78
429.07	1286.12
429.28	1284.08
429.48	1234.93
429.69	1300.46
429.89	1288.17
430.10	1345.52
430.30	1312.75
430.51	1249.26
430.71	1325.04
430.92	1318.89
431.13	1320.94
431.33	1288.17
431.54	1230.83
431.74	1241.07
431.95	1329.13
432.15	1302.51
432.36	1234.93
432.56	1327.08
432.77	1292.27
432.98	1232.88
433.18	1286.12
433.39	1253.36
433.59	1241.07
433.80	1333.23
434.00	1267.69
434.21	1236.97
434.41	1277.93
434.62	1239.02
434.82	1273.84
435.03	1193.97
435.23	1310.70
435.44	1271.79
435.64	1302.51
435.85	1282.03
436.06	1273.84
436.26	1292.27
436.47	1263.60
436.67	1191.92
436.88	1243.12
437.08	1220.59
437.29	1265.64
437.49	1189.87
437.70	1245.16
437.90	1314.80
438.11	1286.12
438.31	1249.26
438.52	1273.84
438.72	1318.89
438.93	1253.36
439.13	1316.84
439.34	1282.03
439.54	1277.93
439.75	1234.93
439.95	1253.36
440.16	1292.27
440.36	1325.04
440.57	1361.90
440.77	1263.60
440.98	1251.31
441.18	1241.07
441.39	1239.02
441.59	1304.56
441.80	1351.66
442.00	1310.70
442.21	1247.21
442.41	1265.64
442.62	1257.45
442.82	1261.55
443.02	1339.37
443.23	1333.23
443.43	1257.45
443.64	1306.60
443.84	1226.73
444.05	1224.69
444.25	1265.64
444.46	1277.93
444.66	1253.36
444.87	1239.02
445.07	1222.64
445.28	1263.60
445.48	1255.40
445.69	1341.42
445.89	1300.46
446.09	1243.12
446.30	1304.56
446.50	1290.22
446.71	1245.16
446.91	1255.40
447.12	1316.84
447.32	1255.40
447.53	1257.45
447.73	1200.11
447.93	1282.03
448.14	1271.79
448.34	1271.79
448.55	1261.55
448.75	1247.21
448.96	1275.88
449.16	1261.55
449.36	1261.55
449.57	1290.22
449.77	1335.28
449.98	1228.78
450.18	1273.84
450.39	1288.17
450.59	1243.12
450.79	1257.45
451.00	1355.76
451.20	1282.03
451.41	1251.31
451.61	1255.40
451.81	1363.95
452.02	1296.36
452.22	1218.54
452.43	1277.93
452.63	1292.27
