SpectraSuite Data File
++++++++++++++++++++++++++++++++++++
Date: Sun Apr 03 19:55:44 CEST 2016
User: root
Dark Spectrum Present: No
Reference Spectrum Present: No
Number of Sampled Component Spectra: 1
Spectrometers: USB4C02835
Integration Time (usec): 10000 (USB4C02835)
Spectra Averaged: 1 (USB4C02835)
Boxcar Smoothing: 0 (USB4C02835)
Correct for Electrical Dark: No (USB4C02835)
Strobe/Lamp Enabled: No (USB4C02835)
Correct for Detector Non-linearity: No (USB4C02835)
Correct for Stray Light: No (USB4C02835)
Number of Pixels in Processed Spectrum: 3648
>>>>>Begin Processed Spectral Data<<<<<
177.47	1273.84
177.69	1273.84
177.91	1273.84
178.13	1261.55
178.36	1275.88
178.58	1263.60
178.80	1327.08
179.02	1183.73
179.24	1261.55
179.46	1220.59
179.68	1294.32
179.90	1241.07
180.13	1288.17
180.35	1212.40
180.57	1310.70
180.79	1243.12
181.01	1306.60
181.23	1290.22
181.45	1228.78
181.67	1322.99
181.90	1239.02
182.12	1234.93
182.34	1296.36
182.56	1253.36
182.78	1224.69
183.00	1261.55
183.22	1220.59
183.44	1265.64
183.66	1214.45
183.89	1196.01
184.11	1271.79
184.33	1251.31
184.55	1247.21
184.77	1275.88
184.99	1271.79
185.21	1220.59
185.43	1294.32
185.65	1214.45
185.87	1269.74
186.10	1290.22
186.32	1306.60
186.54	1292.27
186.76	1232.88
186.98	1290.22
187.20	1265.64
187.42	1271.79
187.64	1277.93
187.86	1232.88
188.08	1355.76
188.30	1239.02
188.52	1337.32
188.75	1306.60
188.97	1304.56
189.19	1296.36
189.41	1318.89
189.63	1292.27
189.85	1239.02
190.07	1339.37
190.29	1318.89
190.51	1284.08
190.73	1282.03
190.95	1331.18
191.17	1282.03
191.39	1232.88
191.61	1300.46
191.84	1304.56
192.06	1251.31
192.28	1271.79
192.50	1294.32
192.72	1263.60
192.94	1329.13
193.16	1284.08
193.38	1279.98
193.60	1316.84
193.82	1298.41
194.04	1224.69
194.26	1241.07
194.48	1245.16
194.70	1253.36
194.92	1290.22
195.14	1263.60
195.36	1253.36
195.58	1284.08
195.80	1269.74
196.02	1247.21
196.24	1288.17
196.46	1271.79
196.69	1277.93
196.91	1366.00
197.13	1269.74
197.35	1214.45
197.57	1296.36
197.79	1241.07
198.01	1261.55
198.23	1241.07
198.45	1267.69
198.67	1290.22
198.89	1290.22
199.11	1259.50
199.33	1239.02
199.55	1232.88
199.77	1316.84
199.99	1296.36
200.21	1265.64
200.43	1257.45
200.65	1273.84
200.87	1218.54
201.09	1216.49
201.31	1191.92
201.53	1296.36
201.75	1273.84
201.97	1322.99
202.19	1288.17
202.41	1314.80
202.63	1212.40
202.85	1306.60
203.07	1263.60
203.29	1275.88
203.51	1314.80
203.73	1265.64
203.95	1245.16
204.17	1304.56
204.39	1220.59
204.61	1312.75
204.83	1288.17
205.05	1222.64
205.27	1286.12
205.49	1228.78
205.71	1220.59
205.93	1245.16
206.15	1255.40
206.37	1210.35
206.59	1282.03
206.81	1204.21
207.03	1300.46
207.25	1247.21
207.47	1269.74
207.69	1257.45
207.91	1282.03
208.13	1245.16
208.34	1300.46
208.56	1214.45
208.78	1247.21
209.00	1153.01
209.22	1206.25
209.44	1320.94
209.66	1255.40
209.88	1247.21
210.10	1302.51
210.32	1212.40
210.54	1210.35
210.76	1300.46
210.98	1265.64
211.20	1265.64
211.42	1222.64
211.64	1298.41
211.86	1257.45
212.08	1241.07
212.30	1261.55
212.52	1292.27
212.74	1249.26
212.96	1284.08
213.17	1267.69
213.39	1288.17
213.61	1265.64
213.83	1230.83
214.05	1275.88
214.27	1222.64
214.49	1257.45
214.71	1284.08
214.93	1279.98
215.15	1247.21
215.37	1298.41
215.59	1267.69
215.81	1265.64
216.03	1255.40
216.24	1421.29
216.46	1284.08
216.68	1273.84
216.90	1322.99
217.12	1327.08
217.34	1304.56
217.56	1255.40
217.78	1206.25
218.00	1198.06
218.22	1359.85
218.44	1288.17
218.66	1220.59
218.87	1302.51
219.09	1269.74
219.31	1198.06
219.53	1241.07
219.75	1220.59
219.97	1298.41
220.19	1298.41
220.41	1257.45
220.63	1337.32
220.85	1232.88
221.06	1320.94
221.28	1259.50
221.50	1206.25
221.72	1257.45
221.94	1279.98
222.16	1304.56
222.38	1273.84
222.60	1267.69
222.82	1255.40
223.03	1359.85
223.25	1312.75
223.47	1269.74
223.69	1187.82
223.91	1187.82
224.13	1284.08
224.35	1275.88
224.57	1277.93
224.78	1298.41
225.00	1218.54
225.22	1259.50
225.44	1325.04
225.66	1234.93
225.88	1275.88
226.10	1222.64
226.32	1267.69
226.53	1294.32
226.75	1296.36
226.97	1273.84
227.19	1208.30
227.41	1249.26
227.63	1251.31
227.85	1177.58
228.06	1212.40
228.28	1251.31
228.50	1269.74
228.72	1212.40
228.94	1241.07
229.16	1259.50
229.37	1181.68
229.59	1263.60
229.81	1212.40
230.03	1255.40
230.25	1239.02
230.47	1288.17
230.69	1273.84
230.90	1236.97
231.12	1212.40
231.34	1206.25
231.56	1277.93
231.78	1304.56
232.00	1249.26
232.21	1245.16
232.43	1208.30
232.65	1232.88
232.87	1333.23
233.09	1239.02
233.30	1265.64
233.52	1214.45
233.74	1286.12
233.96	1224.69
234.18	1314.80
234.40	1243.12
234.61	1239.02
234.83	1189.87
235.05	1224.69
235.27	1273.84
235.49	1306.60
235.70	1300.46
235.92	1325.04
236.14	1216.49
236.36	1357.80
236.58	1243.12
236.79	1273.84
237.01	1277.93
237.23	1267.69
237.45	1220.59
237.67	1298.41
237.88	1245.16
238.10	1216.49
238.32	1255.40
238.54	1200.11
238.76	1304.56
238.97	1230.83
239.19	1216.49
239.41	1230.83
239.63	1216.49
239.85	1304.56
240.06	1265.64
240.28	1343.47
240.50	1251.31
240.72	1325.04
240.93	1257.45
241.15	1228.78
241.37	1255.40
241.59	1288.17
241.81	1245.16
242.02	1314.80
242.24	1263.60
242.46	1261.55
242.68	1239.02
242.89	1302.51
243.11	1329.13
243.33	1208.30
243.55	1294.32
243.76	1292.27
243.98	1251.31
244.20	1216.49
244.42	1169.39
244.64	1249.26
244.85	1220.59
245.07	1318.89
245.29	1261.55
245.51	1220.59
245.72	1290.22
245.94	1320.94
246.16	1261.55
246.38	1277.93
246.59	1230.83
246.81	1306.60
247.03	1222.64
247.24	1292.27
247.46	1288.17
247.68	1294.32
247.90	1261.55
248.11	1216.49
248.33	1249.26
248.55	1224.69
248.77	1304.56
248.98	1255.40
249.20	1196.01
249.42	1224.69
249.64	1212.40
249.85	1224.69
250.07	1269.74
250.29	1271.79
250.50	1271.79
250.72	1247.21
250.94	1239.02
251.16	1282.03
251.37	1226.73
251.59	1200.11
251.81	1247.21
252.02	1253.36
252.24	1279.98
252.46	1265.64
252.68	1320.94
252.89	1212.40
253.11	1304.56
253.33	1234.93
253.54	1269.74
253.76	1300.46
253.98	1269.74
254.20	1239.02
254.41	1312.75
254.63	1282.03
254.85	1187.82
255.06	1253.36
255.28	1241.07
255.50	1279.98
255.71	1273.84
255.93	1292.27
256.15	1294.32
256.36	1306.60
256.58	1220.59
256.80	1265.64
257.02	1337.32
257.23	1265.64
257.45	1230.83
257.67	1271.79
257.88	1200.11
258.10	1245.16
258.32	1308.65
258.53	1249.26
258.75	1198.06
258.97	1279.98
259.18	1294.32
259.40	1218.54
259.62	1259.50
259.83	1288.17
260.05	1271.79
260.27	1322.99
260.48	1275.88
260.70	1275.88
260.92	1249.26
261.13	1263.60
261.35	1275.88
261.57	1279.98
261.78	1224.69
262.00	1277.93
262.22	1261.55
262.43	1216.49
262.65	1261.55
262.86	1183.73
263.08	1318.89
263.30	1298.41
263.51	1331.18
263.73	1245.16
263.95	1286.12
264.16	1257.45
264.38	1286.12
264.60	1349.61
264.81	1298.41
265.03	1312.75
265.25	1241.07
265.46	1269.74
265.68	1271.79
265.89	1271.79
266.11	1230.83
266.33	1312.75
266.54	1275.88
266.76	1335.28
266.98	1245.16
267.19	1286.12
267.41	1279.98
267.62	1292.27
267.84	1322.99
268.06	1253.36
268.27	1279.98
268.49	1320.94
268.70	1216.49
268.92	1228.78
269.14	1279.98
269.35	1243.12
269.57	1241.07
269.79	1222.64
270.00	1218.54
270.22	1290.22
270.43	1279.98
270.65	1290.22
270.87	1251.31
271.08	1265.64
271.30	1200.11
271.51	1253.36
271.73	1302.51
271.95	1236.97
272.16	1273.84
272.38	1220.59
272.59	1300.46
272.81	1290.22
273.02	1257.45
273.24	1269.74
273.46	1314.80
273.67	1265.64
273.89	1286.12
274.10	1243.12
274.32	1286.12
274.54	1329.13
274.75	1312.75
274.97	1273.84
275.18	1267.69
275.40	1247.21
275.61	1282.03
275.83	1288.17
276.05	1234.93
276.26	1320.94
276.48	1247.21
276.69	1316.84
276.91	1259.50
277.12	1327.08
277.34	1284.08
277.55	1200.11
277.77	1351.66
277.99	1218.54
278.20	1320.94
278.42	1273.84
278.63	1308.65
278.85	1298.41
279.06	1286.12
279.28	1185.77
279.49	1226.73
279.71	1226.73
279.93	1290.22
280.14	1312.75
280.36	1216.49
280.57	1314.80
280.79	1296.36
281.00	1208.30
281.22	1282.03
281.43	1251.31
281.65	1277.93
281.86	1245.16
282.08	1327.08
282.29	1298.41
282.51	1263.60
282.73	1282.03
282.94	1263.60
283.16	1286.12
283.37	1267.69
283.59	1171.44
283.80	1261.55
284.02	1282.03
284.23	1239.02
284.45	1351.66
284.66	1302.51
284.88	1236.97
285.09	1292.27
285.31	1302.51
285.52	1284.08
285.74	1243.12
285.95	1355.76
286.17	1277.93
286.38	1310.70
286.60	1259.50
286.81	1335.28
287.03	1345.52
287.24	1302.51
287.46	1259.50
287.67	1279.98
287.89	1241.07
288.10	1249.26
288.32	1310.70
288.53	1353.71
288.75	1255.40
288.96	1282.03
289.18	1273.84
289.39	1329.13
289.61	1275.88
289.82	1288.17
290.04	1290.22
290.25	1296.36
290.47	1245.16
290.68	1265.64
290.90	1251.31
291.11	1228.78
291.33	1273.84
291.54	1269.74
291.76	1214.45
291.97	1290.22
292.18	1232.88
292.40	1239.02
292.61	1292.27
292.83	1306.60
293.04	1202.16
293.26	1226.73
293.47	1300.46
293.69	1234.93
293.90	1265.64
294.12	1171.44
294.33	1298.41
294.55	1290.22
294.76	1279.98
294.97	1241.07
295.19	1296.36
295.40	1339.37
295.62	1241.07
295.83	1253.36
296.05	1349.61
296.26	1277.93
296.48	1298.41
296.69	1263.60
296.90	1222.64
297.12	1290.22
297.33	1325.04
297.55	1255.40
297.76	1253.36
297.98	1333.23
298.19	1241.07
298.41	1292.27
298.62	1263.60
298.83	1241.07
299.05	1282.03
299.26	1298.41
299.48	1218.54
299.69	1232.88
299.90	1306.60
300.12	1343.47
300.33	1277.93
300.55	1304.56
300.76	1245.16
300.98	1196.01
301.19	1189.87
301.40	1286.12
301.62	1249.26
301.83	1249.26
302.05	1271.79
302.26	1206.25
302.47	1181.68
302.69	1216.49
302.90	1298.41
303.12	1341.42
303.33	1279.98
303.54	1314.80
303.76	1286.12
303.97	1284.08
304.19	1200.11
304.40	1226.73
304.61	1290.22
304.83	1267.69
305.04	1224.69
305.26	1241.07
305.47	1200.11
305.68	1265.64
305.90	1216.49
306.11	1259.50
306.33	1308.65
306.54	1228.78
306.75	1247.21
306.97	1241.07
307.18	1241.07
307.39	1232.88
307.61	1228.78
307.82	1232.88
308.04	1322.99
308.25	1282.03
308.46	1230.83
308.68	1267.69
308.89	1167.34
309.10	1245.16
309.32	1335.28
309.53	1228.78
309.74	1267.69
309.96	1247.21
310.17	1312.75
310.39	1269.74
310.60	1294.32
310.81	1196.01
311.03	1249.26
311.24	1275.88
311.45	1261.55
311.67	1333.23
311.88	1304.56
312.09	1322.99
312.31	1200.11
312.52	1277.93
312.73	1296.36
312.95	1259.50
313.16	1236.97
313.37	1322.99
313.59	1275.88
313.80	1267.69
314.01	1290.22
314.23	1269.74
314.44	1257.45
314.65	1277.93
314.87	1314.80
315.08	1230.83
315.29	1228.78
315.51	1318.89
315.72	1292.27
315.93	1243.12
316.15	1253.36
316.36	1306.60
316.57	1306.60
316.79	1200.11
317.00	1290.22
317.21	1325.04
317.43	1288.17
317.64	1257.45
317.85	1228.78
318.07	1243.12
318.28	1267.69
318.49	1218.54
318.70	1249.26
318.92	1249.26
319.13	1232.88
319.34	1306.60
319.56	1277.93
319.77	1249.26
319.98	1310.70
320.20	1366.00
320.41	1239.02
320.62	1263.60
320.83	1282.03
321.05	1347.56
321.26	1327.08
321.47	1230.83
321.69	1253.36
321.90	1236.97
322.11	1218.54
322.32	1206.25
322.54	1312.75
322.75	1226.73
322.96	1320.94
323.18	1329.13
323.39	1224.69
323.60	1290.22
323.81	1284.08
324.03	1198.06
324.24	1339.37
324.45	1322.99
324.66	1204.21
324.88	1249.26
325.09	1259.50
325.30	1322.99
325.52	1288.17
325.73	1220.59
325.94	1294.32
326.15	1228.78
326.37	1304.56
326.58	1284.08
326.79	1261.55
327.00	1245.16
327.22	1292.27
327.43	1298.41
327.64	1314.80
327.85	1296.36
328.07	1228.78
328.28	1259.50
328.49	1275.88
328.70	1228.78
328.92	1245.16
329.13	1294.32
329.34	1284.08
329.55	1253.36
329.76	1265.64
329.98	1255.40
330.19	1290.22
330.40	1294.32
330.61	1282.03
330.83	1320.94
331.04	1249.26
331.25	1308.65
331.46	1325.04
331.68	1251.31
331.89	1296.36
332.10	1228.78
332.31	1292.27
332.52	1308.65
332.74	1271.79
332.95	1222.64
333.16	1290.22
333.37	1267.69
333.58	1183.73
333.80	1294.32
334.01	1316.84
334.22	1320.94
334.43	1255.40
334.64	1343.47
334.86	1290.22
335.07	1196.01
335.28	1271.79
335.49	1181.68
335.70	1247.21
335.92	1253.36
336.13	1267.69
336.34	1245.16
336.55	1222.64
336.76	1249.26
336.98	1263.60
337.19	1230.83
337.40	1200.11
337.61	1279.98
337.82	1234.93
338.04	1261.55
338.25	1216.49
338.46	1204.21
338.67	1265.64
338.88	1261.55
339.09	1255.40
339.31	1277.93
339.52	1296.36
339.73	1224.69
339.94	1284.08
340.15	1282.03
340.36	1394.67
340.58	1271.79
340.79	1243.12
341.00	1341.42
341.21	1259.50
341.42	1277.93
341.63	1273.84
341.85	1275.88
342.06	1294.32
342.27	1277.93
342.48	1335.28
342.69	1239.02
342.90	1316.84
343.12	1171.44
343.33	1292.27
343.54	1269.74
343.75	1105.90
343.96	1265.64
344.17	1288.17
344.38	1224.69
344.60	1259.50
344.81	1214.45
345.02	1236.97
345.23	1273.84
345.44	1273.84
345.65	1286.12
345.86	1255.40
346.07	1273.84
346.29	1255.40
346.50	1245.16
346.71	1314.80
346.92	1284.08
347.13	1288.17
347.34	1361.90
347.55	1255.40
347.76	1269.74
347.98	1247.21
348.19	1241.07
348.40	1228.78
348.61	1173.49
348.82	1263.60
349.03	1308.65
349.24	1292.27
349.45	1265.64
349.66	1243.12
349.88	1261.55
350.09	1277.93
350.30	1226.73
350.51	1308.65
350.72	1292.27
350.93	1267.69
351.14	1228.78
351.35	1290.22
351.56	1308.65
351.77	1269.74
351.99	1228.78
352.20	1220.59
352.41	1308.65
352.62	1265.64
352.83	1216.49
353.04	1243.12
353.25	1236.97
353.46	1271.79
353.67	1267.69
353.88	1271.79
354.09	1275.88
354.30	1322.99
354.52	1253.36
354.73	1243.12
354.94	1286.12
355.15	1329.13
355.36	1275.88
355.57	1259.50
355.78	1290.22
355.99	1271.79
356.20	1181.68
356.41	1255.40
356.62	1169.39
356.83	1220.59
357.04	1230.83
357.25	1271.79
357.46	1286.12
357.68	1282.03
357.89	1312.75
358.10	1284.08
358.31	1220.59
358.52	1310.70
358.73	1314.80
358.94	1308.65
359.15	1263.60
359.36	1243.12
359.57	1224.69
359.78	1267.69
359.99	1277.93
360.20	1282.03
360.41	1198.06
360.62	1226.73
360.83	1234.93
361.04	1212.40
361.25	1298.41
361.46	1306.60
361.67	1273.84
361.88	1257.45
362.09	1212.40
362.30	1222.64
362.51	1277.93
362.72	1304.56
362.93	1294.32
363.14	1279.98
363.35	1239.02
363.56	1322.99
363.78	1265.64
363.99	1314.80
364.20	1241.07
364.41	1294.32
364.62	1302.51
364.83	1290.22
365.04	1255.40
365.25	1273.84
365.46	1306.60
365.67	1257.45
365.88	1245.16
366.09	1277.93
366.30	1247.21
366.51	1255.40
366.72	1247.21
366.93	1247.21
367.14	1286.12
367.35	1259.50
367.56	1308.65
367.77	1382.38
367.98	1271.79
368.18	1275.88
368.39	1241.07
368.60	1212.40
368.81	1314.80
369.02	1302.51
369.23	1312.75
369.44	1279.98
369.65	1247.21
369.86	1279.98
370.07	1296.36
370.28	1189.87
370.49	1273.84
370.70	1363.95
370.91	1271.79
371.12	1189.87
371.33	1230.83
371.54	1247.21
371.75	1236.97
371.96	1329.13
372.17	1298.41
372.38	1259.50
372.59	1279.98
372.80	1208.30
373.01	1288.17
373.22	1261.55
373.43	1277.93
373.64	1241.07
373.85	1224.69
374.06	1292.27
374.26	1255.40
374.47	1279.98
374.68	1259.50
374.89	1282.03
375.10	1306.60
375.31	1288.17
375.52	1316.84
375.73	1265.64
375.94	1253.36
376.15	1277.93
376.36	1316.84
376.57	1290.22
376.78	1277.93
376.99	1269.74
377.20	1277.93
377.40	1212.40
377.61	1245.16
377.82	1253.36
378.03	1308.65
378.24	1200.11
378.45	1296.36
378.66	1302.51
378.87	1241.07
379.08	1241.07
379.29	1277.93
379.50	1263.60
379.71	1288.17
379.91	1222.64
380.12	1290.22
380.33	1247.21
380.54	1234.93
380.75	1306.60
380.96	1277.93
381.17	1257.45
381.38	1234.93
381.59	1294.32
381.80	1320.94
382.00	1232.88
382.21	1286.12
382.42	1265.64
382.63	1247.21
382.84	1294.32
383.05	1249.26
383.26	1290.22
383.47	1275.88
383.68	1288.17
383.88	1218.54
384.09	1263.60
384.30	1224.69
384.51	1220.59
384.72	1304.56
384.93	1345.52
385.14	1302.51
385.35	1345.52
385.55	1202.16
385.76	1292.27
385.97	1226.73
386.18	1275.88
386.39	1308.65
386.60	1253.36
386.81	1286.12
387.02	1253.36
387.22	1163.25
387.43	1271.79
387.64	1210.35
387.85	1282.03
388.06	1239.02
388.27	1279.98
388.48	1267.69
388.68	1271.79
388.89	1277.93
389.10	1290.22
389.31	1310.70
389.52	1208.30
389.73	1212.40
389.93	1273.84
390.14	1300.46
390.35	1232.88
390.56	1259.50
390.77	1234.93
390.98	1218.54
391.18	1263.60
391.39	1347.56
391.60	1267.69
391.81	1292.27
392.02	1265.64
392.23	1253.36
392.43	1253.36
392.64	1230.83
392.85	1255.40
393.06	1284.08
393.27	1251.31
393.47	1288.17
393.68	1228.78
393.89	1245.16
394.10	1296.36
394.31	1296.36
394.52	1165.29
394.72	1273.84
394.93	1153.01
395.14	1222.64
395.35	1366.00
395.56	1257.45
395.76	1259.50
395.97	1236.97
396.18	1183.73
396.39	1269.74
396.60	1347.56
396.80	1298.41
397.01	1181.68
397.22	1277.93
397.43	1222.64
397.64	1245.16
397.84	1232.88
398.05	1239.02
398.26	1370.09
398.47	1331.18
398.67	1298.41
398.88	1220.59
399.09	1327.08
399.30	1279.98
399.51	1294.32
399.71	1226.73
399.92	1224.69
400.13	1269.74
400.34	1298.41
400.54	1318.89
400.75	1249.26
400.96	1175.53
401.17	1273.84
401.37	1236.97
401.58	1300.46
401.79	1284.08
402.00	1261.55
402.21	1286.12
402.41	1202.16
402.62	1189.87
402.83	1300.46
403.04	1290.22
403.24	1327.08
403.45	1245.16
403.66	1273.84
403.87	1292.27
404.07	1253.36
404.28	1296.36
404.49	1327.08
404.70	1304.56
404.90	1257.45
405.11	1339.37
405.32	1214.45
405.52	1294.32
405.73	1232.88
405.94	1304.56
406.15	1249.26
406.35	1226.73
406.56	1259.50
406.77	1155.05
406.98	1290.22
407.18	1228.78
407.39	1275.88
407.60	1187.82
407.80	1314.80
408.01	1294.32
408.22	1232.88
408.43	1204.21
408.63	1261.55
408.84	1255.40
409.05	1284.08
409.25	1308.65
409.46	1300.46
409.67	1232.88
409.88	1296.36
410.08	1306.60
410.29	1265.64
410.50	1277.93
410.70	1292.27
410.91	1265.64
411.12	1298.41
411.32	1239.02
411.53	1302.51
411.74	1316.84
411.95	1232.88
412.15	1214.45
412.36	1277.93
412.57	1269.74
412.77	1179.63
412.98	1269.74
413.19	1282.03
413.39	1216.49
413.60	1314.80
413.81	1267.69
414.01	1290.22
414.22	1255.40
414.43	1269.74
414.63	1232.88
414.84	1298.41
415.05	1300.46
415.25	1318.89
415.46	1267.69
415.67	1306.60
415.87	1265.64
416.08	1296.36
416.29	1325.04
416.49	1288.17
416.70	1243.12
416.91	1277.93
417.11	1251.31
417.32	1286.12
417.53	1296.36
417.73	1370.09
417.94	1202.16
418.15	1191.92
418.35	1318.89
418.56	1325.04
418.77	1224.69
418.97	1216.49
419.18	1261.55
419.38	1220.59
419.59	1298.41
419.80	1257.45
420.00	1271.79
420.21	1288.17
420.42	1265.64
420.62	1259.50
420.83	1282.03
421.04	1224.69
421.24	1236.97
421.45	1312.75
421.65	1288.17
421.86	1245.16
422.07	1271.79
422.27	1243.12
422.48	1206.25
422.69	1245.16
422.89	1210.35
423.10	1265.64
423.30	1279.98
423.51	1239.02
423.72	1282.03
423.92	1282.03
424.13	1286.12
424.33	1279.98
424.54	1249.26
424.75	1261.55
424.95	1230.83
425.16	1224.69
425.36	1288.17
425.57	1263.60
425.78	1216.49
425.98	1282.03
426.19	1257.45
426.39	1247.21
426.60	1210.35
426.81	1259.50
427.01	1257.45
427.22	1212.40
427.42	1236.97
427.63	1296.36
427.83	1241.07
428.04	1247.21
428.25	1296.36
428.45	1271.79
428.66	1239.02
428.86	1247.21
429.07	1249.26
429.28	1222.64
429.48	1224.69
429.69	1271.79
429.89	1282.03
430.10	1296.36
430.30	1220.59
430.51	1265.64
430.71	1279.98
430.92	1228.78
431.13	1263.60
431.33	1282.03
431.54	1234.93
431.74	1308.65
431.95	1286.12
432.15	1257.45
432.36	1230.83
432.56	1193.97
432.77	1255.40
432.98	1333.23
433.18	1253.36
433.39	1325.04
433.59	1251.31
433.80	1314.80
434.00	1249.26
434.21	1234.93
434.41	1245.16
434.62	1372.14
434.82	1290.22
435.03	1216.49
435.23	1327.08
435.44	1296.36
435.64	1200.11
435.85	1296.36
436.06	1339.37
436.26	1261.55
436.47	1269.74
436.67	1284.08
436.88	1187.82
437.08	1257.45
437.29	1234.93
437.49	1329.13
437.70	1249.26
437.90	1269.74
438.11	1296.36
438.31	1241.07
438.52	1300.46
438.72	1288.17
438.93	1230.83
439.13	1224.69
439.34	1343.47
439.54	1292.27
439.75	1181.68
439.95	1243.12
440.16	1253.36
440.36	1243.12
440.57	1265.64
440.77	1282.03
440.98	1300.46
441.18	1277.93
441.39	1304.56
441.59	1329.13
441.80	1286.12
442.00	1279.98
442.21	1243.12
442.41	1314.80
442.62	1187.82
442.82	1247.21
443.02	1267.69
443.23	1200.11
443.43	1279.98
443.64	1409.00
443.84	1269.74
444.05	1341.42
444.25	1322.99
444.46	1263.60
444.66	1294.32
444.87	1300.46
445.07	1290.22
445.28	1263.60
445.48	1236.97
445.69	1310.70
445.89	1290.22
446.09	1318.89
446.30	1341.42
446.50	1314.80
446.71	1220.59
446.91	1363.95
447.12	1208.30
447.32	1302.51
447.53	1249.26
447.73	1296.36
447.93	1282.03
448.14	1292.27
448.34	1263.60
448.55	1269.74
448.75	1286.12
448.96	1339.37
449.16	1236.97
449.36	1275.88
449.57	1279.98
449.77	1322.99
449.98	1269.74
450.18	1333.23
450.39	1277.93
450.59	1331.18
450.79	1232.88
451.00	1257.45
451.20	1290.22
451.41	1329.13
451.61	1296.36
451.81	1288.17
452.02	1310.70
452.22	1296.36
452.43	1290.22
452.63	1312.75
