SpectraSuite Data File
++++++++++++++++++++++++++++++++++++
Date: Sun Apr 03 19:55:19 CEST 2016
User: root
Dark Spectrum Present: No
Reference Spectrum Present: No
Number of Sampled Component Spectra: 1
Spectrometers: USB4C02835
Integration Time (usec): 10000 (USB4C02835)
Spectra Averaged: 1 (USB4C02835)
Boxcar Smoothing: 0 (USB4C02835)
Correct for Electrical Dark: No (USB4C02835)
Strobe/Lamp Enabled: No (USB4C02835)
Correct for Detector Non-linearity: No (USB4C02835)
Correct for Stray Light: No (USB4C02835)
Number of Pixels in Processed Spectrum: 3648
>>>>>Begin Processed Spectral Data<<<<<
177.47	1259.50
177.69	1259.50
177.91	1259.50
178.13	1261.55
178.36	1308.65
178.58	1245.16
178.80	1296.36
179.02	1245.16
179.24	1251.31
179.46	1253.36
179.68	1236.97
179.90	1247.21
180.13	1200.11
180.35	1271.79
180.57	1257.45
180.79	1245.16
181.01	1337.32
181.23	1271.79
181.45	1163.25
181.67	1245.16
181.90	1277.93
182.12	1245.16
182.34	1253.36
182.56	1261.55
182.78	1296.36
183.00	1298.41
183.22	1269.74
183.44	1202.16
183.66	1239.02
183.89	1226.73
184.11	1234.93
184.33	1296.36
184.55	1222.64
184.77	1210.35
184.99	1214.45
185.21	1269.74
185.43	1263.60
185.65	1255.40
185.87	1308.65
186.10	1257.45
186.32	1261.55
186.54	1236.97
186.76	1290.22
186.98	1204.21
187.20	1239.02
187.42	1253.36
187.64	1292.27
187.86	1310.70
188.08	1273.84
188.30	1228.78
188.52	1247.21
188.75	1279.98
188.97	1306.60
189.19	1212.40
189.41	1286.12
189.63	1206.25
189.85	1249.26
190.07	1232.88
190.29	1226.73
190.51	1318.89
190.73	1294.32
190.95	1265.64
191.17	1310.70
191.39	1234.93
191.61	1286.12
191.84	1232.88
192.06	1320.94
192.28	1269.74
192.50	1322.99
192.72	1234.93
192.94	1251.31
193.16	1257.45
193.38	1312.75
193.60	1261.55
193.82	1241.07
194.04	1263.60
194.26	1298.41
194.48	1302.51
194.70	1269.74
194.92	1261.55
195.14	1284.08
195.36	1337.32
195.58	1329.13
195.80	1290.22
196.02	1269.74
196.24	1224.69
196.46	1253.36
196.69	1312.75
196.91	1241.07
197.13	1234.93
197.35	1318.89
197.57	1322.99
197.79	1267.69
198.01	1275.88
198.23	1298.41
198.45	1234.93
198.67	1169.39
198.89	1314.80
199.11	1226.73
199.33	1255.40
199.55	1302.51
199.77	1261.55
199.99	1353.71
200.21	1269.74
200.43	1322.99
200.65	1179.63
200.87	1290.22
201.09	1263.60
201.31	1247.21
201.53	1292.27
201.75	1275.88
201.97	1241.07
202.19	1222.64
202.41	1327.08
202.63	1216.49
202.85	1198.06
203.07	1243.12
203.29	1226.73
203.51	1214.45
203.73	1296.36
203.95	1292.27
204.17	1284.08
204.39	1232.88
204.61	1298.41
204.83	1265.64
205.05	1312.75
205.27	1306.60
205.49	1318.89
205.71	1249.26
205.93	1288.17
206.15	1347.56
206.37	1208.30
206.59	1290.22
206.81	1249.26
207.03	1259.50
207.25	1349.61
207.47	1245.16
207.69	1288.17
207.91	1239.02
208.13	1206.25
208.34	1208.30
208.56	1288.17
208.78	1279.98
209.00	1288.17
209.22	1392.62
209.44	1314.80
209.66	1322.99
209.88	1232.88
210.10	1298.41
210.32	1234.93
210.54	1269.74
210.76	1232.88
210.98	1286.12
211.20	1320.94
211.42	1271.79
211.64	1239.02
211.86	1279.98
212.08	1218.54
212.30	1249.26
212.52	1222.64
212.74	1277.93
212.96	1257.45
213.17	1273.84
213.39	1273.84
213.61	1288.17
213.83	1265.64
214.05	1200.11
214.27	1269.74
214.49	1249.26
214.71	1247.21
214.93	1294.32
215.15	1335.28
215.37	1122.29
215.59	1271.79
215.81	1249.26
216.03	1320.94
216.24	1234.93
216.46	1230.83
216.68	1247.21
216.90	1191.92
217.12	1327.08
217.34	1325.04
217.56	1267.69
217.78	1267.69
218.00	1183.73
218.22	1249.26
218.44	1300.46
218.66	1271.79
218.87	1300.46
219.09	1241.07
219.31	1357.80
219.53	1273.84
219.75	1286.12
219.97	1279.98
220.19	1296.36
220.41	1234.93
220.63	1316.84
220.85	1308.65
221.06	1253.36
221.28	1294.32
221.50	1247.21
221.72	1257.45
221.94	1310.70
222.16	1308.65
222.38	1253.36
222.60	1290.22
222.82	1300.46
223.03	1298.41
223.25	1327.08
223.47	1277.93
223.69	1306.60
223.91	1261.55
224.13	1284.08
224.35	1271.79
224.57	1247.21
224.78	1286.12
225.00	1251.31
225.22	1241.07
225.44	1300.46
225.66	1286.12
225.88	1372.14
226.10	1310.70
226.32	1296.36
226.53	1275.88
226.75	1269.74
226.97	1241.07
227.19	1216.49
227.41	1249.26
227.63	1269.74
227.85	1279.98
228.06	1296.36
228.28	1288.17
228.50	1284.08
228.72	1185.77
228.94	1263.60
229.16	1300.46
229.37	1243.12
229.59	1198.06
229.81	1261.55
230.03	1333.23
230.25	1259.50
230.47	1255.40
230.69	1312.75
230.90	1386.47
231.12	1329.13
231.34	1298.41
231.56	1261.55
231.78	1202.16
232.00	1298.41
232.21	1314.80
232.43	1247.21
232.65	1226.73
232.87	1279.98
233.09	1224.69
233.30	1282.03
233.52	1259.50
233.74	1232.88
233.96	1312.75
234.18	1228.78
234.40	1271.79
234.61	1296.36
234.83	1265.64
235.05	1218.54
235.27	1243.12
235.49	1310.70
235.70	1257.45
235.92	1333.23
236.14	1228.78
236.36	1286.12
236.58	1253.36
236.79	1286.12
237.01	1286.12
237.23	1236.97
237.45	1253.36
237.67	1251.31
237.88	1236.97
238.10	1306.60
238.32	1239.02
238.54	1269.74
238.76	1308.65
238.97	1239.02
239.19	1277.93
239.41	1169.39
239.63	1300.46
239.85	1263.60
240.06	1288.17
240.28	1286.12
240.50	1245.16
240.72	1261.55
240.93	1277.93
241.15	1249.26
241.37	1224.69
241.59	1269.74
241.81	1290.22
242.02	1306.60
242.24	1253.36
242.46	1249.26
242.68	1277.93
242.89	1206.25
243.11	1198.06
243.33	1206.25
243.55	1165.29
243.76	1314.80
243.98	1302.51
244.20	1267.69
244.42	1298.41
244.64	1316.84
244.85	1183.73
245.07	1232.88
245.29	1306.60
245.51	1208.30
245.72	1314.80
245.94	1267.69
246.16	1251.31
246.38	1275.88
246.59	1236.97
246.81	1257.45
247.03	1228.78
247.24	1265.64
247.46	1267.69
247.68	1265.64
247.90	1306.60
248.11	1290.22
248.33	1318.89
248.55	1271.79
248.77	1218.54
248.98	1273.84
249.20	1232.88
249.42	1175.53
249.64	1243.12
249.85	1284.08
250.07	1216.49
250.29	1286.12
250.50	1306.60
250.72	1265.64
250.94	1253.36
251.16	1263.60
251.37	1320.94
251.59	1253.36
251.81	1224.69
252.02	1239.02
252.24	1265.64
252.46	1343.47
252.68	1247.21
252.89	1249.26
253.11	1251.31
253.33	1253.36
253.54	1200.11
253.76	1226.73
253.98	1269.74
254.20	1279.98
254.41	1271.79
254.63	1275.88
254.85	1310.70
255.06	1265.64
255.28	1275.88
255.50	1181.68
255.71	1204.21
255.93	1247.21
256.15	1263.60
256.36	1263.60
256.58	1267.69
256.80	1236.97
257.02	1298.41
257.23	1255.40
257.45	1345.52
257.67	1210.35
257.88	1308.65
258.10	1245.16
258.32	1226.73
258.53	1359.85
258.75	1300.46
258.97	1239.02
259.18	1245.16
259.40	1265.64
259.62	1316.84
259.83	1245.16
260.05	1277.93
260.27	1206.25
260.48	1241.07
260.70	1265.64
260.92	1218.54
261.13	1198.06
261.35	1257.45
261.57	1255.40
261.78	1316.84
262.00	1282.03
262.22	1249.26
262.43	1206.25
262.65	1218.54
262.86	1333.23
263.08	1241.07
263.30	1292.27
263.51	1273.84
263.73	1255.40
263.95	1263.60
264.16	1269.74
264.38	1265.64
264.60	1290.22
264.81	1325.04
265.03	1222.64
265.25	1265.64
265.46	1316.84
265.68	1222.64
265.89	1325.04
266.11	1232.88
266.33	1290.22
266.54	1196.01
266.76	1304.56
266.98	1236.97
267.19	1288.17
267.41	1224.69
267.62	1218.54
267.84	1241.07
268.06	1288.17
268.27	1253.36
268.49	1251.31
268.70	1206.25
268.92	1265.64
269.14	1288.17
269.35	1304.56
269.57	1296.36
269.79	1249.26
270.00	1220.59
270.22	1279.98
270.43	1300.46
270.65	1236.97
270.87	1267.69
271.08	1347.56
271.30	1261.55
271.51	1230.83
271.73	1245.16
271.95	1187.82
272.16	1204.21
272.38	1284.08
272.59	1247.21
272.81	1296.36
273.02	1210.35
273.24	1306.60
273.46	1222.64
273.67	1265.64
273.89	1220.59
274.10	1222.64
274.32	1288.17
274.54	1234.93
274.75	1239.02
274.97	1275.88
275.18	1376.24
275.40	1224.69
275.61	1282.03
275.83	1339.37
276.05	1200.11
276.26	1282.03
276.48	1198.06
276.69	1236.97
276.91	1257.45
277.12	1236.97
277.34	1249.26
277.55	1331.18
277.77	1234.93
277.99	1226.73
278.20	1253.36
278.42	1243.12
278.63	1267.69
278.85	1265.64
279.06	1253.36
279.28	1300.46
279.49	1255.40
279.71	1241.07
279.93	1251.31
280.14	1282.03
280.36	1247.21
280.57	1275.88
280.79	1306.60
281.00	1296.36
281.22	1210.35
281.43	1290.22
281.65	1331.18
281.86	1206.25
282.08	1261.55
282.29	1259.50
282.51	1243.12
282.73	1273.84
282.94	1298.41
283.16	1269.74
283.37	1286.12
283.59	1204.21
283.80	1247.21
284.02	1347.56
284.23	1279.98
284.45	1224.69
284.66	1222.64
284.88	1263.60
285.09	1308.65
285.31	1271.79
285.52	1220.59
285.74	1245.16
285.95	1322.99
286.17	1284.08
286.38	1247.21
286.60	1206.25
286.81	1282.03
287.03	1279.98
287.24	1316.84
287.46	1204.21
287.67	1230.83
287.89	1304.56
288.10	1255.40
288.32	1290.22
288.53	1304.56
288.75	1288.17
288.96	1288.17
289.18	1339.37
289.39	1265.64
289.61	1265.64
289.82	1216.49
290.04	1310.70
290.25	1255.40
290.47	1273.84
290.68	1232.88
290.90	1249.26
291.11	1331.18
291.33	1320.94
291.54	1269.74
291.76	1296.36
291.97	1277.93
292.18	1284.08
292.40	1241.07
292.61	1271.79
292.83	1191.92
293.04	1267.69
293.26	1275.88
293.47	1357.80
293.69	1300.46
293.90	1196.01
294.12	1232.88
294.33	1288.17
294.55	1218.54
294.76	1349.61
294.97	1249.26
295.19	1308.65
295.40	1251.31
295.62	1267.69
295.83	1273.84
296.05	1239.02
296.26	1265.64
296.48	1282.03
296.69	1320.94
296.90	1292.27
297.12	1265.64
297.33	1322.99
297.55	1304.56
297.76	1230.83
297.98	1206.25
298.19	1282.03
298.41	1302.51
298.62	1265.64
298.83	1282.03
299.05	1294.32
299.26	1249.26
299.48	1327.08
299.69	1306.60
299.90	1288.17
300.12	1253.36
300.33	1208.30
300.55	1284.08
300.76	1255.40
300.98	1286.12
301.19	1253.36
301.40	1310.70
301.62	1306.60
301.83	1298.41
302.05	1349.61
302.26	1265.64
302.47	1294.32
302.69	1288.17
302.90	1302.51
303.12	1286.12
303.33	1253.36
303.54	1253.36
303.76	1288.17
303.97	1228.78
304.19	1277.93
304.40	1245.16
304.61	1294.32
304.83	1220.59
305.04	1292.27
305.26	1236.97
305.47	1288.17
305.68	1294.32
305.90	1243.12
306.11	1282.03
306.33	1218.54
306.54	1337.32
306.75	1241.07
306.97	1261.55
307.18	1245.16
307.39	1241.07
307.61	1351.66
307.82	1206.25
308.04	1263.60
308.25	1249.26
308.46	1333.23
308.68	1253.36
308.89	1288.17
309.10	1232.88
309.32	1241.07
309.53	1275.88
309.74	1232.88
309.96	1263.60
310.17	1314.80
310.39	1327.08
310.60	1257.45
310.81	1331.18
311.03	1302.51
311.24	1257.45
311.45	1206.25
311.67	1277.93
311.88	1306.60
312.09	1349.61
312.31	1249.26
312.52	1271.79
312.73	1214.45
312.95	1290.22
313.16	1263.60
313.37	1290.22
313.59	1300.46
313.80	1290.22
314.01	1279.98
314.23	1286.12
314.44	1265.64
314.65	1337.32
314.87	1183.73
315.08	1228.78
315.29	1245.16
315.51	1245.16
315.72	1322.99
315.93	1261.55
316.15	1259.50
316.36	1241.07
316.57	1279.98
316.79	1284.08
317.00	1308.65
317.21	1234.93
317.43	1191.92
317.64	1243.12
317.85	1259.50
318.07	1257.45
318.28	1271.79
318.49	1236.97
318.70	1290.22
318.92	1292.27
319.13	1263.60
319.34	1245.16
319.56	1257.45
319.77	1210.35
319.98	1253.36
320.20	1275.88
320.41	1247.21
320.62	1288.17
320.83	1312.75
321.05	1310.70
321.26	1298.41
321.47	1304.56
321.69	1247.21
321.90	1239.02
322.11	1267.69
322.32	1304.56
322.54	1271.79
322.75	1300.46
322.96	1206.25
323.18	1234.93
323.39	1153.01
323.60	1290.22
323.81	1318.89
324.03	1310.70
324.24	1298.41
324.45	1265.64
324.66	1222.64
324.88	1284.08
325.09	1243.12
325.30	1273.84
325.52	1232.88
325.73	1251.31
325.94	1222.64
326.15	1220.59
326.37	1269.74
326.58	1300.46
326.79	1275.88
327.00	1257.45
327.22	1234.93
327.43	1292.27
327.64	1196.01
327.85	1351.66
328.07	1245.16
328.28	1234.93
328.49	1286.12
328.70	1314.80
328.92	1261.55
329.13	1286.12
329.34	1273.84
329.55	1185.77
329.76	1288.17
329.98	1206.25
330.19	1249.26
330.40	1275.88
330.61	1241.07
330.83	1282.03
331.04	1265.64
331.25	1232.88
331.46	1263.60
331.68	1239.02
331.89	1206.25
332.10	1275.88
332.31	1282.03
332.52	1249.26
332.74	1292.27
332.95	1290.22
333.16	1286.12
333.37	1218.54
333.58	1257.45
333.80	1204.21
334.01	1296.36
334.22	1241.07
334.43	1204.21
334.64	1257.45
334.86	1212.40
335.07	1220.59
335.28	1363.95
335.49	1216.49
335.70	1218.54
335.92	1304.56
336.13	1335.28
336.34	1253.36
336.55	1255.40
336.76	1351.66
336.98	1288.17
337.19	1234.93
337.40	1304.56
337.61	1284.08
337.82	1300.46
338.04	1273.84
338.25	1279.98
338.46	1306.60
338.67	1277.93
338.88	1263.60
339.09	1245.16
339.31	1359.85
339.52	1279.98
339.73	1286.12
339.94	1273.84
340.15	1302.51
340.36	1284.08
340.58	1253.36
340.79	1134.57
341.00	1282.03
341.21	1226.73
341.42	1210.35
341.63	1341.42
341.85	1284.08
342.06	1202.16
342.27	1247.21
342.48	1245.16
342.69	1298.41
342.90	1314.80
343.12	1265.64
343.33	1292.27
343.54	1267.69
343.75	1308.65
343.96	1273.84
344.17	1189.87
344.38	1249.26
344.60	1251.31
344.81	1249.26
345.02	1239.02
345.23	1302.51
345.44	1279.98
345.65	1255.40
345.86	1234.93
346.07	1263.60
346.29	1322.99
346.50	1236.97
346.71	1261.55
346.92	1251.31
347.13	1312.75
347.34	1265.64
347.55	1261.55
347.76	1243.12
347.98	1183.73
348.19	1265.64
348.40	1296.36
348.61	1273.84
348.82	1234.93
349.03	1296.36
349.24	1290.22
349.45	1277.93
349.66	1273.84
349.88	1247.21
350.09	1255.40
350.30	1290.22
350.51	1294.32
350.72	1243.12
350.93	1284.08
351.14	1306.60
351.35	1363.95
351.56	1290.22
351.77	1230.83
351.99	1257.45
352.20	1308.65
352.41	1333.23
352.62	1347.56
352.83	1189.87
353.04	1284.08
353.25	1294.32
353.46	1255.40
353.67	1306.60
353.88	1191.92
354.09	1230.83
354.30	1277.93
354.52	1304.56
354.73	1320.94
354.94	1243.12
355.15	1257.45
355.36	1208.30
355.57	1277.93
355.78	1273.84
355.99	1273.84
356.20	1312.75
356.41	1271.79
356.62	1243.12
356.83	1325.04
357.04	1228.78
357.25	1275.88
357.46	1249.26
357.68	1294.32
357.89	1224.69
358.10	1249.26
358.31	1290.22
358.52	1282.03
358.73	1275.88
358.94	1257.45
359.15	1261.55
359.36	1222.64
359.57	1216.49
359.78	1314.80
359.99	1159.15
360.20	1247.21
360.41	1247.21
360.62	1312.75
360.83	1216.49
361.04	1290.22
361.25	1282.03
361.46	1214.45
361.67	1247.21
361.88	1259.50
362.09	1179.63
362.30	1273.84
362.51	1366.00
362.72	1210.35
362.93	1335.28
363.14	1306.60
363.35	1273.84
363.56	1232.88
363.78	1273.84
363.99	1314.80
364.20	1284.08
364.41	1212.40
364.62	1316.84
364.83	1361.90
365.04	1218.54
365.25	1251.31
365.46	1253.36
365.67	1234.93
365.88	1263.60
366.09	1329.13
366.30	1232.88
366.51	1279.98
366.72	1255.40
366.93	1249.26
367.14	1312.75
367.35	1216.49
367.56	1245.16
367.77	1325.04
367.98	1226.73
368.18	1339.37
368.39	1247.21
368.60	1259.50
368.81	1314.80
369.02	1241.07
369.23	1232.88
369.44	1241.07
369.65	1216.49
369.86	1302.51
370.07	1224.69
370.28	1284.08
370.49	1333.23
370.70	1273.84
370.91	1239.02
371.12	1257.45
371.33	1263.60
371.54	1282.03
371.75	1185.77
371.96	1239.02
372.17	1269.74
372.38	1230.83
372.59	1339.37
372.80	1322.99
373.01	1306.60
373.22	1322.99
373.43	1214.45
373.64	1216.49
373.85	1327.08
374.06	1282.03
374.26	1214.45
374.47	1261.55
374.68	1228.78
374.89	1288.17
375.10	1249.26
375.31	1282.03
375.52	1284.08
375.73	1296.36
375.94	1226.73
376.15	1245.16
376.36	1212.40
376.57	1269.74
376.78	1327.08
376.99	1304.56
377.20	1247.21
377.40	1302.51
377.61	1253.36
377.82	1204.21
378.03	1308.65
378.24	1273.84
378.45	1204.21
378.66	1200.11
378.87	1302.51
379.08	1232.88
379.29	1191.92
379.50	1302.51
379.71	1245.16
379.91	1310.70
380.12	1290.22
380.33	1290.22
380.54	1249.26
380.75	1257.45
380.96	1316.84
381.17	1210.35
381.38	1243.12
381.59	1331.18
381.80	1216.49
382.00	1179.63
382.21	1259.50
382.42	1247.21
382.63	1296.36
382.84	1253.36
383.05	1228.78
383.26	1273.84
383.47	1267.69
383.68	1216.49
383.88	1212.40
384.09	1325.04
384.30	1251.31
384.51	1292.27
384.72	1218.54
384.93	1216.49
385.14	1312.75
385.35	1259.50
385.55	1251.31
385.76	1282.03
385.97	1230.83
386.18	1210.35
386.39	1198.06
386.60	1347.56
386.81	1241.07
387.02	1234.93
387.22	1216.49
387.43	1347.56
387.64	1284.08
387.85	1322.99
388.06	1277.93
388.27	1310.70
388.48	1318.89
388.68	1275.88
388.89	1261.55
389.10	1290.22
389.31	1269.74
389.52	1263.60
389.73	1202.16
389.93	1290.22
390.14	1275.88
390.35	1286.12
390.56	1245.16
390.77	1226.73
390.98	1294.32
391.18	1310.70
391.39	1259.50
391.60	1257.45
391.81	1259.50
392.02	1284.08
392.23	1255.40
392.43	1294.32
392.64	1288.17
392.85	1253.36
393.06	1277.93
393.27	1265.64
393.47	1218.54
393.68	1259.50
393.89	1300.46
394.10	1349.61
394.31	1290.22
394.52	1343.47
394.72	1228.78
394.93	1261.55
395.14	1245.16
395.35	1325.04
395.56	1196.01
395.76	1267.69
395.97	1292.27
396.18	1279.98
396.39	1263.60
396.60	1239.02
396.80	1236.97
397.01	1239.02
397.22	1318.89
397.43	1239.02
397.64	1284.08
397.84	1206.25
398.05	1286.12
398.26	1247.21
398.47	1234.93
398.67	1232.88
398.88	1228.78
399.09	1286.12
399.30	1232.88
399.51	1296.36
399.71	1236.97
399.92	1286.12
400.13	1251.31
400.34	1243.12
400.54	1228.78
400.75	1314.80
400.96	1294.32
401.17	1275.88
401.37	1282.03
401.58	1306.60
401.79	1191.92
402.00	1271.79
402.21	1230.83
402.41	1265.64
402.62	1243.12
402.83	1214.45
403.04	1314.80
403.24	1318.89
403.45	1232.88
403.66	1255.40
403.87	1193.97
404.07	1333.23
404.28	1292.27
404.49	1261.55
404.70	1312.75
404.90	1247.21
405.11	1265.64
405.32	1294.32
405.52	1239.02
405.73	1279.98
405.94	1236.97
406.15	1263.60
406.35	1251.31
406.56	1292.27
406.77	1302.51
406.98	1279.98
407.18	1267.69
407.39	1241.07
407.60	1318.89
407.80	1204.21
408.01	1282.03
408.22	1265.64
408.43	1247.21
408.63	1189.87
408.84	1325.04
409.05	1298.41
409.25	1206.25
409.46	1232.88
409.67	1183.73
409.88	1236.97
410.08	1243.12
410.29	1302.51
410.50	1302.51
410.70	1304.56
410.91	1236.97
411.12	1277.93
411.32	1220.59
411.53	1271.79
411.74	1191.92
411.95	1265.64
412.15	1247.21
412.36	1300.46
412.57	1300.46
412.77	1236.97
412.98	1294.32
413.19	1265.64
413.39	1312.75
413.60	1200.11
413.81	1282.03
414.01	1331.18
414.22	1230.83
414.43	1232.88
414.63	1241.07
414.84	1296.36
415.05	1286.12
415.25	1263.60
415.46	1288.17
415.67	1255.40
415.87	1261.55
416.08	1224.69
416.29	1265.64
416.49	1263.60
416.70	1224.69
416.91	1271.79
417.11	1312.75
417.32	1218.54
417.53	1185.77
417.73	1282.03
417.94	1253.36
418.15	1286.12
418.35	1255.40
418.56	1198.06
418.77	1308.65
418.97	1243.12
419.18	1304.56
419.38	1306.60
419.59	1245.16
419.80	1239.02
420.00	1261.55
420.21	1288.17
420.42	1226.73
420.62	1269.74
420.83	1257.45
421.04	1232.88
421.24	1228.78
421.45	1236.97
421.65	1261.55
421.86	1257.45
422.07	1239.02
422.27	1249.26
422.48	1200.11
422.69	1284.08
422.89	1333.23
423.10	1345.52
423.30	1296.36
423.51	1212.40
423.72	1200.11
423.92	1253.36
424.13	1277.93
424.33	1265.64
424.54	1249.26
424.75	1226.73
424.95	1320.94
425.16	1267.69
425.36	1335.28
425.57	1284.08
425.78	1234.93
425.98	1322.99
426.19	1243.12
426.39	1300.46
426.60	1277.93
426.81	1261.55
427.01	1249.26
427.22	1265.64
427.42	1247.21
427.63	1239.02
427.83	1302.51
428.04	1271.79
428.25	1226.73
428.45	1265.64
428.66	1310.70
428.86	1288.17
429.07	1257.45
429.28	1265.64
429.48	1265.64
429.69	1325.04
429.89	1300.46
430.10	1298.41
430.30	1255.40
430.51	1218.54
430.71	1267.69
430.92	1208.30
431.13	1259.50
431.33	1265.64
431.54	1294.32
431.74	1310.70
431.95	1255.40
432.15	1333.23
432.36	1236.97
432.56	1322.99
432.77	1267.69
432.98	1322.99
433.18	1329.13
433.39	1241.07
433.59	1196.01
433.80	1259.50
434.00	1335.28
434.21	1267.69
434.41	1261.55
434.62	1277.93
434.82	1267.69
435.03	1316.84
435.23	1234.93
435.44	1224.69
435.64	1228.78
435.85	1193.97
436.06	1241.07
436.26	1298.41
436.47	1300.46
436.67	1286.12
436.88	1255.40
437.08	1308.65
437.29	1251.31
437.49	1329.13
437.70	1273.84
437.90	1263.60
438.11	1298.41
438.31	1320.94
438.52	1220.59
438.72	1275.88
438.93	1298.41
439.13	1189.87
439.34	1263.60
439.54	1239.02
439.75	1273.84
439.95	1277.93
440.16	1261.55
440.36	1302.51
440.57	1292.27
440.77	1296.36
440.98	1271.79
441.18	1212.40
441.39	1320.94
441.59	1263.60
441.80	1284.08
442.00	1331.18
442.21	1298.41
442.41	1224.69
442.62	1241.07
442.82	1228.78
443.02	1308.65
443.23	1290.22
443.43	1251.31
443.64	1226.73
443.84	1259.50
444.05	1277.93
444.25	1308.65
444.46	1232.88
444.66	1314.80
444.87	1345.52
445.07	1257.45
445.28	1279.98
445.48	1374.19
445.69	1296.36
445.89	1322.99
446.09	1370.09
446.30	1253.36
446.50	1322.99
446.71	1255.40
446.91	1247.21
447.12	1236.97
447.32	1314.80
447.53	1243.12
447.73	1247.21
447.93	1302.51
448.14	1327.08
448.34	1341.42
448.55	1320.94
448.75	1282.03
448.96	1239.02
449.16	1269.74
449.36	1224.69
449.57	1304.56
449.77	1245.16
449.98	1314.80
450.18	1331.18
450.39	1255.40
450.59	1329.13
450.79	1288.17
451.00	1294.32
451.20	1265.64
451.41	1263.60
451.61	1306.60
451.81	1320.94
452.02	1245.16
452.22	1296.36
452.43	1253.36
452.63	1290.22
