SpectraSuite Data File
++++++++++++++++++++++++++++++++++++
Date: Sun Apr 03 19:55:15 CEST 2016
User: root
Dark Spectrum Present: No
Reference Spectrum Present: No
Number of Sampled Component Spectra: 1
Spectrometers: USB4C02835
Integration Time (usec): 10000 (USB4C02835)
Spectra Averaged: 1 (USB4C02835)
Boxcar Smoothing: 0 (USB4C02835)
Correct for Electrical Dark: No (USB4C02835)
Strobe/Lamp Enabled: No (USB4C02835)
Correct for Detector Non-linearity: No (USB4C02835)
Correct for Stray Light: No (USB4C02835)
Number of Pixels in Processed Spectrum: 3648
>>>>>Begin Processed Spectral Data<<<<<
177.47	1271.79
177.69	1271.79
177.91	1271.79
178.13	1261.55
178.36	1196.01
178.58	1236.97
178.80	1284.08
179.02	1265.64
179.24	1167.34
179.46	1273.84
179.68	1318.89
179.90	1259.50
180.13	1304.56
180.35	1277.93
180.57	1310.70
180.79	1296.36
181.01	1241.07
181.23	1267.69
181.45	1300.46
181.67	1302.51
181.90	1310.70
182.12	1247.21
182.34	1304.56
182.56	1271.79
182.78	1220.59
183.00	1294.32
183.22	1284.08
183.44	1335.28
183.66	1247.21
183.89	1206.25
184.11	1333.23
184.33	1335.28
184.55	1271.79
184.77	1187.82
184.99	1288.17
185.21	1175.53
185.43	1322.99
185.65	1251.31
185.87	1312.75
186.10	1265.64
186.32	1308.65
186.54	1255.40
186.76	1245.16
186.98	1257.45
187.20	1306.60
187.42	1228.78
187.64	1298.41
187.86	1261.55
188.08	1304.56
188.30	1243.12
188.52	1261.55
188.75	1193.97
188.97	1247.21
189.19	1206.25
189.41	1224.69
189.63	1230.83
189.85	1236.97
190.07	1325.04
190.29	1224.69
190.51	1312.75
190.73	1167.34
190.95	1210.35
191.17	1269.74
191.39	1224.69
191.61	1259.50
191.84	1302.51
192.06	1253.36
192.28	1224.69
192.50	1306.60
192.72	1265.64
192.94	1282.03
193.16	1214.45
193.38	1269.74
193.60	1232.88
193.82	1310.70
194.04	1296.36
194.26	1292.27
194.48	1261.55
194.70	1361.90
194.92	1251.31
195.14	1245.16
195.36	1228.78
195.58	1279.98
195.80	1253.36
196.02	1269.74
196.24	1105.90
196.46	1241.07
196.69	1290.22
196.91	1298.41
197.13	1314.80
197.35	1294.32
197.57	1234.93
197.79	1331.18
198.01	1304.56
198.23	1298.41
198.45	1251.31
198.67	1230.83
198.89	1357.80
199.11	1302.51
199.33	1210.35
199.55	1255.40
199.77	1318.89
199.99	1277.93
200.21	1230.83
200.43	1249.26
200.65	1245.16
200.87	1302.51
201.09	1372.14
201.31	1294.32
201.53	1243.12
201.75	1210.35
201.97	1290.22
202.19	1290.22
202.41	1261.55
202.63	1310.70
202.85	1267.69
203.07	1347.56
203.29	1255.40
203.51	1296.36
203.73	1275.88
203.95	1357.80
204.17	1296.36
204.39	1318.89
204.61	1347.56
204.83	1341.42
205.05	1271.79
205.27	1312.75
205.49	1271.79
205.71	1275.88
205.93	1261.55
206.15	1222.64
206.37	1232.88
206.59	1277.93
206.81	1236.97
207.03	1310.70
207.25	1253.36
207.47	1216.49
207.69	1318.89
207.91	1247.21
208.13	1234.93
208.34	1245.16
208.56	1257.45
208.78	1396.71
209.00	1206.25
209.22	1245.16
209.44	1277.93
209.66	1310.70
209.88	1337.32
210.10	1247.21
210.32	1208.30
210.54	1214.45
210.76	1212.40
210.98	1347.56
211.20	1247.21
211.42	1218.54
211.64	1304.56
211.86	1331.18
212.08	1255.40
212.30	1228.78
212.52	1271.79
212.74	1243.12
212.96	1286.12
213.17	1314.80
213.39	1288.17
213.61	1282.03
213.83	1290.22
214.05	1216.49
214.27	1171.44
214.49	1245.16
214.71	1277.93
214.93	1357.80
215.15	1257.45
215.37	1298.41
215.59	1273.84
215.81	1222.64
216.03	1243.12
216.24	1241.07
216.46	1308.65
216.68	1329.13
216.90	1296.36
217.12	1331.18
217.34	1286.12
217.56	1277.93
217.78	1218.54
218.00	1306.60
218.22	1251.31
218.44	1216.49
218.66	1249.26
218.87	1273.84
219.09	1282.03
219.31	1300.46
219.53	1269.74
219.75	1345.52
219.97	1298.41
220.19	1286.12
220.41	1290.22
220.63	1318.89
220.85	1236.97
221.06	1282.03
221.28	1234.93
221.50	1226.73
221.72	1220.59
221.94	1224.69
222.16	1247.21
222.38	1228.78
222.60	1243.12
222.82	1329.13
223.03	1177.58
223.25	1259.50
223.47	1316.84
223.69	1257.45
223.91	1249.26
224.13	1286.12
224.35	1253.36
224.57	1269.74
224.78	1286.12
225.00	1298.41
225.22	1249.26
225.44	1226.73
225.66	1329.13
225.88	1208.30
226.10	1232.88
226.32	1302.51
226.53	1331.18
226.75	1288.17
226.97	1290.22
227.19	1271.79
227.41	1312.75
227.63	1310.70
227.85	1286.12
228.06	1255.40
228.28	1292.27
228.50	1318.89
228.72	1220.59
228.94	1327.08
229.16	1302.51
229.37	1247.21
229.59	1304.56
229.81	1304.56
230.03	1275.88
230.25	1314.80
230.47	1249.26
230.69	1224.69
230.90	1265.64
231.12	1282.03
231.34	1261.55
231.56	1372.14
231.78	1288.17
232.00	1306.60
232.21	1273.84
232.43	1318.89
232.65	1236.97
232.87	1296.36
233.09	1208.30
233.30	1298.41
233.52	1222.64
233.74	1216.49
233.96	1200.11
234.18	1251.31
234.40	1220.59
234.61	1191.92
234.83	1273.84
235.05	1271.79
235.27	1282.03
235.49	1279.98
235.70	1241.07
235.92	1218.54
236.14	1277.93
236.36	1310.70
236.58	1282.03
236.79	1255.40
237.01	1228.78
237.23	1234.93
237.45	1298.41
237.67	1241.07
237.88	1208.30
238.10	1259.50
238.32	1277.93
238.54	1255.40
238.76	1277.93
238.97	1279.98
239.19	1232.88
239.41	1267.69
239.63	1314.80
239.85	1306.60
240.06	1228.78
240.28	1247.21
240.50	1257.45
240.72	1310.70
240.93	1230.83
241.15	1282.03
241.37	1282.03
241.59	1290.22
241.81	1208.30
242.02	1222.64
242.24	1230.83
242.46	1220.59
242.68	1265.64
242.89	1243.12
243.11	1351.66
243.33	1290.22
243.55	1241.07
243.76	1368.04
243.98	1361.90
244.20	1316.84
244.42	1282.03
244.64	1284.08
244.85	1202.16
245.07	1333.23
245.29	1261.55
245.51	1138.67
245.72	1245.16
245.94	1343.47
246.16	1296.36
246.38	1294.32
246.59	1290.22
246.81	1259.50
247.03	1236.97
247.24	1255.40
247.46	1220.59
247.68	1204.21
247.90	1243.12
248.11	1245.16
248.33	1277.93
248.55	1232.88
248.77	1294.32
248.98	1265.64
249.20	1257.45
249.42	1279.98
249.64	1300.46
249.85	1306.60
250.07	1314.80
250.29	1218.54
250.50	1308.65
250.72	1290.22
250.94	1210.35
251.16	1316.84
251.37	1269.74
251.59	1255.40
251.81	1247.21
252.02	1224.69
252.24	1325.04
252.46	1294.32
252.68	1263.60
252.89	1230.83
253.11	1251.31
253.33	1282.03
253.54	1312.75
253.76	1226.73
253.98	1236.97
254.20	1282.03
254.41	1191.92
254.63	1253.36
254.85	1300.46
255.06	1331.18
255.28	1361.90
255.50	1189.87
255.71	1261.55
255.93	1331.18
256.15	1343.47
256.36	1257.45
256.58	1312.75
256.80	1304.56
257.02	1294.32
257.23	1314.80
257.45	1288.17
257.67	1271.79
257.88	1320.94
258.10	1226.73
258.32	1265.64
258.53	1257.45
258.75	1257.45
258.97	1239.02
259.18	1226.73
259.40	1279.98
259.62	1288.17
259.83	1224.69
260.05	1212.40
260.27	1290.22
260.48	1263.60
260.70	1208.30
260.92	1259.50
261.13	1236.97
261.35	1253.36
261.57	1261.55
261.78	1277.93
262.00	1286.12
262.22	1181.68
262.43	1304.56
262.65	1224.69
262.86	1314.80
263.08	1265.64
263.30	1261.55
263.51	1183.73
263.73	1312.75
263.95	1271.79
264.16	1259.50
264.38	1210.35
264.60	1247.21
264.81	1267.69
265.03	1243.12
265.25	1327.08
265.46	1265.64
265.68	1294.32
265.89	1339.37
266.11	1277.93
266.33	1335.28
266.54	1304.56
266.76	1251.31
266.98	1300.46
267.19	1314.80
267.41	1310.70
267.62	1306.60
267.84	1349.61
268.06	1239.02
268.27	1249.26
268.49	1271.79
268.70	1351.66
268.92	1257.45
269.14	1290.22
269.35	1198.06
269.57	1314.80
269.79	1265.64
270.00	1185.77
270.22	1245.16
270.43	1208.30
270.65	1218.54
270.87	1243.12
271.08	1232.88
271.30	1191.92
271.51	1273.84
271.73	1296.36
271.95	1296.36
272.16	1282.03
272.38	1335.28
272.59	1314.80
272.81	1304.56
273.02	1294.32
273.24	1255.40
273.46	1298.41
273.67	1216.49
273.89	1253.36
274.10	1249.26
274.32	1273.84
274.54	1263.60
274.75	1290.22
274.97	1265.64
275.18	1284.08
275.40	1267.69
275.61	1294.32
275.83	1304.56
276.05	1259.50
276.26	1279.98
276.48	1261.55
276.69	1210.35
276.91	1306.60
277.12	1318.89
277.34	1279.98
277.55	1247.21
277.77	1292.27
277.99	1279.98
278.20	1263.60
278.42	1288.17
278.63	1208.30
278.85	1339.37
279.06	1267.69
279.28	1304.56
279.49	1325.04
279.71	1271.79
279.93	1288.17
280.14	1296.36
280.36	1241.07
280.57	1267.69
280.79	1343.47
281.00	1353.71
281.22	1179.63
281.43	1288.17
281.65	1232.88
281.86	1257.45
282.08	1216.49
282.29	1329.13
282.51	1230.83
282.73	1306.60
282.94	1245.16
283.16	1290.22
283.37	1304.56
283.59	1210.35
283.80	1290.22
284.02	1224.69
284.23	1208.30
284.45	1259.50
284.66	1239.02
284.88	1212.40
285.09	1255.40
285.31	1228.78
285.52	1286.12
285.74	1296.36
285.95	1259.50
286.17	1310.70
286.38	1216.49
286.60	1261.55
286.81	1239.02
287.03	1232.88
287.24	1300.46
287.46	1173.49
287.67	1282.03
287.89	1353.71
288.10	1302.51
288.32	1296.36
288.53	1327.08
288.75	1304.56
288.96	1282.03
289.18	1277.93
289.39	1271.79
289.61	1247.21
289.82	1243.12
290.04	1236.97
290.25	1253.36
290.47	1275.88
290.68	1261.55
290.90	1337.32
291.11	1284.08
291.33	1290.22
291.54	1255.40
291.76	1282.03
291.97	1341.42
292.18	1306.60
292.40	1179.63
292.61	1284.08
292.83	1245.16
293.04	1329.13
293.26	1302.51
293.47	1236.97
293.69	1277.93
293.90	1275.88
294.12	1212.40
294.33	1314.80
294.55	1212.40
294.76	1271.79
294.97	1337.32
295.19	1226.73
295.40	1318.89
295.62	1290.22
295.83	1267.69
296.05	1206.25
296.26	1222.64
296.48	1320.94
296.69	1310.70
296.90	1232.88
297.12	1310.70
297.33	1179.63
297.55	1265.64
297.76	1267.69
297.98	1187.82
298.19	1290.22
298.41	1302.51
298.62	1300.46
298.83	1302.51
299.05	1284.08
299.26	1288.17
299.48	1259.50
299.69	1273.84
299.90	1318.89
300.12	1310.70
300.33	1185.77
300.55	1234.93
300.76	1232.88
300.98	1245.16
301.19	1236.97
301.40	1288.17
301.62	1298.41
301.83	1255.40
302.05	1273.84
302.26	1236.97
302.47	1302.51
302.69	1173.49
302.90	1257.45
303.12	1249.26
303.33	1269.74
303.54	1314.80
303.76	1296.36
303.97	1292.27
304.19	1316.84
304.40	1275.88
304.61	1243.12
304.83	1290.22
305.04	1284.08
305.26	1312.75
305.47	1230.83
305.68	1181.68
305.90	1228.78
306.11	1273.84
306.33	1302.51
306.54	1316.84
306.75	1279.98
306.97	1294.32
307.18	1257.45
307.39	1224.69
307.61	1263.60
307.82	1261.55
308.04	1261.55
308.25	1288.17
308.46	1302.51
308.68	1171.44
308.89	1329.13
309.10	1261.55
309.32	1259.50
309.53	1298.41
309.74	1304.56
309.96	1236.97
310.17	1306.60
310.39	1279.98
310.60	1222.64
310.81	1230.83
311.03	1269.74
311.24	1329.13
311.45	1261.55
311.67	1339.37
311.88	1312.75
312.09	1269.74
312.31	1282.03
312.52	1263.60
312.73	1232.88
312.95	1341.42
313.16	1228.78
313.37	1243.12
313.59	1230.83
313.80	1308.65
314.01	1288.17
314.23	1314.80
314.44	1251.31
314.65	1259.50
314.87	1255.40
315.08	1273.84
315.29	1347.56
315.51	1257.45
315.72	1265.64
315.93	1292.27
316.15	1263.60
316.36	1212.40
316.57	1265.64
316.79	1259.50
317.00	1232.88
317.21	1261.55
317.43	1275.88
317.64	1255.40
317.85	1208.30
318.07	1277.93
318.28	1202.16
318.49	1247.21
318.70	1255.40
318.92	1222.64
319.13	1304.56
319.34	1294.32
319.56	1298.41
319.77	1218.54
319.98	1310.70
320.20	1302.51
320.41	1222.64
320.62	1275.88
320.83	1251.31
321.05	1306.60
321.26	1239.02
321.47	1269.74
321.69	1255.40
321.90	1269.74
322.11	1288.17
322.32	1333.23
322.54	1226.73
322.75	1327.08
322.96	1271.79
323.18	1253.36
323.39	1294.32
323.60	1243.12
323.81	1284.08
324.03	1265.64
324.24	1277.93
324.45	1249.26
324.66	1247.21
324.88	1355.76
325.09	1255.40
325.30	1228.78
325.52	1314.80
325.73	1257.45
325.94	1251.31
326.15	1269.74
326.37	1279.98
326.58	1251.31
326.79	1318.89
327.00	1316.84
327.22	1241.07
327.43	1202.16
327.64	1245.16
327.85	1284.08
328.07	1271.79
328.28	1294.32
328.49	1296.36
328.70	1228.78
328.92	1265.64
329.13	1259.50
329.34	1290.22
329.55	1308.65
329.76	1296.36
329.98	1310.70
330.19	1277.93
330.40	1249.26
330.61	1226.73
330.83	1234.93
331.04	1249.26
331.25	1353.71
331.46	1257.45
331.68	1263.60
331.89	1179.63
332.10	1239.02
332.31	1261.55
332.52	1253.36
332.74	1314.80
332.95	1243.12
333.16	1243.12
333.37	1277.93
333.58	1255.40
333.80	1271.79
334.01	1320.94
334.22	1273.84
334.43	1153.01
334.64	1243.12
334.86	1294.32
335.07	1269.74
335.28	1265.64
335.49	1290.22
335.70	1320.94
335.92	1263.60
336.13	1267.69
336.34	1290.22
336.55	1243.12
336.76	1247.21
336.98	1277.93
337.19	1214.45
337.40	1337.32
337.61	1269.74
337.82	1304.56
338.04	1296.36
338.25	1306.60
338.46	1200.11
338.67	1318.89
338.88	1273.84
339.09	1253.36
339.31	1298.41
339.52	1243.12
339.73	1222.64
339.94	1261.55
340.15	1333.23
340.36	1265.64
340.58	1220.59
340.79	1275.88
341.00	1226.73
341.21	1290.22
341.42	1230.83
341.63	1212.40
341.85	1241.07
342.06	1294.32
342.27	1335.28
342.48	1243.12
342.69	1193.97
342.90	1304.56
343.12	1300.46
343.33	1302.51
343.54	1331.18
343.75	1257.45
343.96	1304.56
344.17	1263.60
344.38	1232.88
344.60	1232.88
344.81	1288.17
345.02	1279.98
345.23	1325.04
345.44	1239.02
345.65	1298.41
345.86	1239.02
346.07	1273.84
346.29	1286.12
346.50	1239.02
346.71	1218.54
346.92	1208.30
347.13	1284.08
347.34	1271.79
347.55	1288.17
347.76	1243.12
347.98	1206.25
348.19	1284.08
348.40	1234.93
348.61	1273.84
348.82	1286.12
349.03	1269.74
349.24	1300.46
349.45	1294.32
349.66	1290.22
349.88	1282.03
350.09	1325.04
350.30	1318.89
350.51	1234.93
350.72	1277.93
350.93	1218.54
351.14	1288.17
351.35	1253.36
351.56	1249.26
351.77	1275.88
351.99	1320.94
352.20	1265.64
352.41	1249.26
352.62	1245.16
352.83	1292.27
353.04	1290.22
353.25	1191.92
353.46	1322.99
353.67	1292.27
353.88	1322.99
354.09	1232.88
354.30	1312.75
354.52	1257.45
354.73	1247.21
354.94	1310.70
355.15	1282.03
355.36	1226.73
355.57	1263.60
355.78	1239.02
355.99	1259.50
356.20	1261.55
356.41	1302.51
356.62	1261.55
356.83	1216.49
357.04	1308.65
357.25	1294.32
357.46	1210.35
357.68	1290.22
357.89	1181.68
358.10	1236.97
358.31	1335.28
358.52	1298.41
358.73	1265.64
358.94	1302.51
359.15	1247.21
359.36	1241.07
359.57	1265.64
359.78	1322.99
359.99	1314.80
360.20	1234.93
360.41	1298.41
360.62	1294.32
360.83	1300.46
361.04	1200.11
361.25	1288.17
361.46	1259.50
361.67	1247.21
361.88	1255.40
362.09	1304.56
362.30	1277.93
362.51	1226.73
362.72	1341.42
362.93	1306.60
363.14	1259.50
363.35	1269.74
363.56	1296.36
363.78	1261.55
363.99	1269.74
364.20	1275.88
364.41	1316.84
364.62	1241.07
364.83	1322.99
365.04	1210.35
365.25	1300.46
365.46	1331.18
365.67	1304.56
365.88	1241.07
366.09	1247.21
366.30	1249.26
366.51	1255.40
366.72	1265.64
366.93	1286.12
367.14	1288.17
367.35	1257.45
367.56	1337.32
367.77	1294.32
367.98	1294.32
368.18	1271.79
368.39	1355.76
368.60	1257.45
368.81	1257.45
369.02	1239.02
369.23	1275.88
369.44	1245.16
369.65	1251.31
369.86	1302.51
370.07	1259.50
370.28	1247.21
370.49	1249.26
370.70	1282.03
370.91	1279.98
371.12	1200.11
371.33	1310.70
371.54	1290.22
371.75	1335.28
371.96	1263.60
372.17	1265.64
372.38	1251.31
372.59	1253.36
372.80	1306.60
373.01	1259.50
373.22	1245.16
373.43	1249.26
373.64	1296.36
373.85	1257.45
374.06	1282.03
374.26	1253.36
374.47	1312.75
374.68	1181.68
374.89	1277.93
375.10	1241.07
375.31	1249.26
375.52	1212.40
375.73	1302.51
375.94	1269.74
376.15	1220.59
376.36	1249.26
376.57	1245.16
376.78	1236.97
376.99	1265.64
377.20	1327.08
377.40	1318.89
377.61	1298.41
377.82	1208.30
378.03	1296.36
378.24	1249.26
378.45	1304.56
378.66	1245.16
378.87	1269.74
379.08	1259.50
379.29	1179.63
379.50	1263.60
379.71	1216.49
379.91	1327.08
380.12	1247.21
380.33	1314.80
380.54	1234.93
380.75	1316.84
380.96	1298.41
381.17	1320.94
381.38	1279.98
381.59	1304.56
381.80	1269.74
382.00	1269.74
382.21	1177.58
382.42	1316.84
382.63	1271.79
382.84	1216.49
383.05	1255.40
383.26	1269.74
383.47	1282.03
383.68	1292.27
383.88	1288.17
384.09	1134.57
384.30	1241.07
384.51	1269.74
384.72	1243.12
384.93	1198.06
385.14	1261.55
385.35	1292.27
385.55	1304.56
385.76	1269.74
385.97	1230.83
386.18	1320.94
386.39	1247.21
386.60	1198.06
386.81	1253.36
387.02	1220.59
387.22	1257.45
387.43	1325.04
387.64	1312.75
387.85	1327.08
388.06	1269.74
388.27	1310.70
388.48	1228.78
388.68	1200.11
388.89	1294.32
389.10	1296.36
389.31	1212.40
389.52	1267.69
389.73	1228.78
389.93	1327.08
390.14	1314.80
390.35	1302.51
390.56	1282.03
390.77	1263.60
390.98	1335.28
391.18	1284.08
391.39	1265.64
391.60	1277.93
391.81	1275.88
392.02	1271.79
392.23	1251.31
392.43	1200.11
392.64	1179.63
392.85	1296.36
393.06	1230.83
393.27	1249.26
393.47	1224.69
393.68	1243.12
393.89	1259.50
394.10	1284.08
394.31	1241.07
394.52	1255.40
394.72	1292.27
394.93	1251.31
395.14	1245.16
395.35	1204.21
395.56	1290.22
395.76	1232.88
395.97	1277.93
396.18	1277.93
396.39	1208.30
396.60	1271.79
396.80	1318.89
397.01	1304.56
397.22	1269.74
397.43	1294.32
397.64	1232.88
397.84	1302.51
398.05	1302.51
398.26	1339.37
398.47	1257.45
398.67	1265.64
398.88	1286.12
399.09	1251.31
399.30	1279.98
399.51	1277.93
399.71	1257.45
399.92	1300.46
400.13	1277.93
400.34	1275.88
400.54	1265.64
400.75	1290.22
400.96	1265.64
401.17	1241.07
401.37	1216.49
401.58	1236.97
401.79	1218.54
402.00	1269.74
402.21	1284.08
402.41	1263.60
402.62	1245.16
402.83	1318.89
403.04	1216.49
403.24	1241.07
403.45	1230.83
403.66	1294.32
403.87	1302.51
404.07	1312.75
404.28	1206.25
404.49	1206.25
404.70	1304.56
404.90	1298.41
405.11	1241.07
405.32	1226.73
405.52	1253.36
405.73	1306.60
405.94	1263.60
406.15	1335.28
406.35	1277.93
406.56	1214.45
406.77	1327.08
406.98	1308.65
407.18	1290.22
407.39	1310.70
407.60	1314.80
407.80	1271.79
408.01	1286.12
408.22	1210.35
408.43	1322.99
408.63	1304.56
408.84	1224.69
409.05	1198.06
409.25	1249.26
409.46	1198.06
409.67	1239.02
409.88	1173.49
410.08	1253.36
410.29	1277.93
410.50	1245.16
410.70	1325.04
410.91	1232.88
411.12	1234.93
411.32	1288.17
411.53	1298.41
411.74	1288.17
411.95	1312.75
412.15	1298.41
412.36	1261.55
412.57	1318.89
412.77	1286.12
412.98	1310.70
413.19	1300.46
413.39	1302.51
413.60	1269.74
413.81	1308.65
414.01	1247.21
414.22	1275.88
414.43	1322.99
414.63	1193.97
414.84	1308.65
415.05	1316.84
415.25	1318.89
415.46	1208.30
415.67	1232.88
415.87	1314.80
416.08	1290.22
416.29	1277.93
416.49	1277.93
416.70	1273.84
416.91	1236.97
417.11	1290.22
417.32	1265.64
417.53	1245.16
417.73	1292.27
417.94	1200.11
418.15	1279.98
418.35	1353.71
418.56	1314.80
418.77	1282.03
418.97	1216.49
419.18	1290.22
419.38	1175.53
419.59	1249.26
419.80	1224.69
420.00	1320.94
420.21	1271.79
420.42	1310.70
420.62	1314.80
420.83	1296.36
421.04	1292.27
421.24	1212.40
421.45	1277.93
421.65	1243.12
421.86	1275.88
422.07	1226.73
422.27	1251.31
422.48	1232.88
422.69	1267.69
422.89	1288.17
423.10	1216.49
423.30	1273.84
423.51	1202.16
423.72	1214.45
423.92	1259.50
424.13	1292.27
424.33	1271.79
424.54	1214.45
424.75	1267.69
424.95	1261.55
425.16	1282.03
425.36	1300.46
425.57	1306.60
425.78	1306.60
425.98	1257.45
426.19	1296.36
426.39	1277.93
426.60	1298.41
426.81	1322.99
427.01	1277.93
427.22	1314.80
427.42	1286.12
427.63	1245.16
427.83	1222.64
428.04	1294.32
428.25	1204.21
428.45	1335.28
428.66	1218.54
428.86	1304.56
429.07	1302.51
429.28	1257.45
429.48	1277.93
429.69	1249.26
429.89	1294.32
430.10	1257.45
430.30	1269.74
430.51	1302.51
430.71	1234.93
430.92	1290.22
431.13	1271.79
431.33	1296.36
431.54	1271.79
431.74	1232.88
431.95	1206.25
432.15	1310.70
432.36	1179.63
432.56	1265.64
432.77	1222.64
432.98	1241.07
433.18	1322.99
433.39	1249.26
433.59	1220.59
433.80	1306.60
434.00	1355.76
434.21	1253.36
434.41	1290.22
434.62	1351.66
434.82	1279.98
435.03	1304.56
435.23	1316.84
435.44	1282.03
435.64	1325.04
435.85	1282.03
436.06	1241.07
436.26	1228.78
436.47	1284.08
436.67	1292.27
436.88	1308.65
437.08	1249.26
437.29	1269.74
437.49	1269.74
437.70	1277.93
437.90	1290.22
438.11	1271.79
438.31	1269.74
438.52	1306.60
438.72	1249.26
438.93	1214.45
439.13	1230.83
439.34	1259.50
439.54	1255.40
439.75	1288.17
439.95	1224.69
440.16	1277.93
440.36	1288.17
440.57	1251.31
440.77	1298.41
440.98	1257.45
441.18	1265.64
441.39	1322.99
441.59	1329.13
441.80	1216.49
442.00	1282.03
442.21	1257.45
442.41	1245.16
442.62	1271.79
442.82	1263.60
443.02	1279.98
443.23	1316.84
443.43	1267.69
443.64	1286.12
443.84	1302.51
444.05	1257.45
444.25	1228.78
444.46	1239.02
444.66	1314.80
444.87	1320.94
445.07	1314.80
445.28	1370.09
445.48	1339.37
445.69	1302.51
445.89	1279.98
446.09	1253.36
446.30	1267.69
446.50	1208.30
446.71	1277.93
446.91	1243.12
447.12	1316.84
447.32	1267.69
447.53	1322.99
447.73	1294.32
447.93	1239.02
448.14	1222.64
448.34	1318.89
448.55	1263.60
448.75	1271.79
448.96	1290.22
449.16	1277.93
449.36	1296.36
449.57	1308.65
449.77	1327.08
449.98	1271.79
450.18	1331.18
450.39	1292.27
450.59	1275.88
450.79	1325.04
451.00	1286.12
451.20	1282.03
451.41	1314.80
451.61	1296.36
451.81	1249.26
452.02	1226.73
452.22	1329.13
452.43	1306.60
452.63	1267.69
