SpectraSuite Data File
++++++++++++++++++++++++++++++++++++
Date: Sun Apr 03 19:55:43 CEST 2016
User: root
Dark Spectrum Present: No
Reference Spectrum Present: No
Number of Sampled Component Spectra: 1
Spectrometers: USB4C02835
Integration Time (usec): 10000 (USB4C02835)
Spectra Averaged: 1 (USB4C02835)
Boxcar Smoothing: 0 (USB4C02835)
Correct for Electrical Dark: No (USB4C02835)
Strobe/Lamp Enabled: No (USB4C02835)
Correct for Detector Non-linearity: No (USB4C02835)
Correct for Stray Light: No (USB4C02835)
Number of Pixels in Processed Spectrum: 3648
>>>>>Begin Processed Spectral Data<<<<<
177.47	1243.12
177.69	1243.12
177.91	1243.12
178.13	1263.60
178.36	1245.16
178.58	1294.32
178.80	1265.64
179.02	1253.36
179.24	1198.06
179.46	1290.22
179.68	1265.64
179.90	1247.21
180.13	1300.46
180.35	1277.93
180.57	1290.22
180.79	1292.27
181.01	1249.26
181.23	1284.08
181.45	1345.52
181.67	1234.93
181.90	1249.26
182.12	1214.45
182.34	1224.69
182.56	1347.56
182.78	1189.87
183.00	1249.26
183.22	1327.08
183.44	1228.78
183.66	1210.35
183.89	1286.12
184.11	1302.51
184.33	1269.74
184.55	1296.36
184.77	1329.13
184.99	1261.55
185.21	1271.79
185.43	1251.31
185.65	1337.32
185.87	1230.83
186.10	1292.27
186.32	1208.30
186.54	1216.49
186.76	1261.55
186.98	1226.73
187.20	1286.12
187.42	1249.26
187.64	1361.90
187.86	1359.85
188.08	1329.13
188.30	1245.16
188.52	1325.04
188.75	1169.39
188.97	1239.02
189.19	1228.78
189.41	1239.02
189.63	1279.98
189.85	1243.12
190.07	1277.93
190.29	1218.54
190.51	1277.93
190.73	1314.80
190.95	1261.55
191.17	1290.22
191.39	1243.12
191.61	1271.79
191.84	1282.03
192.06	1212.40
192.28	1218.54
192.50	1249.26
192.72	1294.32
192.94	1273.84
193.16	1267.69
193.38	1290.22
193.60	1288.17
193.82	1296.36
194.04	1331.18
194.26	1259.50
194.48	1302.51
194.70	1236.97
194.92	1267.69
195.14	1282.03
195.36	1249.26
195.58	1320.94
195.80	1226.73
196.02	1302.51
196.24	1255.40
196.46	1325.04
196.69	1284.08
196.91	1306.60
197.13	1253.36
197.35	1306.60
197.57	1202.16
197.79	1322.99
198.01	1263.60
198.23	1265.64
198.45	1306.60
198.67	1241.07
198.89	1253.36
199.11	1208.30
199.33	1249.26
199.55	1345.52
199.77	1261.55
199.99	1269.74
200.21	1239.02
200.43	1239.02
200.65	1282.03
200.87	1302.51
201.09	1288.17
201.31	1304.56
201.53	1331.18
201.75	1296.36
201.97	1284.08
202.19	1329.13
202.41	1253.36
202.63	1251.31
202.85	1263.60
203.07	1275.88
203.29	1183.73
203.51	1294.32
203.73	1261.55
203.95	1279.98
204.17	1241.07
204.39	1210.35
204.61	1302.51
204.83	1288.17
205.05	1167.34
205.27	1239.02
205.49	1224.69
205.71	1198.06
205.93	1314.80
206.15	1239.02
206.37	1314.80
206.59	1271.79
206.81	1271.79
207.03	1226.73
207.25	1279.98
207.47	1267.69
207.69	1267.69
207.91	1191.92
208.13	1228.78
208.34	1310.70
208.56	1251.31
208.78	1345.52
209.00	1200.11
209.22	1265.64
209.44	1302.51
209.66	1292.27
209.88	1265.64
210.10	1226.73
210.32	1302.51
210.54	1300.46
210.76	1284.08
210.98	1214.45
211.20	1267.69
211.42	1302.51
211.64	1286.12
211.86	1318.89
212.08	1236.97
212.30	1294.32
212.52	1320.94
212.74	1279.98
212.96	1173.49
213.17	1308.65
213.39	1304.56
213.61	1249.26
213.83	1259.50
214.05	1216.49
214.27	1292.27
214.49	1271.79
214.71	1288.17
214.93	1314.80
215.15	1294.32
215.37	1306.60
215.59	1269.74
215.81	1255.40
216.03	1234.93
216.24	1269.74
216.46	1282.03
216.68	1218.54
216.90	1292.27
217.12	1247.21
217.34	1265.64
217.56	1277.93
217.78	1322.99
218.00	1298.41
218.22	1277.93
218.44	1271.79
218.66	1271.79
218.87	1255.40
219.09	1208.30
219.31	1308.65
219.53	1279.98
219.75	1253.36
219.97	1251.31
220.19	1210.35
220.41	1210.35
220.63	1247.21
220.85	1329.13
221.06	1335.28
221.28	1236.97
221.50	1159.15
221.72	1259.50
221.94	1247.21
222.16	1273.84
222.38	1230.83
222.60	1241.07
222.82	1273.84
223.03	1224.69
223.25	1288.17
223.47	1222.64
223.69	1286.12
223.91	1308.65
224.13	1378.28
224.35	1290.22
224.57	1327.08
224.78	1259.50
225.00	1234.93
225.22	1273.84
225.44	1222.64
225.66	1306.60
225.88	1218.54
226.10	1255.40
226.32	1269.74
226.53	1183.73
226.75	1312.75
226.97	1226.73
227.19	1282.03
227.41	1249.26
227.63	1251.31
227.85	1261.55
228.06	1247.21
228.28	1236.97
228.50	1327.08
228.72	1331.18
228.94	1255.40
229.16	1257.45
229.37	1226.73
229.59	1271.79
229.81	1175.53
230.03	1177.58
230.25	1292.27
230.47	1214.45
230.69	1277.93
230.90	1210.35
231.12	1208.30
231.34	1236.97
231.56	1261.55
231.78	1230.83
232.00	1271.79
232.21	1312.75
232.43	1290.22
232.65	1253.36
232.87	1363.95
233.09	1316.84
233.30	1198.06
233.52	1357.80
233.74	1257.45
233.96	1273.84
234.18	1261.55
234.40	1275.88
234.61	1306.60
234.83	1222.64
235.05	1251.31
235.27	1232.88
235.49	1257.45
235.70	1245.16
235.92	1329.13
236.14	1234.93
236.36	1282.03
236.58	1267.69
236.79	1222.64
237.01	1273.84
237.23	1277.93
237.45	1247.21
237.67	1220.59
237.88	1314.80
238.10	1296.36
238.32	1255.40
238.54	1312.75
238.76	1253.36
238.97	1241.07
239.19	1284.08
239.41	1249.26
239.63	1218.54
239.85	1306.60
240.06	1279.98
240.28	1282.03
240.50	1210.35
240.72	1253.36
240.93	1212.40
241.15	1292.27
241.37	1206.25
241.59	1245.16
241.81	1239.02
242.02	1236.97
242.24	1257.45
242.46	1263.60
242.68	1263.60
242.89	1298.41
243.11	1241.07
243.33	1228.78
243.55	1228.78
243.76	1224.69
243.98	1245.16
244.20	1345.52
244.42	1273.84
244.64	1286.12
244.85	1277.93
245.07	1261.55
245.29	1335.28
245.51	1265.64
245.72	1329.13
245.94	1271.79
246.16	1251.31
246.38	1189.87
246.59	1269.74
246.81	1290.22
247.03	1302.51
247.24	1261.55
247.46	1263.60
247.68	1312.75
247.90	1273.84
248.11	1318.89
248.33	1298.41
248.55	1331.18
248.77	1196.01
248.98	1259.50
249.20	1247.21
249.42	1302.51
249.64	1251.31
249.85	1271.79
250.07	1218.54
250.29	1232.88
250.50	1241.07
250.72	1222.64
250.94	1286.12
251.16	1314.80
251.37	1191.92
251.59	1304.56
251.81	1183.73
252.02	1269.74
252.24	1275.88
252.46	1296.36
252.68	1261.55
252.89	1310.70
253.11	1273.84
253.33	1269.74
253.54	1245.16
253.76	1271.79
253.98	1247.21
254.20	1304.56
254.41	1210.35
254.63	1261.55
254.85	1234.93
255.06	1302.51
255.28	1253.36
255.50	1263.60
255.71	1269.74
255.93	1261.55
256.15	1226.73
256.36	1263.60
256.58	1294.32
256.80	1290.22
257.02	1255.40
257.23	1339.37
257.45	1294.32
257.67	1275.88
257.88	1228.78
258.10	1290.22
258.32	1218.54
258.53	1234.93
258.75	1247.21
258.97	1253.36
259.18	1282.03
259.40	1290.22
259.62	1345.52
259.83	1267.69
260.05	1314.80
260.27	1345.52
260.48	1286.12
260.70	1249.26
260.92	1245.16
261.13	1312.75
261.35	1271.79
261.57	1314.80
261.78	1222.64
262.00	1212.40
262.22	1241.07
262.43	1304.56
262.65	1259.50
262.86	1224.69
263.08	1247.21
263.30	1255.40
263.51	1261.55
263.73	1200.11
263.95	1257.45
264.16	1216.49
264.38	1230.83
264.60	1310.70
264.81	1236.97
265.03	1271.79
265.25	1226.73
265.46	1286.12
265.68	1341.42
265.89	1292.27
266.11	1253.36
266.33	1296.36
266.54	1296.36
266.76	1269.74
266.98	1359.85
267.19	1263.60
267.41	1363.95
267.62	1175.53
267.84	1279.98
268.06	1241.07
268.27	1310.70
268.49	1271.79
268.70	1325.04
268.92	1261.55
269.14	1265.64
269.35	1218.54
269.57	1230.83
269.79	1183.73
270.00	1329.13
270.22	1312.75
270.43	1226.73
270.65	1232.88
270.87	1239.02
271.08	1277.93
271.30	1173.49
271.51	1284.08
271.73	1304.56
271.95	1318.89
272.16	1263.60
272.38	1322.99
272.59	1310.70
272.81	1230.83
273.02	1224.69
273.24	1279.98
273.46	1376.24
273.67	1286.12
273.89	1345.52
274.10	1298.41
274.32	1308.65
274.54	1271.79
274.75	1273.84
274.97	1290.22
275.18	1245.16
275.40	1234.93
275.61	1277.93
275.83	1175.53
276.05	1288.17
276.26	1210.35
276.48	1243.12
276.69	1259.50
276.91	1312.75
277.12	1277.93
277.34	1202.16
277.55	1253.36
277.77	1337.32
277.99	1269.74
278.20	1251.31
278.42	1247.21
278.63	1241.07
278.85	1245.16
279.06	1306.60
279.28	1269.74
279.49	1259.50
279.71	1273.84
279.93	1267.69
280.14	1312.75
280.36	1271.79
280.57	1247.21
280.79	1314.80
281.00	1255.40
281.22	1296.36
281.43	1263.60
281.65	1259.50
281.86	1216.49
282.08	1249.26
282.29	1292.27
282.51	1179.63
282.73	1300.46
282.94	1267.69
283.16	1320.94
283.37	1273.84
283.59	1265.64
283.80	1255.40
284.02	1230.83
284.23	1288.17
284.45	1288.17
284.66	1286.12
284.88	1325.04
285.09	1279.98
285.31	1253.36
285.52	1312.75
285.74	1351.66
285.95	1255.40
286.17	1298.41
286.38	1191.92
286.60	1206.25
286.81	1261.55
287.03	1255.40
287.24	1308.65
287.46	1312.75
287.67	1282.03
287.89	1251.31
288.10	1257.45
288.32	1282.03
288.53	1269.74
288.75	1247.21
288.96	1241.07
289.18	1259.50
289.39	1271.79
289.61	1269.74
289.82	1247.21
290.04	1300.46
290.25	1214.45
290.47	1312.75
290.68	1251.31
290.90	1325.04
291.11	1275.88
291.33	1255.40
291.54	1267.69
291.76	1267.69
291.97	1265.64
292.18	1320.94
292.40	1259.50
292.61	1273.84
292.83	1357.80
293.04	1347.56
293.26	1288.17
293.47	1216.49
293.69	1167.34
293.90	1255.40
294.12	1263.60
294.33	1277.93
294.55	1263.60
294.76	1228.78
294.97	1290.22
295.19	1243.12
295.40	1263.60
295.62	1292.27
295.83	1282.03
296.05	1212.40
296.26	1300.46
296.48	1282.03
296.69	1251.31
296.90	1247.21
297.12	1339.37
297.33	1232.88
297.55	1247.21
297.76	1290.22
297.98	1296.36
298.19	1173.49
298.41	1341.42
298.62	1224.69
298.83	1284.08
299.05	1269.74
299.26	1304.56
299.48	1290.22
299.69	1243.12
299.90	1308.65
300.12	1288.17
300.33	1282.03
300.55	1290.22
300.76	1288.17
300.98	1335.28
301.19	1333.23
301.40	1257.45
301.62	1288.17
301.83	1230.83
302.05	1300.46
302.26	1216.49
302.47	1347.56
302.69	1224.69
302.90	1302.51
303.12	1226.73
303.33	1208.30
303.54	1279.98
303.76	1286.12
303.97	1269.74
304.19	1325.04
304.40	1366.00
304.61	1271.79
304.83	1247.21
305.04	1355.76
305.26	1251.31
305.47	1271.79
305.68	1253.36
305.90	1247.21
306.11	1253.36
306.33	1296.36
306.54	1329.13
306.75	1279.98
306.97	1267.69
307.18	1232.88
307.39	1292.27
307.61	1294.32
307.82	1310.70
308.04	1267.69
308.25	1202.16
308.46	1220.59
308.68	1282.03
308.89	1243.12
309.10	1245.16
309.32	1296.36
309.53	1234.93
309.74	1320.94
309.96	1290.22
310.17	1261.55
310.39	1286.12
310.60	1284.08
310.81	1304.56
311.03	1306.60
311.24	1257.45
311.45	1232.88
311.67	1282.03
311.88	1314.80
312.09	1226.73
312.31	1185.77
312.52	1320.94
312.73	1286.12
312.95	1290.22
313.16	1310.70
313.37	1257.45
313.59	1241.07
313.80	1249.26
314.01	1222.64
314.23	1224.69
314.44	1247.21
314.65	1228.78
314.87	1265.64
315.08	1279.98
315.29	1337.32
315.51	1335.28
315.72	1271.79
315.93	1314.80
316.15	1257.45
316.36	1249.26
316.57	1247.21
316.79	1230.83
317.00	1249.26
317.21	1286.12
317.43	1226.73
317.64	1267.69
317.85	1243.12
318.07	1320.94
318.28	1193.97
318.49	1239.02
318.70	1241.07
318.92	1273.84
319.13	1298.41
319.34	1249.26
319.56	1243.12
319.77	1261.55
319.98	1241.07
320.20	1286.12
320.41	1204.21
320.62	1257.45
320.83	1304.56
321.05	1320.94
321.26	1312.75
321.47	1290.22
321.69	1259.50
321.90	1161.20
322.11	1267.69
322.32	1333.23
322.54	1294.32
322.75	1263.60
322.96	1284.08
323.18	1228.78
323.39	1279.98
323.60	1273.84
323.81	1261.55
324.03	1269.74
324.24	1292.27
324.45	1232.88
324.66	1222.64
324.88	1247.21
325.09	1318.89
325.30	1241.07
325.52	1282.03
325.73	1191.92
325.94	1230.83
326.15	1277.93
326.37	1239.02
326.58	1263.60
326.79	1318.89
327.00	1173.49
327.22	1261.55
327.43	1204.21
327.64	1275.88
327.85	1249.26
328.07	1243.12
328.28	1296.36
328.49	1230.83
328.70	1257.45
328.92	1308.65
329.13	1263.60
329.34	1318.89
329.55	1255.40
329.76	1347.56
329.98	1294.32
330.19	1273.84
330.40	1255.40
330.61	1267.69
330.83	1277.93
331.04	1220.59
331.25	1273.84
331.46	1210.35
331.68	1198.06
331.89	1214.45
332.10	1286.12
332.31	1255.40
332.52	1286.12
332.74	1275.88
332.95	1253.36
333.16	1261.55
333.37	1316.84
333.58	1239.02
333.80	1245.16
334.01	1236.97
334.22	1216.49
334.43	1261.55
334.64	1218.54
334.86	1267.69
335.07	1220.59
335.28	1234.93
335.49	1253.36
335.70	1247.21
335.92	1298.41
336.13	1255.40
336.34	1249.26
336.55	1306.60
336.76	1284.08
336.98	1310.70
337.19	1300.46
337.40	1339.37
337.61	1245.16
337.82	1224.69
338.04	1341.42
338.25	1261.55
338.46	1157.10
338.67	1273.84
338.88	1236.97
339.09	1298.41
339.31	1198.06
339.52	1341.42
339.73	1236.97
339.94	1249.26
340.15	1239.02
340.36	1306.60
340.58	1320.94
340.79	1273.84
341.00	1310.70
341.21	1239.02
341.42	1249.26
341.63	1288.17
341.85	1255.40
342.06	1267.69
342.27	1216.49
342.48	1257.45
342.69	1241.07
342.90	1222.64
343.12	1204.21
343.33	1277.93
343.54	1259.50
343.75	1277.93
343.96	1261.55
344.17	1245.16
344.38	1216.49
344.60	1232.88
344.81	1261.55
345.02	1265.64
345.23	1243.12
345.44	1327.08
345.65	1210.35
345.86	1226.73
346.07	1308.65
346.29	1253.36
346.50	1288.17
346.71	1314.80
346.92	1322.99
347.13	1245.16
347.34	1261.55
347.55	1325.04
347.76	1292.27
347.98	1214.45
348.19	1308.65
348.40	1279.98
348.61	1232.88
348.82	1279.98
349.03	1370.09
349.24	1275.88
349.45	1331.18
349.66	1269.74
349.88	1263.60
350.09	1153.01
350.30	1304.56
350.51	1249.26
350.72	1339.37
350.93	1269.74
351.14	1288.17
351.35	1259.50
351.56	1282.03
351.77	1335.28
351.99	1355.76
352.20	1339.37
352.41	1296.36
352.62	1222.64
352.83	1226.73
353.04	1316.84
353.25	1183.73
353.46	1263.60
353.67	1251.31
353.88	1290.22
354.09	1251.31
354.30	1249.26
354.52	1298.41
354.73	1310.70
354.94	1257.45
355.15	1296.36
355.36	1302.51
355.57	1339.37
355.78	1267.69
355.99	1230.83
356.20	1263.60
356.41	1239.02
356.62	1353.71
356.83	1269.74
357.04	1243.12
357.25	1290.22
357.46	1247.21
357.68	1316.84
357.89	1329.13
358.10	1273.84
358.31	1294.32
358.52	1218.54
358.73	1251.31
358.94	1220.59
359.15	1247.21
359.36	1212.40
359.57	1298.41
359.78	1267.69
359.99	1320.94
360.20	1279.98
360.41	1288.17
360.62	1292.27
360.83	1232.88
361.04	1374.19
361.25	1234.93
361.46	1269.74
361.67	1306.60
361.88	1243.12
362.09	1302.51
362.30	1288.17
362.51	1245.16
362.72	1177.58
362.93	1298.41
363.14	1239.02
363.35	1318.89
363.56	1273.84
363.78	1288.17
363.99	1234.93
364.20	1290.22
364.41	1159.15
364.62	1292.27
364.83	1277.93
365.04	1269.74
365.25	1314.80
365.46	1253.36
365.67	1294.32
365.88	1269.74
366.09	1277.93
366.30	1302.51
366.51	1275.88
366.72	1318.89
366.93	1245.16
367.14	1196.01
367.35	1361.90
367.56	1279.98
367.77	1267.69
367.98	1245.16
368.18	1265.64
368.39	1228.78
368.60	1245.16
368.81	1275.88
369.02	1292.27
369.23	1290.22
369.44	1245.16
369.65	1273.84
369.86	1302.51
370.07	1286.12
370.28	1228.78
370.49	1251.31
370.70	1249.26
370.91	1273.84
371.12	1263.60
371.33	1267.69
371.54	1308.65
371.75	1314.80
371.96	1239.02
372.17	1259.50
372.38	1226.73
372.59	1308.65
372.80	1261.55
373.01	1206.25
373.22	1302.51
373.43	1200.11
373.64	1259.50
373.85	1228.78
374.06	1251.31
374.26	1263.60
374.47	1247.21
374.68	1224.69
374.89	1245.16
375.10	1253.36
375.31	1255.40
375.52	1245.16
375.73	1220.59
375.94	1220.59
376.15	1273.84
376.36	1222.64
376.57	1212.40
376.78	1179.63
376.99	1337.32
377.20	1282.03
377.40	1245.16
377.61	1308.65
377.82	1265.64
378.03	1302.51
378.24	1249.26
378.45	1345.52
378.66	1275.88
378.87	1198.06
379.08	1277.93
379.29	1316.84
379.50	1249.26
379.71	1304.56
379.91	1282.03
380.12	1222.64
380.33	1279.98
380.54	1204.21
380.75	1257.45
380.96	1267.69
381.17	1224.69
381.38	1251.31
381.59	1265.64
381.80	1234.93
382.00	1298.41
382.21	1243.12
382.42	1298.41
382.63	1247.21
382.84	1298.41
383.05	1232.88
383.26	1226.73
383.47	1222.64
383.68	1279.98
383.88	1263.60
384.09	1243.12
384.30	1251.31
384.51	1232.88
384.72	1277.93
384.93	1216.49
385.14	1284.08
385.35	1228.78
385.55	1263.60
385.76	1296.36
385.97	1220.59
386.18	1210.35
386.39	1298.41
386.60	1318.89
386.81	1261.55
387.02	1249.26
387.22	1222.64
387.43	1241.07
387.64	1335.28
387.85	1273.84
388.06	1265.64
388.27	1228.78
388.48	1230.83
388.68	1304.56
388.89	1271.79
389.10	1230.83
389.31	1312.75
389.52	1273.84
389.73	1251.31
389.93	1306.60
390.14	1320.94
390.35	1284.08
390.56	1236.97
390.77	1208.30
390.98	1255.40
391.18	1294.32
391.39	1300.46
391.60	1257.45
391.81	1228.78
392.02	1206.25
392.23	1288.17
392.43	1279.98
392.64	1261.55
392.85	1241.07
393.06	1257.45
393.27	1265.64
393.47	1275.88
393.68	1294.32
393.89	1257.45
394.10	1257.45
394.31	1290.22
394.52	1271.79
394.72	1167.34
394.93	1308.65
395.14	1302.51
395.35	1304.56
395.56	1267.69
395.76	1304.56
395.97	1208.30
396.18	1279.98
396.39	1329.13
396.60	1286.12
396.80	1255.40
397.01	1224.69
397.22	1284.08
397.43	1265.64
397.64	1302.51
397.84	1234.93
398.05	1284.08
398.26	1361.90
398.47	1318.89
398.67	1282.03
398.88	1316.84
399.09	1304.56
399.30	1249.26
399.51	1255.40
399.71	1249.26
399.92	1214.45
400.13	1257.45
400.34	1189.87
400.54	1298.41
400.75	1228.78
400.96	1222.64
401.17	1263.60
401.37	1273.84
401.58	1265.64
401.79	1269.74
402.00	1282.03
402.21	1196.01
402.41	1259.50
402.62	1236.97
402.83	1261.55
403.04	1284.08
403.24	1236.97
403.45	1263.60
403.66	1318.89
403.87	1271.79
404.07	1282.03
404.28	1220.59
404.49	1208.30
404.70	1331.18
404.90	1335.28
405.11	1181.68
405.32	1226.73
405.52	1230.83
405.73	1263.60
405.94	1279.98
406.15	1185.77
406.35	1318.89
406.56	1312.75
406.77	1368.04
406.98	1267.69
407.18	1202.16
407.39	1284.08
407.60	1267.69
407.80	1298.41
408.01	1298.41
408.22	1294.32
408.43	1163.25
408.63	1265.64
408.84	1224.69
409.05	1400.81
409.25	1296.36
409.46	1243.12
409.67	1277.93
409.88	1286.12
410.08	1275.88
410.29	1236.97
410.50	1212.40
410.70	1261.55
410.91	1265.64
411.12	1261.55
411.32	1304.56
411.53	1306.60
411.74	1253.36
411.95	1296.36
412.15	1245.16
412.36	1243.12
412.57	1239.02
412.77	1261.55
412.98	1269.74
413.19	1370.09
413.39	1236.97
413.60	1314.80
413.81	1288.17
414.01	1202.16
414.22	1318.89
414.43	1308.65
414.63	1230.83
414.84	1212.40
415.05	1224.69
415.25	1263.60
415.46	1265.64
415.67	1273.84
415.87	1314.80
416.08	1304.56
416.29	1208.30
416.49	1329.13
416.70	1177.58
416.91	1261.55
417.11	1304.56
417.32	1253.36
417.53	1284.08
417.73	1263.60
417.94	1282.03
418.15	1239.02
418.35	1259.50
418.56	1232.88
418.77	1124.33
418.97	1288.17
419.18	1265.64
419.38	1247.21
419.59	1257.45
419.80	1298.41
420.00	1216.49
420.21	1294.32
420.42	1239.02
420.62	1273.84
420.83	1228.78
421.04	1282.03
421.24	1286.12
421.45	1163.25
421.65	1271.79
421.86	1241.07
422.07	1341.42
422.27	1263.60
422.48	1357.80
422.69	1247.21
422.89	1253.36
423.10	1304.56
423.30	1251.31
423.51	1263.60
423.72	1288.17
423.92	1314.80
424.13	1271.79
424.33	1224.69
424.54	1263.60
424.75	1275.88
424.95	1310.70
425.16	1290.22
425.36	1316.84
425.57	1277.93
425.78	1222.64
425.98	1308.65
426.19	1306.60
426.39	1255.40
426.60	1345.52
426.81	1298.41
427.01	1234.93
427.22	1259.50
427.42	1320.94
427.63	1241.07
427.83	1290.22
428.04	1290.22
428.25	1306.60
428.45	1302.51
428.66	1273.84
428.86	1290.22
429.07	1316.84
429.28	1335.28
429.48	1253.36
429.69	1288.17
429.89	1214.45
430.10	1255.40
430.30	1175.53
430.51	1265.64
430.71	1296.36
430.92	1298.41
431.13	1331.18
431.33	1277.93
431.54	1251.31
431.74	1251.31
431.95	1290.22
432.15	1222.64
432.36	1312.75
432.56	1288.17
432.77	1230.83
432.98	1198.06
433.18	1337.32
433.39	1302.51
433.59	1288.17
433.80	1298.41
434.00	1200.11
434.21	1239.02
434.41	1267.69
434.62	1310.70
434.82	1241.07
435.03	1220.59
435.23	1296.36
435.44	1255.40
435.64	1251.31
435.85	1241.07
436.06	1296.36
436.26	1314.80
436.47	1314.80
436.67	1257.45
436.88	1298.41
437.08	1296.36
437.29	1253.36
437.49	1298.41
437.70	1239.02
437.90	1265.64
438.11	1198.06
438.31	1273.84
438.52	1224.69
438.72	1304.56
438.93	1263.60
439.13	1189.87
439.34	1191.92
439.54	1249.26
439.75	1282.03
439.95	1218.54
440.16	1341.42
440.36	1279.98
440.57	1275.88
440.77	1265.64
440.98	1196.01
441.18	1277.93
441.39	1273.84
441.59	1279.98
441.80	1243.12
442.00	1230.83
442.21	1249.26
442.41	1308.65
442.62	1296.36
442.82	1306.60
443.02	1316.84
443.23	1290.22
443.43	1232.88
443.64	1255.40
443.84	1241.07
444.05	1290.22
444.25	1247.21
444.46	1249.26
444.66	1288.17
444.87	1271.79
445.07	1243.12
445.28	1232.88
445.48	1275.88
445.69	1298.41
445.89	1345.52
446.09	1312.75
446.30	1314.80
446.50	1222.64
446.71	1286.12
446.91	1273.84
447.12	1263.60
447.32	1261.55
447.53	1259.50
447.73	1282.03
447.93	1247.21
448.14	1247.21
448.34	1175.53
448.55	1322.99
448.75	1228.78
448.96	1230.83
449.16	1232.88
449.36	1243.12
449.57	1304.56
449.77	1202.16
449.98	1232.88
450.18	1308.65
450.39	1265.64
450.59	1312.75
450.79	1335.28
451.00	1273.84
451.20	1351.66
451.41	1275.88
451.61	1249.26
451.81	1263.60
452.02	1230.83
452.22	1292.27
452.43	1341.42
452.63	1253.36
