SpectraSuite Data File
++++++++++++++++++++++++++++++++++++
Date: Sun Apr 03 19:55:20 CEST 2016
User: root
Dark Spectrum Present: No
Reference Spectrum Present: No
Number of Sampled Component Spectra: 1
Spectrometers: USB4C02835
Integration Time (usec): 10000 (USB4C02835)
Spectra Averaged: 1 (USB4C02835)
Boxcar Smoothing: 0 (USB4C02835)
Correct for Electrical Dark: No (USB4C02835)
Strobe/Lamp Enabled: No (USB4C02835)
Correct for Detector Non-linearity: No (USB4C02835)
Correct for Stray Light: No (USB4C02835)
Number of Pixels in Processed Spectrum: 3648
>>>>>Begin Processed Spectral Data<<<<<
177.47	1224.69
177.69	1224.69
177.91	1224.69
178.13	1230.83
178.36	1234.93
178.58	1255.40
178.80	1224.69
179.02	1265.64
179.24	1224.69
179.46	1236.97
179.68	1247.21
179.90	1314.80
180.13	1363.95
180.35	1294.32
180.57	1257.45
180.79	1318.89
181.01	1261.55
181.23	1331.18
181.45	1253.36
181.67	1300.46
181.90	1292.27
182.12	1269.74
182.34	1267.69
182.56	1204.21
182.78	1284.08
183.00	1318.89
183.22	1261.55
183.44	1247.21
183.66	1212.40
183.89	1284.08
184.11	1290.22
184.33	1302.51
184.55	1296.36
184.77	1312.75
184.99	1239.02
185.21	1298.41
185.43	1329.13
185.65	1302.51
185.87	1265.64
186.10	1259.50
186.32	1267.69
186.54	1243.12
186.76	1314.80
186.98	1296.36
187.20	1236.97
187.42	1218.54
187.64	1279.98
187.86	1171.44
188.08	1241.07
188.30	1210.35
188.52	1312.75
188.75	1251.31
188.97	1273.84
189.19	1290.22
189.41	1273.84
189.63	1224.69
189.85	1294.32
190.07	1312.75
190.29	1298.41
190.51	1220.59
190.73	1275.88
190.95	1239.02
191.17	1241.07
191.39	1271.79
191.61	1241.07
191.84	1243.12
192.06	1257.45
192.28	1245.16
192.50	1282.03
192.72	1267.69
192.94	1255.40
193.16	1236.97
193.38	1216.49
193.60	1257.45
193.82	1304.56
194.04	1294.32
194.26	1275.88
194.48	1279.98
194.70	1232.88
194.92	1251.31
195.14	1304.56
195.36	1253.36
195.58	1249.26
195.80	1214.45
196.02	1253.36
196.24	1214.45
196.46	1208.30
196.69	1265.64
196.91	1263.60
197.13	1263.60
197.35	1243.12
197.57	1230.83
197.79	1210.35
198.01	1279.98
198.23	1277.93
198.45	1269.74
198.67	1224.69
198.89	1355.76
199.11	1366.00
199.33	1339.37
199.55	1284.08
199.77	1253.36
199.99	1322.99
200.21	1267.69
200.43	1228.78
200.65	1202.16
200.87	1236.97
201.09	1269.74
201.31	1318.89
201.53	1257.45
201.75	1341.42
201.97	1243.12
202.19	1273.84
202.41	1335.28
202.63	1296.36
202.85	1251.31
203.07	1271.79
203.29	1234.93
203.51	1249.26
203.73	1286.12
203.95	1245.16
204.17	1310.70
204.39	1304.56
204.61	1290.22
204.83	1296.36
205.05	1234.93
205.27	1216.49
205.49	1253.36
205.71	1253.36
205.93	1263.60
206.15	1257.45
206.37	1327.08
206.59	1224.69
206.81	1318.89
207.03	1322.99
207.25	1353.71
207.47	1271.79
207.69	1220.59
207.91	1230.83
208.13	1251.31
208.34	1286.12
208.56	1263.60
208.78	1306.60
209.00	1306.60
209.22	1263.60
209.44	1249.26
209.66	1241.07
209.88	1236.97
210.10	1202.16
210.32	1292.27
210.54	1298.41
210.76	1257.45
210.98	1286.12
211.20	1263.60
211.42	1316.84
211.64	1265.64
211.86	1322.99
212.08	1343.47
212.30	1230.83
212.52	1214.45
212.74	1259.50
212.96	1249.26
213.17	1300.46
213.39	1212.40
213.61	1286.12
213.83	1275.88
214.05	1337.32
214.27	1263.60
214.49	1312.75
214.71	1265.64
214.93	1314.80
215.15	1277.93
215.37	1288.17
215.59	1259.50
215.81	1273.84
216.03	1230.83
216.24	1220.59
216.46	1241.07
216.68	1310.70
216.90	1279.98
217.12	1267.69
217.34	1202.16
217.56	1241.07
217.78	1316.84
218.00	1253.36
218.22	1249.26
218.44	1241.07
218.66	1251.31
218.87	1290.22
219.09	1290.22
219.31	1245.16
219.53	1259.50
219.75	1236.97
219.97	1243.12
220.19	1298.41
220.41	1312.75
220.63	1253.36
220.85	1228.78
221.06	1241.07
221.28	1269.74
221.50	1306.60
221.72	1302.51
221.94	1290.22
222.16	1267.69
222.38	1259.50
222.60	1298.41
222.82	1179.63
223.03	1216.49
223.25	1265.64
223.47	1331.18
223.69	1271.79
223.91	1255.40
224.13	1216.49
224.35	1236.97
224.57	1198.06
224.78	1245.16
225.00	1265.64
225.22	1245.16
225.44	1341.42
225.66	1275.88
225.88	1230.83
226.10	1249.26
226.32	1292.27
226.53	1310.70
226.75	1243.12
226.97	1277.93
227.19	1286.12
227.41	1241.07
227.63	1273.84
227.85	1261.55
228.06	1314.80
228.28	1277.93
228.50	1241.07
228.72	1318.89
228.94	1257.45
229.16	1263.60
229.37	1279.98
229.59	1226.73
229.81	1261.55
230.03	1228.78
230.25	1249.26
230.47	1306.60
230.69	1292.27
230.90	1241.07
231.12	1282.03
231.34	1298.41
231.56	1279.98
231.78	1318.89
232.00	1284.08
232.21	1271.79
232.43	1316.84
232.65	1234.93
232.87	1226.73
233.09	1218.54
233.30	1249.26
233.52	1275.88
233.74	1282.03
233.96	1300.46
234.18	1263.60
234.40	1277.93
234.61	1222.64
234.83	1249.26
235.05	1261.55
235.27	1302.51
235.49	1331.18
235.70	1255.40
235.92	1275.88
236.14	1325.04
236.36	1208.30
236.58	1282.03
236.79	1292.27
237.01	1288.17
237.23	1265.64
237.45	1261.55
237.67	1214.45
237.88	1224.69
238.10	1275.88
238.32	1265.64
238.54	1200.11
238.76	1290.22
238.97	1282.03
239.19	1286.12
239.41	1296.36
239.63	1265.64
239.85	1187.82
240.06	1288.17
240.28	1316.84
240.50	1239.02
240.72	1286.12
240.93	1257.45
241.15	1167.34
241.37	1236.97
241.59	1288.17
241.81	1271.79
242.02	1226.73
242.24	1288.17
242.46	1251.31
242.68	1253.36
242.89	1222.64
243.11	1214.45
243.33	1236.97
243.55	1288.17
243.76	1230.83
243.98	1232.88
244.20	1255.40
244.42	1306.60
244.64	1255.40
244.85	1273.84
245.07	1306.60
245.29	1226.73
245.51	1314.80
245.72	1347.56
245.94	1271.79
246.16	1247.21
246.38	1277.93
246.59	1206.25
246.81	1230.83
247.03	1302.51
247.24	1325.04
247.46	1228.78
247.68	1316.84
247.90	1277.93
248.11	1265.64
248.33	1232.88
248.55	1273.84
248.77	1245.16
248.98	1249.26
249.20	1292.27
249.42	1230.83
249.64	1187.82
249.85	1273.84
250.07	1284.08
250.29	1277.93
250.50	1220.59
250.72	1308.65
250.94	1259.50
251.16	1198.06
251.37	1243.12
251.59	1232.88
251.81	1236.97
252.02	1257.45
252.24	1177.58
252.46	1277.93
252.68	1290.22
252.89	1314.80
253.11	1232.88
253.33	1279.98
253.54	1251.31
253.76	1259.50
253.98	1284.08
254.20	1284.08
254.41	1251.31
254.63	1308.65
254.85	1288.17
255.06	1298.41
255.28	1222.64
255.50	1275.88
255.71	1200.11
255.93	1222.64
256.15	1267.69
256.36	1329.13
256.58	1339.37
256.80	1298.41
257.02	1288.17
257.23	1277.93
257.45	1228.78
257.67	1333.23
257.88	1169.39
258.10	1337.32
258.32	1314.80
258.53	1273.84
258.75	1261.55
258.97	1304.56
259.18	1226.73
259.40	1200.11
259.62	1288.17
259.83	1320.94
260.05	1304.56
260.27	1267.69
260.48	1300.46
260.70	1236.97
260.92	1251.31
261.13	1257.45
261.35	1337.32
261.57	1265.64
261.78	1216.49
262.00	1282.03
262.22	1210.35
262.43	1261.55
262.65	1318.89
262.86	1228.78
263.08	1320.94
263.30	1331.18
263.51	1269.74
263.73	1284.08
263.95	1206.25
264.16	1368.04
264.38	1353.71
264.60	1241.07
264.81	1263.60
265.03	1279.98
265.25	1265.64
265.46	1277.93
265.68	1200.11
265.89	1236.97
266.11	1247.21
266.33	1310.70
266.54	1298.41
266.76	1353.71
266.98	1327.08
267.19	1261.55
267.41	1265.64
267.62	1304.56
267.84	1232.88
268.06	1216.49
268.27	1279.98
268.49	1257.45
268.70	1257.45
268.92	1312.75
269.14	1279.98
269.35	1306.60
269.57	1208.30
269.79	1241.07
270.00	1187.82
270.22	1300.46
270.43	1269.74
270.65	1191.92
270.87	1292.27
271.08	1253.36
271.30	1290.22
271.51	1251.31
271.73	1261.55
271.95	1208.30
272.16	1232.88
272.38	1189.87
272.59	1253.36
272.81	1224.69
273.02	1292.27
273.24	1314.80
273.46	1210.35
273.67	1239.02
273.89	1290.22
274.10	1279.98
274.32	1310.70
274.54	1337.32
274.75	1298.41
274.97	1261.55
275.18	1277.93
275.40	1210.35
275.61	1253.36
275.83	1288.17
276.05	1300.46
276.26	1341.42
276.48	1249.26
276.69	1196.01
276.91	1269.74
277.12	1257.45
277.34	1220.59
277.55	1230.83
277.77	1234.93
277.99	1265.64
278.20	1273.84
278.42	1249.26
278.63	1232.88
278.85	1224.69
279.06	1296.36
279.28	1259.50
279.49	1300.46
279.71	1347.56
279.93	1282.03
280.14	1284.08
280.36	1263.60
280.57	1312.75
280.79	1257.45
281.00	1292.27
281.22	1314.80
281.43	1236.97
281.65	1263.60
281.86	1245.16
282.08	1259.50
282.29	1226.73
282.51	1337.32
282.73	1202.16
282.94	1251.31
283.16	1294.32
283.37	1245.16
283.59	1245.16
283.80	1318.89
284.02	1265.64
284.23	1255.40
284.45	1290.22
284.66	1282.03
284.88	1282.03
285.09	1239.02
285.31	1196.01
285.52	1277.93
285.74	1228.78
285.95	1257.45
286.17	1273.84
286.38	1255.40
286.60	1275.88
286.81	1245.16
287.03	1267.69
287.24	1277.93
287.46	1304.56
287.67	1241.07
287.89	1267.69
288.10	1271.79
288.32	1253.36
288.53	1214.45
288.75	1253.36
288.96	1288.17
289.18	1263.60
289.39	1322.99
289.61	1251.31
289.82	1294.32
290.04	1257.45
290.25	1341.42
290.47	1343.47
290.68	1216.49
290.90	1222.64
291.11	1296.36
291.33	1230.83
291.54	1257.45
291.76	1239.02
291.97	1198.06
292.18	1261.55
292.40	1216.49
292.61	1257.45
292.83	1290.22
293.04	1284.08
293.26	1286.12
293.47	1304.56
293.69	1327.08
293.90	1263.60
294.12	1318.89
294.33	1304.56
294.55	1230.83
294.76	1265.64
294.97	1232.88
295.19	1222.64
295.40	1212.40
295.62	1218.54
295.83	1273.84
296.05	1257.45
296.26	1318.89
296.48	1241.07
296.69	1218.54
296.90	1241.07
297.12	1247.21
297.33	1304.56
297.55	1261.55
297.76	1243.12
297.98	1249.26
298.19	1339.37
298.41	1314.80
298.62	1288.17
298.83	1314.80
299.05	1329.13
299.26	1259.50
299.48	1300.46
299.69	1226.73
299.90	1300.46
300.12	1257.45
300.33	1277.93
300.55	1288.17
300.76	1273.84
300.98	1206.25
301.19	1257.45
301.40	1226.73
301.62	1290.22
301.83	1261.55
302.05	1255.40
302.26	1310.70
302.47	1320.94
302.69	1316.84
302.90	1312.75
303.12	1306.60
303.33	1296.36
303.54	1269.74
303.76	1212.40
303.97	1267.69
304.19	1279.98
304.40	1310.70
304.61	1249.26
304.83	1296.36
305.04	1261.55
305.26	1286.12
305.47	1288.17
305.68	1304.56
305.90	1236.97
306.11	1257.45
306.33	1249.26
306.54	1267.69
306.75	1277.93
306.97	1296.36
307.18	1230.83
307.39	1300.46
307.61	1265.64
307.82	1298.41
308.04	1273.84
308.25	1259.50
308.46	1226.73
308.68	1298.41
308.89	1269.74
309.10	1232.88
309.32	1279.98
309.53	1302.51
309.74	1204.21
309.96	1230.83
310.17	1310.70
310.39	1257.45
310.60	1298.41
310.81	1232.88
311.03	1189.87
311.24	1310.70
311.45	1222.64
311.67	1316.84
311.88	1271.79
312.09	1232.88
312.31	1296.36
312.52	1322.99
312.73	1261.55
312.95	1269.74
313.16	1286.12
313.37	1294.32
313.59	1314.80
313.80	1284.08
314.01	1247.21
314.23	1298.41
314.44	1234.93
314.65	1312.75
314.87	1232.88
315.08	1333.23
315.29	1333.23
315.51	1206.25
315.72	1335.28
315.93	1284.08
316.15	1140.72
316.36	1236.97
316.57	1298.41
316.79	1263.60
317.00	1247.21
317.21	1335.28
317.43	1224.69
317.64	1290.22
317.85	1296.36
318.07	1179.63
318.28	1329.13
318.49	1253.36
318.70	1218.54
318.92	1279.98
319.13	1298.41
319.34	1261.55
319.56	1298.41
319.77	1349.61
319.98	1275.88
320.20	1288.17
320.41	1318.89
320.62	1202.16
320.83	1273.84
321.05	1275.88
321.26	1322.99
321.47	1275.88
321.69	1308.65
321.90	1230.83
322.11	1298.41
322.32	1290.22
322.54	1322.99
322.75	1271.79
322.96	1279.98
323.18	1259.50
323.39	1241.07
323.60	1290.22
323.81	1253.36
324.03	1312.75
324.24	1218.54
324.45	1245.16
324.66	1243.12
324.88	1288.17
325.09	1245.16
325.30	1263.60
325.52	1306.60
325.73	1251.31
325.94	1325.04
326.15	1292.27
326.37	1320.94
326.58	1296.36
326.79	1380.33
327.00	1308.65
327.22	1204.21
327.43	1257.45
327.64	1232.88
327.85	1273.84
328.07	1212.40
328.28	1296.36
328.49	1318.89
328.70	1267.69
328.92	1363.95
329.13	1224.69
329.34	1267.69
329.55	1253.36
329.76	1265.64
329.98	1230.83
330.19	1335.28
330.40	1314.80
330.61	1368.04
330.83	1277.93
331.04	1271.79
331.25	1261.55
331.46	1355.76
331.68	1279.98
331.89	1255.40
332.10	1261.55
332.31	1239.02
332.52	1290.22
332.74	1273.84
332.95	1331.18
333.16	1282.03
333.37	1347.56
333.58	1368.04
333.80	1251.31
334.01	1306.60
334.22	1308.65
334.43	1243.12
334.64	1298.41
334.86	1249.26
335.07	1212.40
335.28	1333.23
335.49	1189.87
335.70	1271.79
335.92	1222.64
336.13	1228.78
336.34	1302.51
336.55	1277.93
336.76	1277.93
336.98	1292.27
337.19	1329.13
337.40	1337.32
337.61	1296.36
337.82	1241.07
338.04	1279.98
338.25	1232.88
338.46	1226.73
338.67	1212.40
338.88	1251.31
339.09	1304.56
339.31	1282.03
339.52	1253.36
339.73	1304.56
339.94	1257.45
340.15	1290.22
340.36	1181.68
340.58	1263.60
340.79	1320.94
341.00	1288.17
341.21	1239.02
341.42	1241.07
341.63	1220.59
341.85	1267.69
342.06	1279.98
342.27	1265.64
342.48	1269.74
342.69	1296.36
342.90	1265.64
343.12	1382.38
343.33	1310.70
343.54	1222.64
343.75	1265.64
343.96	1277.93
344.17	1185.77
344.38	1314.80
344.60	1298.41
344.81	1314.80
345.02	1247.21
345.23	1298.41
345.44	1257.45
345.65	1257.45
345.86	1279.98
346.07	1284.08
346.29	1327.08
346.50	1210.35
346.71	1269.74
346.92	1282.03
347.13	1236.97
347.34	1253.36
347.55	1230.83
347.76	1277.93
347.98	1304.56
348.19	1167.34
348.40	1296.36
348.61	1222.64
348.82	1228.78
349.03	1230.83
349.24	1214.45
349.45	1259.50
349.66	1269.74
349.88	1253.36
350.09	1312.75
350.30	1249.26
350.51	1331.18
350.72	1245.16
350.93	1290.22
351.14	1343.47
351.35	1282.03
351.56	1226.73
351.77	1288.17
351.99	1191.92
352.20	1306.60
352.41	1275.88
352.62	1253.36
352.83	1368.04
353.04	1310.70
353.25	1284.08
353.46	1245.16
353.67	1230.83
353.88	1277.93
354.09	1198.06
354.30	1208.30
354.52	1337.32
354.73	1249.26
354.94	1322.99
355.15	1279.98
355.36	1245.16
355.57	1181.68
355.78	1257.45
355.99	1251.31
356.20	1288.17
356.41	1216.49
356.62	1226.73
356.83	1241.07
357.04	1292.27
357.25	1241.07
357.46	1148.91
357.68	1267.69
357.89	1318.89
358.10	1273.84
358.31	1224.69
358.52	1300.46
358.73	1226.73
358.94	1277.93
359.15	1329.13
359.36	1269.74
359.57	1290.22
359.78	1241.07
359.99	1257.45
360.20	1290.22
360.41	1206.25
360.62	1382.38
360.83	1247.21
361.04	1288.17
361.25	1279.98
361.46	1290.22
361.67	1331.18
361.88	1306.60
362.09	1271.79
362.30	1325.04
362.51	1234.93
362.72	1331.18
362.93	1247.21
363.14	1320.94
363.35	1331.18
363.56	1275.88
363.78	1290.22
363.99	1386.47
364.20	1271.79
364.41	1308.65
364.62	1267.69
364.83	1316.84
365.04	1257.45
365.25	1269.74
365.46	1284.08
365.67	1298.41
365.88	1189.87
366.09	1245.16
366.30	1282.03
366.51	1320.94
366.72	1282.03
366.93	1239.02
367.14	1265.64
367.35	1239.02
367.56	1228.78
367.77	1189.87
367.98	1261.55
368.18	1331.18
368.39	1171.44
368.60	1263.60
368.81	1173.49
369.02	1279.98
369.23	1298.41
369.44	1243.12
369.65	1226.73
369.86	1200.11
370.07	1310.70
370.28	1257.45
370.49	1241.07
370.70	1261.55
370.91	1255.40
371.12	1282.03
371.33	1374.19
371.54	1300.46
371.75	1306.60
371.96	1208.30
372.17	1239.02
372.38	1304.56
372.59	1212.40
372.80	1265.64
373.01	1304.56
373.22	1298.41
373.43	1257.45
373.64	1214.45
373.85	1212.40
374.06	1316.84
374.26	1271.79
374.47	1320.94
374.68	1232.88
374.89	1302.51
375.10	1189.87
375.31	1253.36
375.52	1187.82
375.73	1222.64
375.94	1282.03
376.15	1232.88
376.36	1261.55
376.57	1310.70
376.78	1318.89
376.99	1292.27
377.20	1234.93
377.40	1259.50
377.61	1286.12
377.82	1251.31
378.03	1300.46
378.24	1290.22
378.45	1259.50
378.66	1314.80
378.87	1228.78
379.08	1335.28
379.29	1269.74
379.50	1331.18
379.71	1259.50
379.91	1327.08
380.12	1284.08
380.33	1263.60
380.54	1228.78
380.75	1331.18
380.96	1279.98
381.17	1245.16
381.38	1288.17
381.59	1292.27
381.80	1216.49
382.00	1312.75
382.21	1269.74
382.42	1245.16
382.63	1288.17
382.84	1226.73
383.05	1269.74
383.26	1279.98
383.47	1204.21
383.68	1200.11
383.88	1239.02
384.09	1257.45
384.30	1245.16
384.51	1273.84
384.72	1232.88
384.93	1214.45
385.14	1245.16
385.35	1214.45
385.55	1263.60
385.76	1177.58
385.97	1224.69
386.18	1216.49
386.39	1318.89
386.60	1243.12
386.81	1247.21
387.02	1298.41
387.22	1347.56
387.43	1306.60
387.64	1327.08
387.85	1263.60
388.06	1191.92
388.27	1296.36
388.48	1282.03
388.68	1189.87
388.89	1255.40
389.10	1312.75
389.31	1245.16
389.52	1279.98
389.73	1279.98
389.93	1247.21
390.14	1267.69
390.35	1263.60
390.56	1245.16
390.77	1257.45
390.98	1234.93
391.18	1308.65
391.39	1298.41
391.60	1247.21
391.81	1202.16
392.02	1247.21
392.23	1296.36
392.43	1273.84
392.64	1234.93
392.85	1269.74
393.06	1282.03
393.27	1265.64
393.47	1267.69
393.68	1204.21
393.89	1200.11
394.10	1214.45
394.31	1255.40
394.52	1230.83
394.72	1259.50
394.93	1320.94
395.14	1277.93
395.35	1269.74
395.56	1234.93
395.76	1263.60
395.97	1253.36
396.18	1243.12
396.39	1284.08
396.60	1216.49
396.80	1269.74
397.01	1300.46
397.22	1314.80
397.43	1294.32
397.64	1263.60
397.84	1236.97
398.05	1236.97
398.26	1220.59
398.47	1284.08
398.67	1327.08
398.88	1249.26
399.09	1284.08
399.30	1257.45
399.51	1325.04
399.71	1214.45
399.92	1220.59
400.13	1236.97
400.34	1271.79
400.54	1300.46
400.75	1273.84
400.96	1232.88
401.17	1220.59
401.37	1294.32
401.58	1339.37
401.79	1322.99
402.00	1273.84
402.21	1216.49
402.41	1296.36
402.62	1288.17
402.83	1224.69
403.04	1322.99
403.24	1331.18
403.45	1228.78
403.66	1267.69
403.87	1247.21
404.07	1222.64
404.28	1216.49
404.49	1220.59
404.70	1255.40
404.90	1236.97
405.11	1265.64
405.32	1345.52
405.52	1298.41
405.73	1314.80
405.94	1271.79
406.15	1269.74
406.35	1279.98
406.56	1282.03
406.77	1269.74
406.98	1316.84
407.18	1275.88
407.39	1337.32
407.60	1247.21
407.80	1277.93
408.01	1290.22
408.22	1351.66
408.43	1230.83
408.63	1298.41
408.84	1218.54
409.05	1273.84
409.25	1269.74
409.46	1325.04
409.67	1294.32
409.88	1322.99
410.08	1267.69
410.29	1318.89
410.50	1277.93
410.70	1249.26
410.91	1214.45
411.12	1284.08
411.32	1271.79
411.53	1259.50
411.74	1181.68
411.95	1284.08
412.15	1318.89
412.36	1241.07
412.57	1318.89
412.77	1257.45
412.98	1191.92
413.19	1249.26
413.39	1257.45
413.60	1265.64
413.81	1226.73
414.01	1247.21
414.22	1261.55
414.43	1273.84
414.63	1255.40
414.84	1286.12
415.05	1267.69
415.25	1318.89
415.46	1300.46
415.67	1198.06
415.87	1298.41
416.08	1306.60
416.29	1189.87
416.49	1253.36
416.70	1257.45
416.91	1212.40
417.11	1292.27
417.32	1314.80
417.53	1288.17
417.73	1253.36
417.94	1263.60
418.15	1253.36
418.35	1284.08
418.56	1236.97
418.77	1306.60
418.97	1251.31
419.18	1318.89
419.38	1255.40
419.59	1284.08
419.80	1257.45
420.00	1275.88
420.21	1271.79
420.42	1271.79
420.62	1331.18
420.83	1241.07
421.04	1220.59
421.24	1302.51
421.45	1294.32
421.65	1288.17
421.86	1253.36
422.07	1267.69
422.27	1316.84
422.48	1271.79
422.69	1277.93
422.89	1294.32
423.10	1249.26
423.30	1298.41
423.51	1273.84
423.72	1265.64
423.92	1255.40
424.13	1202.16
424.33	1208.30
424.54	1292.27
424.75	1271.79
424.95	1245.16
425.16	1279.98
425.36	1232.88
425.57	1339.37
425.78	1316.84
425.98	1290.22
426.19	1296.36
426.39	1179.63
426.60	1263.60
426.81	1214.45
427.01	1245.16
427.22	1277.93
427.42	1257.45
427.63	1327.08
427.83	1269.74
428.04	1257.45
428.25	1316.84
428.45	1265.64
428.66	1251.31
428.86	1241.07
429.07	1198.06
429.28	1284.08
429.48	1290.22
429.69	1275.88
429.89	1200.11
430.10	1249.26
430.30	1224.69
430.51	1269.74
430.71	1304.56
430.92	1253.36
431.13	1251.31
431.33	1241.07
431.54	1206.25
431.74	1345.52
431.95	1320.94
432.15	1230.83
432.36	1300.46
432.56	1329.13
432.77	1302.51
432.98	1306.60
433.18	1220.59
433.39	1290.22
433.59	1253.36
433.80	1310.70
434.00	1279.98
434.21	1230.83
434.41	1245.16
434.62	1255.40
434.82	1304.56
435.03	1273.84
435.23	1249.26
435.44	1241.07
435.64	1277.93
435.85	1239.02
436.06	1212.40
436.26	1329.13
436.47	1298.41
436.67	1261.55
436.88	1263.60
437.08	1279.98
437.29	1220.59
437.49	1230.83
437.70	1218.54
437.90	1310.70
438.11	1200.11
438.31	1241.07
438.52	1290.22
438.72	1269.74
438.93	1275.88
439.13	1290.22
439.34	1257.45
439.54	1279.98
439.75	1241.07
439.95	1218.54
440.16	1288.17
440.36	1277.93
440.57	1236.97
440.77	1234.93
440.98	1304.56
441.18	1275.88
441.39	1257.45
441.59	1318.89
441.80	1267.69
442.00	1296.36
442.21	1302.51
442.41	1298.41
442.62	1202.16
442.82	1302.51
443.02	1292.27
443.23	1314.80
443.43	1259.50
443.64	1263.60
443.84	1271.79
444.05	1333.23
444.25	1224.69
444.46	1241.07
444.66	1234.93
444.87	1222.64
445.07	1300.46
445.28	1296.36
445.48	1247.21
445.69	1294.32
445.89	1214.45
446.09	1275.88
446.30	1230.83
446.50	1302.51
446.71	1216.49
446.91	1230.83
447.12	1267.69
447.32	1275.88
447.53	1288.17
447.73	1361.90
447.93	1232.88
448.14	1357.80
448.34	1298.41
448.55	1304.56
448.75	1224.69
448.96	1327.08
449.16	1245.16
449.36	1306.60
449.57	1288.17
449.77	1265.64
449.98	1275.88
450.18	1275.88
450.39	1277.93
450.59	1329.13
450.79	1236.97
451.00	1273.84
451.20	1228.78
451.41	1269.74
451.61	1275.88
451.81	1249.26
452.02	1351.66
452.22	1241.07
452.43	1363.95
452.63	1331.18
