SpectraSuite Data File
++++++++++++++++++++++++++++++++++++
Date: Sun Apr 03 19:55:19 CEST 2016
User: root
Dark Spectrum Present: No
Reference Spectrum Present: No
Number of Sampled Component Spectra: 1
Spectrometers: USB4C02835
Integration Time (usec): 10000 (USB4C02835)
Spectra Averaged: 1 (USB4C02835)
Boxcar Smoothing: 0 (USB4C02835)
Correct for Electrical Dark: No (USB4C02835)
Strobe/Lamp Enabled: No (USB4C02835)
Correct for Detector Non-linearity: No (USB4C02835)
Correct for Stray Light: No (USB4C02835)
Number of Pixels in Processed Spectrum: 3648
>>>>>Begin Processed Spectral Data<<<<<
177.47	1198.06
177.69	1198.06
177.91	1198.06
178.13	1284.08
178.36	1259.50
178.58	1218.54
178.80	1286.12
179.02	1245.16
179.24	1232.88
179.46	1290.22
179.68	1208.30
179.90	1255.40
180.13	1284.08
180.35	1267.69
180.57	1210.35
180.79	1234.93
181.01	1218.54
181.23	1243.12
181.45	1208.30
181.67	1228.78
181.90	1177.58
182.12	1306.60
182.34	1183.73
182.56	1306.60
182.78	1284.08
183.00	1259.50
183.22	1322.99
183.44	1216.49
183.66	1341.42
183.89	1282.03
184.11	1273.84
184.33	1263.60
184.55	1239.02
184.77	1312.75
184.99	1222.64
185.21	1198.06
185.43	1296.36
185.65	1236.97
185.87	1298.41
186.10	1284.08
186.32	1304.56
186.54	1277.93
186.76	1312.75
186.98	1271.79
187.20	1228.78
187.42	1249.26
187.64	1253.36
187.86	1261.55
188.08	1284.08
188.30	1263.60
188.52	1243.12
188.75	1312.75
188.97	1288.17
189.19	1298.41
189.41	1222.64
189.63	1220.59
189.85	1286.12
190.07	1230.83
190.29	1239.02
190.51	1241.07
190.73	1288.17
190.95	1322.99
191.17	1288.17
191.39	1239.02
191.61	1269.74
191.84	1286.12
192.06	1257.45
192.28	1308.65
192.50	1302.51
192.72	1286.12
192.94	1273.84
193.16	1263.60
193.38	1273.84
193.60	1232.88
193.82	1210.35
194.04	1298.41
194.26	1247.21
194.48	1273.84
194.70	1234.93
194.92	1331.18
195.14	1271.79
195.36	1165.29
195.58	1271.79
195.80	1247.21
196.02	1329.13
196.24	1243.12
196.46	1257.45
196.69	1228.78
196.91	1288.17
197.13	1224.69
197.35	1282.03
197.57	1255.40
197.79	1310.70
198.01	1257.45
198.23	1296.36
198.45	1339.37
198.67	1310.70
198.89	1226.73
199.11	1230.83
199.33	1257.45
199.55	1286.12
199.77	1218.54
199.99	1236.97
200.21	1206.25
200.43	1286.12
200.65	1230.83
200.87	1251.31
201.09	1247.21
201.31	1302.51
201.53	1232.88
201.75	1249.26
201.97	1259.50
202.19	1279.98
202.41	1220.59
202.63	1218.54
202.85	1314.80
203.07	1294.32
203.29	1275.88
203.51	1288.17
203.73	1306.60
203.95	1241.07
204.17	1267.69
204.39	1288.17
204.61	1210.35
204.83	1294.32
205.05	1259.50
205.27	1314.80
205.49	1257.45
205.71	1165.29
205.93	1277.93
206.15	1286.12
206.37	1251.31
206.59	1302.51
206.81	1290.22
207.03	1263.60
207.25	1318.89
207.47	1312.75
207.69	1312.75
207.91	1279.98
208.13	1325.04
208.34	1284.08
208.56	1245.16
208.78	1187.82
209.00	1255.40
209.22	1308.65
209.44	1206.25
209.66	1312.75
209.88	1302.51
210.10	1296.36
210.32	1210.35
210.54	1325.04
210.76	1232.88
210.98	1263.60
211.20	1288.17
211.42	1306.60
211.64	1222.64
211.86	1368.04
212.08	1275.88
212.30	1316.84
212.52	1273.84
212.74	1253.36
212.96	1251.31
213.17	1261.55
213.39	1214.45
213.61	1189.87
213.83	1335.28
214.05	1230.83
214.27	1239.02
214.49	1279.98
214.71	1239.02
214.93	1294.32
215.15	1247.21
215.37	1337.32
215.59	1267.69
215.81	1230.83
216.03	1263.60
216.24	1290.22
216.46	1228.78
216.68	1224.69
216.90	1267.69
217.12	1239.02
217.34	1286.12
217.56	1271.79
217.78	1269.74
218.00	1294.32
218.22	1212.40
218.44	1257.45
218.66	1306.60
218.87	1322.99
219.09	1234.93
219.31	1325.04
219.53	1257.45
219.75	1263.60
219.97	1253.36
220.19	1316.84
220.41	1261.55
220.63	1259.50
220.85	1208.30
221.06	1193.97
221.28	1179.63
221.50	1259.50
221.72	1255.40
221.94	1241.07
222.16	1191.92
222.38	1247.21
222.60	1310.70
222.82	1271.79
223.03	1232.88
223.25	1271.79
223.47	1284.08
223.69	1337.32
223.91	1288.17
224.13	1257.45
224.35	1202.16
224.57	1314.80
224.78	1294.32
225.00	1271.79
225.22	1269.74
225.44	1300.46
225.66	1232.88
225.88	1306.60
226.10	1288.17
226.32	1271.79
226.53	1302.51
226.75	1259.50
226.97	1247.21
227.19	1308.65
227.41	1304.56
227.63	1282.03
227.85	1239.02
228.06	1241.07
228.28	1298.41
228.50	1267.69
228.72	1255.40
228.94	1273.84
229.16	1269.74
229.37	1230.83
229.59	1230.83
229.81	1230.83
230.03	1228.78
230.25	1222.64
230.47	1239.02
230.69	1249.26
230.90	1353.71
231.12	1269.74
231.34	1204.21
231.56	1267.69
231.78	1216.49
232.00	1175.53
232.21	1279.98
232.43	1271.79
232.65	1226.73
232.87	1279.98
233.09	1187.82
233.30	1290.22
233.52	1284.08
233.74	1296.36
233.96	1261.55
234.18	1370.09
234.40	1259.50
234.61	1243.12
234.83	1298.41
235.05	1308.65
235.27	1290.22
235.49	1277.93
235.70	1253.36
235.92	1337.32
236.14	1253.36
236.36	1310.70
236.58	1271.79
236.79	1292.27
237.01	1220.59
237.23	1275.88
237.45	1306.60
237.67	1282.03
237.88	1265.64
238.10	1236.97
238.32	1290.22
238.54	1306.60
238.76	1236.97
238.97	1255.40
239.19	1361.90
239.41	1212.40
239.63	1290.22
239.85	1259.50
240.06	1279.98
240.28	1282.03
240.50	1257.45
240.72	1294.32
240.93	1273.84
241.15	1320.94
241.37	1255.40
241.59	1282.03
241.81	1216.49
242.02	1273.84
242.24	1263.60
242.46	1247.21
242.68	1265.64
242.89	1230.83
243.11	1273.84
243.33	1243.12
243.55	1279.98
243.76	1261.55
243.98	1243.12
244.20	1261.55
244.42	1249.26
244.64	1253.36
244.85	1236.97
245.07	1288.17
245.29	1236.97
245.51	1316.84
245.72	1279.98
245.94	1302.51
246.16	1214.45
246.38	1212.40
246.59	1247.21
246.81	1202.16
247.03	1196.01
247.24	1286.12
247.46	1304.56
247.68	1286.12
247.90	1259.50
248.11	1230.83
248.33	1304.56
248.55	1228.78
248.77	1255.40
248.98	1271.79
249.20	1304.56
249.42	1271.79
249.64	1265.64
249.85	1302.51
250.07	1279.98
250.29	1288.17
250.50	1298.41
250.72	1304.56
250.94	1284.08
251.16	1251.31
251.37	1282.03
251.59	1347.56
251.81	1277.93
252.02	1279.98
252.24	1302.51
252.46	1322.99
252.68	1255.40
252.89	1255.40
253.11	1236.97
253.33	1208.30
253.54	1224.69
253.76	1222.64
253.98	1312.75
254.20	1263.60
254.41	1253.36
254.63	1257.45
254.85	1230.83
255.06	1284.08
255.28	1257.45
255.50	1357.80
255.71	1273.84
255.93	1218.54
256.15	1288.17
256.36	1261.55
256.58	1322.99
256.80	1230.83
257.02	1257.45
257.23	1320.94
257.45	1247.21
257.67	1241.07
257.88	1275.88
258.10	1234.93
258.32	1296.36
258.53	1271.79
258.75	1255.40
258.97	1241.07
259.18	1282.03
259.40	1335.28
259.62	1236.97
259.83	1331.18
260.05	1253.36
260.27	1277.93
260.48	1255.40
260.70	1292.27
260.92	1320.94
261.13	1263.60
261.35	1239.02
261.57	1218.54
261.78	1253.36
262.00	1322.99
262.22	1216.49
262.43	1228.78
262.65	1275.88
262.86	1230.83
263.08	1290.22
263.30	1292.27
263.51	1245.16
263.73	1226.73
263.95	1257.45
264.16	1265.64
264.38	1290.22
264.60	1259.50
264.81	1251.31
265.03	1300.46
265.25	1314.80
265.46	1279.98
265.68	1282.03
265.89	1275.88
266.11	1288.17
266.33	1290.22
266.54	1302.51
266.76	1249.26
266.98	1265.64
267.19	1306.60
267.41	1275.88
267.62	1228.78
267.84	1267.69
268.06	1298.41
268.27	1292.27
268.49	1271.79
268.70	1255.40
268.92	1263.60
269.14	1271.79
269.35	1224.69
269.57	1320.94
269.79	1279.98
270.00	1269.74
270.22	1282.03
270.43	1222.64
270.65	1216.49
270.87	1300.46
271.08	1202.16
271.30	1232.88
271.51	1308.65
271.73	1220.59
271.95	1191.92
272.16	1220.59
272.38	1368.04
272.59	1255.40
272.81	1298.41
273.02	1269.74
273.24	1257.45
273.46	1259.50
273.67	1282.03
273.89	1224.69
274.10	1198.06
274.32	1294.32
274.54	1230.83
274.75	1290.22
274.97	1261.55
275.18	1255.40
275.40	1298.41
275.61	1263.60
275.83	1288.17
276.05	1249.26
276.26	1251.31
276.48	1263.60
276.69	1282.03
276.91	1247.21
277.12	1214.45
277.34	1214.45
277.55	1255.40
277.77	1263.60
277.99	1263.60
278.20	1249.26
278.42	1306.60
278.63	1259.50
278.85	1271.79
279.06	1243.12
279.28	1234.93
279.49	1306.60
279.71	1286.12
279.93	1253.36
280.14	1306.60
280.36	1222.64
280.57	1331.18
280.79	1277.93
281.00	1253.36
281.22	1306.60
281.43	1292.27
281.65	1226.73
281.86	1277.93
282.08	1273.84
282.29	1245.16
282.51	1236.97
282.73	1216.49
282.94	1275.88
283.16	1275.88
283.37	1271.79
283.59	1282.03
283.80	1263.60
284.02	1302.51
284.23	1232.88
284.45	1249.26
284.66	1224.69
284.88	1288.17
285.09	1284.08
285.31	1263.60
285.52	1294.32
285.74	1191.92
285.95	1288.17
286.17	1206.25
286.38	1241.07
286.60	1286.12
286.81	1302.51
287.03	1284.08
287.24	1269.74
287.46	1263.60
287.67	1304.56
287.89	1288.17
288.10	1251.31
288.32	1322.99
288.53	1288.17
288.75	1259.50
288.96	1132.53
289.18	1282.03
289.39	1255.40
289.61	1214.45
289.82	1226.73
290.04	1294.32
290.25	1298.41
290.47	1249.26
290.68	1277.93
290.90	1253.36
291.11	1337.32
291.33	1282.03
291.54	1302.51
291.76	1257.45
291.97	1261.55
292.18	1296.36
292.40	1183.73
292.61	1226.73
292.83	1279.98
293.04	1310.70
293.26	1284.08
293.47	1234.93
293.69	1308.65
293.90	1271.79
294.12	1265.64
294.33	1239.02
294.55	1314.80
294.76	1294.32
294.97	1257.45
295.19	1255.40
295.40	1245.16
295.62	1255.40
295.83	1288.17
296.05	1214.45
296.26	1241.07
296.48	1226.73
296.69	1253.36
296.90	1222.64
297.12	1339.37
297.33	1271.79
297.55	1304.56
297.76	1234.93
297.98	1257.45
298.19	1322.99
298.41	1282.03
298.62	1337.32
298.83	1259.50
299.05	1259.50
299.26	1230.83
299.48	1228.78
299.69	1316.84
299.90	1306.60
300.12	1232.88
300.33	1282.03
300.55	1253.36
300.76	1255.40
300.98	1226.73
301.19	1249.26
301.40	1331.18
301.62	1269.74
301.83	1300.46
302.05	1255.40
302.26	1265.64
302.47	1327.08
302.69	1236.97
302.90	1234.93
303.12	1292.27
303.33	1306.60
303.54	1279.98
303.76	1224.69
303.97	1181.68
304.19	1312.75
304.40	1310.70
304.61	1204.21
304.83	1298.41
305.04	1269.74
305.26	1241.07
305.47	1245.16
305.68	1269.74
305.90	1257.45
306.11	1261.55
306.33	1257.45
306.54	1320.94
306.75	1222.64
306.97	1251.31
307.18	1239.02
307.39	1247.21
307.61	1290.22
307.82	1236.97
308.04	1296.36
308.25	1236.97
308.46	1255.40
308.68	1261.55
308.89	1310.70
309.10	1218.54
309.32	1257.45
309.53	1253.36
309.74	1214.45
309.96	1245.16
310.17	1243.12
310.39	1251.31
310.60	1271.79
310.81	1267.69
311.03	1210.35
311.24	1255.40
311.45	1290.22
311.67	1224.69
311.88	1206.25
312.09	1290.22
312.31	1284.08
312.52	1269.74
312.73	1284.08
312.95	1204.21
313.16	1306.60
313.37	1306.60
313.59	1294.32
313.80	1216.49
314.01	1241.07
314.23	1220.59
314.44	1208.30
314.65	1245.16
314.87	1253.36
315.08	1253.36
315.29	1335.28
315.51	1257.45
315.72	1267.69
315.93	1372.14
316.15	1220.59
316.36	1277.93
316.57	1232.88
316.79	1282.03
317.00	1300.46
317.21	1253.36
317.43	1228.78
317.64	1257.45
317.85	1290.22
318.07	1198.06
318.28	1245.16
318.49	1214.45
318.70	1267.69
318.92	1284.08
319.13	1273.84
319.34	1310.70
319.56	1232.88
319.77	1316.84
319.98	1304.56
320.20	1275.88
320.41	1271.79
320.62	1257.45
320.83	1273.84
321.05	1257.45
321.26	1259.50
321.47	1298.41
321.69	1239.02
321.90	1318.89
322.11	1292.27
322.32	1271.79
322.54	1275.88
322.75	1282.03
322.96	1318.89
323.18	1249.26
323.39	1224.69
323.60	1288.17
323.81	1251.31
324.03	1222.64
324.24	1318.89
324.45	1286.12
324.66	1273.84
324.88	1224.69
325.09	1298.41
325.30	1255.40
325.52	1247.21
325.73	1277.93
325.94	1277.93
326.15	1261.55
326.37	1249.26
326.58	1265.64
326.79	1318.89
327.00	1214.45
327.22	1257.45
327.43	1302.51
327.64	1257.45
327.85	1247.21
328.07	1282.03
328.28	1239.02
328.49	1353.71
328.70	1253.36
328.92	1257.45
329.13	1322.99
329.34	1288.17
329.55	1286.12
329.76	1261.55
329.98	1286.12
330.19	1306.60
330.40	1294.32
330.61	1241.07
330.83	1282.03
331.04	1230.83
331.25	1300.46
331.46	1230.83
331.68	1216.49
331.89	1353.71
332.10	1286.12
332.31	1282.03
332.52	1241.07
332.74	1200.11
332.95	1247.21
333.16	1234.93
333.37	1193.97
333.58	1294.32
333.80	1253.36
334.01	1253.36
334.22	1257.45
334.43	1208.30
334.64	1249.26
334.86	1189.87
335.07	1228.78
335.28	1245.16
335.49	1218.54
335.70	1310.70
335.92	1222.64
336.13	1380.33
336.34	1284.08
336.55	1245.16
336.76	1294.32
336.98	1165.29
337.19	1236.97
337.40	1286.12
337.61	1216.49
337.82	1239.02
338.04	1245.16
338.25	1304.56
338.46	1261.55
338.67	1271.79
338.88	1269.74
339.09	1232.88
339.31	1210.35
339.52	1226.73
339.73	1228.78
339.94	1343.47
340.15	1173.49
340.36	1206.25
340.58	1239.02
340.79	1224.69
341.00	1316.84
341.21	1279.98
341.42	1267.69
341.63	1329.13
341.85	1247.21
342.06	1228.78
342.27	1216.49
342.48	1214.45
342.69	1267.69
342.90	1296.36
343.12	1294.32
343.33	1302.51
343.54	1288.17
343.75	1275.88
343.96	1224.69
344.17	1232.88
344.38	1282.03
344.60	1230.83
344.81	1284.08
345.02	1343.47
345.23	1279.98
345.44	1300.46
345.65	1269.74
345.86	1282.03
346.07	1277.93
346.29	1288.17
346.50	1220.59
346.71	1232.88
346.92	1314.80
347.13	1279.98
347.34	1226.73
347.55	1259.50
347.76	1261.55
347.98	1226.73
348.19	1243.12
348.40	1279.98
348.61	1259.50
348.82	1249.26
349.03	1247.21
349.24	1306.60
349.45	1277.93
349.66	1236.97
349.88	1216.49
350.09	1249.26
350.30	1286.12
350.51	1189.87
350.72	1294.32
350.93	1267.69
351.14	1236.97
351.35	1292.27
351.56	1259.50
351.77	1206.25
351.99	1245.16
352.20	1257.45
352.41	1306.60
352.62	1265.64
352.83	1298.41
353.04	1187.82
353.25	1212.40
353.46	1255.40
353.67	1259.50
353.88	1277.93
354.09	1263.60
354.30	1191.92
354.52	1277.93
354.73	1271.79
354.94	1267.69
355.15	1239.02
355.36	1312.75
355.57	1271.79
355.78	1341.42
355.99	1302.51
356.20	1177.58
356.41	1304.56
356.62	1279.98
356.83	1251.31
357.04	1245.16
357.25	1249.26
357.46	1282.03
357.68	1253.36
357.89	1314.80
358.10	1269.74
358.31	1253.36
358.52	1308.65
358.73	1263.60
358.94	1312.75
359.15	1273.84
359.36	1306.60
359.57	1296.36
359.78	1292.27
359.99	1251.31
360.20	1245.16
360.41	1234.93
360.62	1267.69
360.83	1282.03
361.04	1306.60
361.25	1259.50
361.46	1251.31
361.67	1351.66
361.88	1263.60
362.09	1282.03
362.30	1284.08
362.51	1314.80
362.72	1355.76
362.93	1310.70
363.14	1288.17
363.35	1249.26
363.56	1232.88
363.78	1239.02
363.99	1290.22
364.20	1331.18
364.41	1288.17
364.62	1290.22
364.83	1277.93
365.04	1212.40
365.25	1355.76
365.46	1261.55
365.67	1290.22
365.88	1290.22
366.09	1322.99
366.30	1296.36
366.51	1241.07
366.72	1212.40
366.93	1189.87
367.14	1249.26
367.35	1282.03
367.56	1306.60
367.77	1263.60
367.98	1247.21
368.18	1275.88
368.39	1161.20
368.60	1282.03
368.81	1306.60
369.02	1304.56
369.23	1300.46
369.44	1298.41
369.65	1322.99
369.86	1347.56
370.07	1322.99
370.28	1249.26
370.49	1247.21
370.70	1257.45
370.91	1300.46
371.12	1257.45
371.33	1257.45
371.54	1202.16
371.75	1243.12
371.96	1251.31
372.17	1265.64
372.38	1296.36
372.59	1359.85
372.80	1261.55
373.01	1282.03
373.22	1259.50
373.43	1318.89
373.64	1320.94
373.85	1320.94
374.06	1206.25
374.26	1230.83
374.47	1337.32
374.68	1214.45
374.89	1279.98
375.10	1216.49
375.31	1322.99
375.52	1222.64
375.73	1261.55
375.94	1214.45
376.15	1183.73
376.36	1259.50
376.57	1218.54
376.78	1265.64
376.99	1318.89
377.20	1302.51
377.40	1255.40
377.61	1239.02
377.82	1288.17
378.03	1271.79
378.24	1288.17
378.45	1310.70
378.66	1341.42
378.87	1259.50
379.08	1228.78
379.29	1228.78
379.50	1241.07
379.71	1236.97
379.91	1282.03
380.12	1275.88
380.33	1271.79
380.54	1234.93
380.75	1267.69
380.96	1257.45
381.17	1392.62
381.38	1312.75
381.59	1224.69
381.80	1247.21
382.00	1247.21
382.21	1306.60
382.42	1296.36
382.63	1359.85
382.84	1218.54
383.05	1257.45
383.26	1267.69
383.47	1294.32
383.68	1189.87
383.88	1206.25
384.09	1314.80
384.30	1294.32
384.51	1351.66
384.72	1302.51
384.93	1200.11
385.14	1318.89
385.35	1259.50
385.55	1259.50
385.76	1196.01
385.97	1234.93
386.18	1228.78
386.39	1302.51
386.60	1288.17
386.81	1224.69
387.02	1306.60
387.22	1259.50
387.43	1308.65
387.64	1236.97
387.85	1329.13
388.06	1288.17
388.27	1273.84
388.48	1187.82
388.68	1273.84
388.89	1269.74
389.10	1261.55
389.31	1243.12
389.52	1259.50
389.73	1294.32
389.93	1253.36
390.14	1294.32
390.35	1300.46
390.56	1286.12
390.77	1290.22
390.98	1261.55
391.18	1304.56
391.39	1265.64
391.60	1382.38
391.81	1320.94
392.02	1228.78
392.23	1296.36
392.43	1271.79
392.64	1294.32
392.85	1230.83
393.06	1275.88
393.27	1290.22
393.47	1243.12
393.68	1243.12
393.89	1284.08
394.10	1247.21
394.31	1222.64
394.52	1245.16
394.72	1290.22
394.93	1314.80
395.14	1263.60
395.35	1288.17
395.56	1249.26
395.76	1300.46
395.97	1318.89
396.18	1277.93
396.39	1226.73
396.60	1300.46
396.80	1200.11
397.01	1257.45
397.22	1304.56
397.43	1271.79
397.64	1300.46
397.84	1353.71
398.05	1273.84
398.26	1245.16
398.47	1286.12
398.67	1241.07
398.88	1269.74
399.09	1355.76
399.30	1204.21
399.51	1347.56
399.71	1286.12
399.92	1304.56
400.13	1257.45
400.34	1224.69
400.54	1236.97
400.75	1314.80
400.96	1253.36
401.17	1247.21
401.37	1304.56
401.58	1288.17
401.79	1275.88
402.00	1312.75
402.21	1273.84
402.41	1273.84
402.62	1269.74
402.83	1263.60
403.04	1322.99
403.24	1261.55
403.45	1222.64
403.66	1236.97
403.87	1265.64
404.07	1290.22
404.28	1224.69
404.49	1216.49
404.70	1277.93
404.90	1279.98
405.11	1243.12
405.32	1204.21
405.52	1290.22
405.73	1224.69
405.94	1245.16
406.15	1267.69
406.35	1220.59
406.56	1290.22
406.77	1288.17
406.98	1339.37
407.18	1267.69
407.39	1325.04
407.60	1290.22
407.80	1282.03
408.01	1263.60
408.22	1241.07
408.43	1306.60
408.63	1259.50
408.84	1189.87
409.05	1271.79
409.25	1243.12
409.46	1226.73
409.67	1277.93
409.88	1284.08
410.08	1253.36
410.29	1224.69
410.50	1337.32
410.70	1271.79
410.91	1234.93
411.12	1239.02
411.32	1216.49
411.53	1257.45
411.74	1249.26
411.95	1224.69
412.15	1216.49
412.36	1245.16
412.57	1273.84
412.77	1271.79
412.98	1220.59
413.19	1320.94
413.39	1255.40
413.60	1261.55
413.81	1243.12
414.01	1224.69
414.22	1310.70
414.43	1245.16
414.63	1343.47
414.84	1204.21
415.05	1253.36
415.25	1232.88
415.46	1208.30
415.67	1230.83
415.87	1273.84
416.08	1267.69
416.29	1210.35
416.49	1288.17
416.70	1296.36
416.91	1212.40
417.11	1284.08
417.32	1294.32
417.53	1275.88
417.73	1241.07
417.94	1302.51
418.15	1277.93
418.35	1243.12
418.56	1212.40
418.77	1251.31
418.97	1251.31
419.18	1282.03
419.38	1290.22
419.59	1355.76
419.80	1263.60
420.00	1337.32
420.21	1279.98
420.42	1259.50
420.62	1249.26
420.83	1282.03
421.04	1267.69
421.24	1214.45
421.45	1290.22
421.65	1253.36
421.86	1232.88
422.07	1390.57
422.27	1302.51
422.48	1269.74
422.69	1290.22
422.89	1257.45
423.10	1284.08
423.30	1269.74
423.51	1245.16
423.72	1243.12
423.92	1271.79
424.13	1265.64
424.33	1198.06
424.54	1255.40
424.75	1198.06
424.95	1241.07
425.16	1304.56
425.36	1304.56
425.57	1249.26
425.78	1255.40
425.98	1282.03
426.19	1245.16
426.39	1294.32
426.60	1302.51
426.81	1308.65
427.01	1255.40
427.22	1253.36
427.42	1277.93
427.63	1312.75
427.83	1261.55
428.04	1265.64
428.25	1267.69
428.45	1279.98
428.66	1236.97
428.86	1263.60
429.07	1306.60
429.28	1282.03
429.48	1243.12
429.69	1300.46
429.89	1224.69
430.10	1290.22
430.30	1267.69
430.51	1257.45
430.71	1316.84
430.92	1308.65
431.13	1341.42
431.33	1267.69
431.54	1257.45
431.74	1257.45
431.95	1300.46
432.15	1183.73
432.36	1253.36
432.56	1257.45
432.77	1265.64
432.98	1263.60
433.18	1222.64
433.39	1247.21
433.59	1259.50
433.80	1265.64
434.00	1290.22
434.21	1275.88
434.41	1265.64
434.62	1269.74
434.82	1232.88
435.03	1224.69
435.23	1245.16
435.44	1349.61
435.64	1230.83
435.85	1236.97
436.06	1269.74
436.26	1228.78
436.47	1292.27
436.67	1267.69
436.88	1292.27
437.08	1230.83
437.29	1333.23
437.49	1302.51
437.70	1279.98
437.90	1239.02
438.11	1243.12
438.31	1269.74
438.52	1284.08
438.72	1300.46
438.93	1187.82
439.13	1263.60
439.34	1269.74
439.54	1239.02
439.75	1275.88
439.95	1298.41
440.16	1263.60
440.36	1257.45
440.57	1275.88
440.77	1261.55
440.98	1284.08
441.18	1269.74
441.39	1257.45
441.59	1290.22
441.80	1247.21
442.00	1306.60
442.21	1277.93
442.41	1247.21
442.62	1331.18
442.82	1271.79
443.02	1241.07
443.23	1251.31
443.43	1265.64
443.64	1273.84
443.84	1286.12
444.05	1263.60
444.25	1249.26
444.46	1269.74
444.66	1322.99
444.87	1314.80
445.07	1382.38
445.28	1265.64
445.48	1284.08
445.69	1277.93
445.89	1298.41
446.09	1345.52
446.30	1275.88
446.50	1208.30
446.71	1228.78
446.91	1224.69
447.12	1288.17
447.32	1318.89
447.53	1200.11
447.73	1212.40
447.93	1277.93
448.14	1247.21
448.34	1302.51
448.55	1300.46
448.75	1232.88
448.96	1300.46
449.16	1239.02
449.36	1210.35
449.57	1331.18
449.77	1329.13
449.98	1200.11
450.18	1333.23
450.39	1286.12
450.59	1277.93
450.79	1333.23
451.00	1318.89
451.20	1265.64
451.41	1236.97
451.61	1325.04
451.81	1245.16
452.02	1241.07
452.22	1265.64
452.43	1247.21
452.63	1232.88
