SpectraSuite Data File
++++++++++++++++++++++++++++++++++++
Date: Sun Apr 03 19:55:52 CEST 2016
User: root
Dark Spectrum Present: No
Reference Spectrum Present: No
Number of Sampled Component Spectra: 1
Spectrometers: USB4C02835
Integration Time (usec): 10000 (USB4C02835)
Spectra Averaged: 1 (USB4C02835)
Boxcar Smoothing: 0 (USB4C02835)
Correct for Electrical Dark: No (USB4C02835)
Strobe/Lamp Enabled: No (USB4C02835)
Correct for Detector Non-linearity: No (USB4C02835)
Correct for Stray Light: No (USB4C02835)
Number of Pixels in Processed Spectrum: 3648
>>>>>Begin Processed Spectral Data<<<<<
177.47	1275.88
177.69	1275.88
177.91	1275.88
178.13	1263.60
178.36	1222.64
178.58	1239.02
178.80	1298.41
179.02	1202.16
179.24	1277.93
179.46	1302.51
179.68	1273.84
179.90	1271.79
180.13	1243.12
180.35	1271.79
180.57	1226.73
180.79	1265.64
181.01	1265.64
181.23	1345.52
181.45	1224.69
181.67	1232.88
181.90	1284.08
182.12	1251.31
182.34	1218.54
182.56	1253.36
182.78	1331.18
183.00	1243.12
183.22	1329.13
183.44	1337.32
183.66	1202.16
183.89	1245.16
184.11	1265.64
184.33	1290.22
184.55	1294.32
184.77	1337.32
184.99	1263.60
185.21	1206.25
185.43	1273.84
185.65	1275.88
185.87	1263.60
186.10	1259.50
186.32	1189.87
186.54	1222.64
186.76	1269.74
186.98	1304.56
187.20	1306.60
187.42	1282.03
187.64	1234.93
187.86	1230.83
188.08	1249.26
188.30	1169.39
188.52	1288.17
188.75	1284.08
188.97	1282.03
189.19	1277.93
189.41	1292.27
189.63	1290.22
189.85	1232.88
190.07	1339.37
190.29	1226.73
190.51	1300.46
190.73	1255.40
190.95	1294.32
191.17	1294.32
191.39	1234.93
191.61	1161.20
191.84	1271.79
192.06	1208.30
192.28	1277.93
192.50	1239.02
192.72	1228.78
192.94	1261.55
193.16	1249.26
193.38	1232.88
193.60	1243.12
193.82	1259.50
194.04	1251.31
194.26	1265.64
194.48	1228.78
194.70	1298.41
194.92	1245.16
195.14	1253.36
195.36	1243.12
195.58	1265.64
195.80	1212.40
196.02	1279.98
196.24	1294.32
196.46	1216.49
196.69	1216.49
196.91	1245.16
197.13	1251.31
197.35	1230.83
197.57	1320.94
197.79	1251.31
198.01	1302.51
198.23	1325.04
198.45	1251.31
198.67	1286.12
198.89	1286.12
199.11	1302.51
199.33	1279.98
199.55	1251.31
199.77	1228.78
199.99	1298.41
200.21	1216.49
200.43	1216.49
200.65	1286.12
200.87	1228.78
201.09	1251.31
201.31	1253.36
201.53	1302.51
201.75	1269.74
201.97	1249.26
202.19	1247.21
202.41	1255.40
202.63	1247.21
202.85	1259.50
203.07	1325.04
203.29	1318.89
203.51	1249.26
203.73	1257.45
203.95	1271.79
204.17	1300.46
204.39	1269.74
204.61	1308.65
204.83	1216.49
205.05	1316.84
205.27	1279.98
205.49	1310.70
205.71	1304.56
205.93	1236.97
206.15	1257.45
206.37	1222.64
206.59	1245.16
206.81	1325.04
207.03	1333.23
207.25	1212.40
207.47	1296.36
207.69	1239.02
207.91	1290.22
208.13	1286.12
208.34	1224.69
208.56	1267.69
208.78	1292.27
209.00	1298.41
209.22	1255.40
209.44	1247.21
209.66	1183.73
209.88	1267.69
210.10	1290.22
210.32	1261.55
210.54	1210.35
210.76	1267.69
210.98	1294.32
211.20	1247.21
211.42	1241.07
211.64	1214.45
211.86	1230.83
212.08	1155.05
212.30	1228.78
212.52	1282.03
212.74	1339.37
212.96	1288.17
213.17	1232.88
213.39	1202.16
213.61	1273.84
213.83	1322.99
214.05	1257.45
214.27	1243.12
214.49	1282.03
214.71	1206.25
214.93	1288.17
215.15	1232.88
215.37	1300.46
215.59	1224.69
215.81	1296.36
216.03	1282.03
216.24	1279.98
216.46	1232.88
216.68	1312.75
216.90	1284.08
217.12	1290.22
217.34	1243.12
217.56	1310.70
217.78	1345.52
218.00	1292.27
218.22	1279.98
218.44	1208.30
218.66	1204.21
218.87	1277.93
219.09	1226.73
219.31	1310.70
219.53	1255.40
219.75	1308.65
219.97	1355.76
220.19	1236.97
220.41	1208.30
220.63	1228.78
220.85	1249.26
221.06	1216.49
221.28	1261.55
221.50	1310.70
221.72	1236.97
221.94	1312.75
222.16	1245.16
222.38	1304.56
222.60	1366.00
222.82	1304.56
223.03	1279.98
223.25	1222.64
223.47	1241.07
223.69	1327.08
223.91	1257.45
224.13	1353.71
224.35	1239.02
224.57	1292.27
224.78	1230.83
225.00	1236.97
225.22	1284.08
225.44	1214.45
225.66	1204.21
225.88	1310.70
226.10	1308.65
226.32	1277.93
226.53	1234.93
226.75	1286.12
226.97	1198.06
227.19	1345.52
227.41	1308.65
227.63	1208.30
227.85	1271.79
228.06	1257.45
228.28	1241.07
228.50	1218.54
228.72	1224.69
228.94	1353.71
229.16	1212.40
229.37	1255.40
229.59	1185.77
229.81	1275.88
230.03	1271.79
230.25	1282.03
230.47	1218.54
230.69	1331.18
230.90	1249.26
231.12	1265.64
231.34	1210.35
231.56	1284.08
231.78	1282.03
232.00	1241.07
232.21	1304.56
232.43	1275.88
232.65	1333.23
232.87	1265.64
233.09	1222.64
233.30	1314.80
233.52	1282.03
233.74	1212.40
233.96	1282.03
234.18	1290.22
234.40	1318.89
234.61	1292.27
234.83	1304.56
235.05	1218.54
235.27	1267.69
235.49	1234.93
235.70	1259.50
235.92	1241.07
236.14	1255.40
236.36	1216.49
236.58	1247.21
236.79	1308.65
237.01	1153.01
237.23	1333.23
237.45	1308.65
237.67	1224.69
237.88	1320.94
238.10	1300.46
238.32	1320.94
238.54	1292.27
238.76	1296.36
238.97	1282.03
239.19	1222.64
239.41	1245.16
239.63	1210.35
239.85	1255.40
240.06	1265.64
240.28	1257.45
240.50	1294.32
240.72	1296.36
240.93	1269.74
241.15	1271.79
241.37	1261.55
241.59	1247.21
241.81	1243.12
242.02	1329.13
242.24	1253.36
242.46	1183.73
242.68	1218.54
242.89	1208.30
243.11	1241.07
243.33	1314.80
243.55	1271.79
243.76	1265.64
243.98	1208.30
244.20	1304.56
244.42	1212.40
244.64	1261.55
244.85	1236.97
245.07	1279.98
245.29	1230.83
245.51	1236.97
245.72	1292.27
245.94	1241.07
246.16	1222.64
246.38	1314.80
246.59	1204.21
246.81	1302.51
247.03	1271.79
247.24	1239.02
247.46	1228.78
247.68	1308.65
247.90	1316.84
248.11	1241.07
248.33	1294.32
248.55	1210.35
248.77	1284.08
248.98	1249.26
249.20	1304.56
249.42	1271.79
249.64	1277.93
249.85	1325.04
250.07	1265.64
250.29	1206.25
250.50	1251.31
250.72	1310.70
250.94	1275.88
251.16	1232.88
251.37	1255.40
251.59	1284.08
251.81	1273.84
252.02	1310.70
252.24	1220.59
252.46	1251.31
252.68	1290.22
252.89	1310.70
253.11	1230.83
253.33	1200.11
253.54	1243.12
253.76	1230.83
253.98	1216.49
254.20	1253.36
254.41	1193.97
254.63	1273.84
254.85	1220.59
255.06	1265.64
255.28	1259.50
255.50	1329.13
255.71	1302.51
255.93	1325.04
256.15	1308.65
256.36	1312.75
256.58	1279.98
256.80	1273.84
257.02	1290.22
257.23	1277.93
257.45	1210.35
257.67	1279.98
257.88	1243.12
258.10	1241.07
258.32	1263.60
258.53	1282.03
258.75	1333.23
258.97	1239.02
259.18	1220.59
259.40	1271.79
259.62	1247.21
259.83	1310.70
260.05	1308.65
260.27	1263.60
260.48	1296.36
260.70	1212.40
260.92	1245.16
261.13	1275.88
261.35	1275.88
261.57	1294.32
261.78	1275.88
262.00	1230.83
262.22	1269.74
262.43	1329.13
262.65	1310.70
262.86	1304.56
263.08	1273.84
263.30	1288.17
263.51	1218.54
263.73	1200.11
263.95	1271.79
264.16	1288.17
264.38	1259.50
264.60	1224.69
264.81	1310.70
265.03	1316.84
265.25	1288.17
265.46	1329.13
265.68	1263.60
265.89	1298.41
266.11	1163.25
266.33	1325.04
266.54	1286.12
266.76	1255.40
266.98	1271.79
267.19	1265.64
267.41	1265.64
267.62	1265.64
267.84	1212.40
268.06	1271.79
268.27	1257.45
268.49	1296.36
268.70	1212.40
268.92	1298.41
269.14	1234.93
269.35	1275.88
269.57	1312.75
269.79	1255.40
270.00	1198.06
270.22	1282.03
270.43	1241.07
270.65	1251.31
270.87	1261.55
271.08	1267.69
271.30	1271.79
271.51	1292.27
271.73	1284.08
271.95	1357.80
272.16	1327.08
272.38	1206.25
272.59	1292.27
272.81	1247.21
273.02	1288.17
273.24	1175.53
273.46	1251.31
273.67	1300.46
273.89	1351.66
274.10	1224.69
274.32	1288.17
274.54	1279.98
274.75	1263.60
274.97	1232.88
275.18	1296.36
275.40	1314.80
275.61	1306.60
275.83	1318.89
276.05	1302.51
276.26	1300.46
276.48	1263.60
276.69	1273.84
276.91	1282.03
277.12	1302.51
277.34	1243.12
277.55	1241.07
277.77	1214.45
277.99	1335.28
278.20	1286.12
278.42	1241.07
278.63	1251.31
278.85	1251.31
279.06	1255.40
279.28	1304.56
279.49	1236.97
279.71	1277.93
279.93	1249.26
280.14	1247.21
280.36	1292.27
280.57	1279.98
280.79	1236.97
281.00	1279.98
281.22	1261.55
281.43	1234.93
281.65	1247.21
281.86	1292.27
282.08	1277.93
282.29	1261.55
282.51	1202.16
282.73	1282.03
282.94	1286.12
283.16	1345.52
283.37	1300.46
283.59	1259.50
283.80	1267.69
284.02	1284.08
284.23	1249.26
284.45	1314.80
284.66	1331.18
284.88	1329.13
285.09	1228.78
285.31	1277.93
285.52	1298.41
285.74	1314.80
285.95	1269.74
286.17	1228.78
286.38	1284.08
286.60	1290.22
286.81	1271.79
287.03	1308.65
287.24	1247.21
287.46	1306.60
287.67	1279.98
287.89	1343.47
288.10	1210.35
288.32	1322.99
288.53	1308.65
288.75	1261.55
288.96	1288.17
289.18	1251.31
289.39	1286.12
289.61	1200.11
289.82	1259.50
290.04	1277.93
290.25	1206.25
290.47	1284.08
290.68	1277.93
290.90	1265.64
291.11	1191.92
291.33	1273.84
291.54	1210.35
291.76	1208.30
291.97	1345.52
292.18	1165.29
292.40	1214.45
292.61	1234.93
292.83	1273.84
293.04	1306.60
293.26	1247.21
293.47	1273.84
293.69	1249.26
293.90	1275.88
294.12	1247.21
294.33	1286.12
294.55	1251.31
294.76	1271.79
294.97	1269.74
295.19	1275.88
295.40	1269.74
295.62	1368.04
295.83	1251.31
296.05	1253.36
296.26	1245.16
296.48	1286.12
296.69	1302.51
296.90	1220.59
297.12	1265.64
297.33	1241.07
297.55	1267.69
297.76	1239.02
297.98	1314.80
298.19	1273.84
298.41	1277.93
298.62	1249.26
298.83	1333.23
299.05	1288.17
299.26	1153.01
299.48	1306.60
299.69	1236.97
299.90	1271.79
300.12	1216.49
300.33	1202.16
300.55	1247.21
300.76	1302.51
300.98	1236.97
301.19	1327.08
301.40	1253.36
301.62	1273.84
301.83	1284.08
302.05	1290.22
302.26	1216.49
302.47	1288.17
302.69	1279.98
302.90	1327.08
303.12	1259.50
303.33	1312.75
303.54	1210.35
303.76	1265.64
303.97	1271.79
304.19	1290.22
304.40	1296.36
304.61	1241.07
304.83	1204.21
305.04	1255.40
305.26	1314.80
305.47	1357.80
305.68	1249.26
305.90	1263.60
306.11	1265.64
306.33	1265.64
306.54	1267.69
306.75	1277.93
306.97	1234.93
307.18	1251.31
307.39	1193.97
307.61	1308.65
307.82	1271.79
308.04	1306.60
308.25	1251.31
308.46	1224.69
308.68	1304.56
308.89	1241.07
309.10	1253.36
309.32	1267.69
309.53	1265.64
309.74	1222.64
309.96	1286.12
310.17	1251.31
310.39	1271.79
310.60	1304.56
310.81	1271.79
311.03	1255.40
311.24	1325.04
311.45	1200.11
311.67	1286.12
311.88	1267.69
312.09	1212.40
312.31	1218.54
312.52	1222.64
312.73	1322.99
312.95	1353.71
313.16	1261.55
313.37	1236.97
313.59	1214.45
313.80	1249.26
314.01	1329.13
314.23	1236.97
314.44	1200.11
314.65	1318.89
314.87	1245.16
315.08	1241.07
315.29	1253.36
315.51	1322.99
315.72	1216.49
315.93	1222.64
316.15	1282.03
316.36	1341.42
316.57	1288.17
316.79	1294.32
317.00	1224.69
317.21	1294.32
317.43	1179.63
317.64	1241.07
317.85	1232.88
318.07	1343.47
318.28	1263.60
318.49	1263.60
318.70	1273.84
318.92	1302.51
319.13	1273.84
319.34	1191.92
319.56	1255.40
319.77	1249.26
319.98	1216.49
320.20	1257.45
320.41	1263.60
320.62	1286.12
320.83	1279.98
321.05	1273.84
321.26	1263.60
321.47	1257.45
321.69	1202.16
321.90	1251.31
322.11	1216.49
322.32	1253.36
322.54	1249.26
322.75	1269.74
322.96	1320.94
323.18	1316.84
323.39	1290.22
323.60	1200.11
323.81	1273.84
324.03	1216.49
324.24	1263.60
324.45	1177.58
324.66	1230.83
324.88	1224.69
325.09	1308.65
325.30	1257.45
325.52	1279.98
325.73	1275.88
325.94	1206.25
326.15	1228.78
326.37	1277.93
326.58	1269.74
326.79	1259.50
327.00	1249.26
327.22	1286.12
327.43	1224.69
327.64	1183.73
327.85	1216.49
328.07	1247.21
328.28	1273.84
328.49	1265.64
328.70	1269.74
328.92	1290.22
329.13	1249.26
329.34	1267.69
329.55	1286.12
329.76	1298.41
329.98	1230.83
330.19	1236.97
330.40	1249.26
330.61	1320.94
330.83	1277.93
331.04	1241.07
331.25	1257.45
331.46	1288.17
331.68	1302.51
331.89	1308.65
332.10	1302.51
332.31	1306.60
332.52	1257.45
332.74	1261.55
332.95	1347.56
333.16	1259.50
333.37	1275.88
333.58	1310.70
333.80	1232.88
334.01	1294.32
334.22	1220.59
334.43	1232.88
334.64	1277.93
334.86	1198.06
335.07	1263.60
335.28	1255.40
335.49	1247.21
335.70	1263.60
335.92	1249.26
336.13	1261.55
336.34	1243.12
336.55	1292.27
336.76	1245.16
336.98	1230.83
337.19	1241.07
337.40	1208.30
337.61	1208.30
337.82	1200.11
338.04	1243.12
338.25	1372.14
338.46	1292.27
338.67	1329.13
338.88	1255.40
339.09	1275.88
339.31	1298.41
339.52	1273.84
339.73	1239.02
339.94	1253.36
340.15	1245.16
340.36	1206.25
340.58	1249.26
340.79	1228.78
341.00	1286.12
341.21	1296.36
341.42	1304.56
341.63	1187.82
341.85	1263.60
342.06	1327.08
342.27	1269.74
342.48	1198.06
342.69	1226.73
342.90	1288.17
343.12	1302.51
343.33	1304.56
343.54	1273.84
343.75	1282.03
343.96	1212.40
344.17	1269.74
344.38	1257.45
344.60	1304.56
344.81	1279.98
345.02	1177.58
345.23	1232.88
345.44	1263.60
345.65	1255.40
345.86	1259.50
346.07	1259.50
346.29	1269.74
346.50	1275.88
346.71	1282.03
346.92	1187.82
347.13	1257.45
347.34	1290.22
347.55	1257.45
347.76	1216.49
347.98	1282.03
348.19	1267.69
348.40	1269.74
348.61	1314.80
348.82	1282.03
349.03	1300.46
349.24	1320.94
349.45	1257.45
349.66	1329.13
349.88	1234.93
350.09	1284.08
350.30	1255.40
350.51	1245.16
350.72	1253.36
350.93	1263.60
351.14	1318.89
351.35	1275.88
351.56	1302.51
351.77	1263.60
351.99	1265.64
352.20	1312.75
352.41	1220.59
352.62	1265.64
352.83	1298.41
353.04	1236.97
353.25	1245.16
353.46	1329.13
353.67	1196.01
353.88	1230.83
354.09	1257.45
354.30	1183.73
354.52	1261.55
354.73	1331.18
354.94	1234.93
355.15	1234.93
355.36	1243.12
355.57	1331.18
355.78	1333.23
355.99	1261.55
356.20	1243.12
356.41	1316.84
356.62	1277.93
356.83	1257.45
357.04	1298.41
357.25	1275.88
357.46	1298.41
357.68	1273.84
357.89	1228.78
358.10	1300.46
358.31	1253.36
358.52	1263.60
358.73	1282.03
358.94	1357.80
359.15	1296.36
359.36	1226.73
359.57	1273.84
359.78	1302.51
359.99	1314.80
360.20	1275.88
360.41	1230.83
360.62	1249.26
360.83	1249.26
361.04	1290.22
361.25	1298.41
361.46	1239.02
361.67	1277.93
361.88	1316.84
362.09	1273.84
362.30	1312.75
362.51	1267.69
362.72	1314.80
362.93	1331.18
363.14	1290.22
363.35	1255.40
363.56	1245.16
363.78	1243.12
363.99	1269.74
364.20	1247.21
364.41	1269.74
364.62	1300.46
364.83	1286.12
365.04	1277.93
365.25	1284.08
365.46	1284.08
365.67	1181.68
365.88	1243.12
366.09	1304.56
366.30	1220.59
366.51	1249.26
366.72	1267.69
366.93	1241.07
367.14	1234.93
367.35	1286.12
367.56	1273.84
367.77	1296.36
367.98	1288.17
368.18	1269.74
368.39	1345.52
368.60	1290.22
368.81	1249.26
369.02	1347.56
369.23	1284.08
369.44	1279.98
369.65	1226.73
369.86	1277.93
370.07	1279.98
370.28	1327.08
370.49	1298.41
370.70	1249.26
370.91	1224.69
371.12	1204.21
371.33	1241.07
371.54	1345.52
371.75	1206.25
371.96	1284.08
372.17	1325.04
372.38	1230.83
372.59	1314.80
372.80	1282.03
373.01	1249.26
373.22	1277.93
373.43	1288.17
373.64	1308.65
373.85	1245.16
374.06	1249.26
374.26	1267.69
374.47	1224.69
374.68	1286.12
374.89	1286.12
375.10	1222.64
375.31	1251.31
375.52	1277.93
375.73	1263.60
375.94	1245.16
376.15	1249.26
376.36	1232.88
376.57	1259.50
376.78	1288.17
376.99	1322.99
377.20	1253.36
377.40	1275.88
377.61	1218.54
377.82	1210.35
378.03	1167.34
378.24	1310.70
378.45	1333.23
378.66	1249.26
378.87	1255.40
379.08	1255.40
379.29	1251.31
379.50	1331.18
379.71	1257.45
379.91	1263.60
380.12	1296.36
380.33	1255.40
380.54	1249.26
380.75	1239.02
380.96	1245.16
381.17	1310.70
381.38	1273.84
381.59	1247.21
381.80	1302.51
382.00	1279.98
382.21	1300.46
382.42	1333.23
382.63	1187.82
382.84	1282.03
383.05	1279.98
383.26	1269.74
383.47	1316.84
383.68	1210.35
383.88	1314.80
384.09	1339.37
384.30	1320.94
384.51	1322.99
384.72	1294.32
384.93	1234.93
385.14	1261.55
385.35	1245.16
385.55	1273.84
385.76	1230.83
385.97	1282.03
386.18	1267.69
386.39	1267.69
386.60	1216.49
386.81	1265.64
387.02	1236.97
387.22	1228.78
387.43	1302.51
387.64	1279.98
387.85	1320.94
388.06	1282.03
388.27	1232.88
388.48	1253.36
388.68	1294.32
388.89	1394.67
389.10	1257.45
389.31	1300.46
389.52	1290.22
389.73	1279.98
389.93	1257.45
390.14	1277.93
390.35	1277.93
390.56	1300.46
390.77	1282.03
390.98	1275.88
391.18	1306.60
391.39	1310.70
391.60	1265.64
391.81	1265.64
392.02	1271.79
392.23	1249.26
392.43	1294.32
392.64	1286.12
392.85	1314.80
393.06	1316.84
393.27	1239.02
393.47	1286.12
393.68	1265.64
393.89	1222.64
394.10	1269.74
394.31	1214.45
394.52	1230.83
394.72	1288.17
394.93	1265.64
395.14	1173.49
395.35	1249.26
395.56	1224.69
395.76	1329.13
395.97	1267.69
396.18	1290.22
396.39	1236.97
396.60	1226.73
396.80	1218.54
397.01	1327.08
397.22	1300.46
397.43	1306.60
397.64	1167.34
397.84	1273.84
398.05	1286.12
398.26	1286.12
398.47	1241.07
398.67	1304.56
398.88	1279.98
399.09	1175.53
399.30	1224.69
399.51	1292.27
399.71	1298.41
399.92	1353.71
400.13	1308.65
400.34	1282.03
400.54	1230.83
400.75	1259.50
400.96	1302.51
401.17	1277.93
401.37	1282.03
401.58	1226.73
401.79	1290.22
402.00	1288.17
402.21	1310.70
402.41	1298.41
402.62	1277.93
402.83	1265.64
403.04	1245.16
403.24	1308.65
403.45	1296.36
403.66	1230.83
403.87	1191.92
404.07	1308.65
404.28	1261.55
404.49	1257.45
404.70	1284.08
404.90	1249.26
405.11	1337.32
405.32	1249.26
405.52	1165.29
405.73	1269.74
405.94	1247.21
406.15	1314.80
406.35	1265.64
406.56	1275.88
406.77	1304.56
406.98	1282.03
407.18	1269.74
407.39	1273.84
407.60	1284.08
407.80	1310.70
408.01	1241.07
408.22	1257.45
408.43	1277.93
408.63	1306.60
408.84	1265.64
409.05	1343.47
409.25	1257.45
409.46	1261.55
409.67	1239.02
409.88	1273.84
410.08	1187.82
410.29	1247.21
410.50	1241.07
410.70	1282.03
410.91	1236.97
411.12	1212.40
411.32	1296.36
411.53	1193.97
411.74	1212.40
411.95	1296.36
412.15	1265.64
412.36	1261.55
412.57	1216.49
412.77	1300.46
412.98	1187.82
413.19	1230.83
413.39	1214.45
413.60	1216.49
413.81	1212.40
414.01	1228.78
414.22	1296.36
414.43	1308.65
414.63	1261.55
414.84	1316.84
415.05	1335.28
415.25	1245.16
415.46	1382.38
415.67	1259.50
415.87	1263.60
416.08	1265.64
416.29	1222.64
416.49	1304.56
416.70	1208.30
416.91	1269.74
417.11	1261.55
417.32	1304.56
417.53	1306.60
417.73	1279.98
417.94	1214.45
418.15	1286.12
418.35	1245.16
418.56	1314.80
418.77	1288.17
418.97	1322.99
419.18	1288.17
419.38	1304.56
419.59	1249.26
419.80	1282.03
420.00	1294.32
420.21	1265.64
420.42	1304.56
420.62	1275.88
420.83	1222.64
421.04	1249.26
421.24	1241.07
421.45	1312.75
421.65	1329.13
421.86	1279.98
422.07	1204.21
422.27	1294.32
422.48	1314.80
422.69	1292.27
422.89	1308.65
423.10	1241.07
423.30	1226.73
423.51	1304.56
423.72	1320.94
423.92	1183.73
424.13	1220.59
424.33	1282.03
424.54	1239.02
424.75	1259.50
424.95	1275.88
425.16	1253.36
425.36	1304.56
425.57	1257.45
425.78	1284.08
425.98	1316.84
426.19	1263.60
426.39	1290.22
426.60	1296.36
426.81	1241.07
427.01	1193.97
427.22	1239.02
427.42	1220.59
427.63	1247.21
427.83	1249.26
428.04	1245.16
428.25	1241.07
428.45	1218.54
428.66	1222.64
428.86	1316.84
429.07	1376.24
429.28	1329.13
429.48	1245.16
429.69	1251.31
429.89	1249.26
430.10	1341.42
430.30	1230.83
430.51	1331.18
430.71	1232.88
430.92	1263.60
431.13	1273.84
431.33	1284.08
431.54	1230.83
431.74	1282.03
431.95	1226.73
432.15	1296.36
432.36	1253.36
432.56	1294.32
432.77	1269.74
432.98	1212.40
433.18	1277.93
433.39	1273.84
433.59	1288.17
433.80	1282.03
434.00	1265.64
434.21	1271.79
434.41	1275.88
434.62	1288.17
434.82	1304.56
435.03	1296.36
435.23	1239.02
435.44	1245.16
435.64	1322.99
435.85	1292.27
436.06	1224.69
436.26	1253.36
436.47	1259.50
436.67	1316.84
436.88	1212.40
437.08	1230.83
437.29	1282.03
437.49	1279.98
437.70	1302.51
437.90	1333.23
438.11	1273.84
438.31	1255.40
438.52	1290.22
438.72	1243.12
438.93	1279.98
439.13	1261.55
439.34	1314.80
439.54	1255.40
439.75	1255.40
439.95	1255.40
440.16	1230.83
440.36	1337.32
440.57	1269.74
440.77	1298.41
440.98	1325.04
441.18	1253.36
441.39	1300.46
441.59	1366.00
441.80	1322.99
442.00	1267.69
442.21	1304.56
442.41	1232.88
442.62	1251.31
442.82	1284.08
443.02	1198.06
443.23	1339.37
443.43	1277.93
443.64	1349.61
443.84	1241.07
444.05	1325.04
444.25	1282.03
444.46	1230.83
444.66	1282.03
444.87	1232.88
445.07	1214.45
445.28	1300.46
445.48	1251.31
445.69	1290.22
445.89	1261.55
446.09	1263.60
446.30	1239.02
446.50	1267.69
446.71	1265.64
446.91	1200.11
447.12	1261.55
447.32	1325.04
447.53	1247.21
447.73	1316.84
447.93	1306.60
448.14	1288.17
448.34	1251.31
448.55	1316.84
448.75	1284.08
448.96	1296.36
449.16	1259.50
449.36	1304.56
449.57	1255.40
449.77	1239.02
449.98	1253.36
450.18	1331.18
450.39	1277.93
450.59	1253.36
450.79	1304.56
451.00	1196.01
451.20	1312.75
451.41	1300.46
451.61	1267.69
451.81	1343.47
452.02	1247.21
452.22	1241.07
452.43	1327.08
452.63	1302.51
