SpectraSuite Data File
++++++++++++++++++++++++++++++++++++
Date: Sun Apr 03 19:55:40 CEST 2016
User: root
Dark Spectrum Present: No
Reference Spectrum Present: No
Number of Sampled Component Spectra: 1
Spectrometers: USB4C02835
Integration Time (usec): 10000 (USB4C02835)
Spectra Averaged: 1 (USB4C02835)
Boxcar Smoothing: 0 (USB4C02835)
Correct for Electrical Dark: No (USB4C02835)
Strobe/Lamp Enabled: No (USB4C02835)
Correct for Detector Non-linearity: No (USB4C02835)
Correct for Stray Light: No (USB4C02835)
Number of Pixels in Processed Spectrum: 3648
>>>>>Begin Processed Spectral Data<<<<<
177.47	1263.60
177.69	1263.60
177.91	1263.60
178.13	1249.26
178.36	1273.84
178.58	1224.69
178.80	1290.22
179.02	1290.22
179.24	1247.21
179.46	1322.99
179.68	1263.60
179.90	1284.08
180.13	1320.94
180.35	1247.21
180.57	1269.74
180.79	1210.35
181.01	1263.60
181.23	1249.26
181.45	1271.79
181.67	1361.90
181.90	1243.12
182.12	1335.28
182.34	1263.60
182.56	1245.16
182.78	1243.12
183.00	1265.64
183.22	1241.07
183.44	1331.18
183.66	1275.88
183.89	1259.50
184.11	1255.40
184.33	1175.53
184.55	1304.56
184.77	1310.70
184.99	1279.98
185.21	1267.69
185.43	1271.79
185.65	1333.23
185.87	1253.36
186.10	1296.36
186.32	1331.18
186.54	1259.50
186.76	1286.12
186.98	1214.45
187.20	1263.60
187.42	1239.02
187.64	1222.64
187.86	1277.93
188.08	1275.88
188.30	1251.31
188.52	1234.93
188.75	1304.56
188.97	1259.50
189.19	1198.06
189.41	1263.60
189.63	1257.45
189.85	1306.60
190.07	1279.98
190.29	1193.97
190.51	1277.93
190.73	1318.89
190.95	1284.08
191.17	1292.27
191.39	1271.79
191.61	1253.36
191.84	1255.40
192.06	1304.56
192.28	1263.60
192.50	1331.18
192.72	1290.22
192.94	1282.03
193.16	1255.40
193.38	1322.99
193.60	1275.88
193.82	1239.02
194.04	1220.59
194.26	1273.84
194.48	1253.36
194.70	1247.21
194.92	1257.45
195.14	1269.74
195.36	1269.74
195.58	1279.98
195.80	1300.46
196.02	1247.21
196.24	1298.41
196.46	1249.26
196.69	1200.11
196.91	1255.40
197.13	1282.03
197.35	1296.36
197.57	1261.55
197.79	1234.93
198.01	1308.65
198.23	1261.55
198.45	1222.64
198.67	1239.02
198.89	1265.64
199.11	1212.40
199.33	1282.03
199.55	1255.40
199.77	1314.80
199.99	1232.88
200.21	1322.99
200.43	1267.69
200.65	1329.13
200.87	1259.50
201.09	1228.78
201.31	1247.21
201.53	1327.08
201.75	1282.03
201.97	1275.88
202.19	1239.02
202.41	1216.49
202.63	1222.64
202.85	1230.83
203.07	1267.69
203.29	1191.92
203.51	1269.74
203.73	1251.31
203.95	1290.22
204.17	1210.35
204.39	1239.02
204.61	1296.36
204.83	1325.04
205.05	1255.40
205.27	1277.93
205.49	1308.65
205.71	1230.83
205.93	1269.74
206.15	1247.21
206.37	1282.03
206.59	1294.32
206.81	1284.08
207.03	1218.54
207.25	1269.74
207.47	1298.41
207.69	1191.92
207.91	1275.88
208.13	1284.08
208.34	1247.21
208.56	1249.26
208.78	1212.40
209.00	1316.84
209.22	1212.40
209.44	1327.08
209.66	1306.60
209.88	1245.16
210.10	1279.98
210.32	1318.89
210.54	1232.88
210.76	1290.22
210.98	1273.84
211.20	1200.11
211.42	1208.30
211.64	1304.56
211.86	1306.60
212.08	1300.46
212.30	1245.16
212.52	1265.64
212.74	1306.60
212.96	1241.07
213.17	1247.21
213.39	1222.64
213.61	1269.74
213.83	1243.12
214.05	1288.17
214.27	1351.66
214.49	1224.69
214.71	1275.88
214.93	1308.65
215.15	1243.12
215.37	1302.51
215.59	1234.93
215.81	1304.56
216.03	1300.46
216.24	1249.26
216.46	1234.93
216.68	1275.88
216.90	1282.03
217.12	1222.64
217.34	1245.16
217.56	1267.69
217.78	1267.69
218.00	1261.55
218.22	1253.36
218.44	1220.59
218.66	1269.74
218.87	1236.97
219.09	1300.46
219.31	1257.45
219.53	1251.31
219.75	1335.28
219.97	1257.45
220.19	1226.73
220.41	1320.94
220.63	1294.32
220.85	1245.16
221.06	1327.08
221.28	1343.47
221.50	1298.41
221.72	1255.40
221.94	1298.41
222.16	1290.22
222.38	1271.79
222.60	1259.50
222.82	1239.02
223.03	1308.65
223.25	1302.51
223.47	1275.88
223.69	1316.84
223.91	1288.17
224.13	1259.50
224.35	1275.88
224.57	1294.32
224.78	1271.79
225.00	1247.21
225.22	1220.59
225.44	1267.69
225.66	1288.17
225.88	1236.97
226.10	1320.94
226.32	1259.50
226.53	1255.40
226.75	1204.21
226.97	1261.55
227.19	1271.79
227.41	1257.45
227.63	1249.26
227.85	1243.12
228.06	1296.36
228.28	1284.08
228.50	1322.99
228.72	1310.70
228.94	1290.22
229.16	1298.41
229.37	1224.69
229.59	1298.41
229.81	1292.27
230.03	1271.79
230.25	1327.08
230.47	1271.79
230.69	1208.30
230.90	1202.16
231.12	1255.40
231.34	1296.36
231.56	1331.18
231.78	1249.26
232.00	1255.40
232.21	1198.06
232.43	1204.21
232.65	1243.12
232.87	1292.27
233.09	1216.49
233.30	1302.51
233.52	1239.02
233.74	1247.21
233.96	1253.36
234.18	1273.84
234.40	1257.45
234.61	1314.80
234.83	1284.08
235.05	1212.40
235.27	1239.02
235.49	1322.99
235.70	1234.93
235.92	1284.08
236.14	1304.56
236.36	1265.64
236.58	1290.22
236.79	1288.17
237.01	1314.80
237.23	1206.25
237.45	1284.08
237.67	1308.65
237.88	1230.83
238.10	1275.88
238.32	1253.36
238.54	1220.59
238.76	1226.73
238.97	1236.97
239.19	1325.04
239.41	1296.36
239.63	1263.60
239.85	1230.83
240.06	1249.26
240.28	1277.93
240.50	1222.64
240.72	1208.30
240.93	1286.12
241.15	1329.13
241.37	1222.64
241.59	1239.02
241.81	1255.40
242.02	1263.60
242.24	1314.80
242.46	1284.08
242.68	1236.97
242.89	1294.32
243.11	1277.93
243.33	1279.98
243.55	1288.17
243.76	1239.02
243.98	1251.31
244.20	1265.64
244.42	1273.84
244.64	1273.84
244.85	1236.97
245.07	1218.54
245.29	1282.03
245.51	1226.73
245.72	1257.45
245.94	1286.12
246.16	1327.08
246.38	1322.99
246.59	1255.40
246.81	1282.03
247.03	1232.88
247.24	1181.68
247.46	1263.60
247.68	1259.50
247.90	1220.59
248.11	1257.45
248.33	1275.88
248.55	1290.22
248.77	1294.32
248.98	1275.88
249.20	1290.22
249.42	1255.40
249.64	1273.84
249.85	1236.97
250.07	1249.26
250.29	1245.16
250.50	1265.64
250.72	1226.73
250.94	1259.50
251.16	1292.27
251.37	1296.36
251.59	1312.75
251.81	1322.99
252.02	1198.06
252.24	1249.26
252.46	1249.26
252.68	1251.31
252.89	1333.23
253.11	1226.73
253.33	1263.60
253.54	1345.52
253.76	1269.74
253.98	1249.26
254.20	1259.50
254.41	1241.07
254.63	1271.79
254.85	1222.64
255.06	1243.12
255.28	1298.41
255.50	1198.06
255.71	1296.36
255.93	1214.45
256.15	1191.92
256.36	1284.08
256.58	1306.60
256.80	1306.60
257.02	1327.08
257.23	1255.40
257.45	1265.64
257.67	1331.18
257.88	1261.55
258.10	1339.37
258.32	1282.03
258.53	1279.98
258.75	1191.92
258.97	1284.08
259.18	1314.80
259.40	1226.73
259.62	1302.51
259.83	1380.33
260.05	1296.36
260.27	1234.93
260.48	1267.69
260.70	1320.94
260.92	1300.46
261.13	1284.08
261.35	1257.45
261.57	1325.04
261.78	1251.31
262.00	1234.93
262.22	1279.98
262.43	1298.41
262.65	1269.74
262.86	1333.23
263.08	1347.56
263.30	1314.80
263.51	1290.22
263.73	1290.22
263.95	1251.31
264.16	1279.98
264.38	1204.21
264.60	1286.12
264.81	1259.50
265.03	1236.97
265.25	1273.84
265.46	1251.31
265.68	1245.16
265.89	1296.36
266.11	1239.02
266.33	1255.40
266.54	1300.46
266.76	1359.85
266.98	1191.92
267.19	1216.49
267.41	1267.69
267.62	1273.84
267.84	1271.79
268.06	1302.51
268.27	1271.79
268.49	1308.65
268.70	1216.49
268.92	1298.41
269.14	1243.12
269.35	1271.79
269.57	1220.59
269.79	1282.03
270.00	1206.25
270.22	1251.31
270.43	1239.02
270.65	1335.28
270.87	1279.98
271.08	1239.02
271.30	1241.07
271.51	1259.50
271.73	1267.69
271.95	1273.84
272.16	1175.53
272.38	1249.26
272.59	1208.30
272.81	1337.32
273.02	1239.02
273.24	1241.07
273.46	1212.40
273.67	1310.70
273.89	1210.35
274.10	1230.83
274.32	1273.84
274.54	1331.18
274.75	1263.60
274.97	1282.03
275.18	1251.31
275.40	1196.01
275.61	1273.84
275.83	1312.75
276.05	1226.73
276.26	1290.22
276.48	1312.75
276.69	1239.02
276.91	1277.93
277.12	1189.87
277.34	1322.99
277.55	1296.36
277.77	1304.56
277.99	1288.17
278.20	1253.36
278.42	1279.98
278.63	1267.69
278.85	1228.78
279.06	1302.51
279.28	1298.41
279.49	1288.17
279.71	1320.94
279.93	1296.36
280.14	1314.80
280.36	1273.84
280.57	1232.88
280.79	1294.32
281.00	1230.83
281.22	1228.78
281.43	1273.84
281.65	1214.45
281.86	1241.07
282.08	1282.03
282.29	1269.74
282.51	1185.77
282.73	1302.51
282.94	1292.27
283.16	1265.64
283.37	1275.88
283.59	1306.60
283.80	1284.08
284.02	1314.80
284.23	1253.36
284.45	1208.30
284.66	1257.45
284.88	1255.40
285.09	1325.04
285.31	1294.32
285.52	1320.94
285.74	1263.60
285.95	1296.36
286.17	1249.26
286.38	1275.88
286.60	1257.45
286.81	1267.69
287.03	1259.50
287.24	1232.88
287.46	1263.60
287.67	1218.54
287.89	1255.40
288.10	1257.45
288.32	1282.03
288.53	1257.45
288.75	1275.88
288.96	1236.97
289.18	1255.40
289.39	1271.79
289.61	1298.41
289.82	1265.64
290.04	1296.36
290.25	1298.41
290.47	1282.03
290.68	1212.40
290.90	1292.27
291.11	1273.84
291.33	1277.93
291.54	1210.35
291.76	1284.08
291.97	1212.40
292.18	1306.60
292.40	1292.27
292.61	1200.11
292.83	1263.60
293.04	1175.53
293.26	1341.42
293.47	1263.60
293.69	1263.60
293.90	1314.80
294.12	1298.41
294.33	1257.45
294.55	1306.60
294.76	1224.69
294.97	1308.65
295.19	1257.45
295.40	1196.01
295.62	1279.98
295.83	1290.22
296.05	1290.22
296.26	1314.80
296.48	1279.98
296.69	1265.64
296.90	1329.13
297.12	1314.80
297.33	1318.89
297.55	1210.35
297.76	1265.64
297.98	1263.60
298.19	1327.08
298.41	1261.55
298.62	1222.64
298.83	1247.21
299.05	1239.02
299.26	1269.74
299.48	1282.03
299.69	1331.18
299.90	1243.12
300.12	1265.64
300.33	1279.98
300.55	1269.74
300.76	1286.12
300.98	1284.08
301.19	1279.98
301.40	1228.78
301.62	1343.47
301.83	1191.92
302.05	1226.73
302.26	1226.73
302.47	1292.27
302.69	1273.84
302.90	1263.60
303.12	1198.06
303.33	1306.60
303.54	1370.09
303.76	1214.45
303.97	1296.36
304.19	1275.88
304.40	1271.79
304.61	1290.22
304.83	1224.69
305.04	1284.08
305.26	1376.24
305.47	1271.79
305.68	1175.53
305.90	1245.16
306.11	1230.83
306.33	1282.03
306.54	1288.17
306.75	1294.32
306.97	1263.60
307.18	1265.64
307.39	1245.16
307.61	1267.69
307.82	1269.74
308.04	1316.84
308.25	1247.21
308.46	1220.59
308.68	1263.60
308.89	1183.73
309.10	1263.60
309.32	1310.70
309.53	1261.55
309.74	1286.12
309.96	1314.80
310.17	1241.07
310.39	1230.83
310.60	1304.56
310.81	1253.36
311.03	1222.64
311.24	1343.47
311.45	1255.40
311.67	1279.98
311.88	1204.21
312.09	1236.97
312.31	1294.32
312.52	1353.71
312.73	1275.88
312.95	1277.93
313.16	1236.97
313.37	1347.56
313.59	1314.80
313.80	1222.64
314.01	1275.88
314.23	1241.07
314.44	1263.60
314.65	1261.55
314.87	1208.30
315.08	1247.21
315.29	1290.22
315.51	1269.74
315.72	1267.69
315.93	1366.00
316.15	1339.37
316.36	1282.03
316.57	1257.45
316.79	1294.32
317.00	1265.64
317.21	1253.36
317.43	1304.56
317.64	1232.88
317.85	1259.50
318.07	1271.79
318.28	1304.56
318.49	1318.89
318.70	1279.98
318.92	1261.55
319.13	1208.30
319.34	1363.95
319.56	1370.09
319.77	1261.55
319.98	1247.21
320.20	1198.06
320.41	1249.26
320.62	1222.64
320.83	1294.32
321.05	1236.97
321.26	1294.32
321.47	1310.70
321.69	1288.17
321.90	1245.16
322.11	1179.63
322.32	1306.60
322.54	1275.88
322.75	1224.69
322.96	1388.52
323.18	1245.16
323.39	1345.52
323.60	1273.84
323.81	1267.69
324.03	1247.21
324.24	1214.45
324.45	1202.16
324.66	1349.61
324.88	1206.25
325.09	1308.65
325.30	1265.64
325.52	1351.66
325.73	1247.21
325.94	1347.56
326.15	1302.51
326.37	1230.83
326.58	1296.36
326.79	1298.41
327.00	1273.84
327.22	1257.45
327.43	1273.84
327.64	1327.08
327.85	1271.79
328.07	1298.41
328.28	1288.17
328.49	1279.98
328.70	1191.92
328.92	1265.64
329.13	1269.74
329.34	1253.36
329.55	1273.84
329.76	1177.58
329.98	1310.70
330.19	1310.70
330.40	1220.59
330.61	1255.40
330.83	1261.55
331.04	1251.31
331.25	1277.93
331.46	1273.84
331.68	1310.70
331.89	1345.52
332.10	1273.84
332.31	1302.51
332.52	1228.78
332.74	1239.02
332.95	1279.98
333.16	1257.45
333.37	1288.17
333.58	1298.41
333.80	1263.60
334.01	1282.03
334.22	1257.45
334.43	1325.04
334.64	1284.08
334.86	1243.12
335.07	1204.21
335.28	1288.17
335.49	1228.78
335.70	1310.70
335.92	1290.22
336.13	1255.40
336.34	1253.36
336.55	1318.89
336.76	1345.52
336.98	1220.59
337.19	1210.35
337.40	1257.45
337.61	1310.70
337.82	1216.49
338.04	1277.93
338.25	1224.69
338.46	1269.74
338.67	1253.36
338.88	1314.80
339.09	1263.60
339.31	1163.25
339.52	1320.94
339.73	1284.08
339.94	1245.16
340.15	1241.07
340.36	1302.51
340.58	1269.74
340.79	1196.01
341.00	1247.21
341.21	1322.99
341.42	1294.32
341.63	1314.80
341.85	1271.79
342.06	1314.80
342.27	1279.98
342.48	1236.97
342.69	1253.36
342.90	1308.65
343.12	1316.84
343.33	1320.94
343.54	1257.45
343.75	1329.13
343.96	1183.73
344.17	1218.54
344.38	1196.01
344.60	1230.83
344.81	1232.88
345.02	1292.27
345.23	1327.08
345.44	1249.26
345.65	1239.02
345.86	1320.94
346.07	1232.88
346.29	1355.76
346.50	1269.74
346.71	1286.12
346.92	1271.79
347.13	1239.02
347.34	1236.97
347.55	1245.16
347.76	1208.30
347.98	1292.27
348.19	1318.89
348.40	1253.36
348.61	1226.73
348.82	1183.73
349.03	1259.50
349.24	1236.97
349.45	1249.26
349.66	1214.45
349.88	1228.78
350.09	1214.45
350.30	1218.54
350.51	1239.02
350.72	1263.60
350.93	1312.75
351.14	1316.84
351.35	1322.99
351.56	1308.65
351.77	1363.95
351.99	1265.64
352.20	1220.59
352.41	1257.45
352.62	1185.77
352.83	1282.03
353.04	1249.26
353.25	1275.88
353.46	1308.65
353.67	1234.93
353.88	1263.60
354.09	1271.79
354.30	1316.84
354.52	1218.54
354.73	1265.64
354.94	1249.26
355.15	1265.64
355.36	1312.75
355.57	1259.50
355.78	1198.06
355.99	1236.97
356.20	1277.93
356.41	1259.50
356.62	1189.87
356.83	1298.41
357.04	1308.65
357.25	1214.45
357.46	1298.41
357.68	1222.64
357.89	1249.26
358.10	1335.28
358.31	1249.26
358.52	1245.16
358.73	1269.74
358.94	1282.03
359.15	1275.88
359.36	1308.65
359.57	1333.23
359.78	1363.95
359.99	1298.41
360.20	1304.56
360.41	1298.41
360.62	1282.03
360.83	1275.88
361.04	1288.17
361.25	1230.83
361.46	1222.64
361.67	1312.75
361.88	1353.71
362.09	1212.40
362.30	1265.64
362.51	1257.45
362.72	1267.69
362.93	1298.41
363.14	1265.64
363.35	1206.25
363.56	1298.41
363.78	1247.21
363.99	1232.88
364.20	1267.69
364.41	1253.36
364.62	1257.45
364.83	1310.70
365.04	1263.60
365.25	1296.36
365.46	1286.12
365.67	1253.36
365.88	1286.12
366.09	1284.08
366.30	1251.31
366.51	1247.21
366.72	1316.84
366.93	1267.69
367.14	1232.88
367.35	1228.78
367.56	1232.88
367.77	1267.69
367.98	1261.55
368.18	1320.94
368.39	1210.35
368.60	1241.07
368.81	1304.56
369.02	1306.60
369.23	1277.93
369.44	1224.69
369.65	1331.18
369.86	1259.50
370.07	1208.30
370.28	1247.21
370.49	1243.12
370.70	1259.50
370.91	1288.17
371.12	1273.84
371.33	1214.45
371.54	1288.17
371.75	1271.79
371.96	1310.70
372.17	1282.03
372.38	1255.40
372.59	1298.41
372.80	1245.16
373.01	1292.27
373.22	1296.36
373.43	1292.27
373.64	1249.26
373.85	1232.88
374.06	1284.08
374.26	1302.51
374.47	1343.47
374.68	1230.83
374.89	1298.41
375.10	1327.08
375.31	1298.41
375.52	1253.36
375.73	1259.50
375.94	1288.17
376.15	1257.45
376.36	1222.64
376.57	1261.55
376.78	1267.69
376.99	1234.93
377.20	1277.93
377.40	1259.50
377.61	1294.32
377.82	1228.78
378.03	1318.89
378.24	1343.47
378.45	1214.45
378.66	1341.42
378.87	1265.64
379.08	1226.73
379.29	1306.60
379.50	1306.60
379.71	1273.84
379.91	1290.22
380.12	1212.40
380.33	1353.71
380.54	1275.88
380.75	1265.64
380.96	1245.16
381.17	1220.59
381.38	1247.21
381.59	1298.41
381.80	1296.36
382.00	1282.03
382.21	1212.40
382.42	1282.03
382.63	1265.64
382.84	1275.88
383.05	1290.22
383.26	1347.56
383.47	1279.98
383.68	1322.99
383.88	1216.49
384.09	1296.36
384.30	1292.27
384.51	1275.88
384.72	1267.69
384.93	1241.07
385.14	1298.41
385.35	1236.97
385.55	1271.79
385.76	1271.79
385.97	1318.89
386.18	1327.08
386.39	1265.64
386.60	1245.16
386.81	1179.63
387.02	1363.95
387.22	1224.69
387.43	1181.68
387.64	1288.17
387.85	1298.41
388.06	1236.97
388.27	1318.89
388.48	1320.94
388.68	1284.08
388.89	1249.26
389.10	1241.07
389.31	1359.85
389.52	1251.31
389.73	1198.06
389.93	1279.98
390.14	1273.84
390.35	1288.17
390.56	1236.97
390.77	1298.41
390.98	1236.97
391.18	1306.60
391.39	1249.26
391.60	1243.12
391.81	1210.35
392.02	1282.03
392.23	1261.55
392.43	1236.97
392.64	1333.23
392.85	1228.78
393.06	1267.69
393.27	1304.56
393.47	1193.97
393.68	1312.75
393.89	1286.12
394.10	1345.52
394.31	1300.46
394.52	1275.88
394.72	1279.98
394.93	1296.36
395.14	1343.47
395.35	1308.65
395.56	1290.22
395.76	1331.18
395.97	1220.59
396.18	1224.69
396.39	1249.26
396.60	1337.32
396.80	1255.40
397.01	1304.56
397.22	1265.64
397.43	1322.99
397.64	1249.26
397.84	1255.40
398.05	1316.84
398.26	1345.52
398.47	1271.79
398.67	1316.84
398.88	1218.54
399.09	1306.60
399.30	1277.93
399.51	1255.40
399.71	1302.51
399.92	1220.59
400.13	1228.78
400.34	1288.17
400.54	1325.04
400.75	1214.45
400.96	1341.42
401.17	1273.84
401.37	1232.88
401.58	1251.31
401.79	1341.42
402.00	1286.12
402.21	1288.17
402.41	1273.84
402.62	1335.28
402.83	1273.84
403.04	1269.74
403.24	1292.27
403.45	1230.83
403.66	1273.84
403.87	1212.40
404.07	1255.40
404.28	1191.92
404.49	1331.18
404.70	1228.78
404.90	1325.04
405.11	1304.56
405.32	1288.17
405.52	1210.35
405.73	1288.17
405.94	1236.97
406.15	1277.93
406.35	1173.49
406.56	1292.27
406.77	1204.21
406.98	1253.36
407.18	1249.26
407.39	1284.08
407.60	1284.08
407.80	1327.08
408.01	1306.60
408.22	1232.88
408.43	1255.40
408.63	1265.64
408.84	1200.11
409.05	1298.41
409.25	1271.79
409.46	1255.40
409.67	1234.93
409.88	1277.93
410.08	1298.41
410.29	1322.99
410.50	1277.93
410.70	1271.79
410.91	1241.07
411.12	1296.36
411.32	1214.45
411.53	1308.65
411.74	1232.88
411.95	1236.97
412.15	1279.98
412.36	1210.35
412.57	1173.49
412.77	1294.32
412.98	1224.69
413.19	1249.26
413.39	1257.45
413.60	1253.36
413.81	1196.01
414.01	1331.18
414.22	1277.93
414.43	1294.32
414.63	1312.75
414.84	1267.69
415.05	1286.12
415.25	1224.69
415.46	1191.92
415.67	1249.26
415.87	1269.74
416.08	1271.79
416.29	1241.07
416.49	1257.45
416.70	1243.12
416.91	1224.69
417.11	1210.35
417.32	1257.45
417.53	1329.13
417.73	1277.93
417.94	1298.41
418.15	1265.64
418.35	1245.16
418.56	1290.22
418.77	1286.12
418.97	1296.36
419.18	1339.37
419.38	1267.69
419.59	1257.45
419.80	1349.61
420.00	1210.35
420.21	1337.32
420.42	1247.21
420.62	1236.97
420.83	1263.60
421.04	1234.93
421.24	1288.17
421.45	1273.84
421.65	1267.69
421.86	1273.84
422.07	1329.13
422.27	1230.83
422.48	1316.84
422.69	1247.21
422.89	1241.07
423.10	1277.93
423.30	1286.12
423.51	1284.08
423.72	1277.93
423.92	1230.83
424.13	1294.32
424.33	1306.60
424.54	1257.45
424.75	1239.02
424.95	1269.74
425.16	1279.98
425.36	1271.79
425.57	1257.45
425.78	1216.49
425.98	1257.45
426.19	1200.11
426.39	1241.07
426.60	1255.40
426.81	1282.03
427.01	1361.90
427.22	1318.89
427.42	1282.03
427.63	1239.02
427.83	1275.88
428.04	1320.94
428.25	1259.50
428.45	1214.45
428.66	1245.16
428.86	1212.40
429.07	1222.64
429.28	1339.37
429.48	1296.36
429.69	1179.63
429.89	1312.75
430.10	1212.40
430.30	1200.11
430.51	1374.19
430.71	1191.92
430.92	1296.36
431.13	1226.73
431.33	1345.52
431.54	1310.70
431.74	1273.84
431.95	1296.36
432.15	1243.12
432.36	1243.12
432.56	1277.93
432.77	1271.79
432.98	1320.94
433.18	1269.74
433.39	1288.17
433.59	1204.21
433.80	1279.98
434.00	1300.46
434.21	1257.45
434.41	1265.64
434.62	1247.21
434.82	1214.45
435.03	1230.83
435.23	1294.32
435.44	1214.45
435.64	1290.22
435.85	1271.79
436.06	1269.74
436.26	1273.84
436.47	1282.03
436.67	1325.04
436.88	1271.79
437.08	1325.04
437.29	1267.69
437.49	1306.60
437.70	1226.73
437.90	1273.84
438.11	1284.08
438.31	1230.83
438.52	1251.31
438.72	1288.17
438.93	1288.17
439.13	1298.41
439.34	1273.84
439.54	1304.56
439.75	1253.36
439.95	1212.40
440.16	1247.21
440.36	1306.60
440.57	1288.17
440.77	1251.31
440.98	1306.60
441.18	1318.89
441.39	1335.28
441.59	1249.26
441.80	1286.12
442.00	1282.03
442.21	1378.28
442.41	1345.52
442.62	1314.80
442.82	1243.12
443.02	1277.93
443.23	1325.04
443.43	1257.45
443.64	1261.55
443.84	1273.84
444.05	1284.08
444.25	1181.68
444.46	1320.94
444.66	1234.93
444.87	1259.50
445.07	1198.06
445.28	1325.04
445.48	1265.64
445.69	1331.18
445.89	1265.64
446.09	1298.41
446.30	1271.79
446.50	1329.13
446.71	1286.12
446.91	1245.16
447.12	1214.45
447.32	1251.31
447.53	1208.30
447.73	1216.49
447.93	1259.50
448.14	1325.04
448.34	1308.65
448.55	1206.25
448.75	1257.45
448.96	1259.50
449.16	1275.88
449.36	1314.80
449.57	1269.74
449.77	1286.12
449.98	1318.89
450.18	1296.36
450.39	1247.21
450.59	1325.04
450.79	1322.99
451.00	1347.56
451.20	1327.08
451.41	1298.41
451.61	1271.79
451.81	1279.98
452.02	1232.88
452.22	1232.88
452.43	1382.38
452.63	1196.01
