SpectraSuite Data File
++++++++++++++++++++++++++++++++++++
Date: Sun Apr 03 19:55:42 CEST 2016
User: root
Dark Spectrum Present: No
Reference Spectrum Present: No
Number of Sampled Component Spectra: 1
Spectrometers: USB4C02835
Integration Time (usec): 10000 (USB4C02835)
Spectra Averaged: 1 (USB4C02835)
Boxcar Smoothing: 0 (USB4C02835)
Correct for Electrical Dark: No (USB4C02835)
Strobe/Lamp Enabled: No (USB4C02835)
Correct for Detector Non-linearity: No (USB4C02835)
Correct for Stray Light: No (USB4C02835)
Number of Pixels in Processed Spectrum: 3648
>>>>>Begin Processed Spectral Data<<<<<
177.47	1232.88
177.69	1232.88
177.91	1232.88
178.13	1230.83
178.36	1247.21
178.58	1277.93
178.80	1312.75
179.02	1273.84
179.24	1253.36
179.46	1259.50
179.68	1261.55
179.90	1202.16
180.13	1298.41
180.35	1263.60
180.57	1234.93
180.79	1263.60
181.01	1200.11
181.23	1269.74
181.45	1234.93
181.67	1183.73
181.90	1269.74
182.12	1273.84
182.34	1279.98
182.56	1277.93
182.78	1236.97
183.00	1214.45
183.22	1259.50
183.44	1216.49
183.66	1304.56
183.89	1400.81
184.11	1282.03
184.33	1228.78
184.55	1265.64
184.77	1304.56
184.99	1257.45
185.21	1277.93
185.43	1345.52
185.65	1290.22
185.87	1271.79
186.10	1204.21
186.32	1286.12
186.54	1286.12
186.76	1259.50
186.98	1302.51
187.20	1275.88
187.42	1230.83
187.64	1273.84
187.86	1279.98
188.08	1249.26
188.30	1206.25
188.52	1279.98
188.75	1277.93
188.97	1245.16
189.19	1236.97
189.41	1196.01
189.63	1185.77
189.85	1298.41
190.07	1193.97
190.29	1263.60
190.51	1284.08
190.73	1200.11
190.95	1249.26
191.17	1329.13
191.39	1333.23
191.61	1239.02
191.84	1222.64
192.06	1253.36
192.28	1282.03
192.50	1271.79
192.72	1267.69
192.94	1259.50
193.16	1224.69
193.38	1245.16
193.60	1214.45
193.82	1255.40
194.04	1204.21
194.26	1308.65
194.48	1245.16
194.70	1271.79
194.92	1232.88
195.14	1312.75
195.36	1320.94
195.58	1253.36
195.80	1249.26
196.02	1347.56
196.24	1239.02
196.46	1327.08
196.69	1198.06
196.91	1257.45
197.13	1322.99
197.35	1224.69
197.57	1306.60
197.79	1267.69
198.01	1259.50
198.23	1243.12
198.45	1257.45
198.67	1263.60
198.89	1191.92
199.11	1298.41
199.33	1277.93
199.55	1286.12
199.77	1239.02
199.99	1255.40
200.21	1296.36
200.43	1271.79
200.65	1333.23
200.87	1306.60
201.09	1279.98
201.31	1363.95
201.53	1153.01
201.75	1282.03
201.97	1282.03
202.19	1224.69
202.41	1212.40
202.63	1304.56
202.85	1261.55
203.07	1322.99
203.29	1204.21
203.51	1273.84
203.73	1230.83
203.95	1216.49
204.17	1265.64
204.39	1253.36
204.61	1294.32
204.83	1196.01
205.05	1320.94
205.27	1310.70
205.49	1308.65
205.71	1232.88
205.93	1310.70
206.15	1249.26
206.37	1257.45
206.59	1251.31
206.81	1228.78
207.03	1271.79
207.25	1308.65
207.47	1257.45
207.69	1198.06
207.91	1286.12
208.13	1327.08
208.34	1241.07
208.56	1284.08
208.78	1230.83
209.00	1239.02
209.22	1343.47
209.44	1314.80
209.66	1329.13
209.88	1232.88
210.10	1236.97
210.32	1267.69
210.54	1310.70
210.76	1259.50
210.98	1302.51
211.20	1224.69
211.42	1232.88
211.64	1216.49
211.86	1304.56
212.08	1200.11
212.30	1265.64
212.52	1282.03
212.74	1271.79
212.96	1265.64
213.17	1275.88
213.39	1251.31
213.61	1216.49
213.83	1300.46
214.05	1294.32
214.27	1269.74
214.49	1290.22
214.71	1304.56
214.93	1243.12
215.15	1232.88
215.37	1351.66
215.59	1245.16
215.81	1306.60
216.03	1300.46
216.24	1273.84
216.46	1234.93
216.68	1265.64
216.90	1210.35
217.12	1265.64
217.34	1232.88
217.56	1271.79
217.78	1214.45
218.00	1314.80
218.22	1245.16
218.44	1222.64
218.66	1269.74
218.87	1327.08
219.09	1282.03
219.31	1234.93
219.53	1269.74
219.75	1275.88
219.97	1296.36
220.19	1279.98
220.41	1247.21
220.63	1247.21
220.85	1263.60
221.06	1265.64
221.28	1269.74
221.50	1259.50
221.72	1218.54
221.94	1230.83
222.16	1255.40
222.38	1322.99
222.60	1273.84
222.82	1224.69
223.03	1245.16
223.25	1222.64
223.47	1232.88
223.69	1331.18
223.91	1292.27
224.13	1239.02
224.35	1267.69
224.57	1257.45
224.78	1265.64
225.00	1290.22
225.22	1318.89
225.44	1312.75
225.66	1292.27
225.88	1181.68
226.10	1302.51
226.32	1282.03
226.53	1241.07
226.75	1308.65
226.97	1302.51
227.19	1290.22
227.41	1288.17
227.63	1302.51
227.85	1228.78
228.06	1243.12
228.28	1218.54
228.50	1249.26
228.72	1298.41
228.94	1239.02
229.16	1247.21
229.37	1284.08
229.59	1302.51
229.81	1222.64
230.03	1271.79
230.25	1298.41
230.47	1253.36
230.69	1216.49
230.90	1224.69
231.12	1298.41
231.34	1261.55
231.56	1316.84
231.78	1343.47
232.00	1249.26
232.21	1243.12
232.43	1267.69
232.65	1288.17
232.87	1298.41
233.09	1228.78
233.30	1308.65
233.52	1255.40
233.74	1267.69
233.96	1263.60
234.18	1271.79
234.40	1247.21
234.61	1284.08
234.83	1210.35
235.05	1277.93
235.27	1245.16
235.49	1265.64
235.70	1353.71
235.92	1218.54
236.14	1306.60
236.36	1222.64
236.58	1202.16
236.79	1300.46
237.01	1253.36
237.23	1320.94
237.45	1249.26
237.67	1298.41
237.88	1263.60
238.10	1359.85
238.32	1189.87
238.54	1359.85
238.76	1247.21
238.97	1300.46
239.19	1277.93
239.41	1306.60
239.63	1269.74
239.85	1241.07
240.06	1345.52
240.28	1226.73
240.50	1357.80
240.72	1275.88
240.93	1269.74
241.15	1228.78
241.37	1243.12
241.59	1275.88
241.81	1241.07
242.02	1275.88
242.24	1304.56
242.46	1304.56
242.68	1343.47
242.89	1241.07
243.11	1269.74
243.33	1273.84
243.55	1269.74
243.76	1341.42
243.98	1218.54
244.20	1302.51
244.42	1224.69
244.64	1288.17
244.85	1247.21
245.07	1290.22
245.29	1191.92
245.51	1269.74
245.72	1320.94
245.94	1247.21
246.16	1277.93
246.38	1349.61
246.59	1230.83
246.81	1247.21
247.03	1275.88
247.24	1247.21
247.46	1165.29
247.68	1255.40
247.90	1241.07
248.11	1290.22
248.33	1312.75
248.55	1185.77
248.77	1314.80
248.98	1288.17
249.20	1234.93
249.42	1239.02
249.64	1257.45
249.85	1269.74
250.07	1271.79
250.29	1298.41
250.50	1228.78
250.72	1296.36
250.94	1277.93
251.16	1277.93
251.37	1275.88
251.59	1275.88
251.81	1290.22
252.02	1263.60
252.24	1159.15
252.46	1292.27
252.68	1251.31
252.89	1202.16
253.11	1263.60
253.33	1269.74
253.54	1216.49
253.76	1208.30
253.98	1236.97
254.20	1241.07
254.41	1290.22
254.63	1232.88
254.85	1290.22
255.06	1224.69
255.28	1239.02
255.50	1241.07
255.71	1245.16
255.93	1263.60
256.15	1322.99
256.36	1275.88
256.58	1267.69
256.80	1333.23
257.02	1234.93
257.23	1292.27
257.45	1200.11
257.67	1263.60
257.88	1304.56
258.10	1222.64
258.32	1282.03
258.53	1331.18
258.75	1255.40
258.97	1247.21
259.18	1288.17
259.40	1247.21
259.62	1292.27
259.83	1298.41
260.05	1288.17
260.27	1230.83
260.48	1314.80
260.70	1243.12
260.92	1288.17
261.13	1249.26
261.35	1271.79
261.57	1292.27
261.78	1306.60
262.00	1245.16
262.22	1290.22
262.43	1304.56
262.65	1245.16
262.86	1239.02
263.08	1212.40
263.30	1251.31
263.51	1337.32
263.73	1290.22
263.95	1253.36
264.16	1216.49
264.38	1243.12
264.60	1296.36
264.81	1288.17
265.03	1314.80
265.25	1300.46
265.46	1257.45
265.68	1308.65
265.89	1286.12
266.11	1329.13
266.33	1288.17
266.54	1249.26
266.76	1263.60
266.98	1269.74
267.19	1265.64
267.41	1253.36
267.62	1284.08
267.84	1216.49
268.06	1255.40
268.27	1257.45
268.49	1308.65
268.70	1181.68
268.92	1271.79
269.14	1269.74
269.35	1294.32
269.57	1241.07
269.79	1339.37
270.00	1167.34
270.22	1347.56
270.43	1187.82
270.65	1269.74
270.87	1282.03
271.08	1261.55
271.30	1202.16
271.51	1310.70
271.73	1232.88
271.95	1265.64
272.16	1247.21
272.38	1333.23
272.59	1222.64
272.81	1243.12
273.02	1157.10
273.24	1218.54
273.46	1322.99
273.67	1253.36
273.89	1206.25
274.10	1222.64
274.32	1230.83
274.54	1290.22
274.75	1226.73
274.97	1226.73
275.18	1290.22
275.40	1284.08
275.61	1298.41
275.83	1241.07
276.05	1263.60
276.26	1349.61
276.48	1296.36
276.69	1243.12
276.91	1271.79
277.12	1224.69
277.34	1288.17
277.55	1316.84
277.77	1261.55
277.99	1269.74
278.20	1261.55
278.42	1261.55
278.63	1234.93
278.85	1273.84
279.06	1214.45
279.28	1247.21
279.49	1200.11
279.71	1296.36
279.93	1196.01
280.14	1220.59
280.36	1294.32
280.57	1255.40
280.79	1366.00
281.00	1249.26
281.22	1277.93
281.43	1228.78
281.65	1241.07
281.86	1265.64
282.08	1218.54
282.29	1232.88
282.51	1232.88
282.73	1259.50
282.94	1361.90
283.16	1253.36
283.37	1232.88
283.59	1263.60
283.80	1232.88
284.02	1177.58
284.23	1316.84
284.45	1255.40
284.66	1265.64
284.88	1245.16
285.09	1277.93
285.31	1282.03
285.52	1257.45
285.74	1232.88
285.95	1255.40
286.17	1255.40
286.38	1245.16
286.60	1306.60
286.81	1236.97
287.03	1241.07
287.24	1294.32
287.46	1245.16
287.67	1249.26
287.89	1298.41
288.10	1249.26
288.32	1355.76
288.53	1263.60
288.75	1226.73
288.96	1286.12
289.18	1304.56
289.39	1234.93
289.61	1316.84
289.82	1265.64
290.04	1226.73
290.25	1310.70
290.47	1265.64
290.68	1247.21
290.90	1318.89
291.11	1306.60
291.33	1265.64
291.54	1271.79
291.76	1247.21
291.97	1298.41
292.18	1341.42
292.40	1257.45
292.61	1300.46
292.83	1249.26
293.04	1265.64
293.26	1257.45
293.47	1304.56
293.69	1349.61
293.90	1294.32
294.12	1236.97
294.33	1345.52
294.55	1286.12
294.76	1288.17
294.97	1218.54
295.19	1251.31
295.40	1234.93
295.62	1290.22
295.83	1271.79
296.05	1241.07
296.26	1306.60
296.48	1298.41
296.69	1255.40
296.90	1257.45
297.12	1286.12
297.33	1306.60
297.55	1181.68
297.76	1245.16
297.98	1290.22
298.19	1259.50
298.41	1255.40
298.62	1261.55
298.83	1277.93
299.05	1322.99
299.26	1320.94
299.48	1322.99
299.69	1277.93
299.90	1247.21
300.12	1173.49
300.33	1306.60
300.55	1239.02
300.76	1210.35
300.98	1306.60
301.19	1282.03
301.40	1300.46
301.62	1275.88
301.83	1265.64
302.05	1222.64
302.26	1298.41
302.47	1204.21
302.69	1261.55
302.90	1239.02
303.12	1206.25
303.33	1310.70
303.54	1279.98
303.76	1261.55
303.97	1296.36
304.19	1296.36
304.40	1286.12
304.61	1253.36
304.83	1224.69
305.04	1247.21
305.26	1239.02
305.47	1198.06
305.68	1286.12
305.90	1263.60
306.11	1306.60
306.33	1296.36
306.54	1236.97
306.75	1193.97
306.97	1265.64
307.18	1304.56
307.39	1243.12
307.61	1314.80
307.82	1351.66
308.04	1331.18
308.25	1241.07
308.46	1265.64
308.68	1257.45
308.89	1312.75
309.10	1298.41
309.32	1294.32
309.53	1245.16
309.74	1286.12
309.96	1220.59
310.17	1273.84
310.39	1200.11
310.60	1249.26
310.81	1322.99
311.03	1273.84
311.24	1206.25
311.45	1218.54
311.67	1306.60
311.88	1175.53
312.09	1189.87
312.31	1312.75
312.52	1218.54
312.73	1208.30
312.95	1261.55
313.16	1343.47
313.37	1263.60
313.59	1316.84
313.80	1327.08
314.01	1353.71
314.23	1185.77
314.44	1269.74
314.65	1325.04
314.87	1294.32
315.08	1290.22
315.29	1214.45
315.51	1255.40
315.72	1306.60
315.93	1275.88
316.15	1271.79
316.36	1267.69
316.57	1275.88
316.79	1349.61
317.00	1292.27
317.21	1271.79
317.43	1261.55
317.64	1269.74
317.85	1279.98
318.07	1267.69
318.28	1306.60
318.49	1247.21
318.70	1277.93
318.92	1241.07
319.13	1243.12
319.34	1267.69
319.56	1220.59
319.77	1277.93
319.98	1282.03
320.20	1275.88
320.41	1284.08
320.62	1345.52
320.83	1200.11
321.05	1386.47
321.26	1239.02
321.47	1290.22
321.69	1265.64
321.90	1279.98
322.11	1216.49
322.32	1232.88
322.54	1236.97
322.75	1232.88
322.96	1277.93
323.18	1286.12
323.39	1261.55
323.60	1222.64
323.81	1253.36
324.03	1261.55
324.24	1310.70
324.45	1288.17
324.66	1232.88
324.88	1292.27
325.09	1275.88
325.30	1308.65
325.52	1245.16
325.73	1316.84
325.94	1214.45
326.15	1286.12
326.37	1275.88
326.58	1220.59
326.79	1212.40
327.00	1279.98
327.22	1269.74
327.43	1177.58
327.64	1282.03
327.85	1259.50
328.07	1269.74
328.28	1314.80
328.49	1261.55
328.70	1341.42
328.92	1318.89
329.13	1257.45
329.34	1257.45
329.55	1302.51
329.76	1290.22
329.98	1216.49
330.19	1279.98
330.40	1286.12
330.61	1355.76
330.83	1327.08
331.04	1191.92
331.25	1355.76
331.46	1255.40
331.68	1224.69
331.89	1257.45
332.10	1271.79
332.31	1191.92
332.52	1183.73
332.74	1224.69
332.95	1290.22
333.16	1263.60
333.37	1290.22
333.58	1304.56
333.80	1286.12
334.01	1198.06
334.22	1271.79
334.43	1320.94
334.64	1247.21
334.86	1255.40
335.07	1228.78
335.28	1269.74
335.49	1296.36
335.70	1265.64
335.92	1236.97
336.13	1232.88
336.34	1290.22
336.55	1316.84
336.76	1275.88
336.98	1230.83
337.19	1224.69
337.40	1288.17
337.61	1269.74
337.82	1255.40
338.04	1185.77
338.25	1279.98
338.46	1277.93
338.67	1284.08
338.88	1173.49
339.09	1208.30
339.31	1247.21
339.52	1259.50
339.73	1322.99
339.94	1251.31
340.15	1216.49
340.36	1265.64
340.58	1341.42
340.79	1316.84
341.00	1304.56
341.21	1290.22
341.42	1257.45
341.63	1345.52
341.85	1292.27
342.06	1296.36
342.27	1310.70
342.48	1279.98
342.69	1253.36
342.90	1298.41
343.12	1247.21
343.33	1245.16
343.54	1292.27
343.75	1239.02
343.96	1206.25
344.17	1363.95
344.38	1257.45
344.60	1423.34
344.81	1314.80
345.02	1239.02
345.23	1275.88
345.44	1318.89
345.65	1316.84
345.86	1314.80
346.07	1241.07
346.29	1253.36
346.50	1290.22
346.71	1312.75
346.92	1275.88
347.13	1359.85
347.34	1325.04
347.55	1273.84
347.76	1216.49
347.98	1265.64
348.19	1259.50
348.40	1300.46
348.61	1273.84
348.82	1269.74
349.03	1245.16
349.24	1271.79
349.45	1345.52
349.66	1304.56
349.88	1198.06
350.09	1306.60
350.30	1296.36
350.51	1374.19
350.72	1292.27
350.93	1173.49
351.14	1255.40
351.35	1284.08
351.56	1341.42
351.77	1177.58
351.99	1212.40
352.20	1173.49
352.41	1286.12
352.62	1306.60
352.83	1239.02
353.04	1310.70
353.25	1298.41
353.46	1277.93
353.67	1208.30
353.88	1271.79
354.09	1298.41
354.30	1320.94
354.52	1341.42
354.73	1312.75
354.94	1282.03
355.15	1261.55
355.36	1259.50
355.57	1267.69
355.78	1210.35
355.99	1249.26
356.20	1189.87
356.41	1294.32
356.62	1261.55
356.83	1288.17
357.04	1251.31
357.25	1255.40
357.46	1286.12
357.68	1296.36
357.89	1257.45
358.10	1224.69
358.31	1314.80
358.52	1230.83
358.73	1218.54
358.94	1312.75
359.15	1259.50
359.36	1273.84
359.57	1368.04
359.78	1296.36
359.99	1191.92
360.20	1335.28
360.41	1267.69
360.62	1282.03
360.83	1247.21
361.04	1206.25
361.25	1183.73
361.46	1308.65
361.67	1263.60
361.88	1257.45
362.09	1298.41
362.30	1269.74
362.51	1267.69
362.72	1265.64
362.93	1310.70
363.14	1273.84
363.35	1284.08
363.56	1224.69
363.78	1306.60
363.99	1239.02
364.20	1294.32
364.41	1269.74
364.62	1286.12
364.83	1322.99
365.04	1286.12
365.25	1277.93
365.46	1232.88
365.67	1263.60
365.88	1282.03
366.09	1257.45
366.30	1286.12
366.51	1288.17
366.72	1200.11
366.93	1216.49
367.14	1286.12
367.35	1363.95
367.56	1189.87
367.77	1255.40
367.98	1226.73
368.18	1239.02
368.39	1351.66
368.60	1279.98
368.81	1339.37
369.02	1284.08
369.23	1259.50
369.44	1249.26
369.65	1249.26
369.86	1253.36
370.07	1279.98
370.28	1363.95
370.49	1279.98
370.70	1335.28
370.91	1273.84
371.12	1366.00
371.33	1183.73
371.54	1310.70
371.75	1284.08
371.96	1306.60
372.17	1236.97
372.38	1275.88
372.59	1275.88
372.80	1261.55
373.01	1290.22
373.22	1298.41
373.43	1267.69
373.64	1251.31
373.85	1259.50
374.06	1257.45
374.26	1259.50
374.47	1189.87
374.68	1269.74
374.89	1247.21
375.10	1239.02
375.31	1286.12
375.52	1269.74
375.73	1275.88
375.94	1257.45
376.15	1312.75
376.36	1288.17
376.57	1247.21
376.78	1257.45
376.99	1294.32
377.20	1198.06
377.40	1310.70
377.61	1263.60
377.82	1249.26
378.03	1255.40
378.24	1386.47
378.45	1265.64
378.66	1236.97
378.87	1236.97
379.08	1257.45
379.29	1290.22
379.50	1265.64
379.71	1189.87
379.91	1290.22
380.12	1259.50
380.33	1282.03
380.54	1247.21
380.75	1304.56
380.96	1306.60
381.17	1224.69
381.38	1290.22
381.59	1214.45
381.80	1263.60
382.00	1351.66
382.21	1230.83
382.42	1224.69
382.63	1298.41
382.84	1232.88
383.05	1310.70
383.26	1304.56
383.47	1290.22
383.68	1241.07
383.88	1224.69
384.09	1265.64
384.30	1253.36
384.51	1255.40
384.72	1159.15
384.93	1263.60
385.14	1259.50
385.35	1243.12
385.55	1288.17
385.76	1363.95
385.97	1251.31
386.18	1294.32
386.39	1298.41
386.60	1273.84
386.81	1196.01
387.02	1290.22
387.22	1251.31
387.43	1284.08
387.64	1265.64
387.85	1271.79
388.06	1187.82
388.27	1300.46
388.48	1255.40
388.68	1267.69
388.89	1210.35
389.10	1226.73
389.31	1263.60
389.52	1243.12
389.73	1298.41
389.93	1273.84
390.14	1279.98
390.35	1290.22
390.56	1277.93
390.77	1206.25
390.98	1171.44
391.18	1288.17
391.39	1247.21
391.60	1271.79
391.81	1243.12
392.02	1304.56
392.23	1267.69
392.43	1243.12
392.64	1249.26
392.85	1253.36
393.06	1259.50
393.27	1230.83
393.47	1226.73
393.68	1298.41
393.89	1243.12
394.10	1357.80
394.31	1251.31
394.52	1255.40
394.72	1257.45
394.93	1339.37
395.14	1228.78
395.35	1300.46
395.56	1296.36
395.76	1306.60
395.97	1279.98
396.18	1265.64
396.39	1290.22
396.60	1298.41
396.80	1185.77
397.01	1298.41
397.22	1261.55
397.43	1300.46
397.64	1279.98
397.84	1290.22
398.05	1269.74
398.26	1257.45
398.47	1277.93
398.67	1257.45
398.88	1279.98
399.09	1263.60
399.30	1294.32
399.51	1306.60
399.71	1273.84
399.92	1249.26
400.13	1312.75
400.34	1282.03
400.54	1296.36
400.75	1247.21
400.96	1261.55
401.17	1277.93
401.37	1251.31
401.58	1263.60
401.79	1200.11
402.00	1275.88
402.21	1273.84
402.41	1243.12
402.62	1261.55
402.83	1290.22
403.04	1269.74
403.24	1284.08
403.45	1232.88
403.66	1249.26
403.87	1302.51
404.07	1288.17
404.28	1265.64
404.49	1277.93
404.70	1226.73
404.90	1214.45
405.11	1257.45
405.32	1341.42
405.52	1241.07
405.73	1300.46
405.94	1259.50
406.15	1290.22
406.35	1224.69
406.56	1329.13
406.77	1247.21
406.98	1306.60
407.18	1241.07
407.39	1269.74
407.60	1339.37
407.80	1271.79
408.01	1304.56
408.22	1265.64
408.43	1304.56
408.63	1314.80
408.84	1210.35
409.05	1191.92
409.25	1292.27
409.46	1277.93
409.67	1193.97
409.88	1345.52
410.08	1282.03
410.29	1316.84
410.50	1259.50
410.70	1241.07
410.91	1296.36
411.12	1261.55
411.32	1241.07
411.53	1236.97
411.74	1232.88
411.95	1322.99
412.15	1218.54
412.36	1243.12
412.57	1251.31
412.77	1247.21
412.98	1292.27
413.19	1183.73
413.39	1257.45
413.60	1279.98
413.81	1232.88
414.01	1322.99
414.22	1296.36
414.43	1267.69
414.63	1236.97
414.84	1286.12
415.05	1249.26
415.25	1349.61
415.46	1284.08
415.67	1327.08
415.87	1165.29
416.08	1269.74
416.29	1337.32
416.49	1261.55
416.70	1320.94
416.91	1226.73
417.11	1265.64
417.32	1265.64
417.53	1263.60
417.73	1236.97
417.94	1277.93
418.15	1247.21
418.35	1245.16
418.56	1273.84
418.77	1298.41
418.97	1265.64
419.18	1234.93
419.38	1359.85
419.59	1277.93
419.80	1261.55
420.00	1320.94
420.21	1275.88
420.42	1234.93
420.62	1355.76
420.83	1322.99
421.04	1249.26
421.24	1306.60
421.45	1271.79
421.65	1294.32
421.86	1245.16
422.07	1259.50
422.27	1214.45
422.48	1282.03
422.69	1257.45
422.89	1292.27
423.10	1253.36
423.30	1228.78
423.51	1282.03
423.72	1226.73
423.92	1277.93
424.13	1247.21
424.33	1232.88
424.54	1247.21
424.75	1189.87
424.95	1251.31
425.16	1284.08
425.36	1189.87
425.57	1286.12
425.78	1275.88
425.98	1255.40
426.19	1265.64
426.39	1245.16
426.60	1249.26
426.81	1271.79
427.01	1187.82
427.22	1349.61
427.42	1214.45
427.63	1271.79
427.83	1220.59
428.04	1183.73
428.25	1259.50
428.45	1279.98
428.66	1230.83
428.86	1275.88
429.07	1257.45
429.28	1380.33
429.48	1232.88
429.69	1277.93
429.89	1265.64
430.10	1263.60
430.30	1343.47
430.51	1329.13
430.71	1212.40
430.92	1322.99
431.13	1279.98
431.33	1255.40
431.54	1175.53
431.74	1322.99
431.95	1277.93
432.15	1286.12
432.36	1286.12
432.56	1241.07
432.77	1284.08
432.98	1247.21
433.18	1193.97
433.39	1257.45
433.59	1228.78
433.80	1271.79
434.00	1267.69
434.21	1277.93
434.41	1294.32
434.62	1273.84
434.82	1298.41
435.03	1226.73
435.23	1259.50
435.44	1243.12
435.64	1259.50
435.85	1298.41
436.06	1193.97
436.26	1292.27
436.47	1277.93
436.67	1216.49
436.88	1206.25
437.08	1294.32
437.29	1212.40
437.49	1320.94
437.70	1277.93
437.90	1294.32
438.11	1277.93
438.31	1302.51
438.52	1236.97
438.72	1304.56
438.93	1310.70
439.13	1271.79
439.34	1273.84
439.54	1265.64
439.75	1322.99
439.95	1239.02
440.16	1298.41
440.36	1314.80
440.57	1284.08
440.77	1282.03
440.98	1179.63
441.18	1251.31
441.39	1282.03
441.59	1292.27
441.80	1372.14
442.00	1228.78
442.21	1312.75
442.41	1304.56
442.62	1271.79
442.82	1255.40
443.02	1275.88
443.23	1259.50
443.43	1341.42
443.64	1226.73
443.84	1298.41
444.05	1300.46
444.25	1288.17
444.46	1298.41
444.66	1304.56
444.87	1290.22
445.07	1304.56
445.28	1239.02
445.48	1253.36
445.69	1320.94
445.89	1343.47
446.09	1257.45
446.30	1286.12
446.50	1306.60
446.71	1275.88
446.91	1284.08
447.12	1335.28
447.32	1200.11
447.53	1284.08
447.73	1296.36
447.93	1214.45
448.14	1241.07
448.34	1296.36
448.55	1267.69
448.75	1220.59
448.96	1234.93
449.16	1300.46
449.36	1290.22
449.57	1310.70
449.77	1284.08
449.98	1218.54
450.18	1251.31
450.39	1320.94
450.59	1253.36
450.79	1368.04
451.00	1273.84
451.20	1228.78
451.41	1304.56
451.61	1257.45
451.81	1257.45
452.02	1335.28
452.22	1286.12
452.43	1261.55
452.63	1290.22
