SpectraSuite Data File
++++++++++++++++++++++++++++++++++++
Date: Sun Apr 03 19:55:42 CEST 2016
User: root
Dark Spectrum Present: No
Reference Spectrum Present: No
Number of Sampled Component Spectra: 1
Spectrometers: USB4C02835
Integration Time (usec): 10000 (USB4C02835)
Spectra Averaged: 1 (USB4C02835)
Boxcar Smoothing: 0 (USB4C02835)
Correct for Electrical Dark: No (USB4C02835)
Strobe/Lamp Enabled: No (USB4C02835)
Correct for Detector Non-linearity: No (USB4C02835)
Correct for Stray Light: No (USB4C02835)
Number of Pixels in Processed Spectrum: 3648
>>>>>Begin Processed Spectral Data<<<<<
177.47	1218.54
177.69	1218.54
177.91	1218.54
178.13	1253.36
178.36	1267.69
178.58	1210.35
178.80	1243.12
179.02	1228.78
179.24	1216.49
179.46	1261.55
179.68	1257.45
179.90	1282.03
180.13	1259.50
180.35	1279.98
180.57	1257.45
180.79	1279.98
181.01	1277.93
181.23	1253.36
181.45	1314.80
181.67	1269.74
181.90	1302.51
182.12	1220.59
182.34	1290.22
182.56	1210.35
182.78	1177.58
183.00	1284.08
183.22	1290.22
183.44	1331.18
183.66	1312.75
183.89	1331.18
184.11	1306.60
184.33	1161.20
184.55	1249.26
184.77	1282.03
184.99	1277.93
185.21	1208.30
185.43	1228.78
185.65	1271.79
185.87	1329.13
186.10	1329.13
186.32	1243.12
186.54	1267.69
186.76	1259.50
186.98	1263.60
187.20	1290.22
187.42	1298.41
187.64	1239.02
187.86	1306.60
188.08	1363.95
188.30	1191.92
188.52	1279.98
188.75	1243.12
188.97	1337.32
189.19	1284.08
189.41	1253.36
189.63	1294.32
189.85	1230.83
190.07	1216.49
190.29	1245.16
190.51	1245.16
190.73	1290.22
190.95	1253.36
191.17	1267.69
191.39	1243.12
191.61	1255.40
191.84	1206.25
192.06	1277.93
192.28	1251.31
192.50	1312.75
192.72	1261.55
192.94	1318.89
193.16	1249.26
193.38	1273.84
193.60	1314.80
193.82	1263.60
194.04	1259.50
194.26	1183.73
194.48	1294.32
194.70	1282.03
194.92	1261.55
195.14	1263.60
195.36	1263.60
195.58	1222.64
195.80	1282.03
196.02	1290.22
196.24	1333.23
196.46	1267.69
196.69	1257.45
196.91	1271.79
197.13	1208.30
197.35	1241.07
197.57	1146.86
197.79	1339.37
198.01	1259.50
198.23	1206.25
198.45	1265.64
198.67	1304.56
198.89	1257.45
199.11	1308.65
199.33	1282.03
199.55	1249.26
199.77	1175.53
199.99	1282.03
200.21	1302.51
200.43	1296.36
200.65	1224.69
200.87	1226.73
201.09	1200.11
201.31	1251.31
201.53	1251.31
201.75	1224.69
201.97	1275.88
202.19	1294.32
202.41	1322.99
202.63	1298.41
202.85	1239.02
203.07	1363.95
203.29	1249.26
203.51	1304.56
203.73	1288.17
203.95	1236.97
204.17	1261.55
204.39	1284.08
204.61	1273.84
204.83	1226.73
205.05	1255.40
205.27	1269.74
205.49	1292.27
205.71	1263.60
205.93	1210.35
206.15	1206.25
206.37	1247.21
206.59	1245.16
206.81	1236.97
207.03	1286.12
207.25	1306.60
207.47	1224.69
207.69	1167.34
207.91	1191.92
208.13	1284.08
208.34	1257.45
208.56	1253.36
208.78	1290.22
209.00	1302.51
209.22	1255.40
209.44	1247.21
209.66	1318.89
209.88	1290.22
210.10	1259.50
210.32	1212.40
210.54	1206.25
210.76	1294.32
210.98	1214.45
211.20	1294.32
211.42	1290.22
211.64	1298.41
211.86	1288.17
212.08	1302.51
212.30	1349.61
212.52	1331.18
212.74	1269.74
212.96	1255.40
213.17	1245.16
213.39	1292.27
213.61	1232.88
213.83	1236.97
214.05	1335.28
214.27	1288.17
214.49	1355.76
214.71	1277.93
214.93	1228.78
215.15	1259.50
215.37	1341.42
215.59	1255.40
215.81	1257.45
216.03	1228.78
216.24	1312.75
216.46	1232.88
216.68	1308.65
216.90	1306.60
217.12	1259.50
217.34	1239.02
217.56	1333.23
217.78	1247.21
218.00	1304.56
218.22	1296.36
218.44	1290.22
218.66	1247.21
218.87	1308.65
219.09	1282.03
219.31	1273.84
219.53	1269.74
219.75	1327.08
219.97	1279.98
220.19	1290.22
220.41	1208.30
220.63	1210.35
220.85	1320.94
221.06	1273.84
221.28	1183.73
221.50	1347.56
221.72	1269.74
221.94	1224.69
222.16	1273.84
222.38	1277.93
222.60	1253.36
222.82	1232.88
223.03	1228.78
223.25	1228.78
223.47	1220.59
223.69	1271.79
223.91	1169.39
224.13	1347.56
224.35	1245.16
224.57	1277.93
224.78	1249.26
225.00	1267.69
225.22	1226.73
225.44	1181.68
225.66	1212.40
225.88	1234.93
226.10	1245.16
226.32	1312.75
226.53	1275.88
226.75	1306.60
226.97	1245.16
227.19	1320.94
227.41	1181.68
227.63	1265.64
227.85	1249.26
228.06	1216.49
228.28	1282.03
228.50	1263.60
228.72	1320.94
228.94	1236.97
229.16	1206.25
229.37	1300.46
229.59	1224.69
229.81	1333.23
230.03	1273.84
230.25	1275.88
230.47	1325.04
230.69	1275.88
230.90	1200.11
231.12	1226.73
231.34	1296.36
231.56	1277.93
231.78	1218.54
232.00	1269.74
232.21	1259.50
232.43	1247.21
232.65	1282.03
232.87	1259.50
233.09	1300.46
233.30	1224.69
233.52	1320.94
233.74	1196.01
233.96	1290.22
234.18	1232.88
234.40	1255.40
234.61	1255.40
234.83	1263.60
235.05	1234.93
235.27	1296.36
235.49	1269.74
235.70	1255.40
235.92	1265.64
236.14	1290.22
236.36	1282.03
236.58	1286.12
236.79	1245.16
237.01	1277.93
237.23	1312.75
237.45	1261.55
237.67	1304.56
237.88	1296.36
238.10	1175.53
238.32	1279.98
238.54	1304.56
238.76	1247.21
238.97	1286.12
239.19	1300.46
239.41	1257.45
239.63	1327.08
239.85	1214.45
240.06	1267.69
240.28	1275.88
240.50	1316.84
240.72	1322.99
240.93	1282.03
241.15	1214.45
241.37	1216.49
241.59	1327.08
241.81	1275.88
242.02	1249.26
242.24	1318.89
242.46	1333.23
242.68	1214.45
242.89	1273.84
243.11	1241.07
243.33	1239.02
243.55	1255.40
243.76	1279.98
243.98	1298.41
244.20	1243.12
244.42	1363.95
244.64	1279.98
244.85	1286.12
245.07	1329.13
245.29	1214.45
245.51	1226.73
245.72	1247.21
245.94	1282.03
246.16	1206.25
246.38	1259.50
246.59	1300.46
246.81	1239.02
247.03	1241.07
247.24	1298.41
247.46	1234.93
247.68	1226.73
247.90	1288.17
248.11	1294.32
248.33	1304.56
248.55	1226.73
248.77	1236.97
248.98	1277.93
249.20	1206.25
249.42	1259.50
249.64	1273.84
249.85	1279.98
250.07	1257.45
250.29	1247.21
250.50	1224.69
250.72	1257.45
250.94	1267.69
251.16	1294.32
251.37	1290.22
251.59	1353.71
251.81	1234.93
252.02	1261.55
252.24	1318.89
252.46	1298.41
252.68	1157.10
252.89	1263.60
253.11	1247.21
253.33	1230.83
253.54	1279.98
253.76	1294.32
253.98	1232.88
254.20	1251.31
254.41	1241.07
254.63	1259.50
254.85	1261.55
255.06	1214.45
255.28	1292.27
255.50	1314.80
255.71	1249.26
255.93	1343.47
256.15	1277.93
256.36	1322.99
256.58	1312.75
256.80	1314.80
257.02	1255.40
257.23	1288.17
257.45	1243.12
257.67	1312.75
257.88	1282.03
258.10	1294.32
258.32	1320.94
258.53	1218.54
258.75	1265.64
258.97	1234.93
259.18	1288.17
259.40	1255.40
259.62	1239.02
259.83	1310.70
260.05	1263.60
260.27	1275.88
260.48	1249.26
260.70	1269.74
260.92	1261.55
261.13	1232.88
261.35	1257.45
261.57	1318.89
261.78	1310.70
262.00	1265.64
262.22	1277.93
262.43	1279.98
262.65	1257.45
262.86	1232.88
263.08	1314.80
263.30	1267.69
263.51	1222.64
263.73	1282.03
263.95	1265.64
264.16	1273.84
264.38	1257.45
264.60	1216.49
264.81	1245.16
265.03	1296.36
265.25	1269.74
265.46	1232.88
265.68	1275.88
265.89	1302.51
266.11	1245.16
266.33	1292.27
266.54	1224.69
266.76	1247.21
266.98	1206.25
267.19	1306.60
267.41	1282.03
267.62	1214.45
267.84	1202.16
268.06	1310.70
268.27	1220.59
268.49	1275.88
268.70	1226.73
268.92	1224.69
269.14	1253.36
269.35	1302.51
269.57	1263.60
269.79	1257.45
270.00	1236.97
270.22	1271.79
270.43	1288.17
270.65	1308.65
270.87	1286.12
271.08	1288.17
271.30	1179.63
271.51	1271.79
271.73	1267.69
271.95	1273.84
272.16	1322.99
272.38	1314.80
272.59	1284.08
272.81	1339.37
273.02	1236.97
273.24	1329.13
273.46	1230.83
273.67	1228.78
273.89	1228.78
274.10	1263.60
274.32	1314.80
274.54	1216.49
274.75	1282.03
274.97	1282.03
275.18	1206.25
275.40	1243.12
275.61	1239.02
275.83	1253.36
276.05	1173.49
276.26	1196.01
276.48	1232.88
276.69	1290.22
276.91	1253.36
277.12	1247.21
277.34	1247.21
277.55	1265.64
277.77	1263.60
277.99	1196.01
278.20	1241.07
278.42	1232.88
278.63	1271.79
278.85	1284.08
279.06	1284.08
279.28	1306.60
279.49	1269.74
279.71	1206.25
279.93	1228.78
280.14	1304.56
280.36	1308.65
280.57	1357.80
280.79	1224.69
281.00	1273.84
281.22	1257.45
281.43	1275.88
281.65	1261.55
281.86	1275.88
282.08	1241.07
282.29	1298.41
282.51	1273.84
282.73	1314.80
282.94	1300.46
283.16	1298.41
283.37	1202.16
283.59	1288.17
283.80	1247.21
284.02	1335.28
284.23	1279.98
284.45	1284.08
284.66	1259.50
284.88	1187.82
285.09	1298.41
285.31	1273.84
285.52	1322.99
285.74	1214.45
285.95	1257.45
286.17	1370.09
286.38	1308.65
286.60	1263.60
286.81	1286.12
287.03	1236.97
287.24	1271.79
287.46	1261.55
287.67	1320.94
287.89	1234.93
288.10	1337.32
288.32	1216.49
288.53	1247.21
288.75	1255.40
288.96	1322.99
289.18	1193.97
289.39	1294.32
289.61	1312.75
289.82	1261.55
290.04	1282.03
290.25	1214.45
290.47	1347.56
290.68	1296.36
290.90	1314.80
291.11	1279.98
291.33	1261.55
291.54	1239.02
291.76	1247.21
291.97	1314.80
292.18	1249.26
292.40	1243.12
292.61	1275.88
292.83	1255.40
293.04	1343.47
293.26	1284.08
293.47	1257.45
293.69	1275.88
293.90	1329.13
294.12	1171.44
294.33	1263.60
294.55	1273.84
294.76	1337.32
294.97	1228.78
295.19	1335.28
295.40	1341.42
295.62	1216.49
295.83	1241.07
296.05	1265.64
296.26	1275.88
296.48	1259.50
296.69	1302.51
296.90	1263.60
297.12	1282.03
297.33	1296.36
297.55	1284.08
297.76	1224.69
297.98	1230.83
298.19	1198.06
298.41	1310.70
298.62	1273.84
298.83	1234.93
299.05	1298.41
299.26	1259.50
299.48	1337.32
299.69	1232.88
299.90	1296.36
300.12	1198.06
300.33	1269.74
300.55	1241.07
300.76	1263.60
300.98	1230.83
301.19	1298.41
301.40	1245.16
301.62	1327.08
301.83	1325.04
302.05	1200.11
302.26	1257.45
302.47	1327.08
302.69	1241.07
302.90	1230.83
303.12	1271.79
303.33	1253.36
303.54	1314.80
303.76	1232.88
303.97	1267.69
304.19	1290.22
304.40	1322.99
304.61	1273.84
304.83	1273.84
305.04	1296.36
305.26	1271.79
305.47	1216.49
305.68	1249.26
305.90	1304.56
306.11	1292.27
306.33	1327.08
306.54	1181.68
306.75	1273.84
306.97	1257.45
307.18	1232.88
307.39	1275.88
307.61	1284.08
307.82	1222.64
308.04	1339.37
308.25	1310.70
308.46	1302.51
308.68	1271.79
308.89	1200.11
309.10	1322.99
309.32	1316.84
309.53	1234.93
309.74	1349.61
309.96	1286.12
310.17	1306.60
310.39	1265.64
310.60	1292.27
310.81	1241.07
311.03	1241.07
311.24	1245.16
311.45	1361.90
311.67	1241.07
311.88	1224.69
312.09	1243.12
312.31	1251.31
312.52	1189.87
312.73	1218.54
312.95	1187.82
313.16	1224.69
313.37	1273.84
313.59	1271.79
313.80	1255.40
314.01	1263.60
314.23	1218.54
314.44	1271.79
314.65	1366.00
314.87	1261.55
315.08	1304.56
315.29	1265.64
315.51	1339.37
315.72	1282.03
315.93	1226.73
316.15	1288.17
316.36	1245.16
316.57	1300.46
316.79	1273.84
317.00	1302.51
317.21	1271.79
317.43	1286.12
317.64	1243.12
317.85	1216.49
318.07	1210.35
318.28	1236.97
318.49	1230.83
318.70	1282.03
318.92	1253.36
319.13	1327.08
319.34	1263.60
319.56	1191.92
319.77	1288.17
319.98	1177.58
320.20	1243.12
320.41	1257.45
320.62	1273.84
320.83	1267.69
321.05	1302.51
321.26	1263.60
321.47	1212.40
321.69	1316.84
321.90	1253.36
322.11	1220.59
322.32	1279.98
322.54	1265.64
322.75	1271.79
322.96	1255.40
323.18	1189.87
323.39	1222.64
323.60	1243.12
323.81	1279.98
324.03	1208.30
324.24	1245.16
324.45	1257.45
324.66	1298.41
324.88	1257.45
325.09	1327.08
325.30	1257.45
325.52	1232.88
325.73	1257.45
325.94	1206.25
326.15	1294.32
326.37	1196.01
326.58	1300.46
326.79	1218.54
327.00	1366.00
327.22	1271.79
327.43	1228.78
327.64	1308.65
327.85	1271.79
328.07	1277.93
328.28	1245.16
328.49	1202.16
328.70	1318.89
328.92	1306.60
329.13	1282.03
329.34	1282.03
329.55	1333.23
329.76	1306.60
329.98	1239.02
330.19	1234.93
330.40	1304.56
330.61	1265.64
330.83	1267.69
331.04	1275.88
331.25	1212.40
331.46	1312.75
331.68	1269.74
331.89	1271.79
332.10	1279.98
332.31	1320.94
332.52	1308.65
332.74	1257.45
332.95	1247.21
333.16	1288.17
333.37	1216.49
333.58	1257.45
333.80	1196.01
334.01	1218.54
334.22	1347.56
334.43	1284.08
334.64	1259.50
334.86	1259.50
335.07	1210.35
335.28	1249.26
335.49	1245.16
335.70	1239.02
335.92	1243.12
336.13	1312.75
336.34	1286.12
336.55	1310.70
336.76	1212.40
336.98	1228.78
337.19	1206.25
337.40	1249.26
337.61	1230.83
337.82	1265.64
338.04	1218.54
338.25	1230.83
338.46	1228.78
338.67	1232.88
338.88	1322.99
339.09	1261.55
339.31	1327.08
339.52	1255.40
339.73	1253.36
339.94	1271.79
340.15	1216.49
340.36	1222.64
340.58	1290.22
340.79	1271.79
341.00	1292.27
341.21	1263.60
341.42	1298.41
341.63	1322.99
341.85	1275.88
342.06	1243.12
342.27	1314.80
342.48	1325.04
342.69	1255.40
342.90	1220.59
343.12	1275.88
343.33	1275.88
343.54	1286.12
343.75	1310.70
343.96	1216.49
344.17	1318.89
344.38	1222.64
344.60	1337.32
344.81	1230.83
345.02	1284.08
345.23	1300.46
345.44	1298.41
345.65	1271.79
345.86	1245.16
346.07	1327.08
346.29	1284.08
346.50	1263.60
346.71	1312.75
346.92	1357.80
347.13	1282.03
347.34	1228.78
347.55	1275.88
347.76	1251.31
347.98	1267.69
348.19	1243.12
348.40	1239.02
348.61	1226.73
348.82	1296.36
349.03	1273.84
349.24	1257.45
349.45	1277.93
349.66	1249.26
349.88	1282.03
350.09	1279.98
350.30	1314.80
350.51	1310.70
350.72	1275.88
350.93	1298.41
351.14	1241.07
351.35	1308.65
351.56	1243.12
351.77	1216.49
351.99	1378.28
352.20	1343.47
352.41	1267.69
352.62	1214.45
352.83	1255.40
353.04	1212.40
353.25	1292.27
353.46	1275.88
353.67	1286.12
353.88	1284.08
354.09	1249.26
354.30	1232.88
354.52	1253.36
354.73	1269.74
354.94	1224.69
355.15	1253.36
355.36	1167.34
355.57	1206.25
355.78	1173.49
355.99	1286.12
356.20	1298.41
356.41	1247.21
356.62	1300.46
356.83	1245.16
357.04	1261.55
357.25	1210.35
357.46	1196.01
357.68	1271.79
357.89	1286.12
358.10	1259.50
358.31	1245.16
358.52	1210.35
358.73	1310.70
358.94	1206.25
359.15	1247.21
359.36	1302.51
359.57	1200.11
359.78	1275.88
359.99	1232.88
360.20	1271.79
360.41	1327.08
360.62	1261.55
360.83	1245.16
361.04	1251.31
361.25	1228.78
361.46	1349.61
361.67	1318.89
361.88	1241.07
362.09	1271.79
362.30	1296.36
362.51	1263.60
362.72	1306.60
362.93	1177.58
363.14	1228.78
363.35	1290.22
363.56	1218.54
363.78	1312.75
363.99	1314.80
364.20	1257.45
364.41	1271.79
364.62	1226.73
364.83	1255.40
365.04	1284.08
365.25	1224.69
365.46	1300.46
365.67	1232.88
365.88	1245.16
366.09	1216.49
366.30	1251.31
366.51	1253.36
366.72	1232.88
366.93	1183.73
367.14	1318.89
367.35	1279.98
367.56	1247.21
367.77	1210.35
367.98	1298.41
368.18	1263.60
368.39	1243.12
368.60	1259.50
368.81	1220.59
369.02	1255.40
369.23	1239.02
369.44	1247.21
369.65	1253.36
369.86	1245.16
370.07	1253.36
370.28	1236.97
370.49	1239.02
370.70	1331.18
370.91	1245.16
371.12	1259.50
371.33	1239.02
371.54	1263.60
371.75	1261.55
371.96	1214.45
372.17	1189.87
372.38	1200.11
372.59	1183.73
372.80	1275.88
373.01	1245.16
373.22	1236.97
373.43	1234.93
373.64	1271.79
373.85	1296.36
374.06	1214.45
374.26	1208.30
374.47	1236.97
374.68	1230.83
374.89	1269.74
375.10	1220.59
375.31	1282.03
375.52	1171.44
375.73	1308.65
375.94	1220.59
376.15	1277.93
376.36	1275.88
376.57	1288.17
376.78	1243.12
376.99	1271.79
377.20	1263.60
377.40	1230.83
377.61	1271.79
377.82	1273.84
378.03	1282.03
378.24	1200.11
378.45	1257.45
378.66	1366.00
378.87	1263.60
379.08	1261.55
379.29	1259.50
379.50	1251.31
379.71	1284.08
379.91	1298.41
380.12	1300.46
380.33	1247.21
380.54	1267.69
380.75	1212.40
380.96	1269.74
381.17	1220.59
381.38	1241.07
381.59	1312.75
381.80	1310.70
382.00	1355.76
382.21	1208.30
382.42	1251.31
382.63	1304.56
382.84	1255.40
383.05	1263.60
383.26	1253.36
383.47	1290.22
383.68	1275.88
383.88	1196.01
384.09	1292.27
384.30	1251.31
384.51	1304.56
384.72	1183.73
384.93	1316.84
385.14	1304.56
385.35	1310.70
385.55	1241.07
385.76	1316.84
385.97	1243.12
386.18	1298.41
386.39	1206.25
386.60	1312.75
386.81	1271.79
387.02	1224.69
387.22	1269.74
387.43	1236.97
387.64	1318.89
387.85	1314.80
388.06	1290.22
388.27	1290.22
388.48	1255.40
388.68	1216.49
388.89	1269.74
389.10	1361.90
389.31	1308.65
389.52	1243.12
389.73	1224.69
389.93	1243.12
390.14	1220.59
390.35	1296.36
390.56	1255.40
390.77	1327.08
390.98	1314.80
391.18	1277.93
391.39	1282.03
391.60	1241.07
391.81	1259.50
392.02	1296.36
392.23	1331.18
392.43	1230.83
392.64	1263.60
392.85	1253.36
393.06	1269.74
393.27	1298.41
393.47	1247.21
393.68	1306.60
393.89	1243.12
394.10	1347.56
394.31	1345.52
394.52	1282.03
394.72	1239.02
394.93	1267.69
395.14	1310.70
395.35	1279.98
395.56	1302.51
395.76	1269.74
395.97	1357.80
396.18	1267.69
396.39	1316.84
396.60	1212.40
396.80	1243.12
397.01	1282.03
397.22	1216.49
397.43	1241.07
397.64	1275.88
397.84	1208.30
398.05	1300.46
398.26	1210.35
398.47	1261.55
398.67	1320.94
398.88	1300.46
399.09	1228.78
399.30	1273.84
399.51	1337.32
399.71	1279.98
399.92	1187.82
400.13	1318.89
400.34	1259.50
400.54	1275.88
400.75	1300.46
400.96	1269.74
401.17	1294.32
401.37	1290.22
401.58	1198.06
401.79	1216.49
402.00	1259.50
402.21	1253.36
402.41	1220.59
402.62	1257.45
402.83	1286.12
403.04	1279.98
403.24	1253.36
403.45	1265.64
403.66	1296.36
403.87	1259.50
404.07	1261.55
404.28	1245.16
404.49	1288.17
404.70	1273.84
404.90	1277.93
405.11	1322.99
405.32	1273.84
405.52	1196.01
405.73	1234.93
405.94	1284.08
406.15	1191.92
406.35	1251.31
406.56	1279.98
406.77	1257.45
406.98	1222.64
407.18	1298.41
407.39	1245.16
407.60	1277.93
407.80	1331.18
408.01	1322.99
408.22	1282.03
408.43	1292.27
408.63	1300.46
408.84	1314.80
409.05	1298.41
409.25	1253.36
409.46	1269.74
409.67	1230.83
409.88	1312.75
410.08	1304.56
410.29	1241.07
410.50	1267.69
410.70	1167.34
410.91	1259.50
411.12	1273.84
411.32	1220.59
411.53	1241.07
411.74	1234.93
411.95	1286.12
412.15	1198.06
412.36	1241.07
412.57	1239.02
412.77	1247.21
412.98	1255.40
413.19	1247.21
413.39	1226.73
413.60	1329.13
413.81	1284.08
414.01	1314.80
414.22	1267.69
414.43	1288.17
414.63	1296.36
414.84	1265.64
415.05	1214.45
415.25	1204.21
415.46	1253.36
415.67	1234.93
415.87	1222.64
416.08	1263.60
416.29	1273.84
416.49	1228.78
416.70	1230.83
416.91	1239.02
417.11	1304.56
417.32	1245.16
417.53	1327.08
417.73	1265.64
417.94	1355.76
418.15	1255.40
418.35	1265.64
418.56	1220.59
418.77	1243.12
418.97	1265.64
419.18	1239.02
419.38	1275.88
419.59	1286.12
419.80	1226.73
420.00	1247.21
420.21	1277.93
420.42	1337.32
420.62	1241.07
420.83	1273.84
421.04	1275.88
421.24	1269.74
421.45	1302.51
421.65	1349.61
421.86	1306.60
422.07	1228.78
422.27	1343.47
422.48	1265.64
422.69	1347.56
422.89	1239.02
423.10	1306.60
423.30	1169.39
423.51	1279.98
423.72	1275.88
423.92	1310.70
424.13	1271.79
424.33	1339.37
424.54	1257.45
424.75	1206.25
424.95	1220.59
425.16	1320.94
425.36	1261.55
425.57	1271.79
425.78	1310.70
425.98	1269.74
426.19	1277.93
426.39	1212.40
426.60	1257.45
426.81	1212.40
427.01	1216.49
427.22	1261.55
427.42	1292.27
427.63	1347.56
427.83	1355.76
428.04	1269.74
428.25	1298.41
428.45	1318.89
428.66	1263.60
428.86	1327.08
429.07	1265.64
429.28	1347.56
429.48	1349.61
429.69	1263.60
429.89	1298.41
430.10	1220.59
430.30	1218.54
430.51	1345.52
430.71	1316.84
430.92	1310.70
431.13	1257.45
431.33	1212.40
431.54	1269.74
431.74	1322.99
431.95	1298.41
432.15	1308.65
432.36	1286.12
432.56	1263.60
432.77	1290.22
432.98	1251.31
433.18	1249.26
433.39	1222.64
433.59	1275.88
433.80	1331.18
434.00	1282.03
434.21	1286.12
434.41	1259.50
434.62	1208.30
434.82	1265.64
435.03	1273.84
435.23	1325.04
435.44	1349.61
435.64	1298.41
435.85	1292.27
436.06	1292.27
436.26	1327.08
436.47	1206.25
436.67	1249.26
436.88	1253.36
437.08	1232.88
437.29	1273.84
437.49	1245.16
437.70	1181.68
437.90	1327.08
438.11	1267.69
438.31	1296.36
438.52	1296.36
438.72	1253.36
438.93	1294.32
439.13	1251.31
439.34	1232.88
439.54	1333.23
439.75	1236.97
439.95	1269.74
440.16	1253.36
440.36	1292.27
440.57	1273.84
440.77	1308.65
440.98	1245.16
441.18	1282.03
441.39	1298.41
441.59	1298.41
441.80	1257.45
442.00	1331.18
442.21	1294.32
442.41	1318.89
442.62	1204.21
442.82	1320.94
443.02	1241.07
443.23	1322.99
443.43	1304.56
443.64	1290.22
443.84	1226.73
444.05	1347.56
444.25	1304.56
444.46	1232.88
444.66	1290.22
444.87	1284.08
445.07	1247.21
445.28	1257.45
445.48	1239.02
445.69	1322.99
445.89	1329.13
446.09	1298.41
446.30	1331.18
446.50	1265.64
446.71	1265.64
446.91	1292.27
447.12	1245.16
447.32	1273.84
447.53	1298.41
447.73	1366.00
447.93	1294.32
448.14	1275.88
448.34	1236.97
448.55	1265.64
448.75	1286.12
448.96	1261.55
449.16	1327.08
449.36	1302.51
449.57	1261.55
449.77	1294.32
449.98	1282.03
450.18	1255.40
450.39	1310.70
450.59	1253.36
450.79	1318.89
451.00	1259.50
451.20	1236.97
451.41	1208.30
451.61	1288.17
451.81	1292.27
452.02	1359.85
452.22	1300.46
452.43	1316.84
452.63	1288.17
