SpectraSuite Data File
++++++++++++++++++++++++++++++++++++
Date: Sun Apr 03 19:55:52 CEST 2016
User: root
Dark Spectrum Present: No
Reference Spectrum Present: No
Number of Sampled Component Spectra: 1
Spectrometers: USB4C02835
Integration Time (usec): 10000 (USB4C02835)
Spectra Averaged: 1 (USB4C02835)
Boxcar Smoothing: 0 (USB4C02835)
Correct for Electrical Dark: No (USB4C02835)
Strobe/Lamp Enabled: No (USB4C02835)
Correct for Detector Non-linearity: No (USB4C02835)
Correct for Stray Light: No (USB4C02835)
Number of Pixels in Processed Spectrum: 3648
>>>>>Begin Processed Spectral Data<<<<<
177.47	1208.30
177.69	1208.30
177.91	1208.30
178.13	1198.06
178.36	1204.21
178.58	1265.64
178.80	1273.84
179.02	1210.35
179.24	1282.03
179.46	1247.21
179.68	1271.79
179.90	1275.88
180.13	1187.82
180.35	1228.78
180.57	1292.27
180.79	1331.18
181.01	1218.54
181.23	1314.80
181.45	1292.27
181.67	1165.29
181.90	1306.60
182.12	1271.79
182.34	1261.55
182.56	1290.22
182.78	1241.07
183.00	1206.25
183.22	1298.41
183.44	1259.50
183.66	1220.59
183.89	1304.56
184.11	1265.64
184.33	1247.21
184.55	1253.36
184.77	1290.22
184.99	1222.64
185.21	1282.03
185.43	1212.40
185.65	1234.93
185.87	1243.12
186.10	1296.36
186.32	1253.36
186.54	1261.55
186.76	1355.76
186.98	1243.12
187.20	1296.36
187.42	1198.06
187.64	1316.84
187.86	1288.17
188.08	1290.22
188.30	1230.83
188.52	1220.59
188.75	1284.08
188.97	1239.02
189.19	1251.31
189.41	1263.60
189.63	1286.12
189.85	1218.54
190.07	1263.60
190.29	1261.55
190.51	1241.07
190.73	1253.36
190.95	1257.45
191.17	1337.32
191.39	1230.83
191.61	1247.21
191.84	1187.82
192.06	1294.32
192.28	1288.17
192.50	1306.60
192.72	1288.17
192.94	1329.13
193.16	1279.98
193.38	1245.16
193.60	1286.12
193.82	1292.27
194.04	1228.78
194.26	1292.27
194.48	1298.41
194.70	1271.79
194.92	1255.40
195.14	1269.74
195.36	1267.69
195.58	1183.73
195.80	1247.21
196.02	1302.51
196.24	1286.12
196.46	1239.02
196.69	1282.03
196.91	1290.22
197.13	1255.40
197.35	1189.87
197.57	1288.17
197.79	1251.31
198.01	1359.85
198.23	1216.49
198.45	1275.88
198.67	1322.99
198.89	1249.26
199.11	1296.36
199.33	1302.51
199.55	1183.73
199.77	1245.16
199.99	1247.21
200.21	1175.53
200.43	1290.22
200.65	1325.04
200.87	1333.23
201.09	1292.27
201.31	1298.41
201.53	1320.94
201.75	1308.65
201.97	1282.03
202.19	1210.35
202.41	1306.60
202.63	1298.41
202.85	1214.45
203.07	1261.55
203.29	1263.60
203.51	1261.55
203.73	1232.88
203.95	1298.41
204.17	1245.16
204.39	1304.56
204.61	1277.93
204.83	1300.46
205.05	1288.17
205.27	1263.60
205.49	1265.64
205.71	1216.49
205.93	1255.40
206.15	1251.31
206.37	1177.58
206.59	1253.36
206.81	1259.50
207.03	1325.04
207.25	1212.40
207.47	1232.88
207.69	1230.83
207.91	1325.04
208.13	1232.88
208.34	1263.60
208.56	1204.21
208.78	1282.03
209.00	1302.51
209.22	1210.35
209.44	1247.21
209.66	1249.26
209.88	1144.81
210.10	1279.98
210.32	1259.50
210.54	1249.26
210.76	1275.88
210.98	1214.45
211.20	1261.55
211.42	1288.17
211.64	1208.30
211.86	1306.60
212.08	1292.27
212.30	1298.41
212.52	1216.49
212.74	1255.40
212.96	1241.07
213.17	1306.60
213.39	1314.80
213.61	1222.64
213.83	1269.74
214.05	1294.32
214.27	1263.60
214.49	1347.56
214.71	1286.12
214.93	1322.99
215.15	1247.21
215.37	1279.98
215.59	1214.45
215.81	1339.37
216.03	1314.80
216.24	1288.17
216.46	1269.74
216.68	1263.60
216.90	1245.16
217.12	1292.27
217.34	1243.12
217.56	1296.36
217.78	1239.02
218.00	1290.22
218.22	1290.22
218.44	1271.79
218.66	1263.60
218.87	1296.36
219.09	1249.26
219.31	1279.98
219.53	1247.21
219.75	1331.18
219.97	1224.69
220.19	1294.32
220.41	1279.98
220.63	1310.70
220.85	1249.26
221.06	1259.50
221.28	1255.40
221.50	1282.03
221.72	1224.69
221.94	1284.08
222.16	1249.26
222.38	1318.89
222.60	1253.36
222.82	1308.65
223.03	1263.60
223.25	1261.55
223.47	1312.75
223.69	1290.22
223.91	1271.79
224.13	1325.04
224.35	1220.59
224.57	1290.22
224.78	1257.45
225.00	1214.45
225.22	1271.79
225.44	1271.79
225.66	1279.98
225.88	1265.64
226.10	1290.22
226.32	1198.06
226.53	1263.60
226.75	1310.70
226.97	1335.28
227.19	1279.98
227.41	1189.87
227.63	1263.60
227.85	1239.02
228.06	1263.60
228.28	1189.87
228.50	1318.89
228.72	1263.60
228.94	1253.36
229.16	1222.64
229.37	1216.49
229.59	1255.40
229.81	1329.13
230.03	1241.07
230.25	1245.16
230.47	1300.46
230.69	1316.84
230.90	1200.11
231.12	1263.60
231.34	1255.40
231.56	1292.27
231.78	1265.64
232.00	1296.36
232.21	1282.03
232.43	1316.84
232.65	1259.50
232.87	1247.21
233.09	1236.97
233.30	1247.21
233.52	1263.60
233.74	1267.69
233.96	1304.56
234.18	1251.31
234.40	1290.22
234.61	1300.46
234.83	1257.45
235.05	1243.12
235.27	1288.17
235.49	1216.49
235.70	1304.56
235.92	1361.90
236.14	1308.65
236.36	1320.94
236.58	1239.02
236.79	1347.56
237.01	1241.07
237.23	1271.79
237.45	1265.64
237.67	1363.95
237.88	1249.26
238.10	1216.49
238.32	1224.69
238.54	1220.59
238.76	1282.03
238.97	1259.50
239.19	1318.89
239.41	1273.84
239.63	1267.69
239.85	1263.60
240.06	1290.22
240.28	1230.83
240.50	1263.60
240.72	1304.56
240.93	1318.89
241.15	1306.60
241.37	1265.64
241.59	1243.12
241.81	1300.46
242.02	1288.17
242.24	1196.01
242.46	1232.88
242.68	1269.74
242.89	1374.19
243.11	1239.02
243.33	1241.07
243.55	1204.21
243.76	1273.84
243.98	1366.00
244.20	1263.60
244.42	1271.79
244.64	1245.16
244.85	1247.21
245.07	1316.84
245.29	1241.07
245.51	1271.79
245.72	1249.26
245.94	1241.07
246.16	1335.28
246.38	1239.02
246.59	1308.65
246.81	1255.40
247.03	1275.88
247.24	1286.12
247.46	1216.49
247.68	1279.98
247.90	1257.45
248.11	1279.98
248.33	1302.51
248.55	1200.11
248.77	1232.88
248.98	1257.45
249.20	1251.31
249.42	1226.73
249.64	1275.88
249.85	1255.40
250.07	1286.12
250.29	1263.60
250.50	1288.17
250.72	1255.40
250.94	1267.69
251.16	1296.36
251.37	1302.51
251.59	1249.26
251.81	1265.64
252.02	1187.82
252.24	1230.83
252.46	1298.41
252.68	1294.32
252.89	1271.79
253.11	1216.49
253.33	1239.02
253.54	1241.07
253.76	1308.65
253.98	1224.69
254.20	1255.40
254.41	1243.12
254.63	1249.26
254.85	1322.99
255.06	1294.32
255.28	1312.75
255.50	1314.80
255.71	1210.35
255.93	1193.97
256.15	1320.94
256.36	1232.88
256.58	1187.82
256.80	1216.49
257.02	1333.23
257.23	1202.16
257.45	1290.22
257.67	1302.51
257.88	1253.36
258.10	1239.02
258.32	1277.93
258.53	1322.99
258.75	1275.88
258.97	1310.70
259.18	1189.87
259.40	1329.13
259.62	1255.40
259.83	1361.90
260.05	1302.51
260.27	1298.41
260.48	1261.55
260.70	1279.98
260.92	1232.88
261.13	1269.74
261.35	1294.32
261.57	1279.98
261.78	1234.93
262.00	1284.08
262.22	1279.98
262.43	1247.21
262.65	1202.16
262.86	1241.07
263.08	1193.97
263.30	1294.32
263.51	1273.84
263.73	1216.49
263.95	1312.75
264.16	1327.08
264.38	1341.42
264.60	1224.69
264.81	1271.79
265.03	1347.56
265.25	1249.26
265.46	1265.64
265.68	1284.08
265.89	1296.36
266.11	1273.84
266.33	1290.22
266.54	1351.66
266.76	1316.84
266.98	1222.64
267.19	1208.30
267.41	1245.16
267.62	1275.88
267.84	1269.74
268.06	1257.45
268.27	1286.12
268.49	1322.99
268.70	1298.41
268.92	1310.70
269.14	1253.36
269.35	1290.22
269.57	1247.21
269.79	1279.98
270.00	1339.37
270.22	1206.25
270.43	1249.26
270.65	1273.84
270.87	1259.50
271.08	1265.64
271.30	1253.36
271.51	1325.04
271.73	1239.02
271.95	1312.75
272.16	1294.32
272.38	1224.69
272.59	1290.22
272.81	1282.03
273.02	1298.41
273.24	1308.65
273.46	1247.21
273.67	1257.45
273.89	1251.31
274.10	1335.28
274.32	1163.25
274.54	1286.12
274.75	1200.11
274.97	1275.88
275.18	1263.60
275.40	1282.03
275.61	1327.08
275.83	1247.21
276.05	1220.59
276.26	1282.03
276.48	1253.36
276.69	1308.65
276.91	1298.41
277.12	1304.56
277.34	1318.89
277.55	1253.36
277.77	1212.40
277.99	1279.98
278.20	1308.65
278.42	1306.60
278.63	1249.26
278.85	1275.88
279.06	1251.31
279.28	1265.64
279.49	1322.99
279.71	1296.36
279.93	1308.65
280.14	1314.80
280.36	1271.79
280.57	1234.93
280.79	1257.45
281.00	1273.84
281.22	1273.84
281.43	1296.36
281.65	1310.70
281.86	1286.12
282.08	1341.42
282.29	1249.26
282.51	1216.49
282.73	1232.88
282.94	1208.30
283.16	1230.83
283.37	1255.40
283.59	1286.12
283.80	1236.97
284.02	1241.07
284.23	1247.21
284.45	1220.59
284.66	1267.69
284.88	1220.59
285.09	1228.78
285.31	1212.40
285.52	1302.51
285.74	1331.18
285.95	1245.16
286.17	1275.88
286.38	1200.11
286.60	1187.82
286.81	1232.88
287.03	1226.73
287.24	1290.22
287.46	1230.83
287.67	1329.13
287.89	1294.32
288.10	1224.69
288.32	1261.55
288.53	1296.36
288.75	1277.93
288.96	1339.37
289.18	1279.98
289.39	1322.99
289.61	1181.68
289.82	1255.40
290.04	1296.36
290.25	1273.84
290.47	1214.45
290.68	1263.60
290.90	1175.53
291.11	1277.93
291.33	1294.32
291.54	1249.26
291.76	1263.60
291.97	1341.42
292.18	1243.12
292.40	1224.69
292.61	1288.17
292.83	1282.03
293.04	1263.60
293.26	1267.69
293.47	1296.36
293.69	1327.08
293.90	1290.22
294.12	1261.55
294.33	1232.88
294.55	1279.98
294.76	1216.49
294.97	1286.12
295.19	1271.79
295.40	1232.88
295.62	1239.02
295.83	1220.59
296.05	1312.75
296.26	1243.12
296.48	1198.06
296.69	1234.93
296.90	1310.70
297.12	1214.45
297.33	1259.50
297.55	1271.79
297.76	1310.70
297.98	1298.41
298.19	1204.21
298.41	1288.17
298.62	1261.55
298.83	1261.55
299.05	1279.98
299.26	1261.55
299.48	1224.69
299.69	1232.88
299.90	1269.74
300.12	1259.50
300.33	1210.35
300.55	1226.73
300.76	1292.27
300.98	1228.78
301.19	1253.36
301.40	1329.13
301.62	1329.13
301.83	1257.45
302.05	1292.27
302.26	1302.51
302.47	1257.45
302.69	1312.75
302.90	1228.78
303.12	1245.16
303.33	1337.32
303.54	1259.50
303.76	1308.65
303.97	1288.17
304.19	1226.73
304.40	1292.27
304.61	1249.26
304.83	1271.79
305.04	1200.11
305.26	1259.50
305.47	1296.36
305.68	1212.40
305.90	1331.18
306.11	1236.97
306.33	1279.98
306.54	1200.11
306.75	1290.22
306.97	1208.30
307.18	1335.28
307.39	1290.22
307.61	1277.93
307.82	1257.45
308.04	1263.60
308.25	1308.65
308.46	1255.40
308.68	1277.93
308.89	1288.17
309.10	1292.27
309.32	1218.54
309.53	1261.55
309.74	1304.56
309.96	1241.07
310.17	1249.26
310.39	1286.12
310.60	1253.36
310.81	1335.28
311.03	1282.03
311.24	1245.16
311.45	1331.18
311.67	1269.74
311.88	1216.49
312.09	1296.36
312.31	1249.26
312.52	1298.41
312.73	1243.12
312.95	1290.22
313.16	1263.60
313.37	1271.79
313.59	1271.79
313.80	1290.22
314.01	1243.12
314.23	1245.16
314.44	1290.22
314.65	1339.37
314.87	1247.21
315.08	1263.60
315.29	1284.08
315.51	1224.69
315.72	1292.27
315.93	1277.93
316.15	1224.69
316.36	1263.60
316.57	1306.60
316.79	1243.12
317.00	1200.11
317.21	1249.26
317.43	1234.93
317.64	1296.36
317.85	1247.21
318.07	1243.12
318.28	1243.12
318.49	1214.45
318.70	1292.27
318.92	1312.75
319.13	1222.64
319.34	1279.98
319.56	1310.70
319.77	1267.69
319.98	1304.56
320.20	1306.60
320.41	1251.31
320.62	1257.45
320.83	1255.40
321.05	1310.70
321.26	1286.12
321.47	1220.59
321.69	1269.74
321.90	1193.97
322.11	1247.21
322.32	1212.40
322.54	1228.78
322.75	1351.66
322.96	1275.88
323.18	1259.50
323.39	1320.94
323.60	1222.64
323.81	1386.47
324.03	1212.40
324.24	1277.93
324.45	1282.03
324.66	1318.89
324.88	1261.55
325.09	1320.94
325.30	1257.45
325.52	1230.83
325.73	1304.56
325.94	1343.47
326.15	1284.08
326.37	1282.03
326.58	1306.60
326.79	1335.28
327.00	1331.18
327.22	1282.03
327.43	1159.15
327.64	1224.69
327.85	1265.64
328.07	1269.74
328.28	1249.26
328.49	1187.82
328.70	1216.49
328.92	1292.27
329.13	1241.07
329.34	1318.89
329.55	1306.60
329.76	1282.03
329.98	1320.94
330.19	1216.49
330.40	1261.55
330.61	1259.50
330.83	1304.56
331.04	1339.37
331.25	1251.31
331.46	1284.08
331.68	1257.45
331.89	1232.88
332.10	1257.45
332.31	1200.11
332.52	1249.26
332.74	1251.31
332.95	1263.60
333.16	1314.80
333.37	1236.97
333.58	1273.84
333.80	1232.88
334.01	1263.60
334.22	1290.22
334.43	1273.84
334.64	1251.31
334.86	1259.50
335.07	1257.45
335.28	1245.16
335.49	1196.01
335.70	1286.12
335.92	1216.49
336.13	1314.80
336.34	1279.98
336.55	1298.41
336.76	1198.06
336.98	1214.45
337.19	1271.79
337.40	1298.41
337.61	1277.93
337.82	1253.36
338.04	1257.45
338.25	1279.98
338.46	1247.21
338.67	1292.27
338.88	1316.84
339.09	1239.02
339.31	1179.63
339.52	1265.64
339.73	1292.27
339.94	1314.80
340.15	1275.88
340.36	1290.22
340.58	1296.36
340.79	1236.97
341.00	1251.31
341.21	1220.59
341.42	1249.26
341.63	1304.56
341.85	1245.16
342.06	1277.93
342.27	1226.73
342.48	1226.73
342.69	1216.49
342.90	1290.22
343.12	1271.79
343.33	1296.36
343.54	1304.56
343.75	1370.09
343.96	1230.83
344.17	1228.78
344.38	1263.60
344.60	1294.32
344.81	1253.36
345.02	1183.73
345.23	1196.01
345.44	1372.14
345.65	1234.93
345.86	1288.17
346.07	1308.65
346.29	1253.36
346.50	1302.51
346.71	1255.40
346.92	1247.21
347.13	1363.95
347.34	1167.34
347.55	1253.36
347.76	1290.22
347.98	1251.31
348.19	1251.31
348.40	1251.31
348.61	1206.25
348.82	1275.88
349.03	1284.08
349.24	1198.06
349.45	1335.28
349.66	1329.13
349.88	1296.36
350.09	1331.18
350.30	1286.12
350.51	1341.42
350.72	1269.74
350.93	1314.80
351.14	1200.11
351.35	1236.97
351.56	1204.21
351.77	1363.95
351.99	1261.55
352.20	1247.21
352.41	1294.32
352.62	1265.64
352.83	1222.64
353.04	1236.97
353.25	1216.49
353.46	1290.22
353.67	1275.88
353.88	1183.73
354.09	1232.88
354.30	1312.75
354.52	1263.60
354.73	1359.85
354.94	1243.12
355.15	1269.74
355.36	1271.79
355.57	1241.07
355.78	1236.97
355.99	1224.69
356.20	1284.08
356.41	1271.79
356.62	1310.70
356.83	1249.26
357.04	1282.03
357.25	1245.16
357.46	1345.52
357.68	1292.27
357.89	1239.02
358.10	1296.36
358.31	1275.88
358.52	1232.88
358.73	1234.93
358.94	1271.79
359.15	1273.84
359.36	1339.37
359.57	1255.40
359.78	1284.08
359.99	1204.21
360.20	1271.79
360.41	1265.64
360.62	1296.36
360.83	1275.88
361.04	1279.98
361.25	1271.79
361.46	1216.49
361.67	1290.22
361.88	1245.16
362.09	1241.07
362.30	1204.21
362.51	1224.69
362.72	1267.69
362.93	1341.42
363.14	1208.30
363.35	1275.88
363.56	1255.40
363.78	1249.26
363.99	1304.56
364.20	1279.98
364.41	1228.78
364.62	1290.22
364.83	1300.46
365.04	1251.31
365.25	1236.97
365.46	1267.69
365.67	1263.60
365.88	1273.84
366.09	1249.26
366.30	1236.97
366.51	1314.80
366.72	1214.45
366.93	1232.88
367.14	1249.26
367.35	1196.01
367.56	1249.26
367.77	1265.64
367.98	1318.89
368.18	1269.74
368.39	1282.03
368.60	1329.13
368.81	1245.16
369.02	1245.16
369.23	1265.64
369.44	1304.56
369.65	1304.56
369.86	1275.88
370.07	1247.21
370.28	1361.90
370.49	1286.12
370.70	1265.64
370.91	1216.49
371.12	1261.55
371.33	1290.22
371.54	1349.61
371.75	1261.55
371.96	1322.99
372.17	1200.11
372.38	1294.32
372.59	1271.79
372.80	1306.60
373.01	1230.83
373.22	1298.41
373.43	1271.79
373.64	1304.56
373.85	1302.51
374.06	1277.93
374.26	1257.45
374.47	1200.11
374.68	1187.82
374.89	1216.49
375.10	1230.83
375.31	1337.32
375.52	1245.16
375.73	1314.80
375.94	1296.36
376.15	1310.70
376.36	1230.83
376.57	1239.02
376.78	1279.98
376.99	1191.92
377.20	1234.93
377.40	1196.01
377.61	1310.70
377.82	1310.70
378.03	1239.02
378.24	1304.56
378.45	1257.45
378.66	1241.07
378.87	1308.65
379.08	1257.45
379.29	1253.36
379.50	1232.88
379.71	1245.16
379.91	1234.93
380.12	1257.45
380.33	1267.69
380.54	1259.50
380.75	1202.16
380.96	1236.97
381.17	1249.26
381.38	1265.64
381.59	1294.32
381.80	1263.60
382.00	1300.46
382.21	1269.74
382.42	1265.64
382.63	1308.65
382.84	1251.31
383.05	1232.88
383.26	1306.60
383.47	1275.88
383.68	1290.22
383.88	1212.40
384.09	1347.56
384.30	1308.65
384.51	1292.27
384.72	1314.80
384.93	1259.50
385.14	1288.17
385.35	1253.36
385.55	1218.54
385.76	1282.03
385.97	1196.01
386.18	1269.74
386.39	1263.60
386.60	1222.64
386.81	1277.93
387.02	1200.11
387.22	1220.59
387.43	1247.21
387.64	1232.88
387.85	1353.71
388.06	1228.78
388.27	1267.69
388.48	1288.17
388.68	1241.07
388.89	1265.64
389.10	1243.12
389.31	1304.56
389.52	1288.17
389.73	1259.50
389.93	1353.71
390.14	1351.66
390.35	1308.65
390.56	1261.55
390.77	1271.79
390.98	1239.02
391.18	1310.70
391.39	1161.20
391.60	1304.56
391.81	1216.49
392.02	1337.32
392.23	1239.02
392.43	1322.99
392.64	1273.84
392.85	1187.82
393.06	1304.56
393.27	1265.64
393.47	1245.16
393.68	1234.93
393.89	1247.21
394.10	1308.65
394.31	1290.22
394.52	1327.08
394.72	1298.41
394.93	1269.74
395.14	1265.64
395.35	1322.99
395.56	1300.46
395.76	1273.84
395.97	1302.51
396.18	1296.36
396.39	1275.88
396.60	1253.36
396.80	1241.07
397.01	1296.36
397.22	1312.75
397.43	1271.79
397.64	1347.56
397.84	1363.95
398.05	1300.46
398.26	1275.88
398.47	1239.02
398.67	1236.97
398.88	1294.32
399.09	1236.97
399.30	1306.60
399.51	1273.84
399.71	1282.03
399.92	1243.12
400.13	1234.93
400.34	1267.69
400.54	1277.93
400.75	1271.79
400.96	1249.26
401.17	1279.98
401.37	1351.66
401.58	1337.32
401.79	1275.88
402.00	1271.79
402.21	1255.40
402.41	1294.32
402.62	1210.35
402.83	1318.89
403.04	1273.84
403.24	1308.65
403.45	1247.21
403.66	1271.79
403.87	1284.08
404.07	1271.79
404.28	1261.55
404.49	1198.06
404.70	1230.83
404.90	1265.64
405.11	1214.45
405.32	1249.26
405.52	1275.88
405.73	1279.98
405.94	1306.60
406.15	1263.60
406.35	1265.64
406.56	1230.83
406.77	1267.69
406.98	1286.12
407.18	1310.70
407.39	1282.03
407.60	1263.60
407.80	1325.04
408.01	1271.79
408.22	1312.75
408.43	1320.94
408.63	1290.22
408.84	1277.93
409.05	1245.16
409.25	1271.79
409.46	1212.40
409.67	1253.36
409.88	1325.04
410.08	1269.74
410.29	1261.55
410.50	1261.55
410.70	1218.54
410.91	1236.97
411.12	1290.22
411.32	1251.31
411.53	1255.40
411.74	1253.36
411.95	1226.73
412.15	1241.07
412.36	1298.41
412.57	1275.88
412.77	1339.37
412.98	1234.93
413.19	1298.41
413.39	1257.45
413.60	1232.88
413.81	1308.65
414.01	1241.07
414.22	1265.64
414.43	1265.64
414.63	1220.59
414.84	1310.70
415.05	1271.79
415.25	1183.73
415.46	1304.56
415.67	1230.83
415.87	1265.64
416.08	1267.69
416.29	1214.45
416.49	1208.30
416.70	1327.08
416.91	1296.36
417.11	1239.02
417.32	1228.78
417.53	1296.36
417.73	1292.27
417.94	1243.12
418.15	1288.17
418.35	1312.75
418.56	1296.36
418.77	1322.99
418.97	1294.32
419.18	1187.82
419.38	1290.22
419.59	1271.79
419.80	1214.45
420.00	1263.60
420.21	1265.64
420.42	1275.88
420.62	1271.79
420.83	1296.36
421.04	1212.40
421.24	1286.12
421.45	1286.12
421.65	1239.02
421.86	1312.75
422.07	1306.60
422.27	1204.21
422.48	1251.31
422.69	1232.88
422.89	1288.17
423.10	1265.64
423.30	1284.08
423.51	1296.36
423.72	1249.26
423.92	1325.04
424.13	1218.54
424.33	1230.83
424.54	1245.16
424.75	1239.02
424.95	1234.93
425.16	1294.32
425.36	1263.60
425.57	1312.75
425.78	1282.03
425.98	1273.84
426.19	1245.16
426.39	1165.29
426.60	1275.88
426.81	1241.07
427.01	1300.46
427.22	1210.35
427.42	1277.93
427.63	1277.93
427.83	1218.54
428.04	1232.88
428.25	1247.21
428.45	1239.02
428.66	1249.26
428.86	1300.46
429.07	1200.11
429.28	1273.84
429.48	1275.88
429.69	1292.27
429.89	1282.03
430.10	1308.65
430.30	1247.21
430.51	1368.04
430.71	1216.49
430.92	1277.93
431.13	1202.16
431.33	1222.64
431.54	1298.41
431.74	1282.03
431.95	1255.40
432.15	1294.32
432.36	1261.55
432.56	1339.37
432.77	1292.27
432.98	1269.74
433.18	1277.93
433.39	1316.84
433.59	1251.31
433.80	1220.59
434.00	1247.21
434.21	1277.93
434.41	1288.17
434.62	1343.47
434.82	1265.64
435.03	1271.79
435.23	1218.54
435.44	1261.55
435.64	1257.45
435.85	1275.88
436.06	1331.18
436.26	1245.16
436.47	1228.78
436.67	1247.21
436.88	1255.40
437.08	1296.36
437.29	1251.31
437.49	1243.12
437.70	1271.79
437.90	1306.60
438.11	1322.99
438.31	1267.69
438.52	1277.93
438.72	1304.56
438.93	1376.24
439.13	1288.17
439.34	1306.60
439.54	1286.12
439.75	1282.03
439.95	1259.50
440.16	1187.82
440.36	1255.40
440.57	1298.41
440.77	1230.83
440.98	1275.88
441.18	1247.21
441.39	1267.69
441.59	1234.93
441.80	1265.64
442.00	1282.03
442.21	1257.45
442.41	1265.64
442.62	1282.03
442.82	1331.18
443.02	1259.50
443.23	1341.42
443.43	1355.76
443.64	1245.16
443.84	1327.08
444.05	1236.97
444.25	1306.60
444.46	1265.64
444.66	1279.98
444.87	1370.09
445.07	1339.37
445.28	1282.03
445.48	1273.84
445.69	1298.41
445.89	1341.42
446.09	1257.45
446.30	1343.47
446.50	1296.36
446.71	1181.68
446.91	1302.51
447.12	1265.64
447.32	1292.27
447.53	1243.12
447.73	1282.03
447.93	1249.26
448.14	1294.32
448.34	1200.11
448.55	1243.12
448.75	1265.64
448.96	1253.36
449.16	1222.64
449.36	1273.84
449.57	1320.94
449.77	1290.22
449.98	1236.97
450.18	1366.00
450.39	1251.31
450.59	1255.40
450.79	1273.84
451.00	1275.88
451.20	1249.26
451.41	1279.98
451.61	1294.32
451.81	1284.08
452.02	1249.26
452.22	1304.56
452.43	1183.73
452.63	1232.88
