SpectraSuite Data File
++++++++++++++++++++++++++++++++++++
Date: Sun Apr 03 19:55:37 CEST 2016
User: root
Dark Spectrum Present: No
Reference Spectrum Present: No
Number of Sampled Component Spectra: 1
Spectrometers: USB4C02835
Integration Time (usec): 10000 (USB4C02835)
Spectra Averaged: 1 (USB4C02835)
Boxcar Smoothing: 0 (USB4C02835)
Correct for Electrical Dark: No (USB4C02835)
Strobe/Lamp Enabled: No (USB4C02835)
Correct for Detector Non-linearity: No (USB4C02835)
Correct for Stray Light: No (USB4C02835)
Number of Pixels in Processed Spectrum: 3648
>>>>>Begin Processed Spectral Data<<<<<
177.47	1232.88
177.69	1232.88
177.91	1232.88
178.13	1312.75
178.36	1286.12
178.58	1314.80
178.80	1191.92
179.02	1265.64
179.24	1265.64
179.46	1288.17
179.68	1288.17
179.90	1239.02
180.13	1261.55
180.35	1224.69
180.57	1232.88
180.79	1196.01
181.01	1269.74
181.23	1277.93
181.45	1312.75
181.67	1263.60
181.90	1292.27
182.12	1249.26
182.34	1300.46
182.56	1243.12
182.78	1304.56
183.00	1255.40
183.22	1255.40
183.44	1239.02
183.66	1271.79
183.89	1298.41
184.11	1349.61
184.33	1333.23
184.55	1290.22
184.77	1206.25
184.99	1357.80
185.21	1318.89
185.43	1322.99
185.65	1241.07
185.87	1282.03
186.10	1259.50
186.32	1329.13
186.54	1296.36
186.76	1247.21
186.98	1269.74
187.20	1294.32
187.42	1314.80
187.64	1255.40
187.86	1310.70
188.08	1304.56
188.30	1257.45
188.52	1279.98
188.75	1261.55
188.97	1257.45
189.19	1251.31
189.41	1267.69
189.63	1279.98
189.85	1269.74
190.07	1271.79
190.29	1247.21
190.51	1267.69
190.73	1247.21
190.95	1294.32
191.17	1243.12
191.39	1273.84
191.61	1333.23
191.84	1208.30
192.06	1230.83
192.28	1236.97
192.50	1314.80
192.72	1261.55
192.94	1267.69
193.16	1353.71
193.38	1153.01
193.60	1261.55
193.82	1345.52
194.04	1284.08
194.26	1296.36
194.48	1306.60
194.70	1318.89
194.92	1333.23
195.14	1279.98
195.36	1286.12
195.58	1269.74
195.80	1331.18
196.02	1261.55
196.24	1273.84
196.46	1325.04
196.69	1300.46
196.91	1259.50
197.13	1261.55
197.35	1300.46
197.57	1243.12
197.79	1294.32
198.01	1255.40
198.23	1290.22
198.45	1288.17
198.67	1269.74
198.89	1267.69
199.11	1243.12
199.33	1302.51
199.55	1265.64
199.77	1282.03
199.99	1263.60
200.21	1329.13
200.43	1255.40
200.65	1257.45
200.87	1269.74
201.09	1239.02
201.31	1263.60
201.53	1316.84
201.75	1239.02
201.97	1208.30
202.19	1253.36
202.41	1232.88
202.63	1302.51
202.85	1255.40
203.07	1335.28
203.29	1220.59
203.51	1249.26
203.73	1247.21
203.95	1249.26
204.17	1312.75
204.39	1298.41
204.61	1265.64
204.83	1273.84
205.05	1249.26
205.27	1357.80
205.49	1279.98
205.71	1239.02
205.93	1335.28
206.15	1273.84
206.37	1269.74
206.59	1275.88
206.81	1200.11
207.03	1275.88
207.25	1251.31
207.47	1349.61
207.69	1271.79
207.91	1267.69
208.13	1275.88
208.34	1275.88
208.56	1214.45
208.78	1314.80
209.00	1224.69
209.22	1214.45
209.44	1253.36
209.66	1296.36
209.88	1263.60
210.10	1271.79
210.32	1208.30
210.54	1304.56
210.76	1245.16
210.98	1222.64
211.20	1228.78
211.42	1318.89
211.64	1253.36
211.86	1294.32
212.08	1202.16
212.30	1298.41
212.52	1236.97
212.74	1236.97
212.96	1284.08
213.17	1234.93
213.39	1294.32
213.61	1183.73
213.83	1290.22
214.05	1241.07
214.27	1230.83
214.49	1267.69
214.71	1265.64
214.93	1257.45
215.15	1239.02
215.37	1314.80
215.59	1142.77
215.81	1273.84
216.03	1222.64
216.24	1269.74
216.46	1300.46
216.68	1239.02
216.90	1271.79
217.12	1343.47
217.34	1292.27
217.56	1228.78
217.78	1245.16
218.00	1245.16
218.22	1245.16
218.44	1230.83
218.66	1310.70
218.87	1245.16
219.09	1277.93
219.31	1216.49
219.53	1290.22
219.75	1286.12
219.97	1232.88
220.19	1218.54
220.41	1220.59
220.63	1267.69
220.85	1273.84
221.06	1230.83
221.28	1251.31
221.50	1298.41
221.72	1300.46
221.94	1302.51
222.16	1251.31
222.38	1265.64
222.60	1294.32
222.82	1275.88
223.03	1275.88
223.25	1261.55
223.47	1292.27
223.69	1267.69
223.91	1193.97
224.13	1269.74
224.35	1273.84
224.57	1249.26
224.78	1212.40
225.00	1271.79
225.22	1288.17
225.44	1208.30
225.66	1241.07
225.88	1279.98
226.10	1243.12
226.32	1290.22
226.53	1282.03
226.75	1298.41
226.97	1241.07
227.19	1243.12
227.41	1302.51
227.63	1294.32
227.85	1255.40
228.06	1304.56
228.28	1296.36
228.50	1298.41
228.72	1214.45
228.94	1329.13
229.16	1241.07
229.37	1304.56
229.59	1261.55
229.81	1366.00
230.03	1265.64
230.25	1259.50
230.47	1318.89
230.69	1232.88
230.90	1286.12
231.12	1259.50
231.34	1253.36
231.56	1243.12
231.78	1224.69
232.00	1296.36
232.21	1187.82
232.43	1261.55
232.65	1267.69
232.87	1290.22
233.09	1292.27
233.30	1234.93
233.52	1255.40
233.74	1239.02
233.96	1300.46
234.18	1312.75
234.40	1300.46
234.61	1271.79
234.83	1290.22
235.05	1251.31
235.27	1212.40
235.49	1271.79
235.70	1271.79
235.92	1277.93
236.14	1171.44
236.36	1273.84
236.58	1292.27
236.79	1284.08
237.01	1251.31
237.23	1226.73
237.45	1232.88
237.67	1284.08
237.88	1232.88
238.10	1312.75
238.32	1310.70
238.54	1277.93
238.76	1298.41
238.97	1222.64
239.19	1212.40
239.41	1259.50
239.63	1271.79
239.85	1300.46
240.06	1286.12
240.28	1277.93
240.50	1239.02
240.72	1249.26
240.93	1327.08
241.15	1292.27
241.37	1288.17
241.59	1267.69
241.81	1251.31
242.02	1269.74
242.24	1325.04
242.46	1351.66
242.68	1312.75
242.89	1320.94
243.11	1267.69
243.33	1298.41
243.55	1302.51
243.76	1314.80
243.98	1226.73
244.20	1292.27
244.42	1304.56
244.64	1212.40
244.85	1261.55
245.07	1322.99
245.29	1298.41
245.51	1245.16
245.72	1279.98
245.94	1310.70
246.16	1310.70
246.38	1308.65
246.59	1243.12
246.81	1236.97
247.03	1234.93
247.24	1335.28
247.46	1271.79
247.68	1271.79
247.90	1368.04
248.11	1263.60
248.33	1251.31
248.55	1275.88
248.77	1284.08
248.98	1300.46
249.20	1351.66
249.42	1345.52
249.64	1230.83
249.85	1269.74
250.07	1302.51
250.29	1327.08
250.50	1314.80
250.72	1259.50
250.94	1212.40
251.16	1286.12
251.37	1163.25
251.59	1228.78
251.81	1296.36
252.02	1167.34
252.24	1267.69
252.46	1366.00
252.68	1304.56
252.89	1228.78
253.11	1255.40
253.33	1245.16
253.54	1304.56
253.76	1312.75
253.98	1308.65
254.20	1226.73
254.41	1269.74
254.63	1318.89
254.85	1288.17
255.06	1296.36
255.28	1279.98
255.50	1234.93
255.71	1312.75
255.93	1228.78
256.15	1236.97
256.36	1177.58
256.58	1241.07
256.80	1263.60
257.02	1298.41
257.23	1337.32
257.45	1230.83
257.67	1267.69
257.88	1282.03
258.10	1292.27
258.32	1271.79
258.53	1257.45
258.75	1265.64
258.97	1312.75
259.18	1329.13
259.40	1286.12
259.62	1232.88
259.83	1349.61
260.05	1298.41
260.27	1335.28
260.48	1241.07
260.70	1263.60
260.92	1294.32
261.13	1232.88
261.35	1263.60
261.57	1214.45
261.78	1267.69
262.00	1294.32
262.22	1279.98
262.43	1224.69
262.65	1251.31
262.86	1271.79
263.08	1304.56
263.30	1294.32
263.51	1275.88
263.73	1284.08
263.95	1234.93
264.16	1224.69
264.38	1298.41
264.60	1241.07
264.81	1294.32
265.03	1257.45
265.25	1347.56
265.46	1271.79
265.68	1210.35
265.89	1282.03
266.11	1255.40
266.33	1300.46
266.54	1269.74
266.76	1273.84
266.98	1290.22
267.19	1325.04
267.41	1265.64
267.62	1312.75
267.84	1269.74
268.06	1337.32
268.27	1322.99
268.49	1232.88
268.70	1230.83
268.92	1320.94
269.14	1257.45
269.35	1316.84
269.57	1288.17
269.79	1335.28
270.00	1253.36
270.22	1253.36
270.43	1249.26
270.65	1243.12
270.87	1322.99
271.08	1363.95
271.30	1275.88
271.51	1241.07
271.73	1343.47
271.95	1265.64
272.16	1212.40
272.38	1277.93
272.59	1269.74
272.81	1331.18
273.02	1214.45
273.24	1308.65
273.46	1306.60
273.67	1206.25
273.89	1320.94
274.10	1357.80
274.32	1288.17
274.54	1255.40
274.75	1191.92
274.97	1226.73
275.18	1216.49
275.40	1275.88
275.61	1312.75
275.83	1310.70
276.05	1284.08
276.26	1327.08
276.48	1294.32
276.69	1253.36
276.91	1208.30
277.12	1191.92
277.34	1275.88
277.55	1290.22
277.77	1249.26
277.99	1271.79
278.20	1255.40
278.42	1353.71
278.63	1249.26
278.85	1245.16
279.06	1279.98
279.28	1261.55
279.49	1216.49
279.71	1355.76
279.93	1255.40
280.14	1216.49
280.36	1255.40
280.57	1314.80
280.79	1308.65
281.00	1247.21
281.22	1236.97
281.43	1259.50
281.65	1239.02
281.86	1273.84
282.08	1275.88
282.29	1202.16
282.51	1325.04
282.73	1271.79
282.94	1277.93
283.16	1282.03
283.37	1267.69
283.59	1234.93
283.80	1294.32
284.02	1306.60
284.23	1345.52
284.45	1282.03
284.66	1251.31
284.88	1282.03
285.09	1206.25
285.31	1296.36
285.52	1286.12
285.74	1265.64
285.95	1316.84
286.17	1216.49
286.38	1300.46
286.60	1320.94
286.81	1249.26
287.03	1279.98
287.24	1329.13
287.46	1271.79
287.67	1294.32
287.89	1273.84
288.10	1327.08
288.32	1191.92
288.53	1261.55
288.75	1279.98
288.96	1257.45
289.18	1312.75
289.39	1284.08
289.61	1277.93
289.82	1269.74
290.04	1306.60
290.25	1273.84
290.47	1279.98
290.68	1300.46
290.90	1241.07
291.11	1234.93
291.33	1275.88
291.54	1282.03
291.76	1277.93
291.97	1173.49
292.18	1327.08
292.40	1290.22
292.61	1306.60
292.83	1204.21
293.04	1251.31
293.26	1279.98
293.47	1269.74
293.69	1196.01
293.90	1288.17
294.12	1210.35
294.33	1294.32
294.55	1239.02
294.76	1275.88
294.97	1253.36
295.19	1322.99
295.40	1224.69
295.62	1189.87
295.83	1189.87
296.05	1282.03
296.26	1306.60
296.48	1290.22
296.69	1230.83
296.90	1232.88
297.12	1322.99
297.33	1230.83
297.55	1277.93
297.76	1312.75
297.98	1273.84
298.19	1298.41
298.41	1347.56
298.62	1288.17
298.83	1247.21
299.05	1290.22
299.26	1257.45
299.48	1247.21
299.69	1288.17
299.90	1288.17
300.12	1306.60
300.33	1208.30
300.55	1243.12
300.76	1279.98
300.98	1210.35
301.19	1241.07
301.40	1290.22
301.62	1263.60
301.83	1224.69
302.05	1284.08
302.26	1232.88
302.47	1343.47
302.69	1292.27
302.90	1239.02
303.12	1257.45
303.33	1263.60
303.54	1265.64
303.76	1314.80
303.97	1245.16
304.19	1294.32
304.40	1263.60
304.61	1206.25
304.83	1179.63
305.04	1316.84
305.26	1251.31
305.47	1277.93
305.68	1292.27
305.90	1296.36
306.11	1232.88
306.33	1286.12
306.54	1243.12
306.75	1214.45
306.97	1200.11
307.18	1259.50
307.39	1267.69
307.61	1239.02
307.82	1206.25
308.04	1214.45
308.25	1282.03
308.46	1296.36
308.68	1214.45
308.89	1277.93
309.10	1249.26
309.32	1230.83
309.53	1216.49
309.74	1290.22
309.96	1212.40
310.17	1290.22
310.39	1253.36
310.60	1257.45
310.81	1253.36
311.03	1279.98
311.24	1251.31
311.45	1335.28
311.67	1261.55
311.88	1275.88
312.09	1214.45
312.31	1241.07
312.52	1269.74
312.73	1267.69
312.95	1265.64
313.16	1269.74
313.37	1251.31
313.59	1298.41
313.80	1253.36
314.01	1257.45
314.23	1226.73
314.44	1282.03
314.65	1265.64
314.87	1306.60
315.08	1241.07
315.29	1265.64
315.51	1232.88
315.72	1302.51
315.93	1275.88
316.15	1239.02
316.36	1292.27
316.57	1224.69
316.79	1275.88
317.00	1226.73
317.21	1167.34
317.43	1290.22
317.64	1230.83
317.85	1226.73
318.07	1222.64
318.28	1253.36
318.49	1273.84
318.70	1304.56
318.92	1224.69
319.13	1267.69
319.34	1279.98
319.56	1304.56
319.77	1322.99
319.98	1292.27
320.20	1234.93
320.41	1255.40
320.62	1284.08
320.83	1329.13
321.05	1341.42
321.26	1271.79
321.47	1204.21
321.69	1288.17
321.90	1359.85
322.11	1290.22
322.32	1308.65
322.54	1357.80
322.75	1191.92
322.96	1232.88
323.18	1212.40
323.39	1263.60
323.60	1294.32
323.81	1255.40
324.03	1263.60
324.24	1206.25
324.45	1282.03
324.66	1245.16
324.88	1193.97
325.09	1300.46
325.30	1273.84
325.52	1261.55
325.73	1206.25
325.94	1247.21
326.15	1255.40
326.37	1320.94
326.58	1210.35
326.79	1214.45
327.00	1232.88
327.22	1279.98
327.43	1236.97
327.64	1257.45
327.85	1249.26
328.07	1226.73
328.28	1273.84
328.49	1296.36
328.70	1288.17
328.92	1263.60
329.13	1292.27
329.34	1241.07
329.55	1198.06
329.76	1286.12
329.98	1183.73
330.19	1269.74
330.40	1322.99
330.61	1265.64
330.83	1261.55
331.04	1245.16
331.25	1275.88
331.46	1306.60
331.68	1294.32
331.89	1263.60
332.10	1314.80
332.31	1236.97
332.52	1261.55
332.74	1314.80
332.95	1341.42
333.16	1257.45
333.37	1263.60
333.58	1249.26
333.80	1273.84
334.01	1271.79
334.22	1312.75
334.43	1277.93
334.64	1247.21
334.86	1273.84
335.07	1224.69
335.28	1275.88
335.49	1282.03
335.70	1263.60
335.92	1257.45
336.13	1259.50
336.34	1292.27
336.55	1304.56
336.76	1206.25
336.98	1255.40
337.19	1273.84
337.40	1214.45
337.61	1222.64
337.82	1306.60
338.04	1273.84
338.25	1273.84
338.46	1273.84
338.67	1224.69
338.88	1304.56
339.09	1239.02
339.31	1234.93
339.52	1316.84
339.73	1189.87
339.94	1282.03
340.15	1284.08
340.36	1282.03
340.58	1314.80
340.79	1261.55
341.00	1277.93
341.21	1226.73
341.42	1282.03
341.63	1232.88
341.85	1322.99
342.06	1189.87
342.27	1275.88
342.48	1249.26
342.69	1253.36
342.90	1263.60
343.12	1241.07
343.33	1284.08
343.54	1230.83
343.75	1298.41
343.96	1230.83
344.17	1302.51
344.38	1288.17
344.60	1298.41
344.81	1263.60
345.02	1243.12
345.23	1214.45
345.44	1322.99
345.65	1341.42
345.86	1243.12
346.07	1259.50
346.29	1269.74
346.50	1312.75
346.71	1277.93
346.92	1214.45
347.13	1257.45
347.34	1284.08
347.55	1243.12
347.76	1218.54
347.98	1314.80
348.19	1175.53
348.40	1325.04
348.61	1249.26
348.82	1259.50
349.03	1298.41
349.24	1251.31
349.45	1300.46
349.66	1265.64
349.88	1304.56
350.09	1241.07
350.30	1304.56
350.51	1236.97
350.72	1312.75
350.93	1271.79
351.14	1261.55
351.35	1282.03
351.56	1265.64
351.77	1302.51
351.99	1327.08
352.20	1247.21
352.41	1267.69
352.62	1306.60
352.83	1200.11
353.04	1306.60
353.25	1298.41
353.46	1263.60
353.67	1202.16
353.88	1263.60
354.09	1279.98
354.30	1286.12
354.52	1263.60
354.73	1243.12
354.94	1304.56
355.15	1363.95
355.36	1275.88
355.57	1265.64
355.78	1241.07
355.99	1171.44
356.20	1294.32
356.41	1318.89
356.62	1275.88
356.83	1210.35
357.04	1322.99
357.25	1234.93
357.46	1255.40
357.68	1310.70
357.89	1306.60
358.10	1261.55
358.31	1286.12
358.52	1288.17
358.73	1269.74
358.94	1273.84
359.15	1222.64
359.36	1173.49
359.57	1200.11
359.78	1265.64
359.99	1279.98
360.20	1298.41
360.41	1288.17
360.62	1230.83
360.83	1300.46
361.04	1220.59
361.25	1253.36
361.46	1294.32
361.67	1288.17
361.88	1304.56
362.09	1200.11
362.30	1177.58
362.51	1245.16
362.72	1230.83
362.93	1255.40
363.14	1257.45
363.35	1296.36
363.56	1202.16
363.78	1255.40
363.99	1290.22
364.20	1308.65
364.41	1245.16
364.62	1308.65
364.83	1298.41
365.04	1290.22
365.25	1275.88
365.46	1255.40
365.67	1286.12
365.88	1320.94
366.09	1257.45
366.30	1304.56
366.51	1239.02
366.72	1253.36
366.93	1261.55
367.14	1265.64
367.35	1273.84
367.56	1290.22
367.77	1279.98
367.98	1304.56
368.18	1245.16
368.39	1257.45
368.60	1290.22
368.81	1267.69
369.02	1245.16
369.23	1290.22
369.44	1308.65
369.65	1298.41
369.86	1230.83
370.07	1267.69
370.28	1282.03
370.49	1220.59
370.70	1198.06
370.91	1181.68
371.12	1269.74
371.33	1294.32
371.54	1261.55
371.75	1249.26
371.96	1253.36
372.17	1284.08
372.38	1273.84
372.59	1288.17
372.80	1241.07
373.01	1269.74
373.22	1288.17
373.43	1216.49
373.64	1269.74
373.85	1257.45
374.06	1259.50
374.26	1257.45
374.47	1318.89
374.68	1370.09
374.89	1284.08
375.10	1249.26
375.31	1265.64
375.52	1251.31
375.73	1343.47
375.94	1251.31
376.15	1279.98
376.36	1296.36
376.57	1241.07
376.78	1257.45
376.99	1259.50
377.20	1290.22
377.40	1241.07
377.61	1236.97
377.82	1261.55
378.03	1277.93
378.24	1255.40
378.45	1296.36
378.66	1255.40
378.87	1284.08
379.08	1263.60
379.29	1290.22
379.50	1284.08
379.71	1230.83
379.91	1273.84
380.12	1277.93
380.33	1273.84
380.54	1282.03
380.75	1234.93
380.96	1302.51
381.17	1298.41
381.38	1234.93
381.59	1269.74
381.80	1275.88
382.00	1337.32
382.21	1267.69
382.42	1329.13
382.63	1302.51
382.84	1245.16
383.05	1265.64
383.26	1261.55
383.47	1331.18
383.68	1261.55
383.88	1208.30
384.09	1255.40
384.30	1298.41
384.51	1279.98
384.72	1279.98
384.93	1271.79
385.14	1318.89
385.35	1304.56
385.55	1282.03
385.76	1222.64
385.97	1312.75
386.18	1236.97
386.39	1198.06
386.60	1249.26
386.81	1226.73
387.02	1284.08
387.22	1208.30
387.43	1193.97
387.64	1261.55
387.85	1241.07
388.06	1224.69
388.27	1271.79
388.48	1259.50
388.68	1208.30
388.89	1312.75
389.10	1282.03
389.31	1269.74
389.52	1265.64
389.73	1269.74
389.93	1261.55
390.14	1226.73
390.35	1267.69
390.56	1269.74
390.77	1314.80
390.98	1257.45
391.18	1230.83
391.39	1292.27
391.60	1253.36
391.81	1265.64
392.02	1300.46
392.23	1273.84
392.43	1267.69
392.64	1183.73
392.85	1300.46
393.06	1228.78
393.27	1286.12
393.47	1255.40
393.68	1286.12
393.89	1277.93
394.10	1243.12
394.31	1206.25
394.52	1298.41
394.72	1216.49
394.93	1271.79
395.14	1288.17
395.35	1294.32
395.56	1302.51
395.76	1236.97
395.97	1243.12
396.18	1273.84
396.39	1261.55
396.60	1298.41
396.80	1279.98
397.01	1232.88
397.22	1236.97
397.43	1222.64
397.64	1269.74
397.84	1259.50
398.05	1177.58
398.26	1216.49
398.47	1234.93
398.67	1222.64
398.88	1234.93
399.09	1322.99
399.30	1306.60
399.51	1249.26
399.71	1200.11
399.92	1331.18
400.13	1224.69
400.34	1273.84
400.54	1239.02
400.75	1277.93
400.96	1282.03
401.17	1306.60
401.37	1259.50
401.58	1314.80
401.79	1245.16
402.00	1304.56
402.21	1294.32
402.41	1222.64
402.62	1265.64
402.83	1302.51
403.04	1298.41
403.24	1251.31
403.45	1265.64
403.66	1314.80
403.87	1259.50
404.07	1236.97
404.28	1234.93
404.49	1261.55
404.70	1249.26
404.90	1222.64
405.11	1239.02
405.32	1232.88
405.52	1245.16
405.73	1259.50
405.94	1306.60
406.15	1282.03
406.35	1296.36
406.56	1263.60
406.77	1290.22
406.98	1290.22
407.18	1259.50
407.39	1261.55
407.60	1189.87
407.80	1388.52
408.01	1275.88
408.22	1320.94
408.43	1251.31
408.63	1261.55
408.84	1296.36
409.05	1314.80
409.25	1232.88
409.46	1239.02
409.67	1265.64
409.88	1230.83
410.08	1214.45
410.29	1306.60
410.50	1259.50
410.70	1259.50
410.91	1267.69
411.12	1282.03
411.32	1290.22
411.53	1239.02
411.74	1241.07
411.95	1294.32
412.15	1249.26
412.36	1286.12
412.57	1234.93
412.77	1282.03
412.98	1316.84
413.19	1290.22
413.39	1179.63
413.60	1275.88
413.81	1267.69
414.01	1269.74
414.22	1286.12
414.43	1320.94
414.63	1263.60
414.84	1359.85
415.05	1247.21
415.25	1239.02
415.46	1224.69
415.67	1214.45
415.87	1224.69
416.08	1245.16
416.29	1171.44
416.49	1304.56
416.70	1255.40
416.91	1282.03
417.11	1245.16
417.32	1275.88
417.53	1339.37
417.73	1241.07
417.94	1271.79
418.15	1282.03
418.35	1216.49
418.56	1265.64
418.77	1300.46
418.97	1327.08
419.18	1267.69
419.38	1224.69
419.59	1286.12
419.80	1236.97
420.00	1322.99
420.21	1222.64
420.42	1204.21
420.62	1234.93
420.83	1265.64
421.04	1288.17
421.24	1333.23
421.45	1318.89
421.65	1325.04
421.86	1196.01
422.07	1241.07
422.27	1232.88
422.48	1273.84
422.69	1282.03
422.89	1296.36
423.10	1249.26
423.30	1292.27
423.51	1288.17
423.72	1251.31
423.92	1286.12
424.13	1222.64
424.33	1226.73
424.54	1200.11
424.75	1290.22
424.95	1230.83
425.16	1214.45
425.36	1294.32
425.57	1232.88
425.78	1187.82
425.98	1247.21
426.19	1175.53
426.39	1218.54
426.60	1300.46
426.81	1314.80
427.01	1210.35
427.22	1218.54
427.42	1251.31
427.63	1263.60
427.83	1273.84
428.04	1265.64
428.25	1228.78
428.45	1284.08
428.66	1351.66
428.86	1269.74
429.07	1261.55
429.28	1232.88
429.48	1335.28
429.69	1269.74
429.89	1245.16
430.10	1210.35
430.30	1167.34
430.51	1345.52
430.71	1294.32
430.92	1253.36
431.13	1249.26
431.33	1200.11
431.54	1208.30
431.74	1196.01
431.95	1257.45
432.15	1224.69
432.36	1267.69
432.56	1271.79
432.77	1279.98
432.98	1331.18
433.18	1304.56
433.39	1257.45
433.59	1216.49
433.80	1292.27
434.00	1320.94
434.21	1224.69
434.41	1298.41
434.62	1224.69
434.82	1232.88
435.03	1247.21
435.23	1261.55
435.44	1306.60
435.64	1198.06
435.85	1265.64
436.06	1245.16
436.26	1243.12
436.47	1247.21
436.67	1226.73
436.88	1247.21
437.08	1386.47
437.29	1222.64
437.49	1288.17
437.70	1247.21
437.90	1263.60
438.11	1275.88
438.31	1255.40
438.52	1304.56
438.72	1294.32
438.93	1271.79
439.13	1245.16
439.34	1249.26
439.54	1337.32
439.75	1288.17
439.95	1243.12
440.16	1243.12
440.36	1267.69
440.57	1263.60
440.77	1265.64
440.98	1310.70
441.18	1251.31
441.39	1294.32
441.59	1255.40
441.80	1271.79
442.00	1320.94
442.21	1255.40
442.41	1236.97
442.62	1376.24
442.82	1282.03
443.02	1247.21
443.23	1206.25
443.43	1255.40
443.64	1288.17
443.84	1312.75
444.05	1245.16
444.25	1300.46
444.46	1294.32
444.66	1277.93
444.87	1320.94
445.07	1288.17
445.28	1314.80
445.48	1271.79
445.69	1306.60
445.89	1255.40
446.09	1339.37
446.30	1277.93
446.50	1279.98
446.71	1277.93
446.91	1286.12
447.12	1259.50
447.32	1265.64
447.53	1275.88
447.73	1216.49
447.93	1282.03
448.14	1279.98
448.34	1261.55
448.55	1322.99
448.75	1337.32
448.96	1292.27
449.16	1208.30
449.36	1261.55
449.57	1230.83
449.77	1282.03
449.98	1316.84
450.18	1308.65
450.39	1253.36
450.59	1306.60
450.79	1294.32
451.00	1228.78
451.20	1263.60
451.41	1271.79
451.61	1298.41
451.81	1345.52
452.02	1335.28
452.22	1261.55
452.43	1247.21
452.63	1296.36
