SpectraSuite Data File
++++++++++++++++++++++++++++++++++++
Date: Sun Apr 03 19:55:49 CEST 2016
User: root
Dark Spectrum Present: No
Reference Spectrum Present: No
Number of Sampled Component Spectra: 1
Spectrometers: USB4C02835
Integration Time (usec): 10000 (USB4C02835)
Spectra Averaged: 1 (USB4C02835)
Boxcar Smoothing: 0 (USB4C02835)
Correct for Electrical Dark: No (USB4C02835)
Strobe/Lamp Enabled: No (USB4C02835)
Correct for Detector Non-linearity: No (USB4C02835)
Correct for Stray Light: No (USB4C02835)
Number of Pixels in Processed Spectrum: 3648
>>>>>Begin Processed Spectral Data<<<<<
177.47	1245.16
177.69	1245.16
177.91	1245.16
178.13	1265.64
178.36	1290.22
178.58	1269.74
178.80	1263.60
179.02	1226.73
179.24	1286.12
179.46	1337.32
179.68	1279.98
179.90	1271.79
180.13	1251.31
180.35	1271.79
180.57	1302.51
180.79	1239.02
181.01	1298.41
181.23	1290.22
181.45	1271.79
181.67	1218.54
181.90	1261.55
182.12	1200.11
182.34	1224.69
182.56	1253.36
182.78	1253.36
183.00	1261.55
183.22	1259.50
183.44	1165.29
183.66	1275.88
183.89	1224.69
184.11	1210.35
184.33	1288.17
184.55	1298.41
184.77	1212.40
184.99	1282.03
185.21	1298.41
185.43	1232.88
185.65	1269.74
185.87	1302.51
186.10	1288.17
186.32	1384.43
186.54	1218.54
186.76	1251.31
186.98	1298.41
187.20	1273.84
187.42	1220.59
187.64	1327.08
187.86	1257.45
188.08	1327.08
188.30	1253.36
188.52	1255.40
188.75	1294.32
188.97	1322.99
189.19	1294.32
189.41	1228.78
189.63	1286.12
189.85	1279.98
190.07	1232.88
190.29	1257.45
190.51	1234.93
190.73	1282.03
190.95	1220.59
191.17	1286.12
191.39	1263.60
191.61	1257.45
191.84	1302.51
192.06	1249.26
192.28	1243.12
192.50	1335.28
192.72	1253.36
192.94	1241.07
193.16	1357.80
193.38	1138.67
193.60	1265.64
193.82	1204.21
194.04	1247.21
194.26	1206.25
194.48	1279.98
194.70	1226.73
194.92	1320.94
195.14	1263.60
195.36	1308.65
195.58	1249.26
195.80	1279.98
196.02	1232.88
196.24	1306.60
196.46	1286.12
196.69	1228.78
196.91	1251.31
197.13	1255.40
197.35	1226.73
197.57	1255.40
197.79	1259.50
198.01	1200.11
198.23	1322.99
198.45	1257.45
198.67	1226.73
198.89	1298.41
199.11	1320.94
199.33	1267.69
199.55	1247.21
199.77	1255.40
199.99	1245.16
200.21	1204.21
200.43	1341.42
200.65	1208.30
200.87	1292.27
201.09	1216.49
201.31	1241.07
201.53	1355.76
201.75	1220.59
201.97	1245.16
202.19	1230.83
202.41	1306.60
202.63	1288.17
202.85	1220.59
203.07	1245.16
203.29	1290.22
203.51	1290.22
203.73	1239.02
203.95	1320.94
204.17	1298.41
204.39	1296.36
204.61	1226.73
204.83	1296.36
205.05	1288.17
205.27	1249.26
205.49	1259.50
205.71	1292.27
205.93	1261.55
206.15	1304.56
206.37	1292.27
206.59	1232.88
206.81	1265.64
207.03	1208.30
207.25	1288.17
207.47	1300.46
207.69	1257.45
207.91	1308.65
208.13	1257.45
208.34	1341.42
208.56	1351.66
208.78	1271.79
209.00	1214.45
209.22	1314.80
209.44	1210.35
209.66	1296.36
209.88	1312.75
210.10	1239.02
210.32	1310.70
210.54	1345.52
210.76	1314.80
210.98	1277.93
211.20	1216.49
211.42	1322.99
211.64	1269.74
211.86	1263.60
212.08	1269.74
212.30	1282.03
212.52	1312.75
212.74	1267.69
212.96	1314.80
213.17	1300.46
213.39	1306.60
213.61	1271.79
213.83	1286.12
214.05	1335.28
214.27	1337.32
214.49	1239.02
214.71	1277.93
214.93	1273.84
215.15	1210.35
215.37	1245.16
215.59	1349.61
215.81	1216.49
216.03	1173.49
216.24	1275.88
216.46	1284.08
216.68	1236.97
216.90	1273.84
217.12	1234.93
217.34	1265.64
217.56	1257.45
217.78	1310.70
218.00	1251.31
218.22	1265.64
218.44	1247.21
218.66	1349.61
218.87	1288.17
219.09	1282.03
219.31	1218.54
219.53	1214.45
219.75	1210.35
219.97	1259.50
220.19	1247.21
220.41	1294.32
220.63	1312.75
220.85	1245.16
221.06	1327.08
221.28	1241.07
221.50	1271.79
221.72	1241.07
221.94	1306.60
222.16	1243.12
222.38	1296.36
222.60	1327.08
222.82	1243.12
223.03	1296.36
223.25	1230.83
223.47	1253.36
223.69	1269.74
223.91	1220.59
224.13	1247.21
224.35	1210.35
224.57	1228.78
224.78	1300.46
225.00	1239.02
225.22	1236.97
225.44	1290.22
225.66	1263.60
225.88	1216.49
226.10	1267.69
226.32	1232.88
226.53	1224.69
226.75	1255.40
226.97	1327.08
227.19	1308.65
227.41	1206.25
227.63	1269.74
227.85	1288.17
228.06	1261.55
228.28	1339.37
228.50	1290.22
228.72	1294.32
228.94	1157.10
229.16	1331.18
229.37	1306.60
229.59	1306.60
229.81	1288.17
230.03	1220.59
230.25	1302.51
230.47	1234.93
230.69	1275.88
230.90	1216.49
231.12	1304.56
231.34	1198.06
231.56	1230.83
231.78	1249.26
232.00	1257.45
232.21	1241.07
232.43	1253.36
232.65	1290.22
232.87	1302.51
233.09	1261.55
233.30	1243.12
233.52	1257.45
233.74	1214.45
233.96	1304.56
234.18	1347.56
234.40	1253.36
234.61	1253.36
234.83	1294.32
235.05	1292.27
235.27	1241.07
235.49	1320.94
235.70	1269.74
235.92	1253.36
236.14	1224.69
236.36	1320.94
236.58	1239.02
236.79	1294.32
237.01	1155.05
237.23	1247.21
237.45	1206.25
237.67	1247.21
237.88	1249.26
238.10	1251.31
238.32	1333.23
238.54	1284.08
238.76	1312.75
238.97	1290.22
239.19	1228.78
239.41	1245.16
239.63	1247.21
239.85	1232.88
240.06	1286.12
240.28	1298.41
240.50	1269.74
240.72	1284.08
240.93	1282.03
241.15	1263.60
241.37	1228.78
241.59	1290.22
241.81	1263.60
242.02	1251.31
242.24	1304.56
242.46	1312.75
242.68	1193.97
242.89	1247.21
243.11	1255.40
243.33	1204.21
243.55	1288.17
243.76	1322.99
243.98	1255.40
244.20	1277.93
244.42	1210.35
244.64	1273.84
244.85	1304.56
245.07	1304.56
245.29	1263.60
245.51	1282.03
245.72	1310.70
245.94	1214.45
246.16	1204.21
246.38	1267.69
246.59	1257.45
246.81	1259.50
247.03	1224.69
247.24	1271.79
247.46	1259.50
247.68	1161.20
247.90	1288.17
248.11	1372.14
248.33	1304.56
248.55	1329.13
248.77	1306.60
248.98	1243.12
249.20	1288.17
249.42	1302.51
249.64	1249.26
249.85	1255.40
250.07	1341.42
250.29	1318.89
250.50	1269.74
250.72	1249.26
250.94	1296.36
251.16	1271.79
251.37	1218.54
251.59	1363.95
251.81	1265.64
252.02	1345.52
252.24	1277.93
252.46	1288.17
252.68	1196.01
252.89	1212.40
253.11	1208.30
253.33	1212.40
253.54	1296.36
253.76	1290.22
253.98	1249.26
254.20	1245.16
254.41	1253.36
254.63	1226.73
254.85	1247.21
255.06	1345.52
255.28	1259.50
255.50	1312.75
255.71	1263.60
255.93	1239.02
256.15	1296.36
256.36	1261.55
256.58	1247.21
256.80	1265.64
257.02	1290.22
257.23	1275.88
257.45	1206.25
257.67	1294.32
257.88	1296.36
258.10	1261.55
258.32	1271.79
258.53	1218.54
258.75	1212.40
258.97	1282.03
259.18	1241.07
259.40	1236.97
259.62	1277.93
259.83	1236.97
260.05	1259.50
260.27	1284.08
260.48	1314.80
260.70	1257.45
260.92	1226.73
261.13	1271.79
261.35	1300.46
261.57	1271.79
261.78	1234.93
262.00	1249.26
262.22	1306.60
262.43	1361.90
262.65	1306.60
262.86	1200.11
263.08	1302.51
263.30	1249.26
263.51	1277.93
263.73	1286.12
263.95	1222.64
264.16	1228.78
264.38	1210.35
264.60	1228.78
264.81	1310.70
265.03	1259.50
265.25	1208.30
265.46	1265.64
265.68	1206.25
265.89	1241.07
266.11	1241.07
266.33	1228.78
266.54	1255.40
266.76	1322.99
266.98	1200.11
267.19	1298.41
267.41	1292.27
267.62	1288.17
267.84	1284.08
268.06	1202.16
268.27	1279.98
268.49	1261.55
268.70	1304.56
268.92	1257.45
269.14	1265.64
269.35	1206.25
269.57	1302.51
269.79	1255.40
270.00	1271.79
270.22	1349.61
270.43	1277.93
270.65	1290.22
270.87	1308.65
271.08	1282.03
271.30	1249.26
271.51	1249.26
271.73	1263.60
271.95	1298.41
272.16	1236.97
272.38	1222.64
272.59	1208.30
272.81	1298.41
273.02	1269.74
273.24	1206.25
273.46	1249.26
273.67	1273.84
273.89	1312.75
274.10	1226.73
274.32	1341.42
274.54	1304.56
274.75	1273.84
274.97	1220.59
275.18	1261.55
275.40	1259.50
275.61	1253.36
275.83	1300.46
276.05	1228.78
276.26	1282.03
276.48	1312.75
276.69	1292.27
276.91	1265.64
277.12	1296.36
277.34	1267.69
277.55	1298.41
277.77	1259.50
277.99	1271.79
278.20	1247.21
278.42	1306.60
278.63	1312.75
278.85	1259.50
279.06	1294.32
279.28	1271.79
279.49	1329.13
279.71	1212.40
279.93	1261.55
280.14	1265.64
280.36	1273.84
280.57	1327.08
280.79	1249.26
281.00	1230.83
281.22	1249.26
281.43	1273.84
281.65	1245.16
281.86	1294.32
282.08	1318.89
282.29	1296.36
282.51	1275.88
282.73	1361.90
282.94	1392.62
283.16	1214.45
283.37	1298.41
283.59	1228.78
283.80	1200.11
284.02	1269.74
284.23	1255.40
284.45	1257.45
284.66	1271.79
284.88	1300.46
285.09	1253.36
285.31	1267.69
285.52	1310.70
285.74	1214.45
285.95	1314.80
286.17	1265.64
286.38	1288.17
286.60	1232.88
286.81	1241.07
287.03	1300.46
287.24	1308.65
287.46	1382.38
287.67	1294.32
287.89	1282.03
288.10	1241.07
288.32	1343.47
288.53	1327.08
288.75	1228.78
288.96	1247.21
289.18	1261.55
289.39	1265.64
289.61	1228.78
289.82	1255.40
290.04	1304.56
290.25	1306.60
290.47	1241.07
290.68	1224.69
290.90	1341.42
291.11	1267.69
291.33	1277.93
291.54	1265.64
291.76	1247.21
291.97	1300.46
292.18	1267.69
292.40	1269.74
292.61	1241.07
292.83	1247.21
293.04	1308.65
293.26	1314.80
293.47	1292.27
293.69	1304.56
293.90	1243.12
294.12	1296.36
294.33	1259.50
294.55	1257.45
294.76	1304.56
294.97	1279.98
295.19	1226.73
295.40	1257.45
295.62	1325.04
295.83	1282.03
296.05	1302.51
296.26	1257.45
296.48	1292.27
296.69	1308.65
296.90	1308.65
297.12	1282.03
297.33	1181.68
297.55	1372.14
297.76	1265.64
297.98	1247.21
298.19	1253.36
298.41	1298.41
298.62	1282.03
298.83	1255.40
299.05	1284.08
299.26	1275.88
299.48	1253.36
299.69	1245.16
299.90	1302.51
300.12	1288.17
300.33	1224.69
300.55	1273.84
300.76	1261.55
300.98	1275.88
301.19	1263.60
301.40	1277.93
301.62	1261.55
301.83	1239.02
302.05	1282.03
302.26	1261.55
302.47	1216.49
302.69	1286.12
302.90	1312.75
303.12	1267.69
303.33	1269.74
303.54	1282.03
303.76	1265.64
303.97	1294.32
304.19	1267.69
304.40	1290.22
304.61	1216.49
304.83	1308.65
305.04	1275.88
305.26	1243.12
305.47	1257.45
305.68	1292.27
305.90	1314.80
306.11	1214.45
306.33	1239.02
306.54	1241.07
306.75	1251.31
306.97	1226.73
307.18	1210.35
307.39	1267.69
307.61	1298.41
307.82	1249.26
308.04	1290.22
308.25	1292.27
308.46	1277.93
308.68	1263.60
308.89	1298.41
309.10	1284.08
309.32	1257.45
309.53	1275.88
309.74	1322.99
309.96	1253.36
310.17	1310.70
310.39	1259.50
310.60	1239.02
310.81	1212.40
311.03	1318.89
311.24	1308.65
311.45	1304.56
311.67	1290.22
311.88	1275.88
312.09	1200.11
312.31	1322.99
312.52	1247.21
312.73	1255.40
312.95	1265.64
313.16	1247.21
313.37	1224.69
313.59	1327.08
313.80	1236.97
314.01	1257.45
314.23	1308.65
314.44	1224.69
314.65	1255.40
314.87	1234.93
315.08	1327.08
315.29	1279.98
315.51	1335.28
315.72	1251.31
315.93	1212.40
316.15	1232.88
316.36	1312.75
316.57	1210.35
316.79	1212.40
317.00	1257.45
317.21	1249.26
317.43	1271.79
317.64	1284.08
317.85	1234.93
318.07	1220.59
318.28	1241.07
318.49	1284.08
318.70	1198.06
318.92	1298.41
319.13	1320.94
319.34	1318.89
319.56	1294.32
319.77	1249.26
319.98	1286.12
320.20	1273.84
320.41	1257.45
320.62	1279.98
320.83	1288.17
321.05	1220.59
321.26	1214.45
321.47	1296.36
321.69	1292.27
321.90	1189.87
322.11	1249.26
322.32	1290.22
322.54	1294.32
322.75	1275.88
322.96	1253.36
323.18	1232.88
323.39	1247.21
323.60	1284.08
323.81	1236.97
324.03	1322.99
324.24	1286.12
324.45	1327.08
324.66	1308.65
324.88	1269.74
325.09	1314.80
325.30	1318.89
325.52	1269.74
325.73	1284.08
325.94	1251.31
326.15	1296.36
326.37	1298.41
326.58	1249.26
326.79	1249.26
327.00	1220.59
327.22	1294.32
327.43	1247.21
327.64	1296.36
327.85	1277.93
328.07	1269.74
328.28	1251.31
328.49	1308.65
328.70	1224.69
328.92	1249.26
329.13	1169.39
329.34	1302.51
329.55	1251.31
329.76	1253.36
329.98	1288.17
330.19	1298.41
330.40	1300.46
330.61	1282.03
330.83	1265.64
331.04	1204.21
331.25	1265.64
331.46	1320.94
331.68	1320.94
331.89	1226.73
332.10	1220.59
332.31	1247.21
332.52	1253.36
332.74	1255.40
332.95	1288.17
333.16	1271.79
333.37	1265.64
333.58	1200.11
333.80	1312.75
334.01	1257.45
334.22	1263.60
334.43	1259.50
334.64	1234.93
334.86	1302.51
335.07	1245.16
335.28	1292.27
335.49	1290.22
335.70	1232.88
335.92	1236.97
336.13	1265.64
336.34	1335.28
336.55	1290.22
336.76	1200.11
336.98	1288.17
337.19	1269.74
337.40	1202.16
337.61	1230.83
337.82	1269.74
338.04	1275.88
338.25	1249.26
338.46	1282.03
338.67	1314.80
338.88	1267.69
339.09	1265.64
339.31	1234.93
339.52	1251.31
339.73	1263.60
339.94	1284.08
340.15	1232.88
340.36	1294.32
340.58	1341.42
340.79	1316.84
341.00	1249.26
341.21	1286.12
341.42	1234.93
341.63	1218.54
341.85	1337.32
342.06	1177.58
342.27	1245.16
342.48	1277.93
342.69	1263.60
342.90	1282.03
343.12	1302.51
343.33	1300.46
343.54	1220.59
343.75	1325.04
343.96	1224.69
344.17	1329.13
344.38	1259.50
344.60	1224.69
344.81	1312.75
345.02	1245.16
345.23	1294.32
345.44	1302.51
345.65	1312.75
345.86	1277.93
346.07	1265.64
346.29	1261.55
346.50	1249.26
346.71	1253.36
346.92	1236.97
347.13	1265.64
347.34	1341.42
347.55	1284.08
347.76	1271.79
347.98	1275.88
348.19	1263.60
348.40	1236.97
348.61	1273.84
348.82	1314.80
349.03	1263.60
349.24	1243.12
349.45	1306.60
349.66	1296.36
349.88	1290.22
350.09	1271.79
350.30	1232.88
350.51	1325.04
350.72	1294.32
350.93	1224.69
351.14	1224.69
351.35	1247.21
351.56	1241.07
351.77	1263.60
351.99	1318.89
352.20	1282.03
352.41	1282.03
352.62	1208.30
352.83	1294.32
353.04	1325.04
353.25	1300.46
353.46	1251.31
353.67	1271.79
353.88	1214.45
354.09	1224.69
354.30	1341.42
354.52	1267.69
354.73	1236.97
354.94	1247.21
355.15	1265.64
355.36	1329.13
355.57	1277.93
355.78	1284.08
355.99	1298.41
356.20	1335.28
356.41	1236.97
356.62	1271.79
356.83	1306.60
357.04	1236.97
357.25	1300.46
357.46	1298.41
357.68	1191.92
357.89	1179.63
358.10	1314.80
358.31	1216.49
358.52	1265.64
358.73	1296.36
358.94	1144.81
359.15	1298.41
359.36	1300.46
359.57	1253.36
359.78	1228.78
359.99	1343.47
360.20	1189.87
360.41	1247.21
360.62	1273.84
360.83	1298.41
361.04	1249.26
361.25	1253.36
361.46	1243.12
361.67	1329.13
361.88	1257.45
362.09	1261.55
362.30	1263.60
362.51	1282.03
362.72	1290.22
362.93	1300.46
363.14	1308.65
363.35	1216.49
363.56	1241.07
363.78	1337.32
363.99	1279.98
364.20	1212.40
364.41	1282.03
364.62	1228.78
364.83	1290.22
365.04	1294.32
365.25	1290.22
365.46	1322.99
365.67	1335.28
365.88	1241.07
366.09	1271.79
366.30	1267.69
366.51	1265.64
366.72	1224.69
366.93	1271.79
367.14	1239.02
367.35	1263.60
367.56	1257.45
367.77	1288.17
367.98	1314.80
368.18	1279.98
368.39	1300.46
368.60	1290.22
368.81	1282.03
369.02	1273.84
369.23	1267.69
369.44	1263.60
369.65	1249.26
369.86	1249.26
370.07	1282.03
370.28	1230.83
370.49	1234.93
370.70	1331.18
370.91	1224.69
371.12	1316.84
371.33	1247.21
371.54	1318.89
371.75	1284.08
371.96	1253.36
372.17	1267.69
372.38	1308.65
372.59	1259.50
372.80	1239.02
373.01	1243.12
373.22	1347.56
373.43	1298.41
373.64	1206.25
373.85	1302.51
374.06	1304.56
374.26	1298.41
374.47	1249.26
374.68	1247.21
374.89	1265.64
375.10	1247.21
375.31	1259.50
375.52	1196.01
375.73	1304.56
375.94	1206.25
376.15	1251.31
376.36	1263.60
376.57	1288.17
376.78	1230.83
376.99	1271.79
377.20	1220.59
377.40	1214.45
377.61	1271.79
377.82	1265.64
378.03	1247.21
378.24	1329.13
378.45	1214.45
378.66	1290.22
378.87	1265.64
379.08	1216.49
379.29	1288.17
379.50	1253.36
379.71	1259.50
379.91	1273.84
380.12	1306.60
380.33	1243.12
380.54	1290.22
380.75	1286.12
380.96	1265.64
381.17	1239.02
381.38	1234.93
381.59	1263.60
381.80	1294.32
382.00	1177.58
382.21	1253.36
382.42	1349.61
382.63	1265.64
382.84	1288.17
383.05	1277.93
383.26	1218.54
383.47	1261.55
383.68	1220.59
383.88	1261.55
384.09	1279.98
384.30	1316.84
384.51	1249.26
384.72	1214.45
384.93	1273.84
385.14	1245.16
385.35	1206.25
385.55	1277.93
385.76	1277.93
385.97	1232.88
386.18	1259.50
386.39	1253.36
386.60	1259.50
386.81	1282.03
387.02	1191.92
387.22	1294.32
387.43	1218.54
387.64	1257.45
387.85	1304.56
388.06	1212.40
388.27	1411.05
388.48	1306.60
388.68	1255.40
388.89	1304.56
389.10	1277.93
389.31	1290.22
389.52	1251.31
389.73	1353.71
389.93	1306.60
390.14	1261.55
390.35	1189.87
390.56	1216.49
390.77	1294.32
390.98	1255.40
391.18	1282.03
391.39	1255.40
391.60	1304.56
391.81	1279.98
392.02	1247.21
392.23	1273.84
392.43	1202.16
392.64	1288.17
392.85	1249.26
393.06	1277.93
393.27	1265.64
393.47	1236.97
393.68	1279.98
393.89	1259.50
394.10	1310.70
394.31	1273.84
394.52	1265.64
394.72	1214.45
394.93	1308.65
395.14	1204.21
395.35	1187.82
395.56	1284.08
395.76	1271.79
395.97	1339.37
396.18	1277.93
396.39	1212.40
396.60	1322.99
396.80	1228.78
397.01	1253.36
397.22	1245.16
397.43	1265.64
397.64	1286.12
397.84	1261.55
398.05	1263.60
398.26	1228.78
398.47	1331.18
398.67	1308.65
398.88	1241.07
399.09	1357.80
399.30	1245.16
399.51	1312.75
399.71	1286.12
399.92	1341.42
400.13	1286.12
400.34	1378.28
400.54	1296.36
400.75	1224.69
400.96	1257.45
401.17	1347.56
401.37	1298.41
401.58	1282.03
401.79	1226.73
402.00	1267.69
402.21	1241.07
402.41	1267.69
402.62	1279.98
402.83	1351.66
403.04	1257.45
403.24	1314.80
403.45	1269.74
403.66	1271.79
403.87	1232.88
404.07	1333.23
404.28	1243.12
404.49	1253.36
404.70	1206.25
404.90	1232.88
405.11	1232.88
405.32	1269.74
405.52	1241.07
405.73	1259.50
405.94	1292.27
406.15	1232.88
406.35	1273.84
406.56	1296.36
406.77	1304.56
406.98	1370.09
407.18	1222.64
407.39	1249.26
407.60	1202.16
407.80	1245.16
408.01	1308.65
408.22	1271.79
408.43	1257.45
408.63	1196.01
408.84	1304.56
409.05	1251.31
409.25	1312.75
409.46	1216.49
409.67	1226.73
409.88	1322.99
410.08	1253.36
410.29	1255.40
410.50	1255.40
410.70	1282.03
410.91	1239.02
411.12	1327.08
411.32	1277.93
411.53	1212.40
411.74	1249.26
411.95	1263.60
412.15	1310.70
412.36	1251.31
412.57	1308.65
412.77	1363.95
412.98	1241.07
413.19	1259.50
413.39	1284.08
413.60	1308.65
413.81	1236.97
414.01	1228.78
414.22	1236.97
414.43	1298.41
414.63	1275.88
414.84	1226.73
415.05	1236.97
415.25	1216.49
415.46	1247.21
415.67	1290.22
415.87	1241.07
416.08	1245.16
416.29	1290.22
416.49	1263.60
416.70	1288.17
416.91	1255.40
417.11	1310.70
417.32	1271.79
417.53	1308.65
417.73	1210.35
417.94	1232.88
418.15	1257.45
418.35	1257.45
418.56	1284.08
418.77	1271.79
418.97	1290.22
419.18	1239.02
419.38	1304.56
419.59	1259.50
419.80	1249.26
420.00	1269.74
420.21	1294.32
420.42	1284.08
420.62	1290.22
420.83	1218.54
421.04	1263.60
421.24	1257.45
421.45	1275.88
421.65	1300.46
421.86	1206.25
422.07	1196.01
422.27	1236.97
422.48	1282.03
422.69	1255.40
422.89	1230.83
423.10	1228.78
423.30	1316.84
423.51	1216.49
423.72	1249.26
423.92	1239.02
424.13	1282.03
424.33	1279.98
424.54	1230.83
424.75	1210.35
424.95	1257.45
425.16	1335.28
425.36	1273.84
425.57	1288.17
425.78	1290.22
425.98	1210.35
426.19	1275.88
426.39	1277.93
426.60	1220.59
426.81	1304.56
427.01	1273.84
427.22	1290.22
427.42	1308.65
427.63	1320.94
427.83	1230.83
428.04	1228.78
428.25	1253.36
428.45	1267.69
428.66	1294.32
428.86	1282.03
429.07	1312.75
429.28	1284.08
429.48	1275.88
429.69	1273.84
429.89	1282.03
430.10	1284.08
430.30	1306.60
430.51	1216.49
430.71	1298.41
430.92	1322.99
431.13	1279.98
431.33	1312.75
431.54	1212.40
431.74	1279.98
431.95	1155.05
432.15	1245.16
432.36	1222.64
432.56	1214.45
432.77	1228.78
432.98	1263.60
433.18	1359.85
433.39	1302.51
433.59	1249.26
433.80	1269.74
434.00	1279.98
434.21	1234.93
434.41	1257.45
434.62	1247.21
434.82	1286.12
435.03	1290.22
435.23	1263.60
435.44	1279.98
435.64	1204.21
435.85	1239.02
436.06	1298.41
436.26	1277.93
436.47	1277.93
436.67	1269.74
436.88	1185.77
437.08	1298.41
437.29	1320.94
437.49	1230.83
437.70	1310.70
437.90	1282.03
438.11	1251.31
438.31	1208.30
438.52	1267.69
438.72	1302.51
438.93	1269.74
439.13	1259.50
439.34	1251.31
439.54	1279.98
439.75	1249.26
439.95	1282.03
440.16	1271.79
440.36	1314.80
440.57	1232.88
440.77	1265.64
440.98	1304.56
441.18	1230.83
441.39	1329.13
441.59	1263.60
441.80	1292.27
442.00	1304.56
442.21	1236.97
442.41	1255.40
442.62	1259.50
442.82	1306.60
443.02	1273.84
443.23	1267.69
443.43	1273.84
443.64	1267.69
443.84	1259.50
444.05	1304.56
444.25	1255.40
444.46	1265.64
444.66	1257.45
444.87	1249.26
445.07	1320.94
445.28	1306.60
445.48	1288.17
445.69	1185.77
445.89	1335.28
446.09	1312.75
446.30	1308.65
446.50	1288.17
446.71	1257.45
446.91	1292.27
447.12	1296.36
447.32	1234.93
447.53	1273.84
447.73	1257.45
447.93	1224.69
448.14	1279.98
448.34	1259.50
448.55	1236.97
448.75	1339.37
448.96	1255.40
449.16	1273.84
449.36	1269.74
449.57	1322.99
449.77	1263.60
449.98	1294.32
450.18	1271.79
450.39	1230.83
450.59	1333.23
450.79	1259.50
451.00	1347.56
451.20	1251.31
451.41	1337.32
451.61	1284.08
451.81	1298.41
452.02	1284.08
452.22	1204.21
452.43	1210.35
452.63	1239.02
