SpectraSuite Data File
++++++++++++++++++++++++++++++++++++
Date: Sun Apr 03 19:55:50 CEST 2016
User: root
Dark Spectrum Present: No
Reference Spectrum Present: No
Number of Sampled Component Spectra: 1
Spectrometers: USB4C02835
Integration Time (usec): 10000 (USB4C02835)
Spectra Averaged: 1 (USB4C02835)
Boxcar Smoothing: 0 (USB4C02835)
Correct for Electrical Dark: No (USB4C02835)
Strobe/Lamp Enabled: No (USB4C02835)
Correct for Detector Non-linearity: No (USB4C02835)
Correct for Stray Light: No (USB4C02835)
Number of Pixels in Processed Spectrum: 3648
>>>>>Begin Processed Spectral Data<<<<<
177.47	1300.46
177.69	1300.46
177.91	1300.46
178.13	1212.40
178.36	1325.04
178.58	1271.79
178.80	1263.60
179.02	1286.12
179.24	1243.12
179.46	1257.45
179.68	1259.50
179.90	1224.69
180.13	1259.50
180.35	1214.45
180.57	1216.49
180.79	1277.93
181.01	1361.90
181.23	1245.16
181.45	1279.98
181.67	1325.04
181.90	1263.60
182.12	1208.30
182.34	1269.74
182.56	1292.27
182.78	1241.07
183.00	1230.83
183.22	1384.43
183.44	1290.22
183.66	1210.35
183.89	1236.97
184.11	1275.88
184.33	1239.02
184.55	1282.03
184.77	1226.73
184.99	1275.88
185.21	1245.16
185.43	1298.41
185.65	1271.79
185.87	1325.04
186.10	1265.64
186.32	1226.73
186.54	1208.30
186.76	1253.36
186.98	1322.99
187.20	1257.45
187.42	1200.11
187.64	1253.36
187.86	1196.01
188.08	1239.02
188.30	1183.73
188.52	1320.94
188.75	1279.98
188.97	1292.27
189.19	1253.36
189.41	1279.98
189.63	1271.79
189.85	1232.88
190.07	1243.12
190.29	1253.36
190.51	1275.88
190.73	1304.56
190.95	1310.70
191.17	1273.84
191.39	1206.25
191.61	1284.08
191.84	1220.59
192.06	1271.79
192.28	1257.45
192.50	1290.22
192.72	1265.64
192.94	1259.50
193.16	1243.12
193.38	1226.73
193.60	1265.64
193.82	1314.80
194.04	1185.77
194.26	1300.46
194.48	1310.70
194.70	1208.30
194.92	1239.02
195.14	1249.26
195.36	1230.83
195.58	1357.80
195.80	1261.55
196.02	1292.27
196.24	1290.22
196.46	1314.80
196.69	1259.50
196.91	1206.25
197.13	1236.97
197.35	1322.99
197.57	1304.56
197.79	1294.32
198.01	1214.45
198.23	1329.13
198.45	1253.36
198.67	1212.40
198.89	1294.32
199.11	1279.98
199.33	1288.17
199.55	1267.69
199.77	1273.84
199.99	1298.41
200.21	1191.92
200.43	1241.07
200.65	1298.41
200.87	1241.07
201.09	1282.03
201.31	1339.37
201.53	1265.64
201.75	1304.56
201.97	1218.54
202.19	1296.36
202.41	1198.06
202.63	1253.36
202.85	1208.30
203.07	1230.83
203.29	1302.51
203.51	1314.80
203.73	1245.16
203.95	1288.17
204.17	1320.94
204.39	1257.45
204.61	1286.12
204.83	1284.08
205.05	1333.23
205.27	1306.60
205.49	1308.65
205.71	1345.52
205.93	1316.84
206.15	1292.27
206.37	1220.59
206.59	1296.36
206.81	1318.89
207.03	1269.74
207.25	1306.60
207.47	1327.08
207.69	1243.12
207.91	1327.08
208.13	1241.07
208.34	1265.64
208.56	1249.26
208.78	1255.40
209.00	1265.64
209.22	1273.84
209.44	1218.54
209.66	1284.08
209.88	1216.49
210.10	1329.13
210.32	1294.32
210.54	1247.21
210.76	1239.02
210.98	1245.16
211.20	1249.26
211.42	1296.36
211.64	1286.12
211.86	1355.76
212.08	1296.36
212.30	1230.83
212.52	1232.88
212.74	1269.74
212.96	1279.98
213.17	1265.64
213.39	1284.08
213.61	1222.64
213.83	1202.16
214.05	1200.11
214.27	1224.69
214.49	1232.88
214.71	1296.36
214.93	1251.31
215.15	1302.51
215.37	1271.79
215.59	1267.69
215.81	1284.08
216.03	1247.21
216.24	1263.60
216.46	1288.17
216.68	1288.17
216.90	1267.69
217.12	1236.97
217.34	1236.97
217.56	1282.03
217.78	1277.93
218.00	1247.21
218.22	1228.78
218.44	1306.60
218.66	1261.55
218.87	1255.40
219.09	1314.80
219.31	1269.74
219.53	1267.69
219.75	1279.98
219.97	1327.08
220.19	1282.03
220.41	1261.55
220.63	1296.36
220.85	1191.92
221.06	1261.55
221.28	1230.83
221.50	1222.64
221.72	1167.34
221.94	1284.08
222.16	1210.35
222.38	1146.86
222.60	1282.03
222.82	1208.30
223.03	1263.60
223.25	1304.56
223.47	1239.02
223.69	1226.73
223.91	1374.19
224.13	1302.51
224.35	1290.22
224.57	1322.99
224.78	1216.49
225.00	1318.89
225.22	1320.94
225.44	1257.45
225.66	1247.21
225.88	1265.64
226.10	1279.98
226.32	1228.78
226.53	1247.21
226.75	1247.21
226.97	1185.77
227.19	1359.85
227.41	1239.02
227.63	1273.84
227.85	1245.16
228.06	1236.97
228.28	1241.07
228.50	1243.12
228.72	1212.40
228.94	1196.01
229.16	1245.16
229.37	1298.41
229.59	1349.61
229.81	1310.70
230.03	1306.60
230.25	1269.74
230.47	1249.26
230.69	1239.02
230.90	1257.45
231.12	1286.12
231.34	1277.93
231.56	1318.89
231.78	1331.18
232.00	1261.55
232.21	1298.41
232.43	1312.75
232.65	1257.45
232.87	1273.84
233.09	1263.60
233.30	1222.64
233.52	1331.18
233.74	1267.69
233.96	1171.44
234.18	1257.45
234.40	1249.26
234.61	1331.18
234.83	1232.88
235.05	1216.49
235.27	1292.27
235.49	1269.74
235.70	1191.92
235.92	1372.14
236.14	1228.78
236.36	1310.70
236.58	1251.31
236.79	1300.46
237.01	1294.32
237.23	1292.27
237.45	1255.40
237.67	1245.16
237.88	1275.88
238.10	1284.08
238.32	1214.45
238.54	1288.17
238.76	1214.45
238.97	1322.99
239.19	1277.93
239.41	1241.07
239.63	1290.22
239.85	1275.88
240.06	1239.02
240.28	1236.97
240.50	1253.36
240.72	1271.79
240.93	1308.65
241.15	1298.41
241.37	1241.07
241.59	1275.88
241.81	1275.88
242.02	1286.12
242.24	1298.41
242.46	1271.79
242.68	1366.00
242.89	1273.84
243.11	1267.69
243.33	1273.84
243.55	1288.17
243.76	1275.88
243.98	1222.64
244.20	1241.07
244.42	1304.56
244.64	1320.94
244.85	1271.79
245.07	1239.02
245.29	1339.37
245.51	1306.60
245.72	1259.50
245.94	1302.51
246.16	1286.12
246.38	1282.03
246.59	1296.36
246.81	1339.37
247.03	1284.08
247.24	1277.93
247.46	1279.98
247.68	1279.98
247.90	1247.21
248.11	1341.42
248.33	1355.76
248.55	1308.65
248.77	1263.60
248.98	1232.88
249.20	1298.41
249.42	1282.03
249.64	1333.23
249.85	1294.32
250.07	1265.64
250.29	1271.79
250.50	1214.45
250.72	1275.88
250.94	1243.12
251.16	1273.84
251.37	1269.74
251.59	1263.60
251.81	1249.26
252.02	1294.32
252.24	1310.70
252.46	1286.12
252.68	1230.83
252.89	1275.88
253.11	1286.12
253.33	1318.89
253.54	1251.31
253.76	1275.88
253.98	1282.03
254.20	1306.60
254.41	1298.41
254.63	1329.13
254.85	1214.45
255.06	1290.22
255.28	1245.16
255.50	1265.64
255.71	1261.55
255.93	1218.54
256.15	1304.56
256.36	1251.31
256.58	1251.31
256.80	1316.84
257.02	1275.88
257.23	1271.79
257.45	1329.13
257.67	1214.45
257.88	1290.22
258.10	1314.80
258.32	1208.30
258.53	1279.98
258.75	1374.19
258.97	1308.65
259.18	1216.49
259.40	1339.37
259.62	1196.01
259.83	1257.45
260.05	1253.36
260.27	1267.69
260.48	1234.93
260.70	1304.56
260.92	1310.70
261.13	1234.93
261.35	1263.60
261.57	1351.66
261.78	1222.64
262.00	1265.64
262.22	1239.02
262.43	1304.56
262.65	1263.60
262.86	1236.97
263.08	1263.60
263.30	1239.02
263.51	1322.99
263.73	1173.49
263.95	1302.51
264.16	1247.21
264.38	1245.16
264.60	1247.21
264.81	1220.59
265.03	1292.27
265.25	1296.36
265.46	1257.45
265.68	1273.84
265.89	1255.40
266.11	1167.34
266.33	1269.74
266.54	1175.53
266.76	1296.36
266.98	1322.99
267.19	1275.88
267.41	1300.46
267.62	1212.40
267.84	1265.64
268.06	1310.70
268.27	1306.60
268.49	1331.18
268.70	1265.64
268.92	1296.36
269.14	1220.59
269.35	1277.93
269.57	1259.50
269.79	1214.45
270.00	1247.21
270.22	1292.27
270.43	1228.78
270.65	1310.70
270.87	1271.79
271.08	1222.64
271.30	1210.35
271.51	1284.08
271.73	1236.97
271.95	1318.89
272.16	1343.47
272.38	1294.32
272.59	1247.21
272.81	1300.46
273.02	1306.60
273.24	1290.22
273.46	1269.74
273.67	1314.80
273.89	1292.27
274.10	1298.41
274.32	1247.21
274.54	1208.30
274.75	1304.56
274.97	1282.03
275.18	1310.70
275.40	1294.32
275.61	1239.02
275.83	1232.88
276.05	1228.78
276.26	1232.88
276.48	1279.98
276.69	1167.34
276.91	1241.07
277.12	1239.02
277.34	1255.40
277.55	1232.88
277.77	1187.82
277.99	1247.21
278.20	1282.03
278.42	1271.79
278.63	1298.41
278.85	1337.32
279.06	1261.55
279.28	1320.94
279.49	1257.45
279.71	1314.80
279.93	1275.88
280.14	1286.12
280.36	1290.22
280.57	1220.59
280.79	1351.66
281.00	1241.07
281.22	1275.88
281.43	1294.32
281.65	1228.78
281.86	1208.30
282.08	1271.79
282.29	1302.51
282.51	1226.73
282.73	1302.51
282.94	1363.95
283.16	1249.26
283.37	1210.35
283.59	1306.60
283.80	1255.40
284.02	1257.45
284.23	1277.93
284.45	1271.79
284.66	1298.41
284.88	1290.22
285.09	1296.36
285.31	1327.08
285.52	1273.84
285.74	1286.12
285.95	1216.49
286.17	1251.31
286.38	1316.84
286.60	1198.06
286.81	1277.93
287.03	1271.79
287.24	1265.64
287.46	1232.88
287.67	1259.50
287.89	1224.69
288.10	1294.32
288.32	1228.78
288.53	1292.27
288.75	1306.60
288.96	1267.69
289.18	1265.64
289.39	1257.45
289.61	1288.17
289.82	1275.88
290.04	1296.36
290.25	1322.99
290.47	1286.12
290.68	1247.21
290.90	1302.51
291.11	1282.03
291.33	1265.64
291.54	1257.45
291.76	1234.93
291.97	1243.12
292.18	1243.12
292.40	1232.88
292.61	1249.26
292.83	1370.09
293.04	1257.45
293.26	1298.41
293.47	1306.60
293.69	1345.52
293.90	1228.78
294.12	1298.41
294.33	1263.60
294.55	1263.60
294.76	1249.26
294.97	1310.70
295.19	1214.45
295.40	1312.75
295.62	1279.98
295.83	1257.45
296.05	1269.74
296.26	1359.85
296.48	1304.56
296.69	1187.82
296.90	1282.03
297.12	1175.53
297.33	1288.17
297.55	1337.32
297.76	1265.64
297.98	1255.40
298.19	1265.64
298.41	1249.26
298.62	1273.84
298.83	1228.78
299.05	1243.12
299.26	1273.84
299.48	1204.21
299.69	1265.64
299.90	1290.22
300.12	1251.31
300.33	1253.36
300.55	1294.32
300.76	1372.14
300.98	1275.88
301.19	1327.08
301.40	1224.69
301.62	1263.60
301.83	1247.21
302.05	1249.26
302.26	1224.69
302.47	1183.73
302.69	1263.60
302.90	1241.07
303.12	1308.65
303.33	1294.32
303.54	1294.32
303.76	1255.40
303.97	1259.50
304.19	1234.93
304.40	1271.79
304.61	1294.32
304.83	1177.58
305.04	1247.21
305.26	1261.55
305.47	1288.17
305.68	1269.74
305.90	1296.36
306.11	1210.35
306.33	1320.94
306.54	1304.56
306.75	1282.03
306.97	1200.11
307.18	1261.55
307.39	1249.26
307.61	1282.03
307.82	1247.21
308.04	1220.59
308.25	1261.55
308.46	1275.88
308.68	1220.59
308.89	1298.41
309.10	1226.73
309.32	1284.08
309.53	1245.16
309.74	1245.16
309.96	1290.22
310.17	1277.93
310.39	1249.26
310.60	1282.03
310.81	1222.64
311.03	1193.97
311.24	1267.69
311.45	1267.69
311.67	1294.32
311.88	1275.88
312.09	1302.51
312.31	1331.18
312.52	1282.03
312.73	1273.84
312.95	1275.88
313.16	1306.60
313.37	1263.60
313.59	1392.62
313.80	1259.50
314.01	1284.08
314.23	1277.93
314.44	1314.80
314.65	1193.97
314.87	1253.36
315.08	1265.64
315.29	1265.64
315.51	1241.07
315.72	1273.84
315.93	1230.83
316.15	1327.08
316.36	1288.17
316.57	1189.87
316.79	1320.94
317.00	1226.73
317.21	1357.80
317.43	1261.55
317.64	1333.23
317.85	1294.32
318.07	1302.51
318.28	1239.02
318.49	1253.36
318.70	1263.60
318.92	1267.69
319.13	1198.06
319.34	1208.30
319.56	1296.36
319.77	1222.64
319.98	1296.36
320.20	1214.45
320.41	1333.23
320.62	1322.99
320.83	1275.88
321.05	1253.36
321.26	1294.32
321.47	1314.80
321.69	1277.93
321.90	1273.84
322.11	1312.75
322.32	1320.94
322.54	1222.64
322.75	1220.59
322.96	1304.56
323.18	1325.04
323.39	1286.12
323.60	1249.26
323.81	1308.65
324.03	1353.71
324.24	1255.40
324.45	1290.22
324.66	1263.60
324.88	1271.79
325.09	1259.50
325.30	1214.45
325.52	1292.27
325.73	1253.36
325.94	1306.60
326.15	1271.79
326.37	1290.22
326.58	1314.80
326.79	1288.17
327.00	1263.60
327.22	1343.47
327.43	1255.40
327.64	1241.07
327.85	1269.74
328.07	1193.97
328.28	1325.04
328.49	1292.27
328.70	1273.84
328.92	1275.88
329.13	1331.18
329.34	1263.60
329.55	1222.64
329.76	1275.88
329.98	1251.31
330.19	1347.56
330.40	1263.60
330.61	1341.42
330.83	1253.36
331.04	1267.69
331.25	1275.88
331.46	1306.60
331.68	1214.45
331.89	1320.94
332.10	1279.98
332.31	1232.88
332.52	1316.84
332.74	1253.36
332.95	1230.83
333.16	1284.08
333.37	1257.45
333.58	1269.74
333.80	1273.84
334.01	1220.59
334.22	1232.88
334.43	1300.46
334.64	1222.64
334.86	1236.97
335.07	1208.30
335.28	1292.27
335.49	1183.73
335.70	1191.92
335.92	1247.21
336.13	1239.02
336.34	1255.40
336.55	1116.14
336.76	1288.17
336.98	1257.45
337.19	1279.98
337.40	1302.51
337.61	1257.45
337.82	1286.12
338.04	1318.89
338.25	1277.93
338.46	1286.12
338.67	1325.04
338.88	1243.12
339.09	1193.97
339.31	1251.31
339.52	1193.97
339.73	1243.12
339.94	1279.98
340.15	1226.73
340.36	1265.64
340.58	1198.06
340.79	1259.50
341.00	1275.88
341.21	1241.07
341.42	1224.69
341.63	1249.26
341.85	1363.95
342.06	1218.54
342.27	1265.64
342.48	1189.87
342.69	1234.93
342.90	1302.51
343.12	1325.04
343.33	1255.40
343.54	1228.78
343.75	1273.84
343.96	1208.30
344.17	1277.93
344.38	1288.17
344.60	1302.51
344.81	1279.98
345.02	1294.32
345.23	1316.84
345.44	1277.93
345.65	1263.60
345.86	1318.89
346.07	1232.88
346.29	1247.21
346.50	1245.16
346.71	1265.64
346.92	1273.84
347.13	1245.16
347.34	1351.66
347.55	1189.87
347.76	1253.36
347.98	1298.41
348.19	1282.03
348.40	1216.49
348.61	1236.97
348.82	1247.21
349.03	1265.64
349.24	1296.36
349.45	1236.97
349.66	1304.56
349.88	1253.36
350.09	1282.03
350.30	1314.80
350.51	1343.47
350.72	1245.16
350.93	1202.16
351.14	1271.79
351.35	1292.27
351.56	1269.74
351.77	1253.36
351.99	1243.12
352.20	1261.55
352.41	1286.12
352.62	1239.02
352.83	1265.64
353.04	1269.74
353.25	1216.49
353.46	1292.27
353.67	1216.49
353.88	1292.27
354.09	1210.35
354.30	1228.78
354.52	1255.40
354.73	1273.84
354.94	1310.70
355.15	1273.84
355.36	1206.25
355.57	1255.40
355.78	1208.30
355.99	1290.22
356.20	1290.22
356.41	1353.71
356.62	1239.02
356.83	1290.22
357.04	1255.40
357.25	1279.98
357.46	1245.16
357.68	1230.83
357.89	1269.74
358.10	1224.69
358.31	1224.69
358.52	1292.27
358.73	1294.32
358.94	1191.92
359.15	1304.56
359.36	1263.60
359.57	1249.26
359.78	1247.21
359.99	1310.70
360.20	1275.88
360.41	1314.80
360.62	1271.79
360.83	1310.70
361.04	1265.64
361.25	1228.78
361.46	1259.50
361.67	1320.94
361.88	1288.17
362.09	1308.65
362.30	1292.27
362.51	1384.43
362.72	1257.45
362.93	1290.22
363.14	1261.55
363.35	1216.49
363.56	1275.88
363.78	1302.51
363.99	1296.36
364.20	1288.17
364.41	1234.93
364.62	1300.46
364.83	1269.74
365.04	1257.45
365.25	1257.45
365.46	1318.89
365.67	1218.54
365.88	1302.51
366.09	1259.50
366.30	1247.21
366.51	1247.21
366.72	1236.97
366.93	1245.16
367.14	1236.97
367.35	1251.31
367.56	1236.97
367.77	1296.36
367.98	1234.93
368.18	1282.03
368.39	1290.22
368.60	1349.61
368.81	1204.21
369.02	1310.70
369.23	1343.47
369.44	1306.60
369.65	1230.83
369.86	1181.68
370.07	1345.52
370.28	1341.42
370.49	1296.36
370.70	1228.78
370.91	1232.88
371.12	1279.98
371.33	1142.77
371.54	1282.03
371.75	1247.21
371.96	1251.31
372.17	1214.45
372.38	1322.99
372.59	1228.78
372.80	1226.73
373.01	1282.03
373.22	1314.80
373.43	1271.79
373.64	1232.88
373.85	1277.93
374.06	1284.08
374.26	1269.74
374.47	1259.50
374.68	1314.80
374.89	1269.74
375.10	1290.22
375.31	1282.03
375.52	1316.84
375.73	1220.59
375.94	1275.88
376.15	1300.46
376.36	1253.36
376.57	1292.27
376.78	1263.60
376.99	1290.22
377.20	1333.23
377.40	1304.56
377.61	1355.76
377.82	1212.40
378.03	1306.60
378.24	1189.87
378.45	1232.88
378.66	1318.89
378.87	1263.60
379.08	1208.30
379.29	1234.93
379.50	1290.22
379.71	1308.65
379.91	1236.97
380.12	1296.36
380.33	1241.07
380.54	1333.23
380.75	1298.41
380.96	1261.55
381.17	1337.32
381.38	1290.22
381.59	1249.26
381.80	1245.16
382.00	1263.60
382.21	1224.69
382.42	1318.89
382.63	1296.36
382.84	1269.74
383.05	1310.70
383.26	1216.49
383.47	1351.66
383.68	1284.08
383.88	1251.31
384.09	1296.36
384.30	1302.51
384.51	1290.22
384.72	1253.36
384.93	1277.93
385.14	1257.45
385.35	1239.02
385.55	1212.40
385.76	1275.88
385.97	1245.16
386.18	1255.40
386.39	1245.16
386.60	1279.98
386.81	1265.64
387.02	1228.78
387.22	1202.16
387.43	1357.80
387.64	1263.60
387.85	1282.03
388.06	1220.59
388.27	1273.84
388.48	1241.07
388.68	1366.00
388.89	1269.74
389.10	1257.45
389.31	1263.60
389.52	1245.16
389.73	1290.22
389.93	1255.40
390.14	1290.22
390.35	1290.22
390.56	1245.16
390.77	1292.27
390.98	1314.80
391.18	1339.37
391.39	1279.98
391.60	1255.40
391.81	1239.02
392.02	1288.17
392.23	1241.07
392.43	1308.65
392.64	1251.31
392.85	1308.65
393.06	1327.08
393.27	1308.65
393.47	1241.07
393.68	1273.84
393.89	1226.73
394.10	1265.64
394.31	1251.31
394.52	1314.80
394.72	1257.45
394.93	1224.69
395.14	1335.28
395.35	1363.95
395.56	1218.54
395.76	1286.12
395.97	1302.51
396.18	1216.49
396.39	1290.22
396.60	1247.21
396.80	1230.83
397.01	1343.47
397.22	1282.03
397.43	1232.88
397.64	1236.97
397.84	1216.49
398.05	1286.12
398.26	1378.28
398.47	1222.64
398.67	1230.83
398.88	1316.84
399.09	1251.31
399.30	1265.64
399.51	1290.22
399.71	1230.83
399.92	1327.08
400.13	1275.88
400.34	1228.78
400.54	1333.23
400.75	1306.60
400.96	1290.22
401.17	1247.21
401.37	1290.22
401.58	1273.84
401.79	1218.54
402.00	1230.83
402.21	1294.32
402.41	1249.26
402.62	1327.08
402.83	1325.04
403.04	1267.69
403.24	1286.12
403.45	1282.03
403.66	1245.16
403.87	1263.60
404.07	1314.80
404.28	1343.47
404.49	1298.41
404.70	1298.41
404.90	1273.84
405.11	1253.36
405.32	1271.79
405.52	1193.97
405.73	1198.06
405.94	1259.50
406.15	1337.32
406.35	1230.83
406.56	1282.03
406.77	1298.41
406.98	1265.64
407.18	1253.36
407.39	1253.36
407.60	1267.69
407.80	1286.12
408.01	1245.16
408.22	1222.64
408.43	1288.17
408.63	1308.65
408.84	1261.55
409.05	1316.84
409.25	1253.36
409.46	1355.76
409.67	1245.16
409.88	1312.75
410.08	1325.04
410.29	1241.07
410.50	1318.89
410.70	1216.49
410.91	1253.36
411.12	1288.17
411.32	1196.01
411.53	1288.17
411.74	1210.35
411.95	1247.21
412.15	1288.17
412.36	1298.41
412.57	1269.74
412.77	1230.83
412.98	1267.69
413.19	1265.64
413.39	1320.94
413.60	1286.12
413.81	1298.41
414.01	1263.60
414.22	1269.74
414.43	1322.99
414.63	1253.36
414.84	1300.46
415.05	1257.45
415.25	1224.69
415.46	1314.80
415.67	1304.56
415.87	1210.35
416.08	1288.17
416.29	1263.60
416.49	1259.50
416.70	1312.75
416.91	1277.93
417.11	1241.07
417.32	1228.78
417.53	1294.32
417.73	1263.60
417.94	1308.65
418.15	1275.88
418.35	1236.97
418.56	1220.59
418.77	1230.83
418.97	1273.84
419.18	1284.08
419.38	1277.93
419.59	1212.40
419.80	1374.19
420.00	1257.45
420.21	1294.32
420.42	1202.16
420.62	1355.76
420.83	1271.79
421.04	1189.87
421.24	1234.93
421.45	1232.88
421.65	1259.50
421.86	1255.40
422.07	1320.94
422.27	1261.55
422.48	1183.73
422.69	1292.27
422.89	1351.66
423.10	1288.17
423.30	1267.69
423.51	1216.49
423.72	1269.74
423.92	1267.69
424.13	1290.22
424.33	1251.31
424.54	1288.17
424.75	1292.27
424.95	1193.97
425.16	1292.27
425.36	1255.40
425.57	1302.51
425.78	1204.21
425.98	1294.32
426.19	1253.36
426.39	1220.59
426.60	1226.73
426.81	1253.36
427.01	1249.26
427.22	1249.26
427.42	1202.16
427.63	1273.84
427.83	1286.12
428.04	1312.75
428.25	1271.79
428.45	1286.12
428.66	1312.75
428.86	1318.89
429.07	1228.78
429.28	1243.12
429.48	1339.37
429.69	1290.22
429.89	1247.21
430.10	1279.98
430.30	1257.45
430.51	1298.41
430.71	1284.08
430.92	1198.06
431.13	1333.23
431.33	1241.07
431.54	1284.08
431.74	1222.64
431.95	1298.41
432.15	1273.84
432.36	1251.31
432.56	1306.60
432.77	1208.30
432.98	1236.97
433.18	1247.21
433.39	1253.36
433.59	1296.36
433.80	1273.84
434.00	1288.17
434.21	1234.93
434.41	1308.65
434.62	1251.31
434.82	1300.46
435.03	1331.18
435.23	1214.45
435.44	1286.12
435.64	1245.16
435.85	1265.64
436.06	1236.97
436.26	1279.98
436.47	1253.36
436.67	1271.79
436.88	1318.89
437.08	1304.56
437.29	1273.84
437.49	1265.64
437.70	1263.60
437.90	1327.08
438.11	1216.49
438.31	1247.21
438.52	1290.22
438.72	1263.60
438.93	1277.93
439.13	1228.78
439.34	1236.97
439.54	1185.77
439.75	1241.07
439.95	1253.36
440.16	1253.36
440.36	1239.02
440.57	1302.51
440.77	1224.69
440.98	1261.55
441.18	1282.03
441.39	1202.16
441.59	1314.80
441.80	1273.84
442.00	1304.56
442.21	1253.36
442.41	1325.04
442.62	1279.98
442.82	1290.22
443.02	1234.93
443.23	1353.71
443.43	1271.79
443.64	1282.03
443.84	1327.08
444.05	1282.03
444.25	1245.16
444.46	1292.27
444.66	1298.41
444.87	1361.90
445.07	1245.16
445.28	1343.47
445.48	1200.11
445.69	1331.18
445.89	1316.84
446.09	1273.84
446.30	1218.54
446.50	1335.28
446.71	1230.83
446.91	1288.17
447.12	1273.84
447.32	1294.32
447.53	1312.75
447.73	1288.17
447.93	1337.32
448.14	1239.02
448.34	1314.80
448.55	1318.89
448.75	1249.26
448.96	1261.55
449.16	1308.65
449.36	1339.37
449.57	1212.40
449.77	1249.26
449.98	1296.36
450.18	1314.80
450.39	1265.64
450.59	1312.75
450.79	1230.83
451.00	1288.17
451.20	1236.97
451.41	1304.56
451.61	1302.51
451.81	1269.74
452.02	1290.22
452.22	1273.84
452.43	1292.27
452.63	1288.17
