SpectraSuite Data File
++++++++++++++++++++++++++++++++++++
Date: Sun Apr 03 19:55:41 CEST 2016
User: root
Dark Spectrum Present: No
Reference Spectrum Present: No
Number of Sampled Component Spectra: 1
Spectrometers: USB4C02835
Integration Time (usec): 10000 (USB4C02835)
Spectra Averaged: 1 (USB4C02835)
Boxcar Smoothing: 0 (USB4C02835)
Correct for Electrical Dark: No (USB4C02835)
Strobe/Lamp Enabled: No (USB4C02835)
Correct for Detector Non-linearity: No (USB4C02835)
Correct for Stray Light: No (USB4C02835)
Number of Pixels in Processed Spectrum: 3648
>>>>>Begin Processed Spectral Data<<<<<
177.47	1247.21
177.69	1247.21
177.91	1247.21
178.13	1306.60
178.36	1251.31
178.58	1267.69
178.80	1241.07
179.02	1239.02
179.24	1263.60
179.46	1206.25
179.68	1320.94
179.90	1241.07
180.13	1265.64
180.35	1271.79
180.57	1249.26
180.79	1212.40
181.01	1243.12
181.23	1249.26
181.45	1239.02
181.67	1259.50
181.90	1265.64
182.12	1232.88
182.34	1320.94
182.56	1286.12
182.78	1292.27
183.00	1230.83
183.22	1234.93
183.44	1273.84
183.66	1355.76
183.89	1216.49
184.11	1282.03
184.33	1245.16
184.55	1275.88
184.77	1284.08
184.99	1263.60
185.21	1273.84
185.43	1249.26
185.65	1239.02
185.87	1282.03
186.10	1249.26
186.32	1325.04
186.54	1241.07
186.76	1263.60
186.98	1261.55
187.20	1210.35
187.42	1247.21
187.64	1234.93
187.86	1329.13
188.08	1265.64
188.30	1288.17
188.52	1236.97
188.75	1226.73
188.97	1255.40
189.19	1249.26
189.41	1318.89
189.63	1214.45
189.85	1212.40
190.07	1236.97
190.29	1271.79
190.51	1355.76
190.73	1261.55
190.95	1314.80
191.17	1181.68
191.39	1271.79
191.61	1302.51
191.84	1302.51
192.06	1214.45
192.28	1279.98
192.50	1306.60
192.72	1306.60
192.94	1253.36
193.16	1224.69
193.38	1210.35
193.60	1263.60
193.82	1257.45
194.04	1265.64
194.26	1286.12
194.48	1245.16
194.70	1292.27
194.92	1261.55
195.14	1273.84
195.36	1269.74
195.58	1273.84
195.80	1224.69
196.02	1275.88
196.24	1335.28
196.46	1275.88
196.69	1306.60
196.91	1255.40
197.13	1222.64
197.35	1273.84
197.57	1216.49
197.79	1275.88
198.01	1290.22
198.23	1230.83
198.45	1343.47
198.67	1255.40
198.89	1245.16
199.11	1255.40
199.33	1273.84
199.55	1247.21
199.77	1273.84
199.99	1279.98
200.21	1322.99
200.43	1226.73
200.65	1163.25
200.87	1284.08
201.09	1329.13
201.31	1255.40
201.53	1302.51
201.75	1218.54
201.97	1245.16
202.19	1251.31
202.41	1267.69
202.63	1249.26
202.85	1300.46
203.07	1245.16
203.29	1189.87
203.51	1308.65
203.73	1153.01
203.95	1263.60
204.17	1269.74
204.39	1265.64
204.61	1253.36
204.83	1288.17
205.05	1265.64
205.27	1286.12
205.49	1275.88
205.71	1257.45
205.93	1218.54
206.15	1273.84
206.37	1257.45
206.59	1249.26
206.81	1241.07
207.03	1296.36
207.25	1341.42
207.47	1284.08
207.69	1314.80
207.91	1298.41
208.13	1286.12
208.34	1271.79
208.56	1286.12
208.78	1312.75
209.00	1239.02
209.22	1292.27
209.44	1288.17
209.66	1294.32
209.88	1310.70
210.10	1232.88
210.32	1308.65
210.54	1245.16
210.76	1296.36
210.98	1300.46
211.20	1284.08
211.42	1284.08
211.64	1253.36
211.86	1284.08
212.08	1200.11
212.30	1284.08
212.52	1232.88
212.74	1273.84
212.96	1220.59
213.17	1239.02
213.39	1292.27
213.61	1232.88
213.83	1366.00
214.05	1247.21
214.27	1218.54
214.49	1294.32
214.71	1290.22
214.93	1302.51
215.15	1214.45
215.37	1222.64
215.59	1312.75
215.81	1196.01
216.03	1247.21
216.24	1290.22
216.46	1282.03
216.68	1279.98
216.90	1277.93
217.12	1226.73
217.34	1277.93
217.56	1318.89
217.78	1253.36
218.00	1288.17
218.22	1316.84
218.44	1325.04
218.66	1302.51
218.87	1271.79
219.09	1243.12
219.31	1255.40
219.53	1302.51
219.75	1284.08
219.97	1263.60
220.19	1228.78
220.41	1247.21
220.63	1249.26
220.85	1251.31
221.06	1202.16
221.28	1245.16
221.50	1277.93
221.72	1306.60
221.94	1263.60
222.16	1239.02
222.38	1234.93
222.60	1316.84
222.82	1306.60
223.03	1337.32
223.25	1257.45
223.47	1218.54
223.69	1314.80
223.91	1361.90
224.13	1275.88
224.35	1249.26
224.57	1232.88
224.78	1241.07
225.00	1318.89
225.22	1220.59
225.44	1306.60
225.66	1300.46
225.88	1269.74
226.10	1314.80
226.32	1286.12
226.53	1255.40
226.75	1314.80
226.97	1290.22
227.19	1247.21
227.41	1296.36
227.63	1218.54
227.85	1249.26
228.06	1304.56
228.28	1298.41
228.50	1273.84
228.72	1241.07
228.94	1239.02
229.16	1271.79
229.37	1300.46
229.59	1277.93
229.81	1296.36
230.03	1253.36
230.25	1296.36
230.47	1296.36
230.69	1277.93
230.90	1306.60
231.12	1202.16
231.34	1337.32
231.56	1349.61
231.78	1249.26
232.00	1290.22
232.21	1284.08
232.43	1255.40
232.65	1271.79
232.87	1294.32
233.09	1271.79
233.30	1296.36
233.52	1245.16
233.74	1279.98
233.96	1218.54
234.18	1243.12
234.40	1271.79
234.61	1320.94
234.83	1325.04
235.05	1306.60
235.27	1269.74
235.49	1327.08
235.70	1241.07
235.92	1335.28
236.14	1173.49
236.36	1214.45
236.58	1269.74
236.79	1316.84
237.01	1294.32
237.23	1288.17
237.45	1255.40
237.67	1343.47
237.88	1243.12
238.10	1249.26
238.32	1185.77
238.54	1298.41
238.76	1269.74
238.97	1275.88
239.19	1257.45
239.41	1325.04
239.63	1257.45
239.85	1290.22
240.06	1288.17
240.28	1290.22
240.50	1187.82
240.72	1265.64
240.93	1208.30
241.15	1320.94
241.37	1224.69
241.59	1257.45
241.81	1198.06
242.02	1292.27
242.24	1253.36
242.46	1288.17
242.68	1265.64
242.89	1222.64
243.11	1308.65
243.33	1245.16
243.55	1218.54
243.76	1298.41
243.98	1265.64
244.20	1282.03
244.42	1220.59
244.64	1234.93
244.85	1191.92
245.07	1275.88
245.29	1245.16
245.51	1298.41
245.72	1308.65
245.94	1249.26
246.16	1322.99
246.38	1322.99
246.59	1290.22
246.81	1282.03
247.03	1290.22
247.24	1257.45
247.46	1292.27
247.68	1271.79
247.90	1236.97
248.11	1284.08
248.33	1271.79
248.55	1249.26
248.77	1310.70
248.98	1284.08
249.20	1263.60
249.42	1294.32
249.64	1239.02
249.85	1216.49
250.07	1277.93
250.29	1255.40
250.50	1275.88
250.72	1245.16
250.94	1251.31
251.16	1263.60
251.37	1236.97
251.59	1279.98
251.81	1245.16
252.02	1265.64
252.24	1294.32
252.46	1292.27
252.68	1316.84
252.89	1251.31
253.11	1245.16
253.33	1243.12
253.54	1316.84
253.76	1271.79
253.98	1267.69
254.20	1325.04
254.41	1335.28
254.63	1331.18
254.85	1255.40
255.06	1353.71
255.28	1265.64
255.50	1249.26
255.71	1212.40
255.93	1284.08
256.15	1236.97
256.36	1279.98
256.58	1214.45
256.80	1265.64
257.02	1214.45
257.23	1181.68
257.45	1308.65
257.67	1273.84
257.88	1218.54
258.10	1304.56
258.32	1275.88
258.53	1290.22
258.75	1249.26
258.97	1310.70
259.18	1290.22
259.40	1230.83
259.62	1273.84
259.83	1290.22
260.05	1261.55
260.27	1394.67
260.48	1296.36
260.70	1267.69
260.92	1183.73
261.13	1204.21
261.35	1275.88
261.57	1320.94
261.78	1265.64
262.00	1224.69
262.22	1232.88
262.43	1177.58
262.65	1255.40
262.86	1331.18
263.08	1257.45
263.30	1302.51
263.51	1208.30
263.73	1288.17
263.95	1277.93
264.16	1275.88
264.38	1271.79
264.60	1234.93
264.81	1298.41
265.03	1302.51
265.25	1294.32
265.46	1257.45
265.68	1239.02
265.89	1226.73
266.11	1208.30
266.33	1359.85
266.54	1296.36
266.76	1265.64
266.98	1292.27
267.19	1320.94
267.41	1337.32
267.62	1241.07
267.84	1236.97
268.06	1226.73
268.27	1306.60
268.49	1273.84
268.70	1290.22
268.92	1306.60
269.14	1298.41
269.35	1236.97
269.57	1290.22
269.79	1222.64
270.00	1226.73
270.22	1224.69
270.43	1208.30
270.65	1271.79
270.87	1269.74
271.08	1241.07
271.30	1308.65
271.51	1286.12
271.73	1196.01
271.95	1261.55
272.16	1261.55
272.38	1222.64
272.59	1271.79
272.81	1263.60
273.02	1267.69
273.24	1314.80
273.46	1286.12
273.67	1261.55
273.89	1257.45
274.10	1159.15
274.32	1259.50
274.54	1259.50
274.75	1296.36
274.97	1284.08
275.18	1269.74
275.40	1306.60
275.61	1241.07
275.83	1243.12
276.05	1187.82
276.26	1198.06
276.48	1341.42
276.69	1216.49
276.91	1259.50
277.12	1277.93
277.34	1220.59
277.55	1257.45
277.77	1322.99
277.99	1234.93
278.20	1359.85
278.42	1251.31
278.63	1236.97
278.85	1232.88
279.06	1257.45
279.28	1282.03
279.49	1304.56
279.71	1261.55
279.93	1314.80
280.14	1193.97
280.36	1279.98
280.57	1241.07
280.79	1288.17
281.00	1196.01
281.22	1290.22
281.43	1320.94
281.65	1339.37
281.86	1273.84
282.08	1247.21
282.29	1304.56
282.51	1308.65
282.73	1277.93
282.94	1200.11
283.16	1259.50
283.37	1263.60
283.59	1263.60
283.80	1286.12
284.02	1312.75
284.23	1251.31
284.45	1241.07
284.66	1267.69
284.88	1306.60
285.09	1302.51
285.31	1298.41
285.52	1329.13
285.74	1316.84
285.95	1198.06
286.17	1275.88
286.38	1341.42
286.60	1243.12
286.81	1259.50
287.03	1249.26
287.24	1310.70
287.46	1253.36
287.67	1290.22
287.89	1241.07
288.10	1269.74
288.32	1273.84
288.53	1239.02
288.75	1277.93
288.96	1279.98
289.18	1218.54
289.39	1243.12
289.61	1222.64
289.82	1271.79
290.04	1253.36
290.25	1286.12
290.47	1265.64
290.68	1208.30
290.90	1304.56
291.11	1206.25
291.33	1251.31
291.54	1263.60
291.76	1288.17
291.97	1345.52
292.18	1247.21
292.40	1263.60
292.61	1284.08
292.83	1312.75
293.04	1271.79
293.26	1232.88
293.47	1214.45
293.69	1320.94
293.90	1208.30
294.12	1241.07
294.33	1271.79
294.55	1318.89
294.76	1228.78
294.97	1214.45
295.19	1257.45
295.40	1269.74
295.62	1320.94
295.83	1128.43
296.05	1257.45
296.26	1279.98
296.48	1277.93
296.69	1329.13
296.90	1239.02
297.12	1249.26
297.33	1253.36
297.55	1249.26
297.76	1294.32
297.98	1302.51
298.19	1234.93
298.41	1259.50
298.62	1236.97
298.83	1183.73
299.05	1265.64
299.26	1296.36
299.48	1277.93
299.69	1286.12
299.90	1275.88
300.12	1294.32
300.33	1269.74
300.55	1255.40
300.76	1331.18
300.98	1288.17
301.19	1316.84
301.40	1241.07
301.62	1214.45
301.83	1234.93
302.05	1286.12
302.26	1259.50
302.47	1239.02
302.69	1232.88
302.90	1265.64
303.12	1243.12
303.33	1202.16
303.54	1275.88
303.76	1202.16
303.97	1210.35
304.19	1265.64
304.40	1189.87
304.61	1308.65
304.83	1314.80
305.04	1269.74
305.26	1128.43
305.47	1232.88
305.68	1251.31
305.90	1177.58
306.11	1306.60
306.33	1187.82
306.54	1282.03
306.75	1230.83
306.97	1249.26
307.18	1345.52
307.39	1265.64
307.61	1300.46
307.82	1230.83
308.04	1265.64
308.25	1257.45
308.46	1269.74
308.68	1286.12
308.89	1265.64
309.10	1302.51
309.32	1208.30
309.53	1269.74
309.74	1271.79
309.96	1320.94
310.17	1355.76
310.39	1241.07
310.60	1277.93
310.81	1282.03
311.03	1314.80
311.24	1222.64
311.45	1239.02
311.67	1273.84
311.88	1179.63
312.09	1257.45
312.31	1282.03
312.52	1275.88
312.73	1331.18
312.95	1355.76
313.16	1273.84
313.37	1318.89
313.59	1300.46
313.80	1345.52
314.01	1279.98
314.23	1230.83
314.44	1224.69
314.65	1284.08
314.87	1277.93
315.08	1193.97
315.29	1306.60
315.51	1239.02
315.72	1298.41
315.93	1343.47
316.15	1284.08
316.36	1343.47
316.57	1314.80
316.79	1275.88
317.00	1359.85
317.21	1251.31
317.43	1322.99
317.64	1222.64
317.85	1210.35
318.07	1312.75
318.28	1220.59
318.49	1271.79
318.70	1218.54
318.92	1224.69
319.13	1277.93
319.34	1259.50
319.56	1239.02
319.77	1239.02
319.98	1345.52
320.20	1228.78
320.41	1255.40
320.62	1271.79
320.83	1286.12
321.05	1304.56
321.26	1200.11
321.47	1265.64
321.69	1249.26
321.90	1253.36
322.11	1247.21
322.32	1183.73
322.54	1232.88
322.75	1202.16
322.96	1208.30
323.18	1300.46
323.39	1265.64
323.60	1236.97
323.81	1239.02
324.03	1288.17
324.24	1325.04
324.45	1300.46
324.66	1288.17
324.88	1257.45
325.09	1261.55
325.30	1267.69
325.52	1288.17
325.73	1232.88
325.94	1300.46
326.15	1214.45
326.37	1333.23
326.58	1290.22
326.79	1372.14
327.00	1236.97
327.22	1265.64
327.43	1320.94
327.64	1257.45
327.85	1314.80
328.07	1228.78
328.28	1290.22
328.49	1236.97
328.70	1191.92
328.92	1245.16
329.13	1269.74
329.34	1236.97
329.55	1320.94
329.76	1306.60
329.98	1275.88
330.19	1214.45
330.40	1255.40
330.61	1290.22
330.83	1294.32
331.04	1284.08
331.25	1245.16
331.46	1212.40
331.68	1243.12
331.89	1345.52
332.10	1253.36
332.31	1267.69
332.52	1302.51
332.74	1241.07
332.95	1302.51
333.16	1349.61
333.37	1273.84
333.58	1257.45
333.80	1265.64
334.01	1269.74
334.22	1249.26
334.43	1277.93
334.64	1331.18
334.86	1292.27
335.07	1298.41
335.28	1249.26
335.49	1251.31
335.70	1259.50
335.92	1341.42
336.13	1351.66
336.34	1325.04
336.55	1298.41
336.76	1220.59
336.98	1290.22
337.19	1294.32
337.40	1298.41
337.61	1314.80
337.82	1175.53
338.04	1290.22
338.25	1279.98
338.46	1290.22
338.67	1273.84
338.88	1279.98
339.09	1249.26
339.31	1239.02
339.52	1236.97
339.73	1189.87
339.94	1228.78
340.15	1282.03
340.36	1257.45
340.58	1239.02
340.79	1214.45
341.00	1275.88
341.21	1273.84
341.42	1269.74
341.63	1249.26
341.85	1282.03
342.06	1288.17
342.27	1220.59
342.48	1255.40
342.69	1267.69
342.90	1282.03
343.12	1275.88
343.33	1273.84
343.54	1296.36
343.75	1179.63
343.96	1378.28
344.17	1271.79
344.38	1230.83
344.60	1325.04
344.81	1290.22
345.02	1271.79
345.23	1222.64
345.44	1247.21
345.65	1333.23
345.86	1236.97
346.07	1202.16
346.29	1134.57
346.50	1282.03
346.71	1318.89
346.92	1306.60
347.13	1304.56
347.34	1320.94
347.55	1255.40
347.76	1243.12
347.98	1247.21
348.19	1267.69
348.40	1208.30
348.61	1300.46
348.82	1316.84
349.03	1269.74
349.24	1222.64
349.45	1251.31
349.66	1204.21
349.88	1214.45
350.09	1212.40
350.30	1183.73
350.51	1245.16
350.72	1331.18
350.93	1236.97
351.14	1265.64
351.35	1314.80
351.56	1265.64
351.77	1290.22
351.99	1290.22
352.20	1335.28
352.41	1314.80
352.62	1216.49
352.83	1286.12
353.04	1325.04
353.25	1224.69
353.46	1335.28
353.67	1333.23
353.88	1279.98
354.09	1249.26
354.30	1279.98
354.52	1200.11
354.73	1245.16
354.94	1269.74
355.15	1243.12
355.36	1279.98
355.57	1232.88
355.78	1271.79
355.99	1269.74
356.20	1277.93
356.41	1257.45
356.62	1292.27
356.83	1267.69
357.04	1239.02
357.25	1304.56
357.46	1355.76
357.68	1320.94
357.89	1271.79
358.10	1204.21
358.31	1267.69
358.52	1265.64
358.73	1261.55
358.94	1239.02
359.15	1263.60
359.36	1214.45
359.57	1300.46
359.78	1259.50
359.99	1259.50
360.20	1255.40
360.41	1290.22
360.62	1277.93
360.83	1257.45
361.04	1241.07
361.25	1282.03
361.46	1306.60
361.67	1271.79
361.88	1179.63
362.09	1333.23
362.30	1275.88
362.51	1273.84
362.72	1331.18
362.93	1253.36
363.14	1265.64
363.35	1298.41
363.56	1288.17
363.78	1247.21
363.99	1255.40
364.20	1236.97
364.41	1241.07
364.62	1351.66
364.83	1222.64
365.04	1304.56
365.25	1304.56
365.46	1292.27
365.67	1239.02
365.88	1269.74
366.09	1296.36
366.30	1296.36
366.51	1302.51
366.72	1325.04
366.93	1224.69
367.14	1269.74
367.35	1269.74
367.56	1275.88
367.77	1294.32
367.98	1273.84
368.18	1271.79
368.39	1230.83
368.60	1292.27
368.81	1302.51
369.02	1259.50
369.23	1277.93
369.44	1204.21
369.65	1273.84
369.86	1275.88
370.07	1222.64
370.28	1228.78
370.49	1206.25
370.70	1288.17
370.91	1265.64
371.12	1302.51
371.33	1241.07
371.54	1312.75
371.75	1279.98
371.96	1267.69
372.17	1314.80
372.38	1249.26
372.59	1255.40
372.80	1275.88
373.01	1284.08
373.22	1300.46
373.43	1263.60
373.64	1265.64
373.85	1294.32
374.06	1259.50
374.26	1284.08
374.47	1249.26
374.68	1290.22
374.89	1265.64
375.10	1259.50
375.31	1277.93
375.52	1259.50
375.73	1282.03
375.94	1232.88
376.15	1329.13
376.36	1282.03
376.57	1267.69
376.78	1249.26
376.99	1298.41
377.20	1294.32
377.40	1255.40
377.61	1236.97
377.82	1257.45
378.03	1187.82
378.24	1234.93
378.45	1259.50
378.66	1290.22
378.87	1241.07
379.08	1251.31
379.29	1263.60
379.50	1312.75
379.71	1255.40
379.91	1241.07
380.12	1241.07
380.33	1230.83
380.54	1275.88
380.75	1196.01
380.96	1247.21
381.17	1298.41
381.38	1241.07
381.59	1253.36
381.80	1224.69
382.00	1286.12
382.21	1224.69
382.42	1265.64
382.63	1320.94
382.84	1292.27
383.05	1224.69
383.26	1253.36
383.47	1251.31
383.68	1294.32
383.88	1265.64
384.09	1277.93
384.30	1273.84
384.51	1263.60
384.72	1245.16
384.93	1277.93
385.14	1234.93
385.35	1314.80
385.55	1267.69
385.76	1265.64
385.97	1331.18
386.18	1265.64
386.39	1316.84
386.60	1212.40
386.81	1257.45
387.02	1239.02
387.22	1288.17
387.43	1284.08
387.64	1294.32
387.85	1261.55
388.06	1261.55
388.27	1210.35
388.48	1286.12
388.68	1259.50
388.89	1286.12
389.10	1247.21
389.31	1357.80
389.52	1327.08
389.73	1249.26
389.93	1236.97
390.14	1310.70
390.35	1302.51
390.56	1265.64
390.77	1288.17
390.98	1253.36
391.18	1355.76
391.39	1269.74
391.60	1206.25
391.81	1312.75
392.02	1220.59
392.23	1212.40
392.43	1271.79
392.64	1308.65
392.85	1300.46
393.06	1241.07
393.27	1257.45
393.47	1224.69
393.68	1253.36
393.89	1306.60
394.10	1312.75
394.31	1290.22
394.52	1286.12
394.72	1216.49
394.93	1253.36
395.14	1257.45
395.35	1263.60
395.56	1282.03
395.76	1296.36
395.97	1236.97
396.18	1241.07
396.39	1265.64
396.60	1331.18
396.80	1243.12
397.01	1241.07
397.22	1282.03
397.43	1247.21
397.64	1288.17
397.84	1249.26
398.05	1249.26
398.26	1212.40
398.47	1288.17
398.67	1253.36
398.88	1269.74
399.09	1239.02
399.30	1265.64
399.51	1298.41
399.71	1253.36
399.92	1312.75
400.13	1286.12
400.34	1241.07
400.54	1275.88
400.75	1271.79
400.96	1286.12
401.17	1284.08
401.37	1269.74
401.58	1314.80
401.79	1134.57
402.00	1263.60
402.21	1253.36
402.41	1296.36
402.62	1216.49
402.83	1288.17
403.04	1255.40
403.24	1228.78
403.45	1282.03
403.66	1306.60
403.87	1239.02
404.07	1273.84
404.28	1216.49
404.49	1259.50
404.70	1247.21
404.90	1314.80
405.11	1277.93
405.32	1292.27
405.52	1269.74
405.73	1349.61
405.94	1226.73
406.15	1261.55
406.35	1302.51
406.56	1226.73
406.77	1239.02
406.98	1271.79
407.18	1253.36
407.39	1314.80
407.60	1298.41
407.80	1265.64
408.01	1290.22
408.22	1320.94
408.43	1290.22
408.63	1298.41
408.84	1304.56
409.05	1331.18
409.25	1259.50
409.46	1282.03
409.67	1282.03
409.88	1224.69
410.08	1251.31
410.29	1241.07
410.50	1292.27
410.70	1310.70
410.91	1335.28
411.12	1284.08
411.32	1277.93
411.53	1251.31
411.74	1277.93
411.95	1277.93
412.15	1249.26
412.36	1265.64
412.57	1282.03
412.77	1292.27
412.98	1187.82
413.19	1304.56
413.39	1236.97
413.60	1247.21
413.81	1263.60
414.01	1204.21
414.22	1277.93
414.43	1294.32
414.63	1208.30
414.84	1286.12
415.05	1204.21
415.25	1232.88
415.46	1263.60
415.67	1239.02
415.87	1257.45
416.08	1243.12
416.29	1259.50
416.49	1284.08
416.70	1322.99
416.91	1273.84
417.11	1253.36
417.32	1316.84
417.53	1216.49
417.73	1214.45
417.94	1351.66
418.15	1320.94
418.35	1236.97
418.56	1253.36
418.77	1275.88
418.97	1318.89
419.18	1310.70
419.38	1300.46
419.59	1257.45
419.80	1296.36
420.00	1234.93
420.21	1226.73
420.42	1294.32
420.62	1257.45
420.83	1255.40
421.04	1236.97
421.24	1224.69
421.45	1212.40
421.65	1265.64
421.86	1259.50
422.07	1261.55
422.27	1257.45
422.48	1318.89
422.69	1177.58
422.89	1298.41
423.10	1228.78
423.30	1214.45
423.51	1243.12
423.72	1247.21
423.92	1228.78
424.13	1320.94
424.33	1259.50
424.54	1253.36
424.75	1290.22
424.95	1253.36
425.16	1249.26
425.36	1302.51
425.57	1384.43
425.78	1290.22
425.98	1320.94
426.19	1290.22
426.39	1212.40
426.60	1253.36
426.81	1296.36
427.01	1325.04
427.22	1253.36
427.42	1267.69
427.63	1284.08
427.83	1241.07
428.04	1277.93
428.25	1183.73
428.45	1245.16
428.66	1271.79
428.86	1277.93
429.07	1251.31
429.28	1263.60
429.48	1222.64
429.69	1202.16
429.89	1308.65
430.10	1259.50
430.30	1181.68
430.51	1212.40
430.71	1206.25
430.92	1222.64
431.13	1220.59
431.33	1292.27
431.54	1247.21
431.74	1273.84
431.95	1282.03
432.15	1300.46
432.36	1273.84
432.56	1302.51
432.77	1249.26
432.98	1308.65
433.18	1253.36
433.39	1273.84
433.59	1282.03
433.80	1286.12
434.00	1349.61
434.21	1247.21
434.41	1263.60
434.62	1204.21
434.82	1294.32
435.03	1286.12
435.23	1320.94
435.44	1220.59
435.64	1277.93
435.85	1230.83
436.06	1282.03
436.26	1322.99
436.47	1253.36
436.67	1232.88
436.88	1298.41
437.08	1292.27
437.29	1302.51
437.49	1322.99
437.70	1286.12
437.90	1288.17
438.11	1296.36
438.31	1292.27
438.52	1253.36
438.72	1224.69
438.93	1290.22
439.13	1257.45
439.34	1259.50
439.54	1234.93
439.75	1282.03
439.95	1294.32
440.16	1302.51
440.36	1368.04
440.57	1267.69
440.77	1298.41
440.98	1214.45
441.18	1351.66
441.39	1224.69
441.59	1294.32
441.80	1329.13
442.00	1308.65
442.21	1253.36
442.41	1341.42
442.62	1275.88
442.82	1273.84
443.02	1177.58
443.23	1306.60
443.43	1304.56
443.64	1241.07
443.84	1202.16
444.05	1308.65
444.25	1298.41
444.46	1322.99
444.66	1239.02
444.87	1228.78
445.07	1282.03
445.28	1282.03
445.48	1249.26
445.69	1226.73
445.89	1269.74
446.09	1247.21
446.30	1308.65
446.50	1247.21
446.71	1265.64
446.91	1325.04
447.12	1230.83
447.32	1345.52
447.53	1294.32
447.73	1302.51
447.93	1204.21
448.14	1279.98
448.34	1224.69
448.55	1292.27
448.75	1232.88
448.96	1253.36
449.16	1279.98
449.36	1275.88
449.57	1243.12
449.77	1359.85
449.98	1298.41
450.18	1312.75
450.39	1226.73
450.59	1359.85
450.79	1294.32
451.00	1316.84
451.20	1306.60
451.41	1218.54
451.61	1284.08
451.81	1202.16
452.02	1269.74
452.22	1267.69
452.43	1290.22
452.63	1273.84
