SpectraSuite Data File
++++++++++++++++++++++++++++++++++++
Date: Sun Apr 03 19:55:43 CEST 2016
User: root
Dark Spectrum Present: No
Reference Spectrum Present: No
Number of Sampled Component Spectra: 1
Spectrometers: USB4C02835
Integration Time (usec): 10000 (USB4C02835)
Spectra Averaged: 1 (USB4C02835)
Boxcar Smoothing: 0 (USB4C02835)
Correct for Electrical Dark: No (USB4C02835)
Strobe/Lamp Enabled: No (USB4C02835)
Correct for Detector Non-linearity: No (USB4C02835)
Correct for Stray Light: No (USB4C02835)
Number of Pixels in Processed Spectrum: 3648
>>>>>Begin Processed Spectral Data<<<<<
177.47	1206.25
177.69	1206.25
177.91	1206.25
178.13	1148.91
178.36	1232.88
178.58	1243.12
178.80	1290.22
179.02	1251.31
179.24	1239.02
179.46	1316.84
179.68	1273.84
179.90	1263.60
180.13	1228.78
180.35	1271.79
180.57	1294.32
180.79	1318.89
181.01	1255.40
181.23	1302.51
181.45	1361.90
181.67	1306.60
181.90	1239.02
182.12	1257.45
182.34	1253.36
182.56	1263.60
182.78	1277.93
183.00	1200.11
183.22	1341.42
183.44	1325.04
183.66	1271.79
183.89	1183.73
184.11	1316.84
184.33	1183.73
184.55	1214.45
184.77	1239.02
184.99	1263.60
185.21	1249.26
185.43	1236.97
185.65	1288.17
185.87	1243.12
186.10	1257.45
186.32	1296.36
186.54	1247.21
186.76	1214.45
186.98	1269.74
187.20	1230.83
187.42	1290.22
187.64	1269.74
187.86	1314.80
188.08	1310.70
188.30	1249.26
188.52	1279.98
188.75	1263.60
188.97	1239.02
189.19	1308.65
189.41	1306.60
189.63	1249.26
189.85	1298.41
190.07	1349.61
190.29	1282.03
190.51	1269.74
190.73	1337.32
190.95	1298.41
191.17	1304.56
191.39	1261.55
191.61	1308.65
191.84	1241.07
192.06	1314.80
192.28	1206.25
192.50	1241.07
192.72	1292.27
192.94	1347.56
193.16	1269.74
193.38	1247.21
193.60	1275.88
193.82	1271.79
194.04	1279.98
194.26	1259.50
194.48	1228.78
194.70	1306.60
194.92	1255.40
195.14	1290.22
195.36	1214.45
195.58	1279.98
195.80	1228.78
196.02	1230.83
196.24	1191.92
196.46	1257.45
196.69	1255.40
196.91	1292.27
197.13	1273.84
197.35	1282.03
197.57	1251.31
197.79	1286.12
198.01	1263.60
198.23	1230.83
198.45	1216.49
198.67	1325.04
198.89	1308.65
199.11	1288.17
199.33	1189.87
199.55	1320.94
199.77	1249.26
199.99	1257.45
200.21	1257.45
200.43	1286.12
200.65	1263.60
200.87	1259.50
201.09	1273.84
201.31	1253.36
201.53	1273.84
201.75	1265.64
201.97	1232.88
202.19	1261.55
202.41	1183.73
202.63	1269.74
202.85	1279.98
203.07	1273.84
203.29	1302.51
203.51	1296.36
203.73	1214.45
203.95	1368.04
204.17	1261.55
204.39	1298.41
204.61	1300.46
204.83	1259.50
205.05	1312.75
205.27	1331.18
205.49	1259.50
205.71	1175.53
205.93	1236.97
206.15	1263.60
206.37	1308.65
206.59	1243.12
206.81	1275.88
207.03	1298.41
207.25	1265.64
207.47	1253.36
207.69	1243.12
207.91	1286.12
208.13	1306.60
208.34	1183.73
208.56	1286.12
208.78	1286.12
209.00	1288.17
209.22	1312.75
209.44	1294.32
209.66	1288.17
209.88	1269.74
210.10	1214.45
210.32	1271.79
210.54	1273.84
210.76	1257.45
210.98	1267.69
211.20	1224.69
211.42	1265.64
211.64	1286.12
211.86	1320.94
212.08	1277.93
212.30	1263.60
212.52	1228.78
212.74	1255.40
212.96	1179.63
213.17	1286.12
213.39	1310.70
213.61	1298.41
213.83	1275.88
214.05	1304.56
214.27	1226.73
214.49	1273.84
214.71	1251.31
214.93	1337.32
215.15	1284.08
215.37	1310.70
215.59	1265.64
215.81	1257.45
216.03	1277.93
216.24	1310.70
216.46	1296.36
216.68	1288.17
216.90	1261.55
217.12	1329.13
217.34	1257.45
217.56	1241.07
217.78	1271.79
218.00	1279.98
218.22	1210.35
218.44	1267.69
218.66	1263.60
218.87	1292.27
219.09	1255.40
219.31	1245.16
219.53	1167.34
219.75	1210.35
219.97	1290.22
220.19	1294.32
220.41	1269.74
220.63	1273.84
220.85	1249.26
221.06	1288.17
221.28	1310.70
221.50	1228.78
221.72	1355.76
221.94	1269.74
222.16	1277.93
222.38	1193.97
222.60	1290.22
222.82	1255.40
223.03	1273.84
223.25	1271.79
223.47	1257.45
223.69	1304.56
223.91	1296.36
224.13	1253.36
224.35	1290.22
224.57	1265.64
224.78	1288.17
225.00	1302.51
225.22	1169.39
225.44	1249.26
225.66	1228.78
225.88	1206.25
226.10	1337.32
226.32	1210.35
226.53	1284.08
226.75	1277.93
226.97	1310.70
227.19	1318.89
227.41	1288.17
227.63	1171.44
227.85	1222.64
228.06	1275.88
228.28	1251.31
228.50	1267.69
228.72	1212.40
228.94	1206.25
229.16	1253.36
229.37	1247.21
229.59	1292.27
229.81	1282.03
230.03	1224.69
230.25	1220.59
230.47	1314.80
230.69	1331.18
230.90	1234.93
231.12	1284.08
231.34	1300.46
231.56	1222.64
231.78	1275.88
232.00	1204.21
232.21	1368.04
232.43	1181.68
232.65	1318.89
232.87	1327.08
233.09	1232.88
233.30	1269.74
233.52	1249.26
233.74	1245.16
233.96	1329.13
234.18	1214.45
234.40	1208.30
234.61	1259.50
234.83	1218.54
235.05	1286.12
235.27	1198.06
235.49	1320.94
235.70	1267.69
235.92	1277.93
236.14	1243.12
236.36	1202.16
236.58	1310.70
236.79	1234.93
237.01	1337.32
237.23	1294.32
237.45	1306.60
237.67	1255.40
237.88	1284.08
238.10	1296.36
238.32	1136.62
238.54	1286.12
238.76	1261.55
238.97	1279.98
239.19	1327.08
239.41	1257.45
239.63	1196.01
239.85	1288.17
240.06	1282.03
240.28	1257.45
240.50	1243.12
240.72	1296.36
240.93	1243.12
241.15	1187.82
241.37	1271.79
241.59	1290.22
241.81	1304.56
242.02	1288.17
242.24	1259.50
242.46	1210.35
242.68	1245.16
242.89	1275.88
243.11	1210.35
243.33	1361.90
243.55	1214.45
243.76	1296.36
243.98	1292.27
244.20	1271.79
244.42	1261.55
244.64	1230.83
244.85	1275.88
245.07	1277.93
245.29	1292.27
245.51	1300.46
245.72	1265.64
245.94	1259.50
246.16	1257.45
246.38	1247.21
246.59	1275.88
246.81	1249.26
247.03	1277.93
247.24	1241.07
247.46	1249.26
247.68	1322.99
247.90	1146.86
248.11	1329.13
248.33	1320.94
248.55	1271.79
248.77	1277.93
248.98	1222.64
249.20	1253.36
249.42	1257.45
249.64	1282.03
249.85	1275.88
250.07	1234.93
250.29	1339.37
250.50	1198.06
250.72	1277.93
250.94	1292.27
251.16	1286.12
251.37	1277.93
251.59	1314.80
251.81	1265.64
252.02	1265.64
252.24	1298.41
252.46	1314.80
252.68	1236.97
252.89	1196.01
253.11	1288.17
253.33	1273.84
253.54	1294.32
253.76	1259.50
253.98	1271.79
254.20	1273.84
254.41	1183.73
254.63	1232.88
254.85	1249.26
255.06	1220.59
255.28	1353.71
255.50	1273.84
255.71	1243.12
255.93	1230.83
256.15	1290.22
256.36	1329.13
256.58	1228.78
256.80	1273.84
257.02	1302.51
257.23	1245.16
257.45	1298.41
257.67	1271.79
257.88	1222.64
258.10	1306.60
258.32	1329.13
258.53	1273.84
258.75	1314.80
258.97	1232.88
259.18	1216.49
259.40	1243.12
259.62	1245.16
259.83	1359.85
260.05	1306.60
260.27	1318.89
260.48	1249.26
260.70	1304.56
260.92	1239.02
261.13	1261.55
261.35	1267.69
261.57	1228.78
261.78	1247.21
262.00	1286.12
262.22	1265.64
262.43	1210.35
262.65	1191.92
262.86	1296.36
263.08	1277.93
263.30	1277.93
263.51	1181.68
263.73	1224.69
263.95	1226.73
264.16	1261.55
264.38	1267.69
264.60	1318.89
264.81	1228.78
265.03	1255.40
265.25	1179.63
265.46	1247.21
265.68	1253.36
265.89	1249.26
266.11	1210.35
266.33	1271.79
266.54	1247.21
266.76	1222.64
266.98	1335.28
267.19	1282.03
267.41	1343.47
267.62	1296.36
267.84	1228.78
268.06	1279.98
268.27	1265.64
268.49	1210.35
268.70	1271.79
268.92	1296.36
269.14	1282.03
269.35	1271.79
269.57	1236.97
269.79	1259.50
270.00	1279.98
270.22	1275.88
270.43	1257.45
270.65	1212.40
270.87	1271.79
271.08	1312.75
271.30	1286.12
271.51	1222.64
271.73	1282.03
271.95	1263.60
272.16	1222.64
272.38	1232.88
272.59	1189.87
272.81	1277.93
273.02	1241.07
273.24	1298.41
273.46	1239.02
273.67	1253.36
273.89	1318.89
274.10	1259.50
274.32	1279.98
274.54	1284.08
274.75	1257.45
274.97	1267.69
275.18	1232.88
275.40	1298.41
275.61	1232.88
275.83	1312.75
276.05	1302.51
276.26	1345.52
276.48	1290.22
276.69	1310.70
276.91	1290.22
277.12	1314.80
277.34	1286.12
277.55	1259.50
277.77	1368.04
277.99	1257.45
278.20	1245.16
278.42	1288.17
278.63	1228.78
278.85	1265.64
279.06	1259.50
279.28	1243.12
279.49	1314.80
279.71	1277.93
279.93	1249.26
280.14	1322.99
280.36	1300.46
280.57	1298.41
280.79	1206.25
281.00	1261.55
281.22	1202.16
281.43	1314.80
281.65	1200.11
281.86	1249.26
282.08	1234.93
282.29	1376.24
282.51	1253.36
282.73	1253.36
282.94	1263.60
283.16	1239.02
283.37	1263.60
283.59	1232.88
283.80	1279.98
284.02	1239.02
284.23	1226.73
284.45	1298.41
284.66	1261.55
284.88	1275.88
285.09	1353.71
285.31	1257.45
285.52	1288.17
285.74	1273.84
285.95	1304.56
286.17	1261.55
286.38	1236.97
286.60	1325.04
286.81	1241.07
287.03	1257.45
287.24	1236.97
287.46	1226.73
287.67	1249.26
287.89	1314.80
288.10	1220.59
288.32	1292.27
288.53	1253.36
288.75	1284.08
288.96	1279.98
289.18	1255.40
289.39	1200.11
289.61	1310.70
289.82	1284.08
290.04	1271.79
290.25	1277.93
290.47	1294.32
290.68	1273.84
290.90	1234.93
291.11	1284.08
291.33	1298.41
291.54	1296.36
291.76	1191.92
291.97	1322.99
292.18	1208.30
292.40	1288.17
292.61	1290.22
292.83	1222.64
293.04	1236.97
293.26	1265.64
293.47	1245.16
293.69	1249.26
293.90	1263.60
294.12	1284.08
294.33	1226.73
294.55	1239.02
294.76	1267.69
294.97	1296.36
295.19	1314.80
295.40	1282.03
295.62	1263.60
295.83	1257.45
296.05	1318.89
296.26	1279.98
296.48	1312.75
296.69	1220.59
296.90	1306.60
297.12	1302.51
297.33	1329.13
297.55	1249.26
297.76	1298.41
297.98	1314.80
298.19	1271.79
298.41	1208.30
298.62	1228.78
298.83	1273.84
299.05	1269.74
299.26	1226.73
299.48	1206.25
299.69	1236.97
299.90	1228.78
300.12	1300.46
300.33	1212.40
300.55	1222.64
300.76	1263.60
300.98	1300.46
301.19	1308.65
301.40	1185.77
301.62	1239.02
301.83	1290.22
302.05	1290.22
302.26	1245.16
302.47	1292.27
302.69	1212.40
302.90	1273.84
303.12	1277.93
303.33	1267.69
303.54	1241.07
303.76	1267.69
303.97	1279.98
304.19	1271.79
304.40	1255.40
304.61	1216.49
304.83	1357.80
305.04	1247.21
305.26	1269.74
305.47	1302.51
305.68	1316.84
305.90	1230.83
306.11	1267.69
306.33	1277.93
306.54	1286.12
306.75	1245.16
306.97	1312.75
307.18	1214.45
307.39	1265.64
307.61	1273.84
307.82	1298.41
308.04	1234.93
308.25	1282.03
308.46	1245.16
308.68	1261.55
308.89	1214.45
309.10	1265.64
309.32	1314.80
309.53	1308.65
309.74	1294.32
309.96	1275.88
310.17	1310.70
310.39	1271.79
310.60	1220.59
310.81	1216.49
311.03	1222.64
311.24	1216.49
311.45	1265.64
311.67	1320.94
311.88	1286.12
312.09	1271.79
312.31	1189.87
312.52	1339.37
312.73	1224.69
312.95	1257.45
313.16	1273.84
313.37	1241.07
313.59	1288.17
313.80	1294.32
314.01	1290.22
314.23	1275.88
314.44	1296.36
314.65	1265.64
314.87	1273.84
315.08	1236.97
315.29	1320.94
315.51	1202.16
315.72	1304.56
315.93	1312.75
316.15	1263.60
316.36	1337.32
316.57	1300.46
316.79	1204.21
317.00	1284.08
317.21	1370.09
317.43	1243.12
317.64	1228.78
317.85	1191.92
318.07	1245.16
318.28	1214.45
318.49	1212.40
318.70	1245.16
318.92	1202.16
319.13	1286.12
319.34	1343.47
319.56	1206.25
319.77	1249.26
319.98	1306.60
320.20	1298.41
320.41	1310.70
320.62	1257.45
320.83	1208.30
321.05	1208.30
321.26	1290.22
321.47	1302.51
321.69	1245.16
321.90	1239.02
322.11	1214.45
322.32	1247.21
322.54	1230.83
322.75	1306.60
322.96	1259.50
323.18	1282.03
323.39	1302.51
323.60	1265.64
323.81	1288.17
324.03	1271.79
324.24	1247.21
324.45	1331.18
324.66	1226.73
324.88	1273.84
325.09	1216.49
325.30	1296.36
325.52	1259.50
325.73	1269.74
325.94	1294.32
326.15	1171.44
326.37	1253.36
326.58	1290.22
326.79	1234.93
327.00	1239.02
327.22	1292.27
327.43	1226.73
327.64	1271.79
327.85	1220.59
328.07	1183.73
328.28	1265.64
328.49	1290.22
328.70	1277.93
328.92	1212.40
329.13	1273.84
329.34	1253.36
329.55	1294.32
329.76	1257.45
329.98	1249.26
330.19	1306.60
330.40	1312.75
330.61	1230.83
330.83	1265.64
331.04	1224.69
331.25	1214.45
331.46	1271.79
331.68	1312.75
331.89	1245.16
332.10	1308.65
332.31	1230.83
332.52	1294.32
332.74	1257.45
332.95	1296.36
333.16	1284.08
333.37	1257.45
333.58	1241.07
333.80	1214.45
334.01	1265.64
334.22	1255.40
334.43	1296.36
334.64	1288.17
334.86	1298.41
335.07	1208.30
335.28	1230.83
335.49	1251.31
335.70	1282.03
335.92	1288.17
336.13	1304.56
336.34	1286.12
336.55	1320.94
336.76	1277.93
336.98	1269.74
337.19	1345.52
337.40	1263.60
337.61	1265.64
337.82	1290.22
338.04	1263.60
338.25	1265.64
338.46	1308.65
338.67	1189.87
338.88	1277.93
339.09	1273.84
339.31	1306.60
339.52	1265.64
339.73	1257.45
339.94	1325.04
340.15	1216.49
340.36	1265.64
340.58	1329.13
340.79	1226.73
341.00	1302.51
341.21	1294.32
341.42	1273.84
341.63	1286.12
341.85	1245.16
342.06	1284.08
342.27	1327.08
342.48	1298.41
342.69	1279.98
342.90	1271.79
343.12	1255.40
343.33	1253.36
343.54	1187.82
343.75	1298.41
343.96	1265.64
344.17	1290.22
344.38	1245.16
344.60	1265.64
344.81	1269.74
345.02	1148.91
345.23	1273.84
345.44	1232.88
345.65	1271.79
345.86	1232.88
346.07	1277.93
346.29	1273.84
346.50	1273.84
346.71	1236.97
346.92	1261.55
347.13	1290.22
347.34	1202.16
347.55	1241.07
347.76	1243.12
347.98	1251.31
348.19	1210.35
348.40	1296.36
348.61	1255.40
348.82	1228.78
349.03	1275.88
349.24	1222.64
349.45	1292.27
349.66	1263.60
349.88	1275.88
350.09	1298.41
350.30	1275.88
350.51	1298.41
350.72	1261.55
350.93	1214.45
351.14	1234.93
351.35	1255.40
351.56	1259.50
351.77	1282.03
351.99	1279.98
352.20	1218.54
352.41	1222.64
352.62	1187.82
352.83	1261.55
353.04	1292.27
353.25	1243.12
353.46	1224.69
353.67	1325.04
353.88	1273.84
354.09	1335.28
354.30	1232.88
354.52	1228.78
354.73	1339.37
354.94	1251.31
355.15	1265.64
355.36	1220.59
355.57	1247.21
355.78	1153.01
355.99	1261.55
356.20	1230.83
356.41	1333.23
356.62	1304.56
356.83	1290.22
357.04	1296.36
357.25	1273.84
357.46	1267.69
357.68	1214.45
357.89	1251.31
358.10	1282.03
358.31	1271.79
358.52	1282.03
358.73	1310.70
358.94	1300.46
359.15	1214.45
359.36	1245.16
359.57	1294.32
359.78	1271.79
359.99	1318.89
360.20	1292.27
360.41	1241.07
360.62	1306.60
360.83	1243.12
361.04	1208.30
361.25	1282.03
361.46	1259.50
361.67	1269.74
361.88	1241.07
362.09	1273.84
362.30	1294.32
362.51	1236.97
362.72	1255.40
362.93	1263.60
363.14	1273.84
363.35	1273.84
363.56	1255.40
363.78	1228.78
363.99	1273.84
364.20	1253.36
364.41	1273.84
364.62	1271.79
364.83	1228.78
365.04	1265.64
365.25	1308.65
365.46	1279.98
365.67	1355.76
365.88	1234.93
366.09	1214.45
366.30	1286.12
366.51	1214.45
366.72	1271.79
366.93	1263.60
367.14	1277.93
367.35	1290.22
367.56	1288.17
367.77	1284.08
367.98	1265.64
368.18	1257.45
368.39	1310.70
368.60	1273.84
368.81	1288.17
369.02	1288.17
369.23	1273.84
369.44	1216.49
369.65	1331.18
369.86	1263.60
370.07	1239.02
370.28	1222.64
370.49	1271.79
370.70	1312.75
370.91	1228.78
371.12	1257.45
371.33	1257.45
371.54	1263.60
371.75	1243.12
371.96	1257.45
372.17	1218.54
372.38	1275.88
372.59	1286.12
372.80	1206.25
373.01	1191.92
373.22	1284.08
373.43	1267.69
373.64	1253.36
373.85	1263.60
374.06	1282.03
374.26	1236.97
374.47	1271.79
374.68	1263.60
374.89	1263.60
375.10	1273.84
375.31	1267.69
375.52	1265.64
375.73	1204.21
375.94	1239.02
376.15	1298.41
376.36	1327.08
376.57	1279.98
376.78	1253.36
376.99	1218.54
377.20	1220.59
377.40	1300.46
377.61	1306.60
377.82	1257.45
378.03	1335.28
378.24	1312.75
378.45	1312.75
378.66	1245.16
378.87	1331.18
379.08	1322.99
379.29	1286.12
379.50	1341.42
379.71	1275.88
379.91	1310.70
380.12	1263.60
380.33	1318.89
380.54	1245.16
380.75	1206.25
380.96	1310.70
381.17	1292.27
381.38	1245.16
381.59	1208.30
381.80	1230.83
382.00	1353.71
382.21	1226.73
382.42	1261.55
382.63	1243.12
382.84	1234.93
383.05	1224.69
383.26	1269.74
383.47	1251.31
383.68	1376.24
383.88	1325.04
384.09	1200.11
384.30	1271.79
384.51	1267.69
384.72	1243.12
384.93	1247.21
385.14	1294.32
385.35	1210.35
385.55	1300.46
385.76	1273.84
385.97	1265.64
386.18	1255.40
386.39	1243.12
386.60	1265.64
386.81	1306.60
387.02	1230.83
387.22	1245.16
387.43	1265.64
387.64	1273.84
387.85	1325.04
388.06	1288.17
388.27	1300.46
388.48	1296.36
388.68	1294.32
388.89	1251.31
389.10	1304.56
389.31	1294.32
389.52	1214.45
389.73	1257.45
389.93	1249.26
390.14	1251.31
390.35	1259.50
390.56	1220.59
390.77	1314.80
390.98	1251.31
391.18	1236.97
391.39	1257.45
391.60	1243.12
391.81	1273.84
392.02	1273.84
392.23	1322.99
392.43	1269.74
392.64	1273.84
392.85	1294.32
393.06	1284.08
393.27	1255.40
393.47	1275.88
393.68	1271.79
393.89	1247.21
394.10	1290.22
394.31	1275.88
394.52	1296.36
394.72	1310.70
394.93	1304.56
395.14	1261.55
395.35	1282.03
395.56	1187.82
395.76	1255.40
395.97	1214.45
396.18	1224.69
396.39	1298.41
396.60	1304.56
396.80	1267.69
397.01	1368.04
397.22	1241.07
397.43	1355.76
397.64	1210.35
397.84	1318.89
398.05	1284.08
398.26	1247.21
398.47	1263.60
398.67	1273.84
398.88	1316.84
399.09	1241.07
399.30	1222.64
399.51	1279.98
399.71	1286.12
399.92	1193.97
400.13	1232.88
400.34	1228.78
400.54	1263.60
400.75	1226.73
400.96	1261.55
401.17	1206.25
401.37	1279.98
401.58	1253.36
401.79	1284.08
402.00	1284.08
402.21	1255.40
402.41	1218.54
402.62	1282.03
402.83	1189.87
403.04	1245.16
403.24	1349.61
403.45	1247.21
403.66	1282.03
403.87	1245.16
404.07	1263.60
404.28	1302.51
404.49	1232.88
404.70	1286.12
404.90	1282.03
405.11	1267.69
405.32	1290.22
405.52	1224.69
405.73	1298.41
405.94	1294.32
406.15	1230.83
406.35	1234.93
406.56	1253.36
406.77	1308.65
406.98	1277.93
407.18	1212.40
407.39	1271.79
407.60	1355.76
407.80	1310.70
408.01	1331.18
408.22	1210.35
408.43	1312.75
408.63	1241.07
408.84	1286.12
409.05	1302.51
409.25	1247.21
409.46	1322.99
409.67	1275.88
409.88	1351.66
410.08	1239.02
410.29	1263.60
410.50	1222.64
410.70	1275.88
410.91	1337.32
411.12	1288.17
411.32	1269.74
411.53	1271.79
411.74	1290.22
411.95	1255.40
412.15	1282.03
412.36	1290.22
412.57	1263.60
412.77	1249.26
412.98	1251.31
413.19	1259.50
413.39	1279.98
413.60	1214.45
413.81	1341.42
414.01	1200.11
414.22	1282.03
414.43	1267.69
414.63	1204.21
414.84	1275.88
415.05	1216.49
415.25	1251.31
415.46	1320.94
415.67	1259.50
415.87	1241.07
416.08	1263.60
416.29	1288.17
416.49	1322.99
416.70	1206.25
416.91	1230.83
417.11	1200.11
417.32	1224.69
417.53	1288.17
417.73	1245.16
417.94	1310.70
418.15	1228.78
418.35	1239.02
418.56	1265.64
418.77	1214.45
418.97	1222.64
419.18	1251.31
419.38	1249.26
419.59	1298.41
419.80	1314.80
420.00	1263.60
420.21	1247.21
420.42	1294.32
420.62	1312.75
420.83	1282.03
421.04	1232.88
421.24	1251.31
421.45	1241.07
421.65	1249.26
421.86	1304.56
422.07	1263.60
422.27	1298.41
422.48	1275.88
422.69	1288.17
422.89	1193.97
423.10	1265.64
423.30	1300.46
423.51	1288.17
423.72	1245.16
423.92	1273.84
424.13	1259.50
424.33	1292.27
424.54	1298.41
424.75	1279.98
424.95	1269.74
425.16	1314.80
425.36	1341.42
425.57	1241.07
425.78	1267.69
425.98	1306.60
426.19	1253.36
426.39	1175.53
426.60	1298.41
426.81	1329.13
427.01	1245.16
427.22	1279.98
427.42	1308.65
427.63	1204.21
427.83	1257.45
428.04	1259.50
428.25	1310.70
428.45	1208.30
428.66	1267.69
428.86	1269.74
429.07	1224.69
429.28	1257.45
429.48	1288.17
429.69	1275.88
429.89	1175.53
430.10	1357.80
430.30	1257.45
430.51	1245.16
430.71	1230.83
430.92	1208.30
431.13	1282.03
431.33	1290.22
431.54	1251.31
431.74	1288.17
431.95	1302.51
432.15	1220.59
432.36	1333.23
432.56	1279.98
432.77	1306.60
432.98	1171.44
433.18	1282.03
433.39	1366.00
433.59	1232.88
433.80	1275.88
434.00	1292.27
434.21	1392.62
434.41	1171.44
434.62	1261.55
434.82	1222.64
435.03	1241.07
435.23	1204.21
435.44	1232.88
435.64	1245.16
435.85	1273.84
436.06	1183.73
436.26	1208.30
436.47	1253.36
436.67	1253.36
436.88	1290.22
437.08	1265.64
437.29	1290.22
437.49	1273.84
437.70	1193.97
437.90	1247.21
438.11	1284.08
438.31	1282.03
438.52	1277.93
438.72	1239.02
438.93	1255.40
439.13	1306.60
439.34	1261.55
439.54	1279.98
439.75	1249.26
439.95	1316.84
440.16	1243.12
440.36	1265.64
440.57	1322.99
440.77	1177.58
440.98	1275.88
441.18	1243.12
441.39	1273.84
441.59	1359.85
441.80	1249.26
442.00	1228.78
442.21	1318.89
442.41	1257.45
442.62	1312.75
442.82	1296.36
443.02	1208.30
443.23	1286.12
443.43	1226.73
443.64	1325.04
443.84	1167.34
444.05	1269.74
444.25	1267.69
444.46	1232.88
444.66	1267.69
444.87	1288.17
445.07	1257.45
445.28	1222.64
445.48	1245.16
445.69	1189.87
445.89	1322.99
446.09	1314.80
446.30	1232.88
446.50	1277.93
446.71	1234.93
446.91	1282.03
447.12	1290.22
447.32	1230.83
447.53	1320.94
447.73	1306.60
447.93	1224.69
448.14	1351.66
448.34	1267.69
448.55	1306.60
448.75	1251.31
448.96	1249.26
449.16	1271.79
449.36	1331.18
449.57	1249.26
449.77	1300.46
449.98	1263.60
450.18	1298.41
450.39	1363.95
450.59	1265.64
450.79	1253.36
451.00	1257.45
451.20	1277.93
451.41	1249.26
451.61	1255.40
451.81	1249.26
452.02	1232.88
452.22	1353.71
452.43	1267.69
452.63	1339.37
