SpectraSuite Data File
++++++++++++++++++++++++++++++++++++
Date: Sun Apr 03 19:55:34 CEST 2016
User: root
Dark Spectrum Present: No
Reference Spectrum Present: No
Number of Sampled Component Spectra: 1
Spectrometers: USB4C02835
Integration Time (usec): 10000 (USB4C02835)
Spectra Averaged: 1 (USB4C02835)
Boxcar Smoothing: 0 (USB4C02835)
Correct for Electrical Dark: No (USB4C02835)
Strobe/Lamp Enabled: No (USB4C02835)
Correct for Detector Non-linearity: No (USB4C02835)
Correct for Stray Light: No (USB4C02835)
Number of Pixels in Processed Spectrum: 3648
>>>>>Begin Processed Spectral Data<<<<<
177.47	1243.12
177.69	1243.12
177.91	1243.12
178.13	1294.32
178.36	1363.95
178.58	1302.51
178.80	1230.83
179.02	1247.21
179.24	1347.56
179.46	1275.88
179.68	1282.03
179.90	1251.31
180.13	1318.89
180.35	1232.88
180.57	1241.07
180.79	1243.12
181.01	1230.83
181.23	1300.46
181.45	1273.84
181.67	1255.40
181.90	1347.56
182.12	1226.73
182.34	1208.30
182.56	1261.55
182.78	1286.12
183.00	1290.22
183.22	1275.88
183.44	1226.73
183.66	1310.70
183.89	1175.53
184.11	1273.84
184.33	1259.50
184.55	1286.12
184.77	1263.60
184.99	1277.93
185.21	1234.93
185.43	1251.31
185.65	1277.93
185.87	1245.16
186.10	1296.36
186.32	1269.74
186.54	1265.64
186.76	1210.35
186.98	1216.49
187.20	1251.31
187.42	1288.17
187.64	1255.40
187.86	1200.11
188.08	1304.56
188.30	1284.08
188.52	1263.60
188.75	1196.01
188.97	1318.89
189.19	1322.99
189.41	1368.04
189.63	1288.17
189.85	1247.21
190.07	1251.31
190.29	1314.80
190.51	1112.05
190.73	1279.98
190.95	1308.65
191.17	1320.94
191.39	1282.03
191.61	1288.17
191.84	1251.31
192.06	1312.75
192.28	1273.84
192.50	1216.49
192.72	1220.59
192.94	1325.04
193.16	1204.21
193.38	1216.49
193.60	1292.27
193.82	1294.32
194.04	1327.08
194.26	1290.22
194.48	1277.93
194.70	1296.36
194.92	1204.21
195.14	1284.08
195.36	1265.64
195.58	1275.88
195.80	1265.64
196.02	1298.41
196.24	1300.46
196.46	1226.73
196.69	1310.70
196.91	1232.88
197.13	1277.93
197.35	1347.56
197.57	1308.65
197.79	1343.47
198.01	1329.13
198.23	1198.06
198.45	1279.98
198.67	1320.94
198.89	1239.02
199.11	1306.60
199.33	1226.73
199.55	1265.64
199.77	1353.71
199.99	1288.17
200.21	1243.12
200.43	1327.08
200.65	1267.69
200.87	1337.32
201.09	1277.93
201.31	1189.87
201.53	1284.08
201.75	1257.45
201.97	1210.35
202.19	1282.03
202.41	1335.28
202.63	1230.83
202.85	1267.69
203.07	1230.83
203.29	1239.02
203.51	1275.88
203.73	1191.92
203.95	1251.31
204.17	1247.21
204.39	1290.22
204.61	1269.74
204.83	1343.47
205.05	1290.22
205.27	1249.26
205.49	1271.79
205.71	1216.49
205.93	1259.50
206.15	1284.08
206.37	1306.60
206.59	1239.02
206.81	1245.16
207.03	1241.07
207.25	1196.01
207.47	1318.89
207.69	1265.64
207.91	1249.26
208.13	1306.60
208.34	1337.32
208.56	1284.08
208.78	1353.71
209.00	1247.21
209.22	1241.07
209.44	1322.99
209.66	1171.44
209.88	1275.88
210.10	1204.21
210.32	1243.12
210.54	1257.45
210.76	1245.16
210.98	1286.12
211.20	1333.23
211.42	1216.49
211.64	1267.69
211.86	1290.22
212.08	1279.98
212.30	1247.21
212.52	1329.13
212.74	1255.40
212.96	1249.26
213.17	1292.27
213.39	1308.65
213.61	1294.32
213.83	1310.70
214.05	1226.73
214.27	1226.73
214.49	1292.27
214.71	1224.69
214.93	1251.31
215.15	1239.02
215.37	1232.88
215.59	1239.02
215.81	1259.50
216.03	1290.22
216.24	1304.56
216.46	1325.04
216.68	1249.26
216.90	1286.12
217.12	1306.60
217.34	1251.31
217.56	1282.03
217.78	1335.28
218.00	1222.64
218.22	1292.27
218.44	1265.64
218.66	1247.21
218.87	1253.36
219.09	1329.13
219.31	1325.04
219.53	1234.93
219.75	1263.60
219.97	1257.45
220.19	1273.84
220.41	1322.99
220.63	1261.55
220.85	1290.22
221.06	1224.69
221.28	1271.79
221.50	1282.03
221.72	1306.60
221.94	1331.18
222.16	1261.55
222.38	1261.55
222.60	1284.08
222.82	1206.25
223.03	1251.31
223.25	1296.36
223.47	1302.51
223.69	1353.71
223.91	1255.40
224.13	1208.30
224.35	1179.63
224.57	1243.12
224.78	1265.64
225.00	1296.36
225.22	1314.80
225.44	1239.02
225.66	1226.73
225.88	1230.83
226.10	1243.12
226.32	1267.69
226.53	1290.22
226.75	1249.26
226.97	1269.74
227.19	1331.18
227.41	1329.13
227.63	1255.40
227.85	1251.31
228.06	1216.49
228.28	1267.69
228.50	1370.09
228.72	1273.84
228.94	1245.16
229.16	1230.83
229.37	1312.75
229.59	1310.70
229.81	1245.16
230.03	1204.21
230.25	1169.39
230.47	1269.74
230.69	1298.41
230.90	1312.75
231.12	1249.26
231.34	1298.41
231.56	1263.60
231.78	1279.98
232.00	1296.36
232.21	1206.25
232.43	1222.64
232.65	1214.45
232.87	1284.08
233.09	1302.51
233.30	1247.21
233.52	1251.31
233.74	1277.93
233.96	1294.32
234.18	1275.88
234.40	1314.80
234.61	1320.94
234.83	1261.55
235.05	1288.17
235.27	1308.65
235.49	1273.84
235.70	1288.17
235.92	1241.07
236.14	1288.17
236.36	1349.61
236.58	1259.50
236.79	1275.88
237.01	1292.27
237.23	1249.26
237.45	1239.02
237.67	1273.84
237.88	1218.54
238.10	1304.56
238.32	1245.16
238.54	1232.88
238.76	1269.74
238.97	1224.69
239.19	1300.46
239.41	1236.97
239.63	1288.17
239.85	1210.35
240.06	1193.97
240.28	1325.04
240.50	1298.41
240.72	1318.89
240.93	1341.42
241.15	1277.93
241.37	1282.03
241.59	1347.56
241.81	1282.03
242.02	1253.36
242.24	1304.56
242.46	1273.84
242.68	1267.69
242.89	1304.56
243.11	1263.60
243.33	1228.78
243.55	1290.22
243.76	1259.50
243.98	1255.40
244.20	1204.21
244.42	1284.08
244.64	1302.51
244.85	1230.83
245.07	1314.80
245.29	1306.60
245.51	1220.59
245.72	1243.12
245.94	1322.99
246.16	1261.55
246.38	1230.83
246.59	1302.51
246.81	1230.83
247.03	1255.40
247.24	1265.64
247.46	1304.56
247.68	1202.16
247.90	1241.07
248.11	1314.80
248.33	1230.83
248.55	1273.84
248.77	1322.99
248.98	1277.93
249.20	1279.98
249.42	1239.02
249.64	1267.69
249.85	1308.65
250.07	1306.60
250.29	1357.80
250.50	1212.40
250.72	1243.12
250.94	1290.22
251.16	1277.93
251.37	1236.97
251.59	1271.79
251.81	1322.99
252.02	1249.26
252.24	1314.80
252.46	1255.40
252.68	1214.45
252.89	1220.59
253.11	1191.92
253.33	1290.22
253.54	1210.35
253.76	1228.78
253.98	1253.36
254.20	1271.79
254.41	1267.69
254.63	1230.83
254.85	1247.21
255.06	1210.35
255.28	1239.02
255.50	1261.55
255.71	1257.45
255.93	1310.70
256.15	1253.36
256.36	1306.60
256.58	1316.84
256.80	1277.93
257.02	1322.99
257.23	1222.64
257.45	1271.79
257.67	1251.31
257.88	1212.40
258.10	1241.07
258.32	1279.98
258.53	1290.22
258.75	1314.80
258.97	1279.98
259.18	1329.13
259.40	1224.69
259.62	1261.55
259.83	1284.08
260.05	1279.98
260.27	1222.64
260.48	1196.01
260.70	1212.40
260.92	1236.97
261.13	1327.08
261.35	1271.79
261.57	1320.94
261.78	1241.07
262.00	1306.60
262.22	1261.55
262.43	1257.45
262.65	1294.32
262.86	1241.07
263.08	1271.79
263.30	1253.36
263.51	1337.32
263.73	1271.79
263.95	1273.84
264.16	1216.49
264.38	1302.51
264.60	1300.46
264.81	1286.12
265.03	1259.50
265.25	1183.73
265.46	1271.79
265.68	1286.12
265.89	1232.88
266.11	1294.32
266.33	1247.21
266.54	1320.94
266.76	1259.50
266.98	1269.74
267.19	1296.36
267.41	1269.74
267.62	1298.41
267.84	1224.69
268.06	1288.17
268.27	1253.36
268.49	1273.84
268.70	1239.02
268.92	1247.21
269.14	1288.17
269.35	1327.08
269.57	1376.24
269.79	1316.84
270.00	1247.21
270.22	1200.11
270.43	1245.16
270.65	1181.68
270.87	1165.29
271.08	1320.94
271.30	1253.36
271.51	1228.78
271.73	1220.59
271.95	1218.54
272.16	1224.69
272.38	1181.68
272.59	1228.78
272.81	1279.98
273.02	1296.36
273.24	1269.74
273.46	1263.60
273.67	1263.60
273.89	1304.56
274.10	1247.21
274.32	1310.70
274.54	1265.64
274.75	1304.56
274.97	1288.17
275.18	1236.97
275.40	1290.22
275.61	1265.64
275.83	1228.78
276.05	1288.17
276.26	1265.64
276.48	1241.07
276.69	1345.52
276.91	1271.79
277.12	1298.41
277.34	1261.55
277.55	1241.07
277.77	1306.60
277.99	1279.98
278.20	1257.45
278.42	1284.08
278.63	1318.89
278.85	1284.08
279.06	1265.64
279.28	1304.56
279.49	1253.36
279.71	1255.40
279.93	1257.45
280.14	1265.64
280.36	1284.08
280.57	1353.71
280.79	1296.36
281.00	1255.40
281.22	1331.18
281.43	1279.98
281.65	1239.02
281.86	1263.60
282.08	1239.02
282.29	1241.07
282.51	1261.55
282.73	1290.22
282.94	1310.70
283.16	1198.06
283.37	1298.41
283.59	1265.64
283.80	1261.55
284.02	1255.40
284.23	1253.36
284.45	1269.74
284.66	1253.36
284.88	1245.16
285.09	1261.55
285.31	1259.50
285.52	1247.21
285.74	1310.70
285.95	1277.93
286.17	1279.98
286.38	1329.13
286.60	1243.12
286.81	1257.45
287.03	1236.97
287.24	1273.84
287.46	1275.88
287.67	1277.93
287.89	1279.98
288.10	1263.60
288.32	1320.94
288.53	1234.93
288.75	1265.64
288.96	1220.59
289.18	1296.36
289.39	1316.84
289.61	1325.04
289.82	1304.56
290.04	1296.36
290.25	1236.97
290.47	1347.56
290.68	1249.26
290.90	1241.07
291.11	1210.35
291.33	1236.97
291.54	1320.94
291.76	1284.08
291.97	1314.80
292.18	1320.94
292.40	1273.84
292.61	1241.07
292.83	1304.56
293.04	1329.13
293.26	1243.12
293.47	1253.36
293.69	1288.17
293.90	1255.40
294.12	1232.88
294.33	1234.93
294.55	1214.45
294.76	1284.08
294.97	1216.49
295.19	1290.22
295.40	1222.64
295.62	1275.88
295.83	1269.74
296.05	1230.83
296.26	1275.88
296.48	1261.55
296.69	1322.99
296.90	1308.65
297.12	1273.84
297.33	1282.03
297.55	1271.79
297.76	1241.07
297.98	1284.08
298.19	1269.74
298.41	1320.94
298.62	1228.78
298.83	1259.50
299.05	1279.98
299.26	1300.46
299.48	1288.17
299.69	1226.73
299.90	1232.88
300.12	1282.03
300.33	1257.45
300.55	1378.28
300.76	1290.22
300.98	1290.22
301.19	1222.64
301.40	1261.55
301.62	1232.88
301.83	1265.64
302.05	1208.30
302.26	1286.12
302.47	1275.88
302.69	1261.55
302.90	1279.98
303.12	1247.21
303.33	1251.31
303.54	1294.32
303.76	1236.97
303.97	1214.45
304.19	1261.55
304.40	1257.45
304.61	1245.16
304.83	1277.93
305.04	1271.79
305.26	1216.49
305.47	1277.93
305.68	1314.80
305.90	1279.98
306.11	1279.98
306.33	1269.74
306.54	1279.98
306.75	1290.22
306.97	1277.93
307.18	1302.51
307.39	1200.11
307.61	1224.69
307.82	1269.74
308.04	1208.30
308.25	1228.78
308.46	1232.88
308.68	1263.60
308.89	1265.64
309.10	1294.32
309.32	1316.84
309.53	1273.84
309.74	1218.54
309.96	1286.12
310.17	1302.51
310.39	1239.02
310.60	1312.75
310.81	1296.36
311.03	1202.16
311.24	1259.50
311.45	1284.08
311.67	1236.97
311.88	1245.16
312.09	1294.32
312.31	1271.79
312.52	1220.59
312.73	1300.46
312.95	1255.40
313.16	1193.97
313.37	1273.84
313.59	1304.56
313.80	1232.88
314.01	1322.99
314.23	1249.26
314.44	1253.36
314.65	1269.74
314.87	1259.50
315.08	1320.94
315.29	1314.80
315.51	1298.41
315.72	1247.21
315.93	1322.99
316.15	1247.21
316.36	1216.49
316.57	1277.93
316.79	1202.16
317.00	1253.36
317.21	1224.69
317.43	1267.69
317.64	1247.21
317.85	1361.90
318.07	1191.92
318.28	1210.35
318.49	1257.45
318.70	1196.01
318.92	1343.47
319.13	1347.56
319.34	1275.88
319.56	1267.69
319.77	1253.36
319.98	1261.55
320.20	1255.40
320.41	1273.84
320.62	1253.36
320.83	1304.56
321.05	1337.32
321.26	1351.66
321.47	1290.22
321.69	1292.27
321.90	1277.93
322.11	1220.59
322.32	1228.78
322.54	1339.37
322.75	1257.45
322.96	1347.56
323.18	1261.55
323.39	1259.50
323.60	1234.93
323.81	1294.32
324.03	1232.88
324.24	1341.42
324.45	1267.69
324.66	1253.36
324.88	1243.12
325.09	1253.36
325.30	1247.21
325.52	1253.36
325.73	1243.12
325.94	1275.88
326.15	1290.22
326.37	1183.73
326.58	1271.79
326.79	1282.03
327.00	1253.36
327.22	1261.55
327.43	1259.50
327.64	1288.17
327.85	1263.60
328.07	1388.52
328.28	1269.74
328.49	1271.79
328.70	1236.97
328.92	1239.02
329.13	1220.59
329.34	1284.08
329.55	1296.36
329.76	1239.02
329.98	1245.16
330.19	1273.84
330.40	1359.85
330.61	1306.60
330.83	1177.58
331.04	1318.89
331.25	1378.28
331.46	1232.88
331.68	1269.74
331.89	1247.21
332.10	1208.30
332.31	1284.08
332.52	1249.26
332.74	1314.80
332.95	1267.69
333.16	1241.07
333.37	1351.66
333.58	1296.36
333.80	1333.23
334.01	1198.06
334.22	1308.65
334.43	1304.56
334.64	1214.45
334.86	1277.93
335.07	1282.03
335.28	1304.56
335.49	1279.98
335.70	1191.92
335.92	1249.26
336.13	1218.54
336.34	1214.45
336.55	1298.41
336.76	1239.02
336.98	1214.45
337.19	1259.50
337.40	1322.99
337.61	1298.41
337.82	1269.74
338.04	1222.64
338.25	1296.36
338.46	1300.46
338.67	1273.84
338.88	1277.93
339.09	1329.13
339.31	1271.79
339.52	1302.51
339.73	1216.49
339.94	1198.06
340.15	1253.36
340.36	1255.40
340.58	1232.88
340.79	1249.26
341.00	1267.69
341.21	1255.40
341.42	1261.55
341.63	1294.32
341.85	1232.88
342.06	1263.60
342.27	1351.66
342.48	1255.40
342.69	1236.97
342.90	1267.69
343.12	1249.26
343.33	1253.36
343.54	1288.17
343.75	1247.21
343.96	1331.18
344.17	1224.69
344.38	1269.74
344.60	1241.07
344.81	1249.26
345.02	1316.84
345.23	1306.60
345.44	1343.47
345.65	1269.74
345.86	1339.37
346.07	1267.69
346.29	1241.07
346.50	1208.30
346.71	1220.59
346.92	1247.21
347.13	1294.32
347.34	1322.99
347.55	1337.32
347.76	1267.69
347.98	1269.74
348.19	1220.59
348.40	1286.12
348.61	1290.22
348.82	1284.08
349.03	1259.50
349.24	1232.88
349.45	1259.50
349.66	1247.21
349.88	1224.69
350.09	1345.52
350.30	1265.64
350.51	1273.84
350.72	1226.73
350.93	1261.55
351.14	1259.50
351.35	1255.40
351.56	1284.08
351.77	1253.36
351.99	1214.45
352.20	1300.46
352.41	1249.26
352.62	1261.55
352.83	1263.60
353.04	1243.12
353.25	1243.12
353.46	1263.60
353.67	1236.97
353.88	1212.40
354.09	1296.36
354.30	1259.50
354.52	1189.87
354.73	1302.51
354.94	1318.89
355.15	1277.93
355.36	1277.93
355.57	1322.99
355.78	1312.75
355.99	1298.41
356.20	1249.26
356.41	1220.59
356.62	1249.26
356.83	1273.84
357.04	1251.31
357.25	1236.97
357.46	1331.18
357.68	1259.50
357.89	1308.65
358.10	1290.22
358.31	1245.16
358.52	1236.97
358.73	1249.26
358.94	1320.94
359.15	1265.64
359.36	1347.56
359.57	1314.80
359.78	1271.79
359.99	1310.70
360.20	1228.78
360.41	1263.60
360.62	1277.93
360.83	1292.27
361.04	1255.40
361.25	1279.98
361.46	1269.74
361.67	1290.22
361.88	1296.36
362.09	1261.55
362.30	1226.73
362.51	1222.64
362.72	1271.79
362.93	1298.41
363.14	1196.01
363.35	1214.45
363.56	1251.31
363.78	1294.32
363.99	1279.98
364.20	1294.32
364.41	1230.83
364.62	1296.36
364.83	1277.93
365.04	1263.60
365.25	1253.36
365.46	1314.80
365.67	1202.16
365.88	1312.75
366.09	1273.84
366.30	1306.60
366.51	1222.64
366.72	1327.08
366.93	1204.21
367.14	1243.12
367.35	1306.60
367.56	1243.12
367.77	1337.32
367.98	1224.69
368.18	1103.86
368.39	1236.97
368.60	1273.84
368.81	1212.40
369.02	1277.93
369.23	1269.74
369.44	1241.07
369.65	1374.19
369.86	1239.02
370.07	1220.59
370.28	1241.07
370.49	1277.93
370.70	1294.32
370.91	1279.98
371.12	1243.12
371.33	1355.76
371.54	1230.83
371.75	1257.45
371.96	1236.97
372.17	1290.22
372.38	1294.32
372.59	1257.45
372.80	1251.31
373.01	1288.17
373.22	1286.12
373.43	1259.50
373.64	1279.98
373.85	1222.64
374.06	1284.08
374.26	1263.60
374.47	1327.08
374.68	1257.45
374.89	1230.83
375.10	1251.31
375.31	1298.41
375.52	1214.45
375.73	1239.02
375.94	1322.99
376.15	1282.03
376.36	1267.69
376.57	1271.79
376.78	1257.45
376.99	1325.04
377.20	1220.59
377.40	1249.26
377.61	1234.93
377.82	1304.56
378.03	1241.07
378.24	1267.69
378.45	1286.12
378.66	1337.32
378.87	1277.93
379.08	1316.84
379.29	1241.07
379.50	1245.16
379.71	1300.46
379.91	1296.36
380.12	1316.84
380.33	1271.79
380.54	1306.60
380.75	1300.46
380.96	1236.97
381.17	1263.60
381.38	1300.46
381.59	1263.60
381.80	1271.79
382.00	1282.03
382.21	1204.21
382.42	1191.92
382.63	1208.30
382.84	1304.56
383.05	1142.77
383.26	1245.16
383.47	1251.31
383.68	1288.17
383.88	1249.26
384.09	1245.16
384.30	1261.55
384.51	1224.69
384.72	1310.70
384.93	1236.97
385.14	1304.56
385.35	1271.79
385.55	1251.31
385.76	1265.64
385.97	1306.60
386.18	1298.41
386.39	1296.36
386.60	1292.27
386.81	1257.45
387.02	1339.37
387.22	1286.12
387.43	1271.79
387.64	1249.26
387.85	1353.71
388.06	1292.27
388.27	1275.88
388.48	1247.21
388.68	1327.08
388.89	1249.26
389.10	1275.88
389.31	1292.27
389.52	1310.70
389.73	1273.84
389.93	1296.36
390.14	1259.50
390.35	1267.69
390.56	1265.64
390.77	1265.64
390.98	1288.17
391.18	1196.01
391.39	1288.17
391.60	1263.60
391.81	1259.50
392.02	1181.68
392.23	1226.73
392.43	1226.73
392.64	1245.16
392.85	1271.79
393.06	1239.02
393.27	1257.45
393.47	1253.36
393.68	1292.27
393.89	1191.92
394.10	1241.07
394.31	1269.74
394.52	1214.45
394.72	1277.93
394.93	1300.46
395.14	1296.36
395.35	1269.74
395.56	1236.97
395.76	1279.98
395.97	1275.88
396.18	1263.60
396.39	1265.64
396.60	1290.22
396.80	1310.70
397.01	1243.12
397.22	1249.26
397.43	1288.17
397.64	1296.36
397.84	1286.12
398.05	1245.16
398.26	1282.03
398.47	1294.32
398.67	1251.31
398.88	1304.56
399.09	1327.08
399.30	1257.45
399.51	1222.64
399.71	1234.93
399.92	1273.84
400.13	1261.55
400.34	1271.79
400.54	1275.88
400.75	1257.45
400.96	1251.31
401.17	1298.41
401.37	1183.73
401.58	1308.65
401.79	1273.84
402.00	1241.07
402.21	1320.94
402.41	1284.08
402.62	1294.32
402.83	1343.47
403.04	1204.21
403.24	1275.88
403.45	1290.22
403.66	1296.36
403.87	1298.41
404.07	1263.60
404.28	1243.12
404.49	1329.13
404.70	1271.79
404.90	1210.35
405.11	1300.46
405.32	1306.60
405.52	1292.27
405.73	1212.40
405.94	1271.79
406.15	1314.80
406.35	1271.79
406.56	1232.88
406.77	1331.18
406.98	1304.56
407.18	1292.27
407.39	1261.55
407.60	1245.16
407.80	1302.51
408.01	1269.74
408.22	1241.07
408.43	1253.36
408.63	1300.46
408.84	1294.32
409.05	1269.74
409.25	1271.79
409.46	1212.40
409.67	1245.16
409.88	1306.60
410.08	1198.06
410.29	1241.07
410.50	1208.30
410.70	1300.46
410.91	1232.88
411.12	1218.54
411.32	1269.74
411.53	1312.75
411.74	1257.45
411.95	1298.41
412.15	1232.88
412.36	1294.32
412.57	1249.26
412.77	1331.18
412.98	1269.74
413.19	1257.45
413.39	1263.60
413.60	1249.26
413.81	1243.12
414.01	1292.27
414.22	1304.56
414.43	1290.22
414.63	1247.21
414.84	1208.30
415.05	1279.98
415.25	1193.97
415.46	1312.75
415.67	1236.97
415.87	1239.02
416.08	1249.26
416.29	1261.55
416.49	1288.17
416.70	1279.98
416.91	1279.98
417.11	1333.23
417.32	1214.45
417.53	1243.12
417.73	1353.71
417.94	1236.97
418.15	1257.45
418.35	1271.79
418.56	1265.64
418.77	1279.98
418.97	1224.69
419.18	1222.64
419.38	1204.21
419.59	1273.84
419.80	1300.46
420.00	1322.99
420.21	1273.84
420.42	1382.38
420.62	1261.55
420.83	1267.69
421.04	1146.86
421.24	1265.64
421.45	1198.06
421.65	1245.16
421.86	1175.53
422.07	1343.47
422.27	1298.41
422.48	1310.70
422.69	1282.03
422.89	1288.17
423.10	1277.93
423.30	1249.26
423.51	1366.00
423.72	1271.79
423.92	1232.88
424.13	1247.21
424.33	1212.40
424.54	1239.02
424.75	1335.28
424.95	1282.03
425.16	1339.37
425.36	1163.25
425.57	1232.88
425.78	1226.73
425.98	1255.40
426.19	1300.46
426.39	1355.76
426.60	1308.65
426.81	1296.36
427.01	1255.40
427.22	1296.36
427.42	1243.12
427.63	1181.68
427.83	1265.64
428.04	1232.88
428.25	1304.56
428.45	1318.89
428.66	1298.41
428.86	1253.36
429.07	1306.60
429.28	1271.79
429.48	1253.36
429.69	1284.08
429.89	1286.12
430.10	1292.27
430.30	1265.64
430.51	1230.83
430.71	1208.30
430.92	1322.99
431.13	1232.88
431.33	1214.45
431.54	1337.32
431.74	1236.97
431.95	1218.54
432.15	1269.74
432.36	1288.17
432.56	1333.23
432.77	1288.17
432.98	1269.74
433.18	1294.32
433.39	1275.88
433.59	1204.21
433.80	1226.73
434.00	1320.94
434.21	1187.82
434.41	1273.84
434.62	1218.54
434.82	1263.60
435.03	1241.07
435.23	1279.98
435.44	1284.08
435.64	1290.22
435.85	1245.16
436.06	1251.31
436.26	1304.56
436.47	1296.36
436.67	1206.25
436.88	1204.21
437.08	1228.78
437.29	1322.99
437.49	1232.88
437.70	1277.93
437.90	1222.64
438.11	1296.36
438.31	1284.08
438.52	1308.65
438.72	1282.03
438.93	1279.98
439.13	1218.54
439.34	1300.46
439.54	1318.89
439.75	1320.94
439.95	1304.56
440.16	1269.74
440.36	1273.84
440.57	1226.73
440.77	1263.60
440.98	1282.03
441.18	1239.02
441.39	1288.17
441.59	1216.49
441.80	1253.36
442.00	1241.07
442.21	1298.41
442.41	1206.25
442.62	1302.51
442.82	1249.26
443.02	1341.42
443.23	1279.98
443.43	1359.85
443.64	1290.22
443.84	1245.16
444.05	1241.07
444.25	1269.74
444.46	1294.32
444.66	1296.36
444.87	1286.12
445.07	1304.56
445.28	1249.26
445.48	1320.94
445.69	1236.97
445.89	1308.65
446.09	1327.08
446.30	1320.94
446.50	1310.70
446.71	1255.40
446.91	1312.75
447.12	1230.83
447.32	1241.07
447.53	1308.65
447.73	1210.35
447.93	1300.46
448.14	1212.40
448.34	1267.69
448.55	1273.84
448.75	1284.08
448.96	1255.40
449.16	1318.89
449.36	1296.36
449.57	1359.85
449.77	1279.98
449.98	1249.26
450.18	1284.08
450.39	1286.12
450.59	1357.80
450.79	1265.64
451.00	1279.98
451.20	1298.41
451.41	1265.64
451.61	1298.41
451.81	1251.31
452.02	1271.79
452.22	1275.88
452.43	1230.83
452.63	1292.27
