SpectraSuite Data File
++++++++++++++++++++++++++++++++++++
Date: Sun Apr 03 19:55:14 CEST 2016
User: root
Dark Spectrum Present: No
Reference Spectrum Present: No
Number of Sampled Component Spectra: 1
Spectrometers: USB4C02835
Integration Time (usec): 10000 (USB4C02835)
Spectra Averaged: 1 (USB4C02835)
Boxcar Smoothing: 0 (USB4C02835)
Correct for Electrical Dark: No (USB4C02835)
Strobe/Lamp Enabled: No (USB4C02835)
Correct for Detector Non-linearity: No (USB4C02835)
Correct for Stray Light: No (USB4C02835)
Number of Pixels in Processed Spectrum: 3648
>>>>>Begin Processed Spectral Data<<<<<
177.47	1245.16
177.69	1245.16
177.91	1245.16
178.13	1198.06
178.36	1245.16
178.58	1292.27
178.80	1282.03
179.02	1310.70
179.24	1263.60
179.46	1279.98
179.68	1261.55
179.90	1222.64
180.13	1239.02
180.35	1253.36
180.57	1294.32
180.79	1279.98
181.01	1255.40
181.23	1206.25
181.45	1253.36
181.67	1220.59
181.90	1226.73
182.12	1148.91
182.34	1294.32
182.56	1216.49
182.78	1282.03
183.00	1277.93
183.22	1255.40
183.44	1189.87
183.66	1300.46
183.89	1286.12
184.11	1288.17
184.33	1267.69
184.55	1234.93
184.77	1230.83
184.99	1261.55
185.21	1265.64
185.43	1251.31
185.65	1314.80
185.87	1279.98
186.10	1239.02
186.32	1243.12
186.54	1249.26
186.76	1216.49
186.98	1245.16
187.20	1316.84
187.42	1265.64
187.64	1265.64
187.86	1245.16
188.08	1220.59
188.30	1302.51
188.52	1247.21
188.75	1253.36
188.97	1249.26
189.19	1265.64
189.41	1376.24
189.63	1347.56
189.85	1304.56
190.07	1288.17
190.29	1294.32
190.51	1318.89
190.73	1286.12
190.95	1286.12
191.17	1259.50
191.39	1226.73
191.61	1193.97
191.84	1335.28
192.06	1265.64
192.28	1210.35
192.50	1265.64
192.72	1294.32
192.94	1279.98
193.16	1236.97
193.38	1329.13
193.60	1333.23
193.82	1310.70
194.04	1316.84
194.26	1243.12
194.48	1290.22
194.70	1304.56
194.92	1273.84
195.14	1271.79
195.36	1269.74
195.58	1322.99
195.80	1312.75
196.02	1308.65
196.24	1273.84
196.46	1212.40
196.69	1228.78
196.91	1271.79
197.13	1204.21
197.35	1277.93
197.57	1255.40
197.79	1284.08
198.01	1284.08
198.23	1279.98
198.45	1308.65
198.67	1234.93
198.89	1239.02
199.11	1265.64
199.33	1275.88
199.55	1294.32
199.77	1314.80
199.99	1277.93
200.21	1318.89
200.43	1232.88
200.65	1265.64
200.87	1286.12
201.09	1290.22
201.31	1212.40
201.53	1189.87
201.75	1286.12
201.97	1296.36
202.19	1273.84
202.41	1185.77
202.63	1327.08
202.85	1263.60
203.07	1347.56
203.29	1275.88
203.51	1259.50
203.73	1300.46
203.95	1271.79
204.17	1236.97
204.39	1249.26
204.61	1302.51
204.83	1232.88
205.05	1202.16
205.27	1296.36
205.49	1269.74
205.71	1292.27
205.93	1320.94
206.15	1288.17
206.37	1265.64
206.59	1277.93
206.81	1284.08
207.03	1196.01
207.25	1150.96
207.47	1261.55
207.69	1253.36
207.91	1302.51
208.13	1253.36
208.34	1284.08
208.56	1241.07
208.78	1282.03
209.00	1226.73
209.22	1294.32
209.44	1271.79
209.66	1253.36
209.88	1245.16
210.10	1234.93
210.32	1251.31
210.54	1312.75
210.76	1210.35
210.98	1314.80
211.20	1312.75
211.42	1257.45
211.64	1243.12
211.86	1277.93
212.08	1288.17
212.30	1279.98
212.52	1271.79
212.74	1210.35
212.96	1218.54
213.17	1249.26
213.39	1275.88
213.61	1290.22
213.83	1224.69
214.05	1277.93
214.27	1353.71
214.49	1304.56
214.71	1228.78
214.93	1298.41
215.15	1247.21
215.37	1239.02
215.59	1265.64
215.81	1177.58
216.03	1314.80
216.24	1261.55
216.46	1259.50
216.68	1218.54
216.90	1228.78
217.12	1271.79
217.34	1282.03
217.56	1300.46
217.78	1282.03
218.00	1228.78
218.22	1259.50
218.44	1331.18
218.66	1234.93
218.87	1282.03
219.09	1298.41
219.31	1214.45
219.53	1275.88
219.75	1286.12
219.97	1331.18
220.19	1279.98
220.41	1251.31
220.63	1275.88
220.85	1247.21
221.06	1216.49
221.28	1325.04
221.50	1279.98
221.72	1275.88
221.94	1200.11
222.16	1247.21
222.38	1306.60
222.60	1228.78
222.82	1220.59
223.03	1249.26
223.25	1210.35
223.47	1298.41
223.69	1228.78
223.91	1261.55
224.13	1267.69
224.35	1271.79
224.57	1245.16
224.78	1220.59
225.00	1335.28
225.22	1241.07
225.44	1339.37
225.66	1341.42
225.88	1290.22
226.10	1284.08
226.32	1241.07
226.53	1259.50
226.75	1220.59
226.97	1257.45
227.19	1241.07
227.41	1335.28
227.63	1263.60
227.85	1269.74
228.06	1263.60
228.28	1302.51
228.50	1251.31
228.72	1271.79
228.94	1265.64
229.16	1243.12
229.37	1212.40
229.59	1325.04
229.81	1241.07
230.03	1220.59
230.25	1269.74
230.47	1286.12
230.69	1224.69
230.90	1208.30
231.12	1277.93
231.34	1273.84
231.56	1292.27
231.78	1271.79
232.00	1282.03
232.21	1228.78
232.43	1247.21
232.65	1286.12
232.87	1226.73
233.09	1243.12
233.30	1273.84
233.52	1196.01
233.74	1282.03
233.96	1279.98
234.18	1253.36
234.40	1265.64
234.61	1239.02
234.83	1263.60
235.05	1245.16
235.27	1212.40
235.49	1263.60
235.70	1327.08
235.92	1263.60
236.14	1200.11
236.36	1312.75
236.58	1185.77
236.79	1288.17
237.01	1245.16
237.23	1271.79
237.45	1292.27
237.67	1263.60
237.88	1234.93
238.10	1288.17
238.32	1361.90
238.54	1214.45
238.76	1179.63
238.97	1239.02
239.19	1265.64
239.41	1349.61
239.63	1279.98
239.85	1200.11
240.06	1261.55
240.28	1204.21
240.50	1300.46
240.72	1183.73
240.93	1228.78
241.15	1265.64
241.37	1212.40
241.59	1253.36
241.81	1189.87
242.02	1255.40
242.24	1241.07
242.46	1286.12
242.68	1292.27
242.89	1292.27
243.11	1279.98
243.33	1333.23
243.55	1249.26
243.76	1243.12
243.98	1269.74
244.20	1239.02
244.42	1269.74
244.64	1310.70
244.85	1181.68
245.07	1222.64
245.29	1239.02
245.51	1267.69
245.72	1222.64
245.94	1320.94
246.16	1226.73
246.38	1191.92
246.59	1298.41
246.81	1327.08
247.03	1279.98
247.24	1271.79
247.46	1331.18
247.68	1298.41
247.90	1169.39
248.11	1306.60
248.33	1247.21
248.55	1296.36
248.77	1255.40
248.98	1263.60
249.20	1220.59
249.42	1279.98
249.64	1216.49
249.85	1282.03
250.07	1187.82
250.29	1263.60
250.50	1261.55
250.72	1134.57
250.94	1302.51
251.16	1175.53
251.37	1267.69
251.59	1251.31
251.81	1224.69
252.02	1329.13
252.24	1322.99
252.46	1228.78
252.68	1232.88
252.89	1333.23
253.11	1275.88
253.33	1290.22
253.54	1245.16
253.76	1261.55
253.98	1263.60
254.20	1288.17
254.41	1275.88
254.63	1292.27
254.85	1191.92
255.06	1284.08
255.28	1222.64
255.50	1265.64
255.71	1243.12
255.93	1222.64
256.15	1212.40
256.36	1251.31
256.58	1290.22
256.80	1282.03
257.02	1265.64
257.23	1257.45
257.45	1216.49
257.67	1269.74
257.88	1167.34
258.10	1241.07
258.32	1214.45
258.53	1273.84
258.75	1241.07
258.97	1216.49
259.18	1247.21
259.40	1267.69
259.62	1236.97
259.83	1228.78
260.05	1345.52
260.27	1294.32
260.48	1292.27
260.70	1265.64
260.92	1296.36
261.13	1339.37
261.35	1290.22
261.57	1220.59
261.78	1251.31
262.00	1247.21
262.22	1294.32
262.43	1226.73
262.65	1302.51
262.86	1267.69
263.08	1251.31
263.30	1253.36
263.51	1298.41
263.73	1304.56
263.95	1245.16
264.16	1208.30
264.38	1224.69
264.60	1306.60
264.81	1273.84
265.03	1292.27
265.25	1312.75
265.46	1337.32
265.68	1259.50
265.89	1261.55
266.11	1204.21
266.33	1249.26
266.54	1230.83
266.76	1261.55
266.98	1304.56
267.19	1349.61
267.41	1349.61
267.62	1269.74
267.84	1279.98
268.06	1261.55
268.27	1288.17
268.49	1275.88
268.70	1290.22
268.92	1284.08
269.14	1265.64
269.35	1339.37
269.57	1193.97
269.79	1275.88
270.00	1257.45
270.22	1294.32
270.43	1296.36
270.65	1236.97
270.87	1222.64
271.08	1286.12
271.30	1249.26
271.51	1251.31
271.73	1277.93
271.95	1304.56
272.16	1271.79
272.38	1325.04
272.59	1241.07
272.81	1208.30
273.02	1228.78
273.24	1269.74
273.46	1284.08
273.67	1263.60
273.89	1314.80
274.10	1279.98
274.32	1304.56
274.54	1306.60
274.75	1333.23
274.97	1275.88
275.18	1251.31
275.40	1345.52
275.61	1255.40
275.83	1312.75
276.05	1306.60
276.26	1241.07
276.48	1320.94
276.69	1296.36
276.91	1241.07
277.12	1196.01
277.34	1241.07
277.55	1259.50
277.77	1255.40
277.99	1265.64
278.20	1273.84
278.42	1257.45
278.63	1296.36
278.85	1261.55
279.06	1275.88
279.28	1296.36
279.49	1228.78
279.71	1196.01
279.93	1196.01
280.14	1298.41
280.36	1249.26
280.57	1263.60
280.79	1292.27
281.00	1222.64
281.22	1298.41
281.43	1335.28
281.65	1300.46
281.86	1286.12
282.08	1255.40
282.29	1271.79
282.51	1290.22
282.73	1282.03
282.94	1259.50
283.16	1269.74
283.37	1259.50
283.59	1220.59
283.80	1265.64
284.02	1214.45
284.23	1210.35
284.45	1257.45
284.66	1265.64
284.88	1191.92
285.09	1234.93
285.31	1247.21
285.52	1253.36
285.74	1284.08
285.95	1257.45
286.17	1284.08
286.38	1271.79
286.60	1230.83
286.81	1208.30
287.03	1218.54
287.24	1282.03
287.46	1298.41
287.67	1253.36
287.89	1216.49
288.10	1284.08
288.32	1298.41
288.53	1249.26
288.75	1241.07
288.96	1275.88
289.18	1265.64
289.39	1243.12
289.61	1220.59
289.82	1204.21
290.04	1290.22
290.25	1331.18
290.47	1249.26
290.68	1271.79
290.90	1269.74
291.11	1308.65
291.33	1284.08
291.54	1284.08
291.76	1329.13
291.97	1290.22
292.18	1206.25
292.40	1265.64
292.61	1181.68
292.83	1316.84
293.04	1232.88
293.26	1279.98
293.47	1296.36
293.69	1220.59
293.90	1335.28
294.12	1263.60
294.33	1273.84
294.55	1279.98
294.76	1296.36
294.97	1329.13
295.19	1241.07
295.40	1353.71
295.62	1361.90
295.83	1257.45
296.05	1320.94
296.26	1302.51
296.48	1302.51
296.69	1279.98
296.90	1255.40
297.12	1257.45
297.33	1249.26
297.55	1234.93
297.76	1318.89
297.98	1282.03
298.19	1245.16
298.41	1251.31
298.62	1269.74
298.83	1193.97
299.05	1275.88
299.26	1261.55
299.48	1275.88
299.69	1222.64
299.90	1259.50
300.12	1263.60
300.33	1251.31
300.55	1271.79
300.76	1273.84
300.98	1249.26
301.19	1277.93
301.40	1325.04
301.62	1290.22
301.83	1269.74
302.05	1255.40
302.26	1257.45
302.47	1322.99
302.69	1310.70
302.90	1236.97
303.12	1279.98
303.33	1314.80
303.54	1243.12
303.76	1198.06
303.97	1290.22
304.19	1247.21
304.40	1300.46
304.61	1284.08
304.83	1284.08
305.04	1306.60
305.26	1277.93
305.47	1245.16
305.68	1255.40
305.90	1298.41
306.11	1232.88
306.33	1306.60
306.54	1224.69
306.75	1239.02
306.97	1224.69
307.18	1183.73
307.39	1298.41
307.61	1187.82
307.82	1284.08
308.04	1253.36
308.25	1282.03
308.46	1249.26
308.68	1210.35
308.89	1275.88
309.10	1312.75
309.32	1331.18
309.53	1286.12
309.74	1361.90
309.96	1245.16
310.17	1241.07
310.39	1257.45
310.60	1232.88
310.81	1228.78
311.03	1320.94
311.24	1261.55
311.45	1279.98
311.67	1261.55
311.88	1306.60
312.09	1204.21
312.31	1255.40
312.52	1224.69
312.73	1247.21
312.95	1249.26
313.16	1206.25
313.37	1347.56
313.59	1298.41
313.80	1261.55
314.01	1294.32
314.23	1249.26
314.44	1275.88
314.65	1253.36
314.87	1325.04
315.08	1236.97
315.29	1320.94
315.51	1335.28
315.72	1267.69
315.93	1329.13
316.15	1271.79
316.36	1288.17
316.57	1257.45
316.79	1290.22
317.00	1175.53
317.21	1179.63
317.43	1259.50
317.64	1257.45
317.85	1230.83
318.07	1232.88
318.28	1247.21
318.49	1255.40
318.70	1331.18
318.92	1335.28
319.13	1312.75
319.34	1316.84
319.56	1269.74
319.77	1322.99
319.98	1302.51
320.20	1265.64
320.41	1308.65
320.62	1220.59
320.83	1245.16
321.05	1298.41
321.26	1296.36
321.47	1255.40
321.69	1241.07
321.90	1261.55
322.11	1351.66
322.32	1253.36
322.54	1288.17
322.75	1325.04
322.96	1327.08
323.18	1292.27
323.39	1175.53
323.60	1294.32
323.81	1214.45
324.03	1314.80
324.24	1198.06
324.45	1249.26
324.66	1279.98
324.88	1277.93
325.09	1265.64
325.30	1253.36
325.52	1327.08
325.73	1265.64
325.94	1216.49
326.15	1263.60
326.37	1302.51
326.58	1279.98
326.79	1206.25
327.00	1302.51
327.22	1290.22
327.43	1255.40
327.64	1279.98
327.85	1239.02
328.07	1277.93
328.28	1257.45
328.49	1247.21
328.70	1320.94
328.92	1282.03
329.13	1271.79
329.34	1257.45
329.55	1269.74
329.76	1279.98
329.98	1249.26
330.19	1187.82
330.40	1294.32
330.61	1273.84
330.83	1273.84
331.04	1261.55
331.25	1271.79
331.46	1243.12
331.68	1243.12
331.89	1243.12
332.10	1239.02
332.31	1265.64
332.52	1304.56
332.74	1249.26
332.95	1261.55
333.16	1337.32
333.37	1259.50
333.58	1331.18
333.80	1304.56
334.01	1322.99
334.22	1273.84
334.43	1247.21
334.64	1228.78
334.86	1265.64
335.07	1273.84
335.28	1245.16
335.49	1279.98
335.70	1329.13
335.92	1236.97
336.13	1275.88
336.34	1239.02
336.55	1279.98
336.76	1288.17
336.98	1214.45
337.19	1273.84
337.40	1337.32
337.61	1290.22
337.82	1243.12
338.04	1228.78
338.25	1249.26
338.46	1257.45
338.67	1239.02
338.88	1286.12
339.09	1220.59
339.31	1294.32
339.52	1304.56
339.73	1206.25
339.94	1312.75
340.15	1357.80
340.36	1267.69
340.58	1187.82
340.79	1206.25
341.00	1253.36
341.21	1187.82
341.42	1312.75
341.63	1275.88
341.85	1206.25
342.06	1294.32
342.27	1273.84
342.48	1349.61
342.69	1257.45
342.90	1232.88
343.12	1277.93
343.33	1245.16
343.54	1269.74
343.75	1245.16
343.96	1253.36
344.17	1263.60
344.38	1288.17
344.60	1279.98
344.81	1265.64
345.02	1255.40
345.23	1181.68
345.44	1292.27
345.65	1275.88
345.86	1339.37
346.07	1275.88
346.29	1210.35
346.50	1257.45
346.71	1208.30
346.92	1288.17
347.13	1279.98
347.34	1286.12
347.55	1228.78
347.76	1312.75
347.98	1261.55
348.19	1269.74
348.40	1286.12
348.61	1232.88
348.82	1349.61
349.03	1310.70
349.24	1214.45
349.45	1286.12
349.66	1257.45
349.88	1288.17
350.09	1265.64
350.30	1286.12
350.51	1243.12
350.72	1284.08
350.93	1308.65
351.14	1236.97
351.35	1306.60
351.56	1290.22
351.77	1249.26
351.99	1288.17
352.20	1263.60
352.41	1232.88
352.62	1220.59
352.83	1306.60
353.04	1329.13
353.25	1236.97
353.46	1325.04
353.67	1282.03
353.88	1214.45
354.09	1333.23
354.30	1288.17
354.52	1271.79
354.73	1308.65
354.94	1255.40
355.15	1230.83
355.36	1279.98
355.57	1224.69
355.78	1224.69
355.99	1263.60
356.20	1286.12
356.41	1306.60
356.62	1318.89
356.83	1241.07
357.04	1236.97
357.25	1263.60
357.46	1265.64
357.68	1306.60
357.89	1253.36
358.10	1249.26
358.31	1234.93
358.52	1261.55
358.73	1236.97
358.94	1226.73
359.15	1255.40
359.36	1247.21
359.57	1271.79
359.78	1241.07
359.99	1255.40
360.20	1255.40
360.41	1210.35
360.62	1249.26
360.83	1265.64
361.04	1251.31
361.25	1273.84
361.46	1306.60
361.67	1267.69
361.88	1253.36
362.09	1314.80
362.30	1322.99
362.51	1179.63
362.72	1318.89
362.93	1316.84
363.14	1265.64
363.35	1279.98
363.56	1300.46
363.78	1249.26
363.99	1265.64
364.20	1294.32
364.41	1265.64
364.62	1316.84
364.83	1257.45
365.04	1273.84
365.25	1263.60
365.46	1279.98
365.67	1234.93
365.88	1247.21
366.09	1261.55
366.30	1302.51
366.51	1261.55
366.72	1220.59
366.93	1249.26
367.14	1230.83
367.35	1257.45
367.56	1304.56
367.77	1212.40
367.98	1277.93
368.18	1183.73
368.39	1279.98
368.60	1269.74
368.81	1226.73
369.02	1318.89
369.23	1341.42
369.44	1212.40
369.65	1273.84
369.86	1312.75
370.07	1316.84
370.28	1226.73
370.49	1271.79
370.70	1273.84
370.91	1302.51
371.12	1304.56
371.33	1241.07
371.54	1277.93
371.75	1302.51
371.96	1271.79
372.17	1220.59
372.38	1310.70
372.59	1314.80
372.80	1269.74
373.01	1310.70
373.22	1286.12
373.43	1277.93
373.64	1277.93
373.85	1339.37
374.06	1298.41
374.26	1312.75
374.47	1230.83
374.68	1255.40
374.89	1296.36
375.10	1277.93
375.31	1267.69
375.52	1294.32
375.73	1247.21
375.94	1214.45
376.15	1222.64
376.36	1226.73
376.57	1273.84
376.78	1314.80
376.99	1277.93
377.20	1239.02
377.40	1265.64
377.61	1347.56
377.82	1335.28
378.03	1277.93
378.24	1308.65
378.45	1312.75
378.66	1402.86
378.87	1269.74
379.08	1325.04
379.29	1220.59
379.50	1261.55
379.71	1368.04
379.91	1304.56
380.12	1310.70
380.33	1275.88
380.54	1261.55
380.75	1259.50
380.96	1243.12
381.17	1261.55
381.38	1261.55
381.59	1269.74
381.80	1257.45
382.00	1337.32
382.21	1267.69
382.42	1255.40
382.63	1249.26
382.84	1294.32
383.05	1286.12
383.26	1292.27
383.47	1271.79
383.68	1286.12
383.88	1341.42
384.09	1257.45
384.30	1300.46
384.51	1218.54
384.72	1245.16
384.93	1273.84
385.14	1271.79
385.35	1249.26
385.55	1290.22
385.76	1366.00
385.97	1277.93
386.18	1271.79
386.39	1257.45
386.60	1251.31
386.81	1243.12
387.02	1212.40
387.22	1257.45
387.43	1251.31
387.64	1343.47
387.85	1253.36
388.06	1290.22
388.27	1290.22
388.48	1271.79
388.68	1333.23
388.89	1271.79
389.10	1234.93
389.31	1261.55
389.52	1290.22
389.73	1226.73
389.93	1214.45
390.14	1265.64
390.35	1200.11
390.56	1234.93
390.77	1226.73
390.98	1284.08
391.18	1241.07
391.39	1214.45
391.60	1241.07
391.81	1353.71
392.02	1296.36
392.23	1230.83
392.43	1261.55
392.64	1269.74
392.85	1247.21
393.06	1265.64
393.27	1292.27
393.47	1241.07
393.68	1271.79
393.89	1259.50
394.10	1277.93
394.31	1351.66
394.52	1322.99
394.72	1282.03
394.93	1191.92
395.14	1273.84
395.35	1288.17
395.56	1183.73
395.76	1259.50
395.97	1265.64
396.18	1302.51
396.39	1253.36
396.60	1206.25
396.80	1255.40
397.01	1271.79
397.22	1259.50
397.43	1247.21
397.64	1279.98
397.84	1310.70
398.05	1241.07
398.26	1245.16
398.47	1232.88
398.67	1290.22
398.88	1271.79
399.09	1234.93
399.30	1232.88
399.51	1255.40
399.71	1243.12
399.92	1228.78
400.13	1269.74
400.34	1247.21
400.54	1286.12
400.75	1282.03
400.96	1241.07
401.17	1273.84
401.37	1333.23
401.58	1300.46
401.79	1261.55
402.00	1259.50
402.21	1253.36
402.41	1329.13
402.62	1255.40
402.83	1341.42
403.04	1279.98
403.24	1273.84
403.45	1279.98
403.66	1241.07
403.87	1271.79
404.07	1277.93
404.28	1277.93
404.49	1279.98
404.70	1306.60
404.90	1314.80
405.11	1243.12
405.32	1282.03
405.52	1279.98
405.73	1239.02
405.94	1216.49
406.15	1247.21
406.35	1335.28
406.56	1247.21
406.77	1310.70
406.98	1296.36
407.18	1286.12
407.39	1261.55
407.60	1224.69
407.80	1253.36
408.01	1263.60
408.22	1216.49
408.43	1214.45
408.63	1308.65
408.84	1286.12
409.05	1288.17
409.25	1261.55
409.46	1312.75
409.67	1239.02
409.88	1310.70
410.08	1198.06
410.29	1249.26
410.50	1298.41
410.70	1314.80
410.91	1249.26
411.12	1314.80
411.32	1298.41
411.53	1282.03
411.74	1218.54
411.95	1261.55
412.15	1220.59
412.36	1331.18
412.57	1200.11
412.77	1277.93
412.98	1282.03
413.19	1265.64
413.39	1284.08
413.60	1232.88
413.81	1265.64
414.01	1226.73
414.22	1241.07
414.43	1292.27
414.63	1208.30
414.84	1247.21
415.05	1247.21
415.25	1228.78
415.46	1243.12
415.67	1241.07
415.87	1296.36
416.08	1245.16
416.29	1320.94
416.49	1279.98
416.70	1224.69
416.91	1257.45
417.11	1331.18
417.32	1183.73
417.53	1243.12
417.73	1249.26
417.94	1318.89
418.15	1222.64
418.35	1257.45
418.56	1329.13
418.77	1294.32
418.97	1349.61
419.18	1282.03
419.38	1312.75
419.59	1273.84
419.80	1222.64
420.00	1245.16
420.21	1208.30
420.42	1277.93
420.62	1241.07
420.83	1202.16
421.04	1267.69
421.24	1216.49
421.45	1306.60
421.65	1251.31
421.86	1234.93
422.07	1341.42
422.27	1300.46
422.48	1261.55
422.69	1222.64
422.89	1253.36
423.10	1218.54
423.30	1249.26
423.51	1277.93
423.72	1290.22
423.92	1269.74
424.13	1208.30
424.33	1318.89
424.54	1187.82
424.75	1220.59
424.95	1292.27
425.16	1339.37
425.36	1366.00
425.57	1267.69
425.78	1298.41
425.98	1263.60
426.19	1279.98
426.39	1255.40
426.60	1304.56
426.81	1257.45
427.01	1277.93
427.22	1273.84
427.42	1277.93
427.63	1331.18
427.83	1273.84
428.04	1228.78
428.25	1294.32
428.45	1296.36
428.66	1218.54
428.86	1302.51
429.07	1331.18
429.28	1249.26
429.48	1243.12
429.69	1318.89
429.89	1273.84
430.10	1320.94
430.30	1279.98
430.51	1273.84
430.71	1259.50
430.92	1214.45
431.13	1265.64
431.33	1255.40
431.54	1318.89
431.74	1298.41
431.95	1259.50
432.15	1290.22
432.36	1204.21
432.56	1304.56
432.77	1298.41
432.98	1294.32
433.18	1290.22
433.39	1251.31
433.59	1288.17
433.80	1257.45
434.00	1322.99
434.21	1288.17
434.41	1271.79
434.62	1228.78
434.82	1255.40
435.03	1290.22
435.23	1273.84
435.44	1224.69
435.64	1261.55
435.85	1267.69
436.06	1351.66
436.26	1320.94
436.47	1208.30
436.67	1243.12
436.88	1286.12
437.08	1257.45
437.29	1232.88
437.49	1220.59
437.70	1251.31
437.90	1290.22
438.11	1304.56
438.31	1279.98
438.52	1331.18
438.72	1273.84
438.93	1275.88
439.13	1273.84
439.34	1257.45
439.54	1261.55
439.75	1308.65
439.95	1294.32
440.16	1286.12
440.36	1279.98
440.57	1275.88
440.77	1304.56
440.98	1333.23
441.18	1277.93
441.39	1302.51
441.59	1294.32
441.80	1273.84
442.00	1255.40
442.21	1388.52
442.41	1249.26
442.62	1355.76
442.82	1318.89
443.02	1259.50
443.23	1245.16
443.43	1267.69
443.64	1290.22
443.84	1226.73
444.05	1322.99
444.25	1282.03
444.46	1290.22
444.66	1245.16
444.87	1300.46
445.07	1277.93
445.28	1245.16
445.48	1298.41
445.69	1228.78
445.89	1325.04
446.09	1288.17
446.30	1331.18
446.50	1236.97
446.71	1306.60
446.91	1318.89
447.12	1261.55
447.32	1255.40
447.53	1347.56
447.73	1312.75
447.93	1275.88
448.14	1331.18
448.34	1275.88
448.55	1298.41
448.75	1257.45
448.96	1286.12
449.16	1267.69
449.36	1284.08
449.57	1275.88
449.77	1290.22
449.98	1271.79
450.18	1292.27
450.39	1329.13
450.59	1249.26
450.79	1212.40
451.00	1265.64
451.20	1306.60
451.41	1359.85
451.61	1257.45
451.81	1269.74
452.02	1193.97
452.22	1261.55
452.43	1306.60
452.63	1302.51
