SpectraSuite Data File
++++++++++++++++++++++++++++++++++++
Date: Sun Apr 03 19:55:47 CEST 2016
User: root
Dark Spectrum Present: No
Reference Spectrum Present: No
Number of Sampled Component Spectra: 1
Spectrometers: USB4C02835
Integration Time (usec): 10000 (USB4C02835)
Spectra Averaged: 1 (USB4C02835)
Boxcar Smoothing: 0 (USB4C02835)
Correct for Electrical Dark: No (USB4C02835)
Strobe/Lamp Enabled: No (USB4C02835)
Correct for Detector Non-linearity: No (USB4C02835)
Correct for Stray Light: No (USB4C02835)
Number of Pixels in Processed Spectrum: 3648
>>>>>Begin Processed Spectral Data<<<<<
177.47	1200.11
177.69	1200.11
177.91	1200.11
178.13	1236.97
178.36	1245.16
178.58	1193.97
178.80	1167.34
179.02	1298.41
179.24	1267.69
179.46	1228.78
179.68	1193.97
179.90	1243.12
180.13	1259.50
180.35	1286.12
180.57	1304.56
180.79	1249.26
181.01	1306.60
181.23	1284.08
181.45	1255.40
181.67	1304.56
181.90	1277.93
182.12	1261.55
182.34	1286.12
182.56	1267.69
182.78	1320.94
183.00	1216.49
183.22	1232.88
183.44	1282.03
183.66	1329.13
183.89	1284.08
184.11	1331.18
184.33	1286.12
184.55	1329.13
184.77	1279.98
184.99	1226.73
185.21	1224.69
185.43	1241.07
185.65	1239.02
185.87	1314.80
186.10	1325.04
186.32	1302.51
186.54	1251.31
186.76	1226.73
186.98	1351.66
187.20	1236.97
187.42	1269.74
187.64	1253.36
187.86	1226.73
188.08	1247.21
188.30	1269.74
188.52	1255.40
188.75	1251.31
188.97	1259.50
189.19	1226.73
189.41	1308.65
189.63	1259.50
189.85	1273.84
190.07	1255.40
190.29	1277.93
190.51	1169.39
190.73	1282.03
190.95	1302.51
191.17	1226.73
191.39	1271.79
191.61	1275.88
191.84	1279.98
192.06	1210.35
192.28	1288.17
192.50	1306.60
192.72	1282.03
192.94	1257.45
193.16	1312.75
193.38	1177.58
193.60	1257.45
193.82	1255.40
194.04	1302.51
194.26	1247.21
194.48	1271.79
194.70	1212.40
194.92	1273.84
195.14	1239.02
195.36	1292.27
195.58	1298.41
195.80	1193.97
196.02	1241.07
196.24	1222.64
196.46	1290.22
196.69	1286.12
196.91	1267.69
197.13	1259.50
197.35	1296.36
197.57	1296.36
197.79	1218.54
198.01	1245.16
198.23	1304.56
198.45	1249.26
198.67	1124.33
198.89	1243.12
199.11	1300.46
199.33	1247.21
199.55	1210.35
199.77	1302.51
199.99	1327.08
200.21	1159.15
200.43	1310.70
200.65	1241.07
200.87	1257.45
201.09	1263.60
201.31	1257.45
201.53	1239.02
201.75	1181.68
201.97	1269.74
202.19	1304.56
202.41	1196.01
202.63	1265.64
202.85	1279.98
203.07	1282.03
203.29	1265.64
203.51	1277.93
203.73	1243.12
203.95	1224.69
204.17	1239.02
204.39	1263.60
204.61	1279.98
204.83	1314.80
205.05	1193.97
205.27	1273.84
205.49	1247.21
205.71	1263.60
205.93	1327.08
206.15	1228.78
206.37	1318.89
206.59	1247.21
206.81	1232.88
207.03	1247.21
207.25	1288.17
207.47	1226.73
207.69	1210.35
207.91	1286.12
208.13	1286.12
208.34	1275.88
208.56	1220.59
208.78	1210.35
209.00	1347.56
209.22	1320.94
209.44	1327.08
209.66	1325.04
209.88	1236.97
210.10	1290.22
210.32	1208.30
210.54	1198.06
210.76	1261.55
210.98	1288.17
211.20	1253.36
211.42	1228.78
211.64	1411.05
211.86	1230.83
212.08	1263.60
212.30	1314.80
212.52	1200.11
212.74	1214.45
212.96	1282.03
213.17	1304.56
213.39	1347.56
213.61	1265.64
213.83	1206.25
214.05	1236.97
214.27	1232.88
214.49	1298.41
214.71	1269.74
214.93	1263.60
215.15	1341.42
215.37	1239.02
215.59	1331.18
215.81	1222.64
216.03	1320.94
216.24	1232.88
216.46	1288.17
216.68	1288.17
216.90	1224.69
217.12	1189.87
217.34	1349.61
217.56	1253.36
217.78	1236.97
218.00	1202.16
218.22	1261.55
218.44	1341.42
218.66	1271.79
218.87	1282.03
219.09	1189.87
219.31	1306.60
219.53	1322.99
219.75	1212.40
219.97	1185.77
220.19	1273.84
220.41	1304.56
220.63	1300.46
220.85	1247.21
221.06	1306.60
221.28	1269.74
221.50	1302.51
221.72	1267.69
221.94	1308.65
222.16	1271.79
222.38	1298.41
222.60	1245.16
222.82	1277.93
223.03	1210.35
223.25	1251.31
223.47	1286.12
223.69	1327.08
223.91	1275.88
224.13	1312.75
224.35	1198.06
224.57	1253.36
224.78	1286.12
225.00	1316.84
225.22	1304.56
225.44	1279.98
225.66	1159.15
225.88	1243.12
226.10	1277.93
226.32	1298.41
226.53	1294.32
226.75	1236.97
226.97	1167.34
227.19	1306.60
227.41	1236.97
227.63	1331.18
227.85	1306.60
228.06	1228.78
228.28	1341.42
228.50	1284.08
228.72	1286.12
228.94	1265.64
229.16	1179.63
229.37	1263.60
229.59	1320.94
229.81	1273.84
230.03	1341.42
230.25	1241.07
230.47	1230.83
230.69	1273.84
230.90	1216.49
231.12	1206.25
231.34	1279.98
231.56	1269.74
231.78	1247.21
232.00	1306.60
232.21	1253.36
232.43	1282.03
232.65	1279.98
232.87	1374.19
233.09	1171.44
233.30	1222.64
233.52	1257.45
233.74	1290.22
233.96	1261.55
234.18	1232.88
234.40	1257.45
234.61	1269.74
234.83	1322.99
235.05	1210.35
235.27	1224.69
235.49	1292.27
235.70	1206.25
235.92	1320.94
236.14	1310.70
236.36	1259.50
236.58	1331.18
236.79	1318.89
237.01	1294.32
237.23	1290.22
237.45	1245.16
237.67	1275.88
237.88	1288.17
238.10	1282.03
238.32	1296.36
238.54	1304.56
238.76	1241.07
238.97	1222.64
239.19	1216.49
239.41	1368.04
239.63	1251.31
239.85	1218.54
240.06	1284.08
240.28	1267.69
240.50	1214.45
240.72	1232.88
240.93	1220.59
241.15	1275.88
241.37	1261.55
241.59	1251.31
241.81	1202.16
242.02	1277.93
242.24	1288.17
242.46	1251.31
242.68	1269.74
242.89	1232.88
243.11	1243.12
243.33	1290.22
243.55	1318.89
243.76	1255.40
243.98	1212.40
244.20	1249.26
244.42	1198.06
244.64	1271.79
244.85	1263.60
245.07	1368.04
245.29	1241.07
245.51	1351.66
245.72	1249.26
245.94	1204.21
246.16	1265.64
246.38	1265.64
246.59	1247.21
246.81	1279.98
247.03	1269.74
247.24	1282.03
247.46	1253.36
247.68	1253.36
247.90	1261.55
248.11	1308.65
248.33	1177.58
248.55	1337.32
248.77	1302.51
248.98	1316.84
249.20	1157.10
249.42	1292.27
249.64	1271.79
249.85	1277.93
250.07	1314.80
250.29	1327.08
250.50	1234.93
250.72	1265.64
250.94	1300.46
251.16	1310.70
251.37	1339.37
251.59	1279.98
251.81	1257.45
252.02	1300.46
252.24	1327.08
252.46	1239.02
252.68	1222.64
252.89	1224.69
253.11	1181.68
253.33	1269.74
253.54	1339.37
253.76	1265.64
253.98	1265.64
254.20	1296.36
254.41	1249.26
254.63	1290.22
254.85	1263.60
255.06	1343.47
255.28	1290.22
255.50	1275.88
255.71	1271.79
255.93	1255.40
256.15	1232.88
256.36	1265.64
256.58	1277.93
256.80	1259.50
257.02	1372.14
257.23	1253.36
257.45	1216.49
257.67	1265.64
257.88	1308.65
258.10	1300.46
258.32	1253.36
258.53	1282.03
258.75	1308.65
258.97	1275.88
259.18	1341.42
259.40	1234.93
259.62	1239.02
259.83	1331.18
260.05	1247.21
260.27	1290.22
260.48	1308.65
260.70	1351.66
260.92	1263.60
261.13	1325.04
261.35	1275.88
261.57	1298.41
261.78	1279.98
262.00	1232.88
262.22	1339.37
262.43	1261.55
262.65	1251.31
262.86	1253.36
263.08	1232.88
263.30	1314.80
263.51	1198.06
263.73	1286.12
263.95	1290.22
264.16	1341.42
264.38	1257.45
264.60	1200.11
264.81	1253.36
265.03	1253.36
265.25	1298.41
265.46	1249.26
265.68	1198.06
265.89	1351.66
266.11	1230.83
266.33	1298.41
266.54	1255.40
266.76	1222.64
266.98	1265.64
267.19	1179.63
267.41	1286.12
267.62	1271.79
267.84	1216.49
268.06	1171.44
268.27	1288.17
268.49	1273.84
268.70	1306.60
268.92	1292.27
269.14	1261.55
269.35	1222.64
269.57	1263.60
269.79	1224.69
270.00	1224.69
270.22	1247.21
270.43	1339.37
270.65	1290.22
270.87	1224.69
271.08	1316.84
271.30	1267.69
271.51	1249.26
271.73	1271.79
271.95	1325.04
272.16	1236.97
272.38	1232.88
272.59	1265.64
272.81	1269.74
273.02	1302.51
273.24	1290.22
273.46	1204.21
273.67	1226.73
273.89	1267.69
274.10	1267.69
274.32	1255.40
274.54	1337.32
274.75	1196.01
274.97	1314.80
275.18	1273.84
275.40	1187.82
275.61	1247.21
275.83	1241.07
276.05	1257.45
276.26	1331.18
276.48	1228.78
276.69	1298.41
276.91	1261.55
277.12	1290.22
277.34	1253.36
277.55	1183.73
277.77	1271.79
277.99	1228.78
278.20	1230.83
278.42	1273.84
278.63	1292.27
278.85	1261.55
279.06	1279.98
279.28	1232.88
279.49	1275.88
279.71	1269.74
279.93	1191.92
280.14	1286.12
280.36	1257.45
280.57	1296.36
280.79	1155.05
281.00	1333.23
281.22	1290.22
281.43	1296.36
281.65	1253.36
281.86	1351.66
282.08	1208.30
282.29	1255.40
282.51	1302.51
282.73	1183.73
282.94	1265.64
283.16	1267.69
283.37	1183.73
283.59	1282.03
283.80	1279.98
284.02	1308.65
284.23	1241.07
284.45	1226.73
284.66	1267.69
284.88	1304.56
285.09	1363.95
285.31	1329.13
285.52	1259.50
285.74	1271.79
285.95	1269.74
286.17	1277.93
286.38	1257.45
286.60	1292.27
286.81	1339.37
287.03	1232.88
287.24	1249.26
287.46	1212.40
287.67	1259.50
287.89	1349.61
288.10	1277.93
288.32	1327.08
288.53	1269.74
288.75	1273.84
288.96	1265.64
289.18	1253.36
289.39	1294.32
289.61	1316.84
289.82	1314.80
290.04	1273.84
290.25	1222.64
290.47	1284.08
290.68	1263.60
290.90	1245.16
291.11	1210.35
291.33	1331.18
291.54	1198.06
291.76	1286.12
291.97	1304.56
292.18	1320.94
292.40	1236.97
292.61	1290.22
292.83	1306.60
293.04	1304.56
293.26	1220.59
293.47	1257.45
293.69	1171.44
293.90	1302.51
294.12	1279.98
294.33	1198.06
294.55	1247.21
294.76	1314.80
294.97	1253.36
295.19	1282.03
295.40	1191.92
295.62	1206.25
295.83	1296.36
296.05	1228.78
296.26	1304.56
296.48	1271.79
296.69	1241.07
296.90	1236.97
297.12	1296.36
297.33	1329.13
297.55	1222.64
297.76	1288.17
297.98	1306.60
298.19	1243.12
298.41	1228.78
298.62	1306.60
298.83	1304.56
299.05	1306.60
299.26	1335.28
299.48	1255.40
299.69	1212.40
299.90	1277.93
300.12	1265.64
300.33	1288.17
300.55	1282.03
300.76	1275.88
300.98	1261.55
301.19	1239.02
301.40	1249.26
301.62	1239.02
301.83	1273.84
302.05	1257.45
302.26	1300.46
302.47	1271.79
302.69	1251.31
302.90	1296.36
303.12	1253.36
303.33	1269.74
303.54	1294.32
303.76	1290.22
303.97	1269.74
304.19	1288.17
304.40	1290.22
304.61	1241.07
304.83	1279.98
305.04	1204.21
305.26	1275.88
305.47	1249.26
305.68	1298.41
305.90	1228.78
306.11	1312.75
306.33	1243.12
306.54	1282.03
306.75	1259.50
306.97	1228.78
307.18	1343.47
307.39	1298.41
307.61	1208.30
307.82	1218.54
308.04	1261.55
308.25	1368.04
308.46	1275.88
308.68	1243.12
308.89	1298.41
309.10	1241.07
309.32	1331.18
309.53	1236.97
309.74	1329.13
309.96	1288.17
310.17	1245.16
310.39	1226.73
310.60	1228.78
310.81	1265.64
311.03	1259.50
311.24	1282.03
311.45	1267.69
311.67	1329.13
311.88	1269.74
312.09	1247.21
312.31	1243.12
312.52	1273.84
312.73	1247.21
312.95	1312.75
313.16	1322.99
313.37	1286.12
313.59	1245.16
313.80	1277.93
314.01	1282.03
314.23	1298.41
314.44	1288.17
314.65	1263.60
314.87	1261.55
315.08	1218.54
315.29	1273.84
315.51	1282.03
315.72	1279.98
315.93	1322.99
316.15	1320.94
316.36	1263.60
316.57	1282.03
316.79	1210.35
317.00	1251.31
317.21	1247.21
317.43	1175.53
317.64	1210.35
317.85	1351.66
318.07	1316.84
318.28	1265.64
318.49	1288.17
318.70	1239.02
318.92	1247.21
319.13	1286.12
319.34	1298.41
319.56	1275.88
319.77	1269.74
319.98	1292.27
320.20	1179.63
320.41	1320.94
320.62	1308.65
320.83	1243.12
321.05	1241.07
321.26	1327.08
321.47	1236.97
321.69	1275.88
321.90	1267.69
322.11	1298.41
322.32	1214.45
322.54	1189.87
322.75	1273.84
322.96	1232.88
323.18	1290.22
323.39	1249.26
323.60	1294.32
323.81	1263.60
324.03	1228.78
324.24	1327.08
324.45	1282.03
324.66	1241.07
324.88	1271.79
325.09	1265.64
325.30	1255.40
325.52	1247.21
325.73	1187.82
325.94	1333.23
326.15	1259.50
326.37	1271.79
326.58	1245.16
326.79	1279.98
327.00	1214.45
327.22	1220.59
327.43	1302.51
327.64	1216.49
327.85	1251.31
328.07	1216.49
328.28	1343.47
328.49	1273.84
328.70	1304.56
328.92	1239.02
329.13	1212.40
329.34	1282.03
329.55	1277.93
329.76	1253.36
329.98	1269.74
330.19	1255.40
330.40	1251.31
330.61	1284.08
330.83	1345.52
331.04	1226.73
331.25	1255.40
331.46	1267.69
331.68	1202.16
331.89	1288.17
332.10	1259.50
332.31	1300.46
332.52	1304.56
332.74	1263.60
332.95	1304.56
333.16	1236.97
333.37	1294.32
333.58	1327.08
333.80	1245.16
334.01	1259.50
334.22	1206.25
334.43	1277.93
334.64	1200.11
334.86	1288.17
335.07	1202.16
335.28	1210.35
335.49	1300.46
335.70	1226.73
335.92	1220.59
336.13	1212.40
336.34	1208.30
336.55	1232.88
336.76	1304.56
336.98	1183.73
337.19	1206.25
337.40	1271.79
337.61	1302.51
337.82	1259.50
338.04	1329.13
338.25	1241.07
338.46	1380.33
338.67	1263.60
338.88	1296.36
339.09	1318.89
339.31	1312.75
339.52	1298.41
339.73	1312.75
339.94	1308.65
340.15	1363.95
340.36	1263.60
340.58	1288.17
340.79	1241.07
341.00	1253.36
341.21	1349.61
341.42	1306.60
341.63	1255.40
341.85	1306.60
342.06	1345.52
342.27	1296.36
342.48	1294.32
342.69	1173.49
342.90	1243.12
343.12	1255.40
343.33	1202.16
343.54	1314.80
343.75	1339.37
343.96	1230.83
344.17	1247.21
344.38	1337.32
344.60	1249.26
344.81	1304.56
345.02	1273.84
345.23	1282.03
345.44	1288.17
345.65	1279.98
345.86	1243.12
346.07	1300.46
346.29	1349.61
346.50	1241.07
346.71	1236.97
346.92	1249.26
347.13	1296.36
347.34	1269.74
347.55	1198.06
347.76	1232.88
347.98	1279.98
348.19	1333.23
348.40	1226.73
348.61	1320.94
348.82	1271.79
349.03	1286.12
349.24	1329.13
349.45	1271.79
349.66	1329.13
349.88	1275.88
350.09	1277.93
350.30	1241.07
350.51	1214.45
350.72	1292.27
350.93	1271.79
351.14	1255.40
351.35	1273.84
351.56	1255.40
351.77	1339.37
351.99	1345.52
352.20	1314.80
352.41	1290.22
352.62	1181.68
352.83	1292.27
353.04	1267.69
353.25	1298.41
353.46	1220.59
353.67	1214.45
353.88	1257.45
354.09	1277.93
354.30	1312.75
354.52	1267.69
354.73	1312.75
354.94	1261.55
355.15	1269.74
355.36	1263.60
355.57	1298.41
355.78	1292.27
355.99	1286.12
356.20	1239.02
356.41	1279.98
356.62	1183.73
356.83	1253.36
357.04	1261.55
357.25	1271.79
357.46	1273.84
357.68	1284.08
357.89	1271.79
358.10	1273.84
358.31	1265.64
358.52	1329.13
358.73	1288.17
358.94	1251.31
359.15	1232.88
359.36	1298.41
359.57	1271.79
359.78	1292.27
359.99	1189.87
360.20	1298.41
360.41	1271.79
360.62	1263.60
360.83	1259.50
361.04	1294.32
361.25	1257.45
361.46	1288.17
361.67	1251.31
361.88	1267.69
362.09	1263.60
362.30	1294.32
362.51	1189.87
362.72	1271.79
362.93	1275.88
363.14	1261.55
363.35	1265.64
363.56	1181.68
363.78	1206.25
363.99	1267.69
364.20	1339.37
364.41	1163.25
364.62	1259.50
364.83	1298.41
365.04	1228.78
365.25	1243.12
365.46	1271.79
365.67	1298.41
365.88	1212.40
366.09	1304.56
366.30	1249.26
366.51	1320.94
366.72	1241.07
366.93	1273.84
367.14	1275.88
367.35	1269.74
367.56	1181.68
367.77	1265.64
367.98	1208.30
368.18	1265.64
368.39	1353.71
368.60	1267.69
368.81	1310.70
369.02	1271.79
369.23	1239.02
369.44	1234.93
369.65	1288.17
369.86	1204.21
370.07	1249.26
370.28	1222.64
370.49	1257.45
370.70	1261.55
370.91	1265.64
371.12	1239.02
371.33	1298.41
371.54	1263.60
371.75	1271.79
371.96	1230.83
372.17	1216.49
372.38	1320.94
372.59	1279.98
372.80	1277.93
373.01	1177.58
373.22	1347.56
373.43	1318.89
373.64	1239.02
373.85	1277.93
374.06	1245.16
374.26	1282.03
374.47	1255.40
374.68	1204.21
374.89	1271.79
375.10	1243.12
375.31	1265.64
375.52	1249.26
375.73	1286.12
375.94	1288.17
376.15	1284.08
376.36	1236.97
376.57	1306.60
376.78	1277.93
376.99	1320.94
377.20	1230.83
377.40	1288.17
377.61	1267.69
377.82	1249.26
378.03	1292.27
378.24	1306.60
378.45	1259.50
378.66	1183.73
378.87	1269.74
379.08	1222.64
379.29	1277.93
379.50	1300.46
379.71	1261.55
379.91	1304.56
380.12	1355.76
380.33	1263.60
380.54	1202.16
380.75	1232.88
380.96	1292.27
381.17	1261.55
381.38	1245.16
381.59	1279.98
381.80	1245.16
382.00	1216.49
382.21	1255.40
382.42	1263.60
382.63	1333.23
382.84	1193.97
383.05	1345.52
383.26	1263.60
383.47	1247.21
383.68	1275.88
383.88	1239.02
384.09	1263.60
384.30	1247.21
384.51	1306.60
384.72	1320.94
384.93	1265.64
385.14	1204.21
385.35	1202.16
385.55	1306.60
385.76	1351.66
385.97	1279.98
386.18	1255.40
386.39	1296.36
386.60	1271.79
386.81	1230.83
387.02	1212.40
387.22	1261.55
387.43	1241.07
387.64	1296.36
387.85	1267.69
388.06	1210.35
388.27	1241.07
388.48	1251.31
388.68	1288.17
388.89	1247.21
389.10	1245.16
389.31	1185.77
389.52	1312.75
389.73	1306.60
389.93	1218.54
390.14	1220.59
390.35	1298.41
390.56	1314.80
390.77	1265.64
390.98	1310.70
391.18	1329.13
391.39	1290.22
391.60	1216.49
391.81	1247.21
392.02	1310.70
392.23	1288.17
392.43	1232.88
392.64	1306.60
392.85	1271.79
393.06	1284.08
393.27	1282.03
393.47	1269.74
393.68	1251.31
393.89	1247.21
394.10	1230.83
394.31	1247.21
394.52	1292.27
394.72	1284.08
394.93	1294.32
395.14	1202.16
395.35	1279.98
395.56	1228.78
395.76	1261.55
395.97	1269.74
396.18	1265.64
396.39	1216.49
396.60	1282.03
396.80	1247.21
397.01	1292.27
397.22	1320.94
397.43	1279.98
397.64	1286.12
397.84	1304.56
398.05	1273.84
398.26	1292.27
398.47	1286.12
398.67	1298.41
398.88	1236.97
399.09	1279.98
399.30	1261.55
399.51	1292.27
399.71	1271.79
399.92	1228.78
400.13	1257.45
400.34	1296.36
400.54	1245.16
400.75	1275.88
400.96	1308.65
401.17	1320.94
401.37	1322.99
401.58	1290.22
401.79	1271.79
402.00	1329.13
402.21	1239.02
402.41	1304.56
402.62	1300.46
402.83	1296.36
403.04	1279.98
403.24	1310.70
403.45	1288.17
403.66	1210.35
403.87	1288.17
404.07	1318.89
404.28	1249.26
404.49	1318.89
404.70	1302.51
404.90	1306.60
405.11	1257.45
405.32	1312.75
405.52	1296.36
405.73	1241.07
405.94	1279.98
406.15	1226.73
406.35	1320.94
406.56	1243.12
406.77	1325.04
406.98	1298.41
407.18	1208.30
407.39	1277.93
407.60	1282.03
407.80	1318.89
408.01	1269.74
408.22	1310.70
408.43	1222.64
408.63	1232.88
408.84	1206.25
409.05	1310.70
409.25	1239.02
409.46	1265.64
409.67	1304.56
409.88	1261.55
410.08	1247.21
410.29	1294.32
410.50	1245.16
410.70	1255.40
410.91	1239.02
411.12	1261.55
411.32	1208.30
411.53	1263.60
411.74	1198.06
411.95	1273.84
412.15	1271.79
412.36	1277.93
412.57	1253.36
412.77	1249.26
412.98	1288.17
413.19	1316.84
413.39	1179.63
413.60	1261.55
413.81	1269.74
414.01	1239.02
414.22	1277.93
414.43	1318.89
414.63	1267.69
414.84	1286.12
415.05	1282.03
415.25	1222.64
415.46	1298.41
415.67	1236.97
415.87	1245.16
416.08	1245.16
416.29	1243.12
416.49	1249.26
416.70	1253.36
416.91	1271.79
417.11	1331.18
417.32	1265.64
417.53	1314.80
417.73	1286.12
417.94	1234.93
418.15	1236.97
418.35	1257.45
418.56	1265.64
418.77	1245.16
418.97	1286.12
419.18	1296.36
419.38	1198.06
419.59	1335.28
419.80	1284.08
420.00	1249.26
420.21	1200.11
420.42	1294.32
420.62	1175.53
420.83	1282.03
421.04	1302.51
421.24	1314.80
421.45	1226.73
421.65	1263.60
421.86	1261.55
422.07	1327.08
422.27	1290.22
422.48	1271.79
422.69	1257.45
422.89	1273.84
423.10	1273.84
423.30	1314.80
423.51	1204.21
423.72	1189.87
423.92	1304.56
424.13	1302.51
424.33	1296.36
424.54	1263.60
424.75	1150.96
424.95	1275.88
425.16	1236.97
425.36	1222.64
425.57	1269.74
425.78	1255.40
425.98	1228.78
426.19	1269.74
426.39	1273.84
426.60	1316.84
426.81	1302.51
427.01	1239.02
427.22	1316.84
427.42	1243.12
427.63	1310.70
427.83	1306.60
428.04	1230.83
428.25	1265.64
428.45	1359.85
428.66	1232.88
428.86	1255.40
429.07	1208.30
429.28	1249.26
429.48	1239.02
429.69	1282.03
429.89	1331.18
430.10	1265.64
430.30	1288.17
430.51	1310.70
430.71	1269.74
430.92	1327.08
431.13	1292.27
431.33	1222.64
431.54	1306.60
431.74	1263.60
431.95	1183.73
432.15	1220.59
432.36	1277.93
432.56	1292.27
432.77	1243.12
432.98	1304.56
433.18	1273.84
433.39	1296.36
433.59	1267.69
433.80	1341.42
434.00	1302.51
434.21	1239.02
434.41	1290.22
434.62	1247.21
434.82	1300.46
435.03	1239.02
435.23	1206.25
435.44	1267.69
435.64	1284.08
435.85	1230.83
436.06	1232.88
436.26	1290.22
436.47	1208.30
436.67	1282.03
436.88	1279.98
437.08	1269.74
437.29	1261.55
437.49	1273.84
437.70	1216.49
437.90	1261.55
438.11	1279.98
438.31	1290.22
438.52	1232.88
438.72	1345.52
438.93	1308.65
439.13	1269.74
439.34	1249.26
439.54	1198.06
439.75	1300.46
439.95	1279.98
440.16	1288.17
440.36	1230.83
440.57	1290.22
440.77	1298.41
440.98	1290.22
441.18	1228.78
441.39	1239.02
441.59	1298.41
441.80	1277.93
442.00	1200.11
442.21	1298.41
442.41	1296.36
442.62	1310.70
442.82	1257.45
443.02	1222.64
443.23	1288.17
443.43	1294.32
443.64	1265.64
443.84	1302.51
444.05	1288.17
444.25	1265.64
444.46	1331.18
444.66	1279.98
444.87	1300.46
445.07	1290.22
445.28	1304.56
445.48	1267.69
445.69	1271.79
445.89	1163.25
446.09	1265.64
446.30	1245.16
446.50	1261.55
446.71	1282.03
446.91	1284.08
447.12	1304.56
447.32	1273.84
447.53	1255.40
447.73	1355.76
447.93	1263.60
448.14	1341.42
448.34	1306.60
448.55	1331.18
448.75	1298.41
448.96	1318.89
449.16	1290.22
449.36	1255.40
449.57	1388.52
449.77	1273.84
449.98	1236.97
450.18	1263.60
450.39	1292.27
450.59	1279.98
450.79	1277.93
451.00	1257.45
451.20	1269.74
451.41	1267.69
451.61	1314.80
451.81	1298.41
452.02	1265.64
452.22	1294.32
452.43	1327.08
452.63	1282.03
