SpectraSuite Data File
++++++++++++++++++++++++++++++++++++
Date: Sun Apr 03 19:55:44 CEST 2016
User: root
Dark Spectrum Present: No
Reference Spectrum Present: No
Number of Sampled Component Spectra: 1
Spectrometers: USB4C02835
Integration Time (usec): 10000 (USB4C02835)
Spectra Averaged: 1 (USB4C02835)
Boxcar Smoothing: 0 (USB4C02835)
Correct for Electrical Dark: No (USB4C02835)
Strobe/Lamp Enabled: No (USB4C02835)
Correct for Detector Non-linearity: No (USB4C02835)
Correct for Stray Light: No (USB4C02835)
Number of Pixels in Processed Spectrum: 3648
>>>>>Begin Processed Spectral Data<<<<<
177.47	1185.77
177.69	1185.77
177.91	1185.77
178.13	1245.16
178.36	1261.55
178.58	1271.79
178.80	1261.55
179.02	1302.51
179.24	1216.49
179.46	1230.83
179.68	1273.84
179.90	1273.84
180.13	1316.84
180.35	1257.45
180.57	1284.08
180.79	1261.55
181.01	1312.75
181.23	1245.16
181.45	1253.36
181.67	1193.97
181.90	1286.12
182.12	1232.88
182.34	1241.07
182.56	1255.40
182.78	1183.73
183.00	1224.69
183.22	1241.07
183.44	1298.41
183.66	1277.93
183.89	1302.51
184.11	1331.18
184.33	1218.54
184.55	1255.40
184.77	1249.26
184.99	1241.07
185.21	1318.89
185.43	1355.76
185.65	1277.93
185.87	1243.12
186.10	1267.69
186.32	1198.06
186.54	1288.17
186.76	1282.03
186.98	1236.97
187.20	1259.50
187.42	1269.74
187.64	1292.27
187.86	1216.49
188.08	1255.40
188.30	1275.88
188.52	1208.30
188.75	1255.40
188.97	1228.78
189.19	1216.49
189.41	1261.55
189.63	1247.21
189.85	1259.50
190.07	1247.21
190.29	1288.17
190.51	1245.16
190.73	1339.37
190.95	1253.36
191.17	1259.50
191.39	1239.02
191.61	1316.84
191.84	1230.83
192.06	1269.74
192.28	1290.22
192.50	1347.56
192.72	1363.95
192.94	1277.93
193.16	1263.60
193.38	1275.88
193.60	1255.40
193.82	1259.50
194.04	1322.99
194.26	1263.60
194.48	1310.70
194.70	1304.56
194.92	1196.01
195.14	1263.60
195.36	1173.49
195.58	1331.18
195.80	1243.12
196.02	1249.26
196.24	1300.46
196.46	1212.40
196.69	1263.60
196.91	1284.08
197.13	1247.21
197.35	1249.26
197.57	1206.25
197.79	1273.84
198.01	1239.02
198.23	1366.00
198.45	1363.95
198.67	1263.60
198.89	1351.66
199.11	1277.93
199.33	1355.76
199.55	1251.31
199.77	1286.12
199.99	1325.04
200.21	1236.97
200.43	1300.46
200.65	1263.60
200.87	1202.16
201.09	1257.45
201.31	1316.84
201.53	1322.99
201.75	1265.64
201.97	1200.11
202.19	1275.88
202.41	1300.46
202.63	1263.60
202.85	1239.02
203.07	1343.47
203.29	1265.64
203.51	1239.02
203.73	1327.08
203.95	1318.89
204.17	1261.55
204.39	1304.56
204.61	1312.75
204.83	1286.12
205.05	1232.88
205.27	1314.80
205.49	1267.69
205.71	1224.69
205.93	1269.74
206.15	1220.59
206.37	1300.46
206.59	1286.12
206.81	1286.12
207.03	1310.70
207.25	1267.69
207.47	1249.26
207.69	1351.66
207.91	1265.64
208.13	1269.74
208.34	1279.98
208.56	1306.60
208.78	1347.56
209.00	1243.12
209.22	1222.64
209.44	1273.84
209.66	1241.07
209.88	1284.08
210.10	1294.32
210.32	1298.41
210.54	1224.69
210.76	1193.97
210.98	1224.69
211.20	1247.21
211.42	1232.88
211.64	1249.26
211.86	1347.56
212.08	1191.92
212.30	1271.79
212.52	1312.75
212.74	1247.21
212.96	1220.59
213.17	1230.83
213.39	1290.22
213.61	1277.93
213.83	1261.55
214.05	1275.88
214.27	1294.32
214.49	1265.64
214.71	1255.40
214.93	1343.47
215.15	1200.11
215.37	1259.50
215.59	1251.31
215.81	1288.17
216.03	1200.11
216.24	1339.37
216.46	1247.21
216.68	1325.04
216.90	1322.99
217.12	1216.49
217.34	1249.26
217.56	1275.88
217.78	1294.32
218.00	1296.36
218.22	1232.88
218.44	1206.25
218.66	1325.04
218.87	1236.97
219.09	1308.65
219.31	1259.50
219.53	1239.02
219.75	1304.56
219.97	1243.12
220.19	1310.70
220.41	1318.89
220.63	1255.40
220.85	1335.28
221.06	1279.98
221.28	1251.31
221.50	1288.17
221.72	1279.98
221.94	1232.88
222.16	1269.74
222.38	1216.49
222.60	1232.88
222.82	1249.26
223.03	1306.60
223.25	1288.17
223.47	1255.40
223.69	1302.51
223.91	1337.32
224.13	1267.69
224.35	1249.26
224.57	1314.80
224.78	1279.98
225.00	1290.22
225.22	1267.69
225.44	1261.55
225.66	1232.88
225.88	1259.50
226.10	1269.74
226.32	1351.66
226.53	1277.93
226.75	1339.37
226.97	1279.98
227.19	1308.65
227.41	1267.69
227.63	1277.93
227.85	1296.36
228.06	1304.56
228.28	1214.45
228.50	1239.02
228.72	1284.08
228.94	1255.40
229.16	1290.22
229.37	1183.73
229.59	1304.56
229.81	1304.56
230.03	1290.22
230.25	1257.45
230.47	1275.88
230.69	1288.17
230.90	1189.87
231.12	1214.45
231.34	1253.36
231.56	1200.11
231.78	1316.84
232.00	1302.51
232.21	1226.73
232.43	1298.41
232.65	1257.45
232.87	1284.08
233.09	1200.11
233.30	1277.93
233.52	1253.36
233.74	1198.06
233.96	1282.03
234.18	1302.51
234.40	1292.27
234.61	1304.56
234.83	1265.64
235.05	1255.40
235.27	1204.21
235.49	1273.84
235.70	1271.79
235.92	1296.36
236.14	1253.36
236.36	1329.13
236.58	1232.88
236.79	1232.88
237.01	1249.26
237.23	1296.36
237.45	1329.13
237.67	1173.49
237.88	1249.26
238.10	1181.68
238.32	1267.69
238.54	1286.12
238.76	1204.21
238.97	1232.88
239.19	1308.65
239.41	1279.98
239.63	1284.08
239.85	1210.35
240.06	1320.94
240.28	1218.54
240.50	1308.65
240.72	1310.70
240.93	1320.94
241.15	1339.37
241.37	1271.79
241.59	1247.21
241.81	1253.36
242.02	1314.80
242.24	1236.97
242.46	1257.45
242.68	1306.60
242.89	1310.70
243.11	1316.84
243.33	1261.55
243.55	1228.78
243.76	1277.93
243.98	1298.41
244.20	1273.84
244.42	1185.77
244.64	1345.52
244.85	1185.77
245.07	1218.54
245.29	1306.60
245.51	1257.45
245.72	1271.79
245.94	1208.30
246.16	1335.28
246.38	1296.36
246.59	1339.37
246.81	1200.11
247.03	1206.25
247.24	1290.22
247.46	1300.46
247.68	1163.25
247.90	1249.26
248.11	1265.64
248.33	1234.93
248.55	1210.35
248.77	1255.40
248.98	1331.18
249.20	1249.26
249.42	1216.49
249.64	1204.21
249.85	1220.59
250.07	1177.58
250.29	1318.89
250.50	1312.75
250.72	1259.50
250.94	1329.13
251.16	1288.17
251.37	1269.74
251.59	1267.69
251.81	1232.88
252.02	1329.13
252.24	1271.79
252.46	1284.08
252.68	1335.28
252.89	1277.93
253.11	1271.79
253.33	1273.84
253.54	1279.98
253.76	1306.60
253.98	1298.41
254.20	1265.64
254.41	1331.18
254.63	1265.64
254.85	1253.36
255.06	1310.70
255.28	1277.93
255.50	1228.78
255.71	1230.83
255.93	1267.69
256.15	1259.50
256.36	1318.89
256.58	1320.94
256.80	1259.50
257.02	1312.75
257.23	1279.98
257.45	1263.60
257.67	1263.60
257.88	1245.16
258.10	1259.50
258.32	1216.49
258.53	1318.89
258.75	1257.45
258.97	1232.88
259.18	1318.89
259.40	1331.18
259.62	1279.98
259.83	1318.89
260.05	1269.74
260.27	1314.80
260.48	1269.74
260.70	1282.03
260.92	1286.12
261.13	1351.66
261.35	1257.45
261.57	1304.56
261.78	1290.22
262.00	1206.25
262.22	1300.46
262.43	1239.02
262.65	1298.41
262.86	1265.64
263.08	1279.98
263.30	1249.26
263.51	1218.54
263.73	1325.04
263.95	1290.22
264.16	1200.11
264.38	1300.46
264.60	1314.80
264.81	1257.45
265.03	1265.64
265.25	1294.32
265.46	1318.89
265.68	1296.36
265.89	1314.80
266.11	1220.59
266.33	1310.70
266.54	1236.97
266.76	1224.69
266.98	1273.84
267.19	1224.69
267.41	1300.46
267.62	1292.27
267.84	1290.22
268.06	1271.79
268.27	1212.40
268.49	1249.26
268.70	1239.02
268.92	1249.26
269.14	1282.03
269.35	1263.60
269.57	1286.12
269.79	1193.97
270.00	1304.56
270.22	1263.60
270.43	1294.32
270.65	1202.16
270.87	1261.55
271.08	1304.56
271.30	1308.65
271.51	1249.26
271.73	1239.02
271.95	1314.80
272.16	1282.03
272.38	1347.56
272.59	1263.60
272.81	1265.64
273.02	1210.35
273.24	1239.02
273.46	1284.08
273.67	1257.45
273.89	1273.84
274.10	1271.79
274.32	1257.45
274.54	1222.64
274.75	1267.69
274.97	1327.08
275.18	1247.21
275.40	1198.06
275.61	1296.36
275.83	1279.98
276.05	1251.31
276.26	1312.75
276.48	1275.88
276.69	1249.26
276.91	1214.45
277.12	1316.84
277.34	1308.65
277.55	1269.74
277.77	1247.21
277.99	1271.79
278.20	1263.60
278.42	1296.36
278.63	1292.27
278.85	1277.93
279.06	1267.69
279.28	1269.74
279.49	1269.74
279.71	1218.54
279.93	1282.03
280.14	1187.82
280.36	1167.34
280.57	1282.03
280.79	1269.74
281.00	1308.65
281.22	1302.51
281.43	1206.25
281.65	1249.26
281.86	1179.63
282.08	1316.84
282.29	1294.32
282.51	1234.93
282.73	1253.36
282.94	1234.93
283.16	1318.89
283.37	1251.31
283.59	1314.80
283.80	1304.56
284.02	1312.75
284.23	1335.28
284.45	1275.88
284.66	1300.46
284.88	1216.49
285.09	1245.16
285.31	1230.83
285.52	1273.84
285.74	1288.17
285.95	1216.49
286.17	1302.51
286.38	1318.89
286.60	1212.40
286.81	1353.71
287.03	1265.64
287.24	1273.84
287.46	1265.64
287.67	1267.69
287.89	1273.84
288.10	1304.56
288.32	1304.56
288.53	1271.79
288.75	1304.56
288.96	1282.03
289.18	1359.85
289.39	1318.89
289.61	1325.04
289.82	1239.02
290.04	1396.71
290.25	1277.93
290.47	1183.73
290.68	1288.17
290.90	1316.84
291.11	1273.84
291.33	1277.93
291.54	1269.74
291.76	1284.08
291.97	1267.69
292.18	1284.08
292.40	1302.51
292.61	1284.08
292.83	1282.03
293.04	1239.02
293.26	1249.26
293.47	1230.83
293.69	1273.84
293.90	1265.64
294.12	1210.35
294.33	1251.31
294.55	1269.74
294.76	1265.64
294.97	1234.93
295.19	1288.17
295.40	1183.73
295.62	1314.80
295.83	1263.60
296.05	1204.21
296.26	1245.16
296.48	1343.47
296.69	1290.22
296.90	1247.21
297.12	1249.26
297.33	1224.69
297.55	1308.65
297.76	1296.36
297.98	1282.03
298.19	1306.60
298.41	1236.97
298.62	1234.93
298.83	1228.78
299.05	1255.40
299.26	1279.98
299.48	1232.88
299.69	1306.60
299.90	1204.21
300.12	1224.69
300.33	1310.70
300.55	1290.22
300.76	1290.22
300.98	1255.40
301.19	1247.21
301.40	1284.08
301.62	1271.79
301.83	1245.16
302.05	1220.59
302.26	1251.31
302.47	1282.03
302.69	1255.40
302.90	1232.88
303.12	1341.42
303.33	1273.84
303.54	1279.98
303.76	1284.08
303.97	1204.21
304.19	1286.12
304.40	1298.41
304.61	1236.97
304.83	1310.70
305.04	1329.13
305.26	1267.69
305.47	1230.83
305.68	1159.15
305.90	1279.98
306.11	1204.21
306.33	1286.12
306.54	1247.21
306.75	1241.07
306.97	1286.12
307.18	1320.94
307.39	1249.26
307.61	1292.27
307.82	1308.65
308.04	1282.03
308.25	1218.54
308.46	1247.21
308.68	1359.85
308.89	1290.22
309.10	1271.79
309.32	1282.03
309.53	1310.70
309.74	1236.97
309.96	1226.73
310.17	1263.60
310.39	1284.08
310.60	1290.22
310.81	1228.78
311.03	1230.83
311.24	1300.46
311.45	1273.84
311.67	1271.79
311.88	1222.64
312.09	1292.27
312.31	1191.92
312.52	1224.69
312.73	1216.49
312.95	1318.89
313.16	1230.83
313.37	1267.69
313.59	1267.69
313.80	1277.93
314.01	1265.64
314.23	1333.23
314.44	1292.27
314.65	1222.64
314.87	1306.60
315.08	1224.69
315.29	1239.02
315.51	1310.70
315.72	1304.56
315.93	1269.74
316.15	1267.69
316.36	1230.83
316.57	1325.04
316.79	1277.93
317.00	1234.93
317.21	1366.00
317.43	1247.21
317.64	1277.93
317.85	1200.11
318.07	1273.84
318.28	1286.12
318.49	1239.02
318.70	1257.45
318.92	1259.50
319.13	1253.36
319.34	1245.16
319.56	1263.60
319.77	1257.45
319.98	1257.45
320.20	1247.21
320.41	1257.45
320.62	1171.44
320.83	1263.60
321.05	1298.41
321.26	1224.69
321.47	1277.93
321.69	1267.69
321.90	1298.41
322.11	1222.64
322.32	1220.59
322.54	1214.45
322.75	1269.74
322.96	1224.69
323.18	1253.36
323.39	1296.36
323.60	1273.84
323.81	1228.78
324.03	1306.60
324.24	1310.70
324.45	1314.80
324.66	1282.03
324.88	1318.89
325.09	1284.08
325.30	1282.03
325.52	1255.40
325.73	1267.69
325.94	1308.65
326.15	1259.50
326.37	1232.88
326.58	1300.46
326.79	1267.69
327.00	1241.07
327.22	1277.93
327.43	1277.93
327.64	1300.46
327.85	1200.11
328.07	1314.80
328.28	1320.94
328.49	1277.93
328.70	1191.92
328.92	1286.12
329.13	1279.98
329.34	1288.17
329.55	1263.60
329.76	1306.60
329.98	1275.88
330.19	1296.36
330.40	1257.45
330.61	1181.68
330.83	1241.07
331.04	1224.69
331.25	1261.55
331.46	1298.41
331.68	1265.64
331.89	1210.35
332.10	1263.60
332.31	1200.11
332.52	1296.36
332.74	1230.83
332.95	1261.55
333.16	1263.60
333.37	1216.49
333.58	1247.21
333.80	1335.28
334.01	1316.84
334.22	1243.12
334.43	1216.49
334.64	1218.54
334.86	1263.60
335.07	1249.26
335.28	1271.79
335.49	1284.08
335.70	1257.45
335.92	1279.98
336.13	1296.36
336.34	1314.80
336.55	1269.74
336.76	1230.83
336.98	1257.45
337.19	1271.79
337.40	1239.02
337.61	1228.78
337.82	1241.07
338.04	1245.16
338.25	1212.40
338.46	1271.79
338.67	1265.64
338.88	1261.55
339.09	1286.12
339.31	1253.36
339.52	1177.58
339.73	1239.02
339.94	1222.64
340.15	1296.36
340.36	1331.18
340.58	1261.55
340.79	1282.03
341.00	1300.46
341.21	1310.70
341.42	1265.64
341.63	1226.73
341.85	1196.01
342.06	1286.12
342.27	1300.46
342.48	1284.08
342.69	1290.22
342.90	1331.18
343.12	1279.98
343.33	1284.08
343.54	1257.45
343.75	1249.26
343.96	1243.12
344.17	1265.64
344.38	1230.83
344.60	1187.82
344.81	1263.60
345.02	1296.36
345.23	1271.79
345.44	1327.08
345.65	1308.65
345.86	1286.12
346.07	1257.45
346.29	1206.25
346.50	1288.17
346.71	1222.64
346.92	1228.78
347.13	1331.18
347.34	1335.28
347.55	1273.84
347.76	1222.64
347.98	1294.32
348.19	1337.32
348.40	1320.94
348.61	1298.41
348.82	1302.51
349.03	1290.22
349.24	1208.30
349.45	1253.36
349.66	1241.07
349.88	1318.89
350.09	1263.60
350.30	1363.95
350.51	1273.84
350.72	1257.45
350.93	1306.60
351.14	1265.64
351.35	1316.84
351.56	1329.13
351.77	1277.93
351.99	1288.17
352.20	1279.98
352.41	1335.28
352.62	1239.02
352.83	1202.16
353.04	1279.98
353.25	1284.08
353.46	1329.13
353.67	1271.79
353.88	1265.64
354.09	1271.79
354.30	1241.07
354.52	1241.07
354.73	1277.93
354.94	1277.93
355.15	1318.89
355.36	1269.74
355.57	1314.80
355.78	1249.26
355.99	1247.21
356.20	1241.07
356.41	1263.60
356.62	1273.84
356.83	1212.40
357.04	1265.64
357.25	1282.03
357.46	1290.22
357.68	1355.76
357.89	1286.12
358.10	1226.73
358.31	1253.36
358.52	1212.40
358.73	1261.55
358.94	1298.41
359.15	1243.12
359.36	1261.55
359.57	1279.98
359.78	1318.89
359.99	1302.51
360.20	1294.32
360.41	1327.08
360.62	1243.12
360.83	1187.82
361.04	1216.49
361.25	1239.02
361.46	1282.03
361.67	1290.22
361.88	1296.36
362.09	1210.35
362.30	1322.99
362.51	1226.73
362.72	1232.88
362.93	1296.36
363.14	1271.79
363.35	1273.84
363.56	1261.55
363.78	1220.59
363.99	1265.64
364.20	1249.26
364.41	1279.98
364.62	1245.16
364.83	1277.93
365.04	1294.32
365.25	1308.65
365.46	1288.17
365.67	1239.02
365.88	1251.31
366.09	1339.37
366.30	1265.64
366.51	1232.88
366.72	1198.06
366.93	1306.60
367.14	1239.02
367.35	1259.50
367.56	1255.40
367.77	1341.42
367.98	1290.22
368.18	1273.84
368.39	1273.84
368.60	1210.35
368.81	1249.26
369.02	1275.88
369.23	1296.36
369.44	1298.41
369.65	1275.88
369.86	1222.64
370.07	1282.03
370.28	1216.49
370.49	1243.12
370.70	1331.18
370.91	1222.64
371.12	1263.60
371.33	1247.21
371.54	1230.83
371.75	1290.22
371.96	1259.50
372.17	1275.88
372.38	1345.52
372.59	1312.75
372.80	1228.78
373.01	1249.26
373.22	1230.83
373.43	1277.93
373.64	1314.80
373.85	1310.70
374.06	1241.07
374.26	1210.35
374.47	1286.12
374.68	1284.08
374.89	1261.55
375.10	1234.93
375.31	1245.16
375.52	1261.55
375.73	1253.36
375.94	1222.64
376.15	1290.22
376.36	1273.84
376.57	1212.40
376.78	1361.90
376.99	1277.93
377.20	1193.97
377.40	1277.93
377.61	1234.93
377.82	1290.22
378.03	1185.77
378.24	1239.02
378.45	1296.36
378.66	1318.89
378.87	1243.12
379.08	1275.88
379.29	1251.31
379.50	1259.50
379.71	1267.69
379.91	1226.73
380.12	1277.93
380.33	1294.32
380.54	1265.64
380.75	1265.64
380.96	1282.03
381.17	1239.02
381.38	1269.74
381.59	1290.22
381.80	1290.22
382.00	1298.41
382.21	1294.32
382.42	1198.06
382.63	1216.49
382.84	1269.74
383.05	1232.88
383.26	1277.93
383.47	1224.69
383.68	1273.84
383.88	1269.74
384.09	1261.55
384.30	1210.35
384.51	1241.07
384.72	1259.50
384.93	1312.75
385.14	1304.56
385.35	1310.70
385.55	1318.89
385.76	1273.84
385.97	1251.31
386.18	1245.16
386.39	1294.32
386.60	1288.17
386.81	1288.17
387.02	1232.88
387.22	1243.12
387.43	1275.88
387.64	1220.59
387.85	1329.13
388.06	1200.11
388.27	1218.54
388.48	1288.17
388.68	1169.39
388.89	1236.97
389.10	1230.83
389.31	1249.26
389.52	1198.06
389.73	1208.30
389.93	1273.84
390.14	1257.45
390.35	1271.79
390.56	1236.97
390.77	1308.65
390.98	1228.78
391.18	1279.98
391.39	1247.21
391.60	1216.49
391.81	1314.80
392.02	1267.69
392.23	1355.76
392.43	1265.64
392.64	1314.80
392.85	1230.83
393.06	1200.11
393.27	1271.79
393.47	1284.08
393.68	1312.75
393.89	1257.45
394.10	1267.69
394.31	1255.40
394.52	1232.88
394.72	1265.64
394.93	1269.74
395.14	1253.36
395.35	1322.99
395.56	1222.64
395.76	1296.36
395.97	1306.60
396.18	1288.17
396.39	1239.02
396.60	1245.16
396.80	1253.36
397.01	1304.56
397.22	1290.22
397.43	1308.65
397.64	1267.69
397.84	1249.26
398.05	1275.88
398.26	1243.12
398.47	1269.74
398.67	1314.80
398.88	1320.94
399.09	1224.69
399.30	1275.88
399.51	1339.37
399.71	1374.19
399.92	1282.03
400.13	1251.31
400.34	1318.89
400.54	1191.92
400.75	1273.84
400.96	1277.93
401.17	1265.64
401.37	1300.46
401.58	1206.25
401.79	1269.74
402.00	1236.97
402.21	1226.73
402.41	1216.49
402.62	1308.65
402.83	1206.25
403.04	1314.80
403.24	1308.65
403.45	1282.03
403.66	1216.49
403.87	1234.93
404.07	1312.75
404.28	1325.04
404.49	1286.12
404.70	1263.60
404.90	1310.70
405.11	1275.88
405.32	1265.64
405.52	1335.28
405.73	1290.22
405.94	1265.64
406.15	1304.56
406.35	1298.41
406.56	1302.51
406.77	1333.23
406.98	1275.88
407.18	1210.35
407.39	1296.36
407.60	1294.32
407.80	1271.79
408.01	1261.55
408.22	1239.02
408.43	1314.80
408.63	1206.25
408.84	1286.12
409.05	1310.70
409.25	1271.79
409.46	1267.69
409.67	1234.93
409.88	1341.42
410.08	1325.04
410.29	1314.80
410.50	1206.25
410.70	1232.88
410.91	1255.40
411.12	1271.79
411.32	1214.45
411.53	1282.03
411.74	1265.64
411.95	1298.41
412.15	1253.36
412.36	1271.79
412.57	1265.64
412.77	1277.93
412.98	1232.88
413.19	1243.12
413.39	1310.70
413.60	1304.56
413.81	1265.64
414.01	1298.41
414.22	1224.69
414.43	1275.88
414.63	1261.55
414.84	1239.02
415.05	1296.36
415.25	1277.93
415.46	1306.60
415.67	1275.88
415.87	1300.46
416.08	1236.97
416.29	1294.32
416.49	1273.84
416.70	1286.12
416.91	1273.84
417.11	1236.97
417.32	1236.97
417.53	1279.98
417.73	1325.04
417.94	1277.93
418.15	1284.08
418.35	1251.31
418.56	1222.64
418.77	1269.74
418.97	1232.88
419.18	1257.45
419.38	1279.98
419.59	1286.12
419.80	1269.74
420.00	1230.83
420.21	1312.75
420.42	1243.12
420.62	1253.36
420.83	1343.47
421.04	1267.69
421.24	1269.74
421.45	1245.16
421.65	1279.98
421.86	1292.27
422.07	1322.99
422.27	1263.60
422.48	1271.79
422.69	1263.60
422.89	1273.84
423.10	1310.70
423.30	1282.03
423.51	1257.45
423.72	1241.07
423.92	1253.36
424.13	1243.12
424.33	1347.56
424.54	1251.31
424.75	1241.07
424.95	1363.95
425.16	1320.94
425.36	1200.11
425.57	1200.11
425.78	1333.23
425.98	1265.64
426.19	1318.89
426.39	1282.03
426.60	1257.45
426.81	1255.40
427.01	1265.64
427.22	1200.11
427.42	1310.70
427.63	1216.49
427.83	1288.17
428.04	1257.45
428.25	1253.36
428.45	1275.88
428.66	1261.55
428.86	1329.13
429.07	1265.64
429.28	1220.59
429.48	1257.45
429.69	1265.64
429.89	1259.50
430.10	1239.02
430.30	1208.30
430.51	1275.88
430.71	1241.07
430.92	1269.74
431.13	1282.03
431.33	1251.31
431.54	1275.88
431.74	1312.75
431.95	1308.65
432.15	1257.45
432.36	1218.54
432.56	1288.17
432.77	1263.60
432.98	1265.64
433.18	1368.04
433.39	1306.60
433.59	1318.89
433.80	1273.84
434.00	1210.35
434.21	1214.45
434.41	1294.32
434.62	1269.74
434.82	1243.12
435.03	1298.41
435.23	1304.56
435.44	1232.88
435.64	1220.59
435.85	1239.02
436.06	1236.97
436.26	1255.40
436.47	1310.70
436.67	1271.79
436.88	1286.12
437.08	1279.98
437.29	1361.90
437.49	1253.36
437.70	1230.83
437.90	1284.08
438.11	1396.71
438.31	1298.41
438.52	1277.93
438.72	1273.84
438.93	1382.38
439.13	1312.75
439.34	1273.84
439.54	1341.42
439.75	1318.89
439.95	1292.27
440.16	1234.93
440.36	1241.07
440.57	1290.22
440.77	1294.32
440.98	1228.78
441.18	1241.07
441.39	1261.55
441.59	1314.80
441.80	1263.60
442.00	1286.12
442.21	1210.35
442.41	1329.13
442.62	1251.31
442.82	1241.07
443.02	1232.88
443.23	1255.40
443.43	1300.46
443.64	1294.32
443.84	1259.50
444.05	1261.55
444.25	1294.32
444.46	1249.26
444.66	1312.75
444.87	1318.89
445.07	1271.79
445.28	1304.56
445.48	1265.64
445.69	1171.44
445.89	1337.32
446.09	1273.84
446.30	1144.81
446.50	1306.60
446.71	1306.60
446.91	1273.84
447.12	1294.32
447.32	1226.73
447.53	1339.37
447.73	1198.06
447.93	1247.21
448.14	1222.64
448.34	1198.06
448.55	1300.46
448.75	1288.17
448.96	1292.27
449.16	1222.64
449.36	1296.36
449.57	1236.97
449.77	1249.26
449.98	1214.45
450.18	1298.41
450.39	1261.55
450.59	1275.88
450.79	1284.08
451.00	1316.84
451.20	1243.12
451.41	1265.64
451.61	1232.88
451.81	1247.21
452.02	1236.97
452.22	1245.16
452.43	1206.25
452.63	1236.97
