SpectraSuite Data File
++++++++++++++++++++++++++++++++++++
Date: Sun Apr 03 19:55:27 CEST 2016
User: root
Dark Spectrum Present: No
Reference Spectrum Present: No
Number of Sampled Component Spectra: 1
Spectrometers: USB4C02835
Integration Time (usec): 10000 (USB4C02835)
Spectra Averaged: 1 (USB4C02835)
Boxcar Smoothing: 0 (USB4C02835)
Correct for Electrical Dark: No (USB4C02835)
Strobe/Lamp Enabled: No (USB4C02835)
Correct for Detector Non-linearity: No (USB4C02835)
Correct for Stray Light: No (USB4C02835)
Number of Pixels in Processed Spectrum: 3648
>>>>>Begin Processed Spectral Data<<<<<
177.47	1247.21
177.69	1247.21
177.91	1247.21
178.13	1232.88
178.36	1218.54
178.58	1261.55
178.80	1329.13
179.02	1236.97
179.24	1228.78
179.46	1331.18
179.68	1275.88
179.90	1251.31
180.13	1159.15
180.35	1271.79
180.57	1247.21
180.79	1234.93
181.01	1333.23
181.23	1279.98
181.45	1241.07
181.67	1239.02
181.90	1320.94
182.12	1271.79
182.34	1279.98
182.56	1263.60
182.78	1257.45
183.00	1241.07
183.22	1277.93
183.44	1249.26
183.66	1267.69
183.89	1247.21
184.11	1269.74
184.33	1241.07
184.55	1259.50
184.77	1298.41
184.99	1236.97
185.21	1275.88
185.43	1228.78
185.65	1320.94
185.87	1312.75
186.10	1253.36
186.32	1275.88
186.54	1267.69
186.76	1257.45
186.98	1269.74
187.20	1232.88
187.42	1261.55
187.64	1239.02
187.86	1279.98
188.08	1208.30
188.30	1255.40
188.52	1361.90
188.75	1286.12
188.97	1275.88
189.19	1212.40
189.41	1318.89
189.63	1275.88
189.85	1165.29
190.07	1239.02
190.29	1277.93
190.51	1230.83
190.73	1271.79
190.95	1210.35
191.17	1370.09
191.39	1243.12
191.61	1265.64
191.84	1294.32
192.06	1337.32
192.28	1224.69
192.50	1359.85
192.72	1290.22
192.94	1298.41
193.16	1257.45
193.38	1292.27
193.60	1302.51
193.82	1337.32
194.04	1224.69
194.26	1271.79
194.48	1265.64
194.70	1314.80
194.92	1282.03
195.14	1273.84
195.36	1249.26
195.58	1251.31
195.80	1251.31
196.02	1255.40
196.24	1273.84
196.46	1271.79
196.69	1273.84
196.91	1191.92
197.13	1290.22
197.35	1275.88
197.57	1302.51
197.79	1247.21
198.01	1226.73
198.23	1249.26
198.45	1212.40
198.67	1327.08
198.89	1241.07
199.11	1265.64
199.33	1312.75
199.55	1214.45
199.77	1208.30
199.99	1286.12
200.21	1187.82
200.43	1288.17
200.65	1208.30
200.87	1337.32
201.09	1222.64
201.31	1284.08
201.53	1249.26
201.75	1277.93
201.97	1304.56
202.19	1325.04
202.41	1216.49
202.63	1265.64
202.85	1222.64
203.07	1277.93
203.29	1251.31
203.51	1247.21
203.73	1304.56
203.95	1261.55
204.17	1263.60
204.39	1234.93
204.61	1298.41
204.83	1314.80
205.05	1245.16
205.27	1187.82
205.49	1228.78
205.71	1290.22
205.93	1294.32
206.15	1263.60
206.37	1263.60
206.59	1210.35
206.81	1228.78
207.03	1249.26
207.25	1251.31
207.47	1325.04
207.69	1286.12
207.91	1300.46
208.13	1247.21
208.34	1216.49
208.56	1251.31
208.78	1239.02
209.00	1296.36
209.22	1343.47
209.44	1288.17
209.66	1279.98
209.88	1279.98
210.10	1312.75
210.32	1245.16
210.54	1269.74
210.76	1290.22
210.98	1243.12
211.20	1232.88
211.42	1249.26
211.64	1257.45
211.86	1216.49
212.08	1290.22
212.30	1306.60
212.52	1243.12
212.74	1247.21
212.96	1253.36
213.17	1273.84
213.39	1290.22
213.61	1230.83
213.83	1245.16
214.05	1218.54
214.27	1189.87
214.49	1294.32
214.71	1259.50
214.93	1251.31
215.15	1279.98
215.37	1290.22
215.59	1259.50
215.81	1265.64
216.03	1257.45
216.24	1279.98
216.46	1275.88
216.68	1193.97
216.90	1312.75
217.12	1292.27
217.34	1290.22
217.56	1247.21
217.78	1269.74
218.00	1259.50
218.22	1290.22
218.44	1275.88
218.66	1173.49
218.87	1232.88
219.09	1284.08
219.31	1312.75
219.53	1196.01
219.75	1273.84
219.97	1314.80
220.19	1208.30
220.41	1202.16
220.63	1298.41
220.85	1271.79
221.06	1259.50
221.28	1269.74
221.50	1257.45
221.72	1263.60
221.94	1296.36
222.16	1271.79
222.38	1226.73
222.60	1312.75
222.82	1243.12
223.03	1284.08
223.25	1275.88
223.47	1335.28
223.69	1310.70
223.91	1292.27
224.13	1206.25
224.35	1300.46
224.57	1314.80
224.78	1253.36
225.00	1181.68
225.22	1249.26
225.44	1228.78
225.66	1216.49
225.88	1249.26
226.10	1247.21
226.32	1329.13
226.53	1247.21
226.75	1210.35
226.97	1302.51
227.19	1259.50
227.41	1263.60
227.63	1243.12
227.85	1314.80
228.06	1208.30
228.28	1286.12
228.50	1279.98
228.72	1177.58
228.94	1153.01
229.16	1279.98
229.37	1298.41
229.59	1251.31
229.81	1288.17
230.03	1265.64
230.25	1261.55
230.47	1271.79
230.69	1241.07
230.90	1216.49
231.12	1263.60
231.34	1265.64
231.56	1298.41
231.78	1265.64
232.00	1259.50
232.21	1226.73
232.43	1226.73
232.65	1232.88
232.87	1271.79
233.09	1249.26
233.30	1234.93
233.52	1296.36
233.74	1286.12
233.96	1232.88
234.18	1286.12
234.40	1265.64
234.61	1304.56
234.83	1243.12
235.05	1222.64
235.27	1228.78
235.49	1263.60
235.70	1245.16
235.92	1300.46
236.14	1263.60
236.36	1306.60
236.58	1214.45
236.79	1253.36
237.01	1322.99
237.23	1288.17
237.45	1275.88
237.67	1243.12
237.88	1290.22
238.10	1265.64
238.32	1232.88
238.54	1304.56
238.76	1267.69
238.97	1386.47
239.19	1333.23
239.41	1284.08
239.63	1327.08
239.85	1290.22
240.06	1320.94
240.28	1286.12
240.50	1245.16
240.72	1222.64
240.93	1218.54
241.15	1255.40
241.37	1224.69
241.59	1255.40
241.81	1269.74
242.02	1212.40
242.24	1277.93
242.46	1329.13
242.68	1239.02
242.89	1325.04
243.11	1257.45
243.33	1288.17
243.55	1275.88
243.76	1333.23
243.98	1261.55
244.20	1255.40
244.42	1214.45
244.64	1298.41
244.85	1288.17
245.07	1320.94
245.29	1212.40
245.51	1253.36
245.72	1253.36
245.94	1253.36
246.16	1232.88
246.38	1345.52
246.59	1284.08
246.81	1216.49
247.03	1224.69
247.24	1224.69
247.46	1249.26
247.68	1345.52
247.90	1257.45
248.11	1300.46
248.33	1208.30
248.55	1243.12
248.77	1298.41
248.98	1273.84
249.20	1357.80
249.42	1271.79
249.64	1286.12
249.85	1234.93
250.07	1224.69
250.29	1261.55
250.50	1304.56
250.72	1200.11
250.94	1196.01
251.16	1202.16
251.37	1208.30
251.59	1257.45
251.81	1279.98
252.02	1314.80
252.24	1286.12
252.46	1251.31
252.68	1247.21
252.89	1294.32
253.11	1284.08
253.33	1226.73
253.54	1220.59
253.76	1310.70
253.98	1253.36
254.20	1310.70
254.41	1218.54
254.63	1261.55
254.85	1218.54
255.06	1255.40
255.28	1347.56
255.50	1261.55
255.71	1224.69
255.93	1239.02
256.15	1216.49
256.36	1286.12
256.58	1339.37
256.80	1249.26
257.02	1259.50
257.23	1241.07
257.45	1247.21
257.67	1271.79
257.88	1204.21
258.10	1208.30
258.32	1308.65
258.53	1263.60
258.75	1241.07
258.97	1249.26
259.18	1269.74
259.40	1273.84
259.62	1345.52
259.83	1232.88
260.05	1204.21
260.27	1253.36
260.48	1314.80
260.70	1214.45
260.92	1294.32
261.13	1308.65
261.35	1216.49
261.57	1282.03
261.78	1236.97
262.00	1255.40
262.22	1337.32
262.43	1239.02
262.65	1320.94
262.86	1263.60
263.08	1286.12
263.30	1267.69
263.51	1224.69
263.73	1306.60
263.95	1300.46
264.16	1224.69
264.38	1263.60
264.60	1302.51
264.81	1265.64
265.03	1288.17
265.25	1294.32
265.46	1257.45
265.68	1304.56
265.89	1191.92
266.11	1275.88
266.33	1253.36
266.54	1298.41
266.76	1284.08
266.98	1308.65
267.19	1236.97
267.41	1271.79
267.62	1267.69
267.84	1245.16
268.06	1290.22
268.27	1312.75
268.49	1210.35
268.70	1241.07
268.92	1271.79
269.14	1300.46
269.35	1286.12
269.57	1230.83
269.79	1206.25
270.00	1222.64
270.22	1165.29
270.43	1279.98
270.65	1253.36
270.87	1341.42
271.08	1331.18
271.30	1302.51
271.51	1294.32
271.73	1335.28
271.95	1374.19
272.16	1308.65
272.38	1351.66
272.59	1267.69
272.81	1329.13
273.02	1277.93
273.24	1329.13
273.46	1230.83
273.67	1239.02
273.89	1357.80
274.10	1241.07
274.32	1361.90
274.54	1193.97
274.75	1310.70
274.97	1255.40
275.18	1204.21
275.40	1241.07
275.61	1241.07
275.83	1243.12
276.05	1290.22
276.26	1273.84
276.48	1226.73
276.69	1288.17
276.91	1335.28
277.12	1263.60
277.34	1316.84
277.55	1234.93
277.77	1316.84
277.99	1320.94
278.20	1216.49
278.42	1239.02
278.63	1239.02
278.85	1263.60
279.06	1181.68
279.28	1255.40
279.49	1290.22
279.71	1255.40
279.93	1308.65
280.14	1312.75
280.36	1212.40
280.57	1329.13
280.79	1257.45
281.00	1247.21
281.22	1202.16
281.43	1267.69
281.65	1208.30
281.86	1284.08
282.08	1335.28
282.29	1290.22
282.51	1279.98
282.73	1220.59
282.94	1282.03
283.16	1273.84
283.37	1273.84
283.59	1298.41
283.80	1257.45
284.02	1261.55
284.23	1310.70
284.45	1198.06
284.66	1265.64
284.88	1290.22
285.09	1263.60
285.31	1265.64
285.52	1263.60
285.74	1290.22
285.95	1251.31
286.17	1286.12
286.38	1267.69
286.60	1282.03
286.81	1218.54
287.03	1298.41
287.24	1304.56
287.46	1230.83
287.67	1222.64
287.89	1279.98
288.10	1247.21
288.32	1316.84
288.53	1282.03
288.75	1370.09
288.96	1247.21
289.18	1249.26
289.39	1239.02
289.61	1243.12
289.82	1302.51
290.04	1257.45
290.25	1226.73
290.47	1249.26
290.68	1228.78
290.90	1273.84
291.11	1290.22
291.33	1296.36
291.54	1239.02
291.76	1198.06
291.97	1302.51
292.18	1259.50
292.40	1263.60
292.61	1316.84
292.83	1245.16
293.04	1320.94
293.26	1308.65
293.47	1304.56
293.69	1247.21
293.90	1296.36
294.12	1263.60
294.33	1230.83
294.55	1232.88
294.76	1312.75
294.97	1255.40
295.19	1265.64
295.40	1189.87
295.62	1333.23
295.83	1286.12
296.05	1310.70
296.26	1241.07
296.48	1296.36
296.69	1245.16
296.90	1320.94
297.12	1288.17
297.33	1267.69
297.55	1257.45
297.76	1257.45
297.98	1306.60
298.19	1386.47
298.41	1300.46
298.62	1239.02
298.83	1277.93
299.05	1312.75
299.26	1247.21
299.48	1277.93
299.69	1241.07
299.90	1245.16
300.12	1267.69
300.33	1193.97
300.55	1290.22
300.76	1308.65
300.98	1230.83
301.19	1265.64
301.40	1308.65
301.62	1277.93
301.83	1282.03
302.05	1380.33
302.26	1267.69
302.47	1202.16
302.69	1261.55
302.90	1245.16
303.12	1320.94
303.33	1310.70
303.54	1298.41
303.76	1191.92
303.97	1243.12
304.19	1230.83
304.40	1294.32
304.61	1261.55
304.83	1288.17
305.04	1269.74
305.26	1226.73
305.47	1296.36
305.68	1306.60
305.90	1298.41
306.11	1304.56
306.33	1312.75
306.54	1265.64
306.75	1329.13
306.97	1271.79
307.18	1292.27
307.39	1345.52
307.61	1300.46
307.82	1214.45
308.04	1273.84
308.25	1232.88
308.46	1249.26
308.68	1230.83
308.89	1294.32
309.10	1288.17
309.32	1292.27
309.53	1236.97
309.74	1251.31
309.96	1247.21
310.17	1257.45
310.39	1218.54
310.60	1296.36
310.81	1187.82
311.03	1230.83
311.24	1286.12
311.45	1228.78
311.67	1259.50
311.88	1263.60
312.09	1277.93
312.31	1257.45
312.52	1196.01
312.73	1318.89
312.95	1284.08
313.16	1300.46
313.37	1228.78
313.59	1292.27
313.80	1290.22
314.01	1277.93
314.23	1204.21
314.44	1259.50
314.65	1234.93
314.87	1329.13
315.08	1294.32
315.29	1294.32
315.51	1290.22
315.72	1335.28
315.93	1343.47
316.15	1253.36
316.36	1263.60
316.57	1310.70
316.79	1267.69
317.00	1312.75
317.21	1284.08
317.43	1261.55
317.64	1263.60
317.85	1222.64
318.07	1226.73
318.28	1286.12
318.49	1314.80
318.70	1288.17
318.92	1292.27
319.13	1259.50
319.34	1345.52
319.56	1284.08
319.77	1234.93
319.98	1265.64
320.20	1269.74
320.41	1306.60
320.62	1304.56
320.83	1234.93
321.05	1322.99
321.26	1292.27
321.47	1322.99
321.69	1380.33
321.90	1316.84
322.11	1271.79
322.32	1310.70
322.54	1247.21
322.75	1333.23
322.96	1230.83
323.18	1249.26
323.39	1279.98
323.60	1249.26
323.81	1292.27
324.03	1232.88
324.24	1228.78
324.45	1265.64
324.66	1284.08
324.88	1241.07
325.09	1214.45
325.30	1257.45
325.52	1273.84
325.73	1239.02
325.94	1269.74
326.15	1157.10
326.37	1247.21
326.58	1302.51
326.79	1282.03
327.00	1259.50
327.22	1265.64
327.43	1277.93
327.64	1269.74
327.85	1325.04
328.07	1255.40
328.28	1331.18
328.49	1331.18
328.70	1290.22
328.92	1165.29
329.13	1288.17
329.34	1245.16
329.55	1292.27
329.76	1275.88
329.98	1220.59
330.19	1208.30
330.40	1243.12
330.61	1269.74
330.83	1226.73
331.04	1279.98
331.25	1296.36
331.46	1296.36
331.68	1261.55
331.89	1257.45
332.10	1286.12
332.31	1251.31
332.52	1253.36
332.74	1349.61
332.95	1269.74
333.16	1294.32
333.37	1267.69
333.58	1259.50
333.80	1232.88
334.01	1245.16
334.22	1290.22
334.43	1314.80
334.64	1349.61
334.86	1300.46
335.07	1298.41
335.28	1271.79
335.49	1239.02
335.70	1282.03
335.92	1302.51
336.13	1243.12
336.34	1286.12
336.55	1222.64
336.76	1245.16
336.98	1265.64
337.19	1316.84
337.40	1265.64
337.61	1222.64
337.82	1224.69
338.04	1320.94
338.25	1282.03
338.46	1275.88
338.67	1241.07
338.88	1284.08
339.09	1279.98
339.31	1312.75
339.52	1292.27
339.73	1236.97
339.94	1302.51
340.15	1245.16
340.36	1277.93
340.58	1261.55
340.79	1294.32
341.00	1322.99
341.21	1220.59
341.42	1216.49
341.63	1345.52
341.85	1267.69
342.06	1273.84
342.27	1251.31
342.48	1322.99
342.69	1294.32
342.90	1239.02
343.12	1210.35
343.33	1314.80
343.54	1230.83
343.75	1277.93
343.96	1302.51
344.17	1226.73
344.38	1253.36
344.60	1236.97
344.81	1265.64
345.02	1282.03
345.23	1257.45
345.44	1298.41
345.65	1232.88
345.86	1247.21
346.07	1308.65
346.29	1320.94
346.50	1234.93
346.71	1249.26
346.92	1351.66
347.13	1257.45
347.34	1263.60
347.55	1273.84
347.76	1245.16
347.98	1300.46
348.19	1275.88
348.40	1294.32
348.61	1251.31
348.82	1292.27
349.03	1327.08
349.24	1222.64
349.45	1300.46
349.66	1259.50
349.88	1265.64
350.09	1200.11
350.30	1306.60
350.51	1275.88
350.72	1239.02
350.93	1208.30
351.14	1236.97
351.35	1257.45
351.56	1320.94
351.77	1222.64
351.99	1261.55
352.20	1304.56
352.41	1277.93
352.62	1335.28
352.83	1247.21
353.04	1273.84
353.25	1261.55
353.46	1300.46
353.67	1249.26
353.88	1228.78
354.09	1265.64
354.30	1318.89
354.52	1343.47
354.73	1232.88
354.94	1286.12
355.15	1294.32
355.36	1265.64
355.57	1261.55
355.78	1265.64
355.99	1273.84
356.20	1279.98
356.41	1247.21
356.62	1255.40
356.83	1239.02
357.04	1232.88
357.25	1255.40
357.46	1247.21
357.68	1247.21
357.89	1204.21
358.10	1261.55
358.31	1218.54
358.52	1351.66
358.73	1187.82
358.94	1271.79
359.15	1257.45
359.36	1282.03
359.57	1247.21
359.78	1279.98
359.99	1216.49
360.20	1251.31
360.41	1239.02
360.62	1327.08
360.83	1333.23
361.04	1210.35
361.25	1269.74
361.46	1210.35
361.67	1214.45
361.88	1257.45
362.09	1279.98
362.30	1335.28
362.51	1275.88
362.72	1263.60
362.93	1249.26
363.14	1296.36
363.35	1261.55
363.56	1200.11
363.78	1247.21
363.99	1294.32
364.20	1288.17
364.41	1247.21
364.62	1292.27
364.83	1222.64
365.04	1288.17
365.25	1282.03
365.46	1292.27
365.67	1275.88
365.88	1269.74
366.09	1263.60
366.30	1294.32
366.51	1302.51
366.72	1204.21
366.93	1294.32
367.14	1337.32
367.35	1273.84
367.56	1243.12
367.77	1282.03
367.98	1220.59
368.18	1187.82
368.39	1251.31
368.60	1296.36
368.81	1355.76
369.02	1294.32
369.23	1265.64
369.44	1189.87
369.65	1263.60
369.86	1269.74
370.07	1206.25
370.28	1269.74
370.49	1257.45
370.70	1218.54
370.91	1304.56
371.12	1282.03
371.33	1372.14
371.54	1261.55
371.75	1312.75
371.96	1294.32
372.17	1267.69
372.38	1259.50
372.59	1282.03
372.80	1273.84
373.01	1249.26
373.22	1255.40
373.43	1234.93
373.64	1279.98
373.85	1263.60
374.06	1232.88
374.26	1306.60
374.47	1290.22
374.68	1331.18
374.89	1253.36
375.10	1259.50
375.31	1259.50
375.52	1236.97
375.73	1236.97
375.94	1312.75
376.15	1255.40
376.36	1275.88
376.57	1337.32
376.78	1222.64
376.99	1255.40
377.20	1236.97
377.40	1218.54
377.61	1296.36
377.82	1263.60
378.03	1273.84
378.24	1302.51
378.45	1284.08
378.66	1230.83
378.87	1185.77
379.08	1292.27
379.29	1298.41
379.50	1277.93
379.71	1243.12
379.91	1304.56
380.12	1214.45
380.33	1279.98
380.54	1302.51
380.75	1302.51
380.96	1286.12
381.17	1198.06
381.38	1212.40
381.59	1144.81
381.80	1286.12
382.00	1318.89
382.21	1222.64
382.42	1259.50
382.63	1292.27
382.84	1294.32
383.05	1202.16
383.26	1263.60
383.47	1228.78
383.68	1241.07
383.88	1239.02
384.09	1329.13
384.30	1249.26
384.51	1228.78
384.72	1234.93
384.93	1245.16
385.14	1263.60
385.35	1181.68
385.55	1265.64
385.76	1277.93
385.97	1222.64
386.18	1351.66
386.39	1255.40
386.60	1271.79
386.81	1279.98
387.02	1279.98
387.22	1247.21
387.43	1341.42
387.64	1271.79
387.85	1222.64
388.06	1284.08
388.27	1308.65
388.48	1304.56
388.68	1263.60
388.89	1177.58
389.10	1288.17
389.31	1271.79
389.52	1239.02
389.73	1239.02
389.93	1249.26
390.14	1337.32
390.35	1226.73
390.56	1232.88
390.77	1366.00
390.98	1255.40
391.18	1245.16
391.39	1226.73
391.60	1310.70
391.81	1275.88
392.02	1269.74
392.23	1212.40
392.43	1239.02
392.64	1263.60
392.85	1341.42
393.06	1267.69
393.27	1298.41
393.47	1261.55
393.68	1277.93
393.89	1288.17
394.10	1263.60
394.31	1271.79
394.52	1245.16
394.72	1196.01
394.93	1253.36
395.14	1275.88
395.35	1218.54
395.56	1316.84
395.76	1302.51
395.97	1214.45
396.18	1204.21
396.39	1277.93
396.60	1320.94
396.80	1302.51
397.01	1298.41
397.22	1294.32
397.43	1306.60
397.64	1275.88
397.84	1271.79
398.05	1296.36
398.26	1273.84
398.47	1208.30
398.67	1312.75
398.88	1320.94
399.09	1282.03
399.30	1325.04
399.51	1181.68
399.71	1282.03
399.92	1249.26
400.13	1210.35
400.34	1288.17
400.54	1175.53
400.75	1265.64
400.96	1267.69
401.17	1308.65
401.37	1390.57
401.58	1337.32
401.79	1247.21
402.00	1243.12
402.21	1279.98
402.41	1282.03
402.62	1312.75
402.83	1261.55
403.04	1249.26
403.24	1275.88
403.45	1245.16
403.66	1265.64
403.87	1216.49
404.07	1249.26
404.28	1236.97
404.49	1247.21
404.70	1257.45
404.90	1290.22
405.11	1312.75
405.32	1234.93
405.52	1308.65
405.73	1345.52
405.94	1277.93
406.15	1263.60
406.35	1257.45
406.56	1208.30
406.77	1304.56
406.98	1224.69
407.18	1288.17
407.39	1243.12
407.60	1157.10
407.80	1251.31
408.01	1247.21
408.22	1253.36
408.43	1185.77
408.63	1198.06
408.84	1185.77
409.05	1296.36
409.25	1196.01
409.46	1255.40
409.67	1294.32
409.88	1249.26
410.08	1298.41
410.29	1267.69
410.50	1230.83
410.70	1247.21
410.91	1189.87
411.12	1263.60
411.32	1327.08
411.53	1265.64
411.74	1249.26
411.95	1300.46
412.15	1312.75
412.36	1263.60
412.57	1329.13
412.77	1267.69
412.98	1259.50
413.19	1228.78
413.39	1265.64
413.60	1294.32
413.81	1241.07
414.01	1257.45
414.22	1200.11
414.43	1241.07
414.63	1320.94
414.84	1347.56
415.05	1279.98
415.25	1261.55
415.46	1284.08
415.67	1265.64
415.87	1302.51
416.08	1298.41
416.29	1245.16
416.49	1275.88
416.70	1222.64
416.91	1249.26
417.11	1234.93
417.32	1222.64
417.53	1288.17
417.73	1224.69
417.94	1314.80
418.15	1329.13
418.35	1288.17
418.56	1290.22
418.77	1320.94
418.97	1271.79
419.18	1269.74
419.38	1271.79
419.59	1286.12
419.80	1298.41
420.00	1257.45
420.21	1263.60
420.42	1294.32
420.62	1261.55
420.83	1230.83
421.04	1271.79
421.24	1314.80
421.45	1150.96
421.65	1335.28
421.86	1306.60
422.07	1241.07
422.27	1261.55
422.48	1306.60
422.69	1249.26
422.89	1253.36
423.10	1271.79
423.30	1206.25
423.51	1275.88
423.72	1310.70
423.92	1290.22
424.13	1294.32
424.33	1257.45
424.54	1277.93
424.75	1234.93
424.95	1228.78
425.16	1228.78
425.36	1241.07
425.57	1245.16
425.78	1267.69
425.98	1263.60
426.19	1261.55
426.39	1216.49
426.60	1249.26
426.81	1282.03
427.01	1245.16
427.22	1206.25
427.42	1243.12
427.63	1263.60
427.83	1288.17
428.04	1216.49
428.25	1290.22
428.45	1214.45
428.66	1232.88
428.86	1263.60
429.07	1210.35
429.28	1232.88
429.48	1234.93
429.69	1224.69
429.89	1275.88
430.10	1282.03
430.30	1271.79
430.51	1347.56
430.71	1271.79
430.92	1288.17
431.13	1308.65
431.33	1277.93
431.54	1284.08
431.74	1255.40
431.95	1234.93
432.15	1284.08
432.36	1220.59
432.56	1273.84
432.77	1298.41
432.98	1206.25
433.18	1271.79
433.39	1259.50
433.59	1339.37
433.80	1261.55
434.00	1310.70
434.21	1257.45
434.41	1245.16
434.62	1267.69
434.82	1329.13
435.03	1312.75
435.23	1230.83
435.44	1296.36
435.64	1312.75
435.85	1243.12
436.06	1251.31
436.26	1269.74
436.47	1204.21
436.67	1230.83
436.88	1306.60
437.08	1210.35
437.29	1249.26
437.49	1247.21
437.70	1347.56
437.90	1230.83
438.11	1329.13
438.31	1316.84
438.52	1304.56
438.72	1271.79
438.93	1310.70
439.13	1275.88
439.34	1273.84
439.54	1322.99
439.75	1232.88
439.95	1257.45
440.16	1275.88
440.36	1294.32
440.57	1318.89
440.77	1312.75
440.98	1251.31
441.18	1228.78
441.39	1322.99
441.59	1222.64
441.80	1249.26
442.00	1300.46
442.21	1308.65
442.41	1300.46
442.62	1288.17
442.82	1261.55
443.02	1234.93
443.23	1257.45
443.43	1263.60
443.64	1265.64
443.84	1261.55
444.05	1257.45
444.25	1298.41
444.46	1271.79
444.66	1259.50
444.87	1374.19
445.07	1322.99
445.28	1314.80
445.48	1298.41
445.69	1320.94
445.89	1331.18
446.09	1359.85
446.30	1343.47
446.50	1292.27
446.71	1277.93
446.91	1196.01
447.12	1204.21
447.32	1288.17
447.53	1277.93
447.73	1335.28
447.93	1216.49
448.14	1318.89
448.34	1224.69
448.55	1282.03
448.75	1290.22
448.96	1290.22
449.16	1290.22
449.36	1259.50
449.57	1263.60
449.77	1308.65
449.98	1236.97
450.18	1314.80
450.39	1296.36
450.59	1341.42
450.79	1269.74
451.00	1290.22
451.20	1212.40
451.41	1284.08
451.61	1275.88
451.81	1359.85
452.02	1331.18
452.22	1241.07
452.43	1191.92
452.63	1253.36
