SpectraSuite Data File
++++++++++++++++++++++++++++++++++++
Date: Sun Apr 03 19:55:35 CEST 2016
User: root
Dark Spectrum Present: No
Reference Spectrum Present: No
Number of Sampled Component Spectra: 1
Spectrometers: USB4C02835
Integration Time (usec): 10000 (USB4C02835)
Spectra Averaged: 1 (USB4C02835)
Boxcar Smoothing: 0 (USB4C02835)
Correct for Electrical Dark: No (USB4C02835)
Strobe/Lamp Enabled: No (USB4C02835)
Correct for Detector Non-linearity: No (USB4C02835)
Correct for Stray Light: No (USB4C02835)
Number of Pixels in Processed Spectrum: 3648
>>>>>Begin Processed Spectral Data<<<<<
177.47	1251.31
177.69	1251.31
177.91	1251.31
178.13	1271.79
178.36	1325.04
178.58	1232.88
178.80	1318.89
179.02	1271.79
179.24	1275.88
179.46	1306.60
179.68	1294.32
179.90	1212.40
180.13	1241.07
180.35	1306.60
180.57	1320.94
180.79	1212.40
181.01	1296.36
181.23	1239.02
181.45	1329.13
181.67	1279.98
181.90	1282.03
182.12	1228.78
182.34	1273.84
182.56	1228.78
182.78	1271.79
183.00	1386.47
183.22	1273.84
183.44	1327.08
183.66	1296.36
183.89	1257.45
184.11	1331.18
184.33	1275.88
184.55	1226.73
184.77	1273.84
184.99	1243.12
185.21	1275.88
185.43	1294.32
185.65	1288.17
185.87	1257.45
186.10	1226.73
186.32	1265.64
186.54	1167.34
186.76	1302.51
186.98	1247.21
187.20	1259.50
187.42	1284.08
187.64	1224.69
187.86	1267.69
188.08	1271.79
188.30	1329.13
188.52	1263.60
188.75	1249.26
188.97	1265.64
189.19	1251.31
189.41	1329.13
189.63	1267.69
189.85	1290.22
190.07	1241.07
190.29	1220.59
190.51	1247.21
190.73	1284.08
190.95	1312.75
191.17	1306.60
191.39	1249.26
191.61	1302.51
191.84	1228.78
192.06	1222.64
192.28	1239.02
192.50	1226.73
192.72	1327.08
192.94	1343.47
193.16	1327.08
193.38	1216.49
193.60	1271.79
193.82	1282.03
194.04	1327.08
194.26	1261.55
194.48	1257.45
194.70	1310.70
194.92	1267.69
195.14	1292.27
195.36	1265.64
195.58	1251.31
195.80	1243.12
196.02	1314.80
196.24	1228.78
196.46	1216.49
196.69	1304.56
196.91	1265.64
197.13	1239.02
197.35	1282.03
197.57	1265.64
197.79	1267.69
198.01	1329.13
198.23	1245.16
198.45	1251.31
198.67	1239.02
198.89	1302.51
199.11	1228.78
199.33	1277.93
199.55	1275.88
199.77	1189.87
199.99	1267.69
200.21	1300.46
200.43	1339.37
200.65	1257.45
200.87	1255.40
201.09	1316.84
201.31	1243.12
201.53	1366.00
201.75	1249.26
201.97	1302.51
202.19	1300.46
202.41	1290.22
202.63	1282.03
202.85	1286.12
203.07	1210.35
203.29	1277.93
203.51	1331.18
203.73	1267.69
203.95	1249.26
204.17	1341.42
204.39	1277.93
204.61	1214.45
204.83	1212.40
205.05	1193.97
205.27	1282.03
205.49	1265.64
205.71	1204.21
205.93	1284.08
206.15	1306.60
206.37	1275.88
206.59	1255.40
206.81	1222.64
207.03	1277.93
207.25	1136.62
207.47	1230.83
207.69	1247.21
207.91	1275.88
208.13	1304.56
208.34	1241.07
208.56	1243.12
208.78	1234.93
209.00	1230.83
209.22	1345.52
209.44	1290.22
209.66	1239.02
209.88	1308.65
210.10	1239.02
210.32	1257.45
210.54	1271.79
210.76	1335.28
210.98	1296.36
211.20	1312.75
211.42	1241.07
211.64	1224.69
211.86	1333.23
212.08	1286.12
212.30	1273.84
212.52	1302.51
212.74	1327.08
212.96	1271.79
213.17	1286.12
213.39	1304.56
213.61	1220.59
213.83	1275.88
214.05	1224.69
214.27	1271.79
214.49	1292.27
214.71	1247.21
214.93	1257.45
215.15	1308.65
215.37	1282.03
215.59	1253.36
215.81	1279.98
216.03	1277.93
216.24	1337.32
216.46	1312.75
216.68	1355.76
216.90	1251.31
217.12	1273.84
217.34	1241.07
217.56	1275.88
217.78	1243.12
218.00	1249.26
218.22	1290.22
218.44	1314.80
218.66	1290.22
218.87	1337.32
219.09	1294.32
219.31	1308.65
219.53	1273.84
219.75	1249.26
219.97	1267.69
220.19	1265.64
220.41	1296.36
220.63	1325.04
220.85	1245.16
221.06	1302.51
221.28	1267.69
221.50	1298.41
221.72	1267.69
221.94	1282.03
222.16	1251.31
222.38	1298.41
222.60	1277.93
222.82	1282.03
223.03	1271.79
223.25	1241.07
223.47	1243.12
223.69	1308.65
223.91	1273.84
224.13	1290.22
224.35	1282.03
224.57	1243.12
224.78	1259.50
225.00	1284.08
225.22	1275.88
225.44	1251.31
225.66	1296.36
225.88	1230.83
226.10	1249.26
226.32	1288.17
226.53	1230.83
226.75	1204.21
226.97	1220.59
227.19	1251.31
227.41	1298.41
227.63	1320.94
227.85	1335.28
228.06	1224.69
228.28	1202.16
228.50	1271.79
228.72	1302.51
228.94	1251.31
229.16	1224.69
229.37	1216.49
229.59	1269.74
229.81	1247.21
230.03	1257.45
230.25	1210.35
230.47	1279.98
230.69	1310.70
230.90	1310.70
231.12	1331.18
231.34	1275.88
231.56	1224.69
231.78	1331.18
232.00	1261.55
232.21	1236.97
232.43	1304.56
232.65	1255.40
232.87	1230.83
233.09	1255.40
233.30	1273.84
233.52	1255.40
233.74	1310.70
233.96	1236.97
234.18	1257.45
234.40	1318.89
234.61	1314.80
234.83	1263.60
235.05	1200.11
235.27	1296.36
235.49	1282.03
235.70	1261.55
235.92	1312.75
236.14	1236.97
236.36	1329.13
236.58	1273.84
236.79	1230.83
237.01	1224.69
237.23	1320.94
237.45	1140.72
237.67	1239.02
237.88	1247.21
238.10	1335.28
238.32	1212.40
238.54	1245.16
238.76	1298.41
238.97	1261.55
239.19	1171.44
239.41	1329.13
239.63	1230.83
239.85	1202.16
240.06	1243.12
240.28	1312.75
240.50	1290.22
240.72	1304.56
240.93	1191.92
241.15	1335.28
241.37	1296.36
241.59	1384.43
241.81	1271.79
242.02	1241.07
242.24	1314.80
242.46	1290.22
242.68	1286.12
242.89	1247.21
243.11	1316.84
243.33	1255.40
243.55	1245.16
243.76	1308.65
243.98	1279.98
244.20	1218.54
244.42	1263.60
244.64	1263.60
244.85	1216.49
245.07	1259.50
245.29	1267.69
245.51	1263.60
245.72	1222.64
245.94	1224.69
246.16	1261.55
246.38	1314.80
246.59	1241.07
246.81	1275.88
247.03	1275.88
247.24	1370.09
247.46	1230.83
247.68	1298.41
247.90	1269.74
248.11	1312.75
248.33	1286.12
248.55	1210.35
248.77	1335.28
248.98	1363.95
249.20	1306.60
249.42	1255.40
249.64	1312.75
249.85	1376.24
250.07	1261.55
250.29	1275.88
250.50	1251.31
250.72	1263.60
250.94	1331.18
251.16	1267.69
251.37	1282.03
251.59	1259.50
251.81	1277.93
252.02	1255.40
252.24	1222.64
252.46	1292.27
252.68	1183.73
252.89	1265.64
253.11	1298.41
253.33	1304.56
253.54	1277.93
253.76	1286.12
253.98	1261.55
254.20	1292.27
254.41	1232.88
254.63	1290.22
254.85	1257.45
255.06	1243.12
255.28	1224.69
255.50	1294.32
255.71	1327.08
255.93	1259.50
256.15	1292.27
256.36	1271.79
256.58	1218.54
256.80	1263.60
257.02	1204.21
257.23	1286.12
257.45	1236.97
257.67	1220.59
257.88	1230.83
258.10	1279.98
258.32	1269.74
258.53	1245.16
258.75	1335.28
258.97	1234.93
259.18	1269.74
259.40	1273.84
259.62	1241.07
259.83	1337.32
260.05	1263.60
260.27	1279.98
260.48	1273.84
260.70	1234.93
260.92	1150.96
261.13	1210.35
261.35	1257.45
261.57	1224.69
261.78	1263.60
262.00	1269.74
262.22	1269.74
262.43	1290.22
262.65	1345.52
262.86	1263.60
263.08	1269.74
263.30	1288.17
263.51	1234.93
263.73	1298.41
263.95	1273.84
264.16	1212.40
264.38	1214.45
264.60	1222.64
264.81	1222.64
265.03	1232.88
265.25	1318.89
265.46	1322.99
265.68	1279.98
265.89	1298.41
266.11	1284.08
266.33	1263.60
266.54	1247.21
266.76	1232.88
266.98	1263.60
267.19	1193.97
267.41	1271.79
267.62	1218.54
267.84	1220.59
268.06	1265.64
268.27	1273.84
268.49	1290.22
268.70	1310.70
268.92	1222.64
269.14	1263.60
269.35	1214.45
269.57	1279.98
269.79	1198.06
270.00	1302.51
270.22	1265.64
270.43	1275.88
270.65	1236.97
270.87	1282.03
271.08	1234.93
271.30	1286.12
271.51	1284.08
271.73	1259.50
271.95	1255.40
272.16	1249.26
272.38	1294.32
272.59	1251.31
272.81	1230.83
273.02	1316.84
273.24	1249.26
273.46	1253.36
273.67	1261.55
273.89	1243.12
274.10	1267.69
274.32	1261.55
274.54	1302.51
274.75	1245.16
274.97	1339.37
275.18	1224.69
275.40	1359.85
275.61	1380.33
275.83	1267.69
276.05	1191.92
276.26	1228.78
276.48	1253.36
276.69	1253.36
276.91	1236.97
277.12	1196.01
277.34	1220.59
277.55	1275.88
277.77	1255.40
277.99	1294.32
278.20	1261.55
278.42	1304.56
278.63	1239.02
278.85	1216.49
279.06	1288.17
279.28	1257.45
279.49	1300.46
279.71	1261.55
279.93	1257.45
280.14	1290.22
280.36	1292.27
280.57	1263.60
280.79	1177.58
281.00	1236.97
281.22	1275.88
281.43	1255.40
281.65	1230.83
281.86	1286.12
282.08	1210.35
282.29	1239.02
282.51	1337.32
282.73	1183.73
282.94	1232.88
283.16	1263.60
283.37	1306.60
283.59	1263.60
283.80	1206.25
284.02	1243.12
284.23	1263.60
284.45	1232.88
284.66	1279.98
284.88	1212.40
285.09	1277.93
285.31	1290.22
285.52	1273.84
285.74	1275.88
285.95	1304.56
286.17	1298.41
286.38	1282.03
286.60	1222.64
286.81	1320.94
287.03	1216.49
287.24	1286.12
287.46	1306.60
287.67	1267.69
287.89	1220.59
288.10	1232.88
288.32	1314.80
288.53	1312.75
288.75	1296.36
288.96	1275.88
289.18	1220.59
289.39	1279.98
289.61	1294.32
289.82	1302.51
290.04	1214.45
290.25	1312.75
290.47	1279.98
290.68	1275.88
290.90	1314.80
291.11	1257.45
291.33	1249.26
291.54	1298.41
291.76	1253.36
291.97	1304.56
292.18	1275.88
292.40	1224.69
292.61	1279.98
292.83	1220.59
293.04	1277.93
293.26	1302.51
293.47	1183.73
293.69	1366.00
293.90	1259.50
294.12	1245.16
294.33	1271.79
294.55	1249.26
294.76	1277.93
294.97	1226.73
295.19	1243.12
295.40	1196.01
295.62	1286.12
295.83	1312.75
296.05	1335.28
296.26	1259.50
296.48	1271.79
296.69	1243.12
296.90	1265.64
297.12	1284.08
297.33	1251.31
297.55	1267.69
297.76	1294.32
297.98	1290.22
298.19	1310.70
298.41	1253.36
298.62	1333.23
298.83	1316.84
299.05	1296.36
299.26	1253.36
299.48	1320.94
299.69	1247.21
299.90	1214.45
300.12	1218.54
300.33	1200.11
300.55	1253.36
300.76	1284.08
300.98	1282.03
301.19	1247.21
301.40	1245.16
301.62	1208.30
301.83	1300.46
302.05	1243.12
302.26	1251.31
302.47	1312.75
302.69	1251.31
302.90	1318.89
303.12	1255.40
303.33	1255.40
303.54	1253.36
303.76	1263.60
303.97	1308.65
304.19	1234.93
304.40	1236.97
304.61	1193.97
304.83	1243.12
305.04	1267.69
305.26	1292.27
305.47	1251.31
305.68	1249.26
305.90	1273.84
306.11	1261.55
306.33	1232.88
306.54	1275.88
306.75	1222.64
306.97	1275.88
307.18	1251.31
307.39	1263.60
307.61	1312.75
307.82	1294.32
308.04	1196.01
308.25	1284.08
308.46	1247.21
308.68	1263.60
308.89	1331.18
309.10	1312.75
309.32	1265.64
309.53	1257.45
309.74	1243.12
309.96	1300.46
310.17	1351.66
310.39	1251.31
310.60	1245.16
310.81	1327.08
311.03	1253.36
311.24	1185.77
311.45	1286.12
311.67	1290.22
311.88	1247.21
312.09	1265.64
312.31	1325.04
312.52	1249.26
312.73	1279.98
312.95	1259.50
313.16	1206.25
313.37	1298.41
313.59	1327.08
313.80	1368.04
314.01	1343.47
314.23	1232.88
314.44	1320.94
314.65	1257.45
314.87	1292.27
315.08	1284.08
315.29	1247.21
315.51	1236.97
315.72	1284.08
315.93	1288.17
316.15	1259.50
316.36	1306.60
316.57	1318.89
316.79	1279.98
317.00	1257.45
317.21	1263.60
317.43	1259.50
317.64	1300.46
317.85	1320.94
318.07	1273.84
318.28	1249.26
318.49	1282.03
318.70	1363.95
318.92	1224.69
319.13	1239.02
319.34	1314.80
319.56	1288.17
319.77	1228.78
319.98	1306.60
320.20	1306.60
320.41	1306.60
320.62	1290.22
320.83	1257.45
321.05	1304.56
321.26	1271.79
321.47	1265.64
321.69	1320.94
321.90	1253.36
322.11	1282.03
322.32	1222.64
322.54	1271.79
322.75	1277.93
322.96	1232.88
323.18	1275.88
323.39	1249.26
323.60	1236.97
323.81	1236.97
324.03	1259.50
324.24	1253.36
324.45	1335.28
324.66	1306.60
324.88	1267.69
325.09	1243.12
325.30	1255.40
325.52	1251.31
325.73	1251.31
325.94	1279.98
326.15	1271.79
326.37	1263.60
326.58	1239.02
326.79	1257.45
327.00	1257.45
327.22	1257.45
327.43	1271.79
327.64	1228.78
327.85	1357.80
328.07	1282.03
328.28	1265.64
328.49	1314.80
328.70	1306.60
328.92	1320.94
329.13	1288.17
329.34	1275.88
329.55	1198.06
329.76	1269.74
329.98	1236.97
330.19	1183.73
330.40	1241.07
330.61	1277.93
330.83	1279.98
331.04	1284.08
331.25	1243.12
331.46	1325.04
331.68	1239.02
331.89	1224.69
332.10	1308.65
332.31	1230.83
332.52	1327.08
332.74	1257.45
332.95	1286.12
333.16	1265.64
333.37	1228.78
333.58	1304.56
333.80	1282.03
334.01	1261.55
334.22	1300.46
334.43	1216.49
334.64	1296.36
334.86	1196.01
335.07	1245.16
335.28	1314.80
335.49	1263.60
335.70	1265.64
335.92	1325.04
336.13	1214.45
336.34	1245.16
336.55	1265.64
336.76	1224.69
336.98	1157.10
337.19	1216.49
337.40	1284.08
337.61	1284.08
337.82	1308.65
338.04	1312.75
338.25	1296.36
338.46	1222.64
338.67	1273.84
338.88	1189.87
339.09	1247.21
339.31	1259.50
339.52	1273.84
339.73	1279.98
339.94	1312.75
340.15	1300.46
340.36	1183.73
340.58	1241.07
340.79	1198.06
341.00	1222.64
341.21	1339.37
341.42	1228.78
341.63	1247.21
341.85	1271.79
342.06	1279.98
342.27	1310.70
342.48	1245.16
342.69	1214.45
342.90	1273.84
343.12	1214.45
343.33	1245.16
343.54	1325.04
343.75	1277.93
343.96	1312.75
344.17	1310.70
344.38	1224.69
344.60	1279.98
344.81	1236.97
345.02	1224.69
345.23	1333.23
345.44	1251.31
345.65	1243.12
345.86	1290.22
346.07	1284.08
346.29	1306.60
346.50	1284.08
346.71	1306.60
346.92	1249.26
347.13	1273.84
347.34	1333.23
347.55	1255.40
347.76	1239.02
347.98	1236.97
348.19	1212.40
348.40	1249.26
348.61	1183.73
348.82	1298.41
349.03	1322.99
349.24	1298.41
349.45	1302.51
349.66	1265.64
349.88	1284.08
350.09	1236.97
350.30	1257.45
350.51	1282.03
350.72	1239.02
350.93	1294.32
351.14	1261.55
351.35	1273.84
351.56	1329.13
351.77	1234.93
351.99	1318.89
352.20	1253.36
352.41	1302.51
352.62	1294.32
352.83	1306.60
353.04	1253.36
353.25	1290.22
353.46	1191.92
353.67	1253.36
353.88	1286.12
354.09	1208.30
354.30	1300.46
354.52	1249.26
354.73	1288.17
354.94	1298.41
355.15	1279.98
355.36	1261.55
355.57	1300.46
355.78	1245.16
355.99	1236.97
356.20	1310.70
356.41	1353.71
356.62	1267.69
356.83	1253.36
357.04	1312.75
357.25	1322.99
357.46	1271.79
357.68	1310.70
357.89	1208.30
358.10	1251.31
358.31	1273.84
358.52	1275.88
358.73	1322.99
358.94	1222.64
359.15	1275.88
359.36	1351.66
359.57	1290.22
359.78	1282.03
359.99	1279.98
360.20	1269.74
360.41	1288.17
360.62	1271.79
360.83	1318.89
361.04	1236.97
361.25	1302.51
361.46	1200.11
361.67	1259.50
361.88	1277.93
362.09	1265.64
362.30	1216.49
362.51	1298.41
362.72	1200.11
362.93	1288.17
363.14	1306.60
363.35	1267.69
363.56	1255.40
363.78	1279.98
363.99	1251.31
364.20	1322.99
364.41	1286.12
364.62	1257.45
364.83	1355.76
365.04	1247.21
365.25	1298.41
365.46	1329.13
365.67	1271.79
365.88	1191.92
366.09	1208.30
366.30	1286.12
366.51	1269.74
366.72	1224.69
366.93	1253.36
367.14	1253.36
367.35	1269.74
367.56	1275.88
367.77	1241.07
367.98	1200.11
368.18	1300.46
368.39	1232.88
368.60	1220.59
368.81	1204.21
369.02	1259.50
369.23	1247.21
369.44	1200.11
369.65	1208.30
369.86	1239.02
370.07	1234.93
370.28	1318.89
370.49	1222.64
370.70	1290.22
370.91	1224.69
371.12	1294.32
371.33	1259.50
371.54	1245.16
371.75	1312.75
371.96	1318.89
372.17	1247.21
372.38	1241.07
372.59	1292.27
372.80	1327.08
373.01	1220.59
373.22	1232.88
373.43	1273.84
373.64	1310.70
373.85	1232.88
374.06	1314.80
374.26	1226.73
374.47	1259.50
374.68	1185.77
374.89	1273.84
375.10	1306.60
375.31	1224.69
375.52	1239.02
375.73	1353.71
375.94	1196.01
376.15	1228.78
376.36	1241.07
376.57	1234.93
376.78	1245.16
376.99	1206.25
377.20	1241.07
377.40	1247.21
377.61	1245.16
377.82	1284.08
378.03	1357.80
378.24	1269.74
378.45	1236.97
378.66	1255.40
378.87	1247.21
379.08	1314.80
379.29	1218.54
379.50	1265.64
379.71	1249.26
379.91	1251.31
380.12	1306.60
380.33	1386.47
380.54	1304.56
380.75	1239.02
380.96	1208.30
381.17	1290.22
381.38	1239.02
381.59	1318.89
381.80	1277.93
382.00	1286.12
382.21	1298.41
382.42	1239.02
382.63	1216.49
382.84	1282.03
383.05	1277.93
383.26	1282.03
383.47	1247.21
383.68	1224.69
383.88	1284.08
384.09	1273.84
384.30	1296.36
384.51	1290.22
384.72	1224.69
384.93	1273.84
385.14	1296.36
385.35	1245.16
385.55	1212.40
385.76	1284.08
385.97	1239.02
386.18	1249.26
386.39	1284.08
386.60	1212.40
386.81	1279.98
387.02	1290.22
387.22	1218.54
387.43	1290.22
387.64	1296.36
387.85	1277.93
388.06	1269.74
388.27	1275.88
388.48	1247.21
388.68	1249.26
388.89	1183.73
389.10	1341.42
389.31	1259.50
389.52	1361.90
389.73	1251.31
389.93	1247.21
390.14	1320.94
390.35	1263.60
390.56	1220.59
390.77	1335.28
390.98	1318.89
391.18	1292.27
391.39	1247.21
391.60	1249.26
391.81	1265.64
392.02	1243.12
392.23	1241.07
392.43	1286.12
392.64	1310.70
392.85	1273.84
393.06	1298.41
393.27	1296.36
393.47	1279.98
393.68	1251.31
393.89	1341.42
394.10	1267.69
394.31	1320.94
394.52	1263.60
394.72	1269.74
394.93	1304.56
395.14	1298.41
395.35	1239.02
395.56	1310.70
395.76	1277.93
395.97	1273.84
396.18	1189.87
396.39	1290.22
396.60	1298.41
396.80	1251.31
397.01	1216.49
397.22	1292.27
397.43	1275.88
397.64	1239.02
397.84	1292.27
398.05	1169.39
398.26	1193.97
398.47	1179.63
398.67	1247.21
398.88	1282.03
399.09	1277.93
399.30	1282.03
399.51	1345.52
399.71	1286.12
399.92	1325.04
400.13	1234.93
400.34	1230.83
400.54	1210.35
400.75	1265.64
400.96	1249.26
401.17	1253.36
401.37	1232.88
401.58	1286.12
401.79	1243.12
402.00	1249.26
402.21	1259.50
402.41	1259.50
402.62	1269.74
402.83	1275.88
403.04	1351.66
403.24	1234.93
403.45	1243.12
403.66	1232.88
403.87	1298.41
404.07	1282.03
404.28	1259.50
404.49	1245.16
404.70	1316.84
404.90	1271.79
405.11	1245.16
405.32	1263.60
405.52	1314.80
405.73	1236.97
405.94	1220.59
406.15	1241.07
406.35	1312.75
406.56	1327.08
406.77	1318.89
406.98	1247.21
407.18	1191.92
407.39	1284.08
407.60	1247.21
407.80	1288.17
408.01	1279.98
408.22	1288.17
408.43	1275.88
408.63	1286.12
408.84	1247.21
409.05	1345.52
409.25	1284.08
409.46	1284.08
409.67	1257.45
409.88	1296.36
410.08	1308.65
410.29	1234.93
410.50	1298.41
410.70	1239.02
410.91	1220.59
411.12	1224.69
411.32	1232.88
411.53	1339.37
411.74	1288.17
411.95	1318.89
412.15	1232.88
412.36	1335.28
412.57	1214.45
412.77	1290.22
412.98	1275.88
413.19	1300.46
413.39	1279.98
413.60	1329.13
413.81	1247.21
414.01	1183.73
414.22	1314.80
414.43	1234.93
414.63	1259.50
414.84	1243.12
415.05	1300.46
415.25	1196.01
415.46	1282.03
415.67	1253.36
415.87	1265.64
416.08	1200.11
416.29	1204.21
416.49	1286.12
416.70	1275.88
416.91	1331.18
417.11	1331.18
417.32	1290.22
417.53	1241.07
417.73	1296.36
417.94	1243.12
418.15	1271.79
418.35	1210.35
418.56	1267.69
418.77	1257.45
418.97	1220.59
419.18	1247.21
419.38	1267.69
419.59	1286.12
419.80	1251.31
420.00	1279.98
420.21	1261.55
420.42	1329.13
420.62	1310.70
420.83	1228.78
421.04	1294.32
421.24	1251.31
421.45	1286.12
421.65	1282.03
421.86	1267.69
422.07	1290.22
422.27	1339.37
422.48	1196.01
422.69	1294.32
422.89	1247.21
423.10	1298.41
423.30	1232.88
423.51	1255.40
423.72	1343.47
423.92	1263.60
424.13	1290.22
424.33	1355.76
424.54	1214.45
424.75	1267.69
424.95	1216.49
425.16	1234.93
425.36	1249.26
425.57	1228.78
425.78	1267.69
425.98	1273.84
426.19	1239.02
426.39	1232.88
426.60	1327.08
426.81	1261.55
427.01	1169.39
427.22	1222.64
427.42	1257.45
427.63	1224.69
427.83	1327.08
428.04	1273.84
428.25	1345.52
428.45	1255.40
428.66	1320.94
428.86	1226.73
429.07	1241.07
429.28	1325.04
429.48	1316.84
429.69	1275.88
429.89	1284.08
430.10	1273.84
430.30	1206.25
430.51	1292.27
430.71	1279.98
430.92	1251.31
431.13	1273.84
431.33	1304.56
431.54	1286.12
431.74	1290.22
431.95	1263.60
432.15	1294.32
432.36	1269.74
432.56	1296.36
432.77	1204.21
432.98	1259.50
433.18	1273.84
433.39	1267.69
433.59	1290.22
433.80	1230.83
434.00	1249.26
434.21	1255.40
434.41	1265.64
434.62	1228.78
434.82	1329.13
435.03	1310.70
435.23	1275.88
435.44	1300.46
435.64	1226.73
435.85	1322.99
436.06	1329.13
436.26	1247.21
436.47	1282.03
436.67	1310.70
436.88	1249.26
437.08	1288.17
437.29	1271.79
437.49	1306.60
437.70	1234.93
437.90	1327.08
438.11	1191.92
438.31	1271.79
438.52	1284.08
438.72	1216.49
438.93	1249.26
439.13	1349.61
439.34	1173.49
439.54	1292.27
439.75	1251.31
439.95	1335.28
440.16	1263.60
440.36	1247.21
440.57	1310.70
440.77	1306.60
440.98	1222.64
441.18	1239.02
441.39	1169.39
441.59	1224.69
441.80	1269.74
442.00	1267.69
442.21	1267.69
442.41	1279.98
442.62	1208.30
442.82	1288.17
443.02	1284.08
443.23	1279.98
443.43	1372.14
443.64	1200.11
443.84	1243.12
444.05	1273.84
444.25	1259.50
444.46	1331.18
444.66	1298.41
444.87	1259.50
445.07	1271.79
445.28	1308.65
445.48	1230.83
445.69	1296.36
445.89	1282.03
446.09	1304.56
446.30	1312.75
446.50	1212.40
446.71	1263.60
446.91	1361.90
447.12	1282.03
447.32	1228.78
447.53	1284.08
447.73	1339.37
447.93	1245.16
448.14	1265.64
448.34	1284.08
448.55	1214.45
448.75	1275.88
448.96	1302.51
449.16	1232.88
449.36	1269.74
449.57	1241.07
449.77	1329.13
449.98	1271.79
450.18	1265.64
450.39	1290.22
450.59	1269.74
450.79	1296.36
451.00	1294.32
451.20	1286.12
451.41	1255.40
451.61	1222.64
451.81	1249.26
452.02	1286.12
452.22	1306.60
452.43	1265.64
452.63	1304.56
