SpectraSuite Data File
++++++++++++++++++++++++++++++++++++
Date: Sun Apr 03 19:55:35 CEST 2016
User: root
Dark Spectrum Present: No
Reference Spectrum Present: No
Number of Sampled Component Spectra: 1
Spectrometers: USB4C02835
Integration Time (usec): 10000 (USB4C02835)
Spectra Averaged: 1 (USB4C02835)
Boxcar Smoothing: 0 (USB4C02835)
Correct for Electrical Dark: No (USB4C02835)
Strobe/Lamp Enabled: No (USB4C02835)
Correct for Detector Non-linearity: No (USB4C02835)
Correct for Stray Light: No (USB4C02835)
Number of Pixels in Processed Spectrum: 3648
>>>>>Begin Processed Spectral Data<<<<<
177.47	1277.93
177.69	1277.93
177.91	1277.93
178.13	1261.55
178.36	1304.56
178.58	1263.60
178.80	1132.53
179.02	1249.26
179.24	1351.66
179.46	1222.64
179.68	1288.17
179.90	1243.12
180.13	1245.16
180.35	1218.54
180.57	1247.21
180.79	1236.97
181.01	1206.25
181.23	1286.12
181.45	1261.55
181.67	1230.83
181.90	1271.79
182.12	1284.08
182.34	1288.17
182.56	1169.39
182.78	1253.36
183.00	1279.98
183.22	1253.36
183.44	1230.83
183.66	1255.40
183.89	1214.45
184.11	1232.88
184.33	1257.45
184.55	1249.26
184.77	1183.73
184.99	1335.28
185.21	1304.56
185.43	1257.45
185.65	1298.41
185.87	1277.93
186.10	1275.88
186.32	1296.36
186.54	1216.49
186.76	1277.93
186.98	1271.79
187.20	1261.55
187.42	1325.04
187.64	1322.99
187.86	1279.98
188.08	1308.65
188.30	1214.45
188.52	1239.02
188.75	1306.60
188.97	1257.45
189.19	1292.27
189.41	1263.60
189.63	1257.45
189.85	1249.26
190.07	1206.25
190.29	1255.40
190.51	1204.21
190.73	1306.60
190.95	1236.97
191.17	1282.03
191.39	1245.16
191.61	1234.93
191.84	1339.37
192.06	1288.17
192.28	1257.45
192.50	1302.51
192.72	1286.12
192.94	1224.69
193.16	1286.12
193.38	1279.98
193.60	1241.07
193.82	1316.84
194.04	1241.07
194.26	1267.69
194.48	1253.36
194.70	1294.32
194.92	1294.32
195.14	1243.12
195.36	1333.23
195.58	1275.88
195.80	1271.79
196.02	1298.41
196.24	1243.12
196.46	1284.08
196.69	1282.03
196.91	1331.18
197.13	1300.46
197.35	1241.07
197.57	1204.21
197.79	1243.12
198.01	1269.74
198.23	1261.55
198.45	1183.73
198.67	1200.11
198.89	1304.56
199.11	1236.97
199.33	1230.83
199.55	1255.40
199.77	1282.03
199.99	1239.02
200.21	1286.12
200.43	1226.73
200.65	1251.31
200.87	1331.18
201.09	1243.12
201.31	1310.70
201.53	1257.45
201.75	1312.75
201.97	1282.03
202.19	1341.42
202.41	1255.40
202.63	1257.45
202.85	1239.02
203.07	1247.21
203.29	1241.07
203.51	1239.02
203.73	1286.12
203.95	1255.40
204.17	1294.32
204.39	1249.26
204.61	1296.36
204.83	1267.69
205.05	1343.47
205.27	1363.95
205.49	1351.66
205.71	1202.16
205.93	1267.69
206.15	1243.12
206.37	1288.17
206.59	1322.99
206.81	1335.28
207.03	1347.56
207.25	1277.93
207.47	1269.74
207.69	1255.40
207.91	1292.27
208.13	1222.64
208.34	1236.97
208.56	1249.26
208.78	1282.03
209.00	1216.49
209.22	1312.75
209.44	1224.69
209.66	1290.22
209.88	1284.08
210.10	1335.28
210.32	1279.98
210.54	1279.98
210.76	1277.93
210.98	1277.93
211.20	1298.41
211.42	1253.36
211.64	1282.03
211.86	1294.32
212.08	1249.26
212.30	1292.27
212.52	1271.79
212.74	1282.03
212.96	1230.83
213.17	1374.19
213.39	1249.26
213.61	1265.64
213.83	1208.30
214.05	1273.84
214.27	1300.46
214.49	1202.16
214.71	1265.64
214.93	1282.03
215.15	1216.49
215.37	1265.64
215.59	1206.25
215.81	1200.11
216.03	1269.74
216.24	1314.80
216.46	1284.08
216.68	1263.60
216.90	1234.93
217.12	1302.51
217.34	1220.59
217.56	1247.21
217.78	1243.12
218.00	1251.31
218.22	1239.02
218.44	1259.50
218.66	1200.11
218.87	1351.66
219.09	1294.32
219.31	1269.74
219.53	1306.60
219.75	1247.21
219.97	1282.03
220.19	1288.17
220.41	1292.27
220.63	1322.99
220.85	1286.12
221.06	1314.80
221.28	1296.36
221.50	1271.79
221.72	1306.60
221.94	1335.28
222.16	1261.55
222.38	1232.88
222.60	1267.69
222.82	1257.45
223.03	1286.12
223.25	1263.60
223.47	1267.69
223.69	1286.12
223.91	1275.88
224.13	1310.70
224.35	1255.40
224.57	1243.12
224.78	1267.69
225.00	1302.51
225.22	1275.88
225.44	1298.41
225.66	1288.17
225.88	1302.51
226.10	1333.23
226.32	1267.69
226.53	1255.40
226.75	1302.51
226.97	1337.32
227.19	1241.07
227.41	1279.98
227.63	1271.79
227.85	1265.64
228.06	1308.65
228.28	1263.60
228.50	1286.12
228.72	1322.99
228.94	1243.12
229.16	1322.99
229.37	1275.88
229.59	1335.28
229.81	1269.74
230.03	1239.02
230.25	1222.64
230.47	1312.75
230.69	1304.56
230.90	1222.64
231.12	1302.51
231.34	1257.45
231.56	1273.84
231.78	1255.40
232.00	1298.41
232.21	1198.06
232.43	1261.55
232.65	1214.45
232.87	1251.31
233.09	1284.08
233.30	1206.25
233.52	1249.26
233.74	1279.98
233.96	1208.30
234.18	1247.21
234.40	1218.54
234.61	1306.60
234.83	1286.12
235.05	1247.21
235.27	1275.88
235.49	1247.21
235.70	1288.17
235.92	1339.37
236.14	1249.26
236.36	1226.73
236.58	1302.51
236.79	1275.88
237.01	1267.69
237.23	1212.40
237.45	1257.45
237.67	1298.41
237.88	1202.16
238.10	1261.55
238.32	1249.26
238.54	1261.55
238.76	1322.99
238.97	1290.22
239.19	1247.21
239.41	1329.13
239.63	1314.80
239.85	1279.98
240.06	1290.22
240.28	1298.41
240.50	1255.40
240.72	1273.84
240.93	1363.95
241.15	1308.65
241.37	1282.03
241.59	1363.95
241.81	1239.02
242.02	1247.21
242.24	1202.16
242.46	1232.88
242.68	1269.74
242.89	1320.94
243.11	1243.12
243.33	1290.22
243.55	1357.80
243.76	1312.75
243.98	1253.36
244.20	1282.03
244.42	1265.64
244.64	1232.88
244.85	1273.84
245.07	1284.08
245.29	1257.45
245.51	1247.21
245.72	1277.93
245.94	1300.46
246.16	1257.45
246.38	1308.65
246.59	1288.17
246.81	1241.07
247.03	1212.40
247.24	1230.83
247.46	1236.97
247.68	1286.12
247.90	1286.12
248.11	1269.74
248.33	1232.88
248.55	1273.84
248.77	1312.75
248.98	1239.02
249.20	1294.32
249.42	1261.55
249.64	1288.17
249.85	1224.69
250.07	1234.93
250.29	1286.12
250.50	1216.49
250.72	1226.73
250.94	1239.02
251.16	1216.49
251.37	1351.66
251.59	1255.40
251.81	1286.12
252.02	1269.74
252.24	1277.93
252.46	1298.41
252.68	1218.54
252.89	1261.55
253.11	1261.55
253.33	1265.64
253.54	1243.12
253.76	1329.13
253.98	1282.03
254.20	1241.07
254.41	1304.56
254.63	1325.04
254.85	1255.40
255.06	1310.70
255.28	1259.50
255.50	1290.22
255.71	1249.26
255.93	1232.88
256.15	1198.06
256.36	1265.64
256.58	1320.94
256.80	1259.50
257.02	1187.82
257.23	1255.40
257.45	1296.36
257.67	1255.40
257.88	1247.21
258.10	1265.64
258.32	1273.84
258.53	1298.41
258.75	1214.45
258.97	1298.41
259.18	1234.93
259.40	1279.98
259.62	1263.60
259.83	1214.45
260.05	1286.12
260.27	1314.80
260.48	1255.40
260.70	1308.65
260.92	1228.78
261.13	1312.75
261.35	1208.30
261.57	1294.32
261.78	1292.27
262.00	1216.49
262.22	1234.93
262.43	1298.41
262.65	1329.13
262.86	1337.32
263.08	1230.83
263.30	1230.83
263.51	1284.08
263.73	1210.35
263.95	1271.79
264.16	1314.80
264.38	1269.74
264.60	1286.12
264.81	1196.01
265.03	1273.84
265.25	1345.52
265.46	1349.61
265.68	1322.99
265.89	1257.45
266.11	1294.32
266.33	1232.88
266.54	1275.88
266.76	1292.27
266.98	1241.07
267.19	1251.31
267.41	1255.40
267.62	1253.36
267.84	1290.22
268.06	1355.76
268.27	1239.02
268.49	1275.88
268.70	1290.22
268.92	1265.64
269.14	1269.74
269.35	1267.69
269.57	1249.26
269.79	1249.26
270.00	1257.45
270.22	1277.93
270.43	1251.31
270.65	1279.98
270.87	1253.36
271.08	1191.92
271.30	1308.65
271.51	1232.88
271.73	1212.40
271.95	1198.06
272.16	1239.02
272.38	1296.36
272.59	1300.46
272.81	1306.60
273.02	1290.22
273.24	1288.17
273.46	1239.02
273.67	1271.79
273.89	1232.88
274.10	1363.95
274.32	1226.73
274.54	1234.93
274.75	1294.32
274.97	1255.40
275.18	1277.93
275.40	1282.03
275.61	1279.98
275.83	1318.89
276.05	1241.07
276.26	1298.41
276.48	1275.88
276.69	1265.64
276.91	1224.69
277.12	1144.81
277.34	1198.06
277.55	1304.56
277.77	1204.21
277.99	1214.45
278.20	1269.74
278.42	1267.69
278.63	1181.68
278.85	1193.97
279.06	1284.08
279.28	1298.41
279.49	1226.73
279.71	1263.60
279.93	1259.50
280.14	1320.94
280.36	1275.88
280.57	1259.50
280.79	1318.89
281.00	1204.21
281.22	1325.04
281.43	1249.26
281.65	1251.31
281.86	1347.56
282.08	1245.16
282.29	1226.73
282.51	1327.08
282.73	1265.64
282.94	1251.31
283.16	1239.02
283.37	1228.78
283.59	1259.50
283.80	1236.97
284.02	1255.40
284.23	1243.12
284.45	1267.69
284.66	1167.34
284.88	1265.64
285.09	1290.22
285.31	1263.60
285.52	1224.69
285.74	1273.84
285.95	1327.08
286.17	1226.73
286.38	1286.12
286.60	1298.41
286.81	1236.97
287.03	1253.36
287.24	1189.87
287.46	1298.41
287.67	1331.18
287.89	1304.56
288.10	1298.41
288.32	1212.40
288.53	1222.64
288.75	1271.79
288.96	1271.79
289.18	1232.88
289.39	1222.64
289.61	1275.88
289.82	1322.99
290.04	1306.60
290.25	1273.84
290.47	1226.73
290.68	1226.73
290.90	1273.84
291.11	1257.45
291.33	1253.36
291.54	1292.27
291.76	1241.07
291.97	1273.84
292.18	1247.21
292.40	1269.74
292.61	1290.22
292.83	1277.93
293.04	1261.55
293.26	1296.36
293.47	1251.31
293.69	1335.28
293.90	1271.79
294.12	1232.88
294.33	1269.74
294.55	1296.36
294.76	1265.64
294.97	1337.32
295.19	1288.17
295.40	1294.32
295.62	1302.51
295.83	1271.79
296.05	1296.36
296.26	1275.88
296.48	1275.88
296.69	1279.98
296.90	1284.08
297.12	1298.41
297.33	1204.21
297.55	1220.59
297.76	1224.69
297.98	1318.89
298.19	1296.36
298.41	1243.12
298.62	1261.55
298.83	1304.56
299.05	1294.32
299.26	1157.10
299.48	1224.69
299.69	1220.59
299.90	1263.60
300.12	1267.69
300.33	1282.03
300.55	1261.55
300.76	1255.40
300.98	1253.36
301.19	1247.21
301.40	1245.16
301.62	1191.92
301.83	1204.21
302.05	1251.31
302.26	1298.41
302.47	1304.56
302.69	1189.87
302.90	1318.89
303.12	1292.27
303.33	1304.56
303.54	1304.56
303.76	1320.94
303.97	1218.54
304.19	1282.03
304.40	1208.30
304.61	1243.12
304.83	1290.22
305.04	1232.88
305.26	1177.58
305.47	1300.46
305.68	1302.51
305.90	1284.08
306.11	1202.16
306.33	1347.56
306.54	1345.52
306.75	1212.40
306.97	1296.36
307.18	1320.94
307.39	1292.27
307.61	1273.84
307.82	1273.84
308.04	1245.16
308.25	1216.49
308.46	1320.94
308.68	1253.36
308.89	1318.89
309.10	1286.12
309.32	1273.84
309.53	1306.60
309.74	1239.02
309.96	1255.40
310.17	1257.45
310.39	1265.64
310.60	1265.64
310.81	1228.78
311.03	1232.88
311.24	1232.88
311.45	1198.06
311.67	1222.64
311.88	1273.84
312.09	1277.93
312.31	1232.88
312.52	1265.64
312.73	1275.88
312.95	1353.71
313.16	1245.16
313.37	1265.64
313.59	1222.64
313.80	1257.45
314.01	1241.07
314.23	1214.45
314.44	1228.78
314.65	1271.79
314.87	1345.52
315.08	1236.97
315.29	1265.64
315.51	1290.22
315.72	1286.12
315.93	1261.55
316.15	1255.40
316.36	1249.26
316.57	1312.75
316.79	1273.84
317.00	1234.93
317.21	1232.88
317.43	1243.12
317.64	1222.64
317.85	1298.41
318.07	1236.97
318.28	1316.84
318.49	1261.55
318.70	1318.89
318.92	1269.74
319.13	1277.93
319.34	1261.55
319.56	1239.02
319.77	1310.70
319.98	1261.55
320.20	1325.04
320.41	1284.08
320.62	1300.46
320.83	1251.31
321.05	1241.07
321.26	1265.64
321.47	1269.74
321.69	1288.17
321.90	1232.88
322.11	1234.93
322.32	1175.53
322.54	1239.02
322.75	1288.17
322.96	1234.93
323.18	1265.64
323.39	1279.98
323.60	1265.64
323.81	1269.74
324.03	1257.45
324.24	1253.36
324.45	1314.80
324.66	1312.75
324.88	1241.07
325.09	1253.36
325.30	1239.02
325.52	1269.74
325.73	1265.64
325.94	1263.60
326.15	1220.59
326.37	1347.56
326.58	1316.84
326.79	1271.79
327.00	1286.12
327.22	1298.41
327.43	1253.36
327.64	1275.88
327.85	1210.35
328.07	1322.99
328.28	1269.74
328.49	1279.98
328.70	1218.54
328.92	1292.27
329.13	1202.16
329.34	1294.32
329.55	1318.89
329.76	1241.07
329.98	1249.26
330.19	1267.69
330.40	1304.56
330.61	1218.54
330.83	1259.50
331.04	1216.49
331.25	1263.60
331.46	1249.26
331.68	1216.49
331.89	1255.40
332.10	1263.60
332.31	1200.11
332.52	1312.75
332.74	1341.42
332.95	1216.49
333.16	1294.32
333.37	1288.17
333.58	1239.02
333.80	1288.17
334.01	1290.22
334.22	1269.74
334.43	1279.98
334.64	1265.64
334.86	1263.60
335.07	1279.98
335.28	1263.60
335.49	1202.16
335.70	1239.02
335.92	1284.08
336.13	1312.75
336.34	1271.79
336.55	1253.36
336.76	1282.03
336.98	1228.78
337.19	1290.22
337.40	1290.22
337.61	1312.75
337.82	1232.88
338.04	1282.03
338.25	1171.44
338.46	1300.46
338.67	1261.55
338.88	1308.65
339.09	1228.78
339.31	1273.84
339.52	1206.25
339.73	1327.08
339.94	1322.99
340.15	1208.30
340.36	1249.26
340.58	1296.36
340.79	1253.36
341.00	1265.64
341.21	1247.21
341.42	1290.22
341.63	1277.93
341.85	1341.42
342.06	1232.88
342.27	1327.08
342.48	1277.93
342.69	1265.64
342.90	1251.31
343.12	1267.69
343.33	1218.54
343.54	1253.36
343.75	1171.44
343.96	1247.21
344.17	1185.77
344.38	1286.12
344.60	1208.30
344.81	1322.99
345.02	1316.84
345.23	1220.59
345.44	1296.36
345.65	1255.40
345.86	1243.12
346.07	1275.88
346.29	1314.80
346.50	1273.84
346.71	1298.41
346.92	1273.84
347.13	1261.55
347.34	1290.22
347.55	1208.30
347.76	1234.93
347.98	1214.45
348.19	1177.58
348.40	1265.64
348.61	1286.12
348.82	1322.99
349.03	1265.64
349.24	1273.84
349.45	1288.17
349.66	1296.36
349.88	1249.26
350.09	1333.23
350.30	1263.60
350.51	1273.84
350.72	1284.08
350.93	1282.03
351.14	1255.40
351.35	1228.78
351.56	1212.40
351.77	1300.46
351.99	1265.64
352.20	1261.55
352.41	1271.79
352.62	1251.31
352.83	1351.66
353.04	1259.50
353.25	1261.55
353.46	1302.51
353.67	1329.13
353.88	1310.70
354.09	1230.83
354.30	1265.64
354.52	1204.21
354.73	1282.03
354.94	1290.22
355.15	1255.40
355.36	1263.60
355.57	1282.03
355.78	1282.03
355.99	1308.65
356.20	1284.08
356.41	1312.75
356.62	1216.49
356.83	1251.31
357.04	1269.74
357.25	1253.36
357.46	1294.32
357.68	1204.21
357.89	1220.59
358.10	1253.36
358.31	1261.55
358.52	1206.25
358.73	1255.40
358.94	1284.08
359.15	1232.88
359.36	1206.25
359.57	1204.21
359.78	1282.03
359.99	1228.78
360.20	1288.17
360.41	1234.93
360.62	1273.84
360.83	1312.75
361.04	1312.75
361.25	1255.40
361.46	1236.97
361.67	1292.27
361.88	1290.22
362.09	1300.46
362.30	1232.88
362.51	1239.02
362.72	1236.97
362.93	1171.44
363.14	1329.13
363.35	1277.93
363.56	1224.69
363.78	1247.21
363.99	1300.46
364.20	1271.79
364.41	1294.32
364.62	1220.59
364.83	1251.31
365.04	1275.88
365.25	1239.02
365.46	1284.08
365.67	1255.40
365.88	1302.51
366.09	1255.40
366.30	1165.29
366.51	1294.32
366.72	1259.50
366.93	1298.41
367.14	1284.08
367.35	1300.46
367.56	1255.40
367.77	1277.93
367.98	1218.54
368.18	1290.22
368.39	1228.78
368.60	1310.70
368.81	1234.93
369.02	1216.49
369.23	1236.97
369.44	1282.03
369.65	1277.93
369.86	1290.22
370.07	1265.64
370.28	1286.12
370.49	1216.49
370.70	1210.35
370.91	1335.28
371.12	1234.93
371.33	1146.86
371.54	1255.40
371.75	1310.70
371.96	1261.55
372.17	1292.27
372.38	1247.21
372.59	1314.80
372.80	1275.88
373.01	1222.64
373.22	1247.21
373.43	1265.64
373.64	1263.60
373.85	1222.64
374.06	1247.21
374.26	1286.12
374.47	1251.31
374.68	1300.46
374.89	1286.12
375.10	1236.97
375.31	1322.99
375.52	1282.03
375.73	1228.78
375.94	1286.12
376.15	1343.47
376.36	1222.64
376.57	1314.80
376.78	1243.12
376.99	1214.45
377.20	1228.78
377.40	1204.21
377.61	1269.74
377.82	1247.21
378.03	1226.73
378.24	1249.26
378.45	1277.93
378.66	1314.80
378.87	1253.36
379.08	1253.36
379.29	1327.08
379.50	1198.06
379.71	1206.25
379.91	1325.04
380.12	1257.45
380.33	1306.60
380.54	1296.36
380.75	1216.49
380.96	1277.93
381.17	1337.32
381.38	1288.17
381.59	1234.93
381.80	1228.78
382.00	1253.36
382.21	1282.03
382.42	1218.54
382.63	1216.49
382.84	1263.60
383.05	1269.74
383.26	1265.64
383.47	1212.40
383.68	1253.36
383.88	1243.12
384.09	1263.60
384.30	1230.83
384.51	1265.64
384.72	1230.83
384.93	1247.21
385.14	1279.98
385.35	1306.60
385.55	1296.36
385.76	1298.41
385.97	1290.22
386.18	1204.21
386.39	1232.88
386.60	1251.31
386.81	1210.35
387.02	1282.03
387.22	1198.06
387.43	1259.50
387.64	1267.69
387.85	1277.93
388.06	1216.49
388.27	1277.93
388.48	1267.69
388.68	1224.69
388.89	1261.55
389.10	1210.35
389.31	1208.30
389.52	1251.31
389.73	1224.69
389.93	1245.16
390.14	1226.73
390.35	1300.46
390.56	1249.26
390.77	1263.60
390.98	1257.45
391.18	1331.18
391.39	1275.88
391.60	1228.78
391.81	1361.90
392.02	1277.93
392.23	1331.18
392.43	1288.17
392.64	1239.02
392.85	1232.88
393.06	1243.12
393.27	1363.95
393.47	1372.14
393.68	1288.17
393.89	1316.84
394.10	1263.60
394.31	1255.40
394.52	1191.92
394.72	1216.49
394.93	1269.74
395.14	1204.21
395.35	1288.17
395.56	1290.22
395.76	1288.17
395.97	1214.45
396.18	1269.74
396.39	1245.16
396.60	1290.22
396.80	1282.03
397.01	1357.80
397.22	1193.97
397.43	1284.08
397.64	1310.70
397.84	1302.51
398.05	1316.84
398.26	1318.89
398.47	1247.21
398.67	1286.12
398.88	1290.22
399.09	1236.97
399.30	1294.32
399.51	1230.83
399.71	1177.58
399.92	1222.64
400.13	1288.17
400.34	1298.41
400.54	1298.41
400.75	1325.04
400.96	1247.21
401.17	1239.02
401.37	1228.78
401.58	1296.36
401.79	1204.21
402.00	1210.35
402.21	1312.75
402.41	1306.60
402.62	1267.69
402.83	1372.14
403.04	1267.69
403.24	1204.21
403.45	1308.65
403.66	1267.69
403.87	1263.60
404.07	1232.88
404.28	1288.17
404.49	1234.93
404.70	1239.02
404.90	1224.69
405.11	1288.17
405.32	1265.64
405.52	1335.28
405.73	1322.99
405.94	1181.68
406.15	1304.56
406.35	1339.37
406.56	1267.69
406.77	1269.74
406.98	1241.07
407.18	1257.45
407.39	1333.23
407.60	1271.79
407.80	1314.80
408.01	1218.54
408.22	1273.84
408.43	1243.12
408.63	1247.21
408.84	1232.88
409.05	1306.60
409.25	1267.69
409.46	1282.03
409.67	1282.03
409.88	1263.60
410.08	1179.63
410.29	1318.89
410.50	1320.94
410.70	1257.45
410.91	1269.74
411.12	1218.54
411.32	1181.68
411.53	1288.17
411.74	1269.74
411.95	1284.08
412.15	1249.26
412.36	1310.70
412.57	1304.56
412.77	1327.08
412.98	1275.88
413.19	1204.21
413.39	1228.78
413.60	1325.04
413.81	1331.18
414.01	1208.30
414.22	1263.60
414.43	1259.50
414.63	1282.03
414.84	1273.84
415.05	1300.46
415.25	1273.84
415.46	1232.88
415.67	1333.23
415.87	1259.50
416.08	1267.69
416.29	1255.40
416.49	1255.40
416.70	1249.26
416.91	1267.69
417.11	1218.54
417.32	1292.27
417.53	1255.40
417.73	1257.45
417.94	1288.17
418.15	1327.08
418.35	1284.08
418.56	1267.69
418.77	1214.45
418.97	1288.17
419.18	1273.84
419.38	1222.64
419.59	1214.45
419.80	1271.79
420.00	1243.12
420.21	1265.64
420.42	1253.36
420.62	1310.70
420.83	1284.08
421.04	1253.36
421.24	1241.07
421.45	1337.32
421.65	1294.32
421.86	1247.21
422.07	1220.59
422.27	1308.65
422.48	1318.89
422.69	1263.60
422.89	1234.93
423.10	1241.07
423.30	1239.02
423.51	1273.84
423.72	1214.45
423.92	1230.83
424.13	1351.66
424.33	1329.13
424.54	1187.82
424.75	1249.26
424.95	1265.64
425.16	1288.17
425.36	1320.94
425.57	1259.50
425.78	1273.84
425.98	1181.68
426.19	1251.31
426.39	1284.08
426.60	1230.83
426.81	1290.22
427.01	1325.04
427.22	1222.64
427.42	1261.55
427.63	1234.93
427.83	1294.32
428.04	1181.68
428.25	1304.56
428.45	1325.04
428.66	1228.78
428.86	1245.16
429.07	1282.03
429.28	1263.60
429.48	1292.27
429.69	1302.51
429.89	1255.40
430.10	1263.60
430.30	1253.36
430.51	1298.41
430.71	1230.83
430.92	1296.36
431.13	1273.84
431.33	1331.18
431.54	1279.98
431.74	1259.50
431.95	1226.73
432.15	1255.40
432.36	1226.73
432.56	1304.56
432.77	1359.85
432.98	1249.26
433.18	1300.46
433.39	1263.60
433.59	1261.55
433.80	1282.03
434.00	1300.46
434.21	1228.78
434.41	1302.51
434.62	1267.69
434.82	1331.18
435.03	1236.97
435.23	1216.49
435.44	1316.84
435.64	1253.36
435.85	1331.18
436.06	1271.79
436.26	1189.87
436.47	1243.12
436.67	1279.98
436.88	1298.41
437.08	1273.84
437.29	1275.88
437.49	1290.22
437.70	1257.45
437.90	1245.16
438.11	1179.63
438.31	1222.64
438.52	1322.99
438.72	1331.18
438.93	1288.17
439.13	1271.79
439.34	1265.64
439.54	1245.16
439.75	1247.21
439.95	1239.02
440.16	1228.78
440.36	1306.60
440.57	1302.51
440.77	1310.70
440.98	1273.84
441.18	1265.64
441.39	1167.34
441.59	1304.56
441.80	1333.23
442.00	1290.22
442.21	1267.69
442.41	1245.16
442.62	1224.69
442.82	1267.69
443.02	1234.93
443.23	1263.60
443.43	1251.31
443.64	1263.60
443.84	1222.64
444.05	1327.08
444.25	1300.46
444.46	1236.97
444.66	1339.37
444.87	1300.46
445.07	1335.28
445.28	1333.23
445.48	1259.50
445.69	1249.26
445.89	1329.13
446.09	1288.17
446.30	1361.90
446.50	1247.21
446.71	1298.41
446.91	1251.31
447.12	1331.18
447.32	1284.08
447.53	1282.03
447.73	1267.69
447.93	1335.28
448.14	1228.78
448.34	1253.36
448.55	1275.88
448.75	1232.88
448.96	1251.31
449.16	1267.69
449.36	1312.75
449.57	1261.55
449.77	1290.22
449.98	1279.98
450.18	1257.45
450.39	1243.12
450.59	1249.26
450.79	1232.88
451.00	1288.17
451.20	1273.84
451.41	1308.65
451.61	1243.12
451.81	1226.73
452.02	1312.75
452.22	1259.50
452.43	1263.60
452.63	1298.41
