SpectraSuite Data File
++++++++++++++++++++++++++++++++++++
Date: Sun Apr 03 19:55:34 CEST 2016
User: root
Dark Spectrum Present: No
Reference Spectrum Present: No
Number of Sampled Component Spectra: 1
Spectrometers: USB4C02835
Integration Time (usec): 10000 (USB4C02835)
Spectra Averaged: 1 (USB4C02835)
Boxcar Smoothing: 0 (USB4C02835)
Correct for Electrical Dark: No (USB4C02835)
Strobe/Lamp Enabled: No (USB4C02835)
Correct for Detector Non-linearity: No (USB4C02835)
Correct for Stray Light: No (USB4C02835)
Number of Pixels in Processed Spectrum: 3648
>>>>>Begin Processed Spectral Data<<<<<
177.47	1208.30
177.69	1208.30
177.91	1208.30
178.13	1212.40
178.36	1267.69
178.58	1243.12
178.80	1322.99
179.02	1191.92
179.24	1245.16
179.46	1226.73
179.68	1218.54
179.90	1286.12
180.13	1282.03
180.35	1302.51
180.57	1357.80
180.79	1271.79
181.01	1245.16
181.23	1241.07
181.45	1228.78
181.67	1314.80
181.90	1331.18
182.12	1249.26
182.34	1247.21
182.56	1265.64
182.78	1279.98
183.00	1284.08
183.22	1249.26
183.44	1269.74
183.66	1230.83
183.89	1243.12
184.11	1212.40
184.33	1241.07
184.55	1275.88
184.77	1329.13
184.99	1286.12
185.21	1216.49
185.43	1255.40
185.65	1259.50
185.87	1253.36
186.10	1349.61
186.32	1304.56
186.54	1306.60
186.76	1271.79
186.98	1259.50
187.20	1232.88
187.42	1198.06
187.64	1189.87
187.86	1263.60
188.08	1255.40
188.30	1267.69
188.52	1230.83
188.75	1265.64
188.97	1265.64
189.19	1296.36
189.41	1228.78
189.63	1286.12
189.85	1247.21
190.07	1253.36
190.29	1277.93
190.51	1275.88
190.73	1308.65
190.95	1269.74
191.17	1259.50
191.39	1226.73
191.61	1265.64
191.84	1329.13
192.06	1277.93
192.28	1255.40
192.50	1241.07
192.72	1273.84
192.94	1288.17
193.16	1239.02
193.38	1263.60
193.60	1202.16
193.82	1277.93
194.04	1312.75
194.26	1259.50
194.48	1282.03
194.70	1337.32
194.92	1247.21
195.14	1320.94
195.36	1239.02
195.58	1269.74
195.80	1247.21
196.02	1275.88
196.24	1296.36
196.46	1275.88
196.69	1251.31
196.91	1265.64
197.13	1331.18
197.35	1273.84
197.57	1308.65
197.79	1314.80
198.01	1236.97
198.23	1318.89
198.45	1198.06
198.67	1298.41
198.89	1263.60
199.11	1228.78
199.33	1257.45
199.55	1275.88
199.77	1296.36
199.99	1359.85
200.21	1290.22
200.43	1306.60
200.65	1257.45
200.87	1239.02
201.09	1304.56
201.31	1259.50
201.53	1243.12
201.75	1230.83
201.97	1290.22
202.19	1279.98
202.41	1292.27
202.63	1296.36
202.85	1286.12
203.07	1253.36
203.29	1275.88
203.51	1363.95
203.73	1230.83
203.95	1279.98
204.17	1310.70
204.39	1279.98
204.61	1232.88
204.83	1296.36
205.05	1212.40
205.27	1271.79
205.49	1288.17
205.71	1292.27
205.93	1236.97
206.15	1247.21
206.37	1220.59
206.59	1234.93
206.81	1271.79
207.03	1265.64
207.25	1245.16
207.47	1257.45
207.69	1263.60
207.91	1314.80
208.13	1261.55
208.34	1290.22
208.56	1212.40
208.78	1320.94
209.00	1249.26
209.22	1267.69
209.44	1286.12
209.66	1273.84
209.88	1265.64
210.10	1339.37
210.32	1310.70
210.54	1216.49
210.76	1241.07
210.98	1239.02
211.20	1232.88
211.42	1247.21
211.64	1222.64
211.86	1279.98
212.08	1296.36
212.30	1320.94
212.52	1288.17
212.74	1261.55
212.96	1261.55
213.17	1288.17
213.39	1222.64
213.61	1243.12
213.83	1296.36
214.05	1320.94
214.27	1341.42
214.49	1284.08
214.71	1333.23
214.93	1302.51
215.15	1273.84
215.37	1361.90
215.59	1257.45
215.81	1204.21
216.03	1245.16
216.24	1230.83
216.46	1288.17
216.68	1282.03
216.90	1239.02
217.12	1279.98
217.34	1288.17
217.56	1232.88
217.78	1196.01
218.00	1226.73
218.22	1329.13
218.44	1318.89
218.66	1236.97
218.87	1236.97
219.09	1296.36
219.31	1273.84
219.53	1230.83
219.75	1269.74
219.97	1220.59
220.19	1298.41
220.41	1320.94
220.63	1249.26
220.85	1292.27
221.06	1204.21
221.28	1228.78
221.50	1296.36
221.72	1265.64
221.94	1316.84
222.16	1282.03
222.38	1263.60
222.60	1257.45
222.82	1253.36
223.03	1271.79
223.25	1284.08
223.47	1265.64
223.69	1230.83
223.91	1243.12
224.13	1239.02
224.35	1259.50
224.57	1267.69
224.78	1318.89
225.00	1243.12
225.22	1267.69
225.44	1208.30
225.66	1247.21
225.88	1312.75
226.10	1271.79
226.32	1296.36
226.53	1329.13
226.75	1206.25
226.97	1302.51
227.19	1302.51
227.41	1275.88
227.63	1298.41
227.85	1345.52
228.06	1230.83
228.28	1298.41
228.50	1228.78
228.72	1269.74
228.94	1224.69
229.16	1269.74
229.37	1259.50
229.59	1251.31
229.81	1234.93
230.03	1267.69
230.25	1300.46
230.47	1232.88
230.69	1255.40
230.90	1329.13
231.12	1214.45
231.34	1241.07
231.56	1257.45
231.78	1261.55
232.00	1206.25
232.21	1337.32
232.43	1255.40
232.65	1236.97
232.87	1269.74
233.09	1257.45
233.30	1288.17
233.52	1318.89
233.74	1290.22
233.96	1279.98
234.18	1257.45
234.40	1277.93
234.61	1294.32
234.83	1220.59
235.05	1296.36
235.27	1286.12
235.49	1267.69
235.70	1316.84
235.92	1288.17
236.14	1259.50
236.36	1277.93
236.58	1296.36
236.79	1261.55
237.01	1224.69
237.23	1257.45
237.45	1271.79
237.67	1249.26
237.88	1204.21
238.10	1216.49
238.32	1222.64
238.54	1189.87
238.76	1312.75
238.97	1212.40
239.19	1232.88
239.41	1284.08
239.63	1220.59
239.85	1306.60
240.06	1239.02
240.28	1249.26
240.50	1245.16
240.72	1314.80
240.93	1339.37
241.15	1230.83
241.37	1290.22
241.59	1171.44
241.81	1263.60
242.02	1210.35
242.24	1282.03
242.46	1230.83
242.68	1265.64
242.89	1259.50
243.11	1273.84
243.33	1308.65
243.55	1214.45
243.76	1277.93
243.98	1290.22
244.20	1259.50
244.42	1429.48
244.64	1228.78
244.85	1282.03
245.07	1222.64
245.29	1322.99
245.51	1304.56
245.72	1290.22
245.94	1189.87
246.16	1257.45
246.38	1273.84
246.59	1224.69
246.81	1263.60
247.03	1210.35
247.24	1288.17
247.46	1198.06
247.68	1306.60
247.90	1259.50
248.11	1216.49
248.33	1316.84
248.55	1314.80
248.77	1202.16
248.98	1271.79
249.20	1265.64
249.42	1224.69
249.64	1253.36
249.85	1308.65
250.07	1255.40
250.29	1263.60
250.50	1349.61
250.72	1345.52
250.94	1259.50
251.16	1296.36
251.37	1263.60
251.59	1259.50
251.81	1284.08
252.02	1253.36
252.24	1214.45
252.46	1286.12
252.68	1228.78
252.89	1241.07
253.11	1269.74
253.33	1255.40
253.54	1263.60
253.76	1290.22
253.98	1259.50
254.20	1251.31
254.41	1333.23
254.63	1339.37
254.85	1275.88
255.06	1288.17
255.28	1261.55
255.50	1230.83
255.71	1243.12
255.93	1304.56
256.15	1308.65
256.36	1193.97
256.58	1253.36
256.80	1304.56
257.02	1226.73
257.23	1257.45
257.45	1286.12
257.67	1220.59
257.88	1234.93
258.10	1259.50
258.32	1208.30
258.53	1353.71
258.75	1210.35
258.97	1322.99
259.18	1230.83
259.40	1279.98
259.62	1239.02
259.83	1239.02
260.05	1253.36
260.27	1374.19
260.48	1249.26
260.70	1282.03
260.92	1269.74
261.13	1277.93
261.35	1277.93
261.57	1314.80
261.78	1257.45
262.00	1271.79
262.22	1275.88
262.43	1247.21
262.65	1259.50
262.86	1265.64
263.08	1130.48
263.30	1263.60
263.51	1282.03
263.73	1339.37
263.95	1296.36
264.16	1243.12
264.38	1228.78
264.60	1224.69
264.81	1273.84
265.03	1239.02
265.25	1255.40
265.46	1279.98
265.68	1269.74
265.89	1271.79
266.11	1198.06
266.33	1230.83
266.54	1247.21
266.76	1212.40
266.98	1282.03
267.19	1263.60
267.41	1259.50
267.62	1253.36
267.84	1222.64
268.06	1273.84
268.27	1253.36
268.49	1257.45
268.70	1312.75
268.92	1292.27
269.14	1331.18
269.35	1314.80
269.57	1302.51
269.79	1224.69
270.00	1263.60
270.22	1232.88
270.43	1290.22
270.65	1282.03
270.87	1271.79
271.08	1247.21
271.30	1249.26
271.51	1304.56
271.73	1298.41
271.95	1269.74
272.16	1333.23
272.38	1239.02
272.59	1271.79
272.81	1306.60
273.02	1198.06
273.24	1279.98
273.46	1296.36
273.67	1329.13
273.89	1257.45
274.10	1327.08
274.32	1259.50
274.54	1286.12
274.75	1310.70
274.97	1335.28
275.18	1269.74
275.40	1243.12
275.61	1273.84
275.83	1261.55
276.05	1286.12
276.26	1259.50
276.48	1279.98
276.69	1273.84
276.91	1265.64
277.12	1226.73
277.34	1277.93
277.55	1277.93
277.77	1257.45
277.99	1255.40
278.20	1277.93
278.42	1220.59
278.63	1310.70
278.85	1308.65
279.06	1284.08
279.28	1312.75
279.49	1214.45
279.71	1247.21
279.93	1294.32
280.14	1257.45
280.36	1282.03
280.57	1318.89
280.79	1247.21
281.00	1228.78
281.22	1200.11
281.43	1263.60
281.65	1294.32
281.86	1286.12
282.08	1222.64
282.29	1300.46
282.51	1322.99
282.73	1230.83
282.94	1261.55
283.16	1269.74
283.37	1306.60
283.59	1265.64
283.80	1267.69
284.02	1269.74
284.23	1257.45
284.45	1294.32
284.66	1267.69
284.88	1247.21
285.09	1271.79
285.31	1290.22
285.52	1288.17
285.74	1228.78
285.95	1271.79
286.17	1290.22
286.38	1273.84
286.60	1290.22
286.81	1312.75
287.03	1316.84
287.24	1294.32
287.46	1282.03
287.67	1255.40
287.89	1249.26
288.10	1310.70
288.32	1273.84
288.53	1257.45
288.75	1267.69
288.96	1273.84
289.18	1300.46
289.39	1249.26
289.61	1275.88
289.82	1253.36
290.04	1386.47
290.25	1271.79
290.47	1230.83
290.68	1241.07
290.90	1282.03
291.11	1243.12
291.33	1353.71
291.54	1322.99
291.76	1306.60
291.97	1318.89
292.18	1236.97
292.40	1220.59
292.61	1327.08
292.83	1294.32
293.04	1208.30
293.26	1245.16
293.47	1220.59
293.69	1265.64
293.90	1277.93
294.12	1185.77
294.33	1243.12
294.55	1251.31
294.76	1314.80
294.97	1222.64
295.19	1320.94
295.40	1304.56
295.62	1314.80
295.83	1273.84
296.05	1302.51
296.26	1343.47
296.48	1314.80
296.69	1282.03
296.90	1261.55
297.12	1187.82
297.33	1183.73
297.55	1259.50
297.76	1257.45
297.98	1245.16
298.19	1214.45
298.41	1267.69
298.62	1277.93
298.83	1265.64
299.05	1314.80
299.26	1349.61
299.48	1286.12
299.69	1224.69
299.90	1257.45
300.12	1310.70
300.33	1314.80
300.55	1308.65
300.76	1263.60
300.98	1288.17
301.19	1200.11
301.40	1308.65
301.62	1265.64
301.83	1286.12
302.05	1208.30
302.26	1271.79
302.47	1275.88
302.69	1320.94
302.90	1208.30
303.12	1322.99
303.33	1275.88
303.54	1169.39
303.76	1271.79
303.97	1308.65
304.19	1220.59
304.40	1224.69
304.61	1314.80
304.83	1314.80
305.04	1318.89
305.26	1216.49
305.47	1294.32
305.68	1257.45
305.90	1265.64
306.11	1304.56
306.33	1232.88
306.54	1288.17
306.75	1288.17
306.97	1263.60
307.18	1298.41
307.39	1302.51
307.61	1263.60
307.82	1222.64
308.04	1251.31
308.25	1306.60
308.46	1236.97
308.68	1298.41
308.89	1263.60
309.10	1269.74
309.32	1206.25
309.53	1292.27
309.74	1337.32
309.96	1275.88
310.17	1294.32
310.39	1214.45
310.60	1243.12
310.81	1300.46
311.03	1279.98
311.24	1304.56
311.45	1228.78
311.67	1249.26
311.88	1220.59
312.09	1271.79
312.31	1277.93
312.52	1177.58
312.73	1282.03
312.95	1255.40
313.16	1263.60
313.37	1306.60
313.59	1304.56
313.80	1261.55
314.01	1247.21
314.23	1341.42
314.44	1275.88
314.65	1232.88
314.87	1253.36
315.08	1279.98
315.29	1300.46
315.51	1271.79
315.72	1292.27
315.93	1249.26
316.15	1290.22
316.36	1222.64
316.57	1294.32
316.79	1279.98
317.00	1314.80
317.21	1284.08
317.43	1298.41
317.64	1220.59
317.85	1290.22
318.07	1249.26
318.28	1277.93
318.49	1337.32
318.70	1341.42
318.92	1345.52
319.13	1247.21
319.34	1331.18
319.56	1282.03
319.77	1196.01
319.98	1210.35
320.20	1224.69
320.41	1239.02
320.62	1284.08
320.83	1259.50
321.05	1245.16
321.26	1298.41
321.47	1230.83
321.69	1304.56
321.90	1239.02
322.11	1361.90
322.32	1314.80
322.54	1286.12
322.75	1230.83
322.96	1200.11
323.18	1279.98
323.39	1261.55
323.60	1284.08
323.81	1312.75
324.03	1253.36
324.24	1255.40
324.45	1228.78
324.66	1271.79
324.88	1214.45
325.09	1300.46
325.30	1173.49
325.52	1236.97
325.73	1286.12
325.94	1343.47
326.15	1339.37
326.37	1249.26
326.58	1296.36
326.79	1316.84
327.00	1271.79
327.22	1288.17
327.43	1245.16
327.64	1275.88
327.85	1230.83
328.07	1214.45
328.28	1218.54
328.49	1165.29
328.70	1282.03
328.92	1282.03
329.13	1226.73
329.34	1224.69
329.55	1275.88
329.76	1304.56
329.98	1257.45
330.19	1298.41
330.40	1271.79
330.61	1292.27
330.83	1220.59
331.04	1380.33
331.25	1269.74
331.46	1279.98
331.68	1300.46
331.89	1259.50
332.10	1202.16
332.31	1267.69
332.52	1267.69
332.74	1333.23
332.95	1302.51
333.16	1261.55
333.37	1284.08
333.58	1175.53
333.80	1265.64
334.01	1191.92
334.22	1275.88
334.43	1304.56
334.64	1284.08
334.86	1294.32
335.07	1208.30
335.28	1255.40
335.49	1273.84
335.70	1191.92
335.92	1222.64
336.13	1290.22
336.34	1245.16
336.55	1267.69
336.76	1335.28
336.98	1243.12
337.19	1300.46
337.40	1302.51
337.61	1236.97
337.82	1286.12
338.04	1273.84
338.25	1273.84
338.46	1239.02
338.67	1214.45
338.88	1220.59
339.09	1294.32
339.31	1296.36
339.52	1234.93
339.73	1304.56
339.94	1282.03
340.15	1206.25
340.36	1273.84
340.58	1228.78
340.79	1298.41
341.00	1265.64
341.21	1318.89
341.42	1249.26
341.63	1286.12
341.85	1316.84
342.06	1302.51
342.27	1298.41
342.48	1271.79
342.69	1249.26
342.90	1288.17
343.12	1279.98
343.33	1275.88
343.54	1177.58
343.75	1294.32
343.96	1226.73
344.17	1253.36
344.38	1249.26
344.60	1216.49
344.81	1228.78
345.02	1302.51
345.23	1345.52
345.44	1273.84
345.65	1265.64
345.86	1243.12
346.07	1263.60
346.29	1247.21
346.50	1228.78
346.71	1300.46
346.92	1322.99
347.13	1298.41
347.34	1294.32
347.55	1302.51
347.76	1273.84
347.98	1249.26
348.19	1269.74
348.40	1259.50
348.61	1310.70
348.82	1292.27
349.03	1257.45
349.24	1253.36
349.45	1292.27
349.66	1251.31
349.88	1265.64
350.09	1271.79
350.30	1234.93
350.51	1257.45
350.72	1239.02
350.93	1335.28
351.14	1200.11
351.35	1304.56
351.56	1345.52
351.77	1337.32
351.99	1263.60
352.20	1294.32
352.41	1263.60
352.62	1263.60
352.83	1181.68
353.04	1279.98
353.25	1214.45
353.46	1259.50
353.67	1251.31
353.88	1296.36
354.09	1277.93
354.30	1308.65
354.52	1288.17
354.73	1277.93
354.94	1230.83
355.15	1208.30
355.36	1314.80
355.57	1261.55
355.78	1296.36
355.99	1245.16
356.20	1241.07
356.41	1265.64
356.62	1261.55
356.83	1214.45
357.04	1245.16
357.25	1277.93
357.46	1239.02
357.68	1255.40
357.89	1243.12
358.10	1249.26
358.31	1269.74
358.52	1296.36
358.73	1189.87
358.94	1208.30
359.15	1288.17
359.36	1296.36
359.57	1224.69
359.78	1288.17
359.99	1286.12
360.20	1251.31
360.41	1236.97
360.62	1351.66
360.83	1267.69
361.04	1298.41
361.25	1298.41
361.46	1271.79
361.67	1308.65
361.88	1277.93
362.09	1294.32
362.30	1263.60
362.51	1345.52
362.72	1241.07
362.93	1245.16
363.14	1306.60
363.35	1273.84
363.56	1304.56
363.78	1320.94
363.99	1284.08
364.20	1191.92
364.41	1275.88
364.62	1247.21
364.83	1267.69
365.04	1314.80
365.25	1243.12
365.46	1236.97
365.67	1177.58
365.88	1273.84
366.09	1275.88
366.30	1290.22
366.51	1277.93
366.72	1243.12
366.93	1230.83
367.14	1249.26
367.35	1255.40
367.56	1290.22
367.77	1210.35
367.98	1228.78
368.18	1273.84
368.39	1310.70
368.60	1273.84
368.81	1257.45
369.02	1245.16
369.23	1265.64
369.44	1288.17
369.65	1294.32
369.86	1277.93
370.07	1331.18
370.28	1314.80
370.49	1294.32
370.70	1300.46
370.91	1286.12
371.12	1230.83
371.33	1232.88
371.54	1304.56
371.75	1312.75
371.96	1261.55
372.17	1265.64
372.38	1251.31
372.59	1290.22
372.80	1345.52
373.01	1310.70
373.22	1286.12
373.43	1234.93
373.64	1253.36
373.85	1241.07
374.06	1273.84
374.26	1271.79
374.47	1224.69
374.68	1341.42
374.89	1273.84
375.10	1286.12
375.31	1306.60
375.52	1265.64
375.73	1247.21
375.94	1243.12
376.15	1306.60
376.36	1347.56
376.57	1267.69
376.78	1263.60
376.99	1273.84
377.20	1251.31
377.40	1247.21
377.61	1288.17
377.82	1200.11
378.03	1304.56
378.24	1273.84
378.45	1298.41
378.66	1265.64
378.87	1296.36
379.08	1306.60
379.29	1294.32
379.50	1314.80
379.71	1284.08
379.91	1269.74
380.12	1316.84
380.33	1247.21
380.54	1241.07
380.75	1239.02
380.96	1304.56
381.17	1325.04
381.38	1302.51
381.59	1349.61
381.80	1251.31
382.00	1288.17
382.21	1284.08
382.42	1261.55
382.63	1271.79
382.84	1298.41
383.05	1265.64
383.26	1279.98
383.47	1271.79
383.68	1257.45
383.88	1236.97
384.09	1290.22
384.30	1230.83
384.51	1302.51
384.72	1331.18
384.93	1247.21
385.14	1286.12
385.35	1318.89
385.55	1306.60
385.76	1218.54
385.97	1298.41
386.18	1327.08
386.39	1353.71
386.60	1249.26
386.81	1300.46
387.02	1288.17
387.22	1333.23
387.43	1212.40
387.64	1269.74
387.85	1288.17
388.06	1378.28
388.27	1267.69
388.48	1255.40
388.68	1378.28
388.89	1198.06
389.10	1288.17
389.31	1306.60
389.52	1286.12
389.73	1296.36
389.93	1306.60
390.14	1273.84
390.35	1232.88
390.56	1253.36
390.77	1257.45
390.98	1206.25
391.18	1255.40
391.39	1257.45
391.60	1316.84
391.81	1282.03
392.02	1282.03
392.23	1220.59
392.43	1306.60
392.64	1273.84
392.85	1232.88
393.06	1269.74
393.27	1224.69
393.47	1294.32
393.68	1290.22
393.89	1239.02
394.10	1249.26
394.31	1292.27
394.52	1257.45
394.72	1196.01
394.93	1316.84
395.14	1179.63
395.35	1304.56
395.56	1265.64
395.76	1239.02
395.97	1310.70
396.18	1282.03
396.39	1234.93
396.60	1349.61
396.80	1228.78
397.01	1226.73
397.22	1325.04
397.43	1302.51
397.64	1263.60
397.84	1351.66
398.05	1214.45
398.26	1230.83
398.47	1269.74
398.67	1234.93
398.88	1284.08
399.09	1318.89
399.30	1257.45
399.51	1267.69
399.71	1327.08
399.92	1228.78
400.13	1253.36
400.34	1286.12
400.54	1191.92
400.75	1357.80
400.96	1284.08
401.17	1331.18
401.37	1265.64
401.58	1243.12
401.79	1253.36
402.00	1347.56
402.21	1243.12
402.41	1210.35
402.62	1259.50
402.83	1232.88
403.04	1251.31
403.24	1251.31
403.45	1294.32
403.66	1232.88
403.87	1329.13
404.07	1282.03
404.28	1273.84
404.49	1228.78
404.70	1286.12
404.90	1253.36
405.11	1267.69
405.32	1271.79
405.52	1218.54
405.73	1273.84
405.94	1275.88
406.15	1275.88
406.35	1331.18
406.56	1288.17
406.77	1361.90
406.98	1261.55
407.18	1257.45
407.39	1257.45
407.60	1273.84
407.80	1216.49
408.01	1275.88
408.22	1310.70
408.43	1236.97
408.63	1271.79
408.84	1208.30
409.05	1282.03
409.25	1271.79
409.46	1310.70
409.67	1314.80
409.88	1300.46
410.08	1333.23
410.29	1275.88
410.50	1273.84
410.70	1300.46
410.91	1298.41
411.12	1286.12
411.32	1351.66
411.53	1212.40
411.74	1214.45
411.95	1312.75
412.15	1296.36
412.36	1232.88
412.57	1267.69
412.77	1349.61
412.98	1247.21
413.19	1269.74
413.39	1230.83
413.60	1245.16
413.81	1216.49
414.01	1259.50
414.22	1232.88
414.43	1304.56
414.63	1187.82
414.84	1267.69
415.05	1259.50
415.25	1322.99
415.46	1304.56
415.67	1259.50
415.87	1316.84
416.08	1296.36
416.29	1206.25
416.49	1286.12
416.70	1243.12
416.91	1226.73
417.11	1290.22
417.32	1269.74
417.53	1191.92
417.73	1275.88
417.94	1337.32
418.15	1284.08
418.35	1226.73
418.56	1228.78
418.77	1214.45
418.97	1296.36
419.18	1265.64
419.38	1284.08
419.59	1279.98
419.80	1212.40
420.00	1296.36
420.21	1265.64
420.42	1214.45
420.62	1249.26
420.83	1269.74
421.04	1279.98
421.24	1259.50
421.45	1263.60
421.65	1300.46
421.86	1251.31
422.07	1347.56
422.27	1245.16
422.48	1316.84
422.69	1230.83
422.89	1187.82
423.10	1275.88
423.30	1304.56
423.51	1259.50
423.72	1261.55
423.92	1277.93
424.13	1243.12
424.33	1271.79
424.54	1214.45
424.75	1165.29
424.95	1310.70
425.16	1277.93
425.36	1224.69
425.57	1269.74
425.78	1247.21
425.98	1261.55
426.19	1253.36
426.39	1286.12
426.60	1308.65
426.81	1298.41
427.01	1322.99
427.22	1212.40
427.42	1255.40
427.63	1232.88
427.83	1333.23
428.04	1320.94
428.25	1298.41
428.45	1282.03
428.66	1275.88
428.86	1282.03
429.07	1294.32
429.28	1228.78
429.48	1271.79
429.69	1243.12
429.89	1255.40
430.10	1282.03
430.30	1308.65
430.51	1226.73
430.71	1247.21
430.92	1351.66
431.13	1247.21
431.33	1290.22
431.54	1314.80
431.74	1273.84
431.95	1290.22
432.15	1294.32
432.36	1265.64
432.56	1329.13
432.77	1232.88
432.98	1265.64
433.18	1320.94
433.39	1279.98
433.59	1255.40
433.80	1263.60
434.00	1359.85
434.21	1351.66
434.41	1279.98
434.62	1316.84
434.82	1245.16
435.03	1175.53
435.23	1351.66
435.44	1267.69
435.64	1273.84
435.85	1320.94
436.06	1245.16
436.26	1292.27
436.47	1318.89
436.67	1296.36
436.88	1304.56
437.08	1290.22
437.29	1220.59
437.49	1333.23
437.70	1271.79
437.90	1253.36
438.11	1273.84
438.31	1290.22
438.52	1269.74
438.72	1329.13
438.93	1277.93
439.13	1308.65
439.34	1290.22
439.54	1255.40
439.75	1292.27
439.95	1271.79
440.16	1322.99
440.36	1286.12
440.57	1261.55
440.77	1249.26
440.98	1263.60
441.18	1282.03
441.39	1292.27
441.59	1298.41
441.80	1267.69
442.00	1269.74
442.21	1198.06
442.41	1239.02
442.62	1302.51
442.82	1302.51
443.02	1312.75
443.23	1271.79
443.43	1290.22
443.64	1282.03
443.84	1282.03
444.05	1331.18
444.25	1337.32
444.46	1230.83
444.66	1322.99
444.87	1290.22
445.07	1331.18
445.28	1327.08
445.48	1288.17
445.69	1228.78
445.89	1273.84
446.09	1279.98
446.30	1273.84
446.50	1288.17
446.71	1257.45
446.91	1267.69
447.12	1294.32
447.32	1251.31
447.53	1296.36
447.73	1331.18
447.93	1273.84
448.14	1249.26
448.34	1208.30
448.55	1286.12
448.75	1255.40
448.96	1341.42
449.16	1290.22
449.36	1204.21
449.57	1290.22
449.77	1251.31
449.98	1249.26
450.18	1275.88
450.39	1234.93
450.59	1253.36
450.79	1267.69
451.00	1294.32
451.20	1216.49
451.41	1265.64
451.61	1222.64
451.81	1341.42
452.02	1279.98
452.22	1273.84
452.43	1214.45
452.63	1292.27
