SpectraSuite Data File
++++++++++++++++++++++++++++++++++++
Date: Sun Apr 03 19:55:36 CEST 2016
User: root
Dark Spectrum Present: No
Reference Spectrum Present: No
Number of Sampled Component Spectra: 1
Spectrometers: USB4C02835
Integration Time (usec): 10000 (USB4C02835)
Spectra Averaged: 1 (USB4C02835)
Boxcar Smoothing: 0 (USB4C02835)
Correct for Electrical Dark: No (USB4C02835)
Strobe/Lamp Enabled: No (USB4C02835)
Correct for Detector Non-linearity: No (USB4C02835)
Correct for Stray Light: No (USB4C02835)
Number of Pixels in Processed Spectrum: 3648
>>>>>Begin Processed Spectral Data<<<<<
177.47	1271.79
177.69	1271.79
177.91	1271.79
178.13	1271.79
178.36	1239.02
178.58	1239.02
178.80	1320.94
179.02	1191.92
179.24	1255.40
179.46	1300.46
179.68	1257.45
179.90	1228.78
180.13	1236.97
180.35	1253.36
180.57	1247.21
180.79	1241.07
181.01	1200.11
181.23	1314.80
181.45	1361.90
181.67	1286.12
181.90	1261.55
182.12	1230.83
182.34	1261.55
182.56	1347.56
182.78	1255.40
183.00	1234.93
183.22	1282.03
183.44	1294.32
183.66	1386.47
183.89	1189.87
184.11	1275.88
184.33	1261.55
184.55	1275.88
184.77	1288.17
184.99	1230.83
185.21	1298.41
185.43	1298.41
185.65	1226.73
185.87	1224.69
186.10	1230.83
186.32	1335.28
186.54	1310.70
186.76	1271.79
186.98	1294.32
187.20	1302.51
187.42	1267.69
187.64	1210.35
187.86	1273.84
188.08	1351.66
188.30	1236.97
188.52	1249.26
188.75	1257.45
188.97	1294.32
189.19	1282.03
189.41	1167.34
189.63	1318.89
189.85	1310.70
190.07	1226.73
190.29	1288.17
190.51	1241.07
190.73	1267.69
190.95	1265.64
191.17	1308.65
191.39	1241.07
191.61	1269.74
191.84	1234.93
192.06	1208.30
192.28	1357.80
192.50	1302.51
192.72	1327.08
192.94	1282.03
193.16	1273.84
193.38	1253.36
193.60	1251.31
193.82	1320.94
194.04	1218.54
194.26	1282.03
194.48	1187.82
194.70	1279.98
194.92	1243.12
195.14	1279.98
195.36	1243.12
195.58	1255.40
195.80	1251.31
196.02	1271.79
196.24	1269.74
196.46	1302.51
196.69	1282.03
196.91	1232.88
197.13	1294.32
197.35	1275.88
197.57	1226.73
197.79	1279.98
198.01	1339.37
198.23	1239.02
198.45	1198.06
198.67	1292.27
198.89	1267.69
199.11	1337.32
199.33	1261.55
199.55	1230.83
199.77	1263.60
199.99	1232.88
200.21	1308.65
200.43	1312.75
200.65	1259.50
200.87	1224.69
201.09	1253.36
201.31	1269.74
201.53	1322.99
201.75	1239.02
201.97	1179.63
202.19	1312.75
202.41	1218.54
202.63	1304.56
202.85	1325.04
203.07	1337.32
203.29	1245.16
203.51	1234.93
203.73	1259.50
203.95	1372.14
204.17	1298.41
204.39	1247.21
204.61	1234.93
204.83	1193.97
205.05	1200.11
205.27	1294.32
205.49	1241.07
205.71	1304.56
205.93	1202.16
206.15	1327.08
206.37	1300.46
206.59	1265.64
206.81	1253.36
207.03	1300.46
207.25	1249.26
207.47	1265.64
207.69	1286.12
207.91	1284.08
208.13	1245.16
208.34	1200.11
208.56	1275.88
208.78	1193.97
209.00	1298.41
209.22	1271.79
209.44	1331.18
209.66	1308.65
209.88	1314.80
210.10	1294.32
210.32	1277.93
210.54	1247.21
210.76	1314.80
210.98	1292.27
211.20	1239.02
211.42	1310.70
211.64	1257.45
211.86	1312.75
212.08	1251.31
212.30	1277.93
212.52	1292.27
212.74	1331.18
212.96	1253.36
213.17	1234.93
213.39	1290.22
213.61	1351.66
213.83	1269.74
214.05	1322.99
214.27	1247.21
214.49	1247.21
214.71	1247.21
214.93	1253.36
215.15	1290.22
215.37	1261.55
215.59	1249.26
215.81	1236.97
216.03	1273.84
216.24	1234.93
216.46	1282.03
216.68	1296.36
216.90	1255.40
217.12	1236.97
217.34	1171.44
217.56	1347.56
217.78	1228.78
218.00	1300.46
218.22	1320.94
218.44	1269.74
218.66	1212.40
218.87	1243.12
219.09	1163.25
219.31	1253.36
219.53	1251.31
219.75	1271.79
219.97	1230.83
220.19	1263.60
220.41	1288.17
220.63	1282.03
220.85	1290.22
221.06	1234.93
221.28	1273.84
221.50	1243.12
221.72	1333.23
221.94	1322.99
222.16	1243.12
222.38	1290.22
222.60	1224.69
222.82	1232.88
223.03	1226.73
223.25	1167.34
223.47	1322.99
223.69	1304.56
223.91	1255.40
224.13	1306.60
224.35	1290.22
224.57	1257.45
224.78	1286.12
225.00	1265.64
225.22	1212.40
225.44	1191.92
225.66	1275.88
225.88	1253.36
226.10	1292.27
226.32	1239.02
226.53	1251.31
226.75	1257.45
226.97	1265.64
227.19	1249.26
227.41	1333.23
227.63	1220.59
227.85	1255.40
228.06	1247.21
228.28	1271.79
228.50	1312.75
228.72	1257.45
228.94	1259.50
229.16	1286.12
229.37	1234.93
229.59	1290.22
229.81	1277.93
230.03	1288.17
230.25	1255.40
230.47	1224.69
230.69	1263.60
230.90	1224.69
231.12	1220.59
231.34	1247.21
231.56	1269.74
231.78	1292.27
232.00	1298.41
232.21	1300.46
232.43	1269.74
232.65	1286.12
232.87	1277.93
233.09	1288.17
233.30	1261.55
233.52	1224.69
233.74	1255.40
233.96	1255.40
234.18	1249.26
234.40	1253.36
234.61	1247.21
234.83	1300.46
235.05	1232.88
235.27	1279.98
235.49	1322.99
235.70	1247.21
235.92	1308.65
236.14	1269.74
236.36	1316.84
236.58	1216.49
236.79	1292.27
237.01	1284.08
237.23	1286.12
237.45	1322.99
237.67	1210.35
237.88	1298.41
238.10	1296.36
238.32	1308.65
238.54	1257.45
238.76	1306.60
238.97	1339.37
239.19	1226.73
239.41	1208.30
239.63	1300.46
239.85	1243.12
240.06	1345.52
240.28	1251.31
240.50	1232.88
240.72	1302.51
240.93	1189.87
241.15	1279.98
241.37	1327.08
241.59	1224.69
241.81	1202.16
242.02	1347.56
242.24	1257.45
242.46	1345.52
242.68	1245.16
242.89	1257.45
243.11	1173.49
243.33	1253.36
243.55	1243.12
243.76	1269.74
243.98	1298.41
244.20	1279.98
244.42	1288.17
244.64	1263.60
244.85	1325.04
245.07	1271.79
245.29	1224.69
245.51	1355.76
245.72	1241.07
245.94	1224.69
246.16	1206.25
246.38	1302.51
246.59	1279.98
246.81	1279.98
247.03	1241.07
247.24	1251.31
247.46	1257.45
247.68	1259.50
247.90	1327.08
248.11	1298.41
248.33	1241.07
248.55	1247.21
248.77	1247.21
248.98	1292.27
249.20	1267.69
249.42	1349.61
249.64	1306.60
249.85	1185.77
250.07	1198.06
250.29	1255.40
250.50	1241.07
250.72	1241.07
250.94	1212.40
251.16	1241.07
251.37	1265.64
251.59	1366.00
251.81	1335.28
252.02	1253.36
252.24	1298.41
252.46	1345.52
252.68	1273.84
252.89	1282.03
253.11	1286.12
253.33	1249.26
253.54	1204.21
253.76	1210.35
253.98	1165.29
254.20	1198.06
254.41	1265.64
254.63	1255.40
254.85	1200.11
255.06	1286.12
255.28	1310.70
255.50	1230.83
255.71	1228.78
255.93	1255.40
256.15	1282.03
256.36	1251.31
256.58	1177.58
256.80	1282.03
257.02	1288.17
257.23	1269.74
257.45	1284.08
257.67	1298.41
257.88	1222.64
258.10	1179.63
258.32	1204.21
258.53	1298.41
258.75	1239.02
258.97	1253.36
259.18	1245.16
259.40	1265.64
259.62	1271.79
259.83	1339.37
260.05	1265.64
260.27	1302.51
260.48	1282.03
260.70	1282.03
260.92	1265.64
261.13	1247.21
261.35	1294.32
261.57	1296.36
261.78	1265.64
262.00	1212.40
262.22	1284.08
262.43	1290.22
262.65	1302.51
262.86	1269.74
263.08	1333.23
263.30	1261.55
263.51	1294.32
263.73	1355.76
263.95	1261.55
264.16	1208.30
264.38	1267.69
264.60	1298.41
264.81	1241.07
265.03	1261.55
265.25	1282.03
265.46	1273.84
265.68	1228.78
265.89	1329.13
266.11	1269.74
266.33	1341.42
266.54	1249.26
266.76	1282.03
266.98	1269.74
267.19	1286.12
267.41	1232.88
267.62	1208.30
267.84	1224.69
268.06	1284.08
268.27	1302.51
268.49	1310.70
268.70	1335.28
268.92	1306.60
269.14	1253.36
269.35	1302.51
269.57	1196.01
269.79	1296.36
270.00	1245.16
270.22	1294.32
270.43	1343.47
270.65	1316.84
270.87	1243.12
271.08	1259.50
271.30	1314.80
271.51	1308.65
271.73	1200.11
271.95	1243.12
272.16	1284.08
272.38	1302.51
272.59	1232.88
272.81	1298.41
273.02	1212.40
273.24	1312.75
273.46	1255.40
273.67	1341.42
273.89	1239.02
274.10	1277.93
274.32	1339.37
274.54	1273.84
274.75	1312.75
274.97	1239.02
275.18	1247.21
275.40	1304.56
275.61	1292.27
275.83	1265.64
276.05	1234.93
276.26	1320.94
276.48	1275.88
276.69	1300.46
276.91	1222.64
277.12	1249.26
277.34	1251.31
277.55	1230.83
277.77	1236.97
277.99	1312.75
278.20	1236.97
278.42	1224.69
278.63	1179.63
278.85	1234.93
279.06	1288.17
279.28	1208.30
279.49	1239.02
279.71	1271.79
279.93	1288.17
280.14	1241.07
280.36	1320.94
280.57	1271.79
280.79	1339.37
281.00	1249.26
281.22	1218.54
281.43	1294.32
281.65	1304.56
281.86	1343.47
282.08	1265.64
282.29	1306.60
282.51	1257.45
282.73	1325.04
282.94	1255.40
283.16	1261.55
283.37	1277.93
283.59	1269.74
283.80	1284.08
284.02	1296.36
284.23	1216.49
284.45	1257.45
284.66	1236.97
284.88	1286.12
285.09	1232.88
285.31	1220.59
285.52	1224.69
285.74	1193.97
285.95	1282.03
286.17	1298.41
286.38	1318.89
286.60	1212.40
286.81	1267.69
287.03	1273.84
287.24	1314.80
287.46	1247.21
287.67	1288.17
287.89	1316.84
288.10	1284.08
288.32	1249.26
288.53	1308.65
288.75	1320.94
288.96	1306.60
289.18	1286.12
289.39	1241.07
289.61	1245.16
289.82	1277.93
290.04	1216.49
290.25	1318.89
290.47	1282.03
290.68	1255.40
290.90	1202.16
291.11	1255.40
291.33	1277.93
291.54	1261.55
291.76	1310.70
291.97	1236.97
292.18	1279.98
292.40	1263.60
292.61	1335.28
292.83	1341.42
293.04	1226.73
293.26	1220.59
293.47	1318.89
293.69	1312.75
293.90	1257.45
294.12	1271.79
294.33	1263.60
294.55	1239.02
294.76	1249.26
294.97	1325.04
295.19	1275.88
295.40	1251.31
295.62	1341.42
295.83	1200.11
296.05	1298.41
296.26	1277.93
296.48	1310.70
296.69	1249.26
296.90	1337.32
297.12	1290.22
297.33	1284.08
297.55	1271.79
297.76	1275.88
297.98	1279.98
298.19	1288.17
298.41	1279.98
298.62	1279.98
298.83	1247.21
299.05	1345.52
299.26	1296.36
299.48	1208.30
299.69	1294.32
299.90	1320.94
300.12	1267.69
300.33	1288.17
300.55	1298.41
300.76	1265.64
300.98	1282.03
301.19	1265.64
301.40	1218.54
301.62	1247.21
301.83	1298.41
302.05	1208.30
302.26	1251.31
302.47	1267.69
302.69	1304.56
302.90	1257.45
303.12	1257.45
303.33	1263.60
303.54	1263.60
303.76	1249.26
303.97	1200.11
304.19	1273.84
304.40	1314.80
304.61	1277.93
304.83	1302.51
305.04	1202.16
305.26	1257.45
305.47	1200.11
305.68	1273.84
305.90	1220.59
306.11	1296.36
306.33	1210.35
306.54	1236.97
306.75	1214.45
306.97	1284.08
307.18	1251.31
307.39	1282.03
307.61	1226.73
307.82	1304.56
308.04	1273.84
308.25	1212.40
308.46	1275.88
308.68	1273.84
308.89	1210.35
309.10	1210.35
309.32	1269.74
309.53	1294.32
309.74	1267.69
309.96	1300.46
310.17	1304.56
310.39	1269.74
310.60	1277.93
310.81	1271.79
311.03	1279.98
311.24	1265.64
311.45	1216.49
311.67	1318.89
311.88	1249.26
312.09	1302.51
312.31	1216.49
312.52	1189.87
312.73	1267.69
312.95	1306.60
313.16	1290.22
313.37	1279.98
313.59	1273.84
313.80	1298.41
314.01	1282.03
314.23	1257.45
314.44	1282.03
314.65	1183.73
314.87	1368.04
315.08	1236.97
315.29	1298.41
315.51	1279.98
315.72	1247.21
315.93	1325.04
316.15	1329.13
316.36	1187.82
316.57	1273.84
316.79	1318.89
317.00	1275.88
317.21	1245.16
317.43	1290.22
317.64	1228.78
317.85	1243.12
318.07	1212.40
318.28	1265.64
318.49	1279.98
318.70	1341.42
318.92	1282.03
319.13	1245.16
319.34	1196.01
319.56	1292.27
319.77	1247.21
319.98	1245.16
320.20	1296.36
320.41	1306.60
320.62	1239.02
320.83	1308.65
321.05	1214.45
321.26	1337.32
321.47	1277.93
321.69	1228.78
321.90	1327.08
322.11	1284.08
322.32	1263.60
322.54	1308.65
322.75	1300.46
322.96	1263.60
323.18	1224.69
323.39	1333.23
323.60	1267.69
323.81	1247.21
324.03	1212.40
324.24	1245.16
324.45	1179.63
324.66	1292.27
324.88	1361.90
325.09	1267.69
325.30	1226.73
325.52	1243.12
325.73	1316.84
325.94	1271.79
326.15	1232.88
326.37	1263.60
326.58	1302.51
326.79	1232.88
327.00	1286.12
327.22	1292.27
327.43	1353.71
327.64	1314.80
327.85	1228.78
328.07	1263.60
328.28	1306.60
328.49	1275.88
328.70	1212.40
328.92	1288.17
329.13	1261.55
329.34	1282.03
329.55	1275.88
329.76	1253.36
329.98	1243.12
330.19	1228.78
330.40	1275.88
330.61	1282.03
330.83	1267.69
331.04	1261.55
331.25	1239.02
331.46	1294.32
331.68	1243.12
331.89	1296.36
332.10	1282.03
332.31	1236.97
332.52	1185.77
332.74	1310.70
332.95	1300.46
333.16	1232.88
333.37	1218.54
333.58	1247.21
333.80	1310.70
334.01	1234.93
334.22	1251.31
334.43	1212.40
334.64	1277.93
334.86	1150.96
335.07	1267.69
335.28	1224.69
335.49	1200.11
335.70	1290.22
335.92	1286.12
336.13	1298.41
336.34	1320.94
336.55	1232.88
336.76	1269.74
336.98	1306.60
337.19	1339.37
337.40	1298.41
337.61	1247.21
337.82	1312.75
338.04	1318.89
338.25	1310.70
338.46	1282.03
338.67	1298.41
338.88	1216.49
339.09	1300.46
339.31	1267.69
339.52	1214.45
339.73	1247.21
339.94	1304.56
340.15	1261.55
340.36	1234.93
340.58	1308.65
340.79	1277.93
341.00	1284.08
341.21	1253.36
341.42	1257.45
341.63	1325.04
341.85	1288.17
342.06	1329.13
342.27	1286.12
342.48	1271.79
342.69	1275.88
342.90	1271.79
343.12	1298.41
343.33	1357.80
343.54	1271.79
343.75	1265.64
343.96	1249.26
344.17	1210.35
344.38	1306.60
344.60	1265.64
344.81	1290.22
345.02	1320.94
345.23	1343.47
345.44	1204.21
345.65	1304.56
345.86	1230.83
346.07	1290.22
346.29	1304.56
346.50	1273.84
346.71	1304.56
346.92	1349.61
347.13	1228.78
347.34	1267.69
347.55	1251.31
347.76	1314.80
347.98	1341.42
348.19	1331.18
348.40	1249.26
348.61	1216.49
348.82	1249.26
349.03	1359.85
349.24	1257.45
349.45	1333.23
349.66	1333.23
349.88	1196.01
350.09	1304.56
350.30	1249.26
350.51	1245.16
350.72	1284.08
350.93	1230.83
351.14	1228.78
351.35	1296.36
351.56	1312.75
351.77	1173.49
351.99	1255.40
352.20	1288.17
352.41	1277.93
352.62	1306.60
352.83	1236.97
353.04	1263.60
353.25	1236.97
353.46	1304.56
353.67	1273.84
353.88	1247.21
354.09	1335.28
354.30	1271.79
354.52	1286.12
354.73	1277.93
354.94	1206.25
355.15	1249.26
355.36	1282.03
355.57	1296.36
355.78	1241.07
355.99	1304.56
356.20	1239.02
356.41	1273.84
356.62	1226.73
356.83	1224.69
357.04	1239.02
357.25	1257.45
357.46	1257.45
357.68	1267.69
357.89	1310.70
358.10	1200.11
358.31	1247.21
358.52	1210.35
358.73	1374.19
358.94	1253.36
359.15	1206.25
359.36	1273.84
359.57	1314.80
359.78	1206.25
359.99	1245.16
360.20	1271.79
360.41	1261.55
360.62	1255.40
360.83	1286.12
361.04	1255.40
361.25	1269.74
361.46	1298.41
361.67	1288.17
361.88	1263.60
362.09	1216.49
362.30	1282.03
362.51	1273.84
362.72	1191.92
362.93	1220.59
363.14	1302.51
363.35	1232.88
363.56	1228.78
363.78	1177.58
363.99	1275.88
364.20	1222.64
364.41	1290.22
364.62	1298.41
364.83	1236.97
365.04	1232.88
365.25	1249.26
365.46	1292.27
365.67	1232.88
365.88	1286.12
366.09	1325.04
366.30	1200.11
366.51	1279.98
366.72	1325.04
366.93	1279.98
367.14	1245.16
367.35	1322.99
367.56	1230.83
367.77	1275.88
367.98	1212.40
368.18	1286.12
368.39	1259.50
368.60	1355.76
368.81	1286.12
369.02	1247.21
369.23	1263.60
369.44	1251.31
369.65	1230.83
369.86	1308.65
370.07	1292.27
370.28	1193.97
370.49	1341.42
370.70	1204.21
370.91	1292.27
371.12	1298.41
371.33	1359.85
371.54	1239.02
371.75	1259.50
371.96	1294.32
372.17	1230.83
372.38	1263.60
372.59	1294.32
372.80	1245.16
373.01	1212.40
373.22	1234.93
373.43	1288.17
373.64	1245.16
373.85	1279.98
374.06	1220.59
374.26	1218.54
374.47	1308.65
374.68	1333.23
374.89	1322.99
375.10	1253.36
375.31	1249.26
375.52	1251.31
375.73	1200.11
375.94	1214.45
376.15	1249.26
376.36	1290.22
376.57	1277.93
376.78	1255.40
376.99	1284.08
377.20	1284.08
377.40	1236.97
377.61	1271.79
377.82	1261.55
378.03	1273.84
378.24	1275.88
378.45	1271.79
378.66	1251.31
378.87	1255.40
379.08	1282.03
379.29	1273.84
379.50	1230.83
379.71	1314.80
379.91	1257.45
380.12	1257.45
380.33	1239.02
380.54	1300.46
380.75	1273.84
380.96	1292.27
381.17	1277.93
381.38	1255.40
381.59	1265.64
381.80	1257.45
382.00	1263.60
382.21	1245.16
382.42	1255.40
382.63	1308.65
382.84	1220.59
383.05	1294.32
383.26	1224.69
383.47	1245.16
383.68	1308.65
383.88	1249.26
384.09	1306.60
384.30	1265.64
384.51	1329.13
384.72	1198.06
384.93	1300.46
385.14	1239.02
385.35	1265.64
385.55	1296.36
385.76	1228.78
385.97	1261.55
386.18	1294.32
386.39	1220.59
386.60	1208.30
386.81	1306.60
387.02	1322.99
387.22	1228.78
387.43	1298.41
387.64	1177.58
387.85	1300.46
388.06	1279.98
388.27	1271.79
388.48	1249.26
388.68	1288.17
388.89	1308.65
389.10	1279.98
389.31	1294.32
389.52	1202.16
389.73	1236.97
389.93	1243.12
390.14	1251.31
390.35	1228.78
390.56	1290.22
390.77	1286.12
390.98	1232.88
391.18	1247.21
391.39	1255.40
391.60	1232.88
391.81	1265.64
392.02	1220.59
392.23	1218.54
392.43	1294.32
392.64	1320.94
392.85	1284.08
393.06	1269.74
393.27	1294.32
393.47	1296.36
393.68	1265.64
393.89	1286.12
394.10	1253.36
394.31	1255.40
394.52	1279.98
394.72	1265.64
394.93	1257.45
395.14	1306.60
395.35	1320.94
395.56	1267.69
395.76	1263.60
395.97	1236.97
396.18	1243.12
396.39	1267.69
396.60	1300.46
396.80	1339.37
397.01	1294.32
397.22	1249.26
397.43	1310.70
397.64	1322.99
397.84	1302.51
398.05	1322.99
398.26	1284.08
398.47	1263.60
398.67	1331.18
398.88	1220.59
399.09	1257.45
399.30	1288.17
399.51	1310.70
399.71	1247.21
399.92	1265.64
400.13	1187.82
400.34	1341.42
400.54	1255.40
400.75	1271.79
400.96	1224.69
401.17	1257.45
401.37	1236.97
401.58	1230.83
401.79	1261.55
402.00	1267.69
402.21	1226.73
402.41	1230.83
402.62	1275.88
402.83	1284.08
403.04	1277.93
403.24	1200.11
403.45	1212.40
403.66	1279.98
403.87	1296.36
404.07	1322.99
404.28	1310.70
404.49	1267.69
404.70	1216.49
404.90	1239.02
405.11	1261.55
405.32	1316.84
405.52	1218.54
405.73	1257.45
405.94	1273.84
406.15	1218.54
406.35	1257.45
406.56	1290.22
406.77	1316.84
406.98	1265.64
407.18	1239.02
407.39	1241.07
407.60	1286.12
407.80	1265.64
408.01	1267.69
408.22	1265.64
408.43	1269.74
408.63	1277.93
408.84	1245.16
409.05	1302.51
409.25	1277.93
409.46	1329.13
409.67	1282.03
409.88	1314.80
410.08	1261.55
410.29	1200.11
410.50	1263.60
410.70	1271.79
410.91	1308.65
411.12	1273.84
411.32	1279.98
411.53	1292.27
411.74	1261.55
411.95	1273.84
412.15	1257.45
412.36	1282.03
412.57	1308.65
412.77	1277.93
412.98	1245.16
413.19	1273.84
413.39	1261.55
413.60	1288.17
413.81	1282.03
414.01	1206.25
414.22	1292.27
414.43	1349.61
414.63	1253.36
414.84	1304.56
415.05	1308.65
415.25	1253.36
415.46	1247.21
415.67	1247.21
415.87	1269.74
416.08	1267.69
416.29	1245.16
416.49	1288.17
416.70	1226.73
416.91	1230.83
417.11	1298.41
417.32	1243.12
417.53	1257.45
417.73	1259.50
417.94	1290.22
418.15	1294.32
418.35	1251.31
418.56	1210.35
418.77	1263.60
418.97	1247.21
419.18	1296.36
419.38	1200.11
419.59	1212.40
419.80	1273.84
420.00	1306.60
420.21	1290.22
420.42	1255.40
420.62	1226.73
420.83	1251.31
421.04	1261.55
421.24	1271.79
421.45	1202.16
421.65	1302.51
421.86	1255.40
422.07	1247.21
422.27	1177.58
422.48	1314.80
422.69	1200.11
422.89	1271.79
423.10	1290.22
423.30	1230.83
423.51	1286.12
423.72	1290.22
423.92	1310.70
424.13	1255.40
424.33	1325.04
424.54	1263.60
424.75	1279.98
424.95	1255.40
425.16	1245.16
425.36	1224.69
425.57	1282.03
425.78	1214.45
425.98	1329.13
426.19	1226.73
426.39	1269.74
426.60	1261.55
426.81	1337.32
427.01	1263.60
427.22	1249.26
427.42	1271.79
427.63	1279.98
427.83	1288.17
428.04	1363.95
428.25	1298.41
428.45	1257.45
428.66	1228.78
428.86	1294.32
429.07	1296.36
429.28	1228.78
429.48	1234.93
429.69	1247.21
429.89	1343.47
430.10	1292.27
430.30	1275.88
430.51	1347.56
430.71	1316.84
430.92	1275.88
431.13	1294.32
431.33	1302.51
431.54	1310.70
431.74	1298.41
431.95	1288.17
432.15	1263.60
432.36	1300.46
432.56	1300.46
432.77	1234.93
432.98	1308.65
433.18	1294.32
433.39	1320.94
433.59	1273.84
433.80	1208.30
434.00	1212.40
434.21	1277.93
434.41	1210.35
434.62	1271.79
434.82	1214.45
435.03	1343.47
435.23	1284.08
435.44	1239.02
435.64	1247.21
435.85	1224.69
436.06	1271.79
436.26	1290.22
436.47	1304.56
436.67	1220.59
436.88	1318.89
437.08	1261.55
437.29	1249.26
437.49	1214.45
437.70	1220.59
437.90	1329.13
438.11	1275.88
438.31	1236.97
438.52	1302.51
438.72	1333.23
438.93	1255.40
439.13	1267.69
439.34	1318.89
439.54	1294.32
439.75	1230.83
439.95	1296.36
440.16	1337.32
440.36	1300.46
440.57	1267.69
440.77	1208.30
440.98	1261.55
441.18	1257.45
441.39	1279.98
441.59	1249.26
441.80	1298.41
442.00	1310.70
442.21	1306.60
442.41	1318.89
442.62	1300.46
442.82	1222.64
443.02	1290.22
443.23	1267.69
443.43	1288.17
443.64	1286.12
443.84	1251.31
444.05	1261.55
444.25	1294.32
444.46	1300.46
444.66	1255.40
444.87	1259.50
445.07	1282.03
445.28	1232.88
445.48	1255.40
445.69	1380.33
445.89	1253.36
446.09	1243.12
446.30	1345.52
446.50	1269.74
446.71	1202.16
446.91	1214.45
447.12	1327.08
447.32	1296.36
447.53	1275.88
447.73	1257.45
447.93	1290.22
448.14	1337.32
448.34	1279.98
448.55	1198.06
448.75	1253.36
448.96	1290.22
449.16	1327.08
449.36	1337.32
449.57	1308.65
449.77	1296.36
449.98	1308.65
450.18	1318.89
450.39	1259.50
450.59	1247.21
450.79	1284.08
451.00	1308.65
451.20	1314.80
451.41	1269.74
451.61	1267.69
451.81	1226.73
452.02	1236.97
452.22	1314.80
452.43	1286.12
452.63	1267.69
