SpectraSuite Data File
++++++++++++++++++++++++++++++++++++
Date: Sun Apr 03 19:55:36 CEST 2016
User: root
Dark Spectrum Present: No
Reference Spectrum Present: No
Number of Sampled Component Spectra: 1
Spectrometers: USB4C02835
Integration Time (usec): 10000 (USB4C02835)
Spectra Averaged: 1 (USB4C02835)
Boxcar Smoothing: 0 (USB4C02835)
Correct for Electrical Dark: No (USB4C02835)
Strobe/Lamp Enabled: No (USB4C02835)
Correct for Detector Non-linearity: No (USB4C02835)
Correct for Stray Light: No (USB4C02835)
Number of Pixels in Processed Spectrum: 3648
>>>>>Begin Processed Spectral Data<<<<<
177.47	1226.73
177.69	1226.73
177.91	1226.73
178.13	1318.89
178.36	1239.02
178.58	1247.21
178.80	1273.84
179.02	1296.36
179.24	1265.64
179.46	1271.79
179.68	1255.40
179.90	1241.07
180.13	1282.03
180.35	1269.74
180.57	1302.51
180.79	1241.07
181.01	1243.12
181.23	1290.22
181.45	1255.40
181.67	1318.89
181.90	1216.49
182.12	1202.16
182.34	1239.02
182.56	1320.94
182.78	1298.41
183.00	1243.12
183.22	1220.59
183.44	1271.79
183.66	1282.03
183.89	1279.98
184.11	1275.88
184.33	1228.78
184.55	1234.93
184.77	1298.41
184.99	1265.64
185.21	1232.88
185.43	1279.98
185.65	1282.03
185.87	1245.16
186.10	1308.65
186.32	1298.41
186.54	1359.85
186.76	1249.26
186.98	1222.64
187.20	1337.32
187.42	1261.55
187.64	1245.16
187.86	1314.80
188.08	1230.83
188.30	1249.26
188.52	1286.12
188.75	1218.54
188.97	1343.47
189.19	1290.22
189.41	1243.12
189.63	1282.03
189.85	1204.21
190.07	1247.21
190.29	1298.41
190.51	1261.55
190.73	1282.03
190.95	1257.45
191.17	1255.40
191.39	1290.22
191.61	1284.08
191.84	1226.73
192.06	1269.74
192.28	1306.60
192.50	1263.60
192.72	1261.55
192.94	1236.97
193.16	1202.16
193.38	1310.70
193.60	1232.88
193.82	1251.31
194.04	1282.03
194.26	1314.80
194.48	1322.99
194.70	1267.69
194.92	1261.55
195.14	1310.70
195.36	1269.74
195.58	1271.79
195.80	1216.49
196.02	1191.92
196.24	1234.93
196.46	1234.93
196.69	1271.79
196.91	1263.60
197.13	1210.35
197.35	1198.06
197.57	1302.51
197.79	1230.83
198.01	1230.83
198.23	1257.45
198.45	1241.07
198.67	1236.97
198.89	1267.69
199.11	1226.73
199.33	1243.12
199.55	1282.03
199.77	1224.69
199.99	1279.98
200.21	1239.02
200.43	1294.32
200.65	1183.73
200.87	1269.74
201.09	1277.93
201.31	1282.03
201.53	1329.13
201.75	1312.75
201.97	1259.50
202.19	1279.98
202.41	1228.78
202.63	1288.17
202.85	1279.98
203.07	1181.68
203.29	1255.40
203.51	1230.83
203.73	1277.93
203.95	1245.16
204.17	1251.31
204.39	1286.12
204.61	1196.01
204.83	1298.41
205.05	1265.64
205.27	1239.02
205.49	1339.37
205.71	1290.22
205.93	1284.08
206.15	1234.93
206.37	1308.65
206.59	1306.60
206.81	1241.07
207.03	1261.55
207.25	1275.88
207.47	1286.12
207.69	1206.25
207.91	1255.40
208.13	1275.88
208.34	1196.01
208.56	1335.28
208.78	1290.22
209.00	1134.57
209.22	1261.55
209.44	1341.42
209.66	1345.52
209.88	1273.84
210.10	1284.08
210.32	1239.02
210.54	1335.28
210.76	1300.46
210.98	1282.03
211.20	1288.17
211.42	1263.60
211.64	1341.42
211.86	1279.98
212.08	1245.16
212.30	1296.36
212.52	1284.08
212.74	1230.83
212.96	1277.93
213.17	1277.93
213.39	1257.45
213.61	1310.70
213.83	1271.79
214.05	1306.60
214.27	1329.13
214.49	1318.89
214.71	1208.30
214.93	1255.40
215.15	1271.79
215.37	1253.36
215.59	1310.70
215.81	1259.50
216.03	1228.78
216.24	1259.50
216.46	1314.80
216.68	1273.84
216.90	1251.31
217.12	1249.26
217.34	1296.36
217.56	1296.36
217.78	1239.02
218.00	1218.54
218.22	1290.22
218.44	1322.99
218.66	1269.74
218.87	1306.60
219.09	1251.31
219.31	1279.98
219.53	1279.98
219.75	1202.16
219.97	1312.75
220.19	1273.84
220.41	1253.36
220.63	1277.93
220.85	1310.70
221.06	1239.02
221.28	1279.98
221.50	1273.84
221.72	1234.93
221.94	1329.13
222.16	1245.16
222.38	1298.41
222.60	1220.59
222.82	1255.40
223.03	1265.64
223.25	1284.08
223.47	1310.70
223.69	1306.60
223.91	1275.88
224.13	1331.18
224.35	1247.21
224.57	1232.88
224.78	1159.15
225.00	1273.84
225.22	1288.17
225.44	1312.75
225.66	1257.45
225.88	1257.45
226.10	1322.99
226.32	1249.26
226.53	1288.17
226.75	1269.74
226.97	1304.56
227.19	1273.84
227.41	1257.45
227.63	1236.97
227.85	1320.94
228.06	1302.51
228.28	1277.93
228.50	1294.32
228.72	1212.40
228.94	1212.40
229.16	1290.22
229.37	1261.55
229.59	1290.22
229.81	1329.13
230.03	1290.22
230.25	1273.84
230.47	1327.08
230.69	1218.54
230.90	1292.27
231.12	1249.26
231.34	1300.46
231.56	1239.02
231.78	1331.18
232.00	1294.32
232.21	1249.26
232.43	1239.02
232.65	1284.08
232.87	1322.99
233.09	1234.93
233.30	1312.75
233.52	1230.83
233.74	1236.97
233.96	1279.98
234.18	1249.26
234.40	1257.45
234.61	1349.61
234.83	1337.32
235.05	1220.59
235.27	1239.02
235.49	1243.12
235.70	1273.84
235.92	1288.17
236.14	1259.50
236.36	1275.88
236.58	1277.93
236.79	1218.54
237.01	1320.94
237.23	1314.80
237.45	1267.69
237.67	1253.36
237.88	1255.40
238.10	1247.21
238.32	1243.12
238.54	1239.02
238.76	1304.56
238.97	1234.93
239.19	1236.97
239.41	1259.50
239.63	1277.93
239.85	1239.02
240.06	1206.25
240.28	1255.40
240.50	1327.08
240.72	1259.50
240.93	1263.60
241.15	1251.31
241.37	1247.21
241.59	1267.69
241.81	1236.97
242.02	1265.64
242.24	1255.40
242.46	1271.79
242.68	1257.45
242.89	1288.17
243.11	1298.41
243.33	1298.41
243.55	1279.98
243.76	1261.55
243.98	1296.36
244.20	1228.78
244.42	1265.64
244.64	1251.31
244.85	1318.89
245.07	1349.61
245.29	1306.60
245.51	1222.64
245.72	1230.83
245.94	1279.98
246.16	1234.93
246.38	1183.73
246.59	1251.31
246.81	1232.88
247.03	1286.12
247.24	1249.26
247.46	1243.12
247.68	1294.32
247.90	1292.27
248.11	1247.21
248.33	1187.82
248.55	1214.45
248.77	1288.17
248.98	1273.84
249.20	1241.07
249.42	1282.03
249.64	1245.16
249.85	1296.36
250.07	1331.18
250.29	1353.71
250.50	1312.75
250.72	1275.88
250.94	1286.12
251.16	1290.22
251.37	1306.60
251.59	1232.88
251.81	1265.64
252.02	1251.31
252.24	1277.93
252.46	1259.50
252.68	1218.54
252.89	1191.92
253.11	1245.16
253.33	1325.04
253.54	1263.60
253.76	1294.32
253.98	1294.32
254.20	1286.12
254.41	1296.36
254.63	1302.51
254.85	1294.32
255.06	1230.83
255.28	1228.78
255.50	1269.74
255.71	1251.31
255.93	1210.35
256.15	1200.11
256.36	1253.36
256.58	1382.38
256.80	1290.22
257.02	1279.98
257.23	1271.79
257.45	1241.07
257.67	1308.65
257.88	1312.75
258.10	1232.88
258.32	1310.70
258.53	1214.45
258.75	1359.85
258.97	1296.36
259.18	1286.12
259.40	1222.64
259.62	1251.31
259.83	1226.73
260.05	1273.84
260.27	1318.89
260.48	1275.88
260.70	1236.97
260.92	1298.41
261.13	1290.22
261.35	1265.64
261.57	1265.64
261.78	1306.60
262.00	1335.28
262.22	1239.02
262.43	1312.75
262.65	1234.93
262.86	1206.25
263.08	1208.30
263.30	1343.47
263.51	1232.88
263.73	1282.03
263.95	1232.88
264.16	1249.26
264.38	1261.55
264.60	1236.97
264.81	1181.68
265.03	1310.70
265.25	1329.13
265.46	1196.01
265.68	1300.46
265.89	1331.18
266.11	1187.82
266.33	1226.73
266.54	1198.06
266.76	1314.80
266.98	1267.69
267.19	1249.26
267.41	1296.36
267.62	1265.64
267.84	1261.55
268.06	1261.55
268.27	1259.50
268.49	1314.80
268.70	1277.93
268.92	1220.59
269.14	1331.18
269.35	1257.45
269.57	1224.69
269.79	1257.45
270.00	1271.79
270.22	1343.47
270.43	1261.55
270.65	1269.74
270.87	1241.07
271.08	1277.93
271.30	1249.26
271.51	1232.88
271.73	1265.64
271.95	1241.07
272.16	1214.45
272.38	1279.98
272.59	1271.79
272.81	1282.03
273.02	1298.41
273.24	1284.08
273.46	1294.32
273.67	1290.22
273.89	1304.56
274.10	1335.28
274.32	1279.98
274.54	1304.56
274.75	1286.12
274.97	1259.50
275.18	1294.32
275.40	1349.61
275.61	1249.26
275.83	1269.74
276.05	1255.40
276.26	1318.89
276.48	1294.32
276.69	1263.60
276.91	1251.31
277.12	1318.89
277.34	1277.93
277.55	1339.37
277.77	1239.02
277.99	1296.36
278.20	1325.04
278.42	1345.52
278.63	1220.59
278.85	1263.60
279.06	1308.65
279.28	1210.35
279.49	1263.60
279.71	1271.79
279.93	1255.40
280.14	1325.04
280.36	1292.27
280.57	1261.55
280.79	1257.45
281.00	1290.22
281.22	1261.55
281.43	1251.31
281.65	1181.68
281.86	1277.93
282.08	1230.83
282.29	1198.06
282.51	1282.03
282.73	1259.50
282.94	1347.56
283.16	1249.26
283.37	1300.46
283.59	1261.55
283.80	1273.84
284.02	1282.03
284.23	1271.79
284.45	1273.84
284.66	1279.98
284.88	1282.03
285.09	1361.90
285.31	1277.93
285.52	1294.32
285.74	1269.74
285.95	1257.45
286.17	1271.79
286.38	1241.07
286.60	1277.93
286.81	1206.25
287.03	1286.12
287.24	1374.19
287.46	1351.66
287.67	1290.22
287.89	1298.41
288.10	1183.73
288.32	1296.36
288.53	1329.13
288.75	1255.40
288.96	1277.93
289.18	1271.79
289.39	1304.56
289.61	1277.93
289.82	1245.16
290.04	1286.12
290.25	1220.59
290.47	1193.97
290.68	1312.75
290.90	1320.94
291.11	1175.53
291.33	1294.32
291.54	1263.60
291.76	1247.21
291.97	1200.11
292.18	1277.93
292.40	1255.40
292.61	1279.98
292.83	1273.84
293.04	1284.08
293.26	1351.66
293.47	1241.07
293.69	1224.69
293.90	1271.79
294.12	1294.32
294.33	1312.75
294.55	1325.04
294.76	1275.88
294.97	1206.25
295.19	1263.60
295.40	1230.83
295.62	1271.79
295.83	1232.88
296.05	1298.41
296.26	1218.54
296.48	1288.17
296.69	1318.89
296.90	1296.36
297.12	1282.03
297.33	1271.79
297.55	1230.83
297.76	1245.16
297.98	1271.79
298.19	1279.98
298.41	1259.50
298.62	1263.60
298.83	1230.83
299.05	1312.75
299.26	1296.36
299.48	1298.41
299.69	1249.26
299.90	1269.74
300.12	1296.36
300.33	1306.60
300.55	1247.21
300.76	1257.45
300.98	1284.08
301.19	1228.78
301.40	1245.16
301.62	1245.16
301.83	1247.21
302.05	1318.89
302.26	1288.17
302.47	1339.37
302.69	1259.50
302.90	1327.08
303.12	1286.12
303.33	1298.41
303.54	1228.78
303.76	1259.50
303.97	1263.60
304.19	1189.87
304.40	1292.27
304.61	1302.51
304.83	1349.61
305.04	1292.27
305.26	1304.56
305.47	1320.94
305.68	1284.08
305.90	1341.42
306.11	1241.07
306.33	1261.55
306.54	1290.22
306.75	1243.12
306.97	1187.82
307.18	1300.46
307.39	1320.94
307.61	1273.84
307.82	1275.88
308.04	1294.32
308.25	1265.64
308.46	1277.93
308.68	1333.23
308.89	1294.32
309.10	1220.59
309.32	1357.80
309.53	1292.27
309.74	1273.84
309.96	1255.40
310.17	1245.16
310.39	1271.79
310.60	1339.37
310.81	1277.93
311.03	1290.22
311.24	1282.03
311.45	1292.27
311.67	1157.10
311.88	1279.98
312.09	1290.22
312.31	1306.60
312.52	1279.98
312.73	1322.99
312.95	1216.49
313.16	1359.85
313.37	1273.84
313.59	1329.13
313.80	1232.88
314.01	1277.93
314.23	1265.64
314.44	1298.41
314.65	1259.50
314.87	1259.50
315.08	1230.83
315.29	1228.78
315.51	1284.08
315.72	1269.74
315.93	1353.71
316.15	1271.79
316.36	1277.93
316.57	1224.69
316.79	1267.69
317.00	1304.56
317.21	1239.02
317.43	1230.83
317.64	1265.64
317.85	1263.60
318.07	1239.02
318.28	1314.80
318.49	1277.93
318.70	1304.56
318.92	1300.46
319.13	1292.27
319.34	1335.28
319.56	1343.47
319.77	1265.64
319.98	1261.55
320.20	1269.74
320.41	1341.42
320.62	1257.45
320.83	1273.84
321.05	1253.36
321.26	1200.11
321.47	1325.04
321.69	1245.16
321.90	1294.32
322.11	1306.60
322.32	1245.16
322.54	1284.08
322.75	1234.93
322.96	1212.40
323.18	1265.64
323.39	1196.01
323.60	1263.60
323.81	1316.84
324.03	1306.60
324.24	1263.60
324.45	1210.35
324.66	1245.16
324.88	1239.02
325.09	1210.35
325.30	1325.04
325.52	1292.27
325.73	1228.78
325.94	1298.41
326.15	1271.79
326.37	1320.94
326.58	1241.07
326.79	1347.56
327.00	1308.65
327.22	1241.07
327.43	1202.16
327.64	1247.21
327.85	1218.54
328.07	1284.08
328.28	1214.45
328.49	1245.16
328.70	1255.40
328.92	1236.97
329.13	1263.60
329.34	1210.35
329.55	1269.74
329.76	1279.98
329.98	1267.69
330.19	1310.70
330.40	1269.74
330.61	1271.79
330.83	1269.74
331.04	1239.02
331.25	1261.55
331.46	1183.73
331.68	1286.12
331.89	1253.36
332.10	1202.16
332.31	1298.41
332.52	1228.78
332.74	1322.99
332.95	1286.12
333.16	1290.22
333.37	1277.93
333.58	1327.08
333.80	1292.27
334.01	1282.03
334.22	1310.70
334.43	1316.84
334.64	1249.26
334.86	1232.88
335.07	1349.61
335.28	1259.50
335.49	1230.83
335.70	1234.93
335.92	1251.31
336.13	1214.45
336.34	1247.21
336.55	1267.69
336.76	1218.54
336.98	1239.02
337.19	1273.84
337.40	1308.65
337.61	1206.25
337.82	1261.55
338.04	1224.69
338.25	1294.32
338.46	1320.94
338.67	1286.12
338.88	1249.26
339.09	1271.79
339.31	1204.21
339.52	1234.93
339.73	1308.65
339.94	1271.79
340.15	1253.36
340.36	1251.31
340.58	1306.60
340.79	1208.30
341.00	1257.45
341.21	1226.73
341.42	1310.70
341.63	1251.31
341.85	1304.56
342.06	1208.30
342.27	1314.80
342.48	1263.60
342.69	1208.30
342.90	1216.49
343.12	1269.74
343.33	1265.64
343.54	1325.04
343.75	1312.75
343.96	1271.79
344.17	1234.93
344.38	1312.75
344.60	1288.17
344.81	1230.83
345.02	1298.41
345.23	1239.02
345.44	1263.60
345.65	1275.88
345.86	1239.02
346.07	1224.69
346.29	1232.88
346.50	1216.49
346.71	1284.08
346.92	1294.32
347.13	1298.41
347.34	1277.93
347.55	1226.73
347.76	1253.36
347.98	1146.86
348.19	1243.12
348.40	1318.89
348.61	1267.69
348.82	1300.46
349.03	1253.36
349.24	1279.98
349.45	1241.07
349.66	1230.83
349.88	1351.66
350.09	1196.01
350.30	1310.70
350.51	1284.08
350.72	1279.98
350.93	1290.22
351.14	1202.16
351.35	1206.25
351.56	1345.52
351.77	1249.26
351.99	1304.56
352.20	1292.27
352.41	1196.01
352.62	1204.21
352.83	1210.35
353.04	1259.50
353.25	1181.68
353.46	1247.21
353.67	1286.12
353.88	1171.44
354.09	1247.21
354.30	1306.60
354.52	1327.08
354.73	1284.08
354.94	1230.83
355.15	1236.97
355.36	1345.52
355.57	1271.79
355.78	1261.55
355.99	1261.55
356.20	1306.60
356.41	1247.21
356.62	1247.21
356.83	1261.55
357.04	1277.93
357.25	1241.07
357.46	1284.08
357.68	1253.36
357.89	1304.56
358.10	1290.22
358.31	1232.88
358.52	1366.00
358.73	1277.93
358.94	1304.56
359.15	1269.74
359.36	1273.84
359.57	1232.88
359.78	1294.32
359.99	1253.36
360.20	1255.40
360.41	1239.02
360.62	1220.59
360.83	1304.56
361.04	1263.60
361.25	1216.49
361.46	1314.80
361.67	1261.55
361.88	1275.88
362.09	1196.01
362.30	1222.64
362.51	1257.45
362.72	1267.69
362.93	1275.88
363.14	1253.36
363.35	1222.64
363.56	1286.12
363.78	1267.69
363.99	1284.08
364.20	1322.99
364.41	1298.41
364.62	1316.84
364.83	1349.61
365.04	1228.78
365.25	1267.69
365.46	1304.56
365.67	1294.32
365.88	1198.06
366.09	1261.55
366.30	1212.40
366.51	1241.07
366.72	1265.64
366.93	1234.93
367.14	1257.45
367.35	1288.17
367.56	1277.93
367.77	1304.56
367.98	1263.60
368.18	1267.69
368.39	1236.97
368.60	1216.49
368.81	1302.51
369.02	1236.97
369.23	1302.51
369.44	1208.30
369.65	1269.74
369.86	1298.41
370.07	1239.02
370.28	1208.30
370.49	1353.71
370.70	1310.70
370.91	1269.74
371.12	1343.47
371.33	1245.16
371.54	1271.79
371.75	1302.51
371.96	1216.49
372.17	1232.88
372.38	1271.79
372.59	1275.88
372.80	1286.12
373.01	1243.12
373.22	1277.93
373.43	1257.45
373.64	1232.88
373.85	1196.01
374.06	1298.41
374.26	1234.93
374.47	1257.45
374.68	1245.16
374.89	1214.45
375.10	1308.65
375.31	1292.27
375.52	1335.28
375.73	1271.79
375.94	1339.37
376.15	1255.40
376.36	1273.84
376.57	1247.21
376.78	1257.45
376.99	1247.21
377.20	1314.80
377.40	1218.54
377.61	1302.51
377.82	1275.88
378.03	1300.46
378.24	1290.22
378.45	1286.12
378.66	1198.06
378.87	1304.56
379.08	1292.27
379.29	1282.03
379.50	1153.01
379.71	1269.74
379.91	1239.02
380.12	1298.41
380.33	1296.36
380.54	1269.74
380.75	1327.08
380.96	1263.60
381.17	1331.18
381.38	1269.74
381.59	1267.69
381.80	1308.65
382.00	1257.45
382.21	1306.60
382.42	1271.79
382.63	1218.54
382.84	1290.22
383.05	1216.49
383.26	1263.60
383.47	1273.84
383.68	1257.45
383.88	1265.64
384.09	1261.55
384.30	1355.76
384.51	1247.21
384.72	1210.35
384.93	1196.01
385.14	1273.84
385.35	1282.03
385.55	1253.36
385.76	1302.51
385.97	1290.22
386.18	1288.17
386.39	1282.03
386.60	1288.17
386.81	1261.55
387.02	1279.98
387.22	1165.29
387.43	1273.84
387.64	1185.77
387.85	1220.59
388.06	1224.69
388.27	1318.89
388.48	1214.45
388.68	1241.07
388.89	1275.88
389.10	1294.32
389.31	1310.70
389.52	1257.45
389.73	1257.45
389.93	1261.55
390.14	1257.45
390.35	1296.36
390.56	1218.54
390.77	1277.93
390.98	1181.68
391.18	1263.60
391.39	1277.93
391.60	1214.45
391.81	1259.50
392.02	1220.59
392.23	1259.50
392.43	1224.69
392.64	1284.08
392.85	1226.73
393.06	1316.84
393.27	1239.02
393.47	1228.78
393.68	1224.69
393.89	1292.27
394.10	1269.74
394.31	1234.93
394.52	1320.94
394.72	1290.22
394.93	1282.03
395.14	1257.45
395.35	1275.88
395.56	1265.64
395.76	1265.64
395.97	1265.64
396.18	1288.17
396.39	1267.69
396.60	1294.32
396.80	1200.11
397.01	1288.17
397.22	1304.56
397.43	1351.66
397.64	1343.47
397.84	1269.74
398.05	1337.32
398.26	1318.89
398.47	1253.36
398.67	1290.22
398.88	1222.64
399.09	1259.50
399.30	1189.87
399.51	1282.03
399.71	1284.08
399.92	1302.51
400.13	1236.97
400.34	1296.36
400.54	1322.99
400.75	1320.94
400.96	1298.41
401.17	1259.50
401.37	1318.89
401.58	1271.79
401.79	1263.60
402.00	1335.28
402.21	1224.69
402.41	1265.64
402.62	1263.60
402.83	1300.46
403.04	1286.12
403.24	1304.56
403.45	1296.36
403.66	1273.84
403.87	1236.97
404.07	1224.69
404.28	1259.50
404.49	1273.84
404.70	1290.22
404.90	1249.26
405.11	1236.97
405.32	1298.41
405.52	1202.16
405.73	1198.06
405.94	1204.21
406.15	1273.84
406.35	1249.26
406.56	1284.08
406.77	1304.56
406.98	1304.56
407.18	1269.74
407.39	1191.92
407.60	1265.64
407.80	1257.45
408.01	1218.54
408.22	1325.04
408.43	1271.79
408.63	1271.79
408.84	1261.55
409.05	1243.12
409.25	1263.60
409.46	1245.16
409.67	1218.54
409.88	1290.22
410.08	1290.22
410.29	1234.93
410.50	1255.40
410.70	1255.40
410.91	1193.97
411.12	1267.69
411.32	1333.23
411.53	1271.79
411.74	1296.36
411.95	1230.83
412.15	1224.69
412.36	1341.42
412.57	1308.65
412.77	1249.26
412.98	1196.01
413.19	1251.31
413.39	1286.12
413.60	1363.95
413.81	1204.21
414.01	1259.50
414.22	1261.55
414.43	1230.83
414.63	1259.50
414.84	1296.36
415.05	1253.36
415.25	1329.13
415.46	1286.12
415.67	1173.49
415.87	1277.93
416.08	1239.02
416.29	1232.88
416.49	1339.37
416.70	1247.21
416.91	1304.56
417.11	1255.40
417.32	1271.79
417.53	1273.84
417.73	1271.79
417.94	1259.50
418.15	1232.88
418.35	1316.84
418.56	1343.47
418.77	1308.65
418.97	1198.06
419.18	1294.32
419.38	1228.78
419.59	1218.54
419.80	1218.54
420.00	1265.64
420.21	1259.50
420.42	1269.74
420.62	1292.27
420.83	1253.36
421.04	1251.31
421.24	1275.88
421.45	1296.36
421.65	1228.78
421.86	1320.94
422.07	1288.17
422.27	1275.88
422.48	1351.66
422.69	1322.99
422.89	1228.78
423.10	1312.75
423.30	1277.93
423.51	1312.75
423.72	1208.30
423.92	1273.84
424.13	1255.40
424.33	1196.01
424.54	1275.88
424.75	1277.93
424.95	1318.89
425.16	1275.88
425.36	1261.55
425.57	1241.07
425.78	1284.08
425.98	1306.60
426.19	1292.27
426.39	1263.60
426.60	1214.45
426.81	1331.18
427.01	1251.31
427.22	1279.98
427.42	1255.40
427.63	1267.69
427.83	1247.21
428.04	1282.03
428.25	1198.06
428.45	1279.98
428.66	1218.54
428.86	1304.56
429.07	1277.93
429.28	1269.74
429.48	1193.97
429.69	1261.55
429.89	1232.88
430.10	1253.36
430.30	1245.16
430.51	1261.55
430.71	1265.64
430.92	1298.41
431.13	1298.41
431.33	1308.65
431.54	1253.36
431.74	1261.55
431.95	1277.93
432.15	1282.03
432.36	1216.49
432.56	1257.45
432.77	1277.93
432.98	1257.45
433.18	1198.06
433.39	1314.80
433.59	1292.27
433.80	1228.78
434.00	1243.12
434.21	1284.08
434.41	1230.83
434.62	1335.28
434.82	1277.93
435.03	1286.12
435.23	1290.22
435.44	1232.88
435.64	1257.45
435.85	1277.93
436.06	1294.32
436.26	1318.89
436.47	1294.32
436.67	1302.51
436.88	1304.56
437.08	1279.98
437.29	1224.69
437.49	1284.08
437.70	1261.55
437.90	1239.02
438.11	1312.75
438.31	1265.64
438.52	1228.78
438.72	1306.60
438.93	1257.45
439.13	1279.98
439.34	1308.65
439.54	1273.84
439.75	1249.26
439.95	1269.74
440.16	1232.88
440.36	1249.26
440.57	1320.94
440.77	1277.93
440.98	1318.89
441.18	1267.69
441.39	1198.06
441.59	1288.17
441.80	1339.37
442.00	1333.23
442.21	1200.11
442.41	1306.60
442.62	1271.79
442.82	1335.28
443.02	1320.94
443.23	1253.36
443.43	1251.31
443.64	1292.27
443.84	1214.45
444.05	1249.26
444.25	1286.12
444.46	1228.78
444.66	1189.87
444.87	1273.84
445.07	1308.65
445.28	1245.16
445.48	1322.99
445.69	1302.51
445.89	1308.65
446.09	1241.07
446.30	1284.08
446.50	1312.75
446.71	1271.79
446.91	1327.08
447.12	1224.69
447.32	1320.94
447.53	1304.56
447.73	1245.16
447.93	1277.93
448.14	1255.40
448.34	1308.65
448.55	1267.69
448.75	1271.79
448.96	1318.89
449.16	1343.47
449.36	1290.22
449.57	1212.40
449.77	1239.02
449.98	1308.65
450.18	1282.03
450.39	1335.28
450.59	1243.12
450.79	1312.75
451.00	1314.80
451.20	1277.93
451.41	1263.60
451.61	1337.32
451.81	1265.64
452.02	1253.36
452.22	1279.98
452.43	1314.80
452.63	1239.02
