SpectraSuite Data File
++++++++++++++++++++++++++++++++++++
Date: Sun Apr 03 19:55:30 CEST 2016
User: root
Dark Spectrum Present: No
Reference Spectrum Present: No
Number of Sampled Component Spectra: 1
Spectrometers: USB4C02835
Integration Time (usec): 10000 (USB4C02835)
Spectra Averaged: 1 (USB4C02835)
Boxcar Smoothing: 0 (USB4C02835)
Correct for Electrical Dark: No (USB4C02835)
Strobe/Lamp Enabled: No (USB4C02835)
Correct for Detector Non-linearity: No (USB4C02835)
Correct for Stray Light: No (USB4C02835)
Number of Pixels in Processed Spectrum: 3648
>>>>>Begin Processed Spectral Data<<<<<
177.47	1251.31
177.69	1251.31
177.91	1251.31
178.13	1271.79
178.36	1224.69
178.58	1265.64
178.80	1374.19
179.02	1234.93
179.24	1300.46
179.46	1181.68
179.68	1206.25
179.90	1290.22
180.13	1257.45
180.35	1228.78
180.57	1232.88
180.79	1239.02
181.01	1251.31
181.23	1286.12
181.45	1314.80
181.67	1294.32
181.90	1253.36
182.12	1267.69
182.34	1288.17
182.56	1236.97
182.78	1236.97
183.00	1216.49
183.22	1247.21
183.44	1226.73
183.66	1249.26
183.89	1249.26
184.11	1304.56
184.33	1271.79
184.55	1279.98
184.77	1279.98
184.99	1312.75
185.21	1202.16
185.43	1247.21
185.65	1224.69
185.87	1304.56
186.10	1255.40
186.32	1294.32
186.54	1257.45
186.76	1318.89
186.98	1277.93
187.20	1245.16
187.42	1261.55
187.64	1200.11
187.86	1312.75
188.08	1263.60
188.30	1230.83
188.52	1327.08
188.75	1296.36
188.97	1296.36
189.19	1247.21
189.41	1210.35
189.63	1255.40
189.85	1306.60
190.07	1222.64
190.29	1292.27
190.51	1230.83
190.73	1329.13
190.95	1267.69
191.17	1288.17
191.39	1245.16
191.61	1255.40
191.84	1234.93
192.06	1292.27
192.28	1282.03
192.50	1259.50
192.72	1234.93
192.94	1271.79
193.16	1253.36
193.38	1294.32
193.60	1267.69
193.82	1286.12
194.04	1275.88
194.26	1335.28
194.48	1271.79
194.70	1320.94
194.92	1243.12
195.14	1284.08
195.36	1255.40
195.58	1267.69
195.80	1347.56
196.02	1282.03
196.24	1318.89
196.46	1214.45
196.69	1218.54
196.91	1322.99
197.13	1230.83
197.35	1267.69
197.57	1271.79
197.79	1312.75
198.01	1327.08
198.23	1296.36
198.45	1290.22
198.67	1286.12
198.89	1241.07
199.11	1247.21
199.33	1282.03
199.55	1236.97
199.77	1167.34
199.99	1320.94
200.21	1259.50
200.43	1308.65
200.65	1193.97
200.87	1236.97
201.09	1241.07
201.31	1259.50
201.53	1236.97
201.75	1312.75
201.97	1239.02
202.19	1245.16
202.41	1226.73
202.63	1310.70
202.85	1261.55
203.07	1314.80
203.29	1173.49
203.51	1271.79
203.73	1191.92
203.95	1376.24
204.17	1269.74
204.39	1284.08
204.61	1318.89
204.83	1234.93
205.05	1267.69
205.27	1275.88
205.49	1232.88
205.71	1269.74
205.93	1322.99
206.15	1249.26
206.37	1236.97
206.59	1282.03
206.81	1282.03
207.03	1333.23
207.25	1226.73
207.47	1284.08
207.69	1277.93
207.91	1275.88
208.13	1329.13
208.34	1220.59
208.56	1304.56
208.78	1243.12
209.00	1224.69
209.22	1380.33
209.44	1296.36
209.66	1320.94
209.88	1308.65
210.10	1296.36
210.32	1269.74
210.54	1265.64
210.76	1298.41
210.98	1230.83
211.20	1298.41
211.42	1261.55
211.64	1310.70
211.86	1316.84
212.08	1206.25
212.30	1298.41
212.52	1267.69
212.74	1222.64
212.96	1251.31
213.17	1245.16
213.39	1269.74
213.61	1263.60
213.83	1261.55
214.05	1288.17
214.27	1245.16
214.49	1220.59
214.71	1333.23
214.93	1208.30
215.15	1236.97
215.37	1263.60
215.59	1288.17
215.81	1189.87
216.03	1245.16
216.24	1236.97
216.46	1216.49
216.68	1206.25
216.90	1267.69
217.12	1265.64
217.34	1312.75
217.56	1290.22
217.78	1267.69
218.00	1279.98
218.22	1255.40
218.44	1314.80
218.66	1269.74
218.87	1239.02
219.09	1269.74
219.31	1275.88
219.53	1210.35
219.75	1290.22
219.97	1202.16
220.19	1292.27
220.41	1239.02
220.63	1269.74
220.85	1298.41
221.06	1220.59
221.28	1320.94
221.50	1282.03
221.72	1251.31
221.94	1247.21
222.16	1239.02
222.38	1245.16
222.60	1245.16
222.82	1263.60
223.03	1265.64
223.25	1302.51
223.47	1286.12
223.69	1314.80
223.91	1296.36
224.13	1286.12
224.35	1355.76
224.57	1239.02
224.78	1286.12
225.00	1288.17
225.22	1218.54
225.44	1279.98
225.66	1228.78
225.88	1249.26
226.10	1300.46
226.32	1271.79
226.53	1247.21
226.75	1296.36
226.97	1243.12
227.19	1230.83
227.41	1306.60
227.63	1296.36
227.85	1241.07
228.06	1230.83
228.28	1185.77
228.50	1196.01
228.72	1329.13
228.94	1339.37
229.16	1267.69
229.37	1224.69
229.59	1275.88
229.81	1318.89
230.03	1247.21
230.25	1263.60
230.47	1255.40
230.69	1243.12
230.90	1300.46
231.12	1300.46
231.34	1187.82
231.56	1298.41
231.78	1294.32
232.00	1234.93
232.21	1335.28
232.43	1286.12
232.65	1204.21
232.87	1222.64
233.09	1218.54
233.30	1292.27
233.52	1249.26
233.74	1279.98
233.96	1200.11
234.18	1302.51
234.40	1271.79
234.61	1284.08
234.83	1361.90
235.05	1312.75
235.27	1329.13
235.49	1228.78
235.70	1259.50
235.92	1224.69
236.14	1228.78
236.36	1331.18
236.58	1259.50
236.79	1304.56
237.01	1224.69
237.23	1359.85
237.45	1232.88
237.67	1296.36
237.88	1261.55
238.10	1249.26
238.32	1306.60
238.54	1191.92
238.76	1312.75
238.97	1322.99
239.19	1251.31
239.41	1286.12
239.63	1257.45
239.85	1216.49
240.06	1298.41
240.28	1245.16
240.50	1277.93
240.72	1263.60
240.93	1206.25
241.15	1259.50
241.37	1263.60
241.59	1290.22
241.81	1198.06
242.02	1335.28
242.24	1316.84
242.46	1288.17
242.68	1167.34
242.89	1222.64
243.11	1257.45
243.33	1263.60
243.55	1306.60
243.76	1198.06
243.98	1279.98
244.20	1329.13
244.42	1226.73
244.64	1249.26
244.85	1292.27
245.07	1296.36
245.29	1273.84
245.51	1267.69
245.72	1236.97
245.94	1263.60
246.16	1269.74
246.38	1290.22
246.59	1257.45
246.81	1277.93
247.03	1208.30
247.24	1343.47
247.46	1322.99
247.68	1220.59
247.90	1282.03
248.11	1251.31
248.33	1271.79
248.55	1349.61
248.77	1247.21
248.98	1245.16
249.20	1284.08
249.42	1181.68
249.64	1269.74
249.85	1222.64
250.07	1277.93
250.29	1210.35
250.50	1239.02
250.72	1265.64
250.94	1335.28
251.16	1253.36
251.37	1306.60
251.59	1234.93
251.81	1265.64
252.02	1234.93
252.24	1363.95
252.46	1286.12
252.68	1239.02
252.89	1222.64
253.11	1271.79
253.33	1204.21
253.54	1265.64
253.76	1239.02
253.98	1271.79
254.20	1257.45
254.41	1218.54
254.63	1263.60
254.85	1171.44
255.06	1304.56
255.28	1277.93
255.50	1253.36
255.71	1263.60
255.93	1271.79
256.15	1282.03
256.36	1255.40
256.58	1245.16
256.80	1236.97
257.02	1226.73
257.23	1284.08
257.45	1267.69
257.67	1173.49
257.88	1220.59
258.10	1320.94
258.32	1241.07
258.53	1308.65
258.75	1253.36
258.97	1282.03
259.18	1316.84
259.40	1310.70
259.62	1284.08
259.83	1245.16
260.05	1290.22
260.27	1327.08
260.48	1316.84
260.70	1232.88
260.92	1267.69
261.13	1304.56
261.35	1249.26
261.57	1337.32
261.78	1257.45
262.00	1232.88
262.22	1245.16
262.43	1282.03
262.65	1251.31
262.86	1271.79
263.08	1286.12
263.30	1222.64
263.51	1320.94
263.73	1193.97
263.95	1322.99
264.16	1269.74
264.38	1230.83
264.60	1226.73
264.81	1255.40
265.03	1298.41
265.25	1269.74
265.46	1249.26
265.68	1212.40
265.89	1288.17
266.11	1234.93
266.33	1271.79
266.54	1261.55
266.76	1251.31
266.98	1325.04
267.19	1269.74
267.41	1189.87
267.62	1292.27
267.84	1306.60
268.06	1214.45
268.27	1263.60
268.49	1265.64
268.70	1347.56
268.92	1255.40
269.14	1249.26
269.35	1255.40
269.57	1253.36
269.79	1249.26
270.00	1200.11
270.22	1271.79
270.43	1273.84
270.65	1296.36
270.87	1228.78
271.08	1259.50
271.30	1249.26
271.51	1259.50
271.73	1263.60
271.95	1302.51
272.16	1335.28
272.38	1284.08
272.59	1265.64
272.81	1273.84
273.02	1269.74
273.24	1300.46
273.46	1361.90
273.67	1310.70
273.89	1208.30
274.10	1189.87
274.32	1296.36
274.54	1230.83
274.75	1320.94
274.97	1230.83
275.18	1247.21
275.40	1273.84
275.61	1255.40
275.83	1275.88
276.05	1269.74
276.26	1335.28
276.48	1224.69
276.69	1220.59
276.91	1265.64
277.12	1370.09
277.34	1230.83
277.55	1261.55
277.77	1282.03
277.99	1230.83
278.20	1218.54
278.42	1241.07
278.63	1282.03
278.85	1325.04
279.06	1257.45
279.28	1282.03
279.49	1257.45
279.71	1234.93
279.93	1271.79
280.14	1282.03
280.36	1263.60
280.57	1216.49
280.79	1284.08
281.00	1288.17
281.22	1251.31
281.43	1312.75
281.65	1230.83
281.86	1251.31
282.08	1277.93
282.29	1296.36
282.51	1318.89
282.73	1239.02
282.94	1212.40
283.16	1292.27
283.37	1279.98
283.59	1257.45
283.80	1243.12
284.02	1325.04
284.23	1228.78
284.45	1216.49
284.66	1236.97
284.88	1245.16
285.09	1249.26
285.31	1236.97
285.52	1257.45
285.74	1288.17
285.95	1288.17
286.17	1249.26
286.38	1294.32
286.60	1318.89
286.81	1327.08
287.03	1249.26
287.24	1224.69
287.46	1216.49
287.67	1265.64
287.89	1335.28
288.10	1279.98
288.32	1318.89
288.53	1292.27
288.75	1277.93
288.96	1355.76
289.18	1269.74
289.39	1189.87
289.61	1279.98
289.82	1279.98
290.04	1198.06
290.25	1210.35
290.47	1228.78
290.68	1228.78
290.90	1279.98
291.11	1204.21
291.33	1312.75
291.54	1308.65
291.76	1329.13
291.97	1208.30
292.18	1320.94
292.40	1239.02
292.61	1267.69
292.83	1308.65
293.04	1275.88
293.26	1255.40
293.47	1245.16
293.69	1273.84
293.90	1288.17
294.12	1296.36
294.33	1282.03
294.55	1261.55
294.76	1279.98
294.97	1230.83
295.19	1255.40
295.40	1265.64
295.62	1257.45
295.83	1234.93
296.05	1341.42
296.26	1214.45
296.48	1251.31
296.69	1316.84
296.90	1294.32
297.12	1325.04
297.33	1245.16
297.55	1275.88
297.76	1202.16
297.98	1318.89
298.19	1290.22
298.41	1277.93
298.62	1265.64
298.83	1275.88
299.05	1275.88
299.26	1279.98
299.48	1271.79
299.69	1290.22
299.90	1257.45
300.12	1310.70
300.33	1263.60
300.55	1273.84
300.76	1241.07
300.98	1325.04
301.19	1310.70
301.40	1282.03
301.62	1253.36
301.83	1320.94
302.05	1269.74
302.26	1253.36
302.47	1292.27
302.69	1218.54
302.90	1210.35
303.12	1224.69
303.33	1247.21
303.54	1298.41
303.76	1206.25
303.97	1222.64
304.19	1255.40
304.40	1265.64
304.61	1243.12
304.83	1294.32
305.04	1261.55
305.26	1329.13
305.47	1286.12
305.68	1277.93
305.90	1335.28
306.11	1259.50
306.33	1208.30
306.54	1230.83
306.75	1277.93
306.97	1243.12
307.18	1294.32
307.39	1245.16
307.61	1267.69
307.82	1251.31
308.04	1265.64
308.25	1294.32
308.46	1341.42
308.68	1241.07
308.89	1239.02
309.10	1212.40
309.32	1351.66
309.53	1263.60
309.74	1290.22
309.96	1200.11
310.17	1234.93
310.39	1267.69
310.60	1255.40
310.81	1275.88
311.03	1251.31
311.24	1290.22
311.45	1261.55
311.67	1298.41
311.88	1269.74
312.09	1239.02
312.31	1284.08
312.52	1271.79
312.73	1273.84
312.95	1286.12
313.16	1275.88
313.37	1247.21
313.59	1251.31
313.80	1239.02
314.01	1290.22
314.23	1245.16
314.44	1304.56
314.65	1267.69
314.87	1236.97
315.08	1282.03
315.29	1302.51
315.51	1288.17
315.72	1290.22
315.93	1191.92
316.15	1263.60
316.36	1327.08
316.57	1331.18
316.79	1247.21
317.00	1265.64
317.21	1308.65
317.43	1261.55
317.64	1331.18
317.85	1261.55
318.07	1226.73
318.28	1230.83
318.49	1265.64
318.70	1267.69
318.92	1230.83
319.13	1267.69
319.34	1220.59
319.56	1282.03
319.77	1232.88
319.98	1265.64
320.20	1253.36
320.41	1316.84
320.62	1288.17
320.83	1204.21
321.05	1296.36
321.26	1208.30
321.47	1345.52
321.69	1288.17
321.90	1236.97
322.11	1355.76
322.32	1304.56
322.54	1302.51
322.75	1216.49
322.96	1251.31
323.18	1224.69
323.39	1261.55
323.60	1265.64
323.81	1288.17
324.03	1275.88
324.24	1314.80
324.45	1234.93
324.66	1284.08
324.88	1271.79
325.09	1269.74
325.30	1224.69
325.52	1234.93
325.73	1306.60
325.94	1265.64
326.15	1279.98
326.37	1236.97
326.58	1208.30
326.79	1294.32
327.00	1355.76
327.22	1347.56
327.43	1273.84
327.64	1284.08
327.85	1331.18
328.07	1271.79
328.28	1275.88
328.49	1255.40
328.70	1284.08
328.92	1193.97
329.13	1288.17
329.34	1253.36
329.55	1302.51
329.76	1204.21
329.98	1234.93
330.19	1341.42
330.40	1224.69
330.61	1206.25
330.83	1255.40
331.04	1288.17
331.25	1249.26
331.46	1269.74
331.68	1290.22
331.89	1312.75
332.10	1306.60
332.31	1222.64
332.52	1224.69
332.74	1224.69
332.95	1275.88
333.16	1234.93
333.37	1282.03
333.58	1167.34
333.80	1296.36
334.01	1249.26
334.22	1247.21
334.43	1294.32
334.64	1181.68
334.86	1200.11
335.07	1243.12
335.28	1247.21
335.49	1275.88
335.70	1239.02
335.92	1322.99
336.13	1241.07
336.34	1318.89
336.55	1314.80
336.76	1308.65
336.98	1232.88
337.19	1220.59
337.40	1257.45
337.61	1284.08
337.82	1273.84
338.04	1175.53
338.25	1300.46
338.46	1245.16
338.67	1265.64
338.88	1298.41
339.09	1271.79
339.31	1275.88
339.52	1271.79
339.73	1292.27
339.94	1304.56
340.15	1253.36
340.36	1198.06
340.58	1263.60
340.79	1292.27
341.00	1202.16
341.21	1228.78
341.42	1261.55
341.63	1284.08
341.85	1200.11
342.06	1212.40
342.27	1279.98
342.48	1290.22
342.69	1312.75
342.90	1308.65
343.12	1232.88
343.33	1357.80
343.54	1202.16
343.75	1226.73
343.96	1228.78
344.17	1224.69
344.38	1345.52
344.60	1292.27
344.81	1253.36
345.02	1220.59
345.23	1216.49
345.44	1279.98
345.65	1261.55
345.86	1296.36
346.07	1275.88
346.29	1253.36
346.50	1316.84
346.71	1249.26
346.92	1294.32
347.13	1273.84
347.34	1208.30
347.55	1331.18
347.76	1247.21
347.98	1357.80
348.19	1286.12
348.40	1304.56
348.61	1224.69
348.82	1277.93
349.03	1333.23
349.24	1298.41
349.45	1314.80
349.66	1318.89
349.88	1273.84
350.09	1259.50
350.30	1263.60
350.51	1290.22
350.72	1300.46
350.93	1245.16
351.14	1267.69
351.35	1284.08
351.56	1261.55
351.77	1318.89
351.99	1263.60
352.20	1236.97
352.41	1234.93
352.62	1208.30
352.83	1265.64
353.04	1255.40
353.25	1331.18
353.46	1247.21
353.67	1294.32
353.88	1234.93
354.09	1302.51
354.30	1306.60
354.52	1263.60
354.73	1245.16
354.94	1208.30
355.15	1200.11
355.36	1265.64
355.57	1290.22
355.78	1298.41
355.99	1286.12
356.20	1310.70
356.41	1288.17
356.62	1218.54
356.83	1282.03
357.04	1284.08
357.25	1249.26
357.46	1249.26
357.68	1308.65
357.89	1208.30
358.10	1234.93
358.31	1257.45
358.52	1318.89
358.73	1251.31
358.94	1282.03
359.15	1271.79
359.36	1212.40
359.57	1226.73
359.78	1368.04
359.99	1290.22
360.20	1228.78
360.41	1351.66
360.62	1294.32
360.83	1288.17
361.04	1314.80
361.25	1241.07
361.46	1286.12
361.67	1343.47
361.88	1247.21
362.09	1316.84
362.30	1187.82
362.51	1265.64
362.72	1269.74
362.93	1257.45
363.14	1271.79
363.35	1259.50
363.56	1265.64
363.78	1314.80
363.99	1245.16
364.20	1214.45
364.41	1249.26
364.62	1210.35
364.83	1253.36
365.04	1275.88
365.25	1273.84
365.46	1329.13
365.67	1345.52
365.88	1224.69
366.09	1261.55
366.30	1318.89
366.51	1286.12
366.72	1245.16
366.93	1288.17
367.14	1243.12
367.35	1277.93
367.56	1234.93
367.77	1284.08
367.98	1253.36
368.18	1269.74
368.39	1259.50
368.60	1241.07
368.81	1236.97
369.02	1257.45
369.23	1251.31
369.44	1282.03
369.65	1228.78
369.86	1279.98
370.07	1269.74
370.28	1288.17
370.49	1290.22
370.70	1320.94
370.91	1177.58
371.12	1279.98
371.33	1325.04
371.54	1228.78
371.75	1302.51
371.96	1228.78
372.17	1282.03
372.38	1271.79
372.59	1232.88
372.80	1261.55
373.01	1265.64
373.22	1259.50
373.43	1253.36
373.64	1304.56
373.85	1335.28
374.06	1271.79
374.26	1331.18
374.47	1255.40
374.68	1220.59
374.89	1216.49
375.10	1232.88
375.31	1282.03
375.52	1251.31
375.73	1251.31
375.94	1257.45
376.15	1286.12
376.36	1308.65
376.57	1341.42
376.78	1269.74
376.99	1261.55
377.20	1253.36
377.40	1230.83
377.61	1284.08
377.82	1230.83
378.03	1335.28
378.24	1273.84
378.45	1320.94
378.66	1284.08
378.87	1275.88
379.08	1288.17
379.29	1226.73
379.50	1314.80
379.71	1218.54
379.91	1271.79
380.12	1277.93
380.33	1286.12
380.54	1247.21
380.75	1314.80
380.96	1273.84
381.17	1232.88
381.38	1249.26
381.59	1236.97
381.80	1310.70
382.00	1318.89
382.21	1261.55
382.42	1210.35
382.63	1302.51
382.84	1310.70
383.05	1224.69
383.26	1286.12
383.47	1320.94
383.68	1273.84
383.88	1267.69
384.09	1243.12
384.30	1251.31
384.51	1259.50
384.72	1282.03
384.93	1286.12
385.14	1302.51
385.35	1216.49
385.55	1220.59
385.76	1279.98
385.97	1228.78
386.18	1261.55
386.39	1253.36
386.60	1255.40
386.81	1236.97
387.02	1239.02
387.22	1202.16
387.43	1224.69
387.64	1222.64
387.85	1202.16
388.06	1312.75
388.27	1320.94
388.48	1286.12
388.68	1196.01
388.89	1275.88
389.10	1318.89
389.31	1296.36
389.52	1214.45
389.73	1206.25
389.93	1261.55
390.14	1333.23
390.35	1308.65
390.56	1296.36
390.77	1333.23
390.98	1251.31
391.18	1308.65
391.39	1284.08
391.60	1261.55
391.81	1249.26
392.02	1271.79
392.23	1239.02
392.43	1249.26
392.64	1216.49
392.85	1255.40
393.06	1265.64
393.27	1267.69
393.47	1265.64
393.68	1312.75
393.89	1302.51
394.10	1312.75
394.31	1269.74
394.52	1228.78
394.72	1236.97
394.93	1322.99
395.14	1212.40
395.35	1234.93
395.56	1263.60
395.76	1302.51
395.97	1228.78
396.18	1279.98
396.39	1245.16
396.60	1198.06
396.80	1271.79
397.01	1249.26
397.22	1265.64
397.43	1275.88
397.64	1234.93
397.84	1275.88
398.05	1296.36
398.26	1271.79
398.47	1300.46
398.67	1310.70
398.88	1298.41
399.09	1372.14
399.30	1263.60
399.51	1308.65
399.71	1267.69
399.92	1232.88
400.13	1269.74
400.34	1376.24
400.54	1245.16
400.75	1273.84
400.96	1218.54
401.17	1249.26
401.37	1241.07
401.58	1314.80
401.79	1279.98
402.00	1269.74
402.21	1224.69
402.41	1239.02
402.62	1304.56
402.83	1249.26
403.04	1273.84
403.24	1273.84
403.45	1339.37
403.66	1257.45
403.87	1312.75
404.07	1288.17
404.28	1261.55
404.49	1200.11
404.70	1269.74
404.90	1306.60
405.11	1288.17
405.32	1253.36
405.52	1230.83
405.73	1288.17
405.94	1181.68
406.15	1241.07
406.35	1267.69
406.56	1288.17
406.77	1269.74
406.98	1200.11
407.18	1314.80
407.39	1210.35
407.60	1241.07
407.80	1222.64
408.01	1304.56
408.22	1267.69
408.43	1273.84
408.63	1357.80
408.84	1249.26
409.05	1306.60
409.25	1286.12
409.46	1267.69
409.67	1273.84
409.88	1294.32
410.08	1222.64
410.29	1277.93
410.50	1306.60
410.70	1294.32
410.91	1273.84
411.12	1349.61
411.32	1230.83
411.53	1202.16
411.74	1189.87
411.95	1273.84
412.15	1304.56
412.36	1175.53
412.57	1273.84
412.77	1243.12
412.98	1282.03
413.19	1302.51
413.39	1208.30
413.60	1265.64
413.81	1249.26
414.01	1230.83
414.22	1239.02
414.43	1273.84
414.63	1292.27
414.84	1239.02
415.05	1316.84
415.25	1282.03
415.46	1228.78
415.67	1357.80
415.87	1212.40
416.08	1284.08
416.29	1318.89
416.49	1331.18
416.70	1243.12
416.91	1259.50
417.11	1239.02
417.32	1290.22
417.53	1322.99
417.73	1292.27
417.94	1224.69
418.15	1247.21
418.35	1261.55
418.56	1234.93
418.77	1384.43
418.97	1216.49
419.18	1220.59
419.38	1222.64
419.59	1236.97
419.80	1265.64
420.00	1282.03
420.21	1282.03
420.42	1269.74
420.62	1290.22
420.83	1249.26
421.04	1187.82
421.24	1253.36
421.45	1273.84
421.65	1300.46
421.86	1288.17
422.07	1210.35
422.27	1316.84
422.48	1284.08
422.69	1335.28
422.89	1269.74
423.10	1208.30
423.30	1277.93
423.51	1357.80
423.72	1347.56
423.92	1232.88
424.13	1267.69
424.33	1232.88
424.54	1275.88
424.75	1392.62
424.95	1300.46
425.16	1310.70
425.36	1320.94
425.57	1284.08
425.78	1234.93
425.98	1279.98
426.19	1290.22
426.39	1255.40
426.60	1267.69
426.81	1267.69
427.01	1282.03
427.22	1236.97
427.42	1247.21
427.63	1296.36
427.83	1273.84
428.04	1216.49
428.25	1263.60
428.45	1310.70
428.66	1212.40
428.86	1277.93
429.07	1269.74
429.28	1269.74
429.48	1279.98
429.69	1275.88
429.89	1273.84
430.10	1329.13
430.30	1224.69
430.51	1320.94
430.71	1241.07
430.92	1239.02
431.13	1159.15
431.33	1263.60
431.54	1257.45
431.74	1249.26
431.95	1239.02
432.15	1243.12
432.36	1320.94
432.56	1288.17
432.77	1282.03
432.98	1257.45
433.18	1208.30
433.39	1322.99
433.59	1249.26
433.80	1320.94
434.00	1212.40
434.21	1288.17
434.41	1263.60
434.62	1302.51
434.82	1193.97
435.03	1275.88
435.23	1286.12
435.44	1318.89
435.64	1284.08
435.85	1236.97
436.06	1284.08
436.26	1275.88
436.47	1247.21
436.67	1296.36
436.88	1257.45
437.08	1312.75
437.29	1228.78
437.49	1282.03
437.70	1263.60
437.90	1282.03
438.11	1306.60
438.31	1277.93
438.52	1257.45
438.72	1314.80
438.93	1329.13
439.13	1279.98
439.34	1218.54
439.54	1316.84
439.75	1243.12
439.95	1269.74
440.16	1292.27
440.36	1243.12
440.57	1230.83
440.77	1265.64
440.98	1308.65
441.18	1302.51
441.39	1273.84
441.59	1345.52
441.80	1286.12
442.00	1345.52
442.21	1314.80
442.41	1257.45
442.62	1218.54
442.82	1320.94
443.02	1249.26
443.23	1247.21
443.43	1243.12
443.64	1302.51
443.84	1234.93
444.05	1220.59
444.25	1304.56
444.46	1306.60
444.66	1253.36
444.87	1286.12
445.07	1282.03
445.28	1363.95
445.48	1327.08
445.69	1333.23
445.89	1318.89
446.09	1253.36
446.30	1312.75
446.50	1220.59
446.71	1314.80
446.91	1198.06
447.12	1310.70
447.32	1279.98
447.53	1292.27
447.73	1384.43
447.93	1302.51
448.14	1298.41
448.34	1343.47
448.55	1265.64
448.75	1218.54
448.96	1294.32
449.16	1239.02
449.36	1288.17
449.57	1251.31
449.77	1271.79
449.98	1341.42
450.18	1277.93
450.39	1392.62
450.59	1222.64
450.79	1198.06
451.00	1230.83
451.20	1257.45
451.41	1300.46
451.61	1290.22
451.81	1310.70
452.02	1234.93
452.22	1245.16
452.43	1271.79
452.63	1232.88
