SpectraSuite Data File
++++++++++++++++++++++++++++++++++++
Date: Sun Apr 03 19:55:51 CEST 2016
User: root
Dark Spectrum Present: No
Reference Spectrum Present: No
Number of Sampled Component Spectra: 1
Spectrometers: USB4C02835
Integration Time (usec): 10000 (USB4C02835)
Spectra Averaged: 1 (USB4C02835)
Boxcar Smoothing: 0 (USB4C02835)
Correct for Electrical Dark: No (USB4C02835)
Strobe/Lamp Enabled: No (USB4C02835)
Correct for Detector Non-linearity: No (USB4C02835)
Correct for Stray Light: No (USB4C02835)
Number of Pixels in Processed Spectrum: 3648
>>>>>Begin Processed Spectral Data<<<<<
177.47	1224.69
177.69	1224.69
177.91	1224.69
178.13	1308.65
178.36	1208.30
178.58	1337.32
178.80	1251.31
179.02	1271.79
179.24	1308.65
179.46	1241.07
179.68	1322.99
179.90	1273.84
180.13	1265.64
180.35	1257.45
180.57	1239.02
180.79	1282.03
181.01	1310.70
181.23	1310.70
181.45	1316.84
181.67	1200.11
181.90	1288.17
182.12	1261.55
182.34	1279.98
182.56	1316.84
182.78	1290.22
183.00	1265.64
183.22	1257.45
183.44	1255.40
183.66	1284.08
183.89	1308.65
184.11	1232.88
184.33	1300.46
184.55	1304.56
184.77	1255.40
184.99	1273.84
185.21	1216.49
185.43	1284.08
185.65	1296.36
185.87	1292.27
186.10	1191.92
186.32	1263.60
186.54	1294.32
186.76	1359.85
186.98	1267.69
187.20	1241.07
187.42	1263.60
187.64	1253.36
187.86	1308.65
188.08	1271.79
188.30	1204.21
188.52	1255.40
188.75	1298.41
188.97	1212.40
189.19	1249.26
189.41	1318.89
189.63	1193.97
189.85	1265.64
190.07	1249.26
190.29	1265.64
190.51	1232.88
190.73	1284.08
190.95	1257.45
191.17	1271.79
191.39	1302.51
191.61	1253.36
191.84	1279.98
192.06	1241.07
192.28	1318.89
192.50	1257.45
192.72	1257.45
192.94	1239.02
193.16	1284.08
193.38	1208.30
193.60	1236.97
193.82	1257.45
194.04	1327.08
194.26	1302.51
194.48	1204.21
194.70	1265.64
194.92	1253.36
195.14	1269.74
195.36	1247.21
195.58	1222.64
195.80	1353.71
196.02	1275.88
196.24	1228.78
196.46	1302.51
196.69	1273.84
196.91	1343.47
197.13	1310.70
197.35	1220.59
197.57	1261.55
197.79	1314.80
198.01	1245.16
198.23	1300.46
198.45	1318.89
198.67	1273.84
198.89	1333.23
199.11	1243.12
199.33	1243.12
199.55	1239.02
199.77	1232.88
199.99	1234.93
200.21	1261.55
200.43	1253.36
200.65	1216.49
200.87	1175.53
201.09	1261.55
201.31	1269.74
201.53	1263.60
201.75	1298.41
201.97	1308.65
202.19	1191.92
202.41	1173.49
202.63	1251.31
202.85	1200.11
203.07	1310.70
203.29	1267.69
203.51	1282.03
203.73	1284.08
203.95	1341.42
204.17	1288.17
204.39	1234.93
204.61	1327.08
204.83	1265.64
205.05	1288.17
205.27	1345.52
205.49	1355.76
205.71	1189.87
205.93	1265.64
206.15	1329.13
206.37	1290.22
206.59	1257.45
206.81	1286.12
207.03	1228.78
207.25	1310.70
207.47	1290.22
207.69	1275.88
207.91	1216.49
208.13	1277.93
208.34	1277.93
208.56	1234.93
208.78	1247.21
209.00	1282.03
209.22	1253.36
209.44	1298.41
209.66	1214.45
209.88	1214.45
210.10	1290.22
210.32	1230.83
210.54	1247.21
210.76	1241.07
210.98	1259.50
211.20	1265.64
211.42	1290.22
211.64	1269.74
211.86	1265.64
212.08	1247.21
212.30	1261.55
212.52	1241.07
212.74	1296.36
212.96	1277.93
213.17	1247.21
213.39	1191.92
213.61	1269.74
213.83	1239.02
214.05	1279.98
214.27	1271.79
214.49	1282.03
214.71	1273.84
214.93	1306.60
215.15	1294.32
215.37	1208.30
215.59	1261.55
215.81	1277.93
216.03	1234.93
216.24	1359.85
216.46	1232.88
216.68	1277.93
216.90	1312.75
217.12	1267.69
217.34	1267.69
217.56	1269.74
217.78	1275.88
218.00	1267.69
218.22	1271.79
218.44	1239.02
218.66	1226.73
218.87	1347.56
219.09	1296.36
219.31	1263.60
219.53	1333.23
219.75	1322.99
219.97	1265.64
220.19	1312.75
220.41	1222.64
220.63	1282.03
220.85	1251.31
221.06	1234.93
221.28	1310.70
221.50	1259.50
221.72	1175.53
221.94	1220.59
222.16	1243.12
222.38	1245.16
222.60	1284.08
222.82	1275.88
223.03	1243.12
223.25	1263.60
223.47	1257.45
223.69	1288.17
223.91	1236.97
224.13	1236.97
224.35	1247.21
224.57	1255.40
224.78	1300.46
225.00	1255.40
225.22	1302.51
225.44	1251.31
225.66	1228.78
225.88	1241.07
226.10	1290.22
226.32	1243.12
226.53	1245.16
226.75	1269.74
226.97	1261.55
227.19	1204.21
227.41	1232.88
227.63	1253.36
227.85	1284.08
228.06	1255.40
228.28	1230.83
228.50	1294.32
228.72	1265.64
228.94	1368.04
229.16	1302.51
229.37	1259.50
229.59	1308.65
229.81	1249.26
230.03	1251.31
230.25	1247.21
230.47	1308.65
230.69	1183.73
230.90	1269.74
231.12	1243.12
231.34	1304.56
231.56	1312.75
231.78	1308.65
232.00	1288.17
232.21	1245.16
232.43	1298.41
232.65	1253.36
232.87	1222.64
233.09	1304.56
233.30	1253.36
233.52	1279.98
233.74	1228.78
233.96	1263.60
234.18	1269.74
234.40	1343.47
234.61	1255.40
234.83	1255.40
235.05	1269.74
235.27	1224.69
235.49	1308.65
235.70	1288.17
235.92	1257.45
236.14	1222.64
236.36	1257.45
236.58	1304.56
236.79	1265.64
237.01	1259.50
237.23	1306.60
237.45	1265.64
237.67	1310.70
237.88	1298.41
238.10	1359.85
238.32	1220.59
238.54	1359.85
238.76	1318.89
238.97	1255.40
239.19	1288.17
239.41	1263.60
239.63	1239.02
239.85	1247.21
240.06	1314.80
240.28	1304.56
240.50	1241.07
240.72	1261.55
240.93	1191.92
241.15	1294.32
241.37	1247.21
241.59	1232.88
241.81	1286.12
242.02	1234.93
242.24	1329.13
242.46	1288.17
242.68	1265.64
242.89	1290.22
243.11	1273.84
243.33	1251.31
243.55	1273.84
243.76	1245.16
243.98	1288.17
244.20	1245.16
244.42	1310.70
244.64	1275.88
244.85	1241.07
245.07	1241.07
245.29	1304.56
245.51	1249.26
245.72	1236.97
245.94	1222.64
246.16	1290.22
246.38	1220.59
246.59	1273.84
246.81	1302.51
247.03	1300.46
247.24	1273.84
247.46	1331.18
247.68	1271.79
247.90	1228.78
248.11	1316.84
248.33	1157.10
248.55	1310.70
248.77	1259.50
248.98	1286.12
249.20	1224.69
249.42	1253.36
249.64	1261.55
249.85	1279.98
250.07	1255.40
250.29	1290.22
250.50	1325.04
250.72	1222.64
250.94	1220.59
251.16	1290.22
251.37	1327.08
251.59	1288.17
251.81	1224.69
252.02	1257.45
252.24	1284.08
252.46	1361.90
252.68	1296.36
252.89	1234.93
253.11	1239.02
253.33	1288.17
253.54	1269.74
253.76	1267.69
253.98	1269.74
254.20	1255.40
254.41	1241.07
254.63	1249.26
254.85	1288.17
255.06	1325.04
255.28	1247.21
255.50	1253.36
255.71	1347.56
255.93	1308.65
256.15	1257.45
256.36	1286.12
256.58	1275.88
256.80	1200.11
257.02	1202.16
257.23	1279.98
257.45	1294.32
257.67	1310.70
257.88	1183.73
258.10	1316.84
258.32	1220.59
258.53	1257.45
258.75	1273.84
258.97	1296.36
259.18	1267.69
259.40	1337.32
259.62	1253.36
259.83	1312.75
260.05	1300.46
260.27	1320.94
260.48	1322.99
260.70	1259.50
260.92	1359.85
261.13	1286.12
261.35	1247.21
261.57	1261.55
261.78	1263.60
262.00	1335.28
262.22	1267.69
262.43	1267.69
262.65	1318.89
262.86	1318.89
263.08	1277.93
263.30	1275.88
263.51	1275.88
263.73	1277.93
263.95	1302.51
264.16	1316.84
264.38	1355.76
264.60	1302.51
264.81	1286.12
265.03	1298.41
265.25	1282.03
265.46	1208.30
265.68	1245.16
265.89	1302.51
266.11	1308.65
266.33	1226.73
266.54	1288.17
266.76	1302.51
266.98	1173.49
267.19	1206.25
267.41	1277.93
267.62	1257.45
267.84	1263.60
268.06	1331.18
268.27	1245.16
268.49	1271.79
268.70	1294.32
268.92	1257.45
269.14	1288.17
269.35	1296.36
269.57	1380.33
269.79	1286.12
270.00	1302.51
270.22	1265.64
270.43	1245.16
270.65	1259.50
270.87	1232.88
271.08	1302.51
271.30	1347.56
271.51	1290.22
271.73	1261.55
271.95	1296.36
272.16	1249.26
272.38	1255.40
272.59	1267.69
272.81	1279.98
273.02	1232.88
273.24	1275.88
273.46	1298.41
273.67	1298.41
273.89	1206.25
274.10	1263.60
274.32	1282.03
274.54	1232.88
274.75	1279.98
274.97	1241.07
275.18	1275.88
275.40	1302.51
275.61	1243.12
275.83	1275.88
276.05	1261.55
276.26	1304.56
276.48	1173.49
276.69	1208.30
276.91	1202.16
277.12	1218.54
277.34	1257.45
277.55	1327.08
277.77	1316.84
277.99	1222.64
278.20	1249.26
278.42	1273.84
278.63	1226.73
278.85	1265.64
279.06	1241.07
279.28	1343.47
279.49	1314.80
279.71	1249.26
279.93	1247.21
280.14	1329.13
280.36	1267.69
280.57	1288.17
280.79	1298.41
281.00	1298.41
281.22	1204.21
281.43	1257.45
281.65	1216.49
281.86	1271.79
282.08	1253.36
282.29	1284.08
282.51	1202.16
282.73	1263.60
282.94	1314.80
283.16	1255.40
283.37	1228.78
283.59	1247.21
283.80	1286.12
284.02	1353.71
284.23	1259.50
284.45	1224.69
284.66	1327.08
284.88	1345.52
285.09	1234.93
285.31	1288.17
285.52	1339.37
285.74	1318.89
285.95	1273.84
286.17	1298.41
286.38	1224.69
286.60	1271.79
286.81	1247.21
287.03	1265.64
287.24	1290.22
287.46	1298.41
287.67	1279.98
287.89	1308.65
288.10	1265.64
288.32	1304.56
288.53	1339.37
288.75	1265.64
288.96	1243.12
289.18	1171.44
289.39	1267.69
289.61	1277.93
289.82	1253.36
290.04	1259.50
290.25	1290.22
290.47	1290.22
290.68	1286.12
290.90	1269.74
291.11	1243.12
291.33	1236.97
291.54	1179.63
291.76	1277.93
291.97	1271.79
292.18	1245.16
292.40	1253.36
292.61	1259.50
292.83	1224.69
293.04	1177.58
293.26	1239.02
293.47	1286.12
293.69	1273.84
293.90	1290.22
294.12	1251.31
294.33	1222.64
294.55	1343.47
294.76	1290.22
294.97	1318.89
295.19	1239.02
295.40	1300.46
295.62	1296.36
295.83	1271.79
296.05	1232.88
296.26	1300.46
296.48	1269.74
296.69	1183.73
296.90	1271.79
297.12	1251.31
297.33	1247.21
297.55	1241.07
297.76	1247.21
297.98	1312.75
298.19	1265.64
298.41	1212.40
298.62	1251.31
298.83	1243.12
299.05	1224.69
299.26	1282.03
299.48	1232.88
299.69	1294.32
299.90	1347.56
300.12	1198.06
300.33	1286.12
300.55	1279.98
300.76	1232.88
300.98	1271.79
301.19	1253.36
301.40	1251.31
301.62	1296.36
301.83	1247.21
302.05	1290.22
302.26	1214.45
302.47	1290.22
302.69	1263.60
302.90	1257.45
303.12	1308.65
303.33	1308.65
303.54	1353.71
303.76	1259.50
303.97	1269.74
304.19	1216.49
304.40	1337.32
304.61	1341.42
304.83	1273.84
305.04	1224.69
305.26	1290.22
305.47	1218.54
305.68	1236.97
305.90	1245.16
306.11	1241.07
306.33	1241.07
306.54	1269.74
306.75	1239.02
306.97	1306.60
307.18	1320.94
307.39	1296.36
307.61	1241.07
307.82	1261.55
308.04	1318.89
308.25	1257.45
308.46	1337.32
308.68	1261.55
308.89	1279.98
309.10	1292.27
309.32	1206.25
309.53	1325.04
309.74	1269.74
309.96	1310.70
310.17	1331.18
310.39	1288.17
310.60	1331.18
310.81	1259.50
311.03	1241.07
311.24	1245.16
311.45	1277.93
311.67	1249.26
311.88	1296.36
312.09	1226.73
312.31	1277.93
312.52	1232.88
312.73	1261.55
312.95	1249.26
313.16	1304.56
313.37	1249.26
313.59	1277.93
313.80	1214.45
314.01	1241.07
314.23	1275.88
314.44	1239.02
314.65	1224.69
314.87	1216.49
315.08	1290.22
315.29	1222.64
315.51	1298.41
315.72	1206.25
315.93	1292.27
316.15	1222.64
316.36	1331.18
316.57	1226.73
316.79	1253.36
317.00	1269.74
317.21	1296.36
317.43	1267.69
317.64	1271.79
317.85	1265.64
318.07	1267.69
318.28	1267.69
318.49	1259.50
318.70	1273.84
318.92	1277.93
319.13	1271.79
319.34	1251.31
319.56	1335.28
319.77	1247.21
319.98	1241.07
320.20	1277.93
320.41	1331.18
320.62	1320.94
320.83	1271.79
321.05	1343.47
321.26	1265.64
321.47	1263.60
321.69	1284.08
321.90	1304.56
322.11	1265.64
322.32	1245.16
322.54	1273.84
322.75	1277.93
322.96	1279.98
323.18	1292.27
323.39	1290.22
323.60	1275.88
323.81	1232.88
324.03	1300.46
324.24	1255.40
324.45	1212.40
324.66	1257.45
324.88	1265.64
325.09	1282.03
325.30	1247.21
325.52	1312.75
325.73	1337.32
325.94	1214.45
326.15	1173.49
326.37	1241.07
326.58	1370.09
326.79	1269.74
327.00	1243.12
327.22	1288.17
327.43	1255.40
327.64	1245.16
327.85	1269.74
328.07	1331.18
328.28	1204.21
328.49	1263.60
328.70	1275.88
328.92	1300.46
329.13	1296.36
329.34	1284.08
329.55	1218.54
329.76	1284.08
329.98	1245.16
330.19	1314.80
330.40	1265.64
330.61	1292.27
330.83	1277.93
331.04	1236.97
331.25	1339.37
331.46	1282.03
331.68	1292.27
331.89	1298.41
332.10	1218.54
332.31	1288.17
332.52	1253.36
332.74	1241.07
332.95	1259.50
333.16	1247.21
333.37	1247.21
333.58	1275.88
333.80	1224.69
334.01	1230.83
334.22	1279.98
334.43	1331.18
334.64	1261.55
334.86	1296.36
335.07	1302.51
335.28	1212.40
335.49	1273.84
335.70	1290.22
335.92	1255.40
336.13	1302.51
336.34	1290.22
336.55	1290.22
336.76	1284.08
336.98	1216.49
337.19	1210.35
337.40	1269.74
337.61	1271.79
337.82	1304.56
338.04	1245.16
338.25	1265.64
338.46	1271.79
338.67	1230.83
338.88	1222.64
339.09	1304.56
339.31	1277.93
339.52	1257.45
339.73	1220.59
339.94	1265.64
340.15	1259.50
340.36	1222.64
340.58	1255.40
340.79	1279.98
341.00	1290.22
341.21	1247.21
341.42	1277.93
341.63	1232.88
341.85	1230.83
342.06	1286.12
342.27	1329.13
342.48	1255.40
342.69	1224.69
342.90	1290.22
343.12	1310.70
343.33	1255.40
343.54	1200.11
343.75	1253.36
343.96	1312.75
344.17	1261.55
344.38	1210.35
344.60	1218.54
344.81	1267.69
345.02	1302.51
345.23	1312.75
345.44	1273.84
345.65	1226.73
345.86	1322.99
346.07	1284.08
346.29	1210.35
346.50	1226.73
346.71	1273.84
346.92	1308.65
347.13	1327.08
347.34	1306.60
347.55	1284.08
347.76	1318.89
347.98	1286.12
348.19	1269.74
348.40	1282.03
348.61	1253.36
348.82	1279.98
349.03	1310.70
349.24	1282.03
349.45	1320.94
349.66	1210.35
349.88	1241.07
350.09	1333.23
350.30	1349.61
350.51	1304.56
350.72	1298.41
350.93	1292.27
351.14	1277.93
351.35	1322.99
351.56	1279.98
351.77	1271.79
351.99	1175.53
352.20	1208.30
352.41	1322.99
352.62	1241.07
352.83	1312.75
353.04	1212.40
353.25	1259.50
353.46	1239.02
353.67	1243.12
353.88	1257.45
354.09	1236.97
354.30	1259.50
354.52	1253.36
354.73	1286.12
354.94	1243.12
355.15	1261.55
355.36	1284.08
355.57	1257.45
355.78	1327.08
355.99	1218.54
356.20	1302.51
356.41	1255.40
356.62	1216.49
356.83	1386.47
357.04	1273.84
357.25	1232.88
357.46	1257.45
357.68	1312.75
357.89	1296.36
358.10	1198.06
358.31	1279.98
358.52	1282.03
358.73	1294.32
358.94	1224.69
359.15	1290.22
359.36	1220.59
359.57	1351.66
359.78	1290.22
359.99	1294.32
360.20	1218.54
360.41	1282.03
360.62	1230.83
360.83	1214.45
361.04	1314.80
361.25	1300.46
361.46	1265.64
361.67	1300.46
361.88	1298.41
362.09	1261.55
362.30	1296.36
362.51	1314.80
362.72	1261.55
362.93	1286.12
363.14	1302.51
363.35	1302.51
363.56	1245.16
363.78	1261.55
363.99	1320.94
364.20	1343.47
364.41	1308.65
364.62	1230.83
364.83	1294.32
365.04	1212.40
365.25	1306.60
365.46	1302.51
365.67	1288.17
365.88	1224.69
366.09	1318.89
366.30	1228.78
366.51	1306.60
366.72	1226.73
366.93	1294.32
367.14	1275.88
367.35	1308.65
367.56	1210.35
367.77	1263.60
367.98	1302.51
368.18	1230.83
368.39	1249.26
368.60	1212.40
368.81	1251.31
369.02	1277.93
369.23	1308.65
369.44	1226.73
369.65	1275.88
369.86	1261.55
370.07	1253.36
370.28	1236.97
370.49	1255.40
370.70	1335.28
370.91	1236.97
371.12	1286.12
371.33	1271.79
371.54	1228.78
371.75	1279.98
371.96	1275.88
372.17	1286.12
372.38	1232.88
372.59	1366.00
372.80	1265.64
373.01	1265.64
373.22	1247.21
373.43	1249.26
373.64	1228.78
373.85	1230.83
374.06	1198.06
374.26	1208.30
374.47	1310.70
374.68	1322.99
374.89	1267.69
375.10	1304.56
375.31	1282.03
375.52	1261.55
375.73	1290.22
375.94	1255.40
376.15	1357.80
376.36	1198.06
376.57	1290.22
376.78	1296.36
376.99	1329.13
377.20	1255.40
377.40	1241.07
377.61	1288.17
377.82	1234.93
378.03	1312.75
378.24	1234.93
378.45	1253.36
378.66	1253.36
378.87	1159.15
379.08	1226.73
379.29	1298.41
379.50	1277.93
379.71	1320.94
379.91	1273.84
380.12	1226.73
380.33	1331.18
380.54	1230.83
380.75	1265.64
380.96	1316.84
381.17	1251.31
381.38	1261.55
381.59	1263.60
381.80	1279.98
382.00	1228.78
382.21	1292.27
382.42	1306.60
382.63	1292.27
382.84	1320.94
383.05	1296.36
383.26	1261.55
383.47	1257.45
383.68	1296.36
383.88	1322.99
384.09	1296.36
384.30	1239.02
384.51	1277.93
384.72	1253.36
384.93	1294.32
385.14	1247.21
385.35	1312.75
385.55	1273.84
385.76	1265.64
385.97	1282.03
386.18	1247.21
386.39	1191.92
386.60	1220.59
386.81	1318.89
387.02	1236.97
387.22	1200.11
387.43	1294.32
387.64	1236.97
387.85	1271.79
388.06	1234.93
388.27	1271.79
388.48	1335.28
388.68	1267.69
388.89	1249.26
389.10	1247.21
389.31	1234.93
389.52	1255.40
389.73	1230.83
389.93	1204.21
390.14	1302.51
390.35	1339.37
390.56	1241.07
390.77	1306.60
390.98	1241.07
391.18	1255.40
391.39	1243.12
391.60	1316.84
391.81	1239.02
392.02	1263.60
392.23	1251.31
392.43	1189.87
392.64	1310.70
392.85	1269.74
393.06	1232.88
393.27	1279.98
393.47	1245.16
393.68	1247.21
393.89	1230.83
394.10	1173.49
394.31	1230.83
394.52	1308.65
394.72	1308.65
394.93	1273.84
395.14	1316.84
395.35	1294.32
395.56	1239.02
395.76	1208.30
395.97	1304.56
396.18	1396.71
396.39	1247.21
396.60	1275.88
396.80	1259.50
397.01	1212.40
397.22	1206.25
397.43	1249.26
397.64	1292.27
397.84	1257.45
398.05	1257.45
398.26	1222.64
398.47	1187.82
398.67	1277.93
398.88	1251.31
399.09	1236.97
399.30	1325.04
399.51	1308.65
399.71	1300.46
399.92	1247.21
400.13	1265.64
400.34	1265.64
400.54	1314.80
400.75	1265.64
400.96	1359.85
401.17	1282.03
401.37	1245.16
401.58	1251.31
401.79	1284.08
402.00	1247.21
402.21	1259.50
402.41	1304.56
402.62	1269.74
402.83	1331.18
403.04	1275.88
403.24	1226.73
403.45	1216.49
403.66	1257.45
403.87	1296.36
404.07	1284.08
404.28	1224.69
404.49	1312.75
404.70	1271.79
404.90	1298.41
405.11	1214.45
405.32	1265.64
405.52	1310.70
405.73	1193.97
405.94	1214.45
406.15	1255.40
406.35	1290.22
406.56	1290.22
406.77	1306.60
406.98	1226.73
407.18	1193.97
407.39	1288.17
407.60	1284.08
407.80	1249.26
408.01	1226.73
408.22	1267.69
408.43	1228.78
408.63	1290.22
408.84	1275.88
409.05	1288.17
409.25	1292.27
409.46	1181.68
409.67	1300.46
409.88	1290.22
410.08	1316.84
410.29	1234.93
410.50	1198.06
410.70	1302.51
410.91	1251.31
411.12	1286.12
411.32	1275.88
411.53	1269.74
411.74	1218.54
411.95	1245.16
412.15	1230.83
412.36	1269.74
412.57	1243.12
412.77	1333.23
412.98	1243.12
413.19	1224.69
413.39	1265.64
413.60	1279.98
413.81	1294.32
414.01	1277.93
414.22	1187.82
414.43	1306.60
414.63	1249.26
414.84	1302.51
415.05	1249.26
415.25	1218.54
415.46	1232.88
415.67	1232.88
415.87	1304.56
416.08	1173.49
416.29	1257.45
416.49	1232.88
416.70	1232.88
416.91	1327.08
417.11	1286.12
417.32	1275.88
417.53	1298.41
417.73	1255.40
417.94	1302.51
418.15	1273.84
418.35	1329.13
418.56	1165.29
418.77	1279.98
418.97	1279.98
419.18	1316.84
419.38	1251.31
419.59	1331.18
419.80	1282.03
420.00	1302.51
420.21	1288.17
420.42	1279.98
420.62	1329.13
420.83	1261.55
421.04	1214.45
421.24	1279.98
421.45	1239.02
421.65	1288.17
421.86	1325.04
422.07	1271.79
422.27	1331.18
422.48	1261.55
422.69	1257.45
422.89	1216.49
423.10	1310.70
423.30	1298.41
423.51	1310.70
423.72	1253.36
423.92	1322.99
424.13	1228.78
424.33	1257.45
424.54	1380.33
424.75	1265.64
424.95	1263.60
425.16	1296.36
425.36	1288.17
425.57	1294.32
425.78	1153.01
425.98	1314.80
426.19	1267.69
426.39	1226.73
426.60	1290.22
426.81	1300.46
427.01	1204.21
427.22	1304.56
427.42	1228.78
427.63	1241.07
427.83	1275.88
428.04	1318.89
428.25	1277.93
428.45	1259.50
428.66	1228.78
428.86	1306.60
429.07	1292.27
429.28	1320.94
429.48	1241.07
429.69	1249.26
429.89	1226.73
430.10	1308.65
430.30	1269.74
430.51	1271.79
430.71	1337.32
430.92	1296.36
431.13	1255.40
431.33	1257.45
431.54	1236.97
431.74	1239.02
431.95	1261.55
432.15	1277.93
432.36	1257.45
432.56	1255.40
432.77	1271.79
432.98	1267.69
433.18	1189.87
433.39	1322.99
433.59	1249.26
433.80	1279.98
434.00	1263.60
434.21	1206.25
434.41	1220.59
434.62	1290.22
434.82	1296.36
435.03	1241.07
435.23	1200.11
435.44	1255.40
435.64	1249.26
435.85	1232.88
436.06	1314.80
436.26	1273.84
436.47	1331.18
436.67	1300.46
436.88	1210.35
437.08	1267.69
437.29	1273.84
437.49	1189.87
437.70	1277.93
437.90	1257.45
438.11	1325.04
438.31	1318.89
438.52	1234.93
438.72	1275.88
438.93	1204.21
439.13	1273.84
439.34	1267.69
439.54	1255.40
439.75	1249.26
439.95	1239.02
440.16	1325.04
440.36	1255.40
440.57	1245.16
440.77	1259.50
440.98	1255.40
441.18	1368.04
441.39	1220.59
441.59	1378.28
441.80	1263.60
442.00	1322.99
442.21	1247.21
442.41	1241.07
442.62	1243.12
442.82	1269.74
443.02	1359.85
443.23	1320.94
443.43	1265.64
443.64	1347.56
443.84	1251.31
444.05	1239.02
444.25	1263.60
444.46	1243.12
444.66	1239.02
444.87	1314.80
445.07	1302.51
445.28	1224.69
445.48	1275.88
445.69	1286.12
445.89	1214.45
446.09	1310.70
446.30	1265.64
446.50	1320.94
446.71	1320.94
446.91	1271.79
447.12	1212.40
447.32	1314.80
447.53	1216.49
447.73	1247.21
447.93	1290.22
448.14	1228.78
448.34	1320.94
448.55	1318.89
448.75	1263.60
448.96	1247.21
449.16	1226.73
449.36	1322.99
449.57	1284.08
449.77	1226.73
449.98	1187.82
450.18	1294.32
450.39	1343.47
450.59	1290.22
450.79	1279.98
451.00	1302.51
451.20	1265.64
451.41	1286.12
451.61	1193.97
451.81	1265.64
452.02	1239.02
452.22	1300.46
452.43	1230.83
452.63	1296.36
