SpectraSuite Data File
++++++++++++++++++++++++++++++++++++
Date: Sun Apr 03 19:55:51 CEST 2016
User: root
Dark Spectrum Present: No
Reference Spectrum Present: No
Number of Sampled Component Spectra: 1
Spectrometers: USB4C02835
Integration Time (usec): 10000 (USB4C02835)
Spectra Averaged: 1 (USB4C02835)
Boxcar Smoothing: 0 (USB4C02835)
Correct for Electrical Dark: No (USB4C02835)
Strobe/Lamp Enabled: No (USB4C02835)
Correct for Detector Non-linearity: No (USB4C02835)
Correct for Stray Light: No (USB4C02835)
Number of Pixels in Processed Spectrum: 3648
>>>>>Begin Processed Spectral Data<<<<<
177.47	1271.79
177.69	1271.79
177.91	1271.79
178.13	1232.88
178.36	1286.12
178.58	1220.59
178.80	1304.56
179.02	1243.12
179.24	1232.88
179.46	1234.93
179.68	1249.26
179.90	1204.21
180.13	1329.13
180.35	1298.41
180.57	1290.22
180.79	1267.69
181.01	1282.03
181.23	1296.36
181.45	1206.25
181.67	1300.46
181.90	1320.94
182.12	1187.82
182.34	1265.64
182.56	1265.64
182.78	1279.98
183.00	1263.60
183.22	1257.45
183.44	1189.87
183.66	1271.79
183.89	1259.50
184.11	1284.08
184.33	1230.83
184.55	1302.51
184.77	1290.22
184.99	1251.31
185.21	1282.03
185.43	1302.51
185.65	1284.08
185.87	1167.34
186.10	1302.51
186.32	1232.88
186.54	1239.02
186.76	1259.50
186.98	1251.31
187.20	1286.12
187.42	1181.68
187.64	1249.26
187.86	1310.70
188.08	1284.08
188.30	1312.75
188.52	1282.03
188.75	1257.45
188.97	1304.56
189.19	1314.80
189.41	1277.93
189.63	1239.02
189.85	1191.92
190.07	1290.22
190.29	1247.21
190.51	1284.08
190.73	1241.07
190.95	1363.95
191.17	1230.83
191.39	1236.97
191.61	1247.21
191.84	1236.97
192.06	1279.98
192.28	1267.69
192.50	1275.88
192.72	1277.93
192.94	1179.63
193.16	1275.88
193.38	1269.74
193.60	1234.93
193.82	1284.08
194.04	1318.89
194.26	1271.79
194.48	1273.84
194.70	1218.54
194.92	1220.59
195.14	1296.36
195.36	1282.03
195.58	1304.56
195.80	1220.59
196.02	1279.98
196.24	1255.40
196.46	1232.88
196.69	1179.63
196.91	1292.27
197.13	1241.07
197.35	1265.64
197.57	1267.69
197.79	1210.35
198.01	1267.69
198.23	1322.99
198.45	1222.64
198.67	1214.45
198.89	1298.41
199.11	1337.32
199.33	1218.54
199.55	1306.60
199.77	1333.23
199.99	1251.31
200.21	1236.97
200.43	1202.16
200.65	1200.11
200.87	1226.73
201.09	1265.64
201.31	1314.80
201.53	1343.47
201.75	1329.13
201.97	1161.20
202.19	1286.12
202.41	1249.26
202.63	1241.07
202.85	1232.88
203.07	1290.22
203.29	1255.40
203.51	1337.32
203.73	1320.94
203.95	1247.21
204.17	1308.65
204.39	1273.84
204.61	1275.88
204.83	1247.21
205.05	1243.12
205.27	1239.02
205.49	1347.56
205.71	1210.35
205.93	1261.55
206.15	1241.07
206.37	1267.69
206.59	1255.40
206.81	1257.45
207.03	1263.60
207.25	1224.69
207.47	1220.59
207.69	1269.74
207.91	1308.65
208.13	1253.36
208.34	1308.65
208.56	1279.98
208.78	1288.17
209.00	1331.18
209.22	1331.18
209.44	1288.17
209.66	1282.03
209.88	1304.56
210.10	1333.23
210.32	1312.75
210.54	1247.21
210.76	1249.26
210.98	1314.80
211.20	1226.73
211.42	1275.88
211.64	1302.51
211.86	1269.74
212.08	1329.13
212.30	1169.39
212.52	1267.69
212.74	1318.89
212.96	1310.70
213.17	1181.68
213.39	1312.75
213.61	1249.26
213.83	1314.80
214.05	1271.79
214.27	1236.97
214.49	1204.21
214.71	1198.06
214.93	1275.88
215.15	1228.78
215.37	1247.21
215.59	1302.51
215.81	1304.56
216.03	1286.12
216.24	1290.22
216.46	1253.36
216.68	1265.64
216.90	1267.69
217.12	1277.93
217.34	1265.64
217.56	1255.40
217.78	1239.02
218.00	1269.74
218.22	1261.55
218.44	1275.88
218.66	1290.22
218.87	1318.89
219.09	1331.18
219.31	1345.52
219.53	1220.59
219.75	1269.74
219.97	1220.59
220.19	1273.84
220.41	1265.64
220.63	1259.50
220.85	1347.56
221.06	1267.69
221.28	1294.32
221.50	1288.17
221.72	1257.45
221.94	1257.45
222.16	1259.50
222.38	1294.32
222.60	1251.31
222.82	1249.26
223.03	1255.40
223.25	1325.04
223.47	1267.69
223.69	1173.49
223.91	1224.69
224.13	1284.08
224.35	1331.18
224.57	1298.41
224.78	1282.03
225.00	1241.07
225.22	1294.32
225.44	1239.02
225.66	1224.69
225.88	1253.36
226.10	1282.03
226.32	1275.88
226.53	1245.16
226.75	1284.08
226.97	1316.84
227.19	1228.78
227.41	1249.26
227.63	1275.88
227.85	1304.56
228.06	1310.70
228.28	1241.07
228.50	1300.46
228.72	1306.60
228.94	1331.18
229.16	1253.36
229.37	1314.80
229.59	1183.73
229.81	1345.52
230.03	1288.17
230.25	1247.21
230.47	1310.70
230.69	1241.07
230.90	1279.98
231.12	1267.69
231.34	1263.60
231.56	1282.03
231.78	1277.93
232.00	1267.69
232.21	1234.93
232.43	1331.18
232.65	1302.51
232.87	1277.93
233.09	1251.31
233.30	1249.26
233.52	1308.65
233.74	1255.40
233.96	1279.98
234.18	1202.16
234.40	1191.92
234.61	1304.56
234.83	1263.60
235.05	1331.18
235.27	1239.02
235.49	1308.65
235.70	1279.98
235.92	1255.40
236.14	1220.59
236.36	1224.69
236.58	1212.40
236.79	1329.13
237.01	1294.32
237.23	1214.45
237.45	1236.97
237.67	1288.17
237.88	1314.80
238.10	1269.74
238.32	1296.36
238.54	1255.40
238.76	1316.84
238.97	1304.56
239.19	1282.03
239.41	1249.26
239.63	1284.08
239.85	1306.60
240.06	1302.51
240.28	1269.74
240.50	1189.87
240.72	1335.28
240.93	1277.93
241.15	1277.93
241.37	1282.03
241.59	1337.32
241.81	1269.74
242.02	1284.08
242.24	1245.16
242.46	1339.37
242.68	1236.97
242.89	1271.79
243.11	1302.51
243.33	1234.93
243.55	1275.88
243.76	1259.50
243.98	1290.22
244.20	1271.79
244.42	1271.79
244.64	1312.75
244.85	1204.21
245.07	1339.37
245.29	1290.22
245.51	1255.40
245.72	1298.41
245.94	1277.93
246.16	1320.94
246.38	1249.26
246.59	1310.70
246.81	1249.26
247.03	1273.84
247.24	1253.36
247.46	1251.31
247.68	1316.84
247.90	1284.08
248.11	1239.02
248.33	1230.83
248.55	1232.88
248.77	1277.93
248.98	1308.65
249.20	1312.75
249.42	1236.97
249.64	1292.27
249.85	1290.22
250.07	1204.21
250.29	1230.83
250.50	1279.98
250.72	1232.88
250.94	1249.26
251.16	1279.98
251.37	1212.40
251.59	1249.26
251.81	1329.13
252.02	1288.17
252.24	1296.36
252.46	1304.56
252.68	1263.60
252.89	1284.08
253.11	1292.27
253.33	1251.31
253.54	1220.59
253.76	1310.70
253.98	1241.07
254.20	1325.04
254.41	1202.16
254.63	1284.08
254.85	1259.50
255.06	1249.26
255.28	1282.03
255.50	1243.12
255.71	1298.41
255.93	1247.21
256.15	1298.41
256.36	1294.32
256.58	1200.11
256.80	1286.12
257.02	1214.45
257.23	1234.93
257.45	1302.51
257.67	1279.98
257.88	1312.75
258.10	1259.50
258.32	1251.31
258.53	1267.69
258.75	1279.98
258.97	1245.16
259.18	1271.79
259.40	1277.93
259.62	1271.79
259.83	1259.50
260.05	1355.76
260.27	1273.84
260.48	1286.12
260.70	1200.11
260.92	1380.33
261.13	1279.98
261.35	1212.40
261.57	1292.27
261.78	1257.45
262.00	1282.03
262.22	1290.22
262.43	1269.74
262.65	1343.47
262.86	1310.70
263.08	1329.13
263.30	1277.93
263.51	1120.24
263.73	1251.31
263.95	1226.73
264.16	1251.31
264.38	1249.26
264.60	1212.40
264.81	1228.78
265.03	1273.84
265.25	1308.65
265.46	1269.74
265.68	1300.46
265.89	1259.50
266.11	1290.22
266.33	1271.79
266.54	1269.74
266.76	1275.88
266.98	1257.45
267.19	1290.22
267.41	1306.60
267.62	1349.61
267.84	1290.22
268.06	1322.99
268.27	1290.22
268.49	1269.74
268.70	1265.64
268.92	1230.83
269.14	1251.31
269.35	1253.36
269.57	1279.98
269.79	1275.88
270.00	1249.26
270.22	1206.25
270.43	1243.12
270.65	1247.21
270.87	1267.69
271.08	1232.88
271.30	1218.54
271.51	1294.32
271.73	1275.88
271.95	1222.64
272.16	1247.21
272.38	1232.88
272.59	1245.16
272.81	1224.69
273.02	1290.22
273.24	1259.50
273.46	1292.27
273.67	1210.35
273.89	1183.73
274.10	1273.84
274.32	1310.70
274.54	1273.84
274.75	1370.09
274.97	1298.41
275.18	1230.83
275.40	1228.78
275.61	1300.46
275.83	1251.31
276.05	1253.36
276.26	1273.84
276.48	1239.02
276.69	1318.89
276.91	1247.21
277.12	1329.13
277.34	1349.61
277.55	1286.12
277.77	1267.69
277.99	1269.74
278.20	1300.46
278.42	1322.99
278.63	1271.79
278.85	1282.03
279.06	1202.16
279.28	1245.16
279.49	1302.51
279.71	1318.89
279.93	1232.88
280.14	1284.08
280.36	1275.88
280.57	1304.56
280.79	1333.23
281.00	1327.08
281.22	1255.40
281.43	1257.45
281.65	1193.97
281.86	1245.16
282.08	1234.93
282.29	1263.60
282.51	1314.80
282.73	1255.40
282.94	1269.74
283.16	1228.78
283.37	1271.79
283.59	1241.07
283.80	1257.45
284.02	1239.02
284.23	1298.41
284.45	1198.06
284.66	1300.46
284.88	1206.25
285.09	1302.51
285.31	1288.17
285.52	1302.51
285.74	1279.98
285.95	1224.69
286.17	1204.21
286.38	1181.68
286.60	1226.73
286.81	1261.55
287.03	1261.55
287.24	1359.85
287.46	1314.80
287.67	1314.80
287.89	1296.36
288.10	1286.12
288.32	1282.03
288.53	1230.83
288.75	1265.64
288.96	1202.16
289.18	1191.92
289.39	1284.08
289.61	1263.60
289.82	1263.60
290.04	1234.93
290.25	1249.26
290.47	1288.17
290.68	1282.03
290.90	1366.00
291.11	1226.73
291.33	1253.36
291.54	1322.99
291.76	1308.65
291.97	1249.26
292.18	1312.75
292.40	1234.93
292.61	1265.64
292.83	1300.46
293.04	1243.12
293.26	1247.21
293.47	1241.07
293.69	1236.97
293.90	1316.84
294.12	1314.80
294.33	1253.36
294.55	1294.32
294.76	1255.40
294.97	1294.32
295.19	1331.18
295.40	1296.36
295.62	1327.08
295.83	1312.75
296.05	1353.71
296.26	1232.88
296.48	1236.97
296.69	1257.45
296.90	1290.22
297.12	1288.17
297.33	1308.65
297.55	1296.36
297.76	1290.22
297.98	1284.08
298.19	1265.64
298.41	1243.12
298.62	1206.25
298.83	1251.31
299.05	1263.60
299.26	1210.35
299.48	1253.36
299.69	1247.21
299.90	1228.78
300.12	1243.12
300.33	1331.18
300.55	1245.16
300.76	1257.45
300.98	1331.18
301.19	1282.03
301.40	1196.01
301.62	1314.80
301.83	1230.83
302.05	1259.50
302.26	1245.16
302.47	1267.69
302.69	1277.93
302.90	1236.97
303.12	1308.65
303.33	1298.41
303.54	1259.50
303.76	1275.88
303.97	1302.51
304.19	1353.71
304.40	1230.83
304.61	1279.98
304.83	1271.79
305.04	1331.18
305.26	1306.60
305.47	1292.27
305.68	1265.64
305.90	1331.18
306.11	1228.78
306.33	1255.40
306.54	1239.02
306.75	1257.45
306.97	1359.85
307.18	1271.79
307.39	1218.54
307.61	1331.18
307.82	1308.65
308.04	1335.28
308.25	1327.08
308.46	1175.53
308.68	1253.36
308.89	1224.69
309.10	1257.45
309.32	1337.32
309.53	1208.30
309.74	1245.16
309.96	1279.98
310.17	1267.69
310.39	1251.31
310.60	1259.50
310.81	1222.64
311.03	1249.26
311.24	1234.93
311.45	1292.27
311.67	1292.27
311.88	1314.80
312.09	1277.93
312.31	1273.84
312.52	1259.50
312.73	1275.88
312.95	1257.45
313.16	1257.45
313.37	1290.22
313.59	1277.93
313.80	1300.46
314.01	1255.40
314.23	1251.31
314.44	1306.60
314.65	1279.98
314.87	1284.08
315.08	1318.89
315.29	1196.01
315.51	1275.88
315.72	1200.11
315.93	1302.51
316.15	1224.69
316.36	1239.02
316.57	1279.98
316.79	1265.64
317.00	1263.60
317.21	1320.94
317.43	1265.64
317.64	1384.43
317.85	1255.40
318.07	1265.64
318.28	1265.64
318.49	1288.17
318.70	1308.65
318.92	1294.32
319.13	1249.26
319.34	1322.99
319.56	1282.03
319.77	1306.60
319.98	1249.26
320.20	1284.08
320.41	1312.75
320.62	1173.49
320.83	1329.13
321.05	1163.25
321.26	1259.50
321.47	1255.40
321.69	1249.26
321.90	1361.90
322.11	1214.45
322.32	1185.77
322.54	1253.36
322.75	1275.88
322.96	1345.52
323.18	1290.22
323.39	1259.50
323.60	1275.88
323.81	1302.51
324.03	1249.26
324.24	1259.50
324.45	1251.31
324.66	1288.17
324.88	1384.43
325.09	1347.56
325.30	1228.78
325.52	1288.17
325.73	1298.41
325.94	1216.49
326.15	1269.74
326.37	1345.52
326.58	1267.69
326.79	1228.78
327.00	1220.59
327.22	1333.23
327.43	1312.75
327.64	1282.03
327.85	1257.45
328.07	1292.27
328.28	1220.59
328.49	1304.56
328.70	1167.34
328.92	1222.64
329.13	1288.17
329.34	1230.83
329.55	1353.71
329.76	1290.22
329.98	1339.37
330.19	1282.03
330.40	1282.03
330.61	1343.47
330.83	1269.74
331.04	1275.88
331.25	1329.13
331.46	1228.78
331.68	1249.26
331.89	1271.79
332.10	1288.17
332.31	1304.56
332.52	1265.64
332.74	1241.07
332.95	1239.02
333.16	1261.55
333.37	1331.18
333.58	1226.73
333.80	1308.65
334.01	1249.26
334.22	1247.21
334.43	1202.16
334.64	1230.83
334.86	1267.69
335.07	1279.98
335.28	1249.26
335.49	1269.74
335.70	1277.93
335.92	1222.64
336.13	1269.74
336.34	1286.12
336.55	1232.88
336.76	1304.56
336.98	1325.04
337.19	1308.65
337.40	1284.08
337.61	1290.22
337.82	1214.45
338.04	1308.65
338.25	1288.17
338.46	1300.46
338.67	1259.50
338.88	1292.27
339.09	1300.46
339.31	1335.28
339.52	1247.21
339.73	1310.70
339.94	1320.94
340.15	1347.56
340.36	1257.45
340.58	1253.36
340.79	1292.27
341.00	1255.40
341.21	1318.89
341.42	1196.01
341.63	1282.03
341.85	1298.41
342.06	1255.40
342.27	1275.88
342.48	1191.92
342.69	1255.40
342.90	1279.98
343.12	1296.36
343.33	1210.35
343.54	1292.27
343.75	1214.45
343.96	1279.98
344.17	1292.27
344.38	1296.36
344.60	1277.93
344.81	1222.64
345.02	1220.59
345.23	1232.88
345.44	1228.78
345.65	1259.50
345.86	1279.98
346.07	1257.45
346.29	1255.40
346.50	1298.41
346.71	1243.12
346.92	1284.08
347.13	1273.84
347.34	1269.74
347.55	1304.56
347.76	1236.97
347.98	1245.16
348.19	1302.51
348.40	1230.83
348.61	1255.40
348.82	1306.60
349.03	1234.93
349.24	1320.94
349.45	1292.27
349.66	1286.12
349.88	1232.88
350.09	1255.40
350.30	1257.45
350.51	1288.17
350.72	1277.93
350.93	1263.60
351.14	1249.26
351.35	1249.26
351.56	1198.06
351.77	1320.94
351.99	1325.04
352.20	1253.36
352.41	1277.93
352.62	1234.93
352.83	1277.93
353.04	1271.79
353.25	1243.12
353.46	1259.50
353.67	1341.42
353.88	1296.36
354.09	1304.56
354.30	1310.70
354.52	1232.88
354.73	1189.87
354.94	1228.78
355.15	1320.94
355.36	1255.40
355.57	1253.36
355.78	1228.78
355.99	1273.84
356.20	1183.73
356.41	1247.21
356.62	1236.97
356.83	1228.78
357.04	1277.93
357.25	1300.46
357.46	1310.70
357.68	1249.26
357.89	1243.12
358.10	1210.35
358.31	1189.87
358.52	1216.49
358.73	1257.45
358.94	1325.04
359.15	1204.21
359.36	1302.51
359.57	1257.45
359.78	1314.80
359.99	1261.55
360.20	1247.21
360.41	1277.93
360.62	1298.41
360.83	1236.97
361.04	1243.12
361.25	1308.65
361.46	1271.79
361.67	1351.66
361.88	1216.49
362.09	1249.26
362.30	1304.56
362.51	1257.45
362.72	1273.84
362.93	1329.13
363.14	1343.47
363.35	1230.83
363.56	1286.12
363.78	1282.03
363.99	1329.13
364.20	1249.26
364.41	1296.36
364.62	1298.41
364.83	1300.46
365.04	1157.10
365.25	1310.70
365.46	1273.84
365.67	1304.56
365.88	1296.36
366.09	1298.41
366.30	1241.07
366.51	1232.88
366.72	1288.17
366.93	1345.52
367.14	1265.64
367.35	1304.56
367.56	1179.63
367.77	1275.88
367.98	1294.32
368.18	1294.32
368.39	1284.08
368.60	1226.73
368.81	1290.22
369.02	1253.36
369.23	1306.60
369.44	1306.60
369.65	1249.26
369.86	1298.41
370.07	1286.12
370.28	1298.41
370.49	1228.78
370.70	1282.03
370.91	1325.04
371.12	1241.07
371.33	1234.93
371.54	1269.74
371.75	1253.36
371.96	1216.49
372.17	1292.27
372.38	1316.84
372.59	1331.18
372.80	1230.83
373.01	1230.83
373.22	1290.22
373.43	1279.98
373.64	1279.98
373.85	1279.98
374.06	1306.60
374.26	1325.04
374.47	1228.78
374.68	1226.73
374.89	1255.40
375.10	1279.98
375.31	1296.36
375.52	1208.30
375.73	1296.36
375.94	1294.32
376.15	1189.87
376.36	1236.97
376.57	1267.69
376.78	1275.88
376.99	1181.68
377.20	1232.88
377.40	1253.36
377.61	1241.07
377.82	1275.88
378.03	1200.11
378.24	1331.18
378.45	1234.93
378.66	1286.12
378.87	1232.88
379.08	1212.40
379.29	1277.93
379.50	1312.75
379.71	1310.70
379.91	1259.50
380.12	1232.88
380.33	1310.70
380.54	1261.55
380.75	1265.64
380.96	1312.75
381.17	1247.21
381.38	1265.64
381.59	1290.22
381.80	1255.40
382.00	1224.69
382.21	1239.02
382.42	1290.22
382.63	1368.04
382.84	1243.12
383.05	1286.12
383.26	1241.07
383.47	1241.07
383.68	1271.79
383.88	1286.12
384.09	1284.08
384.30	1271.79
384.51	1271.79
384.72	1236.97
384.93	1247.21
385.14	1277.93
385.35	1304.56
385.55	1306.60
385.76	1253.36
385.97	1279.98
386.18	1259.50
386.39	1198.06
386.60	1228.78
386.81	1333.23
387.02	1243.12
387.22	1181.68
387.43	1232.88
387.64	1279.98
387.85	1325.04
388.06	1288.17
388.27	1257.45
388.48	1255.40
388.68	1314.80
388.89	1214.45
389.10	1298.41
389.31	1245.16
389.52	1241.07
389.73	1306.60
389.93	1230.83
390.14	1292.27
390.35	1349.61
390.56	1267.69
390.77	1343.47
390.98	1253.36
391.18	1271.79
391.39	1302.51
391.60	1279.98
391.81	1214.45
392.02	1226.73
392.23	1218.54
392.43	1304.56
392.64	1290.22
392.85	1368.04
393.06	1226.73
393.27	1257.45
393.47	1216.49
393.68	1271.79
393.89	1245.16
394.10	1251.31
394.31	1247.21
394.52	1288.17
394.72	1275.88
394.93	1318.89
395.14	1222.64
395.35	1177.58
395.56	1243.12
395.76	1279.98
395.97	1273.84
396.18	1316.84
396.39	1212.40
396.60	1189.87
396.80	1253.36
397.01	1271.79
397.22	1327.08
397.43	1290.22
397.64	1292.27
397.84	1243.12
398.05	1222.64
398.26	1304.56
398.47	1191.92
398.67	1304.56
398.88	1216.49
399.09	1230.83
399.30	1310.70
399.51	1333.23
399.71	1284.08
399.92	1269.74
400.13	1298.41
400.34	1310.70
400.54	1212.40
400.75	1241.07
400.96	1296.36
401.17	1294.32
401.37	1249.26
401.58	1269.74
401.79	1173.49
402.00	1357.80
402.21	1265.64
402.41	1269.74
402.62	1327.08
402.83	1198.06
403.04	1243.12
403.24	1214.45
403.45	1306.60
403.66	1236.97
403.87	1277.93
404.07	1292.27
404.28	1318.89
404.49	1275.88
404.70	1249.26
404.90	1263.60
405.11	1239.02
405.32	1288.17
405.52	1230.83
405.73	1331.18
405.94	1187.82
406.15	1253.36
406.35	1273.84
406.56	1261.55
406.77	1249.26
406.98	1300.46
407.18	1306.60
407.39	1331.18
407.60	1271.79
407.80	1304.56
408.01	1269.74
408.22	1339.37
408.43	1249.26
408.63	1275.88
408.84	1310.70
409.05	1222.64
409.25	1236.97
409.46	1341.42
409.67	1257.45
409.88	1220.59
410.08	1333.23
410.29	1208.30
410.50	1241.07
410.70	1265.64
410.91	1347.56
411.12	1257.45
411.32	1312.75
411.53	1298.41
411.74	1226.73
411.95	1271.79
412.15	1247.21
412.36	1273.84
412.57	1232.88
412.77	1298.41
412.98	1275.88
413.19	1296.36
413.39	1255.40
413.60	1249.26
413.81	1347.56
414.01	1275.88
414.22	1279.98
414.43	1288.17
414.63	1247.21
414.84	1236.97
415.05	1273.84
415.25	1230.83
415.46	1263.60
415.67	1249.26
415.87	1312.75
416.08	1275.88
416.29	1206.25
416.49	1312.75
416.70	1206.25
416.91	1271.79
417.11	1261.55
417.32	1267.69
417.53	1198.06
417.73	1290.22
417.94	1275.88
418.15	1226.73
418.35	1269.74
418.56	1200.11
418.77	1249.26
418.97	1304.56
419.18	1286.12
419.38	1241.07
419.59	1247.21
419.80	1308.65
420.00	1171.44
420.21	1282.03
420.42	1230.83
420.62	1216.49
420.83	1298.41
421.04	1222.64
421.24	1282.03
421.45	1347.56
421.65	1290.22
421.86	1304.56
422.07	1261.55
422.27	1322.99
422.48	1298.41
422.69	1288.17
422.89	1320.94
423.10	1261.55
423.30	1249.26
423.51	1239.02
423.72	1263.60
423.92	1288.17
424.13	1230.83
424.33	1314.80
424.54	1247.21
424.75	1302.51
424.95	1236.97
425.16	1247.21
425.36	1234.93
425.57	1304.56
425.78	1206.25
425.98	1279.98
426.19	1267.69
426.39	1275.88
426.60	1255.40
426.81	1232.88
427.01	1230.83
427.22	1320.94
427.42	1253.36
427.63	1322.99
427.83	1353.71
428.04	1288.17
428.25	1339.37
428.45	1259.50
428.66	1277.93
428.86	1275.88
429.07	1208.30
429.28	1261.55
429.48	1300.46
429.69	1290.22
429.89	1277.93
430.10	1267.69
430.30	1230.83
430.51	1355.76
430.71	1263.60
430.92	1290.22
431.13	1296.36
431.33	1239.02
431.54	1236.97
431.74	1253.36
431.95	1228.78
432.15	1290.22
432.36	1308.65
432.56	1247.21
432.77	1189.87
432.98	1304.56
433.18	1288.17
433.39	1275.88
433.59	1220.59
433.80	1236.97
434.00	1275.88
434.21	1206.25
434.41	1232.88
434.62	1269.74
434.82	1273.84
435.03	1304.56
435.23	1257.45
435.44	1288.17
435.64	1288.17
435.85	1239.02
436.06	1300.46
436.26	1249.26
436.47	1239.02
436.67	1296.36
436.88	1224.69
437.08	1265.64
437.29	1318.89
437.49	1284.08
437.70	1247.21
437.90	1333.23
438.11	1331.18
438.31	1265.64
438.52	1273.84
438.72	1296.36
438.93	1269.74
439.13	1310.70
439.34	1298.41
439.54	1239.02
439.75	1263.60
439.95	1273.84
440.16	1212.40
440.36	1288.17
440.57	1261.55
440.77	1284.08
440.98	1320.94
441.18	1316.84
441.39	1255.40
441.59	1267.69
441.80	1355.76
442.00	1341.42
442.21	1224.69
442.41	1294.32
442.62	1329.13
442.82	1220.59
443.02	1214.45
443.23	1351.66
443.43	1230.83
443.64	1286.12
443.84	1265.64
444.05	1355.76
444.25	1292.27
444.46	1212.40
444.66	1263.60
444.87	1318.89
445.07	1329.13
445.28	1316.84
445.48	1286.12
445.69	1302.51
445.89	1349.61
446.09	1368.04
446.30	1355.76
446.50	1288.17
446.71	1279.98
446.91	1288.17
447.12	1269.74
447.32	1241.07
447.53	1325.04
447.73	1359.85
447.93	1296.36
448.14	1357.80
448.34	1292.27
448.55	1226.73
448.75	1210.35
448.96	1337.32
449.16	1241.07
449.36	1277.93
449.57	1273.84
449.77	1320.94
449.98	1232.88
450.18	1306.60
450.39	1226.73
450.59	1220.59
450.79	1347.56
451.00	1294.32
451.20	1396.71
451.41	1327.08
451.61	1181.68
451.81	1316.84
452.02	1320.94
452.22	1290.22
452.43	1331.18
452.63	1267.69
