SpectraSuite Data File
++++++++++++++++++++++++++++++++++++
Date: Sun Apr 03 19:55:27 CEST 2016
User: root
Dark Spectrum Present: No
Reference Spectrum Present: No
Number of Sampled Component Spectra: 1
Spectrometers: USB4C02835
Integration Time (usec): 10000 (USB4C02835)
Spectra Averaged: 1 (USB4C02835)
Boxcar Smoothing: 0 (USB4C02835)
Correct for Electrical Dark: No (USB4C02835)
Strobe/Lamp Enabled: No (USB4C02835)
Correct for Detector Non-linearity: No (USB4C02835)
Correct for Stray Light: No (USB4C02835)
Number of Pixels in Processed Spectrum: 3648
>>>>>Begin Processed Spectral Data<<<<<
177.47	1271.79
177.69	1271.79
177.91	1271.79
178.13	1298.41
178.36	1314.80
178.58	1255.40
178.80	1263.60
179.02	1359.85
179.24	1267.69
179.46	1236.97
179.68	1271.79
179.90	1284.08
180.13	1255.40
180.35	1265.64
180.57	1316.84
180.79	1226.73
181.01	1214.45
181.23	1277.93
181.45	1232.88
181.67	1333.23
181.90	1300.46
182.12	1288.17
182.34	1304.56
182.56	1355.76
182.78	1284.08
183.00	1314.80
183.22	1234.93
183.44	1234.93
183.66	1302.51
183.89	1329.13
184.11	1277.93
184.33	1279.98
184.55	1286.12
184.77	1261.55
184.99	1308.65
185.21	1259.50
185.43	1298.41
185.65	1212.40
185.87	1271.79
186.10	1306.60
186.32	1253.36
186.54	1271.79
186.76	1353.71
186.98	1224.69
187.20	1243.12
187.42	1286.12
187.64	1232.88
187.86	1345.52
188.08	1314.80
188.30	1282.03
188.52	1216.49
188.75	1290.22
188.97	1282.03
189.19	1259.50
189.41	1347.56
189.63	1267.69
189.85	1322.99
190.07	1251.31
190.29	1265.64
190.51	1206.25
190.73	1230.83
190.95	1267.69
191.17	1226.73
191.39	1286.12
191.61	1247.21
191.84	1310.70
192.06	1230.83
192.28	1333.23
192.50	1263.60
192.72	1247.21
192.94	1386.47
193.16	1230.83
193.38	1267.69
193.60	1257.45
193.82	1304.56
194.04	1249.26
194.26	1222.64
194.48	1253.36
194.70	1304.56
194.92	1239.02
195.14	1228.78
195.36	1337.32
195.58	1306.60
195.80	1343.47
196.02	1288.17
196.24	1265.64
196.46	1255.40
196.69	1247.21
196.91	1273.84
197.13	1249.26
197.35	1282.03
197.57	1210.35
197.79	1257.45
198.01	1257.45
198.23	1310.70
198.45	1220.59
198.67	1255.40
198.89	1277.93
199.11	1290.22
199.33	1196.01
199.55	1234.93
199.77	1290.22
199.99	1212.40
200.21	1263.60
200.43	1251.31
200.65	1236.97
200.87	1345.52
201.09	1230.83
201.31	1263.60
201.53	1245.16
201.75	1294.32
201.97	1273.84
202.19	1249.26
202.41	1290.22
202.63	1239.02
202.85	1296.36
203.07	1279.98
203.29	1236.97
203.51	1239.02
203.73	1216.49
203.95	1251.31
204.17	1310.70
204.39	1239.02
204.61	1277.93
204.83	1220.59
205.05	1337.32
205.27	1351.66
205.49	1318.89
205.71	1273.84
205.93	1232.88
206.15	1296.36
206.37	1282.03
206.59	1249.26
206.81	1271.79
207.03	1273.84
207.25	1226.73
207.47	1304.56
207.69	1222.64
207.91	1267.69
208.13	1286.12
208.34	1249.26
208.56	1232.88
208.78	1279.98
209.00	1257.45
209.22	1288.17
209.44	1339.37
209.66	1271.79
209.88	1224.69
210.10	1187.82
210.32	1271.79
210.54	1241.07
210.76	1249.26
210.98	1359.85
211.20	1345.52
211.42	1288.17
211.64	1232.88
211.86	1306.60
212.08	1261.55
212.30	1304.56
212.52	1263.60
212.74	1236.97
212.96	1316.84
213.17	1208.30
213.39	1177.58
213.61	1241.07
213.83	1282.03
214.05	1230.83
214.27	1255.40
214.49	1304.56
214.71	1288.17
214.93	1220.59
215.15	1247.21
215.37	1261.55
215.59	1265.64
215.81	1189.87
216.03	1314.80
216.24	1296.36
216.46	1204.21
216.68	1267.69
216.90	1208.30
217.12	1243.12
217.34	1302.51
217.56	1310.70
217.78	1245.16
218.00	1294.32
218.22	1265.64
218.44	1290.22
218.66	1290.22
218.87	1331.18
219.09	1269.74
219.31	1261.55
219.53	1236.97
219.75	1265.64
219.97	1300.46
220.19	1232.88
220.41	1216.49
220.63	1249.26
220.85	1273.84
221.06	1277.93
221.28	1302.51
221.50	1226.73
221.72	1284.08
221.94	1284.08
222.16	1277.93
222.38	1267.69
222.60	1349.61
222.82	1234.93
223.03	1302.51
223.25	1339.37
223.47	1255.40
223.69	1306.60
223.91	1337.32
224.13	1196.01
224.35	1322.99
224.57	1198.06
224.78	1232.88
225.00	1288.17
225.22	1253.36
225.44	1228.78
225.66	1224.69
225.88	1239.02
226.10	1234.93
226.32	1288.17
226.53	1200.11
226.75	1255.40
226.97	1183.73
227.19	1249.26
227.41	1265.64
227.63	1212.40
227.85	1322.99
228.06	1249.26
228.28	1261.55
228.50	1187.82
228.72	1249.26
228.94	1249.26
229.16	1210.35
229.37	1290.22
229.59	1210.35
229.81	1312.75
230.03	1251.31
230.25	1253.36
230.47	1191.92
230.69	1302.51
230.90	1259.50
231.12	1296.36
231.34	1302.51
231.56	1257.45
231.78	1290.22
232.00	1318.89
232.21	1247.21
232.43	1271.79
232.65	1325.04
232.87	1222.64
233.09	1249.26
233.30	1259.50
233.52	1265.64
233.74	1302.51
233.96	1183.73
234.18	1220.59
234.40	1206.25
234.61	1286.12
234.83	1265.64
235.05	1284.08
235.27	1331.18
235.49	1312.75
235.70	1273.84
235.92	1296.36
236.14	1286.12
236.36	1306.60
236.58	1316.84
236.79	1261.55
237.01	1310.70
237.23	1187.82
237.45	1396.71
237.67	1269.74
237.88	1189.87
238.10	1306.60
238.32	1259.50
238.54	1304.56
238.76	1288.17
238.97	1181.68
239.19	1302.51
239.41	1284.08
239.63	1241.07
239.85	1171.44
240.06	1204.21
240.28	1296.36
240.50	1224.69
240.72	1236.97
240.93	1310.70
241.15	1263.60
241.37	1216.49
241.59	1198.06
241.81	1245.16
242.02	1257.45
242.24	1196.01
242.46	1263.60
242.68	1224.69
242.89	1288.17
243.11	1263.60
243.33	1269.74
243.55	1247.21
243.76	1249.26
243.98	1232.88
244.20	1234.93
244.42	1243.12
244.64	1185.77
244.85	1267.69
245.07	1249.26
245.29	1232.88
245.51	1282.03
245.72	1259.50
245.94	1232.88
246.16	1257.45
246.38	1294.32
246.59	1261.55
246.81	1286.12
247.03	1206.25
247.24	1273.84
247.46	1298.41
247.68	1255.40
247.90	1257.45
248.11	1243.12
248.33	1273.84
248.55	1284.08
248.77	1255.40
248.98	1224.69
249.20	1294.32
249.42	1226.73
249.64	1253.36
249.85	1339.37
250.07	1261.55
250.29	1265.64
250.50	1224.69
250.72	1290.22
250.94	1232.88
251.16	1284.08
251.37	1228.78
251.59	1296.36
251.81	1269.74
252.02	1310.70
252.24	1298.41
252.46	1239.02
252.68	1298.41
252.89	1249.26
253.11	1198.06
253.33	1327.08
253.54	1249.26
253.76	1290.22
253.98	1310.70
254.20	1273.84
254.41	1271.79
254.63	1343.47
254.85	1230.83
255.06	1339.37
255.28	1247.21
255.50	1273.84
255.71	1273.84
255.93	1290.22
256.15	1335.28
256.36	1249.26
256.58	1329.13
256.80	1296.36
257.02	1257.45
257.23	1310.70
257.45	1228.78
257.67	1284.08
257.88	1247.21
258.10	1265.64
258.32	1273.84
258.53	1320.94
258.75	1249.26
258.97	1273.84
259.18	1251.31
259.40	1322.99
259.62	1275.88
259.83	1241.07
260.05	1232.88
260.27	1239.02
260.48	1312.75
260.70	1275.88
260.92	1257.45
261.13	1310.70
261.35	1267.69
261.57	1279.98
261.78	1239.02
262.00	1279.98
262.22	1208.30
262.43	1306.60
262.65	1247.21
262.86	1279.98
263.08	1247.21
263.30	1257.45
263.51	1159.15
263.73	1216.49
263.95	1277.93
264.16	1249.26
264.38	1161.20
264.60	1286.12
264.81	1228.78
265.03	1255.40
265.25	1302.51
265.46	1263.60
265.68	1251.31
265.89	1257.45
266.11	1300.46
266.33	1265.64
266.54	1275.88
266.76	1255.40
266.98	1304.56
267.19	1265.64
267.41	1271.79
267.62	1265.64
267.84	1265.64
268.06	1263.60
268.27	1247.21
268.49	1265.64
268.70	1298.41
268.92	1251.31
269.14	1298.41
269.35	1277.93
269.57	1257.45
269.79	1322.99
270.00	1284.08
270.22	1300.46
270.43	1226.73
270.65	1257.45
270.87	1269.74
271.08	1329.13
271.30	1277.93
271.51	1257.45
271.73	1290.22
271.95	1273.84
272.16	1218.54
272.38	1275.88
272.59	1206.25
272.81	1296.36
273.02	1318.89
273.24	1257.45
273.46	1275.88
273.67	1269.74
273.89	1255.40
274.10	1261.55
274.32	1294.32
274.54	1247.21
274.75	1282.03
274.97	1214.45
275.18	1296.36
275.40	1210.35
275.61	1263.60
275.83	1200.11
276.05	1271.79
276.26	1255.40
276.48	1290.22
276.69	1310.70
276.91	1224.69
277.12	1247.21
277.34	1318.89
277.55	1255.40
277.77	1314.80
277.99	1320.94
278.20	1234.93
278.42	1210.35
278.63	1310.70
278.85	1253.36
279.06	1284.08
279.28	1241.07
279.49	1230.83
279.71	1265.64
279.93	1343.47
280.14	1286.12
280.36	1298.41
280.57	1275.88
280.79	1294.32
281.00	1224.69
281.22	1310.70
281.43	1273.84
281.65	1277.93
281.86	1271.79
282.08	1241.07
282.29	1312.75
282.51	1339.37
282.73	1265.64
282.94	1279.98
283.16	1183.73
283.37	1349.61
283.59	1189.87
283.80	1263.60
284.02	1247.21
284.23	1322.99
284.45	1271.79
284.66	1198.06
284.88	1239.02
285.09	1269.74
285.31	1275.88
285.52	1181.68
285.74	1288.17
285.95	1236.97
286.17	1333.23
286.38	1267.69
286.60	1204.21
286.81	1257.45
287.03	1251.31
287.24	1228.78
287.46	1245.16
287.67	1241.07
287.89	1288.17
288.10	1253.36
288.32	1333.23
288.53	1245.16
288.75	1226.73
288.96	1226.73
289.18	1249.26
289.39	1236.97
289.61	1296.36
289.82	1308.65
290.04	1241.07
290.25	1322.99
290.47	1198.06
290.68	1193.97
290.90	1269.74
291.11	1265.64
291.33	1296.36
291.54	1275.88
291.76	1228.78
291.97	1286.12
292.18	1232.88
292.40	1269.74
292.61	1288.17
292.83	1355.76
293.04	1286.12
293.26	1269.74
293.47	1230.83
293.69	1263.60
293.90	1290.22
294.12	1257.45
294.33	1343.47
294.55	1290.22
294.76	1351.66
294.97	1208.30
295.19	1312.75
295.40	1234.93
295.62	1316.84
295.83	1247.21
296.05	1251.31
296.26	1216.49
296.48	1290.22
296.69	1224.69
296.90	1263.60
297.12	1232.88
297.33	1347.56
297.55	1249.26
297.76	1232.88
297.98	1249.26
298.19	1290.22
298.41	1322.99
298.62	1298.41
298.83	1273.84
299.05	1363.95
299.26	1279.98
299.48	1269.74
299.69	1298.41
299.90	1253.36
300.12	1230.83
300.33	1198.06
300.55	1265.64
300.76	1288.17
300.98	1241.07
301.19	1261.55
301.40	1271.79
301.62	1222.64
301.83	1247.21
302.05	1294.32
302.26	1226.73
302.47	1279.98
302.69	1230.83
302.90	1263.60
303.12	1183.73
303.33	1224.69
303.54	1327.08
303.76	1273.84
303.97	1224.69
304.19	1218.54
304.40	1224.69
304.61	1273.84
304.83	1257.45
305.04	1243.12
305.26	1255.40
305.47	1273.84
305.68	1331.18
305.90	1308.65
306.11	1310.70
306.33	1388.52
306.54	1277.93
306.75	1245.16
306.97	1273.84
307.18	1284.08
307.39	1234.93
307.61	1310.70
307.82	1275.88
308.04	1284.08
308.25	1206.25
308.46	1347.56
308.68	1279.98
308.89	1200.11
309.10	1277.93
309.32	1294.32
309.53	1257.45
309.74	1214.45
309.96	1329.13
310.17	1193.97
310.39	1273.84
310.60	1314.80
310.81	1183.73
311.03	1286.12
311.24	1206.25
311.45	1357.80
311.67	1277.93
311.88	1333.23
312.09	1181.68
312.31	1318.89
312.52	1247.21
312.73	1230.83
312.95	1284.08
313.16	1343.47
313.37	1275.88
313.59	1218.54
313.80	1249.26
314.01	1282.03
314.23	1200.11
314.44	1249.26
314.65	1247.21
314.87	1232.88
315.08	1228.78
315.29	1310.70
315.51	1236.97
315.72	1259.50
315.93	1273.84
316.15	1259.50
316.36	1249.26
316.57	1304.56
316.79	1282.03
317.00	1357.80
317.21	1249.26
317.43	1308.65
317.64	1277.93
317.85	1249.26
318.07	1284.08
318.28	1245.16
318.49	1236.97
318.70	1245.16
318.92	1212.40
319.13	1284.08
319.34	1267.69
319.56	1253.36
319.77	1202.16
319.98	1292.27
320.20	1206.25
320.41	1265.64
320.62	1236.97
320.83	1316.84
321.05	1257.45
321.26	1265.64
321.47	1255.40
321.69	1255.40
321.90	1265.64
322.11	1255.40
322.32	1253.36
322.54	1239.02
322.75	1232.88
322.96	1204.21
323.18	1257.45
323.39	1269.74
323.60	1284.08
323.81	1273.84
324.03	1265.64
324.24	1286.12
324.45	1308.65
324.66	1239.02
324.88	1294.32
325.09	1335.28
325.30	1322.99
325.52	1284.08
325.73	1292.27
325.94	1325.04
326.15	1249.26
326.37	1243.12
326.58	1191.92
326.79	1314.80
327.00	1257.45
327.22	1241.07
327.43	1347.56
327.64	1279.98
327.85	1279.98
328.07	1304.56
328.28	1257.45
328.49	1179.63
328.70	1247.21
328.92	1271.79
329.13	1200.11
329.34	1247.21
329.55	1210.35
329.76	1269.74
329.98	1300.46
330.19	1288.17
330.40	1325.04
330.61	1255.40
330.83	1198.06
331.04	1296.36
331.25	1341.42
331.46	1247.21
331.68	1277.93
331.89	1294.32
332.10	1286.12
332.31	1253.36
332.52	1210.35
332.74	1241.07
332.95	1257.45
333.16	1277.93
333.37	1208.30
333.58	1277.93
333.80	1282.03
334.01	1263.60
334.22	1234.93
334.43	1314.80
334.64	1282.03
334.86	1298.41
335.07	1228.78
335.28	1327.08
335.49	1202.16
335.70	1198.06
335.92	1277.93
336.13	1279.98
336.34	1245.16
336.55	1196.01
336.76	1224.69
336.98	1261.55
337.19	1253.36
337.40	1292.27
337.61	1343.47
337.82	1306.60
338.04	1318.89
338.25	1243.12
338.46	1288.17
338.67	1327.08
338.88	1290.22
339.09	1247.21
339.31	1253.36
339.52	1269.74
339.73	1277.93
339.94	1257.45
340.15	1269.74
340.36	1253.36
340.58	1296.36
340.79	1239.02
341.00	1265.64
341.21	1239.02
341.42	1271.79
341.63	1200.11
341.85	1220.59
342.06	1298.41
342.27	1243.12
342.48	1282.03
342.69	1255.40
342.90	1282.03
343.12	1290.22
343.33	1241.07
343.54	1273.84
343.75	1277.93
343.96	1263.60
344.17	1218.54
344.38	1220.59
344.60	1298.41
344.81	1210.35
345.02	1304.56
345.23	1269.74
345.44	1286.12
345.65	1296.36
345.86	1314.80
346.07	1247.21
346.29	1279.98
346.50	1275.88
346.71	1269.74
346.92	1282.03
347.13	1351.66
347.34	1239.02
347.55	1253.36
347.76	1320.94
347.98	1212.40
348.19	1263.60
348.40	1263.60
348.61	1200.11
348.82	1257.45
349.03	1257.45
349.24	1226.73
349.45	1255.40
349.66	1296.36
349.88	1343.47
350.09	1247.21
350.30	1318.89
350.51	1265.64
350.72	1312.75
350.93	1239.02
351.14	1239.02
351.35	1255.40
351.56	1267.69
351.77	1220.59
351.99	1335.28
352.20	1251.31
352.41	1210.35
352.62	1261.55
352.83	1339.37
353.04	1351.66
353.25	1245.16
353.46	1277.93
353.67	1255.40
353.88	1241.07
354.09	1249.26
354.30	1275.88
354.52	1228.78
354.73	1275.88
354.94	1277.93
355.15	1212.40
355.36	1343.47
355.57	1282.03
355.78	1255.40
355.99	1220.59
356.20	1290.22
356.41	1284.08
356.62	1282.03
356.83	1351.66
357.04	1292.27
357.25	1183.73
357.46	1226.73
357.68	1265.64
357.89	1298.41
358.10	1282.03
358.31	1286.12
358.52	1294.32
358.73	1275.88
358.94	1275.88
359.15	1288.17
359.36	1228.78
359.57	1267.69
359.78	1259.50
359.99	1255.40
360.20	1236.97
360.41	1263.60
360.62	1286.12
360.83	1230.83
361.04	1269.74
361.25	1316.84
361.46	1232.88
361.67	1179.63
361.88	1245.16
362.09	1298.41
362.30	1241.07
362.51	1304.56
362.72	1216.49
362.93	1265.64
363.14	1241.07
363.35	1273.84
363.56	1239.02
363.78	1247.21
363.99	1239.02
364.20	1325.04
364.41	1279.98
364.62	1218.54
364.83	1310.70
365.04	1279.98
365.25	1290.22
365.46	1284.08
365.67	1298.41
365.88	1204.21
366.09	1275.88
366.30	1275.88
366.51	1318.89
366.72	1316.84
366.93	1279.98
367.14	1204.21
367.35	1298.41
367.56	1230.83
367.77	1273.84
367.98	1282.03
368.18	1261.55
368.39	1224.69
368.60	1179.63
368.81	1335.28
369.02	1255.40
369.23	1175.53
369.44	1271.79
369.65	1212.40
369.86	1255.40
370.07	1185.77
370.28	1292.27
370.49	1247.21
370.70	1236.97
370.91	1310.70
371.12	1259.50
371.33	1263.60
371.54	1247.21
371.75	1277.93
371.96	1251.31
372.17	1216.49
372.38	1279.98
372.59	1261.55
372.80	1226.73
373.01	1236.97
373.22	1218.54
373.43	1329.13
373.64	1290.22
373.85	1265.64
374.06	1226.73
374.26	1333.23
374.47	1218.54
374.68	1263.60
374.89	1304.56
375.10	1232.88
375.31	1241.07
375.52	1220.59
375.73	1230.83
375.94	1296.36
376.15	1277.93
376.36	1243.12
376.57	1298.41
376.78	1245.16
376.99	1255.40
377.20	1226.73
377.40	1298.41
377.61	1284.08
377.82	1292.27
378.03	1292.27
378.24	1212.40
378.45	1349.61
378.66	1255.40
378.87	1230.83
379.08	1284.08
379.29	1312.75
379.50	1251.31
379.71	1232.88
379.91	1284.08
380.12	1253.36
380.33	1255.40
380.54	1255.40
380.75	1277.93
380.96	1343.47
381.17	1249.26
381.38	1226.73
381.59	1263.60
381.80	1249.26
382.00	1259.50
382.21	1308.65
382.42	1259.50
382.63	1284.08
382.84	1226.73
383.05	1150.96
383.26	1282.03
383.47	1202.16
383.68	1292.27
383.88	1232.88
384.09	1202.16
384.30	1271.79
384.51	1247.21
384.72	1224.69
384.93	1310.70
385.14	1286.12
385.35	1329.13
385.55	1232.88
385.76	1251.31
385.97	1314.80
386.18	1241.07
386.39	1241.07
386.60	1345.52
386.81	1310.70
387.02	1263.60
387.22	1232.88
387.43	1247.21
387.64	1282.03
387.85	1339.37
388.06	1290.22
388.27	1286.12
388.48	1312.75
388.68	1261.55
388.89	1265.64
389.10	1243.12
389.31	1298.41
389.52	1257.45
389.73	1257.45
389.93	1189.87
390.14	1351.66
390.35	1304.56
390.56	1271.79
390.77	1208.30
390.98	1218.54
391.18	1241.07
391.39	1234.93
391.60	1232.88
391.81	1308.65
392.02	1226.73
392.23	1249.26
392.43	1343.47
392.64	1288.17
392.85	1273.84
393.06	1325.04
393.27	1251.31
393.47	1267.69
393.68	1261.55
393.89	1212.40
394.10	1277.93
394.31	1234.93
394.52	1214.45
394.72	1218.54
394.93	1279.98
395.14	1259.50
395.35	1265.64
395.56	1245.16
395.76	1277.93
395.97	1296.36
396.18	1314.80
396.39	1263.60
396.60	1372.14
396.80	1316.84
397.01	1296.36
397.22	1234.93
397.43	1212.40
397.64	1146.86
397.84	1269.74
398.05	1267.69
398.26	1292.27
398.47	1257.45
398.67	1279.98
398.88	1255.40
399.09	1288.17
399.30	1347.56
399.51	1282.03
399.71	1241.07
399.92	1259.50
400.13	1298.41
400.34	1312.75
400.54	1202.16
400.75	1290.22
400.96	1294.32
401.17	1228.78
401.37	1298.41
401.58	1306.60
401.79	1275.88
402.00	1249.26
402.21	1308.65
402.41	1277.93
402.62	1335.28
402.83	1366.00
403.04	1142.77
403.24	1339.37
403.45	1374.19
403.66	1265.64
403.87	1255.40
404.07	1353.71
404.28	1241.07
404.49	1187.82
404.70	1220.59
404.90	1333.23
405.11	1243.12
405.32	1236.97
405.52	1216.49
405.73	1251.31
405.94	1284.08
406.15	1222.64
406.35	1296.36
406.56	1263.60
406.77	1249.26
406.98	1273.84
407.18	1298.41
407.39	1263.60
407.60	1290.22
407.80	1271.79
408.01	1290.22
408.22	1290.22
408.43	1335.28
408.63	1294.32
408.84	1255.40
409.05	1290.22
409.25	1282.03
409.46	1257.45
409.67	1320.94
409.88	1220.59
410.08	1263.60
410.29	1243.12
410.50	1261.55
410.70	1193.97
410.91	1259.50
411.12	1208.30
411.32	1294.32
411.53	1312.75
411.74	1247.21
411.95	1331.18
412.15	1255.40
412.36	1263.60
412.57	1273.84
412.77	1245.16
412.98	1245.16
413.19	1271.79
413.39	1298.41
413.60	1314.80
413.81	1228.78
414.01	1296.36
414.22	1249.26
414.43	1232.88
414.63	1265.64
414.84	1271.79
415.05	1269.74
415.25	1296.36
415.46	1206.25
415.67	1245.16
415.87	1224.69
416.08	1286.12
416.29	1314.80
416.49	1302.51
416.70	1259.50
416.91	1222.64
417.11	1345.52
417.32	1226.73
417.53	1234.93
417.73	1273.84
417.94	1230.83
418.15	1198.06
418.35	1210.35
418.56	1282.03
418.77	1290.22
418.97	1263.60
419.18	1191.92
419.38	1232.88
419.59	1249.26
419.80	1208.30
420.00	1226.73
420.21	1214.45
420.42	1259.50
420.62	1302.51
420.83	1337.32
421.04	1290.22
421.24	1304.56
421.45	1245.16
421.65	1304.56
421.86	1306.60
422.07	1306.60
422.27	1251.31
422.48	1273.84
422.69	1245.16
422.89	1286.12
423.10	1259.50
423.30	1230.83
423.51	1249.26
423.72	1304.56
423.92	1265.64
424.13	1245.16
424.33	1214.45
424.54	1253.36
424.75	1267.69
424.95	1322.99
425.16	1208.30
425.36	1314.80
425.57	1298.41
425.78	1257.45
425.98	1198.06
426.19	1257.45
426.39	1298.41
426.60	1277.93
426.81	1261.55
427.01	1267.69
427.22	1288.17
427.42	1228.78
427.63	1292.27
427.83	1269.74
428.04	1212.40
428.25	1216.49
428.45	1288.17
428.66	1271.79
428.86	1312.75
429.07	1249.26
429.28	1230.83
429.48	1275.88
429.69	1308.65
429.89	1200.11
430.10	1255.40
430.30	1277.93
430.51	1288.17
430.71	1320.94
430.92	1202.16
431.13	1232.88
431.33	1236.97
431.54	1241.07
431.74	1267.69
431.95	1304.56
432.15	1245.16
432.36	1224.69
432.56	1267.69
432.77	1279.98
432.98	1316.84
433.18	1257.45
433.39	1265.64
433.59	1253.36
433.80	1347.56
434.00	1282.03
434.21	1290.22
434.41	1216.49
434.62	1265.64
434.82	1310.70
435.03	1284.08
435.23	1335.28
435.44	1263.60
435.64	1263.60
435.85	1271.79
436.06	1314.80
436.26	1241.07
436.47	1372.14
436.67	1189.87
436.88	1284.08
437.08	1257.45
437.29	1265.64
437.49	1239.02
437.70	1263.60
437.90	1308.65
438.11	1265.64
438.31	1173.49
438.52	1292.27
438.72	1292.27
438.93	1279.98
439.13	1277.93
439.34	1232.88
439.54	1271.79
439.75	1284.08
439.95	1214.45
440.16	1267.69
440.36	1304.56
440.57	1302.51
440.77	1290.22
440.98	1275.88
441.18	1249.26
441.39	1243.12
441.59	1300.46
441.80	1245.16
442.00	1236.97
442.21	1345.52
442.41	1286.12
442.62	1255.40
442.82	1284.08
443.02	1249.26
443.23	1304.56
443.43	1259.50
443.64	1349.61
443.84	1314.80
444.05	1275.88
444.25	1296.36
444.46	1261.55
444.66	1314.80
444.87	1296.36
445.07	1241.07
445.28	1251.31
445.48	1181.68
445.69	1292.27
445.89	1257.45
446.09	1341.42
446.30	1294.32
446.50	1228.78
446.71	1200.11
446.91	1263.60
447.12	1230.83
447.32	1331.18
447.53	1284.08
447.73	1322.99
447.93	1312.75
448.14	1265.64
448.34	1294.32
448.55	1296.36
448.75	1261.55
448.96	1288.17
449.16	1286.12
449.36	1314.80
449.57	1292.27
449.77	1376.24
449.98	1253.36
450.18	1249.26
450.39	1298.41
450.59	1288.17
450.79	1298.41
451.00	1294.32
451.20	1247.21
451.41	1312.75
451.61	1245.16
451.81	1312.75
452.02	1353.71
452.22	1224.69
452.43	1263.60
452.63	1269.74
