SpectraSuite Data File
++++++++++++++++++++++++++++++++++++
Date: Sun Apr 03 19:55:15 CEST 2016
User: root
Dark Spectrum Present: No
Reference Spectrum Present: No
Number of Sampled Component Spectra: 1
Spectrometers: USB4C02835
Integration Time (usec): 10000 (USB4C02835)
Spectra Averaged: 1 (USB4C02835)
Boxcar Smoothing: 0 (USB4C02835)
Correct for Electrical Dark: No (USB4C02835)
Strobe/Lamp Enabled: No (USB4C02835)
Correct for Detector Non-linearity: No (USB4C02835)
Correct for Stray Light: No (USB4C02835)
Number of Pixels in Processed Spectrum: 3648
>>>>>Begin Processed Spectral Data<<<<<
177.47	1306.60
177.69	1306.60
177.91	1306.60
178.13	1249.26
178.36	1236.97
178.58	1239.02
178.80	1259.50
179.02	1226.73
179.24	1247.21
179.46	1257.45
179.68	1286.12
179.90	1230.83
180.13	1271.79
180.35	1249.26
180.57	1339.37
180.79	1275.88
181.01	1263.60
181.23	1308.65
181.45	1257.45
181.67	1273.84
181.90	1292.27
182.12	1300.46
182.34	1296.36
182.56	1322.99
182.78	1292.27
183.00	1300.46
183.22	1241.07
183.44	1286.12
183.66	1263.60
183.89	1239.02
184.11	1255.40
184.33	1294.32
184.55	1222.64
184.77	1239.02
184.99	1312.75
185.21	1249.26
185.43	1249.26
185.65	1308.65
185.87	1239.02
186.10	1284.08
186.32	1314.80
186.54	1243.12
186.76	1331.18
186.98	1277.93
187.20	1257.45
187.42	1273.84
187.64	1306.60
187.86	1257.45
188.08	1286.12
188.30	1216.49
188.52	1222.64
188.75	1216.49
188.97	1226.73
189.19	1296.36
189.41	1318.89
189.63	1267.69
189.85	1282.03
190.07	1198.06
190.29	1239.02
190.51	1230.83
190.73	1329.13
190.95	1253.36
191.17	1279.98
191.39	1314.80
191.61	1298.41
191.84	1261.55
192.06	1353.71
192.28	1255.40
192.50	1306.60
192.72	1284.08
192.94	1257.45
193.16	1275.88
193.38	1290.22
193.60	1259.50
193.82	1241.07
194.04	1355.76
194.26	1275.88
194.48	1239.02
194.70	1208.30
194.92	1271.79
195.14	1282.03
195.36	1300.46
195.58	1257.45
195.80	1236.97
196.02	1189.87
196.24	1271.79
196.46	1245.16
196.69	1347.56
196.91	1259.50
197.13	1255.40
197.35	1245.16
197.57	1302.51
197.79	1251.31
198.01	1255.40
198.23	1251.31
198.45	1290.22
198.67	1279.98
198.89	1292.27
199.11	1245.16
199.33	1232.88
199.55	1255.40
199.77	1232.88
199.99	1271.79
200.21	1275.88
200.43	1331.18
200.65	1263.60
200.87	1189.87
201.09	1265.64
201.31	1284.08
201.53	1210.35
201.75	1241.07
201.97	1232.88
202.19	1241.07
202.41	1296.36
202.63	1327.08
202.85	1255.40
203.07	1277.93
203.29	1241.07
203.51	1308.65
203.73	1255.40
203.95	1314.80
204.17	1277.93
204.39	1234.93
204.61	1259.50
204.83	1286.12
205.05	1265.64
205.27	1306.60
205.49	1267.69
205.71	1175.53
205.93	1187.82
206.15	1267.69
206.37	1298.41
206.59	1300.46
206.81	1302.51
207.03	1255.40
207.25	1265.64
207.47	1265.64
207.69	1355.76
207.91	1316.84
208.13	1279.98
208.34	1222.64
208.56	1202.16
208.78	1253.36
209.00	1257.45
209.22	1302.51
209.44	1273.84
209.66	1236.97
209.88	1226.73
210.10	1327.08
210.32	1247.21
210.54	1220.59
210.76	1232.88
210.98	1251.31
211.20	1253.36
211.42	1257.45
211.64	1175.53
211.86	1368.04
212.08	1279.98
212.30	1234.93
212.52	1282.03
212.74	1290.22
212.96	1253.36
213.17	1257.45
213.39	1261.55
213.61	1236.97
213.83	1318.89
214.05	1253.36
214.27	1214.45
214.49	1273.84
214.71	1259.50
214.93	1372.14
215.15	1273.84
215.37	1204.21
215.59	1282.03
215.81	1257.45
216.03	1261.55
216.24	1284.08
216.46	1253.36
216.68	1320.94
216.90	1251.31
217.12	1284.08
217.34	1206.25
217.56	1224.69
217.78	1239.02
218.00	1234.93
218.22	1271.79
218.44	1284.08
218.66	1234.93
218.87	1251.31
219.09	1239.02
219.31	1282.03
219.53	1277.93
219.75	1265.64
219.97	1251.31
220.19	1312.75
220.41	1196.01
220.63	1292.27
220.85	1351.66
221.06	1230.83
221.28	1234.93
221.50	1230.83
221.72	1310.70
221.94	1241.07
222.16	1245.16
222.38	1255.40
222.60	1232.88
222.82	1271.79
223.03	1224.69
223.25	1271.79
223.47	1294.32
223.69	1198.06
223.91	1275.88
224.13	1306.60
224.35	1286.12
224.57	1331.18
224.78	1220.59
225.00	1288.17
225.22	1230.83
225.44	1253.36
225.66	1247.21
225.88	1294.32
226.10	1306.60
226.32	1308.65
226.53	1376.24
226.75	1271.79
226.97	1298.41
227.19	1241.07
227.41	1226.73
227.63	1253.36
227.85	1312.75
228.06	1191.92
228.28	1234.93
228.50	1265.64
228.72	1212.40
228.94	1312.75
229.16	1288.17
229.37	1257.45
229.59	1282.03
229.81	1290.22
230.03	1275.88
230.25	1263.60
230.47	1306.60
230.69	1245.16
230.90	1263.60
231.12	1239.02
231.34	1243.12
231.56	1267.69
231.78	1243.12
232.00	1239.02
232.21	1196.01
232.43	1363.95
232.65	1279.98
232.87	1288.17
233.09	1277.93
233.30	1286.12
233.52	1271.79
233.74	1279.98
233.96	1220.59
234.18	1271.79
234.40	1331.18
234.61	1306.60
234.83	1230.83
235.05	1290.22
235.27	1241.07
235.49	1300.46
235.70	1232.88
235.92	1269.74
236.14	1255.40
236.36	1239.02
236.58	1290.22
236.79	1282.03
237.01	1263.60
237.23	1306.60
237.45	1275.88
237.67	1273.84
237.88	1251.31
238.10	1263.60
238.32	1263.60
238.54	1284.08
238.76	1267.69
238.97	1298.41
239.19	1282.03
239.41	1228.78
239.63	1189.87
239.85	1390.57
240.06	1296.36
240.28	1300.46
240.50	1306.60
240.72	1224.69
240.93	1304.56
241.15	1249.26
241.37	1259.50
241.59	1288.17
241.81	1255.40
242.02	1296.36
242.24	1241.07
242.46	1327.08
242.68	1265.64
242.89	1273.84
243.11	1292.27
243.33	1304.56
243.55	1230.83
243.76	1241.07
243.98	1263.60
244.20	1257.45
244.42	1290.22
244.64	1284.08
244.85	1234.93
245.07	1239.02
245.29	1284.08
245.51	1284.08
245.72	1249.26
245.94	1216.49
246.16	1232.88
246.38	1282.03
246.59	1236.97
246.81	1314.80
247.03	1212.40
247.24	1306.60
247.46	1265.64
247.68	1253.36
247.90	1228.78
248.11	1273.84
248.33	1282.03
248.55	1273.84
248.77	1175.53
248.98	1275.88
249.20	1320.94
249.42	1361.90
249.64	1282.03
249.85	1277.93
250.07	1243.12
250.29	1259.50
250.50	1314.80
250.72	1224.69
250.94	1243.12
251.16	1222.64
251.37	1284.08
251.59	1247.21
251.81	1228.78
252.02	1181.68
252.24	1251.31
252.46	1263.60
252.68	1245.16
252.89	1286.12
253.11	1318.89
253.33	1304.56
253.54	1322.99
253.76	1232.88
253.98	1236.97
254.20	1318.89
254.41	1206.25
254.63	1331.18
254.85	1308.65
255.06	1228.78
255.28	1298.41
255.50	1277.93
255.71	1282.03
255.93	1294.32
256.15	1284.08
256.36	1259.50
256.58	1222.64
256.80	1222.64
257.02	1318.89
257.23	1259.50
257.45	1286.12
257.67	1241.07
257.88	1304.56
258.10	1353.71
258.32	1224.69
258.53	1271.79
258.75	1341.42
258.97	1271.79
259.18	1279.98
259.40	1257.45
259.62	1298.41
259.83	1247.21
260.05	1275.88
260.27	1327.08
260.48	1310.70
260.70	1296.36
260.92	1259.50
261.13	1304.56
261.35	1243.12
261.57	1222.64
261.78	1251.31
262.00	1279.98
262.22	1234.93
262.43	1286.12
262.65	1288.17
262.86	1275.88
263.08	1296.36
263.30	1306.60
263.51	1279.98
263.73	1265.64
263.95	1304.56
264.16	1345.52
264.38	1275.88
264.60	1288.17
264.81	1255.40
265.03	1282.03
265.25	1253.36
265.46	1294.32
265.68	1257.45
265.89	1298.41
266.11	1257.45
266.33	1316.84
266.54	1275.88
266.76	1275.88
266.98	1249.26
267.19	1353.71
267.41	1226.73
267.62	1261.55
267.84	1325.04
268.06	1339.37
268.27	1263.60
268.49	1284.08
268.70	1253.36
268.92	1296.36
269.14	1273.84
269.35	1204.21
269.57	1204.21
269.79	1210.35
270.00	1263.60
270.22	1312.75
270.43	1288.17
270.65	1253.36
270.87	1275.88
271.08	1290.22
271.30	1228.78
271.51	1210.35
271.73	1286.12
271.95	1239.02
272.16	1212.40
272.38	1277.93
272.59	1251.31
272.81	1245.16
273.02	1232.88
273.24	1206.25
273.46	1241.07
273.67	1269.74
273.89	1222.64
274.10	1304.56
274.32	1282.03
274.54	1245.16
274.75	1259.50
274.97	1345.52
275.18	1306.60
275.40	1279.98
275.61	1261.55
275.83	1271.79
276.05	1243.12
276.26	1245.16
276.48	1298.41
276.69	1294.32
276.91	1239.02
277.12	1218.54
277.34	1284.08
277.55	1253.36
277.77	1222.64
277.99	1294.32
278.20	1261.55
278.42	1288.17
278.63	1273.84
278.85	1320.94
279.06	1298.41
279.28	1257.45
279.49	1185.77
279.71	1306.60
279.93	1337.32
280.14	1259.50
280.36	1255.40
280.57	1273.84
280.79	1247.21
281.00	1312.75
281.22	1284.08
281.43	1218.54
281.65	1306.60
281.86	1265.64
282.08	1269.74
282.29	1296.36
282.51	1298.41
282.73	1259.50
282.94	1181.68
283.16	1253.36
283.37	1232.88
283.59	1234.93
283.80	1234.93
284.02	1259.50
284.23	1286.12
284.45	1179.63
284.66	1222.64
284.88	1230.83
285.09	1279.98
285.31	1253.36
285.52	1257.45
285.74	1275.88
285.95	1196.01
286.17	1230.83
286.38	1257.45
286.60	1306.60
286.81	1245.16
287.03	1300.46
287.24	1253.36
287.46	1273.84
287.67	1292.27
287.89	1228.78
288.10	1202.16
288.32	1290.22
288.53	1241.07
288.75	1290.22
288.96	1298.41
289.18	1275.88
289.39	1243.12
289.61	1282.03
289.82	1228.78
290.04	1243.12
290.25	1216.49
290.47	1294.32
290.68	1255.40
290.90	1257.45
291.11	1308.65
291.33	1294.32
291.54	1327.08
291.76	1277.93
291.97	1279.98
292.18	1302.51
292.40	1243.12
292.61	1228.78
292.83	1218.54
293.04	1261.55
293.26	1249.26
293.47	1189.87
293.69	1247.21
293.90	1243.12
294.12	1247.21
294.33	1292.27
294.55	1277.93
294.76	1257.45
294.97	1263.60
295.19	1339.37
295.40	1265.64
295.62	1298.41
295.83	1245.16
296.05	1171.44
296.26	1290.22
296.48	1282.03
296.69	1249.26
296.90	1255.40
297.12	1255.40
297.33	1277.93
297.55	1234.93
297.76	1261.55
297.98	1327.08
298.19	1243.12
298.41	1269.74
298.62	1263.60
298.83	1243.12
299.05	1232.88
299.26	1279.98
299.48	1337.32
299.69	1308.65
299.90	1292.27
300.12	1220.59
300.33	1296.36
300.55	1220.59
300.76	1296.36
300.98	1292.27
301.19	1210.35
301.40	1316.84
301.62	1345.52
301.83	1310.70
302.05	1257.45
302.26	1263.60
302.47	1302.51
302.69	1265.64
302.90	1279.98
303.12	1318.89
303.33	1218.54
303.54	1294.32
303.76	1253.36
303.97	1355.76
304.19	1263.60
304.40	1265.64
304.61	1277.93
304.83	1329.13
305.04	1306.60
305.26	1300.46
305.47	1212.40
305.68	1226.73
305.90	1306.60
306.11	1273.84
306.33	1341.42
306.54	1228.78
306.75	1257.45
306.97	1284.08
307.18	1236.97
307.39	1322.99
307.61	1355.76
307.82	1255.40
308.04	1304.56
308.25	1300.46
308.46	1271.79
308.68	1255.40
308.89	1292.27
309.10	1298.41
309.32	1222.64
309.53	1261.55
309.74	1232.88
309.96	1284.08
310.17	1292.27
310.39	1232.88
310.60	1318.89
310.81	1275.88
311.03	1279.98
311.24	1273.84
311.45	1331.18
311.67	1304.56
311.88	1247.21
312.09	1232.88
312.31	1249.26
312.52	1204.21
312.73	1257.45
312.95	1249.26
313.16	1286.12
313.37	1302.51
313.59	1302.51
313.80	1271.79
314.01	1261.55
314.23	1322.99
314.44	1185.77
314.65	1333.23
314.87	1206.25
315.08	1331.18
315.29	1230.83
315.51	1241.07
315.72	1269.74
315.93	1300.46
316.15	1310.70
316.36	1296.36
316.57	1253.36
316.79	1288.17
317.00	1236.97
317.21	1294.32
317.43	1290.22
317.64	1286.12
317.85	1279.98
318.07	1191.92
318.28	1259.50
318.49	1249.26
318.70	1333.23
318.92	1322.99
319.13	1212.40
319.34	1259.50
319.56	1269.74
319.77	1333.23
319.98	1255.40
320.20	1255.40
320.41	1245.16
320.62	1331.18
320.83	1267.69
321.05	1282.03
321.26	1302.51
321.47	1259.50
321.69	1298.41
321.90	1198.06
322.11	1296.36
322.32	1288.17
322.54	1241.07
322.75	1343.47
322.96	1288.17
323.18	1259.50
323.39	1257.45
323.60	1259.50
323.81	1282.03
324.03	1318.89
324.24	1316.84
324.45	1333.23
324.66	1255.40
324.88	1245.16
325.09	1302.51
325.30	1251.31
325.52	1243.12
325.73	1257.45
325.94	1224.69
326.15	1261.55
326.37	1302.51
326.58	1232.88
326.79	1292.27
327.00	1212.40
327.22	1271.79
327.43	1243.12
327.64	1173.49
327.85	1306.60
328.07	1232.88
328.28	1386.47
328.49	1232.88
328.70	1277.93
328.92	1265.64
329.13	1290.22
329.34	1308.65
329.55	1286.12
329.76	1284.08
329.98	1282.03
330.19	1322.99
330.40	1298.41
330.61	1304.56
330.83	1277.93
331.04	1212.40
331.25	1273.84
331.46	1298.41
331.68	1189.87
331.89	1232.88
332.10	1306.60
332.31	1265.64
332.52	1226.73
332.74	1239.02
332.95	1329.13
333.16	1306.60
333.37	1310.70
333.58	1322.99
333.80	1196.01
334.01	1224.69
334.22	1312.75
334.43	1273.84
334.64	1234.93
334.86	1261.55
335.07	1335.28
335.28	1200.11
335.49	1255.40
335.70	1255.40
335.92	1308.65
336.13	1263.60
336.34	1245.16
336.55	1308.65
336.76	1263.60
336.98	1296.36
337.19	1273.84
337.40	1173.49
337.61	1249.26
337.82	1277.93
338.04	1263.60
338.25	1208.30
338.46	1288.17
338.67	1351.66
338.88	1333.23
339.09	1314.80
339.31	1253.36
339.52	1300.46
339.73	1177.58
339.94	1290.22
340.15	1249.26
340.36	1310.70
340.58	1298.41
340.79	1282.03
341.00	1329.13
341.21	1271.79
341.42	1163.25
341.63	1247.21
341.85	1325.04
342.06	1279.98
342.27	1312.75
342.48	1296.36
342.69	1300.46
342.90	1226.73
343.12	1294.32
343.33	1265.64
343.54	1247.21
343.75	1239.02
343.96	1294.32
344.17	1216.49
344.38	1236.97
344.60	1265.64
344.81	1271.79
345.02	1322.99
345.23	1253.36
345.44	1292.27
345.65	1249.26
345.86	1263.60
346.07	1310.70
346.29	1290.22
346.50	1335.28
346.71	1298.41
346.92	1245.16
347.13	1245.16
347.34	1226.73
347.55	1314.80
347.76	1230.83
347.98	1257.45
348.19	1243.12
348.40	1269.74
348.61	1245.16
348.82	1232.88
349.03	1234.93
349.24	1251.31
349.45	1306.60
349.66	1196.01
349.88	1314.80
350.09	1255.40
350.30	1265.64
350.51	1273.84
350.72	1259.50
350.93	1308.65
351.14	1218.54
351.35	1282.03
351.56	1243.12
351.77	1267.69
351.99	1271.79
352.20	1167.34
352.41	1300.46
352.62	1314.80
352.83	1284.08
353.04	1277.93
353.25	1214.45
353.46	1298.41
353.67	1277.93
353.88	1255.40
354.09	1294.32
354.30	1257.45
354.52	1294.32
354.73	1296.36
354.94	1314.80
355.15	1218.54
355.36	1314.80
355.57	1290.22
355.78	1198.06
355.99	1239.02
356.20	1249.26
356.41	1224.69
356.62	1282.03
356.83	1245.16
357.04	1239.02
357.25	1249.26
357.46	1239.02
357.68	1298.41
357.89	1288.17
358.10	1245.16
358.31	1255.40
358.52	1304.56
358.73	1294.32
358.94	1296.36
359.15	1245.16
359.36	1204.21
359.57	1259.50
359.78	1200.11
359.99	1302.51
360.20	1325.04
360.41	1288.17
360.62	1175.53
360.83	1374.19
361.04	1263.60
361.25	1245.16
361.46	1341.42
361.67	1241.07
361.88	1271.79
362.09	1304.56
362.30	1290.22
362.51	1249.26
362.72	1298.41
362.93	1296.36
363.14	1318.89
363.35	1290.22
363.56	1214.45
363.78	1286.12
363.99	1187.82
364.20	1234.93
364.41	1265.64
364.62	1286.12
364.83	1265.64
365.04	1302.51
365.25	1284.08
365.46	1259.50
365.67	1302.51
365.88	1218.54
366.09	1249.26
366.30	1349.61
366.51	1320.94
366.72	1234.93
366.93	1327.08
367.14	1288.17
367.35	1202.16
367.56	1249.26
367.77	1239.02
367.98	1257.45
368.18	1241.07
368.39	1232.88
368.60	1257.45
368.81	1259.50
369.02	1247.21
369.23	1198.06
369.44	1368.04
369.65	1224.69
369.86	1263.60
370.07	1224.69
370.28	1253.36
370.49	1329.13
370.70	1206.25
370.91	1265.64
371.12	1200.11
371.33	1216.49
371.54	1271.79
371.75	1284.08
371.96	1228.78
372.17	1290.22
372.38	1318.89
372.59	1222.64
372.80	1294.32
373.01	1222.64
373.22	1306.60
373.43	1306.60
373.64	1302.51
373.85	1271.79
374.06	1282.03
374.26	1191.92
374.47	1236.97
374.68	1282.03
374.89	1331.18
375.10	1279.98
375.31	1292.27
375.52	1232.88
375.73	1298.41
375.94	1232.88
376.15	1245.16
376.36	1263.60
376.57	1214.45
376.78	1257.45
376.99	1286.12
377.20	1284.08
377.40	1263.60
377.61	1292.27
377.82	1265.64
378.03	1239.02
378.24	1300.46
378.45	1355.76
378.66	1204.21
378.87	1261.55
379.08	1259.50
379.29	1247.21
379.50	1284.08
379.71	1234.93
379.91	1198.06
380.12	1316.84
380.33	1249.26
380.54	1279.98
380.75	1249.26
380.96	1304.56
381.17	1249.26
381.38	1220.59
381.59	1265.64
381.80	1241.07
382.00	1271.79
382.21	1257.45
382.42	1288.17
382.63	1296.36
382.84	1263.60
383.05	1273.84
383.26	1290.22
383.47	1288.17
383.68	1271.79
383.88	1206.25
384.09	1212.40
384.30	1292.27
384.51	1259.50
384.72	1273.84
384.93	1265.64
385.14	1298.41
385.35	1284.08
385.55	1271.79
385.76	1228.78
385.97	1253.36
386.18	1249.26
386.39	1314.80
386.60	1335.28
386.81	1224.69
387.02	1282.03
387.22	1263.60
387.43	1239.02
387.64	1245.16
387.85	1294.32
388.06	1296.36
388.27	1290.22
388.48	1279.98
388.68	1325.04
388.89	1298.41
389.10	1222.64
389.31	1284.08
389.52	1304.56
389.73	1259.50
389.93	1286.12
390.14	1265.64
390.35	1294.32
390.56	1316.84
390.77	1214.45
390.98	1239.02
391.18	1333.23
391.39	1333.23
391.60	1200.11
391.81	1286.12
392.02	1187.82
392.23	1284.08
392.43	1271.79
392.64	1312.75
392.85	1304.56
393.06	1179.63
393.27	1304.56
393.47	1245.16
393.68	1239.02
393.89	1234.93
394.10	1310.70
394.31	1310.70
394.52	1290.22
394.72	1259.50
394.93	1208.30
395.14	1343.47
395.35	1261.55
395.56	1273.84
395.76	1210.35
395.97	1275.88
396.18	1318.89
396.39	1216.49
396.60	1265.64
396.80	1269.74
397.01	1318.89
397.22	1331.18
397.43	1282.03
397.64	1282.03
397.84	1255.40
398.05	1304.56
398.26	1306.60
398.47	1220.59
398.67	1208.30
398.88	1267.69
399.09	1320.94
399.30	1232.88
399.51	1310.70
399.71	1167.34
399.92	1245.16
400.13	1302.51
400.34	1273.84
400.54	1214.45
400.75	1284.08
400.96	1245.16
401.17	1290.22
401.37	1312.75
401.58	1314.80
401.79	1296.36
402.00	1292.27
402.21	1261.55
402.41	1273.84
402.62	1259.50
402.83	1249.26
403.04	1269.74
403.24	1163.25
403.45	1216.49
403.66	1320.94
403.87	1208.30
404.07	1253.36
404.28	1222.64
404.49	1314.80
404.70	1255.40
404.90	1247.21
405.11	1236.97
405.32	1341.42
405.52	1216.49
405.73	1337.32
405.94	1263.60
406.15	1255.40
406.35	1228.78
406.56	1310.70
406.77	1304.56
406.98	1320.94
407.18	1271.79
407.39	1275.88
407.60	1286.12
407.80	1261.55
408.01	1316.84
408.22	1243.12
408.43	1277.93
408.63	1216.49
408.84	1277.93
409.05	1208.30
409.25	1292.27
409.46	1232.88
409.67	1222.64
409.88	1300.46
410.08	1232.88
410.29	1251.31
410.50	1263.60
410.70	1216.49
410.91	1318.89
411.12	1253.36
411.32	1279.98
411.53	1265.64
411.74	1316.84
411.95	1275.88
412.15	1261.55
412.36	1245.16
412.57	1265.64
412.77	1304.56
412.98	1253.36
413.19	1253.36
413.39	1306.60
413.60	1366.00
413.81	1232.88
414.01	1273.84
414.22	1267.69
414.43	1300.46
414.63	1232.88
414.84	1331.18
415.05	1277.93
415.25	1228.78
415.46	1220.59
415.67	1288.17
415.87	1337.32
416.08	1290.22
416.29	1202.16
416.49	1335.28
416.70	1322.99
416.91	1302.51
417.11	1245.16
417.32	1259.50
417.53	1259.50
417.73	1267.69
417.94	1267.69
418.15	1320.94
418.35	1269.74
418.56	1257.45
418.77	1218.54
418.97	1275.88
419.18	1339.37
419.38	1298.41
419.59	1202.16
419.80	1341.42
420.00	1214.45
420.21	1261.55
420.42	1167.34
420.62	1275.88
420.83	1198.06
421.04	1372.14
421.24	1284.08
421.45	1236.97
421.65	1284.08
421.86	1232.88
422.07	1302.51
422.27	1300.46
422.48	1226.73
422.69	1304.56
422.89	1343.47
423.10	1277.93
423.30	1296.36
423.51	1208.30
423.72	1263.60
423.92	1265.64
424.13	1310.70
424.33	1228.78
424.54	1265.64
424.75	1212.40
424.95	1249.26
425.16	1306.60
425.36	1212.40
425.57	1183.73
425.78	1284.08
425.98	1271.79
426.19	1302.51
426.39	1259.50
426.60	1183.73
426.81	1247.21
427.01	1253.36
427.22	1245.16
427.42	1257.45
427.63	1271.79
427.83	1251.31
428.04	1259.50
428.25	1347.56
428.45	1296.36
428.66	1257.45
428.86	1208.30
429.07	1277.93
429.28	1292.27
429.48	1290.22
429.69	1372.14
429.89	1196.01
430.10	1247.21
430.30	1314.80
430.51	1329.13
430.71	1327.08
430.92	1296.36
431.13	1284.08
431.33	1208.30
431.54	1310.70
431.74	1236.97
431.95	1271.79
432.15	1271.79
432.36	1222.64
432.56	1257.45
432.77	1269.74
432.98	1208.30
433.18	1204.21
433.39	1243.12
433.59	1298.41
433.80	1306.60
434.00	1282.03
434.21	1265.64
434.41	1267.69
434.62	1304.56
434.82	1183.73
435.03	1288.17
435.23	1308.65
435.44	1259.50
435.64	1279.98
435.85	1277.93
436.06	1245.16
436.26	1372.14
436.47	1265.64
436.67	1304.56
436.88	1302.51
437.08	1288.17
437.29	1298.41
437.49	1339.37
437.70	1222.64
437.90	1241.07
438.11	1239.02
438.31	1372.14
438.52	1288.17
438.72	1292.27
438.93	1265.64
439.13	1241.07
439.34	1304.56
439.54	1322.99
439.75	1265.64
439.95	1279.98
440.16	1279.98
440.36	1206.25
440.57	1316.84
440.77	1310.70
440.98	1284.08
441.18	1339.37
441.39	1257.45
441.59	1263.60
441.80	1288.17
442.00	1279.98
442.21	1220.59
442.41	1279.98
442.62	1325.04
442.82	1277.93
443.02	1320.94
443.23	1337.32
443.43	1263.60
443.64	1314.80
443.84	1308.65
444.05	1314.80
444.25	1277.93
444.46	1277.93
444.66	1316.84
444.87	1288.17
445.07	1245.16
445.28	1355.76
445.48	1263.60
445.69	1290.22
445.89	1282.03
446.09	1322.99
446.30	1312.75
446.50	1269.74
446.71	1282.03
446.91	1279.98
447.12	1249.26
447.32	1245.16
447.53	1316.84
447.73	1304.56
447.93	1286.12
448.14	1294.32
448.34	1263.60
448.55	1273.84
448.75	1249.26
448.96	1282.03
449.16	1241.07
449.36	1251.31
449.57	1294.32
449.77	1263.60
449.98	1228.78
450.18	1300.46
450.39	1273.84
450.59	1284.08
450.79	1304.56
451.00	1267.69
451.20	1292.27
451.41	1316.84
451.61	1327.08
451.81	1304.56
452.02	1228.78
452.22	1361.90
452.43	1249.26
452.63	1298.41
