SpectraSuite Data File
++++++++++++++++++++++++++++++++++++
Date: Sun Apr 03 19:55:46 CEST 2016
User: root
Dark Spectrum Present: No
Reference Spectrum Present: No
Number of Sampled Component Spectra: 1
Spectrometers: USB4C02835
Integration Time (usec): 10000 (USB4C02835)
Spectra Averaged: 1 (USB4C02835)
Boxcar Smoothing: 0 (USB4C02835)
Correct for Electrical Dark: No (USB4C02835)
Strobe/Lamp Enabled: No (USB4C02835)
Correct for Detector Non-linearity: No (USB4C02835)
Correct for Stray Light: No (USB4C02835)
Number of Pixels in Processed Spectrum: 3648
>>>>>Begin Processed Spectral Data<<<<<
177.47	1294.32
177.69	1294.32
177.91	1294.32
178.13	1263.60
178.36	1292.27
178.58	1257.45
178.80	1183.73
179.02	1261.55
179.24	1327.08
179.46	1298.41
179.68	1314.80
179.90	1267.69
180.13	1269.74
180.35	1181.68
180.57	1234.93
180.79	1308.65
181.01	1288.17
181.23	1236.97
181.45	1279.98
181.67	1253.36
181.90	1298.41
182.12	1247.21
182.34	1224.69
182.56	1230.83
182.78	1187.82
183.00	1290.22
183.22	1241.07
183.44	1191.92
183.66	1292.27
183.89	1277.93
184.11	1204.21
184.33	1314.80
184.55	1277.93
184.77	1363.95
184.99	1269.74
185.21	1122.29
185.43	1298.41
185.65	1269.74
185.87	1253.36
186.10	1249.26
186.32	1273.84
186.54	1320.94
186.76	1208.30
186.98	1284.08
187.20	1247.21
187.42	1282.03
187.64	1253.36
187.86	1216.49
188.08	1302.51
188.30	1271.79
188.52	1241.07
188.75	1308.65
188.97	1288.17
189.19	1208.30
189.41	1247.21
189.63	1232.88
189.85	1228.78
190.07	1200.11
190.29	1347.56
190.51	1255.40
190.73	1296.36
190.95	1286.12
191.17	1239.02
191.39	1306.60
191.61	1257.45
191.84	1263.60
192.06	1314.80
192.28	1228.78
192.50	1366.00
192.72	1300.46
192.94	1296.36
193.16	1230.83
193.38	1279.98
193.60	1269.74
193.82	1306.60
194.04	1302.51
194.26	1265.64
194.48	1284.08
194.70	1296.36
194.92	1263.60
195.14	1263.60
195.36	1198.06
195.58	1331.18
195.80	1259.50
196.02	1220.59
196.24	1300.46
196.46	1273.84
196.69	1257.45
196.91	1204.21
197.13	1284.08
197.35	1331.18
197.57	1247.21
197.79	1298.41
198.01	1279.98
198.23	1224.69
198.45	1269.74
198.67	1249.26
198.89	1275.88
199.11	1249.26
199.33	1335.28
199.55	1245.16
199.77	1247.21
199.99	1296.36
200.21	1279.98
200.43	1241.07
200.65	1294.32
200.87	1251.31
201.09	1290.22
201.31	1271.79
201.53	1288.17
201.75	1279.98
201.97	1282.03
202.19	1181.68
202.41	1322.99
202.63	1267.69
202.85	1239.02
203.07	1249.26
203.29	1206.25
203.51	1210.35
203.73	1296.36
203.95	1257.45
204.17	1269.74
204.39	1308.65
204.61	1251.31
204.83	1298.41
205.05	1273.84
205.27	1279.98
205.49	1288.17
205.71	1337.32
205.93	1306.60
206.15	1318.89
206.37	1261.55
206.59	1271.79
206.81	1269.74
207.03	1282.03
207.25	1320.94
207.47	1257.45
207.69	1224.69
207.91	1269.74
208.13	1308.65
208.34	1200.11
208.56	1257.45
208.78	1216.49
209.00	1249.26
209.22	1286.12
209.44	1300.46
209.66	1279.98
209.88	1329.13
210.10	1271.79
210.32	1273.84
210.54	1249.26
210.76	1290.22
210.98	1253.36
211.20	1271.79
211.42	1251.31
211.64	1265.64
211.86	1236.97
212.08	1282.03
212.30	1290.22
212.52	1265.64
212.74	1318.89
212.96	1269.74
213.17	1347.56
213.39	1318.89
213.61	1277.93
213.83	1253.36
214.05	1298.41
214.27	1296.36
214.49	1290.22
214.71	1183.73
214.93	1327.08
215.15	1284.08
215.37	1296.36
215.59	1263.60
215.81	1243.12
216.03	1224.69
216.24	1236.97
216.46	1247.21
216.68	1259.50
216.90	1290.22
217.12	1290.22
217.34	1206.25
217.56	1249.26
217.78	1247.21
218.00	1312.75
218.22	1249.26
218.44	1279.98
218.66	1355.76
218.87	1282.03
219.09	1228.78
219.31	1304.56
219.53	1255.40
219.75	1253.36
219.97	1257.45
220.19	1251.31
220.41	1261.55
220.63	1249.26
220.85	1275.88
221.06	1304.56
221.28	1220.59
221.50	1331.18
221.72	1241.07
221.94	1312.75
222.16	1236.97
222.38	1277.93
222.60	1236.97
222.82	1273.84
223.03	1263.60
223.25	1220.59
223.47	1335.28
223.69	1306.60
223.91	1247.21
224.13	1277.93
224.35	1304.56
224.57	1247.21
224.78	1251.31
225.00	1253.36
225.22	1253.36
225.44	1292.27
225.66	1320.94
225.88	1253.36
226.10	1277.93
226.32	1183.73
226.53	1275.88
226.75	1284.08
226.97	1271.79
227.19	1312.75
227.41	1271.79
227.63	1251.31
227.85	1210.35
228.06	1245.16
228.28	1273.84
228.50	1261.55
228.72	1345.52
228.94	1261.55
229.16	1308.65
229.37	1257.45
229.59	1296.36
229.81	1263.60
230.03	1282.03
230.25	1298.41
230.47	1263.60
230.69	1343.47
230.90	1253.36
231.12	1220.59
231.34	1327.08
231.56	1267.69
231.78	1228.78
232.00	1290.22
232.21	1253.36
232.43	1286.12
232.65	1220.59
232.87	1234.93
233.09	1247.21
233.30	1325.04
233.52	1243.12
233.74	1329.13
233.96	1267.69
234.18	1214.45
234.40	1255.40
234.61	1316.84
234.83	1282.03
235.05	1265.64
235.27	1306.60
235.49	1214.45
235.70	1267.69
235.92	1271.79
236.14	1249.26
236.36	1361.90
236.58	1208.30
236.79	1230.83
237.01	1271.79
237.23	1261.55
237.45	1304.56
237.67	1239.02
237.88	1304.56
238.10	1286.12
238.32	1249.26
238.54	1216.49
238.76	1302.51
238.97	1325.04
239.19	1189.87
239.41	1300.46
239.63	1273.84
239.85	1271.79
240.06	1286.12
240.28	1222.64
240.50	1277.93
240.72	1320.94
240.93	1200.11
241.15	1275.88
241.37	1224.69
241.59	1284.08
241.81	1234.93
242.02	1236.97
242.24	1261.55
242.46	1210.35
242.68	1277.93
242.89	1302.51
243.11	1263.60
243.33	1265.64
243.55	1263.60
243.76	1304.56
243.98	1241.07
244.20	1257.45
244.42	1249.26
244.64	1296.36
244.85	1245.16
245.07	1282.03
245.29	1239.02
245.51	1216.49
245.72	1306.60
245.94	1279.98
246.16	1214.45
246.38	1306.60
246.59	1275.88
246.81	1265.64
247.03	1259.50
247.24	1257.45
247.46	1220.59
247.68	1259.50
247.90	1284.08
248.11	1181.68
248.33	1216.49
248.55	1261.55
248.77	1251.31
248.98	1308.65
249.20	1282.03
249.42	1239.02
249.64	1265.64
249.85	1261.55
250.07	1261.55
250.29	1269.74
250.50	1282.03
250.72	1241.07
250.94	1243.12
251.16	1275.88
251.37	1243.12
251.59	1310.70
251.81	1253.36
252.02	1263.60
252.24	1226.73
252.46	1312.75
252.68	1286.12
252.89	1286.12
253.11	1290.22
253.33	1173.49
253.54	1259.50
253.76	1284.08
253.98	1302.51
254.20	1263.60
254.41	1249.26
254.63	1322.99
254.85	1327.08
255.06	1290.22
255.28	1290.22
255.50	1185.77
255.71	1249.26
255.93	1298.41
256.15	1275.88
256.36	1316.84
256.58	1245.16
256.80	1279.98
257.02	1300.46
257.23	1220.59
257.45	1230.83
257.67	1257.45
257.88	1286.12
258.10	1320.94
258.32	1251.31
258.53	1273.84
258.75	1294.32
258.97	1267.69
259.18	1308.65
259.40	1284.08
259.62	1259.50
259.83	1286.12
260.05	1224.69
260.27	1269.74
260.48	1273.84
260.70	1320.94
260.92	1249.26
261.13	1265.64
261.35	1288.17
261.57	1261.55
261.78	1249.26
262.00	1277.93
262.22	1257.45
262.43	1255.40
262.65	1259.50
262.86	1216.49
263.08	1241.07
263.30	1253.36
263.51	1253.36
263.73	1286.12
263.95	1316.84
264.16	1290.22
264.38	1230.83
264.60	1189.87
264.81	1284.08
265.03	1335.28
265.25	1206.25
265.46	1226.73
265.68	1355.76
265.89	1239.02
266.11	1331.18
266.33	1232.88
266.54	1228.78
266.76	1279.98
266.98	1226.73
267.19	1239.02
267.41	1304.56
267.62	1241.07
267.84	1236.97
268.06	1247.21
268.27	1261.55
268.49	1236.97
268.70	1234.93
268.92	1288.17
269.14	1230.83
269.35	1296.36
269.57	1294.32
269.79	1273.84
270.00	1322.99
270.22	1232.88
270.43	1224.69
270.65	1241.07
270.87	1224.69
271.08	1292.27
271.30	1277.93
271.51	1290.22
271.73	1294.32
271.95	1343.47
272.16	1220.59
272.38	1282.03
272.59	1208.30
272.81	1222.64
273.02	1216.49
273.24	1241.07
273.46	1247.21
273.67	1327.08
273.89	1236.97
274.10	1320.94
274.32	1308.65
274.54	1253.36
274.75	1288.17
274.97	1234.93
275.18	1255.40
275.40	1216.49
275.61	1222.64
275.83	1251.31
276.05	1286.12
276.26	1257.45
276.48	1294.32
276.69	1290.22
276.91	1322.99
277.12	1200.11
277.34	1298.41
277.55	1263.60
277.77	1234.93
277.99	1259.50
278.20	1255.40
278.42	1284.08
278.63	1290.22
278.85	1253.36
279.06	1243.12
279.28	1290.22
279.49	1269.74
279.71	1290.22
279.93	1226.73
280.14	1241.07
280.36	1320.94
280.57	1218.54
280.79	1296.36
281.00	1226.73
281.22	1239.02
281.43	1363.95
281.65	1169.39
281.86	1316.84
282.08	1284.08
282.29	1261.55
282.51	1257.45
282.73	1275.88
282.94	1288.17
283.16	1331.18
283.37	1277.93
283.59	1337.32
283.80	1284.08
284.02	1249.26
284.23	1298.41
284.45	1255.40
284.66	1306.60
284.88	1261.55
285.09	1257.45
285.31	1284.08
285.52	1353.71
285.74	1296.36
285.95	1230.83
286.17	1314.80
286.38	1335.28
286.60	1196.01
286.81	1196.01
287.03	1241.07
287.24	1290.22
287.46	1259.50
287.67	1269.74
287.89	1269.74
288.10	1267.69
288.32	1259.50
288.53	1253.36
288.75	1279.98
288.96	1224.69
289.18	1294.32
289.39	1249.26
289.61	1245.16
289.82	1306.60
290.04	1257.45
290.25	1271.79
290.47	1279.98
290.68	1277.93
290.90	1314.80
291.11	1290.22
291.33	1241.07
291.54	1298.41
291.76	1239.02
291.97	1290.22
292.18	1216.49
292.40	1269.74
292.61	1286.12
292.83	1245.16
293.04	1239.02
293.26	1191.92
293.47	1236.97
293.69	1275.88
293.90	1275.88
294.12	1239.02
294.33	1273.84
294.55	1249.26
294.76	1236.97
294.97	1249.26
295.19	1257.45
295.40	1308.65
295.62	1175.53
295.83	1341.42
296.05	1214.45
296.26	1296.36
296.48	1234.93
296.69	1224.69
296.90	1292.27
297.12	1282.03
297.33	1241.07
297.55	1279.98
297.76	1286.12
297.98	1269.74
298.19	1310.70
298.41	1220.59
298.62	1284.08
298.83	1329.13
299.05	1286.12
299.26	1322.99
299.48	1241.07
299.69	1322.99
299.90	1275.88
300.12	1296.36
300.33	1269.74
300.55	1243.12
300.76	1232.88
300.98	1296.36
301.19	1300.46
301.40	1257.45
301.62	1259.50
301.83	1259.50
302.05	1212.40
302.26	1351.66
302.47	1247.21
302.69	1253.36
302.90	1286.12
303.12	1253.36
303.33	1275.88
303.54	1282.03
303.76	1275.88
303.97	1263.60
304.19	1228.78
304.40	1290.22
304.61	1288.17
304.83	1271.79
305.04	1226.73
305.26	1306.60
305.47	1298.41
305.68	1284.08
305.90	1318.89
306.11	1239.02
306.33	1333.23
306.54	1277.93
306.75	1300.46
306.97	1273.84
307.18	1335.28
307.39	1306.60
307.61	1273.84
307.82	1253.36
308.04	1259.50
308.25	1245.16
308.46	1331.18
308.68	1255.40
308.89	1310.70
309.10	1282.03
309.32	1273.84
309.53	1359.85
309.74	1253.36
309.96	1249.26
310.17	1245.16
310.39	1259.50
310.60	1232.88
310.81	1198.06
311.03	1224.69
311.24	1306.60
311.45	1335.28
311.67	1265.64
311.88	1220.59
312.09	1325.04
312.31	1296.36
312.52	1282.03
312.73	1279.98
312.95	1279.98
313.16	1298.41
313.37	1298.41
313.59	1208.30
313.80	1241.07
314.01	1271.79
314.23	1224.69
314.44	1239.02
314.65	1189.87
314.87	1370.09
315.08	1286.12
315.29	1284.08
315.51	1277.93
315.72	1261.55
315.93	1222.64
316.15	1259.50
316.36	1218.54
316.57	1273.84
316.79	1226.73
317.00	1294.32
317.21	1212.40
317.43	1282.03
317.64	1349.61
317.85	1290.22
318.07	1275.88
318.28	1173.49
318.49	1265.64
318.70	1296.36
318.92	1263.60
319.13	1306.60
319.34	1279.98
319.56	1290.22
319.77	1222.64
319.98	1304.56
320.20	1214.45
320.41	1210.35
320.62	1226.73
320.83	1355.76
321.05	1200.11
321.26	1253.36
321.47	1284.08
321.69	1216.49
321.90	1275.88
322.11	1249.26
322.32	1279.98
322.54	1322.99
322.75	1304.56
322.96	1232.88
323.18	1202.16
323.39	1236.97
323.60	1267.69
323.81	1314.80
324.03	1216.49
324.24	1251.31
324.45	1284.08
324.66	1196.01
324.88	1208.30
325.09	1236.97
325.30	1265.64
325.52	1263.60
325.73	1255.40
325.94	1230.83
326.15	1290.22
326.37	1255.40
326.58	1335.28
326.79	1286.12
327.00	1228.78
327.22	1259.50
327.43	1216.49
327.64	1288.17
327.85	1284.08
328.07	1179.63
328.28	1261.55
328.49	1284.08
328.70	1304.56
328.92	1302.51
329.13	1282.03
329.34	1327.08
329.55	1298.41
329.76	1306.60
329.98	1273.84
330.19	1224.69
330.40	1253.36
330.61	1226.73
330.83	1339.37
331.04	1265.64
331.25	1257.45
331.46	1261.55
331.68	1269.74
331.89	1294.32
332.10	1239.02
332.31	1212.40
332.52	1271.79
332.74	1290.22
332.95	1282.03
333.16	1202.16
333.37	1304.56
333.58	1331.18
333.80	1263.60
334.01	1249.26
334.22	1312.75
334.43	1253.36
334.64	1193.97
334.86	1284.08
335.07	1294.32
335.28	1228.78
335.49	1263.60
335.70	1296.36
335.92	1304.56
336.13	1269.74
336.34	1267.69
336.55	1243.12
336.76	1320.94
336.98	1306.60
337.19	1286.12
337.40	1249.26
337.61	1243.12
337.82	1261.55
338.04	1216.49
338.25	1245.16
338.46	1306.60
338.67	1265.64
338.88	1271.79
339.09	1247.21
339.31	1253.36
339.52	1216.49
339.73	1312.75
339.94	1239.02
340.15	1288.17
340.36	1269.74
340.58	1230.83
340.79	1349.61
341.00	1259.50
341.21	1277.93
341.42	1253.36
341.63	1220.59
341.85	1327.08
342.06	1298.41
342.27	1253.36
342.48	1269.74
342.69	1249.26
342.90	1261.55
343.12	1222.64
343.33	1316.84
343.54	1277.93
343.75	1239.02
343.96	1327.08
344.17	1241.07
344.38	1234.93
344.60	1273.84
344.81	1251.31
345.02	1282.03
345.23	1234.93
345.44	1316.84
345.65	1263.60
345.86	1230.83
346.07	1224.69
346.29	1216.49
346.50	1337.32
346.71	1200.11
346.92	1251.31
347.13	1269.74
347.34	1214.45
347.55	1200.11
347.76	1282.03
347.98	1314.80
348.19	1273.84
348.40	1204.21
348.61	1265.64
348.82	1247.21
349.03	1279.98
349.24	1286.12
349.45	1269.74
349.66	1249.26
349.88	1247.21
350.09	1292.27
350.30	1267.69
350.51	1275.88
350.72	1320.94
350.93	1298.41
351.14	1245.16
351.35	1277.93
351.56	1210.35
351.77	1275.88
351.99	1220.59
352.20	1312.75
352.41	1228.78
352.62	1206.25
352.83	1284.08
353.04	1312.75
353.25	1271.79
353.46	1251.31
353.67	1267.69
353.88	1259.50
354.09	1263.60
354.30	1263.60
354.52	1265.64
354.73	1212.40
354.94	1212.40
355.15	1216.49
355.36	1269.74
355.57	1284.08
355.78	1275.88
355.99	1257.45
356.20	1298.41
356.41	1329.13
356.62	1325.04
356.83	1288.17
357.04	1308.65
357.25	1253.36
357.46	1275.88
357.68	1331.18
357.89	1259.50
358.10	1284.08
358.31	1312.75
358.52	1236.97
358.73	1265.64
358.94	1282.03
359.15	1253.36
359.36	1239.02
359.57	1218.54
359.78	1275.88
359.99	1218.54
360.20	1259.50
360.41	1302.51
360.62	1275.88
360.83	1183.73
361.04	1191.92
361.25	1263.60
361.46	1251.31
361.67	1226.73
361.88	1304.56
362.09	1228.78
362.30	1202.16
362.51	1206.25
362.72	1304.56
362.93	1253.36
363.14	1304.56
363.35	1327.08
363.56	1277.93
363.78	1259.50
363.99	1167.34
364.20	1306.60
364.41	1226.73
364.62	1282.03
364.83	1263.60
365.04	1318.89
365.25	1271.79
365.46	1298.41
365.67	1271.79
365.88	1325.04
366.09	1325.04
366.30	1337.32
366.51	1257.45
366.72	1232.88
366.93	1198.06
367.14	1257.45
367.35	1232.88
367.56	1290.22
367.77	1290.22
367.98	1251.31
368.18	1200.11
368.39	1316.84
368.60	1273.84
368.81	1316.84
369.02	1230.83
369.23	1345.52
369.44	1279.98
369.65	1224.69
369.86	1255.40
370.07	1296.36
370.28	1263.60
370.49	1298.41
370.70	1259.50
370.91	1267.69
371.12	1243.12
371.33	1234.93
371.54	1331.18
371.75	1279.98
371.96	1290.22
372.17	1300.46
372.38	1263.60
372.59	1263.60
372.80	1335.28
373.01	1251.31
373.22	1265.64
373.43	1372.14
373.64	1212.40
373.85	1341.42
374.06	1263.60
374.26	1228.78
374.47	1304.56
374.68	1308.65
374.89	1247.21
375.10	1239.02
375.31	1310.70
375.52	1335.28
375.73	1331.18
375.94	1265.64
376.15	1288.17
376.36	1279.98
376.57	1273.84
376.78	1243.12
376.99	1271.79
377.20	1257.45
377.40	1269.74
377.61	1290.22
377.82	1230.83
378.03	1316.84
378.24	1222.64
378.45	1247.21
378.66	1255.40
378.87	1312.75
379.08	1234.93
379.29	1273.84
379.50	1292.27
379.71	1277.93
379.91	1279.98
380.12	1296.36
380.33	1208.30
380.54	1286.12
380.75	1292.27
380.96	1155.05
381.17	1216.49
381.38	1216.49
381.59	1265.64
381.80	1245.16
382.00	1308.65
382.21	1259.50
382.42	1298.41
382.63	1210.35
382.84	1261.55
383.05	1222.64
383.26	1245.16
383.47	1234.93
383.68	1277.93
383.88	1249.26
384.09	1275.88
384.30	1241.07
384.51	1251.31
384.72	1191.92
384.93	1277.93
385.14	1204.21
385.35	1288.17
385.55	1263.60
385.76	1320.94
385.97	1247.21
386.18	1333.23
386.39	1325.04
386.60	1255.40
386.81	1239.02
387.02	1302.51
387.22	1255.40
387.43	1196.01
387.64	1290.22
387.85	1265.64
388.06	1263.60
388.27	1222.64
388.48	1306.60
388.68	1261.55
388.89	1247.21
389.10	1255.40
389.31	1245.16
389.52	1320.94
389.73	1239.02
389.93	1222.64
390.14	1243.12
390.35	1271.79
390.56	1226.73
390.77	1320.94
390.98	1279.98
391.18	1169.39
391.39	1239.02
391.60	1277.93
391.81	1255.40
392.02	1251.31
392.23	1333.23
392.43	1292.27
392.64	1304.56
392.85	1308.65
393.06	1294.32
393.27	1214.45
393.47	1290.22
393.68	1337.32
393.89	1206.25
394.10	1302.51
394.31	1310.70
394.52	1222.64
394.72	1279.98
394.93	1318.89
395.14	1273.84
395.35	1273.84
395.56	1212.40
395.76	1249.26
395.97	1189.87
396.18	1261.55
396.39	1288.17
396.60	1284.08
396.80	1257.45
397.01	1245.16
397.22	1314.80
397.43	1259.50
397.64	1263.60
397.84	1286.12
398.05	1224.69
398.26	1310.70
398.47	1257.45
398.67	1253.36
398.88	1271.79
399.09	1228.78
399.30	1234.93
399.51	1193.97
399.71	1241.07
399.92	1322.99
400.13	1284.08
400.34	1259.50
400.54	1236.97
400.75	1306.60
400.96	1322.99
401.17	1290.22
401.37	1288.17
401.58	1320.94
401.79	1351.66
402.00	1255.40
402.21	1288.17
402.41	1327.08
402.62	1243.12
402.83	1220.59
403.04	1275.88
403.24	1318.89
403.45	1265.64
403.66	1228.78
403.87	1273.84
404.07	1271.79
404.28	1316.84
404.49	1269.74
404.70	1224.69
404.90	1275.88
405.11	1214.45
405.32	1282.03
405.52	1261.55
405.73	1300.46
405.94	1298.41
406.15	1273.84
406.35	1302.51
406.56	1265.64
406.77	1236.97
406.98	1273.84
407.18	1298.41
407.39	1292.27
407.60	1288.17
407.80	1361.90
408.01	1355.76
408.22	1232.88
408.43	1304.56
408.63	1337.32
408.84	1312.75
409.05	1191.92
409.25	1226.73
409.46	1241.07
409.67	1275.88
409.88	1265.64
410.08	1304.56
410.29	1312.75
410.50	1290.22
410.70	1335.28
410.91	1208.30
411.12	1282.03
411.32	1308.65
411.53	1302.51
411.74	1282.03
411.95	1273.84
412.15	1191.92
412.36	1263.60
412.57	1241.07
412.77	1335.28
412.98	1255.40
413.19	1298.41
413.39	1271.79
413.60	1312.75
413.81	1302.51
414.01	1294.32
414.22	1312.75
414.43	1253.36
414.63	1247.21
414.84	1290.22
415.05	1210.35
415.25	1257.45
415.46	1263.60
415.67	1236.97
415.87	1239.02
416.08	1243.12
416.29	1161.20
416.49	1318.89
416.70	1236.97
416.91	1218.54
417.11	1271.79
417.32	1298.41
417.53	1411.05
417.73	1216.49
417.94	1290.22
418.15	1212.40
418.35	1314.80
418.56	1296.36
418.77	1171.44
418.97	1277.93
419.18	1316.84
419.38	1279.98
419.59	1226.73
419.80	1279.98
420.00	1236.97
420.21	1304.56
420.42	1222.64
420.62	1214.45
420.83	1239.02
421.04	1271.79
421.24	1232.88
421.45	1345.52
421.65	1282.03
421.86	1286.12
422.07	1310.70
422.27	1296.36
422.48	1247.21
422.69	1241.07
422.89	1241.07
423.10	1243.12
423.30	1284.08
423.51	1335.28
423.72	1269.74
423.92	1216.49
424.13	1304.56
424.33	1273.84
424.54	1275.88
424.75	1241.07
424.95	1279.98
425.16	1279.98
425.36	1288.17
425.57	1296.36
425.78	1261.55
425.98	1218.54
426.19	1208.30
426.39	1304.56
426.60	1191.92
426.81	1282.03
427.01	1224.69
427.22	1298.41
427.42	1273.84
427.63	1249.26
427.83	1273.84
428.04	1265.64
428.25	1253.36
428.45	1224.69
428.66	1267.69
428.86	1310.70
429.07	1279.98
429.28	1261.55
429.48	1249.26
429.69	1267.69
429.89	1239.02
430.10	1222.64
430.30	1275.88
430.51	1253.36
430.71	1345.52
430.92	1282.03
431.13	1241.07
431.33	1282.03
431.54	1257.45
431.74	1304.56
431.95	1308.65
432.15	1304.56
432.36	1241.07
432.56	1263.60
432.77	1308.65
432.98	1290.22
433.18	1257.45
433.39	1243.12
433.59	1284.08
433.80	1275.88
434.00	1290.22
434.21	1255.40
434.41	1228.78
434.62	1277.93
434.82	1218.54
435.03	1218.54
435.23	1277.93
435.44	1220.59
435.64	1255.40
435.85	1308.65
436.06	1277.93
436.26	1241.07
436.47	1247.21
436.67	1273.84
436.88	1247.21
437.08	1277.93
437.29	1349.61
437.49	1282.03
437.70	1232.88
437.90	1327.08
438.11	1347.56
438.31	1277.93
438.52	1224.69
438.72	1308.65
438.93	1271.79
439.13	1249.26
439.34	1294.32
439.54	1265.64
439.75	1261.55
439.95	1263.60
440.16	1288.17
440.36	1304.56
440.57	1304.56
440.77	1306.60
440.98	1251.31
441.18	1265.64
441.39	1265.64
441.59	1245.16
441.80	1214.45
442.00	1288.17
442.21	1247.21
442.41	1282.03
442.62	1263.60
442.82	1286.12
443.02	1222.64
443.23	1288.17
443.43	1239.02
443.64	1282.03
443.84	1265.64
444.05	1257.45
444.25	1236.97
444.46	1292.27
444.66	1275.88
444.87	1179.63
445.07	1239.02
445.28	1310.70
445.48	1257.45
445.69	1236.97
445.89	1232.88
446.09	1359.85
446.30	1255.40
446.50	1284.08
446.71	1269.74
446.91	1347.56
447.12	1288.17
447.32	1273.84
447.53	1288.17
447.73	1273.84
447.93	1236.97
448.14	1300.46
448.34	1290.22
448.55	1239.02
448.75	1243.12
448.96	1243.12
449.16	1347.56
449.36	1310.70
449.57	1265.64
449.77	1320.94
449.98	1232.88
450.18	1290.22
450.39	1224.69
450.59	1300.46
450.79	1253.36
451.00	1339.37
451.20	1208.30
451.41	1265.64
451.61	1327.08
451.81	1279.98
452.02	1322.99
452.22	1249.26
452.43	1243.12
452.63	1286.12
