SpectraSuite Data File
++++++++++++++++++++++++++++++++++++
Date: Sun Apr 03 19:55:47 CEST 2016
User: root
Dark Spectrum Present: No
Reference Spectrum Present: No
Number of Sampled Component Spectra: 1
Spectrometers: USB4C02835
Integration Time (usec): 10000 (USB4C02835)
Spectra Averaged: 1 (USB4C02835)
Boxcar Smoothing: 0 (USB4C02835)
Correct for Electrical Dark: No (USB4C02835)
Strobe/Lamp Enabled: No (USB4C02835)
Correct for Detector Non-linearity: No (USB4C02835)
Correct for Stray Light: No (USB4C02835)
Number of Pixels in Processed Spectrum: 3648
>>>>>Begin Processed Spectral Data<<<<<
177.47	1275.88
177.69	1275.88
177.91	1275.88
178.13	1261.55
178.36	1263.60
178.58	1234.93
178.80	1290.22
179.02	1261.55
179.24	1224.69
179.46	1298.41
179.68	1277.93
179.90	1286.12
180.13	1224.69
180.35	1339.37
180.57	1243.12
180.79	1263.60
181.01	1284.08
181.23	1234.93
181.45	1251.31
181.67	1234.93
181.90	1286.12
182.12	1277.93
182.34	1298.41
182.56	1255.40
182.78	1208.30
183.00	1226.73
183.22	1222.64
183.44	1304.56
183.66	1263.60
183.89	1279.98
184.11	1302.51
184.33	1263.60
184.55	1296.36
184.77	1267.69
184.99	1273.84
185.21	1239.02
185.43	1261.55
185.65	1327.08
185.87	1236.97
186.10	1284.08
186.32	1282.03
186.54	1214.45
186.76	1306.60
186.98	1230.83
187.20	1230.83
187.42	1290.22
187.64	1279.98
187.86	1294.32
188.08	1167.34
188.30	1320.94
188.52	1236.97
188.75	1212.40
188.97	1249.26
189.19	1212.40
189.41	1234.93
189.63	1298.41
189.85	1327.08
190.07	1241.07
190.29	1286.12
190.51	1239.02
190.73	1279.98
190.95	1279.98
191.17	1325.04
191.39	1232.88
191.61	1275.88
191.84	1234.93
192.06	1202.16
192.28	1263.60
192.50	1247.21
192.72	1304.56
192.94	1257.45
193.16	1253.36
193.38	1193.97
193.60	1269.74
193.82	1226.73
194.04	1372.14
194.26	1265.64
194.48	1279.98
194.70	1234.93
194.92	1275.88
195.14	1191.92
195.36	1298.41
195.58	1302.51
195.80	1267.69
196.02	1312.75
196.24	1230.83
196.46	1232.88
196.69	1255.40
196.91	1298.41
197.13	1284.08
197.35	1306.60
197.57	1236.97
197.79	1284.08
198.01	1218.54
198.23	1290.22
198.45	1224.69
198.67	1322.99
198.89	1206.25
199.11	1298.41
199.33	1134.57
199.55	1298.41
199.77	1218.54
199.99	1273.84
200.21	1302.51
200.43	1310.70
200.65	1277.93
200.87	1290.22
201.09	1265.64
201.31	1243.12
201.53	1222.64
201.75	1284.08
201.97	1273.84
202.19	1202.16
202.41	1343.47
202.63	1218.54
202.85	1325.04
203.07	1290.22
203.29	1298.41
203.51	1198.06
203.73	1275.88
203.95	1355.76
204.17	1286.12
204.39	1255.40
204.61	1318.89
204.83	1245.16
205.05	1247.21
205.27	1200.11
205.49	1261.55
205.71	1222.64
205.93	1290.22
206.15	1228.78
206.37	1302.51
206.59	1300.46
206.81	1255.40
207.03	1257.45
207.25	1257.45
207.47	1265.64
207.69	1279.98
207.91	1312.75
208.13	1341.42
208.34	1239.02
208.56	1294.32
208.78	1310.70
209.00	1269.74
209.22	1249.26
209.44	1222.64
209.66	1216.49
209.88	1255.40
210.10	1226.73
210.32	1271.79
210.54	1247.21
210.76	1261.55
210.98	1255.40
211.20	1263.60
211.42	1263.60
211.64	1322.99
211.86	1308.65
212.08	1241.07
212.30	1329.13
212.52	1263.60
212.74	1271.79
212.96	1181.68
213.17	1275.88
213.39	1269.74
213.61	1316.84
213.83	1255.40
214.05	1222.64
214.27	1261.55
214.49	1204.21
214.71	1277.93
214.93	1230.83
215.15	1216.49
215.37	1247.21
215.59	1253.36
215.81	1253.36
216.03	1243.12
216.24	1257.45
216.46	1302.51
216.68	1290.22
216.90	1294.32
217.12	1241.07
217.34	1353.71
217.56	1220.59
217.78	1265.64
218.00	1288.17
218.22	1302.51
218.44	1265.64
218.66	1243.12
218.87	1282.03
219.09	1251.31
219.31	1200.11
219.53	1263.60
219.75	1247.21
219.97	1236.97
220.19	1290.22
220.41	1161.20
220.63	1357.80
220.85	1296.36
221.06	1220.59
221.28	1286.12
221.50	1224.69
221.72	1257.45
221.94	1298.41
222.16	1220.59
222.38	1220.59
222.60	1243.12
222.82	1218.54
223.03	1243.12
223.25	1294.32
223.47	1245.16
223.69	1347.56
223.91	1259.50
224.13	1314.80
224.35	1277.93
224.57	1241.07
224.78	1282.03
225.00	1228.78
225.22	1345.52
225.44	1257.45
225.66	1267.69
225.88	1312.75
226.10	1372.14
226.32	1333.23
226.53	1314.80
226.75	1226.73
226.97	1261.55
227.19	1286.12
227.41	1279.98
227.63	1294.32
227.85	1292.27
228.06	1333.23
228.28	1320.94
228.50	1279.98
228.72	1341.42
228.94	1271.79
229.16	1347.56
229.37	1282.03
229.59	1327.08
229.81	1312.75
230.03	1249.26
230.25	1247.21
230.47	1273.84
230.69	1226.73
230.90	1310.70
231.12	1269.74
231.34	1181.68
231.56	1218.54
231.78	1249.26
232.00	1269.74
232.21	1284.08
232.43	1220.59
232.65	1290.22
232.87	1208.30
233.09	1331.18
233.30	1216.49
233.52	1269.74
233.74	1241.07
233.96	1306.60
234.18	1257.45
234.40	1249.26
234.61	1296.36
234.83	1239.02
235.05	1277.93
235.27	1269.74
235.49	1249.26
235.70	1267.69
235.92	1257.45
236.14	1249.26
236.36	1325.04
236.58	1257.45
236.79	1245.16
237.01	1282.03
237.23	1312.75
237.45	1288.17
237.67	1222.64
237.88	1253.36
238.10	1232.88
238.32	1277.93
238.54	1255.40
238.76	1261.55
238.97	1279.98
239.19	1245.16
239.41	1230.83
239.63	1265.64
239.85	1230.83
240.06	1271.79
240.28	1271.79
240.50	1325.04
240.72	1294.32
240.93	1247.21
241.15	1196.01
241.37	1206.25
241.59	1318.89
241.81	1247.21
242.02	1282.03
242.24	1314.80
242.46	1282.03
242.68	1239.02
242.89	1286.12
243.11	1320.94
243.33	1189.87
243.55	1255.40
243.76	1282.03
243.98	1298.41
244.20	1273.84
244.42	1265.64
244.64	1318.89
244.85	1304.56
245.07	1255.40
245.29	1216.49
245.51	1208.30
245.72	1181.68
245.94	1263.60
246.16	1261.55
246.38	1241.07
246.59	1253.36
246.81	1306.60
247.03	1331.18
247.24	1273.84
247.46	1267.69
247.68	1298.41
247.90	1263.60
248.11	1249.26
248.33	1253.36
248.55	1247.21
248.77	1304.56
248.98	1288.17
249.20	1259.50
249.42	1273.84
249.64	1357.80
249.85	1279.98
250.07	1282.03
250.29	1277.93
250.50	1239.02
250.72	1267.69
250.94	1292.27
251.16	1234.93
251.37	1296.36
251.59	1316.84
251.81	1325.04
252.02	1286.12
252.24	1210.35
252.46	1310.70
252.68	1304.56
252.89	1247.21
253.11	1255.40
253.33	1327.08
253.54	1286.12
253.76	1259.50
253.98	1329.13
254.20	1310.70
254.41	1273.84
254.63	1259.50
254.85	1208.30
255.06	1239.02
255.28	1257.45
255.50	1310.70
255.71	1288.17
255.93	1200.11
256.15	1257.45
256.36	1239.02
256.58	1339.37
256.80	1263.60
257.02	1300.46
257.23	1275.88
257.45	1339.37
257.67	1279.98
257.88	1241.07
258.10	1286.12
258.32	1261.55
258.53	1308.65
258.75	1304.56
258.97	1304.56
259.18	1204.21
259.40	1304.56
259.62	1232.88
259.83	1257.45
260.05	1306.60
260.27	1361.90
260.48	1234.93
260.70	1284.08
260.92	1288.17
261.13	1220.59
261.35	1239.02
261.57	1296.36
261.78	1202.16
262.00	1251.31
262.22	1230.83
262.43	1222.64
262.65	1306.60
262.86	1232.88
263.08	1298.41
263.30	1210.35
263.51	1296.36
263.73	1269.74
263.95	1288.17
264.16	1269.74
264.38	1206.25
264.60	1271.79
264.81	1245.16
265.03	1261.55
265.25	1228.78
265.46	1341.42
265.68	1269.74
265.89	1310.70
266.11	1153.01
266.33	1292.27
266.54	1236.97
266.76	1290.22
266.98	1333.23
267.19	1191.92
267.41	1163.25
267.62	1224.69
267.84	1294.32
268.06	1247.21
268.27	1255.40
268.49	1241.07
268.70	1267.69
268.92	1239.02
269.14	1189.87
269.35	1220.59
269.57	1310.70
269.79	1314.80
270.00	1298.41
270.22	1255.40
270.43	1282.03
270.65	1241.07
270.87	1245.16
271.08	1232.88
271.30	1245.16
271.51	1302.51
271.73	1204.21
271.95	1224.69
272.16	1245.16
272.38	1218.54
272.59	1245.16
272.81	1290.22
273.02	1261.55
273.24	1253.36
273.46	1271.79
273.67	1239.02
273.89	1263.60
274.10	1288.17
274.32	1183.73
274.54	1257.45
274.75	1232.88
274.97	1220.59
275.18	1271.79
275.40	1191.92
275.61	1261.55
275.83	1261.55
276.05	1329.13
276.26	1273.84
276.48	1241.07
276.69	1322.99
276.91	1208.30
277.12	1279.98
277.34	1241.07
277.55	1302.51
277.77	1265.64
277.99	1273.84
278.20	1228.78
278.42	1306.60
278.63	1208.30
278.85	1257.45
279.06	1224.69
279.28	1333.23
279.49	1183.73
279.71	1247.21
279.93	1304.56
280.14	1279.98
280.36	1245.16
280.57	1327.08
280.79	1306.60
281.00	1208.30
281.22	1239.02
281.43	1251.31
281.65	1249.26
281.86	1310.70
282.08	1222.64
282.29	1294.32
282.51	1275.88
282.73	1259.50
282.94	1286.12
283.16	1290.22
283.37	1255.40
283.59	1228.78
283.80	1200.11
284.02	1273.84
284.23	1228.78
284.45	1277.93
284.66	1286.12
284.88	1290.22
285.09	1261.55
285.31	1337.32
285.52	1275.88
285.74	1200.11
285.95	1288.17
286.17	1243.12
286.38	1239.02
286.60	1241.07
286.81	1220.59
287.03	1269.74
287.24	1230.83
287.46	1210.35
287.67	1261.55
287.89	1241.07
288.10	1239.02
288.32	1318.89
288.53	1284.08
288.75	1335.28
288.96	1265.64
289.18	1261.55
289.39	1327.08
289.61	1269.74
289.82	1284.08
290.04	1349.61
290.25	1292.27
290.47	1214.45
290.68	1241.07
290.90	1243.12
291.11	1253.36
291.33	1216.49
291.54	1224.69
291.76	1247.21
291.97	1271.79
292.18	1288.17
292.40	1257.45
292.61	1224.69
292.83	1347.56
293.04	1265.64
293.26	1257.45
293.47	1327.08
293.69	1224.69
293.90	1271.79
294.12	1314.80
294.33	1294.32
294.55	1290.22
294.76	1257.45
294.97	1302.51
295.19	1300.46
295.40	1255.40
295.62	1273.84
295.83	1224.69
296.05	1290.22
296.26	1236.97
296.48	1220.59
296.69	1241.07
296.90	1304.56
297.12	1376.24
297.33	1277.93
297.55	1290.22
297.76	1288.17
297.98	1173.49
298.19	1310.70
298.41	1232.88
298.62	1257.45
298.83	1263.60
299.05	1206.25
299.26	1341.42
299.48	1282.03
299.69	1279.98
299.90	1259.50
300.12	1208.30
300.33	1210.35
300.55	1228.78
300.76	1388.52
300.98	1263.60
301.19	1249.26
301.40	1355.76
301.62	1169.39
301.83	1318.89
302.05	1222.64
302.26	1271.79
302.47	1284.08
302.69	1236.97
302.90	1206.25
303.12	1251.31
303.33	1286.12
303.54	1292.27
303.76	1279.98
303.97	1247.21
304.19	1255.40
304.40	1253.36
304.61	1249.26
304.83	1253.36
305.04	1255.40
305.26	1345.52
305.47	1255.40
305.68	1253.36
305.90	1241.07
306.11	1239.02
306.33	1241.07
306.54	1241.07
306.75	1239.02
306.97	1322.99
307.18	1239.02
307.39	1314.80
307.61	1298.41
307.82	1302.51
308.04	1294.32
308.25	1257.45
308.46	1263.60
308.68	1290.22
308.89	1284.08
309.10	1234.93
309.32	1294.32
309.53	1247.21
309.74	1245.16
309.96	1300.46
310.17	1239.02
310.39	1284.08
310.60	1269.74
310.81	1265.64
311.03	1275.88
311.24	1253.36
311.45	1312.75
311.67	1308.65
311.88	1249.26
312.09	1245.16
312.31	1271.79
312.52	1196.01
312.73	1257.45
312.95	1296.36
313.16	1204.21
313.37	1318.89
313.59	1236.97
313.80	1234.93
314.01	1271.79
314.23	1273.84
314.44	1304.56
314.65	1290.22
314.87	1230.83
315.08	1304.56
315.29	1241.07
315.51	1236.97
315.72	1277.93
315.93	1236.97
316.15	1310.70
316.36	1302.51
316.57	1226.73
316.79	1222.64
317.00	1265.64
317.21	1202.16
317.43	1247.21
317.64	1290.22
317.85	1335.28
318.07	1275.88
318.28	1259.50
318.49	1286.12
318.70	1312.75
318.92	1271.79
319.13	1331.18
319.34	1243.12
319.56	1273.84
319.77	1253.36
319.98	1230.83
320.20	1210.35
320.41	1284.08
320.62	1308.65
320.83	1249.26
321.05	1296.36
321.26	1296.36
321.47	1279.98
321.69	1282.03
321.90	1316.84
322.11	1253.36
322.32	1277.93
322.54	1243.12
322.75	1298.41
322.96	1304.56
323.18	1247.21
323.39	1286.12
323.60	1249.26
323.81	1247.21
324.03	1318.89
324.24	1220.59
324.45	1247.21
324.66	1284.08
324.88	1300.46
325.09	1267.69
325.30	1261.55
325.52	1302.51
325.73	1277.93
325.94	1239.02
326.15	1232.88
326.37	1267.69
326.58	1284.08
326.79	1249.26
327.00	1261.55
327.22	1318.89
327.43	1241.07
327.64	1185.77
327.85	1267.69
328.07	1247.21
328.28	1333.23
328.49	1296.36
328.70	1263.60
328.92	1286.12
329.13	1288.17
329.34	1318.89
329.55	1279.98
329.76	1230.83
329.98	1341.42
330.19	1245.16
330.40	1259.50
330.61	1230.83
330.83	1249.26
331.04	1294.32
331.25	1247.21
331.46	1327.08
331.68	1269.74
331.89	1241.07
332.10	1241.07
332.31	1228.78
332.52	1249.26
332.74	1306.60
332.95	1204.21
333.16	1220.59
333.37	1218.54
333.58	1318.89
333.80	1294.32
334.01	1269.74
334.22	1265.64
334.43	1218.54
334.64	1208.30
334.86	1329.13
335.07	1232.88
335.28	1290.22
335.49	1325.04
335.70	1249.26
335.92	1224.69
336.13	1263.60
336.34	1304.56
336.55	1220.59
336.76	1341.42
336.98	1232.88
337.19	1271.79
337.40	1222.64
337.61	1290.22
337.82	1298.41
338.04	1292.27
338.25	1306.60
338.46	1222.64
338.67	1216.49
338.88	1236.97
339.09	1218.54
339.31	1239.02
339.52	1218.54
339.73	1290.22
339.94	1218.54
340.15	1236.97
340.36	1265.64
340.58	1322.99
340.79	1273.84
341.00	1269.74
341.21	1290.22
341.42	1370.09
341.63	1294.32
341.85	1257.45
342.06	1183.73
342.27	1259.50
342.48	1279.98
342.69	1236.97
342.90	1255.40
343.12	1290.22
343.33	1275.88
343.54	1222.64
343.75	1220.59
343.96	1400.81
344.17	1230.83
344.38	1259.50
344.60	1302.51
344.81	1273.84
345.02	1257.45
345.23	1282.03
345.44	1269.74
345.65	1298.41
345.86	1245.16
346.07	1208.30
346.29	1261.55
346.50	1257.45
346.71	1259.50
346.92	1304.56
347.13	1300.46
347.34	1236.97
347.55	1257.45
347.76	1302.51
347.98	1279.98
348.19	1275.88
348.40	1308.65
348.61	1322.99
348.82	1257.45
349.03	1273.84
349.24	1312.75
349.45	1267.69
349.66	1284.08
349.88	1284.08
350.09	1232.88
350.30	1314.80
350.51	1273.84
350.72	1198.06
350.93	1255.40
351.14	1318.89
351.35	1306.60
351.56	1279.98
351.77	1243.12
351.99	1288.17
352.20	1263.60
352.41	1247.21
352.62	1312.75
352.83	1228.78
353.04	1255.40
353.25	1298.41
353.46	1169.39
353.67	1265.64
353.88	1314.80
354.09	1239.02
354.30	1271.79
354.52	1310.70
354.73	1296.36
354.94	1327.08
355.15	1253.36
355.36	1282.03
355.57	1257.45
355.78	1312.75
355.99	1302.51
356.20	1236.97
356.41	1306.60
356.62	1347.56
356.83	1253.36
357.04	1228.78
357.25	1259.50
357.46	1286.12
357.68	1267.69
357.89	1167.34
358.10	1310.70
358.31	1232.88
358.52	1296.36
358.73	1230.83
358.94	1247.21
359.15	1286.12
359.36	1222.64
359.57	1204.21
359.78	1318.89
359.99	1267.69
360.20	1282.03
360.41	1296.36
360.62	1298.41
360.83	1279.98
361.04	1259.50
361.25	1343.47
361.46	1230.83
361.67	1234.93
361.88	1228.78
362.09	1236.97
362.30	1284.08
362.51	1308.65
362.72	1322.99
362.93	1210.35
363.14	1241.07
363.35	1304.56
363.56	1284.08
363.78	1355.76
363.99	1345.52
364.20	1224.69
364.41	1255.40
364.62	1318.89
364.83	1241.07
365.04	1265.64
365.25	1312.75
365.46	1249.26
365.67	1191.92
365.88	1284.08
366.09	1206.25
366.30	1212.40
366.51	1329.13
366.72	1310.70
366.93	1265.64
367.14	1290.22
367.35	1269.74
367.56	1282.03
367.77	1230.83
367.98	1226.73
368.18	1271.79
368.39	1257.45
368.60	1296.36
368.81	1273.84
369.02	1216.49
369.23	1277.93
369.44	1306.60
369.65	1308.65
369.86	1306.60
370.07	1253.36
370.28	1294.32
370.49	1292.27
370.70	1314.80
370.91	1269.74
371.12	1325.04
371.33	1306.60
371.54	1275.88
371.75	1243.12
371.96	1247.21
372.17	1239.02
372.38	1222.64
372.59	1234.93
372.80	1273.84
373.01	1191.92
373.22	1306.60
373.43	1259.50
373.64	1296.36
373.85	1308.65
374.06	1288.17
374.26	1202.16
374.47	1333.23
374.68	1175.53
374.89	1300.46
375.10	1251.31
375.31	1226.73
375.52	1245.16
375.73	1243.12
375.94	1277.93
376.15	1222.64
376.36	1271.79
376.57	1232.88
376.78	1306.60
376.99	1249.26
377.20	1300.46
377.40	1310.70
377.61	1318.89
377.82	1230.83
378.03	1304.56
378.24	1257.45
378.45	1298.41
378.66	1234.93
378.87	1263.60
379.08	1245.16
379.29	1314.80
379.50	1355.76
379.71	1320.94
379.91	1282.03
380.12	1304.56
380.33	1241.07
380.54	1247.21
380.75	1306.60
380.96	1198.06
381.17	1284.08
381.38	1284.08
381.59	1282.03
381.80	1263.60
382.00	1247.21
382.21	1343.47
382.42	1308.65
382.63	1316.84
382.84	1206.25
383.05	1200.11
383.26	1259.50
383.47	1265.64
383.68	1198.06
383.88	1245.16
384.09	1265.64
384.30	1210.35
384.51	1249.26
384.72	1224.69
384.93	1232.88
385.14	1273.84
385.35	1306.60
385.55	1265.64
385.76	1304.56
385.97	1275.88
386.18	1314.80
386.39	1243.12
386.60	1249.26
386.81	1239.02
387.02	1226.73
387.22	1294.32
387.43	1290.22
387.64	1234.93
387.85	1304.56
388.06	1277.93
388.27	1302.51
388.48	1228.78
388.68	1255.40
388.89	1241.07
389.10	1241.07
389.31	1296.36
389.52	1282.03
389.73	1247.21
389.93	1271.79
390.14	1322.99
390.35	1318.89
390.56	1273.84
390.77	1279.98
390.98	1251.31
391.18	1282.03
391.39	1314.80
391.60	1247.21
391.81	1245.16
392.02	1265.64
392.23	1288.17
392.43	1241.07
392.64	1259.50
392.85	1249.26
393.06	1277.93
393.27	1294.32
393.47	1288.17
393.68	1257.45
393.89	1253.36
394.10	1286.12
394.31	1236.97
394.52	1259.50
394.72	1232.88
394.93	1298.41
395.14	1234.93
395.35	1300.46
395.56	1322.99
395.76	1271.79
395.97	1239.02
396.18	1259.50
396.39	1304.56
396.60	1282.03
396.80	1292.27
397.01	1224.69
397.22	1337.32
397.43	1269.74
397.64	1228.78
397.84	1345.52
398.05	1296.36
398.26	1265.64
398.47	1228.78
398.67	1349.61
398.88	1204.21
399.09	1282.03
399.30	1210.35
399.51	1255.40
399.71	1269.74
399.92	1322.99
400.13	1251.31
400.34	1247.21
400.54	1322.99
400.75	1320.94
400.96	1241.07
401.17	1249.26
401.37	1290.22
401.58	1273.84
401.79	1353.71
402.00	1202.16
402.21	1230.83
402.41	1220.59
402.62	1277.93
402.83	1267.69
403.04	1296.36
403.24	1236.97
403.45	1329.13
403.66	1314.80
403.87	1255.40
404.07	1255.40
404.28	1212.40
404.49	1308.65
404.70	1327.08
404.90	1167.34
405.11	1343.47
405.32	1286.12
405.52	1255.40
405.73	1239.02
405.94	1208.30
406.15	1282.03
406.35	1200.11
406.56	1288.17
406.77	1234.93
406.98	1245.16
407.18	1230.83
407.39	1347.56
407.60	1261.55
407.80	1261.55
408.01	1234.93
408.22	1257.45
408.43	1306.60
408.63	1243.12
408.84	1286.12
409.05	1343.47
409.25	1261.55
409.46	1232.88
409.67	1292.27
409.88	1253.36
410.08	1243.12
410.29	1331.18
410.50	1333.23
410.70	1298.41
410.91	1226.73
411.12	1279.98
411.32	1277.93
411.53	1267.69
411.74	1288.17
411.95	1300.46
412.15	1284.08
412.36	1251.31
412.57	1257.45
412.77	1294.32
412.98	1255.40
413.19	1263.60
413.39	1218.54
413.60	1241.07
413.81	1251.31
414.01	1214.45
414.22	1298.41
414.43	1282.03
414.63	1257.45
414.84	1249.26
415.05	1282.03
415.25	1279.98
415.46	1277.93
415.67	1245.16
415.87	1249.26
416.08	1249.26
416.29	1306.60
416.49	1271.79
416.70	1204.21
416.91	1271.79
417.11	1255.40
417.32	1269.74
417.53	1232.88
417.73	1271.79
417.94	1257.45
418.15	1298.41
418.35	1269.74
418.56	1302.51
418.77	1259.50
418.97	1265.64
419.18	1183.73
419.38	1267.69
419.59	1284.08
419.80	1241.07
420.00	1259.50
420.21	1300.46
420.42	1273.84
420.62	1329.13
420.83	1288.17
421.04	1339.37
421.24	1322.99
421.45	1320.94
421.65	1273.84
421.86	1292.27
422.07	1251.31
422.27	1241.07
422.48	1234.93
422.69	1320.94
422.89	1304.56
423.10	1200.11
423.30	1290.22
423.51	1294.32
423.72	1239.02
423.92	1259.50
424.13	1224.69
424.33	1306.60
424.54	1290.22
424.75	1241.07
424.95	1314.80
425.16	1292.27
425.36	1267.69
425.57	1296.36
425.78	1165.29
425.98	1292.27
426.19	1218.54
426.39	1288.17
426.60	1218.54
426.81	1329.13
427.01	1275.88
427.22	1339.37
427.42	1290.22
427.63	1277.93
427.83	1312.75
428.04	1255.40
428.25	1288.17
428.45	1271.79
428.66	1290.22
428.86	1255.40
429.07	1222.64
429.28	1216.49
429.48	1216.49
429.69	1290.22
429.89	1271.79
430.10	1222.64
430.30	1269.74
430.51	1249.26
430.71	1187.82
430.92	1224.69
431.13	1249.26
431.33	1286.12
431.54	1284.08
431.74	1282.03
431.95	1220.59
432.15	1345.52
432.36	1271.79
432.56	1271.79
432.77	1210.35
432.98	1284.08
433.18	1269.74
433.39	1286.12
433.59	1284.08
433.80	1306.60
434.00	1257.45
434.21	1355.76
434.41	1236.97
434.62	1236.97
434.82	1318.89
435.03	1296.36
435.23	1316.84
435.44	1236.97
435.64	1222.64
435.85	1275.88
436.06	1251.31
436.26	1249.26
436.47	1271.79
436.67	1269.74
436.88	1308.65
437.08	1400.81
437.29	1259.50
437.49	1271.79
437.70	1255.40
437.90	1353.71
438.11	1288.17
438.31	1298.41
438.52	1298.41
438.72	1333.23
438.93	1353.71
439.13	1298.41
439.34	1251.31
439.54	1347.56
439.75	1249.26
439.95	1273.84
440.16	1282.03
440.36	1239.02
440.57	1177.58
440.77	1292.27
440.98	1259.50
441.18	1331.18
441.39	1261.55
441.59	1351.66
441.80	1245.16
442.00	1224.69
442.21	1288.17
442.41	1247.21
442.62	1245.16
442.82	1312.75
443.02	1259.50
443.23	1257.45
443.43	1355.76
443.64	1300.46
443.84	1243.12
444.05	1320.94
444.25	1296.36
444.46	1298.41
444.66	1271.79
444.87	1341.42
445.07	1282.03
445.28	1212.40
445.48	1308.65
445.69	1275.88
445.89	1329.13
446.09	1284.08
446.30	1292.27
446.50	1214.45
446.71	1267.69
446.91	1314.80
447.12	1265.64
447.32	1282.03
447.53	1290.22
447.73	1196.01
447.93	1273.84
448.14	1292.27
448.34	1292.27
448.55	1214.45
448.75	1312.75
448.96	1314.80
449.16	1261.55
449.36	1259.50
449.57	1312.75
449.77	1337.32
449.98	1284.08
450.18	1288.17
450.39	1279.98
450.59	1228.78
450.79	1216.49
451.00	1314.80
451.20	1294.32
451.41	1316.84
451.61	1286.12
451.81	1298.41
452.02	1320.94
452.22	1306.60
452.43	1271.79
452.63	1247.21
