SpectraSuite Data File
++++++++++++++++++++++++++++++++++++
Date: Sun Apr 03 19:55:44 CEST 2016
User: root
Dark Spectrum Present: No
Reference Spectrum Present: No
Number of Sampled Component Spectra: 1
Spectrometers: USB4C02835
Integration Time (usec): 10000 (USB4C02835)
Spectra Averaged: 1 (USB4C02835)
Boxcar Smoothing: 0 (USB4C02835)
Correct for Electrical Dark: No (USB4C02835)
Strobe/Lamp Enabled: No (USB4C02835)
Correct for Detector Non-linearity: No (USB4C02835)
Correct for Stray Light: No (USB4C02835)
Number of Pixels in Processed Spectrum: 3648
>>>>>Begin Processed Spectral Data<<<<<
177.47	1314.80
177.69	1314.80
177.91	1314.80
178.13	1249.26
178.36	1261.55
178.58	1306.60
178.80	1259.50
179.02	1273.84
179.24	1228.78
179.46	1212.40
179.68	1216.49
179.90	1253.36
180.13	1265.64
180.35	1220.59
180.57	1232.88
180.79	1292.27
181.01	1316.84
181.23	1265.64
181.45	1206.25
181.67	1257.45
181.90	1282.03
182.12	1320.94
182.34	1349.61
182.56	1302.51
182.78	1216.49
183.00	1267.69
183.22	1200.11
183.44	1322.99
183.66	1263.60
183.89	1322.99
184.11	1245.16
184.33	1308.65
184.55	1249.26
184.77	1298.41
184.99	1257.45
185.21	1271.79
185.43	1271.79
185.65	1236.97
185.87	1277.93
186.10	1263.60
186.32	1265.64
186.54	1267.69
186.76	1241.07
186.98	1175.53
187.20	1259.50
187.42	1257.45
187.64	1314.80
187.86	1271.79
188.08	1216.49
188.30	1320.94
188.52	1327.08
188.75	1294.32
188.97	1279.98
189.19	1279.98
189.41	1230.83
189.63	1239.02
189.85	1230.83
190.07	1275.88
190.29	1228.78
190.51	1234.93
190.73	1185.77
190.95	1306.60
191.17	1282.03
191.39	1228.78
191.61	1253.36
191.84	1230.83
192.06	1204.21
192.28	1224.69
192.50	1273.84
192.72	1284.08
192.94	1316.84
193.16	1222.64
193.38	1322.99
193.60	1282.03
193.82	1320.94
194.04	1241.07
194.26	1261.55
194.48	1271.79
194.70	1232.88
194.92	1282.03
195.14	1310.70
195.36	1200.11
195.58	1236.97
195.80	1302.51
196.02	1288.17
196.24	1216.49
196.46	1286.12
196.69	1241.07
196.91	1290.22
197.13	1282.03
197.35	1345.52
197.57	1294.32
197.79	1220.59
198.01	1247.21
198.23	1333.23
198.45	1220.59
198.67	1349.61
198.89	1282.03
199.11	1273.84
199.33	1310.70
199.55	1249.26
199.77	1230.83
199.99	1277.93
200.21	1210.35
200.43	1306.60
200.65	1279.98
200.87	1306.60
201.09	1341.42
201.31	1302.51
201.53	1226.73
201.75	1277.93
201.97	1257.45
202.19	1249.26
202.41	1259.50
202.63	1224.69
202.85	1304.56
203.07	1300.46
203.29	1243.12
203.51	1261.55
203.73	1304.56
203.95	1228.78
204.17	1257.45
204.39	1320.94
204.61	1255.40
204.83	1226.73
205.05	1230.83
205.27	1265.64
205.49	1191.92
205.71	1261.55
205.93	1316.84
206.15	1232.88
206.37	1241.07
206.59	1335.28
206.81	1224.69
207.03	1277.93
207.25	1277.93
207.47	1275.88
207.69	1288.17
207.91	1257.45
208.13	1220.59
208.34	1308.65
208.56	1294.32
208.78	1292.27
209.00	1277.93
209.22	1292.27
209.44	1224.69
209.66	1288.17
209.88	1273.84
210.10	1224.69
210.32	1208.30
210.54	1312.75
210.76	1200.11
210.98	1277.93
211.20	1255.40
211.42	1279.98
211.64	1265.64
211.86	1331.18
212.08	1269.74
212.30	1273.84
212.52	1220.59
212.74	1273.84
212.96	1214.45
213.17	1331.18
213.39	1320.94
213.61	1259.50
213.83	1376.24
214.05	1243.12
214.27	1290.22
214.49	1265.64
214.71	1273.84
214.93	1253.36
215.15	1271.79
215.37	1259.50
215.59	1292.27
215.81	1308.65
216.03	1263.60
216.24	1298.41
216.46	1245.16
216.68	1290.22
216.90	1251.31
217.12	1241.07
217.34	1337.32
217.56	1267.69
217.78	1329.13
218.00	1310.70
218.22	1241.07
218.44	1273.84
218.66	1245.16
218.87	1288.17
219.09	1284.08
219.31	1271.79
219.53	1333.23
219.75	1222.64
219.97	1208.30
220.19	1345.52
220.41	1263.60
220.63	1247.21
220.85	1263.60
221.06	1204.21
221.28	1263.60
221.50	1228.78
221.72	1261.55
221.94	1316.84
222.16	1284.08
222.38	1261.55
222.60	1286.12
222.82	1257.45
223.03	1224.69
223.25	1271.79
223.47	1247.21
223.69	1245.16
223.91	1306.60
224.13	1214.45
224.35	1236.97
224.57	1239.02
224.78	1282.03
225.00	1263.60
225.22	1222.64
225.44	1267.69
225.66	1345.52
225.88	1251.31
226.10	1288.17
226.32	1312.75
226.53	1304.56
226.75	1292.27
226.97	1247.21
227.19	1277.93
227.41	1257.45
227.63	1245.16
227.85	1247.21
228.06	1304.56
228.28	1249.26
228.50	1333.23
228.72	1320.94
228.94	1314.80
229.16	1284.08
229.37	1304.56
229.59	1247.21
229.81	1241.07
230.03	1296.36
230.25	1279.98
230.47	1243.12
230.69	1288.17
230.90	1255.40
231.12	1294.32
231.34	1302.51
231.56	1277.93
231.78	1251.31
232.00	1298.41
232.21	1286.12
232.43	1361.90
232.65	1312.75
232.87	1312.75
233.09	1177.58
233.30	1331.18
233.52	1294.32
233.74	1232.88
233.96	1255.40
234.18	1347.56
234.40	1212.40
234.61	1263.60
234.83	1265.64
235.05	1286.12
235.27	1173.49
235.49	1286.12
235.70	1249.26
235.92	1261.55
236.14	1318.89
236.36	1265.64
236.58	1228.78
236.79	1271.79
237.01	1290.22
237.23	1218.54
237.45	1363.95
237.67	1167.34
237.88	1304.56
238.10	1230.83
238.32	1284.08
238.54	1247.21
238.76	1273.84
238.97	1261.55
239.19	1308.65
239.41	1271.79
239.63	1241.07
239.85	1320.94
240.06	1308.65
240.28	1302.51
240.50	1294.32
240.72	1277.93
240.93	1288.17
241.15	1224.69
241.37	1314.80
241.59	1304.56
241.81	1349.61
242.02	1300.46
242.24	1298.41
242.46	1302.51
242.68	1251.31
242.89	1220.59
243.11	1322.99
243.33	1239.02
243.55	1253.36
243.76	1239.02
243.98	1265.64
244.20	1196.01
244.42	1245.16
244.64	1208.30
244.85	1216.49
245.07	1269.74
245.29	1259.50
245.51	1259.50
245.72	1163.25
245.94	1261.55
246.16	1236.97
246.38	1329.13
246.59	1228.78
246.81	1265.64
247.03	1271.79
247.24	1218.54
247.46	1271.79
247.68	1224.69
247.90	1251.31
248.11	1259.50
248.33	1253.36
248.55	1263.60
248.77	1226.73
248.98	1232.88
249.20	1267.69
249.42	1236.97
249.64	1245.16
249.85	1261.55
250.07	1224.69
250.29	1361.90
250.50	1257.45
250.72	1325.04
250.94	1241.07
251.16	1339.37
251.37	1298.41
251.59	1206.25
251.81	1230.83
252.02	1339.37
252.24	1304.56
252.46	1208.30
252.68	1292.27
252.89	1282.03
253.11	1296.36
253.33	1300.46
253.54	1331.18
253.76	1277.93
253.98	1181.68
254.20	1288.17
254.41	1249.26
254.63	1298.41
254.85	1294.32
255.06	1265.64
255.28	1173.49
255.50	1290.22
255.71	1251.31
255.93	1279.98
256.15	1335.28
256.36	1279.98
256.58	1236.97
256.80	1347.56
257.02	1310.70
257.23	1325.04
257.45	1200.11
257.67	1271.79
257.88	1302.51
258.10	1288.17
258.32	1191.92
258.53	1302.51
258.75	1253.36
258.97	1249.26
259.18	1277.93
259.40	1253.36
259.62	1239.02
259.83	1265.64
260.05	1288.17
260.27	1286.12
260.48	1228.78
260.70	1292.27
260.92	1232.88
261.13	1251.31
261.35	1241.07
261.57	1249.26
261.78	1257.45
262.00	1318.89
262.22	1255.40
262.43	1245.16
262.65	1251.31
262.86	1249.26
263.08	1265.64
263.30	1282.03
263.51	1179.63
263.73	1273.84
263.95	1279.98
264.16	1355.76
264.38	1286.12
264.60	1300.46
264.81	1259.50
265.03	1257.45
265.25	1269.74
265.46	1273.84
265.68	1263.60
265.89	1241.07
266.11	1288.17
266.33	1196.01
266.54	1230.83
266.76	1322.99
266.98	1247.21
267.19	1265.64
267.41	1245.16
267.62	1265.64
267.84	1277.93
268.06	1304.56
268.27	1249.26
268.49	1288.17
268.70	1304.56
268.92	1230.83
269.14	1245.16
269.35	1216.49
269.57	1284.08
269.79	1255.40
270.00	1286.12
270.22	1271.79
270.43	1265.64
270.65	1220.59
270.87	1329.13
271.08	1279.98
271.30	1345.52
271.51	1263.60
271.73	1271.79
271.95	1277.93
272.16	1234.93
272.38	1286.12
272.59	1294.32
272.81	1234.93
273.02	1249.26
273.24	1228.78
273.46	1300.46
273.67	1189.87
273.89	1259.50
274.10	1220.59
274.32	1388.52
274.54	1294.32
274.75	1279.98
274.97	1265.64
275.18	1224.69
275.40	1255.40
275.61	1220.59
275.83	1257.45
276.05	1275.88
276.26	1288.17
276.48	1318.89
276.69	1298.41
276.91	1243.12
277.12	1292.27
277.34	1294.32
277.55	1243.12
277.77	1224.69
277.99	1306.60
278.20	1294.32
278.42	1265.64
278.63	1388.52
278.85	1298.41
279.06	1292.27
279.28	1228.78
279.49	1255.40
279.71	1325.04
279.93	1191.92
280.14	1245.16
280.36	1294.32
280.57	1279.98
280.79	1251.31
281.00	1220.59
281.22	1335.28
281.43	1386.47
281.65	1267.69
281.86	1337.32
282.08	1189.87
282.29	1298.41
282.51	1312.75
282.73	1265.64
282.94	1279.98
283.16	1286.12
283.37	1273.84
283.59	1306.60
283.80	1290.22
284.02	1265.64
284.23	1296.36
284.45	1263.60
284.66	1226.73
284.88	1230.83
285.09	1253.36
285.31	1210.35
285.52	1249.26
285.74	1218.54
285.95	1214.45
286.17	1298.41
286.38	1263.60
286.60	1232.88
286.81	1310.70
287.03	1275.88
287.24	1239.02
287.46	1253.36
287.67	1228.78
287.89	1271.79
288.10	1257.45
288.32	1288.17
288.53	1181.68
288.75	1230.83
288.96	1245.16
289.18	1255.40
289.39	1277.93
289.61	1220.59
289.82	1279.98
290.04	1253.36
290.25	1331.18
290.47	1263.60
290.68	1228.78
290.90	1327.08
291.11	1261.55
291.33	1306.60
291.54	1259.50
291.76	1259.50
291.97	1282.03
292.18	1265.64
292.40	1247.21
292.61	1273.84
292.83	1263.60
293.04	1241.07
293.26	1263.60
293.47	1220.59
293.69	1277.93
293.90	1202.16
294.12	1265.64
294.33	1224.69
294.55	1259.50
294.76	1261.55
294.97	1251.31
295.19	1239.02
295.40	1269.74
295.62	1290.22
295.83	1191.92
296.05	1232.88
296.26	1241.07
296.48	1247.21
296.69	1294.32
296.90	1269.74
297.12	1273.84
297.33	1366.00
297.55	1302.51
297.76	1275.88
297.98	1247.21
298.19	1310.70
298.41	1251.31
298.62	1222.64
298.83	1304.56
299.05	1298.41
299.26	1255.40
299.48	1224.69
299.69	1241.07
299.90	1302.51
300.12	1236.97
300.33	1298.41
300.55	1300.46
300.76	1318.89
300.98	1257.45
301.19	1271.79
301.40	1265.64
301.62	1234.93
301.83	1327.08
302.05	1322.99
302.26	1230.83
302.47	1339.37
302.69	1316.84
302.90	1310.70
303.12	1247.21
303.33	1236.97
303.54	1282.03
303.76	1245.16
303.97	1333.23
304.19	1234.93
304.40	1279.98
304.61	1234.93
304.83	1277.93
305.04	1318.89
305.26	1243.12
305.47	1265.64
305.68	1277.93
305.90	1206.25
306.11	1220.59
306.33	1284.08
306.54	1279.98
306.75	1253.36
306.97	1245.16
307.18	1363.95
307.39	1337.32
307.61	1290.22
307.82	1273.84
308.04	1271.79
308.25	1265.64
308.46	1193.97
308.68	1259.50
308.89	1202.16
309.10	1224.69
309.32	1251.31
309.53	1320.94
309.74	1286.12
309.96	1261.55
310.17	1263.60
310.39	1277.93
310.60	1204.21
310.81	1187.82
311.03	1300.46
311.24	1310.70
311.45	1267.69
311.67	1296.36
311.88	1300.46
312.09	1282.03
312.31	1249.26
312.52	1302.51
312.73	1269.74
312.95	1257.45
313.16	1304.56
313.37	1304.56
313.59	1273.84
313.80	1255.40
314.01	1284.08
314.23	1312.75
314.44	1230.83
314.65	1265.64
314.87	1247.21
315.08	1259.50
315.29	1304.56
315.51	1212.40
315.72	1282.03
315.93	1282.03
316.15	1271.79
316.36	1228.78
316.57	1253.36
316.79	1224.69
317.00	1226.73
317.21	1282.03
317.43	1218.54
317.64	1267.69
317.85	1398.76
318.07	1241.07
318.28	1236.97
318.49	1259.50
318.70	1296.36
318.92	1322.99
319.13	1249.26
319.34	1267.69
319.56	1241.07
319.77	1257.45
319.98	1341.42
320.20	1306.60
320.41	1216.49
320.62	1302.51
320.83	1277.93
321.05	1208.30
321.26	1171.44
321.47	1214.45
321.69	1271.79
321.90	1288.17
322.11	1284.08
322.32	1206.25
322.54	1288.17
322.75	1257.45
322.96	1279.98
323.18	1206.25
323.39	1265.64
323.60	1296.36
323.81	1347.56
324.03	1236.97
324.24	1212.40
324.45	1273.84
324.66	1282.03
324.88	1279.98
325.09	1314.80
325.30	1304.56
325.52	1298.41
325.73	1239.02
325.94	1298.41
326.15	1282.03
326.37	1290.22
326.58	1327.08
326.79	1181.68
327.00	1306.60
327.22	1288.17
327.43	1226.73
327.64	1224.69
327.85	1263.60
328.07	1234.93
328.28	1286.12
328.49	1245.16
328.70	1257.45
328.92	1226.73
329.13	1329.13
329.34	1306.60
329.55	1263.60
329.76	1253.36
329.98	1284.08
330.19	1243.12
330.40	1292.27
330.61	1282.03
330.83	1341.42
331.04	1271.79
331.25	1288.17
331.46	1333.23
331.68	1224.69
331.89	1265.64
332.10	1234.93
332.31	1322.99
332.52	1277.93
332.74	1325.04
332.95	1216.49
333.16	1288.17
333.37	1261.55
333.58	1265.64
333.80	1288.17
334.01	1208.30
334.22	1265.64
334.43	1208.30
334.64	1329.13
334.86	1236.97
335.07	1322.99
335.28	1239.02
335.49	1204.21
335.70	1267.69
335.92	1261.55
336.13	1304.56
336.34	1245.16
336.55	1286.12
336.76	1239.02
336.98	1259.50
337.19	1249.26
337.40	1294.32
337.61	1277.93
337.82	1245.16
338.04	1253.36
338.25	1290.22
338.46	1226.73
338.67	1214.45
338.88	1310.70
339.09	1214.45
339.31	1220.59
339.52	1232.88
339.73	1187.82
339.94	1226.73
340.15	1255.40
340.36	1234.93
340.58	1251.31
340.79	1198.06
341.00	1318.89
341.21	1251.31
341.42	1277.93
341.63	1214.45
341.85	1259.50
342.06	1263.60
342.27	1241.07
342.48	1302.51
342.69	1214.45
342.90	1308.65
343.12	1259.50
343.33	1243.12
343.54	1259.50
343.75	1282.03
343.96	1265.64
344.17	1294.32
344.38	1279.98
344.60	1282.03
344.81	1333.23
345.02	1335.28
345.23	1267.69
345.44	1325.04
345.65	1308.65
345.86	1267.69
346.07	1228.78
346.29	1265.64
346.50	1269.74
346.71	1277.93
346.92	1226.73
347.13	1220.59
347.34	1251.31
347.55	1253.36
347.76	1288.17
347.98	1220.59
348.19	1267.69
348.40	1261.55
348.61	1239.02
348.82	1245.16
349.03	1277.93
349.24	1296.36
349.45	1312.75
349.66	1366.00
349.88	1232.88
350.09	1175.53
350.30	1247.21
350.51	1304.56
350.72	1265.64
350.93	1286.12
351.14	1306.60
351.35	1320.94
351.56	1220.59
351.77	1243.12
351.99	1214.45
352.20	1282.03
352.41	1288.17
352.62	1259.50
352.83	1282.03
353.04	1282.03
353.25	1189.87
353.46	1275.88
353.67	1236.97
353.88	1206.25
354.09	1277.93
354.30	1282.03
354.52	1193.97
354.73	1304.56
354.94	1310.70
355.15	1298.41
355.36	1222.64
355.57	1181.68
355.78	1290.22
355.99	1304.56
356.20	1218.54
356.41	1261.55
356.62	1294.32
356.83	1261.55
357.04	1159.15
357.25	1306.60
357.46	1236.97
357.68	1259.50
357.89	1165.29
358.10	1314.80
358.31	1222.64
358.52	1308.65
358.73	1263.60
358.94	1318.89
359.15	1294.32
359.36	1290.22
359.57	1202.16
359.78	1288.17
359.99	1247.21
360.20	1294.32
360.41	1218.54
360.62	1259.50
360.83	1259.50
361.04	1398.76
361.25	1230.83
361.46	1214.45
361.67	1257.45
361.88	1275.88
362.09	1331.18
362.30	1220.59
362.51	1335.28
362.72	1236.97
362.93	1339.37
363.14	1261.55
363.35	1294.32
363.56	1353.71
363.78	1322.99
363.99	1335.28
364.20	1349.61
364.41	1273.84
364.62	1376.24
364.83	1247.21
365.04	1224.69
365.25	1322.99
365.46	1290.22
365.67	1232.88
365.88	1245.16
366.09	1249.26
366.30	1325.04
366.51	1265.64
366.72	1290.22
366.93	1259.50
367.14	1236.97
367.35	1200.11
367.56	1228.78
367.77	1345.52
367.98	1239.02
368.18	1255.40
368.39	1236.97
368.60	1298.41
368.81	1314.80
369.02	1239.02
369.23	1306.60
369.44	1279.98
369.65	1277.93
369.86	1331.18
370.07	1206.25
370.28	1298.41
370.49	1320.94
370.70	1275.88
370.91	1251.31
371.12	1187.82
371.33	1214.45
371.54	1251.31
371.75	1284.08
371.96	1232.88
372.17	1308.65
372.38	1251.31
372.59	1308.65
372.80	1263.60
373.01	1196.01
373.22	1265.64
373.43	1263.60
373.64	1269.74
373.85	1232.88
374.06	1202.16
374.26	1314.80
374.47	1234.93
374.68	1296.36
374.89	1236.97
375.10	1267.69
375.31	1327.08
375.52	1306.60
375.73	1290.22
375.94	1286.12
376.15	1241.07
376.36	1241.07
376.57	1210.35
376.78	1253.36
376.99	1304.56
377.20	1275.88
377.40	1300.46
377.61	1290.22
377.82	1239.02
378.03	1175.53
378.24	1222.64
378.45	1271.79
378.66	1284.08
378.87	1312.75
379.08	1146.86
379.29	1259.50
379.50	1204.21
379.71	1267.69
379.91	1306.60
380.12	1294.32
380.33	1337.32
380.54	1222.64
380.75	1263.60
380.96	1193.97
381.17	1275.88
381.38	1282.03
381.59	1204.21
381.80	1300.46
382.00	1249.26
382.21	1267.69
382.42	1230.83
382.63	1333.23
382.84	1257.45
383.05	1232.88
383.26	1347.56
383.47	1261.55
383.68	1273.84
383.88	1298.41
384.09	1247.21
384.30	1232.88
384.51	1239.02
384.72	1304.56
384.93	1228.78
385.14	1251.31
385.35	1259.50
385.55	1282.03
385.76	1241.07
385.97	1165.29
386.18	1200.11
386.39	1228.78
386.60	1269.74
386.81	1271.79
387.02	1284.08
387.22	1288.17
387.43	1296.36
387.64	1304.56
387.85	1302.51
388.06	1257.45
388.27	1331.18
388.48	1259.50
388.68	1331.18
388.89	1269.74
389.10	1216.49
389.31	1269.74
389.52	1273.84
389.73	1277.93
389.93	1257.45
390.14	1245.16
390.35	1228.78
390.56	1239.02
390.77	1277.93
390.98	1298.41
391.18	1279.98
391.39	1271.79
391.60	1312.75
391.81	1265.64
392.02	1249.26
392.23	1302.51
392.43	1298.41
392.64	1226.73
392.85	1187.82
393.06	1251.31
393.27	1263.60
393.47	1306.60
393.68	1271.79
393.89	1220.59
394.10	1335.28
394.31	1298.41
394.52	1290.22
394.72	1284.08
394.93	1363.95
395.14	1234.93
395.35	1236.97
395.56	1302.51
395.76	1308.65
395.97	1271.79
396.18	1239.02
396.39	1267.69
396.60	1259.50
396.80	1239.02
397.01	1220.59
397.22	1185.77
397.43	1206.25
397.64	1318.89
397.84	1304.56
398.05	1302.51
398.26	1282.03
398.47	1351.66
398.67	1320.94
398.88	1234.93
399.09	1255.40
399.30	1230.83
399.51	1251.31
399.71	1236.97
399.92	1288.17
400.13	1306.60
400.34	1277.93
400.54	1232.88
400.75	1232.88
400.96	1239.02
401.17	1318.89
401.37	1255.40
401.58	1263.60
401.79	1314.80
402.00	1302.51
402.21	1232.88
402.41	1222.64
402.62	1292.27
402.83	1216.49
403.04	1306.60
403.24	1298.41
403.45	1265.64
403.66	1255.40
403.87	1306.60
404.07	1271.79
404.28	1214.45
404.49	1279.98
404.70	1249.26
404.90	1218.54
405.11	1341.42
405.32	1269.74
405.52	1259.50
405.73	1245.16
405.94	1210.35
406.15	1257.45
406.35	1279.98
406.56	1312.75
406.77	1275.88
406.98	1245.16
407.18	1253.36
407.39	1216.49
407.60	1243.12
407.80	1224.69
408.01	1273.84
408.22	1345.52
408.43	1173.49
408.63	1322.99
408.84	1265.64
409.05	1271.79
409.25	1304.56
409.46	1236.97
409.67	1304.56
409.88	1316.84
410.08	1245.16
410.29	1243.12
410.50	1185.77
410.70	1239.02
410.91	1247.21
411.12	1216.49
411.32	1263.60
411.53	1257.45
411.74	1241.07
411.95	1269.74
412.15	1236.97
412.36	1271.79
412.57	1286.12
412.77	1312.75
412.98	1189.87
413.19	1304.56
413.39	1228.78
413.60	1247.21
413.81	1273.84
414.01	1290.22
414.22	1296.36
414.43	1290.22
414.63	1271.79
414.84	1228.78
415.05	1308.65
415.25	1306.60
415.46	1277.93
415.67	1277.93
415.87	1220.59
416.08	1288.17
416.29	1298.41
416.49	1245.16
416.70	1308.65
416.91	1247.21
417.11	1290.22
417.32	1218.54
417.53	1247.21
417.73	1310.70
417.94	1329.13
418.15	1255.40
418.35	1273.84
418.56	1351.66
418.77	1273.84
418.97	1269.74
419.18	1265.64
419.38	1275.88
419.59	1257.45
419.80	1241.07
420.00	1226.73
420.21	1206.25
420.42	1230.83
420.62	1298.41
420.83	1275.88
421.04	1335.28
421.24	1294.32
421.45	1243.12
421.65	1290.22
421.86	1363.95
422.07	1269.74
422.27	1234.93
422.48	1200.11
422.69	1196.01
422.89	1265.64
423.10	1216.49
423.30	1261.55
423.51	1243.12
423.72	1279.98
423.92	1245.16
424.13	1294.32
424.33	1308.65
424.54	1261.55
424.75	1267.69
424.95	1245.16
425.16	1273.84
425.36	1261.55
425.57	1279.98
425.78	1259.50
425.98	1251.31
426.19	1306.60
426.39	1218.54
426.60	1200.11
426.81	1294.32
427.01	1243.12
427.22	1304.56
427.42	1368.04
427.63	1198.06
427.83	1314.80
428.04	1275.88
428.25	1286.12
428.45	1269.74
428.66	1294.32
428.86	1228.78
429.07	1296.36
429.28	1247.21
429.48	1208.30
429.69	1230.83
429.89	1261.55
430.10	1253.36
430.30	1249.26
430.51	1318.89
430.71	1284.08
430.92	1284.08
431.13	1241.07
431.33	1269.74
431.54	1173.49
431.74	1245.16
431.95	1322.99
432.15	1206.25
432.36	1218.54
432.56	1206.25
432.77	1277.93
432.98	1232.88
433.18	1198.06
433.39	1247.21
433.59	1294.32
433.80	1335.28
434.00	1273.84
434.21	1236.97
434.41	1279.98
434.62	1241.07
434.82	1255.40
435.03	1288.17
435.23	1277.93
435.44	1224.69
435.64	1208.30
435.85	1320.94
436.06	1216.49
436.26	1269.74
436.47	1292.27
436.67	1230.83
436.88	1312.75
437.08	1294.32
437.29	1208.30
437.49	1206.25
437.70	1255.40
437.90	1304.56
438.11	1171.44
438.31	1325.04
438.52	1261.55
438.72	1302.51
438.93	1177.58
439.13	1247.21
439.34	1314.80
439.54	1314.80
439.75	1304.56
439.95	1236.97
440.16	1351.66
440.36	1200.11
440.57	1263.60
440.77	1269.74
440.98	1271.79
441.18	1243.12
441.39	1296.36
441.59	1298.41
441.80	1300.46
442.00	1284.08
442.21	1241.07
442.41	1265.64
442.62	1275.88
442.82	1271.79
443.02	1273.84
443.23	1306.60
443.43	1226.73
443.64	1284.08
443.84	1243.12
444.05	1208.30
444.25	1269.74
444.46	1318.89
444.66	1298.41
444.87	1239.02
445.07	1294.32
445.28	1277.93
445.48	1300.46
445.69	1265.64
445.89	1255.40
446.09	1275.88
446.30	1306.60
446.50	1273.84
446.71	1239.02
446.91	1279.98
447.12	1275.88
447.32	1277.93
447.53	1236.97
447.73	1251.31
447.93	1271.79
448.14	1236.97
448.34	1275.88
448.55	1288.17
448.75	1245.16
448.96	1327.08
449.16	1286.12
449.36	1273.84
449.57	1312.75
449.77	1245.16
449.98	1292.27
450.18	1306.60
450.39	1269.74
450.59	1226.73
450.79	1241.07
451.00	1267.69
451.20	1255.40
451.41	1294.32
451.61	1255.40
451.81	1286.12
452.02	1359.85
452.22	1288.17
452.43	1247.21
452.63	1284.08
