SpectraSuite Data File
++++++++++++++++++++++++++++++++++++
Date: Sun Apr 03 19:55:25 CEST 2016
User: root
Dark Spectrum Present: No
Reference Spectrum Present: No
Number of Sampled Component Spectra: 1
Spectrometers: USB4C02835
Integration Time (usec): 10000 (USB4C02835)
Spectra Averaged: 1 (USB4C02835)
Boxcar Smoothing: 0 (USB4C02835)
Correct for Electrical Dark: No (USB4C02835)
Strobe/Lamp Enabled: No (USB4C02835)
Correct for Detector Non-linearity: No (USB4C02835)
Correct for Stray Light: No (USB4C02835)
Number of Pixels in Processed Spectrum: 3648
>>>>>Begin Processed Spectral Data<<<<<
177.47	1232.88
177.69	1232.88
177.91	1232.88
178.13	1296.36
178.36	1241.07
178.58	1304.56
178.80	1247.21
179.02	1249.26
179.24	1255.40
179.46	1261.55
179.68	1284.08
179.90	1222.64
180.13	1290.22
180.35	1247.21
180.57	1220.59
180.79	1316.84
181.01	1284.08
181.23	1232.88
181.45	1257.45
181.67	1222.64
181.90	1337.32
182.12	1290.22
182.34	1288.17
182.56	1249.26
182.78	1146.86
183.00	1275.88
183.22	1265.64
183.44	1234.93
183.66	1222.64
183.89	1288.17
184.11	1312.75
184.33	1277.93
184.55	1208.30
184.77	1255.40
184.99	1263.60
185.21	1243.12
185.43	1282.03
185.65	1259.50
185.87	1198.06
186.10	1243.12
186.32	1255.40
186.54	1308.65
186.76	1230.83
186.98	1261.55
187.20	1257.45
187.42	1234.93
187.64	1224.69
187.86	1232.88
188.08	1310.70
188.30	1259.50
188.52	1216.49
188.75	1327.08
188.97	1347.56
189.19	1320.94
189.41	1339.37
189.63	1179.63
189.85	1230.83
190.07	1294.32
190.29	1277.93
190.51	1253.36
190.73	1257.45
190.95	1298.41
191.17	1253.36
191.39	1204.21
191.61	1263.60
191.84	1177.58
192.06	1255.40
192.28	1308.65
192.50	1263.60
192.72	1327.08
192.94	1210.35
193.16	1263.60
193.38	1304.56
193.60	1210.35
193.82	1230.83
194.04	1251.31
194.26	1185.77
194.48	1261.55
194.70	1241.07
194.92	1230.83
195.14	1310.70
195.36	1286.12
195.58	1284.08
195.80	1312.75
196.02	1230.83
196.24	1269.74
196.46	1300.46
196.69	1216.49
196.91	1232.88
197.13	1277.93
197.35	1249.26
197.57	1208.30
197.79	1288.17
198.01	1333.23
198.23	1239.02
198.45	1224.69
198.67	1226.73
198.89	1243.12
199.11	1273.84
199.33	1277.93
199.55	1189.87
199.77	1343.47
199.99	1314.80
200.21	1257.45
200.43	1239.02
200.65	1239.02
200.87	1279.98
201.09	1157.10
201.31	1241.07
201.53	1263.60
201.75	1304.56
201.97	1234.93
202.19	1230.83
202.41	1228.78
202.63	1300.46
202.85	1257.45
203.07	1265.64
203.29	1230.83
203.51	1189.87
203.73	1308.65
203.95	1236.97
204.17	1241.07
204.39	1292.27
204.61	1234.93
204.83	1277.93
205.05	1224.69
205.27	1333.23
205.49	1294.32
205.71	1236.97
205.93	1290.22
206.15	1314.80
206.37	1279.98
206.59	1251.31
206.81	1275.88
207.03	1349.61
207.25	1245.16
207.47	1312.75
207.69	1255.40
207.91	1271.79
208.13	1218.54
208.34	1249.26
208.56	1290.22
208.78	1198.06
209.00	1269.74
209.22	1302.51
209.44	1263.60
209.66	1241.07
209.88	1234.93
210.10	1239.02
210.32	1269.74
210.54	1284.08
210.76	1306.60
210.98	1263.60
211.20	1255.40
211.42	1267.69
211.64	1218.54
211.86	1296.36
212.08	1282.03
212.30	1253.36
212.52	1247.21
212.74	1318.89
212.96	1179.63
213.17	1306.60
213.39	1292.27
213.61	1273.84
213.83	1193.97
214.05	1277.93
214.27	1257.45
214.49	1232.88
214.71	1239.02
214.93	1310.70
215.15	1200.11
215.37	1325.04
215.59	1210.35
215.81	1294.32
216.03	1206.25
216.24	1320.94
216.46	1230.83
216.68	1236.97
216.90	1267.69
217.12	1277.93
217.34	1302.51
217.56	1263.60
217.78	1294.32
218.00	1296.36
218.22	1286.12
218.44	1275.88
218.66	1218.54
218.87	1245.16
219.09	1292.27
219.31	1261.55
219.53	1245.16
219.75	1263.60
219.97	1282.03
220.19	1220.59
220.41	1286.12
220.63	1271.79
220.85	1316.84
221.06	1306.60
221.28	1306.60
221.50	1273.84
221.72	1331.18
221.94	1263.60
222.16	1337.32
222.38	1198.06
222.60	1308.65
222.82	1279.98
223.03	1247.21
223.25	1282.03
223.47	1245.16
223.69	1310.70
223.91	1265.64
224.13	1288.17
224.35	1259.50
224.57	1288.17
224.78	1263.60
225.00	1290.22
225.22	1288.17
225.44	1208.30
225.66	1341.42
225.88	1230.83
226.10	1263.60
226.32	1298.41
226.53	1310.70
226.75	1196.01
226.97	1316.84
227.19	1210.35
227.41	1249.26
227.63	1312.75
227.85	1290.22
228.06	1271.79
228.28	1302.51
228.50	1372.14
228.72	1282.03
228.94	1300.46
229.16	1245.16
229.37	1257.45
229.59	1327.08
229.81	1290.22
230.03	1277.93
230.25	1257.45
230.47	1249.26
230.69	1232.88
230.90	1261.55
231.12	1249.26
231.34	1212.40
231.56	1204.21
231.78	1322.99
232.00	1302.51
232.21	1284.08
232.43	1247.21
232.65	1247.21
232.87	1335.28
233.09	1267.69
233.30	1279.98
233.52	1228.78
233.74	1208.30
233.96	1292.27
234.18	1290.22
234.40	1277.93
234.61	1191.92
234.83	1286.12
235.05	1306.60
235.27	1290.22
235.49	1239.02
235.70	1236.97
235.92	1263.60
236.14	1224.69
236.36	1269.74
236.58	1257.45
236.79	1286.12
237.01	1220.59
237.23	1292.27
237.45	1273.84
237.67	1286.12
237.88	1234.93
238.10	1294.32
238.32	1290.22
238.54	1284.08
238.76	1271.79
238.97	1212.40
239.19	1269.74
239.41	1292.27
239.63	1282.03
239.85	1282.03
240.06	1191.92
240.28	1322.99
240.50	1241.07
240.72	1261.55
240.93	1269.74
241.15	1277.93
241.37	1228.78
241.59	1290.22
241.81	1290.22
242.02	1255.40
242.24	1261.55
242.46	1271.79
242.68	1179.63
242.89	1251.31
243.11	1247.21
243.33	1220.59
243.55	1269.74
243.76	1228.78
243.98	1239.02
244.20	1247.21
244.42	1265.64
244.64	1265.64
244.85	1251.31
245.07	1290.22
245.29	1290.22
245.51	1286.12
245.72	1304.56
245.94	1302.51
246.16	1216.49
246.38	1298.41
246.59	1224.69
246.81	1316.84
247.03	1294.32
247.24	1208.30
247.46	1255.40
247.68	1372.14
247.90	1279.98
248.11	1284.08
248.33	1292.27
248.55	1236.97
248.77	1232.88
248.98	1259.50
249.20	1308.65
249.42	1267.69
249.64	1257.45
249.85	1251.31
250.07	1234.93
250.29	1310.70
250.50	1290.22
250.72	1271.79
250.94	1249.26
251.16	1243.12
251.37	1247.21
251.59	1257.45
251.81	1277.93
252.02	1331.18
252.24	1390.57
252.46	1251.31
252.68	1282.03
252.89	1302.51
253.11	1236.97
253.33	1314.80
253.54	1253.36
253.76	1316.84
253.98	1212.40
254.20	1271.79
254.41	1236.97
254.63	1206.25
254.85	1236.97
255.06	1214.45
255.28	1267.69
255.50	1222.64
255.71	1302.51
255.93	1282.03
256.15	1206.25
256.36	1257.45
256.58	1214.45
256.80	1275.88
257.02	1343.47
257.23	1247.21
257.45	1249.26
257.67	1370.09
257.88	1214.45
258.10	1292.27
258.32	1257.45
258.53	1265.64
258.75	1189.87
258.97	1234.93
259.18	1351.66
259.40	1290.22
259.62	1220.59
259.83	1312.75
260.05	1275.88
260.27	1288.17
260.48	1247.21
260.70	1253.36
260.92	1239.02
261.13	1314.80
261.35	1331.18
261.57	1331.18
261.78	1331.18
262.00	1304.56
262.22	1275.88
262.43	1269.74
262.65	1249.26
262.86	1339.37
263.08	1249.26
263.30	1271.79
263.51	1249.26
263.73	1253.36
263.95	1165.29
264.16	1261.55
264.38	1261.55
264.60	1257.45
264.81	1306.60
265.03	1210.35
265.25	1329.13
265.46	1337.32
265.68	1247.21
265.89	1196.01
266.11	1316.84
266.33	1363.95
266.54	1351.66
266.76	1232.88
266.98	1290.22
267.19	1265.64
267.41	1241.07
267.62	1230.83
267.84	1304.56
268.06	1247.21
268.27	1216.49
268.49	1296.36
268.70	1234.93
268.92	1257.45
269.14	1292.27
269.35	1234.93
269.57	1259.50
269.79	1259.50
270.00	1308.65
270.22	1304.56
270.43	1243.12
270.65	1245.16
270.87	1234.93
271.08	1224.69
271.30	1314.80
271.51	1282.03
271.73	1273.84
271.95	1290.22
272.16	1245.16
272.38	1335.28
272.59	1269.74
272.81	1228.78
273.02	1202.16
273.24	1206.25
273.46	1279.98
273.67	1200.11
273.89	1241.07
274.10	1284.08
274.32	1265.64
274.54	1292.27
274.75	1279.98
274.97	1322.99
275.18	1220.59
275.40	1320.94
275.61	1267.69
275.83	1284.08
276.05	1273.84
276.26	1212.40
276.48	1257.45
276.69	1239.02
276.91	1277.93
277.12	1226.73
277.34	1212.40
277.55	1269.74
277.77	1261.55
277.99	1275.88
278.20	1300.46
278.42	1300.46
278.63	1255.40
278.85	1257.45
279.06	1265.64
279.28	1294.32
279.49	1302.51
279.71	1271.79
279.93	1277.93
280.14	1345.52
280.36	1265.64
280.57	1245.16
280.79	1318.89
281.00	1191.92
281.22	1245.16
281.43	1208.30
281.65	1253.36
281.86	1230.83
282.08	1339.37
282.29	1304.56
282.51	1234.93
282.73	1267.69
282.94	1230.83
283.16	1312.75
283.37	1298.41
283.59	1265.64
283.80	1304.56
284.02	1273.84
284.23	1259.50
284.45	1267.69
284.66	1251.31
284.88	1296.36
285.09	1247.21
285.31	1286.12
285.52	1314.80
285.74	1224.69
285.95	1224.69
286.17	1318.89
286.38	1220.59
286.60	1294.32
286.81	1269.74
287.03	1279.98
287.24	1216.49
287.46	1349.61
287.67	1284.08
287.89	1312.75
288.10	1325.04
288.32	1247.21
288.53	1277.93
288.75	1249.26
288.96	1243.12
289.18	1288.17
289.39	1249.26
289.61	1216.49
289.82	1247.21
290.04	1245.16
290.25	1239.02
290.47	1175.53
290.68	1210.35
290.90	1245.16
291.11	1263.60
291.33	1290.22
291.54	1228.78
291.76	1253.36
291.97	1273.84
292.18	1234.93
292.40	1234.93
292.61	1218.54
292.83	1322.99
293.04	1259.50
293.26	1316.84
293.47	1222.64
293.69	1208.30
293.90	1249.26
294.12	1302.51
294.33	1222.64
294.55	1265.64
294.76	1265.64
294.97	1294.32
295.19	1228.78
295.40	1296.36
295.62	1251.31
295.83	1263.60
296.05	1212.40
296.26	1230.83
296.48	1220.59
296.69	1257.45
296.90	1241.07
297.12	1228.78
297.33	1255.40
297.55	1331.18
297.76	1282.03
297.98	1261.55
298.19	1298.41
298.41	1236.97
298.62	1200.11
298.83	1290.22
299.05	1277.93
299.26	1284.08
299.48	1284.08
299.69	1245.16
299.90	1333.23
300.12	1222.64
300.33	1327.08
300.55	1277.93
300.76	1298.41
300.98	1286.12
301.19	1286.12
301.40	1275.88
301.62	1261.55
301.83	1230.83
302.05	1255.40
302.26	1236.97
302.47	1216.49
302.69	1269.74
302.90	1251.31
303.12	1218.54
303.33	1259.50
303.54	1284.08
303.76	1273.84
303.97	1259.50
304.19	1331.18
304.40	1300.46
304.61	1263.60
304.83	1345.52
305.04	1255.40
305.26	1255.40
305.47	1275.88
305.68	1263.60
305.90	1288.17
306.11	1300.46
306.33	1288.17
306.54	1243.12
306.75	1275.88
306.97	1222.64
307.18	1247.21
307.39	1304.56
307.61	1286.12
307.82	1208.30
308.04	1241.07
308.25	1245.16
308.46	1257.45
308.68	1249.26
308.89	1294.32
309.10	1212.40
309.32	1208.30
309.53	1249.26
309.74	1304.56
309.96	1282.03
310.17	1286.12
310.39	1247.21
310.60	1263.60
310.81	1212.40
311.03	1259.50
311.24	1318.89
311.45	1255.40
311.67	1279.98
311.88	1294.32
312.09	1322.99
312.31	1261.55
312.52	1239.02
312.73	1322.99
312.95	1282.03
313.16	1310.70
313.37	1288.17
313.59	1257.45
313.80	1236.97
314.01	1316.84
314.23	1314.80
314.44	1273.84
314.65	1304.56
314.87	1296.36
315.08	1236.97
315.29	1275.88
315.51	1279.98
315.72	1343.47
315.93	1241.07
316.15	1277.93
316.36	1249.26
316.57	1251.31
316.79	1292.27
317.00	1331.18
317.21	1230.83
317.43	1243.12
317.64	1224.69
317.85	1251.31
318.07	1224.69
318.28	1265.64
318.49	1257.45
318.70	1349.61
318.92	1263.60
319.13	1302.51
319.34	1316.84
319.56	1286.12
319.77	1286.12
319.98	1243.12
320.20	1310.70
320.41	1269.74
320.62	1308.65
320.83	1214.45
321.05	1314.80
321.26	1267.69
321.47	1198.06
321.69	1257.45
321.90	1224.69
322.11	1296.36
322.32	1310.70
322.54	1267.69
322.75	1196.01
322.96	1249.26
323.18	1263.60
323.39	1314.80
323.60	1292.27
323.81	1222.64
324.03	1234.93
324.24	1322.99
324.45	1314.80
324.66	1253.36
324.88	1282.03
325.09	1183.73
325.30	1284.08
325.52	1271.79
325.73	1273.84
325.94	1288.17
326.15	1267.69
326.37	1230.83
326.58	1247.21
326.79	1288.17
327.00	1234.93
327.22	1300.46
327.43	1214.45
327.64	1271.79
327.85	1320.94
328.07	1230.83
328.28	1294.32
328.49	1236.97
328.70	1249.26
328.92	1322.99
329.13	1236.97
329.34	1310.70
329.55	1271.79
329.76	1372.14
329.98	1165.29
330.19	1312.75
330.40	1263.60
330.61	1290.22
330.83	1257.45
331.04	1339.37
331.25	1277.93
331.46	1249.26
331.68	1308.65
331.89	1343.47
332.10	1208.30
332.31	1294.32
332.52	1302.51
332.74	1253.36
332.95	1263.60
333.16	1282.03
333.37	1279.98
333.58	1273.84
333.80	1331.18
334.01	1275.88
334.22	1349.61
334.43	1310.70
334.64	1306.60
334.86	1282.03
335.07	1263.60
335.28	1245.16
335.49	1314.80
335.70	1333.23
335.92	1279.98
336.13	1339.37
336.34	1269.74
336.55	1222.64
336.76	1271.79
336.98	1234.93
337.19	1249.26
337.40	1347.56
337.61	1261.55
337.82	1251.31
338.04	1234.93
338.25	1279.98
338.46	1273.84
338.67	1322.99
338.88	1193.97
339.09	1271.79
339.31	1204.21
339.52	1239.02
339.73	1312.75
339.94	1251.31
340.15	1232.88
340.36	1232.88
340.58	1304.56
340.79	1290.22
341.00	1253.36
341.21	1269.74
341.42	1279.98
341.63	1306.60
341.85	1218.54
342.06	1267.69
342.27	1341.42
342.48	1228.78
342.69	1284.08
342.90	1325.04
343.12	1253.36
343.33	1292.27
343.54	1261.55
343.75	1296.36
343.96	1249.26
344.17	1304.56
344.38	1196.01
344.60	1249.26
344.81	1214.45
345.02	1318.89
345.23	1267.69
345.44	1261.55
345.65	1212.40
345.86	1257.45
346.07	1263.60
346.29	1273.84
346.50	1247.21
346.71	1370.09
346.92	1245.16
347.13	1173.49
347.34	1284.08
347.55	1267.69
347.76	1333.23
347.98	1286.12
348.19	1259.50
348.40	1263.60
348.61	1304.56
348.82	1273.84
349.03	1265.64
349.24	1290.22
349.45	1239.02
349.66	1277.93
349.88	1247.21
350.09	1241.07
350.30	1372.14
350.51	1236.97
350.72	1282.03
350.93	1327.08
351.14	1265.64
351.35	1347.56
351.56	1282.03
351.77	1271.79
351.99	1333.23
352.20	1294.32
352.41	1259.50
352.62	1284.08
352.83	1247.21
353.04	1271.79
353.25	1253.36
353.46	1265.64
353.67	1263.60
353.88	1277.93
354.09	1222.64
354.30	1279.98
354.52	1290.22
354.73	1271.79
354.94	1275.88
355.15	1261.55
355.36	1259.50
355.57	1279.98
355.78	1239.02
355.99	1265.64
356.20	1292.27
356.41	1339.37
356.62	1220.59
356.83	1269.74
357.04	1239.02
357.25	1312.75
357.46	1298.41
357.68	1298.41
357.89	1263.60
358.10	1308.65
358.31	1273.84
358.52	1306.60
358.73	1212.40
358.94	1218.54
359.15	1286.12
359.36	1290.22
359.57	1308.65
359.78	1224.69
359.99	1273.84
360.20	1320.94
360.41	1314.80
360.62	1316.84
360.83	1212.40
361.04	1267.69
361.25	1294.32
361.46	1251.31
361.67	1251.31
361.88	1255.40
362.09	1249.26
362.30	1353.71
362.51	1206.25
362.72	1308.65
362.93	1300.46
363.14	1279.98
363.35	1290.22
363.56	1220.59
363.78	1193.97
363.99	1304.56
364.20	1263.60
364.41	1314.80
364.62	1245.16
364.83	1273.84
365.04	1226.73
365.25	1351.66
365.46	1212.40
365.67	1318.89
365.88	1269.74
366.09	1259.50
366.30	1234.93
366.51	1302.51
366.72	1236.97
366.93	1224.69
367.14	1284.08
367.35	1253.36
367.56	1200.11
367.77	1263.60
367.98	1282.03
368.18	1337.32
368.39	1232.88
368.60	1216.49
368.81	1251.31
369.02	1222.64
369.23	1239.02
369.44	1259.50
369.65	1288.17
369.86	1232.88
370.07	1253.36
370.28	1261.55
370.49	1288.17
370.70	1296.36
370.91	1290.22
371.12	1222.64
371.33	1271.79
371.54	1259.50
371.75	1296.36
371.96	1314.80
372.17	1220.59
372.38	1359.85
372.59	1318.89
372.80	1255.40
373.01	1290.22
373.22	1255.40
373.43	1271.79
373.64	1251.31
373.85	1308.65
374.06	1277.93
374.26	1320.94
374.47	1366.00
374.68	1275.88
374.89	1196.01
375.10	1296.36
375.31	1202.16
375.52	1325.04
375.73	1349.61
375.94	1353.71
376.15	1273.84
376.36	1261.55
376.57	1292.27
376.78	1267.69
376.99	1271.79
377.20	1261.55
377.40	1347.56
377.61	1290.22
377.82	1282.03
378.03	1220.59
378.24	1282.03
378.45	1212.40
378.66	1214.45
378.87	1191.92
379.08	1286.12
379.29	1257.45
379.50	1327.08
379.71	1277.93
379.91	1294.32
380.12	1290.22
380.33	1247.21
380.54	1259.50
380.75	1241.07
380.96	1249.26
381.17	1271.79
381.38	1351.66
381.59	1265.64
381.80	1273.84
382.00	1296.36
382.21	1253.36
382.42	1302.51
382.63	1286.12
382.84	1200.11
383.05	1267.69
383.26	1202.16
383.47	1292.27
383.68	1241.07
383.88	1253.36
384.09	1294.32
384.30	1302.51
384.51	1275.88
384.72	1255.40
384.93	1292.27
385.14	1243.12
385.35	1271.79
385.55	1345.52
385.76	1196.01
385.97	1247.21
386.18	1212.40
386.39	1271.79
386.60	1249.26
386.81	1322.99
387.02	1232.88
387.22	1279.98
387.43	1251.31
387.64	1239.02
387.85	1243.12
388.06	1300.46
388.27	1253.36
388.48	1273.84
388.68	1259.50
388.89	1257.45
389.10	1245.16
389.31	1200.11
389.52	1261.55
389.73	1292.27
389.93	1253.36
390.14	1263.60
390.35	1298.41
390.56	1298.41
390.77	1220.59
390.98	1259.50
391.18	1312.75
391.39	1345.52
391.60	1304.56
391.81	1312.75
392.02	1255.40
392.23	1269.74
392.43	1290.22
392.64	1265.64
392.85	1292.27
393.06	1286.12
393.27	1241.07
393.47	1267.69
393.68	1228.78
393.89	1316.84
394.10	1183.73
394.31	1253.36
394.52	1198.06
394.72	1255.40
394.93	1275.88
395.14	1277.93
395.35	1318.89
395.56	1245.16
395.76	1286.12
395.97	1245.16
396.18	1234.93
396.39	1282.03
396.60	1263.60
396.80	1263.60
397.01	1320.94
397.22	1316.84
397.43	1245.16
397.64	1275.88
397.84	1249.26
398.05	1261.55
398.26	1271.79
398.47	1325.04
398.67	1320.94
398.88	1269.74
399.09	1232.88
399.30	1210.35
399.51	1230.83
399.71	1232.88
399.92	1245.16
400.13	1241.07
400.34	1368.04
400.54	1302.51
400.75	1273.84
400.96	1279.98
401.17	1249.26
401.37	1243.12
401.58	1290.22
401.79	1247.21
402.00	1310.70
402.21	1267.69
402.41	1298.41
402.62	1255.40
402.83	1327.08
403.04	1273.84
403.24	1265.64
403.45	1239.02
403.66	1214.45
403.87	1241.07
404.07	1245.16
404.28	1243.12
404.49	1236.97
404.70	1257.45
404.90	1216.49
405.11	1269.74
405.32	1298.41
405.52	1243.12
405.73	1214.45
405.94	1239.02
406.15	1357.80
406.35	1277.93
406.56	1331.18
406.77	1294.32
406.98	1259.50
407.18	1298.41
407.39	1267.69
407.60	1284.08
407.80	1257.45
408.01	1241.07
408.22	1277.93
408.43	1288.17
408.63	1253.36
408.84	1267.69
409.05	1263.60
409.25	1294.32
409.46	1296.36
409.67	1259.50
409.88	1224.69
410.08	1220.59
410.29	1218.54
410.50	1150.96
410.70	1341.42
410.91	1134.57
411.12	1245.16
411.32	1224.69
411.53	1232.88
411.74	1255.40
411.95	1267.69
412.15	1341.42
412.36	1236.97
412.57	1269.74
412.77	1236.97
412.98	1314.80
413.19	1284.08
413.39	1204.21
413.60	1255.40
413.81	1290.22
414.01	1314.80
414.22	1337.32
414.43	1347.56
414.63	1204.21
414.84	1304.56
415.05	1265.64
415.25	1263.60
415.46	1257.45
415.67	1239.02
415.87	1273.84
416.08	1282.03
416.29	1275.88
416.49	1247.21
416.70	1273.84
416.91	1247.21
417.11	1255.40
417.32	1296.36
417.53	1271.79
417.73	1279.98
417.94	1208.30
418.15	1202.16
418.35	1251.31
418.56	1230.83
418.77	1216.49
418.97	1282.03
419.18	1284.08
419.38	1277.93
419.59	1183.73
419.80	1290.22
420.00	1288.17
420.21	1267.69
420.42	1193.97
420.62	1257.45
420.83	1271.79
421.04	1226.73
421.24	1261.55
421.45	1341.42
421.65	1214.45
421.86	1308.65
422.07	1279.98
422.27	1286.12
422.48	1314.80
422.69	1329.13
422.89	1265.64
423.10	1292.27
423.30	1290.22
423.51	1310.70
423.72	1230.83
423.92	1261.55
424.13	1169.39
424.33	1306.60
424.54	1247.21
424.75	1212.40
424.95	1275.88
425.16	1335.28
425.36	1257.45
425.57	1288.17
425.78	1265.64
425.98	1294.32
426.19	1275.88
426.39	1343.47
426.60	1234.93
426.81	1214.45
427.01	1320.94
427.22	1308.65
427.42	1261.55
427.63	1298.41
427.83	1343.47
428.04	1316.84
428.25	1200.11
428.45	1275.88
428.66	1290.22
428.86	1263.60
429.07	1312.75
429.28	1273.84
429.48	1202.16
429.69	1222.64
429.89	1245.16
430.10	1169.39
430.30	1296.36
430.51	1224.69
430.71	1210.35
430.92	1286.12
431.13	1306.60
431.33	1202.16
431.54	1232.88
431.74	1265.64
431.95	1269.74
432.15	1269.74
432.36	1282.03
432.56	1282.03
432.77	1271.79
432.98	1257.45
433.18	1226.73
433.39	1310.70
433.59	1245.16
433.80	1269.74
434.00	1284.08
434.21	1220.59
434.41	1263.60
434.62	1288.17
434.82	1247.21
435.03	1273.84
435.23	1232.88
435.44	1318.89
435.64	1232.88
435.85	1267.69
436.06	1247.21
436.26	1198.06
436.47	1210.35
436.67	1265.64
436.88	1255.40
437.08	1269.74
437.29	1329.13
437.49	1300.46
437.70	1279.98
437.90	1300.46
438.11	1310.70
438.31	1271.79
438.52	1265.64
438.72	1290.22
438.93	1230.83
439.13	1306.60
439.34	1298.41
439.54	1370.09
439.75	1212.40
439.95	1261.55
440.16	1316.84
440.36	1271.79
440.57	1284.08
440.77	1284.08
440.98	1263.60
441.18	1320.94
441.39	1253.36
441.59	1306.60
441.80	1368.04
442.00	1267.69
442.21	1355.76
442.41	1263.60
442.62	1191.92
442.82	1279.98
443.02	1241.07
443.23	1267.69
443.43	1179.63
443.64	1322.99
443.84	1255.40
444.05	1282.03
444.25	1357.80
444.46	1263.60
444.66	1267.69
444.87	1259.50
445.07	1239.02
445.28	1282.03
445.48	1308.65
445.69	1263.60
445.89	1294.32
446.09	1294.32
446.30	1284.08
446.50	1331.18
446.71	1337.32
446.91	1259.50
447.12	1265.64
447.32	1386.47
447.53	1249.26
447.73	1279.98
447.93	1316.84
448.14	1302.51
448.34	1279.98
448.55	1277.93
448.75	1302.51
448.96	1271.79
449.16	1288.17
449.36	1241.07
449.57	1243.12
449.77	1279.98
449.98	1279.98
450.18	1284.08
450.39	1245.16
450.59	1247.21
450.79	1279.98
451.00	1277.93
451.20	1261.55
451.41	1239.02
451.61	1239.02
451.81	1253.36
452.02	1236.97
452.22	1267.69
452.43	1286.12
452.63	1290.22
