SpectraSuite Data File
++++++++++++++++++++++++++++++++++++
Date: Sun Apr 03 19:55:22 CEST 2016
User: root
Dark Spectrum Present: No
Reference Spectrum Present: No
Number of Sampled Component Spectra: 1
Spectrometers: USB4C02835
Integration Time (usec): 10000 (USB4C02835)
Spectra Averaged: 1 (USB4C02835)
Boxcar Smoothing: 0 (USB4C02835)
Correct for Electrical Dark: No (USB4C02835)
Strobe/Lamp Enabled: No (USB4C02835)
Correct for Detector Non-linearity: No (USB4C02835)
Correct for Stray Light: No (USB4C02835)
Number of Pixels in Processed Spectrum: 3648
>>>>>Begin Processed Spectral Data<<<<<
177.47	1218.54
177.69	1218.54
177.91	1218.54
178.13	1224.69
178.36	1234.93
178.58	1273.84
178.80	1208.30
179.02	1296.36
179.24	1198.06
179.46	1284.08
179.68	1247.21
179.90	1296.36
180.13	1277.93
180.35	1296.36
180.57	1226.73
180.79	1306.60
181.01	1259.50
181.23	1318.89
181.45	1279.98
181.67	1298.41
181.90	1232.88
182.12	1261.55
182.34	1251.31
182.56	1277.93
182.78	1320.94
183.00	1296.36
183.22	1265.64
183.44	1243.12
183.66	1212.40
183.89	1331.18
184.11	1230.83
184.33	1247.21
184.55	1249.26
184.77	1259.50
184.99	1214.45
185.21	1224.69
185.43	1300.46
185.65	1290.22
185.87	1271.79
186.10	1247.21
186.32	1269.74
186.54	1294.32
186.76	1304.56
186.98	1222.64
187.20	1243.12
187.42	1236.97
187.64	1310.70
187.86	1310.70
188.08	1310.70
188.30	1191.92
188.52	1335.28
188.75	1316.84
188.97	1282.03
189.19	1187.82
189.41	1300.46
189.63	1257.45
189.85	1298.41
190.07	1241.07
190.29	1253.36
190.51	1271.79
190.73	1193.97
190.95	1271.79
191.17	1304.56
191.39	1224.69
191.61	1247.21
191.84	1232.88
192.06	1298.41
192.28	1290.22
192.50	1288.17
192.72	1257.45
192.94	1222.64
193.16	1273.84
193.38	1253.36
193.60	1261.55
193.82	1277.93
194.04	1275.88
194.26	1267.69
194.48	1294.32
194.70	1239.02
194.92	1265.64
195.14	1214.45
195.36	1304.56
195.58	1212.40
195.80	1343.47
196.02	1308.65
196.24	1216.49
196.46	1265.64
196.69	1224.69
196.91	1263.60
197.13	1196.01
197.35	1265.64
197.57	1286.12
197.79	1277.93
198.01	1263.60
198.23	1277.93
198.45	1339.37
198.67	1263.60
198.89	1300.46
199.11	1349.61
199.33	1294.32
199.55	1275.88
199.77	1218.54
199.99	1302.51
200.21	1290.22
200.43	1286.12
200.65	1230.83
200.87	1236.97
201.09	1257.45
201.31	1288.17
201.53	1296.36
201.75	1269.74
201.97	1316.84
202.19	1261.55
202.41	1282.03
202.63	1255.40
202.85	1255.40
203.07	1259.50
203.29	1224.69
203.51	1259.50
203.73	1224.69
203.95	1279.98
204.17	1292.27
204.39	1288.17
204.61	1239.02
204.83	1273.84
205.05	1271.79
205.27	1228.78
205.49	1185.77
205.71	1296.36
205.93	1279.98
206.15	1214.45
206.37	1265.64
206.59	1290.22
206.81	1282.03
207.03	1239.02
207.25	1290.22
207.47	1243.12
207.69	1302.51
207.91	1322.99
208.13	1290.22
208.34	1339.37
208.56	1212.40
208.78	1269.74
209.00	1269.74
209.22	1263.60
209.44	1271.79
209.66	1206.25
209.88	1304.56
210.10	1296.36
210.32	1234.93
210.54	1257.45
210.76	1214.45
210.98	1261.55
211.20	1257.45
211.42	1236.97
211.64	1273.84
211.86	1302.51
212.08	1208.30
212.30	1236.97
212.52	1226.73
212.74	1239.02
212.96	1232.88
213.17	1247.21
213.39	1269.74
213.61	1308.65
213.83	1282.03
214.05	1310.70
214.27	1351.66
214.49	1196.01
214.71	1286.12
214.93	1263.60
215.15	1300.46
215.37	1257.45
215.59	1245.16
215.81	1304.56
216.03	1284.08
216.24	1273.84
216.46	1277.93
216.68	1263.60
216.90	1302.51
217.12	1290.22
217.34	1187.82
217.56	1304.56
217.78	1267.69
218.00	1292.27
218.22	1155.05
218.44	1220.59
218.66	1259.50
218.87	1310.70
219.09	1257.45
219.31	1273.84
219.53	1306.60
219.75	1269.74
219.97	1230.83
220.19	1277.93
220.41	1284.08
220.63	1263.60
220.85	1263.60
221.06	1249.26
221.28	1255.40
221.50	1331.18
221.72	1273.84
221.94	1253.36
222.16	1216.49
222.38	1261.55
222.60	1269.74
222.82	1212.40
223.03	1335.28
223.25	1239.02
223.47	1296.36
223.69	1296.36
223.91	1263.60
224.13	1302.51
224.35	1308.65
224.57	1255.40
224.78	1218.54
225.00	1249.26
225.22	1206.25
225.44	1255.40
225.66	1243.12
225.88	1282.03
226.10	1345.52
226.32	1261.55
226.53	1312.75
226.75	1253.36
226.97	1261.55
227.19	1255.40
227.41	1239.02
227.63	1257.45
227.85	1277.93
228.06	1204.21
228.28	1304.56
228.50	1247.21
228.72	1263.60
228.94	1259.50
229.16	1247.21
229.37	1218.54
229.59	1267.69
229.81	1253.36
230.03	1253.36
230.25	1257.45
230.47	1298.41
230.69	1308.65
230.90	1318.89
231.12	1288.17
231.34	1288.17
231.56	1296.36
231.78	1206.25
232.00	1294.32
232.21	1335.28
232.43	1208.30
232.65	1222.64
232.87	1265.64
233.09	1331.18
233.30	1304.56
233.52	1290.22
233.74	1265.64
233.96	1294.32
234.18	1253.36
234.40	1222.64
234.61	1236.97
234.83	1304.56
235.05	1234.93
235.27	1247.21
235.49	1294.32
235.70	1249.26
235.92	1279.98
236.14	1304.56
236.36	1335.28
236.58	1282.03
236.79	1282.03
237.01	1310.70
237.23	1269.74
237.45	1275.88
237.67	1335.28
237.88	1257.45
238.10	1265.64
238.32	1255.40
238.54	1191.92
238.76	1208.30
238.97	1232.88
239.19	1265.64
239.41	1265.64
239.63	1230.83
239.85	1212.40
240.06	1173.49
240.28	1282.03
240.50	1263.60
240.72	1304.56
240.93	1304.56
241.15	1255.40
241.37	1236.97
241.59	1239.02
241.81	1302.51
242.02	1271.79
242.24	1269.74
242.46	1257.45
242.68	1214.45
242.89	1292.27
243.11	1251.31
243.33	1241.07
243.55	1263.60
243.76	1292.27
243.98	1310.70
244.20	1226.73
244.42	1247.21
244.64	1224.69
244.85	1224.69
245.07	1253.36
245.29	1290.22
245.51	1290.22
245.72	1316.84
245.94	1222.64
246.16	1259.50
246.38	1296.36
246.59	1228.78
246.81	1347.56
247.03	1282.03
247.24	1245.16
247.46	1236.97
247.68	1243.12
247.90	1228.78
248.11	1290.22
248.33	1232.88
248.55	1226.73
248.77	1210.35
248.98	1232.88
249.20	1247.21
249.42	1275.88
249.64	1310.70
249.85	1257.45
250.07	1277.93
250.29	1271.79
250.50	1304.56
250.72	1386.47
250.94	1320.94
251.16	1226.73
251.37	1292.27
251.59	1245.16
251.81	1282.03
252.02	1302.51
252.24	1269.74
252.46	1251.31
252.68	1347.56
252.89	1212.40
253.11	1239.02
253.33	1261.55
253.54	1290.22
253.76	1290.22
253.98	1216.49
254.20	1239.02
254.41	1247.21
254.63	1288.17
254.85	1327.08
255.06	1255.40
255.28	1318.89
255.50	1261.55
255.71	1255.40
255.93	1292.27
256.15	1224.69
256.36	1282.03
256.58	1226.73
256.80	1216.49
257.02	1253.36
257.23	1284.08
257.45	1267.69
257.67	1296.36
257.88	1271.79
258.10	1247.21
258.32	1239.02
258.53	1279.98
258.75	1273.84
258.97	1265.64
259.18	1269.74
259.40	1261.55
259.62	1288.17
259.83	1310.70
260.05	1247.21
260.27	1331.18
260.48	1202.16
260.70	1298.41
260.92	1269.74
261.13	1288.17
261.35	1286.12
261.57	1267.69
261.78	1232.88
262.00	1196.01
262.22	1306.60
262.43	1257.45
262.65	1208.30
262.86	1247.21
263.08	1312.75
263.30	1202.16
263.51	1259.50
263.73	1275.88
263.95	1210.35
264.16	1236.97
264.38	1351.66
264.60	1263.60
264.81	1249.26
265.03	1243.12
265.25	1277.93
265.46	1267.69
265.68	1316.84
265.89	1322.99
266.11	1234.93
266.33	1294.32
266.54	1306.60
266.76	1292.27
266.98	1210.35
267.19	1296.36
267.41	1312.75
267.62	1273.84
267.84	1216.49
268.06	1273.84
268.27	1247.21
268.49	1216.49
268.70	1232.88
268.92	1261.55
269.14	1251.31
269.35	1253.36
269.57	1292.27
269.79	1271.79
270.00	1306.60
270.22	1282.03
270.43	1243.12
270.65	1232.88
270.87	1288.17
271.08	1284.08
271.30	1253.36
271.51	1218.54
271.73	1224.69
271.95	1279.98
272.16	1259.50
272.38	1247.21
272.59	1220.59
272.81	1230.83
273.02	1198.06
273.24	1265.64
273.46	1236.97
273.67	1265.64
273.89	1212.40
274.10	1257.45
274.32	1277.93
274.54	1261.55
274.75	1320.94
274.97	1249.26
275.18	1185.77
275.40	1318.89
275.61	1241.07
275.83	1329.13
276.05	1271.79
276.26	1282.03
276.48	1243.12
276.69	1263.60
276.91	1265.64
277.12	1239.02
277.34	1206.25
277.55	1257.45
277.77	1222.64
277.99	1279.98
278.20	1267.69
278.42	1292.27
278.63	1341.42
278.85	1267.69
279.06	1140.72
279.28	1239.02
279.49	1224.69
279.71	1290.22
279.93	1275.88
280.14	1243.12
280.36	1259.50
280.57	1294.32
280.79	1261.55
281.00	1310.70
281.22	1247.21
281.43	1218.54
281.65	1255.40
281.86	1153.01
282.08	1271.79
282.29	1284.08
282.51	1241.07
282.73	1284.08
282.94	1232.88
283.16	1265.64
283.37	1243.12
283.59	1251.31
283.80	1249.26
284.02	1308.65
284.23	1304.56
284.45	1310.70
284.66	1306.60
284.88	1232.88
285.09	1288.17
285.31	1251.31
285.52	1236.97
285.74	1216.49
285.95	1327.08
286.17	1327.08
286.38	1232.88
286.60	1294.32
286.81	1222.64
287.03	1286.12
287.24	1234.93
287.46	1275.88
287.67	1288.17
287.89	1312.75
288.10	1355.76
288.32	1200.11
288.53	1343.47
288.75	1277.93
288.96	1226.73
289.18	1277.93
289.39	1224.69
289.61	1253.36
289.82	1322.99
290.04	1257.45
290.25	1294.32
290.47	1234.93
290.68	1218.54
290.90	1232.88
291.11	1206.25
291.33	1247.21
291.54	1232.88
291.76	1146.86
291.97	1286.12
292.18	1261.55
292.40	1253.36
292.61	1269.74
292.83	1208.30
293.04	1277.93
293.26	1263.60
293.47	1265.64
293.69	1210.35
293.90	1255.40
294.12	1267.69
294.33	1228.78
294.55	1290.22
294.76	1345.52
294.97	1335.28
295.19	1236.97
295.40	1282.03
295.62	1282.03
295.83	1292.27
296.05	1292.27
296.26	1277.93
296.48	1298.41
296.69	1298.41
296.90	1322.99
297.12	1267.69
297.33	1273.84
297.55	1290.22
297.76	1304.56
297.98	1302.51
298.19	1220.59
298.41	1290.22
298.62	1271.79
298.83	1298.41
299.05	1255.40
299.26	1234.93
299.48	1318.89
299.69	1300.46
299.90	1255.40
300.12	1286.12
300.33	1259.50
300.55	1308.65
300.76	1261.55
300.98	1277.93
301.19	1204.21
301.40	1273.84
301.62	1265.64
301.83	1355.76
302.05	1226.73
302.26	1247.21
302.47	1269.74
302.69	1286.12
302.90	1349.61
303.12	1263.60
303.33	1347.56
303.54	1251.31
303.76	1245.16
303.97	1247.21
304.19	1222.64
304.40	1249.26
304.61	1243.12
304.83	1290.22
305.04	1320.94
305.26	1335.28
305.47	1273.84
305.68	1284.08
305.90	1261.55
306.11	1288.17
306.33	1267.69
306.54	1286.12
306.75	1222.64
306.97	1290.22
307.18	1241.07
307.39	1181.68
307.61	1261.55
307.82	1275.88
308.04	1271.79
308.25	1286.12
308.46	1218.54
308.68	1282.03
308.89	1294.32
309.10	1267.69
309.32	1277.93
309.53	1251.31
309.74	1261.55
309.96	1249.26
310.17	1353.71
310.39	1226.73
310.60	1265.64
310.81	1226.73
311.03	1325.04
311.24	1327.08
311.45	1249.26
311.67	1236.97
311.88	1247.21
312.09	1214.45
312.31	1275.88
312.52	1251.31
312.73	1230.83
312.95	1277.93
313.16	1282.03
313.37	1249.26
313.59	1269.74
313.80	1329.13
314.01	1269.74
314.23	1220.59
314.44	1210.35
314.65	1306.60
314.87	1257.45
315.08	1234.93
315.29	1181.68
315.51	1286.12
315.72	1249.26
315.93	1308.65
316.15	1290.22
316.36	1183.73
316.57	1290.22
316.79	1226.73
317.00	1265.64
317.21	1296.36
317.43	1327.08
317.64	1282.03
317.85	1273.84
318.07	1284.08
318.28	1331.18
318.49	1230.83
318.70	1288.17
318.92	1269.74
319.13	1306.60
319.34	1236.97
319.56	1282.03
319.77	1269.74
319.98	1239.02
320.20	1302.51
320.41	1294.32
320.62	1302.51
320.83	1214.45
321.05	1284.08
321.26	1263.60
321.47	1228.78
321.69	1243.12
321.90	1230.83
322.11	1173.49
322.32	1271.79
322.54	1298.41
322.75	1263.60
322.96	1374.19
323.18	1241.07
323.39	1255.40
323.60	1267.69
323.81	1243.12
324.03	1327.08
324.24	1239.02
324.45	1253.36
324.66	1273.84
324.88	1243.12
325.09	1243.12
325.30	1290.22
325.52	1263.60
325.73	1245.16
325.94	1263.60
326.15	1210.35
326.37	1232.88
326.58	1255.40
326.79	1325.04
327.00	1255.40
327.22	1259.50
327.43	1290.22
327.64	1222.64
327.85	1296.36
328.07	1282.03
328.28	1204.21
328.49	1241.07
328.70	1226.73
328.92	1228.78
329.13	1300.46
329.34	1320.94
329.55	1282.03
329.76	1306.60
329.98	1234.93
330.19	1212.40
330.40	1312.75
330.61	1279.98
330.83	1257.45
331.04	1249.26
331.25	1177.58
331.46	1310.70
331.68	1253.36
331.89	1267.69
332.10	1298.41
332.31	1343.47
332.52	1308.65
332.74	1318.89
332.95	1290.22
333.16	1269.74
333.37	1290.22
333.58	1320.94
333.80	1345.52
334.01	1210.35
334.22	1284.08
334.43	1206.25
334.64	1294.32
334.86	1230.83
335.07	1212.40
335.28	1302.51
335.49	1314.80
335.70	1325.04
335.92	1286.12
336.13	1173.49
336.34	1185.77
336.55	1259.50
336.76	1325.04
336.98	1296.36
337.19	1286.12
337.40	1171.44
337.61	1234.93
337.82	1249.26
338.04	1308.65
338.25	1247.21
338.46	1284.08
338.67	1243.12
338.88	1300.46
339.09	1294.32
339.31	1220.59
339.52	1228.78
339.73	1249.26
339.94	1306.60
340.15	1232.88
340.36	1179.63
340.58	1292.27
340.79	1241.07
341.00	1253.36
341.21	1255.40
341.42	1292.27
341.63	1294.32
341.85	1224.69
342.06	1298.41
342.27	1251.31
342.48	1318.89
342.69	1298.41
342.90	1298.41
343.12	1265.64
343.33	1302.51
343.54	1267.69
343.75	1236.97
343.96	1236.97
344.17	1206.25
344.38	1290.22
344.60	1239.02
344.81	1292.27
345.02	1331.18
345.23	1236.97
345.44	1202.16
345.65	1300.46
345.86	1273.84
346.07	1253.36
346.29	1263.60
346.50	1257.45
346.71	1298.41
346.92	1296.36
347.13	1245.16
347.34	1257.45
347.55	1306.60
347.76	1284.08
347.98	1298.41
348.19	1271.79
348.40	1273.84
348.61	1234.93
348.82	1292.27
349.03	1304.56
349.24	1228.78
349.45	1241.07
349.66	1232.88
349.88	1269.74
350.09	1298.41
350.30	1239.02
350.51	1249.26
350.72	1335.28
350.93	1261.55
351.14	1288.17
351.35	1294.32
351.56	1372.14
351.77	1259.50
351.99	1261.55
352.20	1316.84
352.41	1306.60
352.62	1249.26
352.83	1257.45
353.04	1304.56
353.25	1314.80
353.46	1288.17
353.67	1255.40
353.88	1329.13
354.09	1306.60
354.30	1165.29
354.52	1296.36
354.73	1220.59
354.94	1230.83
355.15	1310.70
355.36	1259.50
355.57	1257.45
355.78	1284.08
355.99	1226.73
356.20	1218.54
356.41	1296.36
356.62	1236.97
356.83	1224.69
357.04	1185.77
357.25	1212.40
357.46	1273.84
357.68	1228.78
357.89	1298.41
358.10	1241.07
358.31	1243.12
358.52	1302.51
358.73	1228.78
358.94	1304.56
359.15	1212.40
359.36	1284.08
359.57	1257.45
359.78	1232.88
359.99	1292.27
360.20	1206.25
360.41	1247.21
360.62	1220.59
360.83	1288.17
361.04	1302.51
361.25	1275.88
361.46	1314.80
361.67	1208.30
361.88	1245.16
362.09	1310.70
362.30	1239.02
362.51	1269.74
362.72	1290.22
362.93	1269.74
363.14	1296.36
363.35	1300.46
363.56	1302.51
363.78	1298.41
363.99	1370.09
364.20	1228.78
364.41	1318.89
364.62	1304.56
364.83	1243.12
365.04	1300.46
365.25	1271.79
365.46	1310.70
365.67	1232.88
365.88	1300.46
366.09	1224.69
366.30	1228.78
366.51	1265.64
366.72	1249.26
366.93	1306.60
367.14	1222.64
367.35	1228.78
367.56	1224.69
367.77	1265.64
367.98	1279.98
368.18	1316.84
368.39	1273.84
368.60	1308.65
368.81	1210.35
369.02	1312.75
369.23	1245.16
369.44	1284.08
369.65	1200.11
369.86	1255.40
370.07	1275.88
370.28	1277.93
370.49	1271.79
370.70	1296.36
370.91	1277.93
371.12	1263.60
371.33	1290.22
371.54	1286.12
371.75	1325.04
371.96	1230.83
372.17	1267.69
372.38	1265.64
372.59	1228.78
372.80	1320.94
373.01	1290.22
373.22	1253.36
373.43	1275.88
373.64	1279.98
373.85	1220.59
374.06	1261.55
374.26	1220.59
374.47	1232.88
374.68	1259.50
374.89	1298.41
375.10	1327.08
375.31	1290.22
375.52	1261.55
375.73	1224.69
375.94	1243.12
376.15	1273.84
376.36	1316.84
376.57	1249.26
376.78	1243.12
376.99	1275.88
377.20	1251.31
377.40	1290.22
377.61	1351.66
377.82	1286.12
378.03	1286.12
378.24	1193.97
378.45	1245.16
378.66	1255.40
378.87	1255.40
379.08	1236.97
379.29	1314.80
379.50	1302.51
379.71	1286.12
379.91	1322.99
380.12	1261.55
380.33	1202.16
380.54	1359.85
380.75	1312.75
380.96	1279.98
381.17	1279.98
381.38	1247.21
381.59	1288.17
381.80	1236.97
382.00	1220.59
382.21	1232.88
382.42	1243.12
382.63	1267.69
382.84	1249.26
383.05	1239.02
383.26	1261.55
383.47	1314.80
383.68	1232.88
383.88	1228.78
384.09	1284.08
384.30	1224.69
384.51	1312.75
384.72	1226.73
384.93	1318.89
385.14	1363.95
385.35	1232.88
385.55	1286.12
385.76	1243.12
385.97	1290.22
386.18	1253.36
386.39	1243.12
386.60	1288.17
386.81	1259.50
387.02	1251.31
387.22	1245.16
387.43	1265.64
387.64	1318.89
387.85	1273.84
388.06	1249.26
388.27	1267.69
388.48	1232.88
388.68	1208.30
388.89	1234.93
389.10	1304.56
389.31	1216.49
389.52	1232.88
389.73	1306.60
389.93	1241.07
390.14	1284.08
390.35	1245.16
390.56	1218.54
390.77	1333.23
390.98	1251.31
391.18	1263.60
391.39	1243.12
391.60	1241.07
391.81	1222.64
392.02	1210.35
392.23	1318.89
392.43	1343.47
392.64	1253.36
392.85	1345.52
393.06	1255.40
393.27	1304.56
393.47	1206.25
393.68	1290.22
393.89	1325.04
394.10	1267.69
394.31	1298.41
394.52	1189.87
394.72	1263.60
394.93	1361.90
395.14	1288.17
395.35	1296.36
395.56	1304.56
395.76	1257.45
395.97	1277.93
396.18	1304.56
396.39	1159.15
396.60	1230.83
396.80	1265.64
397.01	1169.39
397.22	1249.26
397.43	1306.60
397.64	1322.99
397.84	1261.55
398.05	1282.03
398.26	1378.28
398.47	1249.26
398.67	1327.08
398.88	1243.12
399.09	1232.88
399.30	1253.36
399.51	1290.22
399.71	1224.69
399.92	1273.84
400.13	1236.97
400.34	1253.36
400.54	1239.02
400.75	1361.90
400.96	1208.30
401.17	1230.83
401.37	1257.45
401.58	1263.60
401.79	1273.84
402.00	1247.21
402.21	1282.03
402.41	1271.79
402.62	1210.35
402.83	1222.64
403.04	1200.11
403.24	1306.60
403.45	1273.84
403.66	1267.69
403.87	1308.65
404.07	1271.79
404.28	1243.12
404.49	1277.93
404.70	1273.84
404.90	1222.64
405.11	1273.84
405.32	1314.80
405.52	1212.40
405.73	1214.45
405.94	1218.54
406.15	1255.40
406.35	1198.06
406.56	1325.04
406.77	1275.88
406.98	1310.70
407.18	1224.69
407.39	1312.75
407.60	1327.08
407.80	1318.89
408.01	1247.21
408.22	1251.31
408.43	1181.68
408.63	1290.22
408.84	1347.56
409.05	1175.53
409.25	1239.02
409.46	1239.02
409.67	1277.93
409.88	1239.02
410.08	1241.07
410.29	1294.32
410.50	1239.02
410.70	1308.65
410.91	1249.26
411.12	1265.64
411.32	1296.36
411.53	1286.12
411.74	1286.12
411.95	1259.50
412.15	1245.16
412.36	1228.78
412.57	1296.36
412.77	1296.36
412.98	1273.84
413.19	1232.88
413.39	1304.56
413.60	1306.60
413.81	1253.36
414.01	1273.84
414.22	1175.53
414.43	1347.56
414.63	1196.01
414.84	1320.94
415.05	1251.31
415.25	1282.03
415.46	1271.79
415.67	1263.60
415.87	1243.12
416.08	1261.55
416.29	1314.80
416.49	1302.51
416.70	1236.97
416.91	1232.88
417.11	1275.88
417.32	1228.78
417.53	1296.36
417.73	1245.16
417.94	1290.22
418.15	1302.51
418.35	1282.03
418.56	1263.60
418.77	1226.73
418.97	1335.28
419.18	1302.51
419.38	1261.55
419.59	1263.60
419.80	1298.41
420.00	1331.18
420.21	1290.22
420.42	1265.64
420.62	1263.60
420.83	1232.88
421.04	1292.27
421.24	1292.27
421.45	1200.11
421.65	1320.94
421.86	1267.69
422.07	1208.30
422.27	1226.73
422.48	1345.52
422.69	1234.93
422.89	1202.16
423.10	1245.16
423.30	1284.08
423.51	1247.21
423.72	1298.41
423.92	1279.98
424.13	1265.64
424.33	1275.88
424.54	1288.17
424.75	1322.99
424.95	1261.55
425.16	1300.46
425.36	1222.64
425.57	1269.74
425.78	1212.40
425.98	1269.74
426.19	1279.98
426.39	1302.51
426.60	1322.99
426.81	1263.60
427.01	1265.64
427.22	1232.88
427.42	1210.35
427.63	1230.83
427.83	1247.21
428.04	1214.45
428.25	1314.80
428.45	1245.16
428.66	1349.61
428.86	1339.37
429.07	1271.79
429.28	1249.26
429.48	1212.40
429.69	1325.04
429.89	1210.35
430.10	1255.40
430.30	1261.55
430.51	1214.45
430.71	1249.26
430.92	1273.84
431.13	1245.16
431.33	1310.70
431.54	1312.75
431.74	1300.46
431.95	1271.79
432.15	1279.98
432.36	1249.26
432.56	1269.74
432.77	1335.28
432.98	1243.12
433.18	1286.12
433.39	1329.13
433.59	1261.55
433.80	1286.12
434.00	1247.21
434.21	1322.99
434.41	1259.50
434.62	1310.70
434.82	1239.02
435.03	1261.55
435.23	1294.32
435.44	1292.27
435.64	1263.60
435.85	1288.17
436.06	1302.51
436.26	1282.03
436.47	1202.16
436.67	1310.70
436.88	1230.83
437.08	1331.18
437.29	1243.12
437.49	1265.64
437.70	1267.69
437.90	1263.60
438.11	1337.32
438.31	1265.64
438.52	1253.36
438.72	1339.37
438.93	1181.68
439.13	1286.12
439.34	1232.88
439.54	1296.36
439.75	1290.22
439.95	1273.84
440.16	1267.69
440.36	1255.40
440.57	1288.17
440.77	1259.50
440.98	1228.78
441.18	1337.32
441.39	1320.94
441.59	1300.46
441.80	1247.21
442.00	1273.84
442.21	1298.41
442.41	1304.56
442.62	1337.32
442.82	1320.94
443.02	1232.88
443.23	1275.88
443.43	1329.13
443.64	1333.23
443.84	1279.98
444.05	1245.16
444.25	1302.51
444.46	1288.17
444.66	1236.97
444.87	1310.70
445.07	1226.73
445.28	1318.89
445.48	1275.88
445.69	1288.17
445.89	1318.89
446.09	1269.74
446.30	1308.65
446.50	1396.71
446.71	1300.46
446.91	1257.45
447.12	1263.60
447.32	1308.65
447.53	1236.97
447.73	1286.12
447.93	1228.78
448.14	1316.84
448.34	1277.93
448.55	1306.60
448.75	1290.22
448.96	1226.73
449.16	1251.31
449.36	1300.46
449.57	1290.22
449.77	1288.17
449.98	1288.17
450.18	1279.98
450.39	1253.36
450.59	1267.69
450.79	1288.17
451.00	1304.56
451.20	1298.41
451.41	1343.47
451.61	1249.26
451.81	1300.46
452.02	1294.32
452.22	1337.32
452.43	1312.75
452.63	1265.64
