SpectraSuite Data File
++++++++++++++++++++++++++++++++++++
Date: Sun Apr 03 19:55:24 CEST 2016
User: root
Dark Spectrum Present: No
Reference Spectrum Present: No
Number of Sampled Component Spectra: 1
Spectrometers: USB4C02835
Integration Time (usec): 10000 (USB4C02835)
Spectra Averaged: 1 (USB4C02835)
Boxcar Smoothing: 0 (USB4C02835)
Correct for Electrical Dark: No (USB4C02835)
Strobe/Lamp Enabled: No (USB4C02835)
Correct for Detector Non-linearity: No (USB4C02835)
Correct for Stray Light: No (USB4C02835)
Number of Pixels in Processed Spectrum: 3648
>>>>>Begin Processed Spectral Data<<<<<
177.47	1253.36
177.69	1253.36
177.91	1253.36
178.13	1202.16
178.36	1202.16
178.58	1261.55
178.80	1345.52
179.02	1257.45
179.24	1294.32
179.46	1224.69
179.68	1288.17
179.90	1234.93
180.13	1245.16
180.35	1316.84
180.57	1306.60
180.79	1273.84
181.01	1277.93
181.23	1318.89
181.45	1282.03
181.67	1243.12
181.90	1331.18
182.12	1306.60
182.34	1265.64
182.56	1265.64
182.78	1259.50
183.00	1286.12
183.22	1224.69
183.44	1282.03
183.66	1329.13
183.89	1226.73
184.11	1200.11
184.33	1226.73
184.55	1282.03
184.77	1218.54
184.99	1282.03
185.21	1318.89
185.43	1292.27
185.65	1273.84
185.87	1279.98
186.10	1267.69
186.32	1206.25
186.54	1335.28
186.76	1191.92
186.98	1261.55
187.20	1269.74
187.42	1249.26
187.64	1232.88
187.86	1259.50
188.08	1243.12
188.30	1193.97
188.52	1241.07
188.75	1241.07
188.97	1322.99
189.19	1292.27
189.41	1255.40
189.63	1265.64
189.85	1245.16
190.07	1275.88
190.29	1322.99
190.51	1275.88
190.73	1267.69
190.95	1320.94
191.17	1265.64
191.39	1282.03
191.61	1269.74
191.84	1218.54
192.06	1314.80
192.28	1273.84
192.50	1290.22
192.72	1228.78
192.94	1263.60
193.16	1312.75
193.38	1339.37
193.60	1273.84
193.82	1228.78
194.04	1236.97
194.26	1226.73
194.48	1245.16
194.70	1214.45
194.92	1257.45
195.14	1224.69
195.36	1292.27
195.58	1273.84
195.80	1245.16
196.02	1277.93
196.24	1271.79
196.46	1255.40
196.69	1255.40
196.91	1214.45
197.13	1316.84
197.35	1216.49
197.57	1290.22
197.79	1312.75
198.01	1232.88
198.23	1263.60
198.45	1288.17
198.67	1243.12
198.89	1282.03
199.11	1314.80
199.33	1234.93
199.55	1318.89
199.77	1228.78
199.99	1214.45
200.21	1300.46
200.43	1189.87
200.65	1288.17
200.87	1245.16
201.09	1255.40
201.31	1267.69
201.53	1318.89
201.75	1216.49
201.97	1288.17
202.19	1232.88
202.41	1261.55
202.63	1363.95
202.85	1220.59
203.07	1271.79
203.29	1275.88
203.51	1269.74
203.73	1286.12
203.95	1335.28
204.17	1286.12
204.39	1234.93
204.61	1296.36
204.83	1257.45
205.05	1286.12
205.27	1316.84
205.49	1353.71
205.71	1265.64
205.93	1271.79
206.15	1241.07
206.37	1269.74
206.59	1200.11
206.81	1226.73
207.03	1284.08
207.25	1316.84
207.47	1243.12
207.69	1275.88
207.91	1308.65
208.13	1286.12
208.34	1214.45
208.56	1273.84
208.78	1247.21
209.00	1286.12
209.22	1239.02
209.44	1286.12
209.66	1200.11
209.88	1267.69
210.10	1239.02
210.32	1302.51
210.54	1284.08
210.76	1216.49
210.98	1292.27
211.20	1261.55
211.42	1245.16
211.64	1261.55
211.86	1298.41
212.08	1257.45
212.30	1230.83
212.52	1282.03
212.74	1312.75
212.96	1232.88
213.17	1304.56
213.39	1210.35
213.61	1257.45
213.83	1312.75
214.05	1249.26
214.27	1261.55
214.49	1230.83
214.71	1241.07
214.93	1247.21
215.15	1247.21
215.37	1236.97
215.59	1257.45
215.81	1298.41
216.03	1230.83
216.24	1306.60
216.46	1304.56
216.68	1288.17
216.90	1224.69
217.12	1191.92
217.34	1265.64
217.56	1271.79
217.78	1193.97
218.00	1306.60
218.22	1288.17
218.44	1290.22
218.66	1275.88
218.87	1259.50
219.09	1247.21
219.31	1284.08
219.53	1306.60
219.75	1232.88
219.97	1222.64
220.19	1220.59
220.41	1183.73
220.63	1282.03
220.85	1245.16
221.06	1292.27
221.28	1255.40
221.50	1331.18
221.72	1284.08
221.94	1253.36
222.16	1253.36
222.38	1224.69
222.60	1263.60
222.82	1230.83
223.03	1275.88
223.25	1206.25
223.47	1249.26
223.69	1265.64
223.91	1304.56
224.13	1247.21
224.35	1306.60
224.57	1265.64
224.78	1267.69
225.00	1230.83
225.22	1271.79
225.44	1279.98
225.66	1189.87
225.88	1224.69
226.10	1251.31
226.32	1259.50
226.53	1257.45
226.75	1263.60
226.97	1286.12
227.19	1273.84
227.41	1271.79
227.63	1183.73
227.85	1300.46
228.06	1261.55
228.28	1216.49
228.50	1306.60
228.72	1329.13
228.94	1255.40
229.16	1243.12
229.37	1282.03
229.59	1265.64
229.81	1298.41
230.03	1296.36
230.25	1204.21
230.47	1308.65
230.69	1282.03
230.90	1286.12
231.12	1331.18
231.34	1259.50
231.56	1282.03
231.78	1243.12
232.00	1259.50
232.21	1298.41
232.43	1247.21
232.65	1318.89
232.87	1277.93
233.09	1245.16
233.30	1372.14
233.52	1302.51
233.74	1292.27
233.96	1322.99
234.18	1265.64
234.40	1239.02
234.61	1279.98
234.83	1245.16
235.05	1251.31
235.27	1310.70
235.49	1306.60
235.70	1298.41
235.92	1269.74
236.14	1316.84
236.36	1273.84
236.58	1247.21
236.79	1312.75
237.01	1273.84
237.23	1329.13
237.45	1339.37
237.67	1249.26
237.88	1300.46
238.10	1214.45
238.32	1228.78
238.54	1226.73
238.76	1314.80
238.97	1234.93
239.19	1279.98
239.41	1284.08
239.63	1230.83
239.85	1241.07
240.06	1314.80
240.28	1247.21
240.50	1296.36
240.72	1279.98
240.93	1292.27
241.15	1347.56
241.37	1249.26
241.59	1208.30
241.81	1290.22
242.02	1249.26
242.24	1253.36
242.46	1284.08
242.68	1314.80
242.89	1327.08
243.11	1286.12
243.33	1286.12
243.55	1314.80
243.76	1345.52
243.98	1216.49
244.20	1286.12
244.42	1245.16
244.64	1257.45
244.85	1253.36
245.07	1312.75
245.29	1253.36
245.51	1243.12
245.72	1275.88
245.94	1230.83
246.16	1239.02
246.38	1304.56
246.59	1247.21
246.81	1290.22
247.03	1374.19
247.24	1255.40
247.46	1288.17
247.68	1298.41
247.90	1241.07
248.11	1312.75
248.33	1222.64
248.55	1318.89
248.77	1247.21
248.98	1230.83
249.20	1228.78
249.42	1261.55
249.64	1273.84
249.85	1224.69
250.07	1265.64
250.29	1273.84
250.50	1290.22
250.72	1259.50
250.94	1286.12
251.16	1282.03
251.37	1210.35
251.59	1236.97
251.81	1269.74
252.02	1263.60
252.24	1200.11
252.46	1333.23
252.68	1218.54
252.89	1249.26
253.11	1302.51
253.33	1302.51
253.54	1288.17
253.76	1288.17
253.98	1306.60
254.20	1265.64
254.41	1257.45
254.63	1284.08
254.85	1245.16
255.06	1251.31
255.28	1302.51
255.50	1286.12
255.71	1216.49
255.93	1267.69
256.15	1261.55
256.36	1304.56
256.58	1279.98
256.80	1273.84
257.02	1286.12
257.23	1273.84
257.45	1249.26
257.67	1247.21
257.88	1228.78
258.10	1236.97
258.32	1202.16
258.53	1331.18
258.75	1300.46
258.97	1224.69
259.18	1230.83
259.40	1275.88
259.62	1234.93
259.83	1232.88
260.05	1265.64
260.27	1257.45
260.48	1271.79
260.70	1265.64
260.92	1214.45
261.13	1335.28
261.35	1243.12
261.57	1269.74
261.78	1222.64
262.00	1288.17
262.22	1306.60
262.43	1271.79
262.65	1312.75
262.86	1302.51
263.08	1245.16
263.30	1255.40
263.51	1279.98
263.73	1296.36
263.95	1277.93
264.16	1175.53
264.38	1333.23
264.60	1300.46
264.81	1314.80
265.03	1257.45
265.25	1212.40
265.46	1204.21
265.68	1343.47
265.89	1224.69
266.11	1318.89
266.33	1239.02
266.54	1282.03
266.76	1331.18
266.98	1269.74
267.19	1286.12
267.41	1222.64
267.62	1228.78
267.84	1275.88
268.06	1288.17
268.27	1253.36
268.49	1249.26
268.70	1206.25
268.92	1296.36
269.14	1230.83
269.35	1298.41
269.57	1167.34
269.79	1282.03
270.00	1322.99
270.22	1337.32
270.43	1251.31
270.65	1218.54
270.87	1275.88
271.08	1269.74
271.30	1261.55
271.51	1302.51
271.73	1290.22
271.95	1239.02
272.16	1208.30
272.38	1259.50
272.59	1224.69
272.81	1263.60
273.02	1275.88
273.24	1271.79
273.46	1202.16
273.67	1247.21
273.89	1298.41
274.10	1224.69
274.32	1300.46
274.54	1230.83
274.75	1277.93
274.97	1300.46
275.18	1294.32
275.40	1300.46
275.61	1263.60
275.83	1286.12
276.05	1310.70
276.26	1286.12
276.48	1271.79
276.69	1234.93
276.91	1267.69
277.12	1212.40
277.34	1318.89
277.55	1275.88
277.77	1275.88
277.99	1269.74
278.20	1271.79
278.42	1282.03
278.63	1189.87
278.85	1236.97
279.06	1222.64
279.28	1275.88
279.49	1306.60
279.71	1263.60
279.93	1308.65
280.14	1220.59
280.36	1271.79
280.57	1282.03
280.79	1298.41
281.00	1279.98
281.22	1259.50
281.43	1202.16
281.65	1292.27
281.86	1298.41
282.08	1220.59
282.29	1269.74
282.51	1214.45
282.73	1300.46
282.94	1263.60
283.16	1208.30
283.37	1245.16
283.59	1232.88
283.80	1257.45
284.02	1304.56
284.23	1298.41
284.45	1329.13
284.66	1259.50
284.88	1222.64
285.09	1355.76
285.31	1300.46
285.52	1202.16
285.74	1212.40
285.95	1277.93
286.17	1314.80
286.38	1247.21
286.60	1312.75
286.81	1224.69
287.03	1265.64
287.24	1220.59
287.46	1251.31
287.67	1347.56
287.89	1239.02
288.10	1277.93
288.32	1245.16
288.53	1296.36
288.75	1269.74
288.96	1327.08
289.18	1263.60
289.39	1290.22
289.61	1282.03
289.82	1380.33
290.04	1325.04
290.25	1361.90
290.47	1306.60
290.68	1372.14
290.90	1243.12
291.11	1294.32
291.33	1316.84
291.54	1263.60
291.76	1230.83
291.97	1327.08
292.18	1300.46
292.40	1226.73
292.61	1257.45
292.83	1343.47
293.04	1275.88
293.26	1320.94
293.47	1306.60
293.69	1267.69
293.90	1214.45
294.12	1282.03
294.33	1259.50
294.55	1206.25
294.76	1296.36
294.97	1271.79
295.19	1341.42
295.40	1239.02
295.62	1265.64
295.83	1271.79
296.05	1271.79
296.26	1308.65
296.48	1298.41
296.69	1325.04
296.90	1183.73
297.12	1202.16
297.33	1284.08
297.55	1288.17
297.76	1302.51
297.98	1275.88
298.19	1275.88
298.41	1239.02
298.62	1202.16
298.83	1253.36
299.05	1249.26
299.26	1245.16
299.48	1273.84
299.69	1243.12
299.90	1290.22
300.12	1318.89
300.33	1282.03
300.55	1275.88
300.76	1310.70
300.98	1318.89
301.19	1296.36
301.40	1292.27
301.62	1251.31
301.83	1306.60
302.05	1263.60
302.26	1284.08
302.47	1288.17
302.69	1275.88
302.90	1279.98
303.12	1277.93
303.33	1294.32
303.54	1290.22
303.76	1181.68
303.97	1335.28
304.19	1263.60
304.40	1200.11
304.61	1241.07
304.83	1318.89
305.04	1241.07
305.26	1300.46
305.47	1302.51
305.68	1302.51
305.90	1273.84
306.11	1339.37
306.33	1253.36
306.54	1300.46
306.75	1230.83
306.97	1247.21
307.18	1302.51
307.39	1304.56
307.61	1306.60
307.82	1310.70
308.04	1261.55
308.25	1253.36
308.46	1253.36
308.68	1329.13
308.89	1288.17
309.10	1259.50
309.32	1271.79
309.53	1224.69
309.74	1239.02
309.96	1220.59
310.17	1216.49
310.39	1253.36
310.60	1298.41
310.81	1327.08
311.03	1251.31
311.24	1208.30
311.45	1220.59
311.67	1282.03
311.88	1302.51
312.09	1306.60
312.31	1259.50
312.52	1298.41
312.73	1206.25
312.95	1249.26
313.16	1259.50
313.37	1191.92
313.59	1351.66
313.80	1261.55
314.01	1331.18
314.23	1243.12
314.44	1282.03
314.65	1286.12
314.87	1271.79
315.08	1241.07
315.29	1288.17
315.51	1169.39
315.72	1251.31
315.93	1193.97
316.15	1249.26
316.36	1288.17
316.57	1206.25
316.79	1241.07
317.00	1300.46
317.21	1282.03
317.43	1271.79
317.64	1310.70
317.85	1236.97
318.07	1251.31
318.28	1200.11
318.49	1214.45
318.70	1290.22
318.92	1279.98
319.13	1220.59
319.34	1187.82
319.56	1294.32
319.77	1243.12
319.98	1241.07
320.20	1284.08
320.41	1261.55
320.62	1282.03
320.83	1239.02
321.05	1294.32
321.26	1230.83
321.47	1286.12
321.69	1345.52
321.90	1290.22
322.11	1329.13
322.32	1228.78
322.54	1284.08
322.75	1292.27
322.96	1306.60
323.18	1296.36
323.39	1290.22
323.60	1308.65
323.81	1308.65
324.03	1253.36
324.24	1269.74
324.45	1271.79
324.66	1259.50
324.88	1226.73
325.09	1247.21
325.30	1263.60
325.52	1206.25
325.73	1259.50
325.94	1220.59
326.15	1327.08
326.37	1228.78
326.58	1316.84
326.79	1267.69
327.00	1296.36
327.22	1296.36
327.43	1167.34
327.64	1298.41
327.85	1232.88
328.07	1239.02
328.28	1232.88
328.49	1241.07
328.70	1294.32
328.92	1308.65
329.13	1275.88
329.34	1249.26
329.55	1245.16
329.76	1290.22
329.98	1257.45
330.19	1261.55
330.40	1259.50
330.61	1290.22
330.83	1275.88
331.04	1234.93
331.25	1288.17
331.46	1239.02
331.68	1247.21
331.89	1290.22
332.10	1265.64
332.31	1226.73
332.52	1296.36
332.74	1331.18
332.95	1187.82
333.16	1255.40
333.37	1302.51
333.58	1290.22
333.80	1302.51
334.01	1284.08
334.22	1267.69
334.43	1265.64
334.64	1247.21
334.86	1253.36
335.07	1277.93
335.28	1314.80
335.49	1251.31
335.70	1288.17
335.92	1247.21
336.13	1279.98
336.34	1316.84
336.55	1220.59
336.76	1257.45
336.98	1290.22
337.19	1275.88
337.40	1253.36
337.61	1300.46
337.82	1277.93
338.04	1245.16
338.25	1189.87
338.46	1249.26
338.67	1259.50
338.88	1292.27
339.09	1245.16
339.31	1312.75
339.52	1306.60
339.73	1296.36
339.94	1320.94
340.15	1226.73
340.36	1230.83
340.58	1269.74
340.79	1222.64
341.00	1249.26
341.21	1265.64
341.42	1286.12
341.63	1214.45
341.85	1257.45
342.06	1337.32
342.27	1286.12
342.48	1294.32
342.69	1230.83
342.90	1232.88
343.12	1325.04
343.33	1269.74
343.54	1253.36
343.75	1232.88
343.96	1224.69
344.17	1243.12
344.38	1214.45
344.60	1277.93
344.81	1310.70
345.02	1296.36
345.23	1273.84
345.44	1275.88
345.65	1224.69
345.86	1306.60
346.07	1351.66
346.29	1290.22
346.50	1245.16
346.71	1331.18
346.92	1314.80
347.13	1300.46
347.34	1263.60
347.55	1245.16
347.76	1312.75
347.98	1288.17
348.19	1249.26
348.40	1288.17
348.61	1361.90
348.82	1249.26
349.03	1275.88
349.24	1259.50
349.45	1247.21
349.66	1282.03
349.88	1210.35
350.09	1232.88
350.30	1257.45
350.51	1220.59
350.72	1292.27
350.93	1275.88
351.14	1230.83
351.35	1228.78
351.56	1277.93
351.77	1308.65
351.99	1239.02
352.20	1214.45
352.41	1206.25
352.62	1265.64
352.83	1243.12
353.04	1263.60
353.25	1277.93
353.46	1290.22
353.67	1284.08
353.88	1257.45
354.09	1273.84
354.30	1288.17
354.52	1249.26
354.73	1245.16
354.94	1277.93
355.15	1245.16
355.36	1288.17
355.57	1265.64
355.78	1245.16
355.99	1298.41
356.20	1333.23
356.41	1208.30
356.62	1286.12
356.83	1277.93
357.04	1249.26
357.25	1243.12
357.46	1255.40
357.68	1345.52
357.89	1263.60
358.10	1255.40
358.31	1255.40
358.52	1257.45
358.73	1249.26
358.94	1200.11
359.15	1253.36
359.36	1263.60
359.57	1263.60
359.78	1329.13
359.99	1202.16
360.20	1259.50
360.41	1333.23
360.62	1320.94
360.83	1230.83
361.04	1259.50
361.25	1257.45
361.46	1320.94
361.67	1337.32
361.88	1263.60
362.09	1224.69
362.30	1263.60
362.51	1239.02
362.72	1300.46
362.93	1253.36
363.14	1363.95
363.35	1259.50
363.56	1169.39
363.78	1257.45
363.99	1216.49
364.20	1320.94
364.41	1288.17
364.62	1241.07
364.83	1294.32
365.04	1210.35
365.25	1261.55
365.46	1251.31
365.67	1275.88
365.88	1320.94
366.09	1249.26
366.30	1257.45
366.51	1181.68
366.72	1142.77
366.93	1310.70
367.14	1224.69
367.35	1312.75
367.56	1230.83
367.77	1288.17
367.98	1169.39
368.18	1296.36
368.39	1290.22
368.60	1282.03
368.81	1249.26
369.02	1232.88
369.23	1218.54
369.44	1275.88
369.65	1331.18
369.86	1329.13
370.07	1255.40
370.28	1286.12
370.49	1298.41
370.70	1331.18
370.91	1322.99
371.12	1273.84
371.33	1267.69
371.54	1288.17
371.75	1200.11
371.96	1312.75
372.17	1263.60
372.38	1220.59
372.59	1255.40
372.80	1226.73
373.01	1279.98
373.22	1298.41
373.43	1273.84
373.64	1239.02
373.85	1277.93
374.06	1361.90
374.26	1204.21
374.47	1339.37
374.68	1257.45
374.89	1243.12
375.10	1263.60
375.31	1320.94
375.52	1290.22
375.73	1310.70
375.94	1226.73
376.15	1320.94
376.36	1228.78
376.57	1259.50
376.78	1279.98
376.99	1167.34
377.20	1306.60
377.40	1236.97
377.61	1282.03
377.82	1208.30
378.03	1267.69
378.24	1322.99
378.45	1249.26
378.66	1298.41
378.87	1251.31
379.08	1247.21
379.29	1275.88
379.50	1232.88
379.71	1249.26
379.91	1304.56
380.12	1296.36
380.33	1331.18
380.54	1298.41
380.75	1292.27
380.96	1204.21
381.17	1255.40
381.38	1296.36
381.59	1224.69
381.80	1263.60
382.00	1314.80
382.21	1255.40
382.42	1300.46
382.63	1253.36
382.84	1296.36
383.05	1198.06
383.26	1239.02
383.47	1302.51
383.68	1249.26
383.88	1236.97
384.09	1282.03
384.30	1294.32
384.51	1230.83
384.72	1269.74
384.93	1263.60
385.14	1243.12
385.35	1265.64
385.55	1251.31
385.76	1206.25
385.97	1312.75
386.18	1345.52
386.39	1347.56
386.60	1277.93
386.81	1304.56
387.02	1245.16
387.22	1292.27
387.43	1234.93
387.64	1212.40
387.85	1290.22
388.06	1275.88
388.27	1189.87
388.48	1247.21
388.68	1277.93
388.89	1261.55
389.10	1284.08
389.31	1263.60
389.52	1261.55
389.73	1282.03
389.93	1284.08
390.14	1228.78
390.35	1290.22
390.56	1273.84
390.77	1200.11
390.98	1308.65
391.18	1249.26
391.39	1298.41
391.60	1230.83
391.81	1232.88
392.02	1259.50
392.23	1210.35
392.43	1316.84
392.64	1230.83
392.85	1259.50
393.06	1255.40
393.27	1222.64
393.47	1185.77
393.68	1230.83
393.89	1273.84
394.10	1312.75
394.31	1243.12
394.52	1257.45
394.72	1183.73
394.93	1279.98
395.14	1191.92
395.35	1312.75
395.56	1288.17
395.76	1273.84
395.97	1249.26
396.18	1245.16
396.39	1247.21
396.60	1265.64
396.80	1216.49
397.01	1300.46
397.22	1325.04
397.43	1273.84
397.64	1245.16
397.84	1298.41
398.05	1236.97
398.26	1265.64
398.47	1230.83
398.67	1224.69
398.88	1271.79
399.09	1292.27
399.30	1282.03
399.51	1232.88
399.71	1325.04
399.92	1298.41
400.13	1255.40
400.34	1232.88
400.54	1292.27
400.75	1300.46
400.96	1253.36
401.17	1247.21
401.37	1253.36
401.58	1265.64
401.79	1271.79
402.00	1175.53
402.21	1222.64
402.41	1273.84
402.62	1232.88
402.83	1271.79
403.04	1296.36
403.24	1200.11
403.45	1236.97
403.66	1253.36
403.87	1245.16
404.07	1263.60
404.28	1259.50
404.49	1191.92
404.70	1296.36
404.90	1232.88
405.11	1263.60
405.32	1294.32
405.52	1290.22
405.73	1259.50
405.94	1310.70
406.15	1265.64
406.35	1384.43
406.56	1298.41
406.77	1243.12
406.98	1241.07
407.18	1230.83
407.39	1294.32
407.60	1286.12
407.80	1370.09
408.01	1286.12
408.22	1333.23
408.43	1257.45
408.63	1300.46
408.84	1284.08
409.05	1181.68
409.25	1208.30
409.46	1314.80
409.67	1269.74
409.88	1216.49
410.08	1335.28
410.29	1300.46
410.50	1267.69
410.70	1249.26
410.91	1216.49
411.12	1284.08
411.32	1277.93
411.53	1257.45
411.74	1259.50
411.95	1327.08
412.15	1267.69
412.36	1251.31
412.57	1218.54
412.77	1273.84
412.98	1284.08
413.19	1247.21
413.39	1282.03
413.60	1226.73
413.81	1322.99
414.01	1224.69
414.22	1333.23
414.43	1251.31
414.63	1259.50
414.84	1282.03
415.05	1263.60
415.25	1271.79
415.46	1304.56
415.67	1290.22
415.87	1271.79
416.08	1366.00
416.29	1306.60
416.49	1243.12
416.70	1193.97
416.91	1247.21
417.11	1282.03
417.32	1253.36
417.53	1253.36
417.73	1286.12
417.94	1286.12
418.15	1259.50
418.35	1286.12
418.56	1288.17
418.77	1243.12
418.97	1325.04
419.18	1239.02
419.38	1218.54
419.59	1290.22
419.80	1322.99
420.00	1273.84
420.21	1284.08
420.42	1288.17
420.62	1279.98
420.83	1322.99
421.04	1277.93
421.24	1273.84
421.45	1251.31
421.65	1310.70
421.86	1214.45
422.07	1282.03
422.27	1247.21
422.48	1310.70
422.69	1261.55
422.89	1245.16
423.10	1230.83
423.30	1294.32
423.51	1322.99
423.72	1261.55
423.92	1230.83
424.13	1220.59
424.33	1249.26
424.54	1300.46
424.75	1257.45
424.95	1327.08
425.16	1253.36
425.36	1279.98
425.57	1259.50
425.78	1247.21
425.98	1277.93
426.19	1300.46
426.39	1200.11
426.60	1155.05
426.81	1290.22
427.01	1183.73
427.22	1265.64
427.42	1210.35
427.63	1245.16
427.83	1312.75
428.04	1282.03
428.25	1230.83
428.45	1357.80
428.66	1267.69
428.86	1282.03
429.07	1212.40
429.28	1294.32
429.48	1253.36
429.69	1345.52
429.89	1282.03
430.10	1267.69
430.30	1294.32
430.51	1308.65
430.71	1224.69
430.92	1261.55
431.13	1286.12
431.33	1204.21
431.54	1249.26
431.74	1247.21
431.95	1204.21
432.15	1294.32
432.36	1259.50
432.56	1253.36
432.77	1292.27
432.98	1239.02
433.18	1298.41
433.39	1310.70
433.59	1292.27
433.80	1296.36
434.00	1339.37
434.21	1290.22
434.41	1263.60
434.62	1265.64
434.82	1208.30
435.03	1271.79
435.23	1277.93
435.44	1220.59
435.64	1261.55
435.85	1314.80
436.06	1239.02
436.26	1322.99
436.47	1310.70
436.67	1263.60
436.88	1353.71
437.08	1290.22
437.29	1277.93
437.49	1265.64
437.70	1304.56
437.90	1257.45
438.11	1181.68
438.31	1284.08
438.52	1349.61
438.72	1292.27
438.93	1308.65
439.13	1226.73
439.34	1220.59
439.54	1310.70
439.75	1279.98
439.95	1239.02
440.16	1271.79
440.36	1288.17
440.57	1226.73
440.77	1265.64
440.98	1333.23
441.18	1292.27
441.39	1261.55
441.59	1275.88
441.80	1320.94
442.00	1288.17
442.21	1370.09
442.41	1277.93
442.62	1284.08
442.82	1302.51
443.02	1263.60
443.23	1269.74
443.43	1253.36
443.64	1249.26
443.84	1265.64
444.05	1316.84
444.25	1298.41
444.46	1187.82
444.66	1277.93
444.87	1294.32
445.07	1236.97
445.28	1339.37
445.48	1257.45
445.69	1228.78
445.89	1388.52
446.09	1234.93
446.30	1251.31
446.50	1296.36
446.71	1273.84
446.91	1271.79
447.12	1288.17
447.32	1314.80
447.53	1294.32
447.73	1349.61
447.93	1290.22
448.14	1245.16
448.34	1322.99
448.55	1267.69
448.75	1286.12
448.96	1300.46
449.16	1294.32
449.36	1265.64
449.57	1249.26
449.77	1312.75
449.98	1198.06
450.18	1277.93
450.39	1372.14
450.59	1308.65
450.79	1212.40
451.00	1279.98
451.20	1331.18
451.41	1325.04
451.61	1314.80
451.81	1259.50
452.02	1300.46
452.22	1308.65
452.43	1304.56
452.63	1296.36
