SpectraSuite Data File
++++++++++++++++++++++++++++++++++++
Date: Sun Apr 03 19:55:55 CEST 2016
User: root
Dark Spectrum Present: No
Reference Spectrum Present: No
Number of Sampled Component Spectra: 1
Spectrometers: USB4C02835
Integration Time (usec): 10000 (USB4C02835)
Spectra Averaged: 1 (USB4C02835)
Boxcar Smoothing: 0 (USB4C02835)
Correct for Electrical Dark: No (USB4C02835)
Strobe/Lamp Enabled: No (USB4C02835)
Correct for Detector Non-linearity: No (USB4C02835)
Correct for Stray Light: No (USB4C02835)
Number of Pixels in Processed Spectrum: 3648
>>>>>Begin Processed Spectral Data<<<<<
177.47	1220.59
177.69	1220.59
177.91	1220.59
178.13	1177.58
178.36	1251.31
178.58	1282.03
178.80	1259.50
179.02	1259.50
179.24	1222.64
179.46	1232.88
179.68	1341.42
179.90	1282.03
180.13	1275.88
180.35	1302.51
180.57	1212.40
180.79	1325.04
181.01	1284.08
181.23	1292.27
181.45	1214.45
181.67	1277.93
181.90	1300.46
182.12	1261.55
182.34	1226.73
182.56	1296.36
182.78	1351.66
183.00	1322.99
183.22	1216.49
183.44	1288.17
183.66	1279.98
183.89	1275.88
184.11	1214.45
184.33	1265.64
184.55	1239.02
184.77	1279.98
184.99	1318.89
185.21	1241.07
185.43	1279.98
185.65	1302.51
185.87	1263.60
186.10	1243.12
186.32	1306.60
186.54	1189.87
186.76	1286.12
186.98	1245.16
187.20	1298.41
187.42	1243.12
187.64	1271.79
187.86	1200.11
188.08	1312.75
188.30	1263.60
188.52	1265.64
188.75	1228.78
188.97	1236.97
189.19	1253.36
189.41	1253.36
189.63	1259.50
189.85	1327.08
190.07	1247.21
190.29	1273.84
190.51	1187.82
190.73	1294.32
190.95	1218.54
191.17	1263.60
191.39	1282.03
191.61	1232.88
191.84	1210.35
192.06	1294.32
192.28	1296.36
192.50	1273.84
192.72	1222.64
192.94	1333.23
193.16	1196.01
193.38	1265.64
193.60	1230.83
193.82	1298.41
194.04	1314.80
194.26	1320.94
194.48	1222.64
194.70	1263.60
194.92	1230.83
195.14	1220.59
195.36	1292.27
195.58	1312.75
195.80	1306.60
196.02	1265.64
196.24	1284.08
196.46	1273.84
196.69	1312.75
196.91	1214.45
197.13	1214.45
197.35	1279.98
197.57	1275.88
197.79	1255.40
198.01	1284.08
198.23	1265.64
198.45	1257.45
198.67	1245.16
198.89	1255.40
199.11	1282.03
199.33	1273.84
199.55	1224.69
199.77	1249.26
199.99	1282.03
200.21	1263.60
200.43	1228.78
200.65	1308.65
200.87	1263.60
201.09	1167.34
201.31	1296.36
201.53	1284.08
201.75	1300.46
201.97	1290.22
202.19	1279.98
202.41	1200.11
202.63	1310.70
202.85	1275.88
203.07	1259.50
203.29	1261.55
203.51	1247.21
203.73	1255.40
203.95	1259.50
204.17	1191.92
204.39	1310.70
204.61	1275.88
204.83	1279.98
205.05	1271.79
205.27	1261.55
205.49	1239.02
205.71	1331.18
205.93	1224.69
206.15	1245.16
206.37	1265.64
206.59	1347.56
206.81	1245.16
207.03	1275.88
207.25	1296.36
207.47	1322.99
207.69	1282.03
207.91	1261.55
208.13	1327.08
208.34	1243.12
208.56	1333.23
208.78	1308.65
209.00	1220.59
209.22	1239.02
209.44	1310.70
209.66	1284.08
209.88	1345.52
210.10	1275.88
210.32	1255.40
210.54	1339.37
210.76	1265.64
210.98	1255.40
211.20	1232.88
211.42	1236.97
211.64	1279.98
211.86	1204.21
212.08	1234.93
212.30	1282.03
212.52	1261.55
212.74	1171.44
212.96	1304.56
213.17	1249.26
213.39	1200.11
213.61	1163.25
213.83	1265.64
214.05	1249.26
214.27	1310.70
214.49	1337.32
214.71	1265.64
214.93	1308.65
215.15	1222.64
215.37	1294.32
215.59	1232.88
215.81	1206.25
216.03	1230.83
216.24	1310.70
216.46	1245.16
216.68	1341.42
216.90	1275.88
217.12	1306.60
217.34	1249.26
217.56	1296.36
217.78	1286.12
218.00	1343.47
218.22	1228.78
218.44	1306.60
218.66	1236.97
218.87	1212.40
219.09	1300.46
219.31	1259.50
219.53	1294.32
219.75	1249.26
219.97	1298.41
220.19	1206.25
220.41	1314.80
220.63	1298.41
220.85	1288.17
221.06	1185.77
221.28	1320.94
221.50	1337.32
221.72	1290.22
221.94	1218.54
222.16	1265.64
222.38	1314.80
222.60	1335.28
222.82	1251.31
223.03	1253.36
223.25	1292.27
223.47	1341.42
223.69	1257.45
223.91	1259.50
224.13	1370.09
224.35	1273.84
224.57	1267.69
224.78	1331.18
225.00	1251.31
225.22	1306.60
225.44	1247.21
225.66	1245.16
225.88	1167.34
226.10	1271.79
226.32	1302.51
226.53	1310.70
226.75	1224.69
226.97	1318.89
227.19	1288.17
227.41	1282.03
227.63	1236.97
227.85	1249.26
228.06	1286.12
228.28	1245.16
228.50	1263.60
228.72	1257.45
228.94	1298.41
229.16	1341.42
229.37	1251.31
229.59	1279.98
229.81	1290.22
230.03	1230.83
230.25	1200.11
230.47	1259.50
230.69	1234.93
230.90	1236.97
231.12	1290.22
231.34	1298.41
231.56	1347.56
231.78	1218.54
232.00	1292.27
232.21	1239.02
232.43	1273.84
232.65	1306.60
232.87	1267.69
233.09	1296.36
233.30	1255.40
233.52	1206.25
233.74	1267.69
233.96	1218.54
234.18	1210.35
234.40	1302.51
234.61	1292.27
234.83	1298.41
235.05	1257.45
235.27	1282.03
235.49	1236.97
235.70	1234.93
235.92	1239.02
236.14	1224.69
236.36	1263.60
236.58	1275.88
236.79	1267.69
237.01	1224.69
237.23	1279.98
237.45	1245.16
237.67	1327.08
237.88	1314.80
238.10	1228.78
238.32	1228.78
238.54	1304.56
238.76	1333.23
238.97	1247.21
239.19	1247.21
239.41	1331.18
239.63	1196.01
239.85	1216.49
240.06	1212.40
240.28	1300.46
240.50	1269.74
240.72	1271.79
240.93	1173.49
241.15	1357.80
241.37	1277.93
241.59	1286.12
241.81	1222.64
242.02	1271.79
242.24	1249.26
242.46	1277.93
242.68	1247.21
242.89	1249.26
243.11	1282.03
243.33	1267.69
243.55	1318.89
243.76	1243.12
243.98	1263.60
244.20	1320.94
244.42	1234.93
244.64	1282.03
244.85	1325.04
245.07	1265.64
245.29	1261.55
245.51	1228.78
245.72	1325.04
245.94	1220.59
246.16	1208.30
246.38	1308.65
246.59	1163.25
246.81	1298.41
247.03	1257.45
247.24	1222.64
247.46	1247.21
247.68	1265.64
247.90	1325.04
248.11	1198.06
248.33	1316.84
248.55	1347.56
248.77	1253.36
248.98	1177.58
249.20	1247.21
249.42	1208.30
249.64	1327.08
249.85	1282.03
250.07	1222.64
250.29	1273.84
250.50	1284.08
250.72	1275.88
250.94	1269.74
251.16	1296.36
251.37	1259.50
251.59	1296.36
251.81	1286.12
252.02	1298.41
252.24	1261.55
252.46	1257.45
252.68	1208.30
252.89	1269.74
253.11	1275.88
253.33	1298.41
253.54	1224.69
253.76	1271.79
253.98	1228.78
254.20	1288.17
254.41	1251.31
254.63	1263.60
254.85	1249.26
255.06	1257.45
255.28	1320.94
255.50	1239.02
255.71	1267.69
255.93	1294.32
256.15	1251.31
256.36	1308.65
256.58	1277.93
256.80	1273.84
257.02	1202.16
257.23	1265.64
257.45	1249.26
257.67	1359.85
257.88	1302.51
258.10	1241.07
258.32	1298.41
258.53	1265.64
258.75	1292.27
258.97	1298.41
259.18	1331.18
259.40	1257.45
259.62	1257.45
259.83	1253.36
260.05	1347.56
260.27	1277.93
260.48	1230.83
260.70	1267.69
260.92	1314.80
261.13	1253.36
261.35	1243.12
261.57	1191.92
261.78	1261.55
262.00	1222.64
262.22	1251.31
262.43	1312.75
262.65	1273.84
262.86	1310.70
263.08	1269.74
263.30	1171.44
263.51	1261.55
263.73	1265.64
263.95	1230.83
264.16	1214.45
264.38	1212.40
264.60	1288.17
264.81	1337.32
265.03	1222.64
265.25	1271.79
265.46	1312.75
265.68	1277.93
265.89	1318.89
266.11	1290.22
266.33	1288.17
266.54	1247.21
266.76	1232.88
266.98	1322.99
267.19	1271.79
267.41	1249.26
267.62	1302.51
267.84	1251.31
268.06	1247.21
268.27	1171.44
268.49	1316.84
268.70	1228.78
268.92	1220.59
269.14	1236.97
269.35	1175.53
269.57	1263.60
269.79	1314.80
270.00	1224.69
270.22	1232.88
270.43	1337.32
270.65	1232.88
270.87	1251.31
271.08	1198.06
271.30	1239.02
271.51	1277.93
271.73	1202.16
271.95	1279.98
272.16	1312.75
272.38	1273.84
272.59	1294.32
272.81	1292.27
273.02	1275.88
273.24	1335.28
273.46	1269.74
273.67	1314.80
273.89	1269.74
274.10	1241.07
274.32	1282.03
274.54	1224.69
274.75	1277.93
274.97	1277.93
275.18	1253.36
275.40	1251.31
275.61	1196.01
275.83	1363.95
276.05	1230.83
276.26	1308.65
276.48	1273.84
276.69	1226.73
276.91	1300.46
277.12	1208.30
277.34	1245.16
277.55	1230.83
277.77	1298.41
277.99	1279.98
278.20	1239.02
278.42	1247.21
278.63	1327.08
278.85	1282.03
279.06	1286.12
279.28	1257.45
279.49	1269.74
279.71	1273.84
279.93	1298.41
280.14	1294.32
280.36	1243.12
280.57	1269.74
280.79	1253.36
281.00	1296.36
281.22	1361.90
281.43	1230.83
281.65	1337.32
281.86	1275.88
282.08	1294.32
282.29	1277.93
282.51	1300.46
282.73	1331.18
282.94	1310.70
283.16	1241.07
283.37	1279.98
283.59	1282.03
283.80	1177.58
284.02	1290.22
284.23	1345.52
284.45	1306.60
284.66	1243.12
284.88	1214.45
285.09	1269.74
285.31	1263.60
285.52	1320.94
285.74	1318.89
285.95	1261.55
286.17	1263.60
286.38	1279.98
286.60	1279.98
286.81	1302.51
287.03	1277.93
287.24	1224.69
287.46	1267.69
287.67	1296.36
287.89	1284.08
288.10	1261.55
288.32	1265.64
288.53	1251.31
288.75	1265.64
288.96	1263.60
289.18	1241.07
289.39	1294.32
289.61	1282.03
289.82	1327.08
290.04	1337.32
290.25	1247.21
290.47	1259.50
290.68	1255.40
290.90	1294.32
291.11	1320.94
291.33	1294.32
291.54	1298.41
291.76	1298.41
291.97	1327.08
292.18	1318.89
292.40	1279.98
292.61	1316.84
292.83	1300.46
293.04	1251.31
293.26	1277.93
293.47	1210.35
293.69	1220.59
293.90	1331.18
294.12	1304.56
294.33	1218.54
294.55	1255.40
294.76	1255.40
294.97	1263.60
295.19	1296.36
295.40	1261.55
295.62	1296.36
295.83	1234.93
296.05	1312.75
296.26	1316.84
296.48	1208.30
296.69	1372.14
296.90	1249.26
297.12	1228.78
297.33	1282.03
297.55	1251.31
297.76	1226.73
297.98	1208.30
298.19	1241.07
298.41	1239.02
298.62	1353.71
298.83	1275.88
299.05	1288.17
299.26	1267.69
299.48	1236.97
299.69	1251.31
299.90	1247.21
300.12	1245.16
300.33	1247.21
300.55	1314.80
300.76	1284.08
300.98	1312.75
301.19	1273.84
301.40	1220.59
301.62	1265.64
301.83	1259.50
302.05	1243.12
302.26	1257.45
302.47	1314.80
302.69	1300.46
302.90	1294.32
303.12	1282.03
303.33	1196.01
303.54	1331.18
303.76	1259.50
303.97	1255.40
304.19	1249.26
304.40	1298.41
304.61	1284.08
304.83	1269.74
305.04	1247.21
305.26	1257.45
305.47	1234.93
305.68	1275.88
305.90	1234.93
306.11	1279.98
306.33	1288.17
306.54	1249.26
306.75	1236.97
306.97	1286.12
307.18	1234.93
307.39	1282.03
307.61	1198.06
307.82	1286.12
308.04	1241.07
308.25	1224.69
308.46	1247.21
308.68	1300.46
308.89	1322.99
309.10	1245.16
309.32	1347.56
309.53	1269.74
309.74	1271.79
309.96	1236.97
310.17	1275.88
310.39	1269.74
310.60	1275.88
310.81	1257.45
311.03	1226.73
311.24	1191.92
311.45	1296.36
311.67	1275.88
311.88	1312.75
312.09	1329.13
312.31	1247.21
312.52	1296.36
312.73	1302.51
312.95	1198.06
313.16	1271.79
313.37	1322.99
313.59	1282.03
313.80	1241.07
314.01	1312.75
314.23	1255.40
314.44	1294.32
314.65	1247.21
314.87	1249.26
315.08	1247.21
315.29	1255.40
315.51	1196.01
315.72	1275.88
315.93	1327.08
316.15	1202.16
316.36	1206.25
316.57	1300.46
316.79	1247.21
317.00	1267.69
317.21	1226.73
317.43	1314.80
317.64	1300.46
317.85	1206.25
318.07	1294.32
318.28	1241.07
318.49	1241.07
318.70	1331.18
318.92	1288.17
319.13	1296.36
319.34	1335.28
319.56	1183.73
319.77	1335.28
319.98	1302.51
320.20	1212.40
320.41	1284.08
320.62	1253.36
320.83	1306.60
321.05	1335.28
321.26	1232.88
321.47	1241.07
321.69	1306.60
321.90	1253.36
322.11	1325.04
322.32	1290.22
322.54	1273.84
322.75	1300.46
322.96	1255.40
323.18	1263.60
323.39	1247.21
323.60	1263.60
323.81	1331.18
324.03	1302.51
324.24	1216.49
324.45	1310.70
324.66	1202.16
324.88	1239.02
325.09	1318.89
325.30	1275.88
325.52	1296.36
325.73	1243.12
325.94	1277.93
326.15	1247.21
326.37	1161.20
326.58	1308.65
326.79	1245.16
327.00	1232.88
327.22	1232.88
327.43	1269.74
327.64	1236.97
327.85	1224.69
328.07	1257.45
328.28	1351.66
328.49	1277.93
328.70	1286.12
328.92	1337.32
329.13	1241.07
329.34	1236.97
329.55	1286.12
329.76	1294.32
329.98	1263.60
330.19	1247.21
330.40	1245.16
330.61	1267.69
330.83	1230.83
331.04	1271.79
331.25	1282.03
331.46	1255.40
331.68	1220.59
331.89	1329.13
332.10	1245.16
332.31	1314.80
332.52	1249.26
332.74	1322.99
332.95	1286.12
333.16	1298.41
333.37	1249.26
333.58	1288.17
333.80	1265.64
334.01	1212.40
334.22	1243.12
334.43	1292.27
334.64	1273.84
334.86	1265.64
335.07	1304.56
335.28	1239.02
335.49	1302.51
335.70	1322.99
335.92	1222.64
336.13	1288.17
336.34	1337.32
336.55	1318.89
336.76	1277.93
336.98	1239.02
337.19	1325.04
337.40	1259.50
337.61	1296.36
337.82	1296.36
338.04	1257.45
338.25	1259.50
338.46	1288.17
338.67	1294.32
338.88	1249.26
339.09	1263.60
339.31	1284.08
339.52	1249.26
339.73	1249.26
339.94	1265.64
340.15	1220.59
340.36	1282.03
340.58	1277.93
340.79	1263.60
341.00	1333.23
341.21	1249.26
341.42	1314.80
341.63	1290.22
341.85	1214.45
342.06	1265.64
342.27	1265.64
342.48	1331.18
342.69	1249.26
342.90	1306.60
343.12	1247.21
343.33	1263.60
343.54	1316.84
343.75	1298.41
343.96	1230.83
344.17	1232.88
344.38	1226.73
344.60	1251.31
344.81	1247.21
345.02	1273.84
345.23	1249.26
345.44	1257.45
345.65	1257.45
345.86	1241.07
346.07	1245.16
346.29	1292.27
346.50	1247.21
346.71	1259.50
346.92	1308.65
347.13	1236.97
347.34	1261.55
347.55	1241.07
347.76	1282.03
347.98	1294.32
348.19	1257.45
348.40	1277.93
348.61	1255.40
348.82	1286.12
349.03	1261.55
349.24	1249.26
349.45	1220.59
349.66	1159.15
349.88	1298.41
350.09	1298.41
350.30	1275.88
350.51	1257.45
350.72	1292.27
350.93	1269.74
351.14	1302.51
351.35	1241.07
351.56	1279.98
351.77	1306.60
351.99	1185.77
352.20	1259.50
352.41	1214.45
352.62	1257.45
352.83	1265.64
353.04	1310.70
353.25	1263.60
353.46	1251.31
353.67	1249.26
353.88	1263.60
354.09	1251.31
354.30	1312.75
354.52	1308.65
354.73	1296.36
354.94	1296.36
355.15	1304.56
355.36	1337.32
355.57	1320.94
355.78	1212.40
355.99	1232.88
356.20	1249.26
356.41	1310.70
356.62	1290.22
356.83	1208.30
357.04	1208.30
357.25	1271.79
357.46	1282.03
357.68	1308.65
357.89	1298.41
358.10	1261.55
358.31	1245.16
358.52	1224.69
358.73	1308.65
358.94	1208.30
359.15	1261.55
359.36	1310.70
359.57	1273.84
359.78	1265.64
359.99	1306.60
360.20	1331.18
360.41	1265.64
360.62	1232.88
360.83	1206.25
361.04	1245.16
361.25	1236.97
361.46	1296.36
361.67	1296.36
361.88	1257.45
362.09	1241.07
362.30	1279.98
362.51	1322.99
362.72	1294.32
362.93	1228.78
363.14	1271.79
363.35	1261.55
363.56	1269.74
363.78	1196.01
363.99	1259.50
364.20	1304.56
364.41	1243.12
364.62	1226.73
364.83	1314.80
365.04	1265.64
365.25	1282.03
365.46	1304.56
365.67	1241.07
365.88	1236.97
366.09	1302.51
366.30	1198.06
366.51	1292.27
366.72	1232.88
366.93	1292.27
367.14	1263.60
367.35	1210.35
367.56	1263.60
367.77	1251.31
367.98	1230.83
368.18	1329.13
368.39	1271.79
368.60	1269.74
368.81	1327.08
369.02	1294.32
369.23	1253.36
369.44	1294.32
369.65	1249.26
369.86	1243.12
370.07	1222.64
370.28	1374.19
370.49	1267.69
370.70	1255.40
370.91	1351.66
371.12	1277.93
371.33	1279.98
371.54	1245.16
371.75	1232.88
371.96	1189.87
372.17	1357.80
372.38	1300.46
372.59	1269.74
372.80	1228.78
373.01	1312.75
373.22	1290.22
373.43	1327.08
373.64	1288.17
373.85	1243.12
374.06	1296.36
374.26	1232.88
374.47	1298.41
374.68	1345.52
374.89	1308.65
375.10	1245.16
375.31	1159.15
375.52	1286.12
375.73	1241.07
375.94	1232.88
376.15	1357.80
376.36	1261.55
376.57	1312.75
376.78	1210.35
376.99	1206.25
377.20	1253.36
377.40	1286.12
377.61	1263.60
377.82	1267.69
378.03	1335.28
378.24	1277.93
378.45	1259.50
378.66	1279.98
378.87	1239.02
379.08	1316.84
379.29	1288.17
379.50	1370.09
379.71	1269.74
379.91	1265.64
380.12	1261.55
380.33	1232.88
380.54	1347.56
380.75	1265.64
380.96	1232.88
381.17	1263.60
381.38	1234.93
381.59	1247.21
381.80	1232.88
382.00	1345.52
382.21	1314.80
382.42	1337.32
382.63	1216.49
382.84	1322.99
383.05	1243.12
383.26	1189.87
383.47	1267.69
383.68	1298.41
383.88	1226.73
384.09	1335.28
384.30	1327.08
384.51	1345.52
384.72	1312.75
384.93	1294.32
385.14	1322.99
385.35	1261.55
385.55	1257.45
385.76	1265.64
385.97	1241.07
386.18	1261.55
386.39	1241.07
386.60	1294.32
386.81	1320.94
387.02	1241.07
387.22	1208.30
387.43	1271.79
387.64	1183.73
387.85	1255.40
388.06	1212.40
388.27	1316.84
388.48	1277.93
388.68	1310.70
388.89	1265.64
389.10	1247.21
389.31	1298.41
389.52	1208.30
389.73	1249.26
389.93	1232.88
390.14	1245.16
390.35	1288.17
390.56	1339.37
390.77	1277.93
390.98	1239.02
391.18	1271.79
391.39	1267.69
391.60	1239.02
391.81	1273.84
392.02	1245.16
392.23	1404.91
392.43	1308.65
392.64	1282.03
392.85	1263.60
393.06	1236.97
393.27	1310.70
393.47	1284.08
393.68	1279.98
393.89	1253.36
394.10	1296.36
394.31	1265.64
394.52	1282.03
394.72	1284.08
394.93	1279.98
395.14	1269.74
395.35	1286.12
395.56	1318.89
395.76	1230.83
395.97	1243.12
396.18	1179.63
396.39	1257.45
396.60	1292.27
396.80	1232.88
397.01	1306.60
397.22	1308.65
397.43	1255.40
397.64	1279.98
397.84	1310.70
398.05	1232.88
398.26	1259.50
398.47	1259.50
398.67	1300.46
398.88	1271.79
399.09	1261.55
399.30	1296.36
399.51	1345.52
399.71	1259.50
399.92	1286.12
400.13	1271.79
400.34	1236.97
400.54	1224.69
400.75	1265.64
400.96	1316.84
401.17	1306.60
401.37	1234.93
401.58	1296.36
401.79	1288.17
402.00	1239.02
402.21	1273.84
402.41	1300.46
402.62	1290.22
402.83	1263.60
403.04	1277.93
403.24	1241.07
403.45	1228.78
403.66	1239.02
403.87	1220.59
404.07	1263.60
404.28	1298.41
404.49	1269.74
404.70	1257.45
404.90	1222.64
405.11	1300.46
405.32	1294.32
405.52	1282.03
405.73	1337.32
405.94	1290.22
406.15	1273.84
406.35	1247.21
406.56	1279.98
406.77	1251.31
406.98	1261.55
407.18	1222.64
407.39	1210.35
407.60	1294.32
407.80	1232.88
408.01	1239.02
408.22	1294.32
408.43	1320.94
408.63	1204.21
408.84	1308.65
409.05	1261.55
409.25	1263.60
409.46	1288.17
409.67	1185.77
409.88	1261.55
410.08	1279.98
410.29	1239.02
410.50	1257.45
410.70	1239.02
410.91	1249.26
411.12	1275.88
411.32	1282.03
411.53	1275.88
411.74	1241.07
411.95	1310.70
412.15	1232.88
412.36	1263.60
412.57	1331.18
412.77	1239.02
412.98	1226.73
413.19	1159.15
413.39	1230.83
413.60	1259.50
413.81	1239.02
414.01	1216.49
414.22	1224.69
414.43	1318.89
414.63	1230.83
414.84	1247.21
415.05	1361.90
415.25	1241.07
415.46	1263.60
415.67	1253.36
415.87	1257.45
416.08	1302.51
416.29	1253.36
416.49	1343.47
416.70	1286.12
416.91	1304.56
417.11	1208.30
417.32	1353.71
417.53	1245.16
417.73	1236.97
417.94	1273.84
418.15	1253.36
418.35	1333.23
418.56	1273.84
418.77	1279.98
418.97	1296.36
419.18	1290.22
419.38	1239.02
419.59	1220.59
419.80	1249.26
420.00	1210.35
420.21	1322.99
420.42	1265.64
420.62	1245.16
420.83	1224.69
421.04	1269.74
421.24	1249.26
421.45	1218.54
421.65	1294.32
421.86	1228.78
422.07	1279.98
422.27	1288.17
422.48	1214.45
422.69	1230.83
422.89	1249.26
423.10	1249.26
423.30	1263.60
423.51	1322.99
423.72	1310.70
423.92	1316.84
424.13	1216.49
424.33	1290.22
424.54	1312.75
424.75	1257.45
424.95	1345.52
425.16	1279.98
425.36	1253.36
425.57	1282.03
425.78	1277.93
425.98	1253.36
426.19	1304.56
426.39	1277.93
426.60	1308.65
426.81	1300.46
427.01	1366.00
427.22	1279.98
427.42	1222.64
427.63	1300.46
427.83	1300.46
428.04	1310.70
428.25	1290.22
428.45	1208.30
428.66	1239.02
428.86	1290.22
429.07	1316.84
429.28	1208.30
429.48	1282.03
429.69	1312.75
429.89	1216.49
430.10	1234.93
430.30	1236.97
430.51	1206.25
430.71	1261.55
430.92	1300.46
431.13	1230.83
431.33	1216.49
431.54	1236.97
431.74	1234.93
431.95	1296.36
432.15	1279.98
432.36	1331.18
432.56	1320.94
432.77	1282.03
432.98	1279.98
433.18	1288.17
433.39	1265.64
433.59	1257.45
433.80	1255.40
434.00	1320.94
434.21	1333.23
434.41	1234.93
434.62	1230.83
434.82	1200.11
435.03	1265.64
435.23	1226.73
435.44	1267.69
435.64	1357.80
435.85	1224.69
436.06	1292.27
436.26	1249.26
436.47	1282.03
436.67	1185.77
436.88	1327.08
437.08	1277.93
437.29	1316.84
437.49	1210.35
437.70	1245.16
437.90	1329.13
438.11	1292.27
438.31	1279.98
438.52	1277.93
438.72	1253.36
438.93	1232.88
439.13	1288.17
439.34	1271.79
439.54	1304.56
439.75	1275.88
439.95	1331.18
440.16	1185.77
440.36	1241.07
440.57	1290.22
440.77	1310.70
440.98	1232.88
441.18	1253.36
441.39	1222.64
441.59	1282.03
441.80	1230.83
442.00	1267.69
442.21	1239.02
442.41	1224.69
442.62	1234.93
442.82	1331.18
443.02	1236.97
443.23	1214.45
443.43	1267.69
443.64	1288.17
443.84	1286.12
444.05	1308.65
444.25	1277.93
444.46	1335.28
444.66	1189.87
444.87	1296.36
445.07	1310.70
445.28	1257.45
445.48	1214.45
445.69	1263.60
445.89	1271.79
446.09	1279.98
446.30	1359.85
446.50	1386.47
446.71	1261.55
446.91	1261.55
447.12	1374.19
447.32	1322.99
447.53	1236.97
447.73	1269.74
447.93	1273.84
448.14	1279.98
448.34	1286.12
448.55	1284.08
448.75	1353.71
448.96	1306.60
449.16	1247.21
449.36	1304.56
449.57	1275.88
449.77	1212.40
449.98	1259.50
450.18	1284.08
450.39	1271.79
450.59	1273.84
450.79	1333.23
451.00	1286.12
451.20	1300.46
451.41	1255.40
451.61	1271.79
451.81	1288.17
452.02	1273.84
452.22	1286.12
452.43	1275.88
452.63	1271.79
