SpectraSuite Data File
++++++++++++++++++++++++++++++++++++
Date: Sun Apr 03 19:55:33 CEST 2016
User: root
Dark Spectrum Present: No
Reference Spectrum Present: No
Number of Sampled Component Spectra: 1
Spectrometers: USB4C02835
Integration Time (usec): 10000 (USB4C02835)
Spectra Averaged: 1 (USB4C02835)
Boxcar Smoothing: 0 (USB4C02835)
Correct for Electrical Dark: No (USB4C02835)
Strobe/Lamp Enabled: No (USB4C02835)
Correct for Detector Non-linearity: No (USB4C02835)
Correct for Stray Light: No (USB4C02835)
Number of Pixels in Processed Spectrum: 3648
>>>>>Begin Processed Spectral Data<<<<<
177.47	1249.26
177.69	1249.26
177.91	1249.26
178.13	1183.73
178.36	1316.84
178.58	1208.30
178.80	1193.97
179.02	1339.37
179.24	1249.26
179.46	1208.30
179.68	1277.93
179.90	1327.08
180.13	1335.28
180.35	1239.02
180.57	1363.95
180.79	1263.60
181.01	1271.79
181.23	1206.25
181.45	1271.79
181.67	1232.88
181.90	1314.80
182.12	1236.97
182.34	1239.02
182.56	1267.69
182.78	1314.80
183.00	1271.79
183.22	1288.17
183.44	1380.33
183.66	1243.12
183.89	1322.99
184.11	1245.16
184.33	1243.12
184.55	1255.40
184.77	1191.92
184.99	1241.07
185.21	1239.02
185.43	1279.98
185.65	1208.30
185.87	1351.66
186.10	1298.41
186.32	1163.25
186.54	1269.74
186.76	1290.22
186.98	1288.17
187.20	1255.40
187.42	1290.22
187.64	1251.31
187.86	1265.64
188.08	1267.69
188.30	1269.74
188.52	1226.73
188.75	1279.98
188.97	1275.88
189.19	1222.64
189.41	1322.99
189.63	1210.35
189.85	1267.69
190.07	1245.16
190.29	1292.27
190.51	1212.40
190.73	1269.74
190.95	1269.74
191.17	1263.60
191.39	1239.02
191.61	1314.80
191.84	1265.64
192.06	1273.84
192.28	1312.75
192.50	1304.56
192.72	1269.74
192.94	1253.36
193.16	1275.88
193.38	1290.22
193.60	1275.88
193.82	1226.73
194.04	1247.21
194.26	1304.56
194.48	1300.46
194.70	1306.60
194.92	1275.88
195.14	1314.80
195.36	1273.84
195.58	1210.35
195.80	1290.22
196.02	1312.75
196.24	1232.88
196.46	1261.55
196.69	1294.32
196.91	1290.22
197.13	1218.54
197.35	1308.65
197.57	1277.93
197.79	1247.21
198.01	1249.26
198.23	1279.98
198.45	1310.70
198.67	1214.45
198.89	1230.83
199.11	1273.84
199.33	1193.97
199.55	1251.31
199.77	1261.55
199.99	1304.56
200.21	1290.22
200.43	1210.35
200.65	1282.03
200.87	1304.56
201.09	1267.69
201.31	1222.64
201.53	1269.74
201.75	1265.64
201.97	1222.64
202.19	1224.69
202.41	1261.55
202.63	1273.84
202.85	1265.64
203.07	1226.73
203.29	1286.12
203.51	1181.68
203.73	1353.71
203.95	1294.32
204.17	1224.69
204.39	1261.55
204.61	1187.82
204.83	1296.36
205.05	1277.93
205.27	1282.03
205.49	1259.50
205.71	1220.59
205.93	1353.71
206.15	1292.27
206.37	1294.32
206.59	1400.81
206.81	1261.55
207.03	1204.21
207.25	1306.60
207.47	1329.13
207.69	1292.27
207.91	1286.12
208.13	1263.60
208.34	1241.07
208.56	1345.52
208.78	1263.60
209.00	1232.88
209.22	1304.56
209.44	1228.78
209.66	1288.17
209.88	1335.28
210.10	1269.74
210.32	1251.31
210.54	1376.24
210.76	1275.88
210.98	1236.97
211.20	1253.36
211.42	1198.06
211.64	1294.32
211.86	1251.31
212.08	1286.12
212.30	1247.21
212.52	1296.36
212.74	1236.97
212.96	1255.40
213.17	1271.79
213.39	1181.68
213.61	1210.35
213.83	1318.89
214.05	1296.36
214.27	1282.03
214.49	1302.51
214.71	1286.12
214.93	1298.41
215.15	1226.73
215.37	1239.02
215.59	1200.11
215.81	1279.98
216.03	1298.41
216.24	1351.66
216.46	1267.69
216.68	1208.30
216.90	1347.56
217.12	1267.69
217.34	1218.54
217.56	1341.42
217.78	1298.41
218.00	1320.94
218.22	1249.26
218.44	1216.49
218.66	1288.17
218.87	1314.80
219.09	1363.95
219.31	1255.40
219.53	1232.88
219.75	1331.18
219.97	1273.84
220.19	1341.42
220.41	1263.60
220.63	1306.60
220.85	1304.56
221.06	1210.35
221.28	1265.64
221.50	1279.98
221.72	1314.80
221.94	1308.65
222.16	1286.12
222.38	1271.79
222.60	1306.60
222.82	1210.35
223.03	1318.89
223.25	1288.17
223.47	1185.77
223.69	1228.78
223.91	1302.51
224.13	1261.55
224.35	1284.08
224.57	1247.21
224.78	1241.07
225.00	1306.60
225.22	1257.45
225.44	1247.21
225.66	1208.30
225.88	1288.17
226.10	1308.65
226.32	1267.69
226.53	1267.69
226.75	1208.30
226.97	1279.98
227.19	1314.80
227.41	1361.90
227.63	1312.75
227.85	1269.74
228.06	1265.64
228.28	1241.07
228.50	1273.84
228.72	1228.78
228.94	1275.88
229.16	1331.18
229.37	1239.02
229.59	1298.41
229.81	1206.25
230.03	1306.60
230.25	1294.32
230.47	1234.93
230.69	1308.65
230.90	1218.54
231.12	1249.26
231.34	1239.02
231.56	1357.80
231.78	1259.50
232.00	1247.21
232.21	1279.98
232.43	1224.69
232.65	1292.27
232.87	1224.69
233.09	1294.32
233.30	1236.97
233.52	1239.02
233.74	1282.03
233.96	1247.21
234.18	1294.32
234.40	1226.73
234.61	1261.55
234.83	1200.11
235.05	1222.64
235.27	1339.37
235.49	1253.36
235.70	1202.16
235.92	1298.41
236.14	1282.03
236.36	1322.99
236.58	1288.17
236.79	1288.17
237.01	1322.99
237.23	1239.02
237.45	1327.08
237.67	1290.22
237.88	1298.41
238.10	1292.27
238.32	1200.11
238.54	1284.08
238.76	1218.54
238.97	1259.50
239.19	1243.12
239.41	1263.60
239.63	1302.51
239.85	1282.03
240.06	1261.55
240.28	1247.21
240.50	1292.27
240.72	1208.30
240.93	1222.64
241.15	1310.70
241.37	1247.21
241.59	1296.36
241.81	1286.12
242.02	1331.18
242.24	1312.75
242.46	1267.69
242.68	1263.60
242.89	1241.07
243.11	1300.46
243.33	1257.45
243.55	1341.42
243.76	1333.23
243.98	1247.21
244.20	1298.41
244.42	1206.25
244.64	1298.41
244.85	1284.08
245.07	1302.51
245.29	1310.70
245.51	1202.16
245.72	1294.32
245.94	1232.88
246.16	1261.55
246.38	1204.21
246.59	1212.40
246.81	1273.84
247.03	1271.79
247.24	1304.56
247.46	1310.70
247.68	1279.98
247.90	1300.46
248.11	1290.22
248.33	1304.56
248.55	1409.00
248.77	1271.79
248.98	1300.46
249.20	1247.21
249.42	1302.51
249.64	1210.35
249.85	1279.98
250.07	1308.65
250.29	1290.22
250.50	1243.12
250.72	1198.06
250.94	1271.79
251.16	1314.80
251.37	1288.17
251.59	1292.27
251.81	1261.55
252.02	1316.84
252.24	1249.26
252.46	1222.64
252.68	1259.50
252.89	1279.98
253.11	1253.36
253.33	1232.88
253.54	1347.56
253.76	1269.74
253.98	1269.74
254.20	1259.50
254.41	1261.55
254.63	1269.74
254.85	1177.58
255.06	1273.84
255.28	1185.77
255.50	1230.83
255.71	1271.79
255.93	1222.64
256.15	1251.31
256.36	1349.61
256.58	1189.87
256.80	1310.70
257.02	1232.88
257.23	1189.87
257.45	1310.70
257.67	1290.22
257.88	1247.21
258.10	1302.51
258.32	1259.50
258.53	1308.65
258.75	1306.60
258.97	1228.78
259.18	1296.36
259.40	1320.94
259.62	1232.88
259.83	1220.59
260.05	1243.12
260.27	1267.69
260.48	1308.65
260.70	1304.56
260.92	1224.69
261.13	1296.36
261.35	1265.64
261.57	1304.56
261.78	1265.64
262.00	1290.22
262.22	1284.08
262.43	1173.49
262.65	1320.94
262.86	1294.32
263.08	1308.65
263.30	1249.26
263.51	1202.16
263.73	1282.03
263.95	1277.93
264.16	1282.03
264.38	1220.59
264.60	1263.60
264.81	1210.35
265.03	1292.27
265.25	1208.30
265.46	1257.45
265.68	1218.54
265.89	1298.41
266.11	1335.28
266.33	1204.21
266.54	1271.79
266.76	1191.92
266.98	1284.08
267.19	1329.13
267.41	1298.41
267.62	1232.88
267.84	1261.55
268.06	1300.46
268.27	1200.11
268.49	1339.37
268.70	1269.74
268.92	1245.16
269.14	1310.70
269.35	1329.13
269.57	1230.83
269.79	1247.21
270.00	1232.88
270.22	1284.08
270.43	1304.56
270.65	1279.98
270.87	1310.70
271.08	1286.12
271.30	1241.07
271.51	1296.36
271.73	1185.77
271.95	1331.18
272.16	1241.07
272.38	1298.41
272.59	1185.77
272.81	1247.21
273.02	1257.45
273.24	1253.36
273.46	1249.26
273.67	1267.69
273.89	1273.84
274.10	1339.37
274.32	1232.88
274.54	1234.93
274.75	1228.78
274.97	1206.25
275.18	1232.88
275.40	1263.60
275.61	1265.64
275.83	1282.03
276.05	1214.45
276.26	1318.89
276.48	1247.21
276.69	1216.49
276.91	1228.78
277.12	1294.32
277.34	1290.22
277.55	1306.60
277.77	1294.32
277.99	1220.59
278.20	1310.70
278.42	1288.17
278.63	1339.37
278.85	1253.36
279.06	1273.84
279.28	1247.21
279.49	1310.70
279.71	1236.97
279.93	1318.89
280.14	1239.02
280.36	1200.11
280.57	1259.50
280.79	1304.56
281.00	1218.54
281.22	1335.28
281.43	1257.45
281.65	1314.80
281.86	1292.27
282.08	1249.26
282.29	1308.65
282.51	1255.40
282.73	1314.80
282.94	1222.64
283.16	1187.82
283.37	1214.45
283.59	1288.17
283.80	1267.69
284.02	1312.75
284.23	1263.60
284.45	1183.73
284.66	1253.36
284.88	1273.84
285.09	1318.89
285.31	1271.79
285.52	1222.64
285.74	1267.69
285.95	1298.41
286.17	1267.69
286.38	1224.69
286.60	1218.54
286.81	1329.13
287.03	1322.99
287.24	1267.69
287.46	1286.12
287.67	1279.98
287.89	1191.92
288.10	1212.40
288.32	1279.98
288.53	1282.03
288.75	1224.69
288.96	1247.21
289.18	1296.36
289.39	1226.73
289.61	1290.22
289.82	1290.22
290.04	1284.08
290.25	1286.12
290.47	1314.80
290.68	1275.88
290.90	1267.69
291.11	1228.78
291.33	1253.36
291.54	1314.80
291.76	1259.50
291.97	1306.60
292.18	1300.46
292.40	1245.16
292.61	1273.84
292.83	1253.36
293.04	1265.64
293.26	1255.40
293.47	1265.64
293.69	1267.69
293.90	1261.55
294.12	1271.79
294.33	1277.93
294.55	1351.66
294.76	1185.77
294.97	1187.82
295.19	1292.27
295.40	1302.51
295.62	1218.54
295.83	1226.73
296.05	1329.13
296.26	1216.49
296.48	1255.40
296.69	1245.16
296.90	1279.98
297.12	1290.22
297.33	1273.84
297.55	1282.03
297.76	1273.84
297.98	1298.41
298.19	1304.56
298.41	1259.50
298.62	1271.79
298.83	1349.61
299.05	1308.65
299.26	1288.17
299.48	1241.07
299.69	1271.79
299.90	1269.74
300.12	1263.60
300.33	1298.41
300.55	1253.36
300.76	1286.12
300.98	1271.79
301.19	1236.97
301.40	1302.51
301.62	1257.45
301.83	1275.88
302.05	1263.60
302.26	1243.12
302.47	1218.54
302.69	1216.49
302.90	1320.94
303.12	1218.54
303.33	1269.74
303.54	1257.45
303.76	1263.60
303.97	1288.17
304.19	1294.32
304.40	1230.83
304.61	1355.76
304.83	1230.83
305.04	1220.59
305.26	1236.97
305.47	1296.36
305.68	1257.45
305.90	1249.26
306.11	1226.73
306.33	1318.89
306.54	1259.50
306.75	1304.56
306.97	1226.73
307.18	1253.36
307.39	1261.55
307.61	1279.98
307.82	1243.12
308.04	1277.93
308.25	1343.47
308.46	1302.51
308.68	1204.21
308.89	1245.16
309.10	1202.16
309.32	1241.07
309.53	1312.75
309.74	1290.22
309.96	1251.31
310.17	1269.74
310.39	1251.31
310.60	1290.22
310.81	1347.56
311.03	1257.45
311.24	1284.08
311.45	1263.60
311.67	1228.78
311.88	1312.75
312.09	1329.13
312.31	1255.40
312.52	1214.45
312.73	1232.88
312.95	1306.60
313.16	1212.40
313.37	1230.83
313.59	1310.70
313.80	1204.21
314.01	1374.19
314.23	1257.45
314.44	1329.13
314.65	1196.01
314.87	1239.02
315.08	1273.84
315.29	1267.69
315.51	1279.98
315.72	1298.41
315.93	1310.70
316.15	1265.64
316.36	1273.84
316.57	1200.11
316.79	1241.07
317.00	1236.97
317.21	1253.36
317.43	1312.75
317.64	1308.65
317.85	1269.74
318.07	1253.36
318.28	1263.60
318.49	1239.02
318.70	1251.31
318.92	1236.97
319.13	1255.40
319.34	1259.50
319.56	1216.49
319.77	1327.08
319.98	1273.84
320.20	1210.35
320.41	1204.21
320.62	1290.22
320.83	1290.22
321.05	1298.41
321.26	1282.03
321.47	1273.84
321.69	1316.84
321.90	1214.45
322.11	1331.18
322.32	1265.64
322.54	1306.60
322.75	1232.88
322.96	1284.08
323.18	1292.27
323.39	1341.42
323.60	1243.12
323.81	1259.50
324.03	1279.98
324.24	1306.60
324.45	1308.65
324.66	1187.82
324.88	1331.18
325.09	1308.65
325.30	1277.93
325.52	1273.84
325.73	1282.03
325.94	1243.12
326.15	1300.46
326.37	1220.59
326.58	1243.12
326.79	1314.80
327.00	1191.92
327.22	1228.78
327.43	1302.51
327.64	1296.36
327.85	1234.93
328.07	1296.36
328.28	1181.68
328.49	1245.16
328.70	1308.65
328.92	1257.45
329.13	1228.78
329.34	1363.95
329.55	1275.88
329.76	1202.16
329.98	1253.36
330.19	1292.27
330.40	1312.75
330.61	1275.88
330.83	1284.08
331.04	1226.73
331.25	1298.41
331.46	1314.80
331.68	1263.60
331.89	1259.50
332.10	1337.32
332.31	1228.78
332.52	1196.01
332.74	1304.56
332.95	1288.17
333.16	1241.07
333.37	1294.32
333.58	1239.02
333.80	1277.93
334.01	1232.88
334.22	1320.94
334.43	1247.21
334.64	1234.93
334.86	1294.32
335.07	1314.80
335.28	1222.64
335.49	1243.12
335.70	1220.59
335.92	1300.46
336.13	1335.28
336.34	1322.99
336.55	1261.55
336.76	1322.99
336.98	1247.21
337.19	1255.40
337.40	1298.41
337.61	1271.79
337.82	1216.49
338.04	1247.21
338.25	1259.50
338.46	1236.97
338.67	1331.18
338.88	1327.08
339.09	1294.32
339.31	1253.36
339.52	1286.12
339.73	1279.98
339.94	1290.22
340.15	1243.12
340.36	1259.50
340.58	1191.92
340.79	1306.60
341.00	1236.97
341.21	1341.42
341.42	1214.45
341.63	1296.36
341.85	1245.16
342.06	1310.70
342.27	1277.93
342.48	1226.73
342.69	1312.75
342.90	1298.41
343.12	1288.17
343.33	1314.80
343.54	1265.64
343.75	1263.60
343.96	1191.92
344.17	1257.45
344.38	1269.74
344.60	1210.35
344.81	1337.32
345.02	1290.22
345.23	1271.79
345.44	1236.97
345.65	1261.55
345.86	1284.08
346.07	1236.97
346.29	1255.40
346.50	1288.17
346.71	1286.12
346.92	1288.17
347.13	1265.64
347.34	1347.56
347.55	1265.64
347.76	1189.87
347.98	1347.56
348.19	1224.69
348.40	1355.76
348.61	1212.40
348.82	1261.55
349.03	1296.36
349.24	1249.26
349.45	1275.88
349.66	1267.69
349.88	1206.25
350.09	1296.36
350.30	1193.97
350.51	1263.60
350.72	1292.27
350.93	1335.28
351.14	1302.51
351.35	1265.64
351.56	1232.88
351.77	1306.60
351.99	1296.36
352.20	1239.02
352.41	1316.84
352.62	1257.45
352.83	1228.78
353.04	1251.31
353.25	1234.93
353.46	1234.93
353.67	1316.84
353.88	1247.21
354.09	1318.89
354.30	1292.27
354.52	1320.94
354.73	1316.84
354.94	1249.26
355.15	1306.60
355.36	1282.03
355.57	1224.69
355.78	1202.16
355.99	1255.40
356.20	1335.28
356.41	1241.07
356.62	1161.20
356.83	1232.88
357.04	1292.27
357.25	1339.37
357.46	1226.73
357.68	1312.75
357.89	1286.12
358.10	1232.88
358.31	1345.52
358.52	1271.79
358.73	1222.64
358.94	1282.03
359.15	1255.40
359.36	1271.79
359.57	1236.97
359.78	1271.79
359.99	1255.40
360.20	1282.03
360.41	1277.93
360.62	1206.25
360.83	1327.08
361.04	1245.16
361.25	1273.84
361.46	1206.25
361.67	1212.40
361.88	1322.99
362.09	1236.97
362.30	1312.75
362.51	1302.51
362.72	1302.51
362.93	1204.21
363.14	1347.56
363.35	1220.59
363.56	1216.49
363.78	1359.85
363.99	1269.74
364.20	1241.07
364.41	1243.12
364.62	1275.88
364.83	1245.16
365.04	1257.45
365.25	1253.36
365.46	1187.82
365.67	1275.88
365.88	1325.04
366.09	1277.93
366.30	1263.60
366.51	1269.74
366.72	1220.59
366.93	1208.30
367.14	1249.26
367.35	1255.40
367.56	1226.73
367.77	1255.40
367.98	1249.26
368.18	1259.50
368.39	1173.49
368.60	1261.55
368.81	1294.32
369.02	1333.23
369.23	1249.26
369.44	1189.87
369.65	1241.07
369.86	1298.41
370.07	1302.51
370.28	1273.84
370.49	1290.22
370.70	1241.07
370.91	1294.32
371.12	1208.30
371.33	1279.98
371.54	1310.70
371.75	1226.73
371.96	1232.88
372.17	1298.41
372.38	1251.31
372.59	1251.31
372.80	1251.31
373.01	1312.75
373.22	1171.44
373.43	1263.60
373.64	1251.31
373.85	1290.22
374.06	1226.73
374.26	1290.22
374.47	1216.49
374.68	1292.27
374.89	1265.64
375.10	1222.64
375.31	1228.78
375.52	1191.92
375.73	1271.79
375.94	1220.59
376.15	1331.18
376.36	1239.02
376.57	1239.02
376.78	1253.36
376.99	1253.36
377.20	1284.08
377.40	1196.01
377.61	1322.99
377.82	1339.37
378.03	1257.45
378.24	1224.69
378.45	1243.12
378.66	1302.51
378.87	1275.88
379.08	1302.51
379.29	1341.42
379.50	1294.32
379.71	1263.60
379.91	1314.80
380.12	1230.83
380.33	1261.55
380.54	1255.40
380.75	1265.64
380.96	1232.88
381.17	1284.08
381.38	1236.97
381.59	1241.07
381.80	1234.93
382.00	1236.97
382.21	1327.08
382.42	1298.41
382.63	1257.45
382.84	1329.13
383.05	1257.45
383.26	1304.56
383.47	1259.50
383.68	1290.22
383.88	1214.45
384.09	1316.84
384.30	1243.12
384.51	1265.64
384.72	1247.21
384.93	1269.74
385.14	1155.05
385.35	1275.88
385.55	1234.93
385.76	1239.02
385.97	1228.78
386.18	1306.60
386.39	1255.40
386.60	1239.02
386.81	1234.93
387.02	1255.40
387.22	1230.83
387.43	1255.40
387.64	1253.36
387.85	1294.32
388.06	1263.60
388.27	1224.69
388.48	1234.93
388.68	1288.17
388.89	1339.37
389.10	1282.03
389.31	1279.98
389.52	1286.12
389.73	1267.69
389.93	1251.31
390.14	1239.02
390.35	1257.45
390.56	1232.88
390.77	1333.23
390.98	1241.07
391.18	1214.45
391.39	1296.36
391.60	1218.54
391.81	1327.08
392.02	1298.41
392.23	1214.45
392.43	1294.32
392.64	1294.32
392.85	1271.79
393.06	1271.79
393.27	1271.79
393.47	1224.69
393.68	1282.03
393.89	1271.79
394.10	1259.50
394.31	1247.21
394.52	1290.22
394.72	1288.17
394.93	1271.79
395.14	1277.93
395.35	1298.41
395.56	1265.64
395.76	1239.02
395.97	1247.21
396.18	1314.80
396.39	1353.71
396.60	1304.56
396.80	1284.08
397.01	1247.21
397.22	1265.64
397.43	1273.84
397.64	1310.70
397.84	1241.07
398.05	1302.51
398.26	1204.21
398.47	1232.88
398.67	1288.17
398.88	1298.41
399.09	1259.50
399.30	1241.07
399.51	1261.55
399.71	1216.49
399.92	1261.55
400.13	1214.45
400.34	1196.01
400.54	1302.51
400.75	1290.22
400.96	1232.88
401.17	1314.80
401.37	1257.45
401.58	1306.60
401.79	1312.75
402.00	1282.03
402.21	1294.32
402.41	1277.93
402.62	1220.59
402.83	1273.84
403.04	1255.40
403.24	1232.88
403.45	1247.21
403.66	1292.27
403.87	1357.80
404.07	1277.93
404.28	1304.56
404.49	1310.70
404.70	1247.21
404.90	1220.59
405.11	1202.16
405.32	1320.94
405.52	1243.12
405.73	1279.98
405.94	1255.40
406.15	1220.59
406.35	1302.51
406.56	1271.79
406.77	1204.21
406.98	1318.89
407.18	1236.97
407.39	1298.41
407.60	1333.23
407.80	1284.08
408.01	1239.02
408.22	1279.98
408.43	1316.84
408.63	1304.56
408.84	1239.02
409.05	1277.93
409.25	1271.79
409.46	1222.64
409.67	1335.28
409.88	1222.64
410.08	1228.78
410.29	1220.59
410.50	1259.50
410.70	1253.36
410.91	1230.83
411.12	1183.73
411.32	1282.03
411.53	1308.65
411.74	1218.54
411.95	1263.60
412.15	1310.70
412.36	1279.98
412.57	1220.59
412.77	1298.41
412.98	1288.17
413.19	1275.88
413.39	1212.40
413.60	1212.40
413.81	1284.08
414.01	1208.30
414.22	1294.32
414.43	1282.03
414.63	1325.04
414.84	1288.17
415.05	1298.41
415.25	1308.65
415.46	1263.60
415.67	1310.70
415.87	1312.75
416.08	1257.45
416.29	1269.74
416.49	1325.04
416.70	1282.03
416.91	1253.36
417.11	1304.56
417.32	1271.79
417.53	1290.22
417.73	1322.99
417.94	1298.41
418.15	1232.88
418.35	1320.94
418.56	1247.21
418.77	1234.93
418.97	1320.94
419.18	1316.84
419.38	1282.03
419.59	1253.36
419.80	1290.22
420.00	1263.60
420.21	1245.16
420.42	1279.98
420.62	1277.93
420.83	1212.40
421.04	1214.45
421.24	1277.93
421.45	1300.46
421.65	1245.16
421.86	1296.36
422.07	1265.64
422.27	1251.31
422.48	1286.12
422.69	1304.56
422.89	1300.46
423.10	1196.01
423.30	1341.42
423.51	1273.84
423.72	1226.73
423.92	1261.55
424.13	1288.17
424.33	1312.75
424.54	1255.40
424.75	1300.46
424.95	1249.26
425.16	1327.08
425.36	1304.56
425.57	1261.55
425.78	1267.69
425.98	1325.04
426.19	1261.55
426.39	1308.65
426.60	1312.75
426.81	1282.03
427.01	1329.13
427.22	1312.75
427.42	1230.83
427.63	1267.69
427.83	1234.93
428.04	1249.26
428.25	1239.02
428.45	1308.65
428.66	1279.98
428.86	1325.04
429.07	1208.30
429.28	1292.27
429.48	1253.36
429.69	1267.69
429.89	1230.83
430.10	1294.32
430.30	1312.75
430.51	1212.40
430.71	1257.45
430.92	1294.32
431.13	1224.69
431.33	1300.46
431.54	1282.03
431.74	1292.27
431.95	1255.40
432.15	1282.03
432.36	1269.74
432.56	1265.64
432.77	1222.64
432.98	1208.30
433.18	1267.69
433.39	1247.21
433.59	1222.64
433.80	1222.64
434.00	1218.54
434.21	1286.12
434.41	1265.64
434.62	1288.17
434.82	1275.88
435.03	1335.28
435.23	1255.40
435.44	1292.27
435.64	1314.80
435.85	1320.94
436.06	1261.55
436.26	1261.55
436.47	1265.64
436.67	1282.03
436.88	1265.64
437.08	1368.04
437.29	1302.51
437.49	1273.84
437.70	1294.32
437.90	1286.12
438.11	1271.79
438.31	1222.64
438.52	1292.27
438.72	1257.45
438.93	1335.28
439.13	1239.02
439.34	1261.55
439.54	1228.78
439.75	1284.08
439.95	1284.08
440.16	1236.97
440.36	1202.16
440.57	1298.41
440.77	1290.22
440.98	1241.07
441.18	1286.12
441.39	1310.70
441.59	1275.88
441.80	1212.40
442.00	1292.27
442.21	1282.03
442.41	1302.51
442.62	1263.60
442.82	1220.59
443.02	1333.23
443.23	1329.13
443.43	1247.21
443.64	1327.08
443.84	1232.88
444.05	1241.07
444.25	1286.12
444.46	1298.41
444.66	1226.73
444.87	1288.17
445.07	1271.79
445.28	1279.98
445.48	1290.22
445.69	1222.64
445.89	1292.27
446.09	1253.36
446.30	1271.79
446.50	1220.59
446.71	1257.45
446.91	1312.75
447.12	1236.97
447.32	1251.31
447.53	1286.12
447.73	1263.60
447.93	1288.17
448.14	1204.21
448.34	1306.60
448.55	1255.40
448.75	1267.69
448.96	1290.22
449.16	1212.40
449.36	1325.04
449.57	1296.36
449.77	1306.60
449.98	1265.64
450.18	1239.02
450.39	1308.65
450.59	1337.32
450.79	1218.54
451.00	1212.40
451.20	1198.06
451.41	1310.70
451.61	1329.13
451.81	1300.46
452.02	1269.74
452.22	1269.74
452.43	1277.93
452.63	1243.12
