SpectraSuite Data File
++++++++++++++++++++++++++++++++++++
Date: Sun Apr 03 19:55:17 CEST 2016
User: root
Dark Spectrum Present: No
Reference Spectrum Present: No
Number of Sampled Component Spectra: 1
Spectrometers: USB4C02835
Integration Time (usec): 10000 (USB4C02835)
Spectra Averaged: 1 (USB4C02835)
Boxcar Smoothing: 0 (USB4C02835)
Correct for Electrical Dark: No (USB4C02835)
Strobe/Lamp Enabled: No (USB4C02835)
Correct for Detector Non-linearity: No (USB4C02835)
Correct for Stray Light: No (USB4C02835)
Number of Pixels in Processed Spectrum: 3648
>>>>>Begin Processed Spectral Data<<<<<
177.47	1255.40
177.69	1255.40
177.91	1255.40
178.13	1245.16
178.36	1236.97
178.58	1243.12
178.80	1265.64
179.02	1261.55
179.24	1230.83
179.46	1308.65
179.68	1300.46
179.90	1263.60
180.13	1210.35
180.35	1241.07
180.57	1310.70
180.79	1216.49
181.01	1236.97
181.23	1241.07
181.45	1263.60
181.67	1245.16
181.90	1216.49
182.12	1255.40
182.34	1263.60
182.56	1165.29
182.78	1372.14
183.00	1226.73
183.22	1261.55
183.44	1193.97
183.66	1273.84
183.89	1310.70
184.11	1306.60
184.33	1179.63
184.55	1265.64
184.77	1261.55
184.99	1251.31
185.21	1245.16
185.43	1284.08
185.65	1306.60
185.87	1259.50
186.10	1279.98
186.32	1306.60
186.54	1214.45
186.76	1261.55
186.98	1335.28
187.20	1253.36
187.42	1267.69
187.64	1294.32
187.86	1269.74
188.08	1247.21
188.30	1282.03
188.52	1290.22
188.75	1214.45
188.97	1298.41
189.19	1212.40
189.41	1318.89
189.63	1282.03
189.85	1257.45
190.07	1220.59
190.29	1269.74
190.51	1249.26
190.73	1259.50
190.95	1273.84
191.17	1298.41
191.39	1257.45
191.61	1173.49
191.84	1222.64
192.06	1269.74
192.28	1218.54
192.50	1228.78
192.72	1251.31
192.94	1327.08
193.16	1271.79
193.38	1253.36
193.60	1196.01
193.82	1230.83
194.04	1284.08
194.26	1263.60
194.48	1212.40
194.70	1228.78
194.92	1255.40
195.14	1220.59
195.36	1277.93
195.58	1290.22
195.80	1232.88
196.02	1257.45
196.24	1214.45
196.46	1275.88
196.69	1239.02
196.91	1322.99
197.13	1329.13
197.35	1275.88
197.57	1263.60
197.79	1314.80
198.01	1286.12
198.23	1265.64
198.45	1267.69
198.67	1306.60
198.89	1255.40
199.11	1267.69
199.33	1224.69
199.55	1249.26
199.77	1290.22
199.99	1314.80
200.21	1249.26
200.43	1236.97
200.65	1245.16
200.87	1261.55
201.09	1304.56
201.31	1322.99
201.53	1243.12
201.75	1277.93
201.97	1277.93
202.19	1232.88
202.41	1263.60
202.63	1318.89
202.85	1279.98
203.07	1212.40
203.29	1316.84
203.51	1277.93
203.73	1331.18
203.95	1275.88
204.17	1214.45
204.39	1191.92
204.61	1298.41
204.83	1265.64
205.05	1341.42
205.27	1282.03
205.49	1241.07
205.71	1271.79
205.93	1212.40
206.15	1253.36
206.37	1257.45
206.59	1275.88
206.81	1300.46
207.03	1267.69
207.25	1161.20
207.47	1216.49
207.69	1255.40
207.91	1239.02
208.13	1269.74
208.34	1290.22
208.56	1296.36
208.78	1337.32
209.00	1310.70
209.22	1300.46
209.44	1218.54
209.66	1298.41
209.88	1212.40
210.10	1282.03
210.32	1253.36
210.54	1245.16
210.76	1300.46
210.98	1253.36
211.20	1249.26
211.42	1284.08
211.64	1218.54
211.86	1218.54
212.08	1284.08
212.30	1257.45
212.52	1300.46
212.74	1261.55
212.96	1173.49
213.17	1228.78
213.39	1230.83
213.61	1316.84
213.83	1277.93
214.05	1306.60
214.27	1286.12
214.49	1251.31
214.71	1288.17
214.93	1249.26
215.15	1273.84
215.37	1282.03
215.59	1273.84
215.81	1279.98
216.03	1275.88
216.24	1191.92
216.46	1347.56
216.68	1249.26
216.90	1255.40
217.12	1333.23
217.34	1234.93
217.56	1300.46
217.78	1282.03
218.00	1243.12
218.22	1222.64
218.44	1306.60
218.66	1265.64
218.87	1304.56
219.09	1300.46
219.31	1320.94
219.53	1304.56
219.75	1275.88
219.97	1224.69
220.19	1265.64
220.41	1275.88
220.63	1306.60
220.85	1251.31
221.06	1243.12
221.28	1273.84
221.50	1296.36
221.72	1193.97
221.94	1306.60
222.16	1232.88
222.38	1292.27
222.60	1267.69
222.82	1228.78
223.03	1273.84
223.25	1239.02
223.47	1310.70
223.69	1247.21
223.91	1255.40
224.13	1249.26
224.35	1230.83
224.57	1308.65
224.78	1247.21
225.00	1310.70
225.22	1255.40
225.44	1372.14
225.66	1322.99
225.88	1290.22
226.10	1234.93
226.32	1271.79
226.53	1316.84
226.75	1222.64
226.97	1200.11
227.19	1302.51
227.41	1286.12
227.63	1249.26
227.85	1249.26
228.06	1286.12
228.28	1173.49
228.50	1284.08
228.72	1265.64
228.94	1245.16
229.16	1296.36
229.37	1234.93
229.59	1314.80
229.81	1249.26
230.03	1236.97
230.25	1282.03
230.47	1185.77
230.69	1286.12
230.90	1286.12
231.12	1253.36
231.34	1253.36
231.56	1212.40
231.78	1273.84
232.00	1316.84
232.21	1294.32
232.43	1257.45
232.65	1316.84
232.87	1236.97
233.09	1269.74
233.30	1257.45
233.52	1331.18
233.74	1335.28
233.96	1247.21
234.18	1167.34
234.40	1214.45
234.61	1378.28
234.83	1226.73
235.05	1265.64
235.27	1306.60
235.49	1249.26
235.70	1277.93
235.92	1339.37
236.14	1322.99
236.36	1245.16
236.58	1282.03
236.79	1273.84
237.01	1312.75
237.23	1279.98
237.45	1269.74
237.67	1273.84
237.88	1200.11
238.10	1271.79
238.32	1253.36
238.54	1304.56
238.76	1247.21
238.97	1325.04
239.19	1275.88
239.41	1288.17
239.63	1318.89
239.85	1341.42
240.06	1355.76
240.28	1314.80
240.50	1249.26
240.72	1329.13
240.93	1286.12
241.15	1320.94
241.37	1261.55
241.59	1275.88
241.81	1226.73
242.02	1253.36
242.24	1232.88
242.46	1165.29
242.68	1261.55
242.89	1230.83
243.11	1239.02
243.33	1288.17
243.55	1273.84
243.76	1306.60
243.98	1247.21
244.20	1316.84
244.42	1294.32
244.64	1279.98
244.85	1261.55
245.07	1241.07
245.29	1312.75
245.51	1282.03
245.72	1177.58
245.94	1226.73
246.16	1220.59
246.38	1279.98
246.59	1191.92
246.81	1320.94
247.03	1298.41
247.24	1208.30
247.46	1212.40
247.68	1222.64
247.90	1257.45
248.11	1239.02
248.33	1259.50
248.55	1265.64
248.77	1308.65
248.98	1275.88
249.20	1241.07
249.42	1277.93
249.64	1208.30
249.85	1308.65
250.07	1275.88
250.29	1316.84
250.50	1255.40
250.72	1290.22
250.94	1271.79
251.16	1265.64
251.37	1286.12
251.59	1282.03
251.81	1245.16
252.02	1220.59
252.24	1308.65
252.46	1286.12
252.68	1275.88
252.89	1263.60
253.11	1251.31
253.33	1277.93
253.54	1312.75
253.76	1138.67
253.98	1253.36
254.20	1212.40
254.41	1282.03
254.63	1290.22
254.85	1337.32
255.06	1236.97
255.28	1275.88
255.50	1296.36
255.71	1267.69
255.93	1220.59
256.15	1257.45
256.36	1216.49
256.58	1298.41
256.80	1277.93
257.02	1243.12
257.23	1300.46
257.45	1239.02
257.67	1329.13
257.88	1163.25
258.10	1286.12
258.32	1216.49
258.53	1269.74
258.75	1339.37
258.97	1247.21
259.18	1279.98
259.40	1304.56
259.62	1279.98
259.83	1277.93
260.05	1288.17
260.27	1306.60
260.48	1265.64
260.70	1267.69
260.92	1222.64
261.13	1290.22
261.35	1253.36
261.57	1273.84
261.78	1241.07
262.00	1200.11
262.22	1288.17
262.43	1314.80
262.65	1279.98
262.86	1249.26
263.08	1208.30
263.30	1411.05
263.51	1234.93
263.73	1273.84
263.95	1259.50
264.16	1282.03
264.38	1306.60
264.60	1300.46
264.81	1320.94
265.03	1265.64
265.25	1241.07
265.46	1271.79
265.68	1220.59
265.89	1257.45
266.11	1251.31
266.33	1284.08
266.54	1212.40
266.76	1261.55
266.98	1249.26
267.19	1333.23
267.41	1331.18
267.62	1241.07
267.84	1257.45
268.06	1247.21
268.27	1290.22
268.49	1228.78
268.70	1249.26
268.92	1249.26
269.14	1273.84
269.35	1286.12
269.57	1206.25
269.79	1347.56
270.00	1228.78
270.22	1263.60
270.43	1243.12
270.65	1253.36
270.87	1325.04
271.08	1259.50
271.30	1234.93
271.51	1290.22
271.73	1265.64
271.95	1224.69
272.16	1239.02
272.38	1288.17
272.59	1306.60
272.81	1298.41
273.02	1247.21
273.24	1310.70
273.46	1304.56
273.67	1239.02
273.89	1290.22
274.10	1277.93
274.32	1269.74
274.54	1245.16
274.75	1236.97
274.97	1306.60
275.18	1286.12
275.40	1265.64
275.61	1279.98
275.83	1296.36
276.05	1347.56
276.26	1232.88
276.48	1226.73
276.69	1265.64
276.91	1261.55
277.12	1310.70
277.34	1269.74
277.55	1265.64
277.77	1333.23
277.99	1226.73
278.20	1298.41
278.42	1232.88
278.63	1247.21
278.85	1216.49
279.06	1167.34
279.28	1327.08
279.49	1243.12
279.71	1269.74
279.93	1257.45
280.14	1226.73
280.36	1181.68
280.57	1314.80
280.79	1314.80
281.00	1232.88
281.22	1185.77
281.43	1259.50
281.65	1284.08
281.86	1193.97
282.08	1183.73
282.29	1259.50
282.51	1230.83
282.73	1310.70
282.94	1316.84
283.16	1226.73
283.37	1304.56
283.59	1122.29
283.80	1271.79
284.02	1222.64
284.23	1300.46
284.45	1193.97
284.66	1304.56
284.88	1304.56
285.09	1255.40
285.31	1241.07
285.52	1232.88
285.74	1292.27
285.95	1204.21
286.17	1193.97
286.38	1298.41
286.60	1249.26
286.81	1222.64
287.03	1130.48
287.24	1306.60
287.46	1243.12
287.67	1185.77
287.89	1300.46
288.10	1277.93
288.32	1261.55
288.53	1282.03
288.75	1292.27
288.96	1259.50
289.18	1306.60
289.39	1253.36
289.61	1267.69
289.82	1339.37
290.04	1228.78
290.25	1279.98
290.47	1277.93
290.68	1226.73
290.90	1296.36
291.11	1277.93
291.33	1292.27
291.54	1286.12
291.76	1300.46
291.97	1312.75
292.18	1245.16
292.40	1290.22
292.61	1298.41
292.83	1314.80
293.04	1255.40
293.26	1314.80
293.47	1222.64
293.69	1228.78
293.90	1275.88
294.12	1282.03
294.33	1224.69
294.55	1288.17
294.76	1294.32
294.97	1183.73
295.19	1318.89
295.40	1269.74
295.62	1265.64
295.83	1236.97
296.05	1279.98
296.26	1253.36
296.48	1257.45
296.69	1261.55
296.90	1312.75
297.12	1220.59
297.33	1261.55
297.55	1230.83
297.76	1304.56
297.98	1251.31
298.19	1361.90
298.41	1290.22
298.62	1275.88
298.83	1257.45
299.05	1245.16
299.26	1245.16
299.48	1208.30
299.69	1271.79
299.90	1322.99
300.12	1269.74
300.33	1286.12
300.55	1218.54
300.76	1232.88
300.98	1214.45
301.19	1253.36
301.40	1251.31
301.62	1257.45
301.83	1314.80
302.05	1257.45
302.26	1251.31
302.47	1239.02
302.69	1284.08
302.90	1210.35
303.12	1294.32
303.33	1257.45
303.54	1335.28
303.76	1333.23
303.97	1263.60
304.19	1263.60
304.40	1312.75
304.61	1325.04
304.83	1269.74
305.04	1241.07
305.26	1298.41
305.47	1245.16
305.68	1284.08
305.90	1255.40
306.11	1239.02
306.33	1189.87
306.54	1208.30
306.75	1196.01
306.97	1265.64
307.18	1294.32
307.39	1224.69
307.61	1279.98
307.82	1255.40
308.04	1228.78
308.25	1318.89
308.46	1232.88
308.68	1257.45
308.89	1284.08
309.10	1300.46
309.32	1208.30
309.53	1302.51
309.74	1265.64
309.96	1228.78
310.17	1204.21
310.39	1200.11
310.60	1282.03
310.81	1271.79
311.03	1253.36
311.24	1273.84
311.45	1249.26
311.67	1269.74
311.88	1257.45
312.09	1249.26
312.31	1241.07
312.52	1320.94
312.73	1249.26
312.95	1255.40
313.16	1271.79
313.37	1241.07
313.59	1290.22
313.80	1234.93
314.01	1257.45
314.23	1355.76
314.44	1263.60
314.65	1212.40
314.87	1261.55
315.08	1275.88
315.29	1222.64
315.51	1296.36
315.72	1296.36
315.93	1269.74
316.15	1355.76
316.36	1257.45
316.57	1310.70
316.79	1239.02
317.00	1290.22
317.21	1222.64
317.43	1314.80
317.64	1230.83
317.85	1177.58
318.07	1218.54
318.28	1273.84
318.49	1206.25
318.70	1300.46
318.92	1308.65
319.13	1312.75
319.34	1339.37
319.56	1265.64
319.77	1255.40
319.98	1249.26
320.20	1267.69
320.41	1222.64
320.62	1253.36
320.83	1239.02
321.05	1236.97
321.26	1279.98
321.47	1196.01
321.69	1271.79
321.90	1226.73
322.11	1277.93
322.32	1296.36
322.54	1275.88
322.75	1271.79
322.96	1273.84
323.18	1187.82
323.39	1236.97
323.60	1253.36
323.81	1302.51
324.03	1310.70
324.24	1349.61
324.45	1189.87
324.66	1277.93
324.88	1208.30
325.09	1300.46
325.30	1249.26
325.52	1224.69
325.73	1253.36
325.94	1292.27
326.15	1220.59
326.37	1226.73
326.58	1296.36
326.79	1288.17
327.00	1308.65
327.22	1257.45
327.43	1251.31
327.64	1312.75
327.85	1310.70
328.07	1308.65
328.28	1247.21
328.49	1218.54
328.70	1257.45
328.92	1267.69
329.13	1267.69
329.34	1249.26
329.55	1230.83
329.76	1304.56
329.98	1320.94
330.19	1214.45
330.40	1329.13
330.61	1314.80
330.83	1247.21
331.04	1316.84
331.25	1277.93
331.46	1239.02
331.68	1271.79
331.89	1243.12
332.10	1247.21
332.31	1308.65
332.52	1210.35
332.74	1275.88
332.95	1239.02
333.16	1306.60
333.37	1249.26
333.58	1269.74
333.80	1255.40
334.01	1222.64
334.22	1296.36
334.43	1273.84
334.64	1253.36
334.86	1308.65
335.07	1220.59
335.28	1329.13
335.49	1234.93
335.70	1286.12
335.92	1282.03
336.13	1206.25
336.34	1220.59
336.55	1214.45
336.76	1269.74
336.98	1249.26
337.19	1277.93
337.40	1232.88
337.61	1222.64
337.82	1271.79
338.04	1228.78
338.25	1282.03
338.46	1282.03
338.67	1273.84
338.88	1320.94
339.09	1226.73
339.31	1277.93
339.52	1177.58
339.73	1234.93
339.94	1298.41
340.15	1304.56
340.36	1273.84
340.58	1210.35
340.79	1239.02
341.00	1212.40
341.21	1241.07
341.42	1275.88
341.63	1282.03
341.85	1277.93
342.06	1249.26
342.27	1191.92
342.48	1236.97
342.69	1224.69
342.90	1263.60
343.12	1271.79
343.33	1271.79
343.54	1236.97
343.75	1271.79
343.96	1220.59
344.17	1232.88
344.38	1302.51
344.60	1224.69
344.81	1210.35
345.02	1269.74
345.23	1335.28
345.44	1316.84
345.65	1259.50
345.86	1253.36
346.07	1271.79
346.29	1253.36
346.50	1308.65
346.71	1226.73
346.92	1243.12
347.13	1263.60
347.34	1275.88
347.55	1304.56
347.76	1290.22
347.98	1304.56
348.19	1241.07
348.40	1271.79
348.61	1253.36
348.82	1294.32
349.03	1284.08
349.24	1224.69
349.45	1234.93
349.66	1228.78
349.88	1259.50
350.09	1290.22
350.30	1222.64
350.51	1286.12
350.72	1216.49
350.93	1296.36
351.14	1228.78
351.35	1282.03
351.56	1288.17
351.77	1232.88
351.99	1302.51
352.20	1255.40
352.41	1216.49
352.62	1265.64
352.83	1277.93
353.04	1249.26
353.25	1341.42
353.46	1245.16
353.67	1230.83
353.88	1243.12
354.09	1298.41
354.30	1236.97
354.52	1202.16
354.73	1241.07
354.94	1314.80
355.15	1282.03
355.36	1298.41
355.57	1269.74
355.78	1224.69
355.99	1294.32
356.20	1226.73
356.41	1302.51
356.62	1312.75
356.83	1273.84
357.04	1320.94
357.25	1239.02
357.46	1255.40
357.68	1236.97
357.89	1284.08
358.10	1210.35
358.31	1290.22
358.52	1273.84
358.73	1269.74
358.94	1269.74
359.15	1267.69
359.36	1261.55
359.57	1230.83
359.78	1273.84
359.99	1249.26
360.20	1204.21
360.41	1241.07
360.62	1366.00
360.83	1198.06
361.04	1241.07
361.25	1284.08
361.46	1232.88
361.67	1294.32
361.88	1257.45
362.09	1226.73
362.30	1247.21
362.51	1273.84
362.72	1318.89
362.93	1302.51
363.14	1200.11
363.35	1265.64
363.56	1265.64
363.78	1249.26
363.99	1337.32
364.20	1265.64
364.41	1269.74
364.62	1329.13
364.83	1259.50
365.04	1271.79
365.25	1171.44
365.46	1222.64
365.67	1304.56
365.88	1212.40
366.09	1279.98
366.30	1234.93
366.51	1208.30
366.72	1230.83
366.93	1267.69
367.14	1222.64
367.35	1206.25
367.56	1286.12
367.77	1224.69
367.98	1292.27
368.18	1263.60
368.39	1284.08
368.60	1290.22
368.81	1239.02
369.02	1179.63
369.23	1349.61
369.44	1265.64
369.65	1212.40
369.86	1273.84
370.07	1226.73
370.28	1306.60
370.49	1165.29
370.70	1271.79
370.91	1279.98
371.12	1228.78
371.33	1228.78
371.54	1288.17
371.75	1277.93
371.96	1249.26
372.17	1341.42
372.38	1294.32
372.59	1245.16
372.80	1204.21
373.01	1247.21
373.22	1241.07
373.43	1290.22
373.64	1267.69
373.85	1196.01
374.06	1228.78
374.26	1247.21
374.47	1302.51
374.68	1236.97
374.89	1208.30
375.10	1212.40
375.31	1304.56
375.52	1282.03
375.73	1275.88
375.94	1286.12
376.15	1355.76
376.36	1304.56
376.57	1216.49
376.78	1187.82
376.99	1282.03
377.20	1208.30
377.40	1273.84
377.61	1327.08
377.82	1230.83
378.03	1232.88
378.24	1271.79
378.45	1302.51
378.66	1249.26
378.87	1327.08
379.08	1349.61
379.29	1284.08
379.50	1298.41
379.71	1239.02
379.91	1232.88
380.12	1292.27
380.33	1290.22
380.54	1245.16
380.75	1247.21
380.96	1345.52
381.17	1265.64
381.38	1316.84
381.59	1249.26
381.80	1220.59
382.00	1226.73
382.21	1286.12
382.42	1325.04
382.63	1294.32
382.84	1249.26
383.05	1308.65
383.26	1302.51
383.47	1275.88
383.68	1239.02
383.88	1341.42
384.09	1183.73
384.30	1196.01
384.51	1216.49
384.72	1279.98
384.93	1294.32
385.14	1290.22
385.35	1191.92
385.55	1286.12
385.76	1337.32
385.97	1298.41
386.18	1253.36
386.39	1300.46
386.60	1290.22
386.81	1241.07
387.02	1265.64
387.22	1191.92
387.43	1302.51
387.64	1257.45
387.85	1210.35
388.06	1282.03
388.27	1218.54
388.48	1222.64
388.68	1265.64
388.89	1288.17
389.10	1288.17
389.31	1300.46
389.52	1216.49
389.73	1298.41
389.93	1322.99
390.14	1337.32
390.35	1241.07
390.56	1247.21
390.77	1310.70
390.98	1210.35
391.18	1220.59
391.39	1269.74
391.60	1298.41
391.81	1288.17
392.02	1337.32
392.23	1298.41
392.43	1312.75
392.64	1228.78
392.85	1259.50
393.06	1286.12
393.27	1212.40
393.47	1284.08
393.68	1249.26
393.89	1161.20
394.10	1181.68
394.31	1224.69
394.52	1265.64
394.72	1273.84
394.93	1329.13
395.14	1316.84
395.35	1226.73
395.56	1245.16
395.76	1183.73
395.97	1306.60
396.18	1243.12
396.39	1282.03
396.60	1251.31
396.80	1234.93
397.01	1312.75
397.22	1273.84
397.43	1366.00
397.64	1245.16
397.84	1243.12
398.05	1275.88
398.26	1255.40
398.47	1196.01
398.67	1251.31
398.88	1329.13
399.09	1241.07
399.30	1189.87
399.51	1308.65
399.71	1224.69
399.92	1259.50
400.13	1212.40
400.34	1267.69
400.54	1284.08
400.75	1263.60
400.96	1300.46
401.17	1306.60
401.37	1284.08
401.58	1255.40
401.79	1325.04
402.00	1257.45
402.21	1255.40
402.41	1265.64
402.62	1259.50
402.83	1191.92
403.04	1187.82
403.24	1345.52
403.45	1298.41
403.66	1200.11
403.87	1230.83
404.07	1288.17
404.28	1259.50
404.49	1308.65
404.70	1210.35
404.90	1279.98
405.11	1247.21
405.32	1263.60
405.52	1181.68
405.73	1304.56
405.94	1286.12
406.15	1265.64
406.35	1253.36
406.56	1308.65
406.77	1390.57
406.98	1239.02
407.18	1173.49
407.39	1263.60
407.60	1271.79
407.80	1271.79
408.01	1169.39
408.22	1288.17
408.43	1271.79
408.63	1286.12
408.84	1286.12
409.05	1314.80
409.25	1259.50
409.46	1279.98
409.67	1243.12
409.88	1294.32
410.08	1316.84
410.29	1241.07
410.50	1198.06
410.70	1253.36
410.91	1290.22
411.12	1316.84
411.32	1189.87
411.53	1243.12
411.74	1253.36
411.95	1253.36
412.15	1239.02
412.36	1329.13
412.57	1314.80
412.77	1304.56
412.98	1322.99
413.19	1273.84
413.39	1220.59
413.60	1265.64
413.81	1271.79
414.01	1282.03
414.22	1261.55
414.43	1198.06
414.63	1267.69
414.84	1275.88
415.05	1269.74
415.25	1275.88
415.46	1296.36
415.67	1316.84
415.87	1228.78
416.08	1200.11
416.29	1275.88
416.49	1296.36
416.70	1204.21
416.91	1265.64
417.11	1234.93
417.32	1191.92
417.53	1224.69
417.73	1277.93
417.94	1275.88
418.15	1216.49
418.35	1253.36
418.56	1292.27
418.77	1304.56
418.97	1239.02
419.18	1230.83
419.38	1290.22
419.59	1259.50
419.80	1261.55
420.00	1265.64
420.21	1222.64
420.42	1337.32
420.62	1269.74
420.83	1216.49
421.04	1247.21
421.24	1337.32
421.45	1292.27
421.65	1279.98
421.86	1189.87
422.07	1337.32
422.27	1243.12
422.48	1267.69
422.69	1314.80
422.89	1306.60
423.10	1314.80
423.30	1320.94
423.51	1239.02
423.72	1249.26
423.92	1255.40
424.13	1232.88
424.33	1191.92
424.54	1275.88
424.75	1288.17
424.95	1286.12
425.16	1290.22
425.36	1261.55
425.57	1265.64
425.78	1370.09
425.98	1353.71
426.19	1245.16
426.39	1288.17
426.60	1275.88
426.81	1279.98
427.01	1290.22
427.22	1251.31
427.42	1245.16
427.63	1196.01
427.83	1284.08
428.04	1288.17
428.25	1230.83
428.45	1271.79
428.66	1302.51
428.86	1257.45
429.07	1277.93
429.28	1294.32
429.48	1282.03
429.69	1261.55
429.89	1259.50
430.10	1241.07
430.30	1257.45
430.51	1314.80
430.71	1273.84
430.92	1363.95
431.13	1273.84
431.33	1267.69
431.54	1308.65
431.74	1220.59
431.95	1265.64
432.15	1245.16
432.36	1245.16
432.56	1236.97
432.77	1257.45
432.98	1273.84
433.18	1241.07
433.39	1357.80
433.59	1265.64
433.80	1255.40
434.00	1218.54
434.21	1241.07
434.41	1210.35
434.62	1355.76
434.82	1245.16
435.03	1200.11
435.23	1265.64
435.44	1263.60
435.64	1247.21
435.85	1245.16
436.06	1179.63
436.26	1284.08
436.47	1206.25
436.67	1318.89
436.88	1271.79
437.08	1302.51
437.29	1265.64
437.49	1329.13
437.70	1273.84
437.90	1284.08
438.11	1284.08
438.31	1304.56
438.52	1236.97
438.72	1239.02
438.93	1290.22
439.13	1216.49
439.34	1261.55
439.54	1292.27
439.75	1271.79
439.95	1273.84
440.16	1306.60
440.36	1314.80
440.57	1286.12
440.77	1247.21
440.98	1179.63
441.18	1318.89
441.39	1279.98
441.59	1255.40
441.80	1239.02
442.00	1226.73
442.21	1294.32
442.41	1265.64
442.62	1298.41
442.82	1234.93
443.02	1269.74
443.23	1187.82
443.43	1210.35
443.64	1273.84
443.84	1288.17
444.05	1267.69
444.25	1294.32
444.46	1241.07
444.66	1251.31
444.87	1241.07
445.07	1255.40
445.28	1234.93
445.48	1267.69
445.69	1259.50
445.89	1226.73
446.09	1294.32
446.30	1296.36
446.50	1277.93
446.71	1341.42
446.91	1261.55
447.12	1282.03
447.32	1298.41
447.53	1200.11
447.73	1355.76
447.93	1179.63
448.14	1277.93
448.34	1241.07
448.55	1259.50
448.75	1208.30
448.96	1368.04
449.16	1327.08
449.36	1325.04
449.57	1234.93
449.77	1284.08
449.98	1304.56
450.18	1298.41
450.39	1286.12
450.59	1300.46
450.79	1271.79
451.00	1286.12
451.20	1243.12
451.41	1263.60
451.61	1271.79
451.81	1304.56
452.02	1269.74
452.22	1337.32
452.43	1251.31
452.63	1366.00
