SpectraSuite Data File
++++++++++++++++++++++++++++++++++++
Date: Sun Apr 03 19:55:39 CEST 2016
User: root
Dark Spectrum Present: No
Reference Spectrum Present: No
Number of Sampled Component Spectra: 1
Spectrometers: USB4C02835
Integration Time (usec): 10000 (USB4C02835)
Spectra Averaged: 1 (USB4C02835)
Boxcar Smoothing: 0 (USB4C02835)
Correct for Electrical Dark: No (USB4C02835)
Strobe/Lamp Enabled: No (USB4C02835)
Correct for Detector Non-linearity: No (USB4C02835)
Correct for Stray Light: No (USB4C02835)
Number of Pixels in Processed Spectrum: 3648
>>>>>Begin Processed Spectral Data<<<<<
177.47	1255.40
177.69	1255.40
177.91	1255.40
178.13	1241.07
178.36	1216.49
178.58	1277.93
178.80	1284.08
179.02	1300.46
179.24	1255.40
179.46	1298.41
179.68	1296.36
179.90	1284.08
180.13	1183.73
180.35	1275.88
180.57	1216.49
180.79	1204.21
181.01	1255.40
181.23	1257.45
181.45	1187.82
181.67	1292.27
181.90	1345.52
182.12	1247.21
182.34	1271.79
182.56	1220.59
182.78	1312.75
183.00	1273.84
183.22	1308.65
183.44	1288.17
183.66	1222.64
183.89	1224.69
184.11	1198.06
184.33	1257.45
184.55	1290.22
184.77	1204.21
184.99	1286.12
185.21	1316.84
185.43	1292.27
185.65	1292.27
185.87	1273.84
186.10	1220.59
186.32	1200.11
186.54	1267.69
186.76	1271.79
186.98	1218.54
187.20	1224.69
187.42	1148.91
187.64	1239.02
187.86	1269.74
188.08	1300.46
188.30	1325.04
188.52	1296.36
188.75	1245.16
188.97	1290.22
189.19	1224.69
189.41	1271.79
189.63	1282.03
189.85	1210.35
190.07	1210.35
190.29	1255.40
190.51	1296.36
190.73	1333.23
190.95	1243.12
191.17	1220.59
191.39	1273.84
191.61	1220.59
191.84	1251.31
192.06	1269.74
192.28	1224.69
192.50	1308.65
192.72	1218.54
192.94	1202.16
193.16	1304.56
193.38	1282.03
193.60	1247.21
193.82	1265.64
194.04	1253.36
194.26	1275.88
194.48	1279.98
194.70	1351.66
194.92	1249.26
195.14	1218.54
195.36	1126.38
195.58	1279.98
195.80	1284.08
196.02	1239.02
196.24	1292.27
196.46	1279.98
196.69	1275.88
196.91	1284.08
197.13	1261.55
197.35	1294.32
197.57	1267.69
197.79	1224.69
198.01	1275.88
198.23	1216.49
198.45	1247.21
198.67	1279.98
198.89	1255.40
199.11	1310.70
199.33	1271.79
199.55	1208.30
199.77	1241.07
199.99	1241.07
200.21	1277.93
200.43	1306.60
200.65	1263.60
200.87	1296.36
201.09	1273.84
201.31	1226.73
201.53	1304.56
201.75	1218.54
201.97	1239.02
202.19	1236.97
202.41	1298.41
202.63	1329.13
202.85	1241.07
203.07	1269.74
203.29	1288.17
203.51	1239.02
203.73	1179.63
203.95	1300.46
204.17	1269.74
204.39	1271.79
204.61	1234.93
204.83	1210.35
205.05	1269.74
205.27	1312.75
205.49	1239.02
205.71	1218.54
205.93	1222.64
206.15	1273.84
206.37	1310.70
206.59	1331.18
206.81	1298.41
207.03	1247.21
207.25	1273.84
207.47	1370.09
207.69	1230.83
207.91	1322.99
208.13	1331.18
208.34	1230.83
208.56	1243.12
208.78	1290.22
209.00	1255.40
209.22	1277.93
209.44	1196.01
209.66	1259.50
209.88	1232.88
210.10	1296.36
210.32	1300.46
210.54	1306.60
210.76	1316.84
210.98	1257.45
211.20	1257.45
211.42	1253.36
211.64	1292.27
211.86	1277.93
212.08	1251.31
212.30	1230.83
212.52	1255.40
212.74	1314.80
212.96	1279.98
213.17	1331.18
213.39	1310.70
213.61	1304.56
213.83	1345.52
214.05	1302.51
214.27	1255.40
214.49	1206.25
214.71	1333.23
214.93	1216.49
215.15	1302.51
215.37	1296.36
215.59	1277.93
215.81	1269.74
216.03	1224.69
216.24	1175.53
216.46	1241.07
216.68	1247.21
216.90	1236.97
217.12	1234.93
217.34	1265.64
217.56	1263.60
217.78	1251.31
218.00	1245.16
218.22	1230.83
218.44	1265.64
218.66	1322.99
218.87	1320.94
219.09	1310.70
219.31	1255.40
219.53	1214.45
219.75	1146.86
219.97	1271.79
220.19	1247.21
220.41	1218.54
220.63	1273.84
220.85	1310.70
221.06	1329.13
221.28	1333.23
221.50	1271.79
221.72	1335.28
221.94	1351.66
222.16	1198.06
222.38	1284.08
222.60	1304.56
222.82	1277.93
223.03	1288.17
223.25	1212.40
223.47	1253.36
223.69	1308.65
223.91	1304.56
224.13	1220.59
224.35	1239.02
224.57	1329.13
224.78	1284.08
225.00	1282.03
225.22	1253.36
225.44	1210.35
225.66	1314.80
225.88	1314.80
226.10	1189.87
226.32	1261.55
226.53	1239.02
226.75	1279.98
226.97	1302.51
227.19	1312.75
227.41	1253.36
227.63	1247.21
227.85	1284.08
228.06	1206.25
228.28	1282.03
228.50	1234.93
228.72	1273.84
228.94	1269.74
229.16	1243.12
229.37	1314.80
229.59	1279.98
229.81	1265.64
230.03	1261.55
230.25	1271.79
230.47	1277.93
230.69	1306.60
230.90	1294.32
231.12	1253.36
231.34	1267.69
231.56	1273.84
231.78	1245.16
232.00	1286.12
232.21	1292.27
232.43	1263.60
232.65	1208.30
232.87	1261.55
233.09	1208.30
233.30	1288.17
233.52	1230.83
233.74	1206.25
233.96	1353.71
234.18	1269.74
234.40	1277.93
234.61	1284.08
234.83	1284.08
235.05	1300.46
235.27	1288.17
235.49	1290.22
235.70	1310.70
235.92	1202.16
236.14	1314.80
236.36	1202.16
236.58	1218.54
236.79	1234.93
237.01	1275.88
237.23	1327.08
237.45	1277.93
237.67	1241.07
237.88	1333.23
238.10	1239.02
238.32	1208.30
238.54	1298.41
238.76	1312.75
238.97	1357.80
239.19	1241.07
239.41	1259.50
239.63	1228.78
239.85	1306.60
240.06	1185.77
240.28	1318.89
240.50	1265.64
240.72	1271.79
240.93	1257.45
241.15	1288.17
241.37	1296.36
241.59	1304.56
241.81	1314.80
242.02	1294.32
242.24	1247.21
242.46	1282.03
242.68	1255.40
242.89	1316.84
243.11	1290.22
243.33	1236.97
243.55	1273.84
243.76	1220.59
243.98	1329.13
244.20	1347.56
244.42	1273.84
244.64	1382.38
244.85	1261.55
245.07	1294.32
245.29	1298.41
245.51	1226.73
245.72	1241.07
245.94	1257.45
246.16	1253.36
246.38	1239.02
246.59	1308.65
246.81	1251.31
247.03	1275.88
247.24	1224.69
247.46	1253.36
247.68	1320.94
247.90	1181.68
248.11	1306.60
248.33	1329.13
248.55	1263.60
248.77	1255.40
248.98	1271.79
249.20	1296.36
249.42	1294.32
249.64	1247.21
249.85	1304.56
250.07	1189.87
250.29	1294.32
250.50	1263.60
250.72	1232.88
250.94	1189.87
251.16	1239.02
251.37	1300.46
251.59	1347.56
251.81	1300.46
252.02	1234.93
252.24	1322.99
252.46	1212.40
252.68	1290.22
252.89	1232.88
253.11	1255.40
253.33	1243.12
253.54	1224.69
253.76	1224.69
253.98	1292.27
254.20	1255.40
254.41	1265.64
254.63	1277.93
254.85	1230.83
255.06	1249.26
255.28	1249.26
255.50	1277.93
255.71	1243.12
255.93	1290.22
256.15	1265.64
256.36	1279.98
256.58	1273.84
256.80	1314.80
257.02	1298.41
257.23	1253.36
257.45	1269.74
257.67	1271.79
257.88	1310.70
258.10	1290.22
258.32	1241.07
258.53	1314.80
258.75	1263.60
258.97	1261.55
259.18	1314.80
259.40	1253.36
259.62	1282.03
259.83	1333.23
260.05	1232.88
260.27	1312.75
260.48	1288.17
260.70	1257.45
260.92	1255.40
261.13	1261.55
261.35	1208.30
261.57	1253.36
261.78	1304.56
262.00	1230.83
262.22	1249.26
262.43	1267.69
262.65	1226.73
262.86	1210.35
263.08	1230.83
263.30	1298.41
263.51	1259.50
263.73	1216.49
263.95	1232.88
264.16	1282.03
264.38	1271.79
264.60	1296.36
264.81	1294.32
265.03	1214.45
265.25	1228.78
265.46	1267.69
265.68	1329.13
265.89	1257.45
266.11	1304.56
266.33	1259.50
266.54	1290.22
266.76	1320.94
266.98	1261.55
267.19	1310.70
267.41	1271.79
267.62	1261.55
267.84	1265.64
268.06	1271.79
268.27	1255.40
268.49	1316.84
268.70	1253.36
268.92	1349.61
269.14	1327.08
269.35	1243.12
269.57	1271.79
269.79	1288.17
270.00	1253.36
270.22	1210.35
270.43	1218.54
270.65	1296.36
270.87	1257.45
271.08	1339.37
271.30	1286.12
271.51	1277.93
271.73	1220.59
271.95	1259.50
272.16	1294.32
272.38	1249.26
272.59	1282.03
272.81	1290.22
273.02	1279.98
273.24	1277.93
273.46	1292.27
273.67	1255.40
273.89	1265.64
274.10	1255.40
274.32	1284.08
274.54	1261.55
274.75	1263.60
274.97	1312.75
275.18	1206.25
275.40	1296.36
275.61	1265.64
275.83	1181.68
276.05	1288.17
276.26	1263.60
276.48	1236.97
276.69	1191.92
276.91	1279.98
277.12	1284.08
277.34	1247.21
277.55	1259.50
277.77	1296.36
277.99	1232.88
278.20	1269.74
278.42	1341.42
278.63	1134.57
278.85	1198.06
279.06	1208.30
279.28	1298.41
279.49	1277.93
279.71	1267.69
279.93	1259.50
280.14	1245.16
280.36	1282.03
280.57	1230.83
280.79	1296.36
281.00	1239.02
281.22	1257.45
281.43	1353.71
281.65	1265.64
281.86	1288.17
282.08	1245.16
282.29	1243.12
282.51	1189.87
282.73	1220.59
282.94	1310.70
283.16	1339.37
283.37	1302.51
283.59	1243.12
283.80	1236.97
284.02	1241.07
284.23	1306.60
284.45	1259.50
284.66	1300.46
284.88	1302.51
285.09	1337.32
285.31	1277.93
285.52	1267.69
285.74	1290.22
285.95	1290.22
286.17	1241.07
286.38	1228.78
286.60	1228.78
286.81	1239.02
287.03	1302.51
287.24	1253.36
287.46	1288.17
287.67	1212.40
287.89	1267.69
288.10	1179.63
288.32	1220.59
288.53	1333.23
288.75	1251.31
288.96	1251.31
289.18	1249.26
289.39	1253.36
289.61	1339.37
289.82	1306.60
290.04	1249.26
290.25	1214.45
290.47	1279.98
290.68	1333.23
290.90	1212.40
291.11	1245.16
291.33	1253.36
291.54	1294.32
291.76	1322.99
291.97	1269.74
292.18	1304.56
292.40	1218.54
292.61	1243.12
292.83	1165.29
293.04	1150.96
293.26	1304.56
293.47	1249.26
293.69	1296.36
293.90	1198.06
294.12	1265.64
294.33	1318.89
294.55	1288.17
294.76	1288.17
294.97	1236.97
295.19	1257.45
295.40	1296.36
295.62	1200.11
295.83	1265.64
296.05	1355.76
296.26	1251.31
296.48	1306.60
296.69	1343.47
296.90	1288.17
297.12	1210.35
297.33	1282.03
297.55	1232.88
297.76	1189.87
297.98	1333.23
298.19	1222.64
298.41	1366.00
298.62	1302.51
298.83	1253.36
299.05	1241.07
299.26	1249.26
299.48	1230.83
299.69	1222.64
299.90	1241.07
300.12	1245.16
300.33	1343.47
300.55	1290.22
300.76	1286.12
300.98	1290.22
301.19	1245.16
301.40	1259.50
301.62	1247.21
301.83	1298.41
302.05	1210.35
302.26	1296.36
302.47	1253.36
302.69	1226.73
302.90	1273.84
303.12	1241.07
303.33	1277.93
303.54	1171.44
303.76	1241.07
303.97	1329.13
304.19	1333.23
304.40	1241.07
304.61	1306.60
304.83	1322.99
305.04	1269.74
305.26	1243.12
305.47	1251.31
305.68	1269.74
305.90	1308.65
306.11	1263.60
306.33	1304.56
306.54	1261.55
306.75	1308.65
306.97	1296.36
307.18	1239.02
307.39	1253.36
307.61	1290.22
307.82	1318.89
308.04	1345.52
308.25	1279.98
308.46	1224.69
308.68	1255.40
308.89	1251.31
309.10	1247.21
309.32	1230.83
309.53	1300.46
309.74	1245.16
309.96	1271.79
310.17	1269.74
310.39	1257.45
310.60	1302.51
310.81	1302.51
311.03	1298.41
311.24	1212.40
311.45	1232.88
311.67	1251.31
311.88	1243.12
312.09	1355.76
312.31	1193.97
312.52	1206.25
312.73	1298.41
312.95	1282.03
313.16	1212.40
313.37	1232.88
313.59	1279.98
313.80	1222.64
314.01	1245.16
314.23	1294.32
314.44	1314.80
314.65	1275.88
314.87	1243.12
315.08	1267.69
315.29	1286.12
315.51	1273.84
315.72	1198.06
315.93	1230.83
316.15	1257.45
316.36	1249.26
316.57	1294.32
316.79	1304.56
317.00	1245.16
317.21	1302.51
317.43	1329.13
317.64	1284.08
317.85	1288.17
318.07	1288.17
318.28	1265.64
318.49	1228.78
318.70	1263.60
318.92	1200.11
319.13	1275.88
319.34	1236.97
319.56	1206.25
319.77	1273.84
319.98	1243.12
320.20	1230.83
320.41	1288.17
320.62	1251.31
320.83	1263.60
321.05	1265.64
321.26	1247.21
321.47	1269.74
321.69	1296.36
321.90	1179.63
322.11	1271.79
322.32	1273.84
322.54	1288.17
322.75	1298.41
322.96	1347.56
323.18	1212.40
323.39	1304.56
323.60	1259.50
323.81	1273.84
324.03	1245.16
324.24	1314.80
324.45	1304.56
324.66	1259.50
324.88	1269.74
325.09	1331.18
325.30	1310.70
325.52	1206.25
325.73	1337.32
325.94	1212.40
326.15	1253.36
326.37	1277.93
326.58	1220.59
326.79	1249.26
327.00	1263.60
327.22	1241.07
327.43	1239.02
327.64	1277.93
327.85	1263.60
328.07	1306.60
328.28	1267.69
328.49	1241.07
328.70	1159.15
328.92	1306.60
329.13	1300.46
329.34	1279.98
329.55	1290.22
329.76	1314.80
329.98	1271.79
330.19	1228.78
330.40	1224.69
330.61	1298.41
330.83	1224.69
331.04	1206.25
331.25	1226.73
331.46	1294.32
331.68	1282.03
331.89	1277.93
332.10	1257.45
332.31	1255.40
332.52	1316.84
332.74	1341.42
332.95	1288.17
333.16	1259.50
333.37	1320.94
333.58	1322.99
333.80	1261.55
334.01	1368.04
334.22	1243.12
334.43	1277.93
334.64	1198.06
334.86	1198.06
335.07	1306.60
335.28	1286.12
335.49	1271.79
335.70	1269.74
335.92	1271.79
336.13	1296.36
336.34	1265.64
336.55	1341.42
336.76	1286.12
336.98	1298.41
337.19	1294.32
337.40	1288.17
337.61	1249.26
337.82	1282.03
338.04	1232.88
338.25	1234.93
338.46	1239.02
338.67	1241.07
338.88	1265.64
339.09	1322.99
339.31	1206.25
339.52	1198.06
339.73	1191.92
339.94	1292.27
340.15	1294.32
340.36	1267.69
340.58	1282.03
340.79	1249.26
341.00	1263.60
341.21	1236.97
341.42	1243.12
341.63	1220.59
341.85	1249.26
342.06	1228.78
342.27	1257.45
342.48	1241.07
342.69	1253.36
342.90	1263.60
343.12	1193.97
343.33	1290.22
343.54	1263.60
343.75	1290.22
343.96	1253.36
344.17	1236.97
344.38	1331.18
344.60	1320.94
344.81	1220.59
345.02	1230.83
345.23	1271.79
345.44	1228.78
345.65	1282.03
345.86	1320.94
346.07	1255.40
346.29	1302.51
346.50	1249.26
346.71	1302.51
346.92	1298.41
347.13	1312.75
347.34	1210.35
347.55	1302.51
347.76	1290.22
347.98	1296.36
348.19	1271.79
348.40	1296.36
348.61	1275.88
348.82	1345.52
349.03	1224.69
349.24	1236.97
349.45	1290.22
349.66	1222.64
349.88	1265.64
350.09	1302.51
350.30	1257.45
350.51	1290.22
350.72	1339.37
350.93	1200.11
351.14	1292.27
351.35	1253.36
351.56	1267.69
351.77	1306.60
351.99	1257.45
352.20	1355.76
352.41	1257.45
352.62	1261.55
352.83	1255.40
353.04	1247.21
353.25	1234.93
353.46	1314.80
353.67	1247.21
353.88	1351.66
354.09	1255.40
354.30	1261.55
354.52	1200.11
354.73	1196.01
354.94	1200.11
355.15	1310.70
355.36	1224.69
355.57	1314.80
355.78	1302.51
355.99	1273.84
356.20	1331.18
356.41	1247.21
356.62	1253.36
356.83	1279.98
357.04	1306.60
357.25	1239.02
357.46	1269.74
357.68	1228.78
357.89	1263.60
358.10	1239.02
358.31	1232.88
358.52	1267.69
358.73	1247.21
358.94	1296.36
359.15	1265.64
359.36	1218.54
359.57	1206.25
359.78	1304.56
359.99	1273.84
360.20	1273.84
360.41	1198.06
360.62	1288.17
360.83	1236.97
361.04	1204.21
361.25	1220.59
361.46	1288.17
361.67	1214.45
361.88	1255.40
362.09	1245.16
362.30	1228.78
362.51	1191.92
362.72	1296.36
362.93	1216.49
363.14	1284.08
363.35	1271.79
363.56	1259.50
363.78	1320.94
363.99	1279.98
364.20	1286.12
364.41	1306.60
364.62	1341.42
364.83	1261.55
365.04	1263.60
365.25	1288.17
365.46	1273.84
365.67	1253.36
365.88	1277.93
366.09	1327.08
366.30	1282.03
366.51	1224.69
366.72	1286.12
366.93	1230.83
367.14	1255.40
367.35	1296.36
367.56	1290.22
367.77	1259.50
367.98	1312.75
368.18	1298.41
368.39	1214.45
368.60	1331.18
368.81	1253.36
369.02	1269.74
369.23	1261.55
369.44	1271.79
369.65	1228.78
369.86	1269.74
370.07	1206.25
370.28	1243.12
370.49	1239.02
370.70	1327.08
370.91	1261.55
371.12	1310.70
371.33	1243.12
371.54	1302.51
371.75	1300.46
371.96	1314.80
372.17	1181.68
372.38	1253.36
372.59	1198.06
372.80	1314.80
373.01	1273.84
373.22	1279.98
373.43	1255.40
373.64	1265.64
373.85	1210.35
374.06	1331.18
374.26	1296.36
374.47	1288.17
374.68	1241.07
374.89	1325.04
375.10	1198.06
375.31	1279.98
375.52	1292.27
375.73	1236.97
375.94	1234.93
376.15	1294.32
376.36	1304.56
376.57	1259.50
376.78	1269.74
376.99	1302.51
377.20	1204.21
377.40	1292.27
377.61	1349.61
377.82	1327.08
378.03	1343.47
378.24	1257.45
378.45	1331.18
378.66	1239.02
378.87	1288.17
379.08	1267.69
379.29	1329.13
379.50	1359.85
379.71	1251.31
379.91	1226.73
380.12	1247.21
380.33	1267.69
380.54	1288.17
380.75	1296.36
380.96	1245.16
381.17	1298.41
381.38	1284.08
381.59	1251.31
381.80	1241.07
382.00	1279.98
382.21	1273.84
382.42	1251.31
382.63	1284.08
382.84	1226.73
383.05	1339.37
383.26	1206.25
383.47	1220.59
383.68	1275.88
383.88	1239.02
384.09	1241.07
384.30	1265.64
384.51	1263.60
384.72	1226.73
384.93	1222.64
385.14	1290.22
385.35	1304.56
385.55	1185.77
385.76	1279.98
385.97	1236.97
386.18	1230.83
386.39	1290.22
386.60	1296.36
386.81	1273.84
387.02	1218.54
387.22	1239.02
387.43	1200.11
387.64	1200.11
387.85	1286.12
388.06	1228.78
388.27	1304.56
388.48	1273.84
388.68	1345.52
388.89	1226.73
389.10	1253.36
389.31	1275.88
389.52	1267.69
389.73	1263.60
389.93	1302.51
390.14	1306.60
390.35	1290.22
390.56	1265.64
390.77	1296.36
390.98	1249.26
391.18	1222.64
391.39	1257.45
391.60	1220.59
391.81	1239.02
392.02	1208.30
392.23	1196.01
392.43	1239.02
392.64	1351.66
392.85	1214.45
393.06	1292.27
393.27	1265.64
393.47	1288.17
393.68	1245.16
393.89	1288.17
394.10	1277.93
394.31	1243.12
394.52	1239.02
394.72	1337.32
394.93	1325.04
395.14	1243.12
395.35	1304.56
395.56	1265.64
395.76	1220.59
395.97	1265.64
396.18	1267.69
396.39	1257.45
396.60	1318.89
396.80	1271.79
397.01	1216.49
397.22	1224.69
397.43	1290.22
397.64	1322.99
397.84	1269.74
398.05	1206.25
398.26	1226.73
398.47	1265.64
398.67	1271.79
398.88	1251.31
399.09	1249.26
399.30	1290.22
399.51	1239.02
399.71	1265.64
399.92	1204.21
400.13	1202.16
400.34	1267.69
400.54	1316.84
400.75	1241.07
400.96	1277.93
401.17	1349.61
401.37	1269.74
401.58	1241.07
401.79	1236.97
402.00	1255.40
402.21	1265.64
402.41	1277.93
402.62	1175.53
402.83	1275.88
403.04	1302.51
403.24	1345.52
403.45	1275.88
403.66	1300.46
403.87	1279.98
404.07	1370.09
404.28	1210.35
404.49	1298.41
404.70	1273.84
404.90	1220.59
405.11	1243.12
405.32	1290.22
405.52	1251.31
405.73	1261.55
405.94	1214.45
406.15	1198.06
406.35	1304.56
406.56	1269.74
406.77	1290.22
406.98	1296.36
407.18	1341.42
407.39	1314.80
407.60	1259.50
407.80	1261.55
408.01	1267.69
408.22	1220.59
408.43	1198.06
408.63	1239.02
408.84	1230.83
409.05	1302.51
409.25	1247.21
409.46	1286.12
409.67	1222.64
409.88	1265.64
410.08	1267.69
410.29	1351.66
410.50	1206.25
410.70	1267.69
410.91	1243.12
411.12	1218.54
411.32	1269.74
411.53	1249.26
411.74	1265.64
411.95	1239.02
412.15	1300.46
412.36	1277.93
412.57	1247.21
412.77	1265.64
412.98	1277.93
413.19	1306.60
413.39	1284.08
413.60	1245.16
413.81	1282.03
414.01	1296.36
414.22	1212.40
414.43	1290.22
414.63	1200.11
414.84	1239.02
415.05	1300.46
415.25	1251.31
415.46	1267.69
415.67	1220.59
415.87	1275.88
416.08	1284.08
416.29	1310.70
416.49	1284.08
416.70	1298.41
416.91	1220.59
417.11	1269.74
417.32	1271.79
417.53	1249.26
417.73	1300.46
417.94	1277.93
418.15	1333.23
418.35	1345.52
418.56	1261.55
418.77	1239.02
418.97	1277.93
419.18	1230.83
419.38	1308.65
419.59	1263.60
419.80	1261.55
420.00	1296.36
420.21	1265.64
420.42	1286.12
420.62	1296.36
420.83	1241.07
421.04	1343.47
421.24	1288.17
421.45	1288.17
421.65	1300.46
421.86	1214.45
422.07	1286.12
422.27	1304.56
422.48	1304.56
422.69	1224.69
422.89	1282.03
423.10	1249.26
423.30	1288.17
423.51	1294.32
423.72	1302.51
423.92	1239.02
424.13	1273.84
424.33	1288.17
424.54	1343.47
424.75	1247.21
424.95	1279.98
425.16	1271.79
425.36	1269.74
425.57	1288.17
425.78	1325.04
425.98	1247.21
426.19	1341.42
426.39	1218.54
426.60	1282.03
426.81	1257.45
427.01	1239.02
427.22	1322.99
427.42	1298.41
427.63	1255.40
427.83	1308.65
428.04	1247.21
428.25	1269.74
428.45	1212.40
428.66	1318.89
428.86	1255.40
429.07	1269.74
429.28	1347.56
429.48	1255.40
429.69	1329.13
429.89	1353.71
430.10	1253.36
430.30	1329.13
430.51	1230.83
430.71	1253.36
430.92	1302.51
431.13	1292.27
431.33	1187.82
431.54	1269.74
431.74	1306.60
431.95	1261.55
432.15	1230.83
432.36	1259.50
432.56	1273.84
432.77	1288.17
432.98	1290.22
433.18	1257.45
433.39	1247.21
433.59	1273.84
433.80	1214.45
434.00	1341.42
434.21	1286.12
434.41	1228.78
434.62	1300.46
434.82	1267.69
435.03	1298.41
435.23	1228.78
435.44	1339.37
435.64	1308.65
435.85	1318.89
436.06	1230.83
436.26	1279.98
436.47	1312.75
436.67	1259.50
436.88	1267.69
437.08	1183.73
437.29	1269.74
437.49	1366.00
437.70	1304.56
437.90	1243.12
438.11	1331.18
438.31	1255.40
438.52	1241.07
438.72	1279.98
438.93	1273.84
439.13	1279.98
439.34	1257.45
439.54	1257.45
439.75	1275.88
439.95	1222.64
440.16	1292.27
440.36	1247.21
440.57	1245.16
440.77	1279.98
440.98	1310.70
441.18	1290.22
441.39	1259.50
441.59	1306.60
441.80	1339.37
442.00	1257.45
442.21	1234.93
442.41	1290.22
442.62	1189.87
442.82	1290.22
443.02	1284.08
443.23	1232.88
443.43	1208.30
443.64	1296.36
443.84	1292.27
444.05	1165.29
444.25	1234.93
444.46	1279.98
444.66	1216.49
444.87	1308.65
445.07	1277.93
445.28	1253.36
445.48	1275.88
445.69	1316.84
445.89	1308.65
446.09	1222.64
446.30	1292.27
446.50	1308.65
446.71	1210.35
446.91	1329.13
447.12	1286.12
447.32	1267.69
447.53	1378.28
447.73	1331.18
447.93	1275.88
448.14	1277.93
448.34	1298.41
448.55	1306.60
448.75	1230.83
448.96	1292.27
449.16	1290.22
449.36	1241.07
449.57	1259.50
449.77	1257.45
449.98	1314.80
450.18	1224.69
450.39	1286.12
450.59	1302.51
450.79	1212.40
451.00	1320.94
451.20	1273.84
451.41	1243.12
451.61	1239.02
451.81	1273.84
452.02	1296.36
452.22	1316.84
452.43	1218.54
452.63	1257.45
