SpectraSuite Data File
++++++++++++++++++++++++++++++++++++
Date: Sun Apr 03 19:55:54 CEST 2016
User: root
Dark Spectrum Present: No
Reference Spectrum Present: No
Number of Sampled Component Spectra: 1
Spectrometers: USB4C02835
Integration Time (usec): 10000 (USB4C02835)
Spectra Averaged: 1 (USB4C02835)
Boxcar Smoothing: 0 (USB4C02835)
Correct for Electrical Dark: No (USB4C02835)
Strobe/Lamp Enabled: No (USB4C02835)
Correct for Detector Non-linearity: No (USB4C02835)
Correct for Stray Light: No (USB4C02835)
Number of Pixels in Processed Spectrum: 3648
>>>>>Begin Processed Spectral Data<<<<<
177.47	1230.83
177.69	1230.83
177.91	1230.83
178.13	1220.59
178.36	1239.02
178.58	1259.50
178.80	1298.41
179.02	1304.56
179.24	1284.08
179.46	1273.84
179.68	1302.51
179.90	1245.16
180.13	1269.74
180.35	1253.36
180.57	1259.50
180.79	1282.03
181.01	1277.93
181.23	1337.32
181.45	1290.22
181.67	1320.94
181.90	1275.88
182.12	1277.93
182.34	1239.02
182.56	1296.36
182.78	1259.50
183.00	1263.60
183.22	1279.98
183.44	1236.97
183.66	1234.93
183.89	1259.50
184.11	1271.79
184.33	1312.75
184.55	1259.50
184.77	1189.87
184.99	1171.44
185.21	1269.74
185.43	1290.22
185.65	1308.65
185.87	1255.40
186.10	1212.40
186.32	1241.07
186.54	1247.21
186.76	1249.26
186.98	1300.46
187.20	1275.88
187.42	1257.45
187.64	1224.69
187.86	1189.87
188.08	1292.27
188.30	1206.25
188.52	1290.22
188.75	1294.32
188.97	1243.12
189.19	1269.74
189.41	1292.27
189.63	1325.04
189.85	1175.53
190.07	1253.36
190.29	1253.36
190.51	1273.84
190.73	1294.32
190.95	1210.35
191.17	1269.74
191.39	1214.45
191.61	1267.69
191.84	1236.97
192.06	1292.27
192.28	1302.51
192.50	1228.78
192.72	1232.88
192.94	1253.36
193.16	1261.55
193.38	1216.49
193.60	1224.69
193.82	1294.32
194.04	1257.45
194.26	1253.36
194.48	1339.37
194.70	1261.55
194.92	1308.65
195.14	1279.98
195.36	1312.75
195.58	1374.19
195.80	1263.60
196.02	1277.93
196.24	1366.00
196.46	1241.07
196.69	1304.56
196.91	1318.89
197.13	1279.98
197.35	1241.07
197.57	1181.68
197.79	1298.41
198.01	1331.18
198.23	1245.16
198.45	1232.88
198.67	1286.12
198.89	1189.87
199.11	1222.64
199.33	1187.82
199.55	1286.12
199.77	1175.53
199.99	1228.78
200.21	1343.47
200.43	1314.80
200.65	1257.45
200.87	1206.25
201.09	1191.92
201.31	1253.36
201.53	1206.25
201.75	1228.78
201.97	1304.56
202.19	1275.88
202.41	1245.16
202.63	1300.46
202.85	1325.04
203.07	1183.73
203.29	1265.64
203.51	1325.04
203.73	1292.27
203.95	1271.79
204.17	1241.07
204.39	1187.82
204.61	1259.50
204.83	1187.82
205.05	1308.65
205.27	1251.31
205.49	1279.98
205.71	1292.27
205.93	1269.74
206.15	1251.31
206.37	1277.93
206.59	1187.82
206.81	1255.40
207.03	1290.22
207.25	1300.46
207.47	1255.40
207.69	1232.88
207.91	1279.98
208.13	1290.22
208.34	1296.36
208.56	1234.93
208.78	1263.60
209.00	1218.54
209.22	1300.46
209.44	1249.26
209.66	1263.60
209.88	1269.74
210.10	1181.68
210.32	1245.16
210.54	1212.40
210.76	1179.63
210.98	1263.60
211.20	1257.45
211.42	1216.49
211.64	1220.59
211.86	1275.88
212.08	1261.55
212.30	1265.64
212.52	1245.16
212.74	1300.46
212.96	1204.21
213.17	1271.79
213.39	1243.12
213.61	1257.45
213.83	1279.98
214.05	1279.98
214.27	1257.45
214.49	1230.83
214.71	1249.26
214.93	1210.35
215.15	1185.77
215.37	1294.32
215.59	1294.32
215.81	1308.65
216.03	1259.50
216.24	1279.98
216.46	1236.97
216.68	1322.99
216.90	1279.98
217.12	1273.84
217.34	1247.21
217.56	1222.64
217.78	1290.22
218.00	1273.84
218.22	1230.83
218.44	1277.93
218.66	1263.60
218.87	1275.88
219.09	1239.02
219.31	1302.51
219.53	1259.50
219.75	1175.53
219.97	1273.84
220.19	1265.64
220.41	1198.06
220.63	1249.26
220.85	1282.03
221.06	1290.22
221.28	1294.32
221.50	1251.31
221.72	1236.97
221.94	1255.40
222.16	1206.25
222.38	1128.43
222.60	1236.97
222.82	1243.12
223.03	1243.12
223.25	1243.12
223.47	1292.27
223.69	1275.88
223.91	1253.36
224.13	1263.60
224.35	1288.17
224.57	1245.16
224.78	1226.73
225.00	1288.17
225.22	1275.88
225.44	1226.73
225.66	1206.25
225.88	1273.84
226.10	1226.73
226.32	1312.75
226.53	1282.03
226.75	1304.56
226.97	1290.22
227.19	1241.07
227.41	1322.99
227.63	1298.41
227.85	1222.64
228.06	1249.26
228.28	1232.88
228.50	1212.40
228.72	1210.35
228.94	1241.07
229.16	1290.22
229.37	1243.12
229.59	1294.32
229.81	1322.99
230.03	1320.94
230.25	1302.51
230.47	1288.17
230.69	1277.93
230.90	1234.93
231.12	1249.26
231.34	1277.93
231.56	1322.99
231.78	1279.98
232.00	1355.76
232.21	1329.13
232.43	1196.01
232.65	1255.40
232.87	1279.98
233.09	1304.56
233.30	1284.08
233.52	1257.45
233.74	1286.12
233.96	1288.17
234.18	1284.08
234.40	1218.54
234.61	1286.12
234.83	1261.55
235.05	1261.55
235.27	1200.11
235.49	1286.12
235.70	1265.64
235.92	1288.17
236.14	1222.64
236.36	1357.80
236.58	1271.79
236.79	1206.25
237.01	1245.16
237.23	1282.03
237.45	1318.89
237.67	1191.92
237.88	1308.65
238.10	1380.33
238.32	1220.59
238.54	1296.36
238.76	1204.21
238.97	1341.42
239.19	1230.83
239.41	1243.12
239.63	1241.07
239.85	1245.16
240.06	1318.89
240.28	1245.16
240.50	1273.84
240.72	1230.83
240.93	1286.12
241.15	1296.36
241.37	1337.32
241.59	1247.21
241.81	1273.84
242.02	1275.88
242.24	1318.89
242.46	1282.03
242.68	1269.74
242.89	1239.02
243.11	1273.84
243.33	1279.98
243.55	1282.03
243.76	1200.11
243.98	1253.36
244.20	1255.40
244.42	1236.97
244.64	1273.84
244.85	1257.45
245.07	1271.79
245.29	1265.64
245.51	1333.23
245.72	1304.56
245.94	1271.79
246.16	1265.64
246.38	1320.94
246.59	1214.45
246.81	1318.89
247.03	1263.60
247.24	1294.32
247.46	1275.88
247.68	1214.45
247.90	1267.69
248.11	1224.69
248.33	1236.97
248.55	1318.89
248.77	1306.60
248.98	1234.93
249.20	1249.26
249.42	1363.95
249.64	1351.66
249.85	1296.36
250.07	1269.74
250.29	1318.89
250.50	1198.06
250.72	1286.12
250.94	1249.26
251.16	1329.13
251.37	1218.54
251.59	1228.78
251.81	1253.36
252.02	1253.36
252.24	1333.23
252.46	1257.45
252.68	1200.11
252.89	1282.03
253.11	1228.78
253.33	1304.56
253.54	1296.36
253.76	1222.64
253.98	1331.18
254.20	1232.88
254.41	1255.40
254.63	1290.22
254.85	1245.16
255.06	1239.02
255.28	1290.22
255.50	1251.31
255.71	1247.21
255.93	1292.27
256.15	1288.17
256.36	1257.45
256.58	1271.79
256.80	1322.99
257.02	1292.27
257.23	1318.89
257.45	1232.88
257.67	1239.02
257.88	1282.03
258.10	1236.97
258.32	1269.74
258.53	1263.60
258.75	1189.87
258.97	1318.89
259.18	1282.03
259.40	1308.65
259.62	1284.08
259.83	1279.98
260.05	1249.26
260.27	1263.60
260.48	1257.45
260.70	1302.51
260.92	1292.27
261.13	1181.68
261.35	1269.74
261.57	1253.36
261.78	1214.45
262.00	1314.80
262.22	1230.83
262.43	1271.79
262.65	1284.08
262.86	1206.25
263.08	1277.93
263.30	1259.50
263.51	1314.80
263.73	1255.40
263.95	1290.22
264.16	1206.25
264.38	1312.75
264.60	1241.07
264.81	1218.54
265.03	1230.83
265.25	1241.07
265.46	1257.45
265.68	1339.37
265.89	1273.84
266.11	1322.99
266.33	1261.55
266.54	1269.74
266.76	1239.02
266.98	1290.22
267.19	1247.21
267.41	1277.93
267.62	1241.07
267.84	1222.64
268.06	1325.04
268.27	1261.55
268.49	1230.83
268.70	1300.46
268.92	1288.17
269.14	1200.11
269.35	1288.17
269.57	1253.36
269.79	1296.36
270.00	1331.18
270.22	1245.16
270.43	1241.07
270.65	1292.27
270.87	1294.32
271.08	1322.99
271.30	1222.64
271.51	1284.08
271.73	1277.93
271.95	1277.93
272.16	1271.79
272.38	1279.98
272.59	1253.36
272.81	1282.03
273.02	1243.12
273.24	1247.21
273.46	1300.46
273.67	1380.33
273.89	1245.16
274.10	1228.78
274.32	1335.28
274.54	1282.03
274.75	1329.13
274.97	1259.50
275.18	1286.12
275.40	1325.04
275.61	1259.50
275.83	1282.03
276.05	1251.31
276.26	1271.79
276.48	1243.12
276.69	1380.33
276.91	1241.07
277.12	1265.64
277.34	1212.40
277.55	1310.70
277.77	1294.32
277.99	1249.26
278.20	1206.25
278.42	1337.32
278.63	1251.31
278.85	1251.31
279.06	1302.51
279.28	1226.73
279.49	1302.51
279.71	1271.79
279.93	1329.13
280.14	1169.39
280.36	1286.12
280.57	1234.93
280.79	1282.03
281.00	1263.60
281.22	1214.45
281.43	1294.32
281.65	1210.35
281.86	1290.22
282.08	1347.56
282.29	1243.12
282.51	1239.02
282.73	1198.06
282.94	1255.40
283.16	1288.17
283.37	1255.40
283.59	1245.16
283.80	1249.26
284.02	1251.31
284.23	1247.21
284.45	1220.59
284.66	1255.40
284.88	1257.45
285.09	1294.32
285.31	1337.32
285.52	1200.11
285.74	1208.30
285.95	1204.21
286.17	1279.98
286.38	1253.36
286.60	1271.79
286.81	1220.59
287.03	1271.79
287.24	1345.52
287.46	1263.60
287.67	1329.13
287.89	1265.64
288.10	1310.70
288.32	1279.98
288.53	1177.58
288.75	1181.68
288.96	1249.26
289.18	1216.49
289.39	1284.08
289.61	1310.70
289.82	1294.32
290.04	1228.78
290.25	1273.84
290.47	1245.16
290.68	1224.69
290.90	1361.90
291.11	1308.65
291.33	1290.22
291.54	1310.70
291.76	1296.36
291.97	1290.22
292.18	1253.36
292.40	1294.32
292.61	1200.11
292.83	1216.49
293.04	1267.69
293.26	1261.55
293.47	1308.65
293.69	1239.02
293.90	1263.60
294.12	1265.64
294.33	1202.16
294.55	1263.60
294.76	1310.70
294.97	1245.16
295.19	1200.11
295.40	1296.36
295.62	1286.12
295.83	1253.36
296.05	1202.16
296.26	1249.26
296.48	1218.54
296.69	1343.47
296.90	1251.31
297.12	1261.55
297.33	1327.08
297.55	1320.94
297.76	1232.88
297.98	1222.64
298.19	1273.84
298.41	1257.45
298.62	1300.46
298.83	1288.17
299.05	1228.78
299.26	1275.88
299.48	1304.56
299.69	1247.21
299.90	1275.88
300.12	1239.02
300.33	1284.08
300.55	1329.13
300.76	1308.65
300.98	1196.01
301.19	1333.23
301.40	1265.64
301.62	1208.30
301.83	1232.88
302.05	1263.60
302.26	1273.84
302.47	1282.03
302.69	1191.92
302.90	1224.69
303.12	1220.59
303.33	1257.45
303.54	1253.36
303.76	1228.78
303.97	1253.36
304.19	1239.02
304.40	1259.50
304.61	1298.41
304.83	1327.08
305.04	1265.64
305.26	1263.60
305.47	1325.04
305.68	1243.12
305.90	1181.68
306.11	1290.22
306.33	1247.21
306.54	1236.97
306.75	1251.31
306.97	1265.64
307.18	1271.79
307.39	1351.66
307.61	1218.54
307.82	1261.55
308.04	1298.41
308.25	1189.87
308.46	1200.11
308.68	1157.10
308.89	1304.56
309.10	1296.36
309.32	1275.88
309.53	1298.41
309.74	1263.60
309.96	1318.89
310.17	1208.30
310.39	1288.17
310.60	1220.59
310.81	1247.21
311.03	1239.02
311.24	1212.40
311.45	1275.88
311.67	1269.74
311.88	1234.93
312.09	1243.12
312.31	1232.88
312.52	1282.03
312.73	1298.41
312.95	1275.88
313.16	1202.16
313.37	1234.93
313.59	1263.60
313.80	1300.46
314.01	1347.56
314.23	1320.94
314.44	1249.26
314.65	1277.93
314.87	1228.78
315.08	1306.60
315.29	1282.03
315.51	1284.08
315.72	1251.31
315.93	1308.65
316.15	1290.22
316.36	1275.88
316.57	1288.17
316.79	1243.12
317.00	1230.83
317.21	1273.84
317.43	1257.45
317.64	1275.88
317.85	1253.36
318.07	1222.64
318.28	1312.75
318.49	1312.75
318.70	1290.22
318.92	1294.32
319.13	1267.69
319.34	1294.32
319.56	1255.40
319.77	1251.31
319.98	1271.79
320.20	1226.73
320.41	1302.51
320.62	1249.26
320.83	1234.93
321.05	1271.79
321.26	1339.37
321.47	1216.49
321.69	1273.84
321.90	1302.51
322.11	1210.35
322.32	1288.17
322.54	1308.65
322.75	1298.41
322.96	1298.41
323.18	1322.99
323.39	1331.18
323.60	1357.80
323.81	1279.98
324.03	1239.02
324.24	1247.21
324.45	1282.03
324.66	1279.98
324.88	1255.40
325.09	1302.51
325.30	1277.93
325.52	1290.22
325.73	1228.78
325.94	1284.08
326.15	1234.93
326.37	1277.93
326.58	1245.16
326.79	1318.89
327.00	1220.59
327.22	1288.17
327.43	1107.95
327.64	1269.74
327.85	1288.17
328.07	1263.60
328.28	1241.07
328.49	1314.80
328.70	1343.47
328.92	1247.21
329.13	1310.70
329.34	1224.69
329.55	1288.17
329.76	1269.74
329.98	1232.88
330.19	1236.97
330.40	1208.30
330.61	1247.21
330.83	1212.40
331.04	1236.97
331.25	1269.74
331.46	1288.17
331.68	1255.40
331.89	1275.88
332.10	1228.78
332.31	1290.22
332.52	1277.93
332.74	1286.12
332.95	1234.93
333.16	1312.75
333.37	1296.36
333.58	1327.08
333.80	1249.26
334.01	1292.27
334.22	1331.18
334.43	1271.79
334.64	1277.93
334.86	1282.03
335.07	1257.45
335.28	1208.30
335.49	1247.21
335.70	1247.21
335.92	1247.21
336.13	1294.32
336.34	1322.99
336.55	1363.95
336.76	1234.93
336.98	1320.94
337.19	1243.12
337.40	1200.11
337.61	1257.45
337.82	1318.89
338.04	1222.64
338.25	1202.16
338.46	1275.88
338.67	1232.88
338.88	1239.02
339.09	1318.89
339.31	1232.88
339.52	1206.25
339.73	1232.88
339.94	1347.56
340.15	1222.64
340.36	1273.84
340.58	1302.51
340.79	1263.60
341.00	1241.07
341.21	1202.16
341.42	1288.17
341.63	1161.20
341.85	1249.26
342.06	1148.91
342.27	1300.46
342.48	1312.75
342.69	1222.64
342.90	1253.36
343.12	1204.21
343.33	1302.51
343.54	1255.40
343.75	1282.03
343.96	1288.17
344.17	1224.69
344.38	1314.80
344.60	1271.79
344.81	1304.56
345.02	1259.50
345.23	1206.25
345.44	1212.40
345.65	1333.23
345.86	1247.21
346.07	1257.45
346.29	1236.97
346.50	1284.08
346.71	1263.60
346.92	1243.12
347.13	1265.64
347.34	1232.88
347.55	1236.97
347.76	1277.93
347.98	1269.74
348.19	1171.44
348.40	1304.56
348.61	1261.55
348.82	1296.36
349.03	1310.70
349.24	1226.73
349.45	1234.93
349.66	1286.12
349.88	1218.54
350.09	1249.26
350.30	1224.69
350.51	1265.64
350.72	1243.12
350.93	1245.16
351.14	1216.49
351.35	1247.21
351.56	1212.40
351.77	1261.55
351.99	1265.64
352.20	1355.76
352.41	1333.23
352.62	1288.17
352.83	1296.36
353.04	1292.27
353.25	1296.36
353.46	1226.73
353.67	1191.92
353.88	1257.45
354.09	1216.49
354.30	1257.45
354.52	1239.02
354.73	1292.27
354.94	1273.84
355.15	1255.40
355.36	1234.93
355.57	1265.64
355.78	1298.41
355.99	1286.12
356.20	1243.12
356.41	1249.26
356.62	1267.69
356.83	1263.60
357.04	1306.60
357.25	1339.37
357.46	1290.22
357.68	1245.16
357.89	1249.26
358.10	1247.21
358.31	1241.07
358.52	1368.04
358.73	1255.40
358.94	1208.30
359.15	1290.22
359.36	1288.17
359.57	1234.93
359.78	1257.45
359.99	1282.03
360.20	1220.59
360.41	1212.40
360.62	1241.07
360.83	1286.12
361.04	1177.58
361.25	1255.40
361.46	1236.97
361.67	1251.31
361.88	1294.32
362.09	1222.64
362.30	1193.97
362.51	1286.12
362.72	1279.98
362.93	1288.17
363.14	1284.08
363.35	1273.84
363.56	1257.45
363.78	1241.07
363.99	1294.32
364.20	1177.58
364.41	1208.30
364.62	1277.93
364.83	1243.12
365.04	1249.26
365.25	1306.60
365.46	1249.26
365.67	1249.26
365.88	1331.18
366.09	1284.08
366.30	1304.56
366.51	1253.36
366.72	1273.84
366.93	1208.30
367.14	1193.97
367.35	1271.79
367.56	1318.89
367.77	1259.50
367.98	1275.88
368.18	1275.88
368.39	1183.73
368.60	1202.16
368.81	1261.55
369.02	1253.36
369.23	1294.32
369.44	1251.31
369.65	1282.03
369.86	1269.74
370.07	1265.64
370.28	1277.93
370.49	1302.51
370.70	1263.60
370.91	1187.82
371.12	1224.69
371.33	1286.12
371.54	1239.02
371.75	1212.40
371.96	1271.79
372.17	1329.13
372.38	1320.94
372.59	1253.36
372.80	1234.93
373.01	1284.08
373.22	1302.51
373.43	1275.88
373.64	1245.16
373.85	1175.53
374.06	1279.98
374.26	1310.70
374.47	1343.47
374.68	1286.12
374.89	1263.60
375.10	1234.93
375.31	1269.74
375.52	1265.64
375.73	1327.08
375.94	1245.16
376.15	1255.40
376.36	1226.73
376.57	1255.40
376.78	1308.65
376.99	1320.94
377.20	1261.55
377.40	1269.74
377.61	1290.22
377.82	1273.84
378.03	1234.93
378.24	1279.98
378.45	1253.36
378.66	1368.04
378.87	1263.60
379.08	1249.26
379.29	1286.12
379.50	1296.36
379.71	1247.21
379.91	1265.64
380.12	1300.46
380.33	1339.37
380.54	1228.78
380.75	1378.28
380.96	1167.34
381.17	1337.32
381.38	1257.45
381.59	1290.22
381.80	1241.07
382.00	1208.30
382.21	1263.60
382.42	1290.22
382.63	1296.36
382.84	1263.60
383.05	1284.08
383.26	1271.79
383.47	1224.69
383.68	1249.26
383.88	1253.36
384.09	1284.08
384.30	1202.16
384.51	1349.61
384.72	1220.59
384.93	1245.16
385.14	1222.64
385.35	1306.60
385.55	1234.93
385.76	1265.64
385.97	1206.25
386.18	1271.79
386.39	1333.23
386.60	1183.73
386.81	1345.52
387.02	1253.36
387.22	1298.41
387.43	1329.13
387.64	1294.32
387.85	1251.31
388.06	1200.11
388.27	1343.47
388.48	1210.35
388.68	1239.02
388.89	1284.08
389.10	1271.79
389.31	1282.03
389.52	1282.03
389.73	1253.36
389.93	1253.36
390.14	1232.88
390.35	1267.69
390.56	1279.98
390.77	1257.45
390.98	1234.93
391.18	1269.74
391.39	1290.22
391.60	1181.68
391.81	1331.18
392.02	1255.40
392.23	1191.92
392.43	1337.32
392.64	1269.74
392.85	1325.04
393.06	1275.88
393.27	1282.03
393.47	1279.98
393.68	1273.84
393.89	1220.59
394.10	1302.51
394.31	1257.45
394.52	1263.60
394.72	1277.93
394.93	1191.92
395.14	1228.78
395.35	1263.60
395.56	1239.02
395.76	1282.03
395.97	1279.98
396.18	1265.64
396.39	1224.69
396.60	1271.79
396.80	1314.80
397.01	1232.88
397.22	1210.35
397.43	1236.97
397.64	1298.41
397.84	1339.37
398.05	1279.98
398.26	1208.30
398.47	1165.29
398.67	1286.12
398.88	1236.97
399.09	1263.60
399.30	1316.84
399.51	1298.41
399.71	1263.60
399.92	1220.59
400.13	1224.69
400.34	1310.70
400.54	1247.21
400.75	1267.69
400.96	1226.73
401.17	1251.31
401.37	1343.47
401.58	1306.60
401.79	1230.83
402.00	1247.21
402.21	1273.84
402.41	1329.13
402.62	1322.99
402.83	1294.32
403.04	1249.26
403.24	1288.17
403.45	1196.01
403.66	1269.74
403.87	1265.64
404.07	1325.04
404.28	1249.26
404.49	1249.26
404.70	1318.89
404.90	1345.52
405.11	1267.69
405.32	1196.01
405.52	1271.79
405.73	1271.79
405.94	1218.54
406.15	1308.65
406.35	1259.50
406.56	1224.69
406.77	1292.27
406.98	1275.88
407.18	1241.07
407.39	1288.17
407.60	1232.88
407.80	1236.97
408.01	1261.55
408.22	1230.83
408.43	1353.71
408.63	1269.74
408.84	1286.12
409.05	1261.55
409.25	1286.12
409.46	1208.30
409.67	1290.22
409.88	1196.01
410.08	1320.94
410.29	1269.74
410.50	1196.01
410.70	1255.40
410.91	1296.36
411.12	1224.69
411.32	1292.27
411.53	1247.21
411.74	1275.88
411.95	1239.02
412.15	1300.46
412.36	1312.75
412.57	1253.36
412.77	1198.06
412.98	1220.59
413.19	1277.93
413.39	1245.16
413.60	1267.69
413.81	1239.02
414.01	1308.65
414.22	1279.98
414.43	1257.45
414.63	1230.83
414.84	1255.40
415.05	1259.50
415.25	1265.64
415.46	1306.60
415.67	1298.41
415.87	1341.42
416.08	1228.78
416.29	1226.73
416.49	1200.11
416.70	1255.40
416.91	1275.88
417.11	1200.11
417.32	1241.07
417.53	1300.46
417.73	1282.03
417.94	1181.68
418.15	1263.60
418.35	1228.78
418.56	1279.98
418.77	1273.84
418.97	1218.54
419.18	1228.78
419.38	1290.22
419.59	1220.59
419.80	1322.99
420.00	1265.64
420.21	1288.17
420.42	1306.60
420.62	1265.64
420.83	1308.65
421.04	1279.98
421.24	1300.46
421.45	1271.79
421.65	1337.32
421.86	1300.46
422.07	1308.65
422.27	1255.40
422.48	1286.12
422.69	1288.17
422.89	1314.80
423.10	1228.78
423.30	1275.88
423.51	1245.16
423.72	1255.40
423.92	1339.37
424.13	1265.64
424.33	1314.80
424.54	1337.32
424.75	1277.93
424.95	1279.98
425.16	1304.56
425.36	1269.74
425.57	1347.56
425.78	1275.88
425.98	1318.89
426.19	1239.02
426.39	1310.70
426.60	1232.88
426.81	1308.65
427.01	1253.36
427.22	1300.46
427.42	1245.16
427.63	1304.56
427.83	1275.88
428.04	1318.89
428.25	1206.25
428.45	1236.97
428.66	1230.83
428.86	1314.80
429.07	1245.16
429.28	1314.80
429.48	1288.17
429.69	1198.06
429.89	1271.79
430.10	1234.93
430.30	1294.32
430.51	1234.93
430.71	1261.55
430.92	1314.80
431.13	1255.40
431.33	1286.12
431.54	1302.51
431.74	1306.60
431.95	1304.56
432.15	1306.60
432.36	1271.79
432.56	1318.89
432.77	1269.74
432.98	1279.98
433.18	1234.93
433.39	1251.31
433.59	1345.52
433.80	1306.60
434.00	1187.82
434.21	1224.69
434.41	1259.50
434.62	1251.31
434.82	1234.93
435.03	1257.45
435.23	1257.45
435.44	1279.98
435.64	1247.21
435.85	1241.07
436.06	1230.83
436.26	1298.41
436.47	1202.16
436.67	1279.98
436.88	1253.36
437.08	1320.94
437.29	1300.46
437.49	1214.45
437.70	1273.84
437.90	1363.95
438.11	1294.32
438.31	1257.45
438.52	1284.08
438.72	1241.07
438.93	1255.40
439.13	1251.31
439.34	1347.56
439.54	1251.31
439.75	1329.13
439.95	1304.56
440.16	1253.36
440.36	1310.70
440.57	1306.60
440.77	1214.45
440.98	1279.98
441.18	1357.80
441.39	1243.12
441.59	1183.73
441.80	1296.36
442.00	1318.89
442.21	1314.80
442.41	1282.03
442.62	1259.50
442.82	1187.82
443.02	1255.40
443.23	1228.78
443.43	1243.12
443.64	1322.99
443.84	1277.93
444.05	1273.84
444.25	1255.40
444.46	1314.80
444.66	1251.31
444.87	1290.22
445.07	1185.77
445.28	1232.88
445.48	1234.93
445.69	1306.60
445.89	1269.74
446.09	1347.56
446.30	1277.93
446.50	1210.35
446.71	1329.13
446.91	1263.60
447.12	1306.60
447.32	1267.69
447.53	1361.90
447.73	1249.26
447.93	1230.83
448.14	1267.69
448.34	1294.32
448.55	1214.45
448.75	1318.89
448.96	1298.41
449.16	1296.36
449.36	1222.64
449.57	1273.84
449.77	1343.47
449.98	1220.59
450.18	1202.16
450.39	1247.21
450.59	1310.70
450.79	1302.51
451.00	1337.32
451.20	1353.71
451.41	1312.75
451.61	1279.98
451.81	1245.16
452.02	1292.27
452.22	1275.88
452.43	1273.84
452.63	1292.27
