SpectraSuite Data File
++++++++++++++++++++++++++++++++++++
Date: Sun Apr 03 19:55:20 CEST 2016
User: root
Dark Spectrum Present: No
Reference Spectrum Present: No
Number of Sampled Component Spectra: 1
Spectrometers: USB4C02835
Integration Time (usec): 10000 (USB4C02835)
Spectra Averaged: 1 (USB4C02835)
Boxcar Smoothing: 0 (USB4C02835)
Correct for Electrical Dark: No (USB4C02835)
Strobe/Lamp Enabled: No (USB4C02835)
Correct for Detector Non-linearity: No (USB4C02835)
Correct for Stray Light: No (USB4C02835)
Number of Pixels in Processed Spectrum: 3648
>>>>>Begin Processed Spectral Data<<<<<
177.47	1259.50
177.69	1259.50
177.91	1259.50
178.13	1204.21
178.36	1286.12
178.58	1191.92
178.80	1372.14
179.02	1290.22
179.24	1247.21
179.46	1247.21
179.68	1228.78
179.90	1320.94
180.13	1226.73
180.35	1275.88
180.57	1298.41
180.79	1226.73
181.01	1269.74
181.23	1353.71
181.45	1325.04
181.67	1230.83
181.90	1251.31
182.12	1288.17
182.34	1312.75
182.56	1150.96
182.78	1288.17
183.00	1282.03
183.22	1265.64
183.44	1230.83
183.66	1261.55
183.89	1277.93
184.11	1257.45
184.33	1296.36
184.55	1302.51
184.77	1251.31
184.99	1265.64
185.21	1204.21
185.43	1331.18
185.65	1220.59
185.87	1183.73
186.10	1173.49
186.32	1300.46
186.54	1228.78
186.76	1298.41
186.98	1239.02
187.20	1142.77
187.42	1218.54
187.64	1253.36
187.86	1193.97
188.08	1335.28
188.30	1304.56
188.52	1236.97
188.75	1222.64
188.97	1294.32
189.19	1185.77
189.41	1298.41
189.63	1349.61
189.85	1249.26
190.07	1265.64
190.29	1286.12
190.51	1183.73
190.73	1286.12
190.95	1255.40
191.17	1218.54
191.39	1310.70
191.61	1325.04
191.84	1304.56
192.06	1245.16
192.28	1312.75
192.50	1191.92
192.72	1312.75
192.94	1314.80
193.16	1310.70
193.38	1249.26
193.60	1273.84
193.82	1232.88
194.04	1191.92
194.26	1257.45
194.48	1265.64
194.70	1245.16
194.92	1261.55
195.14	1302.51
195.36	1253.36
195.58	1204.21
195.80	1236.97
196.02	1275.88
196.24	1226.73
196.46	1247.21
196.69	1351.66
196.91	1212.40
197.13	1302.51
197.35	1273.84
197.57	1263.60
197.79	1312.75
198.01	1200.11
198.23	1206.25
198.45	1296.36
198.67	1277.93
198.89	1345.52
199.11	1288.17
199.33	1255.40
199.55	1269.74
199.77	1282.03
199.99	1216.49
200.21	1204.21
200.43	1296.36
200.65	1296.36
200.87	1265.64
201.09	1259.50
201.31	1216.49
201.53	1292.27
201.75	1243.12
201.97	1216.49
202.19	1259.50
202.41	1232.88
202.63	1271.79
202.85	1335.28
203.07	1263.60
203.29	1290.22
203.51	1255.40
203.73	1300.46
203.95	1329.13
204.17	1257.45
204.39	1216.49
204.61	1271.79
204.83	1183.73
205.05	1218.54
205.27	1279.98
205.49	1265.64
205.71	1226.73
205.93	1210.35
206.15	1335.28
206.37	1314.80
206.59	1286.12
206.81	1224.69
207.03	1325.04
207.25	1224.69
207.47	1298.41
207.69	1204.21
207.91	1251.31
208.13	1279.98
208.34	1171.44
208.56	1234.93
208.78	1255.40
209.00	1204.21
209.22	1288.17
209.44	1183.73
209.66	1275.88
209.88	1236.97
210.10	1241.07
210.32	1333.23
210.54	1312.75
210.76	1312.75
210.98	1255.40
211.20	1355.76
211.42	1302.51
211.64	1257.45
211.86	1247.21
212.08	1265.64
212.30	1327.08
212.52	1304.56
212.74	1269.74
212.96	1286.12
213.17	1265.64
213.39	1232.88
213.61	1302.51
213.83	1187.82
214.05	1312.75
214.27	1263.60
214.49	1304.56
214.71	1241.07
214.93	1284.08
215.15	1345.52
215.37	1249.26
215.59	1351.66
215.81	1271.79
216.03	1271.79
216.24	1220.59
216.46	1277.93
216.68	1296.36
216.90	1234.93
217.12	1196.01
217.34	1226.73
217.56	1251.31
217.78	1302.51
218.00	1212.40
218.22	1232.88
218.44	1234.93
218.66	1304.56
218.87	1241.07
219.09	1302.51
219.31	1234.93
219.53	1224.69
219.75	1185.77
219.97	1204.21
220.19	1298.41
220.41	1241.07
220.63	1273.84
220.85	1263.60
221.06	1265.64
221.28	1265.64
221.50	1249.26
221.72	1216.49
221.94	1241.07
222.16	1269.74
222.38	1288.17
222.60	1265.64
222.82	1273.84
223.03	1282.03
223.25	1298.41
223.47	1294.32
223.69	1226.73
223.91	1257.45
224.13	1273.84
224.35	1314.80
224.57	1322.99
224.78	1210.35
225.00	1327.08
225.22	1290.22
225.44	1300.46
225.66	1257.45
225.88	1298.41
226.10	1282.03
226.32	1306.60
226.53	1234.93
226.75	1247.21
226.97	1220.59
227.19	1232.88
227.41	1267.69
227.63	1232.88
227.85	1243.12
228.06	1286.12
228.28	1263.60
228.50	1247.21
228.72	1271.79
228.94	1279.98
229.16	1251.31
229.37	1286.12
229.59	1267.69
229.81	1339.37
230.03	1191.92
230.25	1296.36
230.47	1251.31
230.69	1312.75
230.90	1202.16
231.12	1243.12
231.34	1218.54
231.56	1306.60
231.78	1329.13
232.00	1335.28
232.21	1253.36
232.43	1228.78
232.65	1234.93
232.87	1267.69
233.09	1257.45
233.30	1206.25
233.52	1327.08
233.74	1263.60
233.96	1263.60
234.18	1314.80
234.40	1224.69
234.61	1275.88
234.83	1282.03
235.05	1263.60
235.27	1357.80
235.49	1261.55
235.70	1245.16
235.92	1343.47
236.14	1288.17
236.36	1306.60
236.58	1239.02
236.79	1267.69
237.01	1251.31
237.23	1294.32
237.45	1269.74
237.67	1294.32
237.88	1331.18
238.10	1249.26
238.32	1273.84
238.54	1263.60
238.76	1257.45
238.97	1310.70
239.19	1308.65
239.41	1318.89
239.63	1228.78
239.85	1257.45
240.06	1269.74
240.28	1249.26
240.50	1241.07
240.72	1296.36
240.93	1261.55
241.15	1263.60
241.37	1298.41
241.59	1236.97
241.81	1255.40
242.02	1284.08
242.24	1255.40
242.46	1286.12
242.68	1282.03
242.89	1279.98
243.11	1298.41
243.33	1226.73
243.55	1298.41
243.76	1206.25
243.98	1298.41
244.20	1273.84
244.42	1288.17
244.64	1345.52
244.85	1279.98
245.07	1302.51
245.29	1257.45
245.51	1261.55
245.72	1239.02
245.94	1314.80
246.16	1335.28
246.38	1255.40
246.59	1294.32
246.81	1284.08
247.03	1259.50
247.24	1226.73
247.46	1243.12
247.68	1322.99
247.90	1247.21
248.11	1153.01
248.33	1245.16
248.55	1261.55
248.77	1279.98
248.98	1282.03
249.20	1200.11
249.42	1282.03
249.64	1273.84
249.85	1245.16
250.07	1279.98
250.29	1249.26
250.50	1273.84
250.72	1267.69
250.94	1284.08
251.16	1306.60
251.37	1372.14
251.59	1265.64
251.81	1292.27
252.02	1222.64
252.24	1253.36
252.46	1245.16
252.68	1275.88
252.89	1298.41
253.11	1275.88
253.33	1277.93
253.54	1277.93
253.76	1316.84
253.98	1204.21
254.20	1308.65
254.41	1269.74
254.63	1308.65
254.85	1263.60
255.06	1189.87
255.28	1241.07
255.50	1390.57
255.71	1284.08
255.93	1290.22
256.15	1247.21
256.36	1304.56
256.58	1253.36
256.80	1310.70
257.02	1304.56
257.23	1302.51
257.45	1259.50
257.67	1183.73
257.88	1249.26
258.10	1251.31
258.32	1275.88
258.53	1193.97
258.75	1243.12
258.97	1296.36
259.18	1261.55
259.40	1261.55
259.62	1327.08
259.83	1288.17
260.05	1245.16
260.27	1363.95
260.48	1300.46
260.70	1337.32
260.92	1202.16
261.13	1247.21
261.35	1282.03
261.57	1277.93
261.78	1318.89
262.00	1298.41
262.22	1196.01
262.43	1273.84
262.65	1271.79
262.86	1216.49
263.08	1253.36
263.30	1312.75
263.51	1236.97
263.73	1239.02
263.95	1320.94
264.16	1294.32
264.38	1220.59
264.60	1308.65
264.81	1263.60
265.03	1282.03
265.25	1239.02
265.46	1273.84
265.68	1308.65
265.89	1298.41
266.11	1318.89
266.33	1357.80
266.54	1269.74
266.76	1253.36
266.98	1243.12
267.19	1269.74
267.41	1267.69
267.62	1193.97
267.84	1198.06
268.06	1361.90
268.27	1310.70
268.49	1347.56
268.70	1251.31
268.92	1286.12
269.14	1312.75
269.35	1216.49
269.57	1304.56
269.79	1214.45
270.00	1277.93
270.22	1310.70
270.43	1259.50
270.65	1265.64
270.87	1239.02
271.08	1273.84
271.30	1290.22
271.51	1279.98
271.73	1212.40
271.95	1370.09
272.16	1343.47
272.38	1218.54
272.59	1306.60
272.81	1300.46
273.02	1275.88
273.24	1275.88
273.46	1255.40
273.67	1339.37
273.89	1282.03
274.10	1245.16
274.32	1312.75
274.54	1306.60
274.75	1310.70
274.97	1284.08
275.18	1230.83
275.40	1275.88
275.61	1230.83
275.83	1298.41
276.05	1267.69
276.26	1284.08
276.48	1308.65
276.69	1234.93
276.91	1296.36
277.12	1267.69
277.34	1267.69
277.55	1308.65
277.77	1257.45
277.99	1288.17
278.20	1294.32
278.42	1206.25
278.63	1212.40
278.85	1320.94
279.06	1257.45
279.28	1265.64
279.49	1275.88
279.71	1269.74
279.93	1337.32
280.14	1339.37
280.36	1200.11
280.57	1253.36
280.79	1232.88
281.00	1167.34
281.22	1245.16
281.43	1234.93
281.65	1269.74
281.86	1296.36
282.08	1216.49
282.29	1325.04
282.51	1177.58
282.73	1247.21
282.94	1259.50
283.16	1320.94
283.37	1271.79
283.59	1318.89
283.80	1286.12
284.02	1304.56
284.23	1300.46
284.45	1298.41
284.66	1279.98
284.88	1275.88
285.09	1296.36
285.31	1249.26
285.52	1249.26
285.74	1206.25
285.95	1304.56
286.17	1263.60
286.38	1314.80
286.60	1273.84
286.81	1304.56
287.03	1269.74
287.24	1236.97
287.46	1308.65
287.67	1230.83
287.89	1300.46
288.10	1241.07
288.32	1331.18
288.53	1282.03
288.75	1288.17
288.96	1296.36
289.18	1314.80
289.39	1245.16
289.61	1273.84
289.82	1232.88
290.04	1314.80
290.25	1198.06
290.47	1279.98
290.68	1193.97
290.90	1302.51
291.11	1261.55
291.33	1286.12
291.54	1290.22
291.76	1202.16
291.97	1202.16
292.18	1304.56
292.40	1189.87
292.61	1218.54
292.83	1202.16
293.04	1243.12
293.26	1306.60
293.47	1267.69
293.69	1230.83
293.90	1273.84
294.12	1275.88
294.33	1267.69
294.55	1267.69
294.76	1306.60
294.97	1277.93
295.19	1245.16
295.40	1234.93
295.62	1318.89
295.83	1255.40
296.05	1222.64
296.26	1265.64
296.48	1198.06
296.69	1290.22
296.90	1279.98
297.12	1232.88
297.33	1290.22
297.55	1200.11
297.76	1261.55
297.98	1318.89
298.19	1249.26
298.41	1376.24
298.62	1292.27
298.83	1306.60
299.05	1277.93
299.26	1261.55
299.48	1230.83
299.69	1306.60
299.90	1273.84
300.12	1191.92
300.33	1249.26
300.55	1230.83
300.76	1261.55
300.98	1232.88
301.19	1294.32
301.40	1300.46
301.62	1251.31
301.83	1286.12
302.05	1234.93
302.26	1263.60
302.47	1288.17
302.69	1279.98
302.90	1255.40
303.12	1216.49
303.33	1300.46
303.54	1269.74
303.76	1298.41
303.97	1245.16
304.19	1259.50
304.40	1257.45
304.61	1239.02
304.83	1263.60
305.04	1273.84
305.26	1253.36
305.47	1314.80
305.68	1275.88
305.90	1216.49
306.11	1320.94
306.33	1234.93
306.54	1171.44
306.75	1292.27
306.97	1236.97
307.18	1320.94
307.39	1304.56
307.61	1320.94
307.82	1236.97
308.04	1322.99
308.25	1257.45
308.46	1310.70
308.68	1232.88
308.89	1312.75
309.10	1294.32
309.32	1286.12
309.53	1220.59
309.74	1316.84
309.96	1191.92
310.17	1232.88
310.39	1279.98
310.60	1351.66
310.81	1259.50
311.03	1292.27
311.24	1312.75
311.45	1222.64
311.67	1247.21
311.88	1294.32
312.09	1236.97
312.31	1273.84
312.52	1347.56
312.73	1288.17
312.95	1337.32
313.16	1312.75
313.37	1220.59
313.59	1329.13
313.80	1265.64
314.01	1259.50
314.23	1232.88
314.44	1251.31
314.65	1271.79
314.87	1282.03
315.08	1314.80
315.29	1220.59
315.51	1267.69
315.72	1259.50
315.93	1286.12
316.15	1214.45
316.36	1339.37
316.57	1302.51
316.79	1247.21
317.00	1271.79
317.21	1255.40
317.43	1320.94
317.64	1204.21
317.85	1286.12
318.07	1335.28
318.28	1296.36
318.49	1259.50
318.70	1224.69
318.92	1269.74
319.13	1314.80
319.34	1265.64
319.56	1286.12
319.77	1267.69
319.98	1349.61
320.20	1257.45
320.41	1173.49
320.62	1253.36
320.83	1263.60
321.05	1265.64
321.26	1257.45
321.47	1265.64
321.69	1279.98
321.90	1343.47
322.11	1222.64
322.32	1308.65
322.54	1306.60
322.75	1224.69
322.96	1294.32
323.18	1202.16
323.39	1273.84
323.60	1339.37
323.81	1267.69
324.03	1288.17
324.24	1210.35
324.45	1247.21
324.66	1253.36
324.88	1292.27
325.09	1392.62
325.30	1249.26
325.52	1271.79
325.73	1273.84
325.94	1296.36
326.15	1290.22
326.37	1212.40
326.58	1263.60
326.79	1259.50
327.00	1187.82
327.22	1226.73
327.43	1290.22
327.64	1255.40
327.85	1187.82
328.07	1247.21
328.28	1212.40
328.49	1210.35
328.70	1245.16
328.92	1224.69
329.13	1263.60
329.34	1337.32
329.55	1267.69
329.76	1251.31
329.98	1257.45
330.19	1275.88
330.40	1241.07
330.61	1271.79
330.83	1228.78
331.04	1306.60
331.25	1249.26
331.46	1236.97
331.68	1255.40
331.89	1243.12
332.10	1241.07
332.31	1286.12
332.52	1312.75
332.74	1310.70
332.95	1167.34
333.16	1261.55
333.37	1239.02
333.58	1249.26
333.80	1292.27
334.01	1333.23
334.22	1257.45
334.43	1347.56
334.64	1343.47
334.86	1257.45
335.07	1200.11
335.28	1306.60
335.49	1275.88
335.70	1161.20
335.92	1234.93
336.13	1224.69
336.34	1255.40
336.55	1341.42
336.76	1236.97
336.98	1236.97
337.19	1206.25
337.40	1304.56
337.61	1325.04
337.82	1251.31
338.04	1275.88
338.25	1245.16
338.46	1269.74
338.67	1253.36
338.88	1335.28
339.09	1263.60
339.31	1247.21
339.52	1247.21
339.73	1269.74
339.94	1173.49
340.15	1271.79
340.36	1204.21
340.58	1234.93
340.79	1232.88
341.00	1220.59
341.21	1214.45
341.42	1257.45
341.63	1277.93
341.85	1277.93
342.06	1204.21
342.27	1245.16
342.48	1263.60
342.69	1298.41
342.90	1277.93
343.12	1322.99
343.33	1226.73
343.54	1288.17
343.75	1294.32
343.96	1298.41
344.17	1189.87
344.38	1300.46
344.60	1288.17
344.81	1226.73
345.02	1273.84
345.23	1257.45
345.44	1271.79
345.65	1284.08
345.86	1310.70
346.07	1273.84
346.29	1290.22
346.50	1202.16
346.71	1247.21
346.92	1247.21
347.13	1257.45
347.34	1261.55
347.55	1245.16
347.76	1255.40
347.98	1277.93
348.19	1294.32
348.40	1327.08
348.61	1318.89
348.82	1241.07
349.03	1247.21
349.24	1277.93
349.45	1236.97
349.66	1239.02
349.88	1202.16
350.09	1300.46
350.30	1275.88
350.51	1306.60
350.72	1273.84
350.93	1306.60
351.14	1275.88
351.35	1286.12
351.56	1277.93
351.77	1259.50
351.99	1265.64
352.20	1236.97
352.41	1247.21
352.62	1255.40
352.83	1232.88
353.04	1263.60
353.25	1353.71
353.46	1282.03
353.67	1288.17
353.88	1267.69
354.09	1282.03
354.30	1269.74
354.52	1200.11
354.73	1294.32
354.94	1247.21
355.15	1331.18
355.36	1277.93
355.57	1306.60
355.78	1206.25
355.99	1341.42
356.20	1275.88
356.41	1267.69
356.62	1329.13
356.83	1236.97
357.04	1241.07
357.25	1224.69
357.46	1267.69
357.68	1261.55
357.89	1228.78
358.10	1239.02
358.31	1263.60
358.52	1273.84
358.73	1279.98
358.94	1241.07
359.15	1306.60
359.36	1271.79
359.57	1257.45
359.78	1282.03
359.99	1290.22
360.20	1310.70
360.41	1187.82
360.62	1304.56
360.83	1232.88
361.04	1329.13
361.25	1249.26
361.46	1282.03
361.67	1282.03
361.88	1288.17
362.09	1331.18
362.30	1286.12
362.51	1294.32
362.72	1298.41
362.93	1255.40
363.14	1304.56
363.35	1173.49
363.56	1302.51
363.78	1216.49
363.99	1249.26
364.20	1304.56
364.41	1241.07
364.62	1257.45
364.83	1279.98
365.04	1339.37
365.25	1214.45
365.46	1286.12
365.67	1279.98
365.88	1286.12
366.09	1273.84
366.30	1333.23
366.51	1308.65
366.72	1261.55
366.93	1298.41
367.14	1236.97
367.35	1312.75
367.56	1243.12
367.77	1331.18
367.98	1198.06
368.18	1273.84
368.39	1325.04
368.60	1288.17
368.81	1214.45
369.02	1253.36
369.23	1228.78
369.44	1259.50
369.65	1210.35
369.86	1308.65
370.07	1298.41
370.28	1234.93
370.49	1243.12
370.70	1271.79
370.91	1273.84
371.12	1294.32
371.33	1267.69
371.54	1279.98
371.75	1253.36
371.96	1247.21
372.17	1269.74
372.38	1218.54
372.59	1314.80
372.80	1253.36
373.01	1331.18
373.22	1253.36
373.43	1288.17
373.64	1275.88
373.85	1290.22
374.06	1236.97
374.26	1290.22
374.47	1290.22
374.68	1265.64
374.89	1253.36
375.10	1333.23
375.31	1191.92
375.52	1333.23
375.73	1257.45
375.94	1224.69
376.15	1279.98
376.36	1208.30
376.57	1286.12
376.78	1279.98
376.99	1206.25
377.20	1245.16
377.40	1273.84
377.61	1306.60
377.82	1271.79
378.03	1243.12
378.24	1294.32
378.45	1263.60
378.66	1284.08
378.87	1253.36
379.08	1214.45
379.29	1288.17
379.50	1255.40
379.71	1269.74
379.91	1208.30
380.12	1261.55
380.33	1222.64
380.54	1267.69
380.75	1380.33
380.96	1265.64
381.17	1310.70
381.38	1257.45
381.59	1302.51
381.80	1249.26
382.00	1300.46
382.21	1302.51
382.42	1310.70
382.63	1327.08
382.84	1296.36
383.05	1304.56
383.26	1275.88
383.47	1226.73
383.68	1218.54
383.88	1230.83
384.09	1269.74
384.30	1316.84
384.51	1247.21
384.72	1290.22
384.93	1296.36
385.14	1249.26
385.35	1236.97
385.55	1308.65
385.76	1331.18
385.97	1261.55
386.18	1273.84
386.39	1222.64
386.60	1216.49
386.81	1196.01
387.02	1249.26
387.22	1298.41
387.43	1259.50
387.64	1273.84
387.85	1265.64
388.06	1261.55
388.27	1339.37
388.48	1232.88
388.68	1273.84
388.89	1202.16
389.10	1206.25
389.31	1282.03
389.52	1212.40
389.73	1318.89
389.93	1314.80
390.14	1234.93
390.35	1228.78
390.56	1339.37
390.77	1263.60
390.98	1312.75
391.18	1234.93
391.39	1277.93
391.60	1284.08
391.81	1290.22
392.02	1257.45
392.23	1257.45
392.43	1214.45
392.64	1245.16
392.85	1296.36
393.06	1320.94
393.27	1247.21
393.47	1296.36
393.68	1247.21
393.89	1212.40
394.10	1331.18
394.31	1202.16
394.52	1282.03
394.72	1267.69
394.93	1275.88
395.14	1214.45
395.35	1200.11
395.56	1243.12
395.76	1249.26
395.97	1296.36
396.18	1251.31
396.39	1314.80
396.60	1282.03
396.80	1279.98
397.01	1232.88
397.22	1191.92
397.43	1337.32
397.64	1220.59
397.84	1300.46
398.05	1224.69
398.26	1327.08
398.47	1206.25
398.67	1249.26
398.88	1255.40
399.09	1343.47
399.30	1263.60
399.51	1191.92
399.71	1284.08
399.92	1169.39
400.13	1247.21
400.34	1251.31
400.54	1232.88
400.75	1378.28
400.96	1298.41
401.17	1202.16
401.37	1288.17
401.58	1290.22
401.79	1288.17
402.00	1296.36
402.21	1306.60
402.41	1249.26
402.62	1220.59
402.83	1290.22
403.04	1212.40
403.24	1224.69
403.45	1206.25
403.66	1200.11
403.87	1249.26
404.07	1314.80
404.28	1282.03
404.49	1277.93
404.70	1292.27
404.90	1234.93
405.11	1251.31
405.32	1320.94
405.52	1322.99
405.73	1265.64
405.94	1316.84
406.15	1245.16
406.35	1314.80
406.56	1263.60
406.77	1241.07
406.98	1273.84
407.18	1189.87
407.39	1249.26
407.60	1236.97
407.80	1206.25
408.01	1251.31
408.22	1308.65
408.43	1249.26
408.63	1353.71
408.84	1230.83
409.05	1251.31
409.25	1275.88
409.46	1277.93
409.67	1294.32
409.88	1234.93
410.08	1318.89
410.29	1222.64
410.50	1284.08
410.70	1322.99
410.91	1239.02
411.12	1306.60
411.32	1282.03
411.53	1218.54
411.74	1255.40
411.95	1290.22
412.15	1214.45
412.36	1298.41
412.57	1234.93
412.77	1267.69
412.98	1269.74
413.19	1241.07
413.39	1296.36
413.60	1220.59
413.81	1279.98
414.01	1282.03
414.22	1275.88
414.43	1269.74
414.63	1267.69
414.84	1265.64
415.05	1284.08
415.25	1345.52
415.46	1351.66
415.67	1292.27
415.87	1208.30
416.08	1306.60
416.29	1275.88
416.49	1255.40
416.70	1230.83
416.91	1314.80
417.11	1279.98
417.32	1290.22
417.53	1312.75
417.73	1222.64
417.94	1263.60
418.15	1327.08
418.35	1267.69
418.56	1296.36
418.77	1284.08
418.97	1288.17
419.18	1361.90
419.38	1273.84
419.59	1290.22
419.80	1236.97
420.00	1214.45
420.21	1331.18
420.42	1300.46
420.62	1183.73
420.83	1251.31
421.04	1218.54
421.24	1269.74
421.45	1243.12
421.65	1271.79
421.86	1216.49
422.07	1261.55
422.27	1251.31
422.48	1263.60
422.69	1298.41
422.89	1273.84
423.10	1249.26
423.30	1357.80
423.51	1255.40
423.72	1249.26
423.92	1265.64
424.13	1253.36
424.33	1279.98
424.54	1257.45
424.75	1290.22
424.95	1249.26
425.16	1312.75
425.36	1286.12
425.57	1261.55
425.78	1302.51
425.98	1279.98
426.19	1288.17
426.39	1286.12
426.60	1263.60
426.81	1296.36
427.01	1284.08
427.22	1279.98
427.42	1245.16
427.63	1222.64
427.83	1236.97
428.04	1347.56
428.25	1228.78
428.45	1265.64
428.66	1245.16
428.86	1271.79
429.07	1282.03
429.28	1327.08
429.48	1220.59
429.69	1271.79
429.89	1265.64
430.10	1361.90
430.30	1302.51
430.51	1337.32
430.71	1249.26
430.92	1249.26
431.13	1282.03
431.33	1220.59
431.54	1232.88
431.74	1318.89
431.95	1249.26
432.15	1263.60
432.36	1267.69
432.56	1279.98
432.77	1234.93
432.98	1255.40
433.18	1308.65
433.39	1341.42
433.59	1198.06
433.80	1329.13
434.00	1224.69
434.21	1206.25
434.41	1255.40
434.62	1202.16
434.82	1243.12
435.03	1249.26
435.23	1277.93
435.44	1263.60
435.64	1275.88
435.85	1322.99
436.06	1253.36
436.26	1269.74
436.47	1318.89
436.67	1300.46
436.88	1247.21
437.08	1333.23
437.29	1202.16
437.49	1306.60
437.70	1216.49
437.90	1279.98
438.11	1339.37
438.31	1255.40
438.52	1279.98
438.72	1247.21
438.93	1261.55
439.13	1288.17
439.34	1255.40
439.54	1230.83
439.75	1200.11
439.95	1302.51
440.16	1298.41
440.36	1259.50
440.57	1335.28
440.77	1282.03
440.98	1282.03
441.18	1259.50
441.39	1243.12
441.59	1218.54
441.80	1302.51
442.00	1249.26
442.21	1320.94
442.41	1284.08
442.62	1298.41
442.82	1288.17
443.02	1322.99
443.23	1277.93
443.43	1247.21
443.64	1325.04
443.84	1370.09
444.05	1318.89
444.25	1331.18
444.46	1265.64
444.66	1296.36
444.87	1277.93
445.07	1277.93
445.28	1302.51
445.48	1218.54
445.69	1259.50
445.89	1230.83
446.09	1236.97
446.30	1279.98
446.50	1290.22
446.71	1296.36
446.91	1318.89
447.12	1271.79
447.32	1267.69
447.53	1234.93
447.73	1241.07
447.93	1314.80
448.14	1271.79
448.34	1259.50
448.55	1243.12
448.75	1224.69
448.96	1208.30
449.16	1239.02
449.36	1312.75
449.57	1273.84
449.77	1269.74
449.98	1230.83
450.18	1282.03
450.39	1310.70
450.59	1265.64
450.79	1312.75
451.00	1275.88
451.20	1269.74
451.41	1279.98
451.61	1232.88
451.81	1298.41
452.02	1339.37
452.22	1322.99
452.43	1282.03
452.63	1296.36
