SpectraSuite Data File
++++++++++++++++++++++++++++++++++++
Date: Sun Apr 03 19:55:23 CEST 2016
User: root
Dark Spectrum Present: No
Reference Spectrum Present: No
Number of Sampled Component Spectra: 1
Spectrometers: USB4C02835
Integration Time (usec): 10000 (USB4C02835)
Spectra Averaged: 1 (USB4C02835)
Boxcar Smoothing: 0 (USB4C02835)
Correct for Electrical Dark: No (USB4C02835)
Strobe/Lamp Enabled: No (USB4C02835)
Correct for Detector Non-linearity: No (USB4C02835)
Correct for Stray Light: No (USB4C02835)
Number of Pixels in Processed Spectrum: 3648
>>>>>Begin Processed Spectral Data<<<<<
177.47	1310.70
177.69	1310.70
177.91	1310.70
178.13	1361.90
178.36	1300.46
178.58	1226.73
178.80	1275.88
179.02	1284.08
179.24	1279.98
179.46	1206.25
179.68	1220.59
179.90	1210.35
180.13	1220.59
180.35	1169.39
180.57	1288.17
180.79	1257.45
181.01	1232.88
181.23	1177.58
181.45	1316.84
181.67	1312.75
181.90	1257.45
182.12	1288.17
182.34	1298.41
182.56	1230.83
182.78	1232.88
183.00	1214.45
183.22	1222.64
183.44	1277.93
183.66	1241.07
183.89	1277.93
184.11	1257.45
184.33	1282.03
184.55	1265.64
184.77	1331.18
184.99	1284.08
185.21	1247.21
185.43	1298.41
185.65	1267.69
185.87	1298.41
186.10	1206.25
186.32	1241.07
186.54	1308.65
186.76	1304.56
186.98	1286.12
187.20	1265.64
187.42	1236.97
187.64	1304.56
187.86	1167.34
188.08	1206.25
188.30	1216.49
188.52	1269.74
188.75	1302.51
188.97	1230.83
189.19	1230.83
189.41	1273.84
189.63	1290.22
189.85	1249.26
190.07	1212.40
190.29	1228.78
190.51	1286.12
190.73	1232.88
190.95	1284.08
191.17	1271.79
191.39	1224.69
191.61	1279.98
191.84	1314.80
192.06	1292.27
192.28	1263.60
192.50	1294.32
192.72	1224.69
192.94	1265.64
193.16	1241.07
193.38	1316.84
193.60	1234.93
193.82	1322.99
194.04	1300.46
194.26	1284.08
194.48	1236.97
194.70	1302.51
194.92	1302.51
195.14	1191.92
195.36	1245.16
195.58	1292.27
195.80	1228.78
196.02	1249.26
196.24	1339.37
196.46	1329.13
196.69	1329.13
196.91	1257.45
197.13	1251.31
197.35	1288.17
197.57	1269.74
197.79	1247.21
198.01	1251.31
198.23	1234.93
198.45	1243.12
198.67	1310.70
198.89	1327.08
199.11	1288.17
199.33	1286.12
199.55	1187.82
199.77	1296.36
199.99	1288.17
200.21	1320.94
200.43	1296.36
200.65	1255.40
200.87	1226.73
201.09	1228.78
201.31	1208.30
201.53	1269.74
201.75	1345.52
201.97	1310.70
202.19	1222.64
202.41	1200.11
202.63	1376.24
202.85	1230.83
203.07	1325.04
203.29	1230.83
203.51	1232.88
203.73	1253.36
203.95	1345.52
204.17	1259.50
204.39	1300.46
204.61	1245.16
204.83	1263.60
205.05	1298.41
205.27	1322.99
205.49	1228.78
205.71	1198.06
205.93	1308.65
206.15	1273.84
206.37	1314.80
206.59	1390.57
206.81	1257.45
207.03	1275.88
207.25	1290.22
207.47	1257.45
207.69	1261.55
207.91	1249.26
208.13	1327.08
208.34	1320.94
208.56	1249.26
208.78	1277.93
209.00	1224.69
209.22	1236.97
209.44	1210.35
209.66	1230.83
209.88	1304.56
210.10	1241.07
210.32	1290.22
210.54	1196.01
210.76	1228.78
210.98	1308.65
211.20	1296.36
211.42	1247.21
211.64	1282.03
211.86	1304.56
212.08	1232.88
212.30	1245.16
212.52	1251.31
212.74	1316.84
212.96	1304.56
213.17	1245.16
213.39	1243.12
213.61	1294.32
213.83	1288.17
214.05	1284.08
214.27	1236.97
214.49	1294.32
214.71	1337.32
214.93	1255.40
215.15	1220.59
215.37	1273.84
215.59	1232.88
215.81	1345.52
216.03	1265.64
216.24	1292.27
216.46	1394.67
216.68	1288.17
216.90	1310.70
217.12	1239.02
217.34	1214.45
217.56	1302.51
217.78	1269.74
218.00	1284.08
218.22	1265.64
218.44	1298.41
218.66	1171.44
218.87	1290.22
219.09	1236.97
219.31	1325.04
219.53	1310.70
219.75	1243.12
219.97	1138.67
220.19	1310.70
220.41	1284.08
220.63	1263.60
220.85	1226.73
221.06	1220.59
221.28	1249.26
221.50	1249.26
221.72	1175.53
221.94	1312.75
222.16	1275.88
222.38	1269.74
222.60	1329.13
222.82	1234.93
223.03	1308.65
223.25	1325.04
223.47	1296.36
223.69	1259.50
223.91	1273.84
224.13	1279.98
224.35	1296.36
224.57	1267.69
224.78	1279.98
225.00	1265.64
225.22	1228.78
225.44	1277.93
225.66	1279.98
225.88	1282.03
226.10	1257.45
226.32	1210.35
226.53	1288.17
226.75	1347.56
226.97	1273.84
227.19	1279.98
227.41	1189.87
227.63	1353.71
227.85	1210.35
228.06	1306.60
228.28	1300.46
228.50	1361.90
228.72	1247.21
228.94	1288.17
229.16	1249.26
229.37	1253.36
229.59	1345.52
229.81	1304.56
230.03	1245.16
230.25	1263.60
230.47	1261.55
230.69	1216.49
230.90	1345.52
231.12	1226.73
231.34	1271.79
231.56	1214.45
231.78	1198.06
232.00	1288.17
232.21	1191.92
232.43	1206.25
232.65	1239.02
232.87	1298.41
233.09	1224.69
233.30	1282.03
233.52	1251.31
233.74	1198.06
233.96	1310.70
234.18	1335.28
234.40	1234.93
234.61	1271.79
234.83	1267.69
235.05	1306.60
235.27	1222.64
235.49	1208.30
235.70	1263.60
235.92	1253.36
236.14	1222.64
236.36	1294.32
236.58	1316.84
236.79	1306.60
237.01	1230.83
237.23	1247.21
237.45	1230.83
237.67	1255.40
237.88	1296.36
238.10	1298.41
238.32	1325.04
238.54	1290.22
238.76	1269.74
238.97	1251.31
239.19	1279.98
239.41	1351.66
239.63	1318.89
239.85	1216.49
240.06	1249.26
240.28	1282.03
240.50	1292.27
240.72	1329.13
240.93	1257.45
241.15	1259.50
241.37	1282.03
241.59	1255.40
241.81	1222.64
242.02	1279.98
242.24	1222.64
242.46	1236.97
242.68	1284.08
242.89	1320.94
243.11	1329.13
243.33	1263.60
243.55	1218.54
243.76	1216.49
243.98	1372.14
244.20	1298.41
244.42	1300.46
244.64	1279.98
244.85	1253.36
245.07	1265.64
245.29	1277.93
245.51	1339.37
245.72	1302.51
245.94	1335.28
246.16	1273.84
246.38	1241.07
246.59	1216.49
246.81	1316.84
247.03	1261.55
247.24	1259.50
247.46	1269.74
247.68	1245.16
247.90	1314.80
248.11	1292.27
248.33	1312.75
248.55	1212.40
248.77	1218.54
248.98	1263.60
249.20	1267.69
249.42	1318.89
249.64	1339.37
249.85	1208.30
250.07	1241.07
250.29	1341.42
250.50	1282.03
250.72	1232.88
250.94	1294.32
251.16	1298.41
251.37	1314.80
251.59	1284.08
251.81	1357.80
252.02	1286.12
252.24	1271.79
252.46	1322.99
252.68	1253.36
252.89	1300.46
253.11	1298.41
253.33	1210.35
253.54	1241.07
253.76	1288.17
253.98	1306.60
254.20	1273.84
254.41	1234.93
254.63	1286.12
254.85	1234.93
255.06	1269.74
255.28	1239.02
255.50	1208.30
255.71	1236.97
255.93	1249.26
256.15	1267.69
256.36	1243.12
256.58	1282.03
256.80	1322.99
257.02	1273.84
257.23	1222.64
257.45	1327.08
257.67	1351.66
257.88	1294.32
258.10	1331.18
258.32	1284.08
258.53	1290.22
258.75	1216.49
258.97	1269.74
259.18	1279.98
259.40	1251.31
259.62	1247.21
259.83	1247.21
260.05	1282.03
260.27	1294.32
260.48	1271.79
260.70	1255.40
260.92	1210.35
261.13	1282.03
261.35	1288.17
261.57	1189.87
261.78	1279.98
262.00	1232.88
262.22	1214.45
262.43	1304.56
262.65	1288.17
262.86	1267.69
263.08	1200.11
263.30	1294.32
263.51	1363.95
263.73	1243.12
263.95	1230.83
264.16	1255.40
264.38	1282.03
264.60	1296.36
264.81	1247.21
265.03	1286.12
265.25	1290.22
265.46	1249.26
265.68	1243.12
265.89	1296.36
266.11	1255.40
266.33	1239.02
266.54	1263.60
266.76	1296.36
266.98	1331.18
267.19	1146.86
267.41	1253.36
267.62	1243.12
267.84	1290.22
268.06	1253.36
268.27	1241.07
268.49	1263.60
268.70	1222.64
268.92	1263.60
269.14	1245.16
269.35	1241.07
269.57	1224.69
269.79	1216.49
270.00	1191.92
270.22	1286.12
270.43	1259.50
270.65	1241.07
270.87	1296.36
271.08	1288.17
271.30	1247.21
271.51	1269.74
271.73	1253.36
271.95	1325.04
272.16	1267.69
272.38	1253.36
272.59	1236.97
272.81	1302.51
273.02	1148.91
273.24	1316.84
273.46	1308.65
273.67	1265.64
273.89	1236.97
274.10	1220.59
274.32	1228.78
274.54	1239.02
274.75	1253.36
274.97	1314.80
275.18	1298.41
275.40	1335.28
275.61	1241.07
275.83	1247.21
276.05	1298.41
276.26	1300.46
276.48	1282.03
276.69	1226.73
276.91	1245.16
277.12	1251.31
277.34	1271.79
277.55	1314.80
277.77	1308.65
277.99	1249.26
278.20	1359.85
278.42	1220.59
278.63	1316.84
278.85	1253.36
279.06	1239.02
279.28	1343.47
279.49	1224.69
279.71	1243.12
279.93	1302.51
280.14	1257.45
280.36	1245.16
280.57	1322.99
280.79	1294.32
281.00	1198.06
281.22	1241.07
281.43	1314.80
281.65	1200.11
281.86	1214.45
282.08	1243.12
282.29	1277.93
282.51	1245.16
282.73	1302.51
282.94	1224.69
283.16	1341.42
283.37	1241.07
283.59	1206.25
283.80	1269.74
284.02	1339.37
284.23	1343.47
284.45	1275.88
284.66	1284.08
284.88	1347.56
285.09	1200.11
285.31	1363.95
285.52	1267.69
285.74	1273.84
285.95	1232.88
286.17	1257.45
286.38	1322.99
286.60	1304.56
286.81	1202.16
287.03	1302.51
287.24	1298.41
287.46	1243.12
287.67	1292.27
287.89	1271.79
288.10	1253.36
288.32	1253.36
288.53	1327.08
288.75	1267.69
288.96	1198.06
289.18	1265.64
289.39	1216.49
289.61	1273.84
289.82	1275.88
290.04	1265.64
290.25	1308.65
290.47	1259.50
290.68	1265.64
290.90	1308.65
291.11	1259.50
291.33	1318.89
291.54	1263.60
291.76	1214.45
291.97	1247.21
292.18	1288.17
292.40	1277.93
292.61	1236.97
292.83	1279.98
293.04	1265.64
293.26	1206.25
293.47	1279.98
293.69	1214.45
293.90	1269.74
294.12	1275.88
294.33	1314.80
294.55	1288.17
294.76	1265.64
294.97	1243.12
295.19	1306.60
295.40	1282.03
295.62	1191.92
295.83	1302.51
296.05	1216.49
296.26	1312.75
296.48	1245.16
296.69	1298.41
296.90	1339.37
297.12	1288.17
297.33	1288.17
297.55	1282.03
297.76	1214.45
297.98	1296.36
298.19	1239.02
298.41	1282.03
298.62	1302.51
298.83	1247.21
299.05	1259.50
299.26	1329.13
299.48	1206.25
299.69	1241.07
299.90	1259.50
300.12	1236.97
300.33	1347.56
300.55	1320.94
300.76	1331.18
300.98	1239.02
301.19	1308.65
301.40	1230.83
301.62	1251.31
301.83	1282.03
302.05	1232.88
302.26	1181.68
302.47	1282.03
302.69	1318.89
302.90	1298.41
303.12	1261.55
303.33	1337.32
303.54	1218.54
303.76	1267.69
303.97	1298.41
304.19	1304.56
304.40	1259.50
304.61	1343.47
304.83	1261.55
305.04	1345.52
305.26	1290.22
305.47	1181.68
305.68	1253.36
305.90	1230.83
306.11	1206.25
306.33	1325.04
306.54	1257.45
306.75	1353.71
306.97	1236.97
307.18	1290.22
307.39	1363.95
307.61	1292.27
307.82	1331.18
308.04	1300.46
308.25	1249.26
308.46	1259.50
308.68	1257.45
308.89	1269.74
309.10	1286.12
309.32	1279.98
309.53	1353.71
309.74	1202.16
309.96	1259.50
310.17	1218.54
310.39	1292.27
310.60	1288.17
310.81	1265.64
311.03	1269.74
311.24	1310.70
311.45	1255.40
311.67	1308.65
311.88	1273.84
312.09	1257.45
312.31	1265.64
312.52	1148.91
312.73	1333.23
312.95	1220.59
313.16	1275.88
313.37	1284.08
313.59	1279.98
313.80	1290.22
314.01	1241.07
314.23	1148.91
314.44	1259.50
314.65	1234.93
314.87	1273.84
315.08	1286.12
315.29	1249.26
315.51	1236.97
315.72	1271.79
315.93	1212.40
316.15	1355.76
316.36	1284.08
316.57	1269.74
316.79	1269.74
317.00	1296.36
317.21	1265.64
317.43	1214.45
317.64	1351.66
317.85	1322.99
318.07	1251.31
318.28	1310.70
318.49	1304.56
318.70	1329.13
318.92	1249.26
319.13	1243.12
319.34	1337.32
319.56	1265.64
319.77	1226.73
319.98	1269.74
320.20	1257.45
320.41	1239.02
320.62	1304.56
320.83	1300.46
321.05	1361.90
321.26	1247.21
321.47	1308.65
321.69	1325.04
321.90	1310.70
322.11	1214.45
322.32	1228.78
322.54	1282.03
322.75	1247.21
322.96	1304.56
323.18	1255.40
323.39	1288.17
323.60	1257.45
323.81	1286.12
324.03	1245.16
324.24	1228.78
324.45	1271.79
324.66	1296.36
324.88	1234.93
325.09	1329.13
325.30	1234.93
325.52	1261.55
325.73	1218.54
325.94	1314.80
326.15	1212.40
326.37	1161.20
326.58	1271.79
326.79	1282.03
327.00	1308.65
327.22	1234.93
327.43	1155.05
327.64	1312.75
327.85	1265.64
328.07	1292.27
328.28	1345.52
328.49	1265.64
328.70	1329.13
328.92	1329.13
329.13	1322.99
329.34	1306.60
329.55	1282.03
329.76	1224.69
329.98	1196.01
330.19	1282.03
330.40	1300.46
330.61	1191.92
330.83	1261.55
331.04	1282.03
331.25	1333.23
331.46	1269.74
331.68	1308.65
331.89	1247.21
332.10	1275.88
332.31	1322.99
332.52	1300.46
332.74	1277.93
332.95	1234.93
333.16	1298.41
333.37	1265.64
333.58	1232.88
333.80	1253.36
334.01	1214.45
334.22	1247.21
334.43	1269.74
334.64	1181.68
334.86	1290.22
335.07	1265.64
335.28	1273.84
335.49	1257.45
335.70	1306.60
335.92	1261.55
336.13	1335.28
336.34	1255.40
336.55	1345.52
336.76	1247.21
336.98	1322.99
337.19	1290.22
337.40	1339.37
337.61	1273.84
337.82	1298.41
338.04	1245.16
338.25	1259.50
338.46	1314.80
338.67	1339.37
338.88	1230.83
339.09	1251.31
339.31	1251.31
339.52	1239.02
339.73	1247.21
339.94	1261.55
340.15	1265.64
340.36	1329.13
340.58	1200.11
340.79	1296.36
341.00	1298.41
341.21	1220.59
341.42	1243.12
341.63	1308.65
341.85	1347.56
342.06	1286.12
342.27	1273.84
342.48	1290.22
342.69	1224.69
342.90	1294.32
343.12	1243.12
343.33	1210.35
343.54	1310.70
343.75	1271.79
343.96	1226.73
344.17	1325.04
344.38	1251.31
344.60	1263.60
344.81	1210.35
345.02	1277.93
345.23	1345.52
345.44	1255.40
345.65	1273.84
345.86	1322.99
346.07	1241.07
346.29	1245.16
346.50	1236.97
346.71	1310.70
346.92	1320.94
347.13	1343.47
347.34	1259.50
347.55	1208.30
347.76	1171.44
347.98	1257.45
348.19	1271.79
348.40	1300.46
348.61	1251.31
348.82	1267.69
349.03	1234.93
349.24	1282.03
349.45	1277.93
349.66	1253.36
349.88	1241.07
350.09	1290.22
350.30	1320.94
350.51	1269.74
350.72	1265.64
350.93	1304.56
351.14	1226.73
351.35	1298.41
351.56	1296.36
351.77	1271.79
351.99	1284.08
352.20	1255.40
352.41	1282.03
352.62	1243.12
352.83	1286.12
353.04	1306.60
353.25	1333.23
353.46	1249.26
353.67	1310.70
353.88	1171.44
354.09	1179.63
354.30	1228.78
354.52	1257.45
354.73	1263.60
354.94	1253.36
355.15	1345.52
355.36	1277.93
355.57	1259.50
355.78	1259.50
355.99	1208.30
356.20	1275.88
356.41	1271.79
356.62	1245.16
356.83	1255.40
357.04	1214.45
357.25	1265.64
357.46	1263.60
357.68	1290.22
357.89	1312.75
358.10	1312.75
358.31	1200.11
358.52	1292.27
358.73	1251.31
358.94	1290.22
359.15	1312.75
359.36	1302.51
359.57	1251.31
359.78	1261.55
359.99	1273.84
360.20	1325.04
360.41	1230.83
360.62	1200.11
360.83	1175.53
361.04	1181.68
361.25	1279.98
361.46	1263.60
361.67	1263.60
361.88	1241.07
362.09	1271.79
362.30	1314.80
362.51	1259.50
362.72	1230.83
362.93	1263.60
363.14	1345.52
363.35	1298.41
363.56	1269.74
363.78	1222.64
363.99	1206.25
364.20	1249.26
364.41	1267.69
364.62	1347.56
364.83	1216.49
365.04	1259.50
365.25	1241.07
365.46	1214.45
365.67	1216.49
365.88	1271.79
366.09	1286.12
366.30	1257.45
366.51	1249.26
366.72	1249.26
366.93	1232.88
367.14	1232.88
367.35	1370.09
367.56	1228.78
367.77	1372.14
367.98	1243.12
368.18	1277.93
368.39	1271.79
368.60	1271.79
368.81	1294.32
369.02	1259.50
369.23	1275.88
369.44	1222.64
369.65	1249.26
369.86	1327.08
370.07	1273.84
370.28	1247.21
370.49	1327.08
370.70	1335.28
370.91	1228.78
371.12	1251.31
371.33	1290.22
371.54	1279.98
371.75	1314.80
371.96	1241.07
372.17	1189.87
372.38	1327.08
372.59	1222.64
372.80	1275.88
373.01	1226.73
373.22	1224.69
373.43	1286.12
373.64	1304.56
373.85	1294.32
374.06	1339.37
374.26	1222.64
374.47	1279.98
374.68	1243.12
374.89	1261.55
375.10	1286.12
375.31	1269.74
375.52	1224.69
375.73	1269.74
375.94	1286.12
376.15	1288.17
376.36	1279.98
376.57	1267.69
376.78	1286.12
376.99	1222.64
377.20	1282.03
377.40	1253.36
377.61	1206.25
377.82	1200.11
378.03	1304.56
378.24	1230.83
378.45	1251.31
378.66	1275.88
378.87	1269.74
379.08	1271.79
379.29	1263.60
379.50	1310.70
379.71	1294.32
379.91	1241.07
380.12	1222.64
380.33	1286.12
380.54	1247.21
380.75	1298.41
380.96	1220.59
381.17	1261.55
381.38	1218.54
381.59	1228.78
381.80	1265.64
382.00	1222.64
382.21	1331.18
382.42	1288.17
382.63	1204.21
382.84	1222.64
383.05	1288.17
383.26	1273.84
383.47	1218.54
383.68	1314.80
383.88	1259.50
384.09	1296.36
384.30	1284.08
384.51	1259.50
384.72	1286.12
384.93	1247.21
385.14	1265.64
385.35	1298.41
385.55	1249.26
385.76	1359.85
385.97	1271.79
386.18	1286.12
386.39	1255.40
386.60	1257.45
386.81	1247.21
387.02	1239.02
387.22	1294.32
387.43	1245.16
387.64	1269.74
387.85	1327.08
388.06	1232.88
388.27	1279.98
388.48	1275.88
388.68	1247.21
388.89	1277.93
389.10	1306.60
389.31	1265.64
389.52	1282.03
389.73	1228.78
389.93	1284.08
390.14	1275.88
390.35	1271.79
390.56	1232.88
390.77	1249.26
390.98	1339.37
391.18	1236.97
391.39	1204.21
391.60	1318.89
391.81	1267.69
392.02	1294.32
392.23	1275.88
392.43	1251.31
392.64	1294.32
392.85	1282.03
393.06	1290.22
393.27	1337.32
393.47	1234.93
393.68	1277.93
393.89	1216.49
394.10	1263.60
394.31	1230.83
394.52	1282.03
394.72	1189.87
394.93	1198.06
395.14	1267.69
395.35	1341.42
395.56	1257.45
395.76	1261.55
395.97	1300.46
396.18	1226.73
396.39	1257.45
396.60	1228.78
396.80	1222.64
397.01	1296.36
397.22	1230.83
397.43	1222.64
397.64	1292.27
397.84	1286.12
398.05	1296.36
398.26	1232.88
398.47	1288.17
398.67	1265.64
398.88	1318.89
399.09	1243.12
399.30	1198.06
399.51	1253.36
399.71	1318.89
399.92	1216.49
400.13	1202.16
400.34	1277.93
400.54	1232.88
400.75	1271.79
400.96	1339.37
401.17	1206.25
401.37	1318.89
401.58	1232.88
401.79	1288.17
402.00	1257.45
402.21	1294.32
402.41	1200.11
402.62	1292.27
402.83	1236.97
403.04	1302.51
403.24	1257.45
403.45	1271.79
403.66	1300.46
403.87	1306.60
404.07	1269.74
404.28	1341.42
404.49	1271.79
404.70	1267.69
404.90	1329.13
405.11	1277.93
405.32	1255.40
405.52	1363.95
405.73	1298.41
405.94	1327.08
406.15	1226.73
406.35	1241.07
406.56	1279.98
406.77	1212.40
406.98	1282.03
407.18	1312.75
407.39	1159.15
407.60	1255.40
407.80	1300.46
408.01	1279.98
408.22	1308.65
408.43	1155.05
408.63	1288.17
408.84	1226.73
409.05	1279.98
409.25	1239.02
409.46	1222.64
409.67	1316.84
409.88	1304.56
410.08	1257.45
410.29	1249.26
410.50	1327.08
410.70	1331.18
410.91	1222.64
411.12	1253.36
411.32	1290.22
411.53	1314.80
411.74	1277.93
411.95	1265.64
412.15	1286.12
412.36	1226.73
412.57	1202.16
412.77	1249.26
412.98	1282.03
413.19	1288.17
413.39	1322.99
413.60	1247.21
413.81	1290.22
414.01	1286.12
414.22	1255.40
414.43	1265.64
414.63	1275.88
414.84	1204.21
415.05	1329.13
415.25	1271.79
415.46	1314.80
415.67	1286.12
415.87	1259.50
416.08	1292.27
416.29	1271.79
416.49	1320.94
416.70	1200.11
416.91	1273.84
417.11	1220.59
417.32	1265.64
417.53	1183.73
417.73	1232.88
417.94	1230.83
418.15	1249.26
418.35	1243.12
418.56	1284.08
418.77	1316.84
418.97	1265.64
419.18	1232.88
419.38	1298.41
419.59	1275.88
419.80	1290.22
420.00	1275.88
420.21	1251.31
420.42	1316.84
420.62	1292.27
420.83	1249.26
421.04	1316.84
421.24	1198.06
421.45	1361.90
421.65	1308.65
421.86	1269.74
422.07	1275.88
422.27	1304.56
422.48	1292.27
422.69	1224.69
422.89	1277.93
423.10	1263.60
423.30	1206.25
423.51	1228.78
423.72	1353.71
423.92	1226.73
424.13	1257.45
424.33	1288.17
424.54	1277.93
424.75	1275.88
424.95	1228.78
425.16	1277.93
425.36	1236.97
425.57	1259.50
425.78	1245.16
425.98	1259.50
426.19	1314.80
426.39	1220.59
426.60	1318.89
426.81	1271.79
427.01	1232.88
427.22	1216.49
427.42	1286.12
427.63	1253.36
427.83	1249.26
428.04	1234.93
428.25	1253.36
428.45	1214.45
428.66	1232.88
428.86	1255.40
429.07	1310.70
429.28	1263.60
429.48	1255.40
429.69	1255.40
429.89	1247.21
430.10	1222.64
430.30	1269.74
430.51	1316.84
430.71	1284.08
430.92	1288.17
431.13	1298.41
431.33	1257.45
431.54	1234.93
431.74	1267.69
431.95	1212.40
432.15	1275.88
432.36	1306.60
432.56	1320.94
432.77	1265.64
432.98	1232.88
433.18	1267.69
433.39	1222.64
433.59	1222.64
433.80	1267.69
434.00	1218.54
434.21	1183.73
434.41	1245.16
434.62	1243.12
434.82	1236.97
435.03	1249.26
435.23	1243.12
435.44	1267.69
435.64	1290.22
435.85	1308.65
436.06	1286.12
436.26	1306.60
436.47	1292.27
436.67	1269.74
436.88	1302.51
437.08	1275.88
437.29	1265.64
437.49	1234.93
437.70	1275.88
437.90	1329.13
438.11	1214.45
438.31	1339.37
438.52	1257.45
438.72	1286.12
438.93	1273.84
439.13	1343.47
439.34	1294.32
439.54	1329.13
439.75	1265.64
439.95	1255.40
440.16	1251.31
440.36	1245.16
440.57	1239.02
440.77	1304.56
440.98	1271.79
441.18	1282.03
441.39	1224.69
441.59	1247.21
441.80	1269.74
442.00	1294.32
442.21	1224.69
442.41	1282.03
442.62	1296.36
442.82	1279.98
443.02	1228.78
443.23	1212.40
443.43	1255.40
443.64	1259.50
443.84	1241.07
444.05	1212.40
444.25	1198.06
444.46	1314.80
444.66	1245.16
444.87	1282.03
445.07	1335.28
445.28	1247.21
445.48	1312.75
445.69	1257.45
445.89	1261.55
446.09	1292.27
446.30	1349.61
446.50	1306.60
446.71	1241.07
446.91	1296.36
447.12	1247.21
447.32	1284.08
447.53	1257.45
447.73	1236.97
447.93	1273.84
448.14	1271.79
448.34	1304.56
448.55	1304.56
448.75	1234.93
448.96	1247.21
449.16	1284.08
449.36	1277.93
449.57	1265.64
449.77	1331.18
449.98	1288.17
450.18	1279.98
450.39	1290.22
450.59	1320.94
450.79	1243.12
451.00	1306.60
451.20	1282.03
451.41	1322.99
451.61	1253.36
451.81	1273.84
452.02	1294.32
452.22	1241.07
452.43	1290.22
452.63	1277.93
