SpectraSuite Data File
++++++++++++++++++++++++++++++++++++
Date: Sun Apr 03 19:55:24 CEST 2016
User: root
Dark Spectrum Present: No
Reference Spectrum Present: No
Number of Sampled Component Spectra: 1
Spectrometers: USB4C02835
Integration Time (usec): 10000 (USB4C02835)
Spectra Averaged: 1 (USB4C02835)
Boxcar Smoothing: 0 (USB4C02835)
Correct for Electrical Dark: No (USB4C02835)
Strobe/Lamp Enabled: No (USB4C02835)
Correct for Detector Non-linearity: No (USB4C02835)
Correct for Stray Light: No (USB4C02835)
Number of Pixels in Processed Spectrum: 3648
>>>>>Begin Processed Spectral Data<<<<<
177.47	1234.93
177.69	1234.93
177.91	1234.93
178.13	1296.36
178.36	1265.64
178.58	1320.94
178.80	1267.69
179.02	1204.21
179.24	1312.75
179.46	1282.03
179.68	1269.74
179.90	1308.65
180.13	1241.07
180.35	1322.99
180.57	1230.83
180.79	1325.04
181.01	1337.32
181.23	1347.56
181.45	1282.03
181.67	1243.12
181.90	1236.97
182.12	1220.59
182.34	1304.56
182.56	1327.08
182.78	1230.83
183.00	1288.17
183.22	1308.65
183.44	1179.63
183.66	1355.76
183.89	1269.74
184.11	1282.03
184.33	1253.36
184.55	1251.31
184.77	1275.88
184.99	1249.26
185.21	1185.77
185.43	1279.98
185.65	1265.64
185.87	1212.40
186.10	1181.68
186.32	1220.59
186.54	1275.88
186.76	1286.12
186.98	1279.98
187.20	1241.07
187.42	1236.97
187.64	1314.80
187.86	1204.21
188.08	1296.36
188.30	1318.89
188.52	1316.84
188.75	1144.81
188.97	1249.26
189.19	1257.45
189.41	1230.83
189.63	1288.17
189.85	1282.03
190.07	1216.49
190.29	1251.31
190.51	1251.31
190.73	1261.55
190.95	1271.79
191.17	1249.26
191.39	1294.32
191.61	1249.26
191.84	1320.94
192.06	1284.08
192.28	1222.64
192.50	1191.92
192.72	1228.78
192.94	1347.56
193.16	1243.12
193.38	1210.35
193.60	1302.51
193.82	1282.03
194.04	1196.01
194.26	1271.79
194.48	1300.46
194.70	1347.56
194.92	1273.84
195.14	1329.13
195.36	1249.26
195.58	1275.88
195.80	1245.16
196.02	1232.88
196.24	1349.61
196.46	1290.22
196.69	1329.13
196.91	1288.17
197.13	1247.21
197.35	1257.45
197.57	1253.36
197.79	1245.16
198.01	1310.70
198.23	1222.64
198.45	1288.17
198.67	1288.17
198.89	1290.22
199.11	1232.88
199.33	1224.69
199.55	1290.22
199.77	1245.16
199.99	1290.22
200.21	1325.04
200.43	1206.25
200.65	1282.03
200.87	1277.93
201.09	1288.17
201.31	1267.69
201.53	1302.51
201.75	1198.06
201.97	1249.26
202.19	1187.82
202.41	1302.51
202.63	1216.49
202.85	1230.83
203.07	1255.40
203.29	1306.60
203.51	1253.36
203.73	1288.17
203.95	1353.71
204.17	1282.03
204.39	1214.45
204.61	1234.93
204.83	1257.45
205.05	1257.45
205.27	1316.84
205.49	1214.45
205.71	1302.51
205.93	1275.88
206.15	1259.50
206.37	1239.02
206.59	1230.83
206.81	1257.45
207.03	1292.27
207.25	1271.79
207.47	1253.36
207.69	1249.26
207.91	1296.36
208.13	1335.28
208.34	1236.97
208.56	1288.17
208.78	1239.02
209.00	1222.64
209.22	1232.88
209.44	1316.84
209.66	1214.45
209.88	1239.02
210.10	1312.75
210.32	1316.84
210.54	1263.60
210.76	1257.45
210.98	1331.18
211.20	1189.87
211.42	1279.98
211.64	1239.02
211.86	1288.17
212.08	1220.59
212.30	1282.03
212.52	1249.26
212.74	1282.03
212.96	1302.51
213.17	1306.60
213.39	1189.87
213.61	1241.07
213.83	1236.97
214.05	1220.59
214.27	1339.37
214.49	1292.27
214.71	1241.07
214.93	1257.45
215.15	1232.88
215.37	1286.12
215.59	1243.12
215.81	1327.08
216.03	1259.50
216.24	1378.28
216.46	1261.55
216.68	1224.69
216.90	1212.40
217.12	1251.31
217.34	1329.13
217.56	1261.55
217.78	1261.55
218.00	1294.32
218.22	1298.41
218.44	1310.70
218.66	1339.37
218.87	1261.55
219.09	1175.53
219.31	1294.32
219.53	1228.78
219.75	1335.28
219.97	1296.36
220.19	1245.16
220.41	1353.71
220.63	1298.41
220.85	1269.74
221.06	1191.92
221.28	1255.40
221.50	1302.51
221.72	1292.27
221.94	1239.02
222.16	1259.50
222.38	1308.65
222.60	1267.69
222.82	1236.97
223.03	1245.16
223.25	1273.84
223.47	1267.69
223.69	1275.88
223.91	1234.93
224.13	1249.26
224.35	1220.59
224.57	1292.27
224.78	1210.35
225.00	1335.28
225.22	1230.83
225.44	1259.50
225.66	1308.65
225.88	1294.32
226.10	1269.74
226.32	1284.08
226.53	1220.59
226.75	1216.49
226.97	1255.40
227.19	1355.76
227.41	1290.22
227.63	1298.41
227.85	1183.73
228.06	1218.54
228.28	1277.93
228.50	1286.12
228.72	1228.78
228.94	1239.02
229.16	1277.93
229.37	1275.88
229.59	1208.30
229.81	1253.36
230.03	1204.21
230.25	1230.83
230.47	1259.50
230.69	1265.64
230.90	1308.65
231.12	1261.55
231.34	1216.49
231.56	1288.17
231.78	1310.70
232.00	1335.28
232.21	1251.31
232.43	1302.51
232.65	1284.08
232.87	1300.46
233.09	1210.35
233.30	1302.51
233.52	1261.55
233.74	1292.27
233.96	1322.99
234.18	1308.65
234.40	1296.36
234.61	1341.42
234.83	1253.36
235.05	1275.88
235.27	1277.93
235.49	1257.45
235.70	1306.60
235.92	1292.27
236.14	1196.01
236.36	1314.80
236.58	1208.30
236.79	1279.98
237.01	1312.75
237.23	1288.17
237.45	1239.02
237.67	1214.45
237.88	1193.97
238.10	1253.36
238.32	1236.97
238.54	1337.32
238.76	1273.84
238.97	1265.64
239.19	1261.55
239.41	1316.84
239.63	1245.16
239.85	1273.84
240.06	1236.97
240.28	1288.17
240.50	1282.03
240.72	1245.16
240.93	1347.56
241.15	1259.50
241.37	1271.79
241.59	1322.99
241.81	1314.80
242.02	1241.07
242.24	1290.22
242.46	1243.12
242.68	1222.64
242.89	1216.49
243.11	1277.93
243.33	1245.16
243.55	1253.36
243.76	1294.32
243.98	1290.22
244.20	1282.03
244.42	1200.11
244.64	1255.40
244.85	1335.28
245.07	1253.36
245.29	1249.26
245.51	1241.07
245.72	1253.36
245.94	1282.03
246.16	1304.56
246.38	1288.17
246.59	1290.22
246.81	1271.79
247.03	1279.98
247.24	1249.26
247.46	1314.80
247.68	1314.80
247.90	1187.82
248.11	1282.03
248.33	1282.03
248.55	1224.69
248.77	1226.73
248.98	1261.55
249.20	1241.07
249.42	1243.12
249.64	1288.17
249.85	1232.88
250.07	1208.30
250.29	1290.22
250.50	1230.83
250.72	1353.71
250.94	1337.32
251.16	1212.40
251.37	1232.88
251.59	1316.84
251.81	1214.45
252.02	1322.99
252.24	1345.52
252.46	1249.26
252.68	1275.88
252.89	1310.70
253.11	1132.53
253.33	1265.64
253.54	1216.49
253.76	1282.03
253.98	1273.84
254.20	1282.03
254.41	1245.16
254.63	1273.84
254.85	1275.88
255.06	1222.64
255.28	1288.17
255.50	1296.36
255.71	1257.45
255.93	1269.74
256.15	1277.93
256.36	1277.93
256.58	1347.56
256.80	1282.03
257.02	1253.36
257.23	1288.17
257.45	1261.55
257.67	1206.25
257.88	1331.18
258.10	1257.45
258.32	1247.21
258.53	1290.22
258.75	1325.04
258.97	1247.21
259.18	1228.78
259.40	1271.79
259.62	1218.54
259.83	1282.03
260.05	1273.84
260.27	1337.32
260.48	1228.78
260.70	1294.32
260.92	1249.26
261.13	1259.50
261.35	1230.83
261.57	1222.64
261.78	1212.40
262.00	1239.02
262.22	1228.78
262.43	1251.31
262.65	1279.98
262.86	1404.91
263.08	1200.11
263.30	1275.88
263.51	1255.40
263.73	1286.12
263.95	1224.69
264.16	1224.69
264.38	1275.88
264.60	1267.69
264.81	1339.37
265.03	1267.69
265.25	1261.55
265.46	1228.78
265.68	1273.84
265.89	1263.60
266.11	1234.93
266.33	1292.27
266.54	1257.45
266.76	1275.88
266.98	1290.22
267.19	1310.70
267.41	1286.12
267.62	1239.02
267.84	1249.26
268.06	1279.98
268.27	1298.41
268.49	1296.36
268.70	1282.03
268.92	1284.08
269.14	1302.51
269.35	1308.65
269.57	1155.05
269.79	1206.25
270.00	1275.88
270.22	1282.03
270.43	1331.18
270.65	1306.60
270.87	1325.04
271.08	1236.97
271.30	1335.28
271.51	1277.93
271.73	1273.84
271.95	1257.45
272.16	1224.69
272.38	1310.70
272.59	1243.12
272.81	1222.64
273.02	1198.06
273.24	1277.93
273.46	1198.06
273.67	1261.55
273.89	1286.12
274.10	1359.85
274.32	1181.68
274.54	1239.02
274.75	1273.84
274.97	1214.45
275.18	1267.69
275.40	1259.50
275.61	1206.25
275.83	1218.54
276.05	1257.45
276.26	1257.45
276.48	1302.51
276.69	1222.64
276.91	1253.36
277.12	1251.31
277.34	1253.36
277.55	1310.70
277.77	1181.68
277.99	1314.80
278.20	1292.27
278.42	1241.07
278.63	1288.17
278.85	1314.80
279.06	1275.88
279.28	1267.69
279.49	1257.45
279.71	1290.22
279.93	1286.12
280.14	1273.84
280.36	1298.41
280.57	1282.03
280.79	1249.26
281.00	1286.12
281.22	1290.22
281.43	1288.17
281.65	1212.40
281.86	1298.41
282.08	1267.69
282.29	1314.80
282.51	1284.08
282.73	1255.40
282.94	1279.98
283.16	1267.69
283.37	1239.02
283.59	1290.22
283.80	1261.55
284.02	1288.17
284.23	1263.60
284.45	1265.64
284.66	1298.41
284.88	1261.55
285.09	1327.08
285.31	1316.84
285.52	1269.74
285.74	1265.64
285.95	1218.54
286.17	1290.22
286.38	1282.03
286.60	1288.17
286.81	1257.45
287.03	1224.69
287.24	1220.59
287.46	1241.07
287.67	1196.01
287.89	1286.12
288.10	1300.46
288.32	1224.69
288.53	1198.06
288.75	1181.68
288.96	1218.54
289.18	1261.55
289.39	1216.49
289.61	1226.73
289.82	1267.69
290.04	1241.07
290.25	1230.83
290.47	1171.44
290.68	1288.17
290.90	1277.93
291.11	1212.40
291.33	1255.40
291.54	1265.64
291.76	1251.31
291.97	1320.94
292.18	1337.32
292.40	1255.40
292.61	1273.84
292.83	1294.32
293.04	1368.04
293.26	1220.59
293.47	1292.27
293.69	1308.65
293.90	1249.26
294.12	1241.07
294.33	1228.78
294.55	1300.46
294.76	1222.64
294.97	1275.88
295.19	1290.22
295.40	1273.84
295.62	1296.36
295.83	1239.02
296.05	1282.03
296.26	1279.98
296.48	1347.56
296.69	1210.35
296.90	1134.57
297.12	1273.84
297.33	1236.97
297.55	1189.87
297.76	1339.37
297.98	1263.60
298.19	1304.56
298.41	1261.55
298.62	1232.88
298.83	1228.78
299.05	1271.79
299.26	1290.22
299.48	1210.35
299.69	1177.58
299.90	1279.98
300.12	1226.73
300.33	1308.65
300.55	1300.46
300.76	1241.07
300.98	1236.97
301.19	1255.40
301.40	1282.03
301.62	1208.30
301.83	1243.12
302.05	1245.16
302.26	1282.03
302.47	1273.84
302.69	1247.21
302.90	1325.04
303.12	1300.46
303.33	1290.22
303.54	1277.93
303.76	1239.02
303.97	1312.75
304.19	1265.64
304.40	1210.35
304.61	1253.36
304.83	1296.36
305.04	1296.36
305.26	1265.64
305.47	1310.70
305.68	1286.12
305.90	1267.69
306.11	1167.34
306.33	1267.69
306.54	1175.53
306.75	1329.13
306.97	1255.40
307.18	1214.45
307.39	1245.16
307.61	1308.65
307.82	1261.55
308.04	1273.84
308.25	1228.78
308.46	1271.79
308.68	1374.19
308.89	1282.03
309.10	1421.29
309.32	1183.73
309.53	1232.88
309.74	1259.50
309.96	1241.07
310.17	1273.84
310.39	1251.31
310.60	1294.32
310.81	1230.83
311.03	1341.42
311.24	1259.50
311.45	1286.12
311.67	1216.49
311.88	1230.83
312.09	1255.40
312.31	1314.80
312.52	1249.26
312.73	1275.88
312.95	1265.64
313.16	1245.16
313.37	1269.74
313.59	1298.41
313.80	1296.36
314.01	1230.83
314.23	1271.79
314.44	1245.16
314.65	1257.45
314.87	1216.49
315.08	1224.69
315.29	1273.84
315.51	1183.73
315.72	1241.07
315.93	1239.02
316.15	1282.03
316.36	1226.73
316.57	1308.65
316.79	1230.83
317.00	1294.32
317.21	1239.02
317.43	1304.56
317.64	1325.04
317.85	1271.79
318.07	1241.07
318.28	1228.78
318.49	1267.69
318.70	1275.88
318.92	1298.41
319.13	1341.42
319.34	1329.13
319.56	1269.74
319.77	1273.84
319.98	1306.60
320.20	1288.17
320.41	1318.89
320.62	1224.69
320.83	1282.03
321.05	1243.12
321.26	1284.08
321.47	1189.87
321.69	1306.60
321.90	1241.07
322.11	1294.32
322.32	1208.30
322.54	1228.78
322.75	1251.31
322.96	1300.46
323.18	1271.79
323.39	1257.45
323.60	1226.73
323.81	1249.26
324.03	1271.79
324.24	1271.79
324.45	1267.69
324.66	1267.69
324.88	1208.30
325.09	1263.60
325.30	1263.60
325.52	1310.70
325.73	1230.83
325.94	1296.36
326.15	1257.45
326.37	1294.32
326.58	1304.56
326.79	1224.69
327.00	1312.75
327.22	1224.69
327.43	1226.73
327.64	1302.51
327.85	1290.22
328.07	1212.40
328.28	1241.07
328.49	1279.98
328.70	1279.98
328.92	1275.88
329.13	1318.89
329.34	1261.55
329.55	1222.64
329.76	1282.03
329.98	1245.16
330.19	1310.70
330.40	1275.88
330.61	1312.75
330.83	1239.02
331.04	1255.40
331.25	1255.40
331.46	1269.74
331.68	1214.45
331.89	1183.73
332.10	1290.22
332.31	1218.54
332.52	1257.45
332.74	1247.21
332.95	1304.56
333.16	1279.98
333.37	1228.78
333.58	1318.89
333.80	1288.17
334.01	1216.49
334.22	1267.69
334.43	1228.78
334.64	1308.65
334.86	1241.07
335.07	1253.36
335.28	1277.93
335.49	1284.08
335.70	1232.88
335.92	1292.27
336.13	1290.22
336.34	1288.17
336.55	1175.53
336.76	1265.64
336.98	1236.97
337.19	1298.41
337.40	1247.21
337.61	1251.31
337.82	1320.94
338.04	1275.88
338.25	1277.93
338.46	1222.64
338.67	1269.74
338.88	1277.93
339.09	1267.69
339.31	1306.60
339.52	1210.35
339.73	1277.93
339.94	1282.03
340.15	1282.03
340.36	1294.32
340.58	1314.80
340.79	1249.26
341.00	1239.02
341.21	1265.64
341.42	1288.17
341.63	1239.02
341.85	1247.21
342.06	1236.97
342.27	1232.88
342.48	1243.12
342.69	1210.35
342.90	1265.64
343.12	1331.18
343.33	1230.83
343.54	1249.26
343.75	1304.56
343.96	1341.42
344.17	1298.41
344.38	1288.17
344.60	1273.84
344.81	1286.12
345.02	1335.28
345.23	1245.16
345.44	1273.84
345.65	1236.97
345.86	1206.25
346.07	1279.98
346.29	1269.74
346.50	1232.88
346.71	1357.80
346.92	1294.32
347.13	1263.60
347.34	1273.84
347.55	1228.78
347.76	1259.50
347.98	1236.97
348.19	1275.88
348.40	1355.76
348.61	1322.99
348.82	1259.50
349.03	1253.36
349.24	1234.93
349.45	1265.64
349.66	1216.49
349.88	1273.84
350.09	1318.89
350.30	1255.40
350.51	1327.08
350.72	1249.26
350.93	1331.18
351.14	1222.64
351.35	1226.73
351.56	1247.21
351.77	1308.65
351.99	1249.26
352.20	1255.40
352.41	1294.32
352.62	1277.93
352.83	1273.84
353.04	1292.27
353.25	1286.12
353.46	1327.08
353.67	1224.69
353.88	1241.07
354.09	1257.45
354.30	1177.58
354.52	1265.64
354.73	1232.88
354.94	1306.60
355.15	1239.02
355.36	1241.07
355.57	1265.64
355.78	1247.21
355.99	1259.50
356.20	1202.16
356.41	1230.83
356.62	1288.17
356.83	1245.16
357.04	1202.16
357.25	1212.40
357.46	1292.27
357.68	1241.07
357.89	1218.54
358.10	1249.26
358.31	1255.40
358.52	1314.80
358.73	1230.83
358.94	1288.17
359.15	1310.70
359.36	1316.84
359.57	1279.98
359.78	1271.79
359.99	1245.16
360.20	1206.25
360.41	1296.36
360.62	1322.99
360.83	1265.64
361.04	1275.88
361.25	1226.73
361.46	1286.12
361.67	1263.60
361.88	1191.92
362.09	1228.78
362.30	1134.57
362.51	1257.45
362.72	1320.94
362.93	1279.98
363.14	1290.22
363.35	1310.70
363.56	1214.45
363.78	1312.75
363.99	1255.40
364.20	1222.64
364.41	1347.56
364.62	1271.79
364.83	1273.84
365.04	1290.22
365.25	1271.79
365.46	1302.51
365.67	1251.31
365.88	1316.84
366.09	1167.34
366.30	1269.74
366.51	1275.88
366.72	1177.58
366.93	1222.64
367.14	1265.64
367.35	1292.27
367.56	1279.98
367.77	1294.32
367.98	1271.79
368.18	1339.37
368.39	1265.64
368.60	1296.36
368.81	1232.88
369.02	1267.69
369.23	1220.59
369.44	1288.17
369.65	1193.97
369.86	1216.49
370.07	1251.31
370.28	1206.25
370.49	1296.36
370.70	1282.03
370.91	1241.07
371.12	1265.64
371.33	1302.51
371.54	1239.02
371.75	1234.93
371.96	1247.21
372.17	1277.93
372.38	1226.73
372.59	1224.69
372.80	1255.40
373.01	1327.08
373.22	1222.64
373.43	1216.49
373.64	1265.64
373.85	1185.77
374.06	1173.49
374.26	1282.03
374.47	1304.56
374.68	1212.40
374.89	1282.03
375.10	1265.64
375.31	1325.04
375.52	1196.01
375.73	1263.60
375.94	1259.50
376.15	1294.32
376.36	1310.70
376.57	1183.73
376.78	1300.46
376.99	1312.75
377.20	1243.12
377.40	1259.50
377.61	1251.31
377.82	1267.69
378.03	1253.36
378.24	1255.40
378.45	1296.36
378.66	1277.93
378.87	1267.69
379.08	1181.68
379.29	1288.17
379.50	1261.55
379.71	1308.65
379.91	1265.64
380.12	1347.56
380.33	1224.69
380.54	1267.69
380.75	1257.45
380.96	1224.69
381.17	1261.55
381.38	1236.97
381.59	1337.32
381.80	1226.73
382.00	1236.97
382.21	1210.35
382.42	1302.51
382.63	1249.26
382.84	1263.60
383.05	1267.69
383.26	1351.66
383.47	1292.27
383.68	1212.40
383.88	1294.32
384.09	1265.64
384.30	1294.32
384.51	1296.36
384.72	1282.03
384.93	1249.26
385.14	1226.73
385.35	1277.93
385.55	1241.07
385.76	1261.55
385.97	1269.74
386.18	1263.60
386.39	1263.60
386.60	1277.93
386.81	1257.45
387.02	1312.75
387.22	1378.28
387.43	1345.52
387.64	1292.27
387.85	1282.03
388.06	1183.73
388.27	1314.80
388.48	1265.64
388.68	1322.99
388.89	1255.40
389.10	1310.70
389.31	1306.60
389.52	1284.08
389.73	1232.88
389.93	1224.69
390.14	1257.45
390.35	1259.50
390.56	1245.16
390.77	1232.88
390.98	1232.88
391.18	1214.45
391.39	1284.08
391.60	1263.60
391.81	1329.13
392.02	1249.26
392.23	1329.13
392.43	1243.12
392.64	1249.26
392.85	1320.94
393.06	1214.45
393.27	1263.60
393.47	1271.79
393.68	1357.80
393.89	1267.69
394.10	1284.08
394.31	1232.88
394.52	1298.41
394.72	1251.31
394.93	1243.12
395.14	1265.64
395.35	1284.08
395.56	1288.17
395.76	1300.46
395.97	1339.37
396.18	1218.54
396.39	1263.60
396.60	1286.12
396.80	1247.21
397.01	1230.83
397.22	1228.78
397.43	1306.60
397.64	1302.51
397.84	1279.98
398.05	1279.98
398.26	1253.36
398.47	1294.32
398.67	1249.26
398.88	1267.69
399.09	1290.22
399.30	1277.93
399.51	1288.17
399.71	1243.12
399.92	1214.45
400.13	1267.69
400.34	1220.59
400.54	1189.87
400.75	1277.93
400.96	1243.12
401.17	1329.13
401.37	1302.51
401.58	1282.03
401.79	1193.97
402.00	1239.02
402.21	1304.56
402.41	1210.35
402.62	1294.32
402.83	1226.73
403.04	1210.35
403.24	1273.84
403.45	1327.08
403.66	1353.71
403.87	1181.68
404.07	1261.55
404.28	1271.79
404.49	1230.83
404.70	1333.23
404.90	1279.98
405.11	1226.73
405.32	1273.84
405.52	1267.69
405.73	1302.51
405.94	1284.08
406.15	1245.16
406.35	1249.26
406.56	1210.35
406.77	1310.70
406.98	1290.22
407.18	1263.60
407.39	1284.08
407.60	1343.47
407.80	1279.98
408.01	1261.55
408.22	1251.31
408.43	1288.17
408.63	1273.84
408.84	1271.79
409.05	1239.02
409.25	1249.26
409.46	1271.79
409.67	1220.59
409.88	1273.84
410.08	1263.60
410.29	1257.45
410.50	1296.36
410.70	1310.70
410.91	1275.88
411.12	1269.74
411.32	1261.55
411.53	1351.66
411.74	1214.45
411.95	1273.84
412.15	1304.56
412.36	1290.22
412.57	1304.56
412.77	1345.52
412.98	1282.03
413.19	1277.93
413.39	1191.92
413.60	1294.32
413.81	1271.79
414.01	1277.93
414.22	1318.89
414.43	1279.98
414.63	1361.90
414.84	1290.22
415.05	1214.45
415.25	1169.39
415.46	1236.97
415.67	1232.88
415.87	1306.60
416.08	1273.84
416.29	1257.45
416.49	1210.35
416.70	1255.40
416.91	1294.32
417.11	1263.60
417.32	1306.60
417.53	1290.22
417.73	1249.26
417.94	1288.17
418.15	1322.99
418.35	1263.60
418.56	1298.41
418.77	1236.97
418.97	1310.70
419.18	1304.56
419.38	1335.28
419.59	1216.49
419.80	1255.40
420.00	1296.36
420.21	1204.21
420.42	1177.58
420.62	1228.78
420.83	1241.07
421.04	1288.17
421.24	1243.12
421.45	1273.84
421.65	1263.60
421.86	1353.71
422.07	1259.50
422.27	1277.93
422.48	1263.60
422.69	1224.69
422.89	1265.64
423.10	1271.79
423.30	1204.21
423.51	1347.56
423.72	1322.99
423.92	1220.59
424.13	1282.03
424.33	1271.79
424.54	1273.84
424.75	1267.69
424.95	1239.02
425.16	1265.64
425.36	1296.36
425.57	1263.60
425.78	1265.64
425.98	1368.04
426.19	1230.83
426.39	1308.65
426.60	1241.07
426.81	1284.08
427.01	1232.88
427.22	1322.99
427.42	1212.40
427.63	1234.93
427.83	1273.84
428.04	1288.17
428.25	1263.60
428.45	1327.08
428.66	1271.79
428.86	1282.03
429.07	1300.46
429.28	1308.65
429.48	1265.64
429.69	1325.04
429.89	1273.84
430.10	1265.64
430.30	1271.79
430.51	1267.69
430.71	1261.55
430.92	1230.83
431.13	1202.16
431.33	1232.88
431.54	1275.88
431.74	1279.98
431.95	1286.12
432.15	1335.28
432.36	1300.46
432.56	1271.79
432.77	1310.70
432.98	1339.37
433.18	1243.12
433.39	1261.55
433.59	1214.45
433.80	1333.23
434.00	1265.64
434.21	1314.80
434.41	1224.69
434.62	1257.45
434.82	1267.69
435.03	1320.94
435.23	1359.85
435.44	1331.18
435.64	1269.74
435.85	1275.88
436.06	1265.64
436.26	1343.47
436.47	1277.93
436.67	1259.50
436.88	1271.79
437.08	1232.88
437.29	1220.59
437.49	1249.26
437.70	1279.98
437.90	1284.08
438.11	1232.88
438.31	1255.40
438.52	1263.60
438.72	1331.18
438.93	1290.22
439.13	1292.27
439.34	1302.51
439.54	1263.60
439.75	1310.70
439.95	1368.04
440.16	1253.36
440.36	1214.45
440.57	1271.79
440.77	1337.32
440.98	1282.03
441.18	1339.37
441.39	1257.45
441.59	1279.98
441.80	1275.88
442.00	1298.41
442.21	1271.79
442.41	1325.04
442.62	1251.31
442.82	1249.26
443.02	1308.65
443.23	1230.83
443.43	1224.69
443.64	1316.84
443.84	1300.46
444.05	1279.98
444.25	1345.52
444.46	1265.64
444.66	1251.31
444.87	1271.79
445.07	1247.21
445.28	1322.99
445.48	1306.60
445.69	1261.55
445.89	1216.49
446.09	1306.60
446.30	1275.88
446.50	1265.64
446.71	1292.27
446.91	1388.52
447.12	1292.27
447.32	1302.51
447.53	1325.04
447.73	1322.99
447.93	1345.52
448.14	1236.97
448.34	1263.60
448.55	1292.27
448.75	1245.16
448.96	1212.40
449.16	1302.51
449.36	1245.16
449.57	1339.37
449.77	1298.41
449.98	1351.66
450.18	1226.73
450.39	1234.93
450.59	1228.78
450.79	1247.21
451.00	1263.60
451.20	1224.69
451.41	1277.93
451.61	1318.89
451.81	1298.41
452.02	1247.21
452.22	1284.08
452.43	1261.55
452.63	1298.41
