SpectraSuite Data File
++++++++++++++++++++++++++++++++++++
Date: Sun Apr 03 19:55:34 CEST 2016
User: root
Dark Spectrum Present: No
Reference Spectrum Present: No
Number of Sampled Component Spectra: 1
Spectrometers: USB4C02835
Integration Time (usec): 10000 (USB4C02835)
Spectra Averaged: 1 (USB4C02835)
Boxcar Smoothing: 0 (USB4C02835)
Correct for Electrical Dark: No (USB4C02835)
Strobe/Lamp Enabled: No (USB4C02835)
Correct for Detector Non-linearity: No (USB4C02835)
Correct for Stray Light: No (USB4C02835)
Number of Pixels in Processed Spectrum: 3648
>>>>>Begin Processed Spectral Data<<<<<
177.47	1208.30
177.69	1208.30
177.91	1208.30
178.13	1228.78
178.36	1263.60
178.58	1230.83
178.80	1265.64
179.02	1310.70
179.24	1335.28
179.46	1273.84
179.68	1282.03
179.90	1275.88
180.13	1302.51
180.35	1269.74
180.57	1298.41
180.79	1247.21
181.01	1261.55
181.23	1249.26
181.45	1230.83
181.67	1298.41
181.90	1226.73
182.12	1255.40
182.34	1251.31
182.56	1322.99
182.78	1271.79
183.00	1261.55
183.22	1202.16
183.44	1288.17
183.66	1308.65
183.89	1327.08
184.11	1394.67
184.33	1318.89
184.55	1322.99
184.77	1298.41
184.99	1159.15
185.21	1310.70
185.43	1302.51
185.65	1204.21
185.87	1310.70
186.10	1267.69
186.32	1222.64
186.54	1269.74
186.76	1282.03
186.98	1294.32
187.20	1302.51
187.42	1245.16
187.64	1232.88
187.86	1282.03
188.08	1218.54
188.30	1251.31
188.52	1247.21
188.75	1228.78
188.97	1259.50
189.19	1247.21
189.41	1236.97
189.63	1245.16
189.85	1337.32
190.07	1243.12
190.29	1312.75
190.51	1241.07
190.73	1271.79
190.95	1257.45
191.17	1265.64
191.39	1214.45
191.61	1208.30
191.84	1216.49
192.06	1228.78
192.28	1251.31
192.50	1284.08
192.72	1226.73
192.94	1191.92
193.16	1333.23
193.38	1273.84
193.60	1327.08
193.82	1277.93
194.04	1310.70
194.26	1298.41
194.48	1218.54
194.70	1359.85
194.92	1292.27
195.14	1257.45
195.36	1294.32
195.58	1232.88
195.80	1239.02
196.02	1277.93
196.24	1212.40
196.46	1267.69
196.69	1304.56
196.91	1249.26
197.13	1230.83
197.35	1288.17
197.57	1241.07
197.79	1173.49
198.01	1255.40
198.23	1320.94
198.45	1290.22
198.67	1196.01
198.89	1267.69
199.11	1271.79
199.33	1249.26
199.55	1275.88
199.77	1314.80
199.99	1341.42
200.21	1202.16
200.43	1275.88
200.65	1322.99
200.87	1286.12
201.09	1253.36
201.31	1255.40
201.53	1253.36
201.75	1269.74
201.97	1263.60
202.19	1255.40
202.41	1288.17
202.63	1277.93
202.85	1320.94
203.07	1288.17
203.29	1241.07
203.51	1257.45
203.73	1241.07
203.95	1269.74
204.17	1206.25
204.39	1159.15
204.61	1331.18
204.83	1314.80
205.05	1249.26
205.27	1259.50
205.49	1271.79
205.71	1236.97
205.93	1273.84
206.15	1273.84
206.37	1320.94
206.59	1353.71
206.81	1216.49
207.03	1294.32
207.25	1279.98
207.47	1284.08
207.69	1298.41
207.91	1296.36
208.13	1300.46
208.34	1320.94
208.56	1200.11
208.78	1322.99
209.00	1220.59
209.22	1284.08
209.44	1273.84
209.66	1236.97
209.88	1269.74
210.10	1277.93
210.32	1302.51
210.54	1267.69
210.76	1286.12
210.98	1275.88
211.20	1263.60
211.42	1312.75
211.64	1273.84
211.86	1255.40
212.08	1259.50
212.30	1257.45
212.52	1357.80
212.74	1220.59
212.96	1294.32
213.17	1286.12
213.39	1239.02
213.61	1271.79
213.83	1271.79
214.05	1269.74
214.27	1206.25
214.49	1241.07
214.71	1232.88
214.93	1259.50
215.15	1318.89
215.37	1302.51
215.59	1349.61
215.81	1392.62
216.03	1269.74
216.24	1314.80
216.46	1253.36
216.68	1239.02
216.90	1245.16
217.12	1200.11
217.34	1200.11
217.56	1206.25
217.78	1406.95
218.00	1226.73
218.22	1251.31
218.44	1320.94
218.66	1314.80
218.87	1286.12
219.09	1196.01
219.31	1226.73
219.53	1288.17
219.75	1214.45
219.97	1265.64
220.19	1204.21
220.41	1251.31
220.63	1298.41
220.85	1314.80
221.06	1284.08
221.28	1230.83
221.50	1253.36
221.72	1279.98
221.94	1257.45
222.16	1273.84
222.38	1380.33
222.60	1288.17
222.82	1263.60
223.03	1333.23
223.25	1265.64
223.47	1298.41
223.69	1251.31
223.91	1243.12
224.13	1241.07
224.35	1208.30
224.57	1232.88
224.78	1306.60
225.00	1218.54
225.22	1380.33
225.44	1294.32
225.66	1325.04
225.88	1298.41
226.10	1294.32
226.32	1284.08
226.53	1288.17
226.75	1300.46
226.97	1245.16
227.19	1304.56
227.41	1169.39
227.63	1290.22
227.85	1261.55
228.06	1226.73
228.28	1284.08
228.50	1236.97
228.72	1300.46
228.94	1249.26
229.16	1247.21
229.37	1253.36
229.59	1261.55
229.81	1298.41
230.03	1226.73
230.25	1228.78
230.47	1232.88
230.69	1275.88
230.90	1265.64
231.12	1314.80
231.34	1333.23
231.56	1306.60
231.78	1179.63
232.00	1232.88
232.21	1247.21
232.43	1271.79
232.65	1181.68
232.87	1271.79
233.09	1294.32
233.30	1255.40
233.52	1259.50
233.74	1257.45
233.96	1216.49
234.18	1253.36
234.40	1273.84
234.61	1286.12
234.83	1273.84
235.05	1279.98
235.27	1253.36
235.49	1320.94
235.70	1206.25
235.92	1310.70
236.14	1259.50
236.36	1271.79
236.58	1261.55
236.79	1298.41
237.01	1263.60
237.23	1345.52
237.45	1302.51
237.67	1239.02
237.88	1296.36
238.10	1241.07
238.32	1245.16
238.54	1263.60
238.76	1218.54
238.97	1282.03
239.19	1290.22
239.41	1320.94
239.63	1308.65
239.85	1308.65
240.06	1232.88
240.28	1273.84
240.50	1331.18
240.72	1294.32
240.93	1261.55
241.15	1282.03
241.37	1226.73
241.59	1247.21
241.81	1277.93
242.02	1275.88
242.24	1296.36
242.46	1269.74
242.68	1243.12
242.89	1349.61
243.11	1310.70
243.33	1294.32
243.55	1275.88
243.76	1239.02
243.98	1314.80
244.20	1302.51
244.42	1286.12
244.64	1265.64
244.85	1249.26
245.07	1290.22
245.29	1216.49
245.51	1249.26
245.72	1308.65
245.94	1224.69
246.16	1337.32
246.38	1210.35
246.59	1191.92
246.81	1236.97
247.03	1261.55
247.24	1241.07
247.46	1245.16
247.68	1288.17
247.90	1277.93
248.11	1273.84
248.33	1245.16
248.55	1290.22
248.77	1214.45
248.98	1263.60
249.20	1300.46
249.42	1308.65
249.64	1277.93
249.85	1214.45
250.07	1286.12
250.29	1257.45
250.50	1284.08
250.72	1288.17
250.94	1349.61
251.16	1263.60
251.37	1282.03
251.59	1255.40
251.81	1255.40
252.02	1247.21
252.24	1261.55
252.46	1318.89
252.68	1249.26
252.89	1241.07
253.11	1243.12
253.33	1294.32
253.54	1302.51
253.76	1255.40
253.98	1269.74
254.20	1298.41
254.41	1212.40
254.63	1329.13
254.85	1198.06
255.06	1236.97
255.28	1247.21
255.50	1312.75
255.71	1249.26
255.93	1282.03
256.15	1343.47
256.36	1269.74
256.58	1218.54
256.80	1331.18
257.02	1279.98
257.23	1282.03
257.45	1245.16
257.67	1243.12
257.88	1234.93
258.10	1259.50
258.32	1181.68
258.53	1230.83
258.75	1382.38
258.97	1255.40
259.18	1245.16
259.40	1318.89
259.62	1265.64
259.83	1259.50
260.05	1288.17
260.27	1234.93
260.48	1282.03
260.70	1308.65
260.92	1265.64
261.13	1300.46
261.35	1292.27
261.57	1265.64
261.78	1288.17
262.00	1247.21
262.22	1232.88
262.43	1271.79
262.65	1310.70
262.86	1298.41
263.08	1282.03
263.30	1310.70
263.51	1273.84
263.73	1294.32
263.95	1370.09
264.16	1275.88
264.38	1236.97
264.60	1241.07
264.81	1206.25
265.03	1314.80
265.25	1271.79
265.46	1298.41
265.68	1341.42
265.89	1222.64
266.11	1275.88
266.33	1210.35
266.54	1322.99
266.76	1286.12
266.98	1212.40
267.19	1308.65
267.41	1249.26
267.62	1296.36
267.84	1277.93
268.06	1282.03
268.27	1234.93
268.49	1298.41
268.70	1335.28
268.92	1245.16
269.14	1333.23
269.35	1251.31
269.57	1282.03
269.79	1241.07
270.00	1222.64
270.22	1282.03
270.43	1247.21
270.65	1214.45
270.87	1279.98
271.08	1263.60
271.30	1234.93
271.51	1222.64
271.73	1279.98
271.95	1247.21
272.16	1292.27
272.38	1306.60
272.59	1253.36
272.81	1339.37
273.02	1329.13
273.24	1171.44
273.46	1243.12
273.67	1210.35
273.89	1247.21
274.10	1245.16
274.32	1243.12
274.54	1302.51
274.75	1179.63
274.97	1251.31
275.18	1357.80
275.40	1247.21
275.61	1253.36
275.83	1284.08
276.05	1259.50
276.26	1243.12
276.48	1234.93
276.69	1257.45
276.91	1247.21
277.12	1243.12
277.34	1286.12
277.55	1355.76
277.77	1376.24
277.99	1241.07
278.20	1196.01
278.42	1200.11
278.63	1189.87
278.85	1314.80
279.06	1335.28
279.28	1322.99
279.49	1251.31
279.71	1239.02
279.93	1232.88
280.14	1310.70
280.36	1318.89
280.57	1275.88
280.79	1220.59
281.00	1314.80
281.22	1288.17
281.43	1341.42
281.65	1255.40
281.86	1273.84
282.08	1333.23
282.29	1263.60
282.51	1298.41
282.73	1269.74
282.94	1243.12
283.16	1236.97
283.37	1224.69
283.59	1286.12
283.80	1249.26
284.02	1312.75
284.23	1296.36
284.45	1261.55
284.66	1241.07
284.88	1222.64
285.09	1284.08
285.31	1335.28
285.52	1234.93
285.74	1308.65
285.95	1288.17
286.17	1273.84
286.38	1284.08
286.60	1322.99
286.81	1282.03
287.03	1249.26
287.24	1288.17
287.46	1290.22
287.67	1298.41
287.89	1263.60
288.10	1249.26
288.32	1327.08
288.53	1232.88
288.75	1277.93
288.96	1196.01
289.18	1331.18
289.39	1239.02
289.61	1310.70
289.82	1296.36
290.04	1267.69
290.25	1249.26
290.47	1304.56
290.68	1245.16
290.90	1310.70
291.11	1314.80
291.33	1345.52
291.54	1279.98
291.76	1351.66
291.97	1206.25
292.18	1224.69
292.40	1216.49
292.61	1253.36
292.83	1234.93
293.04	1296.36
293.26	1224.69
293.47	1273.84
293.69	1310.70
293.90	1228.78
294.12	1261.55
294.33	1234.93
294.55	1220.59
294.76	1269.74
294.97	1284.08
295.19	1253.36
295.40	1251.31
295.62	1290.22
295.83	1212.40
296.05	1320.94
296.26	1253.36
296.48	1279.98
296.69	1177.58
296.90	1269.74
297.12	1263.60
297.33	1333.23
297.55	1282.03
297.76	1265.64
297.98	1312.75
298.19	1261.55
298.41	1298.41
298.62	1345.52
298.83	1296.36
299.05	1267.69
299.26	1241.07
299.48	1241.07
299.69	1251.31
299.90	1288.17
300.12	1357.80
300.33	1279.98
300.55	1185.77
300.76	1267.69
300.98	1329.13
301.19	1257.45
301.40	1294.32
301.62	1265.64
301.83	1300.46
302.05	1263.60
302.26	1185.77
302.47	1294.32
302.69	1269.74
302.90	1216.49
303.12	1224.69
303.33	1257.45
303.54	1228.78
303.76	1282.03
303.97	1312.75
304.19	1243.12
304.40	1212.40
304.61	1239.02
304.83	1253.36
305.04	1265.64
305.26	1247.21
305.47	1243.12
305.68	1210.35
305.90	1236.97
306.11	1255.40
306.33	1275.88
306.54	1355.76
306.75	1265.64
306.97	1273.84
307.18	1288.17
307.39	1288.17
307.61	1251.31
307.82	1247.21
308.04	1325.04
308.25	1265.64
308.46	1253.36
308.68	1290.22
308.89	1267.69
309.10	1191.92
309.32	1273.84
309.53	1210.35
309.74	1318.89
309.96	1282.03
310.17	1232.88
310.39	1273.84
310.60	1261.55
310.81	1220.59
311.03	1277.93
311.24	1226.73
311.45	1224.69
311.67	1261.55
311.88	1310.70
312.09	1236.97
312.31	1230.83
312.52	1273.84
312.73	1300.46
312.95	1243.12
313.16	1290.22
313.37	1202.16
313.59	1335.28
313.80	1275.88
314.01	1273.84
314.23	1259.50
314.44	1198.06
314.65	1232.88
314.87	1288.17
315.08	1265.64
315.29	1257.45
315.51	1277.93
315.72	1200.11
315.93	1220.59
316.15	1245.16
316.36	1308.65
316.57	1177.58
316.79	1212.40
317.00	1282.03
317.21	1277.93
317.43	1251.31
317.64	1298.41
317.85	1226.73
318.07	1320.94
318.28	1271.79
318.49	1302.51
318.70	1265.64
318.92	1277.93
319.13	1196.01
319.34	1284.08
319.56	1329.13
319.77	1243.12
319.98	1273.84
320.20	1177.58
320.41	1224.69
320.62	1275.88
320.83	1202.16
321.05	1236.97
321.26	1288.17
321.47	1296.36
321.69	1193.97
321.90	1286.12
322.11	1265.64
322.32	1261.55
322.54	1325.04
322.75	1200.11
322.96	1255.40
323.18	1224.69
323.39	1243.12
323.60	1290.22
323.81	1312.75
324.03	1253.36
324.24	1208.30
324.45	1286.12
324.66	1300.46
324.88	1269.74
325.09	1284.08
325.30	1286.12
325.52	1302.51
325.73	1259.50
325.94	1212.40
326.15	1226.73
326.37	1265.64
326.58	1257.45
326.79	1259.50
327.00	1269.74
327.22	1257.45
327.43	1279.98
327.64	1245.16
327.85	1208.30
328.07	1308.65
328.28	1247.21
328.49	1263.60
328.70	1212.40
328.92	1294.32
329.13	1202.16
329.34	1241.07
329.55	1241.07
329.76	1312.75
329.98	1261.55
330.19	1216.49
330.40	1312.75
330.61	1247.21
330.83	1247.21
331.04	1193.97
331.25	1275.88
331.46	1273.84
331.68	1216.49
331.89	1277.93
332.10	1245.16
332.31	1196.01
332.52	1310.70
332.74	1284.08
332.95	1239.02
333.16	1230.83
333.37	1308.65
333.58	1259.50
333.80	1288.17
334.01	1286.12
334.22	1286.12
334.43	1253.36
334.64	1267.69
334.86	1304.56
335.07	1191.92
335.28	1302.51
335.49	1304.56
335.70	1247.21
335.92	1257.45
336.13	1261.55
336.34	1185.77
336.55	1325.04
336.76	1304.56
336.98	1273.84
337.19	1247.21
337.40	1282.03
337.61	1277.93
337.82	1269.74
338.04	1277.93
338.25	1243.12
338.46	1257.45
338.67	1265.64
338.88	1206.25
339.09	1255.40
339.31	1234.93
339.52	1232.88
339.73	1263.60
339.94	1263.60
340.15	1232.88
340.36	1304.56
340.58	1243.12
340.79	1245.16
341.00	1263.60
341.21	1310.70
341.42	1236.97
341.63	1183.73
341.85	1304.56
342.06	1263.60
342.27	1294.32
342.48	1318.89
342.69	1267.69
342.90	1277.93
343.12	1292.27
343.33	1349.61
343.54	1363.95
343.75	1282.03
343.96	1363.95
344.17	1243.12
344.38	1312.75
344.60	1208.30
344.81	1306.60
345.02	1318.89
345.23	1300.46
345.44	1347.56
345.65	1269.74
345.86	1200.11
346.07	1241.07
346.29	1245.16
346.50	1300.46
346.71	1341.42
346.92	1214.45
347.13	1265.64
347.34	1236.97
347.55	1253.36
347.76	1294.32
347.98	1247.21
348.19	1257.45
348.40	1273.84
348.61	1296.36
348.82	1249.26
349.03	1269.74
349.24	1191.92
349.45	1290.22
349.66	1286.12
349.88	1185.77
350.09	1255.40
350.30	1288.17
350.51	1245.16
350.72	1327.08
350.93	1288.17
351.14	1300.46
351.35	1279.98
351.56	1273.84
351.77	1325.04
351.99	1183.73
352.20	1265.64
352.41	1351.66
352.62	1245.16
352.83	1284.08
353.04	1300.46
353.25	1218.54
353.46	1224.69
353.67	1239.02
353.88	1343.47
354.09	1322.99
354.30	1282.03
354.52	1279.98
354.73	1247.21
354.94	1275.88
355.15	1290.22
355.36	1208.30
355.57	1200.11
355.78	1204.21
355.99	1257.45
356.20	1320.94
356.41	1267.69
356.62	1232.88
356.83	1279.98
357.04	1320.94
357.25	1292.27
357.46	1273.84
357.68	1314.80
357.89	1277.93
358.10	1327.08
358.31	1349.61
358.52	1255.40
358.73	1314.80
358.94	1210.35
359.15	1241.07
359.36	1249.26
359.57	1212.40
359.78	1290.22
359.99	1259.50
360.20	1298.41
360.41	1273.84
360.62	1243.12
360.83	1279.98
361.04	1249.26
361.25	1247.21
361.46	1241.07
361.67	1247.21
361.88	1349.61
362.09	1261.55
362.30	1251.31
362.51	1271.79
362.72	1206.25
362.93	1247.21
363.14	1286.12
363.35	1286.12
363.56	1277.93
363.78	1269.74
363.99	1224.69
364.20	1286.12
364.41	1247.21
364.62	1169.39
364.83	1222.64
365.04	1271.79
365.25	1214.45
365.46	1300.46
365.67	1249.26
365.88	1249.26
366.09	1292.27
366.30	1245.16
366.51	1290.22
366.72	1236.97
366.93	1249.26
367.14	1232.88
367.35	1214.45
367.56	1273.84
367.77	1189.87
367.98	1275.88
368.18	1308.65
368.39	1212.40
368.60	1265.64
368.81	1255.40
369.02	1277.93
369.23	1290.22
369.44	1294.32
369.65	1310.70
369.86	1327.08
370.07	1343.47
370.28	1298.41
370.49	1247.21
370.70	1253.36
370.91	1218.54
371.12	1222.64
371.33	1255.40
371.54	1241.07
371.75	1302.51
371.96	1286.12
372.17	1284.08
372.38	1261.55
372.59	1210.35
372.80	1261.55
373.01	1312.75
373.22	1243.12
373.43	1236.97
373.64	1206.25
373.85	1277.93
374.06	1234.93
374.26	1255.40
374.47	1251.31
374.68	1269.74
374.89	1312.75
375.10	1202.16
375.31	1277.93
375.52	1288.17
375.73	1232.88
375.94	1189.87
376.15	1300.46
376.36	1277.93
376.57	1298.41
376.78	1349.61
376.99	1282.03
377.20	1292.27
377.40	1339.37
377.61	1202.16
377.82	1312.75
378.03	1333.23
378.24	1337.32
378.45	1245.16
378.66	1243.12
378.87	1200.11
379.08	1251.31
379.29	1327.08
379.50	1290.22
379.71	1308.65
379.91	1288.17
380.12	1239.02
380.33	1261.55
380.54	1273.84
380.75	1187.82
380.96	1208.30
381.17	1224.69
381.38	1290.22
381.59	1263.60
381.80	1337.32
382.00	1339.37
382.21	1380.33
382.42	1239.02
382.63	1279.98
382.84	1261.55
383.05	1212.40
383.26	1284.08
383.47	1226.73
383.68	1271.79
383.88	1263.60
384.09	1255.40
384.30	1261.55
384.51	1300.46
384.72	1271.79
384.93	1218.54
385.14	1202.16
385.35	1269.74
385.55	1292.27
385.76	1296.36
385.97	1284.08
386.18	1265.64
386.39	1277.93
386.60	1341.42
386.81	1296.36
387.02	1267.69
387.22	1245.16
387.43	1251.31
387.64	1218.54
387.85	1296.36
388.06	1298.41
388.27	1304.56
388.48	1310.70
388.68	1314.80
388.89	1236.97
389.10	1325.04
389.31	1310.70
389.52	1304.56
389.73	1273.84
389.93	1341.42
390.14	1261.55
390.35	1286.12
390.56	1259.50
390.77	1193.97
390.98	1343.47
391.18	1288.17
391.39	1277.93
391.60	1230.83
391.81	1265.64
392.02	1257.45
392.23	1308.65
392.43	1204.21
392.64	1206.25
392.85	1314.80
393.06	1224.69
393.27	1329.13
393.47	1220.59
393.68	1314.80
393.89	1257.45
394.10	1239.02
394.31	1259.50
394.52	1300.46
394.72	1306.60
394.93	1257.45
395.14	1204.21
395.35	1320.94
395.56	1359.85
395.76	1251.31
395.97	1279.98
396.18	1310.70
396.39	1216.49
396.60	1310.70
396.80	1159.15
397.01	1198.06
397.22	1243.12
397.43	1241.07
397.64	1296.36
397.84	1228.78
398.05	1290.22
398.26	1214.45
398.47	1265.64
398.67	1236.97
398.88	1306.60
399.09	1247.21
399.30	1335.28
399.51	1294.32
399.71	1144.81
399.92	1329.13
400.13	1259.50
400.34	1327.08
400.54	1269.74
400.75	1267.69
400.96	1202.16
401.17	1206.25
401.37	1286.12
401.58	1239.02
401.79	1275.88
402.00	1374.19
402.21	1265.64
402.41	1255.40
402.62	1337.32
402.83	1271.79
403.04	1273.84
403.24	1312.75
403.45	1267.69
403.66	1302.51
403.87	1249.26
404.07	1224.69
404.28	1314.80
404.49	1308.65
404.70	1257.45
404.90	1275.88
405.11	1208.30
405.32	1306.60
405.52	1220.59
405.73	1277.93
405.94	1331.18
406.15	1226.73
406.35	1202.16
406.56	1206.25
406.77	1310.70
406.98	1288.17
407.18	1284.08
407.39	1259.50
407.60	1167.34
407.80	1292.27
408.01	1384.43
408.22	1273.84
408.43	1263.60
408.63	1239.02
408.84	1337.32
409.05	1269.74
409.25	1279.98
409.46	1279.98
409.67	1322.99
409.88	1234.93
410.08	1273.84
410.29	1212.40
410.50	1241.07
410.70	1253.36
410.91	1284.08
411.12	1214.45
411.32	1181.68
411.53	1296.36
411.74	1263.60
411.95	1357.80
412.15	1302.51
412.36	1255.40
412.57	1245.16
412.77	1245.16
412.98	1239.02
413.19	1322.99
413.39	1226.73
413.60	1294.32
413.81	1302.51
414.01	1269.74
414.22	1193.97
414.43	1257.45
414.63	1179.63
414.84	1245.16
415.05	1271.79
415.25	1271.79
415.46	1212.40
415.67	1193.97
415.87	1171.44
416.08	1310.70
416.29	1298.41
416.49	1265.64
416.70	1304.56
416.91	1298.41
417.11	1296.36
417.32	1275.88
417.53	1267.69
417.73	1279.98
417.94	1292.27
418.15	1310.70
418.35	1271.79
418.56	1286.12
418.77	1312.75
418.97	1318.89
419.18	1292.27
419.38	1296.36
419.59	1243.12
419.80	1279.98
420.00	1245.16
420.21	1257.45
420.42	1247.21
420.62	1226.73
420.83	1279.98
421.04	1298.41
421.24	1316.84
421.45	1239.02
421.65	1322.99
421.86	1263.60
422.07	1226.73
422.27	1284.08
422.48	1234.93
422.69	1230.83
422.89	1265.64
423.10	1216.49
423.30	1193.97
423.51	1372.14
423.72	1228.78
423.92	1212.40
424.13	1263.60
424.33	1247.21
424.54	1331.18
424.75	1234.93
424.95	1216.49
425.16	1259.50
425.36	1298.41
425.57	1193.97
425.78	1230.83
425.98	1234.93
426.19	1275.88
426.39	1279.98
426.60	1251.31
426.81	1204.21
427.01	1228.78
427.22	1247.21
427.42	1173.49
427.63	1286.12
427.83	1298.41
428.04	1216.49
428.25	1261.55
428.45	1331.18
428.66	1277.93
428.86	1288.17
429.07	1267.69
429.28	1314.80
429.48	1257.45
429.69	1210.35
429.89	1306.60
430.10	1275.88
430.30	1220.59
430.51	1294.32
430.71	1288.17
430.92	1255.40
431.13	1304.56
431.33	1296.36
431.54	1277.93
431.74	1335.28
431.95	1294.32
432.15	1212.40
432.36	1269.74
432.56	1284.08
432.77	1318.89
432.98	1232.88
433.18	1206.25
433.39	1263.60
433.59	1247.21
433.80	1255.40
434.00	1298.41
434.21	1249.26
434.41	1292.27
434.62	1267.69
434.82	1243.12
435.03	1236.97
435.23	1263.60
435.44	1251.31
435.64	1257.45
435.85	1298.41
436.06	1251.31
436.26	1320.94
436.47	1245.16
436.67	1247.21
436.88	1275.88
437.08	1249.26
437.29	1302.51
437.49	1241.07
437.70	1251.31
437.90	1292.27
438.11	1288.17
438.31	1220.59
438.52	1292.27
438.72	1198.06
438.93	1267.69
439.13	1333.23
439.34	1273.84
439.54	1275.88
439.75	1241.07
439.95	1298.41
440.16	1222.64
440.36	1308.65
440.57	1279.98
440.77	1327.08
440.98	1228.78
441.18	1275.88
441.39	1224.69
441.59	1314.80
441.80	1218.54
442.00	1286.12
442.21	1290.22
442.41	1239.02
442.62	1290.22
442.82	1212.40
443.02	1273.84
443.23	1325.04
443.43	1249.26
443.64	1249.26
443.84	1290.22
444.05	1249.26
444.25	1298.41
444.46	1267.69
444.66	1251.31
444.87	1259.50
445.07	1282.03
445.28	1249.26
445.48	1308.65
445.69	1267.69
445.89	1183.73
446.09	1243.12
446.30	1310.70
446.50	1314.80
446.71	1259.50
446.91	1239.02
447.12	1261.55
447.32	1279.98
447.53	1304.56
447.73	1298.41
447.93	1253.36
448.14	1306.60
448.34	1234.93
448.55	1308.65
448.75	1255.40
448.96	1318.89
449.16	1251.31
449.36	1310.70
449.57	1298.41
449.77	1306.60
449.98	1304.56
450.18	1220.59
450.39	1349.61
450.59	1327.08
450.79	1329.13
451.00	1296.36
451.20	1193.97
451.41	1306.60
451.61	1290.22
451.81	1282.03
452.02	1292.27
452.22	1202.16
452.43	1255.40
452.63	1288.17
