SpectraSuite Data File
++++++++++++++++++++++++++++++++++++
Date: Sun Apr 03 19:55:34 CEST 2016
User: root
Dark Spectrum Present: No
Reference Spectrum Present: No
Number of Sampled Component Spectra: 1
Spectrometers: USB4C02835
Integration Time (usec): 10000 (USB4C02835)
Spectra Averaged: 1 (USB4C02835)
Boxcar Smoothing: 0 (USB4C02835)
Correct for Electrical Dark: No (USB4C02835)
Strobe/Lamp Enabled: No (USB4C02835)
Correct for Detector Non-linearity: No (USB4C02835)
Correct for Stray Light: No (USB4C02835)
Number of Pixels in Processed Spectrum: 3648
>>>>>Begin Processed Spectral Data<<<<<
177.47	1224.69
177.69	1224.69
177.91	1224.69
178.13	1214.45
178.36	1286.12
178.58	1271.79
178.80	1349.61
179.02	1210.35
179.24	1214.45
179.46	1183.73
179.68	1327.08
179.90	1320.94
180.13	1296.36
180.35	1273.84
180.57	1347.56
180.79	1294.32
181.01	1279.98
181.23	1284.08
181.45	1327.08
181.67	1265.64
181.90	1273.84
182.12	1189.87
182.34	1239.02
182.56	1298.41
182.78	1286.12
183.00	1314.80
183.22	1294.32
183.44	1196.01
183.66	1198.06
183.89	1247.21
184.11	1261.55
184.33	1171.44
184.55	1329.13
184.77	1310.70
184.99	1271.79
185.21	1355.76
185.43	1208.30
185.65	1304.56
185.87	1294.32
186.10	1308.65
186.32	1304.56
186.54	1290.22
186.76	1257.45
186.98	1306.60
187.20	1292.27
187.42	1239.02
187.64	1314.80
187.86	1314.80
188.08	1202.16
188.30	1331.18
188.52	1320.94
188.75	1304.56
188.97	1277.93
189.19	1296.36
189.41	1196.01
189.63	1247.21
189.85	1249.26
190.07	1277.93
190.29	1310.70
190.51	1290.22
190.73	1347.56
190.95	1292.27
191.17	1247.21
191.39	1245.16
191.61	1249.26
191.84	1245.16
192.06	1228.78
192.28	1282.03
192.50	1318.89
192.72	1279.98
192.94	1290.22
193.16	1271.79
193.38	1212.40
193.60	1267.69
193.82	1279.98
194.04	1296.36
194.26	1320.94
194.48	1249.26
194.70	1333.23
194.92	1214.45
195.14	1243.12
195.36	1261.55
195.58	1249.26
195.80	1243.12
196.02	1275.88
196.24	1306.60
196.46	1353.71
196.69	1308.65
196.91	1267.69
197.13	1277.93
197.35	1253.36
197.57	1288.17
197.79	1292.27
198.01	1296.36
198.23	1277.93
198.45	1265.64
198.67	1222.64
198.89	1269.74
199.11	1269.74
199.33	1265.64
199.55	1288.17
199.77	1269.74
199.99	1265.64
200.21	1273.84
200.43	1273.84
200.65	1243.12
200.87	1277.93
201.09	1269.74
201.31	1302.51
201.53	1302.51
201.75	1282.03
201.97	1294.32
202.19	1241.07
202.41	1273.84
202.63	1249.26
202.85	1306.60
203.07	1267.69
203.29	1247.21
203.51	1241.07
203.73	1261.55
203.95	1337.32
204.17	1275.88
204.39	1275.88
204.61	1247.21
204.83	1265.64
205.05	1273.84
205.27	1269.74
205.49	1286.12
205.71	1257.45
205.93	1210.35
206.15	1224.69
206.37	1316.84
206.59	1265.64
206.81	1306.60
207.03	1232.88
207.25	1232.88
207.47	1241.07
207.69	1245.16
207.91	1288.17
208.13	1339.37
208.34	1284.08
208.56	1226.73
208.78	1296.36
209.00	1198.06
209.22	1304.56
209.44	1220.59
209.66	1265.64
209.88	1253.36
210.10	1316.84
210.32	1294.32
210.54	1277.93
210.76	1269.74
210.98	1327.08
211.20	1306.60
211.42	1265.64
211.64	1232.88
211.86	1263.60
212.08	1222.64
212.30	1241.07
212.52	1292.27
212.74	1327.08
212.96	1230.83
213.17	1234.93
213.39	1183.73
213.61	1279.98
213.83	1284.08
214.05	1290.22
214.27	1279.98
214.49	1279.98
214.71	1259.50
214.93	1322.99
215.15	1325.04
215.37	1220.59
215.59	1294.32
215.81	1265.64
216.03	1208.30
216.24	1208.30
216.46	1245.16
216.68	1263.60
216.90	1212.40
217.12	1286.12
217.34	1251.31
217.56	1259.50
217.78	1245.16
218.00	1226.73
218.22	1298.41
218.44	1306.60
218.66	1292.27
218.87	1339.37
219.09	1243.12
219.31	1284.08
219.53	1222.64
219.75	1208.30
219.97	1353.71
220.19	1372.14
220.41	1304.56
220.63	1298.41
220.85	1245.16
221.06	1310.70
221.28	1220.59
221.50	1259.50
221.72	1228.78
221.94	1300.46
222.16	1271.79
222.38	1271.79
222.60	1300.46
222.82	1265.64
223.03	1212.40
223.25	1245.16
223.47	1320.94
223.69	1286.12
223.91	1292.27
224.13	1331.18
224.35	1251.31
224.57	1306.60
224.78	1220.59
225.00	1378.28
225.22	1320.94
225.44	1261.55
225.66	1243.12
225.88	1232.88
226.10	1263.60
226.32	1253.36
226.53	1296.36
226.75	1294.32
226.97	1298.41
227.19	1279.98
227.41	1271.79
227.63	1204.21
227.85	1302.51
228.06	1218.54
228.28	1302.51
228.50	1239.02
228.72	1282.03
228.94	1349.61
229.16	1265.64
229.37	1306.60
229.59	1292.27
229.81	1304.56
230.03	1245.16
230.25	1247.21
230.47	1271.79
230.69	1241.07
230.90	1265.64
231.12	1288.17
231.34	1263.60
231.56	1366.00
231.78	1310.70
232.00	1216.49
232.21	1271.79
232.43	1325.04
232.65	1290.22
232.87	1222.64
233.09	1279.98
233.30	1363.95
233.52	1306.60
233.74	1265.64
233.96	1310.70
234.18	1318.89
234.40	1259.50
234.61	1306.60
234.83	1290.22
235.05	1273.84
235.27	1249.26
235.49	1345.52
235.70	1277.93
235.92	1279.98
236.14	1343.47
236.36	1359.85
236.58	1300.46
236.79	1277.93
237.01	1239.02
237.23	1146.86
237.45	1243.12
237.67	1241.07
237.88	1216.49
238.10	1304.56
238.32	1239.02
238.54	1265.64
238.76	1253.36
238.97	1277.93
239.19	1296.36
239.41	1245.16
239.63	1335.28
239.85	1322.99
240.06	1339.37
240.28	1255.40
240.50	1222.64
240.72	1214.45
240.93	1245.16
241.15	1296.36
241.37	1228.78
241.59	1298.41
241.81	1308.65
242.02	1269.74
242.24	1288.17
242.46	1275.88
242.68	1191.92
242.89	1279.98
243.11	1236.97
243.33	1284.08
243.55	1157.10
243.76	1247.21
243.98	1243.12
244.20	1314.80
244.42	1318.89
244.64	1306.60
244.85	1300.46
245.07	1206.25
245.29	1327.08
245.51	1310.70
245.72	1273.84
245.94	1288.17
246.16	1241.07
246.38	1298.41
246.59	1239.02
246.81	1241.07
247.03	1224.69
247.24	1292.27
247.46	1306.60
247.68	1331.18
247.90	1271.79
248.11	1196.01
248.33	1277.93
248.55	1259.50
248.77	1290.22
248.98	1236.97
249.20	1277.93
249.42	1282.03
249.64	1228.78
249.85	1286.12
250.07	1263.60
250.29	1312.75
250.50	1294.32
250.72	1224.69
250.94	1251.31
251.16	1208.30
251.37	1255.40
251.59	1226.73
251.81	1306.60
252.02	1288.17
252.24	1198.06
252.46	1316.84
252.68	1310.70
252.89	1271.79
253.11	1249.26
253.33	1202.16
253.54	1214.45
253.76	1230.83
253.98	1294.32
254.20	1273.84
254.41	1298.41
254.63	1249.26
254.85	1286.12
255.06	1243.12
255.28	1284.08
255.50	1222.64
255.71	1236.97
255.93	1277.93
256.15	1261.55
256.36	1220.59
256.58	1257.45
256.80	1273.84
257.02	1292.27
257.23	1271.79
257.45	1253.36
257.67	1292.27
257.88	1335.28
258.10	1277.93
258.32	1286.12
258.53	1222.64
258.75	1316.84
258.97	1337.32
259.18	1347.56
259.40	1273.84
259.62	1316.84
259.83	1282.03
260.05	1265.64
260.27	1292.27
260.48	1259.50
260.70	1249.26
260.92	1247.21
261.13	1239.02
261.35	1206.25
261.57	1273.84
261.78	1226.73
262.00	1267.69
262.22	1226.73
262.43	1239.02
262.65	1253.36
262.86	1269.74
263.08	1277.93
263.30	1306.60
263.51	1232.88
263.73	1322.99
263.95	1314.80
264.16	1255.40
264.38	1241.07
264.60	1249.26
264.81	1286.12
265.03	1208.30
265.25	1228.78
265.46	1222.64
265.68	1288.17
265.89	1247.21
266.11	1222.64
266.33	1275.88
266.54	1329.13
266.76	1304.56
266.98	1249.26
267.19	1351.66
267.41	1296.36
267.62	1282.03
267.84	1241.07
268.06	1286.12
268.27	1273.84
268.49	1273.84
268.70	1279.98
268.92	1277.93
269.14	1173.49
269.35	1247.21
269.57	1322.99
269.79	1239.02
270.00	1290.22
270.22	1222.64
270.43	1286.12
270.65	1263.60
270.87	1322.99
271.08	1273.84
271.30	1220.59
271.51	1282.03
271.73	1286.12
271.95	1247.21
272.16	1261.55
272.38	1300.46
272.59	1288.17
272.81	1236.97
273.02	1232.88
273.24	1255.40
273.46	1269.74
273.67	1193.97
273.89	1316.84
274.10	1279.98
274.32	1249.26
274.54	1306.60
274.75	1204.21
274.97	1286.12
275.18	1290.22
275.40	1282.03
275.61	1284.08
275.83	1265.64
276.05	1189.87
276.26	1349.61
276.48	1146.86
276.69	1294.32
276.91	1296.36
277.12	1271.79
277.34	1279.98
277.55	1249.26
277.77	1228.78
277.99	1249.26
278.20	1306.60
278.42	1288.17
278.63	1312.75
278.85	1261.55
279.06	1273.84
279.28	1243.12
279.49	1271.79
279.71	1267.69
279.93	1298.41
280.14	1339.37
280.36	1255.40
280.57	1277.93
280.79	1216.49
281.00	1325.04
281.22	1206.25
281.43	1304.56
281.65	1247.21
281.86	1249.26
282.08	1232.88
282.29	1284.08
282.51	1257.45
282.73	1392.62
282.94	1353.71
283.16	1284.08
283.37	1267.69
283.59	1282.03
283.80	1234.93
284.02	1234.93
284.23	1290.22
284.45	1298.41
284.66	1351.66
284.88	1318.89
285.09	1163.25
285.31	1216.49
285.52	1296.36
285.74	1226.73
285.95	1308.65
286.17	1298.41
286.38	1279.98
286.60	1265.64
286.81	1259.50
287.03	1241.07
287.24	1265.64
287.46	1275.88
287.67	1259.50
287.89	1230.83
288.10	1245.16
288.32	1245.16
288.53	1263.60
288.75	1316.84
288.96	1236.97
289.18	1253.36
289.39	1232.88
289.61	1273.84
289.82	1226.73
290.04	1368.04
290.25	1236.97
290.47	1239.02
290.68	1304.56
290.90	1290.22
291.11	1218.54
291.33	1284.08
291.54	1257.45
291.76	1245.16
291.97	1265.64
292.18	1288.17
292.40	1222.64
292.61	1253.36
292.83	1306.60
293.04	1294.32
293.26	1294.32
293.47	1222.64
293.69	1308.65
293.90	1316.84
294.12	1279.98
294.33	1294.32
294.55	1300.46
294.76	1298.41
294.97	1302.51
295.19	1241.07
295.40	1290.22
295.62	1282.03
295.83	1224.69
296.05	1286.12
296.26	1230.83
296.48	1304.56
296.69	1234.93
296.90	1325.04
297.12	1247.21
297.33	1249.26
297.55	1296.36
297.76	1294.32
297.98	1300.46
298.19	1247.21
298.41	1243.12
298.62	1304.56
298.83	1329.13
299.05	1292.27
299.26	1234.93
299.48	1204.21
299.69	1306.60
299.90	1243.12
300.12	1286.12
300.33	1269.74
300.55	1247.21
300.76	1316.84
300.98	1269.74
301.19	1282.03
301.40	1290.22
301.62	1288.17
301.83	1320.94
302.05	1241.07
302.26	1308.65
302.47	1265.64
302.69	1292.27
302.90	1263.60
303.12	1236.97
303.33	1269.74
303.54	1329.13
303.76	1312.75
303.97	1298.41
304.19	1273.84
304.40	1214.45
304.61	1245.16
304.83	1236.97
305.04	1290.22
305.26	1282.03
305.47	1327.08
305.68	1228.78
305.90	1210.35
306.11	1298.41
306.33	1208.30
306.54	1288.17
306.75	1288.17
306.97	1210.35
307.18	1277.93
307.39	1288.17
307.61	1267.69
307.82	1279.98
308.04	1279.98
308.25	1300.46
308.46	1314.80
308.68	1300.46
308.89	1214.45
309.10	1267.69
309.32	1308.65
309.53	1249.26
309.74	1288.17
309.96	1277.93
310.17	1306.60
310.39	1306.60
310.60	1257.45
310.81	1249.26
311.03	1245.16
311.24	1261.55
311.45	1269.74
311.67	1273.84
311.88	1228.78
312.09	1294.32
312.31	1322.99
312.52	1312.75
312.73	1329.13
312.95	1230.83
313.16	1292.27
313.37	1277.93
313.59	1247.21
313.80	1294.32
314.01	1228.78
314.23	1273.84
314.44	1253.36
314.65	1251.31
314.87	1347.56
315.08	1251.31
315.29	1234.93
315.51	1175.53
315.72	1271.79
315.93	1351.66
316.15	1241.07
316.36	1257.45
316.57	1284.08
316.79	1259.50
317.00	1193.97
317.21	1249.26
317.43	1273.84
317.64	1267.69
317.85	1257.45
318.07	1277.93
318.28	1273.84
318.49	1257.45
318.70	1277.93
318.92	1304.56
319.13	1290.22
319.34	1306.60
319.56	1368.04
319.77	1325.04
319.98	1216.49
320.20	1173.49
320.41	1247.21
320.62	1277.93
320.83	1279.98
321.05	1247.21
321.26	1228.78
321.47	1267.69
321.69	1230.83
321.90	1198.06
322.11	1255.40
322.32	1241.07
322.54	1277.93
322.75	1255.40
322.96	1310.70
323.18	1286.12
323.39	1284.08
323.60	1243.12
323.81	1236.97
324.03	1288.17
324.24	1320.94
324.45	1228.78
324.66	1249.26
324.88	1275.88
325.09	1273.84
325.30	1282.03
325.52	1249.26
325.73	1263.60
325.94	1279.98
326.15	1345.52
326.37	1273.84
326.58	1325.04
326.79	1239.02
327.00	1249.26
327.22	1273.84
327.43	1282.03
327.64	1310.70
327.85	1267.69
328.07	1234.93
328.28	1292.27
328.49	1234.93
328.70	1216.49
328.92	1271.79
329.13	1239.02
329.34	1251.31
329.55	1239.02
329.76	1273.84
329.98	1224.69
330.19	1304.56
330.40	1232.88
330.61	1224.69
330.83	1257.45
331.04	1298.41
331.25	1265.64
331.46	1236.97
331.68	1253.36
331.89	1267.69
332.10	1284.08
332.31	1290.22
332.52	1257.45
332.74	1253.36
332.95	1277.93
333.16	1228.78
333.37	1204.21
333.58	1279.98
333.80	1282.03
334.01	1232.88
334.22	1263.60
334.43	1282.03
334.64	1241.07
334.86	1333.23
335.07	1263.60
335.28	1239.02
335.49	1251.31
335.70	1251.31
335.92	1263.60
336.13	1241.07
336.34	1226.73
336.55	1236.97
336.76	1249.26
336.98	1322.99
337.19	1251.31
337.40	1286.12
337.61	1335.28
337.82	1243.12
338.04	1224.69
338.25	1263.60
338.46	1294.32
338.67	1253.36
338.88	1279.98
339.09	1306.60
339.31	1196.01
339.52	1249.26
339.73	1318.89
339.94	1245.16
340.15	1273.84
340.36	1282.03
340.58	1210.35
340.79	1263.60
341.00	1277.93
341.21	1320.94
341.42	1277.93
341.63	1312.75
341.85	1251.31
342.06	1277.93
342.27	1325.04
342.48	1265.64
342.69	1279.98
342.90	1271.79
343.12	1359.85
343.33	1282.03
343.54	1275.88
343.75	1271.79
343.96	1243.12
344.17	1314.80
344.38	1214.45
344.60	1255.40
344.81	1277.93
345.02	1298.41
345.23	1261.55
345.44	1267.69
345.65	1304.56
345.86	1228.78
346.07	1374.19
346.29	1277.93
346.50	1224.69
346.71	1304.56
346.92	1216.49
347.13	1236.97
347.34	1236.97
347.55	1210.35
347.76	1247.21
347.98	1279.98
348.19	1247.21
348.40	1249.26
348.61	1296.36
348.82	1351.66
349.03	1247.21
349.24	1298.41
349.45	1249.26
349.66	1320.94
349.88	1224.69
350.09	1296.36
350.30	1277.93
350.51	1273.84
350.72	1333.23
350.93	1247.21
351.14	1251.31
351.35	1267.69
351.56	1282.03
351.77	1255.40
351.99	1282.03
352.20	1304.56
352.41	1189.87
352.62	1304.56
352.83	1200.11
353.04	1329.13
353.25	1251.31
353.46	1208.30
353.67	1239.02
353.88	1241.07
354.09	1257.45
354.30	1253.36
354.52	1298.41
354.73	1279.98
354.94	1310.70
355.15	1245.16
355.36	1259.50
355.57	1331.18
355.78	1316.84
355.99	1249.26
356.20	1261.55
356.41	1290.22
356.62	1247.21
356.83	1304.56
357.04	1296.36
357.25	1318.89
357.46	1251.31
357.68	1269.74
357.89	1245.16
358.10	1277.93
358.31	1273.84
358.52	1253.36
358.73	1234.93
358.94	1216.49
359.15	1232.88
359.36	1263.60
359.57	1267.69
359.78	1296.36
359.99	1277.93
360.20	1153.01
360.41	1232.88
360.62	1243.12
360.83	1273.84
361.04	1257.45
361.25	1243.12
361.46	1347.56
361.67	1265.64
361.88	1288.17
362.09	1300.46
362.30	1353.71
362.51	1308.65
362.72	1253.36
362.93	1292.27
363.14	1212.40
363.35	1224.69
363.56	1298.41
363.78	1310.70
363.99	1288.17
364.20	1306.60
364.41	1216.49
364.62	1357.80
364.83	1279.98
365.04	1224.69
365.25	1269.74
365.46	1189.87
365.67	1236.97
365.88	1273.84
366.09	1239.02
366.30	1347.56
366.51	1339.37
366.72	1298.41
366.93	1277.93
367.14	1222.64
367.35	1298.41
367.56	1265.64
367.77	1243.12
367.98	1288.17
368.18	1298.41
368.39	1339.37
368.60	1230.83
368.81	1257.45
369.02	1241.07
369.23	1288.17
369.44	1273.84
369.65	1232.88
369.86	1286.12
370.07	1273.84
370.28	1288.17
370.49	1302.51
370.70	1286.12
370.91	1247.21
371.12	1265.64
371.33	1284.08
371.54	1216.49
371.75	1310.70
371.96	1196.01
372.17	1302.51
372.38	1271.79
372.59	1214.45
372.80	1236.97
373.01	1253.36
373.22	1271.79
373.43	1271.79
373.64	1290.22
373.85	1286.12
374.06	1210.35
374.26	1241.07
374.47	1206.25
374.68	1206.25
374.89	1247.21
375.10	1277.93
375.31	1296.36
375.52	1247.21
375.73	1253.36
375.94	1255.40
376.15	1357.80
376.36	1292.27
376.57	1279.98
376.78	1210.35
376.99	1282.03
377.20	1312.75
377.40	1361.90
377.61	1318.89
377.82	1312.75
378.03	1384.43
378.24	1298.41
378.45	1275.88
378.66	1306.60
378.87	1210.35
379.08	1275.88
379.29	1241.07
379.50	1228.78
379.71	1275.88
379.91	1208.30
380.12	1310.70
380.33	1325.04
380.54	1196.01
380.75	1257.45
380.96	1259.50
381.17	1288.17
381.38	1253.36
381.59	1271.79
381.80	1226.73
382.00	1304.56
382.21	1212.40
382.42	1306.60
382.63	1232.88
382.84	1265.64
383.05	1255.40
383.26	1296.36
383.47	1234.93
383.68	1290.22
383.88	1282.03
384.09	1265.64
384.30	1275.88
384.51	1200.11
384.72	1232.88
384.93	1320.94
385.14	1286.12
385.35	1318.89
385.55	1255.40
385.76	1298.41
385.97	1253.36
386.18	1263.60
386.39	1259.50
386.60	1243.12
386.81	1273.84
387.02	1236.97
387.22	1251.31
387.43	1273.84
387.64	1282.03
387.85	1271.79
388.06	1267.69
388.27	1329.13
388.48	1198.06
388.68	1208.30
388.89	1333.23
389.10	1232.88
389.31	1253.36
389.52	1261.55
389.73	1249.26
389.93	1216.49
390.14	1249.26
390.35	1243.12
390.56	1300.46
390.77	1224.69
390.98	1273.84
391.18	1271.79
391.39	1239.02
391.60	1384.43
391.81	1218.54
392.02	1292.27
392.23	1282.03
392.43	1284.08
392.64	1320.94
392.85	1290.22
393.06	1263.60
393.27	1251.31
393.47	1290.22
393.68	1314.80
393.89	1226.73
394.10	1277.93
394.31	1257.45
394.52	1253.36
394.72	1314.80
394.93	1294.32
395.14	1241.07
395.35	1175.53
395.56	1275.88
395.76	1224.69
395.97	1275.88
396.18	1263.60
396.39	1269.74
396.60	1359.85
396.80	1284.08
397.01	1304.56
397.22	1314.80
397.43	1241.07
397.64	1292.27
397.84	1255.40
398.05	1257.45
398.26	1284.08
398.47	1366.00
398.67	1267.69
398.88	1312.75
399.09	1259.50
399.30	1236.97
399.51	1234.93
399.71	1196.01
399.92	1288.17
400.13	1198.06
400.34	1273.84
400.54	1269.74
400.75	1220.59
400.96	1241.07
401.17	1255.40
401.37	1206.25
401.58	1220.59
401.79	1193.97
402.00	1316.84
402.21	1314.80
402.41	1300.46
402.62	1265.64
402.83	1265.64
403.04	1234.93
403.24	1294.32
403.45	1126.38
403.66	1325.04
403.87	1208.30
404.07	1302.51
404.28	1241.07
404.49	1310.70
404.70	1288.17
404.90	1279.98
405.11	1306.60
405.32	1249.26
405.52	1267.69
405.73	1234.93
405.94	1284.08
406.15	1198.06
406.35	1263.60
406.56	1265.64
406.77	1263.60
406.98	1267.69
407.18	1208.30
407.39	1273.84
407.60	1212.40
407.80	1304.56
408.01	1288.17
408.22	1277.93
408.43	1269.74
408.63	1286.12
408.84	1265.64
409.05	1263.60
409.25	1245.16
409.46	1282.03
409.67	1290.22
409.88	1222.64
410.08	1267.69
410.29	1355.76
410.50	1282.03
410.70	1210.35
410.91	1306.60
411.12	1265.64
411.32	1216.49
411.53	1300.46
411.74	1241.07
411.95	1243.12
412.15	1239.02
412.36	1298.41
412.57	1191.92
412.77	1322.99
412.98	1247.21
413.19	1257.45
413.39	1257.45
413.60	1288.17
413.81	1347.56
414.01	1253.36
414.22	1284.08
414.43	1263.60
414.63	1243.12
414.84	1318.89
415.05	1249.26
415.25	1263.60
415.46	1232.88
415.67	1265.64
415.87	1275.88
416.08	1267.69
416.29	1298.41
416.49	1282.03
416.70	1220.59
416.91	1277.93
417.11	1304.56
417.32	1310.70
417.53	1247.21
417.73	1232.88
417.94	1312.75
418.15	1265.64
418.35	1265.64
418.56	1298.41
418.77	1232.88
418.97	1282.03
419.18	1304.56
419.38	1314.80
419.59	1239.02
419.80	1273.84
420.00	1308.65
420.21	1296.36
420.42	1349.61
420.62	1331.18
420.83	1292.27
421.04	1251.31
421.24	1236.97
421.45	1320.94
421.65	1247.21
421.86	1253.36
422.07	1273.84
422.27	1222.64
422.48	1208.30
422.69	1265.64
422.89	1261.55
423.10	1322.99
423.30	1224.69
423.51	1331.18
423.72	1308.65
423.92	1265.64
424.13	1271.79
424.33	1296.36
424.54	1251.31
424.75	1255.40
424.95	1257.45
425.16	1304.56
425.36	1253.36
425.57	1290.22
425.78	1212.40
425.98	1265.64
426.19	1320.94
426.39	1175.53
426.60	1236.97
426.81	1331.18
427.01	1306.60
427.22	1265.64
427.42	1273.84
427.63	1204.21
427.83	1257.45
428.04	1288.17
428.25	1327.08
428.45	1216.49
428.66	1257.45
428.86	1249.26
429.07	1366.00
429.28	1277.93
429.48	1236.97
429.69	1286.12
429.89	1300.46
430.10	1224.69
430.30	1308.65
430.51	1333.23
430.71	1265.64
430.92	1304.56
431.13	1271.79
431.33	1255.40
431.54	1343.47
431.74	1298.41
431.95	1275.88
432.15	1337.32
432.36	1148.91
432.56	1294.32
432.77	1269.74
432.98	1267.69
433.18	1290.22
433.39	1259.50
433.59	1220.59
433.80	1275.88
434.00	1290.22
434.21	1269.74
434.41	1267.69
434.62	1300.46
434.82	1226.73
435.03	1279.98
435.23	1304.56
435.44	1236.97
435.64	1232.88
435.85	1241.07
436.06	1257.45
436.26	1316.84
436.47	1325.04
436.67	1226.73
436.88	1282.03
437.08	1286.12
437.29	1249.26
437.49	1320.94
437.70	1275.88
437.90	1292.27
438.11	1206.25
438.31	1277.93
438.52	1300.46
438.72	1204.21
438.93	1316.84
439.13	1259.50
439.34	1290.22
439.54	1247.21
439.75	1214.45
439.95	1298.41
440.16	1294.32
440.36	1265.64
440.57	1204.21
440.77	1265.64
440.98	1265.64
441.18	1247.21
441.39	1234.93
441.59	1224.69
441.80	1241.07
442.00	1267.69
442.21	1226.73
442.41	1279.98
442.62	1284.08
442.82	1234.93
443.02	1290.22
443.23	1292.27
443.43	1212.40
443.64	1239.02
443.84	1245.16
444.05	1247.21
444.25	1249.26
444.46	1284.08
444.66	1257.45
444.87	1355.76
445.07	1282.03
445.28	1349.61
445.48	1249.26
445.69	1304.56
445.89	1333.23
446.09	1239.02
446.30	1216.49
446.50	1245.16
446.71	1245.16
446.91	1236.97
447.12	1288.17
447.32	1341.42
447.53	1251.31
447.73	1304.56
447.93	1292.27
448.14	1306.60
448.34	1292.27
448.55	1243.12
448.75	1271.79
448.96	1251.31
449.16	1302.51
449.36	1306.60
449.57	1257.45
449.77	1308.65
449.98	1294.32
450.18	1271.79
450.39	1298.41
450.59	1206.25
450.79	1279.98
451.00	1298.41
451.20	1294.32
451.41	1347.56
451.61	1275.88
451.81	1277.93
452.02	1257.45
452.22	1316.84
452.43	1341.42
452.63	1251.31
