SpectraSuite Data File
++++++++++++++++++++++++++++++++++++
Date: Sun Apr 03 19:55:23 CEST 2016
User: root
Dark Spectrum Present: No
Reference Spectrum Present: No
Number of Sampled Component Spectra: 1
Spectrometers: USB4C02835
Integration Time (usec): 10000 (USB4C02835)
Spectra Averaged: 1 (USB4C02835)
Boxcar Smoothing: 0 (USB4C02835)
Correct for Electrical Dark: No (USB4C02835)
Strobe/Lamp Enabled: No (USB4C02835)
Correct for Detector Non-linearity: No (USB4C02835)
Correct for Stray Light: No (USB4C02835)
Number of Pixels in Processed Spectrum: 3648
>>>>>Begin Processed Spectral Data<<<<<
177.47	1247.21
177.69	1247.21
177.91	1247.21
178.13	1277.93
178.36	1282.03
178.58	1226.73
178.80	1329.13
179.02	1261.55
179.24	1245.16
179.46	1265.64
179.68	1263.60
179.90	1294.32
180.13	1284.08
180.35	1249.26
180.57	1271.79
180.79	1290.22
181.01	1165.29
181.23	1220.59
181.45	1284.08
181.67	1271.79
181.90	1298.41
182.12	1220.59
182.34	1216.49
182.56	1249.26
182.78	1257.45
183.00	1316.84
183.22	1261.55
183.44	1261.55
183.66	1302.51
183.89	1247.21
184.11	1275.88
184.33	1241.07
184.55	1251.31
184.77	1226.73
184.99	1249.26
185.21	1290.22
185.43	1288.17
185.65	1286.12
185.87	1282.03
186.10	1290.22
186.32	1239.02
186.54	1286.12
186.76	1200.11
186.98	1206.25
187.20	1361.90
187.42	1232.88
187.64	1230.83
187.86	1298.41
188.08	1298.41
188.30	1257.45
188.52	1245.16
188.75	1257.45
188.97	1273.84
189.19	1165.29
189.41	1210.35
189.63	1277.93
189.85	1249.26
190.07	1277.93
190.29	1318.89
190.51	1273.84
190.73	1282.03
190.95	1325.04
191.17	1239.02
191.39	1187.82
191.61	1273.84
191.84	1331.18
192.06	1271.79
192.28	1318.89
192.50	1265.64
192.72	1259.50
192.94	1220.59
193.16	1296.36
193.38	1347.56
193.60	1193.97
193.82	1294.32
194.04	1290.22
194.26	1232.88
194.48	1271.79
194.70	1269.74
194.92	1247.21
195.14	1265.64
195.36	1183.73
195.58	1302.51
195.80	1286.12
196.02	1253.36
196.24	1292.27
196.46	1370.09
196.69	1267.69
196.91	1257.45
197.13	1327.08
197.35	1312.75
197.57	1273.84
197.79	1249.26
198.01	1292.27
198.23	1288.17
198.45	1269.74
198.67	1228.78
198.89	1284.08
199.11	1277.93
199.33	1232.88
199.55	1232.88
199.77	1210.35
199.99	1306.60
200.21	1308.65
200.43	1255.40
200.65	1300.46
200.87	1269.74
201.09	1337.32
201.31	1271.79
201.53	1294.32
201.75	1267.69
201.97	1284.08
202.19	1249.26
202.41	1251.31
202.63	1279.98
202.85	1286.12
203.07	1228.78
203.29	1236.97
203.51	1261.55
203.73	1214.45
203.95	1318.89
204.17	1265.64
204.39	1361.90
204.61	1304.56
204.83	1288.17
205.05	1247.21
205.27	1214.45
205.49	1286.12
205.71	1232.88
205.93	1306.60
206.15	1298.41
206.37	1234.93
206.59	1308.65
206.81	1261.55
207.03	1294.32
207.25	1275.88
207.47	1304.56
207.69	1294.32
207.91	1247.21
208.13	1269.74
208.34	1261.55
208.56	1196.01
208.78	1284.08
209.00	1261.55
209.22	1284.08
209.44	1255.40
209.66	1224.69
209.88	1255.40
210.10	1259.50
210.32	1239.02
210.54	1224.69
210.76	1210.35
210.98	1271.79
211.20	1302.51
211.42	1271.79
211.64	1169.39
211.86	1325.04
212.08	1273.84
212.30	1212.40
212.52	1220.59
212.74	1325.04
212.96	1345.52
213.17	1284.08
213.39	1298.41
213.61	1247.21
213.83	1251.31
214.05	1273.84
214.27	1277.93
214.49	1282.03
214.71	1265.64
214.93	1251.31
215.15	1275.88
215.37	1249.26
215.59	1206.25
215.81	1298.41
216.03	1304.56
216.24	1179.63
216.46	1196.01
216.68	1302.51
216.90	1288.17
217.12	1304.56
217.34	1218.54
217.56	1243.12
217.78	1236.97
218.00	1234.93
218.22	1296.36
218.44	1310.70
218.66	1290.22
218.87	1296.36
219.09	1357.80
219.31	1271.79
219.53	1261.55
219.75	1236.97
219.97	1249.26
220.19	1304.56
220.41	1275.88
220.63	1263.60
220.85	1282.03
221.06	1228.78
221.28	1218.54
221.50	1222.64
221.72	1306.60
221.94	1296.36
222.16	1241.07
222.38	1239.02
222.60	1286.12
222.82	1232.88
223.03	1277.93
223.25	1284.08
223.47	1267.69
223.69	1284.08
223.91	1226.73
224.13	1282.03
224.35	1282.03
224.57	1318.89
224.78	1271.79
225.00	1247.21
225.22	1275.88
225.44	1320.94
225.66	1271.79
225.88	1327.08
226.10	1265.64
226.32	1282.03
226.53	1284.08
226.75	1271.79
226.97	1239.02
227.19	1279.98
227.41	1230.83
227.63	1222.64
227.85	1155.05
228.06	1269.74
228.28	1259.50
228.50	1253.36
228.72	1198.06
228.94	1290.22
229.16	1236.97
229.37	1296.36
229.59	1214.45
229.81	1282.03
230.03	1269.74
230.25	1232.88
230.47	1327.08
230.69	1310.70
230.90	1327.08
231.12	1306.60
231.34	1228.78
231.56	1288.17
231.78	1298.41
232.00	1304.56
232.21	1249.26
232.43	1241.07
232.65	1206.25
232.87	1304.56
233.09	1273.84
233.30	1222.64
233.52	1204.21
233.74	1279.98
233.96	1204.21
234.18	1284.08
234.40	1245.16
234.61	1304.56
234.83	1282.03
235.05	1347.56
235.27	1191.92
235.49	1310.70
235.70	1202.16
235.92	1312.75
236.14	1177.58
236.36	1236.97
236.58	1325.04
236.79	1265.64
237.01	1222.64
237.23	1290.22
237.45	1277.93
237.67	1286.12
237.88	1284.08
238.10	1314.80
238.32	1241.07
238.54	1218.54
238.76	1279.98
238.97	1288.17
239.19	1267.69
239.41	1322.99
239.63	1236.97
239.85	1290.22
240.06	1251.31
240.28	1253.36
240.50	1282.03
240.72	1255.40
240.93	1218.54
241.15	1259.50
241.37	1222.64
241.59	1193.97
241.81	1294.32
242.02	1212.40
242.24	1236.97
242.46	1277.93
242.68	1259.50
242.89	1306.60
243.11	1239.02
243.33	1308.65
243.55	1290.22
243.76	1239.02
243.98	1302.51
244.20	1202.16
244.42	1228.78
244.64	1230.83
244.85	1249.26
245.07	1277.93
245.29	1265.64
245.51	1193.97
245.72	1308.65
245.94	1218.54
246.16	1253.36
246.38	1273.84
246.59	1202.16
246.81	1275.88
247.03	1337.32
247.24	1271.79
247.46	1224.69
247.68	1224.69
247.90	1294.32
248.11	1249.26
248.33	1273.84
248.55	1253.36
248.77	1255.40
248.98	1310.70
249.20	1263.60
249.42	1255.40
249.64	1228.78
249.85	1292.27
250.07	1286.12
250.29	1290.22
250.50	1288.17
250.72	1314.80
250.94	1251.31
251.16	1263.60
251.37	1239.02
251.59	1300.46
251.81	1253.36
252.02	1304.56
252.24	1273.84
252.46	1306.60
252.68	1275.88
252.89	1193.97
253.11	1290.22
253.33	1366.00
253.54	1218.54
253.76	1327.08
253.98	1277.93
254.20	1249.26
254.41	1347.56
254.63	1241.07
254.85	1265.64
255.06	1269.74
255.28	1306.60
255.50	1220.59
255.71	1263.60
255.93	1269.74
256.15	1320.94
256.36	1271.79
256.58	1298.41
256.80	1314.80
257.02	1228.78
257.23	1239.02
257.45	1239.02
257.67	1300.46
257.88	1275.88
258.10	1241.07
258.32	1284.08
258.53	1271.79
258.75	1247.21
258.97	1196.01
259.18	1284.08
259.40	1212.40
259.62	1282.03
259.83	1288.17
260.05	1261.55
260.27	1304.56
260.48	1279.98
260.70	1372.14
260.92	1286.12
261.13	1239.02
261.35	1241.07
261.57	1265.64
261.78	1232.88
262.00	1251.31
262.22	1236.97
262.43	1306.60
262.65	1210.35
262.86	1284.08
263.08	1304.56
263.30	1271.79
263.51	1265.64
263.73	1288.17
263.95	1253.36
264.16	1232.88
264.38	1243.12
264.60	1292.27
264.81	1243.12
265.03	1234.93
265.25	1302.51
265.46	1374.19
265.68	1320.94
265.89	1273.84
266.11	1245.16
266.33	1327.08
266.54	1241.07
266.76	1310.70
266.98	1253.36
267.19	1308.65
267.41	1271.79
267.62	1312.75
267.84	1277.93
268.06	1286.12
268.27	1140.72
268.49	1288.17
268.70	1251.31
268.92	1269.74
269.14	1247.21
269.35	1245.16
269.57	1267.69
269.79	1257.45
270.00	1298.41
270.22	1282.03
270.43	1314.80
270.65	1245.16
270.87	1259.50
271.08	1337.32
271.30	1359.85
271.51	1282.03
271.73	1286.12
271.95	1284.08
272.16	1286.12
272.38	1286.12
272.59	1277.93
272.81	1327.08
273.02	1214.45
273.24	1345.52
273.46	1275.88
273.67	1222.64
273.89	1253.36
274.10	1316.84
274.32	1208.30
274.54	1290.22
274.75	1288.17
274.97	1333.23
275.18	1282.03
275.40	1265.64
275.61	1261.55
275.83	1232.88
276.05	1247.21
276.26	1239.02
276.48	1277.93
276.69	1236.97
276.91	1275.88
277.12	1290.22
277.34	1310.70
277.55	1288.17
277.77	1228.78
277.99	1249.26
278.20	1185.77
278.42	1337.32
278.63	1263.60
278.85	1271.79
279.06	1200.11
279.28	1304.56
279.49	1208.30
279.71	1273.84
279.93	1210.35
280.14	1251.31
280.36	1302.51
280.57	1255.40
280.79	1306.60
281.00	1253.36
281.22	1304.56
281.43	1312.75
281.65	1316.84
281.86	1216.49
282.08	1335.28
282.29	1255.40
282.51	1286.12
282.73	1249.26
282.94	1220.59
283.16	1263.60
283.37	1247.21
283.59	1279.98
283.80	1292.27
284.02	1322.99
284.23	1245.16
284.45	1302.51
284.66	1275.88
284.88	1249.26
285.09	1269.74
285.31	1218.54
285.52	1218.54
285.74	1253.36
285.95	1187.82
286.17	1236.97
286.38	1290.22
286.60	1304.56
286.81	1255.40
287.03	1251.31
287.24	1290.22
287.46	1288.17
287.67	1206.25
287.89	1331.18
288.10	1236.97
288.32	1300.46
288.53	1210.35
288.75	1310.70
288.96	1314.80
289.18	1273.84
289.39	1286.12
289.61	1263.60
289.82	1249.26
290.04	1255.40
290.25	1306.60
290.47	1249.26
290.68	1290.22
290.90	1331.18
291.11	1261.55
291.33	1288.17
291.54	1187.82
291.76	1267.69
291.97	1196.01
292.18	1284.08
292.40	1298.41
292.61	1206.25
292.83	1275.88
293.04	1251.31
293.26	1349.61
293.47	1306.60
293.69	1255.40
293.90	1255.40
294.12	1343.47
294.33	1290.22
294.55	1273.84
294.76	1279.98
294.97	1343.47
295.19	1292.27
295.40	1298.41
295.62	1249.26
295.83	1253.36
296.05	1292.27
296.26	1279.98
296.48	1275.88
296.69	1300.46
296.90	1300.46
297.12	1275.88
297.33	1273.84
297.55	1224.69
297.76	1261.55
297.98	1277.93
298.19	1310.70
298.41	1292.27
298.62	1220.59
298.83	1343.47
299.05	1284.08
299.26	1243.12
299.48	1286.12
299.69	1224.69
299.90	1327.08
300.12	1255.40
300.33	1200.11
300.55	1236.97
300.76	1273.84
300.98	1269.74
301.19	1208.30
301.40	1290.22
301.62	1284.08
301.83	1208.30
302.05	1216.49
302.26	1275.88
302.47	1232.88
302.69	1234.93
302.90	1294.32
303.12	1296.36
303.33	1236.97
303.54	1232.88
303.76	1200.11
303.97	1304.56
304.19	1210.35
304.40	1249.26
304.61	1239.02
304.83	1284.08
305.04	1271.79
305.26	1247.21
305.47	1265.64
305.68	1273.84
305.90	1296.36
306.11	1232.88
306.33	1288.17
306.54	1255.40
306.75	1294.32
306.97	1251.31
307.18	1271.79
307.39	1282.03
307.61	1216.49
307.82	1220.59
308.04	1300.46
308.25	1247.21
308.46	1222.64
308.68	1183.73
308.89	1290.22
309.10	1259.50
309.32	1257.45
309.53	1292.27
309.74	1249.26
309.96	1232.88
310.17	1310.70
310.39	1222.64
310.60	1230.83
310.81	1331.18
311.03	1236.97
311.24	1243.12
311.45	1306.60
311.67	1304.56
311.88	1306.60
312.09	1284.08
312.31	1320.94
312.52	1282.03
312.73	1275.88
312.95	1228.78
313.16	1269.74
313.37	1247.21
313.59	1351.66
313.80	1273.84
314.01	1312.75
314.23	1265.64
314.44	1279.98
314.65	1265.64
314.87	1327.08
315.08	1224.69
315.29	1288.17
315.51	1226.73
315.72	1236.97
315.93	1277.93
316.15	1314.80
316.36	1284.08
316.57	1277.93
316.79	1234.93
317.00	1249.26
317.21	1269.74
317.43	1249.26
317.64	1208.30
317.85	1296.36
318.07	1247.21
318.28	1306.60
318.49	1230.83
318.70	1312.75
318.92	1284.08
319.13	1304.56
319.34	1236.97
319.56	1271.79
319.77	1255.40
319.98	1292.27
320.20	1300.46
320.41	1241.07
320.62	1226.73
320.83	1255.40
321.05	1228.78
321.26	1267.69
321.47	1257.45
321.69	1265.64
321.90	1187.82
322.11	1214.45
322.32	1241.07
322.54	1322.99
322.75	1282.03
322.96	1322.99
323.18	1269.74
323.39	1304.56
323.60	1288.17
323.81	1353.71
324.03	1247.21
324.24	1247.21
324.45	1241.07
324.66	1286.12
324.88	1200.11
325.09	1296.36
325.30	1322.99
325.52	1204.21
325.73	1353.71
325.94	1196.01
326.15	1292.27
326.37	1243.12
326.58	1277.93
326.79	1257.45
327.00	1275.88
327.22	1300.46
327.43	1232.88
327.64	1198.06
327.85	1236.97
328.07	1294.32
328.28	1368.04
328.49	1290.22
328.70	1282.03
328.92	1302.51
329.13	1279.98
329.34	1304.56
329.55	1236.97
329.76	1200.11
329.98	1286.12
330.19	1222.64
330.40	1335.28
330.61	1230.83
330.83	1230.83
331.04	1286.12
331.25	1255.40
331.46	1267.69
331.68	1308.65
331.89	1337.32
332.10	1318.89
332.31	1355.76
332.52	1257.45
332.74	1179.63
332.95	1327.08
333.16	1208.30
333.37	1296.36
333.58	1263.60
333.80	1275.88
334.01	1239.02
334.22	1224.69
334.43	1253.36
334.64	1310.70
334.86	1257.45
335.07	1314.80
335.28	1314.80
335.49	1236.97
335.70	1247.21
335.92	1222.64
336.13	1216.49
336.34	1251.31
336.55	1239.02
336.76	1239.02
336.98	1247.21
337.19	1247.21
337.40	1271.79
337.61	1261.55
337.82	1310.70
338.04	1275.88
338.25	1222.64
338.46	1284.08
338.67	1253.36
338.88	1310.70
339.09	1245.16
339.31	1298.41
339.52	1267.69
339.73	1296.36
339.94	1210.35
340.15	1288.17
340.36	1302.51
340.58	1263.60
340.79	1236.97
341.00	1255.40
341.21	1277.93
341.42	1261.55
341.63	1265.64
341.85	1183.73
342.06	1273.84
342.27	1296.36
342.48	1245.16
342.69	1193.97
342.90	1234.93
343.12	1183.73
343.33	1204.21
343.54	1271.79
343.75	1249.26
343.96	1325.04
344.17	1345.52
344.38	1265.64
344.60	1255.40
344.81	1247.21
345.02	1259.50
345.23	1218.54
345.44	1286.12
345.65	1251.31
345.86	1286.12
346.07	1306.60
346.29	1198.06
346.50	1314.80
346.71	1241.07
346.92	1226.73
347.13	1331.18
347.34	1290.22
347.55	1255.40
347.76	1339.37
347.98	1220.59
348.19	1310.70
348.40	1320.94
348.61	1302.51
348.82	1265.64
349.03	1273.84
349.24	1245.16
349.45	1288.17
349.66	1200.11
349.88	1255.40
350.09	1234.93
350.30	1230.83
350.51	1271.79
350.72	1351.66
350.93	1273.84
351.14	1265.64
351.35	1261.55
351.56	1257.45
351.77	1265.64
351.99	1253.36
352.20	1218.54
352.41	1153.01
352.62	1206.25
352.83	1257.45
353.04	1206.25
353.25	1327.08
353.46	1249.26
353.67	1308.65
353.88	1292.27
354.09	1271.79
354.30	1308.65
354.52	1232.88
354.73	1314.80
354.94	1216.49
355.15	1288.17
355.36	1183.73
355.57	1271.79
355.78	1196.01
355.99	1255.40
356.20	1284.08
356.41	1306.60
356.62	1316.84
356.83	1247.21
357.04	1265.64
357.25	1249.26
357.46	1304.56
357.68	1273.84
357.89	1273.84
358.10	1277.93
358.31	1269.74
358.52	1296.36
358.73	1247.21
358.94	1247.21
359.15	1255.40
359.36	1249.26
359.57	1239.02
359.78	1236.97
359.99	1257.45
360.20	1294.32
360.41	1282.03
360.62	1310.70
360.83	1298.41
361.04	1273.84
361.25	1191.92
361.46	1337.32
361.67	1253.36
361.88	1267.69
362.09	1263.60
362.30	1286.12
362.51	1212.40
362.72	1322.99
362.93	1191.92
363.14	1212.40
363.35	1214.45
363.56	1312.75
363.78	1279.98
363.99	1232.88
364.20	1230.83
364.41	1327.08
364.62	1232.88
364.83	1269.74
365.04	1220.59
365.25	1298.41
365.46	1308.65
365.67	1230.83
365.88	1277.93
366.09	1198.06
366.30	1241.07
366.51	1339.37
366.72	1200.11
366.93	1314.80
367.14	1243.12
367.35	1279.98
367.56	1288.17
367.77	1345.52
367.98	1228.78
368.18	1271.79
368.39	1277.93
368.60	1279.98
368.81	1251.31
369.02	1284.08
369.23	1292.27
369.44	1228.78
369.65	1302.51
369.86	1253.36
370.07	1261.55
370.28	1247.21
370.49	1241.07
370.70	1308.65
370.91	1277.93
371.12	1318.89
371.33	1261.55
371.54	1290.22
371.75	1296.36
371.96	1230.83
372.17	1290.22
372.38	1257.45
372.59	1269.74
372.80	1239.02
373.01	1286.12
373.22	1269.74
373.43	1259.50
373.64	1230.83
373.85	1290.22
374.06	1298.41
374.26	1279.98
374.47	1189.87
374.68	1224.69
374.89	1316.84
375.10	1216.49
375.31	1310.70
375.52	1306.60
375.73	1218.54
375.94	1273.84
376.15	1282.03
376.36	1337.32
376.57	1232.88
376.78	1273.84
376.99	1228.78
377.20	1294.32
377.40	1320.94
377.61	1257.45
377.82	1294.32
378.03	1327.08
378.24	1282.03
378.45	1292.27
378.66	1345.52
378.87	1271.79
379.08	1325.04
379.29	1310.70
379.50	1296.36
379.71	1308.65
379.91	1212.40
380.12	1302.51
380.33	1314.80
380.54	1275.88
380.75	1318.89
380.96	1236.97
381.17	1279.98
381.38	1257.45
381.59	1288.17
381.80	1316.84
382.00	1279.98
382.21	1353.71
382.42	1236.97
382.63	1310.70
382.84	1275.88
383.05	1343.47
383.26	1212.40
383.47	1239.02
383.68	1255.40
383.88	1284.08
384.09	1265.64
384.30	1236.97
384.51	1304.56
384.72	1245.16
384.93	1261.55
385.14	1290.22
385.35	1216.49
385.55	1296.36
385.76	1181.68
385.97	1259.50
386.18	1294.32
386.39	1249.26
386.60	1310.70
386.81	1206.25
387.02	1210.35
387.22	1333.23
387.43	1277.93
387.64	1175.53
387.85	1329.13
388.06	1216.49
388.27	1320.94
388.48	1214.45
388.68	1292.27
388.89	1273.84
389.10	1279.98
389.31	1263.60
389.52	1253.36
389.73	1185.77
389.93	1232.88
390.14	1263.60
390.35	1267.69
390.56	1263.60
390.77	1247.21
390.98	1239.02
391.18	1288.17
391.39	1290.22
391.60	1366.00
391.81	1245.16
392.02	1247.21
392.23	1210.35
392.43	1288.17
392.64	1173.49
392.85	1335.28
393.06	1318.89
393.27	1249.26
393.47	1282.03
393.68	1241.07
393.89	1296.36
394.10	1224.69
394.31	1241.07
394.52	1273.84
394.72	1212.40
394.93	1290.22
395.14	1269.74
395.35	1208.30
395.56	1308.65
395.76	1288.17
395.97	1296.36
396.18	1273.84
396.39	1279.98
396.60	1236.97
396.80	1265.64
397.01	1269.74
397.22	1279.98
397.43	1275.88
397.64	1245.16
397.84	1214.45
398.05	1302.51
398.26	1265.64
398.47	1265.64
398.67	1298.41
398.88	1286.12
399.09	1228.78
399.30	1279.98
399.51	1290.22
399.71	1253.36
399.92	1318.89
400.13	1273.84
400.34	1216.49
400.54	1210.35
400.75	1255.40
400.96	1314.80
401.17	1230.83
401.37	1257.45
401.58	1298.41
401.79	1236.97
402.00	1302.51
402.21	1318.89
402.41	1294.32
402.62	1312.75
402.83	1247.21
403.04	1267.69
403.24	1273.84
403.45	1308.65
403.66	1263.60
403.87	1208.30
404.07	1247.21
404.28	1253.36
404.49	1216.49
404.70	1269.74
404.90	1282.03
405.11	1224.69
405.32	1300.46
405.52	1214.45
405.73	1245.16
405.94	1261.55
406.15	1212.40
406.35	1173.49
406.56	1284.08
406.77	1226.73
406.98	1265.64
407.18	1226.73
407.39	1228.78
407.60	1210.35
407.80	1241.07
408.01	1232.88
408.22	1288.17
408.43	1230.83
408.63	1288.17
408.84	1245.16
409.05	1247.21
409.25	1322.99
409.46	1267.69
409.67	1228.78
409.88	1261.55
410.08	1298.41
410.29	1308.65
410.50	1282.03
410.70	1187.82
410.91	1234.93
411.12	1296.36
411.32	1277.93
411.53	1288.17
411.74	1222.64
411.95	1241.07
412.15	1249.26
412.36	1275.88
412.57	1243.12
412.77	1259.50
412.98	1335.28
413.19	1279.98
413.39	1282.03
413.60	1216.49
413.81	1292.27
414.01	1216.49
414.22	1234.93
414.43	1241.07
414.63	1286.12
414.84	1337.32
415.05	1269.74
415.25	1318.89
415.46	1232.88
415.67	1353.71
415.87	1290.22
416.08	1267.69
416.29	1257.45
416.49	1257.45
416.70	1322.99
416.91	1253.36
417.11	1243.12
417.32	1206.25
417.53	1241.07
417.73	1345.52
417.94	1257.45
418.15	1236.97
418.35	1325.04
418.56	1259.50
418.77	1236.97
418.97	1310.70
419.18	1251.31
419.38	1220.59
419.59	1241.07
419.80	1325.04
420.00	1277.93
420.21	1255.40
420.42	1265.64
420.62	1320.94
420.83	1232.88
421.04	1257.45
421.24	1247.21
421.45	1312.75
421.65	1277.93
421.86	1275.88
422.07	1247.21
422.27	1316.84
422.48	1193.97
422.69	1234.93
422.89	1263.60
423.10	1212.40
423.30	1206.25
423.51	1294.32
423.72	1347.56
423.92	1269.74
424.13	1247.21
424.33	1329.13
424.54	1265.64
424.75	1290.22
424.95	1263.60
425.16	1245.16
425.36	1200.11
425.57	1214.45
425.78	1249.26
425.98	1322.99
426.19	1277.93
426.39	1327.08
426.60	1259.50
426.81	1273.84
427.01	1236.97
427.22	1271.79
427.42	1249.26
427.63	1224.69
427.83	1294.32
428.04	1304.56
428.25	1275.88
428.45	1290.22
428.66	1322.99
428.86	1259.50
429.07	1200.11
429.28	1304.56
429.48	1230.83
429.69	1208.30
429.89	1312.75
430.10	1269.74
430.30	1294.32
430.51	1243.12
430.71	1216.49
430.92	1273.84
431.13	1245.16
431.33	1263.60
431.54	1257.45
431.74	1290.22
431.95	1253.36
432.15	1232.88
432.36	1302.51
432.56	1261.55
432.77	1212.40
432.98	1222.64
433.18	1273.84
433.39	1284.08
433.59	1331.18
433.80	1282.03
434.00	1284.08
434.21	1181.68
434.41	1255.40
434.62	1310.70
434.82	1224.69
435.03	1265.64
435.23	1257.45
435.44	1333.23
435.64	1214.45
435.85	1232.88
436.06	1322.99
436.26	1263.60
436.47	1296.36
436.67	1279.98
436.88	1210.35
437.08	1267.69
437.29	1214.45
437.49	1286.12
437.70	1210.35
437.90	1216.49
438.11	1325.04
438.31	1259.50
438.52	1322.99
438.72	1279.98
438.93	1306.60
439.13	1282.03
439.34	1271.79
439.54	1257.45
439.75	1263.60
439.95	1259.50
440.16	1298.41
440.36	1294.32
440.57	1255.40
440.77	1241.07
440.98	1146.86
441.18	1288.17
441.39	1312.75
441.59	1277.93
441.80	1230.83
442.00	1310.70
442.21	1198.06
442.41	1314.80
442.62	1216.49
442.82	1288.17
443.02	1300.46
443.23	1298.41
443.43	1294.32
443.64	1191.92
443.84	1275.88
444.05	1259.50
444.25	1224.69
444.46	1322.99
444.66	1253.36
444.87	1296.36
445.07	1314.80
445.28	1300.46
445.48	1247.21
445.69	1241.07
445.89	1236.97
446.09	1288.17
446.30	1253.36
446.50	1279.98
446.71	1298.41
446.91	1312.75
447.12	1277.93
447.32	1245.16
447.53	1220.59
447.73	1253.36
447.93	1249.26
448.14	1171.44
448.34	1314.80
448.55	1249.26
448.75	1329.13
448.96	1279.98
449.16	1265.64
449.36	1265.64
449.57	1302.51
449.77	1325.04
449.98	1228.78
450.18	1269.74
450.39	1310.70
450.59	1308.65
450.79	1320.94
451.00	1282.03
451.20	1275.88
451.41	1208.30
451.61	1284.08
451.81	1249.26
452.02	1290.22
452.22	1230.83
452.43	1304.56
452.63	1265.64
