SpectraSuite Data File
++++++++++++++++++++++++++++++++++++
Date: Sun Apr 03 19:55:18 CEST 2016
User: root
Dark Spectrum Present: No
Reference Spectrum Present: No
Number of Sampled Component Spectra: 1
Spectrometers: USB4C02835
Integration Time (usec): 10000 (USB4C02835)
Spectra Averaged: 1 (USB4C02835)
Boxcar Smoothing: 0 (USB4C02835)
Correct for Electrical Dark: No (USB4C02835)
Strobe/Lamp Enabled: No (USB4C02835)
Correct for Detector Non-linearity: No (USB4C02835)
Correct for Stray Light: No (USB4C02835)
Number of Pixels in Processed Spectrum: 3648
>>>>>Begin Processed Spectral Data<<<<<
177.47	1179.63
177.69	1179.63
177.91	1179.63
178.13	1224.69
178.36	1236.97
178.58	1204.21
178.80	1298.41
179.02	1308.65
179.24	1220.59
179.46	1271.79
179.68	1241.07
179.90	1312.75
180.13	1251.31
180.35	1292.27
180.57	1236.97
180.79	1189.87
181.01	1261.55
181.23	1290.22
181.45	1263.60
181.67	1243.12
181.90	1300.46
182.12	1288.17
182.34	1341.42
182.56	1234.93
182.78	1243.12
183.00	1292.27
183.22	1232.88
183.44	1247.21
183.66	1214.45
183.89	1329.13
184.11	1294.32
184.33	1193.97
184.55	1310.70
184.77	1277.93
184.99	1245.16
185.21	1249.26
185.43	1275.88
185.65	1257.45
185.87	1253.36
186.10	1331.18
186.32	1271.79
186.54	1243.12
186.76	1257.45
186.98	1228.78
187.20	1239.02
187.42	1245.16
187.64	1284.08
187.86	1253.36
188.08	1249.26
188.30	1284.08
188.52	1277.93
188.75	1275.88
188.97	1290.22
189.19	1269.74
189.41	1282.03
189.63	1322.99
189.85	1257.45
190.07	1249.26
190.29	1288.17
190.51	1279.98
190.73	1253.36
190.95	1294.32
191.17	1208.30
191.39	1269.74
191.61	1292.27
191.84	1220.59
192.06	1288.17
192.28	1243.12
192.50	1304.56
192.72	1279.98
192.94	1290.22
193.16	1277.93
193.38	1249.26
193.60	1275.88
193.82	1241.07
194.04	1277.93
194.26	1251.31
194.48	1277.93
194.70	1249.26
194.92	1255.40
195.14	1224.69
195.36	1220.59
195.58	1269.74
195.80	1286.12
196.02	1298.41
196.24	1234.93
196.46	1257.45
196.69	1222.64
196.91	1353.71
197.13	1265.64
197.35	1245.16
197.57	1251.31
197.79	1179.63
198.01	1224.69
198.23	1304.56
198.45	1232.88
198.67	1265.64
198.89	1308.65
199.11	1279.98
199.33	1265.64
199.55	1310.70
199.77	1259.50
199.99	1200.11
200.21	1198.06
200.43	1265.64
200.65	1284.08
200.87	1257.45
201.09	1288.17
201.31	1306.60
201.53	1239.02
201.75	1243.12
201.97	1284.08
202.19	1277.93
202.41	1243.12
202.63	1273.84
202.85	1322.99
203.07	1267.69
203.29	1216.49
203.51	1288.17
203.73	1275.88
203.95	1236.97
204.17	1279.98
204.39	1292.27
204.61	1304.56
204.83	1325.04
205.05	1251.31
205.27	1206.25
205.49	1355.76
205.71	1318.89
205.93	1210.35
206.15	1288.17
206.37	1314.80
206.59	1314.80
206.81	1257.45
207.03	1216.49
207.25	1198.06
207.47	1337.32
207.69	1271.79
207.91	1263.60
208.13	1331.18
208.34	1243.12
208.56	1259.50
208.78	1343.47
209.00	1228.78
209.22	1222.64
209.44	1187.82
209.66	1263.60
209.88	1230.83
210.10	1284.08
210.32	1366.00
210.54	1183.73
210.76	1138.67
210.98	1279.98
211.20	1255.40
211.42	1234.93
211.64	1247.21
211.86	1232.88
212.08	1310.70
212.30	1282.03
212.52	1193.97
212.74	1286.12
212.96	1284.08
213.17	1265.64
213.39	1267.69
213.61	1273.84
213.83	1241.07
214.05	1279.98
214.27	1249.26
214.49	1302.51
214.71	1196.01
214.93	1255.40
215.15	1290.22
215.37	1253.36
215.59	1292.27
215.81	1290.22
216.03	1228.78
216.24	1275.88
216.46	1298.41
216.68	1277.93
216.90	1267.69
217.12	1228.78
217.34	1275.88
217.56	1245.16
217.78	1271.79
218.00	1245.16
218.22	1175.53
218.44	1279.98
218.66	1251.31
218.87	1300.46
219.09	1257.45
219.31	1325.04
219.53	1208.30
219.75	1288.17
219.97	1220.59
220.19	1232.88
220.41	1236.97
220.63	1216.49
220.85	1388.52
221.06	1325.04
221.28	1261.55
221.50	1296.36
221.72	1261.55
221.94	1247.21
222.16	1265.64
222.38	1234.93
222.60	1206.25
222.82	1249.26
223.03	1269.74
223.25	1239.02
223.47	1181.68
223.69	1259.50
223.91	1322.99
224.13	1277.93
224.35	1257.45
224.57	1261.55
224.78	1257.45
225.00	1167.34
225.22	1286.12
225.44	1288.17
225.66	1269.74
225.88	1210.35
226.10	1247.21
226.32	1259.50
226.53	1249.26
226.75	1347.56
226.97	1259.50
227.19	1282.03
227.41	1228.78
227.63	1277.93
227.85	1259.50
228.06	1206.25
228.28	1273.84
228.50	1339.37
228.72	1349.61
228.94	1331.18
229.16	1222.64
229.37	1232.88
229.59	1222.64
229.81	1298.41
230.03	1261.55
230.25	1224.69
230.47	1286.12
230.69	1226.73
230.90	1353.71
231.12	1322.99
231.34	1288.17
231.56	1273.84
231.78	1277.93
232.00	1314.80
232.21	1249.26
232.43	1224.69
232.65	1366.00
232.87	1273.84
233.09	1359.85
233.30	1298.41
233.52	1224.69
233.74	1239.02
233.96	1251.31
234.18	1220.59
234.40	1206.25
234.61	1353.71
234.83	1308.65
235.05	1216.49
235.27	1202.16
235.49	1277.93
235.70	1249.26
235.92	1247.21
236.14	1222.64
236.36	1267.69
236.58	1263.60
236.79	1345.52
237.01	1204.21
237.23	1265.64
237.45	1284.08
237.67	1333.23
237.88	1261.55
238.10	1243.12
238.32	1275.88
238.54	1249.26
238.76	1298.41
238.97	1249.26
239.19	1239.02
239.41	1263.60
239.63	1343.47
239.85	1282.03
240.06	1273.84
240.28	1224.69
240.50	1282.03
240.72	1341.42
240.93	1220.59
241.15	1239.02
241.37	1224.69
241.59	1241.07
241.81	1245.16
242.02	1296.36
242.24	1239.02
242.46	1210.35
242.68	1216.49
242.89	1271.79
243.11	1282.03
243.33	1263.60
243.55	1198.06
243.76	1265.64
243.98	1232.88
244.20	1286.12
244.42	1277.93
244.64	1277.93
244.85	1222.64
245.07	1279.98
245.29	1279.98
245.51	1306.60
245.72	1294.32
245.94	1259.50
246.16	1189.87
246.38	1320.94
246.59	1275.88
246.81	1312.75
247.03	1282.03
247.24	1337.32
247.46	1259.50
247.68	1189.87
247.90	1279.98
248.11	1255.40
248.33	1236.97
248.55	1222.64
248.77	1298.41
248.98	1320.94
249.20	1275.88
249.42	1359.85
249.64	1337.32
249.85	1241.07
250.07	1275.88
250.29	1284.08
250.50	1204.21
250.72	1275.88
250.94	1372.14
251.16	1261.55
251.37	1318.89
251.59	1306.60
251.81	1294.32
252.02	1314.80
252.24	1198.06
252.46	1310.70
252.68	1222.64
252.89	1261.55
253.11	1200.11
253.33	1279.98
253.54	1251.31
253.76	1380.33
253.98	1220.59
254.20	1275.88
254.41	1247.21
254.63	1329.13
254.85	1296.36
255.06	1296.36
255.28	1232.88
255.50	1271.79
255.71	1322.99
255.93	1249.26
256.15	1218.54
256.36	1318.89
256.58	1318.89
256.80	1208.30
257.02	1257.45
257.23	1286.12
257.45	1306.60
257.67	1325.04
257.88	1269.74
258.10	1216.49
258.32	1271.79
258.53	1247.21
258.75	1212.40
258.97	1261.55
259.18	1366.00
259.40	1245.16
259.62	1204.21
259.83	1308.65
260.05	1243.12
260.27	1292.27
260.48	1312.75
260.70	1228.78
260.92	1288.17
261.13	1177.58
261.35	1249.26
261.57	1284.08
261.78	1245.16
262.00	1273.84
262.22	1230.83
262.43	1333.23
262.65	1175.53
262.86	1218.54
263.08	1265.64
263.30	1312.75
263.51	1253.36
263.73	1241.07
263.95	1314.80
264.16	1294.32
264.38	1236.97
264.60	1304.56
264.81	1193.97
265.03	1267.69
265.25	1232.88
265.46	1292.27
265.68	1220.59
265.89	1255.40
266.11	1296.36
266.33	1241.07
266.54	1288.17
266.76	1304.56
266.98	1196.01
267.19	1251.31
267.41	1318.89
267.62	1288.17
267.84	1224.69
268.06	1239.02
268.27	1243.12
268.49	1259.50
268.70	1257.45
268.92	1275.88
269.14	1224.69
269.35	1218.54
269.57	1267.69
269.79	1259.50
270.00	1243.12
270.22	1331.18
270.43	1271.79
270.65	1245.16
270.87	1257.45
271.08	1292.27
271.30	1253.36
271.51	1275.88
271.73	1322.99
271.95	1230.83
272.16	1263.60
272.38	1300.46
272.59	1236.97
272.81	1212.40
273.02	1298.41
273.24	1327.08
273.46	1310.70
273.67	1222.64
273.89	1282.03
274.10	1292.27
274.32	1275.88
274.54	1296.36
274.75	1234.93
274.97	1216.49
275.18	1191.92
275.40	1255.40
275.61	1257.45
275.83	1265.64
276.05	1261.55
276.26	1249.26
276.48	1279.98
276.69	1300.46
276.91	1277.93
277.12	1294.32
277.34	1236.97
277.55	1218.54
277.77	1253.36
277.99	1257.45
278.20	1224.69
278.42	1269.74
278.63	1288.17
278.85	1189.87
279.06	1271.79
279.28	1271.79
279.49	1292.27
279.71	1308.65
279.93	1298.41
280.14	1284.08
280.36	1210.35
280.57	1273.84
280.79	1322.99
281.00	1273.84
281.22	1279.98
281.43	1273.84
281.65	1282.03
281.86	1265.64
282.08	1284.08
282.29	1255.40
282.51	1273.84
282.73	1331.18
282.94	1290.22
283.16	1322.99
283.37	1286.12
283.59	1345.52
283.80	1322.99
284.02	1214.45
284.23	1241.07
284.45	1300.46
284.66	1261.55
284.88	1269.74
285.09	1259.50
285.31	1273.84
285.52	1261.55
285.74	1243.12
285.95	1320.94
286.17	1355.76
286.38	1273.84
286.60	1253.36
286.81	1290.22
287.03	1249.26
287.24	1228.78
287.46	1372.14
287.67	1241.07
287.89	1308.65
288.10	1241.07
288.32	1329.13
288.53	1286.12
288.75	1245.16
288.96	1314.80
289.18	1298.41
289.39	1239.02
289.61	1331.18
289.82	1255.40
290.04	1288.17
290.25	1208.30
290.47	1320.94
290.68	1232.88
290.90	1273.84
291.11	1241.07
291.33	1241.07
291.54	1214.45
291.76	1253.36
291.97	1245.16
292.18	1249.26
292.40	1257.45
292.61	1286.12
292.83	1253.36
293.04	1257.45
293.26	1243.12
293.47	1347.56
293.69	1269.74
293.90	1216.49
294.12	1335.28
294.33	1292.27
294.55	1216.49
294.76	1265.64
294.97	1320.94
295.19	1236.97
295.40	1341.42
295.62	1271.79
295.83	1284.08
296.05	1279.98
296.26	1296.36
296.48	1273.84
296.69	1253.36
296.90	1257.45
297.12	1224.69
297.33	1247.21
297.55	1255.40
297.76	1300.46
297.98	1282.03
298.19	1298.41
298.41	1286.12
298.62	1333.23
298.83	1210.35
299.05	1277.93
299.26	1208.30
299.48	1228.78
299.69	1322.99
299.90	1308.65
300.12	1265.64
300.33	1255.40
300.55	1241.07
300.76	1279.98
300.98	1253.36
301.19	1277.93
301.40	1228.78
301.62	1222.64
301.83	1284.08
302.05	1345.52
302.26	1271.79
302.47	1245.16
302.69	1302.51
302.90	1335.28
303.12	1220.59
303.33	1320.94
303.54	1277.93
303.76	1296.36
303.97	1286.12
304.19	1290.22
304.40	1269.74
304.61	1335.28
304.83	1216.49
305.04	1249.26
305.26	1245.16
305.47	1204.21
305.68	1267.69
305.90	1290.22
306.11	1222.64
306.33	1206.25
306.54	1302.51
306.75	1275.88
306.97	1251.31
307.18	1222.64
307.39	1247.21
307.61	1294.32
307.82	1214.45
308.04	1196.01
308.25	1232.88
308.46	1318.89
308.68	1304.56
308.89	1292.27
309.10	1310.70
309.32	1196.01
309.53	1175.53
309.74	1216.49
309.96	1228.78
310.17	1200.11
310.39	1286.12
310.60	1236.97
310.81	1277.93
311.03	1222.64
311.24	1243.12
311.45	1322.99
311.67	1279.98
311.88	1228.78
312.09	1257.45
312.31	1249.26
312.52	1265.64
312.73	1267.69
312.95	1304.56
313.16	1224.69
313.37	1290.22
313.59	1300.46
313.80	1290.22
314.01	1271.79
314.23	1271.79
314.44	1335.28
314.65	1275.88
314.87	1273.84
315.08	1241.07
315.29	1239.02
315.51	1306.60
315.72	1214.45
315.93	1306.60
316.15	1251.31
316.36	1306.60
316.57	1263.60
316.79	1185.77
317.00	1292.27
317.21	1294.32
317.43	1265.64
317.64	1310.70
317.85	1261.55
318.07	1247.21
318.28	1286.12
318.49	1277.93
318.70	1261.55
318.92	1228.78
319.13	1308.65
319.34	1216.49
319.56	1200.11
319.77	1273.84
319.98	1200.11
320.20	1322.99
320.41	1273.84
320.62	1204.21
320.83	1249.26
321.05	1222.64
321.26	1216.49
321.47	1308.65
321.69	1361.90
321.90	1308.65
322.11	1306.60
322.32	1236.97
322.54	1243.12
322.75	1329.13
322.96	1322.99
323.18	1304.56
323.39	1271.79
323.60	1202.16
323.81	1259.50
324.03	1226.73
324.24	1277.93
324.45	1191.92
324.66	1224.69
324.88	1259.50
325.09	1275.88
325.30	1275.88
325.52	1241.07
325.73	1228.78
325.94	1322.99
326.15	1247.21
326.37	1263.60
326.58	1255.40
326.79	1257.45
327.00	1249.26
327.22	1322.99
327.43	1372.14
327.64	1214.45
327.85	1302.51
328.07	1218.54
328.28	1282.03
328.49	1245.16
328.70	1234.93
328.92	1179.63
329.13	1286.12
329.34	1241.07
329.55	1255.40
329.76	1263.60
329.98	1232.88
330.19	1304.56
330.40	1327.08
330.61	1279.98
330.83	1267.69
331.04	1284.08
331.25	1255.40
331.46	1234.93
331.68	1298.41
331.89	1290.22
332.10	1255.40
332.31	1294.32
332.52	1304.56
332.74	1255.40
332.95	1245.16
333.16	1257.45
333.37	1224.69
333.58	1331.18
333.80	1269.74
334.01	1308.65
334.22	1267.69
334.43	1222.64
334.64	1212.40
334.86	1222.64
335.07	1286.12
335.28	1366.00
335.49	1222.64
335.70	1325.04
335.92	1253.36
336.13	1251.31
336.34	1325.04
336.55	1228.78
336.76	1284.08
336.98	1347.56
337.19	1277.93
337.40	1216.49
337.61	1292.27
337.82	1232.88
338.04	1196.01
338.25	1239.02
338.46	1232.88
338.67	1290.22
338.88	1179.63
339.09	1224.69
339.31	1314.80
339.52	1232.88
339.73	1243.12
339.94	1249.26
340.15	1290.22
340.36	1265.64
340.58	1322.99
340.79	1286.12
341.00	1245.16
341.21	1273.84
341.42	1286.12
341.63	1296.36
341.85	1265.64
342.06	1310.70
342.27	1243.12
342.48	1288.17
342.69	1255.40
342.90	1218.54
343.12	1298.41
343.33	1322.99
343.54	1279.98
343.75	1247.21
343.96	1308.65
344.17	1372.14
344.38	1282.03
344.60	1279.98
344.81	1261.55
345.02	1220.59
345.23	1271.79
345.44	1286.12
345.65	1263.60
345.86	1226.73
346.07	1253.36
346.29	1239.02
346.50	1249.26
346.71	1277.93
346.92	1245.16
347.13	1290.22
347.34	1239.02
347.55	1230.83
347.76	1318.89
347.98	1216.49
348.19	1230.83
348.40	1236.97
348.61	1251.31
348.82	1290.22
349.03	1271.79
349.24	1265.64
349.45	1327.08
349.66	1316.84
349.88	1282.03
350.09	1314.80
350.30	1286.12
350.51	1257.45
350.72	1216.49
350.93	1339.37
351.14	1271.79
351.35	1265.64
351.56	1206.25
351.77	1206.25
351.99	1275.88
352.20	1212.40
352.41	1300.46
352.62	1210.35
352.83	1288.17
353.04	1236.97
353.25	1255.40
353.46	1193.97
353.67	1306.60
353.88	1277.93
354.09	1273.84
354.30	1288.17
354.52	1261.55
354.73	1304.56
354.94	1239.02
355.15	1177.58
355.36	1290.22
355.57	1198.06
355.78	1275.88
355.99	1335.28
356.20	1290.22
356.41	1263.60
356.62	1271.79
356.83	1277.93
357.04	1290.22
357.25	1337.32
357.46	1251.31
357.68	1263.60
357.89	1267.69
358.10	1241.07
358.31	1269.74
358.52	1265.64
358.73	1279.98
358.94	1279.98
359.15	1249.26
359.36	1245.16
359.57	1279.98
359.78	1187.82
359.99	1269.74
360.20	1294.32
360.41	1308.65
360.62	1239.02
360.83	1304.56
361.04	1279.98
361.25	1200.11
361.46	1241.07
361.67	1228.78
361.88	1263.60
362.09	1341.42
362.30	1294.32
362.51	1282.03
362.72	1347.56
362.93	1271.79
363.14	1275.88
363.35	1282.03
363.56	1263.60
363.78	1290.22
363.99	1366.00
364.20	1263.60
364.41	1249.26
364.62	1212.40
364.83	1265.64
365.04	1282.03
365.25	1189.87
365.46	1288.17
365.67	1236.97
365.88	1220.59
366.09	1269.74
366.30	1296.36
366.51	1327.08
366.72	1298.41
366.93	1218.54
367.14	1228.78
367.35	1296.36
367.56	1331.18
367.77	1259.50
367.98	1294.32
368.18	1329.13
368.39	1261.55
368.60	1218.54
368.81	1279.98
369.02	1249.26
369.23	1253.36
369.44	1265.64
369.65	1171.44
369.86	1314.80
370.07	1230.83
370.28	1302.51
370.49	1230.83
370.70	1222.64
370.91	1243.12
371.12	1279.98
371.33	1239.02
371.54	1230.83
371.75	1236.97
371.96	1230.83
372.17	1239.02
372.38	1251.31
372.59	1286.12
372.80	1306.60
373.01	1347.56
373.22	1331.18
373.43	1294.32
373.64	1292.27
373.85	1275.88
374.06	1249.26
374.26	1226.73
374.47	1243.12
374.68	1302.51
374.89	1243.12
375.10	1245.16
375.31	1259.50
375.52	1173.49
375.73	1288.17
375.94	1220.59
376.15	1236.97
376.36	1259.50
376.57	1212.40
376.78	1286.12
376.99	1257.45
377.20	1257.45
377.40	1224.69
377.61	1275.88
377.82	1247.21
378.03	1269.74
378.24	1259.50
378.45	1294.32
378.66	1273.84
378.87	1189.87
379.08	1234.93
379.29	1226.73
379.50	1279.98
379.71	1320.94
379.91	1226.73
380.12	1288.17
380.33	1253.36
380.54	1247.21
380.75	1251.31
380.96	1214.45
381.17	1243.12
381.38	1247.21
381.59	1355.76
381.80	1308.65
382.00	1200.11
382.21	1220.59
382.42	1202.16
382.63	1286.12
382.84	1314.80
383.05	1357.80
383.26	1216.49
383.47	1241.07
383.68	1273.84
383.88	1294.32
384.09	1271.79
384.30	1245.16
384.51	1255.40
384.72	1218.54
384.93	1202.16
385.14	1239.02
385.35	1198.06
385.55	1282.03
385.76	1228.78
385.97	1232.88
386.18	1263.60
386.39	1245.16
386.60	1279.98
386.81	1257.45
387.02	1261.55
387.22	1261.55
387.43	1335.28
387.64	1284.08
387.85	1224.69
388.06	1267.69
388.27	1331.18
388.48	1288.17
388.68	1306.60
388.89	1275.88
389.10	1265.64
389.31	1279.98
389.52	1290.22
389.73	1243.12
389.93	1306.60
390.14	1296.36
390.35	1300.46
390.56	1263.60
390.77	1232.88
390.98	1288.17
391.18	1257.45
391.39	1228.78
391.60	1286.12
391.81	1255.40
392.02	1265.64
392.23	1267.69
392.43	1273.84
392.64	1277.93
392.85	1306.60
393.06	1251.31
393.27	1310.70
393.47	1206.25
393.68	1249.26
393.89	1288.17
394.10	1275.88
394.31	1292.27
394.52	1286.12
394.72	1290.22
394.93	1279.98
395.14	1279.98
395.35	1226.73
395.56	1220.59
395.76	1314.80
395.97	1247.21
396.18	1269.74
396.39	1263.60
396.60	1165.29
396.80	1241.07
397.01	1232.88
397.22	1259.50
397.43	1224.69
397.64	1376.24
397.84	1314.80
398.05	1251.31
398.26	1265.64
398.47	1265.64
398.67	1265.64
398.88	1316.84
399.09	1347.56
399.30	1218.54
399.51	1318.89
399.71	1187.82
399.92	1208.30
400.13	1271.79
400.34	1269.74
400.54	1292.27
400.75	1292.27
400.96	1253.36
401.17	1216.49
401.37	1216.49
401.58	1249.26
401.79	1296.36
402.00	1259.50
402.21	1275.88
402.41	1304.56
402.62	1212.40
402.83	1265.64
403.04	1310.70
403.24	1345.52
403.45	1271.79
403.66	1267.69
403.87	1257.45
404.07	1322.99
404.28	1236.97
404.49	1204.21
404.70	1269.74
404.90	1376.24
405.11	1310.70
405.32	1241.07
405.52	1261.55
405.73	1284.08
405.94	1230.83
406.15	1306.60
406.35	1204.21
406.56	1257.45
406.77	1200.11
406.98	1279.98
407.18	1263.60
407.39	1277.93
407.60	1220.59
407.80	1279.98
408.01	1241.07
408.22	1282.03
408.43	1282.03
408.63	1306.60
408.84	1329.13
409.05	1277.93
409.25	1269.74
409.46	1251.31
409.67	1232.88
409.88	1206.25
410.08	1232.88
410.29	1296.36
410.50	1232.88
410.70	1284.08
410.91	1282.03
411.12	1208.30
411.32	1226.73
411.53	1292.27
411.74	1267.69
411.95	1208.30
412.15	1249.26
412.36	1298.41
412.57	1253.36
412.77	1292.27
412.98	1243.12
413.19	1218.54
413.39	1230.83
413.60	1279.98
413.81	1290.22
414.01	1284.08
414.22	1255.40
414.43	1308.65
414.63	1249.26
414.84	1265.64
415.05	1277.93
415.25	1181.68
415.46	1265.64
415.67	1265.64
415.87	1255.40
416.08	1259.50
416.29	1253.36
416.49	1236.97
416.70	1269.74
416.91	1214.45
417.11	1329.13
417.32	1279.98
417.53	1345.52
417.73	1234.93
417.94	1218.54
418.15	1263.60
418.35	1263.60
418.56	1290.22
418.77	1259.50
418.97	1269.74
419.18	1298.41
419.38	1216.49
419.59	1339.37
419.80	1308.65
420.00	1298.41
420.21	1263.60
420.42	1269.74
420.62	1284.08
420.83	1261.55
421.04	1255.40
421.24	1265.64
421.45	1314.80
421.65	1316.84
421.86	1239.02
422.07	1282.03
422.27	1269.74
422.48	1265.64
422.69	1241.07
422.89	1288.17
423.10	1255.40
423.30	1273.84
423.51	1251.31
423.72	1318.89
423.92	1236.97
424.13	1292.27
424.33	1245.16
424.54	1298.41
424.75	1284.08
424.95	1200.11
425.16	1253.36
425.36	1277.93
425.57	1257.45
425.78	1222.64
425.98	1275.88
426.19	1275.88
426.39	1279.98
426.60	1212.40
426.81	1239.02
427.01	1253.36
427.22	1265.64
427.42	1230.83
427.63	1236.97
427.83	1275.88
428.04	1292.27
428.25	1243.12
428.45	1288.17
428.66	1271.79
428.86	1247.21
429.07	1312.75
429.28	1273.84
429.48	1243.12
429.69	1263.60
429.89	1298.41
430.10	1263.60
430.30	1218.54
430.51	1273.84
430.71	1241.07
430.92	1279.98
431.13	1277.93
431.33	1306.60
431.54	1236.97
431.74	1265.64
431.95	1288.17
432.15	1224.69
432.36	1318.89
432.56	1296.36
432.77	1216.49
432.98	1288.17
433.18	1302.51
433.39	1214.45
433.59	1286.12
433.80	1267.69
434.00	1310.70
434.21	1249.26
434.41	1249.26
434.62	1249.26
434.82	1257.45
435.03	1167.34
435.23	1327.08
435.44	1288.17
435.64	1247.21
435.85	1222.64
436.06	1302.51
436.26	1259.50
436.47	1232.88
436.67	1200.11
436.88	1239.02
437.08	1312.75
437.29	1251.31
437.49	1284.08
437.70	1279.98
437.90	1243.12
438.11	1255.40
438.31	1228.78
438.52	1224.69
438.72	1271.79
438.93	1247.21
439.13	1243.12
439.34	1320.94
439.54	1249.26
439.75	1310.70
439.95	1288.17
440.16	1216.49
440.36	1253.36
440.57	1210.35
440.77	1243.12
440.98	1208.30
441.18	1277.93
441.39	1271.79
441.59	1265.64
441.80	1314.80
442.00	1275.88
442.21	1357.80
442.41	1292.27
442.62	1267.69
442.82	1298.41
443.02	1271.79
443.23	1296.36
443.43	1265.64
443.64	1279.98
443.84	1300.46
444.05	1236.97
444.25	1312.75
444.46	1335.28
444.66	1302.51
444.87	1277.93
445.07	1277.93
445.28	1359.85
445.48	1239.02
445.69	1329.13
445.89	1282.03
446.09	1261.55
446.30	1236.97
446.50	1183.73
446.71	1355.76
446.91	1269.74
447.12	1218.54
447.32	1290.22
447.53	1310.70
447.73	1241.07
447.93	1322.99
448.14	1275.88
448.34	1261.55
448.55	1308.65
448.75	1279.98
448.96	1310.70
449.16	1263.60
449.36	1239.02
449.57	1316.84
449.77	1292.27
449.98	1261.55
450.18	1361.90
450.39	1325.04
450.59	1300.46
450.79	1226.73
451.00	1306.60
451.20	1355.76
451.41	1224.69
451.61	1308.65
451.81	1298.41
452.02	1298.41
452.22	1261.55
452.43	1290.22
452.63	1271.79
