SpectraSuite Data File
++++++++++++++++++++++++++++++++++++
Date: Sun Apr 03 19:55:43 CEST 2016
User: root
Dark Spectrum Present: No
Reference Spectrum Present: No
Number of Sampled Component Spectra: 1
Spectrometers: USB4C02835
Integration Time (usec): 10000 (USB4C02835)
Spectra Averaged: 1 (USB4C02835)
Boxcar Smoothing: 0 (USB4C02835)
Correct for Electrical Dark: No (USB4C02835)
Strobe/Lamp Enabled: No (USB4C02835)
Correct for Detector Non-linearity: No (USB4C02835)
Correct for Stray Light: No (USB4C02835)
Number of Pixels in Processed Spectrum: 3648
>>>>>Begin Processed Spectral Data<<<<<
177.47	1249.26
177.69	1249.26
177.91	1249.26
178.13	1271.79
178.36	1322.99
178.58	1327.08
178.80	1265.64
179.02	1279.98
179.24	1353.71
179.46	1249.26
179.68	1300.46
179.90	1251.31
180.13	1304.56
180.35	1257.45
180.57	1239.02
180.79	1288.17
181.01	1241.07
181.23	1263.60
181.45	1241.07
181.67	1277.93
181.90	1290.22
182.12	1179.63
182.34	1243.12
182.56	1257.45
182.78	1239.02
183.00	1239.02
183.22	1304.56
183.44	1286.12
183.66	1337.32
183.89	1261.55
184.11	1179.63
184.33	1224.69
184.55	1245.16
184.77	1269.74
184.99	1247.21
185.21	1185.77
185.43	1275.88
185.65	1247.21
185.87	1277.93
186.10	1273.84
186.32	1259.50
186.54	1337.32
186.76	1286.12
186.98	1279.98
187.20	1261.55
187.42	1216.49
187.64	1255.40
187.86	1304.56
188.08	1218.54
188.30	1267.69
188.52	1241.07
188.75	1288.17
188.97	1312.75
189.19	1366.00
189.41	1322.99
189.63	1314.80
189.85	1296.36
190.07	1239.02
190.29	1282.03
190.51	1288.17
190.73	1277.93
190.95	1241.07
191.17	1216.49
191.39	1228.78
191.61	1292.27
191.84	1306.60
192.06	1322.99
192.28	1255.40
192.50	1363.95
192.72	1322.99
192.94	1314.80
193.16	1208.30
193.38	1249.26
193.60	1249.26
193.82	1296.36
194.04	1261.55
194.26	1277.93
194.48	1277.93
194.70	1239.02
194.92	1284.08
195.14	1277.93
195.36	1269.74
195.58	1249.26
195.80	1341.42
196.02	1257.45
196.24	1322.99
196.46	1261.55
196.69	1222.64
196.91	1310.70
197.13	1253.36
197.35	1230.83
197.57	1275.88
197.79	1306.60
198.01	1269.74
198.23	1273.84
198.45	1269.74
198.67	1265.64
198.89	1259.50
199.11	1251.31
199.33	1275.88
199.55	1259.50
199.77	1275.88
199.99	1273.84
200.21	1255.40
200.43	1273.84
200.65	1251.31
200.87	1263.60
201.09	1232.88
201.31	1298.41
201.53	1265.64
201.75	1249.26
201.97	1298.41
202.19	1292.27
202.41	1234.93
202.63	1347.56
202.85	1259.50
203.07	1292.27
203.29	1314.80
203.51	1253.36
203.73	1175.53
203.95	1228.78
204.17	1236.97
204.39	1222.64
204.61	1265.64
204.83	1234.93
205.05	1234.93
205.27	1216.49
205.49	1294.32
205.71	1236.97
205.93	1271.79
206.15	1273.84
206.37	1255.40
206.59	1302.51
206.81	1257.45
207.03	1296.36
207.25	1308.65
207.47	1212.40
207.69	1277.93
207.91	1298.41
208.13	1257.45
208.34	1255.40
208.56	1292.27
208.78	1261.55
209.00	1257.45
209.22	1236.97
209.44	1220.59
209.66	1253.36
209.88	1273.84
210.10	1273.84
210.32	1288.17
210.54	1312.75
210.76	1247.21
210.98	1304.56
211.20	1230.83
211.42	1300.46
211.64	1255.40
211.86	1257.45
212.08	1228.78
212.30	1273.84
212.52	1200.11
212.74	1271.79
212.96	1282.03
213.17	1234.93
213.39	1267.69
213.61	1275.88
213.83	1273.84
214.05	1234.93
214.27	1273.84
214.49	1220.59
214.71	1267.69
214.93	1327.08
215.15	1271.79
215.37	1298.41
215.59	1239.02
215.81	1265.64
216.03	1286.12
216.24	1236.97
216.46	1265.64
216.68	1236.97
216.90	1308.65
217.12	1226.73
217.34	1273.84
217.56	1245.16
217.78	1304.56
218.00	1267.69
218.22	1341.42
218.44	1269.74
218.66	1310.70
218.87	1249.26
219.09	1253.36
219.31	1271.79
219.53	1253.36
219.75	1320.94
219.97	1275.88
220.19	1351.66
220.41	1331.18
220.63	1275.88
220.85	1196.01
221.06	1271.79
221.28	1228.78
221.50	1308.65
221.72	1271.79
221.94	1308.65
222.16	1339.37
222.38	1249.26
222.60	1271.79
222.82	1216.49
223.03	1232.88
223.25	1273.84
223.47	1310.70
223.69	1306.60
223.91	1243.12
224.13	1247.21
224.35	1341.42
224.57	1318.89
224.78	1269.74
225.00	1325.04
225.22	1327.08
225.44	1306.60
225.66	1232.88
225.88	1265.64
226.10	1269.74
226.32	1316.84
226.53	1331.18
226.75	1243.12
226.97	1302.51
227.19	1267.69
227.41	1279.98
227.63	1243.12
227.85	1255.40
228.06	1361.90
228.28	1265.64
228.50	1183.73
228.72	1306.60
228.94	1243.12
229.16	1241.07
229.37	1273.84
229.59	1193.97
229.81	1247.21
230.03	1212.40
230.25	1239.02
230.47	1245.16
230.69	1306.60
230.90	1251.31
231.12	1239.02
231.34	1239.02
231.56	1222.64
231.78	1257.45
232.00	1282.03
232.21	1243.12
232.43	1214.45
232.65	1273.84
232.87	1265.64
233.09	1259.50
233.30	1269.74
233.52	1253.36
233.74	1322.99
233.96	1239.02
234.18	1255.40
234.40	1286.12
234.61	1191.92
234.83	1275.88
235.05	1298.41
235.27	1304.56
235.49	1271.79
235.70	1286.12
235.92	1232.88
236.14	1241.07
236.36	1345.52
236.58	1243.12
236.79	1255.40
237.01	1396.71
237.23	1345.52
237.45	1269.74
237.67	1292.27
237.88	1224.69
238.10	1257.45
238.32	1337.32
238.54	1251.31
238.76	1345.52
238.97	1241.07
239.19	1232.88
239.41	1253.36
239.63	1267.69
239.85	1316.84
240.06	1247.21
240.28	1316.84
240.50	1300.46
240.72	1239.02
240.93	1189.87
241.15	1196.01
241.37	1339.37
241.59	1232.88
241.81	1232.88
242.02	1259.50
242.24	1210.35
242.46	1298.41
242.68	1292.27
242.89	1202.16
243.11	1325.04
243.33	1298.41
243.55	1257.45
243.76	1253.36
243.98	1327.08
244.20	1257.45
244.42	1226.73
244.64	1284.08
244.85	1243.12
245.07	1247.21
245.29	1243.12
245.51	1265.64
245.72	1378.28
245.94	1306.60
246.16	1298.41
246.38	1296.36
246.59	1331.18
246.81	1286.12
247.03	1230.83
247.24	1298.41
247.46	1288.17
247.68	1263.60
247.90	1331.18
248.11	1263.60
248.33	1310.70
248.55	1273.84
248.77	1245.16
248.98	1341.42
249.20	1304.56
249.42	1261.55
249.64	1241.07
249.85	1239.02
250.07	1191.92
250.29	1312.75
250.50	1204.21
250.72	1251.31
250.94	1271.79
251.16	1290.22
251.37	1325.04
251.59	1288.17
251.81	1286.12
252.02	1247.21
252.24	1316.84
252.46	1261.55
252.68	1335.28
252.89	1288.17
253.11	1257.45
253.33	1224.69
253.54	1224.69
253.76	1273.84
253.98	1169.39
254.20	1312.75
254.41	1216.49
254.63	1265.64
254.85	1302.51
255.06	1269.74
255.28	1306.60
255.50	1208.30
255.71	1277.93
255.93	1265.64
256.15	1220.59
256.36	1236.97
256.58	1298.41
256.80	1224.69
257.02	1214.45
257.23	1226.73
257.45	1220.59
257.67	1249.26
257.88	1288.17
258.10	1374.19
258.32	1259.50
258.53	1222.64
258.75	1275.88
258.97	1347.56
259.18	1275.88
259.40	1222.64
259.62	1310.70
259.83	1216.49
260.05	1263.60
260.27	1376.24
260.48	1300.46
260.70	1214.45
260.92	1335.28
261.13	1230.83
261.35	1243.12
261.57	1292.27
261.78	1282.03
262.00	1251.31
262.22	1325.04
262.43	1257.45
262.65	1267.69
262.86	1241.07
263.08	1308.65
263.30	1265.64
263.51	1269.74
263.73	1318.89
263.95	1263.60
264.16	1335.28
264.38	1294.32
264.60	1279.98
264.81	1308.65
265.03	1316.84
265.25	1187.82
265.46	1255.40
265.68	1302.51
265.89	1232.88
266.11	1222.64
266.33	1230.83
266.54	1275.88
266.76	1212.40
266.98	1206.25
267.19	1263.60
267.41	1255.40
267.62	1286.12
267.84	1271.79
268.06	1251.31
268.27	1224.69
268.49	1282.03
268.70	1216.49
268.92	1247.21
269.14	1273.84
269.35	1269.74
269.57	1288.17
269.79	1267.69
270.00	1265.64
270.22	1275.88
270.43	1279.98
270.65	1279.98
270.87	1230.83
271.08	1275.88
271.30	1337.32
271.51	1196.01
271.73	1263.60
271.95	1320.94
272.16	1284.08
272.38	1284.08
272.59	1247.21
272.81	1247.21
273.02	1226.73
273.24	1300.46
273.46	1206.25
273.67	1308.65
273.89	1269.74
274.10	1345.52
274.32	1265.64
274.54	1271.79
274.75	1288.17
274.97	1271.79
275.18	1208.30
275.40	1259.50
275.61	1163.25
275.83	1300.46
276.05	1243.12
276.26	1216.49
276.48	1273.84
276.69	1284.08
276.91	1271.79
277.12	1251.31
277.34	1304.56
277.55	1294.32
277.77	1232.88
277.99	1302.51
278.20	1275.88
278.42	1220.59
278.63	1210.35
278.85	1288.17
279.06	1259.50
279.28	1329.13
279.49	1236.97
279.71	1279.98
279.93	1232.88
280.14	1306.60
280.36	1304.56
280.57	1198.06
280.79	1306.60
281.00	1288.17
281.22	1275.88
281.43	1249.26
281.65	1294.32
281.86	1243.12
282.08	1327.08
282.29	1259.50
282.51	1318.89
282.73	1306.60
282.94	1161.20
283.16	1234.93
283.37	1304.56
283.59	1292.27
283.80	1314.80
284.02	1249.26
284.23	1314.80
284.45	1259.50
284.66	1331.18
284.88	1353.71
285.09	1241.07
285.31	1261.55
285.52	1261.55
285.74	1234.93
285.95	1304.56
286.17	1269.74
286.38	1236.97
286.60	1329.13
286.81	1286.12
287.03	1239.02
287.24	1277.93
287.46	1343.47
287.67	1269.74
287.89	1251.31
288.10	1224.69
288.32	1279.98
288.53	1263.60
288.75	1279.98
288.96	1300.46
289.18	1318.89
289.39	1253.36
289.61	1327.08
289.82	1288.17
290.04	1314.80
290.25	1322.99
290.47	1210.35
290.68	1267.69
290.90	1216.49
291.11	1247.21
291.33	1325.04
291.54	1279.98
291.76	1269.74
291.97	1214.45
292.18	1241.07
292.40	1222.64
292.61	1241.07
292.83	1265.64
293.04	1282.03
293.26	1259.50
293.47	1220.59
293.69	1320.94
293.90	1265.64
294.12	1284.08
294.33	1196.01
294.55	1220.59
294.76	1286.12
294.97	1181.68
295.19	1245.16
295.40	1290.22
295.62	1226.73
295.83	1288.17
296.05	1257.45
296.26	1361.90
296.48	1294.32
296.69	1245.16
296.90	1212.40
297.12	1265.64
297.33	1193.97
297.55	1241.07
297.76	1302.51
297.98	1239.02
298.19	1257.45
298.41	1206.25
298.62	1273.84
298.83	1279.98
299.05	1255.40
299.26	1314.80
299.48	1302.51
299.69	1230.83
299.90	1245.16
300.12	1249.26
300.33	1298.41
300.55	1239.02
300.76	1314.80
300.98	1290.22
301.19	1257.45
301.40	1230.83
301.62	1265.64
301.83	1222.64
302.05	1284.08
302.26	1228.78
302.47	1286.12
302.69	1335.28
302.90	1327.08
303.12	1261.55
303.33	1306.60
303.54	1322.99
303.76	1318.89
303.97	1236.97
304.19	1220.59
304.40	1234.93
304.61	1288.17
304.83	1331.18
305.04	1286.12
305.26	1312.75
305.47	1224.69
305.68	1300.46
305.90	1271.79
306.11	1279.98
306.33	1282.03
306.54	1232.88
306.75	1218.54
306.97	1351.66
307.18	1267.69
307.39	1259.50
307.61	1202.16
307.82	1304.56
308.04	1257.45
308.25	1259.50
308.46	1304.56
308.68	1269.74
308.89	1304.56
309.10	1232.88
309.32	1241.07
309.53	1255.40
309.74	1286.12
309.96	1206.25
310.17	1331.18
310.39	1290.22
310.60	1282.03
310.81	1210.35
311.03	1234.93
311.24	1269.74
311.45	1288.17
311.67	1288.17
311.88	1255.40
312.09	1269.74
312.31	1302.51
312.52	1329.13
312.73	1255.40
312.95	1218.54
313.16	1273.84
313.37	1374.19
313.59	1236.97
313.80	1298.41
314.01	1200.11
314.23	1271.79
314.44	1312.75
314.65	1247.21
314.87	1249.26
315.08	1234.93
315.29	1255.40
315.51	1261.55
315.72	1316.84
315.93	1255.40
316.15	1296.36
316.36	1249.26
316.57	1214.45
316.79	1251.31
317.00	1243.12
317.21	1224.69
317.43	1226.73
317.64	1265.64
317.85	1306.60
318.07	1269.74
318.28	1277.93
318.49	1234.93
318.70	1257.45
318.92	1259.50
319.13	1247.21
319.34	1230.83
319.56	1261.55
319.77	1247.21
319.98	1206.25
320.20	1296.36
320.41	1273.84
320.62	1247.21
320.83	1296.36
321.05	1267.69
321.26	1310.70
321.47	1296.36
321.69	1271.79
321.90	1308.65
322.11	1261.55
322.32	1284.08
322.54	1265.64
322.75	1124.33
322.96	1265.64
323.18	1230.83
323.39	1302.51
323.60	1234.93
323.81	1193.97
324.03	1320.94
324.24	1298.41
324.45	1239.02
324.66	1224.69
324.88	1239.02
325.09	1286.12
325.30	1288.17
325.52	1325.04
325.73	1269.74
325.94	1267.69
326.15	1306.60
326.37	1282.03
326.58	1263.60
326.79	1314.80
327.00	1243.12
327.22	1286.12
327.43	1165.29
327.64	1210.35
327.85	1298.41
328.07	1306.60
328.28	1312.75
328.49	1232.88
328.70	1249.26
328.92	1288.17
329.13	1239.02
329.34	1259.50
329.55	1218.54
329.76	1255.40
329.98	1310.70
330.19	1175.53
330.40	1306.60
330.61	1337.32
330.83	1267.69
331.04	1241.07
331.25	1261.55
331.46	1200.11
331.68	1292.27
331.89	1306.60
332.10	1247.21
332.31	1294.32
332.52	1257.45
332.74	1325.04
332.95	1249.26
333.16	1302.51
333.37	1343.47
333.58	1304.56
333.80	1296.36
334.01	1249.26
334.22	1259.50
334.43	1226.73
334.64	1216.49
334.86	1241.07
335.07	1251.31
335.28	1267.69
335.49	1282.03
335.70	1239.02
335.92	1339.37
336.13	1247.21
336.34	1239.02
336.55	1292.27
336.76	1286.12
336.98	1290.22
337.19	1220.59
337.40	1325.04
337.61	1228.78
337.82	1265.64
338.04	1284.08
338.25	1314.80
338.46	1310.70
338.67	1269.74
338.88	1286.12
339.09	1247.21
339.31	1304.56
339.52	1236.97
339.73	1210.35
339.94	1290.22
340.15	1202.16
340.36	1232.88
340.58	1310.70
340.79	1347.56
341.00	1265.64
341.21	1322.99
341.42	1245.16
341.63	1275.88
341.85	1290.22
342.06	1304.56
342.27	1206.25
342.48	1230.83
342.69	1255.40
342.90	1212.40
343.12	1306.60
343.33	1294.32
343.54	1249.26
343.75	1298.41
343.96	1279.98
344.17	1347.56
344.38	1304.56
344.60	1294.32
344.81	1206.25
345.02	1290.22
345.23	1230.83
345.44	1241.07
345.65	1384.43
345.86	1333.23
346.07	1265.64
346.29	1302.51
346.50	1335.28
346.71	1255.40
346.92	1241.07
347.13	1298.41
347.34	1275.88
347.55	1206.25
347.76	1226.73
347.98	1234.93
348.19	1294.32
348.40	1322.99
348.61	1302.51
348.82	1296.36
349.03	1271.79
349.24	1232.88
349.45	1210.35
349.66	1253.36
349.88	1282.03
350.09	1261.55
350.30	1277.93
350.51	1284.08
350.72	1222.64
350.93	1181.68
351.14	1255.40
351.35	1300.46
351.56	1273.84
351.77	1253.36
351.99	1314.80
352.20	1290.22
352.41	1277.93
352.62	1282.03
352.83	1200.11
353.04	1292.27
353.25	1322.99
353.46	1288.17
353.67	1208.30
353.88	1261.55
354.09	1288.17
354.30	1249.26
354.52	1236.97
354.73	1322.99
354.94	1275.88
355.15	1183.73
355.36	1212.40
355.57	1347.56
355.78	1282.03
355.99	1243.12
356.20	1304.56
356.41	1292.27
356.62	1314.80
356.83	1243.12
357.04	1222.64
357.25	1247.21
357.46	1273.84
357.68	1259.50
357.89	1224.69
358.10	1265.64
358.31	1259.50
358.52	1200.11
358.73	1255.40
358.94	1263.60
359.15	1329.13
359.36	1288.17
359.57	1214.45
359.78	1171.44
359.99	1288.17
360.20	1239.02
360.41	1241.07
360.62	1314.80
360.83	1339.37
361.04	1218.54
361.25	1269.74
361.46	1239.02
361.67	1253.36
361.88	1232.88
362.09	1249.26
362.30	1271.79
362.51	1189.87
362.72	1275.88
362.93	1230.83
363.14	1298.41
363.35	1193.97
363.56	1269.74
363.78	1243.12
363.99	1277.93
364.20	1218.54
364.41	1284.08
364.62	1339.37
364.83	1261.55
365.04	1277.93
365.25	1296.36
365.46	1261.55
365.67	1325.04
365.88	1269.74
366.09	1312.75
366.30	1325.04
366.51	1298.41
366.72	1271.79
366.93	1269.74
367.14	1306.60
367.35	1253.36
367.56	1343.47
367.77	1320.94
367.98	1265.64
368.18	1300.46
368.39	1284.08
368.60	1322.99
368.81	1181.68
369.02	1263.60
369.23	1249.26
369.44	1282.03
369.65	1216.49
369.86	1249.26
370.07	1292.27
370.28	1228.78
370.49	1222.64
370.70	1249.26
370.91	1247.21
371.12	1218.54
371.33	1304.56
371.54	1224.69
371.75	1265.64
371.96	1296.36
372.17	1273.84
372.38	1273.84
372.59	1255.40
372.80	1269.74
373.01	1290.22
373.22	1366.00
373.43	1318.89
373.64	1269.74
373.85	1200.11
374.06	1265.64
374.26	1267.69
374.47	1273.84
374.68	1261.55
374.89	1200.11
375.10	1273.84
375.31	1290.22
375.52	1275.88
375.73	1298.41
375.94	1214.45
376.15	1263.60
376.36	1275.88
376.57	1224.69
376.78	1316.84
376.99	1273.84
377.20	1259.50
377.40	1288.17
377.61	1290.22
377.82	1206.25
378.03	1263.60
378.24	1239.02
378.45	1267.69
378.66	1251.31
378.87	1271.79
379.08	1273.84
379.29	1181.68
379.50	1259.50
379.71	1239.02
379.91	1255.40
380.12	1224.69
380.33	1255.40
380.54	1120.24
380.75	1239.02
380.96	1210.35
381.17	1329.13
381.38	1290.22
381.59	1298.41
381.80	1265.64
382.00	1296.36
382.21	1273.84
382.42	1327.08
382.63	1257.45
382.84	1298.41
383.05	1265.64
383.26	1232.88
383.47	1247.21
383.68	1322.99
383.88	1251.31
384.09	1298.41
384.30	1257.45
384.51	1224.69
384.72	1279.98
384.93	1335.28
385.14	1212.40
385.35	1263.60
385.55	1286.12
385.76	1218.54
385.97	1255.40
386.18	1314.80
386.39	1206.25
386.60	1273.84
386.81	1325.04
387.02	1333.23
387.22	1275.88
387.43	1304.56
387.64	1249.26
387.85	1261.55
388.06	1220.59
388.27	1273.84
388.48	1329.13
388.68	1298.41
388.89	1279.98
389.10	1259.50
389.31	1294.32
389.52	1279.98
389.73	1220.59
389.93	1255.40
390.14	1284.08
390.35	1193.97
390.56	1282.03
390.77	1245.16
390.98	1279.98
391.18	1279.98
391.39	1247.21
391.60	1148.91
391.81	1337.32
392.02	1275.88
392.23	1279.98
392.43	1279.98
392.64	1265.64
392.85	1277.93
393.06	1265.64
393.27	1320.94
393.47	1275.88
393.68	1241.07
393.89	1239.02
394.10	1271.79
394.31	1294.32
394.52	1282.03
394.72	1230.83
394.93	1325.04
395.14	1255.40
395.35	1200.11
395.56	1265.64
395.76	1294.32
395.97	1185.77
396.18	1286.12
396.39	1251.31
396.60	1196.01
396.80	1337.32
397.01	1310.70
397.22	1193.97
397.43	1267.69
397.64	1224.69
397.84	1202.16
398.05	1218.54
398.26	1269.74
398.47	1214.45
398.67	1284.08
398.88	1335.28
399.09	1265.64
399.30	1267.69
399.51	1300.46
399.71	1255.40
399.92	1216.49
400.13	1210.35
400.34	1208.30
400.54	1218.54
400.75	1275.88
400.96	1236.97
401.17	1224.69
401.37	1212.40
401.58	1236.97
401.79	1220.59
402.00	1261.55
402.21	1245.16
402.41	1232.88
402.62	1273.84
402.83	1300.46
403.04	1200.11
403.24	1202.16
403.45	1300.46
403.66	1347.56
403.87	1261.55
404.07	1284.08
404.28	1282.03
404.49	1259.50
404.70	1282.03
404.90	1228.78
405.11	1232.88
405.32	1265.64
405.52	1236.97
405.73	1282.03
405.94	1222.64
406.15	1282.03
406.35	1312.75
406.56	1249.26
406.77	1333.23
406.98	1277.93
407.18	1243.12
407.39	1230.83
407.60	1210.35
407.80	1312.75
408.01	1269.74
408.22	1298.41
408.43	1284.08
408.63	1320.94
408.84	1251.31
409.05	1232.88
409.25	1286.12
409.46	1243.12
409.67	1228.78
409.88	1206.25
410.08	1261.55
410.29	1294.32
410.50	1249.26
410.70	1249.26
410.91	1279.98
411.12	1267.69
411.32	1277.93
411.53	1277.93
411.74	1294.32
411.95	1335.28
412.15	1241.07
412.36	1257.45
412.57	1261.55
412.77	1304.56
412.98	1296.36
413.19	1284.08
413.39	1363.95
413.60	1290.22
413.81	1267.69
414.01	1353.71
414.22	1251.31
414.43	1325.04
414.63	1292.27
414.84	1294.32
415.05	1253.36
415.25	1292.27
415.46	1271.79
415.67	1228.78
415.87	1247.21
416.08	1325.04
416.29	1241.07
416.49	1251.31
416.70	1191.92
416.91	1220.59
417.11	1298.41
417.32	1234.93
417.53	1269.74
417.73	1271.79
417.94	1300.46
418.15	1206.25
418.35	1308.65
418.56	1249.26
418.77	1249.26
418.97	1232.88
419.18	1312.75
419.38	1282.03
419.59	1310.70
419.80	1271.79
420.00	1277.93
420.21	1249.26
420.42	1282.03
420.62	1263.60
420.83	1312.75
421.04	1269.74
421.24	1263.60
421.45	1298.41
421.65	1236.97
421.86	1239.02
422.07	1247.21
422.27	1273.84
422.48	1267.69
422.69	1284.08
422.89	1316.84
423.10	1284.08
423.30	1294.32
423.51	1243.12
423.72	1247.21
423.92	1302.51
424.13	1241.07
424.33	1247.21
424.54	1228.78
424.75	1245.16
424.95	1292.27
425.16	1308.65
425.36	1306.60
425.57	1282.03
425.78	1245.16
425.98	1212.40
426.19	1292.27
426.39	1351.66
426.60	1286.12
426.81	1228.78
427.01	1177.58
427.22	1259.50
427.42	1322.99
427.63	1318.89
427.83	1282.03
428.04	1298.41
428.25	1169.39
428.45	1282.03
428.66	1279.98
428.86	1282.03
429.07	1255.40
429.28	1279.98
429.48	1357.80
429.69	1302.51
429.89	1294.32
430.10	1312.75
430.30	1284.08
430.51	1259.50
430.71	1226.73
430.92	1247.21
431.13	1306.60
431.33	1300.46
431.54	1241.07
431.74	1236.97
431.95	1261.55
432.15	1296.36
432.36	1275.88
432.56	1255.40
432.77	1337.32
432.98	1253.36
433.18	1298.41
433.39	1277.93
433.59	1210.35
433.80	1306.60
434.00	1210.35
434.21	1329.13
434.41	1204.21
434.62	1261.55
434.82	1163.25
435.03	1312.75
435.23	1239.02
435.44	1216.49
435.64	1255.40
435.85	1230.83
436.06	1253.36
436.26	1247.21
436.47	1294.32
436.67	1189.87
436.88	1318.89
437.08	1241.07
437.29	1241.07
437.49	1314.80
437.70	1286.12
437.90	1282.03
438.11	1312.75
438.31	1273.84
438.52	1228.78
438.72	1304.56
438.93	1257.45
439.13	1267.69
439.34	1308.65
439.54	1228.78
439.75	1296.36
439.95	1327.08
440.16	1296.36
440.36	1282.03
440.57	1320.94
440.77	1271.79
440.98	1206.25
441.18	1331.18
441.39	1253.36
441.59	1239.02
441.80	1331.18
442.00	1279.98
442.21	1265.64
442.41	1169.39
442.62	1273.84
442.82	1236.97
443.02	1230.83
443.23	1300.46
443.43	1247.21
443.64	1331.18
443.84	1212.40
444.05	1277.93
444.25	1302.51
444.46	1325.04
444.66	1282.03
444.87	1282.03
445.07	1253.36
445.28	1357.80
445.48	1224.69
445.69	1368.04
445.89	1296.36
446.09	1232.88
446.30	1298.41
446.50	1292.27
446.71	1312.75
446.91	1339.37
447.12	1286.12
447.32	1273.84
447.53	1284.08
447.73	1327.08
447.93	1239.02
448.14	1259.50
448.34	1273.84
448.55	1271.79
448.75	1312.75
448.96	1298.41
449.16	1331.18
449.36	1298.41
449.57	1273.84
449.77	1304.56
449.98	1261.55
450.18	1316.84
450.39	1304.56
450.59	1304.56
450.79	1245.16
451.00	1267.69
451.20	1286.12
451.41	1196.01
451.61	1228.78
451.81	1183.73
452.02	1277.93
452.22	1290.22
452.43	1312.75
452.63	1300.46
