SpectraSuite Data File
++++++++++++++++++++++++++++++++++++
Date: Sun Apr 03 19:55:40 CEST 2016
User: root
Dark Spectrum Present: No
Reference Spectrum Present: No
Number of Sampled Component Spectra: 1
Spectrometers: USB4C02835
Integration Time (usec): 10000 (USB4C02835)
Spectra Averaged: 1 (USB4C02835)
Boxcar Smoothing: 0 (USB4C02835)
Correct for Electrical Dark: No (USB4C02835)
Strobe/Lamp Enabled: No (USB4C02835)
Correct for Detector Non-linearity: No (USB4C02835)
Correct for Stray Light: No (USB4C02835)
Number of Pixels in Processed Spectrum: 3648
>>>>>Begin Processed Spectral Data<<<<<
177.47	1263.60
177.69	1263.60
177.91	1263.60
178.13	1196.01
178.36	1312.75
178.58	1185.77
178.80	1216.49
179.02	1257.45
179.24	1308.65
179.46	1304.56
179.68	1302.51
179.90	1224.69
180.13	1269.74
180.35	1234.93
180.57	1275.88
180.79	1265.64
181.01	1290.22
181.23	1277.93
181.45	1294.32
181.67	1302.51
181.90	1224.69
182.12	1245.16
182.34	1277.93
182.56	1277.93
182.78	1214.45
183.00	1284.08
183.22	1261.55
183.44	1259.50
183.66	1198.06
183.89	1353.71
184.11	1304.56
184.33	1241.07
184.55	1318.89
184.77	1259.50
184.99	1296.36
185.21	1173.49
185.43	1216.49
185.65	1263.60
185.87	1310.70
186.10	1198.06
186.32	1259.50
186.54	1181.68
186.76	1265.64
186.98	1318.89
187.20	1255.40
187.42	1269.74
187.64	1261.55
187.86	1239.02
188.08	1322.99
188.30	1253.36
188.52	1261.55
188.75	1275.88
188.97	1294.32
189.19	1210.35
189.41	1271.79
189.63	1226.73
189.85	1284.08
190.07	1257.45
190.29	1253.36
190.51	1282.03
190.73	1288.17
190.95	1263.60
191.17	1335.28
191.39	1212.40
191.61	1200.11
191.84	1232.88
192.06	1243.12
192.28	1255.40
192.50	1275.88
192.72	1284.08
192.94	1216.49
193.16	1294.32
193.38	1253.36
193.60	1308.65
193.82	1243.12
194.04	1232.88
194.26	1310.70
194.48	1288.17
194.70	1263.60
194.92	1220.59
195.14	1232.88
195.36	1239.02
195.58	1284.08
195.80	1296.36
196.02	1277.93
196.24	1290.22
196.46	1290.22
196.69	1269.74
196.91	1247.21
197.13	1310.70
197.35	1329.13
197.57	1327.08
197.79	1267.69
198.01	1216.49
198.23	1304.56
198.45	1288.17
198.67	1245.16
198.89	1239.02
199.11	1214.45
199.33	1220.59
199.55	1310.70
199.77	1236.97
199.99	1236.97
200.21	1148.91
200.43	1218.54
200.65	1243.12
200.87	1228.78
201.09	1234.93
201.31	1261.55
201.53	1318.89
201.75	1353.71
201.97	1212.40
202.19	1306.60
202.41	1273.84
202.63	1261.55
202.85	1239.02
203.07	1282.03
203.29	1247.21
203.51	1292.27
203.73	1198.06
203.95	1316.84
204.17	1236.97
204.39	1267.69
204.61	1296.36
204.83	1279.98
205.05	1292.27
205.27	1257.45
205.49	1267.69
205.71	1308.65
205.93	1236.97
206.15	1300.46
206.37	1290.22
206.59	1271.79
206.81	1290.22
207.03	1286.12
207.25	1241.07
207.47	1265.64
207.69	1232.88
207.91	1247.21
208.13	1298.41
208.34	1224.69
208.56	1245.16
208.78	1286.12
209.00	1284.08
209.22	1224.69
209.44	1300.46
209.66	1259.50
209.88	1243.12
210.10	1265.64
210.32	1224.69
210.54	1239.02
210.76	1259.50
210.98	1275.88
211.20	1234.93
211.42	1269.74
211.64	1290.22
211.86	1232.88
212.08	1259.50
212.30	1265.64
212.52	1304.56
212.74	1300.46
212.96	1290.22
213.17	1249.26
213.39	1290.22
213.61	1290.22
213.83	1253.36
214.05	1241.07
214.27	1177.58
214.49	1282.03
214.71	1298.41
214.93	1302.51
215.15	1249.26
215.37	1277.93
215.59	1267.69
215.81	1216.49
216.03	1273.84
216.24	1304.56
216.46	1286.12
216.68	1325.04
216.90	1282.03
217.12	1302.51
217.34	1208.30
217.56	1234.93
217.78	1257.45
218.00	1316.84
218.22	1288.17
218.44	1298.41
218.66	1257.45
218.87	1273.84
219.09	1265.64
219.31	1312.75
219.53	1292.27
219.75	1314.80
219.97	1208.30
220.19	1222.64
220.41	1269.74
220.63	1263.60
220.85	1224.69
221.06	1271.79
221.28	1304.56
221.50	1173.49
221.72	1265.64
221.94	1304.56
222.16	1263.60
222.38	1271.79
222.60	1247.21
222.82	1282.03
223.03	1196.01
223.25	1290.22
223.47	1224.69
223.69	1339.37
223.91	1294.32
224.13	1243.12
224.35	1312.75
224.57	1286.12
224.78	1286.12
225.00	1351.66
225.22	1189.87
225.44	1300.46
225.66	1284.08
225.88	1304.56
226.10	1247.21
226.32	1290.22
226.53	1265.64
226.75	1257.45
226.97	1273.84
227.19	1263.60
227.41	1271.79
227.63	1273.84
227.85	1296.36
228.06	1257.45
228.28	1292.27
228.50	1273.84
228.72	1210.35
228.94	1296.36
229.16	1300.46
229.37	1347.56
229.59	1325.04
229.81	1257.45
230.03	1232.88
230.25	1308.65
230.47	1277.93
230.69	1269.74
230.90	1259.50
231.12	1239.02
231.34	1263.60
231.56	1236.97
231.78	1282.03
232.00	1208.30
232.21	1277.93
232.43	1204.21
232.65	1290.22
232.87	1267.69
233.09	1241.07
233.30	1282.03
233.52	1187.82
233.74	1286.12
233.96	1232.88
234.18	1247.21
234.40	1222.64
234.61	1241.07
234.83	1298.41
235.05	1216.49
235.27	1318.89
235.49	1220.59
235.70	1271.79
235.92	1300.46
236.14	1220.59
236.36	1292.27
236.58	1261.55
236.79	1267.69
237.01	1273.84
237.23	1267.69
237.45	1224.69
237.67	1251.31
237.88	1277.93
238.10	1253.36
238.32	1245.16
238.54	1329.13
238.76	1241.07
238.97	1249.26
239.19	1251.31
239.41	1335.28
239.63	1212.40
239.85	1322.99
240.06	1220.59
240.28	1257.45
240.50	1241.07
240.72	1267.69
240.93	1296.36
241.15	1239.02
241.37	1292.27
241.59	1255.40
241.81	1267.69
242.02	1253.36
242.24	1249.26
242.46	1275.88
242.68	1314.80
242.89	1263.60
243.11	1314.80
243.33	1241.07
243.55	1251.31
243.76	1343.47
243.98	1277.93
244.20	1259.50
244.42	1253.36
244.64	1290.22
244.85	1224.69
245.07	1271.79
245.29	1243.12
245.51	1245.16
245.72	1239.02
245.94	1208.30
246.16	1304.56
246.38	1294.32
246.59	1259.50
246.81	1316.84
247.03	1247.21
247.24	1294.32
247.46	1308.65
247.68	1290.22
247.90	1236.97
248.11	1222.64
248.33	1232.88
248.55	1230.83
248.77	1261.55
248.98	1273.84
249.20	1243.12
249.42	1249.26
249.64	1275.88
249.85	1296.36
250.07	1335.28
250.29	1394.67
250.50	1253.36
250.72	1316.84
250.94	1157.10
251.16	1216.49
251.37	1236.97
251.59	1232.88
251.81	1251.31
252.02	1253.36
252.24	1273.84
252.46	1245.16
252.68	1335.28
252.89	1261.55
253.11	1206.25
253.33	1286.12
253.54	1257.45
253.76	1206.25
253.98	1298.41
254.20	1234.93
254.41	1220.59
254.63	1282.03
254.85	1335.28
255.06	1302.51
255.28	1247.21
255.50	1245.16
255.71	1271.79
255.93	1265.64
256.15	1247.21
256.36	1257.45
256.58	1282.03
256.80	1282.03
257.02	1333.23
257.23	1331.18
257.45	1335.28
257.67	1322.99
257.88	1294.32
258.10	1259.50
258.32	1304.56
258.53	1241.07
258.75	1232.88
258.97	1241.07
259.18	1245.16
259.40	1312.75
259.62	1251.31
259.83	1183.73
260.05	1271.79
260.27	1198.06
260.48	1271.79
260.70	1320.94
260.92	1269.74
261.13	1337.32
261.35	1181.68
261.57	1298.41
261.78	1294.32
262.00	1290.22
262.22	1236.97
262.43	1230.83
262.65	1269.74
262.86	1282.03
263.08	1259.50
263.30	1292.27
263.51	1191.92
263.73	1343.47
263.95	1261.55
264.16	1335.28
264.38	1255.40
264.60	1251.31
264.81	1236.97
265.03	1312.75
265.25	1306.60
265.46	1265.64
265.68	1239.02
265.89	1322.99
266.11	1265.64
266.33	1232.88
266.54	1306.60
266.76	1310.70
266.98	1265.64
267.19	1339.37
267.41	1251.31
267.62	1239.02
267.84	1214.45
268.06	1271.79
268.27	1243.12
268.49	1322.99
268.70	1261.55
268.92	1257.45
269.14	1243.12
269.35	1251.31
269.57	1314.80
269.79	1290.22
270.00	1247.21
270.22	1257.45
270.43	1329.13
270.65	1302.51
270.87	1265.64
271.08	1329.13
271.30	1257.45
271.51	1261.55
271.73	1310.70
271.95	1329.13
272.16	1306.60
272.38	1271.79
272.59	1148.91
272.81	1267.69
273.02	1243.12
273.24	1251.31
273.46	1273.84
273.67	1288.17
273.89	1259.50
274.10	1339.37
274.32	1271.79
274.54	1331.18
274.75	1316.84
274.97	1230.83
275.18	1306.60
275.40	1257.45
275.61	1271.79
275.83	1292.27
276.05	1279.98
276.26	1224.69
276.48	1308.65
276.69	1273.84
276.91	1249.26
277.12	1290.22
277.34	1265.64
277.55	1214.45
277.77	1257.45
277.99	1263.60
278.20	1222.64
278.42	1214.45
278.63	1273.84
278.85	1243.12
279.06	1228.78
279.28	1302.51
279.49	1294.32
279.71	1282.03
279.93	1271.79
280.14	1214.45
280.36	1284.08
280.57	1341.42
280.79	1210.35
281.00	1273.84
281.22	1306.60
281.43	1290.22
281.65	1279.98
281.86	1288.17
282.08	1257.45
282.29	1251.31
282.51	1249.26
282.73	1302.51
282.94	1222.64
283.16	1228.78
283.37	1363.95
283.59	1255.40
283.80	1261.55
284.02	1259.50
284.23	1222.64
284.45	1296.36
284.66	1216.49
284.88	1175.53
285.09	1341.42
285.31	1304.56
285.52	1288.17
285.74	1282.03
285.95	1236.97
286.17	1263.60
286.38	1304.56
286.60	1335.28
286.81	1234.93
287.03	1282.03
287.24	1320.94
287.46	1189.87
287.67	1253.36
287.89	1314.80
288.10	1306.60
288.32	1298.41
288.53	1292.27
288.75	1279.98
288.96	1204.21
289.18	1273.84
289.39	1255.40
289.61	1234.93
289.82	1224.69
290.04	1339.37
290.25	1200.11
290.47	1251.31
290.68	1245.16
290.90	1355.76
291.11	1269.74
291.33	1263.60
291.54	1249.26
291.76	1298.41
291.97	1294.32
292.18	1327.08
292.40	1294.32
292.61	1333.23
292.83	1279.98
293.04	1257.45
293.26	1208.30
293.47	1234.93
293.69	1249.26
293.90	1267.69
294.12	1245.16
294.33	1320.94
294.55	1277.93
294.76	1245.16
294.97	1302.51
295.19	1224.69
295.40	1267.69
295.62	1269.74
295.83	1220.59
296.05	1230.83
296.26	1230.83
296.48	1249.26
296.69	1263.60
296.90	1304.56
297.12	1234.93
297.33	1273.84
297.55	1327.08
297.76	1241.07
297.98	1257.45
298.19	1261.55
298.41	1277.93
298.62	1290.22
298.83	1230.83
299.05	1263.60
299.26	1226.73
299.48	1236.97
299.69	1228.78
299.90	1282.03
300.12	1302.51
300.33	1306.60
300.55	1269.74
300.76	1271.79
300.98	1296.36
301.19	1286.12
301.40	1236.97
301.62	1263.60
301.83	1288.17
302.05	1304.56
302.26	1204.21
302.47	1241.07
302.69	1282.03
302.90	1267.69
303.12	1273.84
303.33	1249.26
303.54	1265.64
303.76	1224.69
303.97	1253.36
304.19	1304.56
304.40	1277.93
304.61	1265.64
304.83	1341.42
305.04	1339.37
305.26	1218.54
305.47	1208.30
305.68	1234.93
305.90	1298.41
306.11	1185.77
306.33	1257.45
306.54	1288.17
306.75	1337.32
306.97	1277.93
307.18	1269.74
307.39	1312.75
307.61	1214.45
307.82	1239.02
308.04	1241.07
308.25	1374.19
308.46	1212.40
308.68	1331.18
308.89	1269.74
309.10	1277.93
309.32	1282.03
309.53	1290.22
309.74	1259.50
309.96	1269.74
310.17	1187.82
310.39	1261.55
310.60	1277.93
310.81	1292.27
311.03	1290.22
311.24	1239.02
311.45	1255.40
311.67	1228.78
311.88	1216.49
312.09	1314.80
312.31	1325.04
312.52	1304.56
312.73	1222.64
312.95	1263.60
313.16	1247.21
313.37	1294.32
313.59	1288.17
313.80	1269.74
314.01	1355.76
314.23	1263.60
314.44	1292.27
314.65	1296.36
314.87	1279.98
315.08	1210.35
315.29	1298.41
315.51	1245.16
315.72	1320.94
315.93	1243.12
316.15	1273.84
316.36	1247.21
316.57	1282.03
316.79	1257.45
317.00	1273.84
317.21	1339.37
317.43	1210.35
317.64	1257.45
317.85	1148.91
318.07	1224.69
318.28	1341.42
318.49	1300.46
318.70	1286.12
318.92	1310.70
319.13	1226.73
319.34	1355.76
319.56	1316.84
319.77	1245.16
319.98	1224.69
320.20	1228.78
320.41	1308.65
320.62	1228.78
320.83	1275.88
321.05	1300.46
321.26	1255.40
321.47	1267.69
321.69	1296.36
321.90	1325.04
322.11	1279.98
322.32	1265.64
322.54	1331.18
322.75	1245.16
322.96	1273.84
323.18	1290.22
323.39	1300.46
323.60	1220.59
323.81	1308.65
324.03	1232.88
324.24	1265.64
324.45	1294.32
324.66	1271.79
324.88	1269.74
325.09	1263.60
325.30	1290.22
325.52	1310.70
325.73	1275.88
325.94	1187.82
326.15	1335.28
326.37	1241.07
326.58	1234.93
326.79	1298.41
327.00	1251.31
327.22	1271.79
327.43	1279.98
327.64	1255.40
327.85	1292.27
328.07	1214.45
328.28	1273.84
328.49	1404.91
328.70	1282.03
328.92	1261.55
329.13	1257.45
329.34	1230.83
329.55	1273.84
329.76	1298.41
329.98	1257.45
330.19	1271.79
330.40	1241.07
330.61	1220.59
330.83	1308.65
331.04	1239.02
331.25	1325.04
331.46	1286.12
331.68	1277.93
331.89	1230.83
332.10	1251.31
332.31	1294.32
332.52	1331.18
332.74	1239.02
332.95	1144.81
333.16	1271.79
333.37	1126.38
333.58	1286.12
333.80	1249.26
334.01	1286.12
334.22	1306.60
334.43	1265.64
334.64	1253.36
334.86	1267.69
335.07	1263.60
335.28	1284.08
335.49	1343.47
335.70	1314.80
335.92	1247.21
336.13	1228.78
336.34	1279.98
336.55	1222.64
336.76	1339.37
336.98	1247.21
337.19	1304.56
337.40	1259.50
337.61	1247.21
337.82	1257.45
338.04	1263.60
338.25	1316.84
338.46	1208.30
338.67	1224.69
338.88	1249.26
339.09	1251.31
339.31	1284.08
339.52	1249.26
339.73	1314.80
339.94	1279.98
340.15	1341.42
340.36	1273.84
340.58	1245.16
340.79	1200.11
341.00	1284.08
341.21	1282.03
341.42	1216.49
341.63	1222.64
341.85	1251.31
342.06	1337.32
342.27	1241.07
342.48	1228.78
342.69	1275.88
342.90	1265.64
343.12	1312.75
343.33	1331.18
343.54	1224.69
343.75	1257.45
343.96	1241.07
344.17	1370.09
344.38	1253.36
344.60	1359.85
344.81	1290.22
345.02	1279.98
345.23	1296.36
345.44	1384.43
345.65	1220.59
345.86	1236.97
346.07	1273.84
346.29	1304.56
346.50	1292.27
346.71	1247.21
346.92	1173.49
347.13	1312.75
347.34	1282.03
347.55	1298.41
347.76	1282.03
347.98	1232.88
348.19	1245.16
348.40	1263.60
348.61	1236.97
348.82	1241.07
349.03	1243.12
349.24	1259.50
349.45	1271.79
349.66	1320.94
349.88	1282.03
350.09	1249.26
350.30	1267.69
350.51	1292.27
350.72	1247.21
350.93	1312.75
351.14	1175.53
351.35	1279.98
351.56	1308.65
351.77	1271.79
351.99	1271.79
352.20	1271.79
352.41	1335.28
352.62	1277.93
352.83	1290.22
353.04	1273.84
353.25	1296.36
353.46	1347.56
353.67	1314.80
353.88	1247.21
354.09	1204.21
354.30	1251.31
354.52	1243.12
354.73	1273.84
354.94	1253.36
355.15	1308.65
355.36	1214.45
355.57	1212.40
355.78	1318.89
355.99	1228.78
356.20	1255.40
356.41	1298.41
356.62	1327.08
356.83	1218.54
357.04	1298.41
357.25	1224.69
357.46	1173.49
357.68	1310.70
357.89	1241.07
358.10	1320.94
358.31	1230.83
358.52	1288.17
358.73	1243.12
358.94	1255.40
359.15	1259.50
359.36	1302.51
359.57	1271.79
359.78	1284.08
359.99	1296.36
360.20	1265.64
360.41	1259.50
360.62	1288.17
360.83	1236.97
361.04	1314.80
361.25	1298.41
361.46	1214.45
361.67	1216.49
361.88	1230.83
362.09	1245.16
362.30	1251.31
362.51	1247.21
362.72	1198.06
362.93	1296.36
363.14	1269.74
363.35	1267.69
363.56	1292.27
363.78	1284.08
363.99	1325.04
364.20	1257.45
364.41	1234.93
364.62	1286.12
364.83	1288.17
365.04	1232.88
365.25	1181.68
365.46	1316.84
365.67	1239.02
365.88	1218.54
366.09	1222.64
366.30	1255.40
366.51	1255.40
366.72	1236.97
366.93	1234.93
367.14	1228.78
367.35	1277.93
367.56	1343.47
367.77	1292.27
367.98	1214.45
368.18	1302.51
368.39	1271.79
368.60	1298.41
368.81	1245.16
369.02	1312.75
369.23	1286.12
369.44	1216.49
369.65	1333.23
369.86	1267.69
370.07	1243.12
370.28	1220.59
370.49	1308.65
370.70	1255.40
370.91	1181.68
371.12	1316.84
371.33	1265.64
371.54	1271.79
371.75	1196.01
371.96	1304.56
372.17	1286.12
372.38	1241.07
372.59	1261.55
372.80	1361.90
373.01	1206.25
373.22	1245.16
373.43	1222.64
373.64	1316.84
373.85	1247.21
374.06	1257.45
374.26	1290.22
374.47	1327.08
374.68	1277.93
374.89	1302.51
375.10	1284.08
375.31	1302.51
375.52	1220.59
375.73	1232.88
375.94	1269.74
376.15	1232.88
376.36	1298.41
376.57	1212.40
376.78	1290.22
376.99	1327.08
377.20	1265.64
377.40	1249.26
377.61	1288.17
377.82	1286.12
378.03	1230.83
378.24	1220.59
378.45	1224.69
378.66	1261.55
378.87	1187.82
379.08	1271.79
379.29	1296.36
379.50	1249.26
379.71	1214.45
379.91	1314.80
380.12	1204.21
380.33	1335.28
380.54	1298.41
380.75	1345.52
380.96	1273.84
381.17	1169.39
381.38	1222.64
381.59	1273.84
381.80	1288.17
382.00	1298.41
382.21	1271.79
382.42	1249.26
382.63	1322.99
382.84	1243.12
383.05	1269.74
383.26	1286.12
383.47	1279.98
383.68	1304.56
383.88	1239.02
384.09	1288.17
384.30	1294.32
384.51	1302.51
384.72	1228.78
384.93	1263.60
385.14	1220.59
385.35	1181.68
385.55	1189.87
385.76	1218.54
385.97	1226.73
386.18	1230.83
386.39	1241.07
386.60	1239.02
386.81	1290.22
387.02	1345.52
387.22	1220.59
387.43	1181.68
387.64	1228.78
387.85	1234.93
388.06	1300.46
388.27	1257.45
388.48	1290.22
388.68	1284.08
388.89	1255.40
389.10	1232.88
389.31	1214.45
389.52	1306.60
389.73	1234.93
389.93	1333.23
390.14	1271.79
390.35	1310.70
390.56	1224.69
390.77	1251.31
390.98	1288.17
391.18	1314.80
391.39	1241.07
391.60	1265.64
391.81	1263.60
392.02	1261.55
392.23	1263.60
392.43	1288.17
392.64	1288.17
392.85	1333.23
393.06	1202.16
393.27	1210.35
393.47	1310.70
393.68	1314.80
393.89	1380.33
394.10	1261.55
394.31	1271.79
394.52	1333.23
394.72	1290.22
394.93	1325.04
395.14	1253.36
395.35	1366.00
395.56	1245.16
395.76	1226.73
395.97	1193.97
396.18	1306.60
396.39	1243.12
396.60	1312.75
396.80	1228.78
397.01	1247.21
397.22	1249.26
397.43	1265.64
397.64	1218.54
397.84	1316.84
398.05	1298.41
398.26	1247.21
398.47	1265.64
398.67	1216.49
398.88	1228.78
399.09	1312.75
399.30	1249.26
399.51	1327.08
399.71	1333.23
399.92	1304.56
400.13	1267.69
400.34	1257.45
400.54	1261.55
400.75	1320.94
400.96	1290.22
401.17	1304.56
401.37	1263.60
401.58	1271.79
401.79	1245.16
402.00	1263.60
402.21	1257.45
402.41	1273.84
402.62	1249.26
402.83	1249.26
403.04	1210.35
403.24	1298.41
403.45	1292.27
403.66	1239.02
403.87	1251.31
404.07	1222.64
404.28	1253.36
404.49	1304.56
404.70	1318.89
404.90	1333.23
405.11	1257.45
405.32	1353.71
405.52	1251.31
405.73	1198.06
405.94	1212.40
406.15	1312.75
406.35	1255.40
406.56	1236.97
406.77	1279.98
406.98	1228.78
407.18	1318.89
407.39	1271.79
407.60	1239.02
407.80	1226.73
408.01	1286.12
408.22	1224.69
408.43	1226.73
408.63	1210.35
408.84	1284.08
409.05	1279.98
409.25	1298.41
409.46	1259.50
409.67	1316.84
409.88	1228.78
410.08	1216.49
410.29	1333.23
410.50	1271.79
410.70	1296.36
410.91	1255.40
411.12	1269.74
411.32	1249.26
411.53	1279.98
411.74	1298.41
411.95	1271.79
412.15	1230.83
412.36	1247.21
412.57	1239.02
412.77	1251.31
412.98	1253.36
413.19	1251.31
413.39	1277.93
413.60	1210.35
413.81	1296.36
414.01	1329.13
414.22	1241.07
414.43	1222.64
414.63	1288.17
414.84	1306.60
415.05	1329.13
415.25	1247.21
415.46	1279.98
415.67	1288.17
415.87	1226.73
416.08	1302.51
416.29	1275.88
416.49	1325.04
416.70	1312.75
416.91	1294.32
417.11	1269.74
417.32	1286.12
417.53	1282.03
417.73	1251.31
417.94	1269.74
418.15	1314.80
418.35	1290.22
418.56	1288.17
418.77	1279.98
418.97	1290.22
419.18	1298.41
419.38	1284.08
419.59	1265.64
419.80	1263.60
420.00	1257.45
420.21	1290.22
420.42	1214.45
420.62	1251.31
420.83	1290.22
421.04	1284.08
421.24	1343.47
421.45	1216.49
421.65	1308.65
421.86	1243.12
422.07	1308.65
422.27	1241.07
422.48	1230.83
422.69	1288.17
422.89	1290.22
423.10	1239.02
423.30	1202.16
423.51	1269.74
423.72	1322.99
423.92	1253.36
424.13	1236.97
424.33	1331.18
424.54	1249.26
424.75	1224.69
424.95	1290.22
425.16	1300.46
425.36	1249.26
425.57	1306.60
425.78	1308.65
425.98	1380.33
426.19	1277.93
426.39	1249.26
426.60	1220.59
426.81	1333.23
427.01	1277.93
427.22	1210.35
427.42	1230.83
427.63	1318.89
427.83	1331.18
428.04	1296.36
428.25	1245.16
428.45	1357.80
428.66	1226.73
428.86	1306.60
429.07	1255.40
429.28	1277.93
429.48	1159.15
429.69	1345.52
429.89	1310.70
430.10	1249.26
430.30	1212.40
430.51	1251.31
430.71	1230.83
430.92	1273.84
431.13	1282.03
431.33	1273.84
431.54	1312.75
431.74	1263.60
431.95	1290.22
432.15	1368.04
432.36	1322.99
432.56	1253.36
432.77	1257.45
432.98	1339.37
433.18	1341.42
433.39	1312.75
433.59	1228.78
433.80	1288.17
434.00	1335.28
434.21	1265.64
434.41	1249.26
434.62	1345.52
434.82	1279.98
435.03	1296.36
435.23	1325.04
435.44	1212.40
435.64	1228.78
435.85	1218.54
436.06	1349.61
436.26	1333.23
436.47	1290.22
436.67	1292.27
436.88	1234.93
437.08	1273.84
437.29	1261.55
437.49	1316.84
437.70	1310.70
437.90	1251.31
438.11	1261.55
438.31	1232.88
438.52	1294.32
438.72	1345.52
438.93	1257.45
439.13	1271.79
439.34	1236.97
439.54	1347.56
439.75	1265.64
439.95	1216.49
440.16	1245.16
440.36	1302.51
440.57	1230.83
440.77	1255.40
440.98	1343.47
441.18	1298.41
441.39	1232.88
441.59	1247.21
441.80	1228.78
442.00	1261.55
442.21	1314.80
442.41	1247.21
442.62	1230.83
442.82	1224.69
443.02	1279.98
443.23	1314.80
443.43	1273.84
443.64	1273.84
443.84	1331.18
444.05	1296.36
444.25	1279.98
444.46	1294.32
444.66	1239.02
444.87	1247.21
445.07	1312.75
445.28	1314.80
445.48	1228.78
445.69	1304.56
445.89	1224.69
446.09	1355.76
446.30	1202.16
446.50	1292.27
446.71	1284.08
446.91	1251.31
447.12	1322.99
447.32	1273.84
447.53	1263.60
447.73	1361.90
447.93	1245.16
448.14	1284.08
448.34	1347.56
448.55	1271.79
448.75	1277.93
448.96	1222.64
449.16	1271.79
449.36	1263.60
449.57	1306.60
449.77	1277.93
449.98	1249.26
450.18	1255.40
450.39	1279.98
450.59	1329.13
450.79	1257.45
451.00	1314.80
451.20	1267.69
451.41	1318.89
451.61	1251.31
451.81	1320.94
452.02	1273.84
452.22	1337.32
452.43	1325.04
452.63	1265.64
