SpectraSuite Data File
++++++++++++++++++++++++++++++++++++
Date: Sun Apr 03 19:55:21 CEST 2016
User: root
Dark Spectrum Present: No
Reference Spectrum Present: No
Number of Sampled Component Spectra: 1
Spectrometers: USB4C02835
Integration Time (usec): 10000 (USB4C02835)
Spectra Averaged: 1 (USB4C02835)
Boxcar Smoothing: 0 (USB4C02835)
Correct for Electrical Dark: No (USB4C02835)
Strobe/Lamp Enabled: No (USB4C02835)
Correct for Detector Non-linearity: No (USB4C02835)
Correct for Stray Light: No (USB4C02835)
Number of Pixels in Processed Spectrum: 3648
>>>>>Begin Processed Spectral Data<<<<<
177.47	1181.68
177.69	1181.68
177.91	1181.68
178.13	1243.12
178.36	1196.01
178.58	1290.22
178.80	1288.17
179.02	1312.75
179.24	1288.17
179.46	1245.16
179.68	1296.36
179.90	1286.12
180.13	1243.12
180.35	1296.36
180.57	1249.26
180.79	1224.69
181.01	1236.97
181.23	1228.78
181.45	1284.08
181.67	1275.88
181.90	1300.46
182.12	1226.73
182.34	1198.06
182.56	1267.69
182.78	1220.59
183.00	1255.40
183.22	1226.73
183.44	1220.59
183.66	1298.41
183.89	1216.49
184.11	1251.31
184.33	1239.02
184.55	1249.26
184.77	1275.88
184.99	1267.69
185.21	1228.78
185.43	1251.31
185.65	1316.84
185.87	1257.45
186.10	1288.17
186.32	1351.66
186.54	1263.60
186.76	1351.66
186.98	1269.74
187.20	1279.98
187.42	1239.02
187.64	1259.50
187.86	1275.88
188.08	1253.36
188.30	1214.45
188.52	1193.97
188.75	1329.13
188.97	1282.03
189.19	1220.59
189.41	1247.21
189.63	1216.49
189.85	1265.64
190.07	1298.41
190.29	1343.47
190.51	1204.21
190.73	1261.55
190.95	1269.74
191.17	1230.83
191.39	1234.93
191.61	1193.97
191.84	1306.60
192.06	1345.52
192.28	1212.40
192.50	1218.54
192.72	1292.27
192.94	1236.97
193.16	1300.46
193.38	1292.27
193.60	1226.73
193.82	1222.64
194.04	1267.69
194.26	1331.18
194.48	1282.03
194.70	1298.41
194.92	1267.69
195.14	1284.08
195.36	1253.36
195.58	1216.49
195.80	1288.17
196.02	1308.65
196.24	1351.66
196.46	1312.75
196.69	1202.16
196.91	1222.64
197.13	1306.60
197.35	1271.79
197.57	1239.02
197.79	1290.22
198.01	1261.55
198.23	1265.64
198.45	1247.21
198.67	1128.43
198.89	1193.97
199.11	1288.17
199.33	1261.55
199.55	1249.26
199.77	1288.17
199.99	1296.36
200.21	1304.56
200.43	1286.12
200.65	1257.45
200.87	1271.79
201.09	1284.08
201.31	1196.01
201.53	1318.89
201.75	1241.07
201.97	1267.69
202.19	1265.64
202.41	1310.70
202.63	1292.27
202.85	1300.46
203.07	1275.88
203.29	1290.22
203.51	1259.50
203.73	1224.69
203.95	1261.55
204.17	1224.69
204.39	1279.98
204.61	1284.08
204.83	1271.79
205.05	1210.35
205.27	1296.36
205.49	1279.98
205.71	1298.41
205.93	1204.21
206.15	1296.36
206.37	1230.83
206.59	1302.51
206.81	1279.98
207.03	1206.25
207.25	1265.64
207.47	1253.36
207.69	1294.32
207.91	1282.03
208.13	1263.60
208.34	1339.37
208.56	1333.23
208.78	1269.74
209.00	1208.30
209.22	1286.12
209.44	1273.84
209.66	1294.32
209.88	1259.50
210.10	1316.84
210.32	1243.12
210.54	1245.16
210.76	1189.87
210.98	1325.04
211.20	1251.31
211.42	1298.41
211.64	1222.64
211.86	1234.93
212.08	1267.69
212.30	1263.60
212.52	1230.83
212.74	1316.84
212.96	1265.64
213.17	1259.50
213.39	1224.69
213.61	1255.40
213.83	1253.36
214.05	1218.54
214.27	1288.17
214.49	1253.36
214.71	1142.77
214.93	1290.22
215.15	1255.40
215.37	1277.93
215.59	1216.49
215.81	1273.84
216.03	1294.32
216.24	1249.26
216.46	1228.78
216.68	1273.84
216.90	1257.45
217.12	1232.88
217.34	1288.17
217.56	1212.40
217.78	1288.17
218.00	1275.88
218.22	1259.50
218.44	1263.60
218.66	1335.28
218.87	1245.16
219.09	1208.30
219.31	1257.45
219.53	1214.45
219.75	1265.64
219.97	1228.78
220.19	1271.79
220.41	1239.02
220.63	1279.98
220.85	1269.74
221.06	1292.27
221.28	1271.79
221.50	1187.82
221.72	1322.99
221.94	1236.97
222.16	1300.46
222.38	1288.17
222.60	1263.60
222.82	1243.12
223.03	1222.64
223.25	1183.73
223.47	1228.78
223.69	1245.16
223.91	1212.40
224.13	1273.84
224.35	1239.02
224.57	1245.16
224.78	1206.25
225.00	1286.12
225.22	1247.21
225.44	1181.68
225.66	1286.12
225.88	1212.40
226.10	1251.31
226.32	1273.84
226.53	1294.32
226.75	1265.64
226.97	1181.68
227.19	1265.64
227.41	1300.46
227.63	1294.32
227.85	1366.00
228.06	1290.22
228.28	1216.49
228.50	1296.36
228.72	1257.45
228.94	1228.78
229.16	1288.17
229.37	1249.26
229.59	1228.78
229.81	1251.31
230.03	1325.04
230.25	1196.01
230.47	1226.73
230.69	1312.75
230.90	1257.45
231.12	1255.40
231.34	1220.59
231.56	1292.27
231.78	1171.44
232.00	1243.12
232.21	1218.54
232.43	1308.65
232.65	1331.18
232.87	1277.93
233.09	1282.03
233.30	1230.83
233.52	1230.83
233.74	1253.36
233.96	1239.02
234.18	1296.36
234.40	1300.46
234.61	1189.87
234.83	1245.16
235.05	1263.60
235.27	1249.26
235.49	1308.65
235.70	1286.12
235.92	1296.36
236.14	1329.13
236.36	1351.66
236.58	1282.03
236.79	1251.31
237.01	1230.83
237.23	1263.60
237.45	1271.79
237.67	1306.60
237.88	1337.32
238.10	1228.78
238.32	1318.89
238.54	1292.27
238.76	1251.31
238.97	1288.17
239.19	1261.55
239.41	1329.13
239.63	1269.74
239.85	1271.79
240.06	1255.40
240.28	1236.97
240.50	1335.28
240.72	1226.73
240.93	1265.64
241.15	1333.23
241.37	1243.12
241.59	1290.22
241.81	1175.53
242.02	1251.31
242.24	1234.93
242.46	1265.64
242.68	1220.59
242.89	1296.36
243.11	1329.13
243.33	1290.22
243.55	1265.64
243.76	1230.83
243.98	1304.56
244.20	1284.08
244.42	1271.79
244.64	1212.40
244.85	1304.56
245.07	1271.79
245.29	1318.89
245.51	1267.69
245.72	1222.64
245.94	1380.33
246.16	1300.46
246.38	1306.60
246.59	1306.60
246.81	1232.88
247.03	1257.45
247.24	1282.03
247.46	1247.21
247.68	1243.12
247.90	1220.59
248.11	1308.65
248.33	1259.50
248.55	1257.45
248.77	1253.36
248.98	1239.02
249.20	1265.64
249.42	1200.11
249.64	1267.69
249.85	1271.79
250.07	1284.08
250.29	1271.79
250.50	1255.40
250.72	1173.49
250.94	1243.12
251.16	1277.93
251.37	1234.93
251.59	1304.56
251.81	1261.55
252.02	1232.88
252.24	1236.97
252.46	1294.32
252.68	1282.03
252.89	1261.55
253.11	1241.07
253.33	1261.55
253.54	1271.79
253.76	1273.84
253.98	1269.74
254.20	1308.65
254.41	1355.76
254.63	1296.36
254.85	1273.84
255.06	1228.78
255.28	1286.12
255.50	1249.26
255.71	1314.80
255.93	1308.65
256.15	1261.55
256.36	1196.01
256.58	1306.60
256.80	1353.71
257.02	1218.54
257.23	1306.60
257.45	1322.99
257.67	1263.60
257.88	1265.64
258.10	1241.07
258.32	1257.45
258.53	1255.40
258.75	1232.88
258.97	1286.12
259.18	1249.26
259.40	1302.51
259.62	1286.12
259.83	1267.69
260.05	1314.80
260.27	1232.88
260.48	1302.51
260.70	1204.21
260.92	1292.27
261.13	1263.60
261.35	1245.16
261.57	1257.45
261.78	1263.60
262.00	1308.65
262.22	1265.64
262.43	1183.73
262.65	1198.06
262.86	1253.36
263.08	1294.32
263.30	1288.17
263.51	1245.16
263.73	1259.50
263.95	1257.45
264.16	1245.16
264.38	1327.08
264.60	1210.35
264.81	1169.39
265.03	1228.78
265.25	1275.88
265.46	1198.06
265.68	1239.02
265.89	1261.55
266.11	1179.63
266.33	1226.73
266.54	1269.74
266.76	1288.17
266.98	1302.51
267.19	1320.94
267.41	1241.07
267.62	1208.30
267.84	1314.80
268.06	1279.98
268.27	1236.97
268.49	1275.88
268.70	1220.59
268.92	1200.11
269.14	1255.40
269.35	1312.75
269.57	1241.07
269.79	1333.23
270.00	1265.64
270.22	1261.55
270.43	1169.39
270.65	1294.32
270.87	1302.51
271.08	1253.36
271.30	1314.80
271.51	1339.37
271.73	1320.94
271.95	1271.79
272.16	1234.93
272.38	1232.88
272.59	1241.07
272.81	1308.65
273.02	1298.41
273.24	1312.75
273.46	1236.97
273.67	1339.37
273.89	1279.98
274.10	1228.78
274.32	1298.41
274.54	1372.14
274.75	1290.22
274.97	1296.36
275.18	1279.98
275.40	1275.88
275.61	1286.12
275.83	1302.51
276.05	1277.93
276.26	1306.60
276.48	1294.32
276.69	1241.07
276.91	1290.22
277.12	1318.89
277.34	1259.50
277.55	1273.84
277.77	1267.69
277.99	1306.60
278.20	1279.98
278.42	1253.36
278.63	1273.84
278.85	1257.45
279.06	1200.11
279.28	1300.46
279.49	1273.84
279.71	1230.83
279.93	1259.50
280.14	1263.60
280.36	1282.03
280.57	1243.12
280.79	1263.60
281.00	1290.22
281.22	1277.93
281.43	1286.12
281.65	1241.07
281.86	1245.16
282.08	1302.51
282.29	1277.93
282.51	1282.03
282.73	1220.59
282.94	1261.55
283.16	1294.32
283.37	1282.03
283.59	1259.50
283.80	1257.45
284.02	1236.97
284.23	1275.88
284.45	1363.95
284.66	1257.45
284.88	1290.22
285.09	1204.21
285.31	1226.73
285.52	1275.88
285.74	1273.84
285.95	1218.54
286.17	1218.54
286.38	1257.45
286.60	1279.98
286.81	1294.32
287.03	1314.80
287.24	1255.40
287.46	1245.16
287.67	1255.40
287.89	1333.23
288.10	1241.07
288.32	1210.35
288.53	1236.97
288.75	1232.88
288.96	1277.93
289.18	1345.52
289.39	1259.50
289.61	1292.27
289.82	1296.36
290.04	1277.93
290.25	1255.40
290.47	1230.83
290.68	1325.04
290.90	1286.12
291.11	1247.21
291.33	1282.03
291.54	1202.16
291.76	1300.46
291.97	1269.74
292.18	1290.22
292.40	1169.39
292.61	1322.99
292.83	1322.99
293.04	1288.17
293.26	1232.88
293.47	1118.19
293.69	1263.60
293.90	1265.64
294.12	1298.41
294.33	1222.64
294.55	1253.36
294.76	1296.36
294.97	1290.22
295.19	1304.56
295.40	1243.12
295.62	1277.93
295.83	1249.26
296.05	1296.36
296.26	1296.36
296.48	1265.64
296.69	1310.70
296.90	1224.69
297.12	1261.55
297.33	1277.93
297.55	1212.40
297.76	1241.07
297.98	1265.64
298.19	1322.99
298.41	1265.64
298.62	1208.30
298.83	1325.04
299.05	1228.78
299.26	1277.93
299.48	1298.41
299.69	1284.08
299.90	1251.31
300.12	1247.21
300.33	1271.79
300.55	1269.74
300.76	1312.75
300.98	1253.36
301.19	1302.51
301.40	1269.74
301.62	1329.13
301.83	1236.97
302.05	1296.36
302.26	1269.74
302.47	1286.12
302.69	1216.49
302.90	1239.02
303.12	1177.58
303.33	1251.31
303.54	1220.59
303.76	1314.80
303.97	1261.55
304.19	1288.17
304.40	1275.88
304.61	1265.64
304.83	1273.84
305.04	1314.80
305.26	1277.93
305.47	1300.46
305.68	1310.70
305.90	1286.12
306.11	1259.50
306.33	1259.50
306.54	1269.74
306.75	1267.69
306.97	1210.35
307.18	1341.42
307.39	1316.84
307.61	1337.32
307.82	1322.99
308.04	1296.36
308.25	1267.69
308.46	1243.12
308.68	1232.88
308.89	1300.46
309.10	1308.65
309.32	1322.99
309.53	1310.70
309.74	1282.03
309.96	1294.32
310.17	1277.93
310.39	1171.44
310.60	1370.09
310.81	1284.08
311.03	1298.41
311.24	1245.16
311.45	1255.40
311.67	1263.60
311.88	1318.89
312.09	1249.26
312.31	1277.93
312.52	1277.93
312.73	1257.45
312.95	1269.74
313.16	1296.36
313.37	1316.84
313.59	1265.64
313.80	1318.89
314.01	1277.93
314.23	1218.54
314.44	1282.03
314.65	1181.68
314.87	1273.84
315.08	1265.64
315.29	1236.97
315.51	1181.68
315.72	1261.55
315.93	1234.93
316.15	1288.17
316.36	1269.74
316.57	1279.98
316.79	1181.68
317.00	1226.73
317.21	1249.26
317.43	1239.02
317.64	1284.08
317.85	1243.12
318.07	1271.79
318.28	1212.40
318.49	1318.89
318.70	1314.80
318.92	1230.83
319.13	1191.92
319.34	1241.07
319.56	1218.54
319.77	1232.88
319.98	1241.07
320.20	1296.36
320.41	1290.22
320.62	1208.30
320.83	1298.41
321.05	1241.07
321.26	1267.69
321.47	1335.28
321.69	1245.16
321.90	1257.45
322.11	1277.93
322.32	1298.41
322.54	1370.09
322.75	1198.06
322.96	1193.97
323.18	1282.03
323.39	1341.42
323.60	1298.41
323.81	1345.52
324.03	1257.45
324.24	1249.26
324.45	1224.69
324.66	1298.41
324.88	1265.64
325.09	1296.36
325.30	1255.40
325.52	1273.84
325.73	1267.69
325.94	1257.45
326.15	1279.98
326.37	1206.25
326.58	1341.42
326.79	1320.94
327.00	1243.12
327.22	1300.46
327.43	1294.32
327.64	1267.69
327.85	1247.21
328.07	1320.94
328.28	1224.69
328.49	1196.01
328.70	1245.16
328.92	1316.84
329.13	1282.03
329.34	1216.49
329.55	1273.84
329.76	1298.41
329.98	1292.27
330.19	1253.36
330.40	1210.35
330.61	1304.56
330.83	1206.25
331.04	1269.74
331.25	1290.22
331.46	1265.64
331.68	1290.22
331.89	1249.26
332.10	1232.88
332.31	1224.69
332.52	1255.40
332.74	1271.79
332.95	1314.80
333.16	1241.07
333.37	1284.08
333.58	1390.57
333.80	1388.52
334.01	1277.93
334.22	1308.65
334.43	1273.84
334.64	1284.08
334.86	1228.78
335.07	1275.88
335.28	1312.75
335.49	1253.36
335.70	1263.60
335.92	1271.79
336.13	1284.08
336.34	1198.06
336.55	1228.78
336.76	1298.41
336.98	1241.07
337.19	1265.64
337.40	1253.36
337.61	1259.50
337.82	1267.69
338.04	1257.45
338.25	1267.69
338.46	1251.31
338.67	1265.64
338.88	1267.69
339.09	1241.07
339.31	1275.88
339.52	1263.60
339.73	1259.50
339.94	1290.22
340.15	1259.50
340.36	1249.26
340.58	1312.75
340.79	1263.60
341.00	1253.36
341.21	1245.16
341.42	1269.74
341.63	1153.01
341.85	1216.49
342.06	1308.65
342.27	1253.36
342.48	1269.74
342.69	1234.93
342.90	1273.84
343.12	1282.03
343.33	1314.80
343.54	1232.88
343.75	1320.94
343.96	1245.16
344.17	1249.26
344.38	1284.08
344.60	1312.75
344.81	1261.55
345.02	1216.49
345.23	1271.79
345.44	1269.74
345.65	1279.98
345.86	1308.65
346.07	1273.84
346.29	1243.12
346.50	1187.82
346.71	1226.73
346.92	1333.23
347.13	1263.60
347.34	1286.12
347.55	1259.50
347.76	1325.04
347.98	1263.60
348.19	1327.08
348.40	1234.93
348.61	1279.98
348.82	1312.75
349.03	1302.51
349.24	1243.12
349.45	1271.79
349.66	1314.80
349.88	1290.22
350.09	1269.74
350.30	1224.69
350.51	1308.65
350.72	1284.08
350.93	1290.22
351.14	1245.16
351.35	1212.40
351.56	1208.30
351.77	1275.88
351.99	1198.06
352.20	1261.55
352.41	1251.31
352.62	1214.45
352.83	1249.26
353.04	1259.50
353.25	1275.88
353.46	1308.65
353.67	1249.26
353.88	1316.84
354.09	1279.98
354.30	1273.84
354.52	1234.93
354.73	1318.89
354.94	1292.27
355.15	1253.36
355.36	1265.64
355.57	1269.74
355.78	1224.69
355.99	1306.60
356.20	1269.74
356.41	1284.08
356.62	1292.27
356.83	1296.36
357.04	1288.17
357.25	1288.17
357.46	1204.21
357.68	1357.80
357.89	1218.54
358.10	1255.40
358.31	1236.97
358.52	1257.45
358.73	1269.74
358.94	1239.02
359.15	1259.50
359.36	1261.55
359.57	1214.45
359.78	1298.41
359.99	1263.60
360.20	1286.12
360.41	1259.50
360.62	1273.84
360.83	1259.50
361.04	1228.78
361.25	1241.07
361.46	1341.42
361.67	1214.45
361.88	1355.76
362.09	1241.07
362.30	1333.23
362.51	1187.82
362.72	1247.21
362.93	1257.45
363.14	1290.22
363.35	1292.27
363.56	1214.45
363.78	1236.97
363.99	1327.08
364.20	1251.31
364.41	1279.98
364.62	1298.41
364.83	1257.45
365.04	1239.02
365.25	1306.60
365.46	1216.49
365.67	1271.79
365.88	1257.45
366.09	1322.99
366.30	1273.84
366.51	1236.97
366.72	1261.55
366.93	1265.64
367.14	1212.40
367.35	1349.61
367.56	1298.41
367.77	1245.16
367.98	1220.59
368.18	1140.72
368.39	1294.32
368.60	1355.76
368.81	1220.59
369.02	1275.88
369.23	1251.31
369.44	1253.36
369.65	1230.83
369.86	1241.07
370.07	1263.60
370.28	1247.21
370.49	1316.84
370.70	1249.26
370.91	1257.45
371.12	1296.36
371.33	1296.36
371.54	1335.28
371.75	1220.59
371.96	1241.07
372.17	1300.46
372.38	1243.12
372.59	1267.69
372.80	1290.22
373.01	1249.26
373.22	1269.74
373.43	1263.60
373.64	1243.12
373.85	1308.65
374.06	1290.22
374.26	1279.98
374.47	1308.65
374.68	1273.84
374.89	1259.50
375.10	1253.36
375.31	1335.28
375.52	1245.16
375.73	1253.36
375.94	1318.89
376.15	1204.21
376.36	1253.36
376.57	1261.55
376.78	1208.30
376.99	1167.34
377.20	1279.98
377.40	1251.31
377.61	1300.46
377.82	1247.21
378.03	1249.26
378.24	1359.85
378.45	1275.88
378.66	1355.76
378.87	1261.55
379.08	1275.88
379.29	1220.59
379.50	1189.87
379.71	1308.65
379.91	1322.99
380.12	1339.37
380.33	1220.59
380.54	1275.88
380.75	1228.78
380.96	1331.18
381.17	1214.45
381.38	1271.79
381.59	1277.93
381.80	1279.98
382.00	1298.41
382.21	1239.02
382.42	1327.08
382.63	1275.88
382.84	1284.08
383.05	1290.22
383.26	1271.79
383.47	1232.88
383.68	1255.40
383.88	1212.40
384.09	1294.32
384.30	1263.60
384.51	1253.36
384.72	1245.16
384.93	1247.21
385.14	1298.41
385.35	1304.56
385.55	1245.16
385.76	1318.89
385.97	1216.49
386.18	1224.69
386.39	1282.03
386.60	1329.13
386.81	1212.40
387.02	1245.16
387.22	1159.15
387.43	1296.36
387.64	1288.17
387.85	1204.21
388.06	1249.26
388.27	1304.56
388.48	1279.98
388.68	1234.93
388.89	1275.88
389.10	1183.73
389.31	1288.17
389.52	1261.55
389.73	1226.73
389.93	1226.73
390.14	1245.16
390.35	1271.79
390.56	1261.55
390.77	1232.88
390.98	1308.65
391.18	1214.45
391.39	1312.75
391.60	1286.12
391.81	1222.64
392.02	1282.03
392.23	1214.45
392.43	1263.60
392.64	1216.49
392.85	1322.99
393.06	1320.94
393.27	1224.69
393.47	1189.87
393.68	1243.12
393.89	1224.69
394.10	1284.08
394.31	1210.35
394.52	1218.54
394.72	1306.60
394.93	1228.78
395.14	1273.84
395.35	1271.79
395.56	1261.55
395.76	1294.32
395.97	1300.46
396.18	1279.98
396.39	1300.46
396.60	1202.16
396.80	1277.93
397.01	1214.45
397.22	1249.26
397.43	1220.59
397.64	1234.93
397.84	1290.22
398.05	1214.45
398.26	1245.16
398.47	1210.35
398.67	1265.64
398.88	1261.55
399.09	1298.41
399.30	1312.75
399.51	1224.69
399.71	1333.23
399.92	1282.03
400.13	1228.78
400.34	1208.30
400.54	1257.45
400.75	1333.23
400.96	1284.08
401.17	1320.94
401.37	1294.32
401.58	1296.36
401.79	1306.60
402.00	1339.37
402.21	1294.32
402.41	1282.03
402.62	1251.31
402.83	1277.93
403.04	1302.51
403.24	1345.52
403.45	1169.39
403.66	1296.36
403.87	1261.55
404.07	1247.21
404.28	1222.64
404.49	1273.84
404.70	1316.84
404.90	1251.31
405.11	1273.84
405.32	1366.00
405.52	1253.36
405.73	1271.79
405.94	1275.88
406.15	1265.64
406.35	1159.15
406.56	1333.23
406.77	1267.69
406.98	1208.30
407.18	1341.42
407.39	1269.74
407.60	1327.08
407.80	1277.93
408.01	1277.93
408.22	1245.16
408.43	1257.45
408.63	1236.97
408.84	1277.93
409.05	1275.88
409.25	1220.59
409.46	1234.93
409.67	1271.79
409.88	1314.80
410.08	1279.98
410.29	1290.22
410.50	1370.09
410.70	1331.18
410.91	1302.51
411.12	1288.17
411.32	1290.22
411.53	1277.93
411.74	1226.73
411.95	1292.27
412.15	1196.01
412.36	1220.59
412.57	1316.84
412.77	1275.88
412.98	1230.83
413.19	1271.79
413.39	1269.74
413.60	1261.55
413.81	1259.50
414.01	1308.65
414.22	1247.21
414.43	1269.74
414.63	1314.80
414.84	1265.64
415.05	1322.99
415.25	1304.56
415.46	1236.97
415.67	1312.75
415.87	1271.79
416.08	1277.93
416.29	1230.83
416.49	1271.79
416.70	1187.82
416.91	1232.88
417.11	1249.26
417.32	1292.27
417.53	1275.88
417.73	1239.02
417.94	1312.75
418.15	1288.17
418.35	1333.23
418.56	1279.98
418.77	1312.75
418.97	1216.49
419.18	1234.93
419.38	1245.16
419.59	1255.40
419.80	1355.76
420.00	1243.12
420.21	1189.87
420.42	1214.45
420.62	1255.40
420.83	1279.98
421.04	1312.75
421.24	1257.45
421.45	1271.79
421.65	1279.98
421.86	1249.26
422.07	1243.12
422.27	1310.70
422.48	1251.31
422.69	1232.88
422.89	1288.17
423.10	1331.18
423.30	1312.75
423.51	1298.41
423.72	1263.60
423.92	1236.97
424.13	1273.84
424.33	1265.64
424.54	1191.92
424.75	1327.08
424.95	1228.78
425.16	1322.99
425.36	1224.69
425.57	1265.64
425.78	1232.88
425.98	1214.45
426.19	1327.08
426.39	1228.78
426.60	1212.40
426.81	1273.84
427.01	1267.69
427.22	1273.84
427.42	1269.74
427.63	1271.79
427.83	1265.64
428.04	1228.78
428.25	1273.84
428.45	1302.51
428.66	1288.17
428.86	1292.27
429.07	1189.87
429.28	1265.64
429.48	1277.93
429.69	1275.88
429.89	1296.36
430.10	1228.78
430.30	1288.17
430.51	1286.12
430.71	1282.03
430.92	1279.98
431.13	1257.45
431.33	1228.78
431.54	1290.22
431.74	1253.36
431.95	1312.75
432.15	1222.64
432.36	1265.64
432.56	1300.46
432.77	1236.97
432.98	1296.36
433.18	1271.79
433.39	1259.50
433.59	1226.73
433.80	1263.60
434.00	1265.64
434.21	1300.46
434.41	1290.22
434.62	1271.79
434.82	1253.36
435.03	1263.60
435.23	1279.98
435.44	1218.54
435.64	1273.84
435.85	1198.06
436.06	1288.17
436.26	1259.50
436.47	1275.88
436.67	1304.56
436.88	1325.04
437.08	1343.47
437.29	1351.66
437.49	1312.75
437.70	1292.27
437.90	1325.04
438.11	1331.18
438.31	1302.51
438.52	1200.11
438.72	1288.17
438.93	1292.27
439.13	1265.64
439.34	1282.03
439.54	1239.02
439.75	1290.22
439.95	1255.40
440.16	1224.69
440.36	1259.50
440.57	1228.78
440.77	1220.59
440.98	1234.93
441.18	1308.65
441.39	1222.64
441.59	1216.49
441.80	1277.93
442.00	1267.69
442.21	1181.68
442.41	1275.88
442.62	1288.17
442.82	1282.03
443.02	1257.45
443.23	1312.75
443.43	1288.17
443.64	1263.60
443.84	1304.56
444.05	1257.45
444.25	1284.08
444.46	1210.35
444.66	1271.79
444.87	1296.36
445.07	1292.27
445.28	1247.21
445.48	1390.57
445.69	1230.83
445.89	1322.99
446.09	1298.41
446.30	1333.23
446.50	1308.65
446.71	1304.56
446.91	1273.84
447.12	1310.70
447.32	1269.74
447.53	1312.75
447.73	1331.18
447.93	1308.65
448.14	1257.45
448.34	1206.25
448.55	1204.21
448.75	1290.22
448.96	1239.02
449.16	1224.69
449.36	1288.17
449.57	1327.08
449.77	1216.49
449.98	1196.01
450.18	1300.46
450.39	1288.17
450.59	1277.93
450.79	1312.75
451.00	1208.30
451.20	1257.45
451.41	1239.02
451.61	1308.65
451.81	1282.03
452.02	1263.60
452.22	1253.36
452.43	1261.55
452.63	1306.60
