SpectraSuite Data File
++++++++++++++++++++++++++++++++++++
Date: Sun Apr 03 19:55:32 CEST 2016
User: root
Dark Spectrum Present: No
Reference Spectrum Present: No
Number of Sampled Component Spectra: 1
Spectrometers: USB4C02835
Integration Time (usec): 10000 (USB4C02835)
Spectra Averaged: 1 (USB4C02835)
Boxcar Smoothing: 0 (USB4C02835)
Correct for Electrical Dark: No (USB4C02835)
Strobe/Lamp Enabled: No (USB4C02835)
Correct for Detector Non-linearity: No (USB4C02835)
Correct for Stray Light: No (USB4C02835)
Number of Pixels in Processed Spectrum: 3648
>>>>>Begin Processed Spectral Data<<<<<
177.47	1200.11
177.69	1200.11
177.91	1200.11
178.13	1214.45
178.36	1212.40
178.58	1165.29
178.80	1273.84
179.02	1265.64
179.24	1296.36
179.46	1245.16
179.68	1226.73
179.90	1306.60
180.13	1302.51
180.35	1314.80
180.57	1333.23
180.79	1318.89
181.01	1277.93
181.23	1284.08
181.45	1228.78
181.67	1253.36
181.90	1333.23
182.12	1251.31
182.34	1198.06
182.56	1312.75
182.78	1249.26
183.00	1298.41
183.22	1292.27
183.44	1345.52
183.66	1232.88
183.89	1226.73
184.11	1265.64
184.33	1275.88
184.55	1208.30
184.77	1228.78
184.99	1255.40
185.21	1241.07
185.43	1261.55
185.65	1269.74
185.87	1300.46
186.10	1298.41
186.32	1327.08
186.54	1251.31
186.76	1247.21
186.98	1308.65
187.20	1277.93
187.42	1220.59
187.64	1247.21
187.86	1249.26
188.08	1212.40
188.30	1273.84
188.52	1282.03
188.75	1312.75
188.97	1292.27
189.19	1249.26
189.41	1245.16
189.63	1263.60
189.85	1286.12
190.07	1279.98
190.29	1271.79
190.51	1218.54
190.73	1255.40
190.95	1292.27
191.17	1298.41
191.39	1245.16
191.61	1224.69
191.84	1279.98
192.06	1263.60
192.28	1292.27
192.50	1230.83
192.72	1290.22
192.94	1177.58
193.16	1265.64
193.38	1263.60
193.60	1339.37
193.82	1292.27
194.04	1269.74
194.26	1271.79
194.48	1187.82
194.70	1288.17
194.92	1241.07
195.14	1298.41
195.36	1210.35
195.58	1316.84
195.80	1290.22
196.02	1279.98
196.24	1288.17
196.46	1374.19
196.69	1267.69
196.91	1294.32
197.13	1257.45
197.35	1329.13
197.57	1273.84
197.79	1243.12
198.01	1343.47
198.23	1273.84
198.45	1210.35
198.67	1259.50
198.89	1333.23
199.11	1245.16
199.33	1245.16
199.55	1271.79
199.77	1310.70
199.99	1226.73
200.21	1189.87
200.43	1277.93
200.65	1302.51
200.87	1292.27
201.09	1300.46
201.31	1282.03
201.53	1210.35
201.75	1259.50
201.97	1251.31
202.19	1271.79
202.41	1243.12
202.63	1300.46
202.85	1232.88
203.07	1347.56
203.29	1304.56
203.51	1247.21
203.73	1251.31
203.95	1314.80
204.17	1255.40
204.39	1267.69
204.61	1298.41
204.83	1322.99
205.05	1273.84
205.27	1243.12
205.49	1269.74
205.71	1265.64
205.93	1269.74
206.15	1411.05
206.37	1282.03
206.59	1279.98
206.81	1232.88
207.03	1230.83
207.25	1273.84
207.47	1247.21
207.69	1302.51
207.91	1288.17
208.13	1265.64
208.34	1355.76
208.56	1232.88
208.78	1243.12
209.00	1232.88
209.22	1267.69
209.44	1234.93
209.66	1271.79
209.88	1241.07
210.10	1335.28
210.32	1204.21
210.54	1253.36
210.76	1202.16
210.98	1175.53
211.20	1206.25
211.42	1273.84
211.64	1261.55
211.86	1273.84
212.08	1288.17
212.30	1257.45
212.52	1232.88
212.74	1282.03
212.96	1308.65
213.17	1296.36
213.39	1249.26
213.61	1314.80
213.83	1333.23
214.05	1273.84
214.27	1255.40
214.49	1304.56
214.71	1169.39
214.93	1300.46
215.15	1271.79
215.37	1249.26
215.59	1216.49
215.81	1282.03
216.03	1226.73
216.24	1230.83
216.46	1329.13
216.68	1222.64
216.90	1304.56
217.12	1325.04
217.34	1259.50
217.56	1255.40
217.78	1224.69
218.00	1302.51
218.22	1277.93
218.44	1257.45
218.66	1286.12
218.87	1269.74
219.09	1308.65
219.31	1308.65
219.53	1218.54
219.75	1337.32
219.97	1302.51
220.19	1325.04
220.41	1306.60
220.63	1239.02
220.85	1277.93
221.06	1288.17
221.28	1230.83
221.50	1257.45
221.72	1241.07
221.94	1265.64
222.16	1206.25
222.38	1173.49
222.60	1290.22
222.82	1345.52
223.03	1234.93
223.25	1216.49
223.47	1232.88
223.69	1271.79
223.91	1230.83
224.13	1279.98
224.35	1198.06
224.57	1245.16
224.78	1329.13
225.00	1271.79
225.22	1298.41
225.44	1304.56
225.66	1325.04
225.88	1310.70
226.10	1269.74
226.32	1310.70
226.53	1210.35
226.75	1249.26
226.97	1269.74
227.19	1298.41
227.41	1136.62
227.63	1318.89
227.85	1277.93
228.06	1263.60
228.28	1271.79
228.50	1284.08
228.72	1224.69
228.94	1314.80
229.16	1236.97
229.37	1261.55
229.59	1241.07
229.81	1239.02
230.03	1198.06
230.25	1312.75
230.47	1277.93
230.69	1269.74
230.90	1298.41
231.12	1226.73
231.34	1284.08
231.56	1267.69
231.78	1212.40
232.00	1269.74
232.21	1294.32
232.43	1212.40
232.65	1288.17
232.87	1263.60
233.09	1263.60
233.30	1271.79
233.52	1253.36
233.74	1290.22
233.96	1263.60
234.18	1263.60
234.40	1265.64
234.61	1339.37
234.83	1247.21
235.05	1308.65
235.27	1306.60
235.49	1226.73
235.70	1277.93
235.92	1241.07
236.14	1243.12
236.36	1277.93
236.58	1247.21
236.79	1196.01
237.01	1191.92
237.23	1216.49
237.45	1249.26
237.67	1171.44
237.88	1232.88
238.10	1288.17
238.32	1257.45
238.54	1222.64
238.76	1273.84
238.97	1322.99
239.19	1294.32
239.41	1239.02
239.63	1384.43
239.85	1282.03
240.06	1241.07
240.28	1253.36
240.50	1284.08
240.72	1310.70
240.93	1292.27
241.15	1292.27
241.37	1253.36
241.59	1226.73
241.81	1191.92
242.02	1259.50
242.24	1325.04
242.46	1288.17
242.68	1210.35
242.89	1292.27
243.11	1228.78
243.33	1271.79
243.55	1290.22
243.76	1241.07
243.98	1251.31
244.20	1343.47
244.42	1314.80
244.64	1282.03
244.85	1320.94
245.07	1263.60
245.29	1271.79
245.51	1284.08
245.72	1224.69
245.94	1267.69
246.16	1288.17
246.38	1247.21
246.59	1261.55
246.81	1300.46
247.03	1292.27
247.24	1282.03
247.46	1245.16
247.68	1259.50
247.90	1241.07
248.11	1292.27
248.33	1290.22
248.55	1284.08
248.77	1241.07
248.98	1261.55
249.20	1322.99
249.42	1337.32
249.64	1294.32
249.85	1331.18
250.07	1249.26
250.29	1322.99
250.50	1333.23
250.72	1224.69
250.94	1224.69
251.16	1286.12
251.37	1279.98
251.59	1191.92
251.81	1279.98
252.02	1296.36
252.24	1310.70
252.46	1282.03
252.68	1335.28
252.89	1273.84
253.11	1327.08
253.33	1345.52
253.54	1263.60
253.76	1279.98
253.98	1222.64
254.20	1302.51
254.41	1271.79
254.63	1234.93
254.85	1318.89
255.06	1310.70
255.28	1189.87
255.50	1249.26
255.71	1239.02
255.93	1339.37
256.15	1282.03
256.36	1265.64
256.58	1249.26
256.80	1363.95
257.02	1308.65
257.23	1218.54
257.45	1286.12
257.67	1267.69
257.88	1286.12
258.10	1255.40
258.32	1333.23
258.53	1257.45
258.75	1288.17
258.97	1247.21
259.18	1253.36
259.40	1214.45
259.62	1349.61
259.83	1298.41
260.05	1191.92
260.27	1251.31
260.48	1290.22
260.70	1302.51
260.92	1355.76
261.13	1286.12
261.35	1312.75
261.57	1304.56
261.78	1306.60
262.00	1255.40
262.22	1337.32
262.43	1292.27
262.65	1265.64
262.86	1300.46
263.08	1234.93
263.30	1279.98
263.51	1236.97
263.73	1251.31
263.95	1257.45
264.16	1292.27
264.38	1261.55
264.60	1273.84
264.81	1247.21
265.03	1288.17
265.25	1249.26
265.46	1349.61
265.68	1261.55
265.89	1325.04
266.11	1249.26
266.33	1329.13
266.54	1286.12
266.76	1296.36
266.98	1310.70
267.19	1279.98
267.41	1196.01
267.62	1216.49
267.84	1181.68
268.06	1271.79
268.27	1261.55
268.49	1251.31
268.70	1279.98
268.92	1282.03
269.14	1292.27
269.35	1271.79
269.57	1271.79
269.79	1198.06
270.00	1243.12
270.22	1292.27
270.43	1259.50
270.65	1331.18
270.87	1269.74
271.08	1339.37
271.30	1224.69
271.51	1241.07
271.73	1349.61
271.95	1318.89
272.16	1318.89
272.38	1304.56
272.59	1259.50
272.81	1245.16
273.02	1269.74
273.24	1282.03
273.46	1304.56
273.67	1286.12
273.89	1251.31
274.10	1267.69
274.32	1308.65
274.54	1249.26
274.75	1251.31
274.97	1243.12
275.18	1236.97
275.40	1277.93
275.61	1269.74
275.83	1269.74
276.05	1177.58
276.26	1212.40
276.48	1284.08
276.69	1282.03
276.91	1296.36
277.12	1322.99
277.34	1292.27
277.55	1251.31
277.77	1298.41
277.99	1275.88
278.20	1212.40
278.42	1292.27
278.63	1329.13
278.85	1290.22
279.06	1320.94
279.28	1335.28
279.49	1222.64
279.71	1320.94
279.93	1292.27
280.14	1257.45
280.36	1265.64
280.57	1298.41
280.79	1261.55
281.00	1273.84
281.22	1247.21
281.43	1267.69
281.65	1249.26
281.86	1245.16
282.08	1236.97
282.29	1241.07
282.51	1288.17
282.73	1255.40
282.94	1286.12
283.16	1269.74
283.37	1210.35
283.59	1304.56
283.80	1216.49
284.02	1411.05
284.23	1288.17
284.45	1273.84
284.66	1234.93
284.88	1241.07
285.09	1314.80
285.31	1267.69
285.52	1193.97
285.74	1271.79
285.95	1173.49
286.17	1306.60
286.38	1296.36
286.60	1249.26
286.81	1257.45
287.03	1298.41
287.24	1298.41
287.46	1327.08
287.67	1232.88
287.89	1290.22
288.10	1247.21
288.32	1294.32
288.53	1277.93
288.75	1300.46
288.96	1284.08
289.18	1253.36
289.39	1230.83
289.61	1273.84
289.82	1282.03
290.04	1296.36
290.25	1277.93
290.47	1273.84
290.68	1245.16
290.90	1314.80
291.11	1247.21
291.33	1284.08
291.54	1302.51
291.76	1259.50
291.97	1257.45
292.18	1300.46
292.40	1261.55
292.61	1241.07
292.83	1306.60
293.04	1265.64
293.26	1269.74
293.47	1314.80
293.69	1263.60
293.90	1204.21
294.12	1282.03
294.33	1261.55
294.55	1300.46
294.76	1290.22
294.97	1267.69
295.19	1282.03
295.40	1298.41
295.62	1282.03
295.83	1306.60
296.05	1255.40
296.26	1302.51
296.48	1230.83
296.69	1304.56
296.90	1239.02
297.12	1249.26
297.33	1394.67
297.55	1245.16
297.76	1267.69
297.98	1302.51
298.19	1271.79
298.41	1204.21
298.62	1349.61
298.83	1288.17
299.05	1253.36
299.26	1279.98
299.48	1198.06
299.69	1316.84
299.90	1302.51
300.12	1296.36
300.33	1241.07
300.55	1212.40
300.76	1298.41
300.98	1294.32
301.19	1284.08
301.40	1282.03
301.62	1335.28
301.83	1310.70
302.05	1214.45
302.26	1253.36
302.47	1351.66
302.69	1277.93
302.90	1286.12
303.12	1255.40
303.33	1288.17
303.54	1288.17
303.76	1292.27
303.97	1245.16
304.19	1279.98
304.40	1232.88
304.61	1183.73
304.83	1269.74
305.04	1282.03
305.26	1304.56
305.47	1243.12
305.68	1284.08
305.90	1312.75
306.11	1292.27
306.33	1273.84
306.54	1128.43
306.75	1310.70
306.97	1230.83
307.18	1290.22
307.39	1300.46
307.61	1296.36
307.82	1271.79
308.04	1247.21
308.25	1288.17
308.46	1269.74
308.68	1253.36
308.89	1267.69
309.10	1347.56
309.32	1247.21
309.53	1216.49
309.74	1261.55
309.96	1239.02
310.17	1296.36
310.39	1300.46
310.60	1300.46
310.81	1267.69
311.03	1335.28
311.24	1224.69
311.45	1265.64
311.67	1345.52
311.88	1298.41
312.09	1257.45
312.31	1271.79
312.52	1251.31
312.73	1200.11
312.95	1259.50
313.16	1263.60
313.37	1208.30
313.59	1247.21
313.80	1251.31
314.01	1222.64
314.23	1288.17
314.44	1288.17
314.65	1171.44
314.87	1294.32
315.08	1286.12
315.29	1212.40
315.51	1294.32
315.72	1257.45
315.93	1267.69
316.15	1296.36
316.36	1294.32
316.57	1302.51
316.79	1296.36
317.00	1181.68
317.21	1259.50
317.43	1282.03
317.64	1200.11
317.85	1251.31
318.07	1257.45
318.28	1290.22
318.49	1263.60
318.70	1253.36
318.92	1249.26
319.13	1277.93
319.34	1308.65
319.56	1202.16
319.77	1214.45
319.98	1253.36
320.20	1236.97
320.41	1220.59
320.62	1226.73
320.83	1196.01
321.05	1271.79
321.26	1191.92
321.47	1277.93
321.69	1239.02
321.90	1216.49
322.11	1308.65
322.32	1253.36
322.54	1249.26
322.75	1304.56
322.96	1306.60
323.18	1294.32
323.39	1277.93
323.60	1277.93
323.81	1228.78
324.03	1325.04
324.24	1306.60
324.45	1298.41
324.66	1302.51
324.88	1253.36
325.09	1269.74
325.30	1245.16
325.52	1226.73
325.73	1284.08
325.94	1265.64
326.15	1196.01
326.37	1243.12
326.58	1316.84
326.79	1320.94
327.00	1218.54
327.22	1376.24
327.43	1249.26
327.64	1302.51
327.85	1304.56
328.07	1279.98
328.28	1271.79
328.49	1204.21
328.70	1228.78
328.92	1290.22
329.13	1249.26
329.34	1333.23
329.55	1273.84
329.76	1282.03
329.98	1261.55
330.19	1339.37
330.40	1216.49
330.61	1257.45
330.83	1234.93
331.04	1234.93
331.25	1298.41
331.46	1271.79
331.68	1320.94
331.89	1269.74
332.10	1273.84
332.31	1253.36
332.52	1245.16
332.74	1271.79
332.95	1304.56
333.16	1269.74
333.37	1226.73
333.58	1273.84
333.80	1198.06
334.01	1277.93
334.22	1243.12
334.43	1298.41
334.64	1234.93
334.86	1249.26
335.07	1255.40
335.28	1320.94
335.49	1308.65
335.70	1290.22
335.92	1187.82
336.13	1337.32
336.34	1249.26
336.55	1292.27
336.76	1253.36
336.98	1247.21
337.19	1241.07
337.40	1247.21
337.61	1310.70
337.82	1279.98
338.04	1204.21
338.25	1366.00
338.46	1298.41
338.67	1253.36
338.88	1267.69
339.09	1298.41
339.31	1204.21
339.52	1249.26
339.73	1259.50
339.94	1345.52
340.15	1253.36
340.36	1329.13
340.58	1292.27
340.79	1234.93
341.00	1286.12
341.21	1257.45
341.42	1290.22
341.63	1183.73
341.85	1226.73
342.06	1279.98
342.27	1253.36
342.48	1220.59
342.69	1232.88
342.90	1269.74
343.12	1232.88
343.33	1275.88
343.54	1269.74
343.75	1255.40
343.96	1290.22
344.17	1320.94
344.38	1275.88
344.60	1230.83
344.81	1259.50
345.02	1343.47
345.23	1243.12
345.44	1253.36
345.65	1224.69
345.86	1224.69
346.07	1296.36
346.29	1265.64
346.50	1236.97
346.71	1196.01
346.92	1370.09
347.13	1261.55
347.34	1232.88
347.55	1275.88
347.76	1277.93
347.98	1265.64
348.19	1255.40
348.40	1294.32
348.61	1300.46
348.82	1296.36
349.03	1318.89
349.24	1224.69
349.45	1296.36
349.66	1247.21
349.88	1214.45
350.09	1282.03
350.30	1314.80
350.51	1253.36
350.72	1269.74
350.93	1220.59
351.14	1331.18
351.35	1308.65
351.56	1322.99
351.77	1220.59
351.99	1232.88
352.20	1310.70
352.41	1228.78
352.62	1226.73
352.83	1263.60
353.04	1269.74
353.25	1312.75
353.46	1257.45
353.67	1263.60
353.88	1300.46
354.09	1249.26
354.30	1255.40
354.52	1239.02
354.73	1261.55
354.94	1255.40
355.15	1208.30
355.36	1257.45
355.57	1279.98
355.78	1255.40
355.99	1257.45
356.20	1290.22
356.41	1314.80
356.62	1273.84
356.83	1279.98
357.04	1265.64
357.25	1265.64
357.46	1255.40
357.68	1331.18
357.89	1267.69
358.10	1234.93
358.31	1343.47
358.52	1257.45
358.73	1271.79
358.94	1222.64
359.15	1316.84
359.36	1257.45
359.57	1249.26
359.78	1298.41
359.99	1288.17
360.20	1257.45
360.41	1277.93
360.62	1273.84
360.83	1265.64
361.04	1296.36
361.25	1191.92
361.46	1239.02
361.67	1310.70
361.88	1230.83
362.09	1249.26
362.30	1193.97
362.51	1198.06
362.72	1257.45
362.93	1206.25
363.14	1290.22
363.35	1241.07
363.56	1296.36
363.78	1292.27
363.99	1249.26
364.20	1208.30
364.41	1269.74
364.62	1255.40
364.83	1298.41
365.04	1200.11
365.25	1320.94
365.46	1253.36
365.67	1304.56
365.88	1286.12
366.09	1200.11
366.30	1249.26
366.51	1171.44
366.72	1247.21
366.93	1296.36
367.14	1234.93
367.35	1290.22
367.56	1224.69
367.77	1316.84
367.98	1294.32
368.18	1251.31
368.39	1271.79
368.60	1214.45
368.81	1290.22
369.02	1296.36
369.23	1214.45
369.44	1275.88
369.65	1279.98
369.86	1345.52
370.07	1261.55
370.28	1329.13
370.49	1308.65
370.70	1292.27
370.91	1269.74
371.12	1247.21
371.33	1243.12
371.54	1304.56
371.75	1275.88
371.96	1277.93
372.17	1253.36
372.38	1257.45
372.59	1304.56
372.80	1298.41
373.01	1232.88
373.22	1286.12
373.43	1216.49
373.64	1210.35
373.85	1294.32
374.06	1249.26
374.26	1282.03
374.47	1349.61
374.68	1202.16
374.89	1284.08
375.10	1210.35
375.31	1333.23
375.52	1277.93
375.73	1325.04
375.94	1318.89
376.15	1312.75
376.36	1249.26
376.57	1247.21
376.78	1304.56
376.99	1241.07
377.20	1314.80
377.40	1322.99
377.61	1249.26
377.82	1304.56
378.03	1288.17
378.24	1218.54
378.45	1284.08
378.66	1329.13
378.87	1255.40
379.08	1304.56
379.29	1165.29
379.50	1214.45
379.71	1239.02
379.91	1251.31
380.12	1277.93
380.33	1265.64
380.54	1302.51
380.75	1286.12
380.96	1243.12
381.17	1236.97
381.38	1259.50
381.59	1312.75
381.80	1226.73
382.00	1296.36
382.21	1275.88
382.42	1284.08
382.63	1222.64
382.84	1304.56
383.05	1245.16
383.26	1325.04
383.47	1232.88
383.68	1261.55
383.88	1267.69
384.09	1261.55
384.30	1316.84
384.51	1269.74
384.72	1253.36
384.93	1284.08
385.14	1247.21
385.35	1220.59
385.55	1275.88
385.76	1368.04
385.97	1306.60
386.18	1277.93
386.39	1273.84
386.60	1218.54
386.81	1202.16
387.02	1329.13
387.22	1245.16
387.43	1224.69
387.64	1236.97
387.85	1273.84
388.06	1218.54
388.27	1241.07
388.48	1241.07
388.68	1290.22
388.89	1339.37
389.10	1251.31
389.31	1284.08
389.52	1265.64
389.73	1230.83
389.93	1265.64
390.14	1327.08
390.35	1249.26
390.56	1257.45
390.77	1253.36
390.98	1275.88
391.18	1255.40
391.39	1290.22
391.60	1368.04
391.81	1228.78
392.02	1273.84
392.23	1230.83
392.43	1222.64
392.64	1224.69
392.85	1206.25
393.06	1191.92
393.27	1343.47
393.47	1175.53
393.68	1294.32
393.89	1243.12
394.10	1247.21
394.31	1191.92
394.52	1245.16
394.72	1261.55
394.93	1300.46
395.14	1222.64
395.35	1214.45
395.56	1294.32
395.76	1288.17
395.97	1251.31
396.18	1286.12
396.39	1263.60
396.60	1271.79
396.80	1236.97
397.01	1296.36
397.22	1273.84
397.43	1294.32
397.64	1212.40
397.84	1249.26
398.05	1271.79
398.26	1265.64
398.47	1228.78
398.67	1232.88
398.88	1228.78
399.09	1294.32
399.30	1333.23
399.51	1296.36
399.71	1234.93
399.92	1339.37
400.13	1261.55
400.34	1265.64
400.54	1282.03
400.75	1298.41
400.96	1279.98
401.17	1284.08
401.37	1261.55
401.58	1267.69
401.79	1259.50
402.00	1327.08
402.21	1239.02
402.41	1306.60
402.62	1257.45
402.83	1308.65
403.04	1306.60
403.24	1249.26
403.45	1282.03
403.66	1239.02
403.87	1277.93
404.07	1189.87
404.28	1239.02
404.49	1271.79
404.70	1187.82
404.90	1294.32
405.11	1306.60
405.32	1325.04
405.52	1273.84
405.73	1249.26
405.94	1275.88
406.15	1247.21
406.35	1210.35
406.56	1216.49
406.77	1277.93
406.98	1236.97
407.18	1286.12
407.39	1306.60
407.60	1255.40
407.80	1290.22
408.01	1241.07
408.22	1218.54
408.43	1249.26
408.63	1259.50
408.84	1279.98
409.05	1282.03
409.25	1163.25
409.46	1292.27
409.67	1245.16
409.88	1320.94
410.08	1304.56
410.29	1218.54
410.50	1243.12
410.70	1259.50
410.91	1265.64
411.12	1279.98
411.32	1239.02
411.53	1218.54
411.74	1294.32
411.95	1279.98
412.15	1314.80
412.36	1271.79
412.57	1284.08
412.77	1279.98
412.98	1212.40
413.19	1277.93
413.39	1257.45
413.60	1208.30
413.81	1273.84
414.01	1286.12
414.22	1302.51
414.43	1226.73
414.63	1322.99
414.84	1273.84
415.05	1302.51
415.25	1304.56
415.46	1318.89
415.67	1308.65
415.87	1224.69
416.08	1279.98
416.29	1265.64
416.49	1253.36
416.70	1189.87
416.91	1230.83
417.11	1290.22
417.32	1282.03
417.53	1243.12
417.73	1220.59
417.94	1300.46
418.15	1263.60
418.35	1296.36
418.56	1245.16
418.77	1359.85
418.97	1265.64
419.18	1271.79
419.38	1277.93
419.59	1255.40
419.80	1314.80
420.00	1234.93
420.21	1259.50
420.42	1333.23
420.62	1318.89
420.83	1202.16
421.04	1279.98
421.24	1279.98
421.45	1261.55
421.65	1327.08
421.86	1300.46
422.07	1282.03
422.27	1325.04
422.48	1245.16
422.69	1298.41
422.89	1224.69
423.10	1296.36
423.30	1282.03
423.51	1243.12
423.72	1259.50
423.92	1298.41
424.13	1304.56
424.33	1343.47
424.54	1173.49
424.75	1288.17
424.95	1265.64
425.16	1239.02
425.36	1218.54
425.57	1288.17
425.78	1318.89
425.98	1226.73
426.19	1349.61
426.39	1247.21
426.60	1273.84
426.81	1296.36
427.01	1282.03
427.22	1183.73
427.42	1243.12
427.63	1288.17
427.83	1247.21
428.04	1306.60
428.25	1253.36
428.45	1273.84
428.66	1251.31
428.86	1298.41
429.07	1236.97
429.28	1222.64
429.48	1236.97
429.69	1314.80
429.89	1234.93
430.10	1255.40
430.30	1247.21
430.51	1245.16
430.71	1232.88
430.92	1300.46
431.13	1247.21
431.33	1273.84
431.54	1300.46
431.74	1282.03
431.95	1216.49
432.15	1284.08
432.36	1273.84
432.56	1279.98
432.77	1200.11
432.98	1300.46
433.18	1298.41
433.39	1208.30
433.59	1298.41
433.80	1222.64
434.00	1267.69
434.21	1220.59
434.41	1302.51
434.62	1269.74
434.82	1212.40
435.03	1314.80
435.23	1300.46
435.44	1314.80
435.64	1286.12
435.85	1212.40
436.06	1322.99
436.26	1275.88
436.47	1320.94
436.67	1302.51
436.88	1218.54
437.08	1290.22
437.29	1249.26
437.49	1314.80
437.70	1341.42
437.90	1290.22
438.11	1296.36
438.31	1265.64
438.52	1247.21
438.72	1226.73
438.93	1292.27
439.13	1241.07
439.34	1232.88
439.54	1236.97
439.75	1247.21
439.95	1251.31
440.16	1277.93
440.36	1292.27
440.57	1253.36
440.77	1257.45
440.98	1277.93
441.18	1312.75
441.39	1263.60
441.59	1228.78
441.80	1314.80
442.00	1251.31
442.21	1277.93
442.41	1263.60
442.62	1220.59
442.82	1300.46
443.02	1241.07
443.23	1275.88
443.43	1277.93
443.64	1331.18
443.84	1277.93
444.05	1318.89
444.25	1292.27
444.46	1189.87
444.66	1327.08
444.87	1320.94
445.07	1279.98
445.28	1316.84
445.48	1265.64
445.69	1269.74
445.89	1339.37
446.09	1202.16
446.30	1286.12
446.50	1257.45
446.71	1271.79
446.91	1329.13
447.12	1265.64
447.32	1265.64
447.53	1273.84
447.73	1249.26
447.93	1191.92
448.14	1284.08
448.34	1230.83
448.55	1232.88
448.75	1245.16
448.96	1251.31
449.16	1366.00
449.36	1282.03
449.57	1228.78
449.77	1245.16
449.98	1273.84
450.18	1368.04
450.39	1363.95
450.59	1269.74
450.79	1296.36
451.00	1296.36
451.20	1224.69
451.41	1271.79
451.61	1308.65
451.81	1288.17
452.02	1288.17
452.22	1279.98
452.43	1259.50
452.63	1253.36
