SpectraSuite Data File
++++++++++++++++++++++++++++++++++++
Date: Sun Apr 03 19:55:42 CEST 2016
User: root
Dark Spectrum Present: No
Reference Spectrum Present: No
Number of Sampled Component Spectra: 1
Spectrometers: USB4C02835
Integration Time (usec): 10000 (USB4C02835)
Spectra Averaged: 1 (USB4C02835)
Boxcar Smoothing: 0 (USB4C02835)
Correct for Electrical Dark: No (USB4C02835)
Strobe/Lamp Enabled: No (USB4C02835)
Correct for Detector Non-linearity: No (USB4C02835)
Correct for Stray Light: No (USB4C02835)
Number of Pixels in Processed Spectrum: 3648
>>>>>Begin Processed Spectral Data<<<<<
177.47	1320.94
177.69	1320.94
177.91	1320.94
178.13	1294.32
178.36	1279.98
178.58	1253.36
178.80	1316.84
179.02	1253.36
179.24	1208.30
179.46	1243.12
179.68	1277.93
179.90	1224.69
180.13	1294.32
180.35	1204.21
180.57	1265.64
180.79	1304.56
181.01	1222.64
181.23	1292.27
181.45	1277.93
181.67	1275.88
181.90	1296.36
182.12	1245.16
182.34	1282.03
182.56	1331.18
182.78	1282.03
183.00	1290.22
183.22	1236.97
183.44	1196.01
183.66	1286.12
183.89	1234.93
184.11	1210.35
184.33	1282.03
184.55	1251.31
184.77	1300.46
184.99	1282.03
185.21	1230.83
185.43	1277.93
185.65	1249.26
185.87	1271.79
186.10	1193.97
186.32	1232.88
186.54	1308.65
186.76	1269.74
186.98	1241.07
187.20	1198.06
187.42	1175.53
187.64	1263.60
187.86	1279.98
188.08	1320.94
188.30	1298.41
188.52	1228.78
188.75	1368.04
188.97	1253.36
189.19	1222.64
189.41	1259.50
189.63	1273.84
189.85	1241.07
190.07	1302.51
190.29	1275.88
190.51	1294.32
190.73	1218.54
190.95	1271.79
191.17	1265.64
191.39	1294.32
191.61	1269.74
191.84	1249.26
192.06	1277.93
192.28	1247.21
192.50	1335.28
192.72	1312.75
192.94	1279.98
193.16	1306.60
193.38	1261.55
193.60	1269.74
193.82	1320.94
194.04	1247.21
194.26	1214.45
194.48	1306.60
194.70	1251.31
194.92	1265.64
195.14	1282.03
195.36	1271.79
195.58	1255.40
195.80	1247.21
196.02	1363.95
196.24	1187.82
196.46	1232.88
196.69	1308.65
196.91	1253.36
197.13	1228.78
197.35	1239.02
197.57	1298.41
197.79	1302.51
198.01	1224.69
198.23	1265.64
198.45	1236.97
198.67	1314.80
198.89	1279.98
199.11	1247.21
199.33	1298.41
199.55	1304.56
199.77	1337.32
199.99	1302.51
200.21	1175.53
200.43	1296.36
200.65	1310.70
200.87	1273.84
201.09	1236.97
201.31	1265.64
201.53	1216.49
201.75	1277.93
201.97	1222.64
202.19	1316.84
202.41	1247.21
202.63	1259.50
202.85	1265.64
203.07	1267.69
203.29	1308.65
203.51	1267.69
203.73	1322.99
203.95	1161.20
204.17	1329.13
204.39	1310.70
204.61	1322.99
204.83	1273.84
205.05	1306.60
205.27	1298.41
205.49	1304.56
205.71	1255.40
205.93	1193.97
206.15	1279.98
206.37	1200.11
206.59	1230.83
206.81	1275.88
207.03	1230.83
207.25	1224.69
207.47	1310.70
207.69	1247.21
207.91	1236.97
208.13	1310.70
208.34	1249.26
208.56	1298.41
208.78	1234.93
209.00	1298.41
209.22	1255.40
209.44	1253.36
209.66	1271.79
209.88	1269.74
210.10	1210.35
210.32	1290.22
210.54	1310.70
210.76	1282.03
210.98	1220.59
211.20	1310.70
211.42	1310.70
211.64	1267.69
211.86	1216.49
212.08	1261.55
212.30	1214.45
212.52	1282.03
212.74	1239.02
212.96	1261.55
213.17	1222.64
213.39	1239.02
213.61	1345.52
213.83	1329.13
214.05	1253.36
214.27	1257.45
214.49	1177.58
214.71	1232.88
214.93	1249.26
215.15	1239.02
215.37	1331.18
215.59	1275.88
215.81	1282.03
216.03	1193.97
216.24	1306.60
216.46	1232.88
216.68	1267.69
216.90	1286.12
217.12	1275.88
217.34	1308.65
217.56	1275.88
217.78	1247.21
218.00	1167.34
218.22	1249.26
218.44	1298.41
218.66	1286.12
218.87	1263.60
219.09	1292.27
219.31	1253.36
219.53	1232.88
219.75	1298.41
219.97	1249.26
220.19	1263.60
220.41	1294.32
220.63	1263.60
220.85	1339.37
221.06	1249.26
221.28	1261.55
221.50	1372.14
221.72	1241.07
221.94	1232.88
222.16	1236.97
222.38	1261.55
222.60	1310.70
222.82	1253.36
223.03	1351.66
223.25	1322.99
223.47	1380.33
223.69	1294.32
223.91	1275.88
224.13	1247.21
224.35	1269.74
224.57	1214.45
224.78	1208.30
225.00	1271.79
225.22	1232.88
225.44	1282.03
225.66	1284.08
225.88	1306.60
226.10	1273.84
226.32	1245.16
226.53	1198.06
226.75	1255.40
226.97	1267.69
227.19	1343.47
227.41	1286.12
227.63	1320.94
227.85	1257.45
228.06	1349.61
228.28	1320.94
228.50	1214.45
228.72	1351.66
228.94	1208.30
229.16	1294.32
229.37	1259.50
229.59	1296.36
229.81	1337.32
230.03	1269.74
230.25	1265.64
230.47	1251.31
230.69	1322.99
230.90	1253.36
231.12	1269.74
231.34	1296.36
231.56	1325.04
231.78	1255.40
232.00	1296.36
232.21	1269.74
232.43	1320.94
232.65	1286.12
232.87	1198.06
233.09	1302.51
233.30	1255.40
233.52	1275.88
233.74	1222.64
233.96	1277.93
234.18	1282.03
234.40	1251.31
234.61	1351.66
234.83	1214.45
235.05	1306.60
235.27	1273.84
235.49	1306.60
235.70	1251.31
235.92	1249.26
236.14	1267.69
236.36	1269.74
236.58	1202.16
236.79	1298.41
237.01	1269.74
237.23	1300.46
237.45	1366.00
237.67	1234.93
237.88	1296.36
238.10	1318.89
238.32	1273.84
238.54	1339.37
238.76	1298.41
238.97	1191.92
239.19	1210.35
239.41	1216.49
239.63	1300.46
239.85	1363.95
240.06	1263.60
240.28	1253.36
240.50	1249.26
240.72	1212.40
240.93	1292.27
241.15	1249.26
241.37	1259.50
241.59	1298.41
241.81	1320.94
242.02	1257.45
242.24	1310.70
242.46	1277.93
242.68	1257.45
242.89	1265.64
243.11	1294.32
243.33	1265.64
243.55	1220.59
243.76	1302.51
243.98	1304.56
244.20	1187.82
244.42	1222.64
244.64	1232.88
244.85	1335.28
245.07	1357.80
245.29	1302.51
245.51	1333.23
245.72	1216.49
245.94	1312.75
246.16	1253.36
246.38	1279.98
246.59	1259.50
246.81	1286.12
247.03	1302.51
247.24	1222.64
247.46	1306.60
247.68	1259.50
247.90	1282.03
248.11	1282.03
248.33	1218.54
248.55	1316.84
248.77	1265.64
248.98	1216.49
249.20	1202.16
249.42	1290.22
249.64	1284.08
249.85	1273.84
250.07	1218.54
250.29	1228.78
250.50	1271.79
250.72	1257.45
250.94	1224.69
251.16	1261.55
251.37	1292.27
251.59	1304.56
251.81	1329.13
252.02	1298.41
252.24	1261.55
252.46	1263.60
252.68	1302.51
252.89	1214.45
253.11	1290.22
253.33	1224.69
253.54	1263.60
253.76	1253.36
253.98	1239.02
254.20	1251.31
254.41	1288.17
254.63	1304.56
254.85	1351.66
255.06	1253.36
255.28	1329.13
255.50	1249.26
255.71	1310.70
255.93	1230.83
256.15	1302.51
256.36	1306.60
256.58	1282.03
256.80	1308.65
257.02	1290.22
257.23	1304.56
257.45	1329.13
257.67	1288.17
257.88	1253.36
258.10	1222.64
258.32	1269.74
258.53	1253.36
258.75	1284.08
258.97	1228.78
259.18	1253.36
259.40	1300.46
259.62	1239.02
259.83	1277.93
260.05	1308.65
260.27	1294.32
260.48	1302.51
260.70	1191.92
260.92	1249.26
261.13	1265.64
261.35	1277.93
261.57	1263.60
261.78	1239.02
262.00	1249.26
262.22	1302.51
262.43	1267.69
262.65	1259.50
262.86	1267.69
263.08	1314.80
263.30	1232.88
263.51	1304.56
263.73	1298.41
263.95	1251.31
264.16	1351.66
264.38	1200.11
264.60	1327.08
264.81	1210.35
265.03	1306.60
265.25	1218.54
265.46	1259.50
265.68	1232.88
265.89	1292.27
266.11	1271.79
266.33	1306.60
266.54	1282.03
266.76	1232.88
266.98	1300.46
267.19	1232.88
267.41	1279.98
267.62	1210.35
267.84	1251.31
268.06	1259.50
268.27	1241.07
268.49	1259.50
268.70	1261.55
268.92	1220.59
269.14	1173.49
269.35	1249.26
269.57	1263.60
269.79	1222.64
270.00	1294.32
270.22	1224.69
270.43	1261.55
270.65	1282.03
270.87	1273.84
271.08	1255.40
271.30	1275.88
271.51	1257.45
271.73	1253.36
271.95	1255.40
272.16	1327.08
272.38	1216.49
272.59	1271.79
272.81	1245.16
273.02	1222.64
273.24	1277.93
273.46	1214.45
273.67	1349.61
273.89	1214.45
274.10	1304.56
274.32	1249.26
274.54	1284.08
274.75	1261.55
274.97	1224.69
275.18	1218.54
275.40	1257.45
275.61	1265.64
275.83	1294.32
276.05	1306.60
276.26	1282.03
276.48	1298.41
276.69	1243.12
276.91	1306.60
277.12	1310.70
277.34	1241.07
277.55	1265.64
277.77	1284.08
277.99	1236.97
278.20	1337.32
278.42	1228.78
278.63	1179.63
278.85	1304.56
279.06	1296.36
279.28	1298.41
279.49	1273.84
279.71	1247.21
279.93	1251.31
280.14	1308.65
280.36	1296.36
280.57	1267.69
280.79	1292.27
281.00	1294.32
281.22	1210.35
281.43	1171.44
281.65	1259.50
281.86	1226.73
282.08	1282.03
282.29	1261.55
282.51	1255.40
282.73	1241.07
282.94	1259.50
283.16	1282.03
283.37	1351.66
283.59	1247.21
283.80	1257.45
284.02	1273.84
284.23	1275.88
284.45	1247.21
284.66	1314.80
284.88	1245.16
285.09	1363.95
285.31	1241.07
285.52	1253.36
285.74	1239.02
285.95	1267.69
286.17	1318.89
286.38	1255.40
286.60	1277.93
286.81	1232.88
287.03	1320.94
287.24	1255.40
287.46	1236.97
287.67	1306.60
287.89	1220.59
288.10	1320.94
288.32	1261.55
288.53	1247.21
288.75	1163.25
288.96	1312.75
289.18	1261.55
289.39	1222.64
289.61	1337.32
289.82	1363.95
290.04	1312.75
290.25	1284.08
290.47	1300.46
290.68	1245.16
290.90	1275.88
291.11	1300.46
291.33	1261.55
291.54	1282.03
291.76	1290.22
291.97	1208.30
292.18	1239.02
292.40	1249.26
292.61	1228.78
292.83	1245.16
293.04	1249.26
293.26	1191.92
293.47	1210.35
293.69	1290.22
293.90	1273.84
294.12	1257.45
294.33	1224.69
294.55	1318.89
294.76	1279.98
294.97	1296.36
295.19	1255.40
295.40	1198.06
295.62	1322.99
295.83	1322.99
296.05	1261.55
296.26	1253.36
296.48	1357.80
296.69	1198.06
296.90	1234.93
297.12	1245.16
297.33	1220.59
297.55	1306.60
297.76	1222.64
297.98	1290.22
298.19	1253.36
298.41	1249.26
298.62	1249.26
298.83	1310.70
299.05	1259.50
299.26	1236.97
299.48	1318.89
299.69	1239.02
299.90	1196.01
300.12	1261.55
300.33	1236.97
300.55	1288.17
300.76	1288.17
300.98	1247.21
301.19	1300.46
301.40	1292.27
301.62	1249.26
301.83	1224.69
302.05	1247.21
302.26	1265.64
302.47	1245.16
302.69	1273.84
302.90	1243.12
303.12	1275.88
303.33	1284.08
303.54	1236.97
303.76	1294.32
303.97	1282.03
304.19	1288.17
304.40	1224.69
304.61	1251.31
304.83	1257.45
305.04	1337.32
305.26	1253.36
305.47	1198.06
305.68	1271.79
305.90	1259.50
306.11	1304.56
306.33	1236.97
306.54	1241.07
306.75	1232.88
306.97	1292.27
307.18	1288.17
307.39	1296.36
307.61	1288.17
307.82	1273.84
308.04	1263.60
308.25	1277.93
308.46	1271.79
308.68	1286.12
308.89	1193.97
309.10	1306.60
309.32	1218.54
309.53	1269.74
309.74	1269.74
309.96	1284.08
310.17	1247.21
310.39	1273.84
310.60	1306.60
310.81	1271.79
311.03	1230.83
311.24	1304.56
311.45	1228.78
311.67	1288.17
311.88	1267.69
312.09	1245.16
312.31	1306.60
312.52	1220.59
312.73	1269.74
312.95	1251.31
313.16	1290.22
313.37	1286.12
313.59	1366.00
313.80	1310.70
314.01	1271.79
314.23	1218.54
314.44	1251.31
314.65	1249.26
314.87	1339.37
315.08	1261.55
315.29	1216.49
315.51	1302.51
315.72	1247.21
315.93	1306.60
316.15	1302.51
316.36	1316.84
316.57	1259.50
316.79	1181.68
317.00	1273.84
317.21	1249.26
317.43	1255.40
317.64	1290.22
317.85	1259.50
318.07	1247.21
318.28	1265.64
318.49	1302.51
318.70	1220.59
318.92	1290.22
319.13	1214.45
319.34	1290.22
319.56	1263.60
319.77	1282.03
319.98	1298.41
320.20	1327.08
320.41	1253.36
320.62	1265.64
320.83	1247.21
321.05	1394.67
321.26	1232.88
321.47	1255.40
321.69	1263.60
321.90	1200.11
322.11	1255.40
322.32	1202.16
322.54	1259.50
322.75	1269.74
322.96	1257.45
323.18	1210.35
323.39	1318.89
323.60	1220.59
323.81	1253.36
324.03	1277.93
324.24	1220.59
324.45	1255.40
324.66	1267.69
324.88	1294.32
325.09	1241.07
325.30	1153.01
325.52	1325.04
325.73	1236.97
325.94	1306.60
326.15	1269.74
326.37	1286.12
326.58	1255.40
326.79	1239.02
327.00	1234.93
327.22	1271.79
327.43	1292.27
327.64	1239.02
327.85	1292.27
328.07	1253.36
328.28	1318.89
328.49	1331.18
328.70	1308.65
328.92	1271.79
329.13	1204.21
329.34	1239.02
329.55	1206.25
329.76	1257.45
329.98	1247.21
330.19	1216.49
330.40	1251.31
330.61	1282.03
330.83	1286.12
331.04	1236.97
331.25	1228.78
331.46	1288.17
331.68	1249.26
331.89	1245.16
332.10	1277.93
332.31	1245.16
332.52	1310.70
332.74	1294.32
332.95	1282.03
333.16	1306.60
333.37	1320.94
333.58	1230.83
333.80	1239.02
334.01	1318.89
334.22	1279.98
334.43	1339.37
334.64	1251.31
334.86	1183.73
335.07	1312.75
335.28	1273.84
335.49	1245.16
335.70	1279.98
335.92	1290.22
336.13	1259.50
336.34	1282.03
336.55	1308.65
336.76	1220.59
336.98	1273.84
337.19	1261.55
337.40	1320.94
337.61	1241.07
337.82	1239.02
338.04	1265.64
338.25	1327.08
338.46	1302.51
338.67	1230.83
338.88	1269.74
339.09	1277.93
339.31	1310.70
339.52	1265.64
339.73	1392.62
339.94	1241.07
340.15	1234.93
340.36	1216.49
340.58	1185.77
340.79	1200.11
341.00	1222.64
341.21	1271.79
341.42	1265.64
341.63	1314.80
341.85	1212.40
342.06	1322.99
342.27	1286.12
342.48	1253.36
342.69	1204.21
342.90	1279.98
343.12	1271.79
343.33	1259.50
343.54	1284.08
343.75	1273.84
343.96	1243.12
344.17	1298.41
344.38	1349.61
344.60	1247.21
344.81	1259.50
345.02	1269.74
345.23	1318.89
345.44	1191.92
345.65	1236.97
345.86	1202.16
346.07	1318.89
346.29	1347.56
346.50	1296.36
346.71	1241.07
346.92	1253.36
347.13	1339.37
347.34	1267.69
347.55	1275.88
347.76	1214.45
347.98	1310.70
348.19	1243.12
348.40	1302.51
348.61	1296.36
348.82	1261.55
349.03	1232.88
349.24	1222.64
349.45	1282.03
349.66	1269.74
349.88	1288.17
350.09	1269.74
350.30	1343.47
350.51	1296.36
350.72	1282.03
350.93	1249.26
351.14	1388.52
351.35	1325.04
351.56	1253.36
351.77	1308.65
351.99	1269.74
352.20	1290.22
352.41	1204.21
352.62	1286.12
352.83	1318.89
353.04	1189.87
353.25	1308.65
353.46	1228.78
353.67	1273.84
353.88	1200.11
354.09	1329.13
354.30	1220.59
354.52	1241.07
354.73	1294.32
354.94	1257.45
355.15	1284.08
355.36	1265.64
355.57	1236.97
355.78	1241.07
355.99	1220.59
356.20	1218.54
356.41	1314.80
356.62	1241.07
356.83	1208.30
357.04	1282.03
357.25	1210.35
357.46	1257.45
357.68	1310.70
357.89	1310.70
358.10	1202.16
358.31	1290.22
358.52	1325.04
358.73	1253.36
358.94	1279.98
359.15	1308.65
359.36	1241.07
359.57	1236.97
359.78	1294.32
359.99	1249.26
360.20	1253.36
360.41	1247.21
360.62	1236.97
360.83	1265.64
361.04	1265.64
361.25	1259.50
361.46	1288.17
361.67	1314.80
361.88	1232.88
362.09	1245.16
362.30	1388.52
362.51	1277.93
362.72	1312.75
362.93	1220.59
363.14	1255.40
363.35	1265.64
363.56	1310.70
363.78	1298.41
363.99	1208.30
364.20	1239.02
364.41	1380.33
364.62	1306.60
364.83	1325.04
365.04	1298.41
365.25	1271.79
365.46	1273.84
365.67	1243.12
365.88	1277.93
366.09	1222.64
366.30	1282.03
366.51	1267.69
366.72	1320.94
366.93	1298.41
367.14	1263.60
367.35	1288.17
367.56	1306.60
367.77	1230.83
367.98	1216.49
368.18	1226.73
368.39	1263.60
368.60	1210.35
368.81	1271.79
369.02	1263.60
369.23	1259.50
369.44	1241.07
369.65	1253.36
369.86	1265.64
370.07	1245.16
370.28	1314.80
370.49	1243.12
370.70	1253.36
370.91	1236.97
371.12	1208.30
371.33	1277.93
371.54	1243.12
371.75	1302.51
371.96	1267.69
372.17	1277.93
372.38	1275.88
372.59	1261.55
372.80	1265.64
373.01	1302.51
373.22	1300.46
373.43	1308.65
373.64	1210.35
373.85	1251.31
374.06	1304.56
374.26	1269.74
374.47	1279.98
374.68	1304.56
374.89	1288.17
375.10	1249.26
375.31	1304.56
375.52	1212.40
375.73	1245.16
375.94	1193.97
376.15	1345.52
376.36	1208.30
376.57	1296.36
376.78	1275.88
376.99	1298.41
377.20	1222.64
377.40	1366.00
377.61	1304.56
377.82	1267.69
378.03	1241.07
378.24	1298.41
378.45	1351.66
378.66	1253.36
378.87	1253.36
379.08	1214.45
379.29	1294.32
379.50	1243.12
379.71	1294.32
379.91	1208.30
380.12	1218.54
380.33	1230.83
380.54	1275.88
380.75	1165.29
380.96	1230.83
381.17	1302.51
381.38	1208.30
381.59	1304.56
381.80	1239.02
382.00	1202.16
382.21	1230.83
382.42	1296.36
382.63	1259.50
382.84	1224.69
383.05	1263.60
383.26	1400.81
383.47	1279.98
383.68	1273.84
383.88	1249.26
384.09	1314.80
384.30	1296.36
384.51	1296.36
384.72	1310.70
384.93	1271.79
385.14	1333.23
385.35	1220.59
385.55	1210.35
385.76	1273.84
385.97	1247.21
386.18	1253.36
386.39	1185.77
386.60	1216.49
386.81	1269.74
387.02	1253.36
387.22	1232.88
387.43	1343.47
387.64	1259.50
387.85	1257.45
388.06	1224.69
388.27	1273.84
388.48	1275.88
388.68	1273.84
388.89	1257.45
389.10	1290.22
389.31	1288.17
389.52	1208.30
389.73	1212.40
389.93	1343.47
390.14	1245.16
390.35	1265.64
390.56	1226.73
390.77	1286.12
390.98	1259.50
391.18	1206.25
391.39	1165.29
391.60	1263.60
391.81	1273.84
392.02	1275.88
392.23	1263.60
392.43	1292.27
392.64	1304.56
392.85	1282.03
393.06	1282.03
393.27	1271.79
393.47	1261.55
393.68	1267.69
393.89	1220.59
394.10	1275.88
394.31	1279.98
394.52	1296.36
394.72	1306.60
394.93	1255.40
395.14	1304.56
395.35	1265.64
395.56	1204.21
395.76	1337.32
395.97	1273.84
396.18	1298.41
396.39	1345.52
396.60	1306.60
396.80	1316.84
397.01	1191.92
397.22	1288.17
397.43	1269.74
397.64	1191.92
397.84	1239.02
398.05	1261.55
398.26	1273.84
398.47	1335.28
398.67	1292.27
398.88	1277.93
399.09	1267.69
399.30	1241.07
399.51	1220.59
399.71	1263.60
399.92	1294.32
400.13	1329.13
400.34	1251.31
400.54	1339.37
400.75	1263.60
400.96	1224.69
401.17	1322.99
401.37	1247.21
401.58	1286.12
401.79	1232.88
402.00	1308.65
402.21	1200.11
402.41	1261.55
402.62	1230.83
402.83	1241.07
403.04	1265.64
403.24	1257.45
403.45	1284.08
403.66	1343.47
403.87	1224.69
404.07	1273.84
404.28	1200.11
404.49	1337.32
404.70	1255.40
404.90	1265.64
405.11	1271.79
405.32	1292.27
405.52	1298.41
405.73	1226.73
405.94	1251.31
406.15	1257.45
406.35	1198.06
406.56	1277.93
406.77	1279.98
406.98	1245.16
407.18	1251.31
407.39	1263.60
407.60	1327.08
407.80	1345.52
408.01	1220.59
408.22	1292.27
408.43	1277.93
408.63	1279.98
408.84	1320.94
409.05	1279.98
409.25	1249.26
409.46	1263.60
409.67	1304.56
409.88	1247.21
410.08	1292.27
410.29	1273.84
410.50	1212.40
410.70	1286.12
410.91	1351.66
411.12	1214.45
411.32	1222.64
411.53	1290.22
411.74	1220.59
411.95	1298.41
412.15	1257.45
412.36	1306.60
412.57	1318.89
412.77	1335.28
412.98	1236.97
413.19	1232.88
413.39	1216.49
413.60	1282.03
413.81	1228.78
414.01	1318.89
414.22	1269.74
414.43	1220.59
414.63	1265.64
414.84	1167.34
415.05	1243.12
415.25	1196.01
415.46	1277.93
415.67	1314.80
415.87	1339.37
416.08	1339.37
416.29	1236.97
416.49	1320.94
416.70	1290.22
416.91	1296.36
417.11	1290.22
417.32	1271.79
417.53	1304.56
417.73	1300.46
417.94	1228.78
418.15	1294.32
418.35	1277.93
418.56	1247.21
418.77	1265.64
418.97	1265.64
419.18	1288.17
419.38	1241.07
419.59	1177.58
419.80	1251.31
420.00	1251.31
420.21	1269.74
420.42	1234.93
420.62	1286.12
420.83	1175.53
421.04	1267.69
421.24	1265.64
421.45	1241.07
421.65	1335.28
421.86	1261.55
422.07	1273.84
422.27	1257.45
422.48	1232.88
422.69	1271.79
422.89	1204.21
423.10	1306.60
423.30	1257.45
423.51	1322.99
423.72	1255.40
423.92	1243.12
424.13	1259.50
424.33	1255.40
424.54	1275.88
424.75	1294.32
424.95	1282.03
425.16	1204.21
425.36	1320.94
425.57	1298.41
425.78	1300.46
425.98	1327.08
426.19	1327.08
426.39	1273.84
426.60	1284.08
426.81	1245.16
427.01	1249.26
427.22	1253.36
427.42	1261.55
427.63	1265.64
427.83	1241.07
428.04	1247.21
428.25	1286.12
428.45	1247.21
428.66	1228.78
428.86	1290.22
429.07	1245.16
429.28	1273.84
429.48	1306.60
429.69	1316.84
429.89	1282.03
430.10	1310.70
430.30	1230.83
430.51	1296.36
430.71	1300.46
430.92	1320.94
431.13	1312.75
431.33	1284.08
431.54	1208.30
431.74	1296.36
431.95	1288.17
432.15	1306.60
432.36	1290.22
432.56	1302.51
432.77	1282.03
432.98	1331.18
433.18	1265.64
433.39	1333.23
433.59	1251.31
433.80	1232.88
434.00	1351.66
434.21	1230.83
434.41	1265.64
434.62	1337.32
434.82	1269.74
435.03	1241.07
435.23	1294.32
435.44	1208.30
435.64	1239.02
435.85	1296.36
436.06	1257.45
436.26	1294.32
436.47	1232.88
436.67	1261.55
436.88	1267.69
437.08	1300.46
437.29	1265.64
437.49	1327.08
437.70	1294.32
437.90	1318.89
438.11	1279.98
438.31	1265.64
438.52	1273.84
438.72	1234.93
438.93	1243.12
439.13	1218.54
439.34	1318.89
439.54	1300.46
439.75	1249.26
439.95	1273.84
440.16	1288.17
440.36	1267.69
440.57	1271.79
440.77	1206.25
440.98	1214.45
441.18	1263.60
441.39	1257.45
441.59	1275.88
441.80	1193.97
442.00	1273.84
442.21	1196.01
442.41	1300.46
442.62	1214.45
442.82	1265.64
443.02	1267.69
443.23	1282.03
443.43	1290.22
443.64	1273.84
443.84	1310.70
444.05	1234.93
444.25	1196.01
444.46	1214.45
444.66	1239.02
444.87	1325.04
445.07	1222.64
445.28	1265.64
445.48	1339.37
445.69	1296.36
445.89	1318.89
446.09	1279.98
446.30	1236.97
446.50	1245.16
446.71	1286.12
446.91	1308.65
447.12	1277.93
447.32	1275.88
447.53	1249.26
447.73	1306.60
447.93	1183.73
448.14	1226.73
448.34	1343.47
448.55	1279.98
448.75	1261.55
448.96	1322.99
449.16	1308.65
449.36	1275.88
449.57	1228.78
449.77	1318.89
449.98	1314.80
450.18	1200.11
450.39	1236.97
450.59	1269.74
450.79	1282.03
451.00	1298.41
451.20	1279.98
451.41	1333.23
451.61	1284.08
451.81	1263.60
452.02	1304.56
452.22	1277.93
452.43	1257.45
452.63	1304.56
