SpectraSuite Data File
++++++++++++++++++++++++++++++++++++
Date: Sun Apr 03 19:55:25 CEST 2016
User: root
Dark Spectrum Present: No
Reference Spectrum Present: No
Number of Sampled Component Spectra: 1
Spectrometers: USB4C02835
Integration Time (usec): 10000 (USB4C02835)
Spectra Averaged: 1 (USB4C02835)
Boxcar Smoothing: 0 (USB4C02835)
Correct for Electrical Dark: No (USB4C02835)
Strobe/Lamp Enabled: No (USB4C02835)
Correct for Detector Non-linearity: No (USB4C02835)
Correct for Stray Light: No (USB4C02835)
Number of Pixels in Processed Spectrum: 3648
>>>>>Begin Processed Spectral Data<<<<<
177.47	1290.22
177.69	1290.22
177.91	1290.22
178.13	1245.16
178.36	1279.98
178.58	1277.93
178.80	1308.65
179.02	1267.69
179.24	1255.40
179.46	1243.12
179.68	1306.60
179.90	1271.79
180.13	1273.84
180.35	1226.73
180.57	1251.31
180.79	1316.84
181.01	1220.59
181.23	1286.12
181.45	1241.07
181.67	1329.13
181.90	1298.41
182.12	1300.46
182.34	1265.64
182.56	1277.93
182.78	1263.60
183.00	1343.47
183.22	1245.16
183.44	1327.08
183.66	1257.45
183.89	1228.78
184.11	1249.26
184.33	1222.64
184.55	1241.07
184.77	1236.97
184.99	1370.09
185.21	1312.75
185.43	1320.94
185.65	1214.45
185.87	1214.45
186.10	1257.45
186.32	1288.17
186.54	1296.36
186.76	1226.73
186.98	1249.26
187.20	1282.03
187.42	1300.46
187.64	1247.21
187.86	1308.65
188.08	1257.45
188.30	1279.98
188.52	1279.98
188.75	1275.88
188.97	1247.21
189.19	1232.88
189.41	1304.56
189.63	1200.11
189.85	1269.74
190.07	1236.97
190.29	1253.36
190.51	1314.80
190.73	1288.17
190.95	1279.98
191.17	1226.73
191.39	1257.45
191.61	1249.26
191.84	1263.60
192.06	1327.08
192.28	1216.49
192.50	1325.04
192.72	1232.88
192.94	1294.32
193.16	1339.37
193.38	1331.18
193.60	1247.21
193.82	1288.17
194.04	1263.60
194.26	1288.17
194.48	1288.17
194.70	1286.12
194.92	1255.40
195.14	1298.41
195.36	1277.93
195.58	1339.37
195.80	1222.64
196.02	1198.06
196.24	1257.45
196.46	1320.94
196.69	1236.97
196.91	1255.40
197.13	1243.12
197.35	1306.60
197.57	1331.18
197.79	1290.22
198.01	1286.12
198.23	1273.84
198.45	1269.74
198.67	1275.88
198.89	1228.78
199.11	1269.74
199.33	1279.98
199.55	1222.64
199.77	1263.60
199.99	1249.26
200.21	1210.35
200.43	1239.02
200.65	1224.69
200.87	1232.88
201.09	1290.22
201.31	1247.21
201.53	1247.21
201.75	1298.41
201.97	1245.16
202.19	1329.13
202.41	1253.36
202.63	1304.56
202.85	1269.74
203.07	1208.30
203.29	1300.46
203.51	1261.55
203.73	1257.45
203.95	1292.27
204.17	1300.46
204.39	1306.60
204.61	1296.36
204.83	1214.45
205.05	1314.80
205.27	1247.21
205.49	1275.88
205.71	1271.79
205.93	1294.32
206.15	1273.84
206.37	1257.45
206.59	1308.65
206.81	1191.92
207.03	1261.55
207.25	1212.40
207.47	1204.21
207.69	1290.22
207.91	1239.02
208.13	1277.93
208.34	1245.16
208.56	1327.08
208.78	1298.41
209.00	1300.46
209.22	1312.75
209.44	1245.16
209.66	1300.46
209.88	1275.88
210.10	1251.31
210.32	1284.08
210.54	1271.79
210.76	1234.93
210.98	1302.51
211.20	1255.40
211.42	1273.84
211.64	1296.36
211.86	1204.21
212.08	1247.21
212.30	1259.50
212.52	1255.40
212.74	1257.45
212.96	1306.60
213.17	1234.93
213.39	1255.40
213.61	1263.60
213.83	1228.78
214.05	1282.03
214.27	1308.65
214.49	1279.98
214.71	1239.02
214.93	1322.99
215.15	1300.46
215.37	1181.68
215.59	1279.98
215.81	1247.21
216.03	1298.41
216.24	1241.07
216.46	1253.36
216.68	1308.65
216.90	1243.12
217.12	1255.40
217.34	1271.79
217.56	1282.03
217.78	1239.02
218.00	1214.45
218.22	1390.57
218.44	1271.79
218.66	1275.88
218.87	1335.28
219.09	1288.17
219.31	1325.04
219.53	1275.88
219.75	1284.08
219.97	1253.36
220.19	1298.41
220.41	1304.56
220.63	1236.97
220.85	1277.93
221.06	1308.65
221.28	1167.34
221.50	1304.56
221.72	1286.12
221.94	1296.36
222.16	1226.73
222.38	1296.36
222.60	1327.08
222.82	1224.69
223.03	1331.18
223.25	1284.08
223.47	1284.08
223.69	1255.40
223.91	1228.78
224.13	1222.64
224.35	1226.73
224.57	1257.45
224.78	1271.79
225.00	1302.51
225.22	1298.41
225.44	1339.37
225.66	1259.50
225.88	1327.08
226.10	1277.93
226.32	1273.84
226.53	1220.59
226.75	1241.07
226.97	1275.88
227.19	1216.49
227.41	1220.59
227.63	1218.54
227.85	1243.12
228.06	1298.41
228.28	1269.74
228.50	1286.12
228.72	1269.74
228.94	1257.45
229.16	1300.46
229.37	1239.02
229.59	1247.21
229.81	1261.55
230.03	1284.08
230.25	1314.80
230.47	1282.03
230.69	1304.56
230.90	1349.61
231.12	1302.51
231.34	1282.03
231.56	1234.93
231.78	1232.88
232.00	1312.75
232.21	1306.60
232.43	1228.78
232.65	1298.41
232.87	1247.21
233.09	1271.79
233.30	1304.56
233.52	1296.36
233.74	1271.79
233.96	1269.74
234.18	1327.08
234.40	1277.93
234.61	1325.04
234.83	1247.21
235.05	1245.16
235.27	1273.84
235.49	1234.93
235.70	1200.11
235.92	1259.50
236.14	1337.32
236.36	1269.74
236.58	1241.07
236.79	1300.46
237.01	1273.84
237.23	1290.22
237.45	1226.73
237.67	1271.79
237.88	1322.99
238.10	1337.32
238.32	1259.50
238.54	1273.84
238.76	1226.73
238.97	1230.83
239.19	1275.88
239.41	1308.65
239.63	1273.84
239.85	1241.07
240.06	1253.36
240.28	1232.88
240.50	1208.30
240.72	1253.36
240.93	1261.55
241.15	1247.21
241.37	1236.97
241.59	1232.88
241.81	1228.78
242.02	1279.98
242.24	1220.59
242.46	1271.79
242.68	1210.35
242.89	1247.21
243.11	1222.64
243.33	1304.56
243.55	1247.21
243.76	1245.16
243.98	1269.74
244.20	1296.36
244.42	1212.40
244.64	1208.30
244.85	1292.27
245.07	1239.02
245.29	1224.69
245.51	1306.60
245.72	1263.60
245.94	1316.84
246.16	1239.02
246.38	1329.13
246.59	1273.84
246.81	1273.84
247.03	1284.08
247.24	1308.65
247.46	1267.69
247.68	1288.17
247.90	1232.88
248.11	1232.88
248.33	1214.45
248.55	1263.60
248.77	1253.36
248.98	1314.80
249.20	1253.36
249.42	1232.88
249.64	1218.54
249.85	1271.79
250.07	1277.93
250.29	1286.12
250.50	1322.99
250.72	1230.83
250.94	1206.25
251.16	1271.79
251.37	1253.36
251.59	1288.17
251.81	1208.30
252.02	1286.12
252.24	1257.45
252.46	1239.02
252.68	1302.51
252.89	1279.98
253.11	1269.74
253.33	1220.59
253.54	1241.07
253.76	1284.08
253.98	1200.11
254.20	1275.88
254.41	1298.41
254.63	1247.21
254.85	1234.93
255.06	1284.08
255.28	1251.31
255.50	1275.88
255.71	1259.50
255.93	1325.04
256.15	1232.88
256.36	1247.21
256.58	1263.60
256.80	1335.28
257.02	1257.45
257.23	1286.12
257.45	1275.88
257.67	1263.60
257.88	1220.59
258.10	1245.16
258.32	1232.88
258.53	1298.41
258.75	1224.69
258.97	1320.94
259.18	1241.07
259.40	1308.65
259.62	1288.17
259.83	1290.22
260.05	1314.80
260.27	1302.51
260.48	1275.88
260.70	1294.32
260.92	1312.75
261.13	1265.64
261.35	1255.40
261.57	1241.07
261.78	1263.60
262.00	1228.78
262.22	1279.98
262.43	1275.88
262.65	1269.74
262.86	1292.27
263.08	1279.98
263.30	1343.47
263.51	1327.08
263.73	1312.75
263.95	1322.99
264.16	1265.64
264.38	1208.30
264.60	1347.56
264.81	1284.08
265.03	1259.50
265.25	1306.60
265.46	1292.27
265.68	1196.01
265.89	1232.88
266.11	1183.73
266.33	1247.21
266.54	1269.74
266.76	1320.94
266.98	1275.88
267.19	1294.32
267.41	1282.03
267.62	1269.74
267.84	1257.45
268.06	1271.79
268.27	1304.56
268.49	1327.08
268.70	1298.41
268.92	1314.80
269.14	1286.12
269.35	1255.40
269.57	1331.18
269.79	1294.32
270.00	1339.37
270.22	1261.55
270.43	1296.36
270.65	1239.02
270.87	1284.08
271.08	1286.12
271.30	1314.80
271.51	1271.79
271.73	1290.22
271.95	1312.75
272.16	1202.16
272.38	1259.50
272.59	1251.31
272.81	1263.60
273.02	1282.03
273.24	1318.89
273.46	1320.94
273.67	1249.26
273.89	1267.69
274.10	1363.95
274.32	1265.64
274.54	1232.88
274.75	1222.64
274.97	1200.11
275.18	1236.97
275.40	1236.97
275.61	1214.45
275.83	1325.04
276.05	1298.41
276.26	1331.18
276.48	1327.08
276.69	1298.41
276.91	1196.01
277.12	1257.45
277.34	1224.69
277.55	1333.23
277.77	1224.69
277.99	1234.93
278.20	1216.49
278.42	1243.12
278.63	1300.46
278.85	1239.02
279.06	1239.02
279.28	1273.84
279.49	1327.08
279.71	1294.32
279.93	1243.12
280.14	1288.17
280.36	1249.26
280.57	1230.83
280.79	1243.12
281.00	1288.17
281.22	1288.17
281.43	1282.03
281.65	1296.36
281.86	1193.97
282.08	1302.51
282.29	1279.98
282.51	1339.37
282.73	1275.88
282.94	1251.31
283.16	1226.73
283.37	1269.74
283.59	1241.07
283.80	1265.64
284.02	1273.84
284.23	1212.40
284.45	1306.60
284.66	1300.46
284.88	1239.02
285.09	1249.26
285.31	1349.61
285.52	1290.22
285.74	1263.60
285.95	1288.17
286.17	1222.64
286.38	1269.74
286.60	1288.17
286.81	1296.36
287.03	1273.84
287.24	1173.49
287.46	1339.37
287.67	1136.62
287.89	1269.74
288.10	1212.40
288.32	1247.21
288.53	1236.97
288.75	1306.60
288.96	1239.02
289.18	1271.79
289.39	1189.87
289.61	1331.18
289.82	1322.99
290.04	1290.22
290.25	1245.16
290.47	1335.28
290.68	1277.93
290.90	1322.99
291.11	1230.83
291.33	1263.60
291.54	1335.28
291.76	1216.49
291.97	1245.16
292.18	1269.74
292.40	1255.40
292.61	1249.26
292.83	1302.51
293.04	1292.27
293.26	1279.98
293.47	1298.41
293.69	1282.03
293.90	1292.27
294.12	1304.56
294.33	1273.84
294.55	1208.30
294.76	1294.32
294.97	1284.08
295.19	1284.08
295.40	1259.50
295.62	1226.73
295.83	1181.68
296.05	1249.26
296.26	1271.79
296.48	1261.55
296.69	1249.26
296.90	1294.32
297.12	1275.88
297.33	1296.36
297.55	1236.97
297.76	1296.36
297.98	1228.78
298.19	1239.02
298.41	1302.51
298.62	1267.69
298.83	1273.84
299.05	1271.79
299.26	1288.17
299.48	1234.93
299.69	1200.11
299.90	1275.88
300.12	1245.16
300.33	1273.84
300.55	1347.56
300.76	1259.50
300.98	1269.74
301.19	1271.79
301.40	1247.21
301.62	1230.83
301.83	1241.07
302.05	1294.32
302.26	1275.88
302.47	1284.08
302.69	1269.74
302.90	1304.56
303.12	1290.22
303.33	1255.40
303.54	1335.28
303.76	1312.75
303.97	1175.53
304.19	1298.41
304.40	1230.83
304.61	1245.16
304.83	1345.52
305.04	1230.83
305.26	1249.26
305.47	1228.78
305.68	1304.56
305.90	1306.60
306.11	1366.00
306.33	1306.60
306.54	1239.02
306.75	1226.73
306.97	1327.08
307.18	1251.31
307.39	1306.60
307.61	1333.23
307.82	1271.79
308.04	1243.12
308.25	1257.45
308.46	1257.45
308.68	1214.45
308.89	1298.41
309.10	1263.60
309.32	1253.36
309.53	1302.51
309.74	1320.94
309.96	1171.44
310.17	1325.04
310.39	1271.79
310.60	1259.50
310.81	1249.26
311.03	1255.40
311.24	1269.74
311.45	1253.36
311.67	1234.93
311.88	1239.02
312.09	1263.60
312.31	1230.83
312.52	1265.64
312.73	1292.27
312.95	1228.78
313.16	1241.07
313.37	1284.08
313.59	1265.64
313.80	1325.04
314.01	1269.74
314.23	1255.40
314.44	1279.98
314.65	1232.88
314.87	1273.84
315.08	1177.58
315.29	1224.69
315.51	1224.69
315.72	1171.44
315.93	1296.36
316.15	1314.80
316.36	1216.49
316.57	1216.49
316.79	1249.26
317.00	1218.54
317.21	1271.79
317.43	1304.56
317.64	1284.08
317.85	1288.17
318.07	1226.73
318.28	1236.97
318.49	1245.16
318.70	1241.07
318.92	1267.69
319.13	1220.59
319.34	1292.27
319.56	1310.70
319.77	1222.64
319.98	1286.12
320.20	1239.02
320.41	1300.46
320.62	1308.65
320.83	1331.18
321.05	1302.51
321.26	1271.79
321.47	1259.50
321.69	1257.45
321.90	1296.36
322.11	1308.65
322.32	1259.50
322.54	1271.79
322.75	1265.64
322.96	1269.74
323.18	1218.54
323.39	1261.55
323.60	1249.26
323.81	1251.31
324.03	1263.60
324.24	1271.79
324.45	1193.97
324.66	1310.70
324.88	1298.41
325.09	1204.21
325.30	1198.06
325.52	1243.12
325.73	1271.79
325.94	1265.64
326.15	1292.27
326.37	1292.27
326.58	1284.08
326.79	1239.02
327.00	1294.32
327.22	1255.40
327.43	1183.73
327.64	1282.03
327.85	1308.65
328.07	1304.56
328.28	1224.69
328.49	1279.98
328.70	1308.65
328.92	1216.49
329.13	1282.03
329.34	1247.21
329.55	1263.60
329.76	1263.60
329.98	1290.22
330.19	1288.17
330.40	1230.83
330.61	1249.26
330.83	1224.69
331.04	1216.49
331.25	1247.21
331.46	1269.74
331.68	1216.49
331.89	1253.36
332.10	1271.79
332.31	1288.17
332.52	1253.36
332.74	1320.94
332.95	1277.93
333.16	1251.31
333.37	1257.45
333.58	1279.98
333.80	1247.21
334.01	1273.84
334.22	1275.88
334.43	1292.27
334.64	1253.36
334.86	1347.56
335.07	1218.54
335.28	1312.75
335.49	1271.79
335.70	1214.45
335.92	1284.08
336.13	1214.45
336.34	1304.56
336.55	1241.07
336.76	1343.47
336.98	1251.31
337.19	1345.52
337.40	1275.88
337.61	1275.88
337.82	1306.60
338.04	1247.21
338.25	1208.30
338.46	1249.26
338.67	1239.02
338.88	1327.08
339.09	1331.18
339.31	1310.70
339.52	1245.16
339.73	1275.88
339.94	1220.59
340.15	1304.56
340.36	1253.36
340.58	1337.32
340.79	1269.74
341.00	1282.03
341.21	1222.64
341.42	1243.12
341.63	1241.07
341.85	1257.45
342.06	1183.73
342.27	1273.84
342.48	1263.60
342.69	1292.27
342.90	1212.40
343.12	1267.69
343.33	1265.64
343.54	1312.75
343.75	1212.40
343.96	1214.45
344.17	1269.74
344.38	1175.53
344.60	1304.56
344.81	1290.22
345.02	1353.71
345.23	1198.06
345.44	1232.88
345.65	1288.17
345.86	1228.78
346.07	1343.47
346.29	1329.13
346.50	1251.31
346.71	1325.04
346.92	1222.64
347.13	1241.07
347.34	1247.21
347.55	1236.97
347.76	1196.01
347.98	1312.75
348.19	1277.93
348.40	1314.80
348.61	1210.35
348.82	1304.56
349.03	1308.65
349.24	1288.17
349.45	1308.65
349.66	1304.56
349.88	1234.93
350.09	1269.74
350.30	1247.21
350.51	1243.12
350.72	1218.54
350.93	1269.74
351.14	1249.26
351.35	1304.56
351.56	1247.21
351.77	1310.70
351.99	1290.22
352.20	1196.01
352.41	1216.49
352.62	1277.93
352.83	1294.32
353.04	1251.31
353.25	1175.53
353.46	1290.22
353.67	1212.40
353.88	1335.28
354.09	1273.84
354.30	1251.31
354.52	1255.40
354.73	1236.97
354.94	1296.36
355.15	1271.79
355.36	1288.17
355.57	1216.49
355.78	1239.02
355.99	1230.83
356.20	1239.02
356.41	1296.36
356.62	1320.94
356.83	1249.26
357.04	1187.82
357.25	1245.16
357.46	1329.13
357.68	1273.84
357.89	1308.65
358.10	1267.69
358.31	1273.84
358.52	1288.17
358.73	1267.69
358.94	1228.78
359.15	1218.54
359.36	1298.41
359.57	1210.35
359.78	1259.50
359.99	1290.22
360.20	1218.54
360.41	1277.93
360.62	1226.73
360.83	1314.80
361.04	1222.64
361.25	1247.21
361.46	1224.69
361.67	1294.32
361.88	1261.55
362.09	1230.83
362.30	1249.26
362.51	1273.84
362.72	1345.52
362.93	1251.31
363.14	1282.03
363.35	1224.69
363.56	1333.23
363.78	1265.64
363.99	1263.60
364.20	1224.69
364.41	1267.69
364.62	1284.08
364.83	1282.03
365.04	1241.07
365.25	1249.26
365.46	1259.50
365.67	1269.74
365.88	1259.50
366.09	1259.50
366.30	1210.35
366.51	1181.68
366.72	1296.36
366.93	1214.45
367.14	1263.60
367.35	1239.02
367.56	1220.59
367.77	1279.98
367.98	1304.56
368.18	1247.21
368.39	1261.55
368.60	1320.94
368.81	1316.84
369.02	1337.32
369.23	1286.12
369.44	1226.73
369.65	1304.56
369.86	1275.88
370.07	1316.84
370.28	1261.55
370.49	1277.93
370.70	1300.46
370.91	1288.17
371.12	1282.03
371.33	1279.98
371.54	1284.08
371.75	1310.70
371.96	1263.60
372.17	1288.17
372.38	1208.30
372.59	1308.65
372.80	1259.50
373.01	1279.98
373.22	1361.90
373.43	1325.04
373.64	1273.84
373.85	1245.16
374.06	1220.59
374.26	1251.31
374.47	1288.17
374.68	1216.49
374.89	1284.08
375.10	1200.11
375.31	1261.55
375.52	1294.32
375.73	1306.60
375.94	1251.31
376.15	1243.12
376.36	1267.69
376.57	1277.93
376.78	1153.01
376.99	1325.04
377.20	1279.98
377.40	1241.07
377.61	1271.79
377.82	1286.12
378.03	1286.12
378.24	1267.69
378.45	1318.89
378.66	1273.84
378.87	1261.55
379.08	1277.93
379.29	1220.59
379.50	1263.60
379.71	1261.55
379.91	1271.79
380.12	1261.55
380.33	1304.56
380.54	1255.40
380.75	1273.84
380.96	1271.79
381.17	1257.45
381.38	1277.93
381.59	1177.58
381.80	1310.70
382.00	1325.04
382.21	1318.89
382.42	1378.28
382.63	1292.27
382.84	1273.84
383.05	1259.50
383.26	1269.74
383.47	1236.97
383.68	1218.54
383.88	1284.08
384.09	1292.27
384.30	1234.93
384.51	1277.93
384.72	1210.35
384.93	1249.26
385.14	1234.93
385.35	1308.65
385.55	1249.26
385.76	1279.98
385.97	1302.51
386.18	1286.12
386.39	1273.84
386.60	1210.35
386.81	1193.97
387.02	1286.12
387.22	1284.08
387.43	1286.12
387.64	1243.12
387.85	1253.36
388.06	1296.36
388.27	1257.45
388.48	1183.73
388.68	1236.97
388.89	1236.97
389.10	1333.23
389.31	1263.60
389.52	1234.93
389.73	1273.84
389.93	1241.07
390.14	1284.08
390.35	1294.32
390.56	1322.99
390.77	1243.12
390.98	1261.55
391.18	1210.35
391.39	1245.16
391.60	1282.03
391.81	1224.69
392.02	1236.97
392.23	1214.45
392.43	1241.07
392.64	1241.07
392.85	1298.41
393.06	1279.98
393.27	1239.02
393.47	1239.02
393.68	1181.68
393.89	1212.40
394.10	1253.36
394.31	1271.79
394.52	1269.74
394.72	1284.08
394.93	1320.94
395.14	1249.26
395.35	1284.08
395.56	1251.31
395.76	1214.45
395.97	1288.17
396.18	1304.56
396.39	1298.41
396.60	1230.83
396.80	1273.84
397.01	1331.18
397.22	1206.25
397.43	1279.98
397.64	1239.02
397.84	1247.21
398.05	1300.46
398.26	1267.69
398.47	1253.36
398.67	1327.08
398.88	1277.93
399.09	1245.16
399.30	1284.08
399.51	1247.21
399.71	1245.16
399.92	1286.12
400.13	1331.18
400.34	1351.66
400.54	1333.23
400.75	1306.60
400.96	1214.45
401.17	1249.26
401.37	1198.06
401.58	1249.26
401.79	1331.18
402.00	1302.51
402.21	1329.13
402.41	1218.54
402.62	1210.35
402.83	1325.04
403.04	1318.89
403.24	1314.80
403.45	1181.68
403.66	1251.31
403.87	1265.64
404.07	1220.59
404.28	1282.03
404.49	1253.36
404.70	1241.07
404.90	1249.26
405.11	1267.69
405.32	1273.84
405.52	1245.16
405.73	1236.97
405.94	1269.74
406.15	1275.88
406.35	1214.45
406.56	1327.08
406.77	1288.17
406.98	1245.16
407.18	1306.60
407.39	1218.54
407.60	1275.88
407.80	1314.80
408.01	1224.69
408.22	1298.41
408.43	1300.46
408.63	1300.46
408.84	1261.55
409.05	1290.22
409.25	1255.40
409.46	1212.40
409.67	1239.02
409.88	1341.42
410.08	1236.97
410.29	1290.22
410.50	1236.97
410.70	1198.06
410.91	1298.41
411.12	1204.21
411.32	1273.84
411.53	1224.69
411.74	1251.31
411.95	1271.79
412.15	1288.17
412.36	1341.42
412.57	1206.25
412.77	1257.45
412.98	1267.69
413.19	1261.55
413.39	1286.12
413.60	1325.04
413.81	1249.26
414.01	1177.58
414.22	1208.30
414.43	1304.56
414.63	1245.16
414.84	1230.83
415.05	1206.25
415.25	1232.88
415.46	1294.32
415.67	1208.30
415.87	1255.40
416.08	1230.83
416.29	1271.79
416.49	1247.21
416.70	1214.45
416.91	1277.93
417.11	1282.03
417.32	1249.26
417.53	1230.83
417.73	1312.75
417.94	1357.80
418.15	1282.03
418.35	1183.73
418.56	1210.35
418.77	1284.08
418.97	1269.74
419.18	1306.60
419.38	1247.21
419.59	1228.78
419.80	1226.73
420.00	1249.26
420.21	1284.08
420.42	1261.55
420.62	1267.69
420.83	1265.64
421.04	1294.32
421.24	1255.40
421.45	1304.56
421.65	1239.02
421.86	1247.21
422.07	1351.66
422.27	1271.79
422.48	1212.40
422.69	1292.27
422.89	1239.02
423.10	1302.51
423.30	1255.40
423.51	1279.98
423.72	1257.45
423.92	1243.12
424.13	1173.49
424.33	1312.75
424.54	1259.50
424.75	1290.22
424.95	1290.22
425.16	1277.93
425.36	1277.93
425.57	1306.60
425.78	1245.16
425.98	1279.98
426.19	1216.49
426.39	1320.94
426.60	1263.60
426.81	1267.69
427.01	1212.40
427.22	1310.70
427.42	1230.83
427.63	1308.65
427.83	1249.26
428.04	1261.55
428.25	1253.36
428.45	1322.99
428.66	1292.27
428.86	1228.78
429.07	1259.50
429.28	1282.03
429.48	1308.65
429.69	1263.60
429.89	1249.26
430.10	1230.83
430.30	1261.55
430.51	1292.27
430.71	1288.17
430.92	1267.69
431.13	1286.12
431.33	1290.22
431.54	1372.14
431.74	1325.04
431.95	1296.36
432.15	1257.45
432.36	1327.08
432.56	1271.79
432.77	1316.84
432.98	1255.40
433.18	1228.78
433.39	1277.93
433.59	1306.60
433.80	1275.88
434.00	1261.55
434.21	1275.88
434.41	1271.79
434.62	1292.27
434.82	1253.36
435.03	1310.70
435.23	1290.22
435.44	1359.85
435.64	1259.50
435.85	1296.36
436.06	1298.41
436.26	1302.51
436.47	1290.22
436.67	1318.89
436.88	1288.17
437.08	1251.31
437.29	1290.22
437.49	1333.23
437.70	1224.69
437.90	1232.88
438.11	1253.36
438.31	1247.21
438.52	1320.94
438.72	1279.98
438.93	1265.64
439.13	1294.32
439.34	1218.54
439.54	1239.02
439.75	1300.46
439.95	1226.73
440.16	1249.26
440.36	1298.41
440.57	1292.27
440.77	1290.22
440.98	1247.21
441.18	1284.08
441.39	1273.84
441.59	1224.69
441.80	1257.45
442.00	1273.84
442.21	1257.45
442.41	1279.98
442.62	1239.02
442.82	1273.84
443.02	1327.08
443.23	1234.93
443.43	1243.12
443.64	1265.64
443.84	1279.98
444.05	1269.74
444.25	1294.32
444.46	1271.79
444.66	1265.64
444.87	1306.60
445.07	1292.27
445.28	1292.27
445.48	1320.94
445.69	1273.84
445.89	1300.46
446.09	1277.93
446.30	1187.82
446.50	1363.95
446.71	1212.40
446.91	1288.17
447.12	1249.26
447.32	1304.56
447.53	1220.59
447.73	1288.17
447.93	1243.12
448.14	1337.32
448.34	1282.03
448.55	1265.64
448.75	1245.16
448.96	1312.75
449.16	1249.26
449.36	1294.32
449.57	1290.22
449.77	1253.36
449.98	1249.26
450.18	1257.45
450.39	1294.32
450.59	1265.64
450.79	1251.31
451.00	1275.88
451.20	1304.56
451.41	1261.55
451.61	1230.83
451.81	1247.21
452.02	1277.93
452.22	1353.71
452.43	1249.26
452.63	1290.22
