SpectraSuite Data File
++++++++++++++++++++++++++++++++++++
Date: Sun Apr 03 19:55:43 CEST 2016
User: root
Dark Spectrum Present: No
Reference Spectrum Present: No
Number of Sampled Component Spectra: 1
Spectrometers: USB4C02835
Integration Time (usec): 10000 (USB4C02835)
Spectra Averaged: 1 (USB4C02835)
Boxcar Smoothing: 0 (USB4C02835)
Correct for Electrical Dark: No (USB4C02835)
Strobe/Lamp Enabled: No (USB4C02835)
Correct for Detector Non-linearity: No (USB4C02835)
Correct for Stray Light: No (USB4C02835)
Number of Pixels in Processed Spectrum: 3648
>>>>>Begin Processed Spectral Data<<<<<
177.47	1249.26
177.69	1249.26
177.91	1249.26
178.13	1298.41
178.36	1239.02
178.58	1257.45
178.80	1220.59
179.02	1200.11
179.24	1230.83
179.46	1257.45
179.68	1224.69
179.90	1253.36
180.13	1255.40
180.35	1292.27
180.57	1294.32
180.79	1249.26
181.01	1265.64
181.23	1294.32
181.45	1224.69
181.67	1284.08
181.90	1241.07
182.12	1308.65
182.34	1269.74
182.56	1306.60
182.78	1198.06
183.00	1212.40
183.22	1279.98
183.44	1288.17
183.66	1298.41
183.89	1308.65
184.11	1294.32
184.33	1273.84
184.55	1269.74
184.77	1271.79
184.99	1249.26
185.21	1310.70
185.43	1292.27
185.65	1165.29
185.87	1275.88
186.10	1198.06
186.32	1335.28
186.54	1267.69
186.76	1271.79
186.98	1216.49
187.20	1325.04
187.42	1189.87
187.64	1351.66
187.86	1228.78
188.08	1327.08
188.30	1165.29
188.52	1275.88
188.75	1263.60
188.97	1204.21
189.19	1300.46
189.41	1357.80
189.63	1214.45
189.85	1243.12
190.07	1263.60
190.29	1286.12
190.51	1218.54
190.73	1239.02
190.95	1282.03
191.17	1304.56
191.39	1277.93
191.61	1191.92
191.84	1208.30
192.06	1292.27
192.28	1253.36
192.50	1316.84
192.72	1271.79
192.94	1312.75
193.16	1263.60
193.38	1263.60
193.60	1224.69
193.82	1253.36
194.04	1226.73
194.26	1320.94
194.48	1298.41
194.70	1267.69
194.92	1263.60
195.14	1226.73
195.36	1279.98
195.58	1261.55
195.80	1253.36
196.02	1286.12
196.24	1206.25
196.46	1247.21
196.69	1202.16
196.91	1282.03
197.13	1243.12
197.35	1226.73
197.57	1318.89
197.79	1290.22
198.01	1267.69
198.23	1306.60
198.45	1263.60
198.67	1259.50
198.89	1300.46
199.11	1247.21
199.33	1257.45
199.55	1232.88
199.77	1210.35
199.99	1345.52
200.21	1257.45
200.43	1245.16
200.65	1284.08
200.87	1206.25
201.09	1333.23
201.31	1298.41
201.53	1234.93
201.75	1329.13
201.97	1292.27
202.19	1208.30
202.41	1271.79
202.63	1337.32
202.85	1314.80
203.07	1269.74
203.29	1255.40
203.51	1314.80
203.73	1228.78
203.95	1257.45
204.17	1286.12
204.39	1232.88
204.61	1185.77
204.83	1259.50
205.05	1241.07
205.27	1286.12
205.49	1300.46
205.71	1257.45
205.93	1316.84
206.15	1265.64
206.37	1284.08
206.59	1216.49
206.81	1269.74
207.03	1216.49
207.25	1214.45
207.47	1357.80
207.69	1284.08
207.91	1288.17
208.13	1173.49
208.34	1230.83
208.56	1302.51
208.78	1265.64
209.00	1269.74
209.22	1310.70
209.44	1312.75
209.66	1366.00
209.88	1320.94
210.10	1163.25
210.32	1298.41
210.54	1318.89
210.76	1300.46
210.98	1275.88
211.20	1226.73
211.42	1267.69
211.64	1236.97
211.86	1320.94
212.08	1292.27
212.30	1255.40
212.52	1259.50
212.74	1347.56
212.96	1265.64
213.17	1288.17
213.39	1255.40
213.61	1218.54
213.83	1257.45
214.05	1263.60
214.27	1236.97
214.49	1273.84
214.71	1228.78
214.93	1255.40
215.15	1216.49
215.37	1273.84
215.59	1255.40
215.81	1241.07
216.03	1298.41
216.24	1236.97
216.46	1316.84
216.68	1206.25
216.90	1282.03
217.12	1294.32
217.34	1224.69
217.56	1343.47
217.78	1196.01
218.00	1292.27
218.22	1265.64
218.44	1335.28
218.66	1298.41
218.87	1306.60
219.09	1286.12
219.31	1314.80
219.53	1286.12
219.75	1163.25
219.97	1255.40
220.19	1290.22
220.41	1257.45
220.63	1273.84
220.85	1273.84
221.06	1212.40
221.28	1261.55
221.50	1273.84
221.72	1314.80
221.94	1255.40
222.16	1306.60
222.38	1292.27
222.60	1249.26
222.82	1236.97
223.03	1308.65
223.25	1243.12
223.47	1288.17
223.69	1288.17
223.91	1322.99
224.13	1239.02
224.35	1288.17
224.57	1214.45
224.78	1292.27
225.00	1261.55
225.22	1259.50
225.44	1322.99
225.66	1265.64
225.88	1228.78
226.10	1312.75
226.32	1271.79
226.53	1208.30
226.75	1357.80
226.97	1226.73
227.19	1249.26
227.41	1302.51
227.63	1312.75
227.85	1251.31
228.06	1316.84
228.28	1329.13
228.50	1296.36
228.72	1228.78
228.94	1320.94
229.16	1288.17
229.37	1310.70
229.59	1286.12
229.81	1308.65
230.03	1277.93
230.25	1310.70
230.47	1282.03
230.69	1286.12
230.90	1265.64
231.12	1224.69
231.34	1282.03
231.56	1337.32
231.78	1255.40
232.00	1269.74
232.21	1322.99
232.43	1263.60
232.65	1300.46
232.87	1265.64
233.09	1163.25
233.30	1292.27
233.52	1277.93
233.74	1249.26
233.96	1232.88
234.18	1204.21
234.40	1140.72
234.61	1241.07
234.83	1224.69
235.05	1286.12
235.27	1284.08
235.49	1310.70
235.70	1193.97
235.92	1318.89
236.14	1277.93
236.36	1284.08
236.58	1271.79
236.79	1245.16
237.01	1261.55
237.23	1279.98
237.45	1306.60
237.67	1259.50
237.88	1298.41
238.10	1273.84
238.32	1257.45
238.54	1312.75
238.76	1230.83
238.97	1228.78
239.19	1304.56
239.41	1286.12
239.63	1220.59
239.85	1189.87
240.06	1347.56
240.28	1234.93
240.50	1329.13
240.72	1286.12
240.93	1275.88
241.15	1288.17
241.37	1239.02
241.59	1267.69
241.81	1255.40
242.02	1269.74
242.24	1302.51
242.46	1196.01
242.68	1222.64
242.89	1298.41
243.11	1261.55
243.33	1267.69
243.55	1257.45
243.76	1347.56
243.98	1275.88
244.20	1177.58
244.42	1298.41
244.64	1300.46
244.85	1236.97
245.07	1282.03
245.29	1206.25
245.51	1253.36
245.72	1251.31
245.94	1282.03
246.16	1263.60
246.38	1279.98
246.59	1200.11
246.81	1234.93
247.03	1200.11
247.24	1306.60
247.46	1241.07
247.68	1325.04
247.90	1318.89
248.11	1322.99
248.33	1277.93
248.55	1269.74
248.77	1308.65
248.98	1275.88
249.20	1265.64
249.42	1253.36
249.64	1302.51
249.85	1247.21
250.07	1161.20
250.29	1236.97
250.50	1226.73
250.72	1239.02
250.94	1243.12
251.16	1261.55
251.37	1304.56
251.59	1257.45
251.81	1277.93
252.02	1357.80
252.24	1275.88
252.46	1339.37
252.68	1228.78
252.89	1273.84
253.11	1257.45
253.33	1230.83
253.54	1234.93
253.76	1222.64
253.98	1257.45
254.20	1337.32
254.41	1269.74
254.63	1304.56
254.85	1243.12
255.06	1318.89
255.28	1269.74
255.50	1206.25
255.71	1269.74
255.93	1333.23
256.15	1337.32
256.36	1249.26
256.58	1243.12
256.80	1282.03
257.02	1232.88
257.23	1298.41
257.45	1253.36
257.67	1282.03
257.88	1300.46
258.10	1226.73
258.32	1333.23
258.53	1320.94
258.75	1333.23
258.97	1257.45
259.18	1247.21
259.40	1325.04
259.62	1325.04
259.83	1159.15
260.05	1294.32
260.27	1253.36
260.48	1329.13
260.70	1329.13
260.92	1298.41
261.13	1306.60
261.35	1257.45
261.57	1234.93
261.78	1290.22
262.00	1341.42
262.22	1251.31
262.43	1290.22
262.65	1355.76
262.86	1187.82
263.08	1271.79
263.30	1318.89
263.51	1271.79
263.73	1222.64
263.95	1300.46
264.16	1181.68
264.38	1261.55
264.60	1265.64
264.81	1337.32
265.03	1243.12
265.25	1177.58
265.46	1257.45
265.68	1259.50
265.89	1292.27
266.11	1253.36
266.33	1253.36
266.54	1222.64
266.76	1226.73
266.98	1259.50
267.19	1222.64
267.41	1228.78
267.62	1247.21
267.84	1216.49
268.06	1236.97
268.27	1239.02
268.49	1306.60
268.70	1271.79
268.92	1265.64
269.14	1210.35
269.35	1271.79
269.57	1210.35
269.79	1300.46
270.00	1306.60
270.22	1204.21
270.43	1257.45
270.65	1206.25
270.87	1202.16
271.08	1320.94
271.30	1234.93
271.51	1312.75
271.73	1253.36
271.95	1279.98
272.16	1255.40
272.38	1341.42
272.59	1271.79
272.81	1271.79
273.02	1353.71
273.24	1292.27
273.46	1329.13
273.67	1337.32
273.89	1259.50
274.10	1304.56
274.32	1294.32
274.54	1216.49
274.75	1320.94
274.97	1269.74
275.18	1269.74
275.40	1279.98
275.61	1267.69
275.83	1296.36
276.05	1255.40
276.26	1329.13
276.48	1243.12
276.69	1294.32
276.91	1288.17
277.12	1292.27
277.34	1245.16
277.55	1230.83
277.77	1253.36
277.99	1245.16
278.20	1196.01
278.42	1292.27
278.63	1239.02
278.85	1210.35
279.06	1335.28
279.28	1292.27
279.49	1273.84
279.71	1243.12
279.93	1257.45
280.14	1298.41
280.36	1247.21
280.57	1331.18
280.79	1220.59
281.00	1288.17
281.22	1267.69
281.43	1255.40
281.65	1273.84
281.86	1216.49
282.08	1263.60
282.29	1300.46
282.51	1282.03
282.73	1216.49
282.94	1316.84
283.16	1312.75
283.37	1222.64
283.59	1261.55
283.80	1322.99
284.02	1277.93
284.23	1271.79
284.45	1226.73
284.66	1271.79
284.88	1353.71
285.09	1286.12
285.31	1216.49
285.52	1247.21
285.74	1286.12
285.95	1302.51
286.17	1263.60
286.38	1345.52
286.60	1273.84
286.81	1335.28
287.03	1275.88
287.24	1310.70
287.46	1314.80
287.67	1253.36
287.89	1325.04
288.10	1243.12
288.32	1255.40
288.53	1300.46
288.75	1267.69
288.96	1216.49
289.18	1290.22
289.39	1249.26
289.61	1245.16
289.82	1269.74
290.04	1255.40
290.25	1251.31
290.47	1230.83
290.68	1286.12
290.90	1214.45
291.11	1265.64
291.33	1322.99
291.54	1298.41
291.76	1265.64
291.97	1322.99
292.18	1273.84
292.40	1257.45
292.61	1290.22
292.83	1255.40
293.04	1294.32
293.26	1257.45
293.47	1224.69
293.69	1294.32
293.90	1343.47
294.12	1279.98
294.33	1177.58
294.55	1269.74
294.76	1247.21
294.97	1335.28
295.19	1263.60
295.40	1249.26
295.62	1312.75
295.83	1253.36
296.05	1236.97
296.26	1218.54
296.48	1220.59
296.69	1271.79
296.90	1298.41
297.12	1277.93
297.33	1339.37
297.55	1282.03
297.76	1247.21
297.98	1230.83
298.19	1259.50
298.41	1220.59
298.62	1222.64
298.83	1249.26
299.05	1310.70
299.26	1261.55
299.48	1306.60
299.69	1310.70
299.90	1265.64
300.12	1230.83
300.33	1245.16
300.55	1247.21
300.76	1277.93
300.98	1269.74
301.19	1275.88
301.40	1279.98
301.62	1308.65
301.83	1306.60
302.05	1202.16
302.26	1265.64
302.47	1220.59
302.69	1230.83
302.90	1239.02
303.12	1284.08
303.33	1251.31
303.54	1234.93
303.76	1249.26
303.97	1277.93
304.19	1288.17
304.40	1249.26
304.61	1261.55
304.83	1239.02
305.04	1310.70
305.26	1259.50
305.47	1228.78
305.68	1294.32
305.90	1255.40
306.11	1310.70
306.33	1318.89
306.54	1239.02
306.75	1263.60
306.97	1239.02
307.18	1339.37
307.39	1296.36
307.61	1304.56
307.82	1257.45
308.04	1306.60
308.25	1191.92
308.46	1286.12
308.68	1261.55
308.89	1298.41
309.10	1257.45
309.32	1224.69
309.53	1337.32
309.74	1230.83
309.96	1226.73
310.17	1275.88
310.39	1193.97
310.60	1345.52
310.81	1277.93
311.03	1314.80
311.24	1320.94
311.45	1245.16
311.67	1294.32
311.88	1286.12
312.09	1257.45
312.31	1245.16
312.52	1335.28
312.73	1279.98
312.95	1224.69
313.16	1288.17
313.37	1261.55
313.59	1273.84
313.80	1267.69
314.01	1288.17
314.23	1275.88
314.44	1261.55
314.65	1222.64
314.87	1290.22
315.08	1308.65
315.29	1257.45
315.51	1294.32
315.72	1267.69
315.93	1243.12
316.15	1265.64
316.36	1312.75
316.57	1216.49
316.79	1208.30
317.00	1239.02
317.21	1257.45
317.43	1263.60
317.64	1257.45
317.85	1220.59
318.07	1230.83
318.28	1230.83
318.49	1300.46
318.70	1257.45
318.92	1228.78
319.13	1288.17
319.34	1273.84
319.56	1292.27
319.77	1239.02
319.98	1255.40
320.20	1286.12
320.41	1251.31
320.62	1271.79
320.83	1232.88
321.05	1286.12
321.26	1263.60
321.47	1298.41
321.69	1263.60
321.90	1228.78
322.11	1200.11
322.32	1222.64
322.54	1320.94
322.75	1267.69
322.96	1267.69
323.18	1165.29
323.39	1282.03
323.60	1224.69
323.81	1316.84
324.03	1290.22
324.24	1292.27
324.45	1253.36
324.66	1265.64
324.88	1261.55
325.09	1298.41
325.30	1234.93
325.52	1384.43
325.73	1255.40
325.94	1259.50
326.15	1253.36
326.37	1222.64
326.58	1228.78
326.79	1257.45
327.00	1259.50
327.22	1286.12
327.43	1273.84
327.64	1196.01
327.85	1312.75
328.07	1165.29
328.28	1255.40
328.49	1292.27
328.70	1175.53
328.92	1267.69
329.13	1249.26
329.34	1267.69
329.55	1228.78
329.76	1292.27
329.98	1349.61
330.19	1273.84
330.40	1236.97
330.61	1269.74
330.83	1206.25
331.04	1279.98
331.25	1245.16
331.46	1247.21
331.68	1271.79
331.89	1341.42
332.10	1271.79
332.31	1363.95
332.52	1265.64
332.74	1271.79
332.95	1333.23
333.16	1294.32
333.37	1200.11
333.58	1255.40
333.80	1302.51
334.01	1261.55
334.22	1224.69
334.43	1241.07
334.64	1210.35
334.86	1304.56
335.07	1269.74
335.28	1277.93
335.49	1329.13
335.70	1308.65
335.92	1247.21
336.13	1263.60
336.34	1267.69
336.55	1245.16
336.76	1265.64
336.98	1302.51
337.19	1226.73
337.40	1290.22
337.61	1241.07
337.82	1236.97
338.04	1245.16
338.25	1298.41
338.46	1249.26
338.67	1298.41
338.88	1236.97
339.09	1310.70
339.31	1273.84
339.52	1259.50
339.73	1277.93
339.94	1329.13
340.15	1255.40
340.36	1245.16
340.58	1308.65
340.79	1218.54
341.00	1247.21
341.21	1294.32
341.42	1275.88
341.63	1282.03
341.85	1275.88
342.06	1284.08
342.27	1306.60
342.48	1241.07
342.69	1259.50
342.90	1255.40
343.12	1310.70
343.33	1298.41
343.54	1322.99
343.75	1216.49
343.96	1234.93
344.17	1296.36
344.38	1288.17
344.60	1298.41
344.81	1312.75
345.02	1241.07
345.23	1298.41
345.44	1214.45
345.65	1302.51
345.86	1273.84
346.07	1189.87
346.29	1228.78
346.50	1306.60
346.71	1349.61
346.92	1290.22
347.13	1306.60
347.34	1320.94
347.55	1243.12
347.76	1208.30
347.98	1312.75
348.19	1206.25
348.40	1318.89
348.61	1310.70
348.82	1247.21
349.03	1333.23
349.24	1263.60
349.45	1320.94
349.66	1257.45
349.88	1271.79
350.09	1245.16
350.30	1198.06
350.51	1214.45
350.72	1249.26
350.93	1322.99
351.14	1222.64
351.35	1275.88
351.56	1259.50
351.77	1269.74
351.99	1277.93
352.20	1279.98
352.41	1306.60
352.62	1245.16
352.83	1204.21
353.04	1196.01
353.25	1288.17
353.46	1288.17
353.67	1288.17
353.88	1247.21
354.09	1161.20
354.30	1259.50
354.52	1298.41
354.73	1277.93
354.94	1230.83
355.15	1273.84
355.36	1290.22
355.57	1261.55
355.78	1220.59
355.99	1232.88
356.20	1247.21
356.41	1269.74
356.62	1230.83
356.83	1322.99
357.04	1292.27
357.25	1325.04
357.46	1269.74
357.68	1249.26
357.89	1263.60
358.10	1265.64
358.31	1329.13
358.52	1320.94
358.73	1286.12
358.94	1181.68
359.15	1335.28
359.36	1271.79
359.57	1241.07
359.78	1224.69
359.99	1200.11
360.20	1288.17
360.41	1292.27
360.62	1282.03
360.83	1282.03
361.04	1230.83
361.25	1218.54
361.46	1271.79
361.67	1310.70
361.88	1263.60
362.09	1294.32
362.30	1267.69
362.51	1222.64
362.72	1320.94
362.93	1306.60
363.14	1298.41
363.35	1273.84
363.56	1236.97
363.78	1222.64
363.99	1265.64
364.20	1239.02
364.41	1224.69
364.62	1228.78
364.83	1251.31
365.04	1232.88
365.25	1288.17
365.46	1290.22
365.67	1366.00
365.88	1239.02
366.09	1228.78
366.30	1243.12
366.51	1230.83
366.72	1263.60
366.93	1273.84
367.14	1349.61
367.35	1298.41
367.56	1286.12
367.77	1290.22
367.98	1224.69
368.18	1269.74
368.39	1253.36
368.60	1279.98
368.81	1214.45
369.02	1288.17
369.23	1230.83
369.44	1245.16
369.65	1200.11
369.86	1259.50
370.07	1259.50
370.28	1226.73
370.49	1282.03
370.70	1255.40
370.91	1255.40
371.12	1253.36
371.33	1325.04
371.54	1271.79
371.75	1271.79
371.96	1304.56
372.17	1300.46
372.38	1318.89
372.59	1302.51
372.80	1273.84
373.01	1255.40
373.22	1226.73
373.43	1275.88
373.64	1304.56
373.85	1202.16
374.06	1265.64
374.26	1308.65
374.47	1251.31
374.68	1263.60
374.89	1257.45
375.10	1253.36
375.31	1282.03
375.52	1312.75
375.73	1212.40
375.94	1290.22
376.15	1228.78
376.36	1239.02
376.57	1218.54
376.78	1245.16
376.99	1247.21
377.20	1269.74
377.40	1296.36
377.61	1263.60
377.82	1261.55
378.03	1325.04
378.24	1251.31
378.45	1277.93
378.66	1267.69
378.87	1253.36
379.08	1341.42
379.29	1212.40
379.50	1220.59
379.71	1290.22
379.91	1302.51
380.12	1320.94
380.33	1269.74
380.54	1265.64
380.75	1247.21
380.96	1306.60
381.17	1275.88
381.38	1269.74
381.59	1298.41
381.80	1279.98
382.00	1183.73
382.21	1255.40
382.42	1228.78
382.63	1249.26
382.84	1337.32
383.05	1304.56
383.26	1294.32
383.47	1273.84
383.68	1222.64
383.88	1220.59
384.09	1306.60
384.30	1292.27
384.51	1265.64
384.72	1366.00
384.93	1298.41
385.14	1290.22
385.35	1273.84
385.55	1249.26
385.76	1271.79
385.97	1261.55
386.18	1232.88
386.39	1198.06
386.60	1277.93
386.81	1251.31
387.02	1265.64
387.22	1257.45
387.43	1208.30
387.64	1167.34
387.85	1322.99
388.06	1314.80
388.27	1275.88
388.48	1304.56
388.68	1230.83
388.89	1232.88
389.10	1191.92
389.31	1200.11
389.52	1273.84
389.73	1279.98
389.93	1318.89
390.14	1259.50
390.35	1232.88
390.56	1263.60
390.77	1284.08
390.98	1243.12
391.18	1255.40
391.39	1249.26
391.60	1277.93
391.81	1277.93
392.02	1267.69
392.23	1202.16
392.43	1318.89
392.64	1224.69
392.85	1249.26
393.06	1220.59
393.27	1271.79
393.47	1249.26
393.68	1306.60
393.89	1210.35
394.10	1253.36
394.31	1271.79
394.52	1179.63
394.72	1249.26
394.93	1271.79
395.14	1247.21
395.35	1296.36
395.56	1341.42
395.76	1306.60
395.97	1337.32
396.18	1304.56
396.39	1257.45
396.60	1212.40
396.80	1294.32
397.01	1298.41
397.22	1345.52
397.43	1204.21
397.64	1282.03
397.84	1290.22
398.05	1341.42
398.26	1241.07
398.47	1302.51
398.67	1288.17
398.88	1253.36
399.09	1277.93
399.30	1286.12
399.51	1261.55
399.71	1214.45
399.92	1282.03
400.13	1216.49
400.34	1191.92
400.54	1275.88
400.75	1277.93
400.96	1222.64
401.17	1222.64
401.37	1284.08
401.58	1234.93
401.79	1198.06
402.00	1271.79
402.21	1271.79
402.41	1257.45
402.62	1226.73
402.83	1230.83
403.04	1292.27
403.24	1232.88
403.45	1255.40
403.66	1236.97
403.87	1277.93
404.07	1249.26
404.28	1294.32
404.49	1273.84
404.70	1261.55
404.90	1269.74
405.11	1273.84
405.32	1296.36
405.52	1341.42
405.73	1302.51
405.94	1214.45
406.15	1243.12
406.35	1300.46
406.56	1294.32
406.77	1261.55
406.98	1218.54
407.18	1228.78
407.39	1284.08
407.60	1273.84
407.80	1255.40
408.01	1284.08
408.22	1271.79
408.43	1224.69
408.63	1257.45
408.84	1222.64
409.05	1261.55
409.25	1230.83
409.46	1284.08
409.67	1271.79
409.88	1232.88
410.08	1279.98
410.29	1310.70
410.50	1239.02
410.70	1263.60
410.91	1279.98
411.12	1308.65
411.32	1277.93
411.53	1314.80
411.74	1255.40
411.95	1200.11
412.15	1304.56
412.36	1269.74
412.57	1292.27
412.77	1312.75
412.98	1228.78
413.19	1189.87
413.39	1230.83
413.60	1279.98
413.81	1271.79
414.01	1277.93
414.22	1288.17
414.43	1320.94
414.63	1271.79
414.84	1232.88
415.05	1214.45
415.25	1345.52
415.46	1232.88
415.67	1247.21
415.87	1331.18
416.08	1318.89
416.29	1222.64
416.49	1212.40
416.70	1267.69
416.91	1224.69
417.11	1275.88
417.32	1312.75
417.53	1167.34
417.73	1271.79
417.94	1216.49
418.15	1206.25
418.35	1261.55
418.56	1251.31
418.77	1200.11
418.97	1243.12
419.18	1296.36
419.38	1249.26
419.59	1279.98
419.80	1224.69
420.00	1288.17
420.21	1251.31
420.42	1306.60
420.62	1222.64
420.83	1239.02
421.04	1296.36
421.24	1290.22
421.45	1275.88
421.65	1228.78
421.86	1243.12
422.07	1243.12
422.27	1318.89
422.48	1232.88
422.69	1320.94
422.89	1228.78
423.10	1234.93
423.30	1290.22
423.51	1245.16
423.72	1228.78
423.92	1288.17
424.13	1208.30
424.33	1279.98
424.54	1337.32
424.75	1230.83
424.95	1249.26
425.16	1312.75
425.36	1284.08
425.57	1292.27
425.78	1290.22
425.98	1224.69
426.19	1294.32
426.39	1290.22
426.60	1245.16
426.81	1239.02
427.01	1298.41
427.22	1273.84
427.42	1239.02
427.63	1247.21
427.83	1306.60
428.04	1304.56
428.25	1335.28
428.45	1261.55
428.66	1245.16
428.86	1230.83
429.07	1234.93
429.28	1228.78
429.48	1210.35
429.69	1198.06
429.89	1279.98
430.10	1202.16
430.30	1253.36
430.51	1329.13
430.71	1261.55
430.92	1249.26
431.13	1306.60
431.33	1314.80
431.54	1337.32
431.74	1290.22
431.95	1318.89
432.15	1284.08
432.36	1284.08
432.56	1267.69
432.77	1259.50
432.98	1263.60
433.18	1257.45
433.39	1284.08
433.59	1224.69
433.80	1279.98
434.00	1286.12
434.21	1232.88
434.41	1208.30
434.62	1290.22
434.82	1298.41
435.03	1279.98
435.23	1300.46
435.44	1232.88
435.64	1247.21
435.85	1273.84
436.06	1239.02
436.26	1380.33
436.47	1243.12
436.67	1202.16
436.88	1314.80
437.08	1261.55
437.29	1351.66
437.49	1249.26
437.70	1361.90
437.90	1249.26
438.11	1263.60
438.31	1288.17
438.52	1220.59
438.72	1331.18
438.93	1310.70
439.13	1210.35
439.34	1308.65
439.54	1249.26
439.75	1257.45
439.95	1329.13
440.16	1216.49
440.36	1304.56
440.57	1241.07
440.77	1230.83
440.98	1251.31
441.18	1359.85
441.39	1259.50
441.59	1249.26
441.80	1241.07
442.00	1331.18
442.21	1245.16
442.41	1331.18
442.62	1275.88
442.82	1275.88
443.02	1284.08
443.23	1343.47
443.43	1243.12
443.64	1251.31
443.84	1316.84
444.05	1302.51
444.25	1306.60
444.46	1230.83
444.66	1239.02
444.87	1269.74
445.07	1218.54
445.28	1275.88
445.48	1220.59
445.69	1200.11
445.89	1300.46
446.09	1361.90
446.30	1265.64
446.50	1290.22
446.71	1273.84
446.91	1249.26
447.12	1304.56
447.32	1271.79
447.53	1302.51
447.73	1261.55
447.93	1322.99
448.14	1269.74
448.34	1228.78
448.55	1257.45
448.75	1218.54
448.96	1341.42
449.16	1228.78
449.36	1298.41
449.57	1306.60
449.77	1251.31
449.98	1263.60
450.18	1212.40
450.39	1275.88
450.59	1304.56
450.79	1251.31
451.00	1310.70
451.20	1284.08
451.41	1267.69
451.61	1294.32
451.81	1245.16
452.02	1275.88
452.22	1247.21
452.43	1296.36
452.63	1230.83
