SpectraSuite Data File
++++++++++++++++++++++++++++++++++++
Date: Sun Apr 03 19:55:37 CEST 2016
User: root
Dark Spectrum Present: No
Reference Spectrum Present: No
Number of Sampled Component Spectra: 1
Spectrometers: USB4C02835
Integration Time (usec): 10000 (USB4C02835)
Spectra Averaged: 1 (USB4C02835)
Boxcar Smoothing: 0 (USB4C02835)
Correct for Electrical Dark: No (USB4C02835)
Strobe/Lamp Enabled: No (USB4C02835)
Correct for Detector Non-linearity: No (USB4C02835)
Correct for Stray Light: No (USB4C02835)
Number of Pixels in Processed Spectrum: 3648
>>>>>Begin Processed Spectral Data<<<<<
177.47	1226.73
177.69	1226.73
177.91	1226.73
178.13	1294.32
178.36	1216.49
178.58	1298.41
178.80	1282.03
179.02	1302.51
179.24	1249.26
179.46	1247.21
179.68	1290.22
179.90	1292.27
180.13	1263.60
180.35	1275.88
180.57	1325.04
180.79	1249.26
181.01	1249.26
181.23	1236.97
181.45	1241.07
181.67	1253.36
181.90	1249.26
182.12	1265.64
182.34	1263.60
182.56	1249.26
182.78	1277.93
183.00	1296.36
183.22	1286.12
183.44	1216.49
183.66	1228.78
183.89	1234.93
184.11	1259.50
184.33	1269.74
184.55	1265.64
184.77	1247.21
184.99	1284.08
185.21	1271.79
185.43	1220.59
185.65	1236.97
185.87	1267.69
186.10	1284.08
186.32	1243.12
186.54	1185.77
186.76	1310.70
186.98	1247.21
187.20	1239.02
187.42	1245.16
187.64	1284.08
187.86	1261.55
188.08	1232.88
188.30	1216.49
188.52	1294.32
188.75	1339.37
188.97	1255.40
189.19	1232.88
189.41	1292.27
189.63	1331.18
189.85	1294.32
190.07	1185.77
190.29	1318.89
190.51	1349.61
190.73	1263.60
190.95	1271.79
191.17	1183.73
191.39	1277.93
191.61	1286.12
191.84	1216.49
192.06	1292.27
192.28	1253.36
192.50	1292.27
192.72	1288.17
192.94	1224.69
193.16	1329.13
193.38	1228.78
193.60	1265.64
193.82	1290.22
194.04	1234.93
194.26	1243.12
194.48	1345.52
194.70	1275.88
194.92	1208.30
195.14	1267.69
195.36	1253.36
195.58	1296.36
195.80	1236.97
196.02	1251.31
196.24	1308.65
196.46	1277.93
196.69	1259.50
196.91	1247.21
197.13	1269.74
197.35	1189.87
197.57	1255.40
197.79	1226.73
198.01	1257.45
198.23	1277.93
198.45	1243.12
198.67	1310.70
198.89	1325.04
199.11	1296.36
199.33	1249.26
199.55	1243.12
199.77	1249.26
199.99	1316.84
200.21	1277.93
200.43	1304.56
200.65	1318.89
200.87	1322.99
201.09	1302.51
201.31	1259.50
201.53	1243.12
201.75	1349.61
201.97	1243.12
202.19	1318.89
202.41	1251.31
202.63	1263.60
202.85	1230.83
203.07	1198.06
203.29	1247.21
203.51	1267.69
203.73	1191.92
203.95	1247.21
204.17	1234.93
204.39	1288.17
204.61	1243.12
204.83	1300.46
205.05	1273.84
205.27	1208.30
205.49	1271.79
205.71	1232.88
205.93	1222.64
206.15	1269.74
206.37	1224.69
206.59	1255.40
206.81	1271.79
207.03	1241.07
207.25	1275.88
207.47	1325.04
207.69	1308.65
207.91	1249.26
208.13	1261.55
208.34	1273.84
208.56	1286.12
208.78	1241.07
209.00	1349.61
209.22	1191.92
209.44	1335.28
209.66	1275.88
209.88	1218.54
210.10	1249.26
210.32	1296.36
210.54	1216.49
210.76	1339.37
210.98	1169.39
211.20	1316.84
211.42	1191.92
211.64	1173.49
211.86	1271.79
212.08	1286.12
212.30	1341.42
212.52	1325.04
212.74	1214.45
212.96	1292.27
213.17	1320.94
213.39	1224.69
213.61	1288.17
213.83	1302.51
214.05	1249.26
214.27	1282.03
214.49	1185.77
214.71	1232.88
214.93	1249.26
215.15	1296.36
215.37	1273.84
215.59	1308.65
215.81	1263.60
216.03	1228.78
216.24	1253.36
216.46	1263.60
216.68	1263.60
216.90	1226.73
217.12	1277.93
217.34	1322.99
217.56	1218.54
217.78	1279.98
218.00	1292.27
218.22	1277.93
218.44	1273.84
218.66	1314.80
218.87	1279.98
219.09	1282.03
219.31	1290.22
219.53	1200.11
219.75	1247.21
219.97	1282.03
220.19	1183.73
220.41	1284.08
220.63	1261.55
220.85	1275.88
221.06	1247.21
221.28	1232.88
221.50	1304.56
221.72	1277.93
221.94	1251.31
222.16	1181.68
222.38	1298.41
222.60	1222.64
222.82	1327.08
223.03	1202.16
223.25	1220.59
223.47	1261.55
223.69	1159.15
223.91	1245.16
224.13	1273.84
224.35	1267.69
224.57	1282.03
224.78	1271.79
225.00	1271.79
225.22	1341.42
225.44	1259.50
225.66	1218.54
225.88	1171.44
226.10	1243.12
226.32	1271.79
226.53	1288.17
226.75	1234.93
226.97	1351.66
227.19	1339.37
227.41	1234.93
227.63	1277.93
227.85	1263.60
228.06	1275.88
228.28	1243.12
228.50	1292.27
228.72	1257.45
228.94	1302.51
229.16	1247.21
229.37	1312.75
229.59	1265.64
229.81	1312.75
230.03	1255.40
230.25	1290.22
230.47	1312.75
230.69	1228.78
230.90	1204.21
231.12	1292.27
231.34	1214.45
231.56	1255.40
231.78	1253.36
232.00	1316.84
232.21	1257.45
232.43	1261.55
232.65	1224.69
232.87	1337.32
233.09	1187.82
233.30	1302.51
233.52	1259.50
233.74	1284.08
233.96	1322.99
234.18	1329.13
234.40	1245.16
234.61	1230.83
234.83	1347.56
235.05	1267.69
235.27	1165.29
235.49	1275.88
235.70	1253.36
235.92	1279.98
236.14	1306.60
236.36	1273.84
236.58	1261.55
236.79	1234.93
237.01	1214.45
237.23	1325.04
237.45	1253.36
237.67	1298.41
237.88	1267.69
238.10	1273.84
238.32	1202.16
238.54	1261.55
238.76	1314.80
238.97	1273.84
239.19	1202.16
239.41	1308.65
239.63	1261.55
239.85	1232.88
240.06	1335.28
240.28	1308.65
240.50	1261.55
240.72	1247.21
240.93	1247.21
241.15	1249.26
241.37	1230.83
241.59	1308.65
241.81	1255.40
242.02	1253.36
242.24	1226.73
242.46	1255.40
242.68	1304.56
242.89	1210.35
243.11	1331.18
243.33	1294.32
243.55	1275.88
243.76	1224.69
243.98	1335.28
244.20	1249.26
244.42	1220.59
244.64	1312.75
244.85	1224.69
245.07	1284.08
245.29	1220.59
245.51	1214.45
245.72	1200.11
245.94	1277.93
246.16	1226.73
246.38	1282.03
246.59	1234.93
246.81	1253.36
247.03	1210.35
247.24	1290.22
247.46	1300.46
247.68	1345.52
247.90	1255.40
248.11	1269.74
248.33	1308.65
248.55	1224.69
248.77	1282.03
248.98	1261.55
249.20	1261.55
249.42	1282.03
249.64	1230.83
249.85	1312.75
250.07	1253.36
250.29	1261.55
250.50	1208.30
250.72	1273.84
250.94	1312.75
251.16	1325.04
251.37	1306.60
251.59	1331.18
251.81	1282.03
252.02	1288.17
252.24	1261.55
252.46	1236.97
252.68	1200.11
252.89	1243.12
253.11	1257.45
253.33	1261.55
253.54	1279.98
253.76	1282.03
253.98	1236.97
254.20	1247.21
254.41	1245.16
254.63	1304.56
254.85	1189.87
255.06	1269.74
255.28	1312.75
255.50	1296.36
255.71	1193.97
255.93	1239.02
256.15	1306.60
256.36	1196.01
256.58	1341.42
256.80	1288.17
257.02	1290.22
257.23	1302.51
257.45	1271.79
257.67	1251.31
257.88	1298.41
258.10	1220.59
258.32	1210.35
258.53	1300.46
258.75	1239.02
258.97	1144.81
259.18	1294.32
259.40	1236.97
259.62	1255.40
259.83	1230.83
260.05	1216.49
260.27	1308.65
260.48	1282.03
260.70	1232.88
260.92	1255.40
261.13	1277.93
261.35	1243.12
261.57	1271.79
261.78	1304.56
262.00	1261.55
262.22	1241.07
262.43	1304.56
262.65	1247.21
262.86	1263.60
263.08	1290.22
263.30	1277.93
263.51	1255.40
263.73	1257.45
263.95	1370.09
264.16	1304.56
264.38	1271.79
264.60	1279.98
264.81	1239.02
265.03	1257.45
265.25	1234.93
265.46	1275.88
265.68	1288.17
265.89	1183.73
266.11	1255.40
266.33	1224.69
266.54	1232.88
266.76	1269.74
266.98	1247.21
267.19	1259.50
267.41	1279.98
267.62	1310.70
267.84	1222.64
268.06	1241.07
268.27	1234.93
268.49	1329.13
268.70	1290.22
268.92	1202.16
269.14	1224.69
269.35	1271.79
269.57	1245.16
269.79	1284.08
270.00	1269.74
270.22	1239.02
270.43	1265.64
270.65	1325.04
270.87	1212.40
271.08	1263.60
271.30	1247.21
271.51	1271.79
271.73	1310.70
271.95	1292.27
272.16	1288.17
272.38	1302.51
272.59	1202.16
272.81	1282.03
273.02	1263.60
273.24	1255.40
273.46	1308.65
273.67	1288.17
273.89	1302.51
274.10	1284.08
274.32	1259.50
274.54	1255.40
274.75	1255.40
274.97	1327.08
275.18	1253.36
275.40	1220.59
275.61	1282.03
275.83	1255.40
276.05	1236.97
276.26	1185.77
276.48	1271.79
276.69	1290.22
276.91	1263.60
277.12	1241.07
277.34	1306.60
277.55	1273.84
277.77	1298.41
277.99	1306.60
278.20	1212.40
278.42	1259.50
278.63	1257.45
278.85	1241.07
279.06	1208.30
279.28	1263.60
279.49	1269.74
279.71	1296.36
279.93	1247.21
280.14	1245.16
280.36	1322.99
280.57	1247.21
280.79	1241.07
281.00	1339.37
281.22	1279.98
281.43	1241.07
281.65	1304.56
281.86	1169.39
282.08	1253.36
282.29	1241.07
282.51	1296.36
282.73	1247.21
282.94	1236.97
283.16	1343.47
283.37	1327.08
283.59	1386.47
283.80	1329.13
284.02	1206.25
284.23	1304.56
284.45	1271.79
284.66	1222.64
284.88	1200.11
285.09	1230.83
285.31	1216.49
285.52	1322.99
285.74	1337.32
285.95	1224.69
286.17	1228.78
286.38	1271.79
286.60	1230.83
286.81	1282.03
287.03	1267.69
287.24	1232.88
287.46	1245.16
287.67	1259.50
287.89	1292.27
288.10	1216.49
288.32	1345.52
288.53	1261.55
288.75	1198.06
288.96	1224.69
289.18	1249.26
289.39	1224.69
289.61	1298.41
289.82	1318.89
290.04	1255.40
290.25	1255.40
290.47	1245.16
290.68	1251.31
290.90	1230.83
291.11	1210.35
291.33	1327.08
291.54	1251.31
291.76	1257.45
291.97	1269.74
292.18	1296.36
292.40	1298.41
292.61	1251.31
292.83	1263.60
293.04	1234.93
293.26	1322.99
293.47	1259.50
293.69	1290.22
293.90	1247.21
294.12	1234.93
294.33	1218.54
294.55	1216.49
294.76	1265.64
294.97	1312.75
295.19	1294.32
295.40	1294.32
295.62	1259.50
295.83	1275.88
296.05	1329.13
296.26	1279.98
296.48	1273.84
296.69	1243.12
296.90	1286.12
297.12	1320.94
297.33	1310.70
297.55	1306.60
297.76	1259.50
297.98	1181.68
298.19	1189.87
298.41	1230.83
298.62	1234.93
298.83	1251.31
299.05	1259.50
299.26	1191.92
299.48	1230.83
299.69	1257.45
299.90	1257.45
300.12	1245.16
300.33	1275.88
300.55	1337.32
300.76	1320.94
300.98	1310.70
301.19	1327.08
301.40	1265.64
301.62	1286.12
301.83	1253.36
302.05	1288.17
302.26	1271.79
302.47	1267.69
302.69	1228.78
302.90	1355.76
303.12	1204.21
303.33	1277.93
303.54	1214.45
303.76	1320.94
303.97	1236.97
304.19	1249.26
304.40	1243.12
304.61	1247.21
304.83	1329.13
305.04	1304.56
305.26	1241.07
305.47	1322.99
305.68	1271.79
305.90	1224.69
306.11	1265.64
306.33	1318.89
306.54	1341.42
306.75	1165.29
306.97	1284.08
307.18	1282.03
307.39	1294.32
307.61	1306.60
307.82	1253.36
308.04	1265.64
308.25	1261.55
308.46	1290.22
308.68	1239.02
308.89	1282.03
309.10	1331.18
309.32	1267.69
309.53	1257.45
309.74	1284.08
309.96	1239.02
310.17	1290.22
310.39	1300.46
310.60	1265.64
310.81	1202.16
311.03	1335.28
311.24	1193.97
311.45	1265.64
311.67	1290.22
311.88	1279.98
312.09	1296.36
312.31	1241.07
312.52	1236.97
312.73	1302.51
312.95	1310.70
313.16	1306.60
313.37	1239.02
313.59	1288.17
313.80	1322.99
314.01	1271.79
314.23	1310.70
314.44	1230.83
314.65	1177.58
314.87	1220.59
315.08	1247.21
315.29	1265.64
315.51	1212.40
315.72	1253.36
315.93	1255.40
316.15	1267.69
316.36	1243.12
316.57	1241.07
316.79	1294.32
317.00	1241.07
317.21	1220.59
317.43	1224.69
317.64	1232.88
317.85	1306.60
318.07	1196.01
318.28	1251.31
318.49	1316.84
318.70	1277.93
318.92	1308.65
319.13	1304.56
319.34	1263.60
319.56	1232.88
319.77	1290.22
319.98	1294.32
320.20	1257.45
320.41	1273.84
320.62	1279.98
320.83	1249.26
321.05	1339.37
321.26	1273.84
321.47	1265.64
321.69	1265.64
321.90	1271.79
322.11	1210.35
322.32	1294.32
322.54	1310.70
322.75	1269.74
322.96	1372.14
323.18	1286.12
323.39	1296.36
323.60	1288.17
323.81	1257.45
324.03	1241.07
324.24	1245.16
324.45	1269.74
324.66	1236.97
324.88	1239.02
325.09	1312.75
325.30	1294.32
325.52	1222.64
325.73	1316.84
325.94	1359.85
326.15	1206.25
326.37	1273.84
326.58	1335.28
326.79	1341.42
327.00	1263.60
327.22	1288.17
327.43	1267.69
327.64	1316.84
327.85	1298.41
328.07	1290.22
328.28	1279.98
328.49	1320.94
328.70	1249.26
328.92	1273.84
329.13	1286.12
329.34	1263.60
329.55	1200.11
329.76	1284.08
329.98	1286.12
330.19	1286.12
330.40	1312.75
330.61	1275.88
330.83	1275.88
331.04	1312.75
331.25	1265.64
331.46	1245.16
331.68	1300.46
331.89	1339.37
332.10	1277.93
332.31	1292.27
332.52	1245.16
332.74	1251.31
332.95	1318.89
333.16	1275.88
333.37	1277.93
333.58	1265.64
333.80	1271.79
334.01	1275.88
334.22	1300.46
334.43	1312.75
334.64	1284.08
334.86	1249.26
335.07	1155.05
335.28	1200.11
335.49	1294.32
335.70	1220.59
335.92	1300.46
336.13	1273.84
336.34	1310.70
336.55	1333.23
336.76	1263.60
336.98	1322.99
337.19	1247.21
337.40	1234.93
337.61	1290.22
337.82	1308.65
338.04	1193.97
338.25	1257.45
338.46	1224.69
338.67	1273.84
338.88	1257.45
339.09	1259.50
339.31	1196.01
339.52	1257.45
339.73	1216.49
339.94	1288.17
340.15	1236.97
340.36	1249.26
340.58	1253.36
340.79	1204.21
341.00	1331.18
341.21	1259.50
341.42	1304.56
341.63	1204.21
341.85	1234.93
342.06	1335.28
342.27	1269.74
342.48	1331.18
342.69	1253.36
342.90	1214.45
343.12	1322.99
343.33	1290.22
343.54	1234.93
343.75	1327.08
343.96	1300.46
344.17	1255.40
344.38	1222.64
344.60	1329.13
344.81	1236.97
345.02	1273.84
345.23	1269.74
345.44	1261.55
345.65	1318.89
345.86	1220.59
346.07	1261.55
346.29	1234.93
346.50	1167.34
346.71	1273.84
346.92	1267.69
347.13	1265.64
347.34	1275.88
347.55	1275.88
347.76	1341.42
347.98	1206.25
348.19	1249.26
348.40	1286.12
348.61	1261.55
348.82	1267.69
349.03	1286.12
349.24	1302.51
349.45	1310.70
349.66	1279.98
349.88	1234.93
350.09	1304.56
350.30	1243.12
350.51	1273.84
350.72	1261.55
350.93	1296.36
351.14	1214.45
351.35	1380.33
351.56	1288.17
351.77	1300.46
351.99	1345.52
352.20	1298.41
352.41	1163.25
352.62	1220.59
352.83	1204.21
353.04	1249.26
353.25	1306.60
353.46	1253.36
353.67	1249.26
353.88	1226.73
354.09	1275.88
354.30	1224.69
354.52	1292.27
354.73	1210.35
354.94	1249.26
355.15	1314.80
355.36	1279.98
355.57	1271.79
355.78	1214.45
355.99	1255.40
356.20	1236.97
356.41	1236.97
356.62	1255.40
356.83	1300.46
357.04	1300.46
357.25	1257.45
357.46	1286.12
357.68	1218.54
357.89	1216.49
358.10	1220.59
358.31	1265.64
358.52	1288.17
358.73	1312.75
358.94	1218.54
359.15	1290.22
359.36	1269.74
359.57	1259.50
359.78	1288.17
359.99	1275.88
360.20	1288.17
360.41	1247.21
360.62	1298.41
360.83	1269.74
361.04	1325.04
361.25	1355.76
361.46	1267.69
361.67	1279.98
361.88	1249.26
362.09	1331.18
362.30	1279.98
362.51	1224.69
362.72	1298.41
362.93	1204.21
363.14	1245.16
363.35	1273.84
363.56	1286.12
363.78	1253.36
363.99	1337.32
364.20	1316.84
364.41	1273.84
364.62	1298.41
364.83	1251.31
365.04	1273.84
365.25	1261.55
365.46	1304.56
365.67	1226.73
365.88	1167.34
366.09	1306.60
366.30	1202.16
366.51	1288.17
366.72	1234.93
366.93	1263.60
367.14	1275.88
367.35	1206.25
367.56	1267.69
367.77	1290.22
367.98	1322.99
368.18	1249.26
368.39	1286.12
368.60	1253.36
368.81	1284.08
369.02	1185.77
369.23	1222.64
369.44	1277.93
369.65	1232.88
369.86	1259.50
370.07	1241.07
370.28	1329.13
370.49	1279.98
370.70	1277.93
370.91	1257.45
371.12	1308.65
371.33	1298.41
371.54	1275.88
371.75	1216.49
371.96	1259.50
372.17	1175.53
372.38	1245.16
372.59	1255.40
372.80	1224.69
373.01	1318.89
373.22	1269.74
373.43	1269.74
373.64	1251.31
373.85	1261.55
374.06	1314.80
374.26	1275.88
374.47	1224.69
374.68	1320.94
374.89	1265.64
375.10	1249.26
375.31	1273.84
375.52	1255.40
375.73	1271.79
375.94	1370.09
376.15	1306.60
376.36	1298.41
376.57	1310.70
376.78	1339.37
376.99	1284.08
377.20	1292.27
377.40	1318.89
377.61	1271.79
377.82	1277.93
378.03	1277.93
378.24	1255.40
378.45	1263.60
378.66	1335.28
378.87	1230.83
379.08	1212.40
379.29	1290.22
379.50	1302.51
379.71	1294.32
379.91	1253.36
380.12	1302.51
380.33	1193.97
380.54	1243.12
380.75	1294.32
380.96	1284.08
381.17	1300.46
381.38	1296.36
381.59	1269.74
381.80	1220.59
382.00	1189.87
382.21	1267.69
382.42	1314.80
382.63	1265.64
382.84	1296.36
383.05	1310.70
383.26	1316.84
383.47	1290.22
383.68	1239.02
383.88	1302.51
384.09	1251.31
384.30	1335.28
384.51	1271.79
384.72	1249.26
384.93	1312.75
385.14	1302.51
385.35	1228.78
385.55	1306.60
385.76	1222.64
385.97	1204.21
386.18	1236.97
386.39	1304.56
386.60	1288.17
386.81	1247.21
387.02	1339.37
387.22	1183.73
387.43	1253.36
387.64	1337.32
387.85	1226.73
388.06	1304.56
388.27	1222.64
388.48	1263.60
388.68	1363.95
388.89	1210.35
389.10	1271.79
389.31	1267.69
389.52	1179.63
389.73	1265.64
389.93	1335.28
390.14	1355.76
390.35	1224.69
390.56	1241.07
390.77	1261.55
390.98	1304.56
391.18	1282.03
391.39	1271.79
391.60	1277.93
391.81	1247.21
392.02	1214.45
392.23	1314.80
392.43	1322.99
392.64	1216.49
392.85	1241.07
393.06	1234.93
393.27	1282.03
393.47	1257.45
393.68	1181.68
393.89	1255.40
394.10	1306.60
394.31	1329.13
394.52	1232.88
394.72	1234.93
394.93	1239.02
395.14	1312.75
395.35	1284.08
395.56	1249.26
395.76	1241.07
395.97	1269.74
396.18	1269.74
396.39	1212.40
396.60	1241.07
396.80	1202.16
397.01	1267.69
397.22	1339.37
397.43	1239.02
397.64	1298.41
397.84	1353.71
398.05	1239.02
398.26	1310.70
398.47	1247.21
398.67	1288.17
398.88	1279.98
399.09	1269.74
399.30	1253.36
399.51	1232.88
399.71	1255.40
399.92	1255.40
400.13	1253.36
400.34	1140.72
400.54	1292.27
400.75	1269.74
400.96	1257.45
401.17	1249.26
401.37	1292.27
401.58	1308.65
401.79	1239.02
402.00	1269.74
402.21	1290.22
402.41	1298.41
402.62	1247.21
402.83	1241.07
403.04	1269.74
403.24	1200.11
403.45	1216.49
403.66	1271.79
403.87	1232.88
404.07	1249.26
404.28	1275.88
404.49	1277.93
404.70	1327.08
404.90	1269.74
405.11	1255.40
405.32	1288.17
405.52	1193.97
405.73	1265.64
405.94	1263.60
406.15	1318.89
406.35	1302.51
406.56	1302.51
406.77	1249.26
406.98	1277.93
407.18	1212.40
407.39	1265.64
407.60	1253.36
407.80	1314.80
408.01	1263.60
408.22	1234.93
408.43	1271.79
408.63	1275.88
408.84	1267.69
409.05	1286.12
409.25	1265.64
409.46	1214.45
409.67	1208.30
409.88	1265.64
410.08	1204.21
410.29	1312.75
410.50	1343.47
410.70	1279.98
410.91	1259.50
411.12	1322.99
411.32	1331.18
411.53	1249.26
411.74	1286.12
411.95	1310.70
412.15	1304.56
412.36	1265.64
412.57	1255.40
412.77	1216.49
412.98	1263.60
413.19	1273.84
413.39	1206.25
413.60	1279.98
413.81	1247.21
414.01	1249.26
414.22	1206.25
414.43	1288.17
414.63	1230.83
414.84	1322.99
415.05	1243.12
415.25	1198.06
415.46	1243.12
415.67	1325.04
415.87	1263.60
416.08	1181.68
416.29	1300.46
416.49	1370.09
416.70	1234.93
416.91	1189.87
417.11	1265.64
417.32	1357.80
417.53	1228.78
417.73	1230.83
417.94	1261.55
418.15	1234.93
418.35	1331.18
418.56	1286.12
418.77	1214.45
418.97	1296.36
419.18	1210.35
419.38	1232.88
419.59	1302.51
419.80	1239.02
420.00	1298.41
420.21	1273.84
420.42	1282.03
420.62	1265.64
420.83	1241.07
421.04	1216.49
421.24	1224.69
421.45	1220.59
421.65	1294.32
421.86	1218.54
422.07	1206.25
422.27	1243.12
422.48	1312.75
422.69	1298.41
422.89	1273.84
423.10	1302.51
423.30	1290.22
423.51	1304.56
423.72	1304.56
423.92	1306.60
424.13	1290.22
424.33	1288.17
424.54	1333.23
424.75	1198.06
424.95	1255.40
425.16	1333.23
425.36	1284.08
425.57	1304.56
425.78	1224.69
425.98	1288.17
426.19	1296.36
426.39	1341.42
426.60	1218.54
426.81	1304.56
427.01	1306.60
427.22	1314.80
427.42	1284.08
427.63	1331.18
427.83	1236.97
428.04	1232.88
428.25	1232.88
428.45	1325.04
428.66	1241.07
428.86	1259.50
429.07	1302.51
429.28	1277.93
429.48	1265.64
429.69	1230.83
429.89	1290.22
430.10	1267.69
430.30	1249.26
430.51	1279.98
430.71	1265.64
430.92	1202.16
431.13	1236.97
431.33	1253.36
431.54	1269.74
431.74	1290.22
431.95	1294.32
432.15	1265.64
432.36	1329.13
432.56	1314.80
432.77	1292.27
432.98	1263.60
433.18	1308.65
433.39	1214.45
433.59	1269.74
433.80	1277.93
434.00	1257.45
434.21	1331.18
434.41	1290.22
434.62	1247.21
434.82	1298.41
435.03	1302.51
435.23	1335.28
435.44	1198.06
435.64	1245.16
435.85	1239.02
436.06	1269.74
436.26	1277.93
436.47	1273.84
436.67	1218.54
436.88	1308.65
437.08	1261.55
437.29	1300.46
437.49	1320.94
437.70	1218.54
437.90	1337.32
438.11	1288.17
438.31	1298.41
438.52	1304.56
438.72	1200.11
438.93	1339.37
439.13	1193.97
439.34	1241.07
439.54	1247.21
439.75	1343.47
439.95	1300.46
440.16	1269.74
440.36	1224.69
440.57	1206.25
440.77	1290.22
440.98	1236.97
441.18	1232.88
441.39	1310.70
441.59	1214.45
441.80	1296.36
442.00	1234.93
442.21	1284.08
442.41	1337.32
442.62	1236.97
442.82	1271.79
443.02	1273.84
443.23	1230.83
443.43	1259.50
443.64	1292.27
443.84	1282.03
444.05	1288.17
444.25	1300.46
444.46	1218.54
444.66	1255.40
444.87	1296.36
445.07	1275.88
445.28	1259.50
445.48	1282.03
445.69	1204.21
445.89	1306.60
446.09	1337.32
446.30	1331.18
446.50	1286.12
446.71	1275.88
446.91	1292.27
447.12	1290.22
447.32	1191.92
447.53	1239.02
447.73	1286.12
447.93	1239.02
448.14	1267.69
448.34	1316.84
448.55	1241.07
448.75	1310.70
448.96	1269.74
449.16	1249.26
449.36	1363.95
449.57	1302.51
449.77	1308.65
449.98	1259.50
450.18	1269.74
450.39	1251.31
450.59	1267.69
450.79	1251.31
451.00	1271.79
451.20	1312.75
451.41	1300.46
451.61	1267.69
451.81	1314.80
452.02	1310.70
452.22	1275.88
452.43	1224.69
452.63	1298.41
