SpectraSuite Data File
++++++++++++++++++++++++++++++++++++
Date: Sun Apr 03 19:55:23 CEST 2016
User: root
Dark Spectrum Present: No
Reference Spectrum Present: No
Number of Sampled Component Spectra: 1
Spectrometers: USB4C02835
Integration Time (usec): 10000 (USB4C02835)
Spectra Averaged: 1 (USB4C02835)
Boxcar Smoothing: 0 (USB4C02835)
Correct for Electrical Dark: No (USB4C02835)
Strobe/Lamp Enabled: No (USB4C02835)
Correct for Detector Non-linearity: No (USB4C02835)
Correct for Stray Light: No (USB4C02835)
Number of Pixels in Processed Spectrum: 3648
>>>>>Begin Processed Spectral Data<<<<<
177.47	1269.74
177.69	1269.74
177.91	1269.74
178.13	1249.26
178.36	1273.84
178.58	1277.93
178.80	1212.40
179.02	1200.11
179.24	1259.50
179.46	1267.69
179.68	1333.23
179.90	1265.64
180.13	1253.36
180.35	1312.75
180.57	1236.97
180.79	1304.56
181.01	1277.93
181.23	1306.60
181.45	1306.60
181.67	1296.36
181.90	1306.60
182.12	1234.93
182.34	1234.93
182.56	1265.64
182.78	1290.22
183.00	1306.60
183.22	1275.88
183.44	1173.49
183.66	1329.13
183.89	1245.16
184.11	1251.31
184.33	1282.03
184.55	1277.93
184.77	1249.26
184.99	1245.16
185.21	1236.97
185.43	1290.22
185.65	1230.83
185.87	1257.45
186.10	1228.78
186.32	1255.40
186.54	1277.93
186.76	1294.32
186.98	1294.32
187.20	1363.95
187.42	1329.13
187.64	1208.30
187.86	1171.44
188.08	1282.03
188.30	1288.17
188.52	1234.93
188.75	1255.40
188.97	1345.52
189.19	1253.36
189.41	1331.18
189.63	1318.89
189.85	1290.22
190.07	1228.78
190.29	1279.98
190.51	1267.69
190.73	1320.94
190.95	1273.84
191.17	1284.08
191.39	1208.30
191.61	1314.80
191.84	1210.35
192.06	1310.70
192.28	1275.88
192.50	1243.12
192.72	1243.12
192.94	1273.84
193.16	1286.12
193.38	1279.98
193.60	1263.60
193.82	1241.07
194.04	1267.69
194.26	1257.45
194.48	1253.36
194.70	1267.69
194.92	1269.74
195.14	1286.12
195.36	1208.30
195.58	1277.93
195.80	1294.32
196.02	1234.93
196.24	1271.79
196.46	1306.60
196.69	1224.69
196.91	1327.08
197.13	1222.64
197.35	1267.69
197.57	1243.12
197.79	1224.69
198.01	1304.56
198.23	1282.03
198.45	1290.22
198.67	1288.17
198.89	1284.08
199.11	1314.80
199.33	1253.36
199.55	1265.64
199.77	1230.83
199.99	1222.64
200.21	1257.45
200.43	1282.03
200.65	1294.32
200.87	1304.56
201.09	1308.65
201.31	1265.64
201.53	1263.60
201.75	1316.84
201.97	1249.26
202.19	1245.16
202.41	1257.45
202.63	1261.55
202.85	1257.45
203.07	1294.32
203.29	1275.88
203.51	1296.36
203.73	1273.84
203.95	1284.08
204.17	1265.64
204.39	1257.45
204.61	1234.93
204.83	1294.32
205.05	1265.64
205.27	1269.74
205.49	1298.41
205.71	1253.36
205.93	1259.50
206.15	1347.56
206.37	1243.12
206.59	1273.84
206.81	1241.07
207.03	1200.11
207.25	1300.46
207.47	1302.51
207.69	1257.45
207.91	1277.93
208.13	1306.60
208.34	1320.94
208.56	1277.93
208.78	1329.13
209.00	1259.50
209.22	1247.21
209.44	1288.17
209.66	1298.41
209.88	1318.89
210.10	1320.94
210.32	1271.79
210.54	1282.03
210.76	1292.27
210.98	1275.88
211.20	1253.36
211.42	1294.32
211.64	1314.80
211.86	1226.73
212.08	1298.41
212.30	1222.64
212.52	1196.01
212.74	1243.12
212.96	1249.26
213.17	1312.75
213.39	1282.03
213.61	1271.79
213.83	1214.45
214.05	1292.27
214.27	1300.46
214.49	1306.60
214.71	1263.60
214.93	1294.32
215.15	1288.17
215.37	1245.16
215.59	1193.97
215.81	1253.36
216.03	1253.36
216.24	1294.32
216.46	1239.02
216.68	1271.79
216.90	1230.83
217.12	1302.51
217.34	1220.59
217.56	1241.07
217.78	1155.05
218.00	1286.12
218.22	1341.42
218.44	1279.98
218.66	1206.25
218.87	1310.70
219.09	1269.74
219.31	1245.16
219.53	1259.50
219.75	1241.07
219.97	1290.22
220.19	1320.94
220.41	1200.11
220.63	1275.88
220.85	1255.40
221.06	1232.88
221.28	1314.80
221.50	1277.93
221.72	1265.64
221.94	1232.88
222.16	1245.16
222.38	1230.83
222.60	1183.73
222.82	1282.03
223.03	1230.83
223.25	1343.47
223.47	1286.12
223.69	1251.31
223.91	1261.55
224.13	1279.98
224.35	1271.79
224.57	1273.84
224.78	1296.36
225.00	1306.60
225.22	1241.07
225.44	1337.32
225.66	1302.51
225.88	1269.74
226.10	1322.99
226.32	1234.93
226.53	1325.04
226.75	1269.74
226.97	1234.93
227.19	1302.51
227.41	1331.18
227.63	1306.60
227.85	1290.22
228.06	1251.31
228.28	1333.23
228.50	1279.98
228.72	1269.74
228.94	1290.22
229.16	1277.93
229.37	1206.25
229.59	1269.74
229.81	1279.98
230.03	1245.16
230.25	1181.68
230.47	1234.93
230.69	1275.88
230.90	1263.60
231.12	1263.60
231.34	1210.35
231.56	1302.51
231.78	1224.69
232.00	1269.74
232.21	1308.65
232.43	1234.93
232.65	1257.45
232.87	1200.11
233.09	1335.28
233.30	1228.78
233.52	1277.93
233.74	1277.93
233.96	1314.80
234.18	1265.64
234.40	1140.72
234.61	1232.88
234.83	1175.53
235.05	1243.12
235.27	1322.99
235.49	1226.73
235.70	1300.46
235.92	1265.64
236.14	1204.21
236.36	1277.93
236.58	1210.35
236.79	1273.84
237.01	1253.36
237.23	1337.32
237.45	1284.08
237.67	1263.60
237.88	1316.84
238.10	1163.25
238.32	1232.88
238.54	1296.36
238.76	1288.17
238.97	1302.51
239.19	1251.31
239.41	1232.88
239.63	1251.31
239.85	1247.21
240.06	1255.40
240.28	1265.64
240.50	1296.36
240.72	1308.65
240.93	1290.22
241.15	1282.03
241.37	1234.93
241.59	1275.88
241.81	1269.74
242.02	1279.98
242.24	1263.60
242.46	1230.83
242.68	1355.76
242.89	1306.60
243.11	1257.45
243.33	1308.65
243.55	1220.59
243.76	1230.83
243.98	1224.69
244.20	1304.56
244.42	1255.40
244.64	1255.40
244.85	1273.84
245.07	1345.52
245.29	1222.64
245.51	1275.88
245.72	1257.45
245.94	1216.49
246.16	1273.84
246.38	1210.35
246.59	1320.94
246.81	1296.36
247.03	1251.31
247.24	1294.32
247.46	1275.88
247.68	1288.17
247.90	1234.93
248.11	1271.79
248.33	1296.36
248.55	1253.36
248.77	1249.26
248.98	1329.13
249.20	1228.78
249.42	1261.55
249.64	1241.07
249.85	1284.08
250.07	1306.60
250.29	1279.98
250.50	1271.79
250.72	1273.84
250.94	1257.45
251.16	1249.26
251.37	1302.51
251.59	1282.03
251.81	1224.69
252.02	1290.22
252.24	1269.74
252.46	1374.19
252.68	1273.84
252.89	1243.12
253.11	1286.12
253.33	1241.07
253.54	1257.45
253.76	1310.70
253.98	1275.88
254.20	1282.03
254.41	1216.49
254.63	1257.45
254.85	1236.97
255.06	1247.21
255.28	1363.95
255.50	1271.79
255.71	1298.41
255.93	1257.45
256.15	1292.27
256.36	1222.64
256.58	1286.12
256.80	1249.26
257.02	1308.65
257.23	1263.60
257.45	1282.03
257.67	1327.08
257.88	1255.40
258.10	1243.12
258.32	1239.02
258.53	1279.98
258.75	1255.40
258.97	1294.32
259.18	1230.83
259.40	1304.56
259.62	1236.97
259.83	1251.31
260.05	1259.50
260.27	1232.88
260.48	1308.65
260.70	1325.04
260.92	1282.03
261.13	1322.99
261.35	1269.74
261.57	1241.07
261.78	1257.45
262.00	1279.98
262.22	1271.79
262.43	1286.12
262.65	1306.60
262.86	1292.27
263.08	1200.11
263.30	1271.79
263.51	1222.64
263.73	1265.64
263.95	1234.93
264.16	1239.02
264.38	1265.64
264.60	1247.21
264.81	1300.46
265.03	1234.93
265.25	1181.68
265.46	1255.40
265.68	1339.37
265.89	1271.79
266.11	1224.69
266.33	1257.45
266.54	1310.70
266.76	1206.25
266.98	1251.31
267.19	1312.75
267.41	1300.46
267.62	1279.98
267.84	1222.64
268.06	1302.51
268.27	1312.75
268.49	1271.79
268.70	1261.55
268.92	1232.88
269.14	1208.30
269.35	1345.52
269.57	1282.03
269.79	1249.26
270.00	1239.02
270.22	1247.21
270.43	1234.93
270.65	1253.36
270.87	1277.93
271.08	1273.84
271.30	1279.98
271.51	1265.64
271.73	1249.26
271.95	1273.84
272.16	1294.32
272.38	1308.65
272.59	1318.89
272.81	1232.88
273.02	1286.12
273.24	1308.65
273.46	1267.69
273.67	1239.02
273.89	1216.49
274.10	1288.17
274.32	1284.08
274.54	1224.69
274.75	1337.32
274.97	1261.55
275.18	1241.07
275.40	1263.60
275.61	1279.98
275.83	1357.80
276.05	1290.22
276.26	1263.60
276.48	1288.17
276.69	1308.65
276.91	1198.06
277.12	1329.13
277.34	1312.75
277.55	1343.47
277.77	1220.59
277.99	1279.98
278.20	1286.12
278.42	1206.25
278.63	1253.36
278.85	1277.93
279.06	1302.51
279.28	1263.60
279.49	1331.18
279.71	1298.41
279.93	1236.97
280.14	1275.88
280.36	1241.07
280.57	1255.40
280.79	1308.65
281.00	1144.81
281.22	1232.88
281.43	1232.88
281.65	1230.83
281.86	1243.12
282.08	1218.54
282.29	1318.89
282.51	1249.26
282.73	1200.11
282.94	1218.54
283.16	1267.69
283.37	1286.12
283.59	1239.02
283.80	1257.45
284.02	1277.93
284.23	1347.56
284.45	1353.71
284.66	1353.71
284.88	1298.41
285.09	1183.73
285.31	1239.02
285.52	1357.80
285.74	1224.69
285.95	1191.92
286.17	1275.88
286.38	1288.17
286.60	1300.46
286.81	1261.55
287.03	1206.25
287.24	1298.41
287.46	1343.47
287.67	1329.13
287.89	1331.18
288.10	1267.69
288.32	1286.12
288.53	1236.97
288.75	1259.50
288.96	1282.03
289.18	1265.64
289.39	1306.60
289.61	1253.36
289.82	1290.22
290.04	1263.60
290.25	1273.84
290.47	1247.21
290.68	1370.09
290.90	1314.80
291.11	1294.32
291.33	1294.32
291.54	1243.12
291.76	1288.17
291.97	1296.36
292.18	1322.99
292.40	1259.50
292.61	1269.74
292.83	1269.74
293.04	1243.12
293.26	1310.70
293.47	1284.08
293.69	1273.84
293.90	1335.28
294.12	1251.31
294.33	1273.84
294.55	1257.45
294.76	1300.46
294.97	1263.60
295.19	1318.89
295.40	1314.80
295.62	1236.97
295.83	1185.77
296.05	1302.51
296.26	1304.56
296.48	1177.58
296.69	1279.98
296.90	1306.60
297.12	1282.03
297.33	1271.79
297.55	1288.17
297.76	1302.51
297.98	1304.56
298.19	1216.49
298.41	1232.88
298.62	1234.93
298.83	1290.22
299.05	1333.23
299.26	1218.54
299.48	1265.64
299.69	1306.60
299.90	1275.88
300.12	1298.41
300.33	1325.04
300.55	1181.68
300.76	1249.26
300.98	1247.21
301.19	1183.73
301.40	1224.69
301.62	1228.78
301.83	1279.98
302.05	1236.97
302.26	1224.69
302.47	1241.07
302.69	1261.55
302.90	1259.50
303.12	1216.49
303.33	1361.90
303.54	1310.70
303.76	1212.40
303.97	1302.51
304.19	1298.41
304.40	1284.08
304.61	1241.07
304.83	1290.22
305.04	1288.17
305.26	1282.03
305.47	1327.08
305.68	1265.64
305.90	1232.88
306.11	1263.60
306.33	1142.77
306.54	1241.07
306.75	1193.97
306.97	1269.74
307.18	1261.55
307.39	1255.40
307.61	1298.41
307.82	1241.07
308.04	1302.51
308.25	1243.12
308.46	1282.03
308.68	1234.93
308.89	1275.88
309.10	1308.65
309.32	1298.41
309.53	1245.16
309.74	1279.98
309.96	1259.50
310.17	1282.03
310.39	1208.30
310.60	1269.74
310.81	1316.84
311.03	1271.79
311.24	1247.21
311.45	1245.16
311.67	1314.80
311.88	1224.69
312.09	1290.22
312.31	1249.26
312.52	1243.12
312.73	1290.22
312.95	1304.56
313.16	1200.11
313.37	1241.07
313.59	1331.18
313.80	1306.60
314.01	1282.03
314.23	1263.60
314.44	1267.69
314.65	1275.88
314.87	1304.56
315.08	1257.45
315.29	1329.13
315.51	1273.84
315.72	1279.98
315.93	1265.64
316.15	1196.01
316.36	1265.64
316.57	1292.27
316.79	1269.74
317.00	1269.74
317.21	1226.73
317.43	1284.08
317.64	1290.22
317.85	1230.83
318.07	1249.26
318.28	1298.41
318.49	1267.69
318.70	1318.89
318.92	1265.64
319.13	1306.60
319.34	1331.18
319.56	1261.55
319.77	1279.98
319.98	1236.97
320.20	1357.80
320.41	1267.69
320.62	1331.18
320.83	1187.82
321.05	1333.23
321.26	1286.12
321.47	1337.32
321.69	1263.60
321.90	1271.79
322.11	1290.22
322.32	1251.31
322.54	1310.70
322.75	1191.92
322.96	1304.56
323.18	1275.88
323.39	1191.92
323.60	1296.36
323.81	1249.26
324.03	1249.26
324.24	1302.51
324.45	1214.45
324.66	1249.26
324.88	1265.64
325.09	1288.17
325.30	1316.84
325.52	1212.40
325.73	1300.46
325.94	1232.88
326.15	1257.45
326.37	1261.55
326.58	1241.07
326.79	1271.79
327.00	1241.07
327.22	1247.21
327.43	1265.64
327.64	1302.51
327.85	1314.80
328.07	1282.03
328.28	1236.97
328.49	1304.56
328.70	1304.56
328.92	1284.08
329.13	1282.03
329.34	1275.88
329.55	1232.88
329.76	1251.31
329.98	1236.97
330.19	1288.17
330.40	1255.40
330.61	1255.40
330.83	1306.60
331.04	1302.51
331.25	1193.97
331.46	1265.64
331.68	1294.32
331.89	1224.69
332.10	1282.03
332.31	1214.45
332.52	1247.21
332.74	1200.11
332.95	1181.68
333.16	1322.99
333.37	1265.64
333.58	1230.83
333.80	1257.45
334.01	1294.32
334.22	1220.59
334.43	1236.97
334.64	1253.36
334.86	1267.69
335.07	1296.36
335.28	1255.40
335.49	1230.83
335.70	1253.36
335.92	1300.46
336.13	1234.93
336.34	1241.07
336.55	1312.75
336.76	1277.93
336.98	1236.97
337.19	1232.88
337.40	1249.26
337.61	1259.50
337.82	1226.73
338.04	1302.51
338.25	1232.88
338.46	1224.69
338.67	1304.56
338.88	1179.63
339.09	1230.83
339.31	1249.26
339.52	1253.36
339.73	1230.83
339.94	1288.17
340.15	1275.88
340.36	1191.92
340.58	1294.32
340.79	1263.60
341.00	1327.08
341.21	1273.84
341.42	1273.84
341.63	1253.36
341.85	1312.75
342.06	1320.94
342.27	1251.31
342.48	1279.98
342.69	1206.25
342.90	1232.88
343.12	1269.74
343.33	1265.64
343.54	1224.69
343.75	1183.73
343.96	1241.07
344.17	1290.22
344.38	1304.56
344.60	1290.22
344.81	1273.84
345.02	1257.45
345.23	1255.40
345.44	1259.50
345.65	1327.08
345.86	1298.41
346.07	1230.83
346.29	1300.46
346.50	1318.89
346.71	1312.75
346.92	1220.59
347.13	1310.70
347.34	1259.50
347.55	1282.03
347.76	1239.02
347.98	1300.46
348.19	1212.40
348.40	1300.46
348.61	1269.74
348.82	1222.64
349.03	1236.97
349.24	1337.32
349.45	1210.35
349.66	1208.30
349.88	1259.50
350.09	1228.78
350.30	1304.56
350.51	1255.40
350.72	1286.12
350.93	1263.60
351.14	1298.41
351.35	1224.69
351.56	1292.27
351.77	1306.60
351.99	1216.49
352.20	1312.75
352.41	1339.37
352.62	1196.01
352.83	1255.40
353.04	1191.92
353.25	1282.03
353.46	1286.12
353.67	1204.21
353.88	1292.27
354.09	1318.89
354.30	1243.12
354.52	1284.08
354.73	1259.50
354.94	1284.08
355.15	1241.07
355.36	1255.40
355.57	1353.71
355.78	1277.93
355.99	1249.26
356.20	1222.64
356.41	1290.22
356.62	1241.07
356.83	1306.60
357.04	1243.12
357.25	1271.79
357.46	1236.97
357.68	1318.89
357.89	1224.69
358.10	1298.41
358.31	1214.45
358.52	1306.60
358.73	1247.21
358.94	1245.16
359.15	1312.75
359.36	1224.69
359.57	1279.98
359.78	1314.80
359.99	1329.13
360.20	1322.99
360.41	1245.16
360.62	1339.37
360.83	1269.74
361.04	1206.25
361.25	1259.50
361.46	1271.79
361.67	1222.64
361.88	1277.93
362.09	1279.98
362.30	1294.32
362.51	1255.40
362.72	1247.21
362.93	1277.93
363.14	1296.36
363.35	1234.93
363.56	1314.80
363.78	1257.45
363.99	1320.94
364.20	1271.79
364.41	1292.27
364.62	1257.45
364.83	1290.22
365.04	1189.87
365.25	1257.45
365.46	1306.60
365.67	1275.88
365.88	1247.21
366.09	1247.21
366.30	1277.93
366.51	1273.84
366.72	1222.64
366.93	1251.31
367.14	1320.94
367.35	1204.21
367.56	1234.93
367.77	1257.45
367.98	1236.97
368.18	1265.64
368.39	1290.22
368.60	1298.41
368.81	1241.07
369.02	1320.94
369.23	1263.60
369.44	1304.56
369.65	1273.84
369.86	1292.27
370.07	1298.41
370.28	1253.36
370.49	1216.49
370.70	1279.98
370.91	1173.49
371.12	1282.03
371.33	1214.45
371.54	1275.88
371.75	1255.40
371.96	1257.45
372.17	1282.03
372.38	1310.70
372.59	1345.52
372.80	1220.59
373.01	1306.60
373.22	1296.36
373.43	1337.32
373.64	1325.04
373.85	1183.73
374.06	1288.17
374.26	1222.64
374.47	1273.84
374.68	1255.40
374.89	1257.45
375.10	1230.83
375.31	1300.46
375.52	1206.25
375.73	1257.45
375.94	1208.30
376.15	1279.98
376.36	1259.50
376.57	1290.22
376.78	1271.79
376.99	1257.45
377.20	1232.88
377.40	1261.55
377.61	1277.93
377.82	1224.69
378.03	1333.23
378.24	1263.60
378.45	1265.64
378.66	1302.51
378.87	1261.55
379.08	1322.99
379.29	1208.30
379.50	1236.97
379.71	1282.03
379.91	1298.41
380.12	1187.82
380.33	1282.03
380.54	1320.94
380.75	1228.78
380.96	1263.60
381.17	1214.45
381.38	1210.35
381.59	1257.45
381.80	1187.82
382.00	1284.08
382.21	1261.55
382.42	1318.89
382.63	1339.37
382.84	1271.79
383.05	1277.93
383.26	1263.60
383.47	1314.80
383.68	1290.22
383.88	1249.26
384.09	1312.75
384.30	1292.27
384.51	1218.54
384.72	1290.22
384.93	1310.70
385.14	1294.32
385.35	1302.51
385.55	1212.40
385.76	1257.45
385.97	1304.56
386.18	1298.41
386.39	1245.16
386.60	1257.45
386.81	1269.74
387.02	1265.64
387.22	1269.74
387.43	1253.36
387.64	1261.55
387.85	1304.56
388.06	1232.88
388.27	1333.23
388.48	1247.21
388.68	1298.41
388.89	1327.08
389.10	1298.41
389.31	1216.49
389.52	1298.41
389.73	1257.45
389.93	1284.08
390.14	1304.56
390.35	1273.84
390.56	1316.84
390.77	1241.07
390.98	1222.64
391.18	1255.40
391.39	1204.21
391.60	1216.49
391.81	1292.27
392.02	1232.88
392.23	1337.32
392.43	1271.79
392.64	1290.22
392.85	1228.78
393.06	1243.12
393.27	1300.46
393.47	1216.49
393.68	1204.21
393.89	1224.69
394.10	1277.93
394.31	1296.36
394.52	1306.60
394.72	1298.41
394.93	1279.98
395.14	1339.37
395.35	1251.31
395.56	1292.27
395.76	1159.15
395.97	1316.84
396.18	1228.78
396.39	1296.36
396.60	1312.75
396.80	1292.27
397.01	1304.56
397.22	1265.64
397.43	1269.74
397.64	1249.26
397.84	1357.80
398.05	1267.69
398.26	1322.99
398.47	1200.11
398.67	1236.97
398.88	1263.60
399.09	1265.64
399.30	1331.18
399.51	1269.74
399.71	1296.36
399.92	1290.22
400.13	1208.30
400.34	1255.40
400.54	1290.22
400.75	1251.31
400.96	1183.73
401.17	1234.93
401.37	1310.70
401.58	1267.69
401.79	1277.93
402.00	1282.03
402.21	1292.27
402.41	1263.60
402.62	1234.93
402.83	1228.78
403.04	1210.35
403.24	1267.69
403.45	1298.41
403.66	1255.40
403.87	1290.22
404.07	1263.60
404.28	1214.45
404.49	1314.80
404.70	1253.36
404.90	1271.79
405.11	1236.97
405.32	1316.84
405.52	1241.07
405.73	1269.74
405.94	1298.41
406.15	1288.17
406.35	1216.49
406.56	1271.79
406.77	1214.45
406.98	1224.69
407.18	1261.55
407.39	1304.56
407.60	1308.65
407.80	1370.09
408.01	1290.22
408.22	1292.27
408.43	1245.16
408.63	1224.69
408.84	1241.07
409.05	1265.64
409.25	1255.40
409.46	1245.16
409.67	1257.45
409.88	1249.26
410.08	1243.12
410.29	1265.64
410.50	1290.22
410.70	1224.69
410.91	1241.07
411.12	1263.60
411.32	1224.69
411.53	1259.50
411.74	1337.32
411.95	1286.12
412.15	1290.22
412.36	1347.56
412.57	1296.36
412.77	1288.17
412.98	1251.31
413.19	1232.88
413.39	1183.73
413.60	1318.89
413.81	1310.70
414.01	1200.11
414.22	1300.46
414.43	1273.84
414.63	1269.74
414.84	1218.54
415.05	1210.35
415.25	1269.74
415.46	1255.40
415.67	1322.99
415.87	1290.22
416.08	1347.56
416.29	1282.03
416.49	1241.07
416.70	1265.64
416.91	1265.64
417.11	1322.99
417.32	1335.28
417.53	1314.80
417.73	1294.32
417.94	1259.50
418.15	1290.22
418.35	1290.22
418.56	1298.41
418.77	1302.51
418.97	1259.50
419.18	1314.80
419.38	1298.41
419.59	1212.40
419.80	1329.13
420.00	1306.60
420.21	1288.17
420.42	1284.08
420.62	1212.40
420.83	1226.73
421.04	1294.32
421.24	1290.22
421.45	1267.69
421.65	1351.66
421.86	1232.88
422.07	1288.17
422.27	1296.36
422.48	1208.30
422.69	1261.55
422.89	1241.07
423.10	1247.21
423.30	1249.26
423.51	1265.64
423.72	1161.20
423.92	1298.41
424.13	1193.97
424.33	1265.64
424.54	1206.25
424.75	1298.41
424.95	1202.16
425.16	1312.75
425.36	1306.60
425.57	1247.21
425.78	1312.75
425.98	1306.60
426.19	1212.40
426.39	1347.56
426.60	1189.87
426.81	1343.47
427.01	1271.79
427.22	1243.12
427.42	1273.84
427.63	1224.69
427.83	1243.12
428.04	1265.64
428.25	1253.36
428.45	1345.52
428.66	1267.69
428.86	1304.56
429.07	1200.11
429.28	1314.80
429.48	1298.41
429.69	1243.12
429.89	1304.56
430.10	1259.50
430.30	1339.37
430.51	1267.69
430.71	1257.45
430.92	1325.04
431.13	1310.70
431.33	1282.03
431.54	1265.64
431.74	1206.25
431.95	1243.12
432.15	1292.27
432.36	1275.88
432.56	1325.04
432.77	1288.17
432.98	1314.80
433.18	1257.45
433.39	1282.03
433.59	1304.56
433.80	1308.65
434.00	1310.70
434.21	1261.55
434.41	1200.11
434.62	1247.21
434.82	1200.11
435.03	1236.97
435.23	1206.25
435.44	1232.88
435.64	1226.73
435.85	1263.60
436.06	1290.22
436.26	1310.70
436.47	1261.55
436.67	1292.27
436.88	1253.36
437.08	1304.56
437.29	1200.11
437.49	1284.08
437.70	1275.88
437.90	1288.17
438.11	1302.51
438.31	1269.74
438.52	1212.40
438.72	1300.46
438.93	1298.41
439.13	1322.99
439.34	1277.93
439.54	1230.83
439.75	1310.70
439.95	1296.36
440.16	1304.56
440.36	1263.60
440.57	1284.08
440.77	1261.55
440.98	1239.02
441.18	1241.07
441.39	1257.45
441.59	1329.13
441.80	1257.45
442.00	1325.04
442.21	1245.16
442.41	1226.73
442.62	1261.55
442.82	1251.31
443.02	1249.26
443.23	1304.56
443.43	1236.97
443.64	1290.22
443.84	1284.08
444.05	1345.52
444.25	1306.60
444.46	1279.98
444.66	1296.36
444.87	1277.93
445.07	1290.22
445.28	1271.79
445.48	1310.70
445.69	1282.03
445.89	1288.17
446.09	1232.88
446.30	1247.21
446.50	1257.45
446.71	1245.16
446.91	1290.22
447.12	1269.74
447.32	1318.89
447.53	1363.95
447.73	1306.60
447.93	1257.45
448.14	1294.32
448.34	1298.41
448.55	1210.35
448.75	1251.31
448.96	1261.55
449.16	1212.40
449.36	1277.93
449.57	1251.31
449.77	1236.97
449.98	1312.75
450.18	1222.64
450.39	1263.60
450.59	1279.98
450.79	1286.12
451.00	1294.32
451.20	1310.70
451.41	1273.84
451.61	1277.93
451.81	1302.51
452.02	1200.11
452.22	1267.69
452.43	1327.08
452.63	1292.27
