SpectraSuite Data File
++++++++++++++++++++++++++++++++++++
Date: Sun Apr 03 19:55:46 CEST 2016
User: root
Dark Spectrum Present: No
Reference Spectrum Present: No
Number of Sampled Component Spectra: 1
Spectrometers: USB4C02835
Integration Time (usec): 10000 (USB4C02835)
Spectra Averaged: 1 (USB4C02835)
Boxcar Smoothing: 0 (USB4C02835)
Correct for Electrical Dark: No (USB4C02835)
Strobe/Lamp Enabled: No (USB4C02835)
Correct for Detector Non-linearity: No (USB4C02835)
Correct for Stray Light: No (USB4C02835)
Number of Pixels in Processed Spectrum: 3648
>>>>>Begin Processed Spectral Data<<<<<
177.47	1239.02
177.69	1239.02
177.91	1239.02
178.13	1286.12
178.36	1191.92
178.58	1241.07
178.80	1249.26
179.02	1228.78
179.24	1331.18
179.46	1263.60
179.68	1294.32
179.90	1265.64
180.13	1329.13
180.35	1224.69
180.57	1214.45
180.79	1282.03
181.01	1306.60
181.23	1304.56
181.45	1243.12
181.67	1249.26
181.90	1253.36
182.12	1249.26
182.34	1236.97
182.56	1314.80
182.78	1263.60
183.00	1304.56
183.22	1165.29
183.44	1273.84
183.66	1294.32
183.89	1191.92
184.11	1279.98
184.33	1236.97
184.55	1290.22
184.77	1202.16
184.99	1333.23
185.21	1247.21
185.43	1325.04
185.65	1302.51
185.87	1263.60
186.10	1296.36
186.32	1265.64
186.54	1306.60
186.76	1204.21
186.98	1292.27
187.20	1331.18
187.42	1226.73
187.64	1220.59
187.86	1236.97
188.08	1251.31
188.30	1257.45
188.52	1208.30
188.75	1216.49
188.97	1218.54
189.19	1236.97
189.41	1239.02
189.63	1247.21
189.85	1271.79
190.07	1236.97
190.29	1339.37
190.51	1265.64
190.73	1187.82
190.95	1261.55
191.17	1216.49
191.39	1277.93
191.61	1241.07
191.84	1206.25
192.06	1167.34
192.28	1222.64
192.50	1286.12
192.72	1327.08
192.94	1282.03
193.16	1275.88
193.38	1243.12
193.60	1212.40
193.82	1263.60
194.04	1288.17
194.26	1322.99
194.48	1236.97
194.70	1257.45
194.92	1247.21
195.14	1220.59
195.36	1218.54
195.58	1310.70
195.80	1296.36
196.02	1259.50
196.24	1212.40
196.46	1302.51
196.69	1187.82
196.91	1222.64
197.13	1255.40
197.35	1296.36
197.57	1298.41
197.79	1288.17
198.01	1241.07
198.23	1314.80
198.45	1196.01
198.67	1306.60
198.89	1308.65
199.11	1292.27
199.33	1277.93
199.55	1243.12
199.77	1210.35
199.99	1290.22
200.21	1222.64
200.43	1279.98
200.65	1304.56
200.87	1239.02
201.09	1261.55
201.31	1241.07
201.53	1411.05
201.75	1275.88
201.97	1214.45
202.19	1189.87
202.41	1232.88
202.63	1284.08
202.85	1290.22
203.07	1327.08
203.29	1249.26
203.51	1308.65
203.73	1320.94
203.95	1273.84
204.17	1269.74
204.39	1296.36
204.61	1374.19
204.83	1243.12
205.05	1253.36
205.27	1290.22
205.49	1234.93
205.71	1239.02
205.93	1337.32
206.15	1286.12
206.37	1337.32
206.59	1224.69
206.81	1241.07
207.03	1265.64
207.25	1282.03
207.47	1222.64
207.69	1241.07
207.91	1298.41
208.13	1314.80
208.34	1257.45
208.56	1279.98
208.78	1206.25
209.00	1310.70
209.22	1165.29
209.44	1236.97
209.66	1245.16
209.88	1255.40
210.10	1245.16
210.32	1263.60
210.54	1310.70
210.76	1247.21
210.98	1267.69
211.20	1204.21
211.42	1282.03
211.64	1277.93
211.86	1273.84
212.08	1234.93
212.30	1279.98
212.52	1255.40
212.74	1277.93
212.96	1216.49
213.17	1273.84
213.39	1220.59
213.61	1325.04
213.83	1241.07
214.05	1282.03
214.27	1263.60
214.49	1255.40
214.71	1298.41
214.93	1243.12
215.15	1161.20
215.37	1298.41
215.59	1236.97
215.81	1191.92
216.03	1286.12
216.24	1249.26
216.46	1241.07
216.68	1325.04
216.90	1314.80
217.12	1230.83
217.34	1284.08
217.56	1277.93
217.78	1202.16
218.00	1298.41
218.22	1257.45
218.44	1294.32
218.66	1214.45
218.87	1222.64
219.09	1234.93
219.31	1245.16
219.53	1279.98
219.75	1298.41
219.97	1230.83
220.19	1284.08
220.41	1247.21
220.63	1351.66
220.85	1275.88
221.06	1325.04
221.28	1265.64
221.50	1396.71
221.72	1282.03
221.94	1236.97
222.16	1282.03
222.38	1294.32
222.60	1267.69
222.82	1347.56
223.03	1306.60
223.25	1245.16
223.47	1234.93
223.69	1243.12
223.91	1257.45
224.13	1290.22
224.35	1239.02
224.57	1282.03
224.78	1228.78
225.00	1245.16
225.22	1245.16
225.44	1279.98
225.66	1335.28
225.88	1320.94
226.10	1218.54
226.32	1335.28
226.53	1339.37
226.75	1196.01
226.97	1290.22
227.19	1308.65
227.41	1314.80
227.63	1208.30
227.85	1269.74
228.06	1261.55
228.28	1257.45
228.50	1370.09
228.72	1290.22
228.94	1337.32
229.16	1263.60
229.37	1200.11
229.59	1300.46
229.81	1239.02
230.03	1253.36
230.25	1263.60
230.47	1277.93
230.69	1253.36
230.90	1239.02
231.12	1255.40
231.34	1355.76
231.56	1236.97
231.78	1261.55
232.00	1294.32
232.21	1284.08
232.43	1304.56
232.65	1228.78
232.87	1322.99
233.09	1208.30
233.30	1282.03
233.52	1257.45
233.74	1230.83
233.96	1249.26
234.18	1259.50
234.40	1292.27
234.61	1325.04
234.83	1282.03
235.05	1255.40
235.27	1189.87
235.49	1251.31
235.70	1234.93
235.92	1269.74
236.14	1179.63
236.36	1234.93
236.58	1273.84
236.79	1331.18
237.01	1200.11
237.23	1257.45
237.45	1361.90
237.67	1183.73
237.88	1312.75
238.10	1320.94
238.32	1273.84
238.54	1208.30
238.76	1290.22
238.97	1269.74
239.19	1261.55
239.41	1284.08
239.63	1298.41
239.85	1202.16
240.06	1232.88
240.28	1286.12
240.50	1177.58
240.72	1279.98
240.93	1224.69
241.15	1265.64
241.37	1267.69
241.59	1316.84
241.81	1247.21
242.02	1241.07
242.24	1277.93
242.46	1298.41
242.68	1265.64
242.89	1228.78
243.11	1267.69
243.33	1304.56
243.55	1259.50
243.76	1239.02
243.98	1308.65
244.20	1306.60
244.42	1318.89
244.64	1327.08
244.85	1253.36
245.07	1204.21
245.29	1288.17
245.51	1337.32
245.72	1241.07
245.94	1224.69
246.16	1318.89
246.38	1224.69
246.59	1228.78
246.81	1257.45
247.03	1337.32
247.24	1263.60
247.46	1216.49
247.68	1208.30
247.90	1239.02
248.11	1271.79
248.33	1304.56
248.55	1298.41
248.77	1200.11
248.98	1218.54
249.20	1279.98
249.42	1208.30
249.64	1279.98
249.85	1224.69
250.07	1296.36
250.29	1253.36
250.50	1378.28
250.72	1300.46
250.94	1310.70
251.16	1318.89
251.37	1290.22
251.59	1304.56
251.81	1331.18
252.02	1288.17
252.24	1277.93
252.46	1275.88
252.68	1290.22
252.89	1284.08
253.11	1236.97
253.33	1228.78
253.54	1251.31
253.76	1218.54
253.98	1298.41
254.20	1300.46
254.41	1271.79
254.63	1273.84
254.85	1222.64
255.06	1253.36
255.28	1177.58
255.50	1294.32
255.71	1193.97
255.93	1306.60
256.15	1236.97
256.36	1263.60
256.58	1265.64
256.80	1271.79
257.02	1249.26
257.23	1232.88
257.45	1247.21
257.67	1298.41
257.88	1300.46
258.10	1343.47
258.32	1312.75
258.53	1308.65
258.75	1212.40
258.97	1298.41
259.18	1327.08
259.40	1245.16
259.62	1294.32
259.83	1314.80
260.05	1206.25
260.27	1374.19
260.48	1261.55
260.70	1271.79
260.92	1179.63
261.13	1286.12
261.35	1255.40
261.57	1314.80
261.78	1249.26
262.00	1298.41
262.22	1228.78
262.43	1257.45
262.65	1308.65
262.86	1263.60
263.08	1286.12
263.30	1191.92
263.51	1265.64
263.73	1298.41
263.95	1284.08
264.16	1241.07
264.38	1214.45
264.60	1296.36
264.81	1368.04
265.03	1265.64
265.25	1204.21
265.46	1236.97
265.68	1306.60
265.89	1269.74
266.11	1243.12
266.33	1312.75
266.54	1251.31
266.76	1220.59
266.98	1224.69
267.19	1284.08
267.41	1232.88
267.62	1339.37
267.84	1304.56
268.06	1255.40
268.27	1331.18
268.49	1261.55
268.70	1216.49
268.92	1353.71
269.14	1286.12
269.35	1279.98
269.57	1269.74
269.79	1290.22
270.00	1294.32
270.22	1320.94
270.43	1255.40
270.65	1241.07
270.87	1208.30
271.08	1288.17
271.30	1292.27
271.51	1249.26
271.73	1337.32
271.95	1255.40
272.16	1322.99
272.38	1239.02
272.59	1257.45
272.81	1261.55
273.02	1167.34
273.24	1341.42
273.46	1245.16
273.67	1279.98
273.89	1208.30
274.10	1247.21
274.32	1224.69
274.54	1294.32
274.75	1306.60
274.97	1193.97
275.18	1171.44
275.40	1282.03
275.61	1306.60
275.83	1316.84
276.05	1257.45
276.26	1273.84
276.48	1277.93
276.69	1187.82
276.91	1220.59
277.12	1314.80
277.34	1298.41
277.55	1230.83
277.77	1251.31
277.99	1232.88
278.20	1241.07
278.42	1271.79
278.63	1239.02
278.85	1214.45
279.06	1269.74
279.28	1206.25
279.49	1218.54
279.71	1257.45
279.93	1249.26
280.14	1325.04
280.36	1218.54
280.57	1296.36
280.79	1271.79
281.00	1247.21
281.22	1253.36
281.43	1288.17
281.65	1239.02
281.86	1271.79
282.08	1327.08
282.29	1271.79
282.51	1247.21
282.73	1286.12
282.94	1314.80
283.16	1282.03
283.37	1304.56
283.59	1279.98
283.80	1282.03
284.02	1273.84
284.23	1222.64
284.45	1224.69
284.66	1261.55
284.88	1290.22
285.09	1288.17
285.31	1286.12
285.52	1261.55
285.74	1247.21
285.95	1206.25
286.17	1306.60
286.38	1259.50
286.60	1228.78
286.81	1290.22
287.03	1292.27
287.24	1224.69
287.46	1265.64
287.67	1243.12
287.89	1277.93
288.10	1294.32
288.32	1257.45
288.53	1243.12
288.75	1157.10
288.96	1243.12
289.18	1277.93
289.39	1257.45
289.61	1255.40
289.82	1308.65
290.04	1314.80
290.25	1308.65
290.47	1263.60
290.68	1284.08
290.90	1294.32
291.11	1257.45
291.33	1208.30
291.54	1216.49
291.76	1349.61
291.97	1267.69
292.18	1292.27
292.40	1189.87
292.61	1292.27
292.83	1279.98
293.04	1277.93
293.26	1261.55
293.47	1314.80
293.69	1320.94
293.90	1236.97
294.12	1247.21
294.33	1224.69
294.55	1304.56
294.76	1296.36
294.97	1249.26
295.19	1304.56
295.40	1275.88
295.62	1314.80
295.83	1302.51
296.05	1302.51
296.26	1300.46
296.48	1306.60
296.69	1314.80
296.90	1206.25
297.12	1277.93
297.33	1329.13
297.55	1292.27
297.76	1296.36
297.98	1247.21
298.19	1284.08
298.41	1243.12
298.62	1304.56
298.83	1347.56
299.05	1312.75
299.26	1294.32
299.48	1263.60
299.69	1296.36
299.90	1249.26
300.12	1245.16
300.33	1290.22
300.55	1204.21
300.76	1263.60
300.98	1259.50
301.19	1232.88
301.40	1277.93
301.62	1282.03
301.83	1304.56
302.05	1259.50
302.26	1282.03
302.47	1241.07
302.69	1286.12
302.90	1255.40
303.12	1263.60
303.33	1325.04
303.54	1325.04
303.76	1236.97
303.97	1226.73
304.19	1271.79
304.40	1257.45
304.61	1288.17
304.83	1300.46
305.04	1226.73
305.26	1257.45
305.47	1290.22
305.68	1204.21
305.90	1212.40
306.11	1234.93
306.33	1257.45
306.54	1249.26
306.75	1214.45
306.97	1232.88
307.18	1304.56
307.39	1329.13
307.61	1292.27
307.82	1224.69
308.04	1345.52
308.25	1277.93
308.46	1259.50
308.68	1253.36
308.89	1263.60
309.10	1251.31
309.32	1288.17
309.53	1271.79
309.74	1216.49
309.96	1294.32
310.17	1339.37
310.39	1239.02
310.60	1290.22
310.81	1304.56
311.03	1196.01
311.24	1232.88
311.45	1259.50
311.67	1325.04
311.88	1247.21
312.09	1296.36
312.31	1210.35
312.52	1208.30
312.73	1290.22
312.95	1271.79
313.16	1314.80
313.37	1220.59
313.59	1296.36
313.80	1331.18
314.01	1239.02
314.23	1210.35
314.44	1210.35
314.65	1206.25
314.87	1220.59
315.08	1230.83
315.29	1361.90
315.51	1286.12
315.72	1228.78
315.93	1241.07
316.15	1220.59
316.36	1288.17
316.57	1265.64
316.79	1261.55
317.00	1208.30
317.21	1302.51
317.43	1245.16
317.64	1279.98
317.85	1249.26
318.07	1257.45
318.28	1273.84
318.49	1316.84
318.70	1243.12
318.92	1300.46
319.13	1230.83
319.34	1372.14
319.56	1187.82
319.77	1296.36
319.98	1228.78
320.20	1257.45
320.41	1210.35
320.62	1228.78
320.83	1306.60
321.05	1306.60
321.26	1265.64
321.47	1279.98
321.69	1220.59
321.90	1277.93
322.11	1208.30
322.32	1249.26
322.54	1253.36
322.75	1236.97
322.96	1239.02
323.18	1275.88
323.39	1253.36
323.60	1249.26
323.81	1339.37
324.03	1224.69
324.24	1312.75
324.45	1275.88
324.66	1269.74
324.88	1218.54
325.09	1337.32
325.30	1296.36
325.52	1251.31
325.73	1304.56
325.94	1204.21
326.15	1243.12
326.37	1239.02
326.58	1269.74
326.79	1241.07
327.00	1269.74
327.22	1247.21
327.43	1224.69
327.64	1224.69
327.85	1282.03
328.07	1314.80
328.28	1218.54
328.49	1300.46
328.70	1294.32
328.92	1290.22
329.13	1290.22
329.34	1339.37
329.55	1183.73
329.76	1277.93
329.98	1216.49
330.19	1241.07
330.40	1304.56
330.61	1296.36
330.83	1228.78
331.04	1222.64
331.25	1245.16
331.46	1290.22
331.68	1271.79
331.89	1275.88
332.10	1277.93
332.31	1273.84
332.52	1183.73
332.74	1310.70
332.95	1259.50
333.16	1279.98
333.37	1286.12
333.58	1259.50
333.80	1251.31
334.01	1259.50
334.22	1251.31
334.43	1257.45
334.64	1251.31
334.86	1239.02
335.07	1224.69
335.28	1247.21
335.49	1298.41
335.70	1261.55
335.92	1275.88
336.13	1341.42
336.34	1226.73
336.55	1273.84
336.76	1253.36
336.98	1224.69
337.19	1255.40
337.40	1255.40
337.61	1271.79
337.82	1306.60
338.04	1306.60
338.25	1247.21
338.46	1273.84
338.67	1187.82
338.88	1220.59
339.09	1267.69
339.31	1273.84
339.52	1279.98
339.73	1216.49
339.94	1234.93
340.15	1198.06
340.36	1273.84
340.58	1257.45
340.79	1316.84
341.00	1263.60
341.21	1306.60
341.42	1312.75
341.63	1296.36
341.85	1290.22
342.06	1304.56
342.27	1224.69
342.48	1286.12
342.69	1290.22
342.90	1378.28
343.12	1361.90
343.33	1286.12
343.54	1333.23
343.75	1279.98
343.96	1210.35
344.17	1265.64
344.38	1257.45
344.60	1300.46
344.81	1290.22
345.02	1255.40
345.23	1239.02
345.44	1325.04
345.65	1257.45
345.86	1282.03
346.07	1318.89
346.29	1216.49
346.50	1282.03
346.71	1275.88
346.92	1241.07
347.13	1288.17
347.34	1247.21
347.55	1294.32
347.76	1241.07
347.98	1263.60
348.19	1251.31
348.40	1288.17
348.61	1239.02
348.82	1312.75
349.03	1298.41
349.24	1279.98
349.45	1284.08
349.66	1366.00
349.88	1167.34
350.09	1259.50
350.30	1310.70
350.51	1255.40
350.72	1327.08
350.93	1269.74
351.14	1271.79
351.35	1310.70
351.56	1247.21
351.77	1314.80
351.99	1298.41
352.20	1286.12
352.41	1179.63
352.62	1298.41
352.83	1161.20
353.04	1239.02
353.25	1234.93
353.46	1271.79
353.67	1288.17
353.88	1232.88
354.09	1230.83
354.30	1257.45
354.52	1263.60
354.73	1234.93
354.94	1208.30
355.15	1232.88
355.36	1294.32
355.57	1298.41
355.78	1239.02
355.99	1253.36
356.20	1241.07
356.41	1290.22
356.62	1212.40
356.83	1247.21
357.04	1271.79
357.25	1320.94
357.46	1206.25
357.68	1339.37
357.89	1220.59
358.10	1257.45
358.31	1269.74
358.52	1218.54
358.73	1212.40
358.94	1243.12
359.15	1241.07
359.36	1325.04
359.57	1277.93
359.78	1298.41
359.99	1169.39
360.20	1243.12
360.41	1257.45
360.62	1294.32
360.83	1265.64
361.04	1337.32
361.25	1353.71
361.46	1198.06
361.67	1277.93
361.88	1296.36
362.09	1249.26
362.30	1271.79
362.51	1312.75
362.72	1269.74
362.93	1259.50
363.14	1230.83
363.35	1212.40
363.56	1249.26
363.78	1296.36
363.99	1247.21
364.20	1239.02
364.41	1273.84
364.62	1339.37
364.83	1216.49
365.04	1257.45
365.25	1279.98
365.46	1357.80
365.67	1294.32
365.88	1269.74
366.09	1228.78
366.30	1292.27
366.51	1236.97
366.72	1304.56
366.93	1267.69
367.14	1308.65
367.35	1236.97
367.56	1234.93
367.77	1214.45
367.98	1300.46
368.18	1243.12
368.39	1218.54
368.60	1337.32
368.81	1286.12
369.02	1236.97
369.23	1286.12
369.44	1198.06
369.65	1257.45
369.86	1308.65
370.07	1290.22
370.28	1261.55
370.49	1263.60
370.70	1329.13
370.91	1193.97
371.12	1284.08
371.33	1273.84
371.54	1269.74
371.75	1359.85
371.96	1265.64
372.17	1247.21
372.38	1232.88
372.59	1230.83
372.80	1316.84
373.01	1282.03
373.22	1249.26
373.43	1265.64
373.64	1218.54
373.85	1269.74
374.06	1331.18
374.26	1257.45
374.47	1208.30
374.68	1273.84
374.89	1320.94
375.10	1290.22
375.31	1259.50
375.52	1298.41
375.73	1300.46
375.94	1220.59
376.15	1292.27
376.36	1271.79
376.57	1331.18
376.78	1243.12
376.99	1302.51
377.20	1222.64
377.40	1320.94
377.61	1304.56
377.82	1271.79
378.03	1310.70
378.24	1271.79
378.45	1251.31
378.66	1300.46
378.87	1290.22
379.08	1343.47
379.29	1306.60
379.50	1232.88
379.71	1232.88
379.91	1224.69
380.12	1265.64
380.33	1200.11
380.54	1294.32
380.75	1320.94
380.96	1267.69
381.17	1292.27
381.38	1208.30
381.59	1302.51
381.80	1232.88
382.00	1212.40
382.21	1271.79
382.42	1216.49
382.63	1318.89
382.84	1312.75
383.05	1314.80
383.26	1277.93
383.47	1234.93
383.68	1343.47
383.88	1222.64
384.09	1202.16
384.30	1304.56
384.51	1261.55
384.72	1257.45
384.93	1284.08
385.14	1249.26
385.35	1232.88
385.55	1298.41
385.76	1224.69
385.97	1277.93
386.18	1247.21
386.39	1243.12
386.60	1296.36
386.81	1300.46
387.02	1228.78
387.22	1230.83
387.43	1320.94
387.64	1288.17
387.85	1247.21
388.06	1200.11
388.27	1286.12
388.48	1243.12
388.68	1241.07
388.89	1218.54
389.10	1241.07
389.31	1257.45
389.52	1173.49
389.73	1290.22
389.93	1263.60
390.14	1312.75
390.35	1300.46
390.56	1255.40
390.77	1306.60
390.98	1255.40
391.18	1189.87
391.39	1271.79
391.60	1212.40
391.81	1282.03
392.02	1277.93
392.23	1241.07
392.43	1306.60
392.64	1296.36
392.85	1261.55
393.06	1239.02
393.27	1271.79
393.47	1282.03
393.68	1347.56
393.89	1247.21
394.10	1320.94
394.31	1259.50
394.52	1343.47
394.72	1290.22
394.93	1249.26
395.14	1241.07
395.35	1329.13
395.56	1245.16
395.76	1220.59
395.97	1279.98
396.18	1304.56
396.39	1216.49
396.60	1337.32
396.80	1255.40
397.01	1234.93
397.22	1245.16
397.43	1249.26
397.64	1261.55
397.84	1212.40
398.05	1339.37
398.26	1261.55
398.47	1232.88
398.67	1228.78
398.88	1312.75
399.09	1306.60
399.30	1226.73
399.51	1294.32
399.71	1265.64
399.92	1322.99
400.13	1265.64
400.34	1269.74
400.54	1232.88
400.75	1239.02
400.96	1282.03
401.17	1267.69
401.37	1259.50
401.58	1282.03
401.79	1298.41
402.00	1255.40
402.21	1157.10
402.41	1204.21
402.62	1257.45
402.83	1255.40
403.04	1322.99
403.24	1296.36
403.45	1279.98
403.66	1239.02
403.87	1236.97
404.07	1390.57
404.28	1208.30
404.49	1296.36
404.70	1282.03
404.90	1232.88
405.11	1320.94
405.32	1259.50
405.52	1202.16
405.73	1259.50
405.94	1198.06
406.15	1247.21
406.35	1202.16
406.56	1286.12
406.77	1298.41
406.98	1341.42
407.18	1232.88
407.39	1261.55
407.60	1310.70
407.80	1249.26
408.01	1327.08
408.22	1243.12
408.43	1239.02
408.63	1279.98
408.84	1275.88
409.05	1298.41
409.25	1275.88
409.46	1331.18
409.67	1261.55
409.88	1335.28
410.08	1251.31
410.29	1183.73
410.50	1249.26
410.70	1298.41
410.91	1304.56
411.12	1286.12
411.32	1325.04
411.53	1247.21
411.74	1239.02
411.95	1300.46
412.15	1247.21
412.36	1224.69
412.57	1314.80
412.77	1269.74
412.98	1267.69
413.19	1273.84
413.39	1298.41
413.60	1251.31
413.81	1241.07
414.01	1312.75
414.22	1161.20
414.43	1204.21
414.63	1236.97
414.84	1239.02
415.05	1251.31
415.25	1361.90
415.46	1339.37
415.67	1255.40
415.87	1298.41
416.08	1279.98
416.29	1351.66
416.49	1191.92
416.70	1236.97
416.91	1265.64
417.11	1282.03
417.32	1298.41
417.53	1277.93
417.73	1249.26
417.94	1224.69
418.15	1232.88
418.35	1308.65
418.56	1263.60
418.77	1265.64
418.97	1261.55
419.18	1298.41
419.38	1290.22
419.59	1288.17
419.80	1294.32
420.00	1300.46
420.21	1267.69
420.42	1271.79
420.62	1193.97
420.83	1273.84
421.04	1247.21
421.24	1230.83
421.45	1245.16
421.65	1234.93
421.86	1253.36
422.07	1253.36
422.27	1290.22
422.48	1271.79
422.69	1253.36
422.89	1345.52
423.10	1316.84
423.30	1269.74
423.51	1273.84
423.72	1271.79
423.92	1329.13
424.13	1228.78
424.33	1271.79
424.54	1306.60
424.75	1226.73
424.95	1325.04
425.16	1251.31
425.36	1267.69
425.57	1245.16
425.78	1312.75
425.98	1325.04
426.19	1249.26
426.39	1241.07
426.60	1343.47
426.81	1241.07
427.01	1257.45
427.22	1249.26
427.42	1259.50
427.63	1273.84
427.83	1318.89
428.04	1284.08
428.25	1183.73
428.45	1304.56
428.66	1279.98
428.86	1327.08
429.07	1212.40
429.28	1279.98
429.48	1273.84
429.69	1261.55
429.89	1204.21
430.10	1294.32
430.30	1273.84
430.51	1267.69
430.71	1247.21
430.92	1216.49
431.13	1320.94
431.33	1253.36
431.54	1286.12
431.74	1267.69
431.95	1306.60
432.15	1290.22
432.36	1304.56
432.56	1329.13
432.77	1349.61
432.98	1245.16
433.18	1257.45
433.39	1335.28
433.59	1243.12
433.80	1257.45
434.00	1261.55
434.21	1308.65
434.41	1257.45
434.62	1239.02
434.82	1245.16
435.03	1200.11
435.23	1239.02
435.44	1253.36
435.64	1308.65
435.85	1251.31
436.06	1255.40
436.26	1265.64
436.47	1249.26
436.67	1236.97
436.88	1275.88
437.08	1228.78
437.29	1263.60
437.49	1306.60
437.70	1318.89
437.90	1253.36
438.11	1292.27
438.31	1239.02
438.52	1239.02
438.72	1271.79
438.93	1259.50
439.13	1245.16
439.34	1347.56
439.54	1286.12
439.75	1302.51
439.95	1302.51
440.16	1259.50
440.36	1316.84
440.57	1251.31
440.77	1308.65
440.98	1239.02
441.18	1273.84
441.39	1273.84
441.59	1275.88
441.80	1210.35
442.00	1322.99
442.21	1265.64
442.41	1320.94
442.62	1216.49
442.82	1273.84
443.02	1261.55
443.23	1265.64
443.43	1288.17
443.64	1279.98
443.84	1259.50
444.05	1253.36
444.25	1220.59
444.46	1298.41
444.66	1277.93
444.87	1243.12
445.07	1241.07
445.28	1282.03
445.48	1169.39
445.69	1304.56
445.89	1337.32
446.09	1282.03
446.30	1279.98
446.50	1333.23
446.71	1259.50
446.91	1302.51
447.12	1275.88
447.32	1167.34
447.53	1363.95
447.73	1316.84
447.93	1304.56
448.14	1273.84
448.34	1224.69
448.55	1253.36
448.75	1298.41
448.96	1236.97
449.16	1249.26
449.36	1335.28
449.57	1329.13
449.77	1304.56
449.98	1263.60
450.18	1255.40
450.39	1302.51
450.59	1308.65
450.79	1169.39
451.00	1294.32
451.20	1232.88
451.41	1294.32
451.61	1224.69
451.81	1255.40
452.02	1257.45
452.22	1322.99
452.43	1335.28
452.63	1290.22
