SpectraSuite Data File
++++++++++++++++++++++++++++++++++++
Date: Sun Apr 03 19:55:46 CEST 2016
User: root
Dark Spectrum Present: No
Reference Spectrum Present: No
Number of Sampled Component Spectra: 1
Spectrometers: USB4C02835
Integration Time (usec): 10000 (USB4C02835)
Spectra Averaged: 1 (USB4C02835)
Boxcar Smoothing: 0 (USB4C02835)
Correct for Electrical Dark: No (USB4C02835)
Strobe/Lamp Enabled: No (USB4C02835)
Correct for Detector Non-linearity: No (USB4C02835)
Correct for Stray Light: No (USB4C02835)
Number of Pixels in Processed Spectrum: 3648
>>>>>Begin Processed Spectral Data<<<<<
177.47	1218.54
177.69	1218.54
177.91	1218.54
178.13	1245.16
178.36	1290.22
178.58	1243.12
178.80	1257.45
179.02	1257.45
179.24	1220.59
179.46	1232.88
179.68	1298.41
179.90	1304.56
180.13	1298.41
180.35	1325.04
180.57	1300.46
180.79	1273.84
181.01	1226.73
181.23	1261.55
181.45	1320.94
181.67	1290.22
181.90	1251.31
182.12	1239.02
182.34	1259.50
182.56	1236.97
182.78	1286.12
183.00	1243.12
183.22	1202.16
183.44	1255.40
183.66	1204.21
183.89	1255.40
184.11	1282.03
184.33	1269.74
184.55	1218.54
184.77	1277.93
184.99	1249.26
185.21	1300.46
185.43	1247.21
185.65	1228.78
185.87	1277.93
186.10	1267.69
186.32	1253.36
186.54	1220.59
186.76	1257.45
186.98	1241.07
187.20	1339.37
187.42	1273.84
187.64	1261.55
187.86	1236.97
188.08	1298.41
188.30	1318.89
188.52	1243.12
188.75	1288.17
188.97	1249.26
189.19	1228.78
189.41	1249.26
189.63	1284.08
189.85	1306.60
190.07	1284.08
190.29	1318.89
190.51	1359.85
190.73	1245.16
190.95	1329.13
191.17	1286.12
191.39	1312.75
191.61	1255.40
191.84	1333.23
192.06	1243.12
192.28	1267.69
192.50	1316.84
192.72	1306.60
192.94	1269.74
193.16	1259.50
193.38	1261.55
193.60	1243.12
193.82	1265.64
194.04	1284.08
194.26	1273.84
194.48	1318.89
194.70	1273.84
194.92	1239.02
195.14	1245.16
195.36	1318.89
195.58	1239.02
195.80	1261.55
196.02	1261.55
196.24	1259.50
196.46	1234.93
196.69	1296.36
196.91	1216.49
197.13	1243.12
197.35	1245.16
197.57	1271.79
197.79	1249.26
198.01	1275.88
198.23	1218.54
198.45	1329.13
198.67	1232.88
198.89	1212.40
199.11	1196.01
199.33	1267.69
199.55	1239.02
199.77	1363.95
199.99	1265.64
200.21	1228.78
200.43	1290.22
200.65	1316.84
200.87	1279.98
201.09	1296.36
201.31	1320.94
201.53	1253.36
201.75	1249.26
201.97	1279.98
202.19	1329.13
202.41	1331.18
202.63	1251.31
202.85	1220.59
203.07	1290.22
203.29	1325.04
203.51	1288.17
203.73	1277.93
203.95	1277.93
204.17	1306.60
204.39	1339.37
204.61	1331.18
204.83	1269.74
205.05	1243.12
205.27	1279.98
205.49	1265.64
205.71	1296.36
205.93	1263.60
206.15	1239.02
206.37	1243.12
206.59	1304.56
206.81	1261.55
207.03	1183.73
207.25	1286.12
207.47	1269.74
207.69	1245.16
207.91	1288.17
208.13	1239.02
208.34	1308.65
208.56	1288.17
208.78	1296.36
209.00	1302.51
209.22	1236.97
209.44	1325.04
209.66	1294.32
209.88	1243.12
210.10	1236.97
210.32	1239.02
210.54	1222.64
210.76	1247.21
210.98	1277.93
211.20	1261.55
211.42	1318.89
211.64	1275.88
211.86	1296.36
212.08	1279.98
212.30	1257.45
212.52	1236.97
212.74	1312.75
212.96	1296.36
213.17	1232.88
213.39	1288.17
213.61	1312.75
213.83	1214.45
214.05	1314.80
214.27	1265.64
214.49	1255.40
214.71	1239.02
214.93	1339.37
215.15	1232.88
215.37	1230.83
215.59	1202.16
215.81	1253.36
216.03	1239.02
216.24	1286.12
216.46	1300.46
216.68	1271.79
216.90	1279.98
217.12	1296.36
217.34	1304.56
217.56	1257.45
217.78	1267.69
218.00	1257.45
218.22	1286.12
218.44	1224.69
218.66	1224.69
218.87	1263.60
219.09	1253.36
219.31	1245.16
219.53	1247.21
219.75	1239.02
219.97	1245.16
220.19	1282.03
220.41	1245.16
220.63	1271.79
220.85	1255.40
221.06	1230.83
221.28	1245.16
221.50	1196.01
221.72	1232.88
221.94	1273.84
222.16	1216.49
222.38	1282.03
222.60	1343.47
222.82	1300.46
223.03	1294.32
223.25	1206.25
223.47	1294.32
223.69	1286.12
223.91	1296.36
224.13	1333.23
224.35	1277.93
224.57	1249.26
224.78	1269.74
225.00	1314.80
225.22	1245.16
225.44	1282.03
225.66	1288.17
225.88	1269.74
226.10	1251.31
226.32	1265.64
226.53	1337.32
226.75	1275.88
226.97	1243.12
227.19	1284.08
227.41	1294.32
227.63	1318.89
227.85	1275.88
228.06	1226.73
228.28	1267.69
228.50	1208.30
228.72	1245.16
228.94	1214.45
229.16	1228.78
229.37	1331.18
229.59	1341.42
229.81	1296.36
230.03	1251.31
230.25	1257.45
230.47	1210.35
230.69	1327.08
230.90	1261.55
231.12	1277.93
231.34	1329.13
231.56	1245.16
231.78	1251.31
232.00	1310.70
232.21	1296.36
232.43	1304.56
232.65	1220.59
232.87	1355.76
233.09	1255.40
233.30	1331.18
233.52	1294.32
233.74	1298.41
233.96	1300.46
234.18	1296.36
234.40	1253.36
234.61	1243.12
234.83	1255.40
235.05	1306.60
235.27	1243.12
235.49	1196.01
235.70	1304.56
235.92	1279.98
236.14	1257.45
236.36	1318.89
236.58	1294.32
236.79	1353.71
237.01	1255.40
237.23	1222.64
237.45	1185.77
237.67	1310.70
237.88	1255.40
238.10	1290.22
238.32	1232.88
238.54	1245.16
238.76	1290.22
238.97	1269.74
239.19	1261.55
239.41	1267.69
239.63	1284.08
239.85	1300.46
240.06	1269.74
240.28	1222.64
240.50	1263.60
240.72	1282.03
240.93	1259.50
241.15	1257.45
241.37	1263.60
241.59	1294.32
241.81	1290.22
242.02	1220.59
242.24	1204.21
242.46	1312.75
242.68	1318.89
242.89	1241.07
243.11	1292.27
243.33	1253.36
243.55	1335.28
243.76	1310.70
243.98	1183.73
244.20	1220.59
244.42	1245.16
244.64	1206.25
244.85	1298.41
245.07	1249.26
245.29	1286.12
245.51	1271.79
245.72	1257.45
245.94	1370.09
246.16	1282.03
246.38	1261.55
246.59	1191.92
246.81	1230.83
247.03	1243.12
247.24	1329.13
247.46	1255.40
247.68	1234.93
247.90	1269.74
248.11	1261.55
248.33	1230.83
248.55	1300.46
248.77	1261.55
248.98	1294.32
249.20	1292.27
249.42	1345.52
249.64	1347.56
249.85	1187.82
250.07	1353.71
250.29	1290.22
250.50	1277.93
250.72	1312.75
250.94	1310.70
251.16	1243.12
251.37	1302.51
251.59	1232.88
251.81	1265.64
252.02	1298.41
252.24	1232.88
252.46	1232.88
252.68	1322.99
252.89	1284.08
253.11	1253.36
253.33	1314.80
253.54	1292.27
253.76	1296.36
253.98	1286.12
254.20	1255.40
254.41	1189.87
254.63	1267.69
254.85	1261.55
255.06	1257.45
255.28	1298.41
255.50	1316.84
255.71	1249.26
255.93	1191.92
256.15	1376.24
256.36	1261.55
256.58	1312.75
256.80	1220.59
257.02	1273.84
257.23	1329.13
257.45	1243.12
257.67	1286.12
257.88	1243.12
258.10	1239.02
258.32	1290.22
258.53	1263.60
258.75	1310.70
258.97	1222.64
259.18	1284.08
259.40	1261.55
259.62	1243.12
259.83	1263.60
260.05	1316.84
260.27	1286.12
260.48	1232.88
260.70	1308.65
260.92	1218.54
261.13	1329.13
261.35	1286.12
261.57	1335.28
261.78	1300.46
262.00	1357.80
262.22	1282.03
262.43	1296.36
262.65	1230.83
262.86	1273.84
263.08	1257.45
263.30	1218.54
263.51	1263.60
263.73	1261.55
263.95	1298.41
264.16	1253.36
264.38	1253.36
264.60	1308.65
264.81	1308.65
265.03	1298.41
265.25	1304.56
265.46	1216.49
265.68	1277.93
265.89	1261.55
266.11	1243.12
266.33	1249.26
266.54	1222.64
266.76	1189.87
266.98	1241.07
267.19	1390.57
267.41	1230.83
267.62	1282.03
267.84	1318.89
268.06	1351.66
268.27	1249.26
268.49	1298.41
268.70	1279.98
268.92	1320.94
269.14	1265.64
269.35	1249.26
269.57	1273.84
269.79	1271.79
270.00	1290.22
270.22	1234.93
270.43	1253.36
270.65	1310.70
270.87	1216.49
271.08	1300.46
271.30	1286.12
271.51	1216.49
271.73	1333.23
271.95	1241.07
272.16	1294.32
272.38	1302.51
272.59	1284.08
272.81	1265.64
273.02	1265.64
273.24	1378.28
273.46	1243.12
273.67	1271.79
273.89	1232.88
274.10	1343.47
274.32	1226.73
274.54	1261.55
274.75	1318.89
274.97	1247.21
275.18	1296.36
275.40	1224.69
275.61	1310.70
275.83	1282.03
276.05	1241.07
276.26	1320.94
276.48	1253.36
276.69	1265.64
276.91	1239.02
277.12	1259.50
277.34	1243.12
277.55	1286.12
277.77	1241.07
277.99	1247.21
278.20	1271.79
278.42	1304.56
278.63	1363.95
278.85	1263.60
279.06	1296.36
279.28	1220.59
279.49	1191.92
279.71	1267.69
279.93	1294.32
280.14	1329.13
280.36	1306.60
280.57	1300.46
280.79	1290.22
281.00	1263.60
281.22	1257.45
281.43	1259.50
281.65	1284.08
281.86	1286.12
282.08	1269.74
282.29	1173.49
282.51	1269.74
282.73	1245.16
282.94	1249.26
283.16	1267.69
283.37	1275.88
283.59	1282.03
283.80	1298.41
284.02	1308.65
284.23	1296.36
284.45	1230.83
284.66	1234.93
284.88	1329.13
285.09	1288.17
285.31	1275.88
285.52	1257.45
285.74	1251.31
285.95	1335.28
286.17	1290.22
286.38	1153.01
286.60	1273.84
286.81	1286.12
287.03	1306.60
287.24	1286.12
287.46	1263.60
287.67	1249.26
287.89	1255.40
288.10	1273.84
288.32	1290.22
288.53	1300.46
288.75	1191.92
288.96	1275.88
289.18	1236.97
289.39	1222.64
289.61	1236.97
289.82	1210.35
290.04	1273.84
290.25	1269.74
290.47	1320.94
290.68	1171.44
290.90	1261.55
291.11	1259.50
291.33	1255.40
291.54	1241.07
291.76	1261.55
291.97	1277.93
292.18	1286.12
292.40	1212.40
292.61	1296.36
292.83	1310.70
293.04	1247.21
293.26	1325.04
293.47	1230.83
293.69	1236.97
293.90	1255.40
294.12	1253.36
294.33	1269.74
294.55	1247.21
294.76	1279.98
294.97	1216.49
295.19	1228.78
295.40	1290.22
295.62	1290.22
295.83	1224.69
296.05	1325.04
296.26	1343.47
296.48	1230.83
296.69	1167.34
296.90	1306.60
297.12	1208.30
297.33	1320.94
297.55	1253.36
297.76	1267.69
297.98	1294.32
298.19	1267.69
298.41	1351.66
298.62	1267.69
298.83	1284.08
299.05	1259.50
299.26	1273.84
299.48	1228.78
299.69	1275.88
299.90	1288.17
300.12	1290.22
300.33	1282.03
300.55	1298.41
300.76	1226.73
300.98	1263.60
301.19	1212.40
301.40	1259.50
301.62	1257.45
301.83	1320.94
302.05	1308.65
302.26	1290.22
302.47	1236.97
302.69	1247.21
302.90	1234.93
303.12	1261.55
303.33	1341.42
303.54	1257.45
303.76	1220.59
303.97	1298.41
304.19	1241.07
304.40	1320.94
304.61	1249.26
304.83	1288.17
305.04	1220.59
305.26	1306.60
305.47	1208.30
305.68	1187.82
305.90	1306.60
306.11	1236.97
306.33	1241.07
306.54	1286.12
306.75	1329.13
306.97	1253.36
307.18	1265.64
307.39	1202.16
307.61	1193.97
307.82	1232.88
308.04	1230.83
308.25	1298.41
308.46	1247.21
308.68	1169.39
308.89	1251.31
309.10	1320.94
309.32	1363.95
309.53	1251.31
309.74	1337.32
309.96	1282.03
310.17	1216.49
310.39	1294.32
310.60	1196.01
310.81	1220.59
311.03	1214.45
311.24	1314.80
311.45	1210.35
311.67	1261.55
311.88	1208.30
312.09	1218.54
312.31	1239.02
312.52	1243.12
312.73	1196.01
312.95	1249.26
313.16	1220.59
313.37	1273.84
313.59	1333.23
313.80	1255.40
314.01	1236.97
314.23	1239.02
314.44	1216.49
314.65	1202.16
314.87	1232.88
315.08	1290.22
315.29	1241.07
315.51	1257.45
315.72	1271.79
315.93	1224.69
316.15	1279.98
316.36	1277.93
316.57	1279.98
316.79	1304.56
317.00	1236.97
317.21	1282.03
317.43	1304.56
317.64	1271.79
317.85	1298.41
318.07	1265.64
318.28	1294.32
318.49	1251.31
318.70	1228.78
318.92	1300.46
319.13	1277.93
319.34	1198.06
319.56	1282.03
319.77	1269.74
319.98	1279.98
320.20	1298.41
320.41	1286.12
320.62	1279.98
320.83	1312.75
321.05	1286.12
321.26	1290.22
321.47	1286.12
321.69	1279.98
321.90	1247.21
322.11	1294.32
322.32	1255.40
322.54	1290.22
322.75	1265.64
322.96	1286.12
323.18	1298.41
323.39	1288.17
323.60	1300.46
323.81	1259.50
324.03	1243.12
324.24	1273.84
324.45	1267.69
324.66	1251.31
324.88	1282.03
325.09	1245.16
325.30	1277.93
325.52	1263.60
325.73	1226.73
325.94	1259.50
326.15	1247.21
326.37	1265.64
326.58	1253.36
326.79	1290.22
327.00	1300.46
327.22	1322.99
327.43	1269.74
327.64	1193.97
327.85	1286.12
328.07	1277.93
328.28	1257.45
328.49	1282.03
328.70	1277.93
328.92	1224.69
329.13	1247.21
329.34	1249.26
329.55	1325.04
329.76	1226.73
329.98	1216.49
330.19	1218.54
330.40	1322.99
330.61	1318.89
330.83	1275.88
331.04	1294.32
331.25	1271.79
331.46	1331.18
331.68	1247.21
331.89	1212.40
332.10	1206.25
332.31	1263.60
332.52	1286.12
332.74	1236.97
332.95	1228.78
333.16	1277.93
333.37	1261.55
333.58	1267.69
333.80	1257.45
334.01	1312.75
334.22	1275.88
334.43	1288.17
334.64	1279.98
334.86	1261.55
335.07	1247.21
335.28	1224.69
335.49	1273.84
335.70	1329.13
335.92	1202.16
336.13	1234.93
336.34	1247.21
336.55	1261.55
336.76	1228.78
336.98	1310.70
337.19	1222.64
337.40	1275.88
337.61	1220.59
337.82	1296.36
338.04	1232.88
338.25	1255.40
338.46	1261.55
338.67	1247.21
338.88	1259.50
339.09	1263.60
339.31	1222.64
339.52	1257.45
339.73	1277.93
339.94	1335.28
340.15	1222.64
340.36	1298.41
340.58	1261.55
340.79	1296.36
341.00	1269.74
341.21	1241.07
341.42	1239.02
341.63	1271.79
341.85	1288.17
342.06	1294.32
342.27	1214.45
342.48	1304.56
342.69	1279.98
342.90	1269.74
343.12	1275.88
343.33	1273.84
343.54	1245.16
343.75	1265.64
343.96	1239.02
344.17	1314.80
344.38	1206.25
344.60	1171.44
344.81	1251.31
345.02	1333.23
345.23	1265.64
345.44	1265.64
345.65	1224.69
345.86	1267.69
346.07	1216.49
346.29	1232.88
346.50	1265.64
346.71	1226.73
346.92	1226.73
347.13	1255.40
347.34	1228.78
347.55	1226.73
347.76	1234.93
347.98	1292.27
348.19	1193.97
348.40	1337.32
348.61	1251.31
348.82	1351.66
349.03	1257.45
349.24	1255.40
349.45	1322.99
349.66	1243.12
349.88	1241.07
350.09	1273.84
350.30	1257.45
350.51	1290.22
350.72	1296.36
350.93	1212.40
351.14	1257.45
351.35	1230.83
351.56	1290.22
351.77	1259.50
351.99	1249.26
352.20	1296.36
352.41	1312.75
352.62	1351.66
352.83	1255.40
353.04	1259.50
353.25	1245.16
353.46	1271.79
353.67	1298.41
353.88	1249.26
354.09	1261.55
354.30	1228.78
354.52	1296.36
354.73	1337.32
354.94	1273.84
355.15	1273.84
355.36	1267.69
355.57	1322.99
355.78	1343.47
355.99	1251.31
356.20	1120.24
356.41	1216.49
356.62	1273.84
356.83	1253.36
357.04	1284.08
357.25	1263.60
357.46	1255.40
357.68	1220.59
357.89	1333.23
358.10	1290.22
358.31	1279.98
358.52	1298.41
358.73	1320.94
358.94	1308.65
359.15	1218.54
359.36	1275.88
359.57	1224.69
359.78	1210.35
359.99	1329.13
360.20	1216.49
360.41	1259.50
360.62	1196.01
360.83	1255.40
361.04	1322.99
361.25	1310.70
361.46	1273.84
361.67	1269.74
361.88	1279.98
362.09	1294.32
362.30	1339.37
362.51	1245.16
362.72	1343.47
362.93	1343.47
363.14	1265.64
363.35	1312.75
363.56	1312.75
363.78	1290.22
363.99	1251.31
364.20	1193.97
364.41	1304.56
364.62	1355.76
364.83	1200.11
365.04	1253.36
365.25	1226.73
365.46	1210.35
365.67	1333.23
365.88	1228.78
366.09	1208.30
366.30	1226.73
366.51	1249.26
366.72	1273.84
366.93	1284.08
367.14	1222.64
367.35	1302.51
367.56	1294.32
367.77	1306.60
367.98	1273.84
368.18	1230.83
368.39	1236.97
368.60	1218.54
368.81	1273.84
369.02	1267.69
369.23	1265.64
369.44	1288.17
369.65	1271.79
369.86	1335.28
370.07	1277.93
370.28	1253.36
370.49	1320.94
370.70	1290.22
370.91	1300.46
371.12	1296.36
371.33	1286.12
371.54	1306.60
371.75	1290.22
371.96	1327.08
372.17	1318.89
372.38	1316.84
372.59	1247.21
372.80	1259.50
373.01	1206.25
373.22	1224.69
373.43	1294.32
373.64	1310.70
373.85	1296.36
374.06	1304.56
374.26	1253.36
374.47	1218.54
374.68	1325.04
374.89	1183.73
375.10	1257.45
375.31	1255.40
375.52	1294.32
375.73	1220.59
375.94	1253.36
376.15	1247.21
376.36	1263.60
376.57	1222.64
376.78	1263.60
376.99	1267.69
377.20	1251.31
377.40	1249.26
377.61	1310.70
377.82	1230.83
378.03	1339.37
378.24	1253.36
378.45	1282.03
378.66	1300.46
378.87	1226.73
379.08	1232.88
379.29	1216.49
379.50	1282.03
379.71	1288.17
379.91	1220.59
380.12	1265.64
380.33	1271.79
380.54	1191.92
380.75	1288.17
380.96	1247.21
381.17	1368.04
381.38	1234.93
381.59	1249.26
381.80	1314.80
382.00	1271.79
382.21	1277.93
382.42	1271.79
382.63	1271.79
382.84	1179.63
383.05	1290.22
383.26	1234.93
383.47	1269.74
383.68	1198.06
383.88	1208.30
384.09	1267.69
384.30	1263.60
384.51	1245.16
384.72	1232.88
384.93	1273.84
385.14	1232.88
385.35	1282.03
385.55	1236.97
385.76	1341.42
385.97	1286.12
386.18	1300.46
386.39	1273.84
386.60	1325.04
386.81	1243.12
387.02	1269.74
387.22	1173.49
387.43	1320.94
387.64	1208.30
387.85	1216.49
388.06	1224.69
388.27	1185.77
388.48	1239.02
388.68	1372.14
388.89	1279.98
389.10	1306.60
389.31	1286.12
389.52	1325.04
389.73	1245.16
389.93	1263.60
390.14	1234.93
390.35	1255.40
390.56	1239.02
390.77	1273.84
390.98	1251.31
391.18	1204.21
391.39	1269.74
391.60	1331.18
391.81	1337.32
392.02	1296.36
392.23	1255.40
392.43	1284.08
392.64	1257.45
392.85	1249.26
393.06	1251.31
393.27	1275.88
393.47	1294.32
393.68	1247.21
393.89	1265.64
394.10	1232.88
394.31	1206.25
394.52	1253.36
394.72	1224.69
394.93	1271.79
395.14	1243.12
395.35	1279.98
395.56	1304.56
395.76	1236.97
395.97	1249.26
396.18	1232.88
396.39	1261.55
396.60	1290.22
396.80	1189.87
397.01	1271.79
397.22	1300.46
397.43	1269.74
397.64	1265.64
397.84	1296.36
398.05	1243.12
398.26	1224.69
398.47	1296.36
398.67	1327.08
398.88	1265.64
399.09	1329.13
399.30	1249.26
399.51	1306.60
399.71	1312.75
399.92	1298.41
400.13	1253.36
400.34	1320.94
400.54	1206.25
400.75	1255.40
400.96	1241.07
401.17	1308.65
401.37	1300.46
401.58	1232.88
401.79	1245.16
402.00	1208.30
402.21	1243.12
402.41	1230.83
402.62	1304.56
402.83	1271.79
403.04	1277.93
403.24	1212.40
403.45	1273.84
403.66	1306.60
403.87	1327.08
404.07	1232.88
404.28	1224.69
404.49	1277.93
404.70	1265.64
404.90	1239.02
405.11	1265.64
405.32	1263.60
405.52	1294.32
405.73	1296.36
405.94	1222.64
406.15	1308.65
406.35	1271.79
406.56	1259.50
406.77	1300.46
406.98	1273.84
407.18	1249.26
407.39	1189.87
407.60	1273.84
407.80	1316.84
408.01	1282.03
408.22	1271.79
408.43	1253.36
408.63	1269.74
408.84	1296.36
409.05	1212.40
409.25	1214.45
409.46	1279.98
409.67	1253.36
409.88	1245.16
410.08	1232.88
410.29	1222.64
410.50	1290.22
410.70	1263.60
410.91	1282.03
411.12	1310.70
411.32	1273.84
411.53	1243.12
411.74	1247.21
411.95	1230.83
412.15	1271.79
412.36	1251.31
412.57	1284.08
412.77	1310.70
412.98	1284.08
413.19	1322.99
413.39	1230.83
413.60	1290.22
413.81	1220.59
414.01	1265.64
414.22	1298.41
414.43	1298.41
414.63	1255.40
414.84	1327.08
415.05	1288.17
415.25	1290.22
415.46	1261.55
415.67	1200.11
415.87	1249.26
416.08	1288.17
416.29	1257.45
416.49	1265.64
416.70	1304.56
416.91	1251.31
417.11	1214.45
417.32	1271.79
417.53	1269.74
417.73	1263.60
417.94	1320.94
418.15	1277.93
418.35	1265.64
418.56	1265.64
418.77	1261.55
418.97	1282.03
419.18	1310.70
419.38	1257.45
419.59	1290.22
419.80	1325.04
420.00	1286.12
420.21	1302.51
420.42	1169.39
420.62	1226.73
420.83	1261.55
421.04	1255.40
421.24	1255.40
421.45	1300.46
421.65	1232.88
421.86	1284.08
422.07	1279.98
422.27	1316.84
422.48	1294.32
422.69	1269.74
422.89	1286.12
423.10	1249.26
423.30	1282.03
423.51	1255.40
423.72	1271.79
423.92	1306.60
424.13	1189.87
424.33	1284.08
424.54	1277.93
424.75	1351.66
424.95	1298.41
425.16	1318.89
425.36	1286.12
425.57	1206.25
425.78	1277.93
425.98	1296.36
426.19	1218.54
426.39	1288.17
426.60	1292.27
426.81	1234.93
427.01	1230.83
427.22	1277.93
427.42	1265.64
427.63	1265.64
427.83	1216.49
428.04	1253.36
428.25	1277.93
428.45	1282.03
428.66	1261.55
428.86	1316.84
429.07	1239.02
429.28	1277.93
429.48	1310.70
429.69	1232.88
429.89	1339.37
430.10	1341.42
430.30	1249.26
430.51	1304.56
430.71	1230.83
430.92	1275.88
431.13	1249.26
431.33	1279.98
431.54	1253.36
431.74	1247.21
431.95	1273.84
432.15	1273.84
432.36	1191.92
432.56	1288.17
432.77	1243.12
432.98	1308.65
433.18	1216.49
433.39	1273.84
433.59	1251.31
433.80	1208.30
434.00	1222.64
434.21	1249.26
434.41	1271.79
434.62	1327.08
434.82	1236.97
435.03	1286.12
435.23	1282.03
435.44	1290.22
435.64	1312.75
435.85	1265.64
436.06	1296.36
436.26	1308.65
436.47	1308.65
436.67	1273.84
436.88	1265.64
437.08	1343.47
437.29	1273.84
437.49	1263.60
437.70	1216.49
437.90	1294.32
438.11	1226.73
438.31	1218.54
438.52	1294.32
438.72	1265.64
438.93	1236.97
439.13	1241.07
439.34	1290.22
439.54	1185.77
439.75	1257.45
439.95	1210.35
440.16	1288.17
440.36	1241.07
440.57	1253.36
440.77	1214.45
440.98	1204.21
441.18	1296.36
441.39	1239.02
441.59	1265.64
441.80	1257.45
442.00	1216.49
442.21	1253.36
442.41	1292.27
442.62	1298.41
442.82	1251.31
443.02	1263.60
443.23	1273.84
443.43	1349.61
443.64	1339.37
443.84	1277.93
444.05	1222.64
444.25	1251.31
444.46	1288.17
444.66	1261.55
444.87	1294.32
445.07	1228.78
445.28	1259.50
445.48	1308.65
445.69	1269.74
445.89	1290.22
446.09	1249.26
446.30	1273.84
446.50	1277.93
446.71	1286.12
446.91	1288.17
447.12	1337.32
447.32	1273.84
447.53	1288.17
447.73	1282.03
447.93	1304.56
448.14	1300.46
448.34	1337.32
448.55	1279.98
448.75	1259.50
448.96	1355.76
449.16	1279.98
449.36	1288.17
449.57	1298.41
449.77	1282.03
449.98	1249.26
450.18	1298.41
450.39	1302.51
450.59	1366.00
450.79	1218.54
451.00	1263.60
451.20	1228.78
451.41	1271.79
451.61	1220.59
451.81	1314.80
452.02	1241.07
452.22	1202.16
452.43	1300.46
452.63	1286.12
