SpectraSuite Data File
++++++++++++++++++++++++++++++++++++
Date: Sun Apr 03 19:55:40 CEST 2016
User: root
Dark Spectrum Present: No
Reference Spectrum Present: No
Number of Sampled Component Spectra: 1
Spectrometers: USB4C02835
Integration Time (usec): 10000 (USB4C02835)
Spectra Averaged: 1 (USB4C02835)
Boxcar Smoothing: 0 (USB4C02835)
Correct for Electrical Dark: No (USB4C02835)
Strobe/Lamp Enabled: No (USB4C02835)
Correct for Detector Non-linearity: No (USB4C02835)
Correct for Stray Light: No (USB4C02835)
Number of Pixels in Processed Spectrum: 3648
>>>>>Begin Processed Spectral Data<<<<<
177.47	1306.60
177.69	1306.60
177.91	1306.60
178.13	1239.02
178.36	1232.88
178.58	1314.80
178.80	1273.84
179.02	1286.12
179.24	1255.40
179.46	1185.77
179.68	1343.47
179.90	1298.41
180.13	1208.30
180.35	1290.22
180.57	1296.36
180.79	1212.40
181.01	1341.42
181.23	1271.79
181.45	1267.69
181.67	1208.30
181.90	1308.65
182.12	1349.61
182.34	1243.12
182.56	1302.51
182.78	1259.50
183.00	1308.65
183.22	1261.55
183.44	1257.45
183.66	1320.94
183.89	1245.16
184.11	1304.56
184.33	1222.64
184.55	1241.07
184.77	1239.02
184.99	1255.40
185.21	1294.32
185.43	1325.04
185.65	1322.99
185.87	1302.51
186.10	1204.21
186.32	1265.64
186.54	1212.40
186.76	1269.74
186.98	1208.30
187.20	1232.88
187.42	1282.03
187.64	1175.53
187.86	1228.78
188.08	1206.25
188.30	1277.93
188.52	1343.47
188.75	1210.35
188.97	1222.64
189.19	1251.31
189.41	1265.64
189.63	1234.93
189.85	1234.93
190.07	1247.21
190.29	1222.64
190.51	1308.65
190.73	1236.97
190.95	1267.69
191.17	1267.69
191.39	1261.55
191.61	1247.21
191.84	1294.32
192.06	1255.40
192.28	1314.80
192.50	1247.21
192.72	1224.69
192.94	1298.41
193.16	1329.13
193.38	1218.54
193.60	1218.54
193.82	1282.03
194.04	1271.79
194.26	1322.99
194.48	1249.26
194.70	1316.84
194.92	1314.80
195.14	1232.88
195.36	1337.32
195.58	1255.40
195.80	1241.07
196.02	1263.60
196.24	1257.45
196.46	1298.41
196.69	1236.97
196.91	1345.52
197.13	1316.84
197.35	1224.69
197.57	1294.32
197.79	1304.56
198.01	1292.27
198.23	1282.03
198.45	1198.06
198.67	1261.55
198.89	1269.74
199.11	1279.98
199.33	1284.08
199.55	1282.03
199.77	1218.54
199.99	1228.78
200.21	1306.60
200.43	1249.26
200.65	1232.88
200.87	1200.11
201.09	1212.40
201.31	1284.08
201.53	1294.32
201.75	1292.27
201.97	1310.70
202.19	1296.36
202.41	1234.93
202.63	1302.51
202.85	1294.32
203.07	1271.79
203.29	1234.93
203.51	1247.21
203.73	1224.69
203.95	1304.56
204.17	1322.99
204.39	1198.06
204.61	1343.47
204.83	1275.88
205.05	1265.64
205.27	1239.02
205.49	1267.69
205.71	1304.56
205.93	1284.08
206.15	1331.18
206.37	1259.50
206.59	1306.60
206.81	1302.51
207.03	1239.02
207.25	1218.54
207.47	1294.32
207.69	1271.79
207.91	1257.45
208.13	1218.54
208.34	1273.84
208.56	1282.03
208.78	1271.79
209.00	1275.88
209.22	1300.46
209.44	1208.30
209.66	1329.13
209.88	1327.08
210.10	1302.51
210.32	1273.84
210.54	1347.56
210.76	1269.74
210.98	1302.51
211.20	1279.98
211.42	1343.47
211.64	1296.36
211.86	1304.56
212.08	1247.21
212.30	1310.70
212.52	1261.55
212.74	1294.32
212.96	1232.88
213.17	1284.08
213.39	1247.21
213.61	1265.64
213.83	1241.07
214.05	1255.40
214.27	1277.93
214.49	1292.27
214.71	1181.68
214.93	1331.18
215.15	1204.21
215.37	1288.17
215.59	1277.93
215.81	1208.30
216.03	1259.50
216.24	1275.88
216.46	1320.94
216.68	1288.17
216.90	1259.50
217.12	1226.73
217.34	1239.02
217.56	1279.98
217.78	1269.74
218.00	1306.60
218.22	1261.55
218.44	1269.74
218.66	1214.45
218.87	1273.84
219.09	1255.40
219.31	1292.27
219.53	1259.50
219.75	1269.74
219.97	1241.07
220.19	1304.56
220.41	1216.49
220.63	1251.31
220.85	1224.69
221.06	1224.69
221.28	1273.84
221.50	1241.07
221.72	1249.26
221.94	1255.40
222.16	1327.08
222.38	1288.17
222.60	1302.51
222.82	1247.21
223.03	1236.97
223.25	1359.85
223.47	1308.65
223.69	1327.08
223.91	1341.42
224.13	1269.74
224.35	1269.74
224.57	1228.78
224.78	1243.12
225.00	1331.18
225.22	1216.49
225.44	1296.36
225.66	1265.64
225.88	1234.93
226.10	1232.88
226.32	1290.22
226.53	1228.78
226.75	1247.21
226.97	1249.26
227.19	1161.20
227.41	1228.78
227.63	1267.69
227.85	1245.16
228.06	1263.60
228.28	1279.98
228.50	1234.93
228.72	1298.41
228.94	1241.07
229.16	1255.40
229.37	1218.54
229.59	1271.79
229.81	1308.65
230.03	1243.12
230.25	1271.79
230.47	1290.22
230.69	1271.79
230.90	1249.26
231.12	1255.40
231.34	1247.21
231.56	1224.69
231.78	1355.76
232.00	1277.93
232.21	1232.88
232.43	1286.12
232.65	1304.56
232.87	1251.31
233.09	1228.78
233.30	1257.45
233.52	1343.47
233.74	1279.98
233.96	1288.17
234.18	1228.78
234.40	1294.32
234.61	1339.37
234.83	1290.22
235.05	1271.79
235.27	1259.50
235.49	1263.60
235.70	1318.89
235.92	1273.84
236.14	1265.64
236.36	1249.26
236.58	1308.65
236.79	1298.41
237.01	1239.02
237.23	1292.27
237.45	1284.08
237.67	1298.41
237.88	1212.40
238.10	1304.56
238.32	1282.03
238.54	1214.45
238.76	1208.30
238.97	1290.22
239.19	1247.21
239.41	1290.22
239.63	1228.78
239.85	1294.32
240.06	1208.30
240.28	1261.55
240.50	1302.51
240.72	1241.07
240.93	1243.12
241.15	1269.74
241.37	1261.55
241.59	1310.70
241.81	1255.40
242.02	1312.75
242.24	1239.02
242.46	1261.55
242.68	1304.56
242.89	1292.27
243.11	1204.21
243.33	1279.98
243.55	1232.88
243.76	1232.88
243.98	1302.51
244.20	1257.45
244.42	1335.28
244.64	1282.03
244.85	1277.93
245.07	1259.50
245.29	1327.08
245.51	1277.93
245.72	1251.31
245.94	1320.94
246.16	1271.79
246.38	1259.50
246.59	1292.27
246.81	1257.45
247.03	1269.74
247.24	1259.50
247.46	1277.93
247.68	1261.55
247.90	1228.78
248.11	1286.12
248.33	1269.74
248.55	1185.77
248.77	1329.13
248.98	1290.22
249.20	1298.41
249.42	1226.73
249.64	1226.73
249.85	1288.17
250.07	1294.32
250.29	1320.94
250.50	1255.40
250.72	1320.94
250.94	1230.83
251.16	1239.02
251.37	1257.45
251.59	1247.21
251.81	1292.27
252.02	1306.60
252.24	1224.69
252.46	1269.74
252.68	1175.53
252.89	1300.46
253.11	1208.30
253.33	1263.60
253.54	1261.55
253.76	1320.94
253.98	1257.45
254.20	1222.64
254.41	1279.98
254.63	1228.78
254.85	1292.27
255.06	1220.59
255.28	1230.83
255.50	1263.60
255.71	1255.40
255.93	1296.36
256.15	1335.28
256.36	1220.59
256.58	1222.64
256.80	1273.84
257.02	1239.02
257.23	1292.27
257.45	1261.55
257.67	1241.07
257.88	1314.80
258.10	1357.80
258.32	1224.69
258.53	1282.03
258.75	1259.50
258.97	1271.79
259.18	1308.65
259.40	1269.74
259.62	1275.88
259.83	1277.93
260.05	1325.04
260.27	1318.89
260.48	1366.00
260.70	1288.17
260.92	1288.17
261.13	1265.64
261.35	1312.75
261.57	1304.56
261.78	1271.79
262.00	1232.88
262.22	1286.12
262.43	1341.42
262.65	1282.03
262.86	1208.30
263.08	1267.69
263.30	1286.12
263.51	1218.54
263.73	1263.60
263.95	1245.16
264.16	1282.03
264.38	1275.88
264.60	1208.30
264.81	1312.75
265.03	1216.49
265.25	1261.55
265.46	1320.94
265.68	1273.84
265.89	1247.21
266.11	1228.78
266.33	1236.97
266.54	1288.17
266.76	1222.64
266.98	1298.41
267.19	1308.65
267.41	1198.06
267.62	1300.46
267.84	1263.60
268.06	1249.26
268.27	1290.22
268.49	1298.41
268.70	1292.27
268.92	1247.21
269.14	1277.93
269.35	1308.65
269.57	1239.02
269.79	1310.70
270.00	1245.16
270.22	1253.36
270.43	1261.55
270.65	1320.94
270.87	1218.54
271.08	1259.50
271.30	1282.03
271.51	1333.23
271.73	1302.51
271.95	1220.59
272.16	1286.12
272.38	1310.70
272.59	1243.12
272.81	1263.60
273.02	1284.08
273.24	1198.06
273.46	1181.68
273.67	1275.88
273.89	1234.93
274.10	1247.21
274.32	1257.45
274.54	1288.17
274.75	1228.78
274.97	1239.02
275.18	1220.59
275.40	1277.93
275.61	1259.50
275.83	1318.89
276.05	1189.87
276.26	1257.45
276.48	1277.93
276.69	1282.03
276.91	1206.25
277.12	1290.22
277.34	1275.88
277.55	1214.45
277.77	1259.50
277.99	1288.17
278.20	1222.64
278.42	1265.64
278.63	1290.22
278.85	1230.83
279.06	1304.56
279.28	1247.21
279.49	1245.16
279.71	1257.45
279.93	1296.36
280.14	1345.52
280.36	1277.93
280.57	1259.50
280.79	1271.79
281.00	1236.97
281.22	1218.54
281.43	1271.79
281.65	1245.16
281.86	1355.76
282.08	1208.30
282.29	1218.54
282.51	1210.35
282.73	1257.45
282.94	1212.40
283.16	1236.97
283.37	1349.61
283.59	1269.74
283.80	1292.27
284.02	1329.13
284.23	1257.45
284.45	1271.79
284.66	1361.90
284.88	1306.60
285.09	1255.40
285.31	1320.94
285.52	1279.98
285.74	1261.55
285.95	1241.07
286.17	1222.64
286.38	1208.30
286.60	1306.60
286.81	1290.22
287.03	1271.79
287.24	1255.40
287.46	1361.90
287.67	1327.08
287.89	1347.56
288.10	1224.69
288.32	1292.27
288.53	1273.84
288.75	1277.93
288.96	1251.31
289.18	1263.60
289.39	1212.40
289.61	1271.79
289.82	1312.75
290.04	1322.99
290.25	1304.56
290.47	1271.79
290.68	1261.55
290.90	1294.32
291.11	1218.54
291.33	1232.88
291.54	1282.03
291.76	1282.03
291.97	1239.02
292.18	1247.21
292.40	1275.88
292.61	1200.11
292.83	1232.88
293.04	1269.74
293.26	1368.04
293.47	1302.51
293.69	1230.83
293.90	1220.59
294.12	1343.47
294.33	1265.64
294.55	1310.70
294.76	1245.16
294.97	1310.70
295.19	1331.18
295.40	1284.08
295.62	1245.16
295.83	1325.04
296.05	1308.65
296.26	1304.56
296.48	1255.40
296.69	1202.16
296.90	1265.64
297.12	1294.32
297.33	1236.97
297.55	1198.06
297.76	1288.17
297.98	1296.36
298.19	1208.30
298.41	1304.56
298.62	1218.54
298.83	1224.69
299.05	1239.02
299.26	1249.26
299.48	1243.12
299.69	1216.49
299.90	1269.74
300.12	1294.32
300.33	1357.80
300.55	1245.16
300.76	1275.88
300.98	1220.59
301.19	1288.17
301.40	1310.70
301.62	1257.45
301.83	1239.02
302.05	1347.56
302.26	1257.45
302.47	1243.12
302.69	1249.26
302.90	1171.44
303.12	1275.88
303.33	1253.36
303.54	1296.36
303.76	1210.35
303.97	1257.45
304.19	1265.64
304.40	1226.73
304.61	1333.23
304.83	1214.45
305.04	1228.78
305.26	1282.03
305.47	1208.30
305.68	1263.60
305.90	1216.49
306.11	1261.55
306.33	1288.17
306.54	1247.21
306.75	1261.55
306.97	1290.22
307.18	1255.40
307.39	1224.69
307.61	1245.16
307.82	1290.22
308.04	1255.40
308.25	1300.46
308.46	1261.55
308.68	1247.21
308.89	1308.65
309.10	1347.56
309.32	1202.16
309.53	1277.93
309.74	1269.74
309.96	1298.41
310.17	1302.51
310.39	1288.17
310.60	1255.40
310.81	1175.53
311.03	1251.31
311.24	1302.51
311.45	1277.93
311.67	1322.99
311.88	1306.60
312.09	1318.89
312.31	1396.71
312.52	1234.93
312.73	1243.12
312.95	1249.26
313.16	1241.07
313.37	1273.84
313.59	1290.22
313.80	1247.21
314.01	1335.28
314.23	1232.88
314.44	1255.40
314.65	1288.17
314.87	1198.06
315.08	1290.22
315.29	1296.36
315.51	1259.50
315.72	1150.96
315.93	1228.78
316.15	1275.88
316.36	1292.27
316.57	1247.21
316.79	1241.07
317.00	1265.64
317.21	1267.69
317.43	1247.21
317.64	1251.31
317.85	1243.12
318.07	1298.41
318.28	1308.65
318.49	1327.08
318.70	1282.03
318.92	1193.97
319.13	1263.60
319.34	1284.08
319.56	1288.17
319.77	1282.03
319.98	1279.98
320.20	1322.99
320.41	1249.26
320.62	1241.07
320.83	1298.41
321.05	1314.80
321.26	1208.30
321.47	1247.21
321.69	1312.75
321.90	1282.03
322.11	1198.06
322.32	1200.11
322.54	1230.83
322.75	1222.64
322.96	1279.98
323.18	1302.51
323.39	1322.99
323.60	1214.45
323.81	1259.50
324.03	1187.82
324.24	1290.22
324.45	1239.02
324.66	1267.69
324.88	1177.58
325.09	1292.27
325.30	1279.98
325.52	1298.41
325.73	1255.40
325.94	1239.02
326.15	1300.46
326.37	1263.60
326.58	1277.93
326.79	1247.21
327.00	1288.17
327.22	1236.97
327.43	1294.32
327.64	1165.29
327.85	1232.88
328.07	1259.50
328.28	1310.70
328.49	1279.98
328.70	1286.12
328.92	1243.12
329.13	1259.50
329.34	1284.08
329.55	1247.21
329.76	1216.49
329.98	1294.32
330.19	1265.64
330.40	1380.33
330.61	1261.55
330.83	1288.17
331.04	1226.73
331.25	1318.89
331.46	1232.88
331.68	1265.64
331.89	1277.93
332.10	1269.74
332.31	1243.12
332.52	1177.58
332.74	1247.21
332.95	1296.36
333.16	1259.50
333.37	1249.26
333.58	1263.60
333.80	1322.99
334.01	1261.55
334.22	1239.02
334.43	1265.64
334.64	1241.07
334.86	1273.84
335.07	1230.83
335.28	1298.41
335.49	1296.36
335.70	1167.34
335.92	1253.36
336.13	1269.74
336.34	1255.40
336.55	1277.93
336.76	1290.22
336.98	1249.26
337.19	1271.79
337.40	1284.08
337.61	1212.40
337.82	1318.89
338.04	1335.28
338.25	1363.95
338.46	1263.60
338.67	1300.46
338.88	1257.45
339.09	1259.50
339.31	1239.02
339.52	1241.07
339.73	1263.60
339.94	1241.07
340.15	1288.17
340.36	1216.49
340.58	1279.98
340.79	1261.55
341.00	1257.45
341.21	1292.27
341.42	1308.65
341.63	1329.13
341.85	1245.16
342.06	1241.07
342.27	1263.60
342.48	1253.36
342.69	1300.46
342.90	1249.26
343.12	1241.07
343.33	1253.36
343.54	1302.51
343.75	1261.55
343.96	1355.76
344.17	1292.27
344.38	1257.45
344.60	1261.55
344.81	1316.84
345.02	1290.22
345.23	1273.84
345.44	1263.60
345.65	1228.78
345.86	1230.83
346.07	1218.54
346.29	1269.74
346.50	1230.83
346.71	1255.40
346.92	1296.36
347.13	1296.36
347.34	1236.97
347.55	1277.93
347.76	1290.22
347.98	1212.40
348.19	1341.42
348.40	1251.31
348.61	1310.70
348.82	1322.99
349.03	1267.69
349.24	1236.97
349.45	1253.36
349.66	1224.69
349.88	1206.25
350.09	1261.55
350.30	1304.56
350.51	1232.88
350.72	1234.93
350.93	1253.36
351.14	1247.21
351.35	1257.45
351.56	1298.41
351.77	1400.81
351.99	1312.75
352.20	1318.89
352.41	1279.98
352.62	1234.93
352.83	1239.02
353.04	1204.21
353.25	1249.26
353.46	1286.12
353.67	1257.45
353.88	1296.36
354.09	1294.32
354.30	1279.98
354.52	1245.16
354.73	1245.16
354.94	1294.32
355.15	1228.78
355.36	1247.21
355.57	1214.45
355.78	1275.88
355.99	1284.08
356.20	1269.74
356.41	1296.36
356.62	1290.22
356.83	1198.06
357.04	1275.88
357.25	1273.84
357.46	1282.03
357.68	1286.12
357.89	1232.88
358.10	1359.85
358.31	1351.66
358.52	1298.41
358.73	1277.93
358.94	1247.21
359.15	1261.55
359.36	1347.56
359.57	1226.73
359.78	1314.80
359.99	1298.41
360.20	1261.55
360.41	1271.79
360.62	1253.36
360.83	1267.69
361.04	1288.17
361.25	1214.45
361.46	1198.06
361.67	1318.89
361.88	1275.88
362.09	1271.79
362.30	1282.03
362.51	1226.73
362.72	1290.22
362.93	1247.21
363.14	1257.45
363.35	1157.10
363.56	1267.69
363.78	1275.88
363.99	1261.55
364.20	1273.84
364.41	1236.97
364.62	1306.60
364.83	1296.36
365.04	1286.12
365.25	1271.79
365.46	1228.78
365.67	1232.88
365.88	1220.59
366.09	1187.82
366.30	1271.79
366.51	1296.36
366.72	1275.88
366.93	1290.22
367.14	1226.73
367.35	1296.36
367.56	1255.40
367.77	1228.78
367.98	1187.82
368.18	1249.26
368.39	1257.45
368.60	1275.88
368.81	1226.73
369.02	1265.64
369.23	1347.56
369.44	1187.82
369.65	1288.17
369.86	1279.98
370.07	1298.41
370.28	1243.12
370.49	1245.16
370.70	1257.45
370.91	1230.83
371.12	1210.35
371.33	1277.93
371.54	1222.64
371.75	1245.16
371.96	1282.03
372.17	1265.64
372.38	1255.40
372.59	1298.41
372.80	1304.56
373.01	1243.12
373.22	1251.31
373.43	1259.50
373.64	1228.78
373.85	1257.45
374.06	1263.60
374.26	1245.16
374.47	1236.97
374.68	1306.60
374.89	1224.69
375.10	1312.75
375.31	1198.06
375.52	1228.78
375.73	1214.45
375.94	1263.60
376.15	1267.69
376.36	1261.55
376.57	1292.27
376.78	1255.40
376.99	1228.78
377.20	1185.77
377.40	1257.45
377.61	1218.54
377.82	1239.02
378.03	1267.69
378.24	1243.12
378.45	1251.31
378.66	1267.69
378.87	1228.78
379.08	1259.50
379.29	1275.88
379.50	1298.41
379.71	1273.84
379.91	1318.89
380.12	1239.02
380.33	1261.55
380.54	1189.87
380.75	1236.97
380.96	1202.16
381.17	1226.73
381.38	1253.36
381.59	1355.76
381.80	1261.55
382.00	1290.22
382.21	1236.97
382.42	1304.56
382.63	1288.17
382.84	1302.51
383.05	1261.55
383.26	1310.70
383.47	1302.51
383.68	1226.73
383.88	1322.99
384.09	1300.46
384.30	1249.26
384.51	1277.93
384.72	1308.65
384.93	1216.49
385.14	1155.05
385.35	1306.60
385.55	1304.56
385.76	1314.80
385.97	1290.22
386.18	1282.03
386.39	1279.98
386.60	1261.55
386.81	1253.36
387.02	1294.32
387.22	1257.45
387.43	1275.88
387.64	1245.16
387.85	1339.37
388.06	1339.37
388.27	1259.50
388.48	1304.56
388.68	1312.75
388.89	1290.22
389.10	1259.50
389.31	1306.60
389.52	1234.93
389.73	1247.21
389.93	1253.36
390.14	1236.97
390.35	1261.55
390.56	1198.06
390.77	1282.03
390.98	1236.97
391.18	1302.51
391.39	1269.74
391.60	1263.60
391.81	1263.60
392.02	1241.07
392.23	1230.83
392.43	1318.89
392.64	1327.08
392.85	1206.25
393.06	1308.65
393.27	1337.32
393.47	1294.32
393.68	1277.93
393.89	1214.45
394.10	1220.59
394.31	1236.97
394.52	1335.28
394.72	1267.69
394.93	1263.60
395.14	1247.21
395.35	1196.01
395.56	1282.03
395.76	1277.93
395.97	1329.13
396.18	1271.79
396.39	1273.84
396.60	1255.40
396.80	1220.59
397.01	1282.03
397.22	1261.55
397.43	1286.12
397.64	1279.98
397.84	1247.21
398.05	1271.79
398.26	1286.12
398.47	1357.80
398.67	1298.41
398.88	1208.30
399.09	1222.64
399.30	1263.60
399.51	1306.60
399.71	1222.64
399.92	1155.05
400.13	1290.22
400.34	1304.56
400.54	1306.60
400.75	1255.40
400.96	1263.60
401.17	1249.26
401.37	1290.22
401.58	1224.69
401.79	1267.69
402.00	1253.36
402.21	1331.18
402.41	1300.46
402.62	1247.21
402.83	1253.36
403.04	1279.98
403.24	1247.21
403.45	1247.21
403.66	1259.50
403.87	1282.03
404.07	1318.89
404.28	1230.83
404.49	1312.75
404.70	1290.22
404.90	1263.60
405.11	1228.78
405.32	1257.45
405.52	1236.97
405.73	1304.56
405.94	1259.50
406.15	1282.03
406.35	1341.42
406.56	1300.46
406.77	1279.98
406.98	1263.60
407.18	1298.41
407.39	1261.55
407.60	1271.79
407.80	1294.32
408.01	1226.73
408.22	1290.22
408.43	1273.84
408.63	1296.36
408.84	1243.12
409.05	1310.70
409.25	1198.06
409.46	1275.88
409.67	1263.60
409.88	1320.94
410.08	1273.84
410.29	1322.99
410.50	1189.87
410.70	1279.98
410.91	1208.30
411.12	1310.70
411.32	1220.59
411.53	1247.21
411.74	1294.32
411.95	1306.60
412.15	1277.93
412.36	1255.40
412.57	1251.31
412.77	1255.40
412.98	1220.59
413.19	1349.61
413.39	1308.65
413.60	1288.17
413.81	1306.60
414.01	1257.45
414.22	1255.40
414.43	1263.60
414.63	1304.56
414.84	1325.04
415.05	1259.50
415.25	1288.17
415.46	1255.40
415.67	1265.64
415.87	1208.30
416.08	1286.12
416.29	1232.88
416.49	1232.88
416.70	1243.12
416.91	1265.64
417.11	1228.78
417.32	1286.12
417.53	1265.64
417.73	1265.64
417.94	1236.97
418.15	1208.30
418.35	1359.85
418.56	1286.12
418.77	1273.84
418.97	1294.32
419.18	1206.25
419.38	1271.79
419.59	1265.64
419.80	1259.50
420.00	1298.41
420.21	1236.97
420.42	1327.08
420.62	1308.65
420.83	1275.88
421.04	1320.94
421.24	1277.93
421.45	1275.88
421.65	1241.07
421.86	1320.94
422.07	1261.55
422.27	1279.98
422.48	1265.64
422.69	1247.21
422.89	1290.22
423.10	1181.68
423.30	1290.22
423.51	1232.88
423.72	1214.45
423.92	1239.02
424.13	1239.02
424.33	1308.65
424.54	1286.12
424.75	1239.02
424.95	1306.60
425.16	1171.44
425.36	1286.12
425.57	1312.75
425.78	1312.75
425.98	1263.60
426.19	1249.26
426.39	1230.83
426.60	1236.97
426.81	1177.58
427.01	1361.90
427.22	1329.13
427.42	1300.46
427.63	1210.35
427.83	1230.83
428.04	1325.04
428.25	1228.78
428.45	1279.98
428.66	1312.75
428.86	1316.84
429.07	1236.97
429.28	1292.27
429.48	1232.88
429.69	1247.21
429.89	1304.56
430.10	1316.84
430.30	1271.79
430.51	1320.94
430.71	1327.08
430.92	1241.07
431.13	1232.88
431.33	1230.83
431.54	1214.45
431.74	1263.60
431.95	1165.29
432.15	1302.51
432.36	1277.93
432.56	1243.12
432.77	1245.16
432.98	1236.97
433.18	1245.16
433.39	1265.64
433.59	1308.65
433.80	1234.93
434.00	1265.64
434.21	1265.64
434.41	1259.50
434.62	1329.13
434.82	1208.30
435.03	1298.41
435.23	1286.12
435.44	1292.27
435.64	1314.80
435.85	1216.49
436.06	1210.35
436.26	1298.41
436.47	1325.04
436.67	1216.49
436.88	1267.69
437.08	1253.36
437.29	1298.41
437.49	1282.03
437.70	1273.84
437.90	1292.27
438.11	1216.49
438.31	1243.12
438.52	1202.16
438.72	1263.60
438.93	1300.46
439.13	1251.31
439.34	1249.26
439.54	1312.75
439.75	1236.97
439.95	1245.16
440.16	1247.21
440.36	1277.93
440.57	1181.68
440.77	1222.64
440.98	1288.17
441.18	1236.97
441.39	1263.60
441.59	1259.50
441.80	1263.60
442.00	1265.64
442.21	1253.36
442.41	1298.41
442.62	1292.27
442.82	1249.26
443.02	1232.88
443.23	1257.45
443.43	1222.64
443.64	1296.36
443.84	1361.90
444.05	1226.73
444.25	1257.45
444.46	1230.83
444.66	1228.78
444.87	1255.40
445.07	1236.97
445.28	1273.84
445.48	1322.99
445.69	1241.07
445.89	1284.08
446.09	1314.80
446.30	1269.74
446.50	1239.02
446.71	1304.56
446.91	1224.69
447.12	1265.64
447.32	1206.25
447.53	1300.46
447.73	1316.84
447.93	1267.69
448.14	1259.50
448.34	1322.99
448.55	1300.46
448.75	1331.18
448.96	1306.60
449.16	1267.69
449.36	1245.16
449.57	1234.93
449.77	1255.40
449.98	1216.49
450.18	1292.27
450.39	1312.75
450.59	1241.07
450.79	1296.36
451.00	1273.84
451.20	1419.24
451.41	1236.97
451.61	1302.51
451.81	1294.32
452.02	1214.45
452.22	1259.50
452.43	1267.69
452.63	1271.79
