SpectraSuite Data File
++++++++++++++++++++++++++++++++++++
Date: Sun Apr 03 19:55:17 CEST 2016
User: root
Dark Spectrum Present: No
Reference Spectrum Present: No
Number of Sampled Component Spectra: 1
Spectrometers: USB4C02835
Integration Time (usec): 10000 (USB4C02835)
Spectra Averaged: 1 (USB4C02835)
Boxcar Smoothing: 0 (USB4C02835)
Correct for Electrical Dark: No (USB4C02835)
Strobe/Lamp Enabled: No (USB4C02835)
Correct for Detector Non-linearity: No (USB4C02835)
Correct for Stray Light: No (USB4C02835)
Number of Pixels in Processed Spectrum: 3648
>>>>>Begin Processed Spectral Data<<<<<
177.47	1304.56
177.69	1304.56
177.91	1304.56
178.13	1271.79
178.36	1257.45
178.58	1140.72
178.80	1271.79
179.02	1218.54
179.24	1288.17
179.46	1243.12
179.68	1318.89
179.90	1273.84
180.13	1349.61
180.35	1271.79
180.57	1259.50
180.79	1245.16
181.01	1220.59
181.23	1275.88
181.45	1234.93
181.67	1302.51
181.90	1259.50
182.12	1208.30
182.34	1243.12
182.56	1292.27
182.78	1275.88
183.00	1269.74
183.22	1318.89
183.44	1210.35
183.66	1255.40
183.89	1310.70
184.11	1224.69
184.33	1282.03
184.55	1206.25
184.77	1146.86
184.99	1208.30
185.21	1333.23
185.43	1275.88
185.65	1257.45
185.87	1322.99
186.10	1282.03
186.32	1273.84
186.54	1327.08
186.76	1200.11
186.98	1204.21
187.20	1290.22
187.42	1230.83
187.64	1296.36
187.86	1320.94
188.08	1206.25
188.30	1282.03
188.52	1273.84
188.75	1271.79
188.97	1267.69
189.19	1294.32
189.41	1247.21
189.63	1249.26
189.85	1220.59
190.07	1308.65
190.29	1275.88
190.51	1243.12
190.73	1320.94
190.95	1216.49
191.17	1193.97
191.39	1275.88
191.61	1279.98
191.84	1298.41
192.06	1290.22
192.28	1257.45
192.50	1271.79
192.72	1239.02
192.94	1275.88
193.16	1247.21
193.38	1310.70
193.60	1216.49
193.82	1290.22
194.04	1257.45
194.26	1249.26
194.48	1224.69
194.70	1261.55
194.92	1267.69
195.14	1265.64
195.36	1232.88
195.58	1261.55
195.80	1212.40
196.02	1298.41
196.24	1337.32
196.46	1261.55
196.69	1183.73
196.91	1294.32
197.13	1273.84
197.35	1257.45
197.57	1306.60
197.79	1234.93
198.01	1300.46
198.23	1265.64
198.45	1232.88
198.67	1335.28
198.89	1290.22
199.11	1218.54
199.33	1261.55
199.55	1288.17
199.77	1302.51
199.99	1363.95
200.21	1220.59
200.43	1216.49
200.65	1261.55
200.87	1288.17
201.09	1288.17
201.31	1247.21
201.53	1224.69
201.75	1271.79
201.97	1245.16
202.19	1294.32
202.41	1212.40
202.63	1286.12
202.85	1298.41
203.07	1296.36
203.29	1236.97
203.51	1265.64
203.73	1253.36
203.95	1185.77
204.17	1351.66
204.39	1247.21
204.61	1275.88
204.83	1247.21
205.05	1198.06
205.27	1368.04
205.49	1263.60
205.71	1261.55
205.93	1277.93
206.15	1279.98
206.37	1245.16
206.59	1263.60
206.81	1222.64
207.03	1308.65
207.25	1241.07
207.47	1349.61
207.69	1284.08
207.91	1273.84
208.13	1243.12
208.34	1273.84
208.56	1294.32
208.78	1282.03
209.00	1210.35
209.22	1239.02
209.44	1210.35
209.66	1253.36
209.88	1249.26
210.10	1257.45
210.32	1304.56
210.54	1228.78
210.76	1232.88
210.98	1247.21
211.20	1271.79
211.42	1290.22
211.64	1312.75
211.86	1288.17
212.08	1253.36
212.30	1257.45
212.52	1312.75
212.74	1290.22
212.96	1218.54
213.17	1239.02
213.39	1230.83
213.61	1304.56
213.83	1216.49
214.05	1185.77
214.27	1253.36
214.49	1249.26
214.71	1310.70
214.93	1304.56
215.15	1275.88
215.37	1249.26
215.59	1298.41
215.81	1284.08
216.03	1265.64
216.24	1228.78
216.46	1146.86
216.68	1304.56
216.90	1296.36
217.12	1345.52
217.34	1388.52
217.56	1357.80
217.78	1204.21
218.00	1222.64
218.22	1368.04
218.44	1310.70
218.66	1312.75
218.87	1257.45
219.09	1236.97
219.31	1284.08
219.53	1228.78
219.75	1255.40
219.97	1294.32
220.19	1316.84
220.41	1214.45
220.63	1286.12
220.85	1320.94
221.06	1277.93
221.28	1286.12
221.50	1271.79
221.72	1269.74
221.94	1282.03
222.16	1218.54
222.38	1255.40
222.60	1200.11
222.82	1316.84
223.03	1232.88
223.25	1269.74
223.47	1290.22
223.69	1249.26
223.91	1198.06
224.13	1318.89
224.35	1230.83
224.57	1239.02
224.78	1310.70
225.00	1228.78
225.22	1304.56
225.44	1322.99
225.66	1243.12
225.88	1347.56
226.10	1210.35
226.32	1259.50
226.53	1249.26
226.75	1249.26
226.97	1263.60
227.19	1247.21
227.41	1275.88
227.63	1222.64
227.85	1327.08
228.06	1253.36
228.28	1208.30
228.50	1255.40
228.72	1228.78
228.94	1316.84
229.16	1296.36
229.37	1216.49
229.59	1271.79
229.81	1316.84
230.03	1202.16
230.25	1249.26
230.47	1249.26
230.69	1241.07
230.90	1245.16
231.12	1239.02
231.34	1267.69
231.56	1298.41
231.78	1251.31
232.00	1282.03
232.21	1282.03
232.43	1288.17
232.65	1167.34
232.87	1257.45
233.09	1249.26
233.30	1218.54
233.52	1284.08
233.74	1286.12
233.96	1269.74
234.18	1286.12
234.40	1216.49
234.61	1265.64
234.83	1247.21
235.05	1325.04
235.27	1271.79
235.49	1302.51
235.70	1269.74
235.92	1308.65
236.14	1322.99
236.36	1271.79
236.58	1318.89
236.79	1282.03
237.01	1243.12
237.23	1263.60
237.45	1218.54
237.67	1290.22
237.88	1241.07
238.10	1245.16
238.32	1218.54
238.54	1279.98
238.76	1312.75
238.97	1261.55
239.19	1275.88
239.41	1308.65
239.63	1265.64
239.85	1296.36
240.06	1247.21
240.28	1247.21
240.50	1247.21
240.72	1163.25
240.93	1304.56
241.15	1282.03
241.37	1265.64
241.59	1343.47
241.81	1249.26
242.02	1249.26
242.24	1292.27
242.46	1325.04
242.68	1294.32
242.89	1298.41
243.11	1255.40
243.33	1232.88
243.55	1255.40
243.76	1277.93
243.98	1230.83
244.20	1312.75
244.42	1302.51
244.64	1269.74
244.85	1218.54
245.07	1294.32
245.29	1234.93
245.51	1216.49
245.72	1220.59
245.94	1251.31
246.16	1257.45
246.38	1345.52
246.59	1271.79
246.81	1265.64
247.03	1263.60
247.24	1185.77
247.46	1269.74
247.68	1230.83
247.90	1243.12
248.11	1263.60
248.33	1226.73
248.55	1269.74
248.77	1273.84
248.98	1310.70
249.20	1249.26
249.42	1384.43
249.64	1275.88
249.85	1318.89
250.07	1286.12
250.29	1265.64
250.50	1259.50
250.72	1327.08
250.94	1304.56
251.16	1263.60
251.37	1241.07
251.59	1314.80
251.81	1239.02
252.02	1261.55
252.24	1247.21
252.46	1298.41
252.68	1261.55
252.89	1255.40
253.11	1296.36
253.33	1337.32
253.54	1320.94
253.76	1279.98
253.98	1177.58
254.20	1325.04
254.41	1300.46
254.63	1318.89
254.85	1282.03
255.06	1269.74
255.28	1245.16
255.50	1265.64
255.71	1236.97
255.93	1239.02
256.15	1253.36
256.36	1284.08
256.58	1308.65
256.80	1241.07
257.02	1290.22
257.23	1181.68
257.45	1300.46
257.67	1216.49
257.88	1296.36
258.10	1265.64
258.32	1202.16
258.53	1290.22
258.75	1327.08
258.97	1189.87
259.18	1308.65
259.40	1261.55
259.62	1302.51
259.83	1308.65
260.05	1257.45
260.27	1331.18
260.48	1271.79
260.70	1349.61
260.92	1310.70
261.13	1306.60
261.35	1271.79
261.57	1200.11
261.78	1284.08
262.00	1177.58
262.22	1253.36
262.43	1265.64
262.65	1259.50
262.86	1259.50
263.08	1308.65
263.30	1255.40
263.51	1275.88
263.73	1228.78
263.95	1257.45
264.16	1263.60
264.38	1312.75
264.60	1279.98
264.81	1298.41
265.03	1339.37
265.25	1216.49
265.46	1261.55
265.68	1318.89
265.89	1183.73
266.11	1277.93
266.33	1243.12
266.54	1306.60
266.76	1282.03
266.98	1327.08
267.19	1298.41
267.41	1259.50
267.62	1263.60
267.84	1251.31
268.06	1279.98
268.27	1257.45
268.49	1343.47
268.70	1253.36
268.92	1212.40
269.14	1265.64
269.35	1306.60
269.57	1349.61
269.79	1296.36
270.00	1230.83
270.22	1275.88
270.43	1239.02
270.65	1282.03
270.87	1230.83
271.08	1214.45
271.30	1241.07
271.51	1245.16
271.73	1282.03
271.95	1282.03
272.16	1220.59
272.38	1263.60
272.59	1265.64
272.81	1298.41
273.02	1253.36
273.24	1304.56
273.46	1296.36
273.67	1251.31
273.89	1249.26
274.10	1351.66
274.32	1253.36
274.54	1247.21
274.75	1228.78
274.97	1269.74
275.18	1275.88
275.40	1318.89
275.61	1335.28
275.83	1273.84
276.05	1224.69
276.26	1185.77
276.48	1267.69
276.69	1269.74
276.91	1318.89
277.12	1232.88
277.34	1282.03
277.55	1232.88
277.77	1269.74
277.99	1286.12
278.20	1220.59
278.42	1279.98
278.63	1251.31
278.85	1257.45
279.06	1261.55
279.28	1267.69
279.49	1191.92
279.71	1265.64
279.93	1286.12
280.14	1255.40
280.36	1275.88
280.57	1314.80
280.79	1265.64
281.00	1271.79
281.22	1236.97
281.43	1359.85
281.65	1234.93
281.86	1275.88
282.08	1275.88
282.29	1273.84
282.51	1247.21
282.73	1318.89
282.94	1214.45
283.16	1243.12
283.37	1314.80
283.59	1286.12
283.80	1234.93
284.02	1257.45
284.23	1275.88
284.45	1275.88
284.66	1261.55
284.88	1243.12
285.09	1267.69
285.31	1308.65
285.52	1220.59
285.74	1230.83
285.95	1337.32
286.17	1261.55
286.38	1298.41
286.60	1329.13
286.81	1189.87
287.03	1245.16
287.24	1128.43
287.46	1269.74
287.67	1257.45
287.89	1318.89
288.10	1216.49
288.32	1333.23
288.53	1277.93
288.75	1249.26
288.96	1206.25
289.18	1245.16
289.39	1247.21
289.61	1355.76
289.82	1259.50
290.04	1312.75
290.25	1216.49
290.47	1273.84
290.68	1273.84
290.90	1265.64
291.11	1290.22
291.33	1259.50
291.54	1279.98
291.76	1230.83
291.97	1232.88
292.18	1314.80
292.40	1277.93
292.61	1318.89
292.83	1296.36
293.04	1257.45
293.26	1273.84
293.47	1206.25
293.69	1318.89
293.90	1232.88
294.12	1196.01
294.33	1316.84
294.55	1257.45
294.76	1255.40
294.97	1198.06
295.19	1273.84
295.40	1275.88
295.62	1265.64
295.83	1247.21
296.05	1355.76
296.26	1236.97
296.48	1214.45
296.69	1273.84
296.90	1265.64
297.12	1269.74
297.33	1243.12
297.55	1294.32
297.76	1218.54
297.98	1196.01
298.19	1322.99
298.41	1290.22
298.62	1232.88
298.83	1300.46
299.05	1288.17
299.26	1263.60
299.48	1202.16
299.69	1300.46
299.90	1224.69
300.12	1273.84
300.33	1286.12
300.55	1265.64
300.76	1226.73
300.98	1343.47
301.19	1200.11
301.40	1269.74
301.62	1327.08
301.83	1243.12
302.05	1269.74
302.26	1314.80
302.47	1271.79
302.69	1327.08
302.90	1314.80
303.12	1200.11
303.33	1247.21
303.54	1288.17
303.76	1267.69
303.97	1263.60
304.19	1277.93
304.40	1257.45
304.61	1243.12
304.83	1222.64
305.04	1290.22
305.26	1245.16
305.47	1212.40
305.68	1284.08
305.90	1232.88
306.11	1247.21
306.33	1353.71
306.54	1230.83
306.75	1300.46
306.97	1245.16
307.18	1310.70
307.39	1294.32
307.61	1267.69
307.82	1282.03
308.04	1269.74
308.25	1179.63
308.46	1306.60
308.68	1247.21
308.89	1298.41
309.10	1325.04
309.32	1335.28
309.53	1279.98
309.74	1267.69
309.96	1273.84
310.17	1316.84
310.39	1234.93
310.60	1267.69
310.81	1310.70
311.03	1335.28
311.24	1312.75
311.45	1273.84
311.67	1249.26
311.88	1247.21
312.09	1269.74
312.31	1329.13
312.52	1286.12
312.73	1263.60
312.95	1269.74
313.16	1306.60
313.37	1279.98
313.59	1290.22
313.80	1257.45
314.01	1247.21
314.23	1306.60
314.44	1288.17
314.65	1175.53
314.87	1255.40
315.08	1249.26
315.29	1273.84
315.51	1204.21
315.72	1392.62
315.93	1216.49
316.15	1288.17
316.36	1251.31
316.57	1275.88
316.79	1216.49
317.00	1329.13
317.21	1288.17
317.43	1228.78
317.64	1261.55
317.85	1179.63
318.07	1312.75
318.28	1284.08
318.49	1277.93
318.70	1261.55
318.92	1312.75
319.13	1312.75
319.34	1296.36
319.56	1275.88
319.77	1253.36
319.98	1271.79
320.20	1255.40
320.41	1200.11
320.62	1312.75
320.83	1279.98
321.05	1286.12
321.26	1282.03
321.47	1269.74
321.69	1355.76
321.90	1310.70
322.11	1275.88
322.32	1245.16
322.54	1306.60
322.75	1253.36
322.96	1310.70
323.18	1277.93
323.39	1255.40
323.60	1257.45
323.81	1239.02
324.03	1286.12
324.24	1318.89
324.45	1220.59
324.66	1251.31
324.88	1245.16
325.09	1259.50
325.30	1275.88
325.52	1292.27
325.73	1275.88
325.94	1279.98
326.15	1292.27
326.37	1282.03
326.58	1200.11
326.79	1304.56
327.00	1198.06
327.22	1298.41
327.43	1220.59
327.64	1249.26
327.85	1273.84
328.07	1273.84
328.28	1271.79
328.49	1259.50
328.70	1208.30
328.92	1298.41
329.13	1226.73
329.34	1269.74
329.55	1300.46
329.76	1294.32
329.98	1220.59
330.19	1388.52
330.40	1218.54
330.61	1257.45
330.83	1214.45
331.04	1296.36
331.25	1193.97
331.46	1298.41
331.68	1290.22
331.89	1253.36
332.10	1239.02
332.31	1257.45
332.52	1263.60
332.74	1255.40
332.95	1290.22
333.16	1294.32
333.37	1335.28
333.58	1286.12
333.80	1277.93
334.01	1259.50
334.22	1286.12
334.43	1251.31
334.64	1267.69
334.86	1265.64
335.07	1271.79
335.28	1279.98
335.49	1331.18
335.70	1271.79
335.92	1345.52
336.13	1279.98
336.34	1316.84
336.55	1310.70
336.76	1247.21
336.98	1263.60
337.19	1228.78
337.40	1277.93
337.61	1298.41
337.82	1312.75
338.04	1212.40
338.25	1175.53
338.46	1318.89
338.67	1224.69
338.88	1257.45
339.09	1273.84
339.31	1288.17
339.52	1253.36
339.73	1310.70
339.94	1277.93
340.15	1327.08
340.36	1251.31
340.58	1308.65
340.79	1329.13
341.00	1306.60
341.21	1302.51
341.42	1294.32
341.63	1269.74
341.85	1226.73
342.06	1292.27
342.27	1308.65
342.48	1230.83
342.69	1249.26
342.90	1329.13
343.12	1300.46
343.33	1310.70
343.54	1243.12
343.75	1255.40
343.96	1292.27
344.17	1273.84
344.38	1320.94
344.60	1294.32
344.81	1232.88
345.02	1243.12
345.23	1302.51
345.44	1302.51
345.65	1232.88
345.86	1255.40
346.07	1296.36
346.29	1284.08
346.50	1208.30
346.71	1228.78
346.92	1296.36
347.13	1249.26
347.34	1294.32
347.55	1243.12
347.76	1275.88
347.98	1302.51
348.19	1329.13
348.40	1236.97
348.61	1234.93
348.82	1226.73
349.03	1259.50
349.24	1339.37
349.45	1265.64
349.66	1253.36
349.88	1232.88
350.09	1234.93
350.30	1339.37
350.51	1327.08
350.72	1308.65
350.93	1247.21
351.14	1234.93
351.35	1273.84
351.56	1218.54
351.77	1300.46
351.99	1224.69
352.20	1314.80
352.41	1277.93
352.62	1275.88
352.83	1206.25
353.04	1239.02
353.25	1312.75
353.46	1265.64
353.67	1263.60
353.88	1294.32
354.09	1269.74
354.30	1277.93
354.52	1271.79
354.73	1288.17
354.94	1259.50
355.15	1232.88
355.36	1290.22
355.57	1257.45
355.78	1218.54
355.99	1304.56
356.20	1257.45
356.41	1306.60
356.62	1292.27
356.83	1300.46
357.04	1320.94
357.25	1271.79
357.46	1292.27
357.68	1304.56
357.89	1282.03
358.10	1294.32
358.31	1234.93
358.52	1273.84
358.73	1218.54
358.94	1302.51
359.15	1253.36
359.36	1263.60
359.57	1224.69
359.78	1249.26
359.99	1304.56
360.20	1277.93
360.41	1384.43
360.62	1228.78
360.83	1267.69
361.04	1316.84
361.25	1234.93
361.46	1257.45
361.67	1286.12
361.88	1306.60
362.09	1269.74
362.30	1312.75
362.51	1282.03
362.72	1335.28
362.93	1241.07
363.14	1267.69
363.35	1218.54
363.56	1230.83
363.78	1208.30
363.99	1191.92
364.20	1198.06
364.41	1335.28
364.62	1273.84
364.83	1247.21
365.04	1265.64
365.25	1249.26
365.46	1335.28
365.67	1245.16
365.88	1279.98
366.09	1239.02
366.30	1269.74
366.51	1265.64
366.72	1220.59
366.93	1216.49
367.14	1263.60
367.35	1296.36
367.56	1241.07
367.77	1265.64
367.98	1316.84
368.18	1306.60
368.39	1253.36
368.60	1234.93
368.81	1232.88
369.02	1275.88
369.23	1263.60
369.44	1220.59
369.65	1245.16
369.86	1282.03
370.07	1294.32
370.28	1302.51
370.49	1224.69
370.70	1265.64
370.91	1245.16
371.12	1329.13
371.33	1316.84
371.54	1304.56
371.75	1290.22
371.96	1216.49
372.17	1296.36
372.38	1306.60
372.59	1245.16
372.80	1241.07
373.01	1294.32
373.22	1241.07
373.43	1263.60
373.64	1318.89
373.85	1351.66
374.06	1259.50
374.26	1359.85
374.47	1294.32
374.68	1243.12
374.89	1292.27
375.10	1253.36
375.31	1298.41
375.52	1273.84
375.73	1306.60
375.94	1279.98
376.15	1259.50
376.36	1236.97
376.57	1269.74
376.78	1302.51
376.99	1331.18
377.20	1368.04
377.40	1294.32
377.61	1185.77
377.82	1269.74
378.03	1282.03
378.24	1261.55
378.45	1245.16
378.66	1337.32
378.87	1269.74
379.08	1191.92
379.29	1185.77
379.50	1239.02
379.71	1273.84
379.91	1232.88
380.12	1267.69
380.33	1232.88
380.54	1282.03
380.75	1245.16
380.96	1327.08
381.17	1296.36
381.38	1359.85
381.59	1148.91
381.80	1279.98
382.00	1249.26
382.21	1308.65
382.42	1257.45
382.63	1265.64
382.84	1282.03
383.05	1300.46
383.26	1218.54
383.47	1257.45
383.68	1241.07
383.88	1241.07
384.09	1290.22
384.30	1339.37
384.51	1228.78
384.72	1298.41
384.93	1247.21
385.14	1245.16
385.35	1275.88
385.55	1290.22
385.76	1261.55
385.97	1234.93
386.18	1300.46
386.39	1202.16
386.60	1304.56
386.81	1202.16
387.02	1296.36
387.22	1267.69
387.43	1304.56
387.64	1294.32
387.85	1189.87
388.06	1241.07
388.27	1255.40
388.48	1202.16
388.68	1193.97
388.89	1292.27
389.10	1206.25
389.31	1263.60
389.52	1337.32
389.73	1234.93
389.93	1279.98
390.14	1224.69
390.35	1232.88
390.56	1292.27
390.77	1286.12
390.98	1236.97
391.18	1257.45
391.39	1245.16
391.60	1286.12
391.81	1263.60
392.02	1232.88
392.23	1302.51
392.43	1279.98
392.64	1322.99
392.85	1228.78
393.06	1230.83
393.27	1263.60
393.47	1265.64
393.68	1331.18
393.89	1241.07
394.10	1312.75
394.31	1316.84
394.52	1200.11
394.72	1269.74
394.93	1273.84
395.14	1306.60
395.35	1273.84
395.56	1230.83
395.76	1290.22
395.97	1314.80
396.18	1304.56
396.39	1273.84
396.60	1251.31
396.80	1224.69
397.01	1269.74
397.22	1269.74
397.43	1300.46
397.64	1253.36
397.84	1277.93
398.05	1224.69
398.26	1259.50
398.47	1259.50
398.67	1234.93
398.88	1255.40
399.09	1316.84
399.30	1247.21
399.51	1337.32
399.71	1179.63
399.92	1275.88
400.13	1294.32
400.34	1308.65
400.54	1306.60
400.75	1286.12
400.96	1214.45
401.17	1265.64
401.37	1318.89
401.58	1265.64
401.79	1230.83
402.00	1284.08
402.21	1228.78
402.41	1294.32
402.62	1224.69
402.83	1265.64
403.04	1300.46
403.24	1247.21
403.45	1224.69
403.66	1378.28
403.87	1200.11
404.07	1261.55
404.28	1294.32
404.49	1226.73
404.70	1318.89
404.90	1212.40
405.11	1245.16
405.32	1286.12
405.52	1282.03
405.73	1269.74
405.94	1271.79
406.15	1304.56
406.35	1202.16
406.56	1316.84
406.77	1314.80
406.98	1245.16
407.18	1265.64
407.39	1257.45
407.60	1259.50
407.80	1239.02
408.01	1269.74
408.22	1222.64
408.43	1275.88
408.63	1294.32
408.84	1228.78
409.05	1331.18
409.25	1210.35
409.46	1320.94
409.67	1234.93
409.88	1286.12
410.08	1222.64
410.29	1259.50
410.50	1300.46
410.70	1236.97
410.91	1320.94
411.12	1216.49
411.32	1171.44
411.53	1279.98
411.74	1259.50
411.95	1261.55
412.15	1259.50
412.36	1304.56
412.57	1277.93
412.77	1216.49
412.98	1230.83
413.19	1329.13
413.39	1269.74
413.60	1282.03
413.81	1300.46
414.01	1282.03
414.22	1320.94
414.43	1300.46
414.63	1236.97
414.84	1363.95
415.05	1265.64
415.25	1298.41
415.46	1224.69
415.67	1234.93
415.87	1279.98
416.08	1185.77
416.29	1267.69
416.49	1275.88
416.70	1210.35
416.91	1302.51
417.11	1279.98
417.32	1290.22
417.53	1230.83
417.73	1337.32
417.94	1292.27
418.15	1269.74
418.35	1314.80
418.56	1294.32
418.77	1277.93
418.97	1296.36
419.18	1226.73
419.38	1267.69
419.59	1308.65
419.80	1259.50
420.00	1222.64
420.21	1230.83
420.42	1247.21
420.62	1245.16
420.83	1218.54
421.04	1261.55
421.24	1220.59
421.45	1302.51
421.65	1212.40
421.86	1296.36
422.07	1259.50
422.27	1243.12
422.48	1208.30
422.69	1218.54
422.89	1220.59
423.10	1267.69
423.30	1218.54
423.51	1282.03
423.72	1263.60
423.92	1236.97
424.13	1181.68
424.33	1220.59
424.54	1191.92
424.75	1243.12
424.95	1279.98
425.16	1275.88
425.36	1255.40
425.57	1271.79
425.78	1239.02
425.98	1269.74
426.19	1234.93
426.39	1236.97
426.60	1245.16
426.81	1337.32
427.01	1189.87
427.22	1245.16
427.42	1286.12
427.63	1249.26
427.83	1298.41
428.04	1198.06
428.25	1273.84
428.45	1327.08
428.66	1239.02
428.86	1259.50
429.07	1267.69
429.28	1273.84
429.48	1279.98
429.69	1273.84
429.89	1292.27
430.10	1243.12
430.30	1224.69
430.51	1253.36
430.71	1259.50
430.92	1243.12
431.13	1292.27
431.33	1247.21
431.54	1241.07
431.74	1228.78
431.95	1239.02
432.15	1220.59
432.36	1249.26
432.56	1341.42
432.77	1284.08
432.98	1290.22
433.18	1251.31
433.39	1275.88
433.59	1263.60
433.80	1282.03
434.00	1271.79
434.21	1265.64
434.41	1243.12
434.62	1318.89
434.82	1310.70
435.03	1239.02
435.23	1288.17
435.44	1259.50
435.64	1286.12
435.85	1288.17
436.06	1249.26
436.26	1259.50
436.47	1196.01
436.67	1337.32
436.88	1277.93
437.08	1368.04
437.29	1198.06
437.49	1271.79
437.70	1271.79
437.90	1232.88
438.11	1312.75
438.31	1318.89
438.52	1191.92
438.72	1296.36
438.93	1322.99
439.13	1249.26
439.34	1208.30
439.54	1271.79
439.75	1286.12
439.95	1243.12
440.16	1279.98
440.36	1294.32
440.57	1230.83
440.77	1337.32
440.98	1257.45
441.18	1286.12
441.39	1310.70
441.59	1263.60
441.80	1257.45
442.00	1185.77
442.21	1294.32
442.41	1241.07
442.62	1239.02
442.82	1208.30
443.02	1329.13
443.23	1312.75
443.43	1226.73
443.64	1302.51
443.84	1234.93
444.05	1361.90
444.25	1253.36
444.46	1249.26
444.66	1286.12
444.87	1306.60
445.07	1206.25
445.28	1298.41
445.48	1232.88
445.69	1226.73
445.89	1286.12
446.09	1339.37
446.30	1306.60
446.50	1253.36
446.71	1259.50
446.91	1267.69
447.12	1318.89
447.32	1306.60
447.53	1310.70
447.73	1298.41
447.93	1288.17
448.14	1290.22
448.34	1261.55
448.55	1257.45
448.75	1292.27
448.96	1228.78
449.16	1263.60
449.36	1279.98
449.57	1255.40
449.77	1273.84
449.98	1249.26
450.18	1286.12
450.39	1339.37
450.59	1296.36
450.79	1306.60
451.00	1269.74
451.20	1236.97
451.41	1249.26
451.61	1347.56
451.81	1257.45
452.02	1304.56
452.22	1214.45
452.43	1261.55
452.63	1234.93
