SpectraSuite Data File
++++++++++++++++++++++++++++++++++++
Date: Sun Apr 03 19:55:21 CEST 2016
User: root
Dark Spectrum Present: No
Reference Spectrum Present: No
Number of Sampled Component Spectra: 1
Spectrometers: USB4C02835
Integration Time (usec): 10000 (USB4C02835)
Spectra Averaged: 1 (USB4C02835)
Boxcar Smoothing: 0 (USB4C02835)
Correct for Electrical Dark: No (USB4C02835)
Strobe/Lamp Enabled: No (USB4C02835)
Correct for Detector Non-linearity: No (USB4C02835)
Correct for Stray Light: No (USB4C02835)
Number of Pixels in Processed Spectrum: 3648
>>>>>Begin Processed Spectral Data<<<<<
177.47	1265.64
177.69	1265.64
177.91	1265.64
178.13	1306.60
178.36	1249.26
178.58	1374.19
178.80	1320.94
179.02	1284.08
179.24	1314.80
179.46	1259.50
179.68	1253.36
179.90	1226.73
180.13	1232.88
180.35	1249.26
180.57	1224.69
180.79	1345.52
181.01	1243.12
181.23	1206.25
181.45	1294.32
181.67	1220.59
181.90	1294.32
182.12	1298.41
182.34	1261.55
182.56	1249.26
182.78	1380.33
183.00	1251.31
183.22	1290.22
183.44	1226.73
183.66	1286.12
183.89	1271.79
184.11	1208.30
184.33	1259.50
184.55	1288.17
184.77	1251.31
184.99	1288.17
185.21	1284.08
185.43	1204.21
185.65	1253.36
185.87	1312.75
186.10	1277.93
186.32	1191.92
186.54	1314.80
186.76	1275.88
186.98	1296.36
187.20	1251.31
187.42	1220.59
187.64	1273.84
187.86	1372.14
188.08	1232.88
188.30	1275.88
188.52	1243.12
188.75	1269.74
188.97	1290.22
189.19	1267.69
189.41	1261.55
189.63	1214.45
189.85	1200.11
190.07	1269.74
190.29	1333.23
190.51	1239.02
190.73	1243.12
190.95	1265.64
191.17	1277.93
191.39	1261.55
191.61	1282.03
191.84	1308.65
192.06	1296.36
192.28	1212.40
192.50	1331.18
192.72	1179.63
192.94	1249.26
193.16	1255.40
193.38	1282.03
193.60	1267.69
193.82	1259.50
194.04	1310.70
194.26	1247.21
194.48	1239.02
194.70	1292.27
194.92	1302.51
195.14	1232.88
195.36	1339.37
195.58	1257.45
195.80	1259.50
196.02	1322.99
196.24	1243.12
196.46	1269.74
196.69	1282.03
196.91	1271.79
197.13	1277.93
197.35	1282.03
197.57	1263.60
197.79	1310.70
198.01	1226.73
198.23	1257.45
198.45	1296.36
198.67	1255.40
198.89	1222.64
199.11	1314.80
199.33	1236.97
199.55	1275.88
199.77	1310.70
199.99	1241.07
200.21	1277.93
200.43	1257.45
200.65	1253.36
200.87	1265.64
201.09	1269.74
201.31	1206.25
201.53	1241.07
201.75	1247.21
201.97	1322.99
202.19	1206.25
202.41	1220.59
202.63	1300.46
202.85	1322.99
203.07	1304.56
203.29	1181.68
203.51	1271.79
203.73	1150.96
203.95	1273.84
204.17	1290.22
204.39	1273.84
204.61	1271.79
204.83	1220.59
205.05	1253.36
205.27	1261.55
205.49	1310.70
205.71	1306.60
205.93	1177.58
206.15	1302.51
206.37	1204.21
206.59	1325.04
206.81	1267.69
207.03	1296.36
207.25	1265.64
207.47	1255.40
207.69	1241.07
207.91	1304.56
208.13	1265.64
208.34	1286.12
208.56	1251.31
208.78	1253.36
209.00	1263.60
209.22	1216.49
209.44	1224.69
209.66	1191.92
209.88	1234.93
210.10	1318.89
210.32	1261.55
210.54	1298.41
210.76	1261.55
210.98	1329.13
211.20	1318.89
211.42	1314.80
211.64	1200.11
211.86	1343.47
212.08	1286.12
212.30	1282.03
212.52	1355.76
212.74	1273.84
212.96	1249.26
213.17	1253.36
213.39	1310.70
213.61	1249.26
213.83	1236.97
214.05	1253.36
214.27	1232.88
214.49	1245.16
214.71	1294.32
214.93	1202.16
215.15	1316.84
215.37	1230.83
215.59	1218.54
215.81	1222.64
216.03	1279.98
216.24	1232.88
216.46	1259.50
216.68	1234.93
216.90	1261.55
217.12	1296.36
217.34	1331.18
217.56	1265.64
217.78	1259.50
218.00	1179.63
218.22	1275.88
218.44	1288.17
218.66	1294.32
218.87	1263.60
219.09	1316.84
219.31	1282.03
219.53	1273.84
219.75	1200.11
219.97	1286.12
220.19	1294.32
220.41	1247.21
220.63	1224.69
220.85	1300.46
221.06	1329.13
221.28	1251.31
221.50	1228.78
221.72	1234.93
221.94	1269.74
222.16	1302.51
222.38	1282.03
222.60	1277.93
222.82	1300.46
223.03	1284.08
223.25	1239.02
223.47	1339.37
223.69	1337.32
223.91	1259.50
224.13	1173.49
224.35	1273.84
224.57	1224.69
224.78	1298.41
225.00	1265.64
225.22	1265.64
225.44	1292.27
225.66	1228.78
225.88	1279.98
226.10	1335.28
226.32	1255.40
226.53	1249.26
226.75	1236.97
226.97	1314.80
227.19	1216.49
227.41	1239.02
227.63	1251.31
227.85	1257.45
228.06	1279.98
228.28	1245.16
228.50	1245.16
228.72	1275.88
228.94	1298.41
229.16	1196.01
229.37	1249.26
229.59	1224.69
229.81	1273.84
230.03	1255.40
230.25	1230.83
230.47	1286.12
230.69	1218.54
230.90	1236.97
231.12	1329.13
231.34	1243.12
231.56	1257.45
231.78	1269.74
232.00	1273.84
232.21	1183.73
232.43	1298.41
232.65	1212.40
232.87	1255.40
233.09	1249.26
233.30	1243.12
233.52	1232.88
233.74	1273.84
233.96	1241.07
234.18	1265.64
234.40	1322.99
234.61	1269.74
234.83	1204.21
235.05	1263.60
235.27	1279.98
235.49	1290.22
235.70	1298.41
235.92	1173.49
236.14	1228.78
236.36	1261.55
236.58	1290.22
236.79	1298.41
237.01	1239.02
237.23	1290.22
237.45	1286.12
237.67	1271.79
237.88	1271.79
238.10	1247.21
238.32	1263.60
238.54	1251.31
238.76	1275.88
238.97	1239.02
239.19	1259.50
239.41	1296.36
239.63	1187.82
239.85	1312.75
240.06	1300.46
240.28	1265.64
240.50	1282.03
240.72	1232.88
240.93	1284.08
241.15	1277.93
241.37	1257.45
241.59	1265.64
241.81	1257.45
242.02	1271.79
242.24	1243.12
242.46	1257.45
242.68	1282.03
242.89	1312.75
243.11	1202.16
243.33	1290.22
243.55	1218.54
243.76	1302.51
243.98	1239.02
244.20	1259.50
244.42	1298.41
244.64	1294.32
244.85	1347.56
245.07	1265.64
245.29	1290.22
245.51	1292.27
245.72	1282.03
245.94	1279.98
246.16	1253.36
246.38	1200.11
246.59	1265.64
246.81	1275.88
247.03	1296.36
247.24	1269.74
247.46	1243.12
247.68	1247.21
247.90	1339.37
248.11	1226.73
248.33	1312.75
248.55	1261.55
248.77	1329.13
248.98	1277.93
249.20	1273.84
249.42	1234.93
249.64	1300.46
249.85	1304.56
250.07	1351.66
250.29	1277.93
250.50	1247.21
250.72	1216.49
250.94	1269.74
251.16	1269.74
251.37	1212.40
251.59	1259.50
251.81	1322.99
252.02	1351.66
252.24	1273.84
252.46	1296.36
252.68	1261.55
252.89	1247.21
253.11	1218.54
253.33	1251.31
253.54	1267.69
253.76	1263.60
253.98	1288.17
254.20	1275.88
254.41	1269.74
254.63	1310.70
254.85	1251.31
255.06	1304.56
255.28	1271.79
255.50	1286.12
255.71	1298.41
255.93	1331.18
256.15	1251.31
256.36	1267.69
256.58	1245.16
256.80	1279.98
257.02	1288.17
257.23	1284.08
257.45	1224.69
257.67	1279.98
257.88	1187.82
258.10	1259.50
258.32	1218.54
258.53	1275.88
258.75	1300.46
258.97	1224.69
259.18	1275.88
259.40	1230.83
259.62	1275.88
259.83	1275.88
260.05	1284.08
260.27	1249.26
260.48	1294.32
260.70	1298.41
260.92	1212.40
261.13	1220.59
261.35	1216.49
261.57	1234.93
261.78	1314.80
262.00	1339.37
262.22	1191.92
262.43	1226.73
262.65	1282.03
262.86	1290.22
263.08	1245.16
263.30	1290.22
263.51	1290.22
263.73	1288.17
263.95	1259.50
264.16	1265.64
264.38	1316.84
264.60	1267.69
264.81	1255.40
265.03	1261.55
265.25	1275.88
265.46	1284.08
265.68	1243.12
265.89	1312.75
266.11	1271.79
266.33	1232.88
266.54	1300.46
266.76	1273.84
266.98	1284.08
267.19	1296.36
267.41	1273.84
267.62	1277.93
267.84	1284.08
268.06	1269.74
268.27	1243.12
268.49	1282.03
268.70	1347.56
268.92	1290.22
269.14	1212.40
269.35	1310.70
269.57	1286.12
269.79	1314.80
270.00	1279.98
270.22	1300.46
270.43	1292.27
270.65	1232.88
270.87	1257.45
271.08	1269.74
271.30	1314.80
271.51	1243.12
271.73	1245.16
271.95	1265.64
272.16	1269.74
272.38	1228.78
272.59	1232.88
272.81	1277.93
273.02	1236.97
273.24	1255.40
273.46	1253.36
273.67	1243.12
273.89	1261.55
274.10	1298.41
274.32	1290.22
274.54	1230.83
274.75	1286.12
274.97	1218.54
275.18	1284.08
275.40	1366.00
275.61	1247.21
275.83	1261.55
276.05	1208.30
276.26	1273.84
276.48	1253.36
276.69	1212.40
276.91	1234.93
277.12	1282.03
277.34	1288.17
277.55	1282.03
277.77	1316.84
277.99	1349.61
278.20	1204.21
278.42	1232.88
278.63	1269.74
278.85	1261.55
279.06	1275.88
279.28	1322.99
279.49	1232.88
279.71	1284.08
279.93	1267.69
280.14	1218.54
280.36	1218.54
280.57	1320.94
280.79	1269.74
281.00	1230.83
281.22	1261.55
281.43	1316.84
281.65	1273.84
281.86	1245.16
282.08	1259.50
282.29	1327.08
282.51	1298.41
282.73	1282.03
282.94	1204.21
283.16	1263.60
283.37	1267.69
283.59	1200.11
283.80	1267.69
284.02	1277.93
284.23	1249.26
284.45	1216.49
284.66	1316.84
284.88	1224.69
285.09	1257.45
285.31	1236.97
285.52	1284.08
285.74	1259.50
285.95	1277.93
286.17	1210.35
286.38	1296.36
286.60	1286.12
286.81	1300.46
287.03	1232.88
287.24	1236.97
287.46	1251.31
287.67	1304.56
287.89	1277.93
288.10	1277.93
288.32	1306.60
288.53	1312.75
288.75	1282.03
288.96	1290.22
289.18	1265.64
289.39	1296.36
289.61	1290.22
289.82	1292.27
290.04	1269.74
290.25	1320.94
290.47	1257.45
290.68	1343.47
290.90	1210.35
291.11	1302.51
291.33	1249.26
291.54	1210.35
291.76	1226.73
291.97	1282.03
292.18	1212.40
292.40	1216.49
292.61	1273.84
292.83	1234.93
293.04	1267.69
293.26	1253.36
293.47	1259.50
293.69	1241.07
293.90	1279.98
294.12	1257.45
294.33	1247.21
294.55	1210.35
294.76	1296.36
294.97	1241.07
295.19	1249.26
295.40	1296.36
295.62	1296.36
295.83	1234.93
296.05	1234.93
296.26	1296.36
296.48	1273.84
296.69	1284.08
296.90	1169.39
297.12	1282.03
297.33	1271.79
297.55	1288.17
297.76	1271.79
297.98	1216.49
298.19	1298.41
298.41	1255.40
298.62	1304.56
298.83	1253.36
299.05	1318.89
299.26	1269.74
299.48	1298.41
299.69	1267.69
299.90	1239.02
300.12	1245.16
300.33	1320.94
300.55	1288.17
300.76	1257.45
300.98	1212.40
301.19	1279.98
301.40	1245.16
301.62	1230.83
301.83	1210.35
302.05	1245.16
302.26	1265.64
302.47	1263.60
302.69	1267.69
302.90	1302.51
303.12	1247.21
303.33	1312.75
303.54	1282.03
303.76	1282.03
303.97	1249.26
304.19	1310.70
304.40	1222.64
304.61	1286.12
304.83	1263.60
305.04	1294.32
305.26	1337.32
305.47	1275.88
305.68	1351.66
305.90	1239.02
306.11	1196.01
306.33	1255.40
306.54	1218.54
306.75	1282.03
306.97	1263.60
307.18	1228.78
307.39	1306.60
307.61	1261.55
307.82	1300.46
308.04	1331.18
308.25	1343.47
308.46	1191.92
308.68	1269.74
308.89	1310.70
309.10	1261.55
309.32	1312.75
309.53	1267.69
309.74	1296.36
309.96	1298.41
310.17	1325.04
310.39	1284.08
310.60	1267.69
310.81	1255.40
311.03	1265.64
311.24	1249.26
311.45	1277.93
311.67	1292.27
311.88	1159.15
312.09	1204.21
312.31	1232.88
312.52	1277.93
312.73	1294.32
312.95	1347.56
313.16	1310.70
313.37	1263.60
313.59	1259.50
313.80	1263.60
314.01	1263.60
314.23	1247.21
314.44	1239.02
314.65	1243.12
314.87	1245.16
315.08	1298.41
315.29	1245.16
315.51	1341.42
315.72	1290.22
315.93	1282.03
316.15	1314.80
316.36	1224.69
316.57	1318.89
316.79	1304.56
317.00	1193.97
317.21	1222.64
317.43	1263.60
317.64	1196.01
317.85	1308.65
318.07	1265.64
318.28	1259.50
318.49	1267.69
318.70	1267.69
318.92	1245.16
319.13	1239.02
319.34	1279.98
319.56	1247.21
319.77	1191.92
319.98	1284.08
320.20	1296.36
320.41	1212.40
320.62	1320.94
320.83	1296.36
321.05	1296.36
321.26	1239.02
321.47	1286.12
321.69	1261.55
321.90	1247.21
322.11	1271.79
322.32	1236.97
322.54	1318.89
322.75	1279.98
322.96	1234.93
323.18	1253.36
323.39	1273.84
323.60	1236.97
323.81	1265.64
324.03	1234.93
324.24	1259.50
324.45	1359.85
324.66	1331.18
324.88	1208.30
325.09	1220.59
325.30	1224.69
325.52	1245.16
325.73	1198.06
325.94	1292.27
326.15	1251.31
326.37	1236.97
326.58	1269.74
326.79	1284.08
327.00	1232.88
327.22	1290.22
327.43	1224.69
327.64	1253.36
327.85	1294.32
328.07	1275.88
328.28	1257.45
328.49	1279.98
328.70	1275.88
328.92	1322.99
329.13	1224.69
329.34	1302.51
329.55	1263.60
329.76	1314.80
329.98	1277.93
330.19	1249.26
330.40	1353.71
330.61	1271.79
330.83	1232.88
331.04	1275.88
331.25	1234.93
331.46	1282.03
331.68	1232.88
331.89	1302.51
332.10	1292.27
332.31	1208.30
332.52	1273.84
332.74	1245.16
332.95	1241.07
333.16	1271.79
333.37	1284.08
333.58	1241.07
333.80	1191.92
334.01	1273.84
334.22	1279.98
334.43	1339.37
334.64	1282.03
334.86	1355.76
335.07	1206.25
335.28	1214.45
335.49	1263.60
335.70	1282.03
335.92	1241.07
336.13	1253.36
336.34	1216.49
336.55	1306.60
336.76	1236.97
336.98	1302.51
337.19	1298.41
337.40	1226.73
337.61	1345.52
337.82	1253.36
338.04	1302.51
338.25	1241.07
338.46	1282.03
338.67	1322.99
338.88	1288.17
339.09	1230.83
339.31	1224.69
339.52	1273.84
339.73	1261.55
339.94	1282.03
340.15	1202.16
340.36	1306.60
340.58	1259.50
340.79	1263.60
341.00	1202.16
341.21	1314.80
341.42	1327.08
341.63	1243.12
341.85	1243.12
342.06	1241.07
342.27	1269.74
342.48	1243.12
342.69	1259.50
342.90	1259.50
343.12	1329.13
343.33	1310.70
343.54	1263.60
343.75	1320.94
343.96	1302.51
344.17	1263.60
344.38	1298.41
344.60	1198.06
344.81	1290.22
345.02	1212.40
345.23	1294.32
345.44	1363.95
345.65	1230.83
345.86	1247.21
346.07	1185.77
346.29	1290.22
346.50	1265.64
346.71	1284.08
346.92	1259.50
347.13	1181.68
347.34	1226.73
347.55	1239.02
347.76	1302.51
347.98	1284.08
348.19	1216.49
348.40	1277.93
348.61	1325.04
348.82	1263.60
349.03	1241.07
349.24	1288.17
349.45	1282.03
349.66	1263.60
349.88	1300.46
350.09	1288.17
350.30	1329.13
350.51	1372.14
350.72	1241.07
350.93	1253.36
351.14	1286.12
351.35	1177.58
351.56	1263.60
351.77	1302.51
351.99	1355.76
352.20	1267.69
352.41	1288.17
352.62	1294.32
352.83	1298.41
353.04	1292.27
353.25	1263.60
353.46	1175.53
353.67	1271.79
353.88	1255.40
354.09	1286.12
354.30	1206.25
354.52	1294.32
354.73	1261.55
354.94	1245.16
355.15	1288.17
355.36	1353.71
355.57	1273.84
355.78	1239.02
355.99	1320.94
356.20	1257.45
356.41	1253.36
356.62	1345.52
356.83	1320.94
357.04	1257.45
357.25	1345.52
357.46	1277.93
357.68	1286.12
357.89	1277.93
358.10	1273.84
358.31	1239.02
358.52	1322.99
358.73	1273.84
358.94	1277.93
359.15	1269.74
359.36	1329.13
359.57	1271.79
359.78	1298.41
359.99	1261.55
360.20	1191.92
360.41	1234.93
360.62	1261.55
360.83	1257.45
361.04	1325.04
361.25	1214.45
361.46	1357.80
361.67	1296.36
361.88	1284.08
362.09	1331.18
362.30	1220.59
362.51	1216.49
362.72	1224.69
362.93	1286.12
363.14	1279.98
363.35	1261.55
363.56	1241.07
363.78	1251.31
363.99	1294.32
364.20	1236.97
364.41	1298.41
364.62	1277.93
364.83	1257.45
365.04	1249.26
365.25	1265.64
365.46	1273.84
365.67	1218.54
365.88	1261.55
366.09	1249.26
366.30	1267.69
366.51	1249.26
366.72	1232.88
366.93	1290.22
367.14	1261.55
367.35	1296.36
367.56	1308.65
367.77	1271.79
367.98	1279.98
368.18	1308.65
368.39	1273.84
368.60	1255.40
368.81	1300.46
369.02	1351.66
369.23	1275.88
369.44	1255.40
369.65	1275.88
369.86	1189.87
370.07	1286.12
370.28	1282.03
370.49	1224.69
370.70	1198.06
370.91	1261.55
371.12	1263.60
371.33	1253.36
371.54	1288.17
371.75	1306.60
371.96	1277.93
372.17	1296.36
372.38	1236.97
372.59	1247.21
372.80	1288.17
373.01	1259.50
373.22	1296.36
373.43	1261.55
373.64	1261.55
373.85	1279.98
374.06	1200.11
374.26	1275.88
374.47	1288.17
374.68	1363.95
374.89	1226.73
375.10	1290.22
375.31	1282.03
375.52	1232.88
375.73	1290.22
375.94	1339.37
376.15	1275.88
376.36	1185.77
376.57	1216.49
376.78	1302.51
376.99	1198.06
377.20	1193.97
377.40	1247.21
377.61	1284.08
377.82	1259.50
378.03	1308.65
378.24	1255.40
378.45	1320.94
378.66	1222.64
378.87	1267.69
379.08	1234.93
379.29	1318.89
379.50	1288.17
379.71	1290.22
379.91	1220.59
380.12	1243.12
380.33	1232.88
380.54	1241.07
380.75	1257.45
380.96	1255.40
381.17	1241.07
381.38	1261.55
381.59	1247.21
381.80	1245.16
382.00	1337.32
382.21	1286.12
382.42	1298.41
382.63	1210.35
382.84	1232.88
383.05	1284.08
383.26	1310.70
383.47	1267.69
383.68	1294.32
383.88	1308.65
384.09	1253.36
384.30	1286.12
384.51	1271.79
384.72	1300.46
384.93	1232.88
385.14	1275.88
385.35	1253.36
385.55	1279.98
385.76	1296.36
385.97	1271.79
386.18	1232.88
386.39	1251.31
386.60	1214.45
386.81	1337.32
387.02	1204.21
387.22	1300.46
387.43	1206.25
387.64	1243.12
387.85	1216.49
388.06	1273.84
388.27	1312.75
388.48	1249.26
388.68	1241.07
388.89	1275.88
389.10	1236.97
389.31	1216.49
389.52	1228.78
389.73	1253.36
389.93	1210.35
390.14	1196.01
390.35	1232.88
390.56	1251.31
390.77	1245.16
390.98	1273.84
391.18	1355.76
391.39	1265.64
391.60	1257.45
391.81	1279.98
392.02	1226.73
392.23	1239.02
392.43	1288.17
392.64	1282.03
392.85	1288.17
393.06	1255.40
393.27	1259.50
393.47	1234.93
393.68	1286.12
393.89	1288.17
394.10	1284.08
394.31	1224.69
394.52	1271.79
394.72	1347.56
394.93	1286.12
395.14	1284.08
395.35	1302.51
395.56	1216.49
395.76	1261.55
395.97	1279.98
396.18	1273.84
396.39	1286.12
396.60	1320.94
396.80	1202.16
397.01	1304.56
397.22	1259.50
397.43	1302.51
397.64	1284.08
397.84	1279.98
398.05	1218.54
398.26	1374.19
398.47	1275.88
398.67	1302.51
398.88	1200.11
399.09	1322.99
399.30	1202.16
399.51	1236.97
399.71	1226.73
399.92	1273.84
400.13	1263.60
400.34	1232.88
400.54	1202.16
400.75	1230.83
400.96	1304.56
401.17	1333.23
401.37	1261.55
401.58	1273.84
401.79	1271.79
402.00	1310.70
402.21	1251.31
402.41	1288.17
402.62	1267.69
402.83	1257.45
403.04	1253.36
403.24	1282.03
403.45	1220.59
403.66	1243.12
403.87	1322.99
404.07	1267.69
404.28	1312.75
404.49	1292.27
404.70	1343.47
404.90	1265.64
405.11	1259.50
405.32	1253.36
405.52	1232.88
405.73	1234.93
405.94	1320.94
406.15	1249.26
406.35	1271.79
406.56	1288.17
406.77	1265.64
406.98	1265.64
407.18	1220.59
407.39	1249.26
407.60	1232.88
407.80	1247.21
408.01	1232.88
408.22	1376.24
408.43	1286.12
408.63	1306.60
408.84	1204.21
409.05	1245.16
409.25	1267.69
409.46	1345.52
409.67	1224.69
409.88	1255.40
410.08	1286.12
410.29	1261.55
410.50	1267.69
410.70	1288.17
410.91	1333.23
411.12	1292.27
411.32	1320.94
411.53	1224.69
411.74	1220.59
411.95	1273.84
412.15	1232.88
412.36	1218.54
412.57	1255.40
412.77	1253.36
412.98	1298.41
413.19	1273.84
413.39	1259.50
413.60	1277.93
413.81	1185.77
414.01	1232.88
414.22	1279.98
414.43	1208.30
414.63	1279.98
414.84	1253.36
415.05	1273.84
415.25	1239.02
415.46	1310.70
415.67	1245.16
415.87	1304.56
416.08	1290.22
416.29	1241.07
416.49	1230.83
416.70	1273.84
416.91	1183.73
417.11	1302.51
417.32	1226.73
417.53	1300.46
417.73	1282.03
417.94	1259.50
418.15	1255.40
418.35	1298.41
418.56	1277.93
418.77	1210.35
418.97	1298.41
419.18	1374.19
419.38	1267.69
419.59	1224.69
419.80	1308.65
420.00	1269.74
420.21	1263.60
420.42	1255.40
420.62	1239.02
420.83	1275.88
421.04	1351.66
421.24	1220.59
421.45	1322.99
421.65	1208.30
421.86	1320.94
422.07	1296.36
422.27	1228.78
422.48	1218.54
422.69	1263.60
422.89	1241.07
423.10	1236.97
423.30	1263.60
423.51	1247.21
423.72	1277.93
423.92	1275.88
424.13	1312.75
424.33	1265.64
424.54	1273.84
424.75	1271.79
424.95	1318.89
425.16	1177.58
425.36	1277.93
425.57	1245.16
425.78	1171.44
425.98	1294.32
426.19	1249.26
426.39	1308.65
426.60	1230.83
426.81	1253.36
427.01	1269.74
427.22	1202.16
427.42	1183.73
427.63	1232.88
427.83	1359.85
428.04	1249.26
428.25	1304.56
428.45	1306.60
428.66	1224.69
428.86	1279.98
429.07	1261.55
429.28	1294.32
429.48	1243.12
429.69	1286.12
429.89	1331.18
430.10	1312.75
430.30	1261.55
430.51	1175.53
430.71	1206.25
430.92	1208.30
431.13	1216.49
431.33	1378.28
431.54	1232.88
431.74	1296.36
431.95	1216.49
432.15	1220.59
432.36	1292.27
432.56	1314.80
432.77	1216.49
432.98	1284.08
433.18	1224.69
433.39	1271.79
433.59	1306.60
433.80	1249.26
434.00	1218.54
434.21	1210.35
434.41	1298.41
434.62	1251.31
434.82	1230.83
435.03	1296.36
435.23	1216.49
435.44	1304.56
435.64	1310.70
435.85	1232.88
436.06	1191.92
436.26	1193.97
436.47	1236.97
436.67	1267.69
436.88	1234.93
437.08	1277.93
437.29	1314.80
437.49	1290.22
437.70	1325.04
437.90	1212.40
438.11	1255.40
438.31	1218.54
438.52	1263.60
438.72	1290.22
438.93	1191.92
439.13	1306.60
439.34	1220.59
439.54	1259.50
439.75	1310.70
439.95	1312.75
440.16	1245.16
440.36	1282.03
440.57	1277.93
440.77	1247.21
440.98	1253.36
441.18	1253.36
441.39	1269.74
441.59	1259.50
441.80	1232.88
442.00	1269.74
442.21	1265.64
442.41	1277.93
442.62	1239.02
442.82	1257.45
443.02	1245.16
443.23	1298.41
443.43	1316.84
443.64	1148.91
443.84	1214.45
444.05	1247.21
444.25	1288.17
444.46	1288.17
444.66	1241.07
444.87	1273.84
445.07	1290.22
445.28	1239.02
445.48	1251.31
445.69	1320.94
445.89	1302.51
446.09	1288.17
446.30	1349.61
446.50	1322.99
446.71	1304.56
446.91	1234.93
447.12	1200.11
447.32	1245.16
447.53	1277.93
447.73	1322.99
447.93	1257.45
448.14	1269.74
448.34	1253.36
448.55	1279.98
448.75	1290.22
448.96	1286.12
449.16	1314.80
449.36	1300.46
449.57	1304.56
449.77	1247.21
449.98	1253.36
450.18	1239.02
450.39	1259.50
450.59	1279.98
450.79	1294.32
451.00	1230.83
451.20	1294.32
451.41	1269.74
451.61	1251.31
451.81	1230.83
452.02	1263.60
452.22	1294.32
452.43	1259.50
452.63	1265.64
