SpectraSuite Data File
++++++++++++++++++++++++++++++++++++
Date: Sun Apr 03 19:55:51 CEST 2016
User: root
Dark Spectrum Present: No
Reference Spectrum Present: No
Number of Sampled Component Spectra: 1
Spectrometers: USB4C02835
Integration Time (usec): 10000 (USB4C02835)
Spectra Averaged: 1 (USB4C02835)
Boxcar Smoothing: 0 (USB4C02835)
Correct for Electrical Dark: No (USB4C02835)
Strobe/Lamp Enabled: No (USB4C02835)
Correct for Detector Non-linearity: No (USB4C02835)
Correct for Stray Light: No (USB4C02835)
Number of Pixels in Processed Spectrum: 3648
>>>>>Begin Processed Spectral Data<<<<<
177.47	1228.78
177.69	1228.78
177.91	1228.78
178.13	1290.22
178.36	1312.75
178.58	1273.84
178.80	1284.08
179.02	1200.11
179.24	1249.26
179.46	1267.69
179.68	1261.55
179.90	1265.64
180.13	1271.79
180.35	1245.16
180.57	1230.83
180.79	1245.16
181.01	1296.36
181.23	1302.51
181.45	1269.74
181.67	1230.83
181.90	1236.97
182.12	1218.54
182.34	1218.54
182.56	1249.26
182.78	1296.36
183.00	1259.50
183.22	1251.31
183.44	1267.69
183.66	1318.89
183.89	1206.25
184.11	1257.45
184.33	1282.03
184.55	1290.22
184.77	1275.88
184.99	1255.40
185.21	1220.59
185.43	1259.50
185.65	1247.21
185.87	1257.45
186.10	1294.32
186.32	1261.55
186.54	1232.88
186.76	1251.31
186.98	1261.55
187.20	1286.12
187.42	1228.78
187.64	1282.03
187.86	1316.84
188.08	1196.01
188.30	1288.17
188.52	1185.77
188.75	1193.97
188.97	1255.40
189.19	1327.08
189.41	1241.07
189.63	1300.46
189.85	1337.32
190.07	1302.51
190.29	1208.30
190.51	1255.40
190.73	1255.40
190.95	1318.89
191.17	1261.55
191.39	1288.17
191.61	1222.64
191.84	1218.54
192.06	1218.54
192.28	1308.65
192.50	1275.88
192.72	1271.79
192.94	1325.04
193.16	1273.84
193.38	1259.50
193.60	1214.45
193.82	1273.84
194.04	1232.88
194.26	1263.60
194.48	1312.75
194.70	1273.84
194.92	1236.97
195.14	1239.02
195.36	1257.45
195.58	1179.63
195.80	1267.69
196.02	1308.65
196.24	1173.49
196.46	1294.32
196.69	1277.93
196.91	1249.26
197.13	1236.97
197.35	1337.32
197.57	1245.16
197.79	1247.21
198.01	1322.99
198.23	1286.12
198.45	1239.02
198.67	1214.45
198.89	1296.36
199.11	1310.70
199.33	1226.73
199.55	1310.70
199.77	1316.84
199.99	1230.83
200.21	1247.21
200.43	1226.73
200.65	1191.92
200.87	1228.78
201.09	1245.16
201.31	1226.73
201.53	1216.49
201.75	1265.64
201.97	1277.93
202.19	1263.60
202.41	1220.59
202.63	1267.69
202.85	1282.03
203.07	1279.98
203.29	1234.93
203.51	1282.03
203.73	1204.21
203.95	1357.80
204.17	1257.45
204.39	1239.02
204.61	1247.21
204.83	1275.88
205.05	1341.42
205.27	1230.83
205.49	1294.32
205.71	1335.28
205.93	1247.21
206.15	1253.36
206.37	1279.98
206.59	1222.64
206.81	1214.45
207.03	1236.97
207.25	1210.35
207.47	1322.99
207.69	1325.04
207.91	1277.93
208.13	1304.56
208.34	1255.40
208.56	1282.03
208.78	1269.74
209.00	1241.07
209.22	1290.22
209.44	1277.93
209.66	1296.36
209.88	1255.40
210.10	1273.84
210.32	1284.08
210.54	1284.08
210.76	1277.93
210.98	1306.60
211.20	1239.02
211.42	1261.55
211.64	1257.45
211.86	1230.83
212.08	1273.84
212.30	1327.08
212.52	1271.79
212.74	1310.70
212.96	1292.27
213.17	1230.83
213.39	1255.40
213.61	1232.88
213.83	1304.56
214.05	1179.63
214.27	1282.03
214.49	1331.18
214.71	1193.97
214.93	1253.36
215.15	1241.07
215.37	1275.88
215.59	1271.79
215.81	1277.93
216.03	1279.98
216.24	1275.88
216.46	1275.88
216.68	1296.36
216.90	1255.40
217.12	1304.56
217.34	1282.03
217.56	1304.56
217.78	1177.58
218.00	1271.79
218.22	1290.22
218.44	1277.93
218.66	1214.45
218.87	1259.50
219.09	1216.49
219.31	1296.36
219.53	1183.73
219.75	1220.59
219.97	1275.88
220.19	1304.56
220.41	1269.74
220.63	1247.21
220.85	1265.64
221.06	1196.01
221.28	1257.45
221.50	1282.03
221.72	1228.78
221.94	1273.84
222.16	1329.13
222.38	1159.15
222.60	1247.21
222.82	1304.56
223.03	1185.77
223.25	1294.32
223.47	1241.07
223.69	1310.70
223.91	1300.46
224.13	1304.56
224.35	1206.25
224.57	1251.31
224.78	1263.60
225.00	1208.30
225.22	1304.56
225.44	1300.46
225.66	1251.31
225.88	1243.12
226.10	1245.16
226.32	1208.30
226.53	1230.83
226.75	1255.40
226.97	1222.64
227.19	1273.84
227.41	1329.13
227.63	1341.42
227.85	1253.36
228.06	1239.02
228.28	1275.88
228.50	1312.75
228.72	1277.93
228.94	1355.76
229.16	1314.80
229.37	1335.28
229.59	1273.84
229.81	1255.40
230.03	1267.69
230.25	1236.97
230.47	1286.12
230.69	1249.26
230.90	1267.69
231.12	1236.97
231.34	1322.99
231.56	1308.65
231.78	1220.59
232.00	1298.41
232.21	1239.02
232.43	1294.32
232.65	1261.55
232.87	1177.58
233.09	1318.89
233.30	1171.44
233.52	1308.65
233.74	1288.17
233.96	1345.52
234.18	1292.27
234.40	1200.11
234.61	1298.41
234.83	1253.36
235.05	1222.64
235.27	1257.45
235.49	1220.59
235.70	1243.12
235.92	1263.60
236.14	1204.21
236.36	1253.36
236.58	1318.89
236.79	1239.02
237.01	1273.84
237.23	1255.40
237.45	1310.70
237.67	1253.36
237.88	1275.88
238.10	1267.69
238.32	1257.45
238.54	1245.16
238.76	1300.46
238.97	1261.55
239.19	1304.56
239.41	1282.03
239.63	1282.03
239.85	1275.88
240.06	1222.64
240.28	1251.31
240.50	1245.16
240.72	1298.41
240.93	1230.83
241.15	1263.60
241.37	1224.69
241.59	1273.84
241.81	1298.41
242.02	1226.73
242.24	1261.55
242.46	1208.30
242.68	1236.97
242.89	1216.49
243.11	1261.55
243.33	1241.07
243.55	1253.36
243.76	1308.65
243.98	1288.17
244.20	1243.12
244.42	1337.32
244.64	1357.80
244.85	1294.32
245.07	1341.42
245.29	1261.55
245.51	1294.32
245.72	1269.74
245.94	1298.41
246.16	1316.84
246.38	1292.27
246.59	1277.93
246.81	1294.32
247.03	1288.17
247.24	1175.53
247.46	1236.97
247.68	1284.08
247.90	1308.65
248.11	1241.07
248.33	1214.45
248.55	1206.25
248.77	1294.32
248.98	1316.84
249.20	1267.69
249.42	1277.93
249.64	1259.50
249.85	1320.94
250.07	1277.93
250.29	1327.08
250.50	1210.35
250.72	1279.98
250.94	1288.17
251.16	1275.88
251.37	1271.79
251.59	1273.84
251.81	1230.83
252.02	1249.26
252.24	1214.45
252.46	1257.45
252.68	1189.87
252.89	1269.74
253.11	1312.75
253.33	1273.84
253.54	1310.70
253.76	1275.88
253.98	1255.40
254.20	1343.47
254.41	1214.45
254.63	1257.45
254.85	1265.64
255.06	1253.36
255.28	1196.01
255.50	1345.52
255.71	1267.69
255.93	1245.16
256.15	1216.49
256.36	1226.73
256.58	1277.93
256.80	1300.46
257.02	1159.15
257.23	1212.40
257.45	1269.74
257.67	1232.88
257.88	1239.02
258.10	1314.80
258.32	1249.26
258.53	1271.79
258.75	1294.32
258.97	1282.03
259.18	1331.18
259.40	1261.55
259.62	1261.55
259.83	1277.93
260.05	1224.69
260.27	1302.51
260.48	1226.73
260.70	1298.41
260.92	1224.69
261.13	1241.07
261.35	1183.73
261.57	1259.50
261.78	1310.70
262.00	1206.25
262.22	1277.93
262.43	1284.08
262.65	1267.69
262.86	1282.03
263.08	1271.79
263.30	1150.96
263.51	1331.18
263.73	1253.36
263.95	1230.83
264.16	1300.46
264.38	1347.56
264.60	1320.94
264.81	1257.45
265.03	1277.93
265.25	1390.57
265.46	1290.22
265.68	1294.32
265.89	1343.47
266.11	1167.34
266.33	1312.75
266.54	1247.21
266.76	1263.60
266.98	1261.55
267.19	1271.79
267.41	1259.50
267.62	1329.13
267.84	1200.11
268.06	1202.16
268.27	1216.49
268.49	1253.36
268.70	1253.36
268.92	1241.07
269.14	1304.56
269.35	1193.97
269.57	1265.64
269.79	1298.41
270.00	1261.55
270.22	1232.88
270.43	1210.35
270.65	1306.60
270.87	1234.93
271.08	1257.45
271.30	1273.84
271.51	1314.80
271.73	1234.93
271.95	1261.55
272.16	1290.22
272.38	1218.54
272.59	1282.03
272.81	1273.84
273.02	1279.98
273.24	1193.97
273.46	1247.21
273.67	1271.79
273.89	1269.74
274.10	1273.84
274.32	1222.64
274.54	1210.35
274.75	1241.07
274.97	1247.21
275.18	1239.02
275.40	1337.32
275.61	1224.69
275.83	1249.26
276.05	1247.21
276.26	1263.60
276.48	1265.64
276.69	1277.93
276.91	1296.36
277.12	1259.50
277.34	1245.16
277.55	1275.88
277.77	1255.40
277.99	1245.16
278.20	1222.64
278.42	1257.45
278.63	1220.59
278.85	1267.69
279.06	1230.83
279.28	1314.80
279.49	1230.83
279.71	1331.18
279.93	1316.84
280.14	1177.58
280.36	1273.84
280.57	1224.69
280.79	1228.78
281.00	1200.11
281.22	1200.11
281.43	1275.88
281.65	1306.60
281.86	1286.12
282.08	1232.88
282.29	1214.45
282.51	1282.03
282.73	1296.36
282.94	1249.26
283.16	1355.76
283.37	1261.55
283.59	1304.56
283.80	1273.84
284.02	1282.03
284.23	1216.49
284.45	1263.60
284.66	1277.93
284.88	1286.12
285.09	1275.88
285.31	1300.46
285.52	1269.74
285.74	1181.68
285.95	1322.99
286.17	1279.98
286.38	1236.97
286.60	1296.36
286.81	1247.21
287.03	1337.32
287.24	1247.21
287.46	1320.94
287.67	1271.79
287.89	1296.36
288.10	1224.69
288.32	1302.51
288.53	1277.93
288.75	1298.41
288.96	1290.22
289.18	1255.40
289.39	1275.88
289.61	1263.60
289.82	1200.11
290.04	1257.45
290.25	1196.01
290.47	1279.98
290.68	1267.69
290.90	1290.22
291.11	1247.21
291.33	1257.45
291.54	1210.35
291.76	1279.98
291.97	1216.49
292.18	1341.42
292.40	1308.65
292.61	1279.98
292.83	1196.01
293.04	1222.64
293.26	1265.64
293.47	1257.45
293.69	1232.88
293.90	1230.83
294.12	1241.07
294.33	1296.36
294.55	1279.98
294.76	1245.16
294.97	1282.03
295.19	1261.55
295.40	1298.41
295.62	1259.50
295.83	1220.59
296.05	1241.07
296.26	1286.12
296.48	1265.64
296.69	1275.88
296.90	1359.85
297.12	1257.45
297.33	1349.61
297.55	1288.17
297.76	1318.89
297.98	1245.16
298.19	1286.12
298.41	1189.87
298.62	1284.08
298.83	1257.45
299.05	1261.55
299.26	1304.56
299.48	1279.98
299.69	1322.99
299.90	1314.80
300.12	1236.97
300.33	1349.61
300.55	1302.51
300.76	1245.16
300.98	1273.84
301.19	1290.22
301.40	1282.03
301.62	1208.30
301.83	1277.93
302.05	1263.60
302.26	1269.74
302.47	1275.88
302.69	1232.88
302.90	1302.51
303.12	1265.64
303.33	1218.54
303.54	1200.11
303.76	1265.64
303.97	1329.13
304.19	1275.88
304.40	1310.70
304.61	1267.69
304.83	1343.47
305.04	1271.79
305.26	1230.83
305.47	1216.49
305.68	1247.21
305.90	1275.88
306.11	1263.60
306.33	1255.40
306.54	1304.56
306.75	1277.93
306.97	1290.22
307.18	1290.22
307.39	1214.45
307.61	1286.12
307.82	1249.26
308.04	1282.03
308.25	1286.12
308.46	1253.36
308.68	1218.54
308.89	1286.12
309.10	1261.55
309.32	1296.36
309.53	1263.60
309.74	1220.59
309.96	1245.16
310.17	1294.32
310.39	1273.84
310.60	1279.98
310.81	1269.74
311.03	1216.49
311.24	1239.02
311.45	1241.07
311.67	1271.79
311.88	1232.88
312.09	1239.02
312.31	1300.46
312.52	1310.70
312.73	1339.37
312.95	1206.25
313.16	1189.87
313.37	1279.98
313.59	1210.35
313.80	1279.98
314.01	1232.88
314.23	1277.93
314.44	1222.64
314.65	1218.54
314.87	1320.94
315.08	1196.01
315.29	1239.02
315.51	1273.84
315.72	1273.84
315.93	1247.21
316.15	1300.46
316.36	1220.59
316.57	1310.70
316.79	1300.46
317.00	1220.59
317.21	1259.50
317.43	1259.50
317.64	1322.99
317.85	1318.89
318.07	1259.50
318.28	1245.16
318.49	1226.73
318.70	1245.16
318.92	1279.98
319.13	1273.84
319.34	1267.69
319.56	1294.32
319.77	1273.84
319.98	1259.50
320.20	1296.36
320.41	1232.88
320.62	1329.13
320.83	1331.18
321.05	1310.70
321.26	1273.84
321.47	1292.27
321.69	1277.93
321.90	1273.84
322.11	1312.75
322.32	1279.98
322.54	1241.07
322.75	1308.65
322.96	1314.80
323.18	1234.93
323.39	1275.88
323.60	1271.79
323.81	1298.41
324.03	1259.50
324.24	1224.69
324.45	1304.56
324.66	1312.75
324.88	1204.21
325.09	1234.93
325.30	1329.13
325.52	1263.60
325.73	1236.97
325.94	1339.37
326.15	1265.64
326.37	1306.60
326.58	1331.18
326.79	1255.40
327.00	1331.18
327.22	1298.41
327.43	1218.54
327.64	1275.88
327.85	1245.16
328.07	1236.97
328.28	1247.21
328.49	1296.36
328.70	1316.84
328.92	1259.50
329.13	1232.88
329.34	1189.87
329.55	1263.60
329.76	1314.80
329.98	1257.45
330.19	1251.31
330.40	1279.98
330.61	1320.94
330.83	1343.47
331.04	1288.17
331.25	1245.16
331.46	1304.56
331.68	1226.73
331.89	1292.27
332.10	1271.79
332.31	1189.87
332.52	1275.88
332.74	1212.40
332.95	1265.64
333.16	1224.69
333.37	1230.83
333.58	1263.60
333.80	1331.18
334.01	1279.98
334.22	1271.79
334.43	1275.88
334.64	1236.97
334.86	1210.35
335.07	1279.98
335.28	1279.98
335.49	1183.73
335.70	1222.64
335.92	1300.46
336.13	1206.25
336.34	1314.80
336.55	1267.69
336.76	1247.21
336.98	1279.98
337.19	1325.04
337.40	1212.40
337.61	1265.64
337.82	1312.75
338.04	1226.73
338.25	1212.40
338.46	1337.32
338.67	1298.41
338.88	1218.54
339.09	1327.08
339.31	1273.84
339.52	1230.83
339.73	1241.07
339.94	1241.07
340.15	1243.12
340.36	1206.25
340.58	1241.07
340.79	1294.32
341.00	1263.60
341.21	1255.40
341.42	1253.36
341.63	1271.79
341.85	1331.18
342.06	1279.98
342.27	1310.70
342.48	1241.07
342.69	1308.65
342.90	1282.03
343.12	1284.08
343.33	1275.88
343.54	1251.31
343.75	1271.79
343.96	1255.40
344.17	1310.70
344.38	1290.22
344.60	1230.83
344.81	1263.60
345.02	1290.22
345.23	1265.64
345.44	1353.71
345.65	1265.64
345.86	1146.86
346.07	1273.84
346.29	1261.55
346.50	1267.69
346.71	1290.22
346.92	1269.74
347.13	1306.60
347.34	1308.65
347.55	1222.64
347.76	1191.92
347.98	1337.32
348.19	1318.89
348.40	1263.60
348.61	1249.26
348.82	1263.60
349.03	1265.64
349.24	1232.88
349.45	1263.60
349.66	1216.49
349.88	1253.36
350.09	1196.01
350.30	1204.21
350.51	1259.50
350.72	1316.84
350.93	1329.13
351.14	1298.41
351.35	1288.17
351.56	1263.60
351.77	1239.02
351.99	1318.89
352.20	1329.13
352.41	1271.79
352.62	1247.21
352.83	1294.32
353.04	1279.98
353.25	1275.88
353.46	1249.26
353.67	1271.79
353.88	1148.91
354.09	1314.80
354.30	1277.93
354.52	1300.46
354.73	1232.88
354.94	1263.60
355.15	1214.45
355.36	1300.46
355.57	1282.03
355.78	1198.06
355.99	1265.64
356.20	1265.64
356.41	1271.79
356.62	1230.83
356.83	1239.02
357.04	1243.12
357.25	1222.64
357.46	1224.69
357.68	1310.70
357.89	1277.93
358.10	1290.22
358.31	1316.84
358.52	1306.60
358.73	1290.22
358.94	1253.36
359.15	1234.93
359.36	1316.84
359.57	1251.31
359.78	1257.45
359.99	1288.17
360.20	1329.13
360.41	1241.07
360.62	1290.22
360.83	1204.21
361.04	1269.74
361.25	1333.23
361.46	1290.22
361.67	1288.17
361.88	1363.95
362.09	1316.84
362.30	1265.64
362.51	1218.54
362.72	1273.84
362.93	1220.59
363.14	1279.98
363.35	1290.22
363.56	1290.22
363.78	1298.41
363.99	1277.93
364.20	1196.01
364.41	1236.97
364.62	1271.79
364.83	1302.51
365.04	1275.88
365.25	1290.22
365.46	1300.46
365.67	1288.17
365.88	1286.12
366.09	1263.60
366.30	1232.88
366.51	1245.16
366.72	1245.16
366.93	1265.64
367.14	1232.88
367.35	1296.36
367.56	1261.55
367.77	1212.40
367.98	1228.78
368.18	1220.59
368.39	1267.69
368.60	1329.13
368.81	1247.21
369.02	1325.04
369.23	1232.88
369.44	1284.08
369.65	1273.84
369.86	1271.79
370.07	1216.49
370.28	1302.51
370.49	1218.54
370.70	1282.03
370.91	1200.11
371.12	1337.32
371.33	1245.16
371.54	1282.03
371.75	1232.88
371.96	1339.37
372.17	1249.26
372.38	1236.97
372.59	1267.69
372.80	1259.50
373.01	1265.64
373.22	1314.80
373.43	1304.56
373.64	1253.36
373.85	1224.69
374.06	1275.88
374.26	1198.06
374.47	1333.23
374.68	1220.59
374.89	1263.60
375.10	1257.45
375.31	1286.12
375.52	1292.27
375.73	1216.49
375.94	1239.02
376.15	1306.60
376.36	1245.16
376.57	1196.01
376.78	1228.78
376.99	1245.16
377.20	1300.46
377.40	1277.93
377.61	1255.40
377.82	1275.88
378.03	1298.41
378.24	1247.21
378.45	1214.45
378.66	1232.88
378.87	1325.04
379.08	1269.74
379.29	1224.69
379.50	1290.22
379.71	1267.69
379.91	1269.74
380.12	1273.84
380.33	1269.74
380.54	1224.69
380.75	1310.70
380.96	1257.45
381.17	1284.08
381.38	1265.64
381.59	1339.37
381.80	1200.11
382.00	1318.89
382.21	1294.32
382.42	1257.45
382.63	1214.45
382.84	1282.03
383.05	1261.55
383.26	1208.30
383.47	1277.93
383.68	1257.45
383.88	1249.26
384.09	1214.45
384.30	1236.97
384.51	1251.31
384.72	1216.49
384.93	1359.85
385.14	1257.45
385.35	1294.32
385.55	1286.12
385.76	1261.55
385.97	1284.08
386.18	1322.99
386.39	1241.07
386.60	1193.97
386.81	1284.08
387.02	1232.88
387.22	1267.69
387.43	1249.26
387.64	1286.12
387.85	1232.88
388.06	1329.13
388.27	1331.18
388.48	1294.32
388.68	1218.54
388.89	1275.88
389.10	1232.88
389.31	1241.07
389.52	1288.17
389.73	1312.75
389.93	1331.18
390.14	1273.84
390.35	1302.51
390.56	1214.45
390.77	1212.40
390.98	1273.84
391.18	1204.21
391.39	1173.49
391.60	1214.45
391.81	1300.46
392.02	1202.16
392.23	1308.65
392.43	1273.84
392.64	1245.16
392.85	1277.93
393.06	1239.02
393.27	1202.16
393.47	1298.41
393.68	1253.36
393.89	1236.97
394.10	1251.31
394.31	1257.45
394.52	1284.08
394.72	1202.16
394.93	1279.98
395.14	1347.56
395.35	1286.12
395.56	1269.74
395.76	1265.64
395.97	1273.84
396.18	1253.36
396.39	1282.03
396.60	1273.84
396.80	1312.75
397.01	1253.36
397.22	1302.51
397.43	1183.73
397.64	1294.32
397.84	1245.16
398.05	1294.32
398.26	1259.50
398.47	1255.40
398.67	1243.12
398.88	1294.32
399.09	1304.56
399.30	1320.94
399.51	1292.27
399.71	1247.21
399.92	1339.37
400.13	1241.07
400.34	1255.40
400.54	1263.60
400.75	1294.32
400.96	1222.64
401.17	1314.80
401.37	1247.21
401.58	1290.22
401.79	1263.60
402.00	1243.12
402.21	1208.30
402.41	1298.41
402.62	1314.80
402.83	1232.88
403.04	1212.40
403.24	1243.12
403.45	1255.40
403.66	1208.30
403.87	1210.35
404.07	1271.79
404.28	1312.75
404.49	1298.41
404.70	1243.12
404.90	1216.49
405.11	1249.26
405.32	1247.21
405.52	1294.32
405.73	1275.88
405.94	1277.93
406.15	1286.12
406.35	1277.93
406.56	1222.64
406.77	1257.45
406.98	1249.26
407.18	1306.60
407.39	1253.36
407.60	1241.07
407.80	1247.21
408.01	1284.08
408.22	1247.21
408.43	1277.93
408.63	1339.37
408.84	1200.11
409.05	1282.03
409.25	1204.21
409.46	1249.26
409.67	1232.88
409.88	1306.60
410.08	1222.64
410.29	1277.93
410.50	1279.98
410.70	1255.40
410.91	1251.31
411.12	1224.69
411.32	1232.88
411.53	1232.88
411.74	1263.60
411.95	1273.84
412.15	1286.12
412.36	1236.97
412.57	1277.93
412.77	1333.23
412.98	1251.31
413.19	1245.16
413.39	1304.56
413.60	1335.28
413.81	1220.59
414.01	1265.64
414.22	1210.35
414.43	1275.88
414.63	1261.55
414.84	1279.98
415.05	1288.17
415.25	1208.30
415.46	1275.88
415.67	1241.07
415.87	1273.84
416.08	1339.37
416.29	1232.88
416.49	1302.51
416.70	1290.22
416.91	1257.45
417.11	1273.84
417.32	1269.74
417.53	1259.50
417.73	1259.50
417.94	1261.55
418.15	1310.70
418.35	1261.55
418.56	1208.30
418.77	1263.60
418.97	1273.84
419.18	1282.03
419.38	1267.69
419.59	1232.88
419.80	1386.47
420.00	1282.03
420.21	1267.69
420.42	1261.55
420.62	1288.17
420.83	1273.84
421.04	1351.66
421.24	1206.25
421.45	1259.50
421.65	1284.08
421.86	1343.47
422.07	1284.08
422.27	1245.16
422.48	1279.98
422.69	1271.79
422.89	1204.21
423.10	1271.79
423.30	1275.88
423.51	1294.32
423.72	1148.91
423.92	1343.47
424.13	1261.55
424.33	1200.11
424.54	1316.84
424.75	1239.02
424.95	1169.39
425.16	1241.07
425.36	1222.64
425.57	1318.89
425.78	1232.88
425.98	1279.98
426.19	1271.79
426.39	1322.99
426.60	1253.36
426.81	1230.83
427.01	1310.70
427.22	1337.32
427.42	1284.08
427.63	1279.98
427.83	1275.88
428.04	1343.47
428.25	1290.22
428.45	1247.21
428.66	1257.45
428.86	1288.17
429.07	1304.56
429.28	1277.93
429.48	1257.45
429.69	1343.47
429.89	1290.22
430.10	1157.10
430.30	1214.45
430.51	1339.37
430.71	1290.22
430.92	1259.50
431.13	1181.68
431.33	1247.21
431.54	1277.93
431.74	1220.59
431.95	1273.84
432.15	1329.13
432.36	1247.21
432.56	1286.12
432.77	1329.13
432.98	1202.16
433.18	1363.95
433.39	1322.99
433.59	1304.56
433.80	1267.69
434.00	1236.97
434.21	1306.60
434.41	1267.69
434.62	1292.27
434.82	1261.55
435.03	1230.83
435.23	1269.74
435.44	1288.17
435.64	1232.88
435.85	1339.37
436.06	1353.71
436.26	1263.60
436.47	1275.88
436.67	1181.68
436.88	1253.36
437.08	1292.27
437.29	1247.21
437.49	1247.21
437.70	1253.36
437.90	1347.56
438.11	1249.26
438.31	1316.84
438.52	1361.90
438.72	1228.78
438.93	1320.94
439.13	1257.45
439.34	1206.25
439.54	1316.84
439.75	1298.41
439.95	1263.60
440.16	1314.80
440.36	1308.65
440.57	1255.40
440.77	1269.74
440.98	1312.75
441.18	1282.03
441.39	1202.16
441.59	1327.08
441.80	1269.74
442.00	1322.99
442.21	1249.26
442.41	1239.02
442.62	1239.02
442.82	1263.60
443.02	1277.93
443.23	1320.94
443.43	1314.80
443.64	1269.74
443.84	1257.45
444.05	1232.88
444.25	1279.98
444.46	1277.93
444.66	1218.54
444.87	1353.71
445.07	1228.78
445.28	1363.95
445.48	1275.88
445.69	1284.08
445.89	1298.41
446.09	1208.30
446.30	1298.41
446.50	1161.20
446.71	1284.08
446.91	1288.17
447.12	1243.12
447.32	1302.51
447.53	1243.12
447.73	1204.21
447.93	1382.38
448.14	1275.88
448.34	1236.97
448.55	1259.50
448.75	1253.36
448.96	1306.60
449.16	1331.18
449.36	1341.42
449.57	1228.78
449.77	1302.51
449.98	1269.74
450.18	1320.94
450.39	1310.70
450.59	1269.74
450.79	1363.95
451.00	1306.60
451.20	1243.12
451.41	1314.80
451.61	1284.08
451.81	1216.49
452.02	1216.49
452.22	1284.08
452.43	1288.17
452.63	1286.12
