SpectraSuite Data File
++++++++++++++++++++++++++++++++++++
Date: Sun Apr 03 19:55:28 CEST 2016
User: root
Dark Spectrum Present: No
Reference Spectrum Present: No
Number of Sampled Component Spectra: 1
Spectrometers: USB4C02835
Integration Time (usec): 10000 (USB4C02835)
Spectra Averaged: 1 (USB4C02835)
Boxcar Smoothing: 0 (USB4C02835)
Correct for Electrical Dark: No (USB4C02835)
Strobe/Lamp Enabled: No (USB4C02835)
Correct for Detector Non-linearity: No (USB4C02835)
Correct for Stray Light: No (USB4C02835)
Number of Pixels in Processed Spectrum: 3648
>>>>>Begin Processed Spectral Data<<<<<
177.47	1257.45
177.69	1257.45
177.91	1257.45
178.13	1275.88
178.36	1267.69
178.58	1261.55
178.80	1257.45
179.02	1271.79
179.24	1302.51
179.46	1236.97
179.68	1208.30
179.90	1286.12
180.13	1247.21
180.35	1228.78
180.57	1202.16
180.79	1243.12
181.01	1277.93
181.23	1255.40
181.45	1279.98
181.67	1226.73
181.90	1277.93
182.12	1222.64
182.34	1275.88
182.56	1218.54
182.78	1292.27
183.00	1267.69
183.22	1290.22
183.44	1292.27
183.66	1261.55
183.89	1312.75
184.11	1255.40
184.33	1251.31
184.55	1277.93
184.77	1339.37
184.99	1228.78
185.21	1196.01
185.43	1284.08
185.65	1333.23
185.87	1298.41
186.10	1325.04
186.32	1277.93
186.54	1234.93
186.76	1294.32
186.98	1333.23
187.20	1241.07
187.42	1269.74
187.64	1318.89
187.86	1322.99
188.08	1230.83
188.30	1239.02
188.52	1302.51
188.75	1294.32
188.97	1269.74
189.19	1261.55
189.41	1294.32
189.63	1239.02
189.85	1292.27
190.07	1269.74
190.29	1263.60
190.51	1224.69
190.73	1290.22
190.95	1214.45
191.17	1320.94
191.39	1271.79
191.61	1318.89
191.84	1261.55
192.06	1282.03
192.28	1228.78
192.50	1292.27
192.72	1290.22
192.94	1312.75
193.16	1222.64
193.38	1247.21
193.60	1255.40
193.82	1277.93
194.04	1320.94
194.26	1218.54
194.48	1261.55
194.70	1290.22
194.92	1259.50
195.14	1343.47
195.36	1226.73
195.58	1218.54
195.80	1204.21
196.02	1288.17
196.24	1298.41
196.46	1282.03
196.69	1210.35
196.91	1310.70
197.13	1284.08
197.35	1286.12
197.57	1202.16
197.79	1220.59
198.01	1204.21
198.23	1259.50
198.45	1265.64
198.67	1282.03
198.89	1269.74
199.11	1241.07
199.33	1249.26
199.55	1245.16
199.77	1273.84
199.99	1290.22
200.21	1363.95
200.43	1255.40
200.65	1206.25
200.87	1228.78
201.09	1284.08
201.31	1241.07
201.53	1202.16
201.75	1245.16
201.97	1204.21
202.19	1282.03
202.41	1228.78
202.63	1298.41
202.85	1298.41
203.07	1277.93
203.29	1279.98
203.51	1255.40
203.73	1302.51
203.95	1296.36
204.17	1284.08
204.39	1257.45
204.61	1314.80
204.83	1230.83
205.05	1230.83
205.27	1320.94
205.49	1343.47
205.71	1255.40
205.93	1239.02
206.15	1302.51
206.37	1214.45
206.59	1269.74
206.81	1279.98
207.03	1308.65
207.25	1265.64
207.47	1263.60
207.69	1304.56
207.91	1222.64
208.13	1239.02
208.34	1193.97
208.56	1251.31
208.78	1273.84
209.00	1286.12
209.22	1273.84
209.44	1224.69
209.66	1304.56
209.88	1290.22
210.10	1292.27
210.32	1257.45
210.54	1288.17
210.76	1241.07
210.98	1306.60
211.20	1312.75
211.42	1261.55
211.64	1286.12
211.86	1286.12
212.08	1210.35
212.30	1239.02
212.52	1314.80
212.74	1257.45
212.96	1282.03
213.17	1228.78
213.39	1327.08
213.61	1306.60
213.83	1245.16
214.05	1204.21
214.27	1273.84
214.49	1236.97
214.71	1288.17
214.93	1230.83
215.15	1228.78
215.37	1251.31
215.59	1296.36
215.81	1337.32
216.03	1339.37
216.24	1249.26
216.46	1228.78
216.68	1257.45
216.90	1286.12
217.12	1279.98
217.34	1345.52
217.56	1255.40
217.78	1230.83
218.00	1288.17
218.22	1351.66
218.44	1282.03
218.66	1200.11
218.87	1265.64
219.09	1259.50
219.31	1191.92
219.53	1261.55
219.75	1284.08
219.97	1249.26
220.19	1271.79
220.41	1273.84
220.63	1224.69
220.85	1245.16
221.06	1290.22
221.28	1251.31
221.50	1298.41
221.72	1255.40
221.94	1263.60
222.16	1282.03
222.38	1269.74
222.60	1212.40
222.82	1175.53
223.03	1249.26
223.25	1259.50
223.47	1298.41
223.69	1273.84
223.91	1312.75
224.13	1212.40
224.35	1249.26
224.57	1245.16
224.78	1351.66
225.00	1261.55
225.22	1292.27
225.44	1296.36
225.66	1331.18
225.88	1290.22
226.10	1236.97
226.32	1290.22
226.53	1273.84
226.75	1335.28
226.97	1230.83
227.19	1249.26
227.41	1198.06
227.63	1247.21
227.85	1230.83
228.06	1296.36
228.28	1298.41
228.50	1234.93
228.72	1296.36
228.94	1243.12
229.16	1241.07
229.37	1314.80
229.59	1230.83
229.81	1255.40
230.03	1241.07
230.25	1282.03
230.47	1265.64
230.69	1261.55
230.90	1259.50
231.12	1302.51
231.34	1304.56
231.56	1339.37
231.78	1296.36
232.00	1304.56
232.21	1243.12
232.43	1249.26
232.65	1290.22
232.87	1329.13
233.09	1247.21
233.30	1234.93
233.52	1261.55
233.74	1316.84
233.96	1296.36
234.18	1306.60
234.40	1214.45
234.61	1247.21
234.83	1263.60
235.05	1306.60
235.27	1308.65
235.49	1286.12
235.70	1290.22
235.92	1189.87
236.14	1257.45
236.36	1232.88
236.58	1239.02
236.79	1296.36
237.01	1271.79
237.23	1329.13
237.45	1282.03
237.67	1259.50
237.88	1286.12
238.10	1271.79
238.32	1267.69
238.54	1312.75
238.76	1273.84
238.97	1191.92
239.19	1310.70
239.41	1382.38
239.63	1296.36
239.85	1185.77
240.06	1259.50
240.28	1273.84
240.50	1230.83
240.72	1273.84
240.93	1259.50
241.15	1245.16
241.37	1230.83
241.59	1220.59
241.81	1204.21
242.02	1247.21
242.24	1224.69
242.46	1271.79
242.68	1204.21
242.89	1232.88
243.11	1243.12
243.33	1196.01
243.55	1251.31
243.76	1243.12
243.98	1228.78
244.20	1232.88
244.42	1239.02
244.64	1261.55
244.85	1243.12
245.07	1239.02
245.29	1304.56
245.51	1300.46
245.72	1259.50
245.94	1304.56
246.16	1257.45
246.38	1288.17
246.59	1312.75
246.81	1273.84
247.03	1255.40
247.24	1314.80
247.46	1288.17
247.68	1294.32
247.90	1236.97
248.11	1322.99
248.33	1200.11
248.55	1271.79
248.77	1261.55
248.98	1273.84
249.20	1286.12
249.42	1232.88
249.64	1257.45
249.85	1286.12
250.07	1243.12
250.29	1193.97
250.50	1236.97
250.72	1249.26
250.94	1189.87
251.16	1300.46
251.37	1298.41
251.59	1282.03
251.81	1232.88
252.02	1232.88
252.24	1222.64
252.46	1269.74
252.68	1257.45
252.89	1206.25
253.11	1222.64
253.33	1288.17
253.54	1257.45
253.76	1265.64
253.98	1277.93
254.20	1306.60
254.41	1269.74
254.63	1228.78
254.85	1282.03
255.06	1288.17
255.28	1277.93
255.50	1208.30
255.71	1251.31
255.93	1265.64
256.15	1241.07
256.36	1261.55
256.58	1241.07
256.80	1294.32
257.02	1277.93
257.23	1218.54
257.45	1269.74
257.67	1247.21
257.88	1249.26
258.10	1273.84
258.32	1306.60
258.53	1249.26
258.75	1327.08
258.97	1255.40
259.18	1230.83
259.40	1257.45
259.62	1216.49
259.83	1284.08
260.05	1355.76
260.27	1294.32
260.48	1224.69
260.70	1263.60
260.92	1282.03
261.13	1249.26
261.35	1212.40
261.57	1261.55
261.78	1282.03
262.00	1232.88
262.22	1212.40
262.43	1279.98
262.65	1247.21
262.86	1265.64
263.08	1261.55
263.30	1228.78
263.51	1286.12
263.73	1320.94
263.95	1245.16
264.16	1257.45
264.38	1273.84
264.60	1308.65
264.81	1286.12
265.03	1359.85
265.25	1300.46
265.46	1296.36
265.68	1181.68
265.89	1263.60
266.11	1216.49
266.33	1288.17
266.54	1296.36
266.76	1300.46
266.98	1255.40
267.19	1277.93
267.41	1310.70
267.62	1214.45
267.84	1308.65
268.06	1236.97
268.27	1267.69
268.49	1265.64
268.70	1255.40
268.92	1196.01
269.14	1222.64
269.35	1265.64
269.57	1261.55
269.79	1304.56
270.00	1296.36
270.22	1322.99
270.43	1222.64
270.65	1312.75
270.87	1308.65
271.08	1239.02
271.30	1243.12
271.51	1236.97
271.73	1232.88
271.95	1318.89
272.16	1216.49
272.38	1267.69
272.59	1247.21
272.81	1296.36
273.02	1314.80
273.24	1230.83
273.46	1267.69
273.67	1236.97
273.89	1267.69
274.10	1249.26
274.32	1296.36
274.54	1316.84
274.75	1271.79
274.97	1245.16
275.18	1265.64
275.40	1239.02
275.61	1282.03
275.83	1253.36
276.05	1310.70
276.26	1239.02
276.48	1234.93
276.69	1337.32
276.91	1251.31
277.12	1234.93
277.34	1243.12
277.55	1312.75
277.77	1253.36
277.99	1329.13
278.20	1279.98
278.42	1204.21
278.63	1271.79
278.85	1255.40
279.06	1239.02
279.28	1259.50
279.49	1245.16
279.71	1320.94
279.93	1232.88
280.14	1261.55
280.36	1257.45
280.57	1343.47
280.79	1253.36
281.00	1243.12
281.22	1230.83
281.43	1308.65
281.65	1312.75
281.86	1320.94
282.08	1300.46
282.29	1378.28
282.51	1259.50
282.73	1210.35
282.94	1261.55
283.16	1257.45
283.37	1212.40
283.59	1208.30
283.80	1322.99
284.02	1247.21
284.23	1245.16
284.45	1253.36
284.66	1212.40
284.88	1273.84
285.09	1257.45
285.31	1232.88
285.52	1261.55
285.74	1271.79
285.95	1216.49
286.17	1331.18
286.38	1273.84
286.60	1284.08
286.81	1212.40
287.03	1241.07
287.24	1318.89
287.46	1255.40
287.67	1230.83
287.89	1279.98
288.10	1286.12
288.32	1251.31
288.53	1286.12
288.75	1320.94
288.96	1247.21
289.18	1265.64
289.39	1257.45
289.61	1302.51
289.82	1220.59
290.04	1333.23
290.25	1183.73
290.47	1273.84
290.68	1279.98
290.90	1368.04
291.11	1306.60
291.33	1232.88
291.54	1271.79
291.76	1282.03
291.97	1312.75
292.18	1263.60
292.40	1279.98
292.61	1253.36
292.83	1261.55
293.04	1236.97
293.26	1241.07
293.47	1288.17
293.69	1206.25
293.90	1304.56
294.12	1290.22
294.33	1220.59
294.55	1253.36
294.76	1316.84
294.97	1265.64
295.19	1304.56
295.40	1294.32
295.62	1239.02
295.83	1329.13
296.05	1273.84
296.26	1347.56
296.48	1304.56
296.69	1265.64
296.90	1267.69
297.12	1353.71
297.33	1277.93
297.55	1228.78
297.76	1288.17
297.98	1294.32
298.19	1316.84
298.41	1243.12
298.62	1304.56
298.83	1273.84
299.05	1271.79
299.26	1236.97
299.48	1288.17
299.69	1288.17
299.90	1327.08
300.12	1275.88
300.33	1279.98
300.55	1306.60
300.76	1308.65
300.98	1279.98
301.19	1294.32
301.40	1247.21
301.62	1284.08
301.83	1277.93
302.05	1247.21
302.26	1259.50
302.47	1298.41
302.69	1265.64
302.90	1308.65
303.12	1220.59
303.33	1349.61
303.54	1263.60
303.76	1232.88
303.97	1284.08
304.19	1241.07
304.40	1193.97
304.61	1251.31
304.83	1355.76
305.04	1333.23
305.26	1279.98
305.47	1179.63
305.68	1269.74
305.90	1353.71
306.11	1224.69
306.33	1251.31
306.54	1279.98
306.75	1277.93
306.97	1265.64
307.18	1241.07
307.39	1255.40
307.61	1282.03
307.82	1251.31
308.04	1320.94
308.25	1251.31
308.46	1322.99
308.68	1241.07
308.89	1294.32
309.10	1359.85
309.32	1222.64
309.53	1220.59
309.74	1271.79
309.96	1228.78
310.17	1294.32
310.39	1327.08
310.60	1249.26
310.81	1267.69
311.03	1193.97
311.24	1277.93
311.45	1275.88
311.67	1263.60
311.88	1296.36
312.09	1263.60
312.31	1208.30
312.52	1257.45
312.73	1257.45
312.95	1347.56
313.16	1247.21
313.37	1222.64
313.59	1263.60
313.80	1251.31
314.01	1241.07
314.23	1202.16
314.44	1292.27
314.65	1282.03
314.87	1216.49
315.08	1275.88
315.29	1300.46
315.51	1232.88
315.72	1253.36
315.93	1341.42
316.15	1218.54
316.36	1271.79
316.57	1312.75
316.79	1271.79
317.00	1259.50
317.21	1239.02
317.43	1196.01
317.64	1302.51
317.85	1273.84
318.07	1265.64
318.28	1247.21
318.49	1265.64
318.70	1292.27
318.92	1306.60
319.13	1257.45
319.34	1310.70
319.56	1228.78
319.77	1196.01
319.98	1314.80
320.20	1294.32
320.41	1261.55
320.62	1249.26
320.83	1282.03
321.05	1312.75
321.26	1282.03
321.47	1212.40
321.69	1277.93
321.90	1302.51
322.11	1300.46
322.32	1230.83
322.54	1277.93
322.75	1232.88
322.96	1286.12
323.18	1269.74
323.39	1298.41
323.60	1140.72
323.81	1239.02
324.03	1226.73
324.24	1286.12
324.45	1181.68
324.66	1265.64
324.88	1253.36
325.09	1318.89
325.30	1255.40
325.52	1247.21
325.73	1259.50
325.94	1290.22
326.15	1257.45
326.37	1279.98
326.58	1306.60
326.79	1271.79
327.00	1267.69
327.22	1275.88
327.43	1273.84
327.64	1208.30
327.85	1255.40
328.07	1249.26
328.28	1300.46
328.49	1286.12
328.70	1177.58
328.92	1263.60
329.13	1308.65
329.34	1214.45
329.55	1271.79
329.76	1232.88
329.98	1300.46
330.19	1304.56
330.40	1265.64
330.61	1249.26
330.83	1267.69
331.04	1251.31
331.25	1230.83
331.46	1236.97
331.68	1255.40
331.89	1257.45
332.10	1228.78
332.31	1155.05
332.52	1267.69
332.74	1257.45
332.95	1206.25
333.16	1300.46
333.37	1261.55
333.58	1298.41
333.80	1191.92
334.01	1304.56
334.22	1200.11
334.43	1273.84
334.64	1232.88
334.86	1282.03
335.07	1255.40
335.28	1290.22
335.49	1226.73
335.70	1241.07
335.92	1308.65
336.13	1267.69
336.34	1300.46
336.55	1222.64
336.76	1316.84
336.98	1259.50
337.19	1243.12
337.40	1263.60
337.61	1263.60
337.82	1261.55
338.04	1306.60
338.25	1306.60
338.46	1265.64
338.67	1284.08
338.88	1247.21
339.09	1298.41
339.31	1241.07
339.52	1337.32
339.73	1253.36
339.94	1302.51
340.15	1245.16
340.36	1212.40
340.58	1222.64
340.79	1200.11
341.00	1253.36
341.21	1239.02
341.42	1306.60
341.63	1275.88
341.85	1273.84
342.06	1247.21
342.27	1261.55
342.48	1245.16
342.69	1253.36
342.90	1279.98
343.12	1253.36
343.33	1347.56
343.54	1366.00
343.75	1239.02
343.96	1335.28
344.17	1259.50
344.38	1232.88
344.60	1298.41
344.81	1286.12
345.02	1327.08
345.23	1327.08
345.44	1232.88
345.65	1265.64
345.86	1292.27
346.07	1265.64
346.29	1212.40
346.50	1239.02
346.71	1261.55
346.92	1294.32
347.13	1265.64
347.34	1282.03
347.55	1212.40
347.76	1290.22
347.98	1337.32
348.19	1310.70
348.40	1265.64
348.61	1230.83
348.82	1198.06
349.03	1265.64
349.24	1290.22
349.45	1320.94
349.66	1314.80
349.88	1228.78
350.09	1202.16
350.30	1296.36
350.51	1253.36
350.72	1222.64
350.93	1249.26
351.14	1263.60
351.35	1232.88
351.56	1349.61
351.77	1273.84
351.99	1292.27
352.20	1327.08
352.41	1259.50
352.62	1288.17
352.83	1275.88
353.04	1275.88
353.25	1228.78
353.46	1202.16
353.67	1243.12
353.88	1234.93
354.09	1247.21
354.30	1263.60
354.52	1251.31
354.73	1210.35
354.94	1298.41
355.15	1290.22
355.36	1275.88
355.57	1318.89
355.78	1312.75
355.99	1322.99
356.20	1210.35
356.41	1265.64
356.62	1288.17
356.83	1271.79
357.04	1212.40
357.25	1335.28
357.46	1251.31
357.68	1269.74
357.89	1218.54
358.10	1271.79
358.31	1222.64
358.52	1273.84
358.73	1247.21
358.94	1298.41
359.15	1279.98
359.36	1339.37
359.57	1214.45
359.78	1210.35
359.99	1337.32
360.20	1251.31
360.41	1333.23
360.62	1351.66
360.83	1236.97
361.04	1263.60
361.25	1245.16
361.46	1259.50
361.67	1339.37
361.88	1191.92
362.09	1247.21
362.30	1357.80
362.51	1257.45
362.72	1243.12
362.93	1331.18
363.14	1265.64
363.35	1312.75
363.56	1271.79
363.78	1284.08
363.99	1398.76
364.20	1282.03
364.41	1296.36
364.62	1279.98
364.83	1259.50
365.04	1247.21
365.25	1236.97
365.46	1267.69
365.67	1239.02
365.88	1259.50
366.09	1318.89
366.30	1257.45
366.51	1228.78
366.72	1257.45
366.93	1306.60
367.14	1277.93
367.35	1247.21
367.56	1222.64
367.77	1337.32
367.98	1245.16
368.18	1261.55
368.39	1286.12
368.60	1296.36
368.81	1300.46
369.02	1259.50
369.23	1271.79
369.44	1241.07
369.65	1198.06
369.86	1282.03
370.07	1308.65
370.28	1232.88
370.49	1220.59
370.70	1325.04
370.91	1263.60
371.12	1298.41
371.33	1273.84
371.54	1216.49
371.75	1222.64
371.96	1196.01
372.17	1298.41
372.38	1265.64
372.59	1249.26
372.80	1206.25
373.01	1302.51
373.22	1296.36
373.43	1261.55
373.64	1269.74
373.85	1310.70
374.06	1257.45
374.26	1239.02
374.47	1263.60
374.68	1230.83
374.89	1279.98
375.10	1202.16
375.31	1187.82
375.52	1275.88
375.73	1239.02
375.94	1261.55
376.15	1310.70
376.36	1234.93
376.57	1226.73
376.78	1232.88
376.99	1232.88
377.20	1251.31
377.40	1208.30
377.61	1261.55
377.82	1335.28
378.03	1228.78
378.24	1214.45
378.45	1298.41
378.66	1298.41
378.87	1284.08
379.08	1163.25
379.29	1277.93
379.50	1171.44
379.71	1263.60
379.91	1228.78
380.12	1294.32
380.33	1306.60
380.54	1265.64
380.75	1249.26
380.96	1322.99
381.17	1318.89
381.38	1337.32
381.59	1255.40
381.80	1255.40
382.00	1189.87
382.21	1247.21
382.42	1292.27
382.63	1282.03
382.84	1220.59
383.05	1296.36
383.26	1265.64
383.47	1214.45
383.68	1255.40
383.88	1263.60
384.09	1255.40
384.30	1304.56
384.51	1306.60
384.72	1202.16
384.93	1294.32
385.14	1259.50
385.35	1239.02
385.55	1212.40
385.76	1218.54
385.97	1304.56
386.18	1255.40
386.39	1351.66
386.60	1243.12
386.81	1347.56
387.02	1224.69
387.22	1251.31
387.43	1290.22
387.64	1261.55
387.85	1245.16
388.06	1210.35
388.27	1316.84
388.48	1249.26
388.68	1353.71
388.89	1257.45
389.10	1214.45
389.31	1275.88
389.52	1282.03
389.73	1290.22
389.93	1251.31
390.14	1296.36
390.35	1294.32
390.56	1239.02
390.77	1234.93
390.98	1245.16
391.18	1212.40
391.39	1220.59
391.60	1253.36
391.81	1261.55
392.02	1234.93
392.23	1249.26
392.43	1257.45
392.64	1245.16
392.85	1255.40
393.06	1261.55
393.27	1251.31
393.47	1279.98
393.68	1269.74
393.89	1247.21
394.10	1269.74
394.31	1241.07
394.52	1279.98
394.72	1257.45
394.93	1257.45
395.14	1265.64
395.35	1325.04
395.56	1327.08
395.76	1140.72
395.97	1255.40
396.18	1243.12
396.39	1193.97
396.60	1298.41
396.80	1300.46
397.01	1304.56
397.22	1263.60
397.43	1259.50
397.64	1216.49
397.84	1222.64
398.05	1296.36
398.26	1320.94
398.47	1228.78
398.67	1312.75
398.88	1228.78
399.09	1363.95
399.30	1232.88
399.51	1279.98
399.71	1259.50
399.92	1206.25
400.13	1263.60
400.34	1290.22
400.54	1292.27
400.75	1249.26
400.96	1265.64
401.17	1218.54
401.37	1234.93
401.58	1239.02
401.79	1337.32
402.00	1277.93
402.21	1245.16
402.41	1284.08
402.62	1286.12
402.83	1312.75
403.04	1212.40
403.24	1282.03
403.45	1284.08
403.66	1251.31
403.87	1267.69
404.07	1290.22
404.28	1247.21
404.49	1224.69
404.70	1277.93
404.90	1249.26
405.11	1316.84
405.32	1257.45
405.52	1320.94
405.73	1239.02
405.94	1310.70
406.15	1331.18
406.35	1261.55
406.56	1206.25
406.77	1284.08
406.98	1247.21
407.18	1175.53
407.39	1241.07
407.60	1261.55
407.80	1271.79
408.01	1220.59
408.22	1271.79
408.43	1257.45
408.63	1310.70
408.84	1210.35
409.05	1267.69
409.25	1218.54
409.46	1288.17
409.67	1273.84
409.88	1302.51
410.08	1275.88
410.29	1249.26
410.50	1220.59
410.70	1314.80
410.91	1302.51
411.12	1210.35
411.32	1261.55
411.53	1277.93
411.74	1247.21
411.95	1263.60
412.15	1322.99
412.36	1290.22
412.57	1275.88
412.77	1271.79
412.98	1263.60
413.19	1255.40
413.39	1232.88
413.60	1314.80
413.81	1304.56
414.01	1253.36
414.22	1347.56
414.43	1220.59
414.63	1296.36
414.84	1279.98
415.05	1300.46
415.25	1314.80
415.46	1271.79
415.67	1261.55
415.87	1249.26
416.08	1230.83
416.29	1306.60
416.49	1298.41
416.70	1222.64
416.91	1286.12
417.11	1239.02
417.32	1228.78
417.53	1294.32
417.73	1185.77
417.94	1320.94
418.15	1210.35
418.35	1331.18
418.56	1288.17
418.77	1228.78
418.97	1282.03
419.18	1210.35
419.38	1249.26
419.59	1189.87
419.80	1265.64
420.00	1290.22
420.21	1265.64
420.42	1243.12
420.62	1249.26
420.83	1230.83
421.04	1249.26
421.24	1282.03
421.45	1290.22
421.65	1275.88
421.86	1245.16
422.07	1245.16
422.27	1329.13
422.48	1183.73
422.69	1277.93
422.89	1290.22
423.10	1302.51
423.30	1261.55
423.51	1253.36
423.72	1165.29
423.92	1214.45
424.13	1253.36
424.33	1282.03
424.54	1230.83
424.75	1302.51
424.95	1279.98
425.16	1286.12
425.36	1234.93
425.57	1310.70
425.78	1257.45
425.98	1220.59
426.19	1257.45
426.39	1232.88
426.60	1253.36
426.81	1277.93
427.01	1329.13
427.22	1259.50
427.42	1259.50
427.63	1306.60
427.83	1304.56
428.04	1286.12
428.25	1263.60
428.45	1296.36
428.66	1349.61
428.86	1282.03
429.07	1222.64
429.28	1206.25
429.48	1327.08
429.69	1253.36
429.89	1314.80
430.10	1253.36
430.30	1236.97
430.51	1216.49
430.71	1247.21
430.92	1202.16
431.13	1288.17
431.33	1253.36
431.54	1331.18
431.74	1191.92
431.95	1302.51
432.15	1271.79
432.36	1347.56
432.56	1269.74
432.77	1247.21
432.98	1241.07
433.18	1271.79
433.39	1259.50
433.59	1322.99
433.80	1230.83
434.00	1259.50
434.21	1263.60
434.41	1234.93
434.62	1249.26
434.82	1310.70
435.03	1312.75
435.23	1286.12
435.44	1202.16
435.64	1304.56
435.85	1284.08
436.06	1259.50
436.26	1282.03
436.47	1288.17
436.67	1288.17
436.88	1236.97
437.08	1216.49
437.29	1300.46
437.49	1212.40
437.70	1267.69
437.90	1245.16
438.11	1290.22
438.31	1220.59
438.52	1363.95
438.72	1296.36
438.93	1269.74
439.13	1286.12
439.34	1263.60
439.54	1236.97
439.75	1187.82
439.95	1343.47
440.16	1298.41
440.36	1296.36
440.57	1275.88
440.77	1265.64
440.98	1249.26
441.18	1282.03
441.39	1294.32
441.59	1169.39
441.80	1300.46
442.00	1308.65
442.21	1259.50
442.41	1249.26
442.62	1247.21
442.82	1298.41
443.02	1286.12
443.23	1269.74
443.43	1220.59
443.64	1288.17
443.84	1265.64
444.05	1282.03
444.25	1288.17
444.46	1304.56
444.66	1257.45
444.87	1234.93
445.07	1230.83
445.28	1304.56
445.48	1329.13
445.69	1318.89
445.89	1329.13
446.09	1271.79
446.30	1257.45
446.50	1243.12
446.71	1308.65
446.91	1167.34
447.12	1279.98
447.32	1312.75
447.53	1288.17
447.73	1284.08
447.93	1206.25
448.14	1230.83
448.34	1310.70
448.55	1271.79
448.75	1282.03
448.96	1288.17
449.16	1269.74
449.36	1253.36
449.57	1298.41
449.77	1265.64
449.98	1292.27
450.18	1279.98
450.39	1275.88
450.59	1241.07
450.79	1251.31
451.00	1302.51
451.20	1312.75
451.41	1259.50
451.61	1304.56
451.81	1279.98
452.02	1284.08
452.22	1267.69
452.43	1222.64
452.63	1220.59
