SpectraSuite Data File
++++++++++++++++++++++++++++++++++++
Date: Sun Apr 03 19:55:45 CEST 2016
User: root
Dark Spectrum Present: No
Reference Spectrum Present: No
Number of Sampled Component Spectra: 1
Spectrometers: USB4C02835
Integration Time (usec): 10000 (USB4C02835)
Spectra Averaged: 1 (USB4C02835)
Boxcar Smoothing: 0 (USB4C02835)
Correct for Electrical Dark: No (USB4C02835)
Strobe/Lamp Enabled: No (USB4C02835)
Correct for Detector Non-linearity: No (USB4C02835)
Correct for Stray Light: No (USB4C02835)
Number of Pixels in Processed Spectrum: 3648
>>>>>Begin Processed Spectral Data<<<<<
177.47	1290.22
177.69	1290.22
177.91	1290.22
178.13	1257.45
178.36	1251.31
178.58	1255.40
178.80	1282.03
179.02	1257.45
179.24	1275.88
179.46	1249.26
179.68	1247.21
179.90	1273.84
180.13	1228.78
180.35	1234.93
180.57	1253.36
180.79	1292.27
181.01	1320.94
181.23	1292.27
181.45	1243.12
181.67	1290.22
181.90	1251.31
182.12	1216.49
182.34	1279.98
182.56	1226.73
182.78	1351.66
183.00	1333.23
183.22	1275.88
183.44	1312.75
183.66	1269.74
183.89	1261.55
184.11	1286.12
184.33	1173.49
184.55	1247.21
184.77	1247.21
184.99	1286.12
185.21	1286.12
185.43	1296.36
185.65	1245.16
185.87	1271.79
186.10	1292.27
186.32	1220.59
186.54	1257.45
186.76	1269.74
186.98	1234.93
187.20	1310.70
187.42	1251.31
187.64	1267.69
187.86	1261.55
188.08	1353.71
188.30	1236.97
188.52	1312.75
188.75	1269.74
188.97	1265.64
189.19	1320.94
189.41	1288.17
189.63	1296.36
189.85	1220.59
190.07	1347.56
190.29	1261.55
190.51	1259.50
190.73	1263.60
190.95	1277.93
191.17	1267.69
191.39	1222.64
191.61	1275.88
191.84	1234.93
192.06	1288.17
192.28	1269.74
192.50	1286.12
192.72	1224.69
192.94	1175.53
193.16	1329.13
193.38	1232.88
193.60	1222.64
193.82	1292.27
194.04	1232.88
194.26	1269.74
194.48	1316.84
194.70	1333.23
194.92	1273.84
195.14	1251.31
195.36	1265.64
195.58	1216.49
195.80	1261.55
196.02	1290.22
196.24	1290.22
196.46	1165.29
196.69	1306.60
196.91	1220.59
197.13	1265.64
197.35	1224.69
197.57	1261.55
197.79	1288.17
198.01	1275.88
198.23	1314.80
198.45	1308.65
198.67	1296.36
198.89	1251.31
199.11	1232.88
199.33	1241.07
199.55	1279.98
199.77	1310.70
199.99	1325.04
200.21	1245.16
200.43	1222.64
200.65	1284.08
200.87	1277.93
201.09	1282.03
201.31	1261.55
201.53	1255.40
201.75	1292.27
201.97	1273.84
202.19	1226.73
202.41	1337.32
202.63	1300.46
202.85	1249.26
203.07	1255.40
203.29	1277.93
203.51	1265.64
203.73	1247.21
203.95	1257.45
204.17	1327.08
204.39	1259.50
204.61	1306.60
204.83	1247.21
205.05	1282.03
205.27	1277.93
205.49	1263.60
205.71	1230.83
205.93	1322.99
206.15	1325.04
206.37	1169.39
206.59	1312.75
206.81	1224.69
207.03	1263.60
207.25	1253.36
207.47	1222.64
207.69	1224.69
207.91	1222.64
208.13	1292.27
208.34	1335.28
208.56	1275.88
208.78	1277.93
209.00	1249.26
209.22	1228.78
209.44	1245.16
209.66	1314.80
209.88	1228.78
210.10	1216.49
210.32	1300.46
210.54	1251.31
210.76	1183.73
210.98	1165.29
211.20	1263.60
211.42	1206.25
211.64	1300.46
211.86	1265.64
212.08	1257.45
212.30	1337.32
212.52	1329.13
212.74	1232.88
212.96	1249.26
213.17	1314.80
213.39	1253.36
213.61	1265.64
213.83	1288.17
214.05	1279.98
214.27	1259.50
214.49	1322.99
214.71	1251.31
214.93	1304.56
215.15	1292.27
215.37	1226.73
215.59	1212.40
215.81	1271.79
216.03	1259.50
216.24	1279.98
216.46	1267.69
216.68	1253.36
216.90	1253.36
217.12	1306.60
217.34	1331.18
217.56	1312.75
217.78	1243.12
218.00	1267.69
218.22	1300.46
218.44	1259.50
218.66	1218.54
218.87	1277.93
219.09	1320.94
219.31	1249.26
219.53	1273.84
219.75	1304.56
219.97	1243.12
220.19	1251.31
220.41	1261.55
220.63	1257.45
220.85	1329.13
221.06	1267.69
221.28	1234.93
221.50	1257.45
221.72	1167.34
221.94	1306.60
222.16	1222.64
222.38	1335.28
222.60	1288.17
222.82	1306.60
223.03	1333.23
223.25	1273.84
223.47	1257.45
223.69	1257.45
223.91	1271.79
224.13	1271.79
224.35	1202.16
224.57	1267.69
224.78	1241.07
225.00	1277.93
225.22	1290.22
225.44	1265.64
225.66	1286.12
225.88	1251.31
226.10	1228.78
226.32	1359.85
226.53	1312.75
226.75	1341.42
226.97	1296.36
227.19	1273.84
227.41	1273.84
227.63	1273.84
227.85	1257.45
228.06	1261.55
228.28	1292.27
228.50	1224.69
228.72	1226.73
228.94	1284.08
229.16	1314.80
229.37	1286.12
229.59	1249.26
229.81	1349.61
230.03	1251.31
230.25	1234.93
230.47	1296.36
230.69	1312.75
230.90	1216.49
231.12	1277.93
231.34	1187.82
231.56	1288.17
231.78	1259.50
232.00	1284.08
232.21	1234.93
232.43	1263.60
232.65	1255.40
232.87	1253.36
233.09	1257.45
233.30	1193.97
233.52	1265.64
233.74	1255.40
233.96	1300.46
234.18	1234.93
234.40	1216.49
234.61	1277.93
234.83	1271.79
235.05	1220.59
235.27	1308.65
235.49	1253.36
235.70	1243.12
235.92	1245.16
236.14	1224.69
236.36	1253.36
236.58	1279.98
236.79	1279.98
237.01	1236.97
237.23	1296.36
237.45	1214.45
237.67	1259.50
237.88	1251.31
238.10	1214.45
238.32	1228.78
238.54	1329.13
238.76	1296.36
238.97	1292.27
239.19	1282.03
239.41	1247.21
239.63	1380.33
239.85	1249.26
240.06	1357.80
240.28	1226.73
240.50	1269.74
240.72	1208.30
240.93	1222.64
241.15	1232.88
241.37	1234.93
241.59	1245.16
241.81	1292.27
242.02	1230.83
242.24	1269.74
242.46	1294.32
242.68	1171.44
242.89	1288.17
243.11	1302.51
243.33	1259.50
243.55	1265.64
243.76	1296.36
243.98	1210.35
244.20	1286.12
244.42	1206.25
244.64	1257.45
244.85	1271.79
245.07	1202.16
245.29	1355.76
245.51	1277.93
245.72	1247.21
245.94	1257.45
246.16	1304.56
246.38	1310.70
246.59	1253.36
246.81	1339.37
247.03	1308.65
247.24	1257.45
247.46	1290.22
247.68	1261.55
247.90	1232.88
248.11	1298.41
248.33	1286.12
248.55	1234.93
248.77	1261.55
248.98	1277.93
249.20	1275.88
249.42	1269.74
249.64	1208.30
249.85	1275.88
250.07	1267.69
250.29	1327.08
250.50	1257.45
250.72	1275.88
250.94	1296.36
251.16	1290.22
251.37	1253.36
251.59	1249.26
251.81	1177.58
252.02	1189.87
252.24	1265.64
252.46	1261.55
252.68	1251.31
252.89	1294.32
253.11	1273.84
253.33	1271.79
253.54	1284.08
253.76	1183.73
253.98	1327.08
254.20	1298.41
254.41	1269.74
254.63	1245.16
254.85	1265.64
255.06	1208.30
255.28	1239.02
255.50	1275.88
255.71	1228.78
255.93	1265.64
256.15	1232.88
256.36	1253.36
256.58	1198.06
256.80	1228.78
257.02	1302.51
257.23	1314.80
257.45	1337.32
257.67	1273.84
257.88	1271.79
258.10	1273.84
258.32	1202.16
258.53	1251.31
258.75	1331.18
258.97	1353.71
259.18	1208.30
259.40	1310.70
259.62	1284.08
259.83	1275.88
260.05	1271.79
260.27	1265.64
260.48	1290.22
260.70	1220.59
260.92	1277.93
261.13	1308.65
261.35	1290.22
261.57	1275.88
261.78	1286.12
262.00	1279.98
262.22	1282.03
262.43	1193.97
262.65	1239.02
262.86	1214.45
263.08	1298.41
263.30	1200.11
263.51	1318.89
263.73	1261.55
263.95	1236.97
264.16	1249.26
264.38	1245.16
264.60	1255.40
264.81	1222.64
265.03	1228.78
265.25	1249.26
265.46	1245.16
265.68	1368.04
265.89	1214.45
266.11	1300.46
266.33	1329.13
266.54	1320.94
266.76	1247.21
266.98	1200.11
267.19	1312.75
267.41	1245.16
267.62	1222.64
267.84	1230.83
268.06	1269.74
268.27	1169.39
268.49	1279.98
268.70	1310.70
268.92	1298.41
269.14	1275.88
269.35	1292.27
269.57	1243.12
269.79	1318.89
270.00	1247.21
270.22	1271.79
270.43	1275.88
270.65	1279.98
270.87	1277.93
271.08	1331.18
271.30	1232.88
271.51	1247.21
271.73	1261.55
271.95	1318.89
272.16	1271.79
272.38	1298.41
272.59	1316.84
272.81	1300.46
273.02	1318.89
273.24	1263.60
273.46	1228.78
273.67	1337.32
273.89	1318.89
274.10	1275.88
274.32	1257.45
274.54	1253.36
274.75	1222.64
274.97	1304.56
275.18	1294.32
275.40	1216.49
275.61	1263.60
275.83	1247.21
276.05	1193.97
276.26	1263.60
276.48	1234.93
276.69	1222.64
276.91	1292.27
277.12	1271.79
277.34	1294.32
277.55	1259.50
277.77	1275.88
277.99	1265.64
278.20	1263.60
278.42	1255.40
278.63	1185.77
278.85	1224.69
279.06	1273.84
279.28	1314.80
279.49	1226.73
279.71	1261.55
279.93	1210.35
280.14	1251.31
280.36	1261.55
280.57	1236.97
280.79	1263.60
281.00	1271.79
281.22	1263.60
281.43	1337.32
281.65	1232.88
281.86	1318.89
282.08	1173.49
282.29	1271.79
282.51	1275.88
282.73	1253.36
282.94	1212.40
283.16	1312.75
283.37	1325.04
283.59	1247.21
283.80	1314.80
284.02	1269.74
284.23	1255.40
284.45	1243.12
284.66	1212.40
284.88	1282.03
285.09	1183.73
285.31	1284.08
285.52	1247.21
285.74	1230.83
285.95	1196.01
286.17	1306.60
286.38	1245.16
286.60	1273.84
286.81	1249.26
287.03	1279.98
287.24	1234.93
287.46	1310.70
287.67	1314.80
287.89	1259.50
288.10	1267.69
288.32	1236.97
288.53	1327.08
288.75	1259.50
288.96	1269.74
289.18	1288.17
289.39	1288.17
289.61	1267.69
289.82	1294.32
290.04	1220.59
290.25	1261.55
290.47	1292.27
290.68	1294.32
290.90	1212.40
291.11	1288.17
291.33	1312.75
291.54	1220.59
291.76	1308.65
291.97	1259.50
292.18	1196.01
292.40	1257.45
292.61	1226.73
292.83	1273.84
293.04	1243.12
293.26	1294.32
293.47	1292.27
293.69	1308.65
293.90	1341.42
294.12	1288.17
294.33	1327.08
294.55	1243.12
294.76	1241.07
294.97	1232.88
295.19	1218.54
295.40	1224.69
295.62	1253.36
295.83	1245.16
296.05	1351.66
296.26	1245.16
296.48	1208.30
296.69	1181.68
296.90	1257.45
297.12	1296.36
297.33	1210.35
297.55	1257.45
297.76	1263.60
297.98	1208.30
298.19	1325.04
298.41	1273.84
298.62	1241.07
298.83	1290.22
299.05	1259.50
299.26	1200.11
299.48	1263.60
299.69	1300.46
299.90	1329.13
300.12	1204.21
300.33	1298.41
300.55	1230.83
300.76	1277.93
300.98	1271.79
301.19	1298.41
301.40	1320.94
301.62	1308.65
301.83	1282.03
302.05	1239.02
302.26	1247.21
302.47	1257.45
302.69	1286.12
302.90	1284.08
303.12	1263.60
303.33	1279.98
303.54	1302.51
303.76	1290.22
303.97	1284.08
304.19	1271.79
304.40	1286.12
304.61	1241.07
304.83	1234.93
305.04	1265.64
305.26	1236.97
305.47	1304.56
305.68	1261.55
305.90	1302.51
306.11	1277.93
306.33	1265.64
306.54	1275.88
306.75	1316.84
306.97	1263.60
307.18	1320.94
307.39	1286.12
307.61	1290.22
307.82	1320.94
308.04	1247.21
308.25	1292.27
308.46	1284.08
308.68	1222.64
308.89	1329.13
309.10	1243.12
309.32	1222.64
309.53	1247.21
309.74	1304.56
309.96	1273.84
310.17	1286.12
310.39	1265.64
310.60	1204.21
310.81	1251.31
311.03	1292.27
311.24	1273.84
311.45	1255.40
311.67	1204.21
311.88	1234.93
312.09	1261.55
312.31	1277.93
312.52	1277.93
312.73	1290.22
312.95	1200.11
313.16	1255.40
313.37	1288.17
313.59	1263.60
313.80	1222.64
314.01	1220.59
314.23	1300.46
314.44	1253.36
314.65	1296.36
314.87	1327.08
315.08	1292.27
315.29	1243.12
315.51	1226.73
315.72	1341.42
315.93	1261.55
316.15	1282.03
316.36	1257.45
316.57	1327.08
316.79	1255.40
317.00	1294.32
317.21	1277.93
317.43	1224.69
317.64	1267.69
317.85	1249.26
318.07	1263.60
318.28	1271.79
318.49	1302.51
318.70	1286.12
318.92	1243.12
319.13	1259.50
319.34	1279.98
319.56	1241.07
319.77	1218.54
319.98	1245.16
320.20	1245.16
320.41	1261.55
320.62	1249.26
320.83	1292.27
321.05	1236.97
321.26	1300.46
321.47	1329.13
321.69	1177.58
321.90	1216.49
322.11	1220.59
322.32	1267.69
322.54	1292.27
322.75	1255.40
322.96	1241.07
323.18	1263.60
323.39	1230.83
323.60	1290.22
323.81	1265.64
324.03	1257.45
324.24	1277.93
324.45	1339.37
324.66	1253.36
324.88	1269.74
325.09	1273.84
325.30	1263.60
325.52	1308.65
325.73	1267.69
325.94	1181.68
326.15	1284.08
326.37	1296.36
326.58	1314.80
326.79	1251.31
327.00	1204.21
327.22	1341.42
327.43	1206.25
327.64	1247.21
327.85	1245.16
328.07	1263.60
328.28	1306.60
328.49	1269.74
328.70	1218.54
328.92	1327.08
329.13	1234.93
329.34	1265.64
329.55	1335.28
329.76	1318.89
329.98	1304.56
330.19	1230.83
330.40	1245.16
330.61	1275.88
330.83	1372.14
331.04	1249.26
331.25	1247.21
331.46	1247.21
331.68	1259.50
331.89	1351.66
332.10	1261.55
332.31	1230.83
332.52	1269.74
332.74	1206.25
332.95	1310.70
333.16	1232.88
333.37	1271.79
333.58	1220.59
333.80	1220.59
334.01	1222.64
334.22	1234.93
334.43	1267.69
334.64	1265.64
334.86	1282.03
335.07	1304.56
335.28	1206.25
335.49	1279.98
335.70	1269.74
335.92	1255.40
336.13	1396.71
336.34	1275.88
336.55	1236.97
336.76	1288.17
336.98	1329.13
337.19	1253.36
337.40	1316.84
337.61	1263.60
337.82	1267.69
338.04	1296.36
338.25	1265.64
338.46	1318.89
338.67	1259.50
338.88	1173.49
339.09	1294.32
339.31	1230.83
339.52	1277.93
339.73	1288.17
339.94	1286.12
340.15	1249.26
340.36	1304.56
340.58	1216.49
340.79	1284.08
341.00	1245.16
341.21	1232.88
341.42	1224.69
341.63	1327.08
341.85	1232.88
342.06	1216.49
342.27	1282.03
342.48	1308.65
342.69	1269.74
342.90	1275.88
343.12	1214.45
343.33	1271.79
343.54	1257.45
343.75	1222.64
343.96	1243.12
344.17	1306.60
344.38	1271.79
344.60	1241.07
344.81	1241.07
345.02	1251.31
345.23	1249.26
345.44	1286.12
345.65	1269.74
345.86	1259.50
346.07	1257.45
346.29	1232.88
346.50	1236.97
346.71	1230.83
346.92	1241.07
347.13	1196.01
347.34	1288.17
347.55	1337.32
347.76	1294.32
347.98	1241.07
348.19	1236.97
348.40	1214.45
348.61	1234.93
348.82	1310.70
349.03	1322.99
349.24	1294.32
349.45	1239.02
349.66	1236.97
349.88	1189.87
350.09	1232.88
350.30	1345.52
350.51	1261.55
350.72	1279.98
350.93	1374.19
351.14	1322.99
351.35	1292.27
351.56	1226.73
351.77	1273.84
351.99	1245.16
352.20	1331.18
352.41	1288.17
352.62	1232.88
352.83	1253.36
353.04	1245.16
353.25	1290.22
353.46	1306.60
353.67	1310.70
353.88	1241.07
354.09	1304.56
354.30	1245.16
354.52	1196.01
354.73	1294.32
354.94	1257.45
355.15	1232.88
355.36	1247.21
355.57	1257.45
355.78	1325.04
355.99	1247.21
356.20	1269.74
356.41	1187.82
356.62	1245.16
356.83	1261.55
357.04	1290.22
357.25	1282.03
357.46	1183.73
357.68	1306.60
357.89	1312.75
358.10	1255.40
358.31	1204.21
358.52	1298.41
358.73	1306.60
358.94	1261.55
359.15	1275.88
359.36	1253.36
359.57	1275.88
359.78	1253.36
359.99	1239.02
360.20	1255.40
360.41	1167.34
360.62	1339.37
360.83	1241.07
361.04	1218.54
361.25	1320.94
361.46	1234.93
361.67	1329.13
361.88	1302.51
362.09	1302.51
362.30	1247.21
362.51	1269.74
362.72	1290.22
362.93	1282.03
363.14	1302.51
363.35	1239.02
363.56	1296.36
363.78	1263.60
363.99	1296.36
364.20	1239.02
364.41	1316.84
364.62	1255.40
364.83	1290.22
365.04	1288.17
365.25	1312.75
365.46	1234.93
365.67	1253.36
365.88	1224.69
366.09	1255.40
366.30	1214.45
366.51	1218.54
366.72	1173.49
366.93	1239.02
367.14	1226.73
367.35	1304.56
367.56	1259.50
367.77	1218.54
367.98	1296.36
368.18	1279.98
368.39	1282.03
368.60	1261.55
368.81	1286.12
369.02	1259.50
369.23	1255.40
369.44	1279.98
369.65	1212.40
369.86	1312.75
370.07	1269.74
370.28	1282.03
370.49	1302.51
370.70	1302.51
370.91	1212.40
371.12	1359.85
371.33	1257.45
371.54	1208.30
371.75	1220.59
371.96	1286.12
372.17	1288.17
372.38	1255.40
372.59	1193.97
372.80	1251.31
373.01	1261.55
373.22	1202.16
373.43	1236.97
373.64	1212.40
373.85	1306.60
374.06	1322.99
374.26	1290.22
374.47	1230.83
374.68	1300.46
374.89	1333.23
375.10	1265.64
375.31	1234.93
375.52	1212.40
375.73	1345.52
375.94	1183.73
376.15	1265.64
376.36	1173.49
376.57	1292.27
376.78	1224.69
376.99	1249.26
377.20	1257.45
377.40	1206.25
377.61	1265.64
377.82	1228.78
378.03	1269.74
378.24	1277.93
378.45	1277.93
378.66	1316.84
378.87	1292.27
379.08	1189.87
379.29	1296.36
379.50	1335.28
379.71	1206.25
379.91	1275.88
380.12	1304.56
380.33	1312.75
380.54	1236.97
380.75	1243.12
380.96	1269.74
381.17	1259.50
381.38	1314.80
381.59	1253.36
381.80	1290.22
382.00	1185.77
382.21	1277.93
382.42	1288.17
382.63	1245.16
382.84	1161.20
383.05	1282.03
383.26	1247.21
383.47	1204.21
383.68	1249.26
383.88	1298.41
384.09	1310.70
384.30	1288.17
384.51	1261.55
384.72	1259.50
384.93	1239.02
385.14	1288.17
385.35	1257.45
385.55	1304.56
385.76	1288.17
385.97	1200.11
386.18	1296.36
386.39	1243.12
386.60	1288.17
386.81	1296.36
387.02	1296.36
387.22	1255.40
387.43	1282.03
387.64	1294.32
387.85	1310.70
388.06	1218.54
388.27	1282.03
388.48	1286.12
388.68	1271.79
388.89	1288.17
389.10	1298.41
389.31	1312.75
389.52	1343.47
389.73	1277.93
389.93	1282.03
390.14	1288.17
390.35	1277.93
390.56	1302.51
390.77	1284.08
390.98	1228.78
391.18	1273.84
391.39	1241.07
391.60	1239.02
391.81	1253.36
392.02	1279.98
392.23	1257.45
392.43	1212.40
392.64	1224.69
392.85	1220.59
393.06	1271.79
393.27	1230.83
393.47	1222.64
393.68	1263.60
393.89	1316.84
394.10	1296.36
394.31	1271.79
394.52	1314.80
394.72	1257.45
394.93	1288.17
395.14	1300.46
395.35	1296.36
395.56	1294.32
395.76	1265.64
395.97	1271.79
396.18	1273.84
396.39	1220.59
396.60	1296.36
396.80	1251.31
397.01	1239.02
397.22	1269.74
397.43	1257.45
397.64	1308.65
397.84	1296.36
398.05	1228.78
398.26	1239.02
398.47	1193.97
398.67	1228.78
398.88	1316.84
399.09	1269.74
399.30	1316.84
399.51	1210.35
399.71	1226.73
399.92	1241.07
400.13	1241.07
400.34	1249.26
400.54	1351.66
400.75	1306.60
400.96	1200.11
401.17	1249.26
401.37	1251.31
401.58	1298.41
401.79	1345.52
402.00	1208.30
402.21	1249.26
402.41	1245.16
402.62	1257.45
402.83	1189.87
403.04	1288.17
403.24	1380.33
403.45	1245.16
403.66	1298.41
403.87	1312.75
404.07	1284.08
404.28	1308.65
404.49	1310.70
404.70	1257.45
404.90	1335.28
405.11	1271.79
405.32	1265.64
405.52	1265.64
405.73	1282.03
405.94	1306.60
406.15	1275.88
406.35	1296.36
406.56	1241.07
406.77	1251.31
406.98	1286.12
407.18	1310.70
407.39	1249.26
407.60	1204.21
407.80	1261.55
408.01	1269.74
408.22	1224.69
408.43	1292.27
408.63	1335.28
408.84	1267.69
409.05	1263.60
409.25	1290.22
409.46	1290.22
409.67	1300.46
409.88	1325.04
410.08	1214.45
410.29	1249.26
410.50	1253.36
410.70	1247.21
410.91	1224.69
411.12	1308.65
411.32	1210.35
411.53	1277.93
411.74	1304.56
411.95	1290.22
412.15	1155.05
412.36	1247.21
412.57	1275.88
412.77	1204.21
412.98	1312.75
413.19	1263.60
413.39	1333.23
413.60	1314.80
413.81	1275.88
414.01	1263.60
414.22	1277.93
414.43	1290.22
414.63	1228.78
414.84	1245.16
415.05	1308.65
415.25	1294.32
415.46	1320.94
415.67	1292.27
415.87	1253.36
416.08	1314.80
416.29	1159.15
416.49	1249.26
416.70	1191.92
416.91	1282.03
417.11	1263.60
417.32	1261.55
417.53	1290.22
417.73	1343.47
417.94	1271.79
418.15	1320.94
418.35	1263.60
418.56	1189.87
418.77	1353.71
418.97	1255.40
419.18	1249.26
419.38	1189.87
419.59	1230.83
419.80	1277.93
420.00	1284.08
420.21	1222.64
420.42	1224.69
420.62	1337.32
420.83	1234.93
421.04	1275.88
421.24	1210.35
421.45	1243.12
421.65	1269.74
421.86	1341.42
422.07	1198.06
422.27	1290.22
422.48	1257.45
422.69	1282.03
422.89	1200.11
423.10	1193.97
423.30	1308.65
423.51	1232.88
423.72	1222.64
423.92	1200.11
424.13	1325.04
424.33	1314.80
424.54	1255.40
424.75	1265.64
424.95	1312.75
425.16	1189.87
425.36	1253.36
425.57	1308.65
425.78	1224.69
425.98	1249.26
426.19	1210.35
426.39	1267.69
426.60	1277.93
426.81	1282.03
427.01	1230.83
427.22	1265.64
427.42	1298.41
427.63	1263.60
427.83	1273.84
428.04	1275.88
428.25	1245.16
428.45	1241.07
428.66	1275.88
428.86	1187.82
429.07	1269.74
429.28	1322.99
429.48	1300.46
429.69	1261.55
429.89	1288.17
430.10	1210.35
430.30	1202.16
430.51	1243.12
430.71	1269.74
430.92	1249.26
431.13	1230.83
431.33	1271.79
431.54	1284.08
431.74	1296.36
431.95	1257.45
432.15	1224.69
432.36	1232.88
432.56	1273.84
432.77	1314.80
432.98	1263.60
433.18	1232.88
433.39	1239.02
433.59	1277.93
433.80	1232.88
434.00	1329.13
434.21	1263.60
434.41	1253.36
434.62	1327.08
434.82	1304.56
435.03	1208.30
435.23	1273.84
435.44	1130.48
435.64	1208.30
435.85	1277.93
436.06	1206.25
436.26	1265.64
436.47	1302.51
436.67	1329.13
436.88	1275.88
437.08	1275.88
437.29	1257.45
437.49	1271.79
437.70	1298.41
437.90	1306.60
438.11	1300.46
438.31	1204.21
438.52	1294.32
438.72	1279.98
438.93	1245.16
439.13	1298.41
439.34	1314.80
439.54	1222.64
439.75	1290.22
439.95	1345.52
440.16	1322.99
440.36	1214.45
440.57	1206.25
440.77	1288.17
440.98	1239.02
441.18	1333.23
441.39	1300.46
441.59	1296.36
441.80	1345.52
442.00	1331.18
442.21	1275.88
442.41	1335.28
442.62	1273.84
442.82	1253.36
443.02	1279.98
443.23	1327.08
443.43	1335.28
443.64	1232.88
443.84	1277.93
444.05	1271.79
444.25	1277.93
444.46	1290.22
444.66	1196.01
444.87	1277.93
445.07	1275.88
445.28	1259.50
445.48	1292.27
445.69	1288.17
445.89	1275.88
446.09	1220.59
446.30	1322.99
446.50	1239.02
446.71	1329.13
446.91	1230.83
447.12	1239.02
447.32	1282.03
447.53	1318.89
447.73	1292.27
447.93	1253.36
448.14	1290.22
448.34	1277.93
448.55	1320.94
448.75	1302.51
448.96	1316.84
449.16	1306.60
449.36	1241.07
449.57	1261.55
449.77	1202.16
449.98	1216.49
450.18	1320.94
450.39	1249.26
450.59	1273.84
450.79	1232.88
451.00	1249.26
451.20	1277.93
451.41	1273.84
451.61	1279.98
451.81	1249.26
452.02	1322.99
452.22	1261.55
452.43	1286.12
452.63	1286.12
