SpectraSuite Data File
++++++++++++++++++++++++++++++++++++
Date: Sun Apr 03 19:55:26 CEST 2016
User: root
Dark Spectrum Present: No
Reference Spectrum Present: No
Number of Sampled Component Spectra: 1
Spectrometers: USB4C02835
Integration Time (usec): 10000 (USB4C02835)
Spectra Averaged: 1 (USB4C02835)
Boxcar Smoothing: 0 (USB4C02835)
Correct for Electrical Dark: No (USB4C02835)
Strobe/Lamp Enabled: No (USB4C02835)
Correct for Detector Non-linearity: No (USB4C02835)
Correct for Stray Light: No (USB4C02835)
Number of Pixels in Processed Spectrum: 3648
>>>>>Begin Processed Spectral Data<<<<<
177.47	1271.79
177.69	1271.79
177.91	1271.79
178.13	1232.88
178.36	1228.78
178.58	1259.50
178.80	1308.65
179.02	1198.06
179.24	1269.74
179.46	1290.22
179.68	1222.64
179.90	1345.52
180.13	1302.51
180.35	1288.17
180.57	1316.84
180.79	1243.12
181.01	1267.69
181.23	1318.89
181.45	1206.25
181.67	1282.03
181.90	1251.31
182.12	1269.74
182.34	1249.26
182.56	1343.47
182.78	1314.80
183.00	1232.88
183.22	1306.60
183.44	1306.60
183.66	1279.98
183.89	1253.36
184.11	1251.31
184.33	1249.26
184.55	1251.31
184.77	1300.46
184.99	1286.12
185.21	1253.36
185.43	1298.41
185.65	1322.99
185.87	1292.27
186.10	1181.68
186.32	1277.93
186.54	1261.55
186.76	1320.94
186.98	1322.99
187.20	1279.98
187.42	1234.93
187.64	1222.64
187.86	1263.60
188.08	1236.97
188.30	1288.17
188.52	1288.17
188.75	1329.13
188.97	1271.79
189.19	1269.74
189.41	1322.99
189.63	1212.40
189.85	1339.37
190.07	1265.64
190.29	1269.74
190.51	1193.97
190.73	1273.84
190.95	1220.59
191.17	1318.89
191.39	1206.25
191.61	1331.18
191.84	1208.30
192.06	1282.03
192.28	1222.64
192.50	1312.75
192.72	1224.69
192.94	1294.32
193.16	1292.27
193.38	1247.21
193.60	1226.73
193.82	1267.69
194.04	1273.84
194.26	1173.49
194.48	1161.20
194.70	1275.88
194.92	1222.64
195.14	1253.36
195.36	1275.88
195.58	1312.75
195.80	1265.64
196.02	1245.16
196.24	1249.26
196.46	1288.17
196.69	1284.08
196.91	1320.94
197.13	1322.99
197.35	1161.20
197.57	1234.93
197.79	1325.04
198.01	1249.26
198.23	1275.88
198.45	1247.21
198.67	1249.26
198.89	1265.64
199.11	1241.07
199.33	1341.42
199.55	1263.60
199.77	1230.83
199.99	1290.22
200.21	1212.40
200.43	1304.56
200.65	1322.99
200.87	1279.98
201.09	1304.56
201.31	1277.93
201.53	1245.16
201.75	1277.93
201.97	1208.30
202.19	1273.84
202.41	1282.03
202.63	1257.45
202.85	1230.83
203.07	1294.32
203.29	1273.84
203.51	1265.64
203.73	1273.84
203.95	1300.46
204.17	1247.21
204.39	1273.84
204.61	1288.17
204.83	1255.40
205.05	1318.89
205.27	1204.21
205.49	1232.88
205.71	1277.93
205.93	1265.64
206.15	1271.79
206.37	1265.64
206.59	1206.25
206.81	1259.50
207.03	1320.94
207.25	1267.69
207.47	1306.60
207.69	1282.03
207.91	1296.36
208.13	1312.75
208.34	1296.36
208.56	1273.84
208.78	1300.46
209.00	1249.26
209.22	1253.36
209.44	1374.19
209.66	1277.93
209.88	1290.22
210.10	1214.45
210.32	1265.64
210.54	1245.16
210.76	1271.79
210.98	1329.13
211.20	1333.23
211.42	1204.21
211.64	1300.46
211.86	1292.27
212.08	1300.46
212.30	1329.13
212.52	1292.27
212.74	1222.64
212.96	1275.88
213.17	1263.60
213.39	1251.31
213.61	1308.65
213.83	1267.69
214.05	1239.02
214.27	1265.64
214.49	1263.60
214.71	1210.35
214.93	1277.93
215.15	1251.31
215.37	1282.03
215.59	1224.69
215.81	1226.73
216.03	1275.88
216.24	1249.26
216.46	1245.16
216.68	1275.88
216.90	1216.49
217.12	1216.49
217.34	1275.88
217.56	1251.31
217.78	1189.87
218.00	1277.93
218.22	1228.78
218.44	1267.69
218.66	1300.46
218.87	1282.03
219.09	1269.74
219.31	1249.26
219.53	1234.93
219.75	1216.49
219.97	1232.88
220.19	1261.55
220.41	1269.74
220.63	1230.83
220.85	1290.22
221.06	1253.36
221.28	1271.79
221.50	1265.64
221.72	1331.18
221.94	1253.36
222.16	1273.84
222.38	1267.69
222.60	1261.55
222.82	1329.13
223.03	1351.66
223.25	1277.93
223.47	1298.41
223.69	1286.12
223.91	1298.41
224.13	1196.01
224.35	1329.13
224.57	1314.80
224.78	1265.64
225.00	1265.64
225.22	1300.46
225.44	1279.98
225.66	1247.21
225.88	1294.32
226.10	1187.82
226.32	1269.74
226.53	1286.12
226.75	1253.36
226.97	1212.40
227.19	1234.93
227.41	1208.30
227.63	1267.69
227.85	1232.88
228.06	1267.69
228.28	1239.02
228.50	1220.59
228.72	1228.78
228.94	1185.77
229.16	1241.07
229.37	1253.36
229.59	1304.56
229.81	1263.60
230.03	1298.41
230.25	1271.79
230.47	1261.55
230.69	1202.16
230.90	1279.98
231.12	1341.42
231.34	1216.49
231.56	1294.32
231.78	1312.75
232.00	1230.83
232.21	1253.36
232.43	1306.60
232.65	1263.60
232.87	1310.70
233.09	1249.26
233.30	1253.36
233.52	1265.64
233.74	1271.79
233.96	1331.18
234.18	1202.16
234.40	1325.04
234.61	1288.17
234.83	1286.12
235.05	1267.69
235.27	1304.56
235.49	1239.02
235.70	1222.64
235.92	1296.36
236.14	1257.45
236.36	1257.45
236.58	1234.93
236.79	1265.64
237.01	1290.22
237.23	1306.60
237.45	1269.74
237.67	1208.30
237.88	1253.36
238.10	1288.17
238.32	1277.93
238.54	1239.02
238.76	1198.06
238.97	1312.75
239.19	1249.26
239.41	1331.18
239.63	1292.27
239.85	1267.69
240.06	1306.60
240.28	1314.80
240.50	1245.16
240.72	1318.89
240.93	1284.08
241.15	1288.17
241.37	1361.90
241.59	1275.88
241.81	1282.03
242.02	1226.73
242.24	1261.55
242.46	1339.37
242.68	1290.22
242.89	1232.88
243.11	1130.48
243.33	1275.88
243.55	1222.64
243.76	1232.88
243.98	1196.01
244.20	1241.07
244.42	1277.93
244.64	1282.03
244.85	1273.84
245.07	1263.60
245.29	1255.40
245.51	1288.17
245.72	1255.40
245.94	1282.03
246.16	1273.84
246.38	1230.83
246.59	1224.69
246.81	1325.04
247.03	1251.31
247.24	1253.36
247.46	1277.93
247.68	1271.79
247.90	1308.65
248.11	1288.17
248.33	1261.55
248.55	1212.40
248.77	1366.00
248.98	1247.21
249.20	1226.73
249.42	1214.45
249.64	1286.12
249.85	1239.02
250.07	1206.25
250.29	1253.36
250.50	1220.59
250.72	1218.54
250.94	1196.01
251.16	1273.84
251.37	1243.12
251.59	1271.79
251.81	1306.60
252.02	1271.79
252.24	1288.17
252.46	1275.88
252.68	1253.36
252.89	1249.26
253.11	1187.82
253.33	1265.64
253.54	1230.83
253.76	1251.31
253.98	1210.35
254.20	1216.49
254.41	1245.16
254.63	1214.45
254.85	1255.40
255.06	1286.12
255.28	1200.11
255.50	1204.21
255.71	1214.45
255.93	1292.27
256.15	1273.84
256.36	1247.21
256.58	1339.37
256.80	1314.80
257.02	1228.78
257.23	1214.45
257.45	1296.36
257.67	1372.14
257.88	1220.59
258.10	1263.60
258.32	1212.40
258.53	1241.07
258.75	1310.70
258.97	1232.88
259.18	1284.08
259.40	1318.89
259.62	1267.69
259.83	1267.69
260.05	1253.36
260.27	1267.69
260.48	1304.56
260.70	1333.23
260.92	1191.92
261.13	1241.07
261.35	1253.36
261.57	1335.28
261.78	1310.70
262.00	1216.49
262.22	1302.51
262.43	1271.79
262.65	1236.97
262.86	1271.79
263.08	1243.12
263.30	1279.98
263.51	1241.07
263.73	1306.60
263.95	1294.32
264.16	1318.89
264.38	1298.41
264.60	1300.46
264.81	1277.93
265.03	1325.04
265.25	1212.40
265.46	1241.07
265.68	1314.80
265.89	1230.83
266.11	1232.88
266.33	1255.40
266.54	1286.12
266.76	1271.79
266.98	1312.75
267.19	1206.25
267.41	1306.60
267.62	1300.46
267.84	1312.75
268.06	1277.93
268.27	1224.69
268.49	1298.41
268.70	1200.11
268.92	1312.75
269.14	1269.74
269.35	1224.69
269.57	1239.02
269.79	1286.12
270.00	1251.31
270.22	1257.45
270.43	1273.84
270.65	1288.17
270.87	1269.74
271.08	1241.07
271.30	1300.46
271.51	1282.03
271.73	1275.88
271.95	1253.36
272.16	1292.27
272.38	1208.30
272.59	1296.36
272.81	1290.22
273.02	1220.59
273.24	1243.12
273.46	1271.79
273.67	1243.12
273.89	1290.22
274.10	1261.55
274.32	1267.69
274.54	1249.26
274.75	1204.21
274.97	1255.40
275.18	1300.46
275.40	1200.11
275.61	1218.54
275.83	1241.07
276.05	1214.45
276.26	1236.97
276.48	1208.30
276.69	1193.97
276.91	1265.64
277.12	1294.32
277.34	1288.17
277.55	1298.41
277.77	1304.56
277.99	1220.59
278.20	1222.64
278.42	1181.68
278.63	1312.75
278.85	1277.93
279.06	1263.60
279.28	1284.08
279.49	1304.56
279.71	1261.55
279.93	1247.21
280.14	1243.12
280.36	1345.52
280.57	1175.53
280.79	1271.79
281.00	1294.32
281.22	1253.36
281.43	1200.11
281.65	1331.18
281.86	1294.32
282.08	1253.36
282.29	1304.56
282.51	1218.54
282.73	1263.60
282.94	1316.84
283.16	1304.56
283.37	1279.98
283.59	1245.16
283.80	1208.30
284.02	1243.12
284.23	1273.84
284.45	1202.16
284.66	1284.08
284.88	1247.21
285.09	1169.39
285.31	1306.60
285.52	1243.12
285.74	1255.40
285.95	1239.02
286.17	1331.18
286.38	1259.50
286.60	1234.93
286.81	1316.84
287.03	1286.12
287.24	1277.93
287.46	1247.21
287.67	1232.88
287.89	1282.03
288.10	1265.64
288.32	1234.93
288.53	1228.78
288.75	1247.21
288.96	1292.27
289.18	1288.17
289.39	1193.97
289.61	1308.65
289.82	1322.99
290.04	1257.45
290.25	1277.93
290.47	1216.49
290.68	1193.97
290.90	1327.08
291.11	1265.64
291.33	1216.49
291.54	1273.84
291.76	1265.64
291.97	1284.08
292.18	1228.78
292.40	1251.31
292.61	1198.06
292.83	1335.28
293.04	1212.40
293.26	1265.64
293.47	1247.21
293.69	1286.12
293.90	1181.68
294.12	1298.41
294.33	1286.12
294.55	1318.89
294.76	1341.42
294.97	1314.80
295.19	1243.12
295.40	1292.27
295.62	1259.50
295.83	1370.09
296.05	1255.40
296.26	1312.75
296.48	1259.50
296.69	1257.45
296.90	1189.87
297.12	1298.41
297.33	1218.54
297.55	1259.50
297.76	1214.45
297.98	1261.55
298.19	1300.46
298.41	1257.45
298.62	1322.99
298.83	1204.21
299.05	1261.55
299.26	1206.25
299.48	1247.21
299.69	1271.79
299.90	1314.80
300.12	1128.43
300.33	1296.36
300.55	1259.50
300.76	1249.26
300.98	1243.12
301.19	1294.32
301.40	1247.21
301.62	1200.11
301.83	1294.32
302.05	1273.84
302.26	1353.71
302.47	1310.70
302.69	1251.31
302.90	1347.56
303.12	1269.74
303.33	1302.51
303.54	1239.02
303.76	1355.76
303.97	1226.73
304.19	1220.59
304.40	1255.40
304.61	1263.60
304.83	1286.12
305.04	1353.71
305.26	1279.98
305.47	1265.64
305.68	1304.56
305.90	1249.26
306.11	1226.73
306.33	1200.11
306.54	1245.16
306.75	1290.22
306.97	1245.16
307.18	1187.82
307.39	1208.30
307.61	1236.97
307.82	1253.36
308.04	1191.92
308.25	1322.99
308.46	1308.65
308.68	1249.26
308.89	1234.93
309.10	1294.32
309.32	1310.70
309.53	1202.16
309.74	1234.93
309.96	1171.44
310.17	1255.40
310.39	1316.84
310.60	1249.26
310.81	1261.55
311.03	1257.45
311.24	1298.41
311.45	1263.60
311.67	1161.20
311.88	1269.74
312.09	1226.73
312.31	1202.16
312.52	1259.50
312.73	1259.50
312.95	1261.55
313.16	1273.84
313.37	1271.79
313.59	1224.69
313.80	1308.65
314.01	1269.74
314.23	1247.21
314.44	1269.74
314.65	1314.80
314.87	1273.84
315.08	1251.31
315.29	1239.02
315.51	1255.40
315.72	1247.21
315.93	1239.02
316.15	1263.60
316.36	1282.03
316.57	1216.49
316.79	1253.36
317.00	1269.74
317.21	1286.12
317.43	1253.36
317.64	1210.35
317.85	1294.32
318.07	1288.17
318.28	1210.35
318.49	1255.40
318.70	1232.88
318.92	1214.45
319.13	1271.79
319.34	1325.04
319.56	1243.12
319.77	1263.60
319.98	1255.40
320.20	1198.06
320.41	1273.84
320.62	1265.64
320.83	1267.69
321.05	1327.08
321.26	1277.93
321.47	1271.79
321.69	1259.50
321.90	1247.21
322.11	1208.30
322.32	1224.69
322.54	1253.36
322.75	1171.44
322.96	1255.40
323.18	1257.45
323.39	1271.79
323.60	1265.64
323.81	1273.84
324.03	1282.03
324.24	1208.30
324.45	1294.32
324.66	1275.88
324.88	1239.02
325.09	1310.70
325.30	1263.60
325.52	1234.93
325.73	1290.22
325.94	1282.03
326.15	1284.08
326.37	1267.69
326.58	1294.32
326.79	1255.40
327.00	1167.34
327.22	1302.51
327.43	1282.03
327.64	1208.30
327.85	1259.50
328.07	1316.84
328.28	1312.75
328.49	1269.74
328.70	1249.26
328.92	1249.26
329.13	1241.07
329.34	1247.21
329.55	1261.55
329.76	1372.14
329.98	1277.93
330.19	1263.60
330.40	1316.84
330.61	1249.26
330.83	1249.26
331.04	1251.31
331.25	1234.93
331.46	1304.56
331.68	1253.36
331.89	1263.60
332.10	1257.45
332.31	1290.22
332.52	1255.40
332.74	1253.36
332.95	1275.88
333.16	1224.69
333.37	1224.69
333.58	1306.60
333.80	1208.30
334.01	1304.56
334.22	1271.79
334.43	1232.88
334.64	1267.69
334.86	1239.02
335.07	1222.64
335.28	1241.07
335.49	1294.32
335.70	1288.17
335.92	1263.60
336.13	1357.80
336.34	1257.45
336.55	1292.27
336.76	1327.08
336.98	1273.84
337.19	1224.69
337.40	1267.69
337.61	1275.88
337.82	1243.12
338.04	1257.45
338.25	1255.40
338.46	1279.98
338.67	1245.16
338.88	1312.75
339.09	1310.70
339.31	1224.69
339.52	1251.31
339.73	1298.41
339.94	1267.69
340.15	1286.12
340.36	1304.56
340.58	1261.55
340.79	1261.55
341.00	1228.78
341.21	1245.16
341.42	1329.13
341.63	1216.49
341.85	1232.88
342.06	1239.02
342.27	1265.64
342.48	1255.40
342.69	1275.88
342.90	1304.56
343.12	1308.65
343.33	1298.41
343.54	1265.64
343.75	1331.18
343.96	1333.23
344.17	1247.21
344.38	1327.08
344.60	1234.93
344.81	1228.78
345.02	1329.13
345.23	1224.69
345.44	1239.02
345.65	1232.88
345.86	1222.64
346.07	1314.80
346.29	1257.45
346.50	1265.64
346.71	1218.54
346.92	1306.60
347.13	1220.59
347.34	1310.70
347.55	1230.83
347.76	1288.17
347.98	1312.75
348.19	1339.37
348.40	1318.89
348.61	1228.78
348.82	1230.83
349.03	1282.03
349.24	1208.30
349.45	1245.16
349.66	1292.27
349.88	1296.36
350.09	1279.98
350.30	1226.73
350.51	1273.84
350.72	1312.75
350.93	1257.45
351.14	1243.12
351.35	1298.41
351.56	1306.60
351.77	1316.84
351.99	1257.45
352.20	1288.17
352.41	1228.78
352.62	1220.59
352.83	1314.80
353.04	1308.65
353.25	1245.16
353.46	1253.36
353.67	1279.98
353.88	1257.45
354.09	1230.83
354.30	1335.28
354.52	1241.07
354.73	1263.60
354.94	1251.31
355.15	1304.56
355.36	1226.73
355.57	1306.60
355.78	1318.89
355.99	1208.30
356.20	1290.22
356.41	1308.65
356.62	1322.99
356.83	1259.50
357.04	1239.02
357.25	1335.28
357.46	1249.26
357.68	1236.97
357.89	1290.22
358.10	1239.02
358.31	1327.08
358.52	1255.40
358.73	1318.89
358.94	1320.94
359.15	1222.64
359.36	1175.53
359.57	1312.75
359.78	1296.36
359.99	1273.84
360.20	1273.84
360.41	1363.95
360.62	1314.80
360.83	1232.88
361.04	1310.70
361.25	1288.17
361.46	1247.21
361.67	1249.26
361.88	1277.93
362.09	1273.84
362.30	1284.08
362.51	1234.93
362.72	1282.03
362.93	1243.12
363.14	1236.97
363.35	1300.46
363.56	1310.70
363.78	1288.17
363.99	1175.53
364.20	1167.34
364.41	1265.64
364.62	1333.23
364.83	1259.50
365.04	1232.88
365.25	1265.64
365.46	1245.16
365.67	1347.56
365.88	1325.04
366.09	1298.41
366.30	1267.69
366.51	1234.93
366.72	1275.88
366.93	1245.16
367.14	1243.12
367.35	1198.06
367.56	1318.89
367.77	1310.70
367.98	1284.08
368.18	1251.31
368.39	1267.69
368.60	1284.08
368.81	1288.17
369.02	1220.59
369.23	1267.69
369.44	1243.12
369.65	1247.21
369.86	1282.03
370.07	1216.49
370.28	1228.78
370.49	1325.04
370.70	1275.88
370.91	1239.02
371.12	1251.31
371.33	1257.45
371.54	1265.64
371.75	1212.40
371.96	1288.17
372.17	1320.94
372.38	1314.80
372.59	1245.16
372.80	1290.22
373.01	1210.35
373.22	1218.54
373.43	1288.17
373.64	1265.64
373.85	1208.30
374.06	1351.66
374.26	1273.84
374.47	1249.26
374.68	1296.36
374.89	1261.55
375.10	1306.60
375.31	1196.01
375.52	1267.69
375.73	1271.79
375.94	1349.61
376.15	1249.26
376.36	1329.13
376.57	1296.36
376.78	1277.93
376.99	1325.04
377.20	1345.52
377.40	1277.93
377.61	1277.93
377.82	1282.03
378.03	1267.69
378.24	1310.70
378.45	1255.40
378.66	1304.56
378.87	1234.93
379.08	1226.73
379.29	1279.98
379.50	1282.03
379.71	1255.40
379.91	1302.51
380.12	1206.25
380.33	1302.51
380.54	1265.64
380.75	1247.21
380.96	1300.46
381.17	1193.97
381.38	1253.36
381.59	1277.93
381.80	1294.32
382.00	1265.64
382.21	1236.97
382.42	1329.13
382.63	1257.45
382.84	1322.99
383.05	1261.55
383.26	1290.22
383.47	1249.26
383.68	1222.64
383.88	1290.22
384.09	1218.54
384.30	1243.12
384.51	1239.02
384.72	1279.98
384.93	1259.50
385.14	1304.56
385.35	1296.36
385.55	1236.97
385.76	1355.76
385.97	1263.60
386.18	1261.55
386.39	1257.45
386.60	1277.93
386.81	1284.08
387.02	1292.27
387.22	1290.22
387.43	1255.40
387.64	1216.49
387.85	1249.26
388.06	1206.25
388.27	1243.12
388.48	1294.32
388.68	1214.45
388.89	1325.04
389.10	1265.64
389.31	1296.36
389.52	1273.84
389.73	1191.92
389.93	1269.74
390.14	1290.22
390.35	1337.32
390.56	1290.22
390.77	1257.45
390.98	1290.22
391.18	1265.64
391.39	1206.25
391.60	1277.93
391.81	1298.41
392.02	1239.02
392.23	1253.36
392.43	1191.92
392.64	1279.98
392.85	1290.22
393.06	1275.88
393.27	1241.07
393.47	1277.93
393.68	1296.36
393.89	1232.88
394.10	1316.84
394.31	1310.70
394.52	1226.73
394.72	1306.60
394.93	1181.68
395.14	1286.12
395.35	1239.02
395.56	1263.60
395.76	1189.87
395.97	1302.51
396.18	1183.73
396.39	1259.50
396.60	1304.56
396.80	1261.55
397.01	1279.98
397.22	1290.22
397.43	1277.93
397.64	1335.28
397.84	1290.22
398.05	1316.84
398.26	1234.93
398.47	1267.69
398.67	1216.49
398.88	1206.25
399.09	1263.60
399.30	1279.98
399.51	1232.88
399.71	1200.11
399.92	1243.12
400.13	1300.46
400.34	1249.26
400.54	1208.30
400.75	1306.60
400.96	1312.75
401.17	1320.94
401.37	1284.08
401.58	1259.50
401.79	1347.56
402.00	1267.69
402.21	1302.51
402.41	1243.12
402.62	1261.55
402.83	1247.21
403.04	1304.56
403.24	1275.88
403.45	1265.64
403.66	1286.12
403.87	1200.11
404.07	1314.80
404.28	1282.03
404.49	1306.60
404.70	1251.31
404.90	1241.07
405.11	1253.36
405.32	1212.40
405.52	1271.79
405.73	1263.60
405.94	1292.27
406.15	1322.99
406.35	1239.02
406.56	1337.32
406.77	1259.50
406.98	1286.12
407.18	1255.40
407.39	1286.12
407.60	1279.98
407.80	1331.18
408.01	1271.79
408.22	1286.12
408.43	1232.88
408.63	1273.84
408.84	1302.51
409.05	1232.88
409.25	1273.84
409.46	1243.12
409.67	1265.64
409.88	1314.80
410.08	1243.12
410.29	1247.21
410.50	1282.03
410.70	1271.79
410.91	1288.17
411.12	1251.31
411.32	1185.77
411.53	1191.92
411.74	1247.21
411.95	1239.02
412.15	1279.98
412.36	1181.68
412.57	1288.17
412.77	1279.98
412.98	1275.88
413.19	1253.36
413.39	1230.83
413.60	1314.80
413.81	1294.32
414.01	1282.03
414.22	1224.69
414.43	1257.45
414.63	1249.26
414.84	1210.35
415.05	1284.08
415.25	1259.50
415.46	1226.73
415.67	1322.99
415.87	1247.21
416.08	1267.69
416.29	1265.64
416.49	1300.46
416.70	1228.78
416.91	1257.45
417.11	1193.97
417.32	1255.40
417.53	1243.12
417.73	1259.50
417.94	1269.74
418.15	1255.40
418.35	1187.82
418.56	1298.41
418.77	1300.46
418.97	1314.80
419.18	1245.16
419.38	1310.70
419.59	1218.54
419.80	1378.28
420.00	1181.68
420.21	1249.26
420.42	1308.65
420.62	1306.60
420.83	1249.26
421.04	1286.12
421.24	1259.50
421.45	1263.60
421.65	1275.88
421.86	1220.59
422.07	1239.02
422.27	1265.64
422.48	1306.60
422.69	1247.21
422.89	1355.76
423.10	1261.55
423.30	1263.60
423.51	1261.55
423.72	1261.55
423.92	1298.41
424.13	1224.69
424.33	1273.84
424.54	1265.64
424.75	1263.60
424.95	1245.16
425.16	1257.45
425.36	1216.49
425.57	1296.36
425.78	1267.69
425.98	1273.84
426.19	1312.75
426.39	1230.83
426.60	1251.31
426.81	1206.25
427.01	1243.12
427.22	1249.26
427.42	1187.82
427.63	1359.85
427.83	1259.50
428.04	1249.26
428.25	1275.88
428.45	1279.98
428.66	1269.74
428.86	1220.59
429.07	1249.26
429.28	1306.60
429.48	1253.36
429.69	1282.03
429.89	1216.49
430.10	1191.92
430.30	1257.45
430.51	1296.36
430.71	1253.36
430.92	1292.27
431.13	1228.78
431.33	1255.40
431.54	1232.88
431.74	1218.54
431.95	1273.84
432.15	1175.53
432.36	1337.32
432.56	1189.87
432.77	1265.64
432.98	1306.60
433.18	1325.04
433.39	1320.94
433.59	1275.88
433.80	1316.84
434.00	1263.60
434.21	1298.41
434.41	1261.55
434.62	1337.32
434.82	1269.74
435.03	1265.64
435.23	1292.27
435.44	1245.16
435.64	1277.93
435.85	1222.64
436.06	1204.21
436.26	1277.93
436.47	1300.46
436.67	1306.60
436.88	1320.94
437.08	1265.64
437.29	1318.89
437.49	1224.69
437.70	1261.55
437.90	1288.17
438.11	1269.74
438.31	1288.17
438.52	1204.21
438.72	1298.41
438.93	1263.60
439.13	1292.27
439.34	1263.60
439.54	1282.03
439.75	1310.70
439.95	1263.60
440.16	1298.41
440.36	1320.94
440.57	1257.45
440.77	1224.69
440.98	1322.99
441.18	1312.75
441.39	1290.22
441.59	1363.95
441.80	1259.50
442.00	1251.31
442.21	1279.98
442.41	1253.36
442.62	1232.88
442.82	1255.40
443.02	1282.03
443.23	1294.32
443.43	1267.69
443.64	1232.88
443.84	1290.22
444.05	1236.97
444.25	1312.75
444.46	1243.12
444.66	1222.64
444.87	1329.13
445.07	1202.16
445.28	1282.03
445.48	1271.79
445.69	1230.83
445.89	1304.56
446.09	1325.04
446.30	1316.84
446.50	1290.22
446.71	1320.94
446.91	1296.36
447.12	1294.32
447.32	1249.26
447.53	1251.31
447.73	1288.17
447.93	1284.08
448.14	1294.32
448.34	1275.88
448.55	1193.97
448.75	1294.32
448.96	1259.50
449.16	1261.55
449.36	1243.12
449.57	1284.08
449.77	1249.26
449.98	1279.98
450.18	1284.08
450.39	1220.59
450.59	1236.97
450.79	1261.55
451.00	1241.07
451.20	1296.36
451.41	1249.26
451.61	1226.73
451.81	1230.83
452.02	1247.21
452.22	1290.22
452.43	1329.13
452.63	1294.32
