SpectraSuite Data File
++++++++++++++++++++++++++++++++++++
Date: Sun Apr 03 19:55:33 CEST 2016
User: root
Dark Spectrum Present: No
Reference Spectrum Present: No
Number of Sampled Component Spectra: 1
Spectrometers: USB4C02835
Integration Time (usec): 10000 (USB4C02835)
Spectra Averaged: 1 (USB4C02835)
Boxcar Smoothing: 0 (USB4C02835)
Correct for Electrical Dark: No (USB4C02835)
Strobe/Lamp Enabled: No (USB4C02835)
Correct for Detector Non-linearity: No (USB4C02835)
Correct for Stray Light: No (USB4C02835)
Number of Pixels in Processed Spectrum: 3648
>>>>>Begin Processed Spectral Data<<<<<
177.47	1247.21
177.69	1247.21
177.91	1247.21
178.13	1247.21
178.36	1286.12
178.58	1279.98
178.80	1284.08
179.02	1200.11
179.24	1253.36
179.46	1288.17
179.68	1292.27
179.90	1230.83
180.13	1357.80
180.35	1208.30
180.57	1292.27
180.79	1251.31
181.01	1243.12
181.23	1202.16
181.45	1257.45
181.67	1198.06
181.90	1296.36
182.12	1265.64
182.34	1290.22
182.56	1302.51
182.78	1273.84
183.00	1269.74
183.22	1363.95
183.44	1302.51
183.66	1288.17
183.89	1279.98
184.11	1298.41
184.33	1296.36
184.55	1300.46
184.77	1255.40
184.99	1300.46
185.21	1249.26
185.43	1282.03
185.65	1185.77
185.87	1296.36
186.10	1296.36
186.32	1290.22
186.54	1314.80
186.76	1306.60
186.98	1230.83
187.20	1232.88
187.42	1259.50
187.64	1255.40
187.86	1249.26
188.08	1273.84
188.30	1173.49
188.52	1208.30
188.75	1261.55
188.97	1239.02
189.19	1196.01
189.41	1314.80
189.63	1273.84
189.85	1265.64
190.07	1288.17
190.29	1282.03
190.51	1263.60
190.73	1251.31
190.95	1251.31
191.17	1320.94
191.39	1249.26
191.61	1320.94
191.84	1308.65
192.06	1265.64
192.28	1216.49
192.50	1286.12
192.72	1294.32
192.94	1206.25
193.16	1259.50
193.38	1265.64
193.60	1208.30
193.82	1267.69
194.04	1282.03
194.26	1298.41
194.48	1222.64
194.70	1202.16
194.92	1304.56
195.14	1322.99
195.36	1220.59
195.58	1208.30
195.80	1261.55
196.02	1282.03
196.24	1249.26
196.46	1300.46
196.69	1241.07
196.91	1255.40
197.13	1279.98
197.35	1329.13
197.57	1251.31
197.79	1257.45
198.01	1249.26
198.23	1196.01
198.45	1247.21
198.67	1257.45
198.89	1271.79
199.11	1253.36
199.33	1263.60
199.55	1232.88
199.77	1302.51
199.99	1277.93
200.21	1196.01
200.43	1314.80
200.65	1243.12
200.87	1267.69
201.09	1265.64
201.31	1243.12
201.53	1245.16
201.75	1284.08
201.97	1234.93
202.19	1263.60
202.41	1273.84
202.63	1232.88
202.85	1257.45
203.07	1179.63
203.29	1243.12
203.51	1265.64
203.73	1257.45
203.95	1269.74
204.17	1245.16
204.39	1302.51
204.61	1216.49
204.83	1204.21
205.05	1255.40
205.27	1279.98
205.49	1245.16
205.71	1306.60
205.93	1269.74
206.15	1257.45
206.37	1265.64
206.59	1267.69
206.81	1267.69
207.03	1198.06
207.25	1202.16
207.47	1226.73
207.69	1263.60
207.91	1302.51
208.13	1322.99
208.34	1288.17
208.56	1282.03
208.78	1269.74
209.00	1257.45
209.22	1316.84
209.44	1259.50
209.66	1259.50
209.88	1263.60
210.10	1339.37
210.32	1251.31
210.54	1300.46
210.76	1247.21
210.98	1202.16
211.20	1204.21
211.42	1245.16
211.64	1277.93
211.86	1304.56
212.08	1351.66
212.30	1232.88
212.52	1302.51
212.74	1290.22
212.96	1341.42
213.17	1294.32
213.39	1261.55
213.61	1322.99
213.83	1236.97
214.05	1275.88
214.27	1279.98
214.49	1259.50
214.71	1263.60
214.93	1292.27
215.15	1300.46
215.37	1269.74
215.59	1288.17
215.81	1273.84
216.03	1406.95
216.24	1247.21
216.46	1226.73
216.68	1189.87
216.90	1304.56
217.12	1290.22
217.34	1259.50
217.56	1292.27
217.78	1331.18
218.00	1255.40
218.22	1206.25
218.44	1230.83
218.66	1261.55
218.87	1347.56
219.09	1290.22
219.31	1224.69
219.53	1224.69
219.75	1265.64
219.97	1247.21
220.19	1273.84
220.41	1239.02
220.63	1255.40
220.85	1245.16
221.06	1222.64
221.28	1253.36
221.50	1380.33
221.72	1267.69
221.94	1312.75
222.16	1222.64
222.38	1322.99
222.60	1279.98
222.82	1337.32
223.03	1277.93
223.25	1282.03
223.47	1212.40
223.69	1294.32
223.91	1226.73
224.13	1320.94
224.35	1236.97
224.57	1253.36
224.78	1288.17
225.00	1269.74
225.22	1269.74
225.44	1337.32
225.66	1296.36
225.88	1255.40
226.10	1286.12
226.32	1261.55
226.53	1341.42
226.75	1269.74
226.97	1239.02
227.19	1294.32
227.41	1261.55
227.63	1249.26
227.85	1261.55
228.06	1322.99
228.28	1273.84
228.50	1335.28
228.72	1259.50
228.94	1294.32
229.16	1290.22
229.37	1224.69
229.59	1292.27
229.81	1327.08
230.03	1296.36
230.25	1228.78
230.47	1298.41
230.69	1257.45
230.90	1267.69
231.12	1396.71
231.34	1286.12
231.56	1249.26
231.78	1271.79
232.00	1294.32
232.21	1273.84
232.43	1253.36
232.65	1288.17
232.87	1316.84
233.09	1236.97
233.30	1370.09
233.52	1222.64
233.74	1269.74
233.96	1200.11
234.18	1236.97
234.40	1302.51
234.61	1259.50
234.83	1296.36
235.05	1255.40
235.27	1290.22
235.49	1310.70
235.70	1261.55
235.92	1298.41
236.14	1310.70
236.36	1259.50
236.58	1202.16
236.79	1241.07
237.01	1181.68
237.23	1224.69
237.45	1261.55
237.67	1232.88
237.88	1214.45
238.10	1261.55
238.32	1316.84
238.54	1318.89
238.76	1275.88
238.97	1306.60
239.19	1265.64
239.41	1271.79
239.63	1263.60
239.85	1226.73
240.06	1212.40
240.28	1282.03
240.50	1277.93
240.72	1269.74
240.93	1341.42
241.15	1325.04
241.37	1325.04
241.59	1290.22
241.81	1273.84
242.02	1259.50
242.24	1228.78
242.46	1302.51
242.68	1277.93
242.89	1255.40
243.11	1241.07
243.33	1288.17
243.55	1259.50
243.76	1265.64
243.98	1220.59
244.20	1220.59
244.42	1134.57
244.64	1294.32
244.85	1290.22
245.07	1333.23
245.29	1275.88
245.51	1208.30
245.72	1212.40
245.94	1247.21
246.16	1325.04
246.38	1257.45
246.59	1290.22
246.81	1175.53
247.03	1296.36
247.24	1292.27
247.46	1241.07
247.68	1243.12
247.90	1333.23
248.11	1300.46
248.33	1253.36
248.55	1249.26
248.77	1286.12
248.98	1292.27
249.20	1208.30
249.42	1310.70
249.64	1263.60
249.85	1327.08
250.07	1257.45
250.29	1351.66
250.50	1277.93
250.72	1245.16
250.94	1320.94
251.16	1325.04
251.37	1224.69
251.59	1263.60
251.81	1302.51
252.02	1247.21
252.24	1241.07
252.46	1294.32
252.68	1245.16
252.89	1325.04
253.11	1290.22
253.33	1243.12
253.54	1253.36
253.76	1249.26
253.98	1187.82
254.20	1234.93
254.41	1253.36
254.63	1282.03
254.85	1302.51
255.06	1292.27
255.28	1216.49
255.50	1208.30
255.71	1294.32
255.93	1243.12
256.15	1294.32
256.36	1271.79
256.58	1318.89
256.80	1232.88
257.02	1241.07
257.23	1222.64
257.45	1269.74
257.67	1251.31
257.88	1253.36
258.10	1343.47
258.32	1181.68
258.53	1279.98
258.75	1282.03
258.97	1296.36
259.18	1292.27
259.40	1273.84
259.62	1282.03
259.83	1312.75
260.05	1216.49
260.27	1216.49
260.48	1259.50
260.70	1300.46
260.92	1236.97
261.13	1308.65
261.35	1265.64
261.57	1261.55
261.78	1269.74
262.00	1212.40
262.22	1286.12
262.43	1378.28
262.65	1265.64
262.86	1273.84
263.08	1220.59
263.30	1230.83
263.51	1294.32
263.73	1259.50
263.95	1370.09
264.16	1288.17
264.38	1267.69
264.60	1253.36
264.81	1267.69
265.03	1198.06
265.25	1214.45
265.46	1320.94
265.68	1275.88
265.89	1314.80
266.11	1261.55
266.33	1286.12
266.54	1318.89
266.76	1210.35
266.98	1279.98
267.19	1259.50
267.41	1263.60
267.62	1226.73
267.84	1243.12
268.06	1257.45
268.27	1294.32
268.49	1253.36
268.70	1191.92
268.92	1202.16
269.14	1286.12
269.35	1314.80
269.57	1269.74
269.79	1279.98
270.00	1224.69
270.22	1357.80
270.43	1259.50
270.65	1329.13
270.87	1189.87
271.08	1288.17
271.30	1308.65
271.51	1322.99
271.73	1286.12
271.95	1247.21
272.16	1253.36
272.38	1329.13
272.59	1247.21
272.81	1275.88
273.02	1300.46
273.24	1253.36
273.46	1200.11
273.67	1327.08
273.89	1288.17
274.10	1292.27
274.32	1298.41
274.54	1320.94
274.75	1269.74
274.97	1247.21
275.18	1249.26
275.40	1239.02
275.61	1249.26
275.83	1261.55
276.05	1327.08
276.26	1288.17
276.48	1296.36
276.69	1263.60
276.91	1345.52
277.12	1294.32
277.34	1273.84
277.55	1284.08
277.77	1273.84
277.99	1261.55
278.20	1271.79
278.42	1255.40
278.63	1251.31
278.85	1290.22
279.06	1273.84
279.28	1294.32
279.49	1216.49
279.71	1284.08
279.93	1239.02
280.14	1300.46
280.36	1222.64
280.57	1284.08
280.79	1249.26
281.00	1249.26
281.22	1245.16
281.43	1193.97
281.65	1226.73
281.86	1288.17
282.08	1267.69
282.29	1300.46
282.51	1386.47
282.73	1267.69
282.94	1263.60
283.16	1296.36
283.37	1294.32
283.59	1269.74
283.80	1249.26
284.02	1255.40
284.23	1259.50
284.45	1265.64
284.66	1265.64
284.88	1253.36
285.09	1279.98
285.31	1267.69
285.52	1232.88
285.74	1284.08
285.95	1245.16
286.17	1247.21
286.38	1273.84
286.60	1210.35
286.81	1249.26
287.03	1347.56
287.24	1343.47
287.46	1300.46
287.67	1304.56
287.89	1316.84
288.10	1245.16
288.32	1298.41
288.53	1257.45
288.75	1306.60
288.96	1183.73
289.18	1286.12
289.39	1232.88
289.61	1325.04
289.82	1286.12
290.04	1294.32
290.25	1249.26
290.47	1273.84
290.68	1273.84
290.90	1253.36
291.11	1183.73
291.33	1296.36
291.54	1226.73
291.76	1275.88
291.97	1265.64
292.18	1279.98
292.40	1181.68
292.61	1232.88
292.83	1216.49
293.04	1296.36
293.26	1216.49
293.47	1312.75
293.69	1298.41
293.90	1337.32
294.12	1216.49
294.33	1304.56
294.55	1284.08
294.76	1298.41
294.97	1288.17
295.19	1236.97
295.40	1290.22
295.62	1320.94
295.83	1210.35
296.05	1306.60
296.26	1234.93
296.48	1224.69
296.69	1355.76
296.90	1224.69
297.12	1271.79
297.33	1273.84
297.55	1228.78
297.76	1273.84
297.98	1228.78
298.19	1236.97
298.41	1286.12
298.62	1282.03
298.83	1355.76
299.05	1210.35
299.26	1243.12
299.48	1275.88
299.69	1241.07
299.90	1288.17
300.12	1230.83
300.33	1298.41
300.55	1298.41
300.76	1239.02
300.98	1282.03
301.19	1331.18
301.40	1222.64
301.62	1255.40
301.83	1282.03
302.05	1277.93
302.26	1316.84
302.47	1239.02
302.69	1269.74
302.90	1241.07
303.12	1265.64
303.33	1257.45
303.54	1277.93
303.76	1249.26
303.97	1269.74
304.19	1318.89
304.40	1220.59
304.61	1298.41
304.83	1239.02
305.04	1294.32
305.26	1265.64
305.47	1214.45
305.68	1279.98
305.90	1251.31
306.11	1279.98
306.33	1269.74
306.54	1249.26
306.75	1327.08
306.97	1239.02
307.18	1222.64
307.39	1269.74
307.61	1277.93
307.82	1310.70
308.04	1239.02
308.25	1263.60
308.46	1296.36
308.68	1241.07
308.89	1288.17
309.10	1286.12
309.32	1198.06
309.53	1284.08
309.74	1247.21
309.96	1316.84
310.17	1327.08
310.39	1236.97
310.60	1294.32
310.81	1239.02
311.03	1234.93
311.24	1228.78
311.45	1265.64
311.67	1255.40
311.88	1308.65
312.09	1257.45
312.31	1208.30
312.52	1267.69
312.73	1206.25
312.95	1284.08
313.16	1345.52
313.37	1284.08
313.59	1249.26
313.80	1243.12
314.01	1277.93
314.23	1331.18
314.44	1331.18
314.65	1226.73
314.87	1290.22
315.08	1269.74
315.29	1259.50
315.51	1243.12
315.72	1277.93
315.93	1249.26
316.15	1222.64
316.36	1228.78
316.57	1290.22
316.79	1282.03
317.00	1345.52
317.21	1275.88
317.43	1296.36
317.64	1247.21
317.85	1279.98
318.07	1279.98
318.28	1222.64
318.49	1308.65
318.70	1234.93
318.92	1306.60
319.13	1325.04
319.34	1275.88
319.56	1202.16
319.77	1261.55
319.98	1314.80
320.20	1292.27
320.41	1265.64
320.62	1243.12
320.83	1288.17
321.05	1290.22
321.26	1224.69
321.47	1224.69
321.69	1310.70
321.90	1236.97
322.11	1214.45
322.32	1282.03
322.54	1247.21
322.75	1202.16
322.96	1249.26
323.18	1284.08
323.39	1273.84
323.60	1257.45
323.81	1267.69
324.03	1325.04
324.24	1300.46
324.45	1253.36
324.66	1224.69
324.88	1275.88
325.09	1267.69
325.30	1245.16
325.52	1288.17
325.73	1296.36
325.94	1187.82
326.15	1255.40
326.37	1294.32
326.58	1241.07
326.79	1220.59
327.00	1322.99
327.22	1290.22
327.43	1327.08
327.64	1284.08
327.85	1249.26
328.07	1271.79
328.28	1200.11
328.49	1261.55
328.70	1193.97
328.92	1245.16
329.13	1325.04
329.34	1263.60
329.55	1284.08
329.76	1212.40
329.98	1249.26
330.19	1265.64
330.40	1183.73
330.61	1314.80
330.83	1304.56
331.04	1353.71
331.25	1257.45
331.46	1269.74
331.68	1153.01
331.89	1271.79
332.10	1234.93
332.31	1306.60
332.52	1245.16
332.74	1290.22
332.95	1277.93
333.16	1363.95
333.37	1249.26
333.58	1243.12
333.80	1183.73
334.01	1316.84
334.22	1302.51
334.43	1292.27
334.64	1216.49
334.86	1214.45
335.07	1212.40
335.28	1296.36
335.49	1234.93
335.70	1288.17
335.92	1255.40
336.13	1298.41
336.34	1302.51
336.55	1261.55
336.76	1361.90
336.98	1218.54
337.19	1290.22
337.40	1245.16
337.61	1284.08
337.82	1245.16
338.04	1265.64
338.25	1273.84
338.46	1269.74
338.67	1267.69
338.88	1290.22
339.09	1202.16
339.31	1267.69
339.52	1251.31
339.73	1245.16
339.94	1290.22
340.15	1249.26
340.36	1273.84
340.58	1239.02
340.79	1253.36
341.00	1212.40
341.21	1265.64
341.42	1247.21
341.63	1314.80
341.85	1329.13
342.06	1241.07
342.27	1236.97
342.48	1273.84
342.69	1339.37
342.90	1243.12
343.12	1212.40
343.33	1196.01
343.54	1253.36
343.75	1275.88
343.96	1255.40
344.17	1320.94
344.38	1284.08
344.60	1271.79
344.81	1273.84
345.02	1265.64
345.23	1196.01
345.44	1296.36
345.65	1345.52
345.86	1265.64
346.07	1279.98
346.29	1279.98
346.50	1214.45
346.71	1239.02
346.92	1284.08
347.13	1318.89
347.34	1239.02
347.55	1296.36
347.76	1247.21
347.98	1306.60
348.19	1232.88
348.40	1218.54
348.61	1220.59
348.82	1300.46
349.03	1224.69
349.24	1273.84
349.45	1239.02
349.66	1208.30
349.88	1253.36
350.09	1282.03
350.30	1290.22
350.51	1212.40
350.72	1277.93
350.93	1228.78
351.14	1249.26
351.35	1284.08
351.56	1292.27
351.77	1259.50
351.99	1157.10
352.20	1284.08
352.41	1220.59
352.62	1245.16
352.83	1249.26
353.04	1257.45
353.25	1282.03
353.46	1333.23
353.67	1271.79
353.88	1322.99
354.09	1196.01
354.30	1304.56
354.52	1296.36
354.73	1230.83
354.94	1271.79
355.15	1265.64
355.36	1214.45
355.57	1343.47
355.78	1333.23
355.99	1251.31
356.20	1279.98
356.41	1226.73
356.62	1320.94
356.83	1249.26
357.04	1212.40
357.25	1232.88
357.46	1220.59
357.68	1269.74
357.89	1292.27
358.10	1220.59
358.31	1226.73
358.52	1378.28
358.73	1206.25
358.94	1253.36
359.15	1273.84
359.36	1251.31
359.57	1341.42
359.78	1241.07
359.99	1271.79
360.20	1284.08
360.41	1288.17
360.62	1284.08
360.83	1282.03
361.04	1341.42
361.25	1320.94
361.46	1296.36
361.67	1214.45
361.88	1214.45
362.09	1288.17
362.30	1265.64
362.51	1257.45
362.72	1288.17
362.93	1314.80
363.14	1257.45
363.35	1271.79
363.56	1220.59
363.78	1284.08
363.99	1296.36
364.20	1302.51
364.41	1267.69
364.62	1290.22
364.83	1298.41
365.04	1316.84
365.25	1353.71
365.46	1267.69
365.67	1318.89
365.88	1271.79
366.09	1269.74
366.30	1288.17
366.51	1253.36
366.72	1286.12
366.93	1218.54
367.14	1290.22
367.35	1251.31
367.56	1294.32
367.77	1245.16
367.98	1239.02
368.18	1318.89
368.39	1243.12
368.60	1277.93
368.81	1290.22
369.02	1255.40
369.23	1341.42
369.44	1277.93
369.65	1243.12
369.86	1275.88
370.07	1363.95
370.28	1325.04
370.49	1249.26
370.70	1267.69
370.91	1296.36
371.12	1251.31
371.33	1273.84
371.54	1279.98
371.75	1257.45
371.96	1304.56
372.17	1308.65
372.38	1257.45
372.59	1277.93
372.80	1257.45
373.01	1261.55
373.22	1279.98
373.43	1261.55
373.64	1282.03
373.85	1230.83
374.06	1343.47
374.26	1216.49
374.47	1210.35
374.68	1279.98
374.89	1257.45
375.10	1337.32
375.31	1308.65
375.52	1173.49
375.73	1253.36
375.94	1316.84
376.15	1318.89
376.36	1327.08
376.57	1304.56
376.78	1275.88
376.99	1263.60
377.20	1284.08
377.40	1302.51
377.61	1253.36
377.82	1257.45
378.03	1216.49
378.24	1286.12
378.45	1228.78
378.66	1279.98
378.87	1210.35
379.08	1302.51
379.29	1249.26
379.50	1220.59
379.71	1257.45
379.91	1261.55
380.12	1279.98
380.33	1236.97
380.54	1290.22
380.75	1294.32
380.96	1273.84
381.17	1245.16
381.38	1239.02
381.59	1243.12
381.80	1267.69
382.00	1255.40
382.21	1300.46
382.42	1322.99
382.63	1316.84
382.84	1290.22
383.05	1257.45
383.26	1310.70
383.47	1310.70
383.68	1247.21
383.88	1257.45
384.09	1222.64
384.30	1171.44
384.51	1263.60
384.72	1306.60
384.93	1175.53
385.14	1380.33
385.35	1306.60
385.55	1202.16
385.76	1212.40
385.97	1218.54
386.18	1208.30
386.39	1312.75
386.60	1322.99
386.81	1243.12
387.02	1292.27
387.22	1169.39
387.43	1259.50
387.64	1236.97
387.85	1261.55
388.06	1230.83
388.27	1214.45
388.48	1228.78
388.68	1316.84
388.89	1343.47
389.10	1265.64
389.31	1224.69
389.52	1218.54
389.73	1300.46
389.93	1271.79
390.14	1292.27
390.35	1224.69
390.56	1275.88
390.77	1249.26
390.98	1228.78
391.18	1363.95
391.39	1275.88
391.60	1306.60
391.81	1255.40
392.02	1265.64
392.23	1353.71
392.43	1298.41
392.64	1228.78
392.85	1269.74
393.06	1218.54
393.27	1247.21
393.47	1212.40
393.68	1294.32
393.89	1232.88
394.10	1333.23
394.31	1298.41
394.52	1306.60
394.72	1296.36
394.93	1220.59
395.14	1249.26
395.35	1243.12
395.56	1288.17
395.76	1247.21
395.97	1206.25
396.18	1230.83
396.39	1314.80
396.60	1265.64
396.80	1249.26
397.01	1232.88
397.22	1251.31
397.43	1214.45
397.64	1165.29
397.84	1290.22
398.05	1196.01
398.26	1282.03
398.47	1282.03
398.67	1245.16
398.88	1241.07
399.09	1284.08
399.30	1224.69
399.51	1282.03
399.71	1357.80
399.92	1193.97
400.13	1279.98
400.34	1243.12
400.54	1316.84
400.75	1308.65
400.96	1214.45
401.17	1251.31
401.37	1200.11
401.58	1249.26
401.79	1193.97
402.00	1339.37
402.21	1331.18
402.41	1296.36
402.62	1230.83
402.83	1269.74
403.04	1234.93
403.24	1265.64
403.45	1253.36
403.66	1200.11
403.87	1302.51
404.07	1234.93
404.28	1349.61
404.49	1331.18
404.70	1261.55
404.90	1298.41
405.11	1275.88
405.32	1282.03
405.52	1247.21
405.73	1265.64
405.94	1257.45
406.15	1236.97
406.35	1226.73
406.56	1271.79
406.77	1292.27
406.98	1277.93
407.18	1325.04
407.39	1251.31
407.60	1200.11
407.80	1239.02
408.01	1263.60
408.22	1210.35
408.43	1259.50
408.63	1282.03
408.84	1251.31
409.05	1245.16
409.25	1224.69
409.46	1202.16
409.67	1214.45
409.88	1296.36
410.08	1322.99
410.29	1255.40
410.50	1159.15
410.70	1206.25
410.91	1339.37
411.12	1253.36
411.32	1239.02
411.53	1239.02
411.74	1241.07
411.95	1204.21
412.15	1243.12
412.36	1310.70
412.57	1279.98
412.77	1290.22
412.98	1277.93
413.19	1286.12
413.39	1282.03
413.60	1275.88
413.81	1224.69
414.01	1187.82
414.22	1259.50
414.43	1302.51
414.63	1251.31
414.84	1249.26
415.05	1251.31
415.25	1255.40
415.46	1228.78
415.67	1304.56
415.87	1284.08
416.08	1239.02
416.29	1308.65
416.49	1267.69
416.70	1224.69
416.91	1312.75
417.11	1220.59
417.32	1275.88
417.53	1243.12
417.73	1282.03
417.94	1322.99
418.15	1308.65
418.35	1314.80
418.56	1269.74
418.77	1265.64
418.97	1267.69
419.18	1273.84
419.38	1308.65
419.59	1286.12
419.80	1282.03
420.00	1253.36
420.21	1304.56
420.42	1245.16
420.62	1251.31
420.83	1347.56
421.04	1265.64
421.24	1224.69
421.45	1239.02
421.65	1204.21
421.86	1273.84
422.07	1282.03
422.27	1277.93
422.48	1320.94
422.69	1302.51
422.89	1218.54
423.10	1300.46
423.30	1200.11
423.51	1198.06
423.72	1251.31
423.92	1198.06
424.13	1331.18
424.33	1214.45
424.54	1222.64
424.75	1275.88
424.95	1275.88
425.16	1261.55
425.36	1253.36
425.57	1200.11
425.78	1208.30
425.98	1368.04
426.19	1255.40
426.39	1273.84
426.60	1243.12
426.81	1304.56
427.01	1218.54
427.22	1249.26
427.42	1263.60
427.63	1335.28
427.83	1294.32
428.04	1196.01
428.25	1251.31
428.45	1271.79
428.66	1232.88
428.86	1302.51
429.07	1255.40
429.28	1304.56
429.48	1228.78
429.69	1302.51
429.89	1234.93
430.10	1212.40
430.30	1288.17
430.51	1222.64
430.71	1243.12
430.92	1314.80
431.13	1292.27
431.33	1327.08
431.54	1302.51
431.74	1255.40
431.95	1302.51
432.15	1206.25
432.36	1277.93
432.56	1296.36
432.77	1292.27
432.98	1247.21
433.18	1169.39
433.39	1253.36
433.59	1230.83
433.80	1236.97
434.00	1335.28
434.21	1253.36
434.41	1265.64
434.62	1214.45
434.82	1286.12
435.03	1226.73
435.23	1208.30
435.44	1302.51
435.64	1310.70
435.85	1314.80
436.06	1187.82
436.26	1222.64
436.47	1382.38
436.67	1279.98
436.88	1255.40
437.08	1314.80
437.29	1267.69
437.49	1251.31
437.70	1306.60
437.90	1277.93
438.11	1282.03
438.31	1296.36
438.52	1306.60
438.72	1284.08
438.93	1312.75
439.13	1198.06
439.34	1277.93
439.54	1265.64
439.75	1353.71
439.95	1208.30
440.16	1325.04
440.36	1226.73
440.57	1173.49
440.77	1224.69
440.98	1253.36
441.18	1263.60
441.39	1302.51
441.59	1298.41
441.80	1300.46
442.00	1290.22
442.21	1322.99
442.41	1220.59
442.62	1253.36
442.82	1302.51
443.02	1290.22
443.23	1222.64
443.43	1286.12
443.64	1288.17
443.84	1224.69
444.05	1230.83
444.25	1310.70
444.46	1234.93
444.66	1279.98
444.87	1298.41
445.07	1306.60
445.28	1265.64
445.48	1331.18
445.69	1322.99
445.89	1312.75
446.09	1181.68
446.30	1292.27
446.50	1320.94
446.71	1234.93
446.91	1204.21
447.12	1288.17
447.32	1236.97
447.53	1322.99
447.73	1269.74
447.93	1304.56
448.14	1251.31
448.34	1312.75
448.55	1259.50
448.75	1306.60
448.96	1239.02
449.16	1325.04
449.36	1241.07
449.57	1263.60
449.77	1306.60
449.98	1277.93
450.18	1257.45
450.39	1288.17
450.59	1306.60
450.79	1200.11
451.00	1310.70
451.20	1312.75
451.41	1282.03
451.61	1294.32
451.81	1302.51
452.02	1282.03
452.22	1273.84
452.43	1288.17
452.63	1273.84
