SpectraSuite Data File
++++++++++++++++++++++++++++++++++++
Date: Sun Apr 03 19:55:14 CEST 2016
User: root
Dark Spectrum Present: No
Reference Spectrum Present: No
Number of Sampled Component Spectra: 1
Spectrometers: USB4C02835
Integration Time (usec): 10000 (USB4C02835)
Spectra Averaged: 1 (USB4C02835)
Boxcar Smoothing: 0 (USB4C02835)
Correct for Electrical Dark: No (USB4C02835)
Strobe/Lamp Enabled: No (USB4C02835)
Correct for Detector Non-linearity: No (USB4C02835)
Correct for Stray Light: No (USB4C02835)
Number of Pixels in Processed Spectrum: 3648
>>>>>Begin Processed Spectral Data<<<<<
177.47	1255.40
177.69	1255.40
177.91	1255.40
178.13	1265.64
178.36	1292.27
178.58	1261.55
178.80	1247.21
179.02	1245.16
179.24	1220.59
179.46	1304.56
179.68	1310.70
179.90	1286.12
180.13	1265.64
180.35	1269.74
180.57	1277.93
180.79	1261.55
181.01	1208.30
181.23	1226.73
181.45	1251.31
181.67	1282.03
181.90	1187.82
182.12	1218.54
182.34	1271.79
182.56	1286.12
182.78	1232.88
183.00	1249.26
183.22	1300.46
183.44	1277.93
183.66	1312.75
183.89	1277.93
184.11	1273.84
184.33	1259.50
184.55	1277.93
184.77	1275.88
184.99	1351.66
185.21	1257.45
185.43	1253.36
185.65	1331.18
185.87	1261.55
186.10	1265.64
186.32	1271.79
186.54	1214.45
186.76	1331.18
186.98	1202.16
187.20	1296.36
187.42	1249.26
187.64	1255.40
187.86	1302.51
188.08	1255.40
188.30	1284.08
188.52	1282.03
188.75	1245.16
188.97	1234.93
189.19	1243.12
189.41	1318.89
189.63	1216.49
189.85	1173.49
190.07	1306.60
190.29	1355.76
190.51	1224.69
190.73	1255.40
190.95	1282.03
191.17	1239.02
191.39	1245.16
191.61	1325.04
191.84	1314.80
192.06	1269.74
192.28	1234.93
192.50	1327.08
192.72	1275.88
192.94	1265.64
193.16	1257.45
193.38	1312.75
193.60	1218.54
193.82	1263.60
194.04	1232.88
194.26	1243.12
194.48	1255.40
194.70	1282.03
194.92	1277.93
195.14	1279.98
195.36	1236.97
195.58	1337.32
195.80	1273.84
196.02	1269.74
196.24	1271.79
196.46	1236.97
196.69	1331.18
196.91	1284.08
197.13	1204.21
197.35	1296.36
197.57	1279.98
197.79	1232.88
198.01	1257.45
198.23	1275.88
198.45	1298.41
198.67	1212.40
198.89	1304.56
199.11	1243.12
199.33	1269.74
199.55	1253.36
199.77	1218.54
199.99	1349.61
200.21	1279.98
200.43	1228.78
200.65	1288.17
200.87	1247.21
201.09	1216.49
201.31	1282.03
201.53	1273.84
201.75	1245.16
201.97	1218.54
202.19	1304.56
202.41	1296.36
202.63	1318.89
202.85	1236.97
203.07	1202.16
203.29	1292.27
203.51	1269.74
203.73	1300.46
203.95	1257.45
204.17	1282.03
204.39	1263.60
204.61	1232.88
204.83	1337.32
205.05	1222.64
205.27	1263.60
205.49	1310.70
205.71	1249.26
205.93	1241.07
206.15	1265.64
206.37	1210.35
206.59	1224.69
206.81	1271.79
207.03	1226.73
207.25	1247.21
207.47	1218.54
207.69	1296.36
207.91	1253.36
208.13	1214.45
208.34	1347.56
208.56	1337.32
208.78	1298.41
209.00	1202.16
209.22	1261.55
209.44	1236.97
209.66	1226.73
209.88	1265.64
210.10	1230.83
210.32	1337.32
210.54	1302.51
210.76	1366.00
210.98	1263.60
211.20	1286.12
211.42	1298.41
211.64	1191.92
211.86	1337.32
212.08	1284.08
212.30	1312.75
212.52	1245.16
212.74	1310.70
212.96	1220.59
213.17	1253.36
213.39	1232.88
213.61	1265.64
213.83	1232.88
214.05	1210.35
214.27	1277.93
214.49	1286.12
214.71	1206.25
214.93	1329.13
215.15	1282.03
215.37	1206.25
215.59	1247.21
215.81	1267.69
216.03	1230.83
216.24	1241.07
216.46	1224.69
216.68	1253.36
216.90	1259.50
217.12	1314.80
217.34	1314.80
217.56	1239.02
217.78	1302.51
218.00	1257.45
218.22	1173.49
218.44	1314.80
218.66	1273.84
218.87	1337.32
219.09	1314.80
219.31	1271.79
219.53	1177.58
219.75	1198.06
219.97	1282.03
220.19	1226.73
220.41	1265.64
220.63	1245.16
220.85	1185.77
221.06	1265.64
221.28	1300.46
221.50	1179.63
221.72	1228.78
221.94	1292.27
222.16	1298.41
222.38	1275.88
222.60	1220.59
222.82	1257.45
223.03	1191.92
223.25	1271.79
223.47	1261.55
223.69	1271.79
223.91	1243.12
224.13	1253.36
224.35	1196.01
224.57	1251.31
224.78	1284.08
225.00	1304.56
225.22	1259.50
225.44	1251.31
225.66	1218.54
225.88	1275.88
226.10	1234.93
226.32	1279.98
226.53	1296.36
226.75	1239.02
226.97	1255.40
227.19	1265.64
227.41	1210.35
227.63	1200.11
227.85	1239.02
228.06	1284.08
228.28	1249.26
228.50	1304.56
228.72	1331.18
228.94	1193.97
229.16	1241.07
229.37	1243.12
229.59	1232.88
229.81	1277.93
230.03	1267.69
230.25	1288.17
230.47	1249.26
230.69	1279.98
230.90	1212.40
231.12	1208.30
231.34	1298.41
231.56	1253.36
231.78	1245.16
232.00	1251.31
232.21	1277.93
232.43	1265.64
232.65	1253.36
232.87	1224.69
233.09	1310.70
233.30	1245.16
233.52	1306.60
233.74	1241.07
233.96	1230.83
234.18	1208.30
234.40	1294.32
234.61	1257.45
234.83	1247.21
235.05	1253.36
235.27	1224.69
235.49	1255.40
235.70	1224.69
235.92	1347.56
236.14	1206.25
236.36	1355.76
236.58	1263.60
236.79	1253.36
237.01	1327.08
237.23	1255.40
237.45	1351.66
237.67	1292.27
237.88	1279.98
238.10	1265.64
238.32	1316.84
238.54	1261.55
238.76	1247.21
238.97	1263.60
239.19	1284.08
239.41	1310.70
239.63	1239.02
239.85	1259.50
240.06	1286.12
240.28	1253.36
240.50	1279.98
240.72	1251.31
240.93	1267.69
241.15	1239.02
241.37	1214.45
241.59	1306.60
241.81	1216.49
242.02	1294.32
242.24	1222.64
242.46	1337.32
242.68	1292.27
242.89	1257.45
243.11	1189.87
243.33	1269.74
243.55	1261.55
243.76	1224.69
243.98	1325.04
244.20	1261.55
244.42	1251.31
244.64	1273.84
244.85	1253.36
245.07	1261.55
245.29	1292.27
245.51	1267.69
245.72	1292.27
245.94	1327.08
246.16	1296.36
246.38	1245.16
246.59	1255.40
246.81	1257.45
247.03	1296.36
247.24	1214.45
247.46	1284.08
247.68	1290.22
247.90	1341.42
248.11	1257.45
248.33	1329.13
248.55	1218.54
248.77	1275.88
248.98	1288.17
249.20	1236.97
249.42	1312.75
249.64	1318.89
249.85	1355.76
250.07	1269.74
250.29	1294.32
250.50	1269.74
250.72	1302.51
250.94	1255.40
251.16	1304.56
251.37	1275.88
251.59	1251.31
251.81	1232.88
252.02	1277.93
252.24	1226.73
252.46	1296.36
252.68	1239.02
252.89	1216.49
253.11	1333.23
253.33	1263.60
253.54	1212.40
253.76	1241.07
253.98	1279.98
254.20	1282.03
254.41	1298.41
254.63	1239.02
254.85	1267.69
255.06	1253.36
255.28	1304.56
255.50	1316.84
255.71	1187.82
255.93	1253.36
256.15	1380.33
256.36	1265.64
256.58	1298.41
256.80	1234.93
257.02	1236.97
257.23	1230.83
257.45	1269.74
257.67	1265.64
257.88	1245.16
258.10	1267.69
258.32	1267.69
258.53	1265.64
258.75	1232.88
258.97	1273.84
259.18	1337.32
259.40	1288.17
259.62	1296.36
259.83	1261.55
260.05	1226.73
260.27	1345.52
260.48	1322.99
260.70	1312.75
260.92	1257.45
261.13	1292.27
261.35	1312.75
261.57	1343.47
261.78	1261.55
262.00	1282.03
262.22	1222.64
262.43	1271.79
262.65	1331.18
262.86	1279.98
263.08	1279.98
263.30	1292.27
263.51	1277.93
263.73	1277.93
263.95	1284.08
264.16	1212.40
264.38	1232.88
264.60	1296.36
264.81	1284.08
265.03	1247.21
265.25	1253.36
265.46	1214.45
265.68	1277.93
265.89	1306.60
266.11	1282.03
266.33	1308.65
266.54	1284.08
266.76	1333.23
266.98	1302.51
267.19	1343.47
267.41	1261.55
267.62	1288.17
267.84	1241.07
268.06	1286.12
268.27	1331.18
268.49	1243.12
268.70	1249.26
268.92	1222.64
269.14	1228.78
269.35	1247.21
269.57	1234.93
269.79	1212.40
270.00	1302.51
270.22	1277.93
270.43	1239.02
270.65	1269.74
270.87	1257.45
271.08	1271.79
271.30	1267.69
271.51	1218.54
271.73	1279.98
271.95	1236.97
272.16	1288.17
272.38	1245.16
272.59	1304.56
272.81	1255.40
273.02	1282.03
273.24	1263.60
273.46	1294.32
273.67	1257.45
273.89	1226.73
274.10	1228.78
274.32	1363.95
274.54	1200.11
274.75	1214.45
274.97	1249.26
275.18	1220.59
275.40	1288.17
275.61	1259.50
275.83	1263.60
276.05	1259.50
276.26	1286.12
276.48	1265.64
276.69	1224.69
276.91	1191.92
277.12	1249.26
277.34	1282.03
277.55	1273.84
277.77	1239.02
277.99	1310.70
278.20	1275.88
278.42	1243.12
278.63	1296.36
278.85	1200.11
279.06	1288.17
279.28	1273.84
279.49	1343.47
279.71	1187.82
279.93	1259.50
280.14	1239.02
280.36	1277.93
280.57	1292.27
280.79	1249.26
281.00	1286.12
281.22	1290.22
281.43	1232.88
281.65	1239.02
281.86	1286.12
282.08	1284.08
282.29	1302.51
282.51	1290.22
282.73	1228.78
282.94	1239.02
283.16	1327.08
283.37	1294.32
283.59	1241.07
283.80	1224.69
284.02	1255.40
284.23	1218.54
284.45	1310.70
284.66	1204.21
284.88	1263.60
285.09	1320.94
285.31	1263.60
285.52	1224.69
285.74	1308.65
285.95	1267.69
286.17	1331.18
286.38	1302.51
286.60	1273.84
286.81	1208.30
287.03	1193.97
287.24	1290.22
287.46	1271.79
287.67	1282.03
287.89	1292.27
288.10	1288.17
288.32	1247.21
288.53	1224.69
288.75	1222.64
288.96	1277.93
289.18	1300.46
289.39	1263.60
289.61	1294.32
289.82	1286.12
290.04	1310.70
290.25	1259.50
290.47	1257.45
290.68	1257.45
290.90	1234.93
291.11	1230.83
291.33	1236.97
291.54	1284.08
291.76	1245.16
291.97	1294.32
292.18	1187.82
292.40	1259.50
292.61	1263.60
292.83	1279.98
293.04	1302.51
293.26	1286.12
293.47	1253.36
293.69	1290.22
293.90	1232.88
294.12	1228.78
294.33	1273.84
294.55	1322.99
294.76	1253.36
294.97	1232.88
295.19	1306.60
295.40	1316.84
295.62	1212.40
295.83	1284.08
296.05	1224.69
296.26	1282.03
296.48	1277.93
296.69	1271.79
296.90	1310.70
297.12	1290.22
297.33	1251.31
297.55	1335.28
297.76	1257.45
297.98	1284.08
298.19	1208.30
298.41	1325.04
298.62	1267.69
298.83	1216.49
299.05	1306.60
299.26	1310.70
299.48	1325.04
299.69	1341.42
299.90	1279.98
300.12	1304.56
300.33	1232.88
300.55	1239.02
300.76	1290.22
300.98	1271.79
301.19	1245.16
301.40	1314.80
301.62	1239.02
301.83	1255.40
302.05	1255.40
302.26	1298.41
302.47	1312.75
302.69	1232.88
302.90	1304.56
303.12	1212.40
303.33	1241.07
303.54	1298.41
303.76	1271.79
303.97	1312.75
304.19	1249.26
304.40	1259.50
304.61	1247.21
304.83	1282.03
305.04	1222.64
305.26	1322.99
305.47	1222.64
305.68	1290.22
305.90	1249.26
306.11	1267.69
306.33	1249.26
306.54	1310.70
306.75	1288.17
306.97	1236.97
307.18	1341.42
307.39	1271.79
307.61	1335.28
307.82	1304.56
308.04	1142.77
308.25	1331.18
308.46	1218.54
308.68	1200.11
308.89	1298.41
309.10	1265.64
309.32	1282.03
309.53	1290.22
309.74	1257.45
309.96	1202.16
310.17	1286.12
310.39	1224.69
310.60	1296.36
310.81	1245.16
311.03	1277.93
311.24	1261.55
311.45	1259.50
311.67	1275.88
311.88	1208.30
312.09	1282.03
312.31	1261.55
312.52	1286.12
312.73	1200.11
312.95	1318.89
313.16	1300.46
313.37	1314.80
313.59	1284.08
313.80	1200.11
314.01	1239.02
314.23	1310.70
314.44	1308.65
314.65	1337.32
314.87	1216.49
315.08	1269.74
315.29	1277.93
315.51	1298.41
315.72	1273.84
315.93	1224.69
316.15	1296.36
316.36	1271.79
316.57	1265.64
316.79	1331.18
317.00	1273.84
317.21	1269.74
317.43	1304.56
317.64	1257.45
317.85	1226.73
318.07	1277.93
318.28	1325.04
318.49	1267.69
318.70	1302.51
318.92	1269.74
319.13	1216.49
319.34	1271.79
319.56	1282.03
319.77	1296.36
319.98	1288.17
320.20	1191.92
320.41	1226.73
320.62	1265.64
320.83	1257.45
321.05	1320.94
321.26	1259.50
321.47	1263.60
321.69	1265.64
321.90	1181.68
322.11	1259.50
322.32	1286.12
322.54	1267.69
322.75	1232.88
322.96	1243.12
323.18	1257.45
323.39	1222.64
323.60	1230.83
323.81	1253.36
324.03	1284.08
324.24	1247.21
324.45	1216.49
324.66	1222.64
324.88	1245.16
325.09	1277.93
325.30	1216.49
325.52	1269.74
325.73	1284.08
325.94	1259.50
326.15	1265.64
326.37	1273.84
326.58	1159.15
326.79	1300.46
327.00	1228.78
327.22	1255.40
327.43	1253.36
327.64	1302.51
327.85	1230.83
328.07	1282.03
328.28	1300.46
328.49	1331.18
328.70	1292.27
328.92	1277.93
329.13	1241.07
329.34	1222.64
329.55	1212.40
329.76	1314.80
329.98	1345.52
330.19	1255.40
330.40	1267.69
330.61	1300.46
330.83	1312.75
331.04	1290.22
331.25	1298.41
331.46	1312.75
331.68	1236.97
331.89	1222.64
332.10	1259.50
332.31	1269.74
332.52	1282.03
332.74	1290.22
332.95	1206.25
333.16	1265.64
333.37	1241.07
333.58	1234.93
333.80	1302.51
334.01	1306.60
334.22	1243.12
334.43	1263.60
334.64	1220.59
334.86	1318.89
335.07	1271.79
335.28	1294.32
335.49	1308.65
335.70	1224.69
335.92	1327.08
336.13	1288.17
336.34	1341.42
336.55	1241.07
336.76	1257.45
336.98	1236.97
337.19	1243.12
337.40	1282.03
337.61	1267.69
337.82	1290.22
338.04	1318.89
338.25	1189.87
338.46	1349.61
338.67	1243.12
338.88	1341.42
339.09	1210.35
339.31	1279.98
339.52	1284.08
339.73	1269.74
339.94	1372.14
340.15	1263.60
340.36	1251.31
340.58	1273.84
340.79	1230.83
341.00	1265.64
341.21	1249.26
341.42	1284.08
341.63	1290.22
341.85	1286.12
342.06	1269.74
342.27	1261.55
342.48	1212.40
342.69	1286.12
342.90	1218.54
343.12	1298.41
343.33	1282.03
343.54	1290.22
343.75	1265.64
343.96	1220.59
344.17	1263.60
344.38	1234.93
344.60	1222.64
344.81	1298.41
345.02	1304.56
345.23	1335.28
345.44	1310.70
345.65	1312.75
345.86	1318.89
346.07	1249.26
346.29	1241.07
346.50	1232.88
346.71	1279.98
346.92	1220.59
347.13	1200.11
347.34	1312.75
347.55	1337.32
347.76	1333.23
347.98	1249.26
348.19	1249.26
348.40	1318.89
348.61	1241.07
348.82	1232.88
349.03	1222.64
349.24	1288.17
349.45	1263.60
349.66	1318.89
349.88	1257.45
350.09	1253.36
350.30	1341.42
350.51	1226.73
350.72	1331.18
350.93	1294.32
351.14	1241.07
351.35	1288.17
351.56	1271.79
351.77	1322.99
351.99	1284.08
352.20	1290.22
352.41	1230.83
352.62	1296.36
352.83	1306.60
353.04	1247.21
353.25	1316.84
353.46	1318.89
353.67	1245.16
353.88	1284.08
354.09	1284.08
354.30	1279.98
354.52	1239.02
354.73	1310.70
354.94	1255.40
355.15	1320.94
355.36	1290.22
355.57	1355.76
355.78	1282.03
355.99	1308.65
356.20	1275.88
356.41	1232.88
356.62	1239.02
356.83	1298.41
357.04	1288.17
357.25	1275.88
357.46	1302.51
357.68	1161.20
357.89	1267.69
358.10	1255.40
358.31	1275.88
358.52	1294.32
358.73	1349.61
358.94	1290.22
359.15	1253.36
359.36	1279.98
359.57	1306.60
359.78	1302.51
359.99	1327.08
360.20	1265.64
360.41	1284.08
360.62	1277.93
360.83	1206.25
361.04	1286.12
361.25	1253.36
361.46	1290.22
361.67	1312.75
361.88	1277.93
362.09	1273.84
362.30	1269.74
362.51	1282.03
362.72	1222.64
362.93	1304.56
363.14	1288.17
363.35	1304.56
363.56	1316.84
363.78	1222.64
363.99	1218.54
364.20	1277.93
364.41	1292.27
364.62	1253.36
364.83	1273.84
365.04	1261.55
365.25	1196.01
365.46	1267.69
365.67	1267.69
365.88	1316.84
366.09	1320.94
366.30	1222.64
366.51	1314.80
366.72	1263.60
366.93	1271.79
367.14	1261.55
367.35	1257.45
367.56	1257.45
367.77	1185.77
367.98	1202.16
368.18	1261.55
368.39	1325.04
368.60	1218.54
368.81	1312.75
369.02	1210.35
369.23	1212.40
369.44	1275.88
369.65	1187.82
369.86	1288.17
370.07	1329.13
370.28	1239.02
370.49	1261.55
370.70	1343.47
370.91	1267.69
371.12	1222.64
371.33	1304.56
371.54	1247.21
371.75	1230.83
371.96	1282.03
372.17	1247.21
372.38	1296.36
372.59	1290.22
372.80	1290.22
373.01	1222.64
373.22	1253.36
373.43	1241.07
373.64	1279.98
373.85	1265.64
374.06	1224.69
374.26	1335.28
374.47	1298.41
374.68	1290.22
374.89	1275.88
375.10	1286.12
375.31	1185.77
375.52	1353.71
375.73	1261.55
375.94	1282.03
376.15	1165.29
376.36	1284.08
376.57	1271.79
376.78	1279.98
376.99	1249.26
377.20	1257.45
377.40	1282.03
377.61	1234.93
377.82	1222.64
378.03	1210.35
378.24	1214.45
378.45	1236.97
378.66	1339.37
378.87	1228.78
379.08	1245.16
379.29	1243.12
379.50	1320.94
379.71	1339.37
379.91	1296.36
380.12	1269.74
380.33	1220.59
380.54	1214.45
380.75	1339.37
380.96	1318.89
381.17	1218.54
381.38	1343.47
381.59	1282.03
381.80	1247.21
382.00	1288.17
382.21	1181.68
382.42	1247.21
382.63	1304.56
382.84	1298.41
383.05	1325.04
383.26	1263.60
383.47	1296.36
383.68	1294.32
383.88	1282.03
384.09	1189.87
384.30	1290.22
384.51	1308.65
384.72	1241.07
384.93	1292.27
385.14	1302.51
385.35	1306.60
385.55	1286.12
385.76	1208.30
385.97	1292.27
386.18	1243.12
386.39	1333.23
386.60	1277.93
386.81	1337.32
387.02	1277.93
387.22	1239.02
387.43	1239.02
387.64	1247.21
387.85	1269.74
388.06	1308.65
388.27	1282.03
388.48	1306.60
388.68	1279.98
388.89	1300.46
389.10	1269.74
389.31	1314.80
389.52	1249.26
389.73	1241.07
389.93	1284.08
390.14	1245.16
390.35	1218.54
390.56	1263.60
390.77	1245.16
390.98	1284.08
391.18	1333.23
391.39	1304.56
391.60	1249.26
391.81	1308.65
392.02	1273.84
392.23	1327.08
392.43	1277.93
392.64	1255.40
392.85	1224.69
393.06	1239.02
393.27	1243.12
393.47	1216.49
393.68	1269.74
393.89	1292.27
394.10	1261.55
394.31	1282.03
394.52	1234.93
394.72	1259.50
394.93	1277.93
395.14	1277.93
395.35	1306.60
395.56	1212.40
395.76	1251.31
395.97	1355.76
396.18	1261.55
396.39	1261.55
396.60	1298.41
396.80	1243.12
397.01	1249.26
397.22	1286.12
397.43	1347.56
397.64	1271.79
397.84	1253.36
398.05	1284.08
398.26	1294.32
398.47	1292.27
398.67	1273.84
398.88	1316.84
399.09	1247.21
399.30	1249.26
399.51	1277.93
399.71	1255.40
399.92	1220.59
400.13	1288.17
400.34	1261.55
400.54	1271.79
400.75	1314.80
400.96	1290.22
401.17	1355.76
401.37	1218.54
401.58	1222.64
401.79	1241.07
402.00	1228.78
402.21	1251.31
402.41	1306.60
402.62	1198.06
402.83	1300.46
403.04	1310.70
403.24	1325.04
403.45	1318.89
403.66	1298.41
403.87	1273.84
404.07	1298.41
404.28	1236.97
404.49	1327.08
404.70	1284.08
404.90	1282.03
405.11	1261.55
405.32	1249.26
405.52	1308.65
405.73	1296.36
405.94	1253.36
406.15	1230.83
406.35	1204.21
406.56	1216.49
406.77	1220.59
406.98	1282.03
407.18	1239.02
407.39	1288.17
407.60	1368.04
407.80	1320.94
408.01	1249.26
408.22	1312.75
408.43	1259.50
408.63	1316.84
408.84	1292.27
409.05	1171.44
409.25	1241.07
409.46	1312.75
409.67	1298.41
409.88	1386.47
410.08	1247.21
410.29	1271.79
410.50	1214.45
410.70	1241.07
410.91	1216.49
411.12	1245.16
411.32	1286.12
411.53	1327.08
411.74	1249.26
411.95	1214.45
412.15	1212.40
412.36	1353.71
412.57	1290.22
412.77	1267.69
412.98	1277.93
413.19	1273.84
413.39	1286.12
413.60	1322.99
413.81	1263.60
414.01	1228.78
414.22	1304.56
414.43	1296.36
414.63	1294.32
414.84	1259.50
415.05	1271.79
415.25	1255.40
415.46	1210.35
415.67	1288.17
415.87	1263.60
416.08	1318.89
416.29	1253.36
416.49	1243.12
416.70	1277.93
416.91	1325.04
417.11	1304.56
417.32	1263.60
417.53	1331.18
417.73	1331.18
417.94	1261.55
418.15	1265.64
418.35	1288.17
418.56	1265.64
418.77	1267.69
418.97	1298.41
419.18	1239.02
419.38	1228.78
419.59	1296.36
419.80	1286.12
420.00	1265.64
420.21	1261.55
420.42	1304.56
420.62	1257.45
420.83	1267.69
421.04	1185.77
421.24	1277.93
421.45	1267.69
421.65	1220.59
421.86	1275.88
422.07	1222.64
422.27	1265.64
422.48	1249.26
422.69	1269.74
422.89	1224.69
423.10	1374.19
423.30	1322.99
423.51	1308.65
423.72	1286.12
423.92	1325.04
424.13	1345.52
424.33	1251.31
424.54	1253.36
424.75	1216.49
424.95	1294.32
425.16	1300.46
425.36	1277.93
425.57	1214.45
425.78	1306.60
425.98	1269.74
426.19	1253.36
426.39	1318.89
426.60	1212.40
426.81	1329.13
427.01	1245.16
427.22	1249.26
427.42	1251.31
427.63	1232.88
427.83	1245.16
428.04	1353.71
428.25	1296.36
428.45	1288.17
428.66	1275.88
428.86	1232.88
429.07	1271.79
429.28	1263.60
429.48	1343.47
429.69	1366.00
429.89	1198.06
430.10	1236.97
430.30	1314.80
430.51	1275.88
430.71	1304.56
430.92	1269.74
431.13	1302.51
431.33	1277.93
431.54	1253.36
431.74	1279.98
431.95	1314.80
432.15	1253.36
432.36	1304.56
432.56	1318.89
432.77	1284.08
432.98	1347.56
433.18	1175.53
433.39	1310.70
433.59	1189.87
433.80	1241.07
434.00	1253.36
434.21	1279.98
434.41	1247.21
434.62	1335.28
434.82	1144.81
435.03	1279.98
435.23	1255.40
435.44	1320.94
435.64	1282.03
435.85	1212.40
436.06	1294.32
436.26	1333.23
436.47	1306.60
436.67	1257.45
436.88	1267.69
437.08	1245.16
437.29	1273.84
437.49	1294.32
437.70	1212.40
437.90	1253.36
438.11	1181.68
438.31	1363.95
438.52	1267.69
438.72	1345.52
438.93	1232.88
439.13	1241.07
439.34	1263.60
439.54	1196.01
439.75	1271.79
439.95	1245.16
440.16	1247.21
440.36	1263.60
440.57	1261.55
440.77	1249.26
440.98	1234.93
441.18	1257.45
441.39	1255.40
441.59	1290.22
441.80	1288.17
442.00	1304.56
442.21	1337.32
442.41	1279.98
442.62	1247.21
442.82	1296.36
443.02	1294.32
443.23	1224.69
443.43	1251.31
443.64	1245.16
443.84	1304.56
444.05	1310.70
444.25	1345.52
444.46	1298.41
444.66	1372.14
444.87	1253.36
445.07	1337.32
445.28	1234.93
445.48	1275.88
445.69	1310.70
445.89	1232.88
446.09	1325.04
446.30	1306.60
446.50	1282.03
446.71	1257.45
446.91	1337.32
447.12	1298.41
447.32	1296.36
447.53	1259.50
447.73	1314.80
447.93	1314.80
448.14	1322.99
448.34	1288.17
448.55	1320.94
448.75	1277.93
448.96	1216.49
449.16	1228.78
449.36	1290.22
449.57	1206.25
449.77	1216.49
449.98	1257.45
450.18	1241.07
450.39	1239.02
450.59	1232.88
450.79	1296.36
451.00	1271.79
451.20	1288.17
451.41	1228.78
451.61	1284.08
451.81	1284.08
452.02	1298.41
452.22	1298.41
452.43	1290.22
452.63	1316.84
