SpectraSuite Data File
++++++++++++++++++++++++++++++++++++
Date: Sun Apr 03 19:55:41 CEST 2016
User: root
Dark Spectrum Present: No
Reference Spectrum Present: No
Number of Sampled Component Spectra: 1
Spectrometers: USB4C02835
Integration Time (usec): 10000 (USB4C02835)
Spectra Averaged: 1 (USB4C02835)
Boxcar Smoothing: 0 (USB4C02835)
Correct for Electrical Dark: No (USB4C02835)
Strobe/Lamp Enabled: No (USB4C02835)
Correct for Detector Non-linearity: No (USB4C02835)
Correct for Stray Light: No (USB4C02835)
Number of Pixels in Processed Spectrum: 3648
>>>>>Begin Processed Spectral Data<<<<<
177.47	1263.60
177.69	1263.60
177.91	1263.60
178.13	1273.84
178.36	1251.31
178.58	1224.69
178.80	1298.41
179.02	1304.56
179.24	1275.88
179.46	1232.88
179.68	1259.50
179.90	1243.12
180.13	1216.49
180.35	1243.12
180.57	1312.75
180.79	1261.55
181.01	1290.22
181.23	1335.28
181.45	1255.40
181.67	1249.26
181.90	1243.12
182.12	1243.12
182.34	1255.40
182.56	1257.45
182.78	1275.88
183.00	1249.26
183.22	1320.94
183.44	1243.12
183.66	1251.31
183.89	1216.49
184.11	1273.84
184.33	1302.51
184.55	1286.12
184.77	1314.80
184.99	1239.02
185.21	1282.03
185.43	1282.03
185.65	1263.60
185.87	1265.64
186.10	1241.07
186.32	1253.36
186.54	1361.90
186.76	1255.40
186.98	1267.69
187.20	1263.60
187.42	1282.03
187.64	1249.26
187.86	1273.84
188.08	1259.50
188.30	1273.84
188.52	1241.07
188.75	1236.97
188.97	1306.60
189.19	1245.16
189.41	1331.18
189.63	1267.69
189.85	1230.83
190.07	1232.88
190.29	1341.42
190.51	1224.69
190.73	1282.03
190.95	1312.75
191.17	1259.50
191.39	1210.35
191.61	1288.17
191.84	1257.45
192.06	1234.93
192.28	1241.07
192.50	1230.83
192.72	1232.88
192.94	1257.45
193.16	1249.26
193.38	1200.11
193.60	1263.60
193.82	1220.59
194.04	1181.68
194.26	1273.84
194.48	1249.26
194.70	1306.60
194.92	1265.64
195.14	1245.16
195.36	1277.93
195.58	1230.83
195.80	1247.21
196.02	1290.22
196.24	1208.30
196.46	1345.52
196.69	1230.83
196.91	1214.45
197.13	1376.24
197.35	1249.26
197.57	1204.21
197.79	1214.45
198.01	1277.93
198.23	1241.07
198.45	1230.83
198.67	1298.41
198.89	1214.45
199.11	1234.93
199.33	1294.32
199.55	1208.30
199.77	1277.93
199.99	1239.02
200.21	1245.16
200.43	1200.11
200.65	1273.84
200.87	1239.02
201.09	1273.84
201.31	1230.83
201.53	1345.52
201.75	1243.12
201.97	1245.16
202.19	1288.17
202.41	1267.69
202.63	1189.87
202.85	1212.40
203.07	1316.84
203.29	1282.03
203.51	1243.12
203.73	1206.25
203.95	1302.51
204.17	1265.64
204.39	1249.26
204.61	1271.79
204.83	1296.36
205.05	1347.56
205.27	1292.27
205.49	1308.65
205.71	1275.88
205.93	1288.17
206.15	1288.17
206.37	1239.02
206.59	1259.50
206.81	1269.74
207.03	1302.51
207.25	1214.45
207.47	1198.06
207.69	1275.88
207.91	1275.88
208.13	1286.12
208.34	1249.26
208.56	1222.64
208.78	1273.84
209.00	1165.29
209.22	1232.88
209.44	1265.64
209.66	1239.02
209.88	1196.01
210.10	1245.16
210.32	1239.02
210.54	1304.56
210.76	1279.98
210.98	1216.49
211.20	1236.97
211.42	1310.70
211.64	1279.98
211.86	1269.74
212.08	1288.17
212.30	1230.83
212.52	1366.00
212.74	1279.98
212.96	1290.22
213.17	1257.45
213.39	1251.31
213.61	1292.27
213.83	1251.31
214.05	1257.45
214.27	1314.80
214.49	1212.40
214.71	1175.53
214.93	1267.69
215.15	1220.59
215.37	1275.88
215.59	1275.88
215.81	1269.74
216.03	1265.64
216.24	1204.21
216.46	1241.07
216.68	1232.88
216.90	1271.79
217.12	1255.40
217.34	1216.49
217.56	1230.83
217.78	1224.69
218.00	1269.74
218.22	1304.56
218.44	1292.27
218.66	1241.07
218.87	1308.65
219.09	1282.03
219.31	1263.60
219.53	1216.49
219.75	1277.93
219.97	1232.88
220.19	1294.32
220.41	1333.23
220.63	1257.45
220.85	1255.40
221.06	1273.84
221.28	1273.84
221.50	1298.41
221.72	1275.88
221.94	1251.31
222.16	1267.69
222.38	1265.64
222.60	1257.45
222.82	1251.31
223.03	1255.40
223.25	1284.08
223.47	1269.74
223.69	1279.98
223.91	1314.80
224.13	1366.00
224.35	1251.31
224.57	1314.80
224.78	1304.56
225.00	1210.35
225.22	1230.83
225.44	1261.55
225.66	1308.65
225.88	1261.55
226.10	1243.12
226.32	1269.74
226.53	1300.46
226.75	1267.69
226.97	1239.02
227.19	1292.27
227.41	1269.74
227.63	1314.80
227.85	1218.54
228.06	1255.40
228.28	1290.22
228.50	1271.79
228.72	1261.55
228.94	1206.25
229.16	1265.64
229.37	1376.24
229.59	1310.70
229.81	1333.23
230.03	1212.40
230.25	1279.98
230.47	1310.70
230.69	1275.88
230.90	1232.88
231.12	1320.94
231.34	1298.41
231.56	1302.51
231.78	1333.23
232.00	1325.04
232.21	1333.23
232.43	1304.56
232.65	1243.12
232.87	1230.83
233.09	1204.21
233.30	1263.60
233.52	1200.11
233.74	1279.98
233.96	1222.64
234.18	1222.64
234.40	1282.03
234.61	1191.92
234.83	1284.08
235.05	1239.02
235.27	1327.08
235.49	1257.45
235.70	1249.26
235.92	1282.03
236.14	1232.88
236.36	1275.88
236.58	1267.69
236.79	1273.84
237.01	1224.69
237.23	1228.78
237.45	1267.69
237.67	1220.59
237.88	1290.22
238.10	1273.84
238.32	1204.21
238.54	1253.36
238.76	1224.69
238.97	1265.64
239.19	1245.16
239.41	1247.21
239.63	1255.40
239.85	1253.36
240.06	1288.17
240.28	1241.07
240.50	1232.88
240.72	1294.32
240.93	1251.31
241.15	1263.60
241.37	1290.22
241.59	1226.73
241.81	1257.45
242.02	1335.28
242.24	1318.89
242.46	1337.32
242.68	1177.58
242.89	1339.37
243.11	1282.03
243.33	1253.36
243.55	1357.80
243.76	1247.21
243.98	1220.59
244.20	1308.65
244.42	1306.60
244.64	1298.41
244.85	1224.69
245.07	1247.21
245.29	1320.94
245.51	1288.17
245.72	1263.60
245.94	1210.35
246.16	1271.79
246.38	1253.36
246.59	1255.40
246.81	1282.03
247.03	1234.93
247.24	1247.21
247.46	1300.46
247.68	1275.88
247.90	1275.88
248.11	1310.70
248.33	1253.36
248.55	1230.83
248.77	1314.80
248.98	1320.94
249.20	1316.84
249.42	1275.88
249.64	1234.93
249.85	1234.93
250.07	1269.74
250.29	1257.45
250.50	1282.03
250.72	1286.12
250.94	1222.64
251.16	1327.08
251.37	1288.17
251.59	1308.65
251.81	1292.27
252.02	1284.08
252.24	1230.83
252.46	1249.26
252.68	1222.64
252.89	1224.69
253.11	1320.94
253.33	1320.94
253.54	1239.02
253.76	1314.80
253.98	1333.23
254.20	1255.40
254.41	1300.46
254.63	1320.94
254.85	1234.93
255.06	1273.84
255.28	1277.93
255.50	1265.64
255.71	1279.98
255.93	1275.88
256.15	1210.35
256.36	1239.02
256.58	1265.64
256.80	1200.11
257.02	1234.93
257.23	1320.94
257.45	1267.69
257.67	1255.40
257.88	1220.59
258.10	1228.78
258.32	1284.08
258.53	1286.12
258.75	1243.12
258.97	1247.21
259.18	1312.75
259.40	1181.68
259.62	1228.78
259.83	1267.69
260.05	1206.25
260.27	1241.07
260.48	1263.60
260.70	1284.08
260.92	1277.93
261.13	1241.07
261.35	1224.69
261.57	1263.60
261.78	1312.75
262.00	1318.89
262.22	1292.27
262.43	1288.17
262.65	1214.45
262.86	1292.27
263.08	1275.88
263.30	1247.21
263.51	1230.83
263.73	1273.84
263.95	1210.35
264.16	1253.36
264.38	1232.88
264.60	1314.80
264.81	1306.60
265.03	1234.93
265.25	1290.22
265.46	1263.60
265.68	1222.64
265.89	1239.02
266.11	1294.32
266.33	1304.56
266.54	1261.55
266.76	1279.98
266.98	1269.74
267.19	1290.22
267.41	1294.32
267.62	1245.16
267.84	1232.88
268.06	1310.70
268.27	1361.90
268.49	1257.45
268.70	1284.08
268.92	1212.40
269.14	1298.41
269.35	1212.40
269.57	1302.51
269.79	1177.58
270.00	1296.36
270.22	1243.12
270.43	1191.92
270.65	1316.84
270.87	1263.60
271.08	1232.88
271.30	1294.32
271.51	1222.64
271.73	1271.79
271.95	1261.55
272.16	1298.41
272.38	1249.26
272.59	1322.99
272.81	1255.40
273.02	1218.54
273.24	1275.88
273.46	1247.21
273.67	1249.26
273.89	1308.65
274.10	1275.88
274.32	1300.46
274.54	1247.21
274.75	1228.78
274.97	1249.26
275.18	1220.59
275.40	1282.03
275.61	1300.46
275.83	1308.65
276.05	1212.40
276.26	1202.16
276.48	1343.47
276.69	1322.99
276.91	1300.46
277.12	1216.49
277.34	1259.50
277.55	1357.80
277.77	1243.12
277.99	1236.97
278.20	1292.27
278.42	1277.93
278.63	1322.99
278.85	1265.64
279.06	1239.02
279.28	1273.84
279.49	1243.12
279.71	1286.12
279.93	1230.83
280.14	1337.32
280.36	1298.41
280.57	1337.32
280.79	1308.65
281.00	1214.45
281.22	1310.70
281.43	1296.36
281.65	1282.03
281.86	1220.59
282.08	1294.32
282.29	1249.26
282.51	1187.82
282.73	1282.03
282.94	1224.69
283.16	1216.49
283.37	1298.41
283.59	1292.27
283.80	1275.88
284.02	1273.84
284.23	1155.05
284.45	1322.99
284.66	1239.02
284.88	1251.31
285.09	1241.07
285.31	1193.97
285.52	1279.98
285.74	1306.60
285.95	1232.88
286.17	1296.36
286.38	1273.84
286.60	1253.36
286.81	1288.17
287.03	1312.75
287.24	1198.06
287.46	1314.80
287.67	1253.36
287.89	1239.02
288.10	1290.22
288.32	1271.79
288.53	1255.40
288.75	1335.28
288.96	1296.36
289.18	1269.74
289.39	1255.40
289.61	1263.60
289.82	1282.03
290.04	1249.26
290.25	1320.94
290.47	1259.50
290.68	1243.12
290.90	1271.79
291.11	1261.55
291.33	1200.11
291.54	1273.84
291.76	1253.36
291.97	1208.30
292.18	1304.56
292.40	1189.87
292.61	1236.97
292.83	1300.46
293.04	1228.78
293.26	1255.40
293.47	1187.82
293.69	1236.97
293.90	1245.16
294.12	1298.41
294.33	1220.59
294.55	1288.17
294.76	1290.22
294.97	1236.97
295.19	1290.22
295.40	1275.88
295.62	1234.93
295.83	1298.41
296.05	1198.06
296.26	1345.52
296.48	1314.80
296.69	1357.80
296.90	1220.59
297.12	1220.59
297.33	1241.07
297.55	1218.54
297.76	1214.45
297.98	1320.94
298.19	1247.21
298.41	1208.30
298.62	1312.75
298.83	1230.83
299.05	1239.02
299.26	1271.79
299.48	1183.73
299.69	1304.56
299.90	1220.59
300.12	1296.36
300.33	1312.75
300.55	1232.88
300.76	1202.16
300.98	1245.16
301.19	1234.93
301.40	1210.35
301.62	1257.45
301.83	1277.93
302.05	1325.04
302.26	1271.79
302.47	1236.97
302.69	1189.87
302.90	1298.41
303.12	1257.45
303.33	1261.55
303.54	1279.98
303.76	1222.64
303.97	1200.11
304.19	1318.89
304.40	1224.69
304.61	1331.18
304.83	1263.60
305.04	1282.03
305.26	1249.26
305.47	1284.08
305.68	1234.93
305.90	1196.01
306.11	1189.87
306.33	1302.51
306.54	1222.64
306.75	1243.12
306.97	1282.03
307.18	1218.54
307.39	1189.87
307.61	1263.60
307.82	1273.84
308.04	1249.26
308.25	1216.49
308.46	1290.22
308.68	1257.45
308.89	1284.08
309.10	1226.73
309.32	1210.35
309.53	1232.88
309.74	1232.88
309.96	1234.93
310.17	1253.36
310.39	1251.31
310.60	1255.40
310.81	1290.22
311.03	1282.03
311.24	1251.31
311.45	1263.60
311.67	1245.16
311.88	1292.27
312.09	1218.54
312.31	1320.94
312.52	1284.08
312.73	1351.66
312.95	1214.45
313.16	1243.12
313.37	1284.08
313.59	1202.16
313.80	1290.22
314.01	1153.01
314.23	1232.88
314.44	1308.65
314.65	1282.03
314.87	1230.83
315.08	1288.17
315.29	1284.08
315.51	1322.99
315.72	1288.17
315.93	1226.73
316.15	1257.45
316.36	1183.73
316.57	1224.69
316.79	1212.40
317.00	1257.45
317.21	1234.93
317.43	1245.16
317.64	1277.93
317.85	1277.93
318.07	1236.97
318.28	1312.75
318.49	1216.49
318.70	1271.79
318.92	1279.98
319.13	1243.12
319.34	1292.27
319.56	1302.51
319.77	1261.55
319.98	1349.61
320.20	1288.17
320.41	1271.79
320.62	1302.51
320.83	1306.60
321.05	1296.36
321.26	1275.88
321.47	1316.84
321.69	1218.54
321.90	1314.80
322.11	1292.27
322.32	1267.69
322.54	1318.89
322.75	1316.84
322.96	1251.31
323.18	1224.69
323.39	1247.21
323.60	1312.75
323.81	1239.02
324.03	1208.30
324.24	1249.26
324.45	1175.53
324.66	1290.22
324.88	1275.88
325.09	1255.40
325.30	1339.37
325.52	1249.26
325.73	1224.69
325.94	1320.94
326.15	1222.64
326.37	1279.98
326.58	1236.97
326.79	1208.30
327.00	1232.88
327.22	1282.03
327.43	1226.73
327.64	1232.88
327.85	1294.32
328.07	1216.49
328.28	1204.21
328.49	1298.41
328.70	1273.84
328.92	1251.31
329.13	1226.73
329.34	1271.79
329.55	1277.93
329.76	1306.60
329.98	1259.50
330.19	1239.02
330.40	1263.60
330.61	1294.32
330.83	1210.35
331.04	1226.73
331.25	1279.98
331.46	1236.97
331.68	1255.40
331.89	1259.50
332.10	1366.00
332.31	1275.88
332.52	1277.93
332.74	1212.40
332.95	1255.40
333.16	1232.88
333.37	1243.12
333.58	1300.46
333.80	1249.26
334.01	1320.94
334.22	1300.46
334.43	1239.02
334.64	1302.51
334.86	1226.73
335.07	1277.93
335.28	1308.65
335.49	1325.04
335.70	1241.07
335.92	1331.18
336.13	1279.98
336.34	1282.03
336.55	1304.56
336.76	1294.32
336.98	1312.75
337.19	1273.84
337.40	1218.54
337.61	1290.22
337.82	1329.13
338.04	1245.16
338.25	1169.39
338.46	1306.60
338.67	1234.93
338.88	1288.17
339.09	1279.98
339.31	1298.41
339.52	1234.93
339.73	1253.36
339.94	1329.13
340.15	1302.51
340.36	1204.21
340.58	1234.93
340.79	1222.64
341.00	1204.21
341.21	1308.65
341.42	1247.21
341.63	1314.80
341.85	1306.60
342.06	1267.69
342.27	1265.64
342.48	1253.36
342.69	1294.32
342.90	1257.45
343.12	1284.08
343.33	1232.88
343.54	1314.80
343.75	1265.64
343.96	1181.68
344.17	1220.59
344.38	1269.74
344.60	1316.84
344.81	1265.64
345.02	1255.40
345.23	1298.41
345.44	1290.22
345.65	1284.08
345.86	1298.41
346.07	1210.35
346.29	1320.94
346.50	1267.69
346.71	1345.52
346.92	1296.36
347.13	1214.45
347.34	1298.41
347.55	1247.21
347.76	1261.55
347.98	1257.45
348.19	1325.04
348.40	1251.31
348.61	1294.32
348.82	1251.31
349.03	1279.98
349.24	1298.41
349.45	1298.41
349.66	1206.25
349.88	1239.02
350.09	1320.94
350.30	1224.69
350.51	1232.88
350.72	1304.56
350.93	1236.97
351.14	1327.08
351.35	1249.26
351.56	1277.93
351.77	1265.64
351.99	1224.69
352.20	1212.40
352.41	1306.60
352.62	1304.56
352.83	1216.49
353.04	1406.95
353.25	1247.21
353.46	1230.83
353.67	1290.22
353.88	1294.32
354.09	1183.73
354.30	1286.12
354.52	1179.63
354.73	1249.26
354.94	1245.16
355.15	1331.18
355.36	1314.80
355.57	1220.59
355.78	1273.84
355.99	1247.21
356.20	1333.23
356.41	1214.45
356.62	1308.65
356.83	1265.64
357.04	1257.45
357.25	1230.83
357.46	1275.88
357.68	1261.55
357.89	1316.84
358.10	1251.31
358.31	1312.75
358.52	1302.51
358.73	1271.79
358.94	1271.79
359.15	1243.12
359.36	1302.51
359.57	1243.12
359.78	1275.88
359.99	1247.21
360.20	1304.56
360.41	1269.74
360.62	1269.74
360.83	1249.26
361.04	1292.27
361.25	1257.45
361.46	1216.49
361.67	1234.93
361.88	1341.42
362.09	1253.36
362.30	1386.47
362.51	1196.01
362.72	1251.31
362.93	1224.69
363.14	1292.27
363.35	1275.88
363.56	1236.97
363.78	1314.80
363.99	1202.16
364.20	1208.30
364.41	1304.56
364.62	1247.21
364.83	1224.69
365.04	1380.33
365.25	1245.16
365.46	1253.36
365.67	1210.35
365.88	1265.64
366.09	1228.78
366.30	1325.04
366.51	1202.16
366.72	1275.88
366.93	1294.32
367.14	1329.13
367.35	1279.98
367.56	1249.26
367.77	1298.41
367.98	1269.74
368.18	1337.32
368.39	1261.55
368.60	1263.60
368.81	1267.69
369.02	1220.59
369.23	1239.02
369.44	1261.55
369.65	1290.22
369.86	1290.22
370.07	1245.16
370.28	1273.84
370.49	1302.51
370.70	1308.65
370.91	1255.40
371.12	1251.31
371.33	1204.21
371.54	1308.65
371.75	1273.84
371.96	1241.07
372.17	1232.88
372.38	1314.80
372.59	1286.12
372.80	1257.45
373.01	1210.35
373.22	1265.64
373.43	1218.54
373.64	1232.88
373.85	1300.46
374.06	1228.78
374.26	1339.37
374.47	1263.60
374.68	1275.88
374.89	1302.51
375.10	1228.78
375.31	1296.36
375.52	1263.60
375.73	1239.02
375.94	1222.64
376.15	1234.93
376.36	1251.31
376.57	1271.79
376.78	1200.11
376.99	1302.51
377.20	1306.60
377.40	1290.22
377.61	1288.17
377.82	1277.93
378.03	1243.12
378.24	1208.30
378.45	1234.93
378.66	1308.65
378.87	1288.17
379.08	1302.51
379.29	1261.55
379.50	1279.98
379.71	1261.55
379.91	1224.69
380.12	1210.35
380.33	1255.40
380.54	1202.16
380.75	1236.97
380.96	1249.26
381.17	1279.98
381.38	1251.31
381.59	1312.75
381.80	1284.08
382.00	1302.51
382.21	1241.07
382.42	1253.36
382.63	1263.60
382.84	1304.56
383.05	1271.79
383.26	1296.36
383.47	1249.26
383.68	1251.31
383.88	1249.26
384.09	1251.31
384.30	1308.65
384.51	1202.16
384.72	1310.70
384.93	1302.51
385.14	1236.97
385.35	1267.69
385.55	1243.12
385.76	1263.60
385.97	1226.73
386.18	1189.87
386.39	1267.69
386.60	1263.60
386.81	1273.84
387.02	1265.64
387.22	1247.21
387.43	1220.59
387.64	1247.21
387.85	1265.64
388.06	1226.73
388.27	1318.89
388.48	1232.88
388.68	1173.49
388.89	1253.36
389.10	1230.83
389.31	1249.26
389.52	1273.84
389.73	1271.79
389.93	1261.55
390.14	1222.64
390.35	1265.64
390.56	1347.56
390.77	1277.93
390.98	1226.73
391.18	1251.31
391.39	1296.36
391.60	1265.64
391.81	1267.69
392.02	1269.74
392.23	1222.64
392.43	1269.74
392.64	1222.64
392.85	1241.07
393.06	1296.36
393.27	1306.60
393.47	1282.03
393.68	1271.79
393.89	1255.40
394.10	1232.88
394.31	1247.21
394.52	1294.32
394.72	1271.79
394.93	1257.45
395.14	1228.78
395.35	1314.80
395.56	1290.22
395.76	1308.65
395.97	1255.40
396.18	1218.54
396.39	1308.65
396.60	1275.88
396.80	1179.63
397.01	1292.27
397.22	1286.12
397.43	1290.22
397.64	1259.50
397.84	1232.88
398.05	1292.27
398.26	1265.64
398.47	1236.97
398.67	1273.84
398.88	1269.74
399.09	1310.70
399.30	1257.45
399.51	1292.27
399.71	1271.79
399.92	1234.93
400.13	1234.93
400.34	1259.50
400.54	1210.35
400.75	1279.98
400.96	1241.07
401.17	1257.45
401.37	1267.69
401.58	1232.88
401.79	1298.41
402.00	1308.65
402.21	1257.45
402.41	1247.21
402.62	1265.64
402.83	1314.80
403.04	1179.63
403.24	1232.88
403.45	1257.45
403.66	1193.97
403.87	1277.93
404.07	1290.22
404.28	1239.02
404.49	1222.64
404.70	1343.47
404.90	1286.12
405.11	1245.16
405.32	1230.83
405.52	1275.88
405.73	1261.55
405.94	1327.08
406.15	1275.88
406.35	1296.36
406.56	1269.74
406.77	1255.40
406.98	1298.41
407.18	1187.82
407.39	1284.08
407.60	1271.79
407.80	1224.69
408.01	1292.27
408.22	1249.26
408.43	1273.84
408.63	1335.28
408.84	1247.21
409.05	1271.79
409.25	1232.88
409.46	1296.36
409.67	1267.69
409.88	1314.80
410.08	1306.60
410.29	1288.17
410.50	1296.36
410.70	1220.59
410.91	1294.32
411.12	1263.60
411.32	1282.03
411.53	1210.35
411.74	1286.12
411.95	1320.94
412.15	1218.54
412.36	1292.27
412.57	1304.56
412.77	1288.17
412.98	1384.43
413.19	1300.46
413.39	1265.64
413.60	1282.03
413.81	1322.99
414.01	1253.36
414.22	1302.51
414.43	1259.50
414.63	1204.21
414.84	1298.41
415.05	1339.37
415.25	1325.04
415.46	1296.36
415.67	1306.60
415.87	1284.08
416.08	1261.55
416.29	1224.69
416.49	1257.45
416.70	1277.93
416.91	1271.79
417.11	1277.93
417.32	1253.36
417.53	1288.17
417.73	1322.99
417.94	1245.16
418.15	1380.33
418.35	1273.84
418.56	1234.93
418.77	1249.26
418.97	1265.64
419.18	1232.88
419.38	1189.87
419.59	1284.08
419.80	1263.60
420.00	1261.55
420.21	1206.25
420.42	1304.56
420.62	1304.56
420.83	1273.84
421.04	1271.79
421.24	1282.03
421.45	1298.41
421.65	1318.89
421.86	1257.45
422.07	1171.44
422.27	1322.99
422.48	1345.52
422.69	1290.22
422.89	1236.97
423.10	1224.69
423.30	1259.50
423.51	1267.69
423.72	1282.03
423.92	1189.87
424.13	1259.50
424.33	1206.25
424.54	1347.56
424.75	1263.60
424.95	1284.08
425.16	1300.46
425.36	1206.25
425.57	1255.40
425.78	1204.21
425.98	1230.83
426.19	1212.40
426.39	1282.03
426.60	1304.56
426.81	1370.09
427.01	1318.89
427.22	1314.80
427.42	1236.97
427.63	1249.26
427.83	1230.83
428.04	1224.69
428.25	1271.79
428.45	1304.56
428.66	1292.27
428.86	1245.16
429.07	1273.84
429.28	1241.07
429.48	1269.74
429.69	1220.59
429.89	1236.97
430.10	1212.40
430.30	1243.12
430.51	1236.97
430.71	1372.14
430.92	1247.21
431.13	1253.36
431.33	1339.37
431.54	1243.12
431.74	1226.73
431.95	1259.50
432.15	1269.74
432.36	1236.97
432.56	1265.64
432.77	1265.64
432.98	1314.80
433.18	1298.41
433.39	1224.69
433.59	1310.70
433.80	1179.63
434.00	1247.21
434.21	1265.64
434.41	1179.63
434.62	1253.36
434.82	1200.11
435.03	1279.98
435.23	1386.47
435.44	1267.69
435.64	1224.69
435.85	1232.88
436.06	1290.22
436.26	1320.94
436.47	1318.89
436.67	1343.47
436.88	1249.26
437.08	1232.88
437.29	1228.78
437.49	1261.55
437.70	1243.12
437.90	1318.89
438.11	1236.97
438.31	1277.93
438.52	1228.78
438.72	1251.31
438.93	1316.84
439.13	1263.60
439.34	1343.47
439.54	1339.37
439.75	1222.64
439.95	1320.94
440.16	1273.84
440.36	1275.88
440.57	1300.46
440.77	1243.12
440.98	1265.64
441.18	1228.78
441.39	1249.26
441.59	1222.64
441.80	1251.31
442.00	1300.46
442.21	1247.21
442.41	1249.26
442.62	1245.16
442.82	1206.25
443.02	1228.78
443.23	1249.26
443.43	1249.26
443.64	1318.89
443.84	1292.27
444.05	1308.65
444.25	1222.64
444.46	1322.99
444.66	1312.75
444.87	1257.45
445.07	1239.02
445.28	1312.75
445.48	1249.26
445.69	1263.60
445.89	1247.21
446.09	1322.99
446.30	1284.08
446.50	1275.88
446.71	1288.17
446.91	1253.36
447.12	1339.37
447.32	1257.45
447.53	1228.78
447.73	1261.55
447.93	1239.02
448.14	1310.70
448.34	1253.36
448.55	1290.22
448.75	1314.80
448.96	1269.74
449.16	1292.27
449.36	1222.64
449.57	1243.12
449.77	1247.21
449.98	1277.93
450.18	1181.68
450.39	1263.60
450.59	1257.45
450.79	1312.75
451.00	1249.26
451.20	1312.75
451.41	1286.12
451.61	1304.56
451.81	1259.50
452.02	1247.21
452.22	1306.60
452.43	1273.84
452.63	1183.73
