SpectraSuite Data File
++++++++++++++++++++++++++++++++++++
Date: Sun Apr 03 19:55:40 CEST 2016
User: root
Dark Spectrum Present: No
Reference Spectrum Present: No
Number of Sampled Component Spectra: 1
Spectrometers: USB4C02835
Integration Time (usec): 10000 (USB4C02835)
Spectra Averaged: 1 (USB4C02835)
Boxcar Smoothing: 0 (USB4C02835)
Correct for Electrical Dark: No (USB4C02835)
Strobe/Lamp Enabled: No (USB4C02835)
Correct for Detector Non-linearity: No (USB4C02835)
Correct for Stray Light: No (USB4C02835)
Number of Pixels in Processed Spectrum: 3648
>>>>>Begin Processed Spectral Data<<<<<
177.47	1259.50
177.69	1259.50
177.91	1259.50
178.13	1286.12
178.36	1257.45
178.58	1306.60
178.80	1165.29
179.02	1284.08
179.24	1249.26
179.46	1257.45
179.68	1236.97
179.90	1181.68
180.13	1269.74
180.35	1325.04
180.57	1241.07
180.79	1189.87
181.01	1204.21
181.23	1232.88
181.45	1277.93
181.67	1216.49
181.90	1261.55
182.12	1253.36
182.34	1277.93
182.56	1255.40
182.78	1327.08
183.00	1286.12
183.22	1265.64
183.44	1214.45
183.66	1318.89
183.89	1241.07
184.11	1263.60
184.33	1228.78
184.55	1306.60
184.77	1257.45
184.99	1286.12
185.21	1269.74
185.43	1243.12
185.65	1267.69
185.87	1331.18
186.10	1234.93
186.32	1282.03
186.54	1222.64
186.76	1212.40
186.98	1263.60
187.20	1298.41
187.42	1284.08
187.64	1279.98
187.86	1298.41
188.08	1306.60
188.30	1224.69
188.52	1331.18
188.75	1282.03
188.97	1320.94
189.19	1247.21
189.41	1251.31
189.63	1292.27
189.85	1269.74
190.07	1298.41
190.29	1255.40
190.51	1224.69
190.73	1298.41
190.95	1298.41
191.17	1273.84
191.39	1267.69
191.61	1286.12
191.84	1279.98
192.06	1241.07
192.28	1296.36
192.50	1241.07
192.72	1292.27
192.94	1265.64
193.16	1255.40
193.38	1261.55
193.60	1271.79
193.82	1267.69
194.04	1292.27
194.26	1222.64
194.48	1239.02
194.70	1239.02
194.92	1294.32
195.14	1312.75
195.36	1210.35
195.58	1282.03
195.80	1232.88
196.02	1298.41
196.24	1228.78
196.46	1318.89
196.69	1290.22
196.91	1253.36
197.13	1189.87
197.35	1314.80
197.57	1224.69
197.79	1181.68
198.01	1277.93
198.23	1247.21
198.45	1226.73
198.67	1273.84
198.89	1228.78
199.11	1230.83
199.33	1208.30
199.55	1173.49
199.77	1273.84
199.99	1169.39
200.21	1269.74
200.43	1265.64
200.65	1243.12
200.87	1214.45
201.09	1265.64
201.31	1241.07
201.53	1310.70
201.75	1304.56
201.97	1300.46
202.19	1249.26
202.41	1316.84
202.63	1228.78
202.85	1304.56
203.07	1245.16
203.29	1183.73
203.51	1187.82
203.73	1251.31
203.95	1380.33
204.17	1247.21
204.39	1273.84
204.61	1298.41
204.83	1273.84
205.05	1228.78
205.27	1279.98
205.49	1294.32
205.71	1284.08
205.93	1239.02
206.15	1308.65
206.37	1314.80
206.59	1286.12
206.81	1292.27
207.03	1159.15
207.25	1279.98
207.47	1277.93
207.69	1294.32
207.91	1279.98
208.13	1302.51
208.34	1255.40
208.56	1232.88
208.78	1263.60
209.00	1284.08
209.22	1232.88
209.44	1351.66
209.66	1183.73
209.88	1257.45
210.10	1222.64
210.32	1236.97
210.54	1288.17
210.76	1267.69
210.98	1212.40
211.20	1271.79
211.42	1263.60
211.64	1212.40
211.86	1236.97
212.08	1249.26
212.30	1288.17
212.52	1171.44
212.74	1288.17
212.96	1232.88
213.17	1247.21
213.39	1212.40
213.61	1310.70
213.83	1247.21
214.05	1265.64
214.27	1322.99
214.49	1300.46
214.71	1277.93
214.93	1325.04
215.15	1263.60
215.37	1273.84
215.59	1193.97
215.81	1302.51
216.03	1275.88
216.24	1273.84
216.46	1343.47
216.68	1314.80
216.90	1355.76
217.12	1259.50
217.34	1243.12
217.56	1265.64
217.78	1271.79
218.00	1279.98
218.22	1247.21
218.44	1239.02
218.66	1220.59
218.87	1216.49
219.09	1257.45
219.31	1341.42
219.53	1236.97
219.75	1189.87
219.97	1253.36
220.19	1275.88
220.41	1251.31
220.63	1277.93
220.85	1288.17
221.06	1226.73
221.28	1306.60
221.50	1224.69
221.72	1232.88
221.94	1200.11
222.16	1265.64
222.38	1265.64
222.60	1257.45
222.82	1306.60
223.03	1292.27
223.25	1306.60
223.47	1251.31
223.69	1263.60
223.91	1249.26
224.13	1261.55
224.35	1288.17
224.57	1327.08
224.78	1265.64
225.00	1261.55
225.22	1322.99
225.44	1253.36
225.66	1253.36
225.88	1306.60
226.10	1257.45
226.32	1312.75
226.53	1306.60
226.75	1296.36
226.97	1279.98
227.19	1277.93
227.41	1224.69
227.63	1337.32
227.85	1286.12
228.06	1277.93
228.28	1249.26
228.50	1257.45
228.72	1226.73
228.94	1255.40
229.16	1294.32
229.37	1300.46
229.59	1302.51
229.81	1247.21
230.03	1228.78
230.25	1247.21
230.47	1322.99
230.69	1257.45
230.90	1288.17
231.12	1236.97
231.34	1247.21
231.56	1251.31
231.78	1243.12
232.00	1214.45
232.21	1300.46
232.43	1308.65
232.65	1273.84
232.87	1214.45
233.09	1306.60
233.30	1265.64
233.52	1249.26
233.74	1269.74
233.96	1200.11
234.18	1314.80
234.40	1273.84
234.61	1255.40
234.83	1222.64
235.05	1245.16
235.27	1273.84
235.49	1325.04
235.70	1314.80
235.92	1296.36
236.14	1284.08
236.36	1322.99
236.58	1290.22
236.79	1279.98
237.01	1263.60
237.23	1271.79
237.45	1294.32
237.67	1241.07
237.88	1257.45
238.10	1265.64
238.32	1304.56
238.54	1333.23
238.76	1234.93
238.97	1302.51
239.19	1241.07
239.41	1304.56
239.63	1261.55
239.85	1241.07
240.06	1322.99
240.28	1265.64
240.50	1251.31
240.72	1169.39
240.93	1230.83
241.15	1247.21
241.37	1269.74
241.59	1257.45
241.81	1249.26
242.02	1169.39
242.24	1298.41
242.46	1320.94
242.68	1257.45
242.89	1216.49
243.11	1296.36
243.33	1345.52
243.55	1249.26
243.76	1259.50
243.98	1320.94
244.20	1298.41
244.42	1243.12
244.64	1247.21
244.85	1298.41
245.07	1261.55
245.29	1267.69
245.51	1259.50
245.72	1273.84
245.94	1212.40
246.16	1327.08
246.38	1273.84
246.59	1255.40
246.81	1247.21
247.03	1312.75
247.24	1294.32
247.46	1239.02
247.68	1198.06
247.90	1253.36
248.11	1251.31
248.33	1226.73
248.55	1286.12
248.77	1253.36
248.98	1255.40
249.20	1271.79
249.42	1320.94
249.64	1271.79
249.85	1284.08
250.07	1171.44
250.29	1208.30
250.50	1335.28
250.72	1300.46
250.94	1251.31
251.16	1273.84
251.37	1306.60
251.59	1247.21
251.81	1302.51
252.02	1269.74
252.24	1294.32
252.46	1282.03
252.68	1263.60
252.89	1296.36
253.11	1306.60
253.33	1279.98
253.54	1306.60
253.76	1329.13
253.98	1259.50
254.20	1255.40
254.41	1298.41
254.63	1271.79
254.85	1216.49
255.06	1247.21
255.28	1208.30
255.50	1302.51
255.71	1318.89
255.93	1284.08
256.15	1226.73
256.36	1286.12
256.58	1286.12
256.80	1269.74
257.02	1218.54
257.23	1253.36
257.45	1226.73
257.67	1282.03
257.88	1322.99
258.10	1265.64
258.32	1232.88
258.53	1232.88
258.75	1282.03
258.97	1239.02
259.18	1331.18
259.40	1259.50
259.62	1251.31
259.83	1249.26
260.05	1271.79
260.27	1325.04
260.48	1304.56
260.70	1292.27
260.92	1200.11
261.13	1249.26
261.35	1228.78
261.57	1288.17
261.78	1300.46
262.00	1208.30
262.22	1253.36
262.43	1257.45
262.65	1339.37
262.86	1261.55
263.08	1327.08
263.30	1294.32
263.51	1298.41
263.73	1220.59
263.95	1247.21
264.16	1271.79
264.38	1261.55
264.60	1282.03
264.81	1261.55
265.03	1341.42
265.25	1220.59
265.46	1271.79
265.68	1312.75
265.89	1230.83
266.11	1228.78
266.33	1261.55
266.54	1312.75
266.76	1247.21
266.98	1245.16
267.19	1331.18
267.41	1196.01
267.62	1261.55
267.84	1314.80
268.06	1228.78
268.27	1257.45
268.49	1277.93
268.70	1275.88
268.92	1257.45
269.14	1249.26
269.35	1265.64
269.57	1196.01
269.79	1253.36
270.00	1163.25
270.22	1353.71
270.43	1247.21
270.65	1316.84
270.87	1251.31
271.08	1290.22
271.30	1279.98
271.51	1322.99
271.73	1239.02
271.95	1228.78
272.16	1255.40
272.38	1296.36
272.59	1171.44
272.81	1241.07
273.02	1216.49
273.24	1224.69
273.46	1200.11
273.67	1294.32
273.89	1171.44
274.10	1206.25
274.32	1322.99
274.54	1345.52
274.75	1255.40
274.97	1269.74
275.18	1306.60
275.40	1331.18
275.61	1267.69
275.83	1239.02
276.05	1277.93
276.26	1241.07
276.48	1292.27
276.69	1208.30
276.91	1212.40
277.12	1241.07
277.34	1204.21
277.55	1310.70
277.77	1247.21
277.99	1279.98
278.20	1290.22
278.42	1294.32
278.63	1183.73
278.85	1296.36
279.06	1263.60
279.28	1292.27
279.49	1265.64
279.71	1273.84
279.93	1282.03
280.14	1265.64
280.36	1200.11
280.57	1308.65
280.79	1253.36
281.00	1310.70
281.22	1196.01
281.43	1261.55
281.65	1282.03
281.86	1286.12
282.08	1261.55
282.29	1243.12
282.51	1230.83
282.73	1296.36
282.94	1265.64
283.16	1241.07
283.37	1243.12
283.59	1288.17
283.80	1286.12
284.02	1226.73
284.23	1232.88
284.45	1261.55
284.66	1224.69
284.88	1275.88
285.09	1288.17
285.31	1206.25
285.52	1179.63
285.74	1216.49
285.95	1279.98
286.17	1255.40
286.38	1312.75
286.60	1296.36
286.81	1302.51
287.03	1298.41
287.24	1286.12
287.46	1284.08
287.67	1241.07
287.89	1275.88
288.10	1333.23
288.32	1273.84
288.53	1224.69
288.75	1279.98
288.96	1232.88
289.18	1277.93
289.39	1269.74
289.61	1304.56
289.82	1212.40
290.04	1249.26
290.25	1224.69
290.47	1296.36
290.68	1249.26
290.90	1279.98
291.11	1306.60
291.33	1339.37
291.54	1275.88
291.76	1337.32
291.97	1304.56
292.18	1282.03
292.40	1200.11
292.61	1290.22
292.83	1239.02
293.04	1306.60
293.26	1245.16
293.47	1306.60
293.69	1298.41
293.90	1337.32
294.12	1261.55
294.33	1308.65
294.55	1322.99
294.76	1298.41
294.97	1261.55
295.19	1288.17
295.40	1310.70
295.62	1294.32
295.83	1198.06
296.05	1282.03
296.26	1218.54
296.48	1247.21
296.69	1193.97
296.90	1284.08
297.12	1232.88
297.33	1259.50
297.55	1230.83
297.76	1271.79
297.98	1273.84
298.19	1298.41
298.41	1290.22
298.62	1259.50
298.83	1277.93
299.05	1263.60
299.26	1263.60
299.48	1275.88
299.69	1325.04
299.90	1239.02
300.12	1269.74
300.33	1279.98
300.55	1249.26
300.76	1241.07
300.98	1241.07
301.19	1290.22
301.40	1210.35
301.62	1343.47
301.83	1241.07
302.05	1286.12
302.26	1279.98
302.47	1265.64
302.69	1277.93
302.90	1257.45
303.12	1239.02
303.33	1304.56
303.54	1265.64
303.76	1288.17
303.97	1236.97
304.19	1331.18
304.40	1255.40
304.61	1239.02
304.83	1302.51
305.04	1337.32
305.26	1200.11
305.47	1304.56
305.68	1259.50
305.90	1273.84
306.11	1255.40
306.33	1249.26
306.54	1279.98
306.75	1306.60
306.97	1288.17
307.18	1292.27
307.39	1204.21
307.61	1251.31
307.82	1232.88
308.04	1345.52
308.25	1214.45
308.46	1279.98
308.68	1269.74
308.89	1306.60
309.10	1298.41
309.32	1241.07
309.53	1286.12
309.74	1271.79
309.96	1320.94
310.17	1261.55
310.39	1322.99
310.60	1314.80
310.81	1175.53
311.03	1304.56
311.24	1275.88
311.45	1259.50
311.67	1265.64
311.88	1292.27
312.09	1220.59
312.31	1308.65
312.52	1310.70
312.73	1265.64
312.95	1153.01
313.16	1290.22
313.37	1204.21
313.59	1284.08
313.80	1230.83
314.01	1288.17
314.23	1273.84
314.44	1325.04
314.65	1271.79
314.87	1271.79
315.08	1271.79
315.29	1220.59
315.51	1214.45
315.72	1282.03
315.93	1304.56
316.15	1261.55
316.36	1234.93
316.57	1271.79
316.79	1290.22
317.00	1263.60
317.21	1271.79
317.43	1286.12
317.64	1325.04
317.85	1169.39
318.07	1251.31
318.28	1210.35
318.49	1263.60
318.70	1271.79
318.92	1216.49
319.13	1265.64
319.34	1325.04
319.56	1257.45
319.77	1222.64
319.98	1329.13
320.20	1269.74
320.41	1273.84
320.62	1331.18
320.83	1304.56
321.05	1292.27
321.26	1273.84
321.47	1320.94
321.69	1245.16
321.90	1327.08
322.11	1279.98
322.32	1312.75
322.54	1294.32
322.75	1241.07
322.96	1216.49
323.18	1234.93
323.39	1298.41
323.60	1251.31
323.81	1322.99
324.03	1243.12
324.24	1288.17
324.45	1257.45
324.66	1216.49
324.88	1228.78
325.09	1261.55
325.30	1304.56
325.52	1243.12
325.73	1269.74
325.94	1302.51
326.15	1284.08
326.37	1329.13
326.58	1267.69
326.79	1259.50
327.00	1273.84
327.22	1306.60
327.43	1294.32
327.64	1245.16
327.85	1224.69
328.07	1255.40
328.28	1222.64
328.49	1259.50
328.70	1279.98
328.92	1298.41
329.13	1222.64
329.34	1232.88
329.55	1216.49
329.76	1294.32
329.98	1179.63
330.19	1306.60
330.40	1253.36
330.61	1286.12
330.83	1275.88
331.04	1267.69
331.25	1232.88
331.46	1306.60
331.68	1327.08
331.89	1310.70
332.10	1232.88
332.31	1241.07
332.52	1249.26
332.74	1265.64
332.95	1290.22
333.16	1298.41
333.37	1302.51
333.58	1263.60
333.80	1273.84
334.01	1304.56
334.22	1308.65
334.43	1251.31
334.64	1243.12
334.86	1320.94
335.07	1296.36
335.28	1316.84
335.49	1204.21
335.70	1239.02
335.92	1236.97
336.13	1290.22
336.34	1312.75
336.55	1341.42
336.76	1269.74
336.98	1339.37
337.19	1208.30
337.40	1316.84
337.61	1239.02
337.82	1275.88
338.04	1218.54
338.25	1222.64
338.46	1296.36
338.67	1273.84
338.88	1253.36
339.09	1230.83
339.31	1265.64
339.52	1345.52
339.73	1239.02
339.94	1249.26
340.15	1187.82
340.36	1302.51
340.58	1329.13
340.79	1310.70
341.00	1224.69
341.21	1232.88
341.42	1275.88
341.63	1257.45
341.85	1230.83
342.06	1218.54
342.27	1275.88
342.48	1304.56
342.69	1355.76
342.90	1198.06
343.12	1236.97
343.33	1239.02
343.54	1290.22
343.75	1263.60
343.96	1245.16
344.17	1296.36
344.38	1269.74
344.60	1261.55
344.81	1257.45
345.02	1325.04
345.23	1224.69
345.44	1298.41
345.65	1314.80
345.86	1341.42
346.07	1257.45
346.29	1347.56
346.50	1222.64
346.71	1300.46
346.92	1236.97
347.13	1228.78
347.34	1284.08
347.55	1208.30
347.76	1234.93
347.98	1310.70
348.19	1259.50
348.40	1318.89
348.61	1312.75
348.82	1263.60
349.03	1318.89
349.24	1247.21
349.45	1296.36
349.66	1208.30
349.88	1210.35
350.09	1347.56
350.30	1236.97
350.51	1212.40
350.72	1204.21
350.93	1275.88
351.14	1288.17
351.35	1277.93
351.56	1253.36
351.77	1241.07
351.99	1261.55
352.20	1267.69
352.41	1220.59
352.62	1279.98
352.83	1265.64
353.04	1327.08
353.25	1226.73
353.46	1306.60
353.67	1271.79
353.88	1261.55
354.09	1275.88
354.30	1232.88
354.52	1255.40
354.73	1275.88
354.94	1239.02
355.15	1339.37
355.36	1310.70
355.57	1210.35
355.78	1230.83
355.99	1234.93
356.20	1210.35
356.41	1269.74
356.62	1308.65
356.83	1216.49
357.04	1255.40
357.25	1318.89
357.46	1271.79
357.68	1224.69
357.89	1212.40
358.10	1277.93
358.31	1288.17
358.52	1267.69
358.73	1318.89
358.94	1271.79
359.15	1267.69
359.36	1245.16
359.57	1271.79
359.78	1255.40
359.99	1300.46
360.20	1279.98
360.41	1220.59
360.62	1277.93
360.83	1277.93
361.04	1236.97
361.25	1273.84
361.46	1230.83
361.67	1230.83
361.88	1193.97
362.09	1288.17
362.30	1245.16
362.51	1273.84
362.72	1300.46
362.93	1302.51
363.14	1267.69
363.35	1249.26
363.56	1316.84
363.78	1269.74
363.99	1247.21
364.20	1255.40
364.41	1265.64
364.62	1226.73
364.83	1273.84
365.04	1316.84
365.25	1298.41
365.46	1337.32
365.67	1277.93
365.88	1259.50
366.09	1257.45
366.30	1300.46
366.51	1327.08
366.72	1232.88
366.93	1255.40
367.14	1325.04
367.35	1259.50
367.56	1347.56
367.77	1210.35
367.98	1263.60
368.18	1282.03
368.39	1243.12
368.60	1282.03
368.81	1206.25
369.02	1263.60
369.23	1320.94
369.44	1245.16
369.65	1181.68
369.86	1261.55
370.07	1271.79
370.28	1269.74
370.49	1236.97
370.70	1269.74
370.91	1273.84
371.12	1226.73
371.33	1214.45
371.54	1232.88
371.75	1286.12
371.96	1222.64
372.17	1251.31
372.38	1273.84
372.59	1290.22
372.80	1204.21
373.01	1181.68
373.22	1253.36
373.43	1232.88
373.64	1294.32
373.85	1263.60
374.06	1261.55
374.26	1234.93
374.47	1245.16
374.68	1286.12
374.89	1284.08
375.10	1267.69
375.31	1316.84
375.52	1318.89
375.73	1265.64
375.94	1222.64
376.15	1275.88
376.36	1312.75
376.57	1269.74
376.78	1230.83
376.99	1290.22
377.20	1294.32
377.40	1247.21
377.61	1290.22
377.82	1273.84
378.03	1249.26
378.24	1257.45
378.45	1251.31
378.66	1249.26
378.87	1249.26
379.08	1308.65
379.29	1200.11
379.50	1259.50
379.71	1228.78
379.91	1302.51
380.12	1241.07
380.33	1304.56
380.54	1224.69
380.75	1232.88
380.96	1269.74
381.17	1269.74
381.38	1273.84
381.59	1296.36
381.80	1277.93
382.00	1286.12
382.21	1310.70
382.42	1290.22
382.63	1341.42
382.84	1261.55
383.05	1261.55
383.26	1349.61
383.47	1320.94
383.68	1308.65
383.88	1341.42
384.09	1253.36
384.30	1253.36
384.51	1208.30
384.72	1247.21
384.93	1314.80
385.14	1257.45
385.35	1275.88
385.55	1282.03
385.76	1232.88
385.97	1251.31
386.18	1234.93
386.39	1220.59
386.60	1267.69
386.81	1282.03
387.02	1255.40
387.22	1275.88
387.43	1263.60
387.64	1279.98
387.85	1239.02
388.06	1304.56
388.27	1228.78
388.48	1247.21
388.68	1259.50
388.89	1239.02
389.10	1339.37
389.31	1277.93
389.52	1267.69
389.73	1261.55
389.93	1257.45
390.14	1282.03
390.35	1255.40
390.56	1273.84
390.77	1304.56
390.98	1206.25
391.18	1228.78
391.39	1230.83
391.60	1327.08
391.81	1261.55
392.02	1298.41
392.23	1282.03
392.43	1269.74
392.64	1234.93
392.85	1257.45
393.06	1251.31
393.27	1257.45
393.47	1214.45
393.68	1265.64
393.89	1304.56
394.10	1273.84
394.31	1286.12
394.52	1265.64
394.72	1339.37
394.93	1284.08
395.14	1189.87
395.35	1308.65
395.56	1261.55
395.76	1339.37
395.97	1327.08
396.18	1202.16
396.39	1208.30
396.60	1261.55
396.80	1306.60
397.01	1245.16
397.22	1255.40
397.43	1296.36
397.64	1255.40
397.84	1279.98
398.05	1312.75
398.26	1318.89
398.47	1269.74
398.67	1279.98
398.88	1263.60
399.09	1327.08
399.30	1224.69
399.51	1263.60
399.71	1239.02
399.92	1239.02
400.13	1239.02
400.34	1255.40
400.54	1298.41
400.75	1331.18
400.96	1210.35
401.17	1275.88
401.37	1216.49
401.58	1208.30
401.79	1243.12
402.00	1314.80
402.21	1265.64
402.41	1298.41
402.62	1216.49
402.83	1247.21
403.04	1277.93
403.24	1265.64
403.45	1247.21
403.66	1300.46
403.87	1243.12
404.07	1241.07
404.28	1234.93
404.49	1300.46
404.70	1296.36
404.90	1220.59
405.11	1249.26
405.32	1265.64
405.52	1296.36
405.73	1263.60
405.94	1234.93
406.15	1269.74
406.35	1247.21
406.56	1335.28
406.77	1253.36
406.98	1277.93
407.18	1331.18
407.39	1263.60
407.60	1245.16
407.80	1232.88
408.01	1263.60
408.22	1210.35
408.43	1187.82
408.63	1263.60
408.84	1267.69
409.05	1286.12
409.25	1302.51
409.46	1214.45
409.67	1271.79
409.88	1263.60
410.08	1236.97
410.29	1320.94
410.50	1214.45
410.70	1337.32
410.91	1273.84
411.12	1306.60
411.32	1216.49
411.53	1224.69
411.74	1228.78
411.95	1306.60
412.15	1288.17
412.36	1239.02
412.57	1226.73
412.77	1290.22
412.98	1269.74
413.19	1284.08
413.39	1159.15
413.60	1275.88
413.81	1322.99
414.01	1306.60
414.22	1241.07
414.43	1284.08
414.63	1218.54
414.84	1261.55
415.05	1296.36
415.25	1234.93
415.46	1275.88
415.67	1282.03
415.87	1171.44
416.08	1251.31
416.29	1275.88
416.49	1300.46
416.70	1202.16
416.91	1277.93
417.11	1296.36
417.32	1273.84
417.53	1271.79
417.73	1376.24
417.94	1257.45
418.15	1386.47
418.35	1191.92
418.56	1214.45
418.77	1263.60
418.97	1279.98
419.18	1265.64
419.38	1275.88
419.59	1267.69
419.80	1257.45
420.00	1226.73
420.21	1275.88
420.42	1249.26
420.62	1279.98
420.83	1189.87
421.04	1282.03
421.24	1257.45
421.45	1228.78
421.65	1273.84
421.86	1290.22
422.07	1257.45
422.27	1286.12
422.48	1294.32
422.69	1271.79
422.89	1308.65
423.10	1304.56
423.30	1200.11
423.51	1271.79
423.72	1279.98
423.92	1327.08
424.13	1234.93
424.33	1298.41
424.54	1214.45
424.75	1261.55
424.95	1253.36
425.16	1212.40
425.36	1198.06
425.57	1263.60
425.78	1292.27
425.98	1279.98
426.19	1284.08
426.39	1247.21
426.60	1279.98
426.81	1241.07
427.01	1222.64
427.22	1232.88
427.42	1314.80
427.63	1146.86
427.83	1290.22
428.04	1318.89
428.25	1282.03
428.45	1312.75
428.66	1230.83
428.86	1279.98
429.07	1288.17
429.28	1232.88
429.48	1245.16
429.69	1351.66
429.89	1286.12
430.10	1249.26
430.30	1306.60
430.51	1339.37
430.71	1212.40
430.92	1279.98
431.13	1298.41
431.33	1167.34
431.54	1216.49
431.74	1331.18
431.95	1257.45
432.15	1243.12
432.36	1234.93
432.56	1290.22
432.77	1290.22
432.98	1288.17
433.18	1243.12
433.39	1286.12
433.59	1259.50
433.80	1316.84
434.00	1273.84
434.21	1257.45
434.41	1329.13
434.62	1306.60
434.82	1249.26
435.03	1271.79
435.23	1255.40
435.44	1249.26
435.64	1220.59
435.85	1333.23
436.06	1263.60
436.26	1230.83
436.47	1185.77
436.67	1288.17
436.88	1265.64
437.08	1304.56
437.29	1314.80
437.49	1306.60
437.70	1308.65
437.90	1298.41
438.11	1220.59
438.31	1226.73
438.52	1255.40
438.72	1290.22
438.93	1265.64
439.13	1327.08
439.34	1335.28
439.54	1228.78
439.75	1273.84
439.95	1234.93
440.16	1349.61
440.36	1253.36
440.57	1218.54
440.77	1292.27
440.98	1228.78
441.18	1300.46
441.39	1267.69
441.59	1277.93
441.80	1232.88
442.00	1314.80
442.21	1349.61
442.41	1249.26
442.62	1288.17
442.82	1214.45
443.02	1304.56
443.23	1314.80
443.43	1228.78
443.64	1327.08
443.84	1333.23
444.05	1277.93
444.25	1247.21
444.46	1267.69
444.66	1255.40
444.87	1271.79
445.07	1335.28
445.28	1337.32
445.48	1300.46
445.69	1351.66
445.89	1257.45
446.09	1265.64
446.30	1329.13
446.50	1239.02
446.71	1275.88
446.91	1245.16
447.12	1257.45
447.32	1222.64
447.53	1296.36
447.73	1200.11
447.93	1286.12
448.14	1345.52
448.34	1265.64
448.55	1304.56
448.75	1206.25
448.96	1232.88
449.16	1349.61
449.36	1286.12
449.57	1275.88
449.77	1277.93
449.98	1241.07
450.18	1261.55
450.39	1247.21
450.59	1273.84
450.79	1302.51
451.00	1298.41
451.20	1202.16
451.41	1228.78
451.61	1177.58
451.81	1298.41
452.02	1316.84
452.22	1255.40
452.43	1296.36
452.63	1286.12
