SpectraSuite Data File
++++++++++++++++++++++++++++++++++++
Date: Sun Apr 03 19:55:24 CEST 2016
User: root
Dark Spectrum Present: No
Reference Spectrum Present: No
Number of Sampled Component Spectra: 1
Spectrometers: USB4C02835
Integration Time (usec): 10000 (USB4C02835)
Spectra Averaged: 1 (USB4C02835)
Boxcar Smoothing: 0 (USB4C02835)
Correct for Electrical Dark: No (USB4C02835)
Strobe/Lamp Enabled: No (USB4C02835)
Correct for Detector Non-linearity: No (USB4C02835)
Correct for Stray Light: No (USB4C02835)
Number of Pixels in Processed Spectrum: 3648
>>>>>Begin Processed Spectral Data<<<<<
177.47	1232.88
177.69	1232.88
177.91	1232.88
178.13	1275.88
178.36	1257.45
178.58	1239.02
178.80	1294.32
179.02	1292.27
179.24	1214.45
179.46	1316.84
179.68	1249.26
179.90	1239.02
180.13	1284.08
180.35	1275.88
180.57	1255.40
180.79	1241.07
181.01	1251.31
181.23	1331.18
181.45	1230.83
181.67	1222.64
181.90	1228.78
182.12	1277.93
182.34	1241.07
182.56	1261.55
182.78	1253.36
183.00	1286.12
183.22	1265.64
183.44	1302.51
183.66	1261.55
183.89	1275.88
184.11	1277.93
184.33	1245.16
184.55	1265.64
184.77	1327.08
184.99	1275.88
185.21	1271.79
185.43	1206.25
185.65	1273.84
185.87	1322.99
186.10	1265.64
186.32	1253.36
186.54	1298.41
186.76	1259.50
186.98	1241.07
187.20	1263.60
187.42	1236.97
187.64	1343.47
187.86	1290.22
188.08	1306.60
188.30	1236.97
188.52	1325.04
188.75	1243.12
188.97	1329.13
189.19	1318.89
189.41	1288.17
189.63	1218.54
189.85	1306.60
190.07	1181.68
190.29	1296.36
190.51	1275.88
190.73	1277.93
190.95	1316.84
191.17	1335.28
191.39	1331.18
191.61	1236.97
191.84	1241.07
192.06	1277.93
192.28	1282.03
192.50	1245.16
192.72	1294.32
192.94	1249.26
193.16	1275.88
193.38	1226.73
193.60	1286.12
193.82	1339.37
194.04	1322.99
194.26	1331.18
194.48	1261.55
194.70	1286.12
194.92	1322.99
195.14	1224.69
195.36	1306.60
195.58	1322.99
195.80	1322.99
196.02	1265.64
196.24	1265.64
196.46	1325.04
196.69	1249.26
196.91	1277.93
197.13	1308.65
197.35	1210.35
197.57	1294.32
197.79	1327.08
198.01	1236.97
198.23	1208.30
198.45	1257.45
198.67	1259.50
198.89	1298.41
199.11	1251.31
199.33	1265.64
199.55	1243.12
199.77	1288.17
199.99	1267.69
200.21	1300.46
200.43	1273.84
200.65	1275.88
200.87	1218.54
201.09	1316.84
201.31	1232.88
201.53	1267.69
201.75	1296.36
201.97	1230.83
202.19	1294.32
202.41	1294.32
202.63	1259.50
202.85	1257.45
203.07	1298.41
203.29	1282.03
203.51	1222.64
203.73	1275.88
203.95	1277.93
204.17	1290.22
204.39	1308.65
204.61	1206.25
204.83	1279.98
205.05	1236.97
205.27	1310.70
205.49	1226.73
205.71	1257.45
205.93	1298.41
206.15	1318.89
206.37	1257.45
206.59	1269.74
206.81	1241.07
207.03	1228.78
207.25	1251.31
207.47	1202.16
207.69	1230.83
207.91	1310.70
208.13	1263.60
208.34	1167.34
208.56	1329.13
208.78	1175.53
209.00	1214.45
209.22	1282.03
209.44	1290.22
209.66	1322.99
209.88	1249.26
210.10	1243.12
210.32	1263.60
210.54	1267.69
210.76	1206.25
210.98	1261.55
211.20	1282.03
211.42	1290.22
211.64	1236.97
211.86	1241.07
212.08	1325.04
212.30	1259.50
212.52	1292.27
212.74	1249.26
212.96	1296.36
213.17	1261.55
213.39	1265.64
213.61	1243.12
213.83	1306.60
214.05	1187.82
214.27	1245.16
214.49	1234.93
214.71	1288.17
214.93	1290.22
215.15	1226.73
215.37	1298.41
215.59	1261.55
215.81	1265.64
216.03	1236.97
216.24	1292.27
216.46	1183.73
216.68	1277.93
216.90	1306.60
217.12	1304.56
217.34	1241.07
217.56	1226.73
217.78	1196.01
218.00	1236.97
218.22	1251.31
218.44	1302.51
218.66	1284.08
218.87	1181.68
219.09	1261.55
219.31	1304.56
219.53	1232.88
219.75	1337.32
219.97	1224.69
220.19	1257.45
220.41	1232.88
220.63	1204.21
220.85	1236.97
221.06	1292.27
221.28	1230.83
221.50	1202.16
221.72	1284.08
221.94	1290.22
222.16	1269.74
222.38	1234.93
222.60	1286.12
222.82	1273.84
223.03	1214.45
223.25	1257.45
223.47	1271.79
223.69	1218.54
223.91	1282.03
224.13	1322.99
224.35	1243.12
224.57	1241.07
224.78	1267.69
225.00	1288.17
225.22	1208.30
225.44	1300.46
225.66	1253.36
225.88	1249.26
226.10	1294.32
226.32	1249.26
226.53	1290.22
226.75	1294.32
226.97	1335.28
227.19	1255.40
227.41	1261.55
227.63	1241.07
227.85	1267.69
228.06	1282.03
228.28	1275.88
228.50	1247.21
228.72	1306.60
228.94	1298.41
229.16	1220.59
229.37	1279.98
229.59	1265.64
229.81	1259.50
230.03	1286.12
230.25	1316.84
230.47	1230.83
230.69	1279.98
230.90	1286.12
231.12	1239.02
231.34	1292.27
231.56	1300.46
231.78	1269.74
232.00	1310.70
232.21	1224.69
232.43	1282.03
232.65	1243.12
232.87	1224.69
233.09	1234.93
233.30	1241.07
233.52	1222.64
233.74	1269.74
233.96	1257.45
234.18	1232.88
234.40	1284.08
234.61	1263.60
234.83	1224.69
235.05	1261.55
235.27	1282.03
235.49	1265.64
235.70	1251.31
235.92	1259.50
236.14	1185.77
236.36	1259.50
236.58	1257.45
236.79	1232.88
237.01	1226.73
237.23	1214.45
237.45	1212.40
237.67	1249.26
237.88	1249.26
238.10	1329.13
238.32	1286.12
238.54	1220.59
238.76	1226.73
238.97	1271.79
239.19	1259.50
239.41	1300.46
239.63	1208.30
239.85	1241.07
240.06	1245.16
240.28	1269.74
240.50	1294.32
240.72	1222.64
240.93	1290.22
241.15	1343.47
241.37	1245.16
241.59	1208.30
241.81	1236.97
242.02	1335.28
242.24	1357.80
242.46	1210.35
242.68	1288.17
242.89	1337.32
243.11	1239.02
243.33	1224.69
243.55	1259.50
243.76	1261.55
243.98	1300.46
244.20	1228.78
244.42	1247.21
244.64	1296.36
244.85	1290.22
245.07	1304.56
245.29	1286.12
245.51	1294.32
245.72	1157.10
245.94	1263.60
246.16	1253.36
246.38	1271.79
246.59	1255.40
246.81	1275.88
247.03	1224.69
247.24	1292.27
247.46	1333.23
247.68	1241.07
247.90	1265.64
248.11	1228.78
248.33	1234.93
248.55	1255.40
248.77	1335.28
248.98	1210.35
249.20	1200.11
249.42	1236.97
249.64	1263.60
249.85	1263.60
250.07	1259.50
250.29	1247.21
250.50	1286.12
250.72	1318.89
250.94	1251.31
251.16	1339.37
251.37	1275.88
251.59	1245.16
251.81	1265.64
252.02	1277.93
252.24	1206.25
252.46	1263.60
252.68	1200.11
252.89	1273.84
253.11	1167.34
253.33	1230.83
253.54	1220.59
253.76	1241.07
253.98	1308.65
254.20	1232.88
254.41	1271.79
254.63	1247.21
254.85	1284.08
255.06	1263.60
255.28	1226.73
255.50	1269.74
255.71	1263.60
255.93	1255.40
256.15	1234.93
256.36	1255.40
256.58	1279.98
256.80	1306.60
257.02	1329.13
257.23	1241.07
257.45	1212.40
257.67	1204.21
257.88	1284.08
258.10	1314.80
258.32	1275.88
258.53	1253.36
258.75	1261.55
258.97	1318.89
259.18	1261.55
259.40	1232.88
259.62	1257.45
259.83	1259.50
260.05	1296.36
260.27	1277.93
260.48	1261.55
260.70	1232.88
260.92	1335.28
261.13	1298.41
261.35	1185.77
261.57	1228.78
261.78	1241.07
262.00	1273.84
262.22	1284.08
262.43	1277.93
262.65	1263.60
262.86	1329.13
263.08	1239.02
263.30	1273.84
263.51	1163.25
263.73	1310.70
263.95	1314.80
264.16	1226.73
264.38	1265.64
264.60	1318.89
264.81	1247.21
265.03	1314.80
265.25	1265.64
265.46	1302.51
265.68	1241.07
265.89	1191.92
266.11	1255.40
266.33	1331.18
266.54	1241.07
266.76	1202.16
266.98	1304.56
267.19	1322.99
267.41	1310.70
267.62	1247.21
267.84	1236.97
268.06	1239.02
268.27	1239.02
268.49	1265.64
268.70	1255.40
268.92	1277.93
269.14	1273.84
269.35	1222.64
269.57	1230.83
269.79	1341.42
270.00	1271.79
270.22	1263.60
270.43	1204.21
270.65	1294.32
270.87	1263.60
271.08	1312.75
271.30	1296.36
271.51	1282.03
271.73	1302.51
271.95	1228.78
272.16	1243.12
272.38	1366.00
272.59	1247.21
272.81	1310.70
273.02	1263.60
273.24	1294.32
273.46	1261.55
273.67	1333.23
273.89	1249.26
274.10	1306.60
274.32	1277.93
274.54	1218.54
274.75	1269.74
274.97	1298.41
275.18	1255.40
275.40	1327.08
275.61	1329.13
275.83	1198.06
276.05	1200.11
276.26	1247.21
276.48	1247.21
276.69	1247.21
276.91	1234.93
277.12	1320.94
277.34	1271.79
277.55	1234.93
277.77	1196.01
277.99	1292.27
278.20	1269.74
278.42	1193.97
278.63	1271.79
278.85	1361.90
279.06	1226.73
279.28	1316.84
279.49	1296.36
279.71	1236.97
279.93	1259.50
280.14	1312.75
280.36	1249.26
280.57	1257.45
280.79	1257.45
281.00	1241.07
281.22	1273.84
281.43	1314.80
281.65	1277.93
281.86	1314.80
282.08	1273.84
282.29	1269.74
282.51	1257.45
282.73	1286.12
282.94	1308.65
283.16	1302.51
283.37	1214.45
283.59	1239.02
283.80	1243.12
284.02	1226.73
284.23	1298.41
284.45	1257.45
284.66	1236.97
284.88	1253.36
285.09	1241.07
285.31	1290.22
285.52	1298.41
285.74	1322.99
285.95	1243.12
286.17	1230.83
286.38	1236.97
286.60	1259.50
286.81	1275.88
287.03	1282.03
287.24	1261.55
287.46	1292.27
287.67	1308.65
287.89	1259.50
288.10	1300.46
288.32	1261.55
288.53	1200.11
288.75	1232.88
288.96	1243.12
289.18	1251.31
289.39	1273.84
289.61	1333.23
289.82	1214.45
290.04	1150.96
290.25	1279.98
290.47	1294.32
290.68	1304.56
290.90	1308.65
291.11	1265.64
291.33	1241.07
291.54	1218.54
291.76	1232.88
291.97	1271.79
292.18	1261.55
292.40	1175.53
292.61	1239.02
292.83	1300.46
293.04	1273.84
293.26	1208.30
293.47	1290.22
293.69	1224.69
293.90	1284.08
294.12	1294.32
294.33	1222.64
294.55	1322.99
294.76	1292.27
294.97	1298.41
295.19	1251.31
295.40	1275.88
295.62	1335.28
295.83	1296.36
296.05	1306.60
296.26	1263.60
296.48	1247.21
296.69	1241.07
296.90	1288.17
297.12	1220.59
297.33	1275.88
297.55	1265.64
297.76	1286.12
297.98	1271.79
298.19	1286.12
298.41	1241.07
298.62	1243.12
298.83	1234.93
299.05	1279.98
299.26	1261.55
299.48	1288.17
299.69	1267.69
299.90	1370.09
300.12	1322.99
300.33	1218.54
300.55	1265.64
300.76	1341.42
300.98	1292.27
301.19	1327.08
301.40	1175.53
301.62	1279.98
301.83	1265.64
302.05	1230.83
302.26	1316.84
302.47	1306.60
302.69	1292.27
302.90	1267.69
303.12	1247.21
303.33	1322.99
303.54	1306.60
303.76	1239.02
303.97	1251.31
304.19	1296.36
304.40	1261.55
304.61	1236.97
304.83	1331.18
305.04	1189.87
305.26	1294.32
305.47	1296.36
305.68	1220.59
305.90	1267.69
306.11	1290.22
306.33	1265.64
306.54	1263.60
306.75	1296.36
306.97	1224.69
307.18	1261.55
307.39	1310.70
307.61	1261.55
307.82	1271.79
308.04	1208.30
308.25	1257.45
308.46	1288.17
308.68	1243.12
308.89	1265.64
309.10	1204.21
309.32	1310.70
309.53	1230.83
309.74	1273.84
309.96	1263.60
310.17	1296.36
310.39	1298.41
310.60	1216.49
310.81	1277.93
311.03	1339.37
311.24	1232.88
311.45	1255.40
311.67	1245.16
311.88	1232.88
312.09	1331.18
312.31	1253.36
312.52	1239.02
312.73	1296.36
312.95	1267.69
313.16	1222.64
313.37	1265.64
313.59	1243.12
313.80	1288.17
314.01	1216.49
314.23	1327.08
314.44	1255.40
314.65	1273.84
314.87	1271.79
315.08	1261.55
315.29	1236.97
315.51	1286.12
315.72	1234.93
315.93	1247.21
316.15	1249.26
316.36	1279.98
316.57	1216.49
316.79	1245.16
317.00	1230.83
317.21	1216.49
317.43	1249.26
317.64	1257.45
317.85	1308.65
318.07	1275.88
318.28	1282.03
318.49	1214.45
318.70	1253.36
318.92	1277.93
319.13	1245.16
319.34	1241.07
319.56	1288.17
319.77	1185.77
319.98	1300.46
320.20	1257.45
320.41	1300.46
320.62	1271.79
320.83	1310.70
321.05	1284.08
321.26	1251.31
321.47	1263.60
321.69	1312.75
321.90	1243.12
322.11	1230.83
322.32	1308.65
322.54	1255.40
322.75	1222.64
322.96	1306.60
323.18	1279.98
323.39	1277.93
323.60	1163.25
323.81	1290.22
324.03	1263.60
324.24	1236.97
324.45	1185.77
324.66	1322.99
324.88	1243.12
325.09	1249.26
325.30	1222.64
325.52	1241.07
325.73	1200.11
325.94	1222.64
326.15	1277.93
326.37	1226.73
326.58	1296.36
326.79	1294.32
327.00	1226.73
327.22	1284.08
327.43	1214.45
327.64	1239.02
327.85	1380.33
328.07	1279.98
328.28	1294.32
328.49	1282.03
328.70	1288.17
328.92	1216.49
329.13	1279.98
329.34	1220.59
329.55	1275.88
329.76	1261.55
329.98	1222.64
330.19	1232.88
330.40	1290.22
330.61	1316.84
330.83	1271.79
331.04	1296.36
331.25	1263.60
331.46	1263.60
331.68	1204.21
331.89	1251.31
332.10	1210.35
332.31	1306.60
332.52	1318.89
332.74	1290.22
332.95	1214.45
333.16	1232.88
333.37	1261.55
333.58	1282.03
333.80	1308.65
334.01	1308.65
334.22	1263.60
334.43	1282.03
334.64	1232.88
334.86	1312.75
335.07	1269.74
335.28	1263.60
335.49	1236.97
335.70	1210.35
335.92	1320.94
336.13	1189.87
336.34	1247.21
336.55	1337.32
336.76	1341.42
336.98	1269.74
337.19	1304.56
337.40	1335.28
337.61	1241.07
337.82	1304.56
338.04	1245.16
338.25	1296.36
338.46	1322.99
338.67	1284.08
338.88	1173.49
339.09	1232.88
339.31	1251.31
339.52	1273.84
339.73	1316.84
339.94	1273.84
340.15	1290.22
340.36	1310.70
340.58	1282.03
340.79	1302.51
341.00	1300.46
341.21	1298.41
341.42	1265.64
341.63	1271.79
341.85	1249.26
342.06	1214.45
342.27	1234.93
342.48	1208.30
342.69	1234.93
342.90	1314.80
343.12	1298.41
343.33	1228.78
343.54	1267.69
343.75	1189.87
343.96	1265.64
344.17	1310.70
344.38	1236.97
344.60	1257.45
344.81	1245.16
345.02	1265.64
345.23	1308.65
345.44	1292.27
345.65	1243.12
345.86	1259.50
346.07	1249.26
346.29	1279.98
346.50	1294.32
346.71	1316.84
346.92	1251.31
347.13	1222.64
347.34	1200.11
347.55	1269.74
347.76	1196.01
347.98	1212.40
348.19	1212.40
348.40	1325.04
348.61	1257.45
348.82	1290.22
349.03	1255.40
349.24	1263.60
349.45	1286.12
349.66	1277.93
349.88	1314.80
350.09	1259.50
350.30	1290.22
350.51	1253.36
350.72	1341.42
350.93	1265.64
351.14	1306.60
351.35	1259.50
351.56	1308.65
351.77	1232.88
351.99	1253.36
352.20	1273.84
352.41	1284.08
352.62	1230.83
352.83	1206.25
353.04	1216.49
353.25	1218.54
353.46	1259.50
353.67	1228.78
353.88	1269.74
354.09	1263.60
354.30	1222.64
354.52	1279.98
354.73	1337.32
354.94	1247.21
355.15	1304.56
355.36	1193.97
355.57	1210.35
355.78	1155.05
355.99	1249.26
356.20	1271.79
356.41	1271.79
356.62	1279.98
356.83	1226.73
357.04	1247.21
357.25	1296.36
357.46	1259.50
357.68	1263.60
357.89	1230.83
358.10	1267.69
358.31	1273.84
358.52	1277.93
358.73	1232.88
358.94	1267.69
359.15	1253.36
359.36	1286.12
359.57	1271.79
359.78	1271.79
359.99	1212.40
360.20	1298.41
360.41	1236.97
360.62	1196.01
360.83	1271.79
361.04	1284.08
361.25	1247.21
361.46	1273.84
361.67	1288.17
361.88	1247.21
362.09	1314.80
362.30	1273.84
362.51	1249.26
362.72	1251.31
362.93	1279.98
363.14	1277.93
363.35	1255.40
363.56	1253.36
363.78	1294.32
363.99	1257.45
364.20	1269.74
364.41	1239.02
364.62	1298.41
364.83	1271.79
365.04	1339.37
365.25	1298.41
365.46	1286.12
365.67	1216.49
365.88	1294.32
366.09	1271.79
366.30	1247.21
366.51	1314.80
366.72	1255.40
366.93	1241.07
367.14	1284.08
367.35	1279.98
367.56	1239.02
367.77	1331.18
367.98	1255.40
368.18	1306.60
368.39	1312.75
368.60	1320.94
368.81	1241.07
369.02	1263.60
369.23	1265.64
369.44	1267.69
369.65	1200.11
369.86	1234.93
370.07	1239.02
370.28	1271.79
370.49	1206.25
370.70	1218.54
370.91	1282.03
371.12	1234.93
371.33	1212.40
371.54	1253.36
371.75	1329.13
371.96	1257.45
372.17	1222.64
372.38	1327.08
372.59	1185.77
372.80	1243.12
373.01	1271.79
373.22	1282.03
373.43	1294.32
373.64	1318.89
373.85	1286.12
374.06	1273.84
374.26	1306.60
374.47	1351.66
374.68	1314.80
374.89	1282.03
375.10	1298.41
375.31	1292.27
375.52	1167.34
375.73	1247.21
375.94	1241.07
376.15	1347.56
376.36	1257.45
376.57	1251.31
376.78	1269.74
376.99	1284.08
377.20	1220.59
377.40	1298.41
377.61	1298.41
377.82	1327.08
378.03	1261.55
378.24	1302.51
378.45	1304.56
378.66	1253.36
378.87	1306.60
379.08	1222.64
379.29	1277.93
379.50	1253.36
379.71	1314.80
379.91	1275.88
380.12	1320.94
380.33	1167.34
380.54	1234.93
380.75	1263.60
380.96	1265.64
381.17	1400.81
381.38	1236.97
381.59	1271.79
381.80	1361.90
382.00	1265.64
382.21	1294.32
382.42	1177.58
382.63	1249.26
382.84	1294.32
383.05	1292.27
383.26	1243.12
383.47	1241.07
383.68	1243.12
383.88	1273.84
384.09	1292.27
384.30	1216.49
384.51	1292.27
384.72	1204.21
384.93	1263.60
385.14	1345.52
385.35	1226.73
385.55	1222.64
385.76	1208.30
385.97	1261.55
386.18	1269.74
386.39	1284.08
386.60	1282.03
386.81	1279.98
387.02	1241.07
387.22	1243.12
387.43	1222.64
387.64	1302.51
387.85	1265.64
388.06	1298.41
388.27	1290.22
388.48	1255.40
388.68	1290.22
388.89	1218.54
389.10	1277.93
389.31	1249.26
389.52	1236.97
389.73	1298.41
389.93	1222.64
390.14	1304.56
390.35	1296.36
390.56	1251.31
390.77	1329.13
390.98	1269.74
391.18	1310.70
391.39	1249.26
391.60	1331.18
391.81	1322.99
392.02	1208.30
392.23	1347.56
392.43	1249.26
392.64	1228.78
392.85	1208.30
393.06	1279.98
393.27	1214.45
393.47	1232.88
393.68	1273.84
393.89	1208.30
394.10	1294.32
394.31	1275.88
394.52	1153.01
394.72	1204.21
394.93	1302.51
395.14	1236.97
395.35	1277.93
395.56	1271.79
395.76	1241.07
395.97	1286.12
396.18	1265.64
396.39	1300.46
396.60	1261.55
396.80	1226.73
397.01	1261.55
397.22	1245.16
397.43	1322.99
397.64	1218.54
397.84	1271.79
398.05	1282.03
398.26	1226.73
398.47	1273.84
398.67	1286.12
398.88	1214.45
399.09	1216.49
399.30	1314.80
399.51	1284.08
399.71	1257.45
399.92	1277.93
400.13	1261.55
400.34	1286.12
400.54	1241.07
400.75	1288.17
400.96	1300.46
401.17	1279.98
401.37	1216.49
401.58	1200.11
401.79	1253.36
402.00	1193.97
402.21	1282.03
402.41	1232.88
402.62	1251.31
402.83	1224.69
403.04	1232.88
403.24	1236.97
403.45	1224.69
403.66	1228.78
403.87	1259.50
404.07	1282.03
404.28	1249.26
404.49	1218.54
404.70	1263.60
404.90	1224.69
405.11	1163.25
405.32	1224.69
405.52	1255.40
405.73	1306.60
405.94	1277.93
406.15	1271.79
406.35	1263.60
406.56	1277.93
406.77	1236.97
406.98	1288.17
407.18	1288.17
407.39	1298.41
407.60	1306.60
407.80	1288.17
408.01	1255.40
408.22	1273.84
408.43	1230.83
408.63	1284.08
408.84	1265.64
409.05	1273.84
409.25	1228.78
409.46	1290.22
409.67	1277.93
409.88	1220.59
410.08	1198.06
410.29	1239.02
410.50	1269.74
410.70	1331.18
410.91	1265.64
411.12	1257.45
411.32	1232.88
411.53	1255.40
411.74	1232.88
411.95	1308.65
412.15	1273.84
412.36	1300.46
412.57	1355.76
412.77	1288.17
412.98	1198.06
413.19	1234.93
413.39	1216.49
413.60	1181.68
413.81	1284.08
414.01	1279.98
414.22	1265.64
414.43	1271.79
414.63	1292.27
414.84	1347.56
415.05	1239.02
415.25	1226.73
415.46	1273.84
415.67	1222.64
415.87	1302.51
416.08	1218.54
416.29	1292.27
416.49	1232.88
416.70	1261.55
416.91	1294.32
417.11	1273.84
417.32	1208.30
417.53	1255.40
417.73	1263.60
417.94	1216.49
418.15	1273.84
418.35	1255.40
418.56	1253.36
418.77	1234.93
418.97	1284.08
419.18	1241.07
419.38	1296.36
419.59	1236.97
419.80	1290.22
420.00	1279.98
420.21	1355.76
420.42	1302.51
420.62	1218.54
420.83	1193.97
421.04	1275.88
421.24	1306.60
421.45	1325.04
421.65	1257.45
421.86	1292.27
422.07	1275.88
422.27	1294.32
422.48	1265.64
422.69	1259.50
422.89	1222.64
423.10	1271.79
423.30	1247.21
423.51	1282.03
423.72	1243.12
423.92	1288.17
424.13	1269.74
424.33	1243.12
424.54	1284.08
424.75	1214.45
424.95	1298.41
425.16	1214.45
425.36	1284.08
425.57	1267.69
425.78	1312.75
425.98	1284.08
426.19	1224.69
426.39	1232.88
426.60	1265.64
426.81	1247.21
427.01	1298.41
427.22	1265.64
427.42	1292.27
427.63	1243.12
427.83	1255.40
428.04	1236.97
428.25	1318.89
428.45	1333.23
428.66	1300.46
428.86	1306.60
429.07	1341.42
429.28	1245.16
429.48	1247.21
429.69	1282.03
429.89	1277.93
430.10	1251.31
430.30	1314.80
430.51	1290.22
430.71	1259.50
430.92	1288.17
431.13	1245.16
431.33	1263.60
431.54	1253.36
431.74	1290.22
431.95	1265.64
432.15	1212.40
432.36	1263.60
432.56	1255.40
432.77	1329.13
432.98	1282.03
433.18	1267.69
433.39	1294.32
433.59	1327.08
433.80	1239.02
434.00	1269.74
434.21	1206.25
434.41	1271.79
434.62	1249.26
434.82	1296.36
435.03	1294.32
435.23	1290.22
435.44	1310.70
435.64	1230.83
435.85	1198.06
436.06	1273.84
436.26	1288.17
436.47	1228.78
436.67	1255.40
436.88	1253.36
437.08	1230.83
437.29	1304.56
437.49	1161.20
437.70	1284.08
437.90	1327.08
438.11	1349.61
438.31	1273.84
438.52	1273.84
438.72	1277.93
438.93	1249.26
439.13	1273.84
439.34	1253.36
439.54	1314.80
439.75	1284.08
439.95	1218.54
440.16	1220.59
440.36	1331.18
440.57	1275.88
440.77	1198.06
440.98	1224.69
441.18	1306.60
441.39	1257.45
441.59	1271.79
441.80	1196.01
442.00	1243.12
442.21	1296.36
442.41	1261.55
442.62	1290.22
442.82	1255.40
443.02	1243.12
443.23	1318.89
443.43	1316.84
443.64	1259.50
443.84	1259.50
444.05	1290.22
444.25	1243.12
444.46	1249.26
444.66	1286.12
444.87	1267.69
445.07	1314.80
445.28	1236.97
445.48	1253.36
445.69	1298.41
445.89	1253.36
446.09	1282.03
446.30	1325.04
446.50	1247.21
446.71	1245.16
446.91	1228.78
447.12	1230.83
447.32	1304.56
447.53	1261.55
447.73	1251.31
447.93	1253.36
448.14	1327.08
448.34	1241.07
448.55	1325.04
448.75	1269.74
448.96	1255.40
449.16	1245.16
449.36	1239.02
449.57	1257.45
449.77	1222.64
449.98	1310.70
450.18	1300.46
450.39	1220.59
450.59	1257.45
450.79	1232.88
451.00	1273.84
451.20	1245.16
451.41	1269.74
451.61	1193.97
451.81	1304.56
452.02	1249.26
452.22	1222.64
452.43	1286.12
452.63	1279.98
