SpectraSuite Data File
++++++++++++++++++++++++++++++++++++
Date: Sun Apr 03 19:55:23 CEST 2016
User: root
Dark Spectrum Present: No
Reference Spectrum Present: No
Number of Sampled Component Spectra: 1
Spectrometers: USB4C02835
Integration Time (usec): 10000 (USB4C02835)
Spectra Averaged: 1 (USB4C02835)
Boxcar Smoothing: 0 (USB4C02835)
Correct for Electrical Dark: No (USB4C02835)
Strobe/Lamp Enabled: No (USB4C02835)
Correct for Detector Non-linearity: No (USB4C02835)
Correct for Stray Light: No (USB4C02835)
Number of Pixels in Processed Spectrum: 3648
>>>>>Begin Processed Spectral Data<<<<<
177.47	1296.36
177.69	1296.36
177.91	1296.36
178.13	1275.88
178.36	1206.25
178.58	1187.82
178.80	1198.06
179.02	1202.16
179.24	1363.95
179.46	1318.89
179.68	1257.45
179.90	1271.79
180.13	1245.16
180.35	1200.11
180.57	1253.36
180.79	1290.22
181.01	1239.02
181.23	1300.46
181.45	1284.08
181.67	1304.56
181.90	1228.78
182.12	1279.98
182.34	1232.88
182.56	1316.84
182.78	1200.11
183.00	1253.36
183.22	1239.02
183.44	1236.97
183.66	1275.88
183.89	1220.59
184.11	1304.56
184.33	1241.07
184.55	1261.55
184.77	1271.79
184.99	1245.16
185.21	1251.31
185.43	1257.45
185.65	1292.27
185.87	1228.78
186.10	1204.21
186.32	1308.65
186.54	1253.36
186.76	1298.41
186.98	1322.99
187.20	1247.21
187.42	1273.84
187.64	1265.64
187.86	1234.93
188.08	1263.60
188.30	1306.60
188.52	1210.35
188.75	1271.79
188.97	1236.97
189.19	1212.40
189.41	1298.41
189.63	1222.64
189.85	1239.02
190.07	1284.08
190.29	1288.17
190.51	1269.74
190.73	1234.93
190.95	1171.44
191.17	1277.93
191.39	1273.84
191.61	1214.45
191.84	1273.84
192.06	1245.16
192.28	1269.74
192.50	1208.30
192.72	1265.64
192.94	1251.31
193.16	1189.87
193.38	1255.40
193.60	1163.25
193.82	1241.07
194.04	1300.46
194.26	1320.94
194.48	1302.51
194.70	1339.37
194.92	1271.79
195.14	1322.99
195.36	1292.27
195.58	1196.01
195.80	1277.93
196.02	1306.60
196.24	1302.51
196.46	1267.69
196.69	1216.49
196.91	1347.56
197.13	1316.84
197.35	1253.36
197.57	1239.02
197.79	1290.22
198.01	1251.31
198.23	1290.22
198.45	1282.03
198.67	1241.07
198.89	1279.98
199.11	1294.32
199.33	1253.36
199.55	1292.27
199.77	1241.07
199.99	1279.98
200.21	1273.84
200.43	1226.73
200.65	1241.07
200.87	1337.32
201.09	1253.36
201.31	1226.73
201.53	1300.46
201.75	1263.60
201.97	1294.32
202.19	1273.84
202.41	1320.94
202.63	1308.65
202.85	1259.50
203.07	1206.25
203.29	1269.74
203.51	1271.79
203.73	1263.60
203.95	1314.80
204.17	1239.02
204.39	1294.32
204.61	1296.36
204.83	1284.08
205.05	1261.55
205.27	1236.97
205.49	1286.12
205.71	1304.56
205.93	1277.93
206.15	1241.07
206.37	1259.50
206.59	1212.40
206.81	1232.88
207.03	1263.60
207.25	1202.16
207.47	1255.40
207.69	1306.60
207.91	1322.99
208.13	1316.84
208.34	1284.08
208.56	1255.40
208.78	1236.97
209.00	1269.74
209.22	1245.16
209.44	1292.27
209.66	1318.89
209.88	1206.25
210.10	1232.88
210.32	1296.36
210.54	1296.36
210.76	1191.92
210.98	1210.35
211.20	1325.04
211.42	1251.31
211.64	1249.26
211.86	1241.07
212.08	1300.46
212.30	1290.22
212.52	1257.45
212.74	1226.73
212.96	1265.64
213.17	1306.60
213.39	1234.93
213.61	1273.84
213.83	1284.08
214.05	1325.04
214.27	1286.12
214.49	1298.41
214.71	1226.73
214.93	1257.45
215.15	1318.89
215.37	1249.26
215.59	1284.08
215.81	1243.12
216.03	1263.60
216.24	1198.06
216.46	1304.56
216.68	1322.99
216.90	1263.60
217.12	1312.75
217.34	1359.85
217.56	1282.03
217.78	1263.60
218.00	1327.08
218.22	1163.25
218.44	1232.88
218.66	1251.31
218.87	1253.36
219.09	1306.60
219.31	1329.13
219.53	1282.03
219.75	1312.75
219.97	1284.08
220.19	1284.08
220.41	1263.60
220.63	1263.60
220.85	1253.36
221.06	1257.45
221.28	1314.80
221.50	1296.36
221.72	1292.27
221.94	1325.04
222.16	1142.77
222.38	1284.08
222.60	1253.36
222.82	1249.26
223.03	1267.69
223.25	1165.29
223.47	1245.16
223.69	1335.28
223.91	1273.84
224.13	1306.60
224.35	1275.88
224.57	1247.21
224.78	1282.03
225.00	1284.08
225.22	1308.65
225.44	1200.11
225.66	1236.97
225.88	1312.75
226.10	1310.70
226.32	1277.93
226.53	1245.16
226.75	1265.64
226.97	1232.88
227.19	1226.73
227.41	1255.40
227.63	1255.40
227.85	1232.88
228.06	1273.84
228.28	1257.45
228.50	1337.32
228.72	1275.88
228.94	1263.60
229.16	1185.77
229.37	1294.32
229.59	1255.40
229.81	1236.97
230.03	1267.69
230.25	1269.74
230.47	1273.84
230.69	1318.89
230.90	1259.50
231.12	1282.03
231.34	1255.40
231.56	1279.98
231.78	1257.45
232.00	1314.80
232.21	1200.11
232.43	1249.26
232.65	1279.98
232.87	1273.84
233.09	1306.60
233.30	1204.21
233.52	1261.55
233.74	1273.84
233.96	1277.93
234.18	1294.32
234.40	1277.93
234.61	1253.36
234.83	1247.21
235.05	1239.02
235.27	1261.55
235.49	1234.93
235.70	1253.36
235.92	1232.88
236.14	1200.11
236.36	1282.03
236.58	1277.93
236.79	1230.83
237.01	1279.98
237.23	1249.26
237.45	1200.11
237.67	1286.12
237.88	1198.06
238.10	1236.97
238.32	1310.70
238.54	1263.60
238.76	1255.40
238.97	1253.36
239.19	1210.35
239.41	1279.98
239.63	1245.16
239.85	1253.36
240.06	1232.88
240.28	1310.70
240.50	1269.74
240.72	1261.55
240.93	1277.93
241.15	1302.51
241.37	1228.78
241.59	1325.04
241.81	1306.60
242.02	1302.51
242.24	1320.94
242.46	1339.37
242.68	1273.84
242.89	1251.31
243.11	1327.08
243.33	1191.92
243.55	1243.12
243.76	1308.65
243.98	1249.26
244.20	1255.40
244.42	1290.22
244.64	1247.21
244.85	1234.93
245.07	1226.73
245.29	1298.41
245.51	1306.60
245.72	1286.12
245.94	1290.22
246.16	1245.16
246.38	1271.79
246.59	1322.99
246.81	1329.13
247.03	1245.16
247.24	1267.69
247.46	1269.74
247.68	1236.97
247.90	1239.02
248.11	1314.80
248.33	1196.01
248.55	1273.84
248.77	1232.88
248.98	1341.42
249.20	1257.45
249.42	1296.36
249.64	1298.41
249.85	1320.94
250.07	1247.21
250.29	1322.99
250.50	1200.11
250.72	1296.36
250.94	1308.65
251.16	1271.79
251.37	1296.36
251.59	1271.79
251.81	1286.12
252.02	1279.98
252.24	1335.28
252.46	1165.29
252.68	1220.59
252.89	1247.21
253.11	1255.40
253.33	1257.45
253.54	1261.55
253.76	1222.64
253.98	1226.73
254.20	1249.26
254.41	1296.36
254.63	1236.97
254.85	1239.02
255.06	1294.32
255.28	1245.16
255.50	1234.93
255.71	1277.93
255.93	1288.17
256.15	1290.22
256.36	1243.12
256.58	1316.84
256.80	1296.36
257.02	1228.78
257.23	1331.18
257.45	1218.54
257.67	1253.36
257.88	1255.40
258.10	1269.74
258.32	1314.80
258.53	1249.26
258.75	1267.69
258.97	1277.93
259.18	1220.59
259.40	1279.98
259.62	1279.98
259.83	1282.03
260.05	1230.83
260.27	1224.69
260.48	1298.41
260.70	1232.88
260.92	1294.32
261.13	1265.64
261.35	1241.07
261.57	1277.93
261.78	1261.55
262.00	1261.55
262.22	1243.12
262.43	1236.97
262.65	1331.18
262.86	1255.40
263.08	1294.32
263.30	1247.21
263.51	1193.97
263.73	1300.46
263.95	1239.02
264.16	1298.41
264.38	1273.84
264.60	1294.32
264.81	1243.12
265.03	1232.88
265.25	1277.93
265.46	1304.56
265.68	1259.50
265.89	1304.56
266.11	1265.64
266.33	1279.98
266.54	1257.45
266.76	1288.17
266.98	1339.37
267.19	1273.84
267.41	1314.80
267.62	1228.78
267.84	1259.50
268.06	1310.70
268.27	1288.17
268.49	1253.36
268.70	1247.21
268.92	1304.56
269.14	1255.40
269.35	1228.78
269.57	1251.31
269.79	1271.79
270.00	1327.08
270.22	1261.55
270.43	1257.45
270.65	1241.07
270.87	1318.89
271.08	1290.22
271.30	1226.73
271.51	1255.40
271.73	1337.32
271.95	1236.97
272.16	1206.25
272.38	1253.36
272.59	1304.56
272.81	1253.36
273.02	1255.40
273.24	1224.69
273.46	1228.78
273.67	1271.79
273.89	1245.16
274.10	1228.78
274.32	1257.45
274.54	1275.88
274.75	1224.69
274.97	1275.88
275.18	1308.65
275.40	1275.88
275.61	1306.60
275.83	1191.92
276.05	1275.88
276.26	1218.54
276.48	1251.31
276.69	1226.73
276.91	1263.60
277.12	1322.99
277.34	1241.07
277.55	1255.40
277.77	1294.32
277.99	1304.56
278.20	1251.31
278.42	1214.45
278.63	1243.12
278.85	1277.93
279.06	1236.97
279.28	1234.93
279.49	1329.13
279.71	1241.07
279.93	1282.03
280.14	1247.21
280.36	1222.64
280.57	1212.40
280.79	1216.49
281.00	1224.69
281.22	1255.40
281.43	1251.31
281.65	1214.45
281.86	1259.50
282.08	1292.27
282.29	1318.89
282.51	1263.60
282.73	1257.45
282.94	1269.74
283.16	1265.64
283.37	1232.88
283.59	1306.60
283.80	1304.56
284.02	1239.02
284.23	1232.88
284.45	1245.16
284.66	1200.11
284.88	1318.89
285.09	1331.18
285.31	1226.73
285.52	1312.75
285.74	1206.25
285.95	1282.03
286.17	1255.40
286.38	1220.59
286.60	1230.83
286.81	1189.87
287.03	1343.47
287.24	1279.98
287.46	1263.60
287.67	1322.99
287.89	1273.84
288.10	1263.60
288.32	1290.22
288.53	1300.46
288.75	1257.45
288.96	1224.69
289.18	1210.35
289.39	1265.64
289.61	1308.65
289.82	1292.27
290.04	1288.17
290.25	1286.12
290.47	1224.69
290.68	1304.56
290.90	1347.56
291.11	1191.92
291.33	1239.02
291.54	1267.69
291.76	1228.78
291.97	1218.54
292.18	1337.32
292.40	1277.93
292.61	1247.21
292.83	1298.41
293.04	1243.12
293.26	1273.84
293.47	1259.50
293.69	1245.16
293.90	1304.56
294.12	1271.79
294.33	1214.45
294.55	1259.50
294.76	1181.68
294.97	1279.98
295.19	1220.59
295.40	1236.97
295.62	1239.02
295.83	1298.41
296.05	1310.70
296.26	1298.41
296.48	1261.55
296.69	1222.64
296.90	1306.60
297.12	1325.04
297.33	1257.45
297.55	1200.11
297.76	1329.13
297.98	1245.16
298.19	1298.41
298.41	1271.79
298.62	1279.98
298.83	1355.76
299.05	1292.27
299.26	1306.60
299.48	1267.69
299.69	1210.35
299.90	1212.40
300.12	1206.25
300.33	1306.60
300.55	1216.49
300.76	1269.74
300.98	1329.13
301.19	1206.25
301.40	1282.03
301.62	1294.32
301.83	1263.60
302.05	1253.36
302.26	1292.27
302.47	1284.08
302.69	1214.45
302.90	1304.56
303.12	1249.26
303.33	1310.70
303.54	1228.78
303.76	1318.89
303.97	1259.50
304.19	1255.40
304.40	1304.56
304.61	1290.22
304.83	1320.94
305.04	1298.41
305.26	1353.71
305.47	1232.88
305.68	1284.08
305.90	1300.46
306.11	1249.26
306.33	1212.40
306.54	1302.51
306.75	1288.17
306.97	1212.40
307.18	1277.93
307.39	1286.12
307.61	1263.60
307.82	1208.30
308.04	1239.02
308.25	1279.98
308.46	1331.18
308.68	1253.36
308.89	1214.45
309.10	1320.94
309.32	1292.27
309.53	1269.74
309.74	1273.84
309.96	1224.69
310.17	1288.17
310.39	1282.03
310.60	1265.64
310.81	1234.93
311.03	1232.88
311.24	1273.84
311.45	1282.03
311.67	1236.97
311.88	1236.97
312.09	1331.18
312.31	1257.45
312.52	1259.50
312.73	1267.69
312.95	1306.60
313.16	1273.84
313.37	1318.89
313.59	1263.60
313.80	1206.25
314.01	1251.31
314.23	1277.93
314.44	1251.31
314.65	1292.27
314.87	1273.84
315.08	1232.88
315.29	1271.79
315.51	1292.27
315.72	1308.65
315.93	1300.46
316.15	1290.22
316.36	1239.02
316.57	1282.03
316.79	1308.65
317.00	1234.93
317.21	1251.31
317.43	1273.84
317.64	1212.40
317.85	1239.02
318.07	1196.01
318.28	1284.08
318.49	1294.32
318.70	1304.56
318.92	1333.23
319.13	1275.88
319.34	1230.83
319.56	1279.98
319.77	1234.93
319.98	1269.74
320.20	1273.84
320.41	1298.41
320.62	1302.51
320.83	1279.98
321.05	1296.36
321.26	1275.88
321.47	1286.12
321.69	1347.56
321.90	1343.47
322.11	1234.93
322.32	1228.78
322.54	1290.22
322.75	1265.64
322.96	1239.02
323.18	1243.12
323.39	1226.73
323.60	1198.06
323.81	1273.84
324.03	1253.36
324.24	1218.54
324.45	1277.93
324.66	1331.18
324.88	1277.93
325.09	1232.88
325.30	1302.51
325.52	1269.74
325.73	1288.17
325.94	1273.84
326.15	1243.12
326.37	1249.26
326.58	1273.84
326.79	1296.36
327.00	1271.79
327.22	1193.97
327.43	1288.17
327.64	1265.64
327.85	1243.12
328.07	1249.26
328.28	1265.64
328.49	1290.22
328.70	1249.26
328.92	1144.81
329.13	1222.64
329.34	1282.03
329.55	1239.02
329.76	1286.12
329.98	1249.26
330.19	1273.84
330.40	1349.61
330.61	1208.30
330.83	1239.02
331.04	1247.21
331.25	1216.49
331.46	1339.37
331.68	1292.27
331.89	1273.84
332.10	1269.74
332.31	1239.02
332.52	1267.69
332.74	1255.40
332.95	1290.22
333.16	1314.80
333.37	1294.32
333.58	1212.40
333.80	1212.40
334.01	1304.56
334.22	1265.64
334.43	1312.75
334.64	1212.40
334.86	1284.08
335.07	1294.32
335.28	1259.50
335.49	1247.21
335.70	1282.03
335.92	1245.16
336.13	1308.65
336.34	1361.90
336.55	1269.74
336.76	1339.37
336.98	1191.92
337.19	1241.07
337.40	1277.93
337.61	1236.97
337.82	1339.37
338.04	1198.06
338.25	1234.93
338.46	1218.54
338.67	1259.50
338.88	1265.64
339.09	1245.16
339.31	1251.31
339.52	1249.26
339.73	1288.17
339.94	1241.07
340.15	1247.21
340.36	1273.84
340.58	1290.22
340.79	1261.55
341.00	1218.54
341.21	1257.45
341.42	1251.31
341.63	1286.12
341.85	1212.40
342.06	1339.37
342.27	1269.74
342.48	1296.36
342.69	1191.92
342.90	1263.60
343.12	1302.51
343.33	1234.93
343.54	1265.64
343.75	1314.80
343.96	1302.51
344.17	1251.31
344.38	1302.51
344.60	1290.22
344.81	1249.26
345.02	1259.50
345.23	1312.75
345.44	1343.47
345.65	1308.65
345.86	1320.94
346.07	1271.79
346.29	1214.45
346.50	1251.31
346.71	1226.73
346.92	1331.18
347.13	1308.65
347.34	1241.07
347.55	1273.84
347.76	1200.11
347.98	1257.45
348.19	1255.40
348.40	1294.32
348.61	1259.50
348.82	1271.79
349.03	1259.50
349.24	1282.03
349.45	1241.07
349.66	1269.74
349.88	1175.53
350.09	1337.32
350.30	1382.38
350.51	1339.37
350.72	1310.70
350.93	1320.94
351.14	1243.12
351.35	1267.69
351.56	1218.54
351.77	1155.05
351.99	1339.37
352.20	1335.28
352.41	1249.26
352.62	1243.12
352.83	1249.26
353.04	1261.55
353.25	1267.69
353.46	1208.30
353.67	1304.56
353.88	1271.79
354.09	1239.02
354.30	1318.89
354.52	1286.12
354.73	1214.45
354.94	1191.92
355.15	1239.02
355.36	1257.45
355.57	1265.64
355.78	1187.82
355.99	1284.08
356.20	1228.78
356.41	1269.74
356.62	1306.60
356.83	1232.88
357.04	1296.36
357.25	1263.60
357.46	1312.75
357.68	1271.79
357.89	1261.55
358.10	1208.30
358.31	1216.49
358.52	1282.03
358.73	1222.64
358.94	1220.59
359.15	1226.73
359.36	1245.16
359.57	1228.78
359.78	1224.69
359.99	1294.32
360.20	1212.40
360.41	1220.59
360.62	1249.26
360.83	1243.12
361.04	1312.75
361.25	1282.03
361.46	1279.98
361.67	1226.73
361.88	1267.69
362.09	1273.84
362.30	1263.60
362.51	1257.45
362.72	1220.59
362.93	1296.36
363.14	1308.65
363.35	1294.32
363.56	1249.26
363.78	1306.60
363.99	1337.32
364.20	1286.12
364.41	1279.98
364.62	1279.98
364.83	1282.03
365.04	1251.31
365.25	1322.99
365.46	1243.12
365.67	1218.54
365.88	1218.54
366.09	1333.23
366.30	1302.51
366.51	1327.08
366.72	1241.07
366.93	1329.13
367.14	1265.64
367.35	1275.88
367.56	1255.40
367.77	1269.74
367.98	1224.69
368.18	1251.31
368.39	1230.83
368.60	1298.41
368.81	1314.80
369.02	1325.04
369.23	1273.84
369.44	1306.60
369.65	1136.62
369.86	1267.69
370.07	1273.84
370.28	1230.83
370.49	1263.60
370.70	1290.22
370.91	1296.36
371.12	1247.21
371.33	1259.50
371.54	1261.55
371.75	1273.84
371.96	1288.17
372.17	1175.53
372.38	1327.08
372.59	1200.11
372.80	1339.37
373.01	1300.46
373.22	1204.21
373.43	1230.83
373.64	1208.30
373.85	1263.60
374.06	1296.36
374.26	1224.69
374.47	1210.35
374.68	1288.17
374.89	1239.02
375.10	1267.69
375.31	1292.27
375.52	1282.03
375.73	1298.41
375.94	1251.31
376.15	1279.98
376.36	1347.56
376.57	1222.64
376.78	1320.94
376.99	1234.93
377.20	1298.41
377.40	1296.36
377.61	1304.56
377.82	1290.22
378.03	1267.69
378.24	1277.93
378.45	1228.78
378.66	1247.21
378.87	1249.26
379.08	1261.55
379.29	1286.12
379.50	1277.93
379.71	1327.08
379.91	1310.70
380.12	1368.04
380.33	1226.73
380.54	1214.45
380.75	1257.45
380.96	1292.27
381.17	1269.74
381.38	1255.40
381.59	1214.45
381.80	1271.79
382.00	1363.95
382.21	1261.55
382.42	1255.40
382.63	1243.12
382.84	1271.79
383.05	1290.22
383.26	1345.52
383.47	1277.93
383.68	1267.69
383.88	1265.64
384.09	1265.64
384.30	1181.68
384.51	1275.88
384.72	1239.02
384.93	1247.21
385.14	1232.88
385.35	1239.02
385.55	1253.36
385.76	1249.26
385.97	1167.34
386.18	1288.17
386.39	1226.73
386.60	1310.70
386.81	1275.88
387.02	1232.88
387.22	1251.31
387.43	1292.27
387.64	1251.31
387.85	1247.21
388.06	1286.12
388.27	1216.49
388.48	1185.77
388.68	1304.56
388.89	1259.50
389.10	1306.60
389.31	1249.26
389.52	1273.84
389.73	1253.36
389.93	1286.12
390.14	1308.65
390.35	1273.84
390.56	1275.88
390.77	1271.79
390.98	1296.36
391.18	1320.94
391.39	1253.36
391.60	1318.89
391.81	1279.98
392.02	1257.45
392.23	1312.75
392.43	1261.55
392.64	1263.60
392.85	1206.25
393.06	1245.16
393.27	1218.54
393.47	1310.70
393.68	1314.80
393.89	1306.60
394.10	1198.06
394.31	1202.16
394.52	1175.53
394.72	1335.28
394.93	1247.21
395.14	1208.30
395.35	1241.07
395.56	1282.03
395.76	1249.26
395.97	1224.69
396.18	1279.98
396.39	1234.93
396.60	1312.75
396.80	1288.17
397.01	1222.64
397.22	1228.78
397.43	1273.84
397.64	1214.45
397.84	1234.93
398.05	1290.22
398.26	1312.75
398.47	1277.93
398.67	1241.07
398.88	1349.61
399.09	1282.03
399.30	1267.69
399.51	1329.13
399.71	1220.59
399.92	1310.70
400.13	1259.50
400.34	1294.32
400.54	1261.55
400.75	1288.17
400.96	1275.88
401.17	1284.08
401.37	1239.02
401.58	1251.31
401.79	1243.12
402.00	1218.54
402.21	1228.78
402.41	1236.97
402.62	1253.36
402.83	1288.17
403.04	1269.74
403.24	1294.32
403.45	1239.02
403.66	1204.21
403.87	1228.78
404.07	1243.12
404.28	1312.75
404.49	1302.51
404.70	1212.40
404.90	1265.64
405.11	1226.73
405.32	1198.06
405.52	1200.11
405.73	1290.22
405.94	1271.79
406.15	1196.01
406.35	1353.71
406.56	1310.70
406.77	1259.50
406.98	1284.08
407.18	1257.45
407.39	1339.37
407.60	1300.46
407.80	1230.83
408.01	1300.46
408.22	1343.47
408.43	1261.55
408.63	1316.84
408.84	1245.16
409.05	1333.23
409.25	1263.60
409.46	1308.65
409.67	1239.02
409.88	1290.22
410.08	1290.22
410.29	1294.32
410.50	1292.27
410.70	1232.88
410.91	1200.11
411.12	1279.98
411.32	1279.98
411.53	1230.83
411.74	1316.84
411.95	1251.31
412.15	1259.50
412.36	1241.07
412.57	1247.21
412.77	1271.79
412.98	1202.16
413.19	1331.18
413.39	1220.59
413.60	1294.32
413.81	1337.32
414.01	1292.27
414.22	1355.76
414.43	1277.93
414.63	1216.49
414.84	1327.08
415.05	1251.31
415.25	1302.51
415.46	1249.26
415.67	1271.79
415.87	1277.93
416.08	1247.21
416.29	1284.08
416.49	1310.70
416.70	1265.64
416.91	1288.17
417.11	1214.45
417.32	1232.88
417.53	1322.99
417.73	1228.78
417.94	1347.56
418.15	1269.74
418.35	1261.55
418.56	1228.78
418.77	1290.22
418.97	1290.22
419.18	1202.16
419.38	1155.05
419.59	1290.22
419.80	1243.12
420.00	1267.69
420.21	1296.36
420.42	1251.31
420.62	1261.55
420.83	1286.12
421.04	1304.56
421.24	1271.79
421.45	1265.64
421.65	1243.12
421.86	1279.98
422.07	1265.64
422.27	1243.12
422.48	1306.60
422.69	1294.32
422.89	1255.40
423.10	1267.69
423.30	1292.27
423.51	1169.39
423.72	1286.12
423.92	1236.97
424.13	1267.69
424.33	1263.60
424.54	1239.02
424.75	1241.07
424.95	1318.89
425.16	1232.88
425.36	1282.03
425.57	1347.56
425.78	1247.21
425.98	1263.60
426.19	1308.65
426.39	1185.77
426.60	1290.22
426.81	1243.12
427.01	1243.12
427.22	1286.12
427.42	1202.16
427.63	1243.12
427.83	1333.23
428.04	1294.32
428.25	1257.45
428.45	1333.23
428.66	1218.54
428.86	1290.22
429.07	1300.46
429.28	1259.50
429.48	1234.93
429.69	1308.65
429.89	1253.36
430.10	1230.83
430.30	1273.84
430.51	1193.97
430.71	1247.21
430.92	1294.32
431.13	1308.65
431.33	1273.84
431.54	1267.69
431.74	1271.79
431.95	1337.32
432.15	1259.50
432.36	1259.50
432.56	1239.02
432.77	1269.74
432.98	1245.16
433.18	1208.30
433.39	1253.36
433.59	1288.17
433.80	1306.60
434.00	1286.12
434.21	1265.64
434.41	1296.36
434.62	1253.36
434.82	1263.60
435.03	1335.28
435.23	1249.26
435.44	1255.40
435.64	1267.69
435.85	1357.80
436.06	1214.45
436.26	1200.11
436.47	1269.74
436.67	1277.93
436.88	1230.83
437.08	1357.80
437.29	1200.11
437.49	1300.46
437.70	1284.08
437.90	1245.16
438.11	1253.36
438.31	1249.26
438.52	1247.21
438.72	1257.45
438.93	1265.64
439.13	1312.75
439.34	1333.23
439.54	1212.40
439.75	1212.40
439.95	1275.88
440.16	1230.83
440.36	1284.08
440.57	1320.94
440.77	1284.08
440.98	1277.93
441.18	1243.12
441.39	1322.99
441.59	1308.65
441.80	1243.12
442.00	1224.69
442.21	1255.40
442.41	1327.08
442.62	1234.93
442.82	1273.84
443.02	1341.42
443.23	1294.32
443.43	1265.64
443.64	1239.02
443.84	1216.49
444.05	1247.21
444.25	1347.56
444.46	1310.70
444.66	1226.73
444.87	1251.31
445.07	1247.21
445.28	1314.80
445.48	1212.40
445.69	1327.08
445.89	1210.35
446.09	1228.78
446.30	1331.18
446.50	1353.71
446.71	1261.55
446.91	1255.40
447.12	1239.02
447.32	1322.99
447.53	1245.16
447.73	1335.28
447.93	1298.41
448.14	1259.50
448.34	1277.93
448.55	1269.74
448.75	1316.84
448.96	1322.99
449.16	1218.54
449.36	1286.12
449.57	1257.45
449.77	1267.69
449.98	1310.70
450.18	1245.16
450.39	1288.17
450.59	1267.69
450.79	1343.47
451.00	1271.79
451.20	1181.68
451.41	1333.23
451.61	1275.88
451.81	1208.30
452.02	1279.98
452.22	1271.79
452.43	1257.45
452.63	1251.31
