SpectraSuite Data File
++++++++++++++++++++++++++++++++++++
Date: Sun Apr 03 19:55:30 CEST 2016
User: root
Dark Spectrum Present: No
Reference Spectrum Present: No
Number of Sampled Component Spectra: 1
Spectrometers: USB4C02835
Integration Time (usec): 10000 (USB4C02835)
Spectra Averaged: 1 (USB4C02835)
Boxcar Smoothing: 0 (USB4C02835)
Correct for Electrical Dark: No (USB4C02835)
Strobe/Lamp Enabled: No (USB4C02835)
Correct for Detector Non-linearity: No (USB4C02835)
Correct for Stray Light: No (USB4C02835)
Number of Pixels in Processed Spectrum: 3648
>>>>>Begin Processed Spectral Data<<<<<
177.47	1220.59
177.69	1220.59
177.91	1220.59
178.13	1212.40
178.36	1239.02
178.58	1288.17
178.80	1271.79
179.02	1277.93
179.24	1251.31
179.46	1271.79
179.68	1241.07
179.90	1257.45
180.13	1220.59
180.35	1200.11
180.57	1263.60
180.79	1304.56
181.01	1288.17
181.23	1308.65
181.45	1271.79
181.67	1296.36
181.90	1372.14
182.12	1243.12
182.34	1290.22
182.56	1228.78
182.78	1234.93
183.00	1243.12
183.22	1204.21
183.44	1204.21
183.66	1257.45
183.89	1232.88
184.11	1308.65
184.33	1249.26
184.55	1267.69
184.77	1374.19
184.99	1253.36
185.21	1208.30
185.43	1212.40
185.65	1296.36
185.87	1247.21
186.10	1224.69
186.32	1312.75
186.54	1300.46
186.76	1316.84
186.98	1204.21
187.20	1257.45
187.42	1247.21
187.64	1224.69
187.86	1261.55
188.08	1357.80
188.30	1288.17
188.52	1314.80
188.75	1230.83
188.97	1275.88
189.19	1259.50
189.41	1288.17
189.63	1310.70
189.85	1294.32
190.07	1169.39
190.29	1210.35
190.51	1304.56
190.73	1220.59
190.95	1284.08
191.17	1210.35
191.39	1228.78
191.61	1337.32
191.84	1282.03
192.06	1269.74
192.28	1314.80
192.50	1310.70
192.72	1290.22
192.94	1255.40
193.16	1306.60
193.38	1279.98
193.60	1196.01
193.82	1247.21
194.04	1300.46
194.26	1257.45
194.48	1265.64
194.70	1200.11
194.92	1212.40
195.14	1292.27
195.36	1216.49
195.58	1304.56
195.80	1269.74
196.02	1218.54
196.24	1255.40
196.46	1290.22
196.69	1247.21
196.91	1251.31
197.13	1282.03
197.35	1230.83
197.57	1316.84
197.79	1306.60
198.01	1286.12
198.23	1247.21
198.45	1300.46
198.67	1275.88
198.89	1341.42
199.11	1271.79
199.33	1279.98
199.55	1279.98
199.77	1253.36
199.99	1290.22
200.21	1210.35
200.43	1335.28
200.65	1300.46
200.87	1232.88
201.09	1222.64
201.31	1222.64
201.53	1208.30
201.75	1265.64
201.97	1232.88
202.19	1282.03
202.41	1241.07
202.63	1273.84
202.85	1275.88
203.07	1214.45
203.29	1288.17
203.51	1304.56
203.73	1290.22
203.95	1265.64
204.17	1265.64
204.39	1284.08
204.61	1308.65
204.83	1347.56
205.05	1290.22
205.27	1279.98
205.49	1269.74
205.71	1302.51
205.93	1265.64
206.15	1288.17
206.37	1316.84
206.59	1181.68
206.81	1271.79
207.03	1300.46
207.25	1259.50
207.47	1249.26
207.69	1241.07
207.91	1288.17
208.13	1220.59
208.34	1282.03
208.56	1314.80
208.78	1308.65
209.00	1257.45
209.22	1263.60
209.44	1228.78
209.66	1265.64
209.88	1265.64
210.10	1239.02
210.32	1269.74
210.54	1304.56
210.76	1277.93
210.98	1267.69
211.20	1269.74
211.42	1222.64
211.64	1271.79
211.86	1232.88
212.08	1191.92
212.30	1282.03
212.52	1253.36
212.74	1320.94
212.96	1234.93
213.17	1257.45
213.39	1300.46
213.61	1247.21
213.83	1243.12
214.05	1216.49
214.27	1247.21
214.49	1259.50
214.71	1282.03
214.93	1224.69
215.15	1265.64
215.37	1243.12
215.59	1257.45
215.81	1380.33
216.03	1282.03
216.24	1253.36
216.46	1245.16
216.68	1245.16
216.90	1218.54
217.12	1339.37
217.34	1255.40
217.56	1273.84
217.78	1304.56
218.00	1253.36
218.22	1304.56
218.44	1282.03
218.66	1282.03
218.87	1212.40
219.09	1265.64
219.31	1286.12
219.53	1253.36
219.75	1282.03
219.97	1388.52
220.19	1294.32
220.41	1265.64
220.63	1243.12
220.85	1247.21
221.06	1239.02
221.28	1318.89
221.50	1232.88
221.72	1226.73
221.94	1282.03
222.16	1239.02
222.38	1320.94
222.60	1261.55
222.82	1288.17
223.03	1325.04
223.25	1267.69
223.47	1255.40
223.69	1279.98
223.91	1224.69
224.13	1341.42
224.35	1253.36
224.57	1294.32
224.78	1269.74
225.00	1277.93
225.22	1302.51
225.44	1316.84
225.66	1273.84
225.88	1290.22
226.10	1349.61
226.32	1290.22
226.53	1259.50
226.75	1253.36
226.97	1261.55
227.19	1202.16
227.41	1284.08
227.63	1277.93
227.85	1265.64
228.06	1300.46
228.28	1290.22
228.50	1265.64
228.72	1239.02
228.94	1288.17
229.16	1286.12
229.37	1320.94
229.59	1288.17
229.81	1298.41
230.03	1279.98
230.25	1304.56
230.47	1236.97
230.69	1298.41
230.90	1302.51
231.12	1232.88
231.34	1288.17
231.56	1253.36
231.78	1273.84
232.00	1257.45
232.21	1292.27
232.43	1179.63
232.65	1210.35
232.87	1253.36
233.09	1339.37
233.30	1257.45
233.52	1257.45
233.74	1288.17
233.96	1212.40
234.18	1310.70
234.40	1241.07
234.61	1339.37
234.83	1253.36
235.05	1253.36
235.27	1232.88
235.49	1296.36
235.70	1214.45
235.92	1265.64
236.14	1335.28
236.36	1253.36
236.58	1224.69
236.79	1308.65
237.01	1284.08
237.23	1239.02
237.45	1259.50
237.67	1370.09
237.88	1232.88
238.10	1271.79
238.32	1282.03
238.54	1263.60
238.76	1316.84
238.97	1247.21
239.19	1316.84
239.41	1286.12
239.63	1284.08
239.85	1253.36
240.06	1269.74
240.28	1282.03
240.50	1187.82
240.72	1183.73
240.93	1204.21
241.15	1263.60
241.37	1347.56
241.59	1253.36
241.81	1314.80
242.02	1230.83
242.24	1230.83
242.46	1196.01
242.68	1320.94
242.89	1269.74
243.11	1202.16
243.33	1267.69
243.55	1236.97
243.76	1241.07
243.98	1224.69
244.20	1206.25
244.42	1318.89
244.64	1325.04
244.85	1210.35
245.07	1181.68
245.29	1265.64
245.51	1284.08
245.72	1269.74
245.94	1208.30
246.16	1181.68
246.38	1322.99
246.59	1245.16
246.81	1259.50
247.03	1263.60
247.24	1222.64
247.46	1230.83
247.68	1279.98
247.90	1247.21
248.11	1275.88
248.33	1273.84
248.55	1312.75
248.77	1290.22
248.98	1355.76
249.20	1259.50
249.42	1261.55
249.64	1265.64
249.85	1239.02
250.07	1216.49
250.29	1298.41
250.50	1314.80
250.72	1343.47
250.94	1208.30
251.16	1282.03
251.37	1314.80
251.59	1198.06
251.81	1257.45
252.02	1298.41
252.24	1173.49
252.46	1290.22
252.68	1255.40
252.89	1259.50
253.11	1234.93
253.33	1253.36
253.54	1288.17
253.76	1318.89
253.98	1279.98
254.20	1236.97
254.41	1382.38
254.63	1249.26
254.85	1275.88
255.06	1337.32
255.28	1288.17
255.50	1320.94
255.71	1304.56
255.93	1298.41
256.15	1208.30
256.36	1273.84
256.58	1271.79
256.80	1269.74
257.02	1206.25
257.23	1337.32
257.45	1253.36
257.67	1292.27
257.88	1243.12
258.10	1294.32
258.32	1232.88
258.53	1325.04
258.75	1294.32
258.97	1265.64
259.18	1302.51
259.40	1261.55
259.62	1302.51
259.83	1253.36
260.05	1212.40
260.27	1269.74
260.48	1214.45
260.70	1353.71
260.92	1282.03
261.13	1343.47
261.35	1214.45
261.57	1273.84
261.78	1288.17
262.00	1265.64
262.22	1302.51
262.43	1341.42
262.65	1318.89
262.86	1245.16
263.08	1318.89
263.30	1366.00
263.51	1249.26
263.73	1331.18
263.95	1273.84
264.16	1273.84
264.38	1247.21
264.60	1312.75
264.81	1284.08
265.03	1251.31
265.25	1341.42
265.46	1216.49
265.68	1318.89
265.89	1296.36
266.11	1220.59
266.33	1310.70
266.54	1335.28
266.76	1298.41
266.98	1396.71
267.19	1308.65
267.41	1232.88
267.62	1277.93
267.84	1263.60
268.06	1200.11
268.27	1302.51
268.49	1310.70
268.70	1275.88
268.92	1232.88
269.14	1294.32
269.35	1333.23
269.57	1271.79
269.79	1243.12
270.00	1284.08
270.22	1312.75
270.43	1290.22
270.65	1298.41
270.87	1345.52
271.08	1255.40
271.30	1230.83
271.51	1243.12
271.73	1245.16
271.95	1245.16
272.16	1273.84
272.38	1286.12
272.59	1202.16
272.81	1337.32
273.02	1196.01
273.24	1341.42
273.46	1279.98
273.67	1296.36
273.89	1259.50
274.10	1253.36
274.32	1236.97
274.54	1288.17
274.75	1222.64
274.97	1239.02
275.18	1265.64
275.40	1279.98
275.61	1322.99
275.83	1226.73
276.05	1292.27
276.26	1271.79
276.48	1304.56
276.69	1306.60
276.91	1261.55
277.12	1275.88
277.34	1257.45
277.55	1245.16
277.77	1271.79
277.99	1292.27
278.20	1339.37
278.42	1236.97
278.63	1273.84
278.85	1232.88
279.06	1196.01
279.28	1263.60
279.49	1234.93
279.71	1271.79
279.93	1247.21
280.14	1271.79
280.36	1232.88
280.57	1243.12
280.79	1331.18
281.00	1269.74
281.22	1265.64
281.43	1290.22
281.65	1288.17
281.86	1226.73
282.08	1249.26
282.29	1300.46
282.51	1304.56
282.73	1234.93
282.94	1257.45
283.16	1314.80
283.37	1271.79
283.59	1265.64
283.80	1200.11
284.02	1267.69
284.23	1257.45
284.45	1255.40
284.66	1255.40
284.88	1290.22
285.09	1322.99
285.31	1308.65
285.52	1247.21
285.74	1273.84
285.95	1320.94
286.17	1216.49
286.38	1339.37
286.60	1247.21
286.81	1234.93
287.03	1286.12
287.24	1339.37
287.46	1265.64
287.67	1277.93
287.89	1279.98
288.10	1298.41
288.32	1292.27
288.53	1230.83
288.75	1220.59
288.96	1228.78
289.18	1290.22
289.39	1212.40
289.61	1259.50
289.82	1200.11
290.04	1279.98
290.25	1239.02
290.47	1318.89
290.68	1230.83
290.90	1300.46
291.11	1288.17
291.33	1247.21
291.54	1204.21
291.76	1271.79
291.97	1214.45
292.18	1241.07
292.40	1322.99
292.61	1294.32
292.83	1214.45
293.04	1314.80
293.26	1236.97
293.47	1249.26
293.69	1277.93
293.90	1290.22
294.12	1273.84
294.33	1298.41
294.55	1241.07
294.76	1327.08
294.97	1220.59
295.19	1288.17
295.40	1236.97
295.62	1304.56
295.83	1349.61
296.05	1290.22
296.26	1222.64
296.48	1294.32
296.69	1222.64
296.90	1271.79
297.12	1337.32
297.33	1200.11
297.55	1316.84
297.76	1232.88
297.98	1200.11
298.19	1304.56
298.41	1279.98
298.62	1331.18
298.83	1290.22
299.05	1191.92
299.26	1310.70
299.48	1290.22
299.69	1359.85
299.90	1261.55
300.12	1234.93
300.33	1267.69
300.55	1257.45
300.76	1292.27
300.98	1249.26
301.19	1234.93
301.40	1298.41
301.62	1263.60
301.83	1255.40
302.05	1265.64
302.26	1279.98
302.47	1331.18
302.69	1265.64
302.90	1200.11
303.12	1243.12
303.33	1298.41
303.54	1196.01
303.76	1322.99
303.97	1259.50
304.19	1320.94
304.40	1306.60
304.61	1275.88
304.83	1214.45
305.04	1196.01
305.26	1228.78
305.47	1288.17
305.68	1265.64
305.90	1284.08
306.11	1310.70
306.33	1259.50
306.54	1202.16
306.75	1304.56
306.97	1253.36
307.18	1247.21
307.39	1322.99
307.61	1212.40
307.82	1320.94
308.04	1275.88
308.25	1277.93
308.46	1269.74
308.68	1325.04
308.89	1279.98
309.10	1220.59
309.32	1261.55
309.53	1267.69
309.74	1251.31
309.96	1310.70
310.17	1249.26
310.39	1198.06
310.60	1253.36
310.81	1302.51
311.03	1370.09
311.24	1243.12
311.45	1298.41
311.67	1251.31
311.88	1255.40
312.09	1265.64
312.31	1193.97
312.52	1214.45
312.73	1224.69
312.95	1290.22
313.16	1245.16
313.37	1232.88
313.59	1359.85
313.80	1318.89
314.01	1314.80
314.23	1355.76
314.44	1290.22
314.65	1261.55
314.87	1282.03
315.08	1261.55
315.29	1275.88
315.51	1224.69
315.72	1302.51
315.93	1304.56
316.15	1279.98
316.36	1212.40
316.57	1222.64
316.79	1247.21
317.00	1265.64
317.21	1275.88
317.43	1286.12
317.64	1261.55
317.85	1290.22
318.07	1255.40
318.28	1265.64
318.49	1267.69
318.70	1306.60
318.92	1314.80
319.13	1241.07
319.34	1288.17
319.56	1212.40
319.77	1249.26
319.98	1255.40
320.20	1273.84
320.41	1347.56
320.62	1271.79
320.83	1206.25
321.05	1275.88
321.26	1239.02
321.47	1277.93
321.69	1322.99
321.90	1216.49
322.11	1277.93
322.32	1310.70
322.54	1269.74
322.75	1310.70
322.96	1249.26
323.18	1247.21
323.39	1230.83
323.60	1241.07
323.81	1273.84
324.03	1267.69
324.24	1243.12
324.45	1279.98
324.66	1327.08
324.88	1306.60
325.09	1325.04
325.30	1249.26
325.52	1284.08
325.73	1306.60
325.94	1263.60
326.15	1234.93
326.37	1212.40
326.58	1267.69
326.79	1210.35
327.00	1214.45
327.22	1273.84
327.43	1263.60
327.64	1314.80
327.85	1253.36
328.07	1327.08
328.28	1310.70
328.49	1208.30
328.70	1222.64
328.92	1232.88
329.13	1265.64
329.34	1329.13
329.55	1249.26
329.76	1212.40
329.98	1269.74
330.19	1333.23
330.40	1359.85
330.61	1306.60
330.83	1363.95
331.04	1234.93
331.25	1279.98
331.46	1286.12
331.68	1216.49
331.89	1267.69
332.10	1245.16
332.31	1265.64
332.52	1259.50
332.74	1257.45
332.95	1271.79
333.16	1257.45
333.37	1206.25
333.58	1224.69
333.80	1253.36
334.01	1304.56
334.22	1286.12
334.43	1335.28
334.64	1257.45
334.86	1329.13
335.07	1251.31
335.28	1261.55
335.49	1298.41
335.70	1296.36
335.92	1282.03
336.13	1290.22
336.34	1275.88
336.55	1310.70
336.76	1212.40
336.98	1247.21
337.19	1271.79
337.40	1241.07
337.61	1277.93
337.82	1310.70
338.04	1247.21
338.25	1331.18
338.46	1243.12
338.67	1327.08
338.88	1279.98
339.09	1243.12
339.31	1261.55
339.52	1189.87
339.73	1222.64
339.94	1298.41
340.15	1298.41
340.36	1220.59
340.58	1284.08
340.79	1314.80
341.00	1353.71
341.21	1288.17
341.42	1261.55
341.63	1331.18
341.85	1310.70
342.06	1298.41
342.27	1224.69
342.48	1298.41
342.69	1294.32
342.90	1239.02
343.12	1318.89
343.33	1255.40
343.54	1251.31
343.75	1300.46
343.96	1196.01
344.17	1249.26
344.38	1232.88
344.60	1286.12
344.81	1253.36
345.02	1284.08
345.23	1310.70
345.44	1271.79
345.65	1228.78
345.86	1337.32
346.07	1333.23
346.29	1251.31
346.50	1261.55
346.71	1282.03
346.92	1290.22
347.13	1271.79
347.34	1191.92
347.55	1241.07
347.76	1251.31
347.98	1179.63
348.19	1253.36
348.40	1245.16
348.61	1214.45
348.82	1251.31
349.03	1275.88
349.24	1232.88
349.45	1259.50
349.66	1284.08
349.88	1265.64
350.09	1290.22
350.30	1339.37
350.51	1255.40
350.72	1275.88
350.93	1277.93
351.14	1230.83
351.35	1275.88
351.56	1327.08
351.77	1185.77
351.99	1290.22
352.20	1296.36
352.41	1271.79
352.62	1226.73
352.83	1277.93
353.04	1271.79
353.25	1243.12
353.46	1320.94
353.67	1292.27
353.88	1304.56
354.09	1277.93
354.30	1273.84
354.52	1284.08
354.73	1320.94
354.94	1214.45
355.15	1224.69
355.36	1224.69
355.57	1294.32
355.78	1269.74
355.99	1247.21
356.20	1241.07
356.41	1269.74
356.62	1310.70
356.83	1261.55
357.04	1304.56
357.25	1241.07
357.46	1245.16
357.68	1302.51
357.89	1284.08
358.10	1318.89
358.31	1302.51
358.52	1292.27
358.73	1222.64
358.94	1269.74
359.15	1224.69
359.36	1241.07
359.57	1282.03
359.78	1284.08
359.99	1161.20
360.20	1208.30
360.41	1308.65
360.62	1253.36
360.83	1239.02
361.04	1339.37
361.25	1220.59
361.46	1271.79
361.67	1236.97
361.88	1265.64
362.09	1232.88
362.30	1298.41
362.51	1239.02
362.72	1275.88
362.93	1288.17
363.14	1294.32
363.35	1257.45
363.56	1288.17
363.78	1241.07
363.99	1198.06
364.20	1253.36
364.41	1320.94
364.62	1308.65
364.83	1222.64
365.04	1380.33
365.25	1302.51
365.46	1310.70
365.67	1239.02
365.88	1320.94
366.09	1302.51
366.30	1247.21
366.51	1331.18
366.72	1228.78
366.93	1320.94
367.14	1263.60
367.35	1239.02
367.56	1236.97
367.77	1290.22
367.98	1318.89
368.18	1286.12
368.39	1261.55
368.60	1304.56
368.81	1243.12
369.02	1292.27
369.23	1191.92
369.44	1271.79
369.65	1333.23
369.86	1257.45
370.07	1273.84
370.28	1298.41
370.49	1247.21
370.70	1314.80
370.91	1261.55
371.12	1247.21
371.33	1187.82
371.54	1290.22
371.75	1236.97
371.96	1214.45
372.17	1239.02
372.38	1245.16
372.59	1284.08
372.80	1277.93
373.01	1214.45
373.22	1269.74
373.43	1243.12
373.64	1247.21
373.85	1196.01
374.06	1232.88
374.26	1286.12
374.47	1251.31
374.68	1230.83
374.89	1308.65
375.10	1288.17
375.31	1290.22
375.52	1247.21
375.73	1279.98
375.94	1159.15
376.15	1224.69
376.36	1273.84
376.57	1232.88
376.78	1236.97
376.99	1218.54
377.20	1259.50
377.40	1255.40
377.61	1304.56
377.82	1220.59
378.03	1249.26
378.24	1284.08
378.45	1282.03
378.66	1230.83
378.87	1263.60
379.08	1282.03
379.29	1226.73
379.50	1316.84
379.71	1322.99
379.91	1265.64
380.12	1296.36
380.33	1218.54
380.54	1267.69
380.75	1282.03
380.96	1251.31
381.17	1206.25
381.38	1239.02
381.59	1284.08
381.80	1157.10
382.00	1314.80
382.21	1300.46
382.42	1316.84
382.63	1320.94
382.84	1241.07
383.05	1363.95
383.26	1314.80
383.47	1345.52
383.68	1302.51
383.88	1363.95
384.09	1232.88
384.30	1241.07
384.51	1347.56
384.72	1279.98
384.93	1282.03
385.14	1210.35
385.35	1230.83
385.55	1345.52
385.76	1226.73
385.97	1249.26
386.18	1294.32
386.39	1224.69
386.60	1318.89
386.81	1222.64
387.02	1304.56
387.22	1267.69
387.43	1257.45
387.64	1220.59
387.85	1290.22
388.06	1212.40
388.27	1347.56
388.48	1300.46
388.68	1353.71
388.89	1279.98
389.10	1257.45
389.31	1271.79
389.52	1267.69
389.73	1118.19
389.93	1245.16
390.14	1312.75
390.35	1304.56
390.56	1314.80
390.77	1310.70
390.98	1245.16
391.18	1310.70
391.39	1265.64
391.60	1232.88
391.81	1187.82
392.02	1261.55
392.23	1304.56
392.43	1261.55
392.64	1286.12
392.85	1271.79
393.06	1279.98
393.27	1245.16
393.47	1232.88
393.68	1228.78
393.89	1353.71
394.10	1290.22
394.31	1269.74
394.52	1298.41
394.72	1230.83
394.93	1243.12
395.14	1269.74
395.35	1310.70
395.56	1279.98
395.76	1296.36
395.97	1265.64
396.18	1314.80
396.39	1226.73
396.60	1243.12
396.80	1177.58
397.01	1161.20
397.22	1259.50
397.43	1333.23
397.64	1249.26
397.84	1269.74
398.05	1232.88
398.26	1232.88
398.47	1241.07
398.67	1247.21
398.88	1271.79
399.09	1228.78
399.30	1275.88
399.51	1259.50
399.71	1271.79
399.92	1236.97
400.13	1355.76
400.34	1224.69
400.54	1247.21
400.75	1269.74
400.96	1290.22
401.17	1228.78
401.37	1318.89
401.58	1239.02
401.79	1273.84
402.00	1282.03
402.21	1341.42
402.41	1255.40
402.62	1241.07
402.83	1245.16
403.04	1253.36
403.24	1257.45
403.45	1282.03
403.66	1241.07
403.87	1292.27
404.07	1261.55
404.28	1236.97
404.49	1282.03
404.70	1239.02
404.90	1269.74
405.11	1288.17
405.32	1284.08
405.52	1265.64
405.73	1320.94
405.94	1255.40
406.15	1171.44
406.35	1263.60
406.56	1318.89
406.77	1279.98
406.98	1308.65
407.18	1210.35
407.39	1306.60
407.60	1236.97
407.80	1298.41
408.01	1222.64
408.22	1290.22
408.43	1294.32
408.63	1212.40
408.84	1251.31
409.05	1253.36
409.25	1228.78
409.46	1249.26
409.67	1333.23
409.88	1253.36
410.08	1296.36
410.29	1249.26
410.50	1204.21
410.70	1241.07
410.91	1300.46
411.12	1222.64
411.32	1271.79
411.53	1226.73
411.74	1322.99
411.95	1236.97
412.15	1279.98
412.36	1239.02
412.57	1257.45
412.77	1302.51
412.98	1218.54
413.19	1232.88
413.39	1224.69
413.60	1286.12
413.81	1239.02
414.01	1347.56
414.22	1239.02
414.43	1282.03
414.63	1200.11
414.84	1245.16
415.05	1228.78
415.25	1292.27
415.46	1230.83
415.67	1312.75
415.87	1224.69
416.08	1296.36
416.29	1257.45
416.49	1265.64
416.70	1316.84
416.91	1300.46
417.11	1249.26
417.32	1296.36
417.53	1265.64
417.73	1308.65
417.94	1257.45
418.15	1310.70
418.35	1189.87
418.56	1239.02
418.77	1282.03
418.97	1263.60
419.18	1234.93
419.38	1277.93
419.59	1208.30
419.80	1302.51
420.00	1331.18
420.21	1271.79
420.42	1208.30
420.62	1241.07
420.83	1277.93
421.04	1337.32
421.24	1206.25
421.45	1222.64
421.65	1191.92
421.86	1275.88
422.07	1218.54
422.27	1284.08
422.48	1273.84
422.69	1255.40
422.89	1253.36
423.10	1294.32
423.30	1226.73
423.51	1255.40
423.72	1224.69
423.92	1316.84
424.13	1253.36
424.33	1239.02
424.54	1228.78
424.75	1288.17
424.95	1333.23
425.16	1329.13
425.36	1216.49
425.57	1230.83
425.78	1216.49
425.98	1241.07
426.19	1298.41
426.39	1210.35
426.60	1259.50
426.81	1247.21
427.01	1269.74
427.22	1288.17
427.42	1279.98
427.63	1271.79
427.83	1259.50
428.04	1259.50
428.25	1357.80
428.45	1175.53
428.66	1208.30
428.86	1257.45
429.07	1308.65
429.28	1288.17
429.48	1220.59
429.69	1349.61
429.89	1288.17
430.10	1251.31
430.30	1257.45
430.51	1259.50
430.71	1253.36
430.92	1224.69
431.13	1261.55
431.33	1271.79
431.54	1304.56
431.74	1259.50
431.95	1226.73
432.15	1279.98
432.36	1265.64
432.56	1224.69
432.77	1220.59
432.98	1288.17
433.18	1269.74
433.39	1314.80
433.59	1292.27
433.80	1300.46
434.00	1257.45
434.21	1191.92
434.41	1294.32
434.62	1230.83
434.82	1230.83
435.03	1247.21
435.23	1228.78
435.44	1304.56
435.64	1253.36
435.85	1226.73
436.06	1290.22
436.26	1206.25
436.47	1294.32
436.67	1236.97
436.88	1282.03
437.08	1345.52
437.29	1306.60
437.49	1230.83
437.70	1226.73
437.90	1314.80
438.11	1273.84
438.31	1302.51
438.52	1216.49
438.72	1255.40
438.93	1292.27
439.13	1294.32
439.34	1308.65
439.54	1232.88
439.75	1239.02
439.95	1333.23
440.16	1177.58
440.36	1269.74
440.57	1247.21
440.77	1249.26
440.98	1302.51
441.18	1251.31
441.39	1304.56
441.59	1331.18
441.80	1275.88
442.00	1198.06
442.21	1236.97
442.41	1241.07
442.62	1298.41
442.82	1210.35
443.02	1249.26
443.23	1261.55
443.43	1249.26
443.64	1181.68
443.84	1228.78
444.05	1185.77
444.25	1318.89
444.46	1216.49
444.66	1282.03
444.87	1234.93
445.07	1216.49
445.28	1288.17
445.48	1249.26
445.69	1353.71
445.89	1239.02
446.09	1304.56
446.30	1277.93
446.50	1175.53
446.71	1247.21
446.91	1349.61
447.12	1290.22
447.32	1228.78
447.53	1267.69
447.73	1306.60
447.93	1263.60
448.14	1288.17
448.34	1277.93
448.55	1294.32
448.75	1259.50
448.96	1275.88
449.16	1189.87
449.36	1263.60
449.57	1288.17
449.77	1279.98
449.98	1257.45
450.18	1298.41
450.39	1245.16
450.59	1284.08
450.79	1302.51
451.00	1259.50
451.20	1294.32
451.41	1271.79
451.61	1275.88
451.81	1335.28
452.02	1282.03
452.22	1249.26
452.43	1359.85
452.63	1337.32
