SpectraSuite Data File
++++++++++++++++++++++++++++++++++++
Date: Sun Apr 03 19:55:50 CEST 2016
User: root
Dark Spectrum Present: No
Reference Spectrum Present: No
Number of Sampled Component Spectra: 1
Spectrometers: USB4C02835
Integration Time (usec): 10000 (USB4C02835)
Spectra Averaged: 1 (USB4C02835)
Boxcar Smoothing: 0 (USB4C02835)
Correct for Electrical Dark: No (USB4C02835)
Strobe/Lamp Enabled: No (USB4C02835)
Correct for Detector Non-linearity: No (USB4C02835)
Correct for Stray Light: No (USB4C02835)
Number of Pixels in Processed Spectrum: 3648
>>>>>Begin Processed Spectral Data<<<<<
177.47	1265.64
177.69	1265.64
177.91	1265.64
178.13	1253.36
178.36	1269.74
178.58	1224.69
178.80	1261.55
179.02	1257.45
179.24	1316.84
179.46	1239.02
179.68	1253.36
179.90	1277.93
180.13	1216.49
180.35	1257.45
180.57	1288.17
180.79	1277.93
181.01	1294.32
181.23	1214.45
181.45	1298.41
181.67	1318.89
181.90	1300.46
182.12	1318.89
182.34	1239.02
182.56	1290.22
182.78	1234.93
183.00	1265.64
183.22	1257.45
183.44	1185.77
183.66	1228.78
183.89	1284.08
184.11	1282.03
184.33	1288.17
184.55	1306.60
184.77	1259.50
184.99	1187.82
185.21	1220.59
185.43	1247.21
185.65	1366.00
185.87	1232.88
186.10	1284.08
186.32	1329.13
186.54	1271.79
186.76	1277.93
186.98	1267.69
187.20	1306.60
187.42	1175.53
187.64	1236.97
187.86	1216.49
188.08	1282.03
188.30	1249.26
188.52	1273.84
188.75	1288.17
188.97	1271.79
189.19	1279.98
189.41	1288.17
189.63	1263.60
189.85	1282.03
190.07	1282.03
190.29	1265.64
190.51	1247.21
190.73	1290.22
190.95	1345.52
191.17	1279.98
191.39	1251.31
191.61	1343.47
191.84	1234.93
192.06	1292.27
192.28	1275.88
192.50	1234.93
192.72	1288.17
192.94	1261.55
193.16	1282.03
193.38	1216.49
193.60	1232.88
193.82	1236.97
194.04	1259.50
194.26	1177.58
194.48	1314.80
194.70	1198.06
194.92	1288.17
195.14	1290.22
195.36	1251.31
195.58	1300.46
195.80	1277.93
196.02	1273.84
196.24	1279.98
196.46	1241.07
196.69	1228.78
196.91	1339.37
197.13	1288.17
197.35	1183.73
197.57	1306.60
197.79	1247.21
198.01	1294.32
198.23	1261.55
198.45	1286.12
198.67	1282.03
198.89	1284.08
199.11	1265.64
199.33	1265.64
199.55	1298.41
199.77	1232.88
199.99	1306.60
200.21	1208.30
200.43	1220.59
200.65	1202.16
200.87	1253.36
201.09	1282.03
201.31	1275.88
201.53	1349.61
201.75	1239.02
201.97	1300.46
202.19	1241.07
202.41	1232.88
202.63	1269.74
202.85	1275.88
203.07	1220.59
203.29	1216.49
203.51	1271.79
203.73	1290.22
203.95	1228.78
204.17	1286.12
204.39	1273.84
204.61	1226.73
204.83	1273.84
205.05	1247.21
205.27	1265.64
205.49	1210.35
205.71	1228.78
205.93	1206.25
206.15	1288.17
206.37	1245.16
206.59	1218.54
206.81	1275.88
207.03	1222.64
207.25	1265.64
207.47	1294.32
207.69	1290.22
207.91	1312.75
208.13	1265.64
208.34	1251.31
208.56	1251.31
208.78	1298.41
209.00	1239.02
209.22	1308.65
209.44	1286.12
209.66	1273.84
209.88	1294.32
210.10	1232.88
210.32	1282.03
210.54	1320.94
210.76	1316.84
210.98	1277.93
211.20	1212.40
211.42	1298.41
211.64	1232.88
211.86	1200.11
212.08	1282.03
212.30	1206.25
212.52	1212.40
212.74	1193.97
212.96	1298.41
213.17	1320.94
213.39	1216.49
213.61	1263.60
213.83	1247.21
214.05	1292.27
214.27	1241.07
214.49	1304.56
214.71	1253.36
214.93	1331.18
215.15	1214.45
215.37	1222.64
215.59	1220.59
215.81	1290.22
216.03	1210.35
216.24	1261.55
216.46	1298.41
216.68	1345.52
216.90	1269.74
217.12	1286.12
217.34	1294.32
217.56	1298.41
217.78	1224.69
218.00	1277.93
218.22	1306.60
218.44	1286.12
218.66	1273.84
218.87	1196.01
219.09	1325.04
219.31	1198.06
219.53	1286.12
219.75	1345.52
219.97	1247.21
220.19	1312.75
220.41	1220.59
220.63	1214.45
220.85	1222.64
221.06	1341.42
221.28	1261.55
221.50	1304.56
221.72	1265.64
221.94	1214.45
222.16	1275.88
222.38	1271.79
222.60	1273.84
222.82	1206.25
223.03	1306.60
223.25	1271.79
223.47	1275.88
223.69	1279.98
223.91	1224.69
224.13	1251.31
224.35	1214.45
224.57	1249.26
224.78	1312.75
225.00	1275.88
225.22	1226.73
225.44	1259.50
225.66	1322.99
225.88	1232.88
226.10	1245.16
226.32	1294.32
226.53	1259.50
226.75	1345.52
226.97	1277.93
227.19	1259.50
227.41	1245.16
227.63	1222.64
227.85	1173.49
228.06	1304.56
228.28	1294.32
228.50	1241.07
228.72	1318.89
228.94	1279.98
229.16	1185.77
229.37	1257.45
229.59	1263.60
229.81	1318.89
230.03	1220.59
230.25	1298.41
230.47	1204.21
230.69	1277.93
230.90	1284.08
231.12	1241.07
231.34	1257.45
231.56	1290.22
231.78	1224.69
232.00	1177.58
232.21	1300.46
232.43	1308.65
232.65	1261.55
232.87	1251.31
233.09	1241.07
233.30	1265.64
233.52	1269.74
233.74	1320.94
233.96	1269.74
234.18	1298.41
234.40	1318.89
234.61	1288.17
234.83	1253.36
235.05	1208.30
235.27	1300.46
235.49	1218.54
235.70	1253.36
235.92	1286.12
236.14	1265.64
236.36	1245.16
236.58	1308.65
236.79	1382.38
237.01	1337.32
237.23	1286.12
237.45	1196.01
237.67	1279.98
237.88	1314.80
238.10	1296.36
238.32	1310.70
238.54	1232.88
238.76	1306.60
238.97	1294.32
239.19	1200.11
239.41	1241.07
239.63	1288.17
239.85	1243.12
240.06	1320.94
240.28	1161.20
240.50	1193.97
240.72	1286.12
240.93	1271.79
241.15	1304.56
241.37	1302.51
241.59	1234.93
241.81	1257.45
242.02	1271.79
242.24	1214.45
242.46	1267.69
242.68	1234.93
242.89	1230.83
243.11	1208.30
243.33	1302.51
243.55	1267.69
243.76	1308.65
243.98	1275.88
244.20	1222.64
244.42	1263.60
244.64	1241.07
244.85	1331.18
245.07	1245.16
245.29	1271.79
245.51	1306.60
245.72	1271.79
245.94	1208.30
246.16	1173.49
246.38	1310.70
246.59	1226.73
246.81	1263.60
247.03	1273.84
247.24	1224.69
247.46	1214.45
247.68	1189.87
247.90	1257.45
248.11	1273.84
248.33	1355.76
248.55	1273.84
248.77	1214.45
248.98	1251.31
249.20	1255.40
249.42	1304.56
249.64	1277.93
249.85	1286.12
250.07	1239.02
250.29	1339.37
250.50	1236.97
250.72	1267.69
250.94	1265.64
251.16	1241.07
251.37	1230.83
251.59	1239.02
251.81	1282.03
252.02	1202.16
252.24	1255.40
252.46	1228.78
252.68	1257.45
252.89	1288.17
253.11	1265.64
253.33	1265.64
253.54	1288.17
253.76	1277.93
253.98	1247.21
254.20	1279.98
254.41	1204.21
254.63	1312.75
254.85	1269.74
255.06	1320.94
255.28	1273.84
255.50	1183.73
255.71	1236.97
255.93	1277.93
256.15	1286.12
256.36	1181.68
256.58	1224.69
256.80	1228.78
257.02	1253.36
257.23	1351.66
257.45	1353.71
257.67	1222.64
257.88	1327.08
258.10	1230.83
258.32	1306.60
258.53	1265.64
258.75	1265.64
258.97	1269.74
259.18	1253.36
259.40	1308.65
259.62	1212.40
259.83	1267.69
260.05	1310.70
260.27	1265.64
260.48	1247.21
260.70	1296.36
260.92	1171.44
261.13	1230.83
261.35	1249.26
261.57	1327.08
261.78	1236.97
262.00	1314.80
262.22	1251.31
262.43	1142.77
262.65	1357.80
262.86	1310.70
263.08	1243.12
263.30	1257.45
263.51	1263.60
263.73	1202.16
263.95	1304.56
264.16	1232.88
264.38	1232.88
264.60	1282.03
264.81	1239.02
265.03	1339.37
265.25	1331.18
265.46	1234.93
265.68	1216.49
265.89	1228.78
266.11	1322.99
266.33	1259.50
266.54	1271.79
266.76	1204.21
266.98	1259.50
267.19	1284.08
267.41	1251.31
267.62	1230.83
267.84	1247.21
268.06	1253.36
268.27	1259.50
268.49	1277.93
268.70	1253.36
268.92	1245.16
269.14	1261.55
269.35	1265.64
269.57	1273.84
269.79	1290.22
270.00	1257.45
270.22	1329.13
270.43	1282.03
270.65	1253.36
270.87	1298.41
271.08	1279.98
271.30	1210.35
271.51	1288.17
271.73	1157.10
271.95	1290.22
272.16	1249.26
272.38	1327.08
272.59	1224.69
272.81	1314.80
273.02	1257.45
273.24	1284.08
273.46	1249.26
273.67	1222.64
273.89	1241.07
274.10	1290.22
274.32	1400.81
274.54	1269.74
274.75	1251.31
274.97	1279.98
275.18	1230.83
275.40	1271.79
275.61	1249.26
275.83	1239.02
276.05	1273.84
276.26	1255.40
276.48	1279.98
276.69	1230.83
276.91	1234.93
277.12	1261.55
277.34	1306.60
277.55	1335.28
277.77	1187.82
277.99	1269.74
278.20	1308.65
278.42	1234.93
278.63	1257.45
278.85	1247.21
279.06	1302.51
279.28	1284.08
279.49	1306.60
279.71	1245.16
279.93	1259.50
280.14	1277.93
280.36	1275.88
280.57	1282.03
280.79	1232.88
281.00	1247.21
281.22	1314.80
281.43	1296.36
281.65	1220.59
281.86	1253.36
282.08	1265.64
282.29	1239.02
282.51	1206.25
282.73	1259.50
282.94	1257.45
283.16	1255.40
283.37	1292.27
283.59	1310.70
283.80	1294.32
284.02	1341.42
284.23	1239.02
284.45	1249.26
284.66	1269.74
284.88	1255.40
285.09	1294.32
285.31	1263.60
285.52	1247.21
285.74	1191.92
285.95	1304.56
286.17	1261.55
286.38	1255.40
286.60	1320.94
286.81	1304.56
287.03	1222.64
287.24	1206.25
287.46	1341.42
287.67	1261.55
287.89	1296.36
288.10	1212.40
288.32	1318.89
288.53	1302.51
288.75	1337.32
288.96	1249.26
289.18	1239.02
289.39	1284.08
289.61	1273.84
289.82	1165.29
290.04	1222.64
290.25	1208.30
290.47	1275.88
290.68	1239.02
290.90	1257.45
291.11	1226.73
291.33	1273.84
291.54	1239.02
291.76	1267.69
291.97	1304.56
292.18	1259.50
292.40	1259.50
292.61	1249.26
292.83	1284.08
293.04	1294.32
293.26	1251.31
293.47	1286.12
293.69	1218.54
293.90	1322.99
294.12	1306.60
294.33	1239.02
294.55	1286.12
294.76	1306.60
294.97	1269.74
295.19	1273.84
295.40	1247.21
295.62	1347.56
295.83	1300.46
296.05	1265.64
296.26	1275.88
296.48	1255.40
296.69	1265.64
296.90	1230.83
297.12	1253.36
297.33	1261.55
297.55	1282.03
297.76	1257.45
297.98	1273.84
298.19	1261.55
298.41	1265.64
298.62	1306.60
298.83	1257.45
299.05	1216.49
299.26	1267.69
299.48	1277.93
299.69	1292.27
299.90	1269.74
300.12	1243.12
300.33	1304.56
300.55	1222.64
300.76	1249.26
300.98	1333.23
301.19	1204.21
301.40	1222.64
301.62	1271.79
301.83	1239.02
302.05	1273.84
302.26	1245.16
302.47	1292.27
302.69	1306.60
302.90	1206.25
303.12	1239.02
303.33	1243.12
303.54	1245.16
303.76	1216.49
303.97	1175.53
304.19	1253.36
304.40	1298.41
304.61	1259.50
304.83	1333.23
305.04	1322.99
305.26	1314.80
305.47	1306.60
305.68	1257.45
305.90	1294.32
306.11	1241.07
306.33	1243.12
306.54	1282.03
306.75	1271.79
306.97	1255.40
307.18	1267.69
307.39	1247.21
307.61	1216.49
307.82	1222.64
308.04	1347.56
308.25	1245.16
308.46	1249.26
308.68	1259.50
308.89	1310.70
309.10	1228.78
309.32	1275.88
309.53	1251.31
309.74	1273.84
309.96	1263.60
310.17	1288.17
310.39	1257.45
310.60	1294.32
310.81	1222.64
311.03	1296.36
311.24	1232.88
311.45	1243.12
311.67	1314.80
311.88	1241.07
312.09	1277.93
312.31	1255.40
312.52	1251.31
312.73	1239.02
312.95	1165.29
313.16	1269.74
313.37	1259.50
313.59	1232.88
313.80	1302.51
314.01	1224.69
314.23	1261.55
314.44	1296.36
314.65	1259.50
314.87	1265.64
315.08	1159.15
315.29	1318.89
315.51	1243.12
315.72	1259.50
315.93	1265.64
316.15	1349.61
316.36	1224.69
316.57	1241.07
316.79	1290.22
317.00	1282.03
317.21	1208.30
317.43	1247.21
317.64	1183.73
317.85	1259.50
318.07	1249.26
318.28	1304.56
318.49	1290.22
318.70	1296.36
318.92	1269.74
319.13	1318.89
319.34	1265.64
319.56	1269.74
319.77	1247.21
319.98	1249.26
320.20	1239.02
320.41	1241.07
320.62	1243.12
320.83	1175.53
321.05	1257.45
321.26	1325.04
321.47	1343.47
321.69	1255.40
321.90	1249.26
322.11	1318.89
322.32	1263.60
322.54	1218.54
322.75	1282.03
322.96	1288.17
323.18	1212.40
323.39	1284.08
323.60	1288.17
323.81	1290.22
324.03	1294.32
324.24	1253.36
324.45	1267.69
324.66	1255.40
324.88	1212.40
325.09	1230.83
325.30	1253.36
325.52	1286.12
325.73	1234.93
325.94	1204.21
326.15	1282.03
326.37	1171.44
326.58	1191.92
326.79	1300.46
327.00	1282.03
327.22	1312.75
327.43	1267.69
327.64	1296.36
327.85	1239.02
328.07	1331.18
328.28	1361.90
328.49	1271.79
328.70	1269.74
328.92	1247.21
329.13	1339.37
329.34	1239.02
329.55	1275.88
329.76	1355.76
329.98	1247.21
330.19	1236.97
330.40	1290.22
330.61	1294.32
330.83	1253.36
331.04	1292.27
331.25	1314.80
331.46	1230.83
331.68	1306.60
331.89	1257.45
332.10	1257.45
332.31	1175.53
332.52	1282.03
332.74	1267.69
332.95	1243.12
333.16	1247.21
333.37	1284.08
333.58	1306.60
333.80	1189.87
334.01	1255.40
334.22	1294.32
334.43	1234.93
334.64	1249.26
334.86	1210.35
335.07	1175.53
335.28	1206.25
335.49	1259.50
335.70	1271.79
335.92	1257.45
336.13	1300.46
336.34	1279.98
336.55	1216.49
336.76	1265.64
336.98	1263.60
337.19	1177.58
337.40	1277.93
337.61	1302.51
337.82	1239.02
338.04	1286.12
338.25	1329.13
338.46	1261.55
338.67	1253.36
338.88	1224.69
339.09	1230.83
339.31	1255.40
339.52	1277.93
339.73	1212.40
339.94	1273.84
340.15	1316.84
340.36	1282.03
340.58	1214.45
340.79	1257.45
341.00	1236.97
341.21	1208.30
341.42	1187.82
341.63	1357.80
341.85	1177.58
342.06	1320.94
342.27	1284.08
342.48	1226.73
342.69	1279.98
342.90	1245.16
343.12	1288.17
343.33	1243.12
343.54	1200.11
343.75	1292.27
343.96	1253.36
344.17	1212.40
344.38	1247.21
344.60	1273.84
344.81	1212.40
345.02	1296.36
345.23	1329.13
345.44	1265.64
345.65	1253.36
345.86	1208.30
346.07	1312.75
346.29	1255.40
346.50	1318.89
346.71	1257.45
346.92	1251.31
347.13	1234.93
347.34	1232.88
347.55	1251.31
347.76	1259.50
347.98	1310.70
348.19	1263.60
348.40	1275.88
348.61	1265.64
348.82	1298.41
349.03	1263.60
349.24	1343.47
349.45	1302.51
349.66	1208.30
349.88	1286.12
350.09	1224.69
350.30	1261.55
350.51	1247.21
350.72	1335.28
350.93	1308.65
351.14	1255.40
351.35	1226.73
351.56	1222.64
351.77	1271.79
351.99	1236.97
352.20	1304.56
352.41	1302.51
352.62	1304.56
352.83	1216.49
353.04	1306.60
353.25	1265.64
353.46	1292.27
353.67	1214.45
353.88	1271.79
354.09	1230.83
354.30	1306.60
354.52	1290.22
354.73	1290.22
354.94	1206.25
355.15	1298.41
355.36	1341.42
355.57	1286.12
355.78	1306.60
355.99	1204.21
356.20	1273.84
356.41	1241.07
356.62	1331.18
356.83	1314.80
357.04	1310.70
357.25	1271.79
357.46	1241.07
357.68	1196.01
357.89	1234.93
358.10	1333.23
358.31	1216.49
358.52	1273.84
358.73	1249.26
358.94	1212.40
359.15	1273.84
359.36	1206.25
359.57	1142.77
359.78	1198.06
359.99	1273.84
360.20	1288.17
360.41	1273.84
360.62	1339.37
360.83	1263.60
361.04	1286.12
361.25	1198.06
361.46	1273.84
361.67	1243.12
361.88	1255.40
362.09	1275.88
362.30	1249.26
362.51	1279.98
362.72	1292.27
362.93	1249.26
363.14	1318.89
363.35	1263.60
363.56	1198.06
363.78	1234.93
363.99	1290.22
364.20	1320.94
364.41	1243.12
364.62	1204.21
364.83	1288.17
365.04	1320.94
365.25	1282.03
365.46	1288.17
365.67	1255.40
365.88	1275.88
366.09	1329.13
366.30	1257.45
366.51	1288.17
366.72	1218.54
366.93	1284.08
367.14	1255.40
367.35	1298.41
367.56	1357.80
367.77	1253.36
367.98	1239.02
368.18	1245.16
368.39	1294.32
368.60	1214.45
368.81	1298.41
369.02	1290.22
369.23	1253.36
369.44	1230.83
369.65	1292.27
369.86	1214.45
370.07	1294.32
370.28	1269.74
370.49	1318.89
370.70	1255.40
370.91	1306.60
371.12	1214.45
371.33	1245.16
371.54	1273.84
371.75	1325.04
371.96	1261.55
372.17	1232.88
372.38	1255.40
372.59	1222.64
372.80	1273.84
373.01	1275.88
373.22	1253.36
373.43	1267.69
373.64	1282.03
373.85	1277.93
374.06	1245.16
374.26	1247.21
374.47	1290.22
374.68	1232.88
374.89	1273.84
375.10	1187.82
375.31	1312.75
375.52	1284.08
375.73	1284.08
375.94	1161.20
376.15	1282.03
376.36	1271.79
376.57	1214.45
376.78	1265.64
376.99	1265.64
377.20	1249.26
377.40	1286.12
377.61	1263.60
377.82	1314.80
378.03	1310.70
378.24	1253.36
378.45	1210.35
378.66	1232.88
378.87	1196.01
379.08	1308.65
379.29	1265.64
379.50	1220.59
379.71	1308.65
379.91	1249.26
380.12	1216.49
380.33	1263.60
380.54	1333.23
380.75	1263.60
380.96	1269.74
381.17	1257.45
381.38	1298.41
381.59	1234.93
381.80	1222.64
382.00	1251.31
382.21	1249.26
382.42	1331.18
382.63	1218.54
382.84	1339.37
383.05	1241.07
383.26	1298.41
383.47	1193.97
383.68	1275.88
383.88	1206.25
384.09	1265.64
384.30	1251.31
384.51	1273.84
384.72	1265.64
384.93	1325.04
385.14	1300.46
385.35	1210.35
385.55	1263.60
385.76	1298.41
385.97	1288.17
386.18	1265.64
386.39	1228.78
386.60	1269.74
386.81	1232.88
387.02	1282.03
387.22	1236.97
387.43	1187.82
387.64	1271.79
387.85	1273.84
388.06	1249.26
388.27	1277.93
388.48	1273.84
388.68	1294.32
388.89	1306.60
389.10	1314.80
389.31	1255.40
389.52	1302.51
389.73	1298.41
389.93	1265.64
390.14	1298.41
390.35	1271.79
390.56	1282.03
390.77	1249.26
390.98	1191.92
391.18	1241.07
391.39	1253.36
391.60	1224.69
391.81	1314.80
392.02	1200.11
392.23	1284.08
392.43	1239.02
392.64	1249.26
392.85	1277.93
393.06	1232.88
393.27	1288.17
393.47	1271.79
393.68	1255.40
393.89	1275.88
394.10	1265.64
394.31	1216.49
394.52	1261.55
394.72	1296.36
394.93	1232.88
395.14	1271.79
395.35	1294.32
395.56	1253.36
395.76	1312.75
395.97	1314.80
396.18	1255.40
396.39	1288.17
396.60	1255.40
396.80	1306.60
397.01	1230.83
397.22	1224.69
397.43	1271.79
397.64	1245.16
397.84	1220.59
398.05	1335.28
398.26	1288.17
398.47	1275.88
398.67	1331.18
398.88	1277.93
399.09	1271.79
399.30	1253.36
399.51	1347.56
399.71	1183.73
399.92	1300.46
400.13	1296.36
400.34	1253.36
400.54	1255.40
400.75	1292.27
400.96	1265.64
401.17	1316.84
401.37	1294.32
401.58	1232.88
401.79	1224.69
402.00	1255.40
402.21	1304.56
402.41	1269.74
402.62	1298.41
402.83	1316.84
403.04	1218.54
403.24	1300.46
403.45	1322.99
403.66	1255.40
403.87	1290.22
404.07	1263.60
404.28	1277.93
404.49	1239.02
404.70	1247.21
404.90	1275.88
405.11	1218.54
405.32	1200.11
405.52	1316.84
405.73	1249.26
405.94	1320.94
406.15	1290.22
406.35	1249.26
406.56	1279.98
406.77	1232.88
406.98	1249.26
407.18	1224.69
407.39	1288.17
407.60	1222.64
407.80	1271.79
408.01	1302.51
408.22	1304.56
408.43	1183.73
408.63	1236.97
408.84	1239.02
409.05	1284.08
409.25	1286.12
409.46	1239.02
409.67	1298.41
409.88	1339.37
410.08	1267.69
410.29	1294.32
410.50	1302.51
410.70	1310.70
410.91	1214.45
411.12	1236.97
411.32	1318.89
411.53	1212.40
411.74	1259.50
411.95	1292.27
412.15	1265.64
412.36	1269.74
412.57	1259.50
412.77	1298.41
412.98	1265.64
413.19	1236.97
413.39	1136.62
413.60	1298.41
413.81	1316.84
414.01	1271.79
414.22	1310.70
414.43	1279.98
414.63	1282.03
414.84	1306.60
415.05	1232.88
415.25	1282.03
415.46	1314.80
415.67	1253.36
415.87	1234.93
416.08	1341.42
416.29	1306.60
416.49	1314.80
416.70	1206.25
416.91	1296.36
417.11	1259.50
417.32	1339.37
417.53	1257.45
417.73	1224.69
417.94	1222.64
418.15	1304.56
418.35	1271.79
418.56	1202.16
418.77	1249.26
418.97	1269.74
419.18	1314.80
419.38	1302.51
419.59	1292.27
419.80	1322.99
420.00	1216.49
420.21	1263.60
420.42	1304.56
420.62	1249.26
420.83	1214.45
421.04	1253.36
421.24	1220.59
421.45	1277.93
421.65	1300.46
421.86	1331.18
422.07	1320.94
422.27	1333.23
422.48	1282.03
422.69	1290.22
422.89	1284.08
423.10	1269.74
423.30	1189.87
423.51	1259.50
423.72	1288.17
423.92	1298.41
424.13	1247.21
424.33	1284.08
424.54	1261.55
424.75	1216.49
424.95	1257.45
425.16	1318.89
425.36	1193.97
425.57	1341.42
425.78	1292.27
425.98	1339.37
426.19	1279.98
426.39	1226.73
426.60	1269.74
426.81	1222.64
427.01	1284.08
427.22	1208.30
427.42	1302.51
427.63	1298.41
427.83	1181.68
428.04	1302.51
428.25	1263.60
428.45	1249.26
428.66	1239.02
428.86	1282.03
429.07	1286.12
429.28	1322.99
429.48	1333.23
429.69	1232.88
429.89	1249.26
430.10	1155.05
430.30	1228.78
430.51	1249.26
430.71	1314.80
430.92	1253.36
431.13	1279.98
431.33	1239.02
431.54	1273.84
431.74	1331.18
431.95	1325.04
432.15	1255.40
432.36	1218.54
432.56	1202.16
432.77	1228.78
432.98	1245.16
433.18	1181.68
433.39	1316.84
433.59	1279.98
433.80	1298.41
434.00	1316.84
434.21	1239.02
434.41	1318.89
434.62	1239.02
434.82	1220.59
435.03	1271.79
435.23	1212.40
435.44	1249.26
435.64	1290.22
435.85	1265.64
436.06	1271.79
436.26	1271.79
436.47	1302.51
436.67	1284.08
436.88	1288.17
437.08	1265.64
437.29	1333.23
437.49	1271.79
437.70	1304.56
437.90	1241.07
438.11	1198.06
438.31	1296.36
438.52	1265.64
438.72	1318.89
438.93	1316.84
439.13	1163.25
439.34	1312.75
439.54	1226.73
439.75	1216.49
439.95	1263.60
440.16	1253.36
440.36	1257.45
440.57	1257.45
440.77	1196.01
440.98	1253.36
441.18	1255.40
441.39	1257.45
441.59	1255.40
441.80	1302.51
442.00	1308.65
442.21	1298.41
442.41	1216.49
442.62	1318.89
442.82	1310.70
443.02	1316.84
443.23	1298.41
443.43	1333.23
443.64	1312.75
443.84	1263.60
444.05	1214.45
444.25	1265.64
444.46	1189.87
444.66	1290.22
444.87	1388.52
445.07	1333.23
445.28	1269.74
445.48	1351.66
445.69	1337.32
445.89	1247.21
446.09	1316.84
446.30	1288.17
446.50	1300.46
446.71	1208.30
446.91	1228.78
447.12	1306.60
447.32	1284.08
447.53	1271.79
447.73	1284.08
447.93	1269.74
448.14	1255.40
448.34	1318.89
448.55	1239.02
448.75	1253.36
448.96	1306.60
449.16	1265.64
449.36	1279.98
449.57	1212.40
449.77	1263.60
449.98	1329.13
450.18	1277.93
450.39	1265.64
450.59	1325.04
450.79	1204.21
451.00	1245.16
451.20	1200.11
451.41	1214.45
451.61	1267.69
451.81	1331.18
452.02	1292.27
452.22	1271.79
452.43	1331.18
452.63	1335.28
