SpectraSuite Data File
++++++++++++++++++++++++++++++++++++
Date: Sun Apr 03 19:55:35 CEST 2016
User: root
Dark Spectrum Present: No
Reference Spectrum Present: No
Number of Sampled Component Spectra: 1
Spectrometers: USB4C02835
Integration Time (usec): 10000 (USB4C02835)
Spectra Averaged: 1 (USB4C02835)
Boxcar Smoothing: 0 (USB4C02835)
Correct for Electrical Dark: No (USB4C02835)
Strobe/Lamp Enabled: No (USB4C02835)
Correct for Detector Non-linearity: No (USB4C02835)
Correct for Stray Light: No (USB4C02835)
Number of Pixels in Processed Spectrum: 3648
>>>>>Begin Processed Spectral Data<<<<<
177.47	1208.30
177.69	1208.30
177.91	1208.30
178.13	1255.40
178.36	1163.25
178.58	1298.41
178.80	1296.36
179.02	1224.69
179.24	1310.70
179.46	1304.56
179.68	1273.84
179.90	1282.03
180.13	1292.27
180.35	1245.16
180.57	1251.31
180.79	1288.17
181.01	1245.16
181.23	1257.45
181.45	1232.88
181.67	1189.87
181.90	1298.41
182.12	1257.45
182.34	1279.98
182.56	1296.36
182.78	1216.49
183.00	1232.88
183.22	1210.35
183.44	1370.09
183.66	1249.26
183.89	1304.56
184.11	1148.91
184.33	1312.75
184.55	1208.30
184.77	1275.88
184.99	1216.49
185.21	1279.98
185.43	1312.75
185.65	1298.41
185.87	1316.84
186.10	1255.40
186.32	1196.01
186.54	1294.32
186.76	1271.79
186.98	1300.46
187.20	1206.25
187.42	1226.73
187.64	1271.79
187.86	1212.40
188.08	1339.37
188.30	1308.65
188.52	1386.47
188.75	1228.78
188.97	1228.78
189.19	1296.36
189.41	1267.69
189.63	1329.13
189.85	1259.50
190.07	1275.88
190.29	1261.55
190.51	1259.50
190.73	1255.40
190.95	1265.64
191.17	1224.69
191.39	1263.60
191.61	1357.80
191.84	1312.75
192.06	1290.22
192.28	1251.31
192.50	1273.84
192.72	1249.26
192.94	1232.88
193.16	1200.11
193.38	1306.60
193.60	1142.77
193.82	1232.88
194.04	1232.88
194.26	1286.12
194.48	1171.44
194.70	1230.83
194.92	1290.22
195.14	1269.74
195.36	1210.35
195.58	1306.60
195.80	1228.78
196.02	1230.83
196.24	1247.21
196.46	1349.61
196.69	1259.50
196.91	1263.60
197.13	1236.97
197.35	1228.78
197.57	1253.36
197.79	1222.64
198.01	1339.37
198.23	1296.36
198.45	1306.60
198.67	1269.74
198.89	1347.56
199.11	1296.36
199.33	1259.50
199.55	1302.51
199.77	1310.70
199.99	1257.45
200.21	1259.50
200.43	1226.73
200.65	1282.03
200.87	1196.01
201.09	1304.56
201.31	1294.32
201.53	1261.55
201.75	1275.88
201.97	1298.41
202.19	1343.47
202.41	1243.12
202.63	1228.78
202.85	1259.50
203.07	1230.83
203.29	1327.08
203.51	1286.12
203.73	1224.69
203.95	1284.08
204.17	1310.70
204.39	1263.60
204.61	1327.08
204.83	1267.69
205.05	1214.45
205.27	1284.08
205.49	1226.73
205.71	1339.37
205.93	1253.36
206.15	1239.02
206.37	1273.84
206.59	1255.40
206.81	1249.26
207.03	1286.12
207.25	1310.70
207.47	1269.74
207.69	1310.70
207.91	1263.60
208.13	1177.58
208.34	1310.70
208.56	1204.21
208.78	1271.79
209.00	1245.16
209.22	1294.32
209.44	1359.85
209.66	1251.31
209.88	1228.78
210.10	1241.07
210.32	1218.54
210.54	1312.75
210.76	1224.69
210.98	1325.04
211.20	1202.16
211.42	1282.03
211.64	1230.83
211.86	1306.60
212.08	1214.45
212.30	1282.03
212.52	1253.36
212.74	1298.41
212.96	1251.31
213.17	1273.84
213.39	1220.59
213.61	1261.55
213.83	1292.27
214.05	1318.89
214.27	1320.94
214.49	1198.06
214.71	1255.40
214.93	1347.56
215.15	1271.79
215.37	1247.21
215.59	1294.32
215.81	1232.88
216.03	1290.22
216.24	1239.02
216.46	1302.51
216.68	1212.40
216.90	1259.50
217.12	1290.22
217.34	1218.54
217.56	1198.06
217.78	1243.12
218.00	1236.97
218.22	1245.16
218.44	1167.34
218.66	1308.65
218.87	1345.52
219.09	1314.80
219.31	1251.31
219.53	1337.32
219.75	1349.61
219.97	1302.51
220.19	1279.98
220.41	1245.16
220.63	1288.17
220.85	1308.65
221.06	1277.93
221.28	1279.98
221.50	1316.84
221.72	1275.88
221.94	1341.42
222.16	1253.36
222.38	1308.65
222.60	1277.93
222.82	1275.88
223.03	1247.21
223.25	1277.93
223.47	1282.03
223.69	1284.08
223.91	1265.64
224.13	1275.88
224.35	1282.03
224.57	1351.66
224.78	1253.36
225.00	1353.71
225.22	1247.21
225.44	1263.60
225.66	1273.84
225.88	1259.50
226.10	1339.37
226.32	1267.69
226.53	1261.55
226.75	1286.12
226.97	1179.63
227.19	1200.11
227.41	1183.73
227.63	1257.45
227.85	1261.55
228.06	1255.40
228.28	1290.22
228.50	1298.41
228.72	1288.17
228.94	1245.16
229.16	1312.75
229.37	1282.03
229.59	1267.69
229.81	1196.01
230.03	1249.26
230.25	1314.80
230.47	1261.55
230.69	1191.92
230.90	1277.93
231.12	1255.40
231.34	1296.36
231.56	1251.31
231.78	1232.88
232.00	1230.83
232.21	1204.21
232.43	1288.17
232.65	1257.45
232.87	1355.76
233.09	1257.45
233.30	1261.55
233.52	1249.26
233.74	1239.02
233.96	1239.02
234.18	1259.50
234.40	1267.69
234.61	1335.28
234.83	1198.06
235.05	1191.92
235.27	1267.69
235.49	1259.50
235.70	1269.74
235.92	1308.65
236.14	1169.39
236.36	1243.12
236.58	1275.88
236.79	1310.70
237.01	1181.68
237.23	1263.60
237.45	1290.22
237.67	1228.78
237.88	1255.40
238.10	1255.40
238.32	1339.37
238.54	1312.75
238.76	1208.30
238.97	1308.65
239.19	1269.74
239.41	1263.60
239.63	1269.74
239.85	1249.26
240.06	1181.68
240.28	1253.36
240.50	1327.08
240.72	1318.89
240.93	1312.75
241.15	1292.27
241.37	1263.60
241.59	1380.33
241.81	1259.50
242.02	1314.80
242.24	1327.08
242.46	1241.07
242.68	1267.69
242.89	1259.50
243.11	1257.45
243.33	1282.03
243.55	1200.11
243.76	1236.97
243.98	1253.36
244.20	1271.79
244.42	1265.64
244.64	1357.80
244.85	1249.26
245.07	1269.74
245.29	1253.36
245.51	1318.89
245.72	1306.60
245.94	1327.08
246.16	1288.17
246.38	1236.97
246.59	1269.74
246.81	1290.22
247.03	1257.45
247.24	1249.26
247.46	1218.54
247.68	1241.07
247.90	1351.66
248.11	1300.46
248.33	1384.43
248.55	1267.69
248.77	1214.45
248.98	1343.47
249.20	1298.41
249.42	1298.41
249.64	1271.79
249.85	1239.02
250.07	1208.30
250.29	1241.07
250.50	1290.22
250.72	1239.02
250.94	1265.64
251.16	1269.74
251.37	1196.01
251.59	1296.36
251.81	1243.12
252.02	1265.64
252.24	1263.60
252.46	1241.07
252.68	1232.88
252.89	1263.60
253.11	1243.12
253.33	1310.70
253.54	1325.04
253.76	1271.79
253.98	1288.17
254.20	1296.36
254.41	1263.60
254.63	1261.55
254.85	1329.13
255.06	1265.64
255.28	1322.99
255.50	1290.22
255.71	1277.93
255.93	1265.64
256.15	1263.60
256.36	1271.79
256.58	1253.36
256.80	1263.60
257.02	1339.37
257.23	1245.16
257.45	1226.73
257.67	1331.18
257.88	1261.55
258.10	1269.74
258.32	1245.16
258.53	1290.22
258.75	1290.22
258.97	1222.64
259.18	1312.75
259.40	1294.32
259.62	1273.84
259.83	1345.52
260.05	1329.13
260.27	1329.13
260.48	1275.88
260.70	1210.35
260.92	1247.21
261.13	1261.55
261.35	1320.94
261.57	1322.99
261.78	1245.16
262.00	1226.73
262.22	1306.60
262.43	1308.65
262.65	1216.49
262.86	1218.54
263.08	1224.69
263.30	1308.65
263.51	1241.07
263.73	1185.77
263.95	1329.13
264.16	1241.07
264.38	1273.84
264.60	1259.50
264.81	1277.93
265.03	1290.22
265.25	1279.98
265.46	1277.93
265.68	1306.60
265.89	1302.51
266.11	1214.45
266.33	1257.45
266.54	1349.61
266.76	1282.03
266.98	1275.88
267.19	1222.64
267.41	1288.17
267.62	1282.03
267.84	1282.03
268.06	1312.75
268.27	1279.98
268.49	1251.31
268.70	1224.69
268.92	1341.42
269.14	1269.74
269.35	1277.93
269.57	1302.51
269.79	1267.69
270.00	1329.13
270.22	1232.88
270.43	1265.64
270.65	1236.97
270.87	1234.93
271.08	1206.25
271.30	1214.45
271.51	1318.89
271.73	1282.03
271.95	1277.93
272.16	1292.27
272.38	1284.08
272.59	1308.65
272.81	1191.92
273.02	1253.36
273.24	1253.36
273.46	1212.40
273.67	1275.88
273.89	1245.16
274.10	1331.18
274.32	1179.63
274.54	1234.93
274.75	1261.55
274.97	1239.02
275.18	1191.92
275.40	1239.02
275.61	1302.51
275.83	1306.60
276.05	1249.26
276.26	1267.69
276.48	1304.56
276.69	1343.47
276.91	1257.45
277.12	1294.32
277.34	1300.46
277.55	1337.32
277.77	1253.36
277.99	1263.60
278.20	1185.77
278.42	1327.08
278.63	1239.02
278.85	1284.08
279.06	1294.32
279.28	1253.36
279.49	1275.88
279.71	1341.42
279.93	1208.30
280.14	1282.03
280.36	1265.64
280.57	1279.98
280.79	1325.04
281.00	1279.98
281.22	1249.26
281.43	1228.78
281.65	1214.45
281.86	1302.51
282.08	1241.07
282.29	1284.08
282.51	1249.26
282.73	1214.45
282.94	1226.73
283.16	1261.55
283.37	1343.47
283.59	1232.88
283.80	1257.45
284.02	1265.64
284.23	1349.61
284.45	1265.64
284.66	1294.32
284.88	1251.31
285.09	1259.50
285.31	1228.78
285.52	1261.55
285.74	1210.35
285.95	1290.22
286.17	1247.21
286.38	1282.03
286.60	1267.69
286.81	1267.69
287.03	1273.84
287.24	1239.02
287.46	1216.49
287.67	1251.31
287.89	1337.32
288.10	1269.74
288.32	1273.84
288.53	1218.54
288.75	1329.13
288.96	1271.79
289.18	1247.21
289.39	1308.65
289.61	1228.78
289.82	1249.26
290.04	1263.60
290.25	1292.27
290.47	1257.45
290.68	1220.59
290.90	1218.54
291.11	1286.12
291.33	1273.84
291.54	1304.56
291.76	1265.64
291.97	1257.45
292.18	1335.28
292.40	1288.17
292.61	1277.93
292.83	1331.18
293.04	1271.79
293.26	1261.55
293.47	1284.08
293.69	1288.17
293.90	1255.40
294.12	1282.03
294.33	1304.56
294.55	1275.88
294.76	1286.12
294.97	1273.84
295.19	1261.55
295.40	1247.21
295.62	1228.78
295.83	1314.80
296.05	1208.30
296.26	1183.73
296.48	1267.69
296.69	1300.46
296.90	1298.41
297.12	1218.54
297.33	1257.45
297.55	1357.80
297.76	1322.99
297.98	1314.80
298.19	1247.21
298.41	1214.45
298.62	1222.64
298.83	1273.84
299.05	1232.88
299.26	1251.31
299.48	1318.89
299.69	1275.88
299.90	1282.03
300.12	1230.83
300.33	1255.40
300.55	1310.70
300.76	1202.16
300.98	1306.60
301.19	1241.07
301.40	1298.41
301.62	1171.44
301.83	1275.88
302.05	1269.74
302.26	1239.02
302.47	1263.60
302.69	1226.73
302.90	1327.08
303.12	1277.93
303.33	1304.56
303.54	1298.41
303.76	1259.50
303.97	1290.22
304.19	1277.93
304.40	1282.03
304.61	1286.12
304.83	1253.36
305.04	1259.50
305.26	1331.18
305.47	1310.70
305.68	1265.64
305.90	1232.88
306.11	1284.08
306.33	1214.45
306.54	1271.79
306.75	1214.45
306.97	1222.64
307.18	1284.08
307.39	1292.27
307.61	1302.51
307.82	1269.74
308.04	1353.71
308.25	1366.00
308.46	1275.88
308.68	1284.08
308.89	1251.31
309.10	1320.94
309.32	1331.18
309.53	1294.32
309.74	1277.93
309.96	1210.35
310.17	1253.36
310.39	1249.26
310.60	1243.12
310.81	1218.54
311.03	1302.51
311.24	1173.49
311.45	1288.17
311.67	1243.12
311.88	1341.42
312.09	1312.75
312.31	1345.52
312.52	1318.89
312.73	1251.31
312.95	1273.84
313.16	1204.21
313.37	1243.12
313.59	1214.45
313.80	1314.80
314.01	1359.85
314.23	1265.64
314.44	1343.47
314.65	1286.12
314.87	1257.45
315.08	1247.21
315.29	1292.27
315.51	1325.04
315.72	1341.42
315.93	1279.98
316.15	1286.12
316.36	1222.64
316.57	1234.93
316.79	1216.49
317.00	1239.02
317.21	1265.64
317.43	1269.74
317.64	1300.46
317.85	1251.31
318.07	1202.16
318.28	1239.02
318.49	1267.69
318.70	1292.27
318.92	1302.51
319.13	1236.97
319.34	1236.97
319.56	1255.40
319.77	1279.98
319.98	1265.64
320.20	1251.31
320.41	1312.75
320.62	1177.58
320.83	1271.79
321.05	1263.60
321.26	1343.47
321.47	1255.40
321.69	1183.73
321.90	1277.93
322.11	1286.12
322.32	1206.25
322.54	1214.45
322.75	1249.26
322.96	1277.93
323.18	1296.36
323.39	1282.03
323.60	1277.93
323.81	1257.45
324.03	1304.56
324.24	1282.03
324.45	1265.64
324.66	1284.08
324.88	1357.80
325.09	1224.69
325.30	1245.16
325.52	1226.73
325.73	1349.61
325.94	1290.22
326.15	1312.75
326.37	1249.26
326.58	1245.16
326.79	1259.50
327.00	1259.50
327.22	1187.82
327.43	1198.06
327.64	1286.12
327.85	1251.31
328.07	1267.69
328.28	1239.02
328.49	1163.25
328.70	1314.80
328.92	1284.08
329.13	1224.69
329.34	1261.55
329.55	1255.40
329.76	1226.73
329.98	1193.97
330.19	1247.21
330.40	1265.64
330.61	1316.84
330.83	1222.64
331.04	1241.07
331.25	1288.17
331.46	1279.98
331.68	1312.75
331.89	1232.88
332.10	1224.69
332.31	1241.07
332.52	1277.93
332.74	1236.97
332.95	1275.88
333.16	1292.27
333.37	1241.07
333.58	1247.21
333.80	1230.83
334.01	1316.84
334.22	1310.70
334.43	1202.16
334.64	1253.36
334.86	1191.92
335.07	1140.72
335.28	1292.27
335.49	1279.98
335.70	1191.92
335.92	1187.82
336.13	1257.45
336.34	1290.22
336.55	1290.22
336.76	1239.02
336.98	1325.04
337.19	1247.21
337.40	1277.93
337.61	1226.73
337.82	1220.59
338.04	1255.40
338.25	1243.12
338.46	1206.25
338.67	1335.28
338.88	1228.78
339.09	1265.64
339.31	1329.13
339.52	1290.22
339.73	1153.01
339.94	1306.60
340.15	1228.78
340.36	1329.13
340.58	1255.40
340.79	1300.46
341.00	1300.46
341.21	1304.56
341.42	1208.30
341.63	1265.64
341.85	1241.07
342.06	1245.16
342.27	1241.07
342.48	1296.36
342.69	1273.84
342.90	1259.50
343.12	1325.04
343.33	1271.79
343.54	1228.78
343.75	1282.03
343.96	1204.21
344.17	1265.64
344.38	1224.69
344.60	1304.56
344.81	1214.45
345.02	1241.07
345.23	1302.51
345.44	1300.46
345.65	1271.79
345.86	1288.17
346.07	1300.46
346.29	1214.45
346.50	1314.80
346.71	1290.22
346.92	1337.32
347.13	1308.65
347.34	1333.23
347.55	1261.55
347.76	1257.45
347.98	1284.08
348.19	1236.97
348.40	1259.50
348.61	1257.45
348.82	1298.41
349.03	1267.69
349.24	1218.54
349.45	1329.13
349.66	1181.68
349.88	1224.69
350.09	1277.93
350.30	1288.17
350.51	1265.64
350.72	1253.36
350.93	1253.36
351.14	1241.07
351.35	1243.12
351.56	1259.50
351.77	1255.40
351.99	1302.51
352.20	1279.98
352.41	1306.60
352.62	1275.88
352.83	1306.60
353.04	1263.60
353.25	1279.98
353.46	1327.08
353.67	1208.30
353.88	1320.94
354.09	1302.51
354.30	1247.21
354.52	1226.73
354.73	1279.98
354.94	1306.60
355.15	1261.55
355.36	1298.41
355.57	1232.88
355.78	1288.17
355.99	1277.93
356.20	1286.12
356.41	1337.32
356.62	1277.93
356.83	1263.60
357.04	1288.17
357.25	1214.45
357.46	1269.74
357.68	1282.03
357.89	1265.64
358.10	1212.40
358.31	1251.31
358.52	1249.26
358.73	1249.26
358.94	1251.31
359.15	1282.03
359.36	1314.80
359.57	1290.22
359.78	1314.80
359.99	1257.45
360.20	1312.75
360.41	1257.45
360.62	1232.88
360.83	1247.21
361.04	1302.51
361.25	1249.26
361.46	1284.08
361.67	1243.12
361.88	1259.50
362.09	1257.45
362.30	1267.69
362.51	1265.64
362.72	1325.04
362.93	1243.12
363.14	1208.30
363.35	1290.22
363.56	1218.54
363.78	1239.02
363.99	1253.36
364.20	1282.03
364.41	1202.16
364.62	1298.41
364.83	1234.93
365.04	1230.83
365.25	1185.77
365.46	1257.45
365.67	1286.12
365.88	1353.71
366.09	1271.79
366.30	1259.50
366.51	1316.84
366.72	1318.89
366.93	1267.69
367.14	1308.65
367.35	1271.79
367.56	1204.21
367.77	1265.64
367.98	1210.35
368.18	1306.60
368.39	1306.60
368.60	1275.88
368.81	1275.88
369.02	1249.26
369.23	1224.69
369.44	1314.80
369.65	1251.31
369.86	1241.07
370.07	1234.93
370.28	1253.36
370.49	1308.65
370.70	1288.17
370.91	1265.64
371.12	1263.60
371.33	1230.83
371.54	1269.74
371.75	1269.74
371.96	1341.42
372.17	1251.31
372.38	1267.69
372.59	1220.59
372.80	1294.32
373.01	1234.93
373.22	1247.21
373.43	1224.69
373.64	1325.04
373.85	1294.32
374.06	1265.64
374.26	1310.70
374.47	1290.22
374.68	1290.22
374.89	1253.36
375.10	1253.36
375.31	1314.80
375.52	1249.26
375.73	1226.73
375.94	1216.49
376.15	1298.41
376.36	1255.40
376.57	1277.93
376.78	1277.93
376.99	1267.69
377.20	1310.70
377.40	1191.92
377.61	1271.79
377.82	1271.79
378.03	1296.36
378.24	1198.06
378.45	1310.70
378.66	1284.08
378.87	1294.32
379.08	1255.40
379.29	1216.49
379.50	1271.79
379.71	1327.08
379.91	1255.40
380.12	1277.93
380.33	1284.08
380.54	1220.59
380.75	1304.56
380.96	1257.45
381.17	1222.64
381.38	1318.89
381.59	1155.05
381.80	1216.49
382.00	1273.84
382.21	1226.73
382.42	1288.17
382.63	1222.64
382.84	1249.26
383.05	1230.83
383.26	1247.21
383.47	1232.88
383.68	1290.22
383.88	1144.81
384.09	1325.04
384.30	1275.88
384.51	1263.60
384.72	1341.42
384.93	1279.98
385.14	1310.70
385.35	1230.83
385.55	1296.36
385.76	1239.02
385.97	1277.93
386.18	1273.84
386.39	1331.18
386.60	1296.36
386.81	1290.22
387.02	1200.11
387.22	1259.50
387.43	1261.55
387.64	1304.56
387.85	1255.40
388.06	1224.69
388.27	1273.84
388.48	1257.45
388.68	1286.12
388.89	1249.26
389.10	1247.21
389.31	1239.02
389.52	1253.36
389.73	1243.12
389.93	1249.26
390.14	1279.98
390.35	1208.30
390.56	1212.40
390.77	1269.74
390.98	1279.98
391.18	1251.31
391.39	1273.84
391.60	1230.83
391.81	1193.97
392.02	1329.13
392.23	1296.36
392.43	1282.03
392.64	1247.21
392.85	1247.21
393.06	1271.79
393.27	1216.49
393.47	1333.23
393.68	1310.70
393.89	1359.85
394.10	1269.74
394.31	1294.32
394.52	1269.74
394.72	1275.88
394.93	1277.93
395.14	1312.75
395.35	1265.64
395.56	1288.17
395.76	1243.12
395.97	1286.12
396.18	1284.08
396.39	1265.64
396.60	1191.92
396.80	1290.22
397.01	1304.56
397.22	1282.03
397.43	1337.32
397.64	1359.85
397.84	1261.55
398.05	1353.71
398.26	1239.02
398.47	1273.84
398.67	1322.99
398.88	1249.26
399.09	1212.40
399.30	1273.84
399.51	1243.12
399.71	1193.97
399.92	1224.69
400.13	1261.55
400.34	1288.17
400.54	1300.46
400.75	1282.03
400.96	1247.21
401.17	1241.07
401.37	1239.02
401.58	1236.97
401.79	1239.02
402.00	1191.92
402.21	1329.13
402.41	1226.73
402.62	1245.16
402.83	1290.22
403.04	1255.40
403.24	1282.03
403.45	1191.92
403.66	1314.80
403.87	1292.27
404.07	1282.03
404.28	1282.03
404.49	1232.88
404.70	1216.49
404.90	1296.36
405.11	1316.84
405.32	1249.26
405.52	1292.27
405.73	1222.64
405.94	1275.88
406.15	1263.60
406.35	1255.40
406.56	1261.55
406.77	1263.60
406.98	1314.80
407.18	1253.36
407.39	1294.32
407.60	1224.69
407.80	1279.98
408.01	1220.59
408.22	1204.21
408.43	1265.64
408.63	1247.21
408.84	1310.70
409.05	1214.45
409.25	1228.78
409.46	1241.07
409.67	1228.78
409.88	1292.27
410.08	1232.88
410.29	1263.60
410.50	1241.07
410.70	1224.69
410.91	1261.55
411.12	1327.08
411.32	1290.22
411.53	1263.60
411.74	1288.17
411.95	1273.84
412.15	1308.65
412.36	1191.92
412.57	1333.23
412.77	1314.80
412.98	1353.71
413.19	1245.16
413.39	1259.50
413.60	1331.18
413.81	1253.36
414.01	1263.60
414.22	1247.21
414.43	1302.51
414.63	1253.36
414.84	1296.36
415.05	1159.15
415.25	1208.30
415.46	1300.46
415.67	1277.93
415.87	1230.83
416.08	1259.50
416.29	1341.42
416.49	1241.07
416.70	1232.88
416.91	1320.94
417.11	1312.75
417.32	1247.21
417.53	1290.22
417.73	1294.32
417.94	1222.64
418.15	1206.25
418.35	1298.41
418.56	1241.07
418.77	1220.59
418.97	1193.97
419.18	1222.64
419.38	1228.78
419.59	1308.65
419.80	1335.28
420.00	1288.17
420.21	1318.89
420.42	1296.36
420.62	1261.55
420.83	1245.16
421.04	1204.21
421.24	1312.75
421.45	1277.93
421.65	1318.89
421.86	1318.89
422.07	1320.94
422.27	1322.99
422.48	1312.75
422.69	1247.21
422.89	1316.84
423.10	1302.51
423.30	1224.69
423.51	1251.31
423.72	1298.41
423.92	1353.71
424.13	1259.50
424.33	1279.98
424.54	1234.93
424.75	1304.56
424.95	1247.21
425.16	1312.75
425.36	1267.69
425.57	1308.65
425.78	1314.80
425.98	1339.37
426.19	1312.75
426.39	1241.07
426.60	1292.27
426.81	1296.36
427.01	1251.31
427.22	1302.51
427.42	1290.22
427.63	1288.17
427.83	1316.84
428.04	1263.60
428.25	1279.98
428.45	1216.49
428.66	1261.55
428.86	1259.50
429.07	1253.36
429.28	1230.83
429.48	1290.22
429.69	1329.13
429.89	1343.47
430.10	1310.70
430.30	1273.84
430.51	1366.00
430.71	1175.53
430.92	1306.60
431.13	1202.16
431.33	1282.03
431.54	1275.88
431.74	1247.21
431.95	1349.61
432.15	1308.65
432.36	1187.82
432.56	1343.47
432.77	1255.40
432.98	1286.12
433.18	1300.46
433.39	1284.08
433.59	1282.03
433.80	1329.13
434.00	1288.17
434.21	1296.36
434.41	1296.36
434.62	1286.12
434.82	1275.88
435.03	1302.51
435.23	1196.01
435.44	1196.01
435.64	1275.88
435.85	1282.03
436.06	1247.21
436.26	1333.23
436.47	1284.08
436.67	1267.69
436.88	1284.08
437.08	1236.97
437.29	1279.98
437.49	1269.74
437.70	1282.03
437.90	1263.60
438.11	1224.69
438.31	1288.17
438.52	1329.13
438.72	1314.80
438.93	1273.84
439.13	1198.06
439.34	1234.93
439.54	1263.60
439.75	1241.07
439.95	1306.60
440.16	1228.78
440.36	1226.73
440.57	1208.30
440.77	1345.52
440.98	1267.69
441.18	1269.74
441.39	1318.89
441.59	1222.64
441.80	1284.08
442.00	1296.36
442.21	1269.74
442.41	1329.13
442.62	1329.13
442.82	1216.49
443.02	1257.45
443.23	1314.80
443.43	1325.04
443.64	1279.98
443.84	1282.03
444.05	1298.41
444.25	1275.88
444.46	1325.04
444.66	1302.51
444.87	1187.82
445.07	1263.60
445.28	1292.27
445.48	1386.47
445.69	1316.84
445.89	1306.60
446.09	1310.70
446.30	1290.22
446.50	1288.17
446.71	1304.56
446.91	1300.46
447.12	1288.17
447.32	1275.88
447.53	1243.12
447.73	1169.39
447.93	1288.17
448.14	1306.60
448.34	1320.94
448.55	1273.84
448.75	1335.28
448.96	1355.76
449.16	1255.40
449.36	1261.55
449.57	1259.50
449.77	1298.41
449.98	1292.27
450.18	1241.07
450.39	1296.36
450.59	1218.54
450.79	1296.36
451.00	1220.59
451.20	1249.26
451.41	1271.79
451.61	1302.51
451.81	1216.49
452.02	1310.70
452.22	1257.45
452.43	1298.41
452.63	1279.98
