SpectraSuite Data File
++++++++++++++++++++++++++++++++++++
Date: Sun Apr 03 19:55:35 CEST 2016
User: root
Dark Spectrum Present: No
Reference Spectrum Present: No
Number of Sampled Component Spectra: 1
Spectrometers: USB4C02835
Integration Time (usec): 10000 (USB4C02835)
Spectra Averaged: 1 (USB4C02835)
Boxcar Smoothing: 0 (USB4C02835)
Correct for Electrical Dark: No (USB4C02835)
Strobe/Lamp Enabled: No (USB4C02835)
Correct for Detector Non-linearity: No (USB4C02835)
Correct for Stray Light: No (USB4C02835)
Number of Pixels in Processed Spectrum: 3648
>>>>>Begin Processed Spectral Data<<<<<
177.47	1320.94
177.69	1320.94
177.91	1320.94
178.13	1234.93
178.36	1185.77
178.58	1277.93
178.80	1282.03
179.02	1275.88
179.24	1232.88
179.46	1257.45
179.68	1265.64
179.90	1218.54
180.13	1306.60
180.35	1245.16
180.57	1304.56
180.79	1279.98
181.01	1210.35
181.23	1259.50
181.45	1249.26
181.67	1349.61
181.90	1300.46
182.12	1255.40
182.34	1187.82
182.56	1232.88
182.78	1275.88
183.00	1288.17
183.22	1322.99
183.44	1257.45
183.66	1279.98
183.89	1314.80
184.11	1247.21
184.33	1294.32
184.55	1277.93
184.77	1316.84
184.99	1251.31
185.21	1298.41
185.43	1269.74
185.65	1216.49
185.87	1257.45
186.10	1308.65
186.32	1261.55
186.54	1275.88
186.76	1306.60
186.98	1302.51
187.20	1290.22
187.42	1249.26
187.64	1265.64
187.86	1214.45
188.08	1267.69
188.30	1279.98
188.52	1259.50
188.75	1273.84
188.97	1288.17
189.19	1290.22
189.41	1308.65
189.63	1339.37
189.85	1234.93
190.07	1212.40
190.29	1304.56
190.51	1216.49
190.73	1304.56
190.95	1312.75
191.17	1234.93
191.39	1198.06
191.61	1271.79
191.84	1245.16
192.06	1290.22
192.28	1241.07
192.50	1255.40
192.72	1243.12
192.94	1300.46
193.16	1257.45
193.38	1298.41
193.60	1261.55
193.82	1284.08
194.04	1290.22
194.26	1282.03
194.48	1282.03
194.70	1298.41
194.92	1269.74
195.14	1296.36
195.36	1335.28
195.58	1296.36
195.80	1314.80
196.02	1265.64
196.24	1263.60
196.46	1282.03
196.69	1224.69
196.91	1259.50
197.13	1226.73
197.35	1218.54
197.57	1198.06
197.79	1212.40
198.01	1245.16
198.23	1241.07
198.45	1216.49
198.67	1263.60
198.89	1251.31
199.11	1247.21
199.33	1236.97
199.55	1290.22
199.77	1275.88
199.99	1224.69
200.21	1239.02
200.43	1251.31
200.65	1214.45
200.87	1196.01
201.09	1327.08
201.31	1331.18
201.53	1263.60
201.75	1265.64
201.97	1279.98
202.19	1257.45
202.41	1212.40
202.63	1282.03
202.85	1296.36
203.07	1363.95
203.29	1269.74
203.51	1249.26
203.73	1267.69
203.95	1241.07
204.17	1249.26
204.39	1333.23
204.61	1232.88
204.83	1222.64
205.05	1308.65
205.27	1228.78
205.49	1191.92
205.71	1273.84
205.93	1273.84
206.15	1269.74
206.37	1316.84
206.59	1249.26
206.81	1181.68
207.03	1302.51
207.25	1269.74
207.47	1312.75
207.69	1255.40
207.91	1312.75
208.13	1349.61
208.34	1277.93
208.56	1308.65
208.78	1251.31
209.00	1271.79
209.22	1247.21
209.44	1306.60
209.66	1245.16
209.88	1259.50
210.10	1275.88
210.32	1224.69
210.54	1249.26
210.76	1271.79
210.98	1257.45
211.20	1220.59
211.42	1259.50
211.64	1290.22
211.86	1302.51
212.08	1294.32
212.30	1314.80
212.52	1241.07
212.74	1179.63
212.96	1247.21
213.17	1228.78
213.39	1208.30
213.61	1355.76
213.83	1286.12
214.05	1316.84
214.27	1163.25
214.49	1284.08
214.71	1271.79
214.93	1234.93
215.15	1232.88
215.37	1228.78
215.59	1296.36
215.81	1273.84
216.03	1271.79
216.24	1265.64
216.46	1284.08
216.68	1300.46
216.90	1288.17
217.12	1288.17
217.34	1236.97
217.56	1263.60
217.78	1271.79
218.00	1279.98
218.22	1271.79
218.44	1257.45
218.66	1234.93
218.87	1216.49
219.09	1255.40
219.31	1261.55
219.53	1275.88
219.75	1214.45
219.97	1265.64
220.19	1265.64
220.41	1331.18
220.63	1312.75
220.85	1284.08
221.06	1257.45
221.28	1232.88
221.50	1261.55
221.72	1208.30
221.94	1296.36
222.16	1265.64
222.38	1257.45
222.60	1275.88
222.82	1306.60
223.03	1259.50
223.25	1273.84
223.47	1308.65
223.69	1247.21
223.91	1363.95
224.13	1269.74
224.35	1247.21
224.57	1282.03
224.78	1282.03
225.00	1329.13
225.22	1263.60
225.44	1282.03
225.66	1275.88
225.88	1245.16
226.10	1300.46
226.32	1263.60
226.53	1241.07
226.75	1228.78
226.97	1325.04
227.19	1271.79
227.41	1247.21
227.63	1275.88
227.85	1271.79
228.06	1263.60
228.28	1284.08
228.50	1249.26
228.72	1257.45
228.94	1212.40
229.16	1343.47
229.37	1200.11
229.59	1210.35
229.81	1333.23
230.03	1259.50
230.25	1249.26
230.47	1298.41
230.69	1335.28
230.90	1251.31
231.12	1282.03
231.34	1181.68
231.56	1273.84
231.78	1263.60
232.00	1314.80
232.21	1269.74
232.43	1253.36
232.65	1210.35
232.87	1279.98
233.09	1226.73
233.30	1351.66
233.52	1267.69
233.74	1249.26
233.96	1282.03
234.18	1226.73
234.40	1318.89
234.61	1327.08
234.83	1236.97
235.05	1239.02
235.27	1282.03
235.49	1261.55
235.70	1232.88
235.92	1245.16
236.14	1282.03
236.36	1196.01
236.58	1288.17
236.79	1304.56
237.01	1208.30
237.23	1228.78
237.45	1294.32
237.67	1308.65
237.88	1284.08
238.10	1312.75
238.32	1314.80
238.54	1253.36
238.76	1253.36
238.97	1292.27
239.19	1210.35
239.41	1347.56
239.63	1267.69
239.85	1294.32
240.06	1257.45
240.28	1279.98
240.50	1251.31
240.72	1284.08
240.93	1368.04
241.15	1267.69
241.37	1212.40
241.59	1288.17
241.81	1277.93
242.02	1329.13
242.24	1206.25
242.46	1259.50
242.68	1273.84
242.89	1267.69
243.11	1275.88
243.33	1288.17
243.55	1253.36
243.76	1261.55
243.98	1308.65
244.20	1224.69
244.42	1226.73
244.64	1185.77
244.85	1265.64
245.07	1300.46
245.29	1284.08
245.51	1292.27
245.72	1296.36
245.94	1363.95
246.16	1251.31
246.38	1222.64
246.59	1296.36
246.81	1273.84
247.03	1271.79
247.24	1241.07
247.46	1179.63
247.68	1263.60
247.90	1296.36
248.11	1277.93
248.33	1261.55
248.55	1294.32
248.77	1249.26
248.98	1300.46
249.20	1228.78
249.42	1306.60
249.64	1265.64
249.85	1239.02
250.07	1236.97
250.29	1284.08
250.50	1290.22
250.72	1232.88
250.94	1290.22
251.16	1275.88
251.37	1265.64
251.59	1294.32
251.81	1277.93
252.02	1251.31
252.24	1361.90
252.46	1265.64
252.68	1216.49
252.89	1218.54
253.11	1290.22
253.33	1288.17
253.54	1224.69
253.76	1253.36
253.98	1259.50
254.20	1286.12
254.41	1224.69
254.63	1308.65
254.85	1275.88
255.06	1279.98
255.28	1300.46
255.50	1290.22
255.71	1329.13
255.93	1193.97
256.15	1286.12
256.36	1249.26
256.58	1175.53
256.80	1265.64
257.02	1314.80
257.23	1335.28
257.45	1218.54
257.67	1232.88
257.88	1243.12
258.10	1267.69
258.32	1288.17
258.53	1245.16
258.75	1241.07
258.97	1310.70
259.18	1245.16
259.40	1294.32
259.62	1279.98
259.83	1329.13
260.05	1236.97
260.27	1269.74
260.48	1286.12
260.70	1232.88
260.92	1320.94
261.13	1271.79
261.35	1249.26
261.57	1271.79
261.78	1247.21
262.00	1296.36
262.22	1222.64
262.43	1296.36
262.65	1302.51
262.86	1343.47
263.08	1277.93
263.30	1267.69
263.51	1191.92
263.73	1302.51
263.95	1243.12
264.16	1284.08
264.38	1200.11
264.60	1265.64
264.81	1345.52
265.03	1292.27
265.25	1249.26
265.46	1200.11
265.68	1267.69
265.89	1277.93
266.11	1261.55
266.33	1279.98
266.54	1228.78
266.76	1304.56
266.98	1286.12
267.19	1269.74
267.41	1306.60
267.62	1214.45
267.84	1294.32
268.06	1232.88
268.27	1253.36
268.49	1255.40
268.70	1267.69
268.92	1239.02
269.14	1282.03
269.35	1236.97
269.57	1263.60
269.79	1236.97
270.00	1269.74
270.22	1253.36
270.43	1212.40
270.65	1267.69
270.87	1249.26
271.08	1308.65
271.30	1265.64
271.51	1245.16
271.73	1275.88
271.95	1232.88
272.16	1265.64
272.38	1333.23
272.59	1259.50
272.81	1290.22
273.02	1204.21
273.24	1273.84
273.46	1286.12
273.67	1288.17
273.89	1214.45
274.10	1218.54
274.32	1241.07
274.54	1253.36
274.75	1304.56
274.97	1310.70
275.18	1269.74
275.40	1243.12
275.61	1206.25
275.83	1210.35
276.05	1343.47
276.26	1243.12
276.48	1241.07
276.69	1298.41
276.91	1243.12
277.12	1310.70
277.34	1224.69
277.55	1292.27
277.77	1282.03
277.99	1230.83
278.20	1228.78
278.42	1187.82
278.63	1257.45
278.85	1255.40
279.06	1273.84
279.28	1241.07
279.49	1265.64
279.71	1247.21
279.93	1183.73
280.14	1277.93
280.36	1282.03
280.57	1241.07
280.79	1269.74
281.00	1271.79
281.22	1267.69
281.43	1290.22
281.65	1294.32
281.86	1296.36
282.08	1310.70
282.29	1259.50
282.51	1316.84
282.73	1327.08
282.94	1183.73
283.16	1286.12
283.37	1316.84
283.59	1261.55
283.80	1245.16
284.02	1247.21
284.23	1294.32
284.45	1255.40
284.66	1318.89
284.88	1302.51
285.09	1339.37
285.31	1275.88
285.52	1255.40
285.74	1251.31
285.95	1339.37
286.17	1193.97
286.38	1239.02
286.60	1322.99
286.81	1275.88
287.03	1306.60
287.24	1249.26
287.46	1241.07
287.67	1257.45
287.89	1261.55
288.10	1351.66
288.32	1212.40
288.53	1331.18
288.75	1249.26
288.96	1243.12
289.18	1247.21
289.39	1279.98
289.61	1253.36
289.82	1335.28
290.04	1259.50
290.25	1306.60
290.47	1286.12
290.68	1245.16
290.90	1230.83
291.11	1253.36
291.33	1331.18
291.54	1251.31
291.76	1288.17
291.97	1228.78
292.18	1249.26
292.40	1187.82
292.61	1222.64
292.83	1304.56
293.04	1288.17
293.26	1282.03
293.47	1253.36
293.69	1267.69
293.90	1263.60
294.12	1236.97
294.33	1290.22
294.55	1300.46
294.76	1275.88
294.97	1294.32
295.19	1296.36
295.40	1144.81
295.62	1243.12
295.83	1304.56
296.05	1304.56
296.26	1249.26
296.48	1277.93
296.69	1234.93
296.90	1290.22
297.12	1261.55
297.33	1247.21
297.55	1390.57
297.76	1290.22
297.98	1208.30
298.19	1249.26
298.41	1239.02
298.62	1273.84
298.83	1245.16
299.05	1306.60
299.26	1296.36
299.48	1345.52
299.69	1304.56
299.90	1241.07
300.12	1249.26
300.33	1249.26
300.55	1239.02
300.76	1333.23
300.98	1265.64
301.19	1335.28
301.40	1249.26
301.62	1306.60
301.83	1163.25
302.05	1284.08
302.26	1257.45
302.47	1239.02
302.69	1200.11
302.90	1286.12
303.12	1284.08
303.33	1232.88
303.54	1286.12
303.76	1339.37
303.97	1185.77
304.19	1329.13
304.40	1193.97
304.61	1298.41
304.83	1308.65
305.04	1302.51
305.26	1243.12
305.47	1247.21
305.68	1234.93
305.90	1239.02
306.11	1234.93
306.33	1314.80
306.54	1247.21
306.75	1259.50
306.97	1222.64
307.18	1273.84
307.39	1294.32
307.61	1320.94
307.82	1206.25
308.04	1284.08
308.25	1275.88
308.46	1230.83
308.68	1251.31
308.89	1304.56
309.10	1226.73
309.32	1288.17
309.53	1249.26
309.74	1314.80
309.96	1261.55
310.17	1282.03
310.39	1271.79
310.60	1290.22
310.81	1368.04
311.03	1273.84
311.24	1322.99
311.45	1306.60
311.67	1253.36
311.88	1259.50
312.09	1257.45
312.31	1236.97
312.52	1308.65
312.73	1263.60
312.95	1265.64
313.16	1273.84
313.37	1318.89
313.59	1263.60
313.80	1265.64
314.01	1218.54
314.23	1257.45
314.44	1286.12
314.65	1206.25
314.87	1343.47
315.08	1306.60
315.29	1339.37
315.51	1263.60
315.72	1259.50
315.93	1279.98
316.15	1263.60
316.36	1226.73
316.57	1310.70
316.79	1210.35
317.00	1275.88
317.21	1228.78
317.43	1234.93
317.64	1220.59
317.85	1249.26
318.07	1245.16
318.28	1288.17
318.49	1273.84
318.70	1286.12
318.92	1304.56
319.13	1230.83
319.34	1314.80
319.56	1282.03
319.77	1279.98
319.98	1279.98
320.20	1247.21
320.41	1271.79
320.62	1347.56
320.83	1255.40
321.05	1298.41
321.26	1263.60
321.47	1282.03
321.69	1265.64
321.90	1271.79
322.11	1214.45
322.32	1196.01
322.54	1243.12
322.75	1271.79
322.96	1267.69
323.18	1216.49
323.39	1230.83
323.60	1236.97
323.81	1277.93
324.03	1253.36
324.24	1265.64
324.45	1329.13
324.66	1208.30
324.88	1308.65
325.09	1300.46
325.30	1296.36
325.52	1228.78
325.73	1251.31
325.94	1239.02
326.15	1263.60
326.37	1251.31
326.58	1212.40
326.79	1257.45
327.00	1255.40
327.22	1279.98
327.43	1263.60
327.64	1261.55
327.85	1306.60
328.07	1310.70
328.28	1239.02
328.49	1257.45
328.70	1212.40
328.92	1325.04
329.13	1277.93
329.34	1259.50
329.55	1208.30
329.76	1228.78
329.98	1204.21
330.19	1257.45
330.40	1232.88
330.61	1236.97
330.83	1288.17
331.04	1269.74
331.25	1302.51
331.46	1236.97
331.68	1241.07
331.89	1239.02
332.10	1320.94
332.31	1275.88
332.52	1232.88
332.74	1265.64
332.95	1306.60
333.16	1228.78
333.37	1249.26
333.58	1310.70
333.80	1302.51
334.01	1279.98
334.22	1269.74
334.43	1249.26
334.64	1253.36
334.86	1306.60
335.07	1234.93
335.28	1214.45
335.49	1243.12
335.70	1251.31
335.92	1204.21
336.13	1314.80
336.34	1245.16
336.55	1282.03
336.76	1265.64
336.98	1273.84
337.19	1284.08
337.40	1261.55
337.61	1284.08
337.82	1239.02
338.04	1265.64
338.25	1232.88
338.46	1236.97
338.67	1255.40
338.88	1290.22
339.09	1208.30
339.31	1230.83
339.52	1224.69
339.73	1253.36
339.94	1204.21
340.15	1284.08
340.36	1208.30
340.58	1241.07
340.79	1245.16
341.00	1208.30
341.21	1241.07
341.42	1247.21
341.63	1265.64
341.85	1275.88
342.06	1271.79
342.27	1257.45
342.48	1263.60
342.69	1275.88
342.90	1263.60
343.12	1249.26
343.33	1318.89
343.54	1265.64
343.75	1232.88
343.96	1210.35
344.17	1345.52
344.38	1298.41
344.60	1275.88
344.81	1288.17
345.02	1181.68
345.23	1230.83
345.44	1259.50
345.65	1228.78
345.86	1222.64
346.07	1257.45
346.29	1243.12
346.50	1269.74
346.71	1249.26
346.92	1269.74
347.13	1236.97
347.34	1271.79
347.55	1224.69
347.76	1253.36
347.98	1253.36
348.19	1220.59
348.40	1306.60
348.61	1322.99
348.82	1275.88
349.03	1245.16
349.24	1253.36
349.45	1306.60
349.66	1282.03
349.88	1284.08
350.09	1296.36
350.30	1220.59
350.51	1220.59
350.72	1247.21
350.93	1253.36
351.14	1239.02
351.35	1318.89
351.56	1286.12
351.77	1298.41
351.99	1275.88
352.20	1253.36
352.41	1222.64
352.62	1222.64
352.83	1327.08
353.04	1310.70
353.25	1245.16
353.46	1226.73
353.67	1277.93
353.88	1263.60
354.09	1263.60
354.30	1279.98
354.52	1265.64
354.73	1273.84
354.94	1286.12
355.15	1279.98
355.36	1269.74
355.57	1198.06
355.78	1261.55
355.99	1277.93
356.20	1230.83
356.41	1216.49
356.62	1296.36
356.83	1249.26
357.04	1265.64
357.25	1198.06
357.46	1275.88
357.68	1282.03
357.89	1310.70
358.10	1243.12
358.31	1312.75
358.52	1220.59
358.73	1245.16
358.94	1282.03
359.15	1308.65
359.36	1290.22
359.57	1267.69
359.78	1275.88
359.99	1284.08
360.20	1279.98
360.41	1275.88
360.62	1263.60
360.83	1275.88
361.04	1265.64
361.25	1243.12
361.46	1245.16
361.67	1241.07
361.88	1302.51
362.09	1322.99
362.30	1269.74
362.51	1314.80
362.72	1357.80
362.93	1322.99
363.14	1320.94
363.35	1245.16
363.56	1306.60
363.78	1241.07
363.99	1292.27
364.20	1325.04
364.41	1290.22
364.62	1218.54
364.83	1234.93
365.04	1382.38
365.25	1249.26
365.46	1253.36
365.67	1273.84
365.88	1325.04
366.09	1288.17
366.30	1200.11
366.51	1218.54
366.72	1234.93
366.93	1325.04
367.14	1275.88
367.35	1288.17
367.56	1216.49
367.77	1239.02
367.98	1277.93
368.18	1249.26
368.39	1210.35
368.60	1224.69
368.81	1261.55
369.02	1255.40
369.23	1202.16
369.44	1251.31
369.65	1269.74
369.86	1302.51
370.07	1146.86
370.28	1296.36
370.49	1308.65
370.70	1257.45
370.91	1224.69
371.12	1271.79
371.33	1331.18
371.54	1241.07
371.75	1257.45
371.96	1298.41
372.17	1263.60
372.38	1269.74
372.59	1224.69
372.80	1265.64
373.01	1230.83
373.22	1294.32
373.43	1306.60
373.64	1236.97
373.85	1269.74
374.06	1251.31
374.26	1230.83
374.47	1300.46
374.68	1282.03
374.89	1243.12
375.10	1314.80
375.31	1255.40
375.52	1265.64
375.73	1247.21
375.94	1327.08
376.15	1306.60
376.36	1257.45
376.57	1279.98
376.78	1314.80
376.99	1325.04
377.20	1253.36
377.40	1265.64
377.61	1224.69
377.82	1290.22
378.03	1259.50
378.24	1269.74
378.45	1273.84
378.66	1279.98
378.87	1245.16
379.08	1251.31
379.29	1351.66
379.50	1392.62
379.71	1261.55
379.91	1247.21
380.12	1257.45
380.33	1253.36
380.54	1224.69
380.75	1253.36
380.96	1236.97
381.17	1255.40
381.38	1345.52
381.59	1265.64
381.80	1302.51
382.00	1363.95
382.21	1286.12
382.42	1312.75
382.63	1257.45
382.84	1249.26
383.05	1312.75
383.26	1310.70
383.47	1251.31
383.68	1263.60
383.88	1318.89
384.09	1284.08
384.30	1261.55
384.51	1265.64
384.72	1273.84
384.93	1279.98
385.14	1216.49
385.35	1267.69
385.55	1247.21
385.76	1333.23
385.97	1253.36
386.18	1273.84
386.39	1200.11
386.60	1277.93
386.81	1302.51
387.02	1259.50
387.22	1296.36
387.43	1271.79
387.64	1271.79
387.85	1292.27
388.06	1198.06
388.27	1318.89
388.48	1277.93
388.68	1282.03
388.89	1288.17
389.10	1222.64
389.31	1222.64
389.52	1279.98
389.73	1220.59
389.93	1286.12
390.14	1316.84
390.35	1241.07
390.56	1226.73
390.77	1312.75
390.98	1245.16
391.18	1255.40
391.39	1259.50
391.60	1259.50
391.81	1206.25
392.02	1302.51
392.23	1220.59
392.43	1282.03
392.64	1243.12
392.85	1202.16
393.06	1271.79
393.27	1222.64
393.47	1216.49
393.68	1204.21
393.89	1271.79
394.10	1273.84
394.31	1230.83
394.52	1308.65
394.72	1273.84
394.93	1251.31
395.14	1253.36
395.35	1226.73
395.56	1218.54
395.76	1294.32
395.97	1267.69
396.18	1253.36
396.39	1232.88
396.60	1265.64
396.80	1239.02
397.01	1241.07
397.22	1282.03
397.43	1253.36
397.64	1257.45
397.84	1273.84
398.05	1282.03
398.26	1320.94
398.47	1275.88
398.67	1259.50
398.88	1236.97
399.09	1261.55
399.30	1251.31
399.51	1320.94
399.71	1236.97
399.92	1198.06
400.13	1179.63
400.34	1277.93
400.54	1261.55
400.75	1292.27
400.96	1267.69
401.17	1206.25
401.37	1239.02
401.58	1210.35
401.79	1269.74
402.00	1208.30
402.21	1312.75
402.41	1269.74
402.62	1329.13
402.83	1349.61
403.04	1202.16
403.24	1304.56
403.45	1261.55
403.66	1269.74
403.87	1320.94
404.07	1290.22
404.28	1265.64
404.49	1247.21
404.70	1314.80
404.90	1259.50
405.11	1226.73
405.32	1273.84
405.52	1325.04
405.73	1302.51
405.94	1251.31
406.15	1259.50
406.35	1269.74
406.56	1265.64
406.77	1249.26
406.98	1273.84
407.18	1251.31
407.39	1322.99
407.60	1343.47
407.80	1212.40
408.01	1277.93
408.22	1206.25
408.43	1298.41
408.63	1263.60
408.84	1273.84
409.05	1226.73
409.25	1204.21
409.46	1234.93
409.67	1249.26
409.88	1228.78
410.08	1300.46
410.29	1277.93
410.50	1234.93
410.70	1284.08
410.91	1251.31
411.12	1196.01
411.32	1316.84
411.53	1204.21
411.74	1247.21
411.95	1255.40
412.15	1265.64
412.36	1255.40
412.57	1214.45
412.77	1265.64
412.98	1292.27
413.19	1300.46
413.39	1255.40
413.60	1232.88
413.81	1247.21
414.01	1286.12
414.22	1304.56
414.43	1216.49
414.63	1275.88
414.84	1200.11
415.05	1243.12
415.25	1351.66
415.46	1314.80
415.67	1265.64
415.87	1370.09
416.08	1282.03
416.29	1247.21
416.49	1347.56
416.70	1263.60
416.91	1241.07
417.11	1308.65
417.32	1239.02
417.53	1230.83
417.73	1236.97
417.94	1261.55
418.15	1208.30
418.35	1320.94
418.56	1275.88
418.77	1257.45
418.97	1343.47
419.18	1230.83
419.38	1306.60
419.59	1284.08
419.80	1236.97
420.00	1304.56
420.21	1200.11
420.42	1241.07
420.62	1327.08
420.83	1310.70
421.04	1304.56
421.24	1236.97
421.45	1302.51
421.65	1265.64
421.86	1284.08
422.07	1349.61
422.27	1265.64
422.48	1269.74
422.69	1185.77
422.89	1296.36
423.10	1232.88
423.30	1150.96
423.51	1228.78
423.72	1218.54
423.92	1206.25
424.13	1259.50
424.33	1249.26
424.54	1306.60
424.75	1263.60
424.95	1284.08
425.16	1310.70
425.36	1253.36
425.57	1239.02
425.78	1247.21
425.98	1308.65
426.19	1339.37
426.39	1322.99
426.60	1273.84
426.81	1269.74
427.01	1277.93
427.22	1263.60
427.42	1263.60
427.63	1255.40
427.83	1304.56
428.04	1183.73
428.25	1277.93
428.45	1187.82
428.66	1234.93
428.86	1142.77
429.07	1210.35
429.28	1318.89
429.48	1241.07
429.69	1355.76
429.89	1200.11
430.10	1265.64
430.30	1243.12
430.51	1228.78
430.71	1275.88
430.92	1220.59
431.13	1277.93
431.33	1175.53
431.54	1267.69
431.74	1224.69
431.95	1296.36
432.15	1288.17
432.36	1245.16
432.56	1273.84
432.77	1351.66
432.98	1214.45
433.18	1294.32
433.39	1226.73
433.59	1241.07
433.80	1269.74
434.00	1210.35
434.21	1245.16
434.41	1210.35
434.62	1314.80
434.82	1226.73
435.03	1142.77
435.23	1255.40
435.44	1263.60
435.64	1255.40
435.85	1298.41
436.06	1345.52
436.26	1269.74
436.47	1259.50
436.67	1198.06
436.88	1212.40
437.08	1290.22
437.29	1204.21
437.49	1241.07
437.70	1241.07
437.90	1296.36
438.11	1251.31
438.31	1253.36
438.52	1257.45
438.72	1277.93
438.93	1216.49
439.13	1259.50
439.34	1298.41
439.54	1208.30
439.75	1239.02
439.95	1368.04
440.16	1261.55
440.36	1187.82
440.57	1212.40
440.77	1277.93
440.98	1234.93
441.18	1333.23
441.39	1349.61
441.59	1290.22
441.80	1275.88
442.00	1292.27
442.21	1228.78
442.41	1296.36
442.62	1232.88
442.82	1314.80
443.02	1236.97
443.23	1312.75
443.43	1300.46
443.64	1222.64
443.84	1310.70
444.05	1259.50
444.25	1263.60
444.46	1255.40
444.66	1286.12
444.87	1294.32
445.07	1206.25
445.28	1279.98
445.48	1196.01
445.69	1300.46
445.89	1241.07
446.09	1216.49
446.30	1275.88
446.50	1200.11
446.71	1239.02
446.91	1267.69
447.12	1210.35
447.32	1327.08
447.53	1273.84
447.73	1249.26
447.93	1292.27
448.14	1318.89
448.34	1300.46
448.55	1222.64
448.75	1298.41
448.96	1316.84
449.16	1245.16
449.36	1234.93
449.57	1286.12
449.77	1236.97
449.98	1271.79
450.18	1271.79
450.39	1384.43
450.59	1314.80
450.79	1314.80
451.00	1249.26
451.20	1269.74
451.41	1298.41
451.61	1230.83
451.81	1296.36
452.02	1228.78
452.22	1279.98
452.43	1327.08
452.63	1290.22
