SpectraSuite Data File
++++++++++++++++++++++++++++++++++++
Date: Sun Apr 03 19:55:37 CEST 2016
User: root
Dark Spectrum Present: No
Reference Spectrum Present: No
Number of Sampled Component Spectra: 1
Spectrometers: USB4C02835
Integration Time (usec): 10000 (USB4C02835)
Spectra Averaged: 1 (USB4C02835)
Boxcar Smoothing: 0 (USB4C02835)
Correct for Electrical Dark: No (USB4C02835)
Strobe/Lamp Enabled: No (USB4C02835)
Correct for Detector Non-linearity: No (USB4C02835)
Correct for Stray Light: No (USB4C02835)
Number of Pixels in Processed Spectrum: 3648
>>>>>Begin Processed Spectral Data<<<<<
177.47	1224.69
177.69	1224.69
177.91	1224.69
178.13	1208.30
178.36	1308.65
178.58	1247.21
178.80	1306.60
179.02	1267.69
179.24	1265.64
179.46	1263.60
179.68	1224.69
179.90	1341.42
180.13	1179.63
180.35	1279.98
180.57	1230.83
180.79	1265.64
181.01	1282.03
181.23	1206.25
181.45	1269.74
181.67	1253.36
181.90	1255.40
182.12	1259.50
182.34	1265.64
182.56	1239.02
182.78	1279.98
183.00	1247.21
183.22	1175.53
183.44	1236.97
183.66	1271.79
183.89	1275.88
184.11	1300.46
184.33	1302.51
184.55	1263.60
184.77	1249.26
184.99	1222.64
185.21	1243.12
185.43	1200.11
185.65	1290.22
185.87	1370.09
186.10	1261.55
186.32	1220.59
186.54	1261.55
186.76	1284.08
186.98	1273.84
187.20	1298.41
187.42	1269.74
187.64	1263.60
187.86	1269.74
188.08	1318.89
188.30	1267.69
188.52	1271.79
188.75	1210.35
188.97	1277.93
189.19	1269.74
189.41	1243.12
189.63	1277.93
189.85	1259.50
190.07	1288.17
190.29	1296.36
190.51	1265.64
190.73	1331.18
190.95	1345.52
191.17	1226.73
191.39	1241.07
191.61	1226.73
191.84	1257.45
192.06	1308.65
192.28	1331.18
192.50	1306.60
192.72	1310.70
192.94	1245.16
193.16	1247.21
193.38	1224.69
193.60	1243.12
193.82	1310.70
194.04	1224.69
194.26	1269.74
194.48	1298.41
194.70	1253.36
194.92	1275.88
195.14	1282.03
195.36	1236.97
195.58	1249.26
195.80	1261.55
196.02	1282.03
196.24	1284.08
196.46	1255.40
196.69	1245.16
196.91	1288.17
197.13	1243.12
197.35	1216.49
197.57	1282.03
197.79	1296.36
198.01	1236.97
198.23	1300.46
198.45	1304.56
198.67	1247.21
198.89	1230.83
199.11	1370.09
199.33	1267.69
199.55	1286.12
199.77	1171.44
199.99	1296.36
200.21	1339.37
200.43	1359.85
200.65	1282.03
200.87	1224.69
201.09	1224.69
201.31	1355.76
201.53	1306.60
201.75	1325.04
201.97	1269.74
202.19	1263.60
202.41	1259.50
202.63	1277.93
202.85	1257.45
203.07	1245.16
203.29	1236.97
203.51	1325.04
203.73	1239.02
203.95	1265.64
204.17	1282.03
204.39	1236.97
204.61	1320.94
204.83	1275.88
205.05	1220.59
205.27	1345.52
205.49	1253.36
205.71	1245.16
205.93	1220.59
206.15	1329.13
206.37	1320.94
206.59	1226.73
206.81	1288.17
207.03	1265.64
207.25	1204.21
207.47	1257.45
207.69	1292.27
207.91	1193.97
208.13	1292.27
208.34	1265.64
208.56	1177.58
208.78	1257.45
209.00	1234.93
209.22	1243.12
209.44	1296.36
209.66	1267.69
209.88	1241.07
210.10	1230.83
210.32	1222.64
210.54	1249.26
210.76	1236.97
210.98	1304.56
211.20	1214.45
211.42	1230.83
211.64	1251.31
211.86	1245.16
212.08	1232.88
212.30	1335.28
212.52	1312.75
212.74	1294.32
212.96	1224.69
213.17	1224.69
213.39	1228.78
213.61	1232.88
213.83	1308.65
214.05	1243.12
214.27	1261.55
214.49	1290.22
214.71	1208.30
214.93	1312.75
215.15	1345.52
215.37	1288.17
215.59	1251.31
215.81	1204.21
216.03	1296.36
216.24	1288.17
216.46	1236.97
216.68	1286.12
216.90	1392.62
217.12	1265.64
217.34	1296.36
217.56	1253.36
217.78	1208.30
218.00	1277.93
218.22	1228.78
218.44	1249.26
218.66	1312.75
218.87	1318.89
219.09	1193.97
219.31	1300.46
219.53	1249.26
219.75	1304.56
219.97	1226.73
220.19	1337.32
220.41	1218.54
220.63	1249.26
220.85	1239.02
221.06	1234.93
221.28	1269.74
221.50	1212.40
221.72	1322.99
221.94	1210.35
222.16	1228.78
222.38	1306.60
222.60	1245.16
222.82	1257.45
223.03	1316.84
223.25	1198.06
223.47	1314.80
223.69	1241.07
223.91	1269.74
224.13	1288.17
224.35	1208.30
224.57	1232.88
224.78	1208.30
225.00	1212.40
225.22	1284.08
225.44	1310.70
225.66	1212.40
225.88	1306.60
226.10	1329.13
226.32	1271.79
226.53	1282.03
226.75	1206.25
226.97	1216.49
227.19	1247.21
227.41	1191.92
227.63	1339.37
227.85	1279.98
228.06	1265.64
228.28	1259.50
228.50	1230.83
228.72	1284.08
228.94	1308.65
229.16	1230.83
229.37	1265.64
229.59	1247.21
229.81	1298.41
230.03	1220.59
230.25	1187.82
230.47	1282.03
230.69	1220.59
230.90	1290.22
231.12	1275.88
231.34	1241.07
231.56	1210.35
231.78	1241.07
232.00	1279.98
232.21	1316.84
232.43	1308.65
232.65	1308.65
232.87	1214.45
233.09	1239.02
233.30	1251.31
233.52	1265.64
233.74	1267.69
233.96	1286.12
234.18	1294.32
234.40	1253.36
234.61	1247.21
234.83	1271.79
235.05	1304.56
235.27	1279.98
235.49	1269.74
235.70	1181.68
235.92	1357.80
236.14	1345.52
236.36	1269.74
236.58	1230.83
236.79	1191.92
237.01	1267.69
237.23	1218.54
237.45	1335.28
237.67	1173.49
237.88	1255.40
238.10	1279.98
238.32	1298.41
238.54	1329.13
238.76	1333.23
238.97	1187.82
239.19	1214.45
239.41	1294.32
239.63	1241.07
239.85	1312.75
240.06	1255.40
240.28	1294.32
240.50	1226.73
240.72	1265.64
240.93	1236.97
241.15	1284.08
241.37	1241.07
241.59	1230.83
241.81	1253.36
242.02	1253.36
242.24	1314.80
242.46	1245.16
242.68	1308.65
242.89	1226.73
243.11	1327.08
243.33	1232.88
243.55	1200.11
243.76	1265.64
243.98	1314.80
244.20	1271.79
244.42	1230.83
244.64	1236.97
244.85	1296.36
245.07	1275.88
245.29	1247.21
245.51	1241.07
245.72	1284.08
245.94	1171.44
246.16	1286.12
246.38	1351.66
246.59	1220.59
246.81	1277.93
247.03	1249.26
247.24	1359.85
247.46	1349.61
247.68	1218.54
247.90	1286.12
248.11	1331.18
248.33	1327.08
248.55	1198.06
248.77	1257.45
248.98	1257.45
249.20	1208.30
249.42	1292.27
249.64	1236.97
249.85	1265.64
250.07	1312.75
250.29	1234.93
250.50	1241.07
250.72	1204.21
250.94	1282.03
251.16	1279.98
251.37	1208.30
251.59	1241.07
251.81	1302.51
252.02	1241.07
252.24	1236.97
252.46	1314.80
252.68	1284.08
252.89	1275.88
253.11	1214.45
253.33	1300.46
253.54	1161.20
253.76	1282.03
253.98	1239.02
254.20	1304.56
254.41	1282.03
254.63	1167.34
254.85	1224.69
255.06	1331.18
255.28	1286.12
255.50	1239.02
255.71	1226.73
255.93	1306.60
256.15	1300.46
256.36	1269.74
256.58	1251.31
256.80	1273.84
257.02	1282.03
257.23	1279.98
257.45	1259.50
257.67	1286.12
257.88	1243.12
258.10	1314.80
258.32	1249.26
258.53	1269.74
258.75	1271.79
258.97	1265.64
259.18	1255.40
259.40	1294.32
259.62	1286.12
259.83	1300.46
260.05	1286.12
260.27	1355.76
260.48	1325.04
260.70	1247.21
260.92	1265.64
261.13	1265.64
261.35	1277.93
261.57	1271.79
261.78	1320.94
262.00	1286.12
262.22	1212.40
262.43	1296.36
262.65	1318.89
262.86	1232.88
263.08	1261.55
263.30	1275.88
263.51	1241.07
263.73	1265.64
263.95	1327.08
264.16	1271.79
264.38	1224.69
264.60	1216.49
264.81	1302.51
265.03	1243.12
265.25	1312.75
265.46	1259.50
265.68	1269.74
265.89	1271.79
266.11	1271.79
266.33	1306.60
266.54	1259.50
266.76	1294.32
266.98	1275.88
267.19	1247.21
267.41	1302.51
267.62	1263.60
267.84	1236.97
268.06	1249.26
268.27	1204.21
268.49	1302.51
268.70	1257.45
268.92	1249.26
269.14	1222.64
269.35	1304.56
269.57	1322.99
269.79	1312.75
270.00	1329.13
270.22	1271.79
270.43	1251.31
270.65	1259.50
270.87	1282.03
271.08	1228.78
271.30	1282.03
271.51	1241.07
271.73	1241.07
271.95	1261.55
272.16	1265.64
272.38	1263.60
272.59	1267.69
272.81	1310.70
273.02	1251.31
273.24	1230.83
273.46	1239.02
273.67	1269.74
273.89	1251.31
274.10	1206.25
274.32	1355.76
274.54	1269.74
274.75	1251.31
274.97	1331.18
275.18	1251.31
275.40	1333.23
275.61	1288.17
275.83	1347.56
276.05	1288.17
276.26	1224.69
276.48	1234.93
276.69	1277.93
276.91	1185.77
277.12	1261.55
277.34	1247.21
277.55	1282.03
277.77	1259.50
277.99	1245.16
278.20	1218.54
278.42	1239.02
278.63	1243.12
278.85	1228.78
279.06	1279.98
279.28	1325.04
279.49	1351.66
279.71	1345.52
279.93	1216.49
280.14	1341.42
280.36	1185.77
280.57	1257.45
280.79	1222.64
281.00	1273.84
281.22	1294.32
281.43	1259.50
281.65	1206.25
281.86	1298.41
282.08	1357.80
282.29	1234.93
282.51	1259.50
282.73	1224.69
282.94	1226.73
283.16	1251.31
283.37	1220.59
283.59	1339.37
283.80	1282.03
284.02	1267.69
284.23	1226.73
284.45	1241.07
284.66	1271.79
284.88	1273.84
285.09	1298.41
285.31	1245.16
285.52	1263.60
285.74	1251.31
285.95	1294.32
286.17	1290.22
286.38	1279.98
286.60	1294.32
286.81	1310.70
287.03	1214.45
287.24	1243.12
287.46	1345.52
287.67	1247.21
287.89	1259.50
288.10	1267.69
288.32	1288.17
288.53	1310.70
288.75	1255.40
288.96	1208.30
289.18	1241.07
289.39	1206.25
289.61	1322.99
289.82	1216.49
290.04	1232.88
290.25	1241.07
290.47	1255.40
290.68	1245.16
290.90	1312.75
291.11	1310.70
291.33	1265.64
291.54	1241.07
291.76	1286.12
291.97	1236.97
292.18	1296.36
292.40	1288.17
292.61	1275.88
292.83	1312.75
293.04	1288.17
293.26	1345.52
293.47	1279.98
293.69	1290.22
293.90	1257.45
294.12	1329.13
294.33	1228.78
294.55	1193.97
294.76	1329.13
294.97	1218.54
295.19	1314.80
295.40	1245.16
295.62	1302.51
295.83	1204.21
296.05	1327.08
296.26	1290.22
296.48	1241.07
296.69	1234.93
296.90	1247.21
297.12	1255.40
297.33	1247.21
297.55	1232.88
297.76	1366.00
297.98	1294.32
298.19	1230.83
298.41	1271.79
298.62	1247.21
298.83	1216.49
299.05	1271.79
299.26	1290.22
299.48	1339.37
299.69	1279.98
299.90	1310.70
300.12	1279.98
300.33	1249.26
300.55	1241.07
300.76	1273.84
300.98	1210.35
301.19	1322.99
301.40	1277.93
301.62	1277.93
301.83	1298.41
302.05	1232.88
302.26	1312.75
302.47	1206.25
302.69	1312.75
302.90	1263.60
303.12	1294.32
303.33	1298.41
303.54	1302.51
303.76	1288.17
303.97	1290.22
304.19	1314.80
304.40	1259.50
304.61	1249.26
304.83	1294.32
305.04	1251.31
305.26	1265.64
305.47	1241.07
305.68	1288.17
305.90	1275.88
306.11	1253.36
306.33	1327.08
306.54	1320.94
306.75	1193.97
306.97	1255.40
307.18	1279.98
307.39	1271.79
307.61	1200.11
307.82	1343.47
308.04	1353.71
308.25	1261.55
308.46	1220.59
308.68	1257.45
308.89	1232.88
309.10	1259.50
309.32	1286.12
309.53	1269.74
309.74	1357.80
309.96	1273.84
310.17	1257.45
310.39	1282.03
310.60	1339.37
310.81	1277.93
311.03	1288.17
311.24	1318.89
311.45	1247.21
311.67	1247.21
311.88	1261.55
312.09	1255.40
312.31	1236.97
312.52	1306.60
312.73	1298.41
312.95	1271.79
313.16	1230.83
313.37	1228.78
313.59	1294.32
313.80	1243.12
314.01	1329.13
314.23	1290.22
314.44	1300.46
314.65	1277.93
314.87	1261.55
315.08	1245.16
315.29	1284.08
315.51	1249.26
315.72	1271.79
315.93	1277.93
316.15	1263.60
316.36	1234.93
316.57	1220.59
316.79	1316.84
317.00	1310.70
317.21	1239.02
317.43	1243.12
317.64	1220.59
317.85	1212.40
318.07	1294.32
318.28	1222.64
318.49	1267.69
318.70	1327.08
318.92	1290.22
319.13	1267.69
319.34	1296.36
319.56	1286.12
319.77	1259.50
319.98	1222.64
320.20	1255.40
320.41	1198.06
320.62	1267.69
320.83	1279.98
321.05	1249.26
321.26	1241.07
321.47	1239.02
321.69	1265.64
321.90	1263.60
322.11	1265.64
322.32	1216.49
322.54	1312.75
322.75	1314.80
322.96	1265.64
323.18	1255.40
323.39	1290.22
323.60	1339.37
323.81	1267.69
324.03	1191.92
324.24	1220.59
324.45	1210.35
324.66	1204.21
324.88	1253.36
325.09	1220.59
325.30	1204.21
325.52	1232.88
325.73	1310.70
325.94	1294.32
326.15	1183.73
326.37	1232.88
326.58	1288.17
326.79	1245.16
327.00	1298.41
327.22	1282.03
327.43	1284.08
327.64	1279.98
327.85	1294.32
328.07	1296.36
328.28	1230.83
328.49	1294.32
328.70	1234.93
328.92	1308.65
329.13	1294.32
329.34	1322.99
329.55	1308.65
329.76	1286.12
329.98	1294.32
330.19	1261.55
330.40	1261.55
330.61	1296.36
330.83	1230.83
331.04	1269.74
331.25	1212.40
331.46	1277.93
331.68	1288.17
331.89	1282.03
332.10	1243.12
332.31	1284.08
332.52	1220.59
332.74	1318.89
332.95	1322.99
333.16	1255.40
333.37	1261.55
333.58	1241.07
333.80	1304.56
334.01	1284.08
334.22	1263.60
334.43	1245.16
334.64	1296.36
334.86	1296.36
335.07	1306.60
335.28	1312.75
335.49	1239.02
335.70	1265.64
335.92	1279.98
336.13	1239.02
336.34	1277.93
336.55	1282.03
336.76	1298.41
336.98	1368.04
337.19	1300.46
337.40	1269.74
337.61	1298.41
337.82	1298.41
338.04	1337.32
338.25	1241.07
338.46	1259.50
338.67	1263.60
338.88	1241.07
339.09	1277.93
339.31	1245.16
339.52	1247.21
339.73	1230.83
339.94	1298.41
340.15	1275.88
340.36	1271.79
340.58	1312.75
340.79	1234.93
341.00	1249.26
341.21	1200.11
341.42	1267.69
341.63	1277.93
341.85	1239.02
342.06	1282.03
342.27	1179.63
342.48	1275.88
342.69	1220.59
342.90	1331.18
343.12	1245.16
343.33	1257.45
343.54	1261.55
343.75	1216.49
343.96	1206.25
344.17	1228.78
344.38	1265.64
344.60	1257.45
344.81	1267.69
345.02	1261.55
345.23	1247.21
345.44	1325.04
345.65	1292.27
345.86	1337.32
346.07	1304.56
346.29	1232.88
346.50	1230.83
346.71	1183.73
346.92	1236.97
347.13	1251.31
347.34	1271.79
347.55	1286.12
347.76	1347.56
347.98	1277.93
348.19	1273.84
348.40	1327.08
348.61	1239.02
348.82	1347.56
349.03	1288.17
349.24	1224.69
349.45	1259.50
349.66	1290.22
349.88	1306.60
350.09	1390.57
350.30	1220.59
350.51	1265.64
350.72	1277.93
350.93	1257.45
351.14	1279.98
351.35	1247.21
351.56	1322.99
351.77	1320.94
351.99	1187.82
352.20	1322.99
352.41	1306.60
352.62	1241.07
352.83	1177.58
353.04	1265.64
353.25	1232.88
353.46	1247.21
353.67	1296.36
353.88	1265.64
354.09	1282.03
354.30	1314.80
354.52	1214.45
354.73	1187.82
354.94	1312.75
355.15	1298.41
355.36	1304.56
355.57	1304.56
355.78	1310.70
355.99	1300.46
356.20	1228.78
356.41	1232.88
356.62	1286.12
356.83	1306.60
357.04	1269.74
357.25	1316.84
357.46	1316.84
357.68	1279.98
357.89	1296.36
358.10	1304.56
358.31	1253.36
358.52	1249.26
358.73	1312.75
358.94	1318.89
359.15	1271.79
359.36	1214.45
359.57	1288.17
359.78	1310.70
359.99	1298.41
360.20	1339.37
360.41	1161.20
360.62	1222.64
360.83	1269.74
361.04	1247.21
361.25	1234.93
361.46	1232.88
361.67	1222.64
361.88	1296.36
362.09	1236.97
362.30	1263.60
362.51	1234.93
362.72	1308.65
362.93	1310.70
363.14	1204.21
363.35	1322.99
363.56	1277.93
363.78	1269.74
363.99	1241.07
364.20	1273.84
364.41	1265.64
364.62	1335.28
364.83	1191.92
365.04	1255.40
365.25	1210.35
365.46	1300.46
365.67	1284.08
365.88	1220.59
366.09	1329.13
366.30	1269.74
366.51	1353.71
366.72	1169.39
366.93	1292.27
367.14	1253.36
367.35	1239.02
367.56	1273.84
367.77	1259.50
367.98	1230.83
368.18	1247.21
368.39	1261.55
368.60	1314.80
368.81	1269.74
369.02	1288.17
369.23	1273.84
369.44	1284.08
369.65	1294.32
369.86	1204.21
370.07	1245.16
370.28	1329.13
370.49	1286.12
370.70	1251.31
370.91	1273.84
371.12	1327.08
371.33	1294.32
371.54	1282.03
371.75	1335.28
371.96	1265.64
372.17	1279.98
372.38	1247.21
372.59	1255.40
372.80	1228.78
373.01	1265.64
373.22	1286.12
373.43	1265.64
373.64	1273.84
373.85	1339.37
374.06	1304.56
374.26	1294.32
374.47	1267.69
374.68	1257.45
374.89	1275.88
375.10	1255.40
375.31	1263.60
375.52	1210.35
375.73	1230.83
375.94	1267.69
376.15	1282.03
376.36	1226.73
376.57	1275.88
376.78	1218.54
376.99	1259.50
377.20	1298.41
377.40	1312.75
377.61	1249.26
377.82	1181.68
378.03	1282.03
378.24	1327.08
378.45	1249.26
378.66	1210.35
378.87	1241.07
379.08	1302.51
379.29	1232.88
379.50	1290.22
379.71	1247.21
379.91	1294.32
380.12	1263.60
380.33	1253.36
380.54	1179.63
380.75	1306.60
380.96	1290.22
381.17	1257.45
381.38	1187.82
381.59	1251.31
381.80	1282.03
382.00	1376.24
382.21	1306.60
382.42	1282.03
382.63	1284.08
382.84	1249.26
383.05	1259.50
383.26	1296.36
383.47	1306.60
383.68	1183.73
383.88	1282.03
384.09	1230.83
384.30	1320.94
384.51	1261.55
384.72	1294.32
384.93	1263.60
385.14	1263.60
385.35	1263.60
385.55	1294.32
385.76	1265.64
385.97	1257.45
386.18	1269.74
386.39	1257.45
386.60	1361.90
386.81	1318.89
387.02	1294.32
387.22	1187.82
387.43	1269.74
387.64	1318.89
387.85	1347.56
388.06	1241.07
388.27	1232.88
388.48	1284.08
388.68	1247.21
388.89	1259.50
389.10	1236.97
389.31	1286.12
389.52	1247.21
389.73	1267.69
389.93	1341.42
390.14	1263.60
390.35	1245.16
390.56	1286.12
390.77	1271.79
390.98	1222.64
391.18	1267.69
391.39	1226.73
391.60	1251.31
391.81	1226.73
392.02	1265.64
392.23	1292.27
392.43	1232.88
392.64	1298.41
392.85	1329.13
393.06	1314.80
393.27	1273.84
393.47	1208.30
393.68	1263.60
393.89	1204.21
394.10	1265.64
394.31	1296.36
394.52	1296.36
394.72	1273.84
394.93	1263.60
395.14	1267.69
395.35	1279.98
395.56	1247.21
395.76	1279.98
395.97	1347.56
396.18	1263.60
396.39	1218.54
396.60	1282.03
396.80	1302.51
397.01	1290.22
397.22	1275.88
397.43	1310.70
397.64	1234.93
397.84	1290.22
398.05	1271.79
398.26	1236.97
398.47	1277.93
398.67	1247.21
398.88	1327.08
399.09	1304.56
399.30	1286.12
399.51	1284.08
399.71	1239.02
399.92	1275.88
400.13	1263.60
400.34	1300.46
400.54	1320.94
400.75	1308.65
400.96	1187.82
401.17	1306.60
401.37	1284.08
401.58	1265.64
401.79	1204.21
402.00	1322.99
402.21	1269.74
402.41	1288.17
402.62	1279.98
402.83	1210.35
403.04	1241.07
403.24	1312.75
403.45	1230.83
403.66	1345.52
403.87	1216.49
404.07	1279.98
404.28	1302.51
404.49	1275.88
404.70	1243.12
404.90	1269.74
405.11	1318.89
405.32	1271.79
405.52	1316.84
405.73	1183.73
405.94	1284.08
406.15	1245.16
406.35	1257.45
406.56	1255.40
406.77	1243.12
406.98	1351.66
407.18	1259.50
407.39	1314.80
407.60	1279.98
407.80	1253.36
408.01	1239.02
408.22	1247.21
408.43	1267.69
408.63	1261.55
408.84	1222.64
409.05	1189.87
409.25	1183.73
409.46	1198.06
409.67	1202.16
409.88	1300.46
410.08	1284.08
410.29	1218.54
410.50	1247.21
410.70	1234.93
410.91	1333.23
411.12	1335.28
411.32	1146.86
411.53	1241.07
411.74	1400.81
411.95	1310.70
412.15	1325.04
412.36	1265.64
412.57	1243.12
412.77	1298.41
412.98	1357.80
413.19	1224.69
413.39	1275.88
413.60	1239.02
413.81	1275.88
414.01	1232.88
414.22	1275.88
414.43	1273.84
414.63	1288.17
414.84	1234.93
415.05	1157.10
415.25	1239.02
415.46	1275.88
415.67	1245.16
415.87	1261.55
416.08	1343.47
416.29	1196.01
416.49	1271.79
416.70	1239.02
416.91	1292.27
417.11	1273.84
417.32	1282.03
417.53	1294.32
417.73	1298.41
417.94	1191.92
418.15	1269.74
418.35	1241.07
418.56	1277.93
418.77	1226.73
418.97	1249.26
419.18	1284.08
419.38	1310.70
419.59	1288.17
419.80	1290.22
420.00	1282.03
420.21	1349.61
420.42	1275.88
420.62	1234.93
420.83	1257.45
421.04	1241.07
421.24	1267.69
421.45	1226.73
421.65	1232.88
421.86	1232.88
422.07	1259.50
422.27	1271.79
422.48	1269.74
422.69	1261.55
422.89	1245.16
423.10	1255.40
423.30	1267.69
423.51	1214.45
423.72	1261.55
423.92	1257.45
424.13	1214.45
424.33	1263.60
424.54	1325.04
424.75	1300.46
424.95	1306.60
425.16	1267.69
425.36	1243.12
425.57	1245.16
425.78	1277.93
425.98	1300.46
426.19	1290.22
426.39	1296.36
426.60	1255.40
426.81	1257.45
427.01	1269.74
427.22	1255.40
427.42	1269.74
427.63	1286.12
427.83	1292.27
428.04	1275.88
428.25	1296.36
428.45	1318.89
428.66	1282.03
428.86	1300.46
429.07	1224.69
429.28	1304.56
429.48	1325.04
429.69	1322.99
429.89	1296.36
430.10	1275.88
430.30	1296.36
430.51	1243.12
430.71	1243.12
430.92	1298.41
431.13	1253.36
431.33	1298.41
431.54	1257.45
431.74	1259.50
431.95	1294.32
432.15	1216.49
432.36	1306.60
432.56	1241.07
432.77	1251.31
432.98	1316.84
433.18	1251.31
433.39	1253.36
433.59	1249.26
433.80	1210.35
434.00	1306.60
434.21	1320.94
434.41	1306.60
434.62	1298.41
434.82	1294.32
435.03	1271.79
435.23	1247.21
435.44	1232.88
435.64	1339.37
435.85	1224.69
436.06	1361.90
436.26	1269.74
436.47	1243.12
436.67	1271.79
436.88	1292.27
437.08	1234.93
437.29	1234.93
437.49	1343.47
437.70	1243.12
437.90	1333.23
438.11	1316.84
438.31	1337.32
438.52	1325.04
438.72	1282.03
438.93	1226.73
439.13	1298.41
439.34	1187.82
439.54	1275.88
439.75	1304.56
439.95	1335.28
440.16	1275.88
440.36	1245.16
440.57	1275.88
440.77	1214.45
440.98	1273.84
441.18	1236.97
441.39	1310.70
441.59	1263.60
441.80	1226.73
442.00	1341.42
442.21	1263.60
442.41	1273.84
442.62	1312.75
442.82	1255.40
443.02	1255.40
443.23	1329.13
443.43	1206.25
443.64	1284.08
443.84	1218.54
444.05	1304.56
444.25	1265.64
444.46	1349.61
444.66	1296.36
444.87	1339.37
445.07	1286.12
445.28	1202.16
445.48	1310.70
445.69	1259.50
445.89	1273.84
446.09	1300.46
446.30	1288.17
446.50	1296.36
446.71	1251.31
446.91	1349.61
447.12	1269.74
447.32	1298.41
447.53	1310.70
447.73	1261.55
447.93	1322.99
448.14	1320.94
448.34	1284.08
448.55	1277.93
448.75	1216.49
448.96	1253.36
449.16	1216.49
449.36	1232.88
449.57	1312.75
449.77	1279.98
449.98	1241.07
450.18	1232.88
450.39	1245.16
450.59	1294.32
450.79	1273.84
451.00	1329.13
451.20	1251.31
451.41	1292.27
451.61	1275.88
451.81	1275.88
452.02	1214.45
452.22	1296.36
452.43	1318.89
452.63	1279.98
