SpectraSuite Data File
++++++++++++++++++++++++++++++++++++
Date: Sun Apr 03 19:55:40 CEST 2016
User: root
Dark Spectrum Present: No
Reference Spectrum Present: No
Number of Sampled Component Spectra: 1
Spectrometers: USB4C02835
Integration Time (usec): 10000 (USB4C02835)
Spectra Averaged: 1 (USB4C02835)
Boxcar Smoothing: 0 (USB4C02835)
Correct for Electrical Dark: No (USB4C02835)
Strobe/Lamp Enabled: No (USB4C02835)
Correct for Detector Non-linearity: No (USB4C02835)
Correct for Stray Light: No (USB4C02835)
Number of Pixels in Processed Spectrum: 3648
>>>>>Begin Processed Spectral Data<<<<<
177.47	1245.16
177.69	1245.16
177.91	1245.16
178.13	1222.64
178.36	1193.97
178.58	1282.03
178.80	1243.12
179.02	1169.39
179.24	1228.78
179.46	1247.21
179.68	1282.03
179.90	1185.77
180.13	1232.88
180.35	1296.36
180.57	1300.46
180.79	1265.64
181.01	1249.26
181.23	1329.13
181.45	1284.08
181.67	1253.36
181.90	1277.93
182.12	1322.99
182.34	1243.12
182.56	1275.88
182.78	1290.22
183.00	1226.73
183.22	1331.18
183.44	1292.27
183.66	1241.07
183.89	1253.36
184.11	1249.26
184.33	1245.16
184.55	1314.80
184.77	1253.36
184.99	1249.26
185.21	1185.77
185.43	1298.41
185.65	1230.83
185.87	1200.11
186.10	1228.78
186.32	1275.88
186.54	1339.37
186.76	1277.93
186.98	1275.88
187.20	1277.93
187.42	1298.41
187.64	1249.26
187.86	1243.12
188.08	1239.02
188.30	1232.88
188.52	1265.64
188.75	1294.32
188.97	1200.11
189.19	1312.75
189.41	1277.93
189.63	1279.98
189.85	1247.21
190.07	1288.17
190.29	1253.36
190.51	1218.54
190.73	1249.26
190.95	1185.77
191.17	1187.82
191.39	1267.69
191.61	1288.17
191.84	1325.04
192.06	1189.87
192.28	1193.97
192.50	1337.32
192.72	1263.60
192.94	1232.88
193.16	1228.78
193.38	1204.21
193.60	1253.36
193.82	1271.79
194.04	1271.79
194.26	1222.64
194.48	1236.97
194.70	1282.03
194.92	1257.45
195.14	1312.75
195.36	1251.31
195.58	1296.36
195.80	1253.36
196.02	1204.21
196.24	1214.45
196.46	1282.03
196.69	1322.99
196.91	1372.14
197.13	1273.84
197.35	1271.79
197.57	1273.84
197.79	1300.46
198.01	1187.82
198.23	1267.69
198.45	1275.88
198.67	1249.26
198.89	1257.45
199.11	1316.84
199.33	1259.50
199.55	1222.64
199.77	1216.49
199.99	1208.30
200.21	1245.16
200.43	1286.12
200.65	1292.27
200.87	1277.93
201.09	1226.73
201.31	1210.35
201.53	1308.65
201.75	1247.21
201.97	1234.93
202.19	1198.06
202.41	1279.98
202.63	1261.55
202.85	1298.41
203.07	1314.80
203.29	1294.32
203.51	1304.56
203.73	1261.55
203.95	1257.45
204.17	1261.55
204.39	1277.93
204.61	1333.23
204.83	1282.03
205.05	1241.07
205.27	1253.36
205.49	1261.55
205.71	1273.84
205.93	1208.30
206.15	1320.94
206.37	1245.16
206.59	1310.70
206.81	1267.69
207.03	1257.45
207.25	1269.74
207.47	1259.50
207.69	1222.64
207.91	1257.45
208.13	1265.64
208.34	1212.40
208.56	1271.79
208.78	1216.49
209.00	1314.80
209.22	1257.45
209.44	1247.21
209.66	1273.84
209.88	1322.99
210.10	1259.50
210.32	1200.11
210.54	1292.27
210.76	1247.21
210.98	1306.60
211.20	1339.37
211.42	1253.36
211.64	1282.03
211.86	1183.73
212.08	1249.26
212.30	1304.56
212.52	1288.17
212.74	1314.80
212.96	1222.64
213.17	1243.12
213.39	1187.82
213.61	1196.01
213.83	1189.87
214.05	1251.31
214.27	1279.98
214.49	1279.98
214.71	1210.35
214.93	1206.25
215.15	1247.21
215.37	1161.20
215.59	1271.79
215.81	1320.94
216.03	1259.50
216.24	1335.28
216.46	1253.36
216.68	1226.73
216.90	1218.54
217.12	1265.64
217.34	1310.70
217.56	1183.73
217.78	1249.26
218.00	1292.27
218.22	1200.11
218.44	1255.40
218.66	1294.32
218.87	1296.36
219.09	1243.12
219.31	1193.97
219.53	1193.97
219.75	1290.22
219.97	1253.36
220.19	1314.80
220.41	1232.88
220.63	1234.93
220.85	1290.22
221.06	1275.88
221.28	1314.80
221.50	1251.31
221.72	1222.64
221.94	1314.80
222.16	1273.84
222.38	1304.56
222.60	1253.36
222.82	1239.02
223.03	1247.21
223.25	1228.78
223.47	1294.32
223.69	1290.22
223.91	1277.93
224.13	1212.40
224.35	1290.22
224.57	1263.60
224.78	1247.21
225.00	1271.79
225.22	1236.97
225.44	1169.39
225.66	1265.64
225.88	1261.55
226.10	1245.16
226.32	1265.64
226.53	1228.78
226.75	1294.32
226.97	1286.12
227.19	1290.22
227.41	1263.60
227.63	1294.32
227.85	1243.12
228.06	1220.59
228.28	1239.02
228.50	1288.17
228.72	1181.68
228.94	1239.02
229.16	1257.45
229.37	1341.42
229.59	1216.49
229.81	1218.54
230.03	1234.93
230.25	1249.26
230.47	1312.75
230.69	1271.79
230.90	1208.30
231.12	1286.12
231.34	1167.34
231.56	1247.21
231.78	1224.69
232.00	1329.13
232.21	1273.84
232.43	1292.27
232.65	1277.93
232.87	1257.45
233.09	1269.74
233.30	1224.69
233.52	1339.37
233.74	1271.79
233.96	1253.36
234.18	1275.88
234.40	1265.64
234.61	1224.69
234.83	1277.93
235.05	1245.16
235.27	1282.03
235.49	1257.45
235.70	1331.18
235.92	1314.80
236.14	1331.18
236.36	1216.49
236.58	1236.97
236.79	1253.36
237.01	1306.60
237.23	1343.47
237.45	1249.26
237.67	1214.45
237.88	1279.98
238.10	1300.46
238.32	1279.98
238.54	1220.59
238.76	1275.88
238.97	1241.07
239.19	1261.55
239.41	1284.08
239.63	1261.55
239.85	1288.17
240.06	1232.88
240.28	1181.68
240.50	1224.69
240.72	1249.26
240.93	1193.97
241.15	1220.59
241.37	1277.93
241.59	1277.93
241.81	1239.02
242.02	1218.54
242.24	1253.36
242.46	1306.60
242.68	1239.02
242.89	1314.80
243.11	1322.99
243.33	1271.79
243.55	1275.88
243.76	1308.65
243.98	1312.75
244.20	1290.22
244.42	1277.93
244.64	1239.02
244.85	1304.56
245.07	1298.41
245.29	1304.56
245.51	1177.58
245.72	1212.40
245.94	1277.93
246.16	1146.86
246.38	1271.79
246.59	1247.21
246.81	1310.70
247.03	1304.56
247.24	1134.57
247.46	1218.54
247.68	1257.45
247.90	1288.17
248.11	1212.40
248.33	1286.12
248.55	1288.17
248.77	1363.95
248.98	1306.60
249.20	1261.55
249.42	1327.08
249.64	1224.69
249.85	1271.79
250.07	1325.04
250.29	1234.93
250.50	1208.30
250.72	1298.41
250.94	1255.40
251.16	1310.70
251.37	1257.45
251.59	1294.32
251.81	1257.45
252.02	1284.08
252.24	1273.84
252.46	1286.12
252.68	1224.69
252.89	1200.11
253.11	1345.52
253.33	1271.79
253.54	1302.51
253.76	1249.26
253.98	1245.16
254.20	1234.93
254.41	1224.69
254.63	1282.03
254.85	1282.03
255.06	1302.51
255.28	1261.55
255.50	1273.84
255.71	1245.16
255.93	1234.93
256.15	1251.31
256.36	1337.32
256.58	1206.25
256.80	1294.32
257.02	1294.32
257.23	1193.97
257.45	1286.12
257.67	1191.92
257.88	1320.94
258.10	1232.88
258.32	1279.98
258.53	1277.93
258.75	1273.84
258.97	1212.40
259.18	1320.94
259.40	1282.03
259.62	1294.32
259.83	1359.85
260.05	1257.45
260.27	1263.60
260.48	1253.36
260.70	1265.64
260.92	1290.22
261.13	1312.75
261.35	1208.30
261.57	1322.99
261.78	1286.12
262.00	1271.79
262.22	1259.50
262.43	1318.89
262.65	1241.07
262.86	1236.97
263.08	1275.88
263.30	1228.78
263.51	1206.25
263.73	1267.69
263.95	1222.64
264.16	1263.60
264.38	1292.27
264.60	1290.22
264.81	1222.64
265.03	1290.22
265.25	1275.88
265.46	1247.21
265.68	1282.03
265.89	1251.31
266.11	1265.64
266.33	1282.03
266.54	1249.26
266.76	1263.60
266.98	1284.08
267.19	1228.78
267.41	1271.79
267.62	1259.50
267.84	1247.21
268.06	1257.45
268.27	1284.08
268.49	1310.70
268.70	1318.89
268.92	1316.84
269.14	1310.70
269.35	1261.55
269.57	1239.02
269.79	1286.12
270.00	1290.22
270.22	1249.26
270.43	1257.45
270.65	1290.22
270.87	1247.21
271.08	1290.22
271.30	1294.32
271.51	1294.32
271.73	1253.36
271.95	1267.69
272.16	1245.16
272.38	1253.36
272.59	1200.11
272.81	1296.36
273.02	1261.55
273.24	1245.16
273.46	1318.89
273.67	1279.98
273.89	1228.78
274.10	1226.73
274.32	1292.27
274.54	1249.26
274.75	1245.16
274.97	1243.12
275.18	1204.21
275.40	1255.40
275.61	1265.64
275.83	1329.13
276.05	1296.36
276.26	1296.36
276.48	1279.98
276.69	1304.56
276.91	1263.60
277.12	1226.73
277.34	1214.45
277.55	1320.94
277.77	1325.04
277.99	1271.79
278.20	1239.02
278.42	1218.54
278.63	1282.03
278.85	1257.45
279.06	1294.32
279.28	1271.79
279.49	1222.64
279.71	1300.46
279.93	1339.37
280.14	1290.22
280.36	1292.27
280.57	1259.50
280.79	1220.59
281.00	1267.69
281.22	1216.49
281.43	1239.02
281.65	1224.69
281.86	1241.07
282.08	1312.75
282.29	1249.26
282.51	1249.26
282.73	1355.76
282.94	1245.16
283.16	1230.83
283.37	1241.07
283.59	1265.64
283.80	1259.50
284.02	1304.56
284.23	1236.97
284.45	1222.64
284.66	1261.55
284.88	1230.83
285.09	1241.07
285.31	1259.50
285.52	1271.79
285.74	1279.98
285.95	1290.22
286.17	1216.49
286.38	1263.60
286.60	1239.02
286.81	1241.07
287.03	1263.60
287.24	1181.68
287.46	1198.06
287.67	1255.40
287.89	1271.79
288.10	1222.64
288.32	1288.17
288.53	1191.92
288.75	1273.84
288.96	1325.04
289.18	1202.16
289.39	1296.36
289.61	1286.12
289.82	1230.83
290.04	1277.93
290.25	1251.31
290.47	1261.55
290.68	1230.83
290.90	1284.08
291.11	1257.45
291.33	1296.36
291.54	1292.27
291.76	1257.45
291.97	1345.52
292.18	1308.65
292.40	1273.84
292.61	1224.69
292.83	1318.89
293.04	1308.65
293.26	1273.84
293.47	1282.03
293.69	1288.17
293.90	1247.21
294.12	1296.36
294.33	1265.64
294.55	1261.55
294.76	1265.64
294.97	1327.08
295.19	1282.03
295.40	1247.21
295.62	1294.32
295.83	1251.31
296.05	1282.03
296.26	1271.79
296.48	1239.02
296.69	1259.50
296.90	1259.50
297.12	1257.45
297.33	1325.04
297.55	1228.78
297.76	1308.65
297.98	1288.17
298.19	1263.60
298.41	1288.17
298.62	1265.64
298.83	1263.60
299.05	1263.60
299.26	1277.93
299.48	1230.83
299.69	1259.50
299.90	1314.80
300.12	1212.40
300.33	1296.36
300.55	1249.26
300.76	1265.64
300.98	1302.51
301.19	1286.12
301.40	1267.69
301.62	1257.45
301.83	1302.51
302.05	1263.60
302.26	1300.46
302.47	1325.04
302.69	1247.21
302.90	1255.40
303.12	1257.45
303.33	1263.60
303.54	1296.36
303.76	1284.08
303.97	1302.51
304.19	1241.07
304.40	1241.07
304.61	1296.36
304.83	1224.69
305.04	1243.12
305.26	1196.01
305.47	1204.21
305.68	1331.18
305.90	1314.80
306.11	1200.11
306.33	1288.17
306.54	1294.32
306.75	1257.45
306.97	1206.25
307.18	1208.30
307.39	1308.65
307.61	1218.54
307.82	1255.40
308.04	1271.79
308.25	1288.17
308.46	1206.25
308.68	1265.64
308.89	1284.08
309.10	1236.97
309.32	1325.04
309.53	1308.65
309.74	1257.45
309.96	1222.64
310.17	1271.79
310.39	1337.32
310.60	1273.84
310.81	1243.12
311.03	1204.21
311.24	1208.30
311.45	1292.27
311.67	1265.64
311.88	1232.88
312.09	1296.36
312.31	1351.66
312.52	1329.13
312.73	1304.56
312.95	1277.93
313.16	1267.69
313.37	1361.90
313.59	1267.69
313.80	1259.50
314.01	1224.69
314.23	1277.93
314.44	1249.26
314.65	1269.74
314.87	1239.02
315.08	1265.64
315.29	1255.40
315.51	1261.55
315.72	1298.41
315.93	1277.93
316.15	1310.70
316.36	1339.37
316.57	1245.16
316.79	1257.45
317.00	1228.78
317.21	1302.51
317.43	1220.59
317.64	1294.32
317.85	1320.94
318.07	1306.60
318.28	1255.40
318.49	1296.36
318.70	1290.22
318.92	1353.71
319.13	1245.16
319.34	1265.64
319.56	1255.40
319.77	1251.31
319.98	1208.30
320.20	1230.83
320.41	1331.18
320.62	1277.93
320.83	1236.97
321.05	1196.01
321.26	1216.49
321.47	1193.97
321.69	1261.55
321.90	1204.21
322.11	1224.69
322.32	1265.64
322.54	1263.60
322.75	1216.49
322.96	1331.18
323.18	1290.22
323.39	1167.34
323.60	1214.45
323.81	1298.41
324.03	1265.64
324.24	1224.69
324.45	1325.04
324.66	1232.88
324.88	1312.75
325.09	1245.16
325.30	1290.22
325.52	1257.45
325.73	1230.83
325.94	1247.21
326.15	1308.65
326.37	1312.75
326.58	1335.28
326.79	1216.49
327.00	1277.93
327.22	1222.64
327.43	1290.22
327.64	1228.78
327.85	1202.16
328.07	1335.28
328.28	1290.22
328.49	1228.78
328.70	1282.03
328.92	1263.60
329.13	1279.98
329.34	1286.12
329.55	1284.08
329.76	1206.25
329.98	1294.32
330.19	1275.88
330.40	1269.74
330.61	1310.70
330.83	1224.69
331.04	1224.69
331.25	1249.26
331.46	1314.80
331.68	1269.74
331.89	1286.12
332.10	1232.88
332.31	1290.22
332.52	1279.98
332.74	1349.61
332.95	1267.69
333.16	1247.21
333.37	1333.23
333.58	1267.69
333.80	1277.93
334.01	1288.17
334.22	1265.64
334.43	1239.02
334.64	1253.36
334.86	1279.98
335.07	1212.40
335.28	1304.56
335.49	1310.70
335.70	1273.84
335.92	1296.36
336.13	1259.50
336.34	1335.28
336.55	1277.93
336.76	1312.75
336.98	1230.83
337.19	1282.03
337.40	1298.41
337.61	1308.65
337.82	1257.45
338.04	1259.50
338.25	1286.12
338.46	1312.75
338.67	1241.07
338.88	1261.55
339.09	1263.60
339.31	1257.45
339.52	1239.02
339.73	1224.69
339.94	1216.49
340.15	1241.07
340.36	1249.26
340.58	1263.60
340.79	1236.97
341.00	1302.51
341.21	1282.03
341.42	1232.88
341.63	1239.02
341.85	1232.88
342.06	1275.88
342.27	1226.73
342.48	1214.45
342.69	1216.49
342.90	1236.97
343.12	1269.74
343.33	1265.64
343.54	1290.22
343.75	1347.56
343.96	1316.84
344.17	1236.97
344.38	1257.45
344.60	1216.49
344.81	1214.45
345.02	1234.93
345.23	1302.51
345.44	1257.45
345.65	1304.56
345.86	1277.93
346.07	1234.93
346.29	1292.27
346.50	1327.08
346.71	1298.41
346.92	1236.97
347.13	1275.88
347.34	1271.79
347.55	1251.31
347.76	1239.02
347.98	1308.65
348.19	1267.69
348.40	1263.60
348.61	1204.21
348.82	1198.06
349.03	1269.74
349.24	1341.42
349.45	1302.51
349.66	1220.59
349.88	1325.04
350.09	1306.60
350.30	1234.93
350.51	1247.21
350.72	1282.03
350.93	1273.84
351.14	1220.59
351.35	1298.41
351.56	1212.40
351.77	1271.79
351.99	1298.41
352.20	1282.03
352.41	1273.84
352.62	1298.41
352.83	1230.83
353.04	1236.97
353.25	1263.60
353.46	1318.89
353.67	1253.36
353.88	1259.50
354.09	1290.22
354.30	1306.60
354.52	1282.03
354.73	1306.60
354.94	1261.55
355.15	1214.45
355.36	1218.54
355.57	1259.50
355.78	1232.88
355.99	1277.93
356.20	1253.36
356.41	1269.74
356.62	1282.03
356.83	1277.93
357.04	1292.27
357.25	1236.97
357.46	1322.99
357.68	1243.12
357.89	1247.21
358.10	1269.74
358.31	1294.32
358.52	1263.60
358.73	1236.97
358.94	1208.30
359.15	1208.30
359.36	1269.74
359.57	1294.32
359.78	1288.17
359.99	1261.55
360.20	1298.41
360.41	1263.60
360.62	1265.64
360.83	1204.21
361.04	1304.56
361.25	1173.49
361.46	1300.46
361.67	1214.45
361.88	1282.03
362.09	1279.98
362.30	1210.35
362.51	1257.45
362.72	1251.31
362.93	1263.60
363.14	1282.03
363.35	1325.04
363.56	1298.41
363.78	1245.16
363.99	1320.94
364.20	1277.93
364.41	1312.75
364.62	1329.13
364.83	1249.26
365.04	1241.07
365.25	1243.12
365.46	1282.03
365.67	1218.54
365.88	1279.98
366.09	1292.27
366.30	1298.41
366.51	1265.64
366.72	1370.09
366.93	1310.70
367.14	1253.36
367.35	1351.66
367.56	1273.84
367.77	1312.75
367.98	1245.16
368.18	1269.74
368.39	1275.88
368.60	1263.60
368.81	1345.52
369.02	1200.11
369.23	1224.69
369.44	1298.41
369.65	1298.41
369.86	1220.59
370.07	1202.16
370.28	1277.93
370.49	1302.51
370.70	1228.78
370.91	1214.45
371.12	1318.89
371.33	1228.78
371.54	1298.41
371.75	1243.12
371.96	1300.46
372.17	1193.97
372.38	1218.54
372.59	1275.88
372.80	1267.69
373.01	1351.66
373.22	1298.41
373.43	1257.45
373.64	1265.64
373.85	1228.78
374.06	1304.56
374.26	1318.89
374.47	1263.60
374.68	1275.88
374.89	1241.07
375.10	1220.59
375.31	1339.37
375.52	1234.93
375.73	1249.26
375.94	1275.88
376.15	1312.75
376.36	1230.83
376.57	1251.31
376.78	1343.47
376.99	1249.26
377.20	1355.76
377.40	1345.52
377.61	1318.89
377.82	1251.31
378.03	1282.03
378.24	1294.32
378.45	1245.16
378.66	1286.12
378.87	1173.49
379.08	1253.36
379.29	1202.16
379.50	1288.17
379.71	1245.16
379.91	1275.88
380.12	1327.08
380.33	1267.69
380.54	1245.16
380.75	1277.93
380.96	1214.45
381.17	1298.41
381.38	1271.79
381.59	1292.27
381.80	1181.68
382.00	1208.30
382.21	1259.50
382.42	1282.03
382.63	1306.60
382.84	1247.21
383.05	1279.98
383.26	1290.22
383.47	1155.05
383.68	1236.97
383.88	1325.04
384.09	1269.74
384.30	1257.45
384.51	1179.63
384.72	1302.51
384.93	1241.07
385.14	1294.32
385.35	1320.94
385.55	1322.99
385.76	1265.64
385.97	1294.32
386.18	1308.65
386.39	1208.30
386.60	1247.21
386.81	1290.22
387.02	1236.97
387.22	1236.97
387.43	1206.25
387.64	1265.64
387.85	1372.14
388.06	1249.26
388.27	1282.03
388.48	1329.13
388.68	1282.03
388.89	1241.07
389.10	1251.31
389.31	1296.36
389.52	1308.65
389.73	1310.70
389.93	1329.13
390.14	1284.08
390.35	1320.94
390.56	1232.88
390.77	1261.55
390.98	1239.02
391.18	1331.18
391.39	1261.55
391.60	1269.74
391.81	1306.60
392.02	1282.03
392.23	1279.98
392.43	1232.88
392.64	1277.93
392.85	1275.88
393.06	1157.10
393.27	1243.12
393.47	1247.21
393.68	1214.45
393.89	1263.60
394.10	1302.51
394.31	1243.12
394.52	1247.21
394.72	1343.47
394.93	1169.39
395.14	1222.64
395.35	1230.83
395.56	1277.93
395.76	1183.73
395.97	1245.16
396.18	1294.32
396.39	1294.32
396.60	1337.32
396.80	1290.22
397.01	1218.54
397.22	1347.56
397.43	1212.40
397.64	1222.64
397.84	1255.40
398.05	1290.22
398.26	1263.60
398.47	1208.30
398.67	1255.40
398.88	1288.17
399.09	1177.58
399.30	1275.88
399.51	1253.36
399.71	1277.93
399.92	1220.59
400.13	1261.55
400.34	1257.45
400.54	1259.50
400.75	1290.22
400.96	1357.80
401.17	1263.60
401.37	1335.28
401.58	1226.73
401.79	1257.45
402.00	1279.98
402.21	1296.36
402.41	1273.84
402.62	1243.12
402.83	1175.53
403.04	1216.49
403.24	1243.12
403.45	1273.84
403.66	1257.45
403.87	1257.45
404.07	1249.26
404.28	1263.60
404.49	1253.36
404.70	1210.35
404.90	1263.60
405.11	1249.26
405.32	1279.98
405.52	1241.07
405.73	1257.45
405.94	1288.17
406.15	1273.84
406.35	1282.03
406.56	1222.64
406.77	1222.64
406.98	1222.64
407.18	1224.69
407.39	1314.80
407.60	1265.64
407.80	1357.80
408.01	1259.50
408.22	1249.26
408.43	1306.60
408.63	1212.40
408.84	1277.93
409.05	1331.18
409.25	1308.65
409.46	1236.97
409.67	1325.04
409.88	1269.74
410.08	1255.40
410.29	1263.60
410.50	1306.60
410.70	1253.36
410.91	1243.12
411.12	1333.23
411.32	1296.36
411.53	1312.75
411.74	1232.88
411.95	1198.06
412.15	1234.93
412.36	1228.78
412.57	1245.16
412.77	1255.40
412.98	1259.50
413.19	1251.31
413.39	1290.22
413.60	1249.26
413.81	1273.84
414.01	1282.03
414.22	1216.49
414.43	1325.04
414.63	1243.12
414.84	1265.64
415.05	1241.07
415.25	1228.78
415.46	1257.45
415.67	1304.56
415.87	1208.30
416.08	1288.17
416.29	1185.77
416.49	1310.70
416.70	1247.21
416.91	1228.78
417.11	1339.37
417.32	1253.36
417.53	1318.89
417.73	1251.31
417.94	1261.55
418.15	1243.12
418.35	1294.32
418.56	1310.70
418.77	1267.69
418.97	1216.49
419.18	1267.69
419.38	1282.03
419.59	1249.26
419.80	1320.94
420.00	1271.79
420.21	1292.27
420.42	1265.64
420.62	1294.32
420.83	1234.93
421.04	1196.01
421.24	1120.24
421.45	1306.60
421.65	1273.84
421.86	1343.47
422.07	1236.97
422.27	1265.64
422.48	1214.45
422.69	1259.50
422.89	1263.60
423.10	1255.40
423.30	1241.07
423.51	1247.21
423.72	1300.46
423.92	1241.07
424.13	1236.97
424.33	1322.99
424.54	1251.31
424.75	1193.97
424.95	1322.99
425.16	1282.03
425.36	1279.98
425.57	1345.52
425.78	1241.07
425.98	1314.80
426.19	1300.46
426.39	1331.18
426.60	1232.88
426.81	1288.17
427.01	1255.40
427.22	1271.79
427.42	1314.80
427.63	1263.60
427.83	1261.55
428.04	1241.07
428.25	1243.12
428.45	1337.32
428.66	1216.49
428.86	1204.21
429.07	1263.60
429.28	1253.36
429.48	1288.17
429.69	1308.65
429.89	1239.02
430.10	1357.80
430.30	1302.51
430.51	1226.73
430.71	1214.45
430.92	1290.22
431.13	1292.27
431.33	1249.26
431.54	1282.03
431.74	1265.64
431.95	1230.83
432.15	1253.36
432.36	1255.40
432.56	1230.83
432.77	1273.84
432.98	1282.03
433.18	1259.50
433.39	1255.40
433.59	1232.88
433.80	1271.79
434.00	1216.49
434.21	1298.41
434.41	1257.45
434.62	1273.84
434.82	1220.59
435.03	1239.02
435.23	1294.32
435.44	1273.84
435.64	1269.74
435.85	1261.55
436.06	1302.51
436.26	1218.54
436.47	1206.25
436.67	1325.04
436.88	1249.26
437.08	1193.97
437.29	1265.64
437.49	1249.26
437.70	1271.79
437.90	1255.40
438.11	1271.79
438.31	1392.62
438.52	1247.21
438.72	1296.36
438.93	1245.16
439.13	1286.12
439.34	1333.23
439.54	1261.55
439.75	1337.32
439.95	1284.08
440.16	1339.37
440.36	1269.74
440.57	1300.46
440.77	1296.36
440.98	1368.04
441.18	1316.84
441.39	1298.41
441.59	1251.31
441.80	1306.60
442.00	1322.99
442.21	1232.88
442.41	1279.98
442.62	1275.88
442.82	1282.03
443.02	1312.75
443.23	1230.83
443.43	1234.93
443.64	1200.11
443.84	1282.03
444.05	1282.03
444.25	1300.46
444.46	1200.11
444.66	1245.16
444.87	1327.08
445.07	1267.69
445.28	1288.17
445.48	1265.64
445.69	1261.55
445.89	1255.40
446.09	1327.08
446.30	1288.17
446.50	1310.70
446.71	1175.53
446.91	1282.03
447.12	1150.96
447.32	1306.60
447.53	1286.12
447.73	1271.79
447.93	1335.28
448.14	1243.12
448.34	1318.89
448.55	1259.50
448.75	1286.12
448.96	1294.32
449.16	1327.08
449.36	1366.00
449.57	1282.03
449.77	1345.52
449.98	1349.61
450.18	1296.36
450.39	1290.22
450.59	1341.42
450.79	1279.98
451.00	1259.50
451.20	1304.56
451.41	1277.93
451.61	1269.74
451.81	1296.36
452.02	1249.26
452.22	1263.60
452.43	1263.60
452.63	1212.40
