SpectraSuite Data File
++++++++++++++++++++++++++++++++++++
Date: Sun Apr 03 19:55:15 CEST 2016
User: root
Dark Spectrum Present: No
Reference Spectrum Present: No
Number of Sampled Component Spectra: 1
Spectrometers: USB4C02835
Integration Time (usec): 10000 (USB4C02835)
Spectra Averaged: 1 (USB4C02835)
Boxcar Smoothing: 0 (USB4C02835)
Correct for Electrical Dark: No (USB4C02835)
Strobe/Lamp Enabled: No (USB4C02835)
Correct for Detector Non-linearity: No (USB4C02835)
Correct for Stray Light: No (USB4C02835)
Number of Pixels in Processed Spectrum: 3648
>>>>>Begin Processed Spectral Data<<<<<
177.47	1196.01
177.69	1196.01
177.91	1196.01
178.13	1220.59
178.36	1329.13
178.58	1243.12
178.80	1298.41
179.02	1257.45
179.24	1255.40
179.46	1251.31
179.68	1306.60
179.90	1236.97
180.13	1224.69
180.35	1275.88
180.57	1249.26
180.79	1298.41
181.01	1294.32
181.23	1210.35
181.45	1249.26
181.67	1228.78
181.90	1284.08
182.12	1273.84
182.34	1228.78
182.56	1220.59
182.78	1222.64
183.00	1271.79
183.22	1277.93
183.44	1255.40
183.66	1275.88
183.89	1277.93
184.11	1284.08
184.33	1282.03
184.55	1284.08
184.77	1333.23
184.99	1255.40
185.21	1269.74
185.43	1257.45
185.65	1263.60
185.87	1306.60
186.10	1216.49
186.32	1298.41
186.54	1302.51
186.76	1318.89
186.98	1230.83
187.20	1228.78
187.42	1282.03
187.64	1259.50
187.86	1257.45
188.08	1329.13
188.30	1263.60
188.52	1277.93
188.75	1236.97
188.97	1261.55
189.19	1267.69
189.41	1234.93
189.63	1259.50
189.85	1271.79
190.07	1173.49
190.29	1282.03
190.51	1277.93
190.73	1232.88
190.95	1249.26
191.17	1261.55
191.39	1339.37
191.61	1241.07
191.84	1277.93
192.06	1298.41
192.28	1279.98
192.50	1296.36
192.72	1196.01
192.94	1288.17
193.16	1259.50
193.38	1310.70
193.60	1327.08
193.82	1249.26
194.04	1232.88
194.26	1298.41
194.48	1290.22
194.70	1255.40
194.92	1294.32
195.14	1249.26
195.36	1277.93
195.58	1187.82
195.80	1275.88
196.02	1263.60
196.24	1310.70
196.46	1249.26
196.69	1265.64
196.91	1320.94
197.13	1290.22
197.35	1249.26
197.57	1249.26
197.79	1320.94
198.01	1218.54
198.23	1282.03
198.45	1269.74
198.67	1284.08
198.89	1263.60
199.11	1320.94
199.33	1265.64
199.55	1249.26
199.77	1286.12
199.99	1198.06
200.21	1273.84
200.43	1357.80
200.65	1185.77
200.87	1265.64
201.09	1298.41
201.31	1140.72
201.53	1247.21
201.75	1230.83
201.97	1216.49
202.19	1247.21
202.41	1306.60
202.63	1300.46
202.85	1212.40
203.07	1253.36
203.29	1263.60
203.51	1273.84
203.73	1269.74
203.95	1304.56
204.17	1261.55
204.39	1212.40
204.61	1282.03
204.83	1220.59
205.05	1218.54
205.27	1306.60
205.49	1239.02
205.71	1308.65
205.93	1253.36
206.15	1265.64
206.37	1263.60
206.59	1218.54
206.81	1214.45
207.03	1275.88
207.25	1230.83
207.47	1271.79
207.69	1320.94
207.91	1286.12
208.13	1335.28
208.34	1224.69
208.56	1218.54
208.78	1267.69
209.00	1261.55
209.22	1335.28
209.44	1243.12
209.66	1198.06
209.88	1251.31
210.10	1335.28
210.32	1300.46
210.54	1363.95
210.76	1296.36
210.98	1294.32
211.20	1234.93
211.42	1300.46
211.64	1298.41
211.86	1253.36
212.08	1318.89
212.30	1220.59
212.52	1296.36
212.74	1249.26
212.96	1275.88
213.17	1259.50
213.39	1339.37
213.61	1294.32
213.83	1288.17
214.05	1228.78
214.27	1263.60
214.49	1239.02
214.71	1292.27
214.93	1265.64
215.15	1261.55
215.37	1286.12
215.59	1239.02
215.81	1302.51
216.03	1290.22
216.24	1292.27
216.46	1271.79
216.68	1310.70
216.90	1243.12
217.12	1249.26
217.34	1251.31
217.56	1290.22
217.78	1296.36
218.00	1269.74
218.22	1261.55
218.44	1312.75
218.66	1239.02
218.87	1273.84
219.09	1236.97
219.31	1290.22
219.53	1327.08
219.75	1310.70
219.97	1236.97
220.19	1296.36
220.41	1257.45
220.63	1267.69
220.85	1210.35
221.06	1193.97
221.28	1306.60
221.50	1261.55
221.72	1275.88
221.94	1232.88
222.16	1269.74
222.38	1261.55
222.60	1259.50
222.82	1230.83
223.03	1292.27
223.25	1284.08
223.47	1232.88
223.69	1304.56
223.91	1228.78
224.13	1288.17
224.35	1208.30
224.57	1236.97
224.78	1341.42
225.00	1230.83
225.22	1290.22
225.44	1265.64
225.66	1253.36
225.88	1241.07
226.10	1183.73
226.32	1243.12
226.53	1265.64
226.75	1255.40
226.97	1284.08
227.19	1257.45
227.41	1265.64
227.63	1288.17
227.85	1236.97
228.06	1259.50
228.28	1312.75
228.50	1296.36
228.72	1249.26
228.94	1277.93
229.16	1302.51
229.37	1273.84
229.59	1269.74
229.81	1329.13
230.03	1304.56
230.25	1294.32
230.47	1220.59
230.69	1228.78
230.90	1279.98
231.12	1228.78
231.34	1239.02
231.56	1304.56
231.78	1349.61
232.00	1273.84
232.21	1327.08
232.43	1247.21
232.65	1282.03
232.87	1294.32
233.09	1259.50
233.30	1337.32
233.52	1261.55
233.74	1236.97
233.96	1337.32
234.18	1300.46
234.40	1245.16
234.61	1245.16
234.83	1275.88
235.05	1320.94
235.27	1216.49
235.49	1314.80
235.70	1282.03
235.92	1269.74
236.14	1279.98
236.36	1327.08
236.58	1228.78
236.79	1263.60
237.01	1312.75
237.23	1302.51
237.45	1275.88
237.67	1228.78
237.88	1222.64
238.10	1298.41
238.32	1294.32
238.54	1277.93
238.76	1279.98
238.97	1310.70
239.19	1275.88
239.41	1253.36
239.63	1198.06
239.85	1261.55
240.06	1236.97
240.28	1218.54
240.50	1239.02
240.72	1271.79
240.93	1271.79
241.15	1312.75
241.37	1277.93
241.59	1294.32
241.81	1220.59
242.02	1288.17
242.24	1169.39
242.46	1271.79
242.68	1255.40
242.89	1275.88
243.11	1234.93
243.33	1243.12
243.55	1327.08
243.76	1251.31
243.98	1241.07
244.20	1216.49
244.42	1286.12
244.64	1216.49
244.85	1294.32
245.07	1239.02
245.29	1222.64
245.51	1282.03
245.72	1271.79
245.94	1411.05
246.16	1284.08
246.38	1337.32
246.59	1228.78
246.81	1265.64
247.03	1277.93
247.24	1236.97
247.46	1290.22
247.68	1261.55
247.90	1290.22
248.11	1277.93
248.33	1232.88
248.55	1380.33
248.77	1208.30
248.98	1296.36
249.20	1308.65
249.42	1251.31
249.64	1275.88
249.85	1210.35
250.07	1253.36
250.29	1267.69
250.50	1255.40
250.72	1359.85
250.94	1226.73
251.16	1269.74
251.37	1251.31
251.59	1312.75
251.81	1193.97
252.02	1208.30
252.24	1228.78
252.46	1267.69
252.68	1241.07
252.89	1341.42
253.11	1286.12
253.33	1279.98
253.54	1298.41
253.76	1273.84
253.98	1269.74
254.20	1290.22
254.41	1208.30
254.63	1273.84
254.85	1234.93
255.06	1286.12
255.28	1236.97
255.50	1302.51
255.71	1232.88
255.93	1243.12
256.15	1253.36
256.36	1200.11
256.58	1228.78
256.80	1271.79
257.02	1267.69
257.23	1275.88
257.45	1251.31
257.67	1304.56
257.88	1224.69
258.10	1294.32
258.32	1290.22
258.53	1300.46
258.75	1282.03
258.97	1241.07
259.18	1216.49
259.40	1286.12
259.62	1269.74
259.83	1275.88
260.05	1239.02
260.27	1333.23
260.48	1179.63
260.70	1263.60
260.92	1224.69
261.13	1259.50
261.35	1298.41
261.57	1314.80
261.78	1200.11
262.00	1216.49
262.22	1327.08
262.43	1267.69
262.65	1265.64
262.86	1304.56
263.08	1345.52
263.30	1312.75
263.51	1296.36
263.73	1355.76
263.95	1275.88
264.16	1261.55
264.38	1224.69
264.60	1257.45
264.81	1259.50
265.03	1271.79
265.25	1308.65
265.46	1269.74
265.68	1300.46
265.89	1263.60
266.11	1204.21
266.33	1370.09
266.54	1214.45
266.76	1271.79
266.98	1275.88
267.19	1249.26
267.41	1269.74
267.62	1314.80
267.84	1218.54
268.06	1290.22
268.27	1314.80
268.49	1241.07
268.70	1296.36
268.92	1288.17
269.14	1210.35
269.35	1200.11
269.57	1335.28
269.79	1277.93
270.00	1230.83
270.22	1290.22
270.43	1267.69
270.65	1263.60
270.87	1265.64
271.08	1298.41
271.30	1286.12
271.51	1282.03
271.73	1245.16
271.95	1249.26
272.16	1239.02
272.38	1275.88
272.59	1273.84
272.81	1331.18
273.02	1277.93
273.24	1314.80
273.46	1298.41
273.67	1185.77
273.89	1308.65
274.10	1279.98
274.32	1175.53
274.54	1331.18
274.75	1290.22
274.97	1198.06
275.18	1298.41
275.40	1253.36
275.61	1304.56
275.83	1265.64
276.05	1300.46
276.26	1290.22
276.48	1243.12
276.69	1310.70
276.91	1232.88
277.12	1251.31
277.34	1290.22
277.55	1261.55
277.77	1245.16
277.99	1202.16
278.20	1300.46
278.42	1232.88
278.63	1308.65
278.85	1247.21
279.06	1288.17
279.28	1286.12
279.49	1247.21
279.71	1239.02
279.93	1259.50
280.14	1304.56
280.36	1300.46
280.57	1196.01
280.79	1269.74
281.00	1339.37
281.22	1202.16
281.43	1308.65
281.65	1282.03
281.86	1286.12
282.08	1269.74
282.29	1320.94
282.51	1284.08
282.73	1312.75
282.94	1253.36
283.16	1282.03
283.37	1275.88
283.59	1253.36
283.80	1267.69
284.02	1271.79
284.23	1245.16
284.45	1241.07
284.66	1245.16
284.88	1273.84
285.09	1216.49
285.31	1331.18
285.52	1269.74
285.74	1253.36
285.95	1216.49
286.17	1277.93
286.38	1275.88
286.60	1263.60
286.81	1212.40
287.03	1200.11
287.24	1294.32
287.46	1239.02
287.67	1316.84
287.89	1245.16
288.10	1273.84
288.32	1310.70
288.53	1271.79
288.75	1263.60
288.96	1275.88
289.18	1279.98
289.39	1259.50
289.61	1331.18
289.82	1214.45
290.04	1193.97
290.25	1183.73
290.47	1327.08
290.68	1218.54
290.90	1173.49
291.11	1226.73
291.33	1161.20
291.54	1253.36
291.76	1322.99
291.97	1251.31
292.18	1275.88
292.40	1312.75
292.61	1255.40
292.83	1277.93
293.04	1322.99
293.26	1253.36
293.47	1322.99
293.69	1298.41
293.90	1320.94
294.12	1183.73
294.33	1351.66
294.55	1251.31
294.76	1269.74
294.97	1241.07
295.19	1294.32
295.40	1196.01
295.62	1310.70
295.83	1220.59
296.05	1288.17
296.26	1279.98
296.48	1269.74
296.69	1179.63
296.90	1253.36
297.12	1312.75
297.33	1216.49
297.55	1243.12
297.76	1292.27
297.98	1228.78
298.19	1292.27
298.41	1284.08
298.62	1296.36
298.83	1327.08
299.05	1257.45
299.26	1341.42
299.48	1222.64
299.69	1304.56
299.90	1241.07
300.12	1251.31
300.33	1298.41
300.55	1288.17
300.76	1234.93
300.98	1251.31
301.19	1247.21
301.40	1267.69
301.62	1355.76
301.83	1259.50
302.05	1304.56
302.26	1337.32
302.47	1247.21
302.69	1159.15
302.90	1222.64
303.12	1226.73
303.33	1251.31
303.54	1347.56
303.76	1249.26
303.97	1253.36
304.19	1314.80
304.40	1288.17
304.61	1294.32
304.83	1284.08
305.04	1253.36
305.26	1228.78
305.47	1296.36
305.68	1288.17
305.90	1249.26
306.11	1304.56
306.33	1296.36
306.54	1314.80
306.75	1216.49
306.97	1245.16
307.18	1308.65
307.39	1273.84
307.61	1329.13
307.82	1279.98
308.04	1249.26
308.25	1232.88
308.46	1282.03
308.68	1173.49
308.89	1241.07
309.10	1282.03
309.32	1247.21
309.53	1288.17
309.74	1322.99
309.96	1208.30
310.17	1232.88
310.39	1200.11
310.60	1294.32
310.81	1271.79
311.03	1322.99
311.24	1261.55
311.45	1257.45
311.67	1357.80
311.88	1222.64
312.09	1304.56
312.31	1273.84
312.52	1171.44
312.73	1245.16
312.95	1251.31
313.16	1290.22
313.37	1349.61
313.59	1331.18
313.80	1275.88
314.01	1241.07
314.23	1234.93
314.44	1271.79
314.65	1267.69
314.87	1169.39
315.08	1230.83
315.29	1263.60
315.51	1230.83
315.72	1314.80
315.93	1210.35
316.15	1277.93
316.36	1212.40
316.57	1245.16
316.79	1300.46
317.00	1320.94
317.21	1212.40
317.43	1255.40
317.64	1202.16
317.85	1347.56
318.07	1216.49
318.28	1275.88
318.49	1212.40
318.70	1259.50
318.92	1224.69
319.13	1304.56
319.34	1312.75
319.56	1306.60
319.77	1226.73
319.98	1267.69
320.20	1191.92
320.41	1228.78
320.62	1263.60
320.83	1273.84
321.05	1275.88
321.26	1273.84
321.47	1290.22
321.69	1273.84
321.90	1331.18
322.11	1279.98
322.32	1277.93
322.54	1298.41
322.75	1288.17
322.96	1312.75
323.18	1290.22
323.39	1189.87
323.60	1263.60
323.81	1241.07
324.03	1232.88
324.24	1312.75
324.45	1273.84
324.66	1249.26
324.88	1249.26
325.09	1247.21
325.30	1271.79
325.52	1263.60
325.73	1249.26
325.94	1292.27
326.15	1206.25
326.37	1257.45
326.58	1191.92
326.79	1183.73
327.00	1273.84
327.22	1261.55
327.43	1284.08
327.64	1234.93
327.85	1232.88
328.07	1290.22
328.28	1275.88
328.49	1322.99
328.70	1269.74
328.92	1273.84
329.13	1236.97
329.34	1245.16
329.55	1263.60
329.76	1304.56
329.98	1220.59
330.19	1318.89
330.40	1249.26
330.61	1286.12
330.83	1261.55
331.04	1247.21
331.25	1232.88
331.46	1279.98
331.68	1222.64
331.89	1239.02
332.10	1251.31
332.31	1251.31
332.52	1200.11
332.74	1275.88
332.95	1210.35
333.16	1191.92
333.37	1226.73
333.58	1265.64
333.80	1234.93
334.01	1259.50
334.22	1331.18
334.43	1261.55
334.64	1277.93
334.86	1277.93
335.07	1290.22
335.28	1269.74
335.49	1286.12
335.70	1314.80
335.92	1214.45
336.13	1222.64
336.34	1247.21
336.55	1208.30
336.76	1179.63
336.98	1247.21
337.19	1259.50
337.40	1208.30
337.61	1290.22
337.82	1298.41
338.04	1277.93
338.25	1208.30
338.46	1312.75
338.67	1257.45
338.88	1247.21
339.09	1304.56
339.31	1257.45
339.52	1259.50
339.73	1247.21
339.94	1279.98
340.15	1224.69
340.36	1288.17
340.58	1267.69
340.79	1277.93
341.00	1279.98
341.21	1247.21
341.42	1249.26
341.63	1335.28
341.85	1241.07
342.06	1306.60
342.27	1271.79
342.48	1224.69
342.69	1284.08
342.90	1271.79
343.12	1277.93
343.33	1265.64
343.54	1255.40
343.75	1228.78
343.96	1329.13
344.17	1308.65
344.38	1232.88
344.60	1257.45
344.81	1273.84
345.02	1286.12
345.23	1267.69
345.44	1187.82
345.65	1265.64
345.86	1271.79
346.07	1234.93
346.29	1216.49
346.50	1304.56
346.71	1249.26
346.92	1302.51
347.13	1271.79
347.34	1273.84
347.55	1259.50
347.76	1253.36
347.98	1316.84
348.19	1292.27
348.40	1279.98
348.61	1241.07
348.82	1308.65
349.03	1232.88
349.24	1335.28
349.45	1298.41
349.66	1265.64
349.88	1380.33
350.09	1255.40
350.30	1312.75
350.51	1269.74
350.72	1290.22
350.93	1267.69
351.14	1296.36
351.35	1286.12
351.56	1191.92
351.77	1265.64
351.99	1249.26
352.20	1245.16
352.41	1263.60
352.62	1282.03
352.83	1271.79
353.04	1312.75
353.25	1204.21
353.46	1255.40
353.67	1265.64
353.88	1294.32
354.09	1208.30
354.30	1286.12
354.52	1230.83
354.73	1349.61
354.94	1185.77
355.15	1288.17
355.36	1341.42
355.57	1269.74
355.78	1239.02
355.99	1312.75
356.20	1206.25
356.41	1286.12
356.62	1208.30
356.83	1325.04
357.04	1232.88
357.25	1320.94
357.46	1279.98
357.68	1187.82
357.89	1298.41
358.10	1294.32
358.31	1243.12
358.52	1261.55
358.73	1239.02
358.94	1273.84
359.15	1306.60
359.36	1298.41
359.57	1259.50
359.78	1298.41
359.99	1298.41
360.20	1306.60
360.41	1284.08
360.62	1208.30
360.83	1306.60
361.04	1255.40
361.25	1224.69
361.46	1232.88
361.67	1234.93
361.88	1277.93
362.09	1282.03
362.30	1243.12
362.51	1316.84
362.72	1314.80
362.93	1247.21
363.14	1228.78
363.35	1353.71
363.56	1282.03
363.78	1335.28
363.99	1259.50
364.20	1247.21
364.41	1316.84
364.62	1267.69
364.83	1187.82
365.04	1239.02
365.25	1284.08
365.46	1292.27
365.67	1245.16
365.88	1316.84
366.09	1310.70
366.30	1277.93
366.51	1349.61
366.72	1363.95
366.93	1318.89
367.14	1202.16
367.35	1206.25
367.56	1261.55
367.77	1222.64
367.98	1312.75
368.18	1302.51
368.39	1298.41
368.60	1267.69
368.81	1310.70
369.02	1245.16
369.23	1236.97
369.44	1208.30
369.65	1257.45
369.86	1279.98
370.07	1300.46
370.28	1296.36
370.49	1271.79
370.70	1286.12
370.91	1245.16
371.12	1279.98
371.33	1345.52
371.54	1265.64
371.75	1277.93
371.96	1275.88
372.17	1279.98
372.38	1181.68
372.59	1273.84
372.80	1282.03
373.01	1212.40
373.22	1263.60
373.43	1247.21
373.64	1196.01
373.85	1228.78
374.06	1253.36
374.26	1308.65
374.47	1296.36
374.68	1253.36
374.89	1269.74
375.10	1191.92
375.31	1290.22
375.52	1222.64
375.73	1193.97
375.94	1259.50
376.15	1226.73
376.36	1263.60
376.57	1298.41
376.78	1255.40
376.99	1312.75
377.20	1222.64
377.40	1249.26
377.61	1282.03
377.82	1269.74
378.03	1288.17
378.24	1269.74
378.45	1253.36
378.66	1249.26
378.87	1181.68
379.08	1255.40
379.29	1230.83
379.50	1265.64
379.71	1286.12
379.91	1277.93
380.12	1316.84
380.33	1263.60
380.54	1249.26
380.75	1290.22
380.96	1294.32
381.17	1312.75
381.38	1279.98
381.59	1316.84
381.80	1185.77
382.00	1279.98
382.21	1294.32
382.42	1214.45
382.63	1282.03
382.84	1269.74
383.05	1304.56
383.26	1314.80
383.47	1296.36
383.68	1314.80
383.88	1269.74
384.09	1279.98
384.30	1259.50
384.51	1282.03
384.72	1239.02
384.93	1214.45
385.14	1214.45
385.35	1325.04
385.55	1275.88
385.76	1359.85
385.97	1218.54
386.18	1279.98
386.39	1259.50
386.60	1259.50
386.81	1267.69
387.02	1255.40
387.22	1239.02
387.43	1288.17
387.64	1179.63
387.85	1222.64
388.06	1318.89
388.27	1255.40
388.48	1314.80
388.68	1191.92
388.89	1304.56
389.10	1279.98
389.31	1275.88
389.52	1232.88
389.73	1228.78
389.93	1273.84
390.14	1300.46
390.35	1288.17
390.56	1288.17
390.77	1236.97
390.98	1263.60
391.18	1265.64
391.39	1265.64
391.60	1296.36
391.81	1357.80
392.02	1306.60
392.23	1224.69
392.43	1279.98
392.64	1277.93
392.85	1243.12
393.06	1290.22
393.27	1241.07
393.47	1271.79
393.68	1247.21
393.89	1314.80
394.10	1275.88
394.31	1327.08
394.52	1265.64
394.72	1255.40
394.93	1290.22
395.14	1320.94
395.35	1318.89
395.56	1218.54
395.76	1198.06
395.97	1320.94
396.18	1300.46
396.39	1279.98
396.60	1282.03
396.80	1216.49
397.01	1226.73
397.22	1296.36
397.43	1257.45
397.64	1249.26
397.84	1191.92
398.05	1255.40
398.26	1337.32
398.47	1253.36
398.67	1269.74
398.88	1257.45
399.09	1251.31
399.30	1183.73
399.51	1249.26
399.71	1245.16
399.92	1204.21
400.13	1298.41
400.34	1288.17
400.54	1247.21
400.75	1351.66
400.96	1286.12
401.17	1306.60
401.37	1230.83
401.58	1198.06
401.79	1267.69
402.00	1253.36
402.21	1210.35
402.41	1300.46
402.62	1271.79
402.83	1226.73
403.04	1224.69
403.24	1259.50
403.45	1255.40
403.66	1253.36
403.87	1271.79
404.07	1236.97
404.28	1294.32
404.49	1294.32
404.70	1290.22
404.90	1269.74
405.11	1359.85
405.32	1251.31
405.52	1273.84
405.73	1265.64
405.94	1275.88
406.15	1255.40
406.35	1249.26
406.56	1249.26
406.77	1218.54
406.98	1298.41
407.18	1249.26
407.39	1277.93
407.60	1277.93
407.80	1310.70
408.01	1292.27
408.22	1267.69
408.43	1239.02
408.63	1300.46
408.84	1290.22
409.05	1234.93
409.25	1253.36
409.46	1290.22
409.67	1279.98
409.88	1355.76
410.08	1298.41
410.29	1290.22
410.50	1236.97
410.70	1312.75
410.91	1263.60
411.12	1320.94
411.32	1232.88
411.53	1249.26
411.74	1263.60
411.95	1241.07
412.15	1294.32
412.36	1259.50
412.57	1279.98
412.77	1310.70
412.98	1345.52
413.19	1279.98
413.39	1228.78
413.60	1263.60
413.81	1241.07
414.01	1263.60
414.22	1253.36
414.43	1204.21
414.63	1294.32
414.84	1222.64
415.05	1239.02
415.25	1306.60
415.46	1279.98
415.67	1279.98
415.87	1230.83
416.08	1257.45
416.29	1298.41
416.49	1298.41
416.70	1316.84
416.91	1255.40
417.11	1200.11
417.32	1290.22
417.53	1224.69
417.73	1288.17
417.94	1241.07
418.15	1267.69
418.35	1220.59
418.56	1298.41
418.77	1251.31
418.97	1234.93
419.18	1228.78
419.38	1316.84
419.59	1273.84
419.80	1261.55
420.00	1257.45
420.21	1345.52
420.42	1290.22
420.62	1265.64
420.83	1257.45
421.04	1241.07
421.24	1257.45
421.45	1269.74
421.65	1269.74
421.86	1253.36
422.07	1286.12
422.27	1249.26
422.48	1282.03
422.69	1232.88
422.89	1306.60
423.10	1282.03
423.30	1236.97
423.51	1327.08
423.72	1282.03
423.92	1271.79
424.13	1261.55
424.33	1267.69
424.54	1251.31
424.75	1239.02
424.95	1232.88
425.16	1212.40
425.36	1255.40
425.57	1232.88
425.78	1275.88
425.98	1279.98
426.19	1259.50
426.39	1282.03
426.60	1236.97
426.81	1247.21
427.01	1251.31
427.22	1239.02
427.42	1277.93
427.63	1302.51
427.83	1269.74
428.04	1204.21
428.25	1247.21
428.45	1243.12
428.66	1263.60
428.86	1259.50
429.07	1277.93
429.28	1273.84
429.48	1308.65
429.69	1208.30
429.89	1220.59
430.10	1282.03
430.30	1255.40
430.51	1355.76
430.71	1208.30
430.92	1290.22
431.13	1284.08
431.33	1282.03
431.54	1314.80
431.74	1290.22
431.95	1292.27
432.15	1234.93
432.36	1300.46
432.56	1335.28
432.77	1290.22
432.98	1222.64
433.18	1263.60
433.39	1232.88
433.59	1200.11
433.80	1275.88
434.00	1318.89
434.21	1294.32
434.41	1294.32
434.62	1288.17
434.82	1259.50
435.03	1275.88
435.23	1282.03
435.44	1327.08
435.64	1259.50
435.85	1298.41
436.06	1290.22
436.26	1282.03
436.47	1255.40
436.67	1245.16
436.88	1241.07
437.08	1249.26
437.29	1304.56
437.49	1220.59
437.70	1236.97
437.90	1243.12
438.11	1159.15
438.31	1320.94
438.52	1310.70
438.72	1277.93
438.93	1267.69
439.13	1296.36
439.34	1175.53
439.54	1239.02
439.75	1271.79
439.95	1271.79
440.16	1275.88
440.36	1329.13
440.57	1275.88
440.77	1300.46
440.98	1198.06
441.18	1224.69
441.39	1304.56
441.59	1261.55
441.80	1286.12
442.00	1273.84
442.21	1302.51
442.41	1265.64
442.62	1253.36
442.82	1247.21
443.02	1251.31
443.23	1314.80
443.43	1257.45
443.64	1322.99
443.84	1245.16
444.05	1298.41
444.25	1282.03
444.46	1316.84
444.66	1312.75
444.87	1314.80
445.07	1218.54
445.28	1255.40
445.48	1302.51
445.69	1298.41
445.89	1288.17
446.09	1333.23
446.30	1308.65
446.50	1224.69
446.71	1294.32
446.91	1277.93
447.12	1200.11
447.32	1275.88
447.53	1247.21
447.73	1279.98
447.93	1175.53
448.14	1273.84
448.34	1343.47
448.55	1269.74
448.75	1263.60
448.96	1247.21
449.16	1189.87
449.36	1282.03
449.57	1224.69
449.77	1226.73
449.98	1269.74
450.18	1251.31
450.39	1282.03
450.59	1241.07
450.79	1212.40
451.00	1286.12
451.20	1267.69
451.41	1314.80
451.61	1251.31
451.81	1312.75
452.02	1341.42
452.22	1243.12
452.43	1279.98
452.63	1241.07
