SpectraSuite Data File
++++++++++++++++++++++++++++++++++++
Date: Sun Apr 03 19:55:48 CEST 2016
User: root
Dark Spectrum Present: No
Reference Spectrum Present: No
Number of Sampled Component Spectra: 1
Spectrometers: USB4C02835
Integration Time (usec): 10000 (USB4C02835)
Spectra Averaged: 1 (USB4C02835)
Boxcar Smoothing: 0 (USB4C02835)
Correct for Electrical Dark: No (USB4C02835)
Strobe/Lamp Enabled: No (USB4C02835)
Correct for Detector Non-linearity: No (USB4C02835)
Correct for Stray Light: No (USB4C02835)
Number of Pixels in Processed Spectrum: 3648
>>>>>Begin Processed Spectral Data<<<<<
177.47	1245.16
177.69	1245.16
177.91	1245.16
178.13	1245.16
178.36	1263.60
178.58	1177.58
178.80	1243.12
179.02	1183.73
179.24	1277.93
179.46	1257.45
179.68	1232.88
179.90	1224.69
180.13	1224.69
180.35	1265.64
180.57	1325.04
180.79	1333.23
181.01	1243.12
181.23	1263.60
181.45	1308.65
181.67	1253.36
181.90	1263.60
182.12	1271.79
182.34	1284.08
182.56	1282.03
182.78	1222.64
183.00	1255.40
183.22	1279.98
183.44	1232.88
183.66	1327.08
183.89	1230.83
184.11	1255.40
184.33	1214.45
184.55	1259.50
184.77	1253.36
184.99	1304.56
185.21	1200.11
185.43	1249.26
185.65	1263.60
185.87	1214.45
186.10	1310.70
186.32	1279.98
186.54	1286.12
186.76	1353.71
186.98	1294.32
187.20	1263.60
187.42	1230.83
187.64	1300.46
187.86	1255.40
188.08	1253.36
188.30	1204.21
188.52	1273.84
188.75	1206.25
188.97	1247.21
189.19	1243.12
189.41	1230.83
189.63	1265.64
189.85	1294.32
190.07	1214.45
190.29	1314.80
190.51	1282.03
190.73	1247.21
190.95	1286.12
191.17	1228.78
191.39	1331.18
191.61	1255.40
191.84	1191.92
192.06	1232.88
192.28	1286.12
192.50	1267.69
192.72	1183.73
192.94	1269.74
193.16	1282.03
193.38	1265.64
193.60	1298.41
193.82	1228.78
194.04	1224.69
194.26	1312.75
194.48	1265.64
194.70	1220.59
194.92	1177.58
195.14	1286.12
195.36	1204.21
195.58	1312.75
195.80	1210.35
196.02	1196.01
196.24	1339.37
196.46	1265.64
196.69	1230.83
196.91	1216.49
197.13	1269.74
197.35	1290.22
197.57	1343.47
197.79	1286.12
198.01	1198.06
198.23	1267.69
198.45	1267.69
198.67	1286.12
198.89	1210.35
199.11	1314.80
199.33	1249.26
199.55	1236.97
199.77	1191.92
199.99	1343.47
200.21	1282.03
200.43	1279.98
200.65	1232.88
200.87	1282.03
201.09	1265.64
201.31	1277.93
201.53	1206.25
201.75	1275.88
201.97	1286.12
202.19	1241.07
202.41	1284.08
202.63	1247.21
202.85	1294.32
203.07	1329.13
203.29	1247.21
203.51	1234.93
203.73	1220.59
203.95	1265.64
204.17	1234.93
204.39	1312.75
204.61	1243.12
204.83	1271.79
205.05	1288.17
205.27	1232.88
205.49	1302.51
205.71	1314.80
205.93	1277.93
206.15	1183.73
206.37	1239.02
206.59	1325.04
206.81	1259.50
207.03	1236.97
207.25	1314.80
207.47	1239.02
207.69	1263.60
207.91	1261.55
208.13	1300.46
208.34	1288.17
208.56	1210.35
208.78	1183.73
209.00	1259.50
209.22	1294.32
209.44	1224.69
209.66	1243.12
209.88	1298.41
210.10	1198.06
210.32	1226.73
210.54	1263.60
210.76	1282.03
210.98	1322.99
211.20	1284.08
211.42	1331.18
211.64	1247.21
211.86	1204.21
212.08	1214.45
212.30	1357.80
212.52	1255.40
212.74	1257.45
212.96	1282.03
213.17	1259.50
213.39	1277.93
213.61	1298.41
213.83	1288.17
214.05	1267.69
214.27	1230.83
214.49	1271.79
214.71	1327.08
214.93	1275.88
215.15	1300.46
215.37	1167.34
215.59	1271.79
215.81	1273.84
216.03	1292.27
216.24	1337.32
216.46	1279.98
216.68	1294.32
216.90	1284.08
217.12	1290.22
217.34	1269.74
217.56	1292.27
217.78	1234.93
218.00	1345.52
218.22	1267.69
218.44	1322.99
218.66	1296.36
218.87	1202.16
219.09	1236.97
219.31	1288.17
219.53	1292.27
219.75	1187.82
219.97	1310.70
220.19	1306.60
220.41	1257.45
220.63	1282.03
220.85	1222.64
221.06	1298.41
221.28	1253.36
221.50	1306.60
221.72	1239.02
221.94	1282.03
222.16	1255.40
222.38	1339.37
222.60	1259.50
222.82	1273.84
223.03	1200.11
223.25	1329.13
223.47	1269.74
223.69	1306.60
223.91	1206.25
224.13	1331.18
224.35	1220.59
224.57	1243.12
224.78	1271.79
225.00	1282.03
225.22	1212.40
225.44	1359.85
225.66	1294.32
225.88	1265.64
226.10	1236.97
226.32	1208.30
226.53	1210.35
226.75	1282.03
226.97	1292.27
227.19	1200.11
227.41	1230.83
227.63	1271.79
227.85	1310.70
228.06	1296.36
228.28	1273.84
228.50	1288.17
228.72	1249.26
228.94	1239.02
229.16	1333.23
229.37	1267.69
229.59	1241.07
229.81	1290.22
230.03	1275.88
230.25	1343.47
230.47	1228.78
230.69	1214.45
230.90	1224.69
231.12	1296.36
231.34	1267.69
231.56	1302.51
231.78	1310.70
232.00	1288.17
232.21	1277.93
232.43	1249.26
232.65	1290.22
232.87	1261.55
233.09	1241.07
233.30	1261.55
233.52	1234.93
233.74	1316.84
233.96	1271.79
234.18	1288.17
234.40	1296.36
234.61	1318.89
234.83	1236.97
235.05	1304.56
235.27	1234.93
235.49	1284.08
235.70	1265.64
235.92	1232.88
236.14	1290.22
236.36	1265.64
236.58	1163.25
236.79	1241.07
237.01	1273.84
237.23	1239.02
237.45	1302.51
237.67	1247.21
237.88	1269.74
238.10	1265.64
238.32	1329.13
238.54	1271.79
238.76	1339.37
238.97	1288.17
239.19	1183.73
239.41	1247.21
239.63	1298.41
239.85	1263.60
240.06	1222.64
240.28	1271.79
240.50	1251.31
240.72	1331.18
240.93	1261.55
241.15	1292.27
241.37	1257.45
241.59	1183.73
241.81	1292.27
242.02	1251.31
242.24	1322.99
242.46	1259.50
242.68	1320.94
242.89	1312.75
243.11	1306.60
243.33	1282.03
243.55	1255.40
243.76	1292.27
243.98	1224.69
244.20	1329.13
244.42	1269.74
244.64	1245.16
244.85	1265.64
245.07	1386.47
245.29	1259.50
245.51	1322.99
245.72	1243.12
245.94	1271.79
246.16	1273.84
246.38	1312.75
246.59	1243.12
246.81	1265.64
247.03	1298.41
247.24	1191.92
247.46	1277.93
247.68	1296.36
247.90	1310.70
248.11	1257.45
248.33	1257.45
248.55	1236.97
248.77	1206.25
248.98	1220.59
249.20	1275.88
249.42	1273.84
249.64	1273.84
249.85	1257.45
250.07	1245.16
250.29	1290.22
250.50	1286.12
250.72	1263.60
250.94	1300.46
251.16	1327.08
251.37	1306.60
251.59	1286.12
251.81	1296.36
252.02	1304.56
252.24	1255.40
252.46	1314.80
252.68	1269.74
252.89	1275.88
253.11	1236.97
253.33	1312.75
253.54	1286.12
253.76	1210.35
253.98	1245.16
254.20	1290.22
254.41	1296.36
254.63	1245.16
254.85	1300.46
255.06	1261.55
255.28	1286.12
255.50	1275.88
255.71	1208.30
255.93	1275.88
256.15	1191.92
256.36	1273.84
256.58	1310.70
256.80	1193.97
257.02	1251.31
257.23	1271.79
257.45	1302.51
257.67	1288.17
257.88	1294.32
258.10	1263.60
258.32	1310.70
258.53	1241.07
258.75	1171.44
258.97	1318.89
259.18	1271.79
259.40	1284.08
259.62	1253.36
259.83	1277.93
260.05	1175.53
260.27	1261.55
260.48	1247.21
260.70	1224.69
260.92	1245.16
261.13	1329.13
261.35	1236.97
261.57	1318.89
261.78	1288.17
262.00	1189.87
262.22	1202.16
262.43	1304.56
262.65	1226.73
262.86	1200.11
263.08	1279.98
263.30	1279.98
263.51	1335.28
263.73	1296.36
263.95	1226.73
264.16	1247.21
264.38	1206.25
264.60	1349.61
264.81	1361.90
265.03	1339.37
265.25	1261.55
265.46	1310.70
265.68	1333.23
265.89	1261.55
266.11	1275.88
266.33	1286.12
266.54	1302.51
266.76	1253.36
266.98	1322.99
267.19	1298.41
267.41	1212.40
267.62	1269.74
267.84	1255.40
268.06	1232.88
268.27	1261.55
268.49	1198.06
268.70	1286.12
268.92	1245.16
269.14	1198.06
269.35	1312.75
269.57	1292.27
269.79	1183.73
270.00	1277.93
270.22	1267.69
270.43	1234.93
270.65	1273.84
270.87	1226.73
271.08	1286.12
271.30	1251.31
271.51	1230.83
271.73	1271.79
271.95	1198.06
272.16	1314.80
272.38	1314.80
272.59	1290.22
272.81	1275.88
273.02	1292.27
273.24	1232.88
273.46	1306.60
273.67	1273.84
273.89	1249.26
274.10	1298.41
274.32	1267.69
274.54	1263.60
274.75	1232.88
274.97	1253.36
275.18	1249.26
275.40	1259.50
275.61	1376.24
275.83	1226.73
276.05	1257.45
276.26	1282.03
276.48	1226.73
276.69	1302.51
276.91	1265.64
277.12	1306.60
277.34	1245.16
277.55	1251.31
277.77	1222.64
277.99	1220.59
278.20	1224.69
278.42	1312.75
278.63	1267.69
278.85	1282.03
279.06	1271.79
279.28	1306.60
279.49	1239.02
279.71	1304.56
279.93	1255.40
280.14	1224.69
280.36	1298.41
280.57	1284.08
280.79	1271.79
281.00	1269.74
281.22	1251.31
281.43	1239.02
281.65	1259.50
281.86	1296.36
282.08	1230.83
282.29	1255.40
282.51	1277.93
282.73	1279.98
282.94	1296.36
283.16	1222.64
283.37	1286.12
283.59	1251.31
283.80	1232.88
284.02	1263.60
284.23	1259.50
284.45	1206.25
284.66	1257.45
284.88	1265.64
285.09	1271.79
285.31	1284.08
285.52	1226.73
285.74	1269.74
285.95	1333.23
286.17	1206.25
286.38	1292.27
286.60	1298.41
286.81	1249.26
287.03	1331.18
287.24	1277.93
287.46	1277.93
287.67	1298.41
287.89	1236.97
288.10	1310.70
288.32	1290.22
288.53	1255.40
288.75	1171.44
288.96	1251.31
289.18	1212.40
289.39	1253.36
289.61	1257.45
289.82	1286.12
290.04	1277.93
290.25	1224.69
290.47	1265.64
290.68	1259.50
290.90	1286.12
291.11	1318.89
291.33	1275.88
291.54	1282.03
291.76	1263.60
291.97	1294.32
292.18	1306.60
292.40	1243.12
292.61	1298.41
292.83	1282.03
293.04	1269.74
293.26	1286.12
293.47	1228.78
293.69	1290.22
293.90	1288.17
294.12	1228.78
294.33	1208.30
294.55	1177.58
294.76	1261.55
294.97	1273.84
295.19	1251.31
295.40	1277.93
295.62	1298.41
295.83	1267.69
296.05	1284.08
296.26	1249.26
296.48	1208.30
296.69	1296.36
296.90	1253.36
297.12	1269.74
297.33	1271.79
297.55	1214.45
297.76	1314.80
297.98	1198.06
298.19	1304.56
298.41	1210.35
298.62	1273.84
298.83	1294.32
299.05	1267.69
299.26	1279.98
299.48	1185.77
299.69	1255.40
299.90	1277.93
300.12	1265.64
300.33	1325.04
300.55	1204.21
300.76	1249.26
300.98	1288.17
301.19	1284.08
301.40	1236.97
301.62	1214.45
301.83	1243.12
302.05	1339.37
302.26	1306.60
302.47	1308.65
302.69	1298.41
302.90	1322.99
303.12	1255.40
303.33	1226.73
303.54	1302.51
303.76	1228.78
303.97	1263.60
304.19	1366.00
304.40	1294.32
304.61	1261.55
304.83	1341.42
305.04	1218.54
305.26	1343.47
305.47	1255.40
305.68	1286.12
305.90	1316.84
306.11	1318.89
306.33	1318.89
306.54	1265.64
306.75	1259.50
306.97	1325.04
307.18	1245.16
307.39	1261.55
307.61	1314.80
307.82	1210.35
308.04	1261.55
308.25	1253.36
308.46	1255.40
308.68	1284.08
308.89	1322.99
309.10	1302.51
309.32	1279.98
309.53	1261.55
309.74	1251.31
309.96	1239.02
310.17	1273.84
310.39	1265.64
310.60	1224.69
310.81	1193.97
311.03	1271.79
311.24	1239.02
311.45	1269.74
311.67	1284.08
311.88	1255.40
312.09	1236.97
312.31	1257.45
312.52	1271.79
312.73	1314.80
312.95	1267.69
313.16	1173.49
313.37	1230.83
313.59	1265.64
313.80	1349.61
314.01	1284.08
314.23	1296.36
314.44	1288.17
314.65	1269.74
314.87	1261.55
315.08	1290.22
315.29	1279.98
315.51	1193.97
315.72	1257.45
315.93	1335.28
316.15	1286.12
316.36	1290.22
316.57	1226.73
316.79	1243.12
317.00	1300.46
317.21	1300.46
317.43	1249.26
317.64	1296.36
317.85	1355.76
318.07	1318.89
318.28	1183.73
318.49	1275.88
318.70	1325.04
318.92	1234.93
319.13	1253.36
319.34	1253.36
319.56	1236.97
319.77	1196.01
319.98	1269.74
320.20	1261.55
320.41	1288.17
320.62	1210.35
320.83	1282.03
321.05	1355.76
321.26	1304.56
321.47	1185.77
321.69	1275.88
321.90	1253.36
322.11	1267.69
322.32	1261.55
322.54	1185.77
322.75	1279.98
322.96	1298.41
323.18	1226.73
323.39	1288.17
323.60	1273.84
323.81	1339.37
324.03	1300.46
324.24	1271.79
324.45	1255.40
324.66	1236.97
324.88	1251.31
325.09	1271.79
325.30	1275.88
325.52	1273.84
325.73	1241.07
325.94	1269.74
326.15	1255.40
326.37	1247.21
326.58	1234.93
326.79	1249.26
327.00	1306.60
327.22	1261.55
327.43	1224.69
327.64	1241.07
327.85	1243.12
328.07	1288.17
328.28	1255.40
328.49	1273.84
328.70	1243.12
328.92	1269.74
329.13	1316.84
329.34	1304.56
329.55	1239.02
329.76	1251.31
329.98	1255.40
330.19	1236.97
330.40	1247.21
330.61	1251.31
330.83	1236.97
331.04	1284.08
331.25	1253.36
331.46	1310.70
331.68	1265.64
331.89	1265.64
332.10	1245.16
332.31	1271.79
332.52	1257.45
332.74	1234.93
332.95	1308.65
333.16	1335.28
333.37	1263.60
333.58	1200.11
333.80	1306.60
334.01	1288.17
334.22	1302.51
334.43	1222.64
334.64	1236.97
334.86	1308.65
335.07	1279.98
335.28	1320.94
335.49	1337.32
335.70	1312.75
335.92	1261.55
336.13	1259.50
336.34	1255.40
336.55	1286.12
336.76	1236.97
336.98	1255.40
337.19	1290.22
337.40	1241.07
337.61	1253.36
337.82	1247.21
338.04	1230.83
338.25	1329.13
338.46	1267.69
338.67	1312.75
338.88	1261.55
339.09	1312.75
339.31	1228.78
339.52	1279.98
339.73	1224.69
339.94	1232.88
340.15	1226.73
340.36	1329.13
340.58	1265.64
340.79	1267.69
341.00	1277.93
341.21	1347.56
341.42	1243.12
341.63	1245.16
341.85	1320.94
342.06	1322.99
342.27	1224.69
342.48	1239.02
342.69	1191.92
342.90	1206.25
343.12	1308.65
343.33	1351.66
343.54	1382.38
343.75	1259.50
343.96	1279.98
344.17	1302.51
344.38	1290.22
344.60	1234.93
344.81	1243.12
345.02	1257.45
345.23	1263.60
345.44	1279.98
345.65	1292.27
345.86	1234.93
346.07	1214.45
346.29	1306.60
346.50	1277.93
346.71	1222.64
346.92	1198.06
347.13	1294.32
347.34	1271.79
347.55	1239.02
347.76	1196.01
347.98	1255.40
348.19	1288.17
348.40	1216.49
348.61	1220.59
348.82	1304.56
349.03	1255.40
349.24	1345.52
349.45	1261.55
349.66	1165.29
349.88	1292.27
350.09	1310.70
350.30	1308.65
350.51	1337.32
350.72	1292.27
350.93	1241.07
351.14	1257.45
351.35	1212.40
351.56	1263.60
351.77	1331.18
351.99	1200.11
352.20	1310.70
352.41	1282.03
352.62	1265.64
352.83	1325.04
353.04	1265.64
353.25	1249.26
353.46	1292.27
353.67	1236.97
353.88	1259.50
354.09	1259.50
354.30	1249.26
354.52	1282.03
354.73	1282.03
354.94	1353.71
355.15	1306.60
355.36	1284.08
355.57	1298.41
355.78	1286.12
355.99	1290.22
356.20	1200.11
356.41	1218.54
356.62	1228.78
356.83	1273.84
357.04	1279.98
357.25	1320.94
357.46	1265.64
357.68	1273.84
357.89	1259.50
358.10	1314.80
358.31	1232.88
358.52	1249.26
358.73	1277.93
358.94	1226.73
359.15	1226.73
359.36	1292.27
359.57	1247.21
359.78	1251.31
359.99	1234.93
360.20	1273.84
360.41	1249.26
360.62	1275.88
360.83	1310.70
361.04	1286.12
361.25	1239.02
361.46	1263.60
361.67	1243.12
361.88	1251.31
362.09	1255.40
362.30	1320.94
362.51	1253.36
362.72	1267.69
362.93	1302.51
363.14	1288.17
363.35	1202.16
363.56	1329.13
363.78	1265.64
363.99	1288.17
364.20	1277.93
364.41	1239.02
364.62	1310.70
364.83	1277.93
365.04	1247.21
365.25	1273.84
365.46	1294.32
365.67	1288.17
365.88	1284.08
366.09	1279.98
366.30	1251.31
366.51	1331.18
366.72	1296.36
366.93	1210.35
367.14	1230.83
367.35	1269.74
367.56	1259.50
367.77	1196.01
367.98	1273.84
368.18	1220.59
368.39	1224.69
368.60	1208.30
368.81	1298.41
369.02	1296.36
369.23	1249.26
369.44	1314.80
369.65	1300.46
369.86	1273.84
370.07	1273.84
370.28	1279.98
370.49	1292.27
370.70	1271.79
370.91	1304.56
371.12	1269.74
371.33	1267.69
371.54	1273.84
371.75	1269.74
371.96	1257.45
372.17	1245.16
372.38	1304.56
372.59	1292.27
372.80	1255.40
373.01	1159.15
373.22	1263.60
373.43	1306.60
373.64	1247.21
373.85	1341.42
374.06	1286.12
374.26	1257.45
374.47	1312.75
374.68	1368.04
374.89	1277.93
375.10	1212.40
375.31	1286.12
375.52	1204.21
375.73	1263.60
375.94	1318.89
376.15	1304.56
376.36	1112.05
376.57	1284.08
376.78	1284.08
376.99	1206.25
377.20	1277.93
377.40	1298.41
377.61	1228.78
377.82	1265.64
378.03	1234.93
378.24	1251.31
378.45	1243.12
378.66	1257.45
378.87	1263.60
379.08	1247.21
379.29	1257.45
379.50	1243.12
379.71	1329.13
379.91	1273.84
380.12	1357.80
380.33	1318.89
380.54	1314.80
380.75	1224.69
380.96	1263.60
381.17	1267.69
381.38	1249.26
381.59	1220.59
381.80	1218.54
382.00	1294.32
382.21	1312.75
382.42	1273.84
382.63	1271.79
382.84	1288.17
383.05	1191.92
383.26	1232.88
383.47	1325.04
383.68	1251.31
383.88	1251.31
384.09	1222.64
384.30	1290.22
384.51	1279.98
384.72	1286.12
384.93	1284.08
385.14	1308.65
385.35	1306.60
385.55	1247.21
385.76	1228.78
385.97	1292.27
386.18	1294.32
386.39	1220.59
386.60	1271.79
386.81	1288.17
387.02	1249.26
387.22	1146.86
387.43	1257.45
387.64	1214.45
387.85	1263.60
388.06	1230.83
388.27	1325.04
388.48	1335.28
388.68	1329.13
388.89	1247.21
389.10	1200.11
389.31	1241.07
389.52	1312.75
389.73	1218.54
389.93	1292.27
390.14	1284.08
390.35	1294.32
390.56	1224.69
390.77	1206.25
390.98	1271.79
391.18	1337.32
391.39	1234.93
391.60	1241.07
391.81	1253.36
392.02	1253.36
392.23	1224.69
392.43	1245.16
392.64	1251.31
392.85	1265.64
393.06	1257.45
393.27	1306.60
393.47	1308.65
393.68	1183.73
393.89	1296.36
394.10	1351.66
394.31	1226.73
394.52	1265.64
394.72	1322.99
394.93	1269.74
395.14	1286.12
395.35	1232.88
395.56	1265.64
395.76	1271.79
395.97	1282.03
396.18	1232.88
396.39	1196.01
396.60	1284.08
396.80	1230.83
397.01	1300.46
397.22	1241.07
397.43	1304.56
397.64	1232.88
397.84	1282.03
398.05	1275.88
398.26	1290.22
398.47	1200.11
398.67	1290.22
398.88	1234.93
399.09	1265.64
399.30	1245.16
399.51	1257.45
399.71	1218.54
399.92	1275.88
400.13	1263.60
400.34	1234.93
400.54	1265.64
400.75	1267.69
400.96	1271.79
401.17	1232.88
401.37	1302.51
401.58	1302.51
401.79	1251.31
402.00	1279.98
402.21	1265.64
402.41	1310.70
402.62	1275.88
402.83	1318.89
403.04	1339.37
403.24	1279.98
403.45	1286.12
403.66	1304.56
403.87	1327.08
404.07	1230.83
404.28	1284.08
404.49	1273.84
404.70	1275.88
404.90	1292.27
405.11	1271.79
405.32	1161.20
405.52	1314.80
405.73	1296.36
405.94	1196.01
406.15	1275.88
406.35	1257.45
406.56	1277.93
406.77	1255.40
406.98	1282.03
407.18	1279.98
407.39	1243.12
407.60	1265.64
407.80	1239.02
408.01	1224.69
408.22	1314.80
408.43	1286.12
408.63	1193.97
408.84	1255.40
409.05	1218.54
409.25	1234.93
409.46	1316.84
409.67	1275.88
409.88	1236.97
410.08	1327.08
410.29	1206.25
410.50	1234.93
410.70	1355.76
410.91	1191.92
411.12	1216.49
411.32	1271.79
411.53	1220.59
411.74	1290.22
411.95	1230.83
412.15	1292.27
412.36	1279.98
412.57	1308.65
412.77	1312.75
412.98	1294.32
413.19	1282.03
413.39	1263.60
413.60	1261.55
413.81	1230.83
414.01	1288.17
414.22	1206.25
414.43	1263.60
414.63	1222.64
414.84	1325.04
415.05	1261.55
415.25	1247.21
415.46	1288.17
415.67	1257.45
415.87	1263.60
416.08	1222.64
416.29	1200.11
416.49	1251.31
416.70	1261.55
416.91	1304.56
417.11	1296.36
417.32	1302.51
417.53	1234.93
417.73	1314.80
417.94	1226.73
418.15	1277.93
418.35	1257.45
418.56	1265.64
418.77	1290.22
418.97	1286.12
419.18	1257.45
419.38	1241.07
419.59	1239.02
419.80	1316.84
420.00	1284.08
420.21	1196.01
420.42	1265.64
420.62	1261.55
420.83	1220.59
421.04	1300.46
421.24	1247.21
421.45	1298.41
421.65	1198.06
421.86	1200.11
422.07	1296.36
422.27	1277.93
422.48	1310.70
422.69	1325.04
422.89	1284.08
423.10	1304.56
423.30	1275.88
423.51	1214.45
423.72	1232.88
423.92	1269.74
424.13	1284.08
424.33	1200.11
424.54	1269.74
424.75	1269.74
424.95	1181.68
425.16	1294.32
425.36	1273.84
425.57	1320.94
425.78	1277.93
425.98	1271.79
426.19	1329.13
426.39	1271.79
426.60	1376.24
426.81	1296.36
427.01	1257.45
427.22	1294.32
427.42	1282.03
427.63	1216.49
427.83	1273.84
428.04	1329.13
428.25	1308.65
428.45	1329.13
428.66	1298.41
428.86	1198.06
429.07	1347.56
429.28	1308.65
429.48	1257.45
429.69	1296.36
429.89	1224.69
430.10	1245.16
430.30	1273.84
430.51	1279.98
430.71	1224.69
430.92	1255.40
431.13	1204.21
431.33	1263.60
431.54	1243.12
431.74	1245.16
431.95	1265.64
432.15	1271.79
432.36	1284.08
432.56	1263.60
432.77	1271.79
432.98	1253.36
433.18	1200.11
433.39	1286.12
433.59	1339.37
433.80	1290.22
434.00	1265.64
434.21	1222.64
434.41	1288.17
434.62	1308.65
434.82	1208.30
435.03	1310.70
435.23	1243.12
435.44	1206.25
435.64	1341.42
435.85	1259.50
436.06	1216.49
436.26	1314.80
436.47	1322.99
436.67	1257.45
436.88	1310.70
437.08	1290.22
437.29	1249.26
437.49	1304.56
437.70	1308.65
437.90	1275.88
438.11	1247.21
438.31	1273.84
438.52	1284.08
438.72	1255.40
438.93	1273.84
439.13	1284.08
439.34	1284.08
439.54	1286.12
439.75	1232.88
439.95	1302.51
440.16	1284.08
440.36	1286.12
440.57	1239.02
440.77	1286.12
440.98	1284.08
441.18	1181.68
441.39	1275.88
441.59	1304.56
441.80	1312.75
442.00	1232.88
442.21	1327.08
442.41	1257.45
442.62	1320.94
442.82	1294.32
443.02	1290.22
443.23	1273.84
443.43	1232.88
443.64	1259.50
443.84	1234.93
444.05	1325.04
444.25	1257.45
444.46	1224.69
444.66	1245.16
444.87	1257.45
445.07	1273.84
445.28	1294.32
445.48	1304.56
445.69	1282.03
445.89	1312.75
446.09	1261.55
446.30	1269.74
446.50	1296.36
446.71	1214.45
446.91	1202.16
447.12	1267.69
447.32	1288.17
447.53	1263.60
447.73	1314.80
447.93	1185.77
448.14	1263.60
448.34	1302.51
448.55	1277.93
448.75	1259.50
448.96	1269.74
449.16	1294.32
449.36	1294.32
449.57	1267.69
449.77	1273.84
449.98	1300.46
450.18	1249.26
450.39	1304.56
450.59	1314.80
450.79	1202.16
451.00	1267.69
451.20	1261.55
451.41	1290.22
451.61	1292.27
451.81	1292.27
452.02	1271.79
452.22	1265.64
452.43	1263.60
452.63	1275.88
