SpectraSuite Data File
++++++++++++++++++++++++++++++++++++
Date: Sun Apr 03 19:55:54 CEST 2016
User: root
Dark Spectrum Present: No
Reference Spectrum Present: No
Number of Sampled Component Spectra: 1
Spectrometers: USB4C02835
Integration Time (usec): 10000 (USB4C02835)
Spectra Averaged: 1 (USB4C02835)
Boxcar Smoothing: 0 (USB4C02835)
Correct for Electrical Dark: No (USB4C02835)
Strobe/Lamp Enabled: No (USB4C02835)
Correct for Detector Non-linearity: No (USB4C02835)
Correct for Stray Light: No (USB4C02835)
Number of Pixels in Processed Spectrum: 3648
>>>>>Begin Processed Spectral Data<<<<<
177.47	1202.16
177.69	1202.16
177.91	1202.16
178.13	1271.79
178.36	1228.78
178.58	1257.45
178.80	1267.69
179.02	1224.69
179.24	1249.26
179.46	1300.46
179.68	1298.41
179.90	1265.64
180.13	1255.40
180.35	1277.93
180.57	1298.41
180.79	1222.64
181.01	1265.64
181.23	1265.64
181.45	1284.08
181.67	1333.23
181.90	1269.74
182.12	1208.30
182.34	1290.22
182.56	1286.12
182.78	1288.17
183.00	1273.84
183.22	1236.97
183.44	1210.35
183.66	1255.40
183.89	1353.71
184.11	1257.45
184.33	1216.49
184.55	1296.36
184.77	1216.49
184.99	1171.44
185.21	1253.36
185.43	1318.89
185.65	1171.44
185.87	1241.07
186.10	1257.45
186.32	1255.40
186.54	1177.58
186.76	1261.55
186.98	1286.12
187.20	1216.49
187.42	1269.74
187.64	1380.33
187.86	1255.40
188.08	1284.08
188.30	1290.22
188.52	1232.88
188.75	1228.78
188.97	1263.60
189.19	1314.80
189.41	1271.79
189.63	1279.98
189.85	1275.88
190.07	1294.32
190.29	1331.18
190.51	1218.54
190.73	1232.88
190.95	1261.55
191.17	1390.57
191.39	1277.93
191.61	1292.27
191.84	1294.32
192.06	1300.46
192.28	1327.08
192.50	1189.87
192.72	1257.45
192.94	1241.07
193.16	1234.93
193.38	1277.93
193.60	1257.45
193.82	1167.34
194.04	1239.02
194.26	1232.88
194.48	1290.22
194.70	1273.84
194.92	1275.88
195.14	1296.36
195.36	1230.83
195.58	1337.32
195.80	1298.41
196.02	1279.98
196.24	1269.74
196.46	1302.51
196.69	1269.74
196.91	1298.41
197.13	1241.07
197.35	1200.11
197.57	1273.84
197.79	1279.98
198.01	1304.56
198.23	1296.36
198.45	1263.60
198.67	1257.45
198.89	1261.55
199.11	1314.80
199.33	1212.40
199.55	1335.28
199.77	1288.17
199.99	1279.98
200.21	1263.60
200.43	1314.80
200.65	1255.40
200.87	1249.26
201.09	1189.87
201.31	1320.94
201.53	1263.60
201.75	1198.06
201.97	1286.12
202.19	1234.93
202.41	1288.17
202.63	1314.80
202.85	1253.36
203.07	1214.45
203.29	1345.52
203.51	1261.55
203.73	1290.22
203.95	1212.40
204.17	1251.31
204.39	1300.46
204.61	1327.08
204.83	1279.98
205.05	1288.17
205.27	1279.98
205.49	1253.36
205.71	1275.88
205.93	1247.21
206.15	1259.50
206.37	1404.91
206.59	1261.55
206.81	1347.56
207.03	1345.52
207.25	1267.69
207.47	1404.91
207.69	1298.41
207.91	1232.88
208.13	1226.73
208.34	1277.93
208.56	1245.16
208.78	1247.21
209.00	1353.71
209.22	1228.78
209.44	1257.45
209.66	1239.02
209.88	1261.55
210.10	1284.08
210.32	1232.88
210.54	1251.31
210.76	1142.77
210.98	1316.84
211.20	1247.21
211.42	1255.40
211.64	1241.07
211.86	1296.36
212.08	1234.93
212.30	1210.35
212.52	1243.12
212.74	1282.03
212.96	1269.74
213.17	1310.70
213.39	1234.93
213.61	1282.03
213.83	1290.22
214.05	1329.13
214.27	1335.28
214.49	1296.36
214.71	1165.29
214.93	1277.93
215.15	1247.21
215.37	1277.93
215.59	1302.51
215.81	1249.26
216.03	1263.60
216.24	1255.40
216.46	1251.31
216.68	1306.60
216.90	1298.41
217.12	1284.08
217.34	1255.40
217.56	1310.70
217.78	1198.06
218.00	1298.41
218.22	1337.32
218.44	1282.03
218.66	1304.56
218.87	1337.32
219.09	1185.77
219.31	1251.31
219.53	1314.80
219.75	1282.03
219.97	1249.26
220.19	1284.08
220.41	1304.56
220.63	1292.27
220.85	1279.98
221.06	1292.27
221.28	1320.94
221.50	1232.88
221.72	1273.84
221.94	1230.83
222.16	1271.79
222.38	1322.99
222.60	1284.08
222.82	1296.36
223.03	1351.66
223.25	1267.69
223.47	1253.36
223.69	1308.65
223.91	1251.31
224.13	1279.98
224.35	1286.12
224.57	1232.88
224.78	1247.21
225.00	1234.93
225.22	1314.80
225.44	1290.22
225.66	1241.07
225.88	1159.15
226.10	1269.74
226.32	1259.50
226.53	1255.40
226.75	1263.60
226.97	1251.31
227.19	1243.12
227.41	1286.12
227.63	1212.40
227.85	1196.01
228.06	1290.22
228.28	1216.49
228.50	1292.27
228.72	1222.64
228.94	1183.73
229.16	1255.40
229.37	1245.16
229.59	1310.70
229.81	1253.36
230.03	1296.36
230.25	1257.45
230.47	1300.46
230.69	1376.24
230.90	1255.40
231.12	1177.58
231.34	1210.35
231.56	1200.11
231.78	1243.12
232.00	1226.73
232.21	1366.00
232.43	1224.69
232.65	1290.22
232.87	1239.02
233.09	1265.64
233.30	1292.27
233.52	1208.30
233.74	1239.02
233.96	1290.22
234.18	1247.21
234.40	1261.55
234.61	1218.54
234.83	1222.64
235.05	1306.60
235.27	1335.28
235.49	1376.24
235.70	1300.46
235.92	1312.75
236.14	1322.99
236.36	1236.97
236.58	1341.42
236.79	1251.31
237.01	1294.32
237.23	1273.84
237.45	1271.79
237.67	1251.31
237.88	1265.64
238.10	1226.73
238.32	1279.98
238.54	1249.26
238.76	1273.84
238.97	1335.28
239.19	1308.65
239.41	1290.22
239.63	1310.70
239.85	1200.11
240.06	1294.32
240.28	1339.37
240.50	1363.95
240.72	1257.45
240.93	1366.00
241.15	1286.12
241.37	1275.88
241.59	1267.69
241.81	1232.88
242.02	1357.80
242.24	1306.60
242.46	1314.80
242.68	1282.03
242.89	1296.36
243.11	1273.84
243.33	1300.46
243.55	1304.56
243.76	1212.40
243.98	1234.93
244.20	1282.03
244.42	1286.12
244.64	1263.60
244.85	1282.03
245.07	1275.88
245.29	1249.26
245.51	1255.40
245.72	1296.36
245.94	1294.32
246.16	1224.69
246.38	1241.07
246.59	1232.88
246.81	1224.69
247.03	1267.69
247.24	1277.93
247.46	1271.79
247.68	1310.70
247.90	1226.73
248.11	1269.74
248.33	1259.50
248.55	1226.73
248.77	1255.40
248.98	1322.99
249.20	1257.45
249.42	1273.84
249.64	1269.74
249.85	1300.46
250.07	1267.69
250.29	1300.46
250.50	1312.75
250.72	1263.60
250.94	1292.27
251.16	1282.03
251.37	1265.64
251.59	1191.92
251.81	1316.84
252.02	1277.93
252.24	1265.64
252.46	1253.36
252.68	1331.18
252.89	1288.17
253.11	1202.16
253.33	1353.71
253.54	1267.69
253.76	1255.40
253.98	1294.32
254.20	1224.69
254.41	1232.88
254.63	1290.22
254.85	1220.59
255.06	1222.64
255.28	1251.31
255.50	1228.78
255.71	1241.07
255.93	1275.88
256.15	1339.37
256.36	1294.32
256.58	1265.64
256.80	1263.60
257.02	1290.22
257.23	1282.03
257.45	1294.32
257.67	1271.79
257.88	1187.82
258.10	1245.16
258.32	1208.30
258.53	1355.76
258.75	1249.26
258.97	1208.30
259.18	1177.58
259.40	1329.13
259.62	1224.69
259.83	1247.21
260.05	1249.26
260.27	1325.04
260.48	1236.97
260.70	1228.78
260.92	1312.75
261.13	1265.64
261.35	1310.70
261.57	1308.65
261.78	1259.50
262.00	1310.70
262.22	1222.64
262.43	1183.73
262.65	1349.61
262.86	1312.75
263.08	1177.58
263.30	1296.36
263.51	1243.12
263.73	1265.64
263.95	1292.27
264.16	1282.03
264.38	1257.45
264.60	1261.55
264.81	1300.46
265.03	1306.60
265.25	1265.64
265.46	1288.17
265.68	1234.93
265.89	1308.65
266.11	1294.32
266.33	1191.92
266.54	1343.47
266.76	1216.49
266.98	1226.73
267.19	1279.98
267.41	1298.41
267.62	1245.16
267.84	1247.21
268.06	1269.74
268.27	1290.22
268.49	1322.99
268.70	1196.01
268.92	1296.36
269.14	1339.37
269.35	1269.74
269.57	1333.23
269.79	1265.64
270.00	1247.21
270.22	1298.41
270.43	1255.40
270.65	1296.36
270.87	1279.98
271.08	1257.45
271.30	1298.41
271.51	1308.65
271.73	1277.93
271.95	1259.50
272.16	1279.98
272.38	1314.80
272.59	1347.56
272.81	1243.12
273.02	1234.93
273.24	1288.17
273.46	1236.97
273.67	1249.26
273.89	1304.56
274.10	1335.28
274.32	1279.98
274.54	1257.45
274.75	1245.16
274.97	1259.50
275.18	1296.36
275.40	1277.93
275.61	1214.45
275.83	1234.93
276.05	1255.40
276.26	1322.99
276.48	1273.84
276.69	1279.98
276.91	1230.83
277.12	1241.07
277.34	1288.17
277.55	1314.80
277.77	1329.13
277.99	1179.63
278.20	1282.03
278.42	1245.16
278.63	1318.89
278.85	1279.98
279.06	1241.07
279.28	1284.08
279.49	1312.75
279.71	1290.22
279.93	1318.89
280.14	1269.74
280.36	1226.73
280.57	1181.68
280.79	1318.89
281.00	1300.46
281.22	1277.93
281.43	1308.65
281.65	1220.59
281.86	1263.60
282.08	1224.69
282.29	1325.04
282.51	1263.60
282.73	1249.26
282.94	1351.66
283.16	1200.11
283.37	1204.21
283.59	1218.54
283.80	1220.59
284.02	1277.93
284.23	1277.93
284.45	1327.08
284.66	1236.97
284.88	1265.64
285.09	1134.57
285.31	1271.79
285.52	1265.64
285.74	1306.60
285.95	1279.98
286.17	1257.45
286.38	1257.45
286.60	1302.51
286.81	1310.70
287.03	1282.03
287.24	1261.55
287.46	1232.88
287.67	1265.64
287.89	1253.36
288.10	1273.84
288.32	1294.32
288.53	1279.98
288.75	1247.21
288.96	1245.16
289.18	1249.26
289.39	1308.65
289.61	1286.12
289.82	1306.60
290.04	1331.18
290.25	1257.45
290.47	1290.22
290.68	1277.93
290.90	1290.22
291.11	1185.77
291.33	1284.08
291.54	1228.78
291.76	1296.36
291.97	1210.35
292.18	1310.70
292.40	1255.40
292.61	1243.12
292.83	1304.56
293.04	1261.55
293.26	1232.88
293.47	1312.75
293.69	1243.12
293.90	1222.64
294.12	1220.59
294.33	1265.64
294.55	1187.82
294.76	1277.93
294.97	1296.36
295.19	1271.79
295.40	1261.55
295.62	1251.31
295.83	1273.84
296.05	1253.36
296.26	1236.97
296.48	1308.65
296.69	1271.79
296.90	1275.88
297.12	1224.69
297.33	1306.60
297.55	1226.73
297.76	1318.89
297.98	1224.69
298.19	1224.69
298.41	1212.40
298.62	1282.03
298.83	1320.94
299.05	1255.40
299.26	1284.08
299.48	1220.59
299.69	1335.28
299.90	1355.76
300.12	1277.93
300.33	1308.65
300.55	1306.60
300.76	1325.04
300.98	1279.98
301.19	1312.75
301.40	1263.60
301.62	1224.69
301.83	1273.84
302.05	1230.83
302.26	1282.03
302.47	1245.16
302.69	1236.97
302.90	1241.07
303.12	1298.41
303.33	1300.46
303.54	1259.50
303.76	1220.59
303.97	1222.64
304.19	1273.84
304.40	1253.36
304.61	1267.69
304.83	1257.45
305.04	1226.73
305.26	1282.03
305.47	1310.70
305.68	1253.36
305.90	1286.12
306.11	1241.07
306.33	1298.41
306.54	1306.60
306.75	1304.56
306.97	1298.41
307.18	1247.21
307.39	1320.94
307.61	1286.12
307.82	1298.41
308.04	1310.70
308.25	1247.21
308.46	1277.93
308.68	1259.50
308.89	1282.03
309.10	1271.79
309.32	1333.23
309.53	1134.57
309.74	1312.75
309.96	1269.74
310.17	1269.74
310.39	1308.65
310.60	1228.78
310.81	1241.07
311.03	1339.37
311.24	1200.11
311.45	1300.46
311.67	1255.40
311.88	1255.40
312.09	1224.69
312.31	1263.60
312.52	1325.04
312.73	1279.98
312.95	1292.27
313.16	1339.37
313.37	1288.17
313.59	1290.22
313.80	1232.88
314.01	1306.60
314.23	1251.31
314.44	1241.07
314.65	1214.45
314.87	1284.08
315.08	1279.98
315.29	1208.30
315.51	1312.75
315.72	1312.75
315.93	1284.08
316.15	1251.31
316.36	1349.61
316.57	1312.75
316.79	1269.74
317.00	1232.88
317.21	1234.93
317.43	1218.54
317.64	1239.02
317.85	1306.60
318.07	1308.65
318.28	1290.22
318.49	1304.56
318.70	1327.08
318.92	1253.36
319.13	1298.41
319.34	1261.55
319.56	1236.97
319.77	1247.21
319.98	1296.36
320.20	1273.84
320.41	1282.03
320.62	1282.03
320.83	1255.40
321.05	1198.06
321.26	1292.27
321.47	1191.92
321.69	1304.56
321.90	1296.36
322.11	1224.69
322.32	1320.94
322.54	1310.70
322.75	1302.51
322.96	1306.60
323.18	1236.97
323.39	1304.56
323.60	1273.84
323.81	1277.93
324.03	1273.84
324.24	1282.03
324.45	1253.36
324.66	1228.78
324.88	1245.16
325.09	1257.45
325.30	1368.04
325.52	1241.07
325.73	1288.17
325.94	1290.22
326.15	1275.88
326.37	1282.03
326.58	1290.22
326.79	1267.69
327.00	1243.12
327.22	1290.22
327.43	1245.16
327.64	1230.83
327.85	1320.94
328.07	1243.12
328.28	1259.50
328.49	1245.16
328.70	1220.59
328.92	1253.36
329.13	1355.76
329.34	1296.36
329.55	1298.41
329.76	1247.21
329.98	1341.42
330.19	1316.84
330.40	1331.18
330.61	1292.27
330.83	1337.32
331.04	1251.31
331.25	1308.65
331.46	1288.17
331.68	1206.25
331.89	1292.27
332.10	1243.12
332.31	1261.55
332.52	1261.55
332.74	1234.93
332.95	1224.69
333.16	1251.31
333.37	1234.93
333.58	1308.65
333.80	1263.60
334.01	1267.69
334.22	1284.08
334.43	1304.56
334.64	1269.74
334.86	1275.88
335.07	1314.80
335.28	1333.23
335.49	1265.64
335.70	1290.22
335.92	1292.27
336.13	1320.94
336.34	1148.91
336.55	1288.17
336.76	1222.64
336.98	1290.22
337.19	1318.89
337.40	1261.55
337.61	1273.84
337.82	1210.35
338.04	1236.97
338.25	1300.46
338.46	1257.45
338.67	1216.49
338.88	1269.74
339.09	1273.84
339.31	1282.03
339.52	1196.01
339.73	1325.04
339.94	1236.97
340.15	1214.45
340.36	1308.65
340.58	1308.65
340.79	1230.83
341.00	1255.40
341.21	1261.55
341.42	1294.32
341.63	1200.11
341.85	1267.69
342.06	1290.22
342.27	1255.40
342.48	1294.32
342.69	1296.36
342.90	1314.80
343.12	1230.83
343.33	1279.98
343.54	1169.39
343.75	1290.22
343.96	1277.93
344.17	1265.64
344.38	1300.46
344.60	1267.69
344.81	1263.60
345.02	1210.35
345.23	1290.22
345.44	1263.60
345.65	1249.26
345.86	1304.56
346.07	1214.45
346.29	1241.07
346.50	1241.07
346.71	1341.42
346.92	1261.55
347.13	1296.36
347.34	1286.12
347.55	1314.80
347.76	1265.64
347.98	1282.03
348.19	1245.16
348.40	1253.36
348.61	1308.65
348.82	1267.69
349.03	1265.64
349.24	1355.76
349.45	1234.93
349.66	1271.79
349.88	1298.41
350.09	1290.22
350.30	1224.69
350.51	1263.60
350.72	1204.21
350.93	1206.25
351.14	1265.64
351.35	1191.92
351.56	1288.17
351.77	1288.17
351.99	1284.08
352.20	1206.25
352.41	1341.42
352.62	1245.16
352.83	1296.36
353.04	1265.64
353.25	1284.08
353.46	1220.59
353.67	1253.36
353.88	1241.07
354.09	1230.83
354.30	1331.18
354.52	1282.03
354.73	1282.03
354.94	1247.21
355.15	1216.49
355.36	1310.70
355.57	1337.32
355.78	1310.70
355.99	1251.31
356.20	1210.35
356.41	1331.18
356.62	1345.52
356.83	1290.22
357.04	1290.22
357.25	1189.87
357.46	1255.40
357.68	1267.69
357.89	1282.03
358.10	1273.84
358.31	1234.93
358.52	1241.07
358.73	1239.02
358.94	1290.22
359.15	1277.93
359.36	1325.04
359.57	1261.55
359.78	1234.93
359.99	1245.16
360.20	1320.94
360.41	1343.47
360.62	1230.83
360.83	1290.22
361.04	1300.46
361.25	1329.13
361.46	1265.64
361.67	1269.74
361.88	1253.36
362.09	1241.07
362.30	1286.12
362.51	1232.88
362.72	1288.17
362.93	1267.69
363.14	1255.40
363.35	1286.12
363.56	1249.26
363.78	1282.03
363.99	1179.63
364.20	1284.08
364.41	1263.60
364.62	1304.56
364.83	1226.73
365.04	1296.36
365.25	1288.17
365.46	1247.21
365.67	1279.98
365.88	1271.79
366.09	1314.80
366.30	1284.08
366.51	1241.07
366.72	1185.77
366.93	1298.41
367.14	1249.26
367.35	1292.27
367.56	1273.84
367.77	1243.12
367.98	1292.27
368.18	1245.16
368.39	1228.78
368.60	1265.64
368.81	1239.02
369.02	1183.73
369.23	1267.69
369.44	1306.60
369.65	1347.56
369.86	1290.22
370.07	1222.64
370.28	1241.07
370.49	1210.35
370.70	1259.50
370.91	1228.78
371.12	1275.88
371.33	1263.60
371.54	1239.02
371.75	1269.74
371.96	1257.45
372.17	1251.31
372.38	1320.94
372.59	1277.93
372.80	1304.56
373.01	1284.08
373.22	1255.40
373.43	1277.93
373.64	1243.12
373.85	1322.99
374.06	1279.98
374.26	1294.32
374.47	1361.90
374.68	1273.84
374.89	1236.97
375.10	1296.36
375.31	1265.64
375.52	1239.02
375.73	1357.80
375.94	1185.77
376.15	1243.12
376.36	1331.18
376.57	1339.37
376.78	1296.36
376.99	1241.07
377.20	1265.64
377.40	1263.60
377.61	1243.12
377.82	1304.56
378.03	1249.26
378.24	1304.56
378.45	1308.65
378.66	1327.08
378.87	1318.89
379.08	1322.99
379.29	1249.26
379.50	1333.23
379.71	1298.41
379.91	1294.32
380.12	1224.69
380.33	1212.40
380.54	1222.64
380.75	1304.56
380.96	1245.16
381.17	1288.17
381.38	1298.41
381.59	1273.84
381.80	1236.97
382.00	1322.99
382.21	1320.94
382.42	1320.94
382.63	1220.59
382.84	1265.64
383.05	1243.12
383.26	1255.40
383.47	1296.36
383.68	1277.93
383.88	1290.22
384.09	1239.02
384.30	1255.40
384.51	1304.56
384.72	1263.60
384.93	1263.60
385.14	1243.12
385.35	1337.32
385.55	1288.17
385.76	1253.36
385.97	1312.75
386.18	1275.88
386.39	1314.80
386.60	1345.52
386.81	1290.22
387.02	1275.88
387.22	1298.41
387.43	1279.98
387.64	1265.64
387.85	1253.36
388.06	1243.12
388.27	1255.40
388.48	1259.50
388.68	1314.80
388.89	1241.07
389.10	1212.40
389.31	1261.55
389.52	1200.11
389.73	1224.69
389.93	1220.59
390.14	1277.93
390.35	1241.07
390.56	1308.65
390.77	1222.64
390.98	1298.41
391.18	1222.64
391.39	1302.51
391.60	1286.12
391.81	1292.27
392.02	1232.88
392.23	1267.69
392.43	1282.03
392.64	1263.60
392.85	1288.17
393.06	1271.79
393.27	1277.93
393.47	1277.93
393.68	1314.80
393.89	1349.61
394.10	1341.42
394.31	1263.60
394.52	1275.88
394.72	1255.40
394.93	1265.64
395.14	1249.26
395.35	1251.31
395.56	1259.50
395.76	1320.94
395.97	1302.51
396.18	1282.03
396.39	1294.32
396.60	1333.23
396.80	1265.64
397.01	1290.22
397.22	1304.56
397.43	1312.75
397.64	1347.56
397.84	1206.25
398.05	1314.80
398.26	1247.21
398.47	1296.36
398.67	1263.60
398.88	1333.23
399.09	1325.04
399.30	1304.56
399.51	1210.35
399.71	1251.31
399.92	1286.12
400.13	1249.26
400.34	1267.69
400.54	1265.64
400.75	1245.16
400.96	1271.79
401.17	1279.98
401.37	1216.49
401.58	1267.69
401.79	1277.93
402.00	1257.45
402.21	1265.64
402.41	1255.40
402.62	1304.56
402.83	1165.29
403.04	1294.32
403.24	1312.75
403.45	1277.93
403.66	1341.42
403.87	1333.23
404.07	1271.79
404.28	1312.75
404.49	1193.97
404.70	1249.26
404.90	1306.60
405.11	1263.60
405.32	1302.51
405.52	1234.93
405.73	1286.12
405.94	1228.78
406.15	1308.65
406.35	1224.69
406.56	1157.10
406.77	1300.46
406.98	1288.17
407.18	1290.22
407.39	1271.79
407.60	1335.28
407.80	1216.49
408.01	1265.64
408.22	1277.93
408.43	1241.07
408.63	1325.04
408.84	1267.69
409.05	1296.36
409.25	1300.46
409.46	1290.22
409.67	1218.54
409.88	1230.83
410.08	1259.50
410.29	1265.64
410.50	1312.75
410.70	1316.84
410.91	1236.97
411.12	1296.36
411.32	1298.41
411.53	1216.49
411.74	1255.40
411.95	1271.79
412.15	1243.12
412.36	1236.97
412.57	1243.12
412.77	1306.60
412.98	1265.64
413.19	1255.40
413.39	1261.55
413.60	1302.51
413.81	1269.74
414.01	1298.41
414.22	1263.60
414.43	1304.56
414.63	1290.22
414.84	1288.17
415.05	1277.93
415.25	1288.17
415.46	1290.22
415.67	1284.08
415.87	1298.41
416.08	1269.74
416.29	1236.97
416.49	1218.54
416.70	1241.07
416.91	1200.11
417.11	1308.65
417.32	1253.36
417.53	1298.41
417.73	1255.40
417.94	1255.40
418.15	1337.32
418.35	1236.97
418.56	1193.97
418.77	1236.97
418.97	1333.23
419.18	1189.87
419.38	1284.08
419.59	1273.84
419.80	1288.17
420.00	1296.36
420.21	1331.18
420.42	1216.49
420.62	1216.49
420.83	1325.04
421.04	1249.26
421.24	1333.23
421.45	1296.36
421.65	1282.03
421.86	1304.56
422.07	1247.21
422.27	1273.84
422.48	1322.99
422.69	1275.88
422.89	1230.83
423.10	1275.88
423.30	1320.94
423.51	1175.53
423.72	1312.75
423.92	1214.45
424.13	1269.74
424.33	1310.70
424.54	1368.04
424.75	1198.06
424.95	1241.07
425.16	1261.55
425.36	1263.60
425.57	1222.64
425.78	1241.07
425.98	1263.60
426.19	1222.64
426.39	1243.12
426.60	1282.03
426.81	1318.89
427.01	1275.88
427.22	1320.94
427.42	1185.77
427.63	1310.70
427.83	1253.36
428.04	1325.04
428.25	1343.47
428.45	1255.40
428.66	1200.11
428.86	1273.84
429.07	1298.41
429.28	1292.27
429.48	1208.30
429.69	1239.02
429.89	1230.83
430.10	1224.69
430.30	1257.45
430.51	1245.16
430.71	1245.16
430.92	1343.47
431.13	1212.40
431.33	1239.02
431.54	1220.59
431.74	1261.55
431.95	1255.40
432.15	1241.07
432.36	1239.02
432.56	1191.92
432.77	1275.88
432.98	1318.89
433.18	1343.47
433.39	1263.60
433.59	1247.21
433.80	1343.47
434.00	1234.93
434.21	1259.50
434.41	1339.37
434.62	1253.36
434.82	1298.41
435.03	1232.88
435.23	1271.79
435.44	1236.97
435.64	1275.88
435.85	1294.32
436.06	1282.03
436.26	1269.74
436.47	1275.88
436.67	1325.04
436.88	1269.74
437.08	1339.37
437.29	1208.30
437.49	1318.89
437.70	1243.12
437.90	1228.78
438.11	1230.83
438.31	1275.88
438.52	1337.32
438.72	1269.74
438.93	1269.74
439.13	1259.50
439.34	1224.69
439.54	1325.04
439.75	1255.40
439.95	1259.50
440.16	1226.73
440.36	1251.31
440.57	1255.40
440.77	1296.36
440.98	1181.68
441.18	1288.17
441.39	1306.60
441.59	1239.02
441.80	1249.26
442.00	1261.55
442.21	1327.08
442.41	1296.36
442.62	1277.93
442.82	1255.40
443.02	1269.74
443.23	1290.22
443.43	1343.47
443.64	1236.97
443.84	1300.46
444.05	1279.98
444.25	1236.97
444.46	1331.18
444.66	1306.60
444.87	1267.69
445.07	1265.64
445.28	1275.88
445.48	1312.75
445.69	1236.97
445.89	1374.19
446.09	1232.88
446.30	1273.84
446.50	1249.26
446.71	1267.69
446.91	1316.84
447.12	1298.41
447.32	1312.75
447.53	1279.98
447.73	1193.97
447.93	1277.93
448.14	1249.26
448.34	1222.64
448.55	1243.12
448.75	1363.95
448.96	1263.60
449.16	1302.51
449.36	1269.74
449.57	1241.07
449.77	1230.83
449.98	1267.69
450.18	1298.41
450.39	1306.60
450.59	1275.88
450.79	1304.56
451.00	1306.60
451.20	1312.75
451.41	1249.26
451.61	1230.83
451.81	1322.99
452.02	1298.41
452.22	1333.23
452.43	1234.93
452.63	1204.21
