SpectraSuite Data File
++++++++++++++++++++++++++++++++++++
Date: Sun Apr 03 19:55:21 CEST 2016
User: root
Dark Spectrum Present: No
Reference Spectrum Present: No
Number of Sampled Component Spectra: 1
Spectrometers: USB4C02835
Integration Time (usec): 10000 (USB4C02835)
Spectra Averaged: 1 (USB4C02835)
Boxcar Smoothing: 0 (USB4C02835)
Correct for Electrical Dark: No (USB4C02835)
Strobe/Lamp Enabled: No (USB4C02835)
Correct for Detector Non-linearity: No (USB4C02835)
Correct for Stray Light: No (USB4C02835)
Number of Pixels in Processed Spectrum: 3648
>>>>>Begin Processed Spectral Data<<<<<
177.47	1249.26
177.69	1249.26
177.91	1249.26
178.13	1212.40
178.36	1249.26
178.58	1189.87
178.80	1265.64
179.02	1247.21
179.24	1183.73
179.46	1214.45
179.68	1273.84
179.90	1300.46
180.13	1249.26
180.35	1263.60
180.57	1249.26
180.79	1208.30
181.01	1273.84
181.23	1366.00
181.45	1308.65
181.67	1308.65
181.90	1261.55
182.12	1177.58
182.34	1218.54
182.56	1163.25
182.78	1288.17
183.00	1271.79
183.22	1267.69
183.44	1249.26
183.66	1298.41
183.89	1269.74
184.11	1357.80
184.33	1265.64
184.55	1290.22
184.77	1333.23
184.99	1261.55
185.21	1191.92
185.43	1239.02
185.65	1286.12
185.87	1273.84
186.10	1259.50
186.32	1298.41
186.54	1228.78
186.76	1247.21
186.98	1257.45
187.20	1320.94
187.42	1284.08
187.64	1216.49
187.86	1206.25
188.08	1255.40
188.30	1255.40
188.52	1159.15
188.75	1222.64
188.97	1322.99
189.19	1239.02
189.41	1265.64
189.63	1230.83
189.85	1273.84
190.07	1290.22
190.29	1249.26
190.51	1290.22
190.73	1181.68
190.95	1253.36
191.17	1249.26
191.39	1206.25
191.61	1253.36
191.84	1290.22
192.06	1267.69
192.28	1406.95
192.50	1269.74
192.72	1239.02
192.94	1241.07
193.16	1296.36
193.38	1230.83
193.60	1286.12
193.82	1312.75
194.04	1241.07
194.26	1273.84
194.48	1341.42
194.70	1222.64
194.92	1269.74
195.14	1241.07
195.36	1290.22
195.58	1265.64
195.80	1245.16
196.02	1298.41
196.24	1310.70
196.46	1224.69
196.69	1247.21
196.91	1255.40
197.13	1314.80
197.35	1308.65
197.57	1269.74
197.79	1208.30
198.01	1202.16
198.23	1279.98
198.45	1302.51
198.67	1257.45
198.89	1282.03
199.11	1296.36
199.33	1241.07
199.55	1314.80
199.77	1216.49
199.99	1316.84
200.21	1306.60
200.43	1310.70
200.65	1286.12
200.87	1314.80
201.09	1318.89
201.31	1232.88
201.53	1214.45
201.75	1261.55
201.97	1255.40
202.19	1255.40
202.41	1255.40
202.63	1206.25
202.85	1284.08
203.07	1200.11
203.29	1310.70
203.51	1331.18
203.73	1247.21
203.95	1284.08
204.17	1210.35
204.39	1339.37
204.61	1271.79
204.83	1187.82
205.05	1277.93
205.27	1255.40
205.49	1298.41
205.71	1273.84
205.93	1298.41
206.15	1296.36
206.37	1255.40
206.59	1290.22
206.81	1247.21
207.03	1261.55
207.25	1196.01
207.47	1277.93
207.69	1282.03
207.91	1316.84
208.13	1267.69
208.34	1347.56
208.56	1318.89
208.78	1275.88
209.00	1206.25
209.22	1189.87
209.44	1294.32
209.66	1279.98
209.88	1224.69
210.10	1298.41
210.32	1294.32
210.54	1282.03
210.76	1357.80
210.98	1314.80
211.20	1216.49
211.42	1302.51
211.64	1275.88
211.86	1273.84
212.08	1320.94
212.30	1286.12
212.52	1236.97
212.74	1273.84
212.96	1304.56
213.17	1290.22
213.39	1265.64
213.61	1267.69
213.83	1179.63
214.05	1308.65
214.27	1288.17
214.49	1331.18
214.71	1208.30
214.93	1216.49
215.15	1265.64
215.37	1255.40
215.59	1292.27
215.81	1337.32
216.03	1290.22
216.24	1228.78
216.46	1310.70
216.68	1320.94
216.90	1308.65
217.12	1310.70
217.34	1144.81
217.56	1363.95
217.78	1271.79
218.00	1208.30
218.22	1277.93
218.44	1234.93
218.66	1257.45
218.87	1271.79
219.09	1298.41
219.31	1282.03
219.53	1288.17
219.75	1230.83
219.97	1265.64
220.19	1257.45
220.41	1290.22
220.63	1216.49
220.85	1249.26
221.06	1286.12
221.28	1286.12
221.50	1269.74
221.72	1320.94
221.94	1218.54
222.16	1316.84
222.38	1310.70
222.60	1298.41
222.82	1243.12
223.03	1249.26
223.25	1314.80
223.47	1232.88
223.69	1331.18
223.91	1279.98
224.13	1265.64
224.35	1314.80
224.57	1277.93
224.78	1255.40
225.00	1306.60
225.22	1206.25
225.44	1341.42
225.66	1232.88
225.88	1277.93
226.10	1271.79
226.32	1290.22
226.53	1257.45
226.75	1187.82
226.97	1282.03
227.19	1320.94
227.41	1257.45
227.63	1269.74
227.85	1273.84
228.06	1232.88
228.28	1214.45
228.50	1269.74
228.72	1306.60
228.94	1339.37
229.16	1265.64
229.37	1320.94
229.59	1310.70
229.81	1226.73
230.03	1230.83
230.25	1290.22
230.47	1282.03
230.69	1302.51
230.90	1208.30
231.12	1269.74
231.34	1218.54
231.56	1259.50
231.78	1306.60
232.00	1312.75
232.21	1212.40
232.43	1277.93
232.65	1286.12
232.87	1245.16
233.09	1263.60
233.30	1269.74
233.52	1294.32
233.74	1259.50
233.96	1286.12
234.18	1257.45
234.40	1265.64
234.61	1320.94
234.83	1249.26
235.05	1216.49
235.27	1316.84
235.49	1282.03
235.70	1298.41
235.92	1230.83
236.14	1193.97
236.36	1298.41
236.58	1130.48
236.79	1206.25
237.01	1322.99
237.23	1230.83
237.45	1232.88
237.67	1327.08
237.88	1333.23
238.10	1275.88
238.32	1251.31
238.54	1271.79
238.76	1249.26
238.97	1269.74
239.19	1329.13
239.41	1269.74
239.63	1249.26
239.85	1277.93
240.06	1279.98
240.28	1282.03
240.50	1269.74
240.72	1298.41
240.93	1269.74
241.15	1269.74
241.37	1273.84
241.59	1216.49
241.81	1331.18
242.02	1249.26
242.24	1288.17
242.46	1271.79
242.68	1306.60
242.89	1312.75
243.11	1204.21
243.33	1216.49
243.55	1320.94
243.76	1257.45
243.98	1296.36
244.20	1273.84
244.42	1347.56
244.64	1226.73
244.85	1261.55
245.07	1259.50
245.29	1284.08
245.51	1337.32
245.72	1257.45
245.94	1255.40
246.16	1347.56
246.38	1284.08
246.59	1325.04
246.81	1286.12
247.03	1259.50
247.24	1239.02
247.46	1257.45
247.68	1312.75
247.90	1298.41
248.11	1249.26
248.33	1275.88
248.55	1200.11
248.77	1265.64
248.98	1314.80
249.20	1273.84
249.42	1310.70
249.64	1267.69
249.85	1312.75
250.07	1249.26
250.29	1257.45
250.50	1204.21
250.72	1263.60
250.94	1320.94
251.16	1296.36
251.37	1300.46
251.59	1320.94
251.81	1234.93
252.02	1234.93
252.24	1226.73
252.46	1228.78
252.68	1239.02
252.89	1253.36
253.11	1322.99
253.33	1218.54
253.54	1282.03
253.76	1265.64
253.98	1331.18
254.20	1255.40
254.41	1261.55
254.63	1296.36
254.85	1273.84
255.06	1286.12
255.28	1298.41
255.50	1247.21
255.71	1269.74
255.93	1263.60
256.15	1353.71
256.36	1224.69
256.58	1302.51
256.80	1245.16
257.02	1279.98
257.23	1269.74
257.45	1366.00
257.67	1257.45
257.88	1279.98
258.10	1253.36
258.32	1300.46
258.53	1298.41
258.75	1265.64
258.97	1261.55
259.18	1347.56
259.40	1232.88
259.62	1277.93
259.83	1337.32
260.05	1202.16
260.27	1306.60
260.48	1312.75
260.70	1261.55
260.92	1325.04
261.13	1300.46
261.35	1271.79
261.57	1296.36
261.78	1327.08
262.00	1241.07
262.22	1286.12
262.43	1310.70
262.65	1255.40
262.86	1222.64
263.08	1279.98
263.30	1284.08
263.51	1294.32
263.73	1206.25
263.95	1316.84
264.16	1261.55
264.38	1232.88
264.60	1331.18
264.81	1275.88
265.03	1302.51
265.25	1267.69
265.46	1239.02
265.68	1308.65
265.89	1320.94
266.11	1228.78
266.33	1263.60
266.54	1271.79
266.76	1341.42
266.98	1271.79
267.19	1265.64
267.41	1294.32
267.62	1288.17
267.84	1273.84
268.06	1290.22
268.27	1255.40
268.49	1247.21
268.70	1234.93
268.92	1232.88
269.14	1234.93
269.35	1267.69
269.57	1224.69
269.79	1290.22
270.00	1322.99
270.22	1282.03
270.43	1269.74
270.65	1312.75
270.87	1368.04
271.08	1288.17
271.30	1296.36
271.51	1292.27
271.73	1298.41
271.95	1302.51
272.16	1255.40
272.38	1263.60
272.59	1263.60
272.81	1325.04
273.02	1204.21
273.24	1230.83
273.46	1187.82
273.67	1325.04
273.89	1236.97
274.10	1300.46
274.32	1230.83
274.54	1286.12
274.75	1279.98
274.97	1234.93
275.18	1277.93
275.40	1325.04
275.61	1300.46
275.83	1316.84
276.05	1257.45
276.26	1261.55
276.48	1304.56
276.69	1177.58
276.91	1269.74
277.12	1314.80
277.34	1265.64
277.55	1273.84
277.77	1298.41
277.99	1241.07
278.20	1230.83
278.42	1175.53
278.63	1269.74
278.85	1318.89
279.06	1245.16
279.28	1294.32
279.49	1245.16
279.71	1282.03
279.93	1296.36
280.14	1318.89
280.36	1265.64
280.57	1308.65
280.79	1286.12
281.00	1320.94
281.22	1341.42
281.43	1286.12
281.65	1214.45
281.86	1302.51
282.08	1282.03
282.29	1310.70
282.51	1230.83
282.73	1222.64
282.94	1253.36
283.16	1181.68
283.37	1214.45
283.59	1282.03
283.80	1232.88
284.02	1267.69
284.23	1329.13
284.45	1243.12
284.66	1267.69
284.88	1196.01
285.09	1290.22
285.31	1288.17
285.52	1271.79
285.74	1191.92
285.95	1220.59
286.17	1314.80
286.38	1181.68
286.60	1279.98
286.81	1267.69
287.03	1273.84
287.24	1351.66
287.46	1292.27
287.67	1286.12
287.89	1290.22
288.10	1243.12
288.32	1271.79
288.53	1333.23
288.75	1263.60
288.96	1204.21
289.18	1306.60
289.39	1273.84
289.61	1310.70
289.82	1269.74
290.04	1320.94
290.25	1267.69
290.47	1198.06
290.68	1277.93
290.90	1220.59
291.11	1232.88
291.33	1230.83
291.54	1318.89
291.76	1282.03
291.97	1265.64
292.18	1234.93
292.40	1269.74
292.61	1273.84
292.83	1245.16
293.04	1292.27
293.26	1236.97
293.47	1255.40
293.69	1234.93
293.90	1200.11
294.12	1269.74
294.33	1257.45
294.55	1308.65
294.76	1282.03
294.97	1267.69
295.19	1314.80
295.40	1271.79
295.62	1298.41
295.83	1314.80
296.05	1247.21
296.26	1239.02
296.48	1245.16
296.69	1296.36
296.90	1335.28
297.12	1282.03
297.33	1292.27
297.55	1212.40
297.76	1265.64
297.98	1302.51
298.19	1275.88
298.41	1265.64
298.62	1220.59
298.83	1249.26
299.05	1249.26
299.26	1239.02
299.48	1304.56
299.69	1236.97
299.90	1271.79
300.12	1376.24
300.33	1216.49
300.55	1271.79
300.76	1255.40
300.98	1294.32
301.19	1273.84
301.40	1337.32
301.62	1241.07
301.83	1271.79
302.05	1282.03
302.26	1212.40
302.47	1263.60
302.69	1222.64
302.90	1298.41
303.12	1288.17
303.33	1292.27
303.54	1245.16
303.76	1208.30
303.97	1220.59
304.19	1249.26
304.40	1216.49
304.61	1277.93
304.83	1357.80
305.04	1263.60
305.26	1322.99
305.47	1255.40
305.68	1241.07
305.90	1249.26
306.11	1249.26
306.33	1243.12
306.54	1275.88
306.75	1263.60
306.97	1232.88
307.18	1265.64
307.39	1255.40
307.61	1279.98
307.82	1226.73
308.04	1316.84
308.25	1232.88
308.46	1210.35
308.68	1257.45
308.89	1277.93
309.10	1288.17
309.32	1230.83
309.53	1271.79
309.74	1185.77
309.96	1277.93
310.17	1251.31
310.39	1255.40
310.60	1239.02
310.81	1277.93
311.03	1236.97
311.24	1159.15
311.45	1286.12
311.67	1257.45
311.88	1216.49
312.09	1290.22
312.31	1286.12
312.52	1247.21
312.73	1275.88
312.95	1277.93
313.16	1243.12
313.37	1232.88
313.59	1331.18
313.80	1218.54
314.01	1284.08
314.23	1288.17
314.44	1325.04
314.65	1294.32
314.87	1273.84
315.08	1183.73
315.29	1282.03
315.51	1273.84
315.72	1167.34
315.93	1294.32
316.15	1314.80
316.36	1241.07
316.57	1318.89
316.79	1271.79
317.00	1320.94
317.21	1243.12
317.43	1222.64
317.64	1265.64
317.85	1273.84
318.07	1253.36
318.28	1228.78
318.49	1189.87
318.70	1255.40
318.92	1284.08
319.13	1204.21
319.34	1290.22
319.56	1257.45
319.77	1271.79
319.98	1220.59
320.20	1255.40
320.41	1218.54
320.62	1189.87
320.83	1253.36
321.05	1224.69
321.26	1273.84
321.47	1282.03
321.69	1265.64
321.90	1263.60
322.11	1329.13
322.32	1204.21
322.54	1218.54
322.75	1257.45
322.96	1179.63
323.18	1265.64
323.39	1325.04
323.60	1284.08
323.81	1304.56
324.03	1249.26
324.24	1351.66
324.45	1314.80
324.66	1206.25
324.88	1318.89
325.09	1273.84
325.30	1290.22
325.52	1267.69
325.73	1216.49
325.94	1241.07
326.15	1251.31
326.37	1304.56
326.58	1335.28
326.79	1261.55
327.00	1179.63
327.22	1335.28
327.43	1214.45
327.64	1216.49
327.85	1269.74
328.07	1255.40
328.28	1279.98
328.49	1302.51
328.70	1234.93
328.92	1282.03
329.13	1302.51
329.34	1394.67
329.55	1232.88
329.76	1249.26
329.98	1294.32
330.19	1267.69
330.40	1292.27
330.61	1247.21
330.83	1279.98
331.04	1316.84
331.25	1306.60
331.46	1290.22
331.68	1241.07
331.89	1284.08
332.10	1214.45
332.31	1277.93
332.52	1232.88
332.74	1261.55
332.95	1271.79
333.16	1353.71
333.37	1169.39
333.58	1224.69
333.80	1298.41
334.01	1253.36
334.22	1265.64
334.43	1279.98
334.64	1275.88
334.86	1296.36
335.07	1304.56
335.28	1257.45
335.49	1282.03
335.70	1255.40
335.92	1214.45
336.13	1288.17
336.34	1394.67
336.55	1267.69
336.76	1302.51
336.98	1253.36
337.19	1267.69
337.40	1247.21
337.61	1239.02
337.82	1286.12
338.04	1314.80
338.25	1198.06
338.46	1318.89
338.67	1318.89
338.88	1257.45
339.09	1282.03
339.31	1239.02
339.52	1284.08
339.73	1265.64
339.94	1206.25
340.15	1337.32
340.36	1261.55
340.58	1290.22
340.79	1277.93
341.00	1241.07
341.21	1236.97
341.42	1271.79
341.63	1259.50
341.85	1290.22
342.06	1236.97
342.27	1275.88
342.48	1318.89
342.69	1292.27
342.90	1257.45
343.12	1306.60
343.33	1267.69
343.54	1261.55
343.75	1241.07
343.96	1236.97
344.17	1255.40
344.38	1234.93
344.60	1271.79
344.81	1253.36
345.02	1214.45
345.23	1277.93
345.44	1269.74
345.65	1275.88
345.86	1249.26
346.07	1263.60
346.29	1259.50
346.50	1236.97
346.71	1312.75
346.92	1275.88
347.13	1327.08
347.34	1320.94
347.55	1267.69
347.76	1236.97
347.98	1298.41
348.19	1273.84
348.40	1257.45
348.61	1265.64
348.82	1343.47
349.03	1284.08
349.24	1191.92
349.45	1265.64
349.66	1243.12
349.88	1279.98
350.09	1263.60
350.30	1202.16
350.51	1261.55
350.72	1232.88
350.93	1236.97
351.14	1243.12
351.35	1298.41
351.56	1265.64
351.77	1265.64
351.99	1269.74
352.20	1257.45
352.41	1241.07
352.62	1300.46
352.83	1236.97
353.04	1288.17
353.25	1273.84
353.46	1333.23
353.67	1279.98
353.88	1245.16
354.09	1216.49
354.30	1286.12
354.52	1269.74
354.73	1239.02
354.94	1265.64
355.15	1228.78
355.36	1308.65
355.57	1298.41
355.78	1187.82
355.99	1273.84
356.20	1269.74
356.41	1222.64
356.62	1259.50
356.83	1275.88
357.04	1222.64
357.25	1245.16
357.46	1325.04
357.68	1255.40
357.89	1273.84
358.10	1222.64
358.31	1232.88
358.52	1271.79
358.73	1257.45
358.94	1216.49
359.15	1271.79
359.36	1298.41
359.57	1290.22
359.78	1261.55
359.99	1335.28
360.20	1257.45
360.41	1306.60
360.62	1302.51
360.83	1294.32
361.04	1216.49
361.25	1230.83
361.46	1327.08
361.67	1214.45
361.88	1179.63
362.09	1312.75
362.30	1265.64
362.51	1249.26
362.72	1261.55
362.93	1343.47
363.14	1294.32
363.35	1243.12
363.56	1290.22
363.78	1314.80
363.99	1232.88
364.20	1273.84
364.41	1263.60
364.62	1300.46
364.83	1210.35
365.04	1310.70
365.25	1245.16
365.46	1368.04
365.67	1261.55
365.88	1279.98
366.09	1218.54
366.30	1200.11
366.51	1249.26
366.72	1255.40
366.93	1257.45
367.14	1286.12
367.35	1208.30
367.56	1241.07
367.77	1241.07
367.98	1179.63
368.18	1255.40
368.39	1296.36
368.60	1253.36
368.81	1296.36
369.02	1359.85
369.23	1284.08
369.44	1259.50
369.65	1212.40
369.86	1290.22
370.07	1230.83
370.28	1322.99
370.49	1306.60
370.70	1273.84
370.91	1257.45
371.12	1314.80
371.33	1208.30
371.54	1277.93
371.75	1251.31
371.96	1325.04
372.17	1243.12
372.38	1286.12
372.59	1275.88
372.80	1263.60
373.01	1251.31
373.22	1232.88
373.43	1196.01
373.64	1239.02
373.85	1243.12
374.06	1259.50
374.26	1218.54
374.47	1257.45
374.68	1269.74
374.89	1249.26
375.10	1257.45
375.31	1230.83
375.52	1247.21
375.73	1271.79
375.94	1249.26
376.15	1269.74
376.36	1271.79
376.57	1277.93
376.78	1284.08
376.99	1308.65
377.20	1312.75
377.40	1314.80
377.61	1292.27
377.82	1298.41
378.03	1245.16
378.24	1226.73
378.45	1284.08
378.66	1271.79
378.87	1265.64
379.08	1273.84
379.29	1296.36
379.50	1251.31
379.71	1290.22
379.91	1296.36
380.12	1200.11
380.33	1253.36
380.54	1296.36
380.75	1206.25
380.96	1222.64
381.17	1304.56
381.38	1245.16
381.59	1304.56
381.80	1220.59
382.00	1236.97
382.21	1210.35
382.42	1241.07
382.63	1275.88
382.84	1288.17
383.05	1282.03
383.26	1294.32
383.47	1273.84
383.68	1306.60
383.88	1279.98
384.09	1269.74
384.30	1316.84
384.51	1232.88
384.72	1204.21
384.93	1312.75
385.14	1245.16
385.35	1273.84
385.55	1290.22
385.76	1290.22
385.97	1322.99
386.18	1290.22
386.39	1282.03
386.60	1277.93
386.81	1255.40
387.02	1300.46
387.22	1277.93
387.43	1257.45
387.64	1196.01
387.85	1265.64
388.06	1251.31
388.27	1282.03
388.48	1290.22
388.68	1241.07
388.89	1261.55
389.10	1222.64
389.31	1275.88
389.52	1298.41
389.73	1228.78
389.93	1306.60
390.14	1251.31
390.35	1275.88
390.56	1302.51
390.77	1259.50
390.98	1220.59
391.18	1271.79
391.39	1304.56
391.60	1296.36
391.81	1320.94
392.02	1239.02
392.23	1239.02
392.43	1263.60
392.64	1196.01
392.85	1327.08
393.06	1236.97
393.27	1259.50
393.47	1232.88
393.68	1214.45
393.89	1257.45
394.10	1271.79
394.31	1179.63
394.52	1245.16
394.72	1322.99
394.93	1275.88
395.14	1241.07
395.35	1257.45
395.56	1263.60
395.76	1214.45
395.97	1222.64
396.18	1155.05
396.39	1322.99
396.60	1214.45
396.80	1230.83
397.01	1275.88
397.22	1251.31
397.43	1239.02
397.64	1216.49
397.84	1351.66
398.05	1181.68
398.26	1241.07
398.47	1273.84
398.67	1322.99
398.88	1222.64
399.09	1212.40
399.30	1316.84
399.51	1239.02
399.71	1239.02
399.92	1208.30
400.13	1261.55
400.34	1279.98
400.54	1251.31
400.75	1206.25
400.96	1251.31
401.17	1239.02
401.37	1263.60
401.58	1214.45
401.79	1206.25
402.00	1263.60
402.21	1249.26
402.41	1236.97
402.62	1232.88
402.83	1282.03
403.04	1204.21
403.24	1265.64
403.45	1236.97
403.66	1288.17
403.87	1294.32
404.07	1245.16
404.28	1202.16
404.49	1232.88
404.70	1316.84
404.90	1290.22
405.11	1300.46
405.32	1259.50
405.52	1292.27
405.73	1298.41
405.94	1226.73
406.15	1269.74
406.35	1286.12
406.56	1271.79
406.77	1322.99
406.98	1277.93
407.18	1247.21
407.39	1263.60
407.60	1306.60
407.80	1267.69
408.01	1245.16
408.22	1228.78
408.43	1228.78
408.63	1259.50
408.84	1351.66
409.05	1196.01
409.25	1226.73
409.46	1232.88
409.67	1284.08
409.88	1294.32
410.08	1175.53
410.29	1212.40
410.50	1284.08
410.70	1165.29
410.91	1239.02
411.12	1257.45
411.32	1198.06
411.53	1263.60
411.74	1277.93
411.95	1355.76
412.15	1263.60
412.36	1284.08
412.57	1212.40
412.77	1236.97
412.98	1220.59
413.19	1331.18
413.39	1249.26
413.60	1335.28
413.81	1302.51
414.01	1357.80
414.22	1279.98
414.43	1183.73
414.63	1228.78
414.84	1288.17
415.05	1310.70
415.25	1325.04
415.46	1208.30
415.67	1304.56
415.87	1228.78
416.08	1198.06
416.29	1329.13
416.49	1241.07
416.70	1292.27
416.91	1236.97
417.11	1277.93
417.32	1245.16
417.53	1259.50
417.73	1177.58
417.94	1226.73
418.15	1261.55
418.35	1247.21
418.56	1239.02
418.77	1318.89
418.97	1275.88
419.18	1296.36
419.38	1296.36
419.59	1282.03
419.80	1249.26
420.00	1269.74
420.21	1255.40
420.42	1310.70
420.62	1279.98
420.83	1239.02
421.04	1257.45
421.24	1263.60
421.45	1284.08
421.65	1341.42
421.86	1222.64
422.07	1230.83
422.27	1273.84
422.48	1312.75
422.69	1245.16
422.89	1224.69
423.10	1255.40
423.30	1243.12
423.51	1255.40
423.72	1337.32
423.92	1277.93
424.13	1214.45
424.33	1175.53
424.54	1249.26
424.75	1148.91
424.95	1306.60
425.16	1279.98
425.36	1288.17
425.57	1273.84
425.78	1212.40
425.98	1253.36
426.19	1230.83
426.39	1200.11
426.60	1222.64
426.81	1275.88
427.01	1294.32
427.22	1265.64
427.42	1249.26
427.63	1241.07
427.83	1292.27
428.04	1273.84
428.25	1271.79
428.45	1255.40
428.66	1255.40
428.86	1226.73
429.07	1255.40
429.28	1243.12
429.48	1241.07
429.69	1265.64
429.89	1271.79
430.10	1320.94
430.30	1230.83
430.51	1202.16
430.71	1277.93
430.92	1251.31
431.13	1288.17
431.33	1241.07
431.54	1296.36
431.74	1222.64
431.95	1275.88
432.15	1267.69
432.36	1259.50
432.56	1296.36
432.77	1204.21
432.98	1234.93
433.18	1208.30
433.39	1232.88
433.59	1282.03
433.80	1277.93
434.00	1304.56
434.21	1247.21
434.41	1253.36
434.62	1218.54
434.82	1302.51
435.03	1208.30
435.23	1255.40
435.44	1255.40
435.64	1185.77
435.85	1306.60
436.06	1265.64
436.26	1304.56
436.47	1232.88
436.67	1282.03
436.88	1284.08
437.08	1269.74
437.29	1275.88
437.49	1284.08
437.70	1304.56
437.90	1245.16
438.11	1226.73
438.31	1259.50
438.52	1275.88
438.72	1310.70
438.93	1214.45
439.13	1206.25
439.34	1224.69
439.54	1341.42
439.75	1257.45
439.95	1271.79
440.16	1259.50
440.36	1322.99
440.57	1279.98
440.77	1308.65
440.98	1247.21
441.18	1193.97
441.39	1239.02
441.59	1259.50
441.80	1259.50
442.00	1298.41
442.21	1279.98
442.41	1220.59
442.62	1275.88
442.82	1292.27
443.02	1329.13
443.23	1222.64
443.43	1296.36
443.64	1322.99
443.84	1267.69
444.05	1253.36
444.25	1284.08
444.46	1316.84
444.66	1265.64
444.87	1239.02
445.07	1263.60
445.28	1337.32
445.48	1345.52
445.69	1206.25
445.89	1339.37
446.09	1282.03
446.30	1269.74
446.50	1236.97
446.71	1222.64
446.91	1144.81
447.12	1269.74
447.32	1228.78
447.53	1290.22
447.73	1253.36
447.93	1277.93
448.14	1304.56
448.34	1255.40
448.55	1220.59
448.75	1312.75
448.96	1294.32
449.16	1263.60
449.36	1433.58
449.57	1277.93
449.77	1265.64
449.98	1337.32
450.18	1263.60
450.39	1267.69
450.59	1275.88
450.79	1269.74
451.00	1261.55
451.20	1249.26
451.41	1282.03
451.61	1222.64
451.81	1236.97
452.02	1269.74
452.22	1263.60
452.43	1298.41
452.63	1279.98
