SpectraSuite Data File
++++++++++++++++++++++++++++++++++++
Date: Sun Apr 03 19:55:22 CEST 2016
User: root
Dark Spectrum Present: No
Reference Spectrum Present: No
Number of Sampled Component Spectra: 1
Spectrometers: USB4C02835
Integration Time (usec): 10000 (USB4C02835)
Spectra Averaged: 1 (USB4C02835)
Boxcar Smoothing: 0 (USB4C02835)
Correct for Electrical Dark: No (USB4C02835)
Strobe/Lamp Enabled: No (USB4C02835)
Correct for Detector Non-linearity: No (USB4C02835)
Correct for Stray Light: No (USB4C02835)
Number of Pixels in Processed Spectrum: 3648
>>>>>Begin Processed Spectral Data<<<<<
177.47	1255.40
177.69	1255.40
177.91	1255.40
178.13	1286.12
178.36	1220.59
178.58	1206.25
178.80	1267.69
179.02	1247.21
179.24	1269.74
179.46	1294.32
179.68	1306.60
179.90	1259.50
180.13	1308.65
180.35	1253.36
180.57	1282.03
180.79	1271.79
181.01	1236.97
181.23	1255.40
181.45	1329.13
181.67	1189.87
181.90	1304.56
182.12	1302.51
182.34	1318.89
182.56	1302.51
182.78	1232.88
183.00	1314.80
183.22	1331.18
183.44	1318.89
183.66	1298.41
183.89	1279.98
184.11	1249.26
184.33	1279.98
184.55	1245.16
184.77	1263.60
184.99	1292.27
185.21	1228.78
185.43	1294.32
185.65	1296.36
185.87	1271.79
186.10	1267.69
186.32	1271.79
186.54	1236.97
186.76	1277.93
186.98	1322.99
187.20	1222.64
187.42	1282.03
187.64	1251.31
187.86	1265.64
188.08	1314.80
188.30	1284.08
188.52	1294.32
188.75	1230.83
188.97	1200.11
189.19	1282.03
189.41	1277.93
189.63	1337.32
189.85	1325.04
190.07	1279.98
190.29	1271.79
190.51	1308.65
190.73	1271.79
190.95	1282.03
191.17	1282.03
191.39	1329.13
191.61	1288.17
191.84	1306.60
192.06	1296.36
192.28	1222.64
192.50	1234.93
192.72	1267.69
192.94	1269.74
193.16	1333.23
193.38	1296.36
193.60	1253.36
193.82	1236.97
194.04	1216.49
194.26	1232.88
194.48	1230.83
194.70	1314.80
194.92	1230.83
195.14	1284.08
195.36	1241.07
195.58	1257.45
195.80	1239.02
196.02	1310.70
196.24	1220.59
196.46	1325.04
196.69	1261.55
196.91	1267.69
197.13	1304.56
197.35	1224.69
197.57	1236.97
197.79	1232.88
198.01	1200.11
198.23	1306.60
198.45	1308.65
198.67	1310.70
198.89	1296.36
199.11	1239.02
199.33	1259.50
199.55	1304.56
199.77	1282.03
199.99	1249.26
200.21	1224.69
200.43	1206.25
200.65	1185.77
200.87	1294.32
201.09	1220.59
201.31	1249.26
201.53	1261.55
201.75	1384.43
201.97	1282.03
202.19	1206.25
202.41	1230.83
202.63	1236.97
202.85	1290.22
203.07	1292.27
203.29	1224.69
203.51	1325.04
203.73	1212.40
203.95	1265.64
204.17	1290.22
204.39	1306.60
204.61	1253.36
204.83	1302.51
205.05	1218.54
205.27	1210.35
205.49	1302.51
205.71	1243.12
205.93	1243.12
206.15	1251.31
206.37	1253.36
206.59	1277.93
206.81	1314.80
207.03	1255.40
207.25	1265.64
207.47	1310.70
207.69	1241.07
207.91	1306.60
208.13	1249.26
208.34	1241.07
208.56	1302.51
208.78	1337.32
209.00	1347.56
209.22	1298.41
209.44	1261.55
209.66	1241.07
209.88	1325.04
210.10	1232.88
210.32	1306.60
210.54	1247.21
210.76	1234.93
210.98	1265.64
211.20	1204.21
211.42	1249.26
211.64	1189.87
211.86	1271.79
212.08	1294.32
212.30	1232.88
212.52	1279.98
212.74	1290.22
212.96	1277.93
213.17	1304.56
213.39	1243.12
213.61	1236.97
213.83	1273.84
214.05	1298.41
214.27	1304.56
214.49	1308.65
214.71	1236.97
214.93	1251.31
215.15	1206.25
215.37	1318.89
215.59	1277.93
215.81	1212.40
216.03	1202.16
216.24	1275.88
216.46	1290.22
216.68	1343.47
216.90	1271.79
217.12	1265.64
217.34	1224.69
217.56	1263.60
217.78	1363.95
218.00	1271.79
218.22	1236.97
218.44	1241.07
218.66	1263.60
218.87	1327.08
219.09	1273.84
219.31	1236.97
219.53	1333.23
219.75	1191.92
219.97	1259.50
220.19	1275.88
220.41	1271.79
220.63	1251.31
220.85	1255.40
221.06	1249.26
221.28	1261.55
221.50	1288.17
221.72	1275.88
221.94	1279.98
222.16	1335.28
222.38	1329.13
222.60	1271.79
222.82	1290.22
223.03	1208.30
223.25	1257.45
223.47	1304.56
223.69	1245.16
223.91	1234.93
224.13	1263.60
224.35	1284.08
224.57	1198.06
224.78	1220.59
225.00	1306.60
225.22	1257.45
225.44	1368.04
225.66	1267.69
225.88	1259.50
226.10	1234.93
226.32	1261.55
226.53	1259.50
226.75	1259.50
226.97	1277.93
227.19	1259.50
227.41	1273.84
227.63	1310.70
227.85	1196.01
228.06	1302.51
228.28	1294.32
228.50	1314.80
228.72	1284.08
228.94	1275.88
229.16	1267.69
229.37	1269.74
229.59	1259.50
229.81	1329.13
230.03	1282.03
230.25	1279.98
230.47	1279.98
230.69	1368.04
230.90	1304.56
231.12	1253.36
231.34	1277.93
231.56	1333.23
231.78	1304.56
232.00	1312.75
232.21	1245.16
232.43	1155.05
232.65	1263.60
232.87	1165.29
233.09	1198.06
233.30	1288.17
233.52	1232.88
233.74	1267.69
233.96	1329.13
234.18	1275.88
234.40	1265.64
234.61	1257.45
234.83	1349.61
235.05	1279.98
235.27	1232.88
235.49	1257.45
235.70	1308.65
235.92	1376.24
236.14	1314.80
236.36	1347.56
236.58	1273.84
236.79	1320.94
237.01	1224.69
237.23	1234.93
237.45	1232.88
237.67	1239.02
237.88	1263.60
238.10	1310.70
238.32	1253.36
238.54	1312.75
238.76	1337.32
238.97	1290.22
239.19	1282.03
239.41	1261.55
239.63	1279.98
239.85	1193.97
240.06	1275.88
240.28	1265.64
240.50	1230.83
240.72	1224.69
240.93	1253.36
241.15	1310.70
241.37	1306.60
241.59	1277.93
241.81	1282.03
242.02	1159.15
242.24	1310.70
242.46	1296.36
242.68	1288.17
242.89	1259.50
243.11	1271.79
243.33	1202.16
243.55	1202.16
243.76	1241.07
243.98	1167.34
244.20	1257.45
244.42	1241.07
244.64	1288.17
244.85	1263.60
245.07	1331.18
245.29	1292.27
245.51	1239.02
245.72	1241.07
245.94	1273.84
246.16	1294.32
246.38	1243.12
246.59	1247.21
246.81	1286.12
247.03	1265.64
247.24	1284.08
247.46	1234.93
247.68	1249.26
247.90	1212.40
248.11	1257.45
248.33	1320.94
248.55	1314.80
248.77	1271.79
248.98	1282.03
249.20	1269.74
249.42	1241.07
249.64	1308.65
249.85	1298.41
250.07	1277.93
250.29	1322.99
250.50	1257.45
250.72	1296.36
250.94	1286.12
251.16	1265.64
251.37	1230.83
251.59	1296.36
251.81	1337.32
252.02	1218.54
252.24	1245.16
252.46	1288.17
252.68	1271.79
252.89	1288.17
253.11	1259.50
253.33	1302.51
253.54	1271.79
253.76	1271.79
253.98	1241.07
254.20	1284.08
254.41	1249.26
254.63	1167.34
254.85	1234.93
255.06	1230.83
255.28	1206.25
255.50	1261.55
255.71	1241.07
255.93	1273.84
256.15	1224.69
256.36	1249.26
256.58	1284.08
256.80	1230.83
257.02	1292.27
257.23	1261.55
257.45	1269.74
257.67	1316.84
257.88	1257.45
258.10	1218.54
258.32	1308.65
258.53	1259.50
258.75	1273.84
258.97	1234.93
259.18	1257.45
259.40	1286.12
259.62	1290.22
259.83	1304.56
260.05	1228.78
260.27	1296.36
260.48	1249.26
260.70	1339.37
260.92	1320.94
261.13	1314.80
261.35	1187.82
261.57	1236.97
261.78	1230.83
262.00	1284.08
262.22	1239.02
262.43	1279.98
262.65	1208.30
262.86	1302.51
263.08	1331.18
263.30	1236.97
263.51	1222.64
263.73	1288.17
263.95	1249.26
264.16	1243.12
264.38	1306.60
264.60	1302.51
264.81	1279.98
265.03	1337.32
265.25	1265.64
265.46	1296.36
265.68	1318.89
265.89	1316.84
266.11	1277.93
266.33	1247.21
266.54	1222.64
266.76	1310.70
266.98	1282.03
267.19	1200.11
267.41	1257.45
267.62	1298.41
267.84	1257.45
268.06	1284.08
268.27	1202.16
268.49	1206.25
268.70	1185.77
268.92	1230.83
269.14	1239.02
269.35	1327.08
269.57	1245.16
269.79	1306.60
270.00	1288.17
270.22	1314.80
270.43	1230.83
270.65	1286.12
270.87	1263.60
271.08	1273.84
271.30	1234.93
271.51	1286.12
271.73	1267.69
271.95	1300.46
272.16	1212.40
272.38	1322.99
272.59	1228.78
272.81	1296.36
273.02	1310.70
273.24	1249.26
273.46	1263.60
273.67	1298.41
273.89	1232.88
274.10	1288.17
274.32	1232.88
274.54	1255.40
274.75	1259.50
274.97	1261.55
275.18	1269.74
275.40	1261.55
275.61	1255.40
275.83	1306.60
276.05	1273.84
276.26	1232.88
276.48	1333.23
276.69	1265.64
276.91	1255.40
277.12	1263.60
277.34	1212.40
277.55	1279.98
277.77	1224.69
277.99	1284.08
278.20	1273.84
278.42	1196.01
278.63	1288.17
278.85	1320.94
279.06	1200.11
279.28	1259.50
279.49	1394.67
279.71	1271.79
279.93	1279.98
280.14	1243.12
280.36	1196.01
280.57	1263.60
280.79	1257.45
281.00	1222.64
281.22	1255.40
281.43	1251.31
281.65	1275.88
281.86	1304.56
282.08	1249.26
282.29	1288.17
282.51	1202.16
282.73	1275.88
282.94	1222.64
283.16	1306.60
283.37	1261.55
283.59	1214.45
283.80	1277.93
284.02	1241.07
284.23	1253.36
284.45	1247.21
284.66	1320.94
284.88	1214.45
285.09	1255.40
285.31	1257.45
285.52	1249.26
285.74	1261.55
285.95	1253.36
286.17	1239.02
286.38	1259.50
286.60	1224.69
286.81	1261.55
287.03	1271.79
287.24	1275.88
287.46	1322.99
287.67	1337.32
287.89	1204.21
288.10	1245.16
288.32	1335.28
288.53	1263.60
288.75	1335.28
288.96	1243.12
289.18	1239.02
289.39	1267.69
289.61	1314.80
289.82	1230.83
290.04	1279.98
290.25	1290.22
290.47	1292.27
290.68	1294.32
290.90	1312.75
291.11	1259.50
291.33	1251.31
291.54	1226.73
291.76	1300.46
291.97	1275.88
292.18	1298.41
292.40	1249.26
292.61	1222.64
292.83	1261.55
293.04	1279.98
293.26	1228.78
293.47	1279.98
293.69	1232.88
293.90	1322.99
294.12	1249.26
294.33	1304.56
294.55	1300.46
294.76	1193.97
294.97	1259.50
295.19	1183.73
295.40	1259.50
295.62	1187.82
295.83	1247.21
296.05	1257.45
296.26	1298.41
296.48	1279.98
296.69	1275.88
296.90	1296.36
297.12	1273.84
297.33	1257.45
297.55	1263.60
297.76	1200.11
297.98	1212.40
298.19	1249.26
298.41	1257.45
298.62	1259.50
298.83	1245.16
299.05	1318.89
299.26	1216.49
299.48	1257.45
299.69	1253.36
299.90	1269.74
300.12	1304.56
300.33	1288.17
300.55	1249.26
300.76	1288.17
300.98	1277.93
301.19	1331.18
301.40	1210.35
301.62	1259.50
301.83	1316.84
302.05	1320.94
302.26	1255.40
302.47	1232.88
302.69	1243.12
302.90	1232.88
303.12	1312.75
303.33	1220.59
303.54	1310.70
303.76	1304.56
303.97	1269.74
304.19	1253.36
304.40	1269.74
304.61	1347.56
304.83	1261.55
305.04	1296.36
305.26	1279.98
305.47	1214.45
305.68	1306.60
305.90	1302.51
306.11	1292.27
306.33	1243.12
306.54	1210.35
306.75	1253.36
306.97	1312.75
307.18	1290.22
307.39	1218.54
307.61	1306.60
307.82	1263.60
308.04	1241.07
308.25	1320.94
308.46	1310.70
308.68	1261.55
308.89	1306.60
309.10	1284.08
309.32	1286.12
309.53	1253.36
309.74	1290.22
309.96	1241.07
310.17	1224.69
310.39	1153.01
310.60	1263.60
310.81	1277.93
311.03	1222.64
311.24	1239.02
311.45	1253.36
311.67	1257.45
311.88	1290.22
312.09	1257.45
312.31	1318.89
312.52	1249.26
312.73	1292.27
312.95	1251.31
313.16	1222.64
313.37	1263.60
313.59	1257.45
313.80	1290.22
314.01	1243.12
314.23	1236.97
314.44	1279.98
314.65	1265.64
314.87	1279.98
315.08	1247.21
315.29	1298.41
315.51	1241.07
315.72	1189.87
315.93	1234.93
316.15	1204.21
316.36	1349.61
316.57	1255.40
316.79	1234.93
317.00	1265.64
317.21	1239.02
317.43	1255.40
317.64	1259.50
317.85	1265.64
318.07	1263.60
318.28	1255.40
318.49	1212.40
318.70	1243.12
318.92	1224.69
319.13	1306.60
319.34	1279.98
319.56	1259.50
319.77	1298.41
319.98	1286.12
320.20	1282.03
320.41	1288.17
320.62	1265.64
320.83	1271.79
321.05	1236.97
321.26	1294.32
321.47	1290.22
321.69	1298.41
321.90	1284.08
322.11	1230.83
322.32	1234.93
322.54	1331.18
322.75	1341.42
322.96	1257.45
323.18	1241.07
323.39	1175.53
323.60	1271.79
323.81	1226.73
324.03	1261.55
324.24	1202.16
324.45	1200.11
324.66	1273.84
324.88	1243.12
325.09	1200.11
325.30	1277.93
325.52	1359.85
325.73	1224.69
325.94	1239.02
326.15	1249.26
326.37	1239.02
326.58	1286.12
326.79	1292.27
327.00	1290.22
327.22	1318.89
327.43	1282.03
327.64	1335.28
327.85	1259.50
328.07	1298.41
328.28	1247.21
328.49	1290.22
328.70	1239.02
328.92	1263.60
329.13	1339.37
329.34	1193.97
329.55	1288.17
329.76	1265.64
329.98	1322.99
330.19	1294.32
330.40	1230.83
330.61	1261.55
330.83	1277.93
331.04	1261.55
331.25	1282.03
331.46	1306.60
331.68	1136.62
331.89	1265.64
332.10	1292.27
332.31	1300.46
332.52	1206.25
332.74	1257.45
332.95	1253.36
333.16	1292.27
333.37	1363.95
333.58	1236.97
333.80	1234.93
334.01	1277.93
334.22	1216.49
334.43	1257.45
334.64	1220.59
334.86	1316.84
335.07	1290.22
335.28	1271.79
335.49	1204.21
335.70	1279.98
335.92	1357.80
336.13	1271.79
336.34	1286.12
336.55	1232.88
336.76	1284.08
336.98	1335.28
337.19	1232.88
337.40	1282.03
337.61	1230.83
337.82	1279.98
338.04	1247.21
338.25	1236.97
338.46	1286.12
338.67	1294.32
338.88	1224.69
339.09	1251.31
339.31	1341.42
339.52	1329.13
339.73	1245.16
339.94	1302.51
340.15	1236.97
340.36	1284.08
340.58	1251.31
340.79	1230.83
341.00	1228.78
341.21	1232.88
341.42	1279.98
341.63	1294.32
341.85	1230.83
342.06	1284.08
342.27	1296.36
342.48	1302.51
342.69	1204.21
342.90	1263.60
343.12	1300.46
343.33	1214.45
343.54	1249.26
343.75	1241.07
343.96	1337.32
344.17	1236.97
344.38	1271.79
344.60	1249.26
344.81	1222.64
345.02	1277.93
345.23	1277.93
345.44	1249.26
345.65	1249.26
345.86	1286.12
346.07	1232.88
346.29	1292.27
346.50	1302.51
346.71	1249.26
346.92	1310.70
347.13	1310.70
347.34	1277.93
347.55	1312.75
347.76	1265.64
347.98	1308.65
348.19	1191.92
348.40	1286.12
348.61	1318.89
348.82	1218.54
349.03	1304.56
349.24	1212.40
349.45	1284.08
349.66	1257.45
349.88	1224.69
350.09	1230.83
350.30	1220.59
350.51	1245.16
350.72	1218.54
350.93	1296.36
351.14	1314.80
351.35	1279.98
351.56	1245.16
351.77	1208.30
351.99	1298.41
352.20	1312.75
352.41	1251.31
352.62	1206.25
352.83	1214.45
353.04	1243.12
353.25	1312.75
353.46	1243.12
353.67	1267.69
353.88	1286.12
354.09	1216.49
354.30	1241.07
354.52	1216.49
354.73	1212.40
354.94	1286.12
355.15	1253.36
355.36	1351.66
355.57	1277.93
355.78	1302.51
355.99	1294.32
356.20	1259.50
356.41	1263.60
356.62	1234.93
356.83	1304.56
357.04	1257.45
357.25	1208.30
357.46	1302.51
357.68	1271.79
357.89	1202.16
358.10	1259.50
358.31	1275.88
358.52	1277.93
358.73	1251.31
358.94	1273.84
359.15	1277.93
359.36	1269.74
359.57	1347.56
359.78	1263.60
359.99	1230.83
360.20	1275.88
360.41	1243.12
360.62	1179.63
360.83	1208.30
361.04	1243.12
361.25	1261.55
361.46	1322.99
361.67	1318.89
361.88	1290.22
362.09	1249.26
362.30	1341.42
362.51	1247.21
362.72	1298.41
362.93	1193.97
363.14	1275.88
363.35	1218.54
363.56	1288.17
363.78	1259.50
363.99	1312.75
364.20	1230.83
364.41	1245.16
364.62	1216.49
364.83	1196.01
365.04	1304.56
365.25	1226.73
365.46	1265.64
365.67	1345.52
365.88	1232.88
366.09	1230.83
366.30	1279.98
366.51	1331.18
366.72	1247.21
366.93	1322.99
367.14	1282.03
367.35	1265.64
367.56	1302.51
367.77	1300.46
367.98	1296.36
368.18	1239.02
368.39	1236.97
368.60	1298.41
368.81	1310.70
369.02	1249.26
369.23	1331.18
369.44	1269.74
369.65	1296.36
369.86	1331.18
370.07	1257.45
370.28	1236.97
370.49	1310.70
370.70	1212.40
370.91	1269.74
371.12	1230.83
371.33	1269.74
371.54	1296.36
371.75	1218.54
371.96	1253.36
372.17	1300.46
372.38	1247.21
372.59	1255.40
372.80	1263.60
373.01	1275.88
373.22	1306.60
373.43	1222.64
373.64	1214.45
373.85	1275.88
374.06	1273.84
374.26	1193.97
374.47	1228.78
374.68	1241.07
374.89	1253.36
375.10	1234.93
375.31	1236.97
375.52	1282.03
375.73	1261.55
375.94	1208.30
376.15	1241.07
376.36	1232.88
376.57	1251.31
376.78	1265.64
376.99	1247.21
377.20	1327.08
377.40	1273.84
377.61	1339.37
377.82	1216.49
378.03	1245.16
378.24	1316.84
378.45	1279.98
378.66	1288.17
378.87	1263.60
379.08	1198.06
379.29	1273.84
379.50	1294.32
379.71	1294.32
379.91	1214.45
380.12	1239.02
380.33	1314.80
380.54	1243.12
380.75	1255.40
380.96	1329.13
381.17	1372.14
381.38	1255.40
381.59	1308.65
381.80	1302.51
382.00	1273.84
382.21	1255.40
382.42	1308.65
382.63	1245.16
382.84	1249.26
383.05	1312.75
383.26	1267.69
383.47	1193.97
383.68	1310.70
383.88	1288.17
384.09	1298.41
384.30	1214.45
384.51	1292.27
384.72	1298.41
384.93	1169.39
385.14	1310.70
385.35	1275.88
385.55	1257.45
385.76	1267.69
385.97	1292.27
386.18	1245.16
386.39	1314.80
386.60	1249.26
386.81	1271.79
387.02	1208.30
387.22	1239.02
387.43	1308.65
387.64	1251.31
387.85	1226.73
388.06	1286.12
388.27	1331.18
388.48	1304.56
388.68	1279.98
388.89	1251.31
389.10	1253.36
389.31	1351.66
389.52	1333.23
389.73	1279.98
389.93	1253.36
390.14	1255.40
390.35	1314.80
390.56	1253.36
390.77	1337.32
390.98	1249.26
391.18	1263.60
391.39	1261.55
391.60	1279.98
391.81	1224.69
392.02	1224.69
392.23	1243.12
392.43	1322.99
392.64	1302.51
392.85	1282.03
393.06	1269.74
393.27	1286.12
393.47	1175.53
393.68	1255.40
393.89	1292.27
394.10	1210.35
394.31	1255.40
394.52	1243.12
394.72	1265.64
394.93	1243.12
395.14	1226.73
395.35	1273.84
395.56	1251.31
395.76	1269.74
395.97	1296.36
396.18	1306.60
396.39	1243.12
396.60	1239.02
396.80	1241.07
397.01	1210.35
397.22	1255.40
397.43	1290.22
397.64	1273.84
397.84	1271.79
398.05	1271.79
398.26	1230.83
398.47	1263.60
398.67	1265.64
398.88	1263.60
399.09	1284.08
399.30	1204.21
399.51	1277.93
399.71	1327.08
399.92	1279.98
400.13	1249.26
400.34	1279.98
400.54	1241.07
400.75	1265.64
400.96	1302.51
401.17	1271.79
401.37	1279.98
401.58	1359.85
401.79	1247.21
402.00	1279.98
402.21	1265.64
402.41	1251.31
402.62	1290.22
402.83	1255.40
403.04	1253.36
403.24	1185.77
403.45	1312.75
403.66	1259.50
403.87	1263.60
404.07	1269.74
404.28	1218.54
404.49	1316.84
404.70	1183.73
404.90	1282.03
405.11	1284.08
405.32	1216.49
405.52	1304.56
405.73	1232.88
405.94	1255.40
406.15	1312.75
406.35	1189.87
406.56	1314.80
406.77	1198.06
406.98	1241.07
407.18	1290.22
407.39	1226.73
407.60	1298.41
407.80	1247.21
408.01	1259.50
408.22	1294.32
408.43	1247.21
408.63	1290.22
408.84	1247.21
409.05	1204.21
409.25	1206.25
409.46	1249.26
409.67	1189.87
409.88	1310.70
410.08	1275.88
410.29	1251.31
410.50	1249.26
410.70	1263.60
410.91	1300.46
411.12	1232.88
411.32	1306.60
411.53	1232.88
411.74	1282.03
411.95	1265.64
412.15	1279.98
412.36	1298.41
412.57	1251.31
412.77	1314.80
412.98	1245.16
413.19	1277.93
413.39	1239.02
413.60	1279.98
413.81	1202.16
414.01	1214.45
414.22	1290.22
414.43	1241.07
414.63	1284.08
414.84	1298.41
415.05	1318.89
415.25	1376.24
415.46	1196.01
415.67	1263.60
415.87	1216.49
416.08	1232.88
416.29	1304.56
416.49	1273.84
416.70	1279.98
416.91	1241.07
417.11	1224.69
417.32	1255.40
417.53	1273.84
417.73	1314.80
417.94	1230.83
418.15	1275.88
418.35	1265.64
418.56	1249.26
418.77	1271.79
418.97	1232.88
419.18	1304.56
419.38	1271.79
419.59	1308.65
419.80	1300.46
420.00	1241.07
420.21	1247.21
420.42	1310.70
420.62	1232.88
420.83	1224.69
421.04	1222.64
421.24	1261.55
421.45	1298.41
421.65	1247.21
421.86	1316.84
422.07	1275.88
422.27	1279.98
422.48	1167.34
422.69	1310.70
422.89	1284.08
423.10	1226.73
423.30	1208.30
423.51	1249.26
423.72	1216.49
423.92	1269.74
424.13	1269.74
424.33	1314.80
424.54	1232.88
424.75	1249.26
424.95	1224.69
425.16	1263.60
425.36	1273.84
425.57	1288.17
425.78	1320.94
425.98	1249.26
426.19	1290.22
426.39	1288.17
426.60	1253.36
426.81	1290.22
427.01	1279.98
427.22	1288.17
427.42	1304.56
427.63	1247.21
427.83	1273.84
428.04	1261.55
428.25	1269.74
428.45	1239.02
428.66	1320.94
428.86	1318.89
429.07	1202.16
429.28	1224.69
429.48	1327.08
429.69	1241.07
429.89	1257.45
430.10	1277.93
430.30	1318.89
430.51	1288.17
430.71	1300.46
430.92	1251.31
431.13	1269.74
431.33	1224.69
431.54	1249.26
431.74	1257.45
431.95	1271.79
432.15	1206.25
432.36	1263.60
432.56	1275.88
432.77	1263.60
432.98	1298.41
433.18	1271.79
433.39	1241.07
433.59	1183.73
433.80	1298.41
434.00	1294.32
434.21	1249.26
434.41	1228.78
434.62	1265.64
434.82	1253.36
435.03	1261.55
435.23	1277.93
435.44	1257.45
435.64	1257.45
435.85	1245.16
436.06	1269.74
436.26	1288.17
436.47	1202.16
436.67	1273.84
436.88	1206.25
437.08	1261.55
437.29	1337.32
437.49	1286.12
437.70	1279.98
437.90	1275.88
438.11	1249.26
438.31	1277.93
438.52	1310.70
438.72	1288.17
438.93	1282.03
439.13	1275.88
439.34	1134.57
439.54	1251.31
439.75	1261.55
439.95	1294.32
440.16	1234.93
440.36	1249.26
440.57	1279.98
440.77	1263.60
440.98	1243.12
441.18	1265.64
441.39	1214.45
441.59	1279.98
441.80	1224.69
442.00	1345.52
442.21	1279.98
442.41	1320.94
442.62	1259.50
442.82	1251.31
443.02	1241.07
443.23	1320.94
443.43	1290.22
443.64	1355.76
443.84	1271.79
444.05	1310.70
444.25	1318.89
444.46	1290.22
444.66	1306.60
444.87	1259.50
445.07	1251.31
445.28	1316.84
445.48	1302.51
445.69	1257.45
445.89	1327.08
446.09	1294.32
446.30	1312.75
446.50	1275.88
446.71	1269.74
446.91	1247.21
447.12	1298.41
447.32	1325.04
447.53	1304.56
447.73	1286.12
447.93	1306.60
448.14	1335.28
448.34	1284.08
448.55	1234.93
448.75	1380.33
448.96	1245.16
449.16	1337.32
449.36	1191.92
449.57	1222.64
449.77	1368.04
449.98	1222.64
450.18	1214.45
450.39	1355.76
450.59	1304.56
450.79	1304.56
451.00	1341.42
451.20	1267.69
451.41	1277.93
451.61	1253.36
451.81	1277.93
452.02	1288.17
452.22	1294.32
452.43	1273.84
452.63	1257.45
