SpectraSuite Data File
++++++++++++++++++++++++++++++++++++
Date: Sun Apr 03 19:55:46 CEST 2016
User: root
Dark Spectrum Present: No
Reference Spectrum Present: No
Number of Sampled Component Spectra: 1
Spectrometers: USB4C02835
Integration Time (usec): 10000 (USB4C02835)
Spectra Averaged: 1 (USB4C02835)
Boxcar Smoothing: 0 (USB4C02835)
Correct for Electrical Dark: No (USB4C02835)
Strobe/Lamp Enabled: No (USB4C02835)
Correct for Detector Non-linearity: No (USB4C02835)
Correct for Stray Light: No (USB4C02835)
Number of Pixels in Processed Spectrum: 3648
>>>>>Begin Processed Spectral Data<<<<<
177.47	1196.01
177.69	1196.01
177.91	1196.01
178.13	1245.16
178.36	1206.25
178.58	1234.93
178.80	1263.60
179.02	1292.27
179.24	1298.41
179.46	1228.78
179.68	1167.34
179.90	1206.25
180.13	1298.41
180.35	1226.73
180.57	1286.12
180.79	1308.65
181.01	1216.49
181.23	1259.50
181.45	1269.74
181.67	1284.08
181.90	1302.51
182.12	1239.02
182.34	1245.16
182.56	1236.97
182.78	1234.93
183.00	1259.50
183.22	1239.02
183.44	1302.51
183.66	1263.60
183.89	1218.54
184.11	1277.93
184.33	1308.65
184.55	1335.28
184.77	1253.36
184.99	1290.22
185.21	1271.79
185.43	1331.18
185.65	1257.45
185.87	1171.44
186.10	1286.12
186.32	1292.27
186.54	1265.64
186.76	1241.07
186.98	1327.08
187.20	1222.64
187.42	1243.12
187.64	1202.16
187.86	1304.56
188.08	1290.22
188.30	1239.02
188.52	1216.49
188.75	1286.12
188.97	1259.50
189.19	1259.50
189.41	1243.12
189.63	1325.04
189.85	1286.12
190.07	1241.07
190.29	1316.84
190.51	1261.55
190.73	1232.88
190.95	1271.79
191.17	1245.16
191.39	1220.59
191.61	1275.88
191.84	1273.84
192.06	1288.17
192.28	1236.97
192.50	1257.45
192.72	1286.12
192.94	1265.64
193.16	1232.88
193.38	1290.22
193.60	1230.83
193.82	1251.31
194.04	1290.22
194.26	1191.92
194.48	1284.08
194.70	1327.08
194.92	1267.69
195.14	1251.31
195.36	1245.16
195.58	1243.12
195.80	1349.61
196.02	1216.49
196.24	1269.74
196.46	1241.07
196.69	1288.17
196.91	1318.89
197.13	1288.17
197.35	1247.21
197.57	1247.21
197.79	1325.04
198.01	1310.70
198.23	1249.26
198.45	1306.60
198.67	1279.98
198.89	1214.45
199.11	1288.17
199.33	1290.22
199.55	1263.60
199.77	1249.26
199.99	1167.34
200.21	1255.40
200.43	1271.79
200.65	1261.55
200.87	1259.50
201.09	1245.16
201.31	1322.99
201.53	1267.69
201.75	1296.36
201.97	1265.64
202.19	1341.42
202.41	1322.99
202.63	1265.64
202.85	1300.46
203.07	1226.73
203.29	1298.41
203.51	1263.60
203.73	1236.97
203.95	1286.12
204.17	1273.84
204.39	1267.69
204.61	1290.22
204.83	1193.97
205.05	1292.27
205.27	1259.50
205.49	1302.51
205.71	1265.64
205.93	1255.40
206.15	1236.97
206.37	1247.21
206.59	1243.12
206.81	1193.97
207.03	1236.97
207.25	1222.64
207.47	1320.94
207.69	1249.26
207.91	1265.64
208.13	1269.74
208.34	1208.30
208.56	1216.49
208.78	1277.93
209.00	1245.16
209.22	1271.79
209.44	1325.04
209.66	1236.97
209.88	1271.79
210.10	1316.84
210.32	1175.53
210.54	1286.12
210.76	1189.87
210.98	1284.08
211.20	1218.54
211.42	1314.80
211.64	1312.75
211.86	1253.36
212.08	1277.93
212.30	1284.08
212.52	1189.87
212.74	1251.31
212.96	1204.21
213.17	1239.02
213.39	1265.64
213.61	1304.56
213.83	1259.50
214.05	1271.79
214.27	1310.70
214.49	1257.45
214.71	1273.84
214.93	1269.74
215.15	1271.79
215.37	1208.30
215.59	1273.84
215.81	1284.08
216.03	1271.79
216.24	1271.79
216.46	1210.35
216.68	1222.64
216.90	1286.12
217.12	1263.60
217.34	1236.97
217.56	1310.70
217.78	1234.93
218.00	1310.70
218.22	1265.64
218.44	1257.45
218.66	1294.32
218.87	1259.50
219.09	1253.36
219.31	1306.60
219.53	1230.83
219.75	1206.25
219.97	1298.41
220.19	1261.55
220.41	1284.08
220.63	1314.80
220.85	1271.79
221.06	1290.22
221.28	1230.83
221.50	1222.64
221.72	1224.69
221.94	1265.64
222.16	1320.94
222.38	1282.03
222.60	1236.97
222.82	1259.50
223.03	1257.45
223.25	1232.88
223.47	1265.64
223.69	1261.55
223.91	1294.32
224.13	1236.97
224.35	1230.83
224.57	1308.65
224.78	1271.79
225.00	1310.70
225.22	1214.45
225.44	1294.32
225.66	1218.54
225.88	1208.30
226.10	1232.88
226.32	1290.22
226.53	1277.93
226.75	1296.36
226.97	1277.93
227.19	1277.93
227.41	1327.08
227.63	1296.36
227.85	1212.40
228.06	1202.16
228.28	1347.56
228.50	1304.56
228.72	1277.93
228.94	1320.94
229.16	1247.21
229.37	1366.00
229.59	1282.03
229.81	1296.36
230.03	1292.27
230.25	1208.30
230.47	1245.16
230.69	1267.69
230.90	1279.98
231.12	1222.64
231.34	1232.88
231.56	1196.01
231.78	1222.64
232.00	1298.41
232.21	1271.79
232.43	1298.41
232.65	1290.22
232.87	1249.26
233.09	1296.36
233.30	1292.27
233.52	1263.60
233.74	1259.50
233.96	1232.88
234.18	1269.74
234.40	1314.80
234.61	1279.98
234.83	1247.21
235.05	1226.73
235.27	1255.40
235.49	1234.93
235.70	1275.88
235.92	1284.08
236.14	1241.07
236.36	1265.64
236.58	1208.30
236.79	1267.69
237.01	1259.50
237.23	1296.36
237.45	1261.55
237.67	1236.97
237.88	1232.88
238.10	1306.60
238.32	1255.40
238.54	1306.60
238.76	1200.11
238.97	1312.75
239.19	1251.31
239.41	1239.02
239.63	1261.55
239.85	1282.03
240.06	1349.61
240.28	1247.21
240.50	1282.03
240.72	1249.26
240.93	1286.12
241.15	1325.04
241.37	1239.02
241.59	1298.41
241.81	1322.99
242.02	1257.45
242.24	1316.84
242.46	1247.21
242.68	1236.97
242.89	1257.45
243.11	1300.46
243.33	1253.36
243.55	1236.97
243.76	1241.07
243.98	1327.08
244.20	1298.41
244.42	1153.01
244.64	1245.16
244.85	1208.30
245.07	1329.13
245.29	1185.77
245.51	1249.26
245.72	1153.01
245.94	1337.32
246.16	1253.36
246.38	1216.49
246.59	1255.40
246.81	1292.27
247.03	1269.74
247.24	1241.07
247.46	1259.50
247.68	1282.03
247.90	1257.45
248.11	1210.35
248.33	1298.41
248.55	1331.18
248.77	1234.93
248.98	1312.75
249.20	1296.36
249.42	1306.60
249.64	1257.45
249.85	1314.80
250.07	1189.87
250.29	1351.66
250.50	1230.83
250.72	1331.18
250.94	1327.08
251.16	1271.79
251.37	1181.68
251.59	1257.45
251.81	1300.46
252.02	1214.45
252.24	1236.97
252.46	1249.26
252.68	1320.94
252.89	1202.16
253.11	1308.65
253.33	1290.22
253.54	1236.97
253.76	1251.31
253.98	1308.65
254.20	1259.50
254.41	1343.47
254.63	1277.93
254.85	1265.64
255.06	1263.60
255.28	1239.02
255.50	1290.22
255.71	1277.93
255.93	1277.93
256.15	1267.69
256.36	1279.98
256.58	1255.40
256.80	1232.88
257.02	1292.27
257.23	1296.36
257.45	1224.69
257.67	1236.97
257.88	1282.03
258.10	1277.93
258.32	1298.41
258.53	1243.12
258.75	1282.03
258.97	1259.50
259.18	1320.94
259.40	1228.78
259.62	1290.22
259.83	1290.22
260.05	1232.88
260.27	1265.64
260.48	1275.88
260.70	1249.26
260.92	1279.98
261.13	1318.89
261.35	1333.23
261.57	1351.66
261.78	1224.69
262.00	1230.83
262.22	1216.49
262.43	1298.41
262.65	1202.16
262.86	1234.93
263.08	1271.79
263.30	1239.02
263.51	1251.31
263.73	1255.40
263.95	1245.16
264.16	1193.97
264.38	1282.03
264.60	1265.64
264.81	1265.64
265.03	1282.03
265.25	1304.56
265.46	1275.88
265.68	1230.83
265.89	1226.73
266.11	1224.69
266.33	1306.60
266.54	1316.84
266.76	1284.08
266.98	1318.89
267.19	1267.69
267.41	1322.99
267.62	1257.45
267.84	1267.69
268.06	1304.56
268.27	1282.03
268.49	1284.08
268.70	1279.98
268.92	1234.93
269.14	1212.40
269.35	1300.46
269.57	1249.26
269.79	1236.97
270.00	1261.55
270.22	1282.03
270.43	1232.88
270.65	1282.03
270.87	1284.08
271.08	1347.56
271.30	1288.17
271.51	1331.18
271.73	1308.65
271.95	1327.08
272.16	1269.74
272.38	1286.12
272.59	1251.31
272.81	1314.80
273.02	1232.88
273.24	1282.03
273.46	1292.27
273.67	1322.99
273.89	1228.78
274.10	1284.08
274.32	1216.49
274.54	1263.60
274.75	1218.54
274.97	1296.36
275.18	1279.98
275.40	1263.60
275.61	1243.12
275.83	1206.25
276.05	1255.40
276.26	1296.36
276.48	1251.31
276.69	1261.55
276.91	1304.56
277.12	1349.61
277.34	1210.35
277.55	1265.64
277.77	1239.02
277.99	1263.60
278.20	1294.32
278.42	1267.69
278.63	1226.73
278.85	1265.64
279.06	1265.64
279.28	1228.78
279.49	1288.17
279.71	1290.22
279.93	1279.98
280.14	1294.32
280.36	1267.69
280.57	1329.13
280.79	1267.69
281.00	1228.78
281.22	1249.26
281.43	1282.03
281.65	1251.31
281.86	1282.03
282.08	1294.32
282.29	1234.93
282.51	1198.06
282.73	1253.36
282.94	1191.92
283.16	1294.32
283.37	1236.97
283.59	1236.97
283.80	1214.45
284.02	1247.21
284.23	1234.93
284.45	1208.30
284.66	1198.06
284.88	1290.22
285.09	1257.45
285.31	1257.45
285.52	1298.41
285.74	1239.02
285.95	1220.59
286.17	1236.97
286.38	1198.06
286.60	1290.22
286.81	1243.12
287.03	1255.40
287.24	1333.23
287.46	1222.64
287.67	1271.79
287.89	1306.60
288.10	1226.73
288.32	1247.21
288.53	1286.12
288.75	1224.69
288.96	1232.88
289.18	1210.35
289.39	1241.07
289.61	1239.02
289.82	1265.64
290.04	1312.75
290.25	1300.46
290.47	1290.22
290.68	1257.45
290.90	1216.49
291.11	1310.70
291.33	1222.64
291.54	1243.12
291.76	1253.36
291.97	1224.69
292.18	1353.71
292.40	1290.22
292.61	1228.78
292.83	1243.12
293.04	1286.12
293.26	1316.84
293.47	1271.79
293.69	1284.08
293.90	1302.51
294.12	1294.32
294.33	1257.45
294.55	1251.31
294.76	1314.80
294.97	1269.74
295.19	1282.03
295.40	1210.35
295.62	1239.02
295.83	1284.08
296.05	1331.18
296.26	1318.89
296.48	1267.69
296.69	1318.89
296.90	1269.74
297.12	1261.55
297.33	1251.31
297.55	1312.75
297.76	1202.16
297.98	1292.27
298.19	1275.88
298.41	1253.36
298.62	1273.84
298.83	1312.75
299.05	1288.17
299.26	1257.45
299.48	1232.88
299.69	1261.55
299.90	1314.80
300.12	1196.01
300.33	1230.83
300.55	1234.93
300.76	1247.21
300.98	1251.31
301.19	1249.26
301.40	1230.83
301.62	1257.45
301.83	1181.68
302.05	1198.06
302.26	1226.73
302.47	1273.84
302.69	1286.12
302.90	1284.08
303.12	1259.50
303.33	1271.79
303.54	1275.88
303.76	1230.83
303.97	1232.88
304.19	1265.64
304.40	1298.41
304.61	1316.84
304.83	1241.07
305.04	1290.22
305.26	1269.74
305.47	1218.54
305.68	1296.36
305.90	1286.12
306.11	1308.65
306.33	1228.78
306.54	1273.84
306.75	1249.26
306.97	1292.27
307.18	1259.50
307.39	1335.28
307.61	1331.18
307.82	1212.40
308.04	1339.37
308.25	1218.54
308.46	1282.03
308.68	1290.22
308.89	1331.18
309.10	1236.97
309.32	1265.64
309.53	1304.56
309.74	1230.83
309.96	1198.06
310.17	1327.08
310.39	1230.83
310.60	1261.55
310.81	1253.36
311.03	1271.79
311.24	1284.08
311.45	1322.99
311.67	1322.99
311.88	1290.22
312.09	1275.88
312.31	1279.98
312.52	1302.51
312.73	1292.27
312.95	1269.74
313.16	1271.79
313.37	1263.60
313.59	1288.17
313.80	1249.26
314.01	1275.88
314.23	1236.97
314.44	1273.84
314.65	1335.28
314.87	1322.99
315.08	1230.83
315.29	1216.49
315.51	1222.64
315.72	1253.36
315.93	1345.52
316.15	1193.97
316.36	1273.84
316.57	1261.55
316.79	1265.64
317.00	1214.45
317.21	1279.98
317.43	1282.03
317.64	1236.97
317.85	1277.93
318.07	1224.69
318.28	1218.54
318.49	1310.70
318.70	1245.16
318.92	1271.79
319.13	1282.03
319.34	1308.65
319.56	1316.84
319.77	1335.28
319.98	1245.16
320.20	1257.45
320.41	1265.64
320.62	1277.93
320.83	1312.75
321.05	1249.26
321.26	1236.97
321.47	1320.94
321.69	1296.36
321.90	1269.74
322.11	1267.69
322.32	1300.46
322.54	1282.03
322.75	1241.07
322.96	1302.51
323.18	1245.16
323.39	1259.50
323.60	1286.12
323.81	1302.51
324.03	1232.88
324.24	1298.41
324.45	1222.64
324.66	1292.27
324.88	1191.92
325.09	1286.12
325.30	1286.12
325.52	1253.36
325.73	1202.16
325.94	1253.36
326.15	1300.46
326.37	1288.17
326.58	1222.64
326.79	1271.79
327.00	1277.93
327.22	1255.40
327.43	1220.59
327.64	1282.03
327.85	1273.84
328.07	1173.49
328.28	1210.35
328.49	1316.84
328.70	1302.51
328.92	1255.40
329.13	1261.55
329.34	1282.03
329.55	1312.75
329.76	1267.69
329.98	1191.92
330.19	1271.79
330.40	1333.23
330.61	1245.16
330.83	1218.54
331.04	1249.26
331.25	1282.03
331.46	1351.66
331.68	1300.46
331.89	1316.84
332.10	1310.70
332.31	1271.79
332.52	1204.21
332.74	1216.49
332.95	1189.87
333.16	1220.59
333.37	1249.26
333.58	1279.98
333.80	1292.27
334.01	1173.49
334.22	1310.70
334.43	1247.21
334.64	1265.64
334.86	1230.83
335.07	1296.36
335.28	1245.16
335.49	1249.26
335.70	1282.03
335.92	1279.98
336.13	1239.02
336.34	1243.12
336.55	1335.28
336.76	1302.51
336.98	1282.03
337.19	1224.69
337.40	1327.08
337.61	1222.64
337.82	1245.16
338.04	1302.51
338.25	1267.69
338.46	1300.46
338.67	1312.75
338.88	1218.54
339.09	1261.55
339.31	1261.55
339.52	1296.36
339.73	1269.74
339.94	1304.56
340.15	1257.45
340.36	1275.88
340.58	1302.51
340.79	1247.21
341.00	1161.20
341.21	1310.70
341.42	1245.16
341.63	1275.88
341.85	1290.22
342.06	1257.45
342.27	1214.45
342.48	1265.64
342.69	1279.98
342.90	1310.70
343.12	1282.03
343.33	1284.08
343.54	1214.45
343.75	1298.41
343.96	1241.07
344.17	1296.36
344.38	1261.55
344.60	1292.27
344.81	1327.08
345.02	1290.22
345.23	1247.21
345.44	1218.54
345.65	1277.93
345.86	1265.64
346.07	1277.93
346.29	1327.08
346.50	1294.32
346.71	1204.21
346.92	1253.36
347.13	1243.12
347.34	1318.89
347.55	1292.27
347.76	1200.11
347.98	1165.29
348.19	1200.11
348.40	1273.84
348.61	1284.08
348.82	1247.21
349.03	1236.97
349.24	1302.51
349.45	1220.59
349.66	1234.93
349.88	1236.97
350.09	1236.97
350.30	1253.36
350.51	1212.40
350.72	1286.12
350.93	1343.47
351.14	1277.93
351.35	1296.36
351.56	1310.70
351.77	1282.03
351.99	1273.84
352.20	1306.60
352.41	1282.03
352.62	1279.98
352.83	1255.40
353.04	1306.60
353.25	1288.17
353.46	1329.13
353.67	1239.02
353.88	1304.56
354.09	1275.88
354.30	1255.40
354.52	1292.27
354.73	1249.26
354.94	1261.55
355.15	1228.78
355.36	1224.69
355.57	1329.13
355.78	1290.22
355.99	1241.07
356.20	1257.45
356.41	1259.50
356.62	1245.16
356.83	1300.46
357.04	1191.92
357.25	1273.84
357.46	1185.77
357.68	1189.87
357.89	1314.80
358.10	1265.64
358.31	1234.93
358.52	1294.32
358.73	1267.69
358.94	1236.97
359.15	1198.06
359.36	1269.74
359.57	1232.88
359.78	1230.83
359.99	1236.97
360.20	1298.41
360.41	1302.51
360.62	1292.27
360.83	1198.06
361.04	1337.32
361.25	1284.08
361.46	1222.64
361.67	1284.08
361.88	1265.64
362.09	1212.40
362.30	1259.50
362.51	1284.08
362.72	1398.76
362.93	1222.64
363.14	1286.12
363.35	1265.64
363.56	1341.42
363.78	1271.79
363.99	1245.16
364.20	1257.45
364.41	1286.12
364.62	1249.26
364.83	1316.84
365.04	1275.88
365.25	1255.40
365.46	1279.98
365.67	1279.98
365.88	1234.93
366.09	1288.17
366.30	1331.18
366.51	1294.32
366.72	1243.12
366.93	1228.78
367.14	1228.78
367.35	1300.46
367.56	1263.60
367.77	1243.12
367.98	1269.74
368.18	1253.36
368.39	1222.64
368.60	1259.50
368.81	1306.60
369.02	1247.21
369.23	1290.22
369.44	1271.79
369.65	1224.69
369.86	1265.64
370.07	1267.69
370.28	1273.84
370.49	1263.60
370.70	1279.98
370.91	1249.26
371.12	1335.28
371.33	1249.26
371.54	1253.36
371.75	1292.27
371.96	1286.12
372.17	1308.65
372.38	1161.20
372.59	1296.36
372.80	1230.83
373.01	1265.64
373.22	1245.16
373.43	1208.30
373.64	1271.79
373.85	1255.40
374.06	1214.45
374.26	1306.60
374.47	1273.84
374.68	1275.88
374.89	1290.22
375.10	1288.17
375.31	1306.60
375.52	1261.55
375.73	1183.73
375.94	1234.93
376.15	1282.03
376.36	1239.02
376.57	1314.80
376.78	1243.12
376.99	1261.55
377.20	1337.32
377.40	1292.27
377.61	1279.98
377.82	1284.08
378.03	1339.37
378.24	1288.17
378.45	1243.12
378.66	1282.03
378.87	1275.88
379.08	1216.49
379.29	1312.75
379.50	1282.03
379.71	1253.36
379.91	1249.26
380.12	1298.41
380.33	1275.88
380.54	1257.45
380.75	1228.78
380.96	1212.40
381.17	1288.17
381.38	1325.04
381.59	1155.05
381.80	1251.31
382.00	1325.04
382.21	1232.88
382.42	1388.52
382.63	1294.32
382.84	1298.41
383.05	1259.50
383.26	1241.07
383.47	1318.89
383.68	1273.84
383.88	1267.69
384.09	1226.73
384.30	1314.80
384.51	1275.88
384.72	1314.80
384.93	1284.08
385.14	1302.51
385.35	1306.60
385.55	1228.78
385.76	1234.93
385.97	1214.45
386.18	1290.22
386.39	1279.98
386.60	1224.69
386.81	1271.79
387.02	1269.74
387.22	1269.74
387.43	1294.32
387.64	1230.83
387.85	1247.21
388.06	1224.69
388.27	1288.17
388.48	1288.17
388.68	1298.41
388.89	1202.16
389.10	1218.54
389.31	1169.39
389.52	1279.98
389.73	1279.98
389.93	1300.46
390.14	1273.84
390.35	1316.84
390.56	1322.99
390.77	1322.99
390.98	1261.55
391.18	1273.84
391.39	1300.46
391.60	1263.60
391.81	1273.84
392.02	1253.36
392.23	1292.27
392.43	1298.41
392.64	1249.26
392.85	1239.02
393.06	1245.16
393.27	1298.41
393.47	1288.17
393.68	1263.60
393.89	1247.21
394.10	1343.47
394.31	1325.04
394.52	1265.64
394.72	1312.75
394.93	1286.12
395.14	1341.42
395.35	1261.55
395.56	1269.74
395.76	1243.12
395.97	1310.70
396.18	1230.83
396.39	1247.21
396.60	1288.17
396.80	1279.98
397.01	1347.56
397.22	1224.69
397.43	1304.56
397.64	1286.12
397.84	1337.32
398.05	1322.99
398.26	1226.73
398.47	1239.02
398.67	1277.93
398.88	1245.16
399.09	1290.22
399.30	1300.46
399.51	1302.51
399.71	1220.59
399.92	1290.22
400.13	1226.73
400.34	1249.26
400.54	1304.56
400.75	1298.41
400.96	1259.50
401.17	1271.79
401.37	1239.02
401.58	1189.87
401.79	1341.42
402.00	1251.31
402.21	1259.50
402.41	1271.79
402.62	1214.45
402.83	1222.64
403.04	1255.40
403.24	1241.07
403.45	1318.89
403.66	1218.54
403.87	1263.60
404.07	1316.84
404.28	1286.12
404.49	1325.04
404.70	1226.73
404.90	1263.60
405.11	1308.65
405.32	1302.51
405.52	1298.41
405.73	1277.93
405.94	1243.12
406.15	1200.11
406.35	1273.84
406.56	1308.65
406.77	1220.59
406.98	1294.32
407.18	1288.17
407.39	1314.80
407.60	1312.75
407.80	1271.79
408.01	1263.60
408.22	1298.41
408.43	1236.97
408.63	1343.47
408.84	1337.32
409.05	1284.08
409.25	1269.74
409.46	1249.26
409.67	1263.60
409.88	1228.78
410.08	1232.88
410.29	1337.32
410.50	1198.06
410.70	1277.93
410.91	1275.88
411.12	1271.79
411.32	1286.12
411.53	1257.45
411.74	1329.13
411.95	1279.98
412.15	1259.50
412.36	1265.64
412.57	1257.45
412.77	1320.94
412.98	1220.59
413.19	1292.27
413.39	1208.30
413.60	1230.83
413.81	1232.88
414.01	1273.84
414.22	1259.50
414.43	1232.88
414.63	1294.32
414.84	1282.03
415.05	1241.07
415.25	1249.26
415.46	1296.36
415.67	1306.60
415.87	1300.46
416.08	1249.26
416.29	1298.41
416.49	1298.41
416.70	1236.97
416.91	1288.17
417.11	1236.97
417.32	1306.60
417.53	1322.99
417.73	1265.64
417.94	1196.01
418.15	1239.02
418.35	1279.98
418.56	1302.51
418.77	1247.21
418.97	1292.27
419.18	1232.88
419.38	1230.83
419.59	1320.94
419.80	1320.94
420.00	1271.79
420.21	1290.22
420.42	1220.59
420.62	1269.74
420.83	1273.84
421.04	1232.88
421.24	1200.11
421.45	1187.82
421.65	1292.27
421.86	1204.21
422.07	1249.26
422.27	1271.79
422.48	1210.35
422.69	1269.74
422.89	1257.45
423.10	1308.65
423.30	1304.56
423.51	1255.40
423.72	1251.31
423.92	1325.04
424.13	1234.93
424.33	1279.98
424.54	1255.40
424.75	1261.55
424.95	1288.17
425.16	1284.08
425.36	1253.36
425.57	1161.20
425.78	1183.73
425.98	1269.74
426.19	1282.03
426.39	1224.69
426.60	1331.18
426.81	1239.02
427.01	1255.40
427.22	1304.56
427.42	1288.17
427.63	1333.23
427.83	1271.79
428.04	1243.12
428.25	1296.36
428.45	1304.56
428.66	1306.60
428.86	1298.41
429.07	1284.08
429.28	1243.12
429.48	1257.45
429.69	1257.45
429.89	1228.78
430.10	1249.26
430.30	1300.46
430.51	1273.84
430.71	1257.45
430.92	1316.84
431.13	1286.12
431.33	1247.21
431.54	1251.31
431.74	1282.03
431.95	1226.73
432.15	1249.26
432.36	1335.28
432.56	1279.98
432.77	1243.12
432.98	1265.64
433.18	1249.26
433.39	1322.99
433.59	1277.93
433.80	1255.40
434.00	1251.31
434.21	1310.70
434.41	1265.64
434.62	1288.17
434.82	1290.22
435.03	1249.26
435.23	1251.31
435.44	1257.45
435.64	1267.69
435.85	1257.45
436.06	1392.62
436.26	1273.84
436.47	1212.40
436.67	1251.31
436.88	1275.88
437.08	1298.41
437.29	1234.93
437.49	1271.79
437.70	1245.16
437.90	1239.02
438.11	1216.49
438.31	1232.88
438.52	1230.83
438.72	1302.51
438.93	1331.18
439.13	1286.12
439.34	1263.60
439.54	1292.27
439.75	1232.88
439.95	1302.51
440.16	1331.18
440.36	1314.80
440.57	1308.65
440.77	1304.56
440.98	1269.74
441.18	1288.17
441.39	1310.70
441.59	1279.98
441.80	1226.73
442.00	1271.79
442.21	1253.36
442.41	1310.70
442.62	1292.27
442.82	1245.16
443.02	1263.60
443.23	1304.56
443.43	1265.64
443.64	1361.90
443.84	1290.22
444.05	1304.56
444.25	1267.69
444.46	1322.99
444.66	1308.65
444.87	1249.26
445.07	1251.31
445.28	1337.32
445.48	1302.51
445.69	1257.45
445.89	1273.84
446.09	1363.95
446.30	1277.93
446.50	1275.88
446.71	1232.88
446.91	1245.16
447.12	1263.60
447.32	1263.60
447.53	1339.37
447.73	1261.55
447.93	1300.46
448.14	1267.69
448.34	1257.45
448.55	1363.95
448.75	1339.37
448.96	1335.28
449.16	1273.84
449.36	1302.51
449.57	1265.64
449.77	1275.88
449.98	1232.88
450.18	1322.99
450.39	1273.84
450.59	1284.08
450.79	1187.82
451.00	1265.64
451.20	1236.97
451.41	1288.17
451.61	1255.40
451.81	1236.97
452.02	1290.22
452.22	1327.08
452.43	1232.88
452.63	1308.65
