SpectraSuite Data File
++++++++++++++++++++++++++++++++++++
Date: Sun Apr 03 19:55:44 CEST 2016
User: root
Dark Spectrum Present: No
Reference Spectrum Present: No
Number of Sampled Component Spectra: 1
Spectrometers: USB4C02835
Integration Time (usec): 10000 (USB4C02835)
Spectra Averaged: 1 (USB4C02835)
Boxcar Smoothing: 0 (USB4C02835)
Correct for Electrical Dark: No (USB4C02835)
Strobe/Lamp Enabled: No (USB4C02835)
Correct for Detector Non-linearity: No (USB4C02835)
Correct for Stray Light: No (USB4C02835)
Number of Pixels in Processed Spectrum: 3648
>>>>>Begin Processed Spectral Data<<<<<
177.47	1314.80
177.69	1314.80
177.91	1314.80
178.13	1255.40
178.36	1259.50
178.58	1257.45
178.80	1247.21
179.02	1284.08
179.24	1253.36
179.46	1245.16
179.68	1316.84
179.90	1239.02
180.13	1370.09
180.35	1239.02
180.57	1292.27
180.79	1210.35
181.01	1241.07
181.23	1286.12
181.45	1275.88
181.67	1216.49
181.90	1183.73
182.12	1214.45
182.34	1222.64
182.56	1236.97
182.78	1273.84
183.00	1226.73
183.22	1290.22
183.44	1310.70
183.66	1230.83
183.89	1228.78
184.11	1271.79
184.33	1243.12
184.55	1247.21
184.77	1249.26
184.99	1304.56
185.21	1275.88
185.43	1302.51
185.65	1269.74
185.87	1253.36
186.10	1226.73
186.32	1316.84
186.54	1265.64
186.76	1257.45
186.98	1267.69
187.20	1284.08
187.42	1247.21
187.64	1267.69
187.86	1241.07
188.08	1216.49
188.30	1327.08
188.52	1236.97
188.75	1216.49
188.97	1206.25
189.19	1327.08
189.41	1216.49
189.63	1279.98
189.85	1263.60
190.07	1263.60
190.29	1277.93
190.51	1265.64
190.73	1249.26
190.95	1277.93
191.17	1288.17
191.39	1245.16
191.61	1212.40
191.84	1267.69
192.06	1265.64
192.28	1140.72
192.50	1345.52
192.72	1279.98
192.94	1327.08
193.16	1294.32
193.38	1249.26
193.60	1239.02
193.82	1259.50
194.04	1265.64
194.26	1216.49
194.48	1257.45
194.70	1267.69
194.92	1288.17
195.14	1286.12
195.36	1259.50
195.58	1230.83
195.80	1247.21
196.02	1273.84
196.24	1251.31
196.46	1279.98
196.69	1271.79
196.91	1259.50
197.13	1322.99
197.35	1177.58
197.57	1304.56
197.79	1335.28
198.01	1236.97
198.23	1224.69
198.45	1245.16
198.67	1255.40
198.89	1325.04
199.11	1241.07
199.33	1247.21
199.55	1245.16
199.77	1327.08
199.99	1292.27
200.21	1189.87
200.43	1224.69
200.65	1257.45
200.87	1191.92
201.09	1302.51
201.31	1236.97
201.53	1306.60
201.75	1175.53
201.97	1267.69
202.19	1294.32
202.41	1230.83
202.63	1273.84
202.85	1216.49
203.07	1275.88
203.29	1239.02
203.51	1277.93
203.73	1191.92
203.95	1259.50
204.17	1312.75
204.39	1245.16
204.61	1230.83
204.83	1249.26
205.05	1296.36
205.27	1288.17
205.49	1282.03
205.71	1230.83
205.93	1222.64
206.15	1251.31
206.37	1198.06
206.59	1308.65
206.81	1236.97
207.03	1312.75
207.25	1298.41
207.47	1216.49
207.69	1214.45
207.91	1335.28
208.13	1327.08
208.34	1286.12
208.56	1345.52
208.78	1253.36
209.00	1226.73
209.22	1267.69
209.44	1196.01
209.66	1306.60
209.88	1314.80
210.10	1273.84
210.32	1206.25
210.54	1300.46
210.76	1273.84
210.98	1171.44
211.20	1241.07
211.42	1191.92
211.64	1275.88
211.86	1300.46
212.08	1255.40
212.30	1294.32
212.52	1257.45
212.74	1347.56
212.96	1284.08
213.17	1214.45
213.39	1298.41
213.61	1224.69
213.83	1300.46
214.05	1232.88
214.27	1185.77
214.49	1239.02
214.71	1232.88
214.93	1284.08
215.15	1290.22
215.37	1294.32
215.59	1302.51
215.81	1265.64
216.03	1249.26
216.24	1327.08
216.46	1234.93
216.68	1210.35
216.90	1196.01
217.12	1267.69
217.34	1241.07
217.56	1331.18
217.78	1286.12
218.00	1269.74
218.22	1253.36
218.44	1218.54
218.66	1302.51
218.87	1310.70
219.09	1200.11
219.31	1298.41
219.53	1269.74
219.75	1239.02
219.97	1224.69
220.19	1230.83
220.41	1241.07
220.63	1269.74
220.85	1271.79
221.06	1341.42
221.28	1265.64
221.50	1314.80
221.72	1234.93
221.94	1236.97
222.16	1296.36
222.38	1279.98
222.60	1222.64
222.82	1292.27
223.03	1302.51
223.25	1236.97
223.47	1249.26
223.69	1282.03
223.91	1333.23
224.13	1204.21
224.35	1286.12
224.57	1257.45
224.78	1232.88
225.00	1277.93
225.22	1284.08
225.44	1206.25
225.66	1222.64
225.88	1310.70
226.10	1306.60
226.32	1269.74
226.53	1257.45
226.75	1271.79
226.97	1302.51
227.19	1298.41
227.41	1257.45
227.63	1310.70
227.85	1277.93
228.06	1200.11
228.28	1265.64
228.50	1277.93
228.72	1331.18
228.94	1259.50
229.16	1298.41
229.37	1345.52
229.59	1302.51
229.81	1259.50
230.03	1222.64
230.25	1300.46
230.47	1234.93
230.69	1263.60
230.90	1183.73
231.12	1255.40
231.34	1275.88
231.56	1241.07
231.78	1275.88
232.00	1314.80
232.21	1318.89
232.43	1251.31
232.65	1277.93
232.87	1290.22
233.09	1261.55
233.30	1273.84
233.52	1224.69
233.74	1329.13
233.96	1314.80
234.18	1300.46
234.40	1322.99
234.61	1271.79
234.83	1241.07
235.05	1282.03
235.27	1296.36
235.49	1318.89
235.70	1271.79
235.92	1347.56
236.14	1302.51
236.36	1298.41
236.58	1220.59
236.79	1249.26
237.01	1282.03
237.23	1234.93
237.45	1310.70
237.67	1273.84
237.88	1200.11
238.10	1320.94
238.32	1202.16
238.54	1239.02
238.76	1310.70
238.97	1243.12
239.19	1298.41
239.41	1359.85
239.63	1239.02
239.85	1277.93
240.06	1380.33
240.28	1282.03
240.50	1257.45
240.72	1228.78
240.93	1320.94
241.15	1259.50
241.37	1269.74
241.59	1273.84
241.81	1275.88
242.02	1333.23
242.24	1267.69
242.46	1224.69
242.68	1245.16
242.89	1284.08
243.11	1279.98
243.33	1253.36
243.55	1185.77
243.76	1234.93
243.98	1218.54
244.20	1243.12
244.42	1304.56
244.64	1312.75
244.85	1226.73
245.07	1300.46
245.29	1302.51
245.51	1337.32
245.72	1300.46
245.94	1304.56
246.16	1269.74
246.38	1236.97
246.59	1200.11
246.81	1265.64
247.03	1288.17
247.24	1320.94
247.46	1228.78
247.68	1279.98
247.90	1265.64
248.11	1306.60
248.33	1245.16
248.55	1230.83
248.77	1273.84
248.98	1306.60
249.20	1275.88
249.42	1353.71
249.64	1277.93
249.85	1230.83
250.07	1243.12
250.29	1294.32
250.50	1253.36
250.72	1245.16
250.94	1284.08
251.16	1294.32
251.37	1302.51
251.59	1277.93
251.81	1343.47
252.02	1349.61
252.24	1222.64
252.46	1351.66
252.68	1263.60
252.89	1251.31
253.11	1279.98
253.33	1279.98
253.54	1247.21
253.76	1275.88
253.98	1224.69
254.20	1288.17
254.41	1282.03
254.63	1259.50
254.85	1304.56
255.06	1282.03
255.28	1327.08
255.50	1251.31
255.71	1232.88
255.93	1263.60
256.15	1314.80
256.36	1247.21
256.58	1355.76
256.80	1300.46
257.02	1255.40
257.23	1232.88
257.45	1253.36
257.67	1353.71
257.88	1294.32
258.10	1196.01
258.32	1294.32
258.53	1322.99
258.75	1288.17
258.97	1251.31
259.18	1296.36
259.40	1294.32
259.62	1275.88
259.83	1275.88
260.05	1282.03
260.27	1314.80
260.48	1222.64
260.70	1222.64
260.92	1290.22
261.13	1265.64
261.35	1247.21
261.57	1267.69
261.78	1251.31
262.00	1212.40
262.22	1279.98
262.43	1345.52
262.65	1232.88
262.86	1279.98
263.08	1386.47
263.30	1193.97
263.51	1288.17
263.73	1249.26
263.95	1343.47
264.16	1284.08
264.38	1218.54
264.60	1296.36
264.81	1282.03
265.03	1230.83
265.25	1239.02
265.46	1298.41
265.68	1245.16
265.89	1179.63
266.11	1241.07
266.33	1259.50
266.54	1271.79
266.76	1234.93
266.98	1290.22
267.19	1294.32
267.41	1245.16
267.62	1247.21
267.84	1267.69
268.06	1282.03
268.27	1198.06
268.49	1349.61
268.70	1206.25
268.92	1263.60
269.14	1327.08
269.35	1243.12
269.57	1333.23
269.79	1259.50
270.00	1271.79
270.22	1308.65
270.43	1234.93
270.65	1212.40
270.87	1290.22
271.08	1265.64
271.30	1236.97
271.51	1282.03
271.73	1271.79
271.95	1253.36
272.16	1247.21
272.38	1378.28
272.59	1216.49
272.81	1314.80
273.02	1249.26
273.24	1284.08
273.46	1279.98
273.67	1261.55
273.89	1273.84
274.10	1200.11
274.32	1269.74
274.54	1279.98
274.75	1212.40
274.97	1294.32
275.18	1275.88
275.40	1275.88
275.61	1286.12
275.83	1265.64
276.05	1193.97
276.26	1296.36
276.48	1247.21
276.69	1257.45
276.91	1279.98
277.12	1306.60
277.34	1335.28
277.55	1202.16
277.77	1277.93
277.99	1273.84
278.20	1204.21
278.42	1269.74
278.63	1210.35
278.85	1173.49
279.06	1314.80
279.28	1200.11
279.49	1243.12
279.71	1304.56
279.93	1316.84
280.14	1282.03
280.36	1239.02
280.57	1310.70
280.79	1290.22
281.00	1302.51
281.22	1306.60
281.43	1294.32
281.65	1269.74
281.86	1271.79
282.08	1257.45
282.29	1257.45
282.51	1310.70
282.73	1251.31
282.94	1228.78
283.16	1329.13
283.37	1310.70
283.59	1263.60
283.80	1273.84
284.02	1322.99
284.23	1236.97
284.45	1277.93
284.66	1292.27
284.88	1310.70
285.09	1310.70
285.31	1255.40
285.52	1267.69
285.74	1261.55
285.95	1255.40
286.17	1282.03
286.38	1249.26
286.60	1312.75
286.81	1282.03
287.03	1284.08
287.24	1284.08
287.46	1292.27
287.67	1288.17
287.89	1273.84
288.10	1183.73
288.32	1298.41
288.53	1222.64
288.75	1257.45
288.96	1247.21
289.18	1359.85
289.39	1177.58
289.61	1279.98
289.82	1343.47
290.04	1314.80
290.25	1224.69
290.47	1271.79
290.68	1288.17
290.90	1304.56
291.11	1261.55
291.33	1251.31
291.54	1267.69
291.76	1279.98
291.97	1282.03
292.18	1230.83
292.40	1259.50
292.61	1290.22
292.83	1255.40
293.04	1290.22
293.26	1249.26
293.47	1288.17
293.69	1214.45
293.90	1288.17
294.12	1294.32
294.33	1271.79
294.55	1251.31
294.76	1251.31
294.97	1251.31
295.19	1267.69
295.40	1290.22
295.62	1241.07
295.83	1179.63
296.05	1345.52
296.26	1224.69
296.48	1327.08
296.69	1275.88
296.90	1267.69
297.12	1210.35
297.33	1292.27
297.55	1322.99
297.76	1316.84
297.98	1298.41
298.19	1327.08
298.41	1234.93
298.62	1216.49
298.83	1261.55
299.05	1310.70
299.26	1189.87
299.48	1202.16
299.69	1208.30
299.90	1204.21
300.12	1241.07
300.33	1224.69
300.55	1253.36
300.76	1282.03
300.98	1304.56
301.19	1245.16
301.40	1247.21
301.62	1279.98
301.83	1269.74
302.05	1300.46
302.26	1247.21
302.47	1277.93
302.69	1322.99
302.90	1284.08
303.12	1241.07
303.33	1320.94
303.54	1241.07
303.76	1304.56
303.97	1318.89
304.19	1236.97
304.40	1247.21
304.61	1232.88
304.83	1282.03
305.04	1273.84
305.26	1275.88
305.47	1269.74
305.68	1265.64
305.90	1273.84
306.11	1335.28
306.33	1228.78
306.54	1310.70
306.75	1302.51
306.97	1308.65
307.18	1267.69
307.39	1271.79
307.61	1353.71
307.82	1353.71
308.04	1255.40
308.25	1218.54
308.46	1308.65
308.68	1243.12
308.89	1232.88
309.10	1236.97
309.32	1181.68
309.53	1224.69
309.74	1279.98
309.96	1181.68
310.17	1265.64
310.39	1208.30
310.60	1200.11
310.81	1267.69
311.03	1277.93
311.24	1290.22
311.45	1312.75
311.67	1261.55
311.88	1296.36
312.09	1290.22
312.31	1288.17
312.52	1275.88
312.73	1267.69
312.95	1265.64
313.16	1333.23
313.37	1316.84
313.59	1302.51
313.80	1279.98
314.01	1331.18
314.23	1253.36
314.44	1214.45
314.65	1284.08
314.87	1308.65
315.08	1261.55
315.29	1322.99
315.51	1296.36
315.72	1175.53
315.93	1290.22
316.15	1282.03
316.36	1320.94
316.57	1247.21
316.79	1302.51
317.00	1263.60
317.21	1347.56
317.43	1312.75
317.64	1183.73
317.85	1239.02
318.07	1218.54
318.28	1290.22
318.49	1275.88
318.70	1302.51
318.92	1269.74
319.13	1273.84
319.34	1255.40
319.56	1298.41
319.77	1261.55
319.98	1298.41
320.20	1298.41
320.41	1290.22
320.62	1284.08
320.83	1265.64
321.05	1255.40
321.26	1241.07
321.47	1273.84
321.69	1306.60
321.90	1234.93
322.11	1261.55
322.32	1396.71
322.54	1269.74
322.75	1255.40
322.96	1284.08
323.18	1271.79
323.39	1288.17
323.60	1234.93
323.81	1279.98
324.03	1261.55
324.24	1226.73
324.45	1243.12
324.66	1288.17
324.88	1327.08
325.09	1279.98
325.30	1335.28
325.52	1298.41
325.73	1249.26
325.94	1304.56
326.15	1322.99
326.37	1234.93
326.58	1245.16
326.79	1257.45
327.00	1275.88
327.22	1251.31
327.43	1224.69
327.64	1282.03
327.85	1337.32
328.07	1261.55
328.28	1239.02
328.49	1239.02
328.70	1273.84
328.92	1286.12
329.13	1228.78
329.34	1261.55
329.55	1325.04
329.76	1236.97
329.98	1245.16
330.19	1255.40
330.40	1337.32
330.61	1296.36
330.83	1187.82
331.04	1337.32
331.25	1253.36
331.46	1298.41
331.68	1255.40
331.89	1253.36
332.10	1269.74
332.31	1230.83
332.52	1318.89
332.74	1239.02
332.95	1189.87
333.16	1239.02
333.37	1241.07
333.58	1279.98
333.80	1216.49
334.01	1257.45
334.22	1316.84
334.43	1298.41
334.64	1251.31
334.86	1294.32
335.07	1243.12
335.28	1267.69
335.49	1251.31
335.70	1253.36
335.92	1224.69
336.13	1261.55
336.34	1230.83
336.55	1269.74
336.76	1234.93
336.98	1241.07
337.19	1302.51
337.40	1257.45
337.61	1314.80
337.82	1245.16
338.04	1271.79
338.25	1226.73
338.46	1251.31
338.67	1351.66
338.88	1325.04
339.09	1202.16
339.31	1304.56
339.52	1265.64
339.73	1263.60
339.94	1247.21
340.15	1226.73
340.36	1243.12
340.58	1255.40
340.79	1247.21
341.00	1255.40
341.21	1263.60
341.42	1290.22
341.63	1306.60
341.85	1337.32
342.06	1257.45
342.27	1320.94
342.48	1249.26
342.69	1316.84
342.90	1255.40
343.12	1312.75
343.33	1202.16
343.54	1302.51
343.75	1318.89
343.96	1288.17
344.17	1267.69
344.38	1234.93
344.60	1243.12
344.81	1226.73
345.02	1251.31
345.23	1245.16
345.44	1257.45
345.65	1255.40
345.86	1269.74
346.07	1245.16
346.29	1292.27
346.50	1275.88
346.71	1259.50
346.92	1343.47
347.13	1249.26
347.34	1327.08
347.55	1329.13
347.76	1271.79
347.98	1249.26
348.19	1275.88
348.40	1241.07
348.61	1257.45
348.82	1306.60
349.03	1187.82
349.24	1196.01
349.45	1282.03
349.66	1259.50
349.88	1224.69
350.09	1355.76
350.30	1284.08
350.51	1329.13
350.72	1230.83
350.93	1206.25
351.14	1349.61
351.35	1329.13
351.56	1253.36
351.77	1290.22
351.99	1245.16
352.20	1308.65
352.41	1243.12
352.62	1249.26
352.83	1265.64
353.04	1259.50
353.25	1273.84
353.46	1349.61
353.67	1253.36
353.88	1259.50
354.09	1366.00
354.30	1200.11
354.52	1230.83
354.73	1304.56
354.94	1245.16
355.15	1318.89
355.36	1239.02
355.57	1236.97
355.78	1261.55
355.99	1247.21
356.20	1284.08
356.41	1282.03
356.62	1296.36
356.83	1308.65
357.04	1370.09
357.25	1269.74
357.46	1286.12
357.68	1239.02
357.89	1284.08
358.10	1259.50
358.31	1300.46
358.52	1218.54
358.73	1173.49
358.94	1261.55
359.15	1372.14
359.36	1275.88
359.57	1228.78
359.78	1251.31
359.99	1302.51
360.20	1257.45
360.41	1216.49
360.62	1241.07
360.83	1208.30
361.04	1222.64
361.25	1277.93
361.46	1255.40
361.67	1222.64
361.88	1265.64
362.09	1263.60
362.30	1310.70
362.51	1286.12
362.72	1230.83
362.93	1224.69
363.14	1255.40
363.35	1288.17
363.56	1282.03
363.78	1263.60
363.99	1288.17
364.20	1234.93
364.41	1279.98
364.62	1249.26
364.83	1245.16
365.04	1249.26
365.25	1265.64
365.46	1208.30
365.67	1257.45
365.88	1294.32
366.09	1200.11
366.30	1282.03
366.51	1269.74
366.72	1308.65
366.93	1212.40
367.14	1335.28
367.35	1265.64
367.56	1322.99
367.77	1306.60
367.98	1286.12
368.18	1212.40
368.39	1255.40
368.60	1241.07
368.81	1341.42
369.02	1294.32
369.23	1265.64
369.44	1261.55
369.65	1269.74
369.86	1288.17
370.07	1255.40
370.28	1316.84
370.49	1257.45
370.70	1261.55
370.91	1239.02
371.12	1296.36
371.33	1243.12
371.54	1320.94
371.75	1239.02
371.96	1226.73
372.17	1370.09
372.38	1286.12
372.59	1216.49
372.80	1259.50
373.01	1241.07
373.22	1259.50
373.43	1300.46
373.64	1263.60
373.85	1298.41
374.06	1279.98
374.26	1322.99
374.47	1288.17
374.68	1273.84
374.89	1339.37
375.10	1259.50
375.31	1226.73
375.52	1208.30
375.73	1314.80
375.94	1202.16
376.15	1288.17
376.36	1277.93
376.57	1267.69
376.78	1234.93
376.99	1247.21
377.20	1318.89
377.40	1206.25
377.61	1245.16
377.82	1245.16
378.03	1261.55
378.24	1234.93
378.45	1259.50
378.66	1300.46
378.87	1247.21
379.08	1273.84
379.29	1302.51
379.50	1322.99
379.71	1279.98
379.91	1243.12
380.12	1271.79
380.33	1288.17
380.54	1257.45
380.75	1370.09
380.96	1265.64
381.17	1243.12
381.38	1230.83
381.59	1284.08
381.80	1247.21
382.00	1169.39
382.21	1261.55
382.42	1288.17
382.63	1282.03
382.84	1224.69
383.05	1177.58
383.26	1310.70
383.47	1259.50
383.68	1267.69
383.88	1269.74
384.09	1273.84
384.30	1253.36
384.51	1306.60
384.72	1314.80
384.93	1204.21
385.14	1241.07
385.35	1331.18
385.55	1329.13
385.76	1335.28
385.97	1286.12
386.18	1263.60
386.39	1292.27
386.60	1355.76
386.81	1286.12
387.02	1286.12
387.22	1339.37
387.43	1222.64
387.64	1300.46
387.85	1228.78
388.06	1253.36
388.27	1236.97
388.48	1322.99
388.68	1214.45
388.89	1228.78
389.10	1318.89
389.31	1239.02
389.52	1304.56
389.73	1308.65
389.93	1228.78
390.14	1275.88
390.35	1316.84
390.56	1255.40
390.77	1214.45
390.98	1265.64
391.18	1275.88
391.39	1251.31
391.60	1220.59
391.81	1306.60
392.02	1284.08
392.23	1253.36
392.43	1263.60
392.64	1236.97
392.85	1208.30
393.06	1347.56
393.27	1253.36
393.47	1251.31
393.68	1316.84
393.89	1249.26
394.10	1296.36
394.31	1241.07
394.52	1236.97
394.72	1187.82
394.93	1259.50
395.14	1239.02
395.35	1214.45
395.56	1265.64
395.76	1204.21
395.97	1259.50
396.18	1259.50
396.39	1304.56
396.60	1247.21
396.80	1234.93
397.01	1230.83
397.22	1267.69
397.43	1296.36
397.64	1265.64
397.84	1279.98
398.05	1259.50
398.26	1296.36
398.47	1243.12
398.67	1251.31
398.88	1236.97
399.09	1193.97
399.30	1226.73
399.51	1271.79
399.71	1257.45
399.92	1247.21
400.13	1271.79
400.34	1310.70
400.54	1282.03
400.75	1296.36
400.96	1331.18
401.17	1277.93
401.37	1292.27
401.58	1224.69
401.79	1310.70
402.00	1318.89
402.21	1316.84
402.41	1232.88
402.62	1290.22
402.83	1206.25
403.04	1241.07
403.24	1322.99
403.45	1249.26
403.66	1218.54
403.87	1302.51
404.07	1236.97
404.28	1284.08
404.49	1271.79
404.70	1318.89
404.90	1318.89
405.11	1300.46
405.32	1275.88
405.52	1249.26
405.73	1224.69
405.94	1226.73
406.15	1232.88
406.35	1253.36
406.56	1282.03
406.77	1245.16
406.98	1298.41
407.18	1314.80
407.39	1185.77
407.60	1228.78
407.80	1241.07
408.01	1224.69
408.22	1306.60
408.43	1282.03
408.63	1236.97
408.84	1234.93
409.05	1189.87
409.25	1261.55
409.46	1277.93
409.67	1216.49
409.88	1216.49
410.08	1257.45
410.29	1193.97
410.50	1290.22
410.70	1212.40
410.91	1298.41
411.12	1265.64
411.32	1290.22
411.53	1232.88
411.74	1249.26
411.95	1218.54
412.15	1218.54
412.36	1263.60
412.57	1286.12
412.77	1306.60
412.98	1298.41
413.19	1282.03
413.39	1224.69
413.60	1241.07
413.81	1267.69
414.01	1259.50
414.22	1310.70
414.43	1300.46
414.63	1187.82
414.84	1277.93
415.05	1279.98
415.25	1286.12
415.46	1257.45
415.67	1214.45
415.87	1308.65
416.08	1259.50
416.29	1263.60
416.49	1265.64
416.70	1279.98
416.91	1343.47
417.11	1245.16
417.32	1325.04
417.53	1277.93
417.73	1290.22
417.94	1314.80
418.15	1306.60
418.35	1234.93
418.56	1288.17
418.77	1335.28
418.97	1275.88
419.18	1288.17
419.38	1259.50
419.59	1218.54
419.80	1320.94
420.00	1257.45
420.21	1318.89
420.42	1255.40
420.62	1253.36
420.83	1329.13
421.04	1271.79
421.24	1263.60
421.45	1314.80
421.65	1298.41
421.86	1263.60
422.07	1279.98
422.27	1269.74
422.48	1257.45
422.69	1304.56
422.89	1228.78
423.10	1200.11
423.30	1247.21
423.51	1259.50
423.72	1214.45
423.92	1214.45
424.13	1247.21
424.33	1308.65
424.54	1241.07
424.75	1259.50
424.95	1273.84
425.16	1263.60
425.36	1333.23
425.57	1259.50
425.78	1310.70
425.98	1306.60
426.19	1263.60
426.39	1261.55
426.60	1265.64
426.81	1234.93
427.01	1265.64
427.22	1193.97
427.42	1247.21
427.63	1251.31
427.83	1259.50
428.04	1230.83
428.25	1263.60
428.45	1282.03
428.66	1239.02
428.86	1343.47
429.07	1265.64
429.28	1279.98
429.48	1212.40
429.69	1265.64
429.89	1261.55
430.10	1247.21
430.30	1288.17
430.51	1239.02
430.71	1314.80
430.92	1222.64
431.13	1290.22
431.33	1298.41
431.54	1249.26
431.74	1279.98
431.95	1310.70
432.15	1327.08
432.36	1267.69
432.56	1286.12
432.77	1224.69
432.98	1210.35
433.18	1290.22
433.39	1284.08
433.59	1243.12
433.80	1282.03
434.00	1310.70
434.21	1230.83
434.41	1228.78
434.62	1275.88
434.82	1193.97
435.03	1296.36
435.23	1277.93
435.44	1339.37
435.64	1296.36
435.85	1286.12
436.06	1306.60
436.26	1265.64
436.47	1241.07
436.67	1224.69
436.88	1239.02
437.08	1275.88
437.29	1300.46
437.49	1322.99
437.70	1279.98
437.90	1282.03
438.11	1245.16
438.31	1271.79
438.52	1316.84
438.72	1288.17
438.93	1372.14
439.13	1218.54
439.34	1318.89
439.54	1265.64
439.75	1263.60
439.95	1300.46
440.16	1339.37
440.36	1232.88
440.57	1273.84
440.77	1263.60
440.98	1290.22
441.18	1255.40
441.39	1255.40
441.59	1222.64
441.80	1255.40
442.00	1310.70
442.21	1253.36
442.41	1310.70
442.62	1257.45
442.82	1290.22
443.02	1218.54
443.23	1255.40
443.43	1273.84
443.64	1341.42
443.84	1236.97
444.05	1232.88
444.25	1239.02
444.46	1218.54
444.66	1288.17
444.87	1249.26
445.07	1294.32
445.28	1292.27
445.48	1263.60
445.69	1226.73
445.89	1302.51
446.09	1341.42
446.30	1267.69
446.50	1261.55
446.71	1249.26
446.91	1247.21
447.12	1263.60
447.32	1376.24
447.53	1253.36
447.73	1220.59
447.93	1273.84
448.14	1302.51
448.34	1361.90
448.55	1286.12
448.75	1284.08
448.96	1304.56
449.16	1269.74
449.36	1222.64
449.57	1271.79
449.77	1224.69
449.98	1277.93
450.18	1206.25
450.39	1257.45
450.59	1224.69
450.79	1269.74
451.00	1322.99
451.20	1239.02
451.41	1222.64
451.61	1257.45
451.81	1255.40
452.02	1251.31
452.22	1267.69
452.43	1239.02
452.63	1355.76
