SpectraSuite Data File
++++++++++++++++++++++++++++++++++++
Date: Sun Apr 03 19:55:21 CEST 2016
User: root
Dark Spectrum Present: No
Reference Spectrum Present: No
Number of Sampled Component Spectra: 1
Spectrometers: USB4C02835
Integration Time (usec): 10000 (USB4C02835)
Spectra Averaged: 1 (USB4C02835)
Boxcar Smoothing: 0 (USB4C02835)
Correct for Electrical Dark: No (USB4C02835)
Strobe/Lamp Enabled: No (USB4C02835)
Correct for Detector Non-linearity: No (USB4C02835)
Correct for Stray Light: No (USB4C02835)
Number of Pixels in Processed Spectrum: 3648
>>>>>Begin Processed Spectral Data<<<<<
177.47	1193.97
177.69	1193.97
177.91	1193.97
178.13	1222.64
178.36	1218.54
178.58	1204.21
178.80	1255.40
179.02	1279.98
179.24	1259.50
179.46	1294.32
179.68	1263.60
179.90	1234.93
180.13	1202.16
180.35	1241.07
180.57	1331.18
180.79	1226.73
181.01	1224.69
181.23	1300.46
181.45	1263.60
181.67	1327.08
181.90	1335.28
182.12	1275.88
182.34	1298.41
182.56	1243.12
182.78	1245.16
183.00	1241.07
183.22	1282.03
183.44	1269.74
183.66	1349.61
183.89	1263.60
184.11	1257.45
184.33	1216.49
184.55	1322.99
184.77	1318.89
184.99	1316.84
185.21	1251.31
185.43	1241.07
185.65	1243.12
185.87	1267.69
186.10	1206.25
186.32	1372.14
186.54	1279.98
186.76	1161.20
186.98	1204.21
187.20	1294.32
187.42	1267.69
187.64	1222.64
187.86	1218.54
188.08	1282.03
188.30	1171.44
188.52	1247.21
188.75	1259.50
188.97	1230.83
189.19	1251.31
189.41	1327.08
189.63	1261.55
189.85	1290.22
190.07	1245.16
190.29	1337.32
190.51	1351.66
190.73	1302.51
190.95	1257.45
191.17	1275.88
191.39	1292.27
191.61	1288.17
191.84	1284.08
192.06	1304.56
192.28	1300.46
192.50	1316.84
192.72	1320.94
192.94	1300.46
193.16	1310.70
193.38	1241.07
193.60	1255.40
193.82	1261.55
194.04	1282.03
194.26	1181.68
194.48	1298.41
194.70	1368.04
194.92	1265.64
195.14	1253.36
195.36	1214.45
195.58	1263.60
195.80	1212.40
196.02	1372.14
196.24	1320.94
196.46	1325.04
196.69	1222.64
196.91	1245.16
197.13	1257.45
197.35	1245.16
197.57	1243.12
197.79	1265.64
198.01	1329.13
198.23	1243.12
198.45	1245.16
198.67	1298.41
198.89	1241.07
199.11	1322.99
199.33	1263.60
199.55	1261.55
199.77	1310.70
199.99	1267.69
200.21	1257.45
200.43	1239.02
200.65	1279.98
200.87	1380.33
201.09	1349.61
201.31	1345.52
201.53	1232.88
201.75	1224.69
201.97	1290.22
202.19	1257.45
202.41	1249.26
202.63	1306.60
202.85	1150.96
203.07	1279.98
203.29	1239.02
203.51	1292.27
203.73	1241.07
203.95	1247.21
204.17	1282.03
204.39	1247.21
204.61	1267.69
204.83	1253.36
205.05	1286.12
205.27	1267.69
205.49	1288.17
205.71	1241.07
205.93	1212.40
206.15	1279.98
206.37	1273.84
206.59	1347.56
206.81	1263.60
207.03	1316.84
207.25	1243.12
207.47	1230.83
207.69	1232.88
207.91	1294.32
208.13	1253.36
208.34	1259.50
208.56	1298.41
208.78	1341.42
209.00	1282.03
209.22	1193.97
209.44	1249.26
209.66	1232.88
209.88	1361.90
210.10	1345.52
210.32	1247.21
210.54	1329.13
210.76	1232.88
210.98	1243.12
211.20	1251.31
211.42	1269.74
211.64	1214.45
211.86	1210.35
212.08	1251.31
212.30	1212.40
212.52	1277.93
212.74	1208.30
212.96	1265.64
213.17	1241.07
213.39	1226.73
213.61	1343.47
213.83	1253.36
214.05	1222.64
214.27	1206.25
214.49	1288.17
214.71	1286.12
214.93	1275.88
215.15	1296.36
215.37	1259.50
215.59	1234.93
215.81	1224.69
216.03	1253.36
216.24	1239.02
216.46	1243.12
216.68	1292.27
216.90	1357.80
217.12	1265.64
217.34	1230.83
217.56	1284.08
217.78	1243.12
218.00	1259.50
218.22	1333.23
218.44	1259.50
218.66	1239.02
218.87	1247.21
219.09	1224.69
219.31	1312.75
219.53	1322.99
219.75	1234.93
219.97	1239.02
220.19	1243.12
220.41	1273.84
220.63	1230.83
220.85	1249.26
221.06	1255.40
221.28	1222.64
221.50	1275.88
221.72	1269.74
221.94	1273.84
222.16	1279.98
222.38	1290.22
222.60	1239.02
222.82	1265.64
223.03	1245.16
223.25	1275.88
223.47	1329.13
223.69	1200.11
223.91	1200.11
224.13	1322.99
224.35	1288.17
224.57	1292.27
224.78	1275.88
225.00	1320.94
225.22	1241.07
225.44	1191.92
225.66	1234.93
225.88	1265.64
226.10	1214.45
226.32	1239.02
226.53	1306.60
226.75	1320.94
226.97	1314.80
227.19	1347.56
227.41	1255.40
227.63	1196.01
227.85	1216.49
228.06	1212.40
228.28	1249.26
228.50	1296.36
228.72	1263.60
228.94	1257.45
229.16	1304.56
229.37	1243.12
229.59	1314.80
229.81	1312.75
230.03	1230.83
230.25	1265.64
230.47	1300.46
230.69	1314.80
230.90	1304.56
231.12	1255.40
231.34	1288.17
231.56	1353.71
231.78	1204.21
232.00	1249.26
232.21	1312.75
232.43	1286.12
232.65	1243.12
232.87	1163.25
233.09	1271.79
233.30	1277.93
233.52	1247.21
233.74	1249.26
233.96	1249.26
234.18	1339.37
234.40	1173.49
234.61	1286.12
234.83	1312.75
235.05	1284.08
235.27	1169.39
235.49	1239.02
235.70	1245.16
235.92	1277.93
236.14	1261.55
236.36	1236.97
236.58	1239.02
236.79	1232.88
237.01	1196.01
237.23	1322.99
237.45	1286.12
237.67	1294.32
237.88	1245.16
238.10	1273.84
238.32	1245.16
238.54	1277.93
238.76	1214.45
238.97	1269.74
239.19	1306.60
239.41	1337.32
239.63	1298.41
239.85	1214.45
240.06	1214.45
240.28	1241.07
240.50	1275.88
240.72	1306.60
240.93	1325.04
241.15	1234.93
241.37	1325.04
241.59	1304.56
241.81	1271.79
242.02	1218.54
242.24	1290.22
242.46	1304.56
242.68	1353.71
242.89	1245.16
243.11	1300.46
243.33	1265.64
243.55	1263.60
243.76	1251.31
243.98	1232.88
244.20	1259.50
244.42	1263.60
244.64	1214.45
244.85	1265.64
245.07	1294.32
245.29	1247.21
245.51	1290.22
245.72	1351.66
245.94	1224.69
246.16	1290.22
246.38	1257.45
246.59	1228.78
246.81	1228.78
247.03	1349.61
247.24	1249.26
247.46	1310.70
247.68	1290.22
247.90	1259.50
248.11	1230.83
248.33	1263.60
248.55	1292.27
248.77	1212.40
248.98	1185.77
249.20	1263.60
249.42	1257.45
249.64	1226.73
249.85	1279.98
250.07	1279.98
250.29	1224.69
250.50	1257.45
250.72	1320.94
250.94	1335.28
251.16	1236.97
251.37	1275.88
251.59	1322.99
251.81	1255.40
252.02	1245.16
252.24	1269.74
252.46	1275.88
252.68	1288.17
252.89	1247.21
253.11	1267.69
253.33	1312.75
253.54	1261.55
253.76	1314.80
253.98	1236.97
254.20	1318.89
254.41	1310.70
254.63	1204.21
254.85	1255.40
255.06	1214.45
255.28	1314.80
255.50	1343.47
255.71	1249.26
255.93	1310.70
256.15	1236.97
256.36	1267.69
256.58	1288.17
256.80	1216.49
257.02	1241.07
257.23	1308.65
257.45	1327.08
257.67	1279.98
257.88	1243.12
258.10	1322.99
258.32	1339.37
258.53	1228.78
258.75	1196.01
258.97	1325.04
259.18	1183.73
259.40	1298.41
259.62	1292.27
259.83	1259.50
260.05	1286.12
260.27	1275.88
260.48	1249.26
260.70	1277.93
260.92	1306.60
261.13	1255.40
261.35	1247.21
261.57	1271.79
261.78	1234.93
262.00	1196.01
262.22	1286.12
262.43	1259.50
262.65	1220.59
262.86	1218.54
263.08	1239.02
263.30	1214.45
263.51	1230.83
263.73	1261.55
263.95	1234.93
264.16	1279.98
264.38	1230.83
264.60	1161.20
264.81	1245.16
265.03	1318.89
265.25	1241.07
265.46	1273.84
265.68	1378.28
265.89	1318.89
266.11	1214.45
266.33	1193.97
266.54	1286.12
266.76	1275.88
266.98	1290.22
267.19	1249.26
267.41	1282.03
267.62	1224.69
267.84	1259.50
268.06	1304.56
268.27	1263.60
268.49	1253.36
268.70	1167.34
268.92	1230.83
269.14	1230.83
269.35	1335.28
269.57	1198.06
269.79	1292.27
270.00	1339.37
270.22	1322.99
270.43	1314.80
270.65	1253.36
270.87	1290.22
271.08	1265.64
271.30	1222.64
271.51	1298.41
271.73	1273.84
271.95	1300.46
272.16	1296.36
272.38	1239.02
272.59	1273.84
272.81	1277.93
273.02	1312.75
273.24	1282.03
273.46	1232.88
273.67	1265.64
273.89	1251.31
274.10	1302.51
274.32	1320.94
274.54	1304.56
274.75	1322.99
274.97	1257.45
275.18	1236.97
275.40	1329.13
275.61	1234.93
275.83	1335.28
276.05	1298.41
276.26	1202.16
276.48	1181.68
276.69	1273.84
276.91	1236.97
277.12	1279.98
277.34	1284.08
277.55	1304.56
277.77	1249.26
277.99	1292.27
278.20	1239.02
278.42	1247.21
278.63	1236.97
278.85	1261.55
279.06	1269.74
279.28	1251.31
279.49	1353.71
279.71	1304.56
279.93	1230.83
280.14	1226.73
280.36	1245.16
280.57	1282.03
280.79	1193.97
281.00	1300.46
281.22	1247.21
281.43	1232.88
281.65	1275.88
281.86	1236.97
282.08	1333.23
282.29	1265.64
282.51	1224.69
282.73	1257.45
282.94	1310.70
283.16	1249.26
283.37	1253.36
283.59	1255.40
283.80	1232.88
284.02	1282.03
284.23	1296.36
284.45	1302.51
284.66	1230.83
284.88	1355.76
285.09	1255.40
285.31	1277.93
285.52	1286.12
285.74	1183.73
285.95	1253.36
286.17	1277.93
286.38	1357.80
286.60	1185.77
286.81	1263.60
287.03	1306.60
287.24	1267.69
287.46	1277.93
287.67	1243.12
287.89	1298.41
288.10	1220.59
288.32	1265.64
288.53	1273.84
288.75	1216.49
288.96	1292.27
289.18	1257.45
289.39	1249.26
289.61	1263.60
289.82	1279.98
290.04	1331.18
290.25	1355.76
290.47	1271.79
290.68	1234.93
290.90	1277.93
291.11	1290.22
291.33	1320.94
291.54	1300.46
291.76	1277.93
291.97	1284.08
292.18	1273.84
292.40	1243.12
292.61	1294.32
292.83	1341.42
293.04	1284.08
293.26	1269.74
293.47	1163.25
293.69	1302.51
293.90	1298.41
294.12	1234.93
294.33	1234.93
294.55	1339.37
294.76	1273.84
294.97	1300.46
295.19	1181.68
295.40	1247.21
295.62	1273.84
295.83	1232.88
296.05	1251.31
296.26	1261.55
296.48	1269.74
296.69	1294.32
296.90	1232.88
297.12	1322.99
297.33	1245.16
297.55	1239.02
297.76	1347.56
297.98	1290.22
298.19	1298.41
298.41	1200.11
298.62	1279.98
298.83	1318.89
299.05	1292.27
299.26	1212.40
299.48	1224.69
299.69	1290.22
299.90	1214.45
300.12	1282.03
300.33	1251.31
300.55	1265.64
300.76	1228.78
300.98	1316.84
301.19	1335.28
301.40	1322.99
301.62	1243.12
301.83	1236.97
302.05	1202.16
302.26	1243.12
302.47	1279.98
302.69	1275.88
302.90	1294.32
303.12	1267.69
303.33	1232.88
303.54	1347.56
303.76	1302.51
303.97	1230.83
304.19	1273.84
304.40	1284.08
304.61	1316.84
304.83	1232.88
305.04	1247.21
305.26	1284.08
305.47	1279.98
305.68	1277.93
305.90	1282.03
306.11	1284.08
306.33	1263.60
306.54	1306.60
306.75	1302.51
306.97	1320.94
307.18	1269.74
307.39	1277.93
307.61	1251.31
307.82	1265.64
308.04	1236.97
308.25	1261.55
308.46	1343.47
308.68	1302.51
308.89	1261.55
309.10	1271.79
309.32	1226.73
309.53	1251.31
309.74	1265.64
309.96	1286.12
310.17	1279.98
310.39	1376.24
310.60	1304.56
310.81	1206.25
311.03	1167.34
311.24	1259.50
311.45	1230.83
311.67	1212.40
311.88	1333.23
312.09	1263.60
312.31	1251.31
312.52	1253.36
312.73	1198.06
312.95	1306.60
313.16	1202.16
313.37	1351.66
313.59	1261.55
313.80	1257.45
314.01	1318.89
314.23	1304.56
314.44	1284.08
314.65	1320.94
314.87	1232.88
315.08	1284.08
315.29	1253.36
315.51	1361.90
315.72	1241.07
315.93	1265.64
316.15	1314.80
316.36	1179.63
316.57	1296.36
316.79	1187.82
317.00	1351.66
317.21	1284.08
317.43	1224.69
317.64	1290.22
317.85	1277.93
318.07	1294.32
318.28	1263.60
318.49	1202.16
318.70	1224.69
318.92	1331.18
319.13	1220.59
319.34	1175.53
319.56	1241.07
319.77	1224.69
319.98	1329.13
320.20	1243.12
320.41	1232.88
320.62	1253.36
320.83	1333.23
321.05	1241.07
321.26	1165.29
321.47	1210.35
321.69	1290.22
321.90	1298.41
322.11	1335.28
322.32	1189.87
322.54	1294.32
322.75	1253.36
322.96	1265.64
323.18	1222.64
323.39	1247.21
323.60	1232.88
323.81	1265.64
324.03	1345.52
324.24	1279.98
324.45	1218.54
324.66	1271.79
324.88	1228.78
325.09	1263.60
325.30	1325.04
325.52	1224.69
325.73	1290.22
325.94	1286.12
326.15	1187.82
326.37	1318.89
326.58	1296.36
326.79	1234.93
327.00	1232.88
327.22	1284.08
327.43	1312.75
327.64	1214.45
327.85	1239.02
328.07	1232.88
328.28	1239.02
328.49	1249.26
328.70	1239.02
328.92	1206.25
329.13	1251.31
329.34	1363.95
329.55	1306.60
329.76	1226.73
329.98	1300.46
330.19	1257.45
330.40	1239.02
330.61	1191.92
330.83	1249.26
331.04	1214.45
331.25	1239.02
331.46	1265.64
331.68	1273.84
331.89	1232.88
332.10	1191.92
332.31	1277.93
332.52	1279.98
332.74	1312.75
332.95	1206.25
333.16	1267.69
333.37	1275.88
333.58	1247.21
333.80	1226.73
334.01	1269.74
334.22	1322.99
334.43	1279.98
334.64	1273.84
334.86	1263.60
335.07	1239.02
335.28	1269.74
335.49	1200.11
335.70	1228.78
335.92	1261.55
336.13	1212.40
336.34	1273.84
336.55	1263.60
336.76	1249.26
336.98	1322.99
337.19	1261.55
337.40	1345.52
337.61	1292.27
337.82	1234.93
338.04	1335.28
338.25	1263.60
338.46	1284.08
338.67	1269.74
338.88	1257.45
339.09	1249.26
339.31	1269.74
339.52	1345.52
339.73	1253.36
339.94	1189.87
340.15	1251.31
340.36	1198.06
340.58	1288.17
340.79	1298.41
341.00	1275.88
341.21	1302.51
341.42	1314.80
341.63	1267.69
341.85	1273.84
342.06	1232.88
342.27	1232.88
342.48	1259.50
342.69	1253.36
342.90	1200.11
343.12	1306.60
343.33	1294.32
343.54	1312.75
343.75	1288.17
343.96	1251.31
344.17	1282.03
344.38	1286.12
344.60	1206.25
344.81	1261.55
345.02	1247.21
345.23	1222.64
345.44	1286.12
345.65	1236.97
345.86	1277.93
346.07	1247.21
346.29	1216.49
346.50	1241.07
346.71	1218.54
346.92	1239.02
347.13	1359.85
347.34	1275.88
347.55	1282.03
347.76	1296.36
347.98	1224.69
348.19	1271.79
348.40	1282.03
348.61	1275.88
348.82	1318.89
349.03	1198.06
349.24	1206.25
349.45	1327.08
349.66	1282.03
349.88	1226.73
350.09	1316.84
350.30	1300.46
350.51	1263.60
350.72	1284.08
350.93	1273.84
351.14	1257.45
351.35	1187.82
351.56	1230.83
351.77	1310.70
351.99	1331.18
352.20	1282.03
352.41	1277.93
352.62	1343.47
352.83	1361.90
353.04	1222.64
353.25	1193.97
353.46	1298.41
353.67	1249.26
353.88	1216.49
354.09	1218.54
354.30	1269.74
354.52	1277.93
354.73	1228.78
354.94	1325.04
355.15	1298.41
355.36	1245.16
355.57	1222.64
355.78	1269.74
355.99	1286.12
356.20	1277.93
356.41	1255.40
356.62	1339.37
356.83	1236.97
357.04	1318.89
357.25	1200.11
357.46	1288.17
357.68	1222.64
357.89	1329.13
358.10	1263.60
358.31	1232.88
358.52	1193.97
358.73	1267.69
358.94	1200.11
359.15	1243.12
359.36	1282.03
359.57	1222.64
359.78	1257.45
359.99	1353.71
360.20	1249.26
360.41	1298.41
360.62	1279.98
360.83	1187.82
361.04	1292.27
361.25	1255.40
361.46	1333.23
361.67	1204.21
361.88	1239.02
362.09	1322.99
362.30	1210.35
362.51	1185.77
362.72	1198.06
362.93	1234.93
363.14	1279.98
363.35	1167.34
363.56	1320.94
363.78	1208.30
363.99	1208.30
364.20	1261.55
364.41	1251.31
364.62	1312.75
364.83	1288.17
365.04	1259.50
365.25	1374.19
365.46	1277.93
365.67	1275.88
365.88	1294.32
366.09	1234.93
366.30	1224.69
366.51	1298.41
366.72	1271.79
366.93	1226.73
367.14	1282.03
367.35	1286.12
367.56	1247.21
367.77	1226.73
367.98	1224.69
368.18	1208.30
368.39	1267.69
368.60	1261.55
368.81	1265.64
369.02	1241.07
369.23	1333.23
369.44	1353.71
369.65	1282.03
369.86	1257.45
370.07	1308.65
370.28	1251.31
370.49	1300.46
370.70	1267.69
370.91	1183.73
371.12	1275.88
371.33	1331.18
371.54	1259.50
371.75	1175.53
371.96	1181.68
372.17	1259.50
372.38	1230.83
372.59	1222.64
372.80	1288.17
373.01	1300.46
373.22	1239.02
373.43	1284.08
373.64	1273.84
373.85	1271.79
374.06	1179.63
374.26	1253.36
374.47	1284.08
374.68	1210.35
374.89	1308.65
375.10	1284.08
375.31	1265.64
375.52	1310.70
375.73	1230.83
375.94	1286.12
376.15	1288.17
376.36	1279.98
376.57	1234.93
376.78	1282.03
376.99	1331.18
377.20	1273.84
377.40	1300.46
377.61	1282.03
377.82	1224.69
378.03	1325.04
378.24	1265.64
378.45	1265.64
378.66	1261.55
378.87	1236.97
379.08	1294.32
379.29	1216.49
379.50	1347.56
379.71	1298.41
379.91	1234.93
380.12	1282.03
380.33	1243.12
380.54	1247.21
380.75	1220.59
380.96	1325.04
381.17	1279.98
381.38	1265.64
381.59	1306.60
381.80	1251.31
382.00	1277.93
382.21	1286.12
382.42	1273.84
382.63	1308.65
382.84	1224.69
383.05	1322.99
383.26	1267.69
383.47	1204.21
383.68	1230.83
383.88	1288.17
384.09	1249.26
384.30	1316.84
384.51	1247.21
384.72	1312.75
384.93	1210.35
385.14	1320.94
385.35	1232.88
385.55	1153.01
385.76	1312.75
385.97	1271.79
386.18	1288.17
386.39	1282.03
386.60	1320.94
386.81	1243.12
387.02	1316.84
387.22	1316.84
387.43	1339.37
387.64	1296.36
387.85	1265.64
388.06	1257.45
388.27	1212.40
388.48	1322.99
388.68	1255.40
388.89	1212.40
389.10	1368.04
389.31	1251.31
389.52	1312.75
389.73	1271.79
389.93	1222.64
390.14	1232.88
390.35	1284.08
390.56	1329.13
390.77	1275.88
390.98	1341.42
391.18	1232.88
391.39	1314.80
391.60	1241.07
391.81	1286.12
392.02	1253.36
392.23	1257.45
392.43	1251.31
392.64	1345.52
392.85	1282.03
393.06	1218.54
393.27	1191.92
393.47	1245.16
393.68	1263.60
393.89	1261.55
394.10	1263.60
394.31	1241.07
394.52	1292.27
394.72	1261.55
394.93	1247.21
395.14	1284.08
395.35	1277.93
395.56	1263.60
395.76	1269.74
395.97	1284.08
396.18	1282.03
396.39	1241.07
396.60	1273.84
396.80	1265.64
397.01	1273.84
397.22	1361.90
397.43	1298.41
397.64	1234.93
397.84	1263.60
398.05	1241.07
398.26	1290.22
398.47	1245.16
398.67	1284.08
398.88	1277.93
399.09	1304.56
399.30	1261.55
399.51	1249.26
399.71	1298.41
399.92	1222.64
400.13	1232.88
400.34	1269.74
400.54	1327.08
400.75	1257.45
400.96	1312.75
401.17	1286.12
401.37	1300.46
401.58	1288.17
401.79	1277.93
402.00	1271.79
402.21	1218.54
402.41	1259.50
402.62	1224.69
402.83	1198.06
403.04	1277.93
403.24	1290.22
403.45	1247.21
403.66	1247.21
403.87	1245.16
404.07	1224.69
404.28	1275.88
404.49	1316.84
404.70	1322.99
404.90	1269.74
405.11	1234.93
405.32	1239.02
405.52	1316.84
405.73	1300.46
405.94	1230.83
406.15	1331.18
406.35	1320.94
406.56	1282.03
406.77	1243.12
406.98	1314.80
407.18	1251.31
407.39	1255.40
407.60	1204.21
407.80	1320.94
408.01	1286.12
408.22	1183.73
408.43	1232.88
408.63	1253.36
408.84	1187.82
409.05	1269.74
409.25	1200.11
409.46	1288.17
409.67	1198.06
409.88	1298.41
410.08	1173.49
410.29	1222.64
410.50	1325.04
410.70	1353.71
410.91	1265.64
411.12	1296.36
411.32	1320.94
411.53	1196.01
411.74	1288.17
411.95	1318.89
412.15	1282.03
412.36	1320.94
412.57	1210.35
412.77	1220.59
412.98	1269.74
413.19	1284.08
413.39	1259.50
413.60	1269.74
413.81	1259.50
414.01	1189.87
414.22	1302.51
414.43	1286.12
414.63	1210.35
414.84	1222.64
415.05	1288.17
415.25	1234.93
415.46	1261.55
415.67	1273.84
415.87	1253.36
416.08	1290.22
416.29	1265.64
416.49	1257.45
416.70	1239.02
416.91	1263.60
417.11	1300.46
417.32	1249.26
417.53	1249.26
417.73	1322.99
417.94	1255.40
418.15	1239.02
418.35	1239.02
418.56	1269.74
418.77	1300.46
418.97	1169.39
419.18	1150.96
419.38	1259.50
419.59	1284.08
419.80	1282.03
420.00	1300.46
420.21	1220.59
420.42	1234.93
420.62	1275.88
420.83	1263.60
421.04	1249.26
421.24	1247.21
421.45	1304.56
421.65	1308.65
421.86	1290.22
422.07	1200.11
422.27	1247.21
422.48	1304.56
422.69	1282.03
422.89	1292.27
423.10	1290.22
423.30	1292.27
423.51	1259.50
423.72	1189.87
423.92	1298.41
424.13	1218.54
424.33	1339.37
424.54	1255.40
424.75	1345.52
424.95	1247.21
425.16	1200.11
425.36	1318.89
425.57	1349.61
425.78	1277.93
425.98	1269.74
426.19	1220.59
426.39	1343.47
426.60	1259.50
426.81	1239.02
427.01	1245.16
427.22	1312.75
427.42	1255.40
427.63	1318.89
427.83	1263.60
428.04	1277.93
428.25	1314.80
428.45	1316.84
428.66	1261.55
428.86	1222.64
429.07	1318.89
429.28	1259.50
429.48	1298.41
429.69	1255.40
429.89	1294.32
430.10	1208.30
430.30	1292.27
430.51	1275.88
430.71	1228.78
430.92	1222.64
431.13	1275.88
431.33	1216.49
431.54	1253.36
431.74	1331.18
431.95	1316.84
432.15	1282.03
432.36	1290.22
432.56	1165.29
432.77	1267.69
432.98	1296.36
433.18	1325.04
433.39	1298.41
433.59	1300.46
433.80	1247.21
434.00	1275.88
434.21	1300.46
434.41	1273.84
434.62	1269.74
434.82	1241.07
435.03	1292.27
435.23	1331.18
435.44	1247.21
435.64	1286.12
435.85	1236.97
436.06	1314.80
436.26	1310.70
436.47	1191.92
436.67	1343.47
436.88	1257.45
437.08	1314.80
437.29	1308.65
437.49	1265.64
437.70	1230.83
437.90	1267.69
438.11	1322.99
438.31	1277.93
438.52	1271.79
438.72	1267.69
438.93	1241.07
439.13	1257.45
439.34	1271.79
439.54	1294.32
439.75	1269.74
439.95	1261.55
440.16	1216.49
440.36	1273.84
440.57	1284.08
440.77	1253.36
440.98	1214.45
441.18	1329.13
441.39	1271.79
441.59	1255.40
441.80	1325.04
442.00	1222.64
442.21	1306.60
442.41	1257.45
442.62	1263.60
442.82	1288.17
443.02	1265.64
443.23	1288.17
443.43	1218.54
443.64	1239.02
443.84	1288.17
444.05	1302.51
444.25	1255.40
444.46	1236.97
444.66	1218.54
444.87	1236.97
445.07	1331.18
445.28	1304.56
445.48	1257.45
445.69	1308.65
445.89	1257.45
446.09	1308.65
446.30	1191.92
446.50	1333.23
446.71	1218.54
446.91	1241.07
447.12	1296.36
447.32	1355.76
447.53	1298.41
447.73	1275.88
447.93	1271.79
448.14	1232.88
448.34	1292.27
448.55	1290.22
448.75	1284.08
448.96	1243.12
449.16	1265.64
449.36	1320.94
449.57	1234.93
449.77	1232.88
449.98	1263.60
450.18	1247.21
450.39	1290.22
450.59	1288.17
450.79	1247.21
451.00	1224.69
451.20	1249.26
451.41	1236.97
451.61	1179.63
451.81	1296.36
452.02	1241.07
452.22	1288.17
452.43	1261.55
452.63	1339.37
