SpectraSuite Data File
++++++++++++++++++++++++++++++++++++
Date: Sun Apr 03 19:55:46 CEST 2016
User: root
Dark Spectrum Present: No
Reference Spectrum Present: No
Number of Sampled Component Spectra: 1
Spectrometers: USB4C02835
Integration Time (usec): 10000 (USB4C02835)
Spectra Averaged: 1 (USB4C02835)
Boxcar Smoothing: 0 (USB4C02835)
Correct for Electrical Dark: No (USB4C02835)
Strobe/Lamp Enabled: No (USB4C02835)
Correct for Detector Non-linearity: No (USB4C02835)
Correct for Stray Light: No (USB4C02835)
Number of Pixels in Processed Spectrum: 3648
>>>>>Begin Processed Spectral Data<<<<<
177.47	1245.16
177.69	1245.16
177.91	1245.16
178.13	1247.21
178.36	1261.55
178.58	1230.83
178.80	1279.98
179.02	1243.12
179.24	1292.27
179.46	1269.74
179.68	1302.51
179.90	1269.74
180.13	1239.02
180.35	1239.02
180.57	1255.40
180.79	1312.75
181.01	1296.36
181.23	1232.88
181.45	1277.93
181.67	1310.70
181.90	1302.51
182.12	1189.87
182.34	1314.80
182.56	1255.40
182.78	1243.12
183.00	1308.65
183.22	1265.64
183.44	1273.84
183.66	1298.41
183.89	1185.77
184.11	1284.08
184.33	1241.07
184.55	1273.84
184.77	1275.88
184.99	1347.56
185.21	1277.93
185.43	1292.27
185.65	1224.69
185.87	1234.93
186.10	1302.51
186.32	1302.51
186.54	1269.74
186.76	1335.28
186.98	1277.93
187.20	1302.51
187.42	1224.69
187.64	1296.36
187.86	1245.16
188.08	1251.31
188.30	1200.11
188.52	1210.35
188.75	1267.69
188.97	1298.41
189.19	1183.73
189.41	1241.07
189.63	1204.21
189.85	1224.69
190.07	1296.36
190.29	1271.79
190.51	1339.37
190.73	1318.89
190.95	1243.12
191.17	1277.93
191.39	1312.75
191.61	1300.46
191.84	1273.84
192.06	1257.45
192.28	1234.93
192.50	1273.84
192.72	1212.40
192.94	1351.66
193.16	1271.79
193.38	1239.02
193.60	1263.60
193.82	1224.69
194.04	1298.41
194.26	1261.55
194.48	1290.22
194.70	1325.04
194.92	1191.92
195.14	1296.36
195.36	1216.49
195.58	1284.08
195.80	1279.98
196.02	1234.93
196.24	1318.89
196.46	1292.27
196.69	1251.31
196.91	1249.26
197.13	1247.21
197.35	1253.36
197.57	1257.45
197.79	1216.49
198.01	1286.12
198.23	1306.60
198.45	1273.84
198.67	1337.32
198.89	1245.16
199.11	1306.60
199.33	1239.02
199.55	1196.01
199.77	1251.31
199.99	1304.56
200.21	1271.79
200.43	1306.60
200.65	1245.16
200.87	1333.23
201.09	1271.79
201.31	1353.71
201.53	1298.41
201.75	1241.07
201.97	1277.93
202.19	1234.93
202.41	1173.49
202.63	1339.37
202.85	1265.64
203.07	1247.21
203.29	1316.84
203.51	1355.76
203.73	1325.04
203.95	1261.55
204.17	1304.56
204.39	1267.69
204.61	1212.40
204.83	1257.45
205.05	1286.12
205.27	1255.40
205.49	1224.69
205.71	1257.45
205.93	1239.02
206.15	1271.79
206.37	1210.35
206.59	1263.60
206.81	1265.64
207.03	1259.50
207.25	1263.60
207.47	1239.02
207.69	1239.02
207.91	1316.84
208.13	1241.07
208.34	1249.26
208.56	1267.69
208.78	1320.94
209.00	1263.60
209.22	1282.03
209.44	1193.97
209.66	1290.22
209.88	1271.79
210.10	1222.64
210.32	1294.32
210.54	1294.32
210.76	1247.21
210.98	1230.83
211.20	1257.45
211.42	1261.55
211.64	1210.35
211.86	1286.12
212.08	1279.98
212.30	1355.76
212.52	1310.70
212.74	1300.46
212.96	1243.12
213.17	1265.64
213.39	1245.16
213.61	1265.64
213.83	1273.84
214.05	1251.31
214.27	1316.84
214.49	1249.26
214.71	1241.07
214.93	1288.17
215.15	1286.12
215.37	1202.16
215.59	1247.21
215.81	1271.79
216.03	1261.55
216.24	1271.79
216.46	1253.36
216.68	1236.97
216.90	1234.93
217.12	1273.84
217.34	1189.87
217.56	1284.08
217.78	1210.35
218.00	1255.40
218.22	1251.31
218.44	1279.98
218.66	1277.93
218.87	1279.98
219.09	1290.22
219.31	1265.64
219.53	1273.84
219.75	1345.52
219.97	1304.56
220.19	1277.93
220.41	1290.22
220.63	1261.55
220.85	1308.65
221.06	1302.51
221.28	1239.02
221.50	1277.93
221.72	1247.21
221.94	1269.74
222.16	1210.35
222.38	1298.41
222.60	1298.41
222.82	1193.97
223.03	1380.33
223.25	1277.93
223.47	1337.32
223.69	1253.36
223.91	1191.92
224.13	1267.69
224.35	1294.32
224.57	1282.03
224.78	1298.41
225.00	1245.16
225.22	1189.87
225.44	1300.46
225.66	1277.93
225.88	1294.32
226.10	1228.78
226.32	1306.60
226.53	1267.69
226.75	1296.36
226.97	1173.49
227.19	1177.58
227.41	1241.07
227.63	1224.69
227.85	1271.79
228.06	1167.34
228.28	1296.36
228.50	1261.55
228.72	1288.17
228.94	1257.45
229.16	1273.84
229.37	1257.45
229.59	1296.36
229.81	1179.63
230.03	1232.88
230.25	1245.16
230.47	1261.55
230.69	1271.79
230.90	1296.36
231.12	1290.22
231.34	1236.97
231.56	1320.94
231.78	1306.60
232.00	1241.07
232.21	1329.13
232.43	1279.98
232.65	1243.12
232.87	1263.60
233.09	1230.83
233.30	1271.79
233.52	1257.45
233.74	1277.93
233.96	1296.36
234.18	1282.03
234.40	1257.45
234.61	1310.70
234.83	1306.60
235.05	1337.32
235.27	1255.40
235.49	1296.36
235.70	1236.97
235.92	1333.23
236.14	1222.64
236.36	1284.08
236.58	1331.18
236.79	1296.36
237.01	1296.36
237.23	1247.21
237.45	1267.69
237.67	1249.26
237.88	1263.60
238.10	1216.49
238.32	1286.12
238.54	1234.93
238.76	1253.36
238.97	1267.69
239.19	1304.56
239.41	1265.64
239.63	1257.45
239.85	1269.74
240.06	1298.41
240.28	1277.93
240.50	1196.01
240.72	1220.59
240.93	1347.56
241.15	1282.03
241.37	1216.49
241.59	1296.36
241.81	1218.54
242.02	1314.80
242.24	1239.02
242.46	1263.60
242.68	1218.54
242.89	1320.94
243.11	1224.69
243.33	1249.26
243.55	1314.80
243.76	1257.45
243.98	1277.93
244.20	1273.84
244.42	1298.41
244.64	1271.79
244.85	1185.77
245.07	1273.84
245.29	1263.60
245.51	1251.31
245.72	1210.35
245.94	1282.03
246.16	1273.84
246.38	1273.84
246.59	1241.07
246.81	1259.50
247.03	1261.55
247.24	1368.04
247.46	1273.84
247.68	1251.31
247.90	1275.88
248.11	1265.64
248.33	1286.12
248.55	1204.21
248.77	1310.70
248.98	1249.26
249.20	1247.21
249.42	1308.65
249.64	1273.84
249.85	1253.36
250.07	1290.22
250.29	1279.98
250.50	1239.02
250.72	1167.34
250.94	1255.40
251.16	1282.03
251.37	1224.69
251.59	1267.69
251.81	1265.64
252.02	1263.60
252.24	1241.07
252.46	1251.31
252.68	1222.64
252.89	1267.69
253.11	1269.74
253.33	1241.07
253.54	1269.74
253.76	1273.84
253.98	1239.02
254.20	1331.18
254.41	1320.94
254.63	1257.45
254.85	1218.54
255.06	1273.84
255.28	1304.56
255.50	1288.17
255.71	1312.75
255.93	1288.17
256.15	1290.22
256.36	1230.83
256.58	1232.88
256.80	1259.50
257.02	1218.54
257.23	1298.41
257.45	1363.95
257.67	1316.84
257.88	1245.16
258.10	1255.40
258.32	1286.12
258.53	1212.40
258.75	1294.32
258.97	1269.74
259.18	1345.52
259.40	1277.93
259.62	1294.32
259.83	1247.21
260.05	1349.61
260.27	1232.88
260.48	1212.40
260.70	1329.13
260.92	1271.79
261.13	1325.04
261.35	1318.89
261.57	1292.27
261.78	1380.33
262.00	1216.49
262.22	1255.40
262.43	1312.75
262.65	1249.26
262.86	1298.41
263.08	1220.59
263.30	1277.93
263.51	1212.40
263.73	1368.04
263.95	1204.21
264.16	1279.98
264.38	1265.64
264.60	1353.71
264.81	1171.44
265.03	1380.33
265.25	1177.58
265.46	1226.73
265.68	1294.32
265.89	1263.60
266.11	1257.45
266.33	1294.32
266.54	1251.31
266.76	1312.75
266.98	1200.11
267.19	1298.41
267.41	1222.64
267.62	1275.88
267.84	1325.04
268.06	1372.14
268.27	1275.88
268.49	1282.03
268.70	1318.89
268.92	1267.69
269.14	1241.07
269.35	1310.70
269.57	1339.37
269.79	1271.79
270.00	1277.93
270.22	1239.02
270.43	1239.02
270.65	1196.01
270.87	1310.70
271.08	1220.59
271.30	1263.60
271.51	1241.07
271.73	1288.17
271.95	1298.41
272.16	1261.55
272.38	1236.97
272.59	1279.98
272.81	1296.36
273.02	1329.13
273.24	1279.98
273.46	1275.88
273.67	1253.36
273.89	1282.03
274.10	1253.36
274.32	1239.02
274.54	1210.35
274.75	1318.89
274.97	1224.69
275.18	1302.51
275.40	1232.88
275.61	1206.25
275.83	1273.84
276.05	1292.27
276.26	1312.75
276.48	1239.02
276.69	1312.75
276.91	1312.75
277.12	1249.26
277.34	1239.02
277.55	1294.32
277.77	1310.70
277.99	1257.45
278.20	1261.55
278.42	1249.26
278.63	1224.69
278.85	1249.26
279.06	1263.60
279.28	1277.93
279.49	1282.03
279.71	1273.84
279.93	1179.63
280.14	1255.40
280.36	1312.75
280.57	1292.27
280.79	1224.69
281.00	1249.26
281.22	1263.60
281.43	1282.03
281.65	1345.52
281.86	1275.88
282.08	1187.82
282.29	1263.60
282.51	1347.56
282.73	1198.06
282.94	1275.88
283.16	1257.45
283.37	1314.80
283.59	1265.64
283.80	1284.08
284.02	1259.50
284.23	1290.22
284.45	1298.41
284.66	1212.40
284.88	1312.75
285.09	1232.88
285.31	1288.17
285.52	1288.17
285.74	1247.21
285.95	1286.12
286.17	1312.75
286.38	1290.22
286.60	1329.13
286.81	1312.75
287.03	1210.35
287.24	1284.08
287.46	1296.36
287.67	1290.22
287.89	1273.84
288.10	1245.16
288.32	1241.07
288.53	1308.65
288.75	1331.18
288.96	1300.46
289.18	1347.56
289.39	1259.50
289.61	1261.55
289.82	1296.36
290.04	1312.75
290.25	1218.54
290.47	1286.12
290.68	1265.64
290.90	1277.93
291.11	1302.51
291.33	1251.31
291.54	1191.92
291.76	1279.98
291.97	1314.80
292.18	1308.65
292.40	1247.21
292.61	1294.32
292.83	1253.36
293.04	1200.11
293.26	1212.40
293.47	1247.21
293.69	1263.60
293.90	1226.73
294.12	1255.40
294.33	1259.50
294.55	1232.88
294.76	1253.36
294.97	1331.18
295.19	1279.98
295.40	1314.80
295.62	1212.40
295.83	1263.60
296.05	1273.84
296.26	1335.28
296.48	1271.79
296.69	1279.98
296.90	1216.49
297.12	1251.31
297.33	1181.68
297.55	1267.69
297.76	1304.56
297.98	1243.12
298.19	1218.54
298.41	1304.56
298.62	1294.32
298.83	1257.45
299.05	1331.18
299.26	1327.08
299.48	1320.94
299.69	1298.41
299.90	1255.40
300.12	1259.50
300.33	1206.25
300.55	1232.88
300.76	1220.59
300.98	1220.59
301.19	1339.37
301.40	1261.55
301.62	1241.07
301.83	1273.84
302.05	1279.98
302.26	1302.51
302.47	1206.25
302.69	1185.77
302.90	1302.51
303.12	1230.83
303.33	1339.37
303.54	1232.88
303.76	1230.83
303.97	1255.40
304.19	1275.88
304.40	1226.73
304.61	1263.60
304.83	1253.36
305.04	1284.08
305.26	1290.22
305.47	1212.40
305.68	1202.16
305.90	1284.08
306.11	1318.89
306.33	1275.88
306.54	1294.32
306.75	1294.32
306.97	1255.40
307.18	1302.51
307.39	1302.51
307.61	1236.97
307.82	1206.25
308.04	1259.50
308.25	1175.53
308.46	1288.17
308.68	1259.50
308.89	1300.46
309.10	1236.97
309.32	1273.84
309.53	1224.69
309.74	1263.60
309.96	1243.12
310.17	1245.16
310.39	1222.64
310.60	1318.89
310.81	1198.06
311.03	1236.97
311.24	1302.51
311.45	1314.80
311.67	1222.64
311.88	1279.98
312.09	1204.21
312.31	1226.73
312.52	1198.06
312.73	1232.88
312.95	1196.01
313.16	1185.77
313.37	1314.80
313.59	1312.75
313.80	1253.36
314.01	1232.88
314.23	1263.60
314.44	1271.79
314.65	1253.36
314.87	1275.88
315.08	1249.26
315.29	1236.97
315.51	1279.98
315.72	1300.46
315.93	1277.93
316.15	1288.17
316.36	1261.55
316.57	1249.26
316.79	1243.12
317.00	1269.74
317.21	1335.28
317.43	1265.64
317.64	1335.28
317.85	1306.60
318.07	1290.22
318.28	1304.56
318.49	1236.97
318.70	1304.56
318.92	1208.30
319.13	1216.49
319.34	1327.08
319.56	1251.31
319.77	1282.03
319.98	1255.40
320.20	1253.36
320.41	1269.74
320.62	1259.50
320.83	1265.64
321.05	1243.12
321.26	1230.83
321.47	1255.40
321.69	1333.23
321.90	1267.69
322.11	1298.41
322.32	1234.93
322.54	1257.45
322.75	1228.78
322.96	1288.17
323.18	1200.11
323.39	1286.12
323.60	1204.21
323.81	1228.78
324.03	1236.97
324.24	1214.45
324.45	1279.98
324.66	1245.16
324.88	1292.27
325.09	1206.25
325.30	1208.30
325.52	1302.51
325.73	1279.98
325.94	1196.01
326.15	1333.23
326.37	1255.40
326.58	1234.93
326.79	1275.88
327.00	1257.45
327.22	1200.11
327.43	1230.83
327.64	1290.22
327.85	1230.83
328.07	1265.64
328.28	1298.41
328.49	1325.04
328.70	1298.41
328.92	1241.07
329.13	1282.03
329.34	1232.88
329.55	1294.32
329.76	1277.93
329.98	1310.70
330.19	1222.64
330.40	1228.78
330.61	1243.12
330.83	1277.93
331.04	1282.03
331.25	1282.03
331.46	1335.28
331.68	1277.93
331.89	1298.41
332.10	1255.40
332.31	1312.75
332.52	1290.22
332.74	1302.51
332.95	1286.12
333.16	1318.89
333.37	1257.45
333.58	1269.74
333.80	1300.46
334.01	1288.17
334.22	1308.65
334.43	1247.21
334.64	1312.75
334.86	1314.80
335.07	1286.12
335.28	1255.40
335.49	1288.17
335.70	1312.75
335.92	1286.12
336.13	1243.12
336.34	1210.35
336.55	1263.60
336.76	1253.36
336.98	1288.17
337.19	1226.73
337.40	1378.28
337.61	1314.80
337.82	1284.08
338.04	1216.49
338.25	1247.21
338.46	1226.73
338.67	1279.98
338.88	1243.12
339.09	1296.36
339.31	1273.84
339.52	1271.79
339.73	1282.03
339.94	1327.08
340.15	1296.36
340.36	1351.66
340.58	1302.51
340.79	1208.30
341.00	1261.55
341.21	1224.69
341.42	1253.36
341.63	1302.51
341.85	1249.26
342.06	1296.36
342.27	1265.64
342.48	1210.35
342.69	1329.13
342.90	1189.87
343.12	1255.40
343.33	1290.22
343.54	1267.69
343.75	1286.12
343.96	1302.51
344.17	1230.83
344.38	1241.07
344.60	1306.60
344.81	1282.03
345.02	1243.12
345.23	1273.84
345.44	1263.60
345.65	1230.83
345.86	1210.35
346.07	1220.59
346.29	1296.36
346.50	1292.27
346.71	1300.46
346.92	1249.26
347.13	1239.02
347.34	1159.15
347.55	1232.88
347.76	1247.21
347.98	1232.88
348.19	1243.12
348.40	1230.83
348.61	1261.55
348.82	1337.32
349.03	1279.98
349.24	1191.92
349.45	1300.46
349.66	1222.64
349.88	1288.17
350.09	1271.79
350.30	1310.70
350.51	1216.49
350.72	1275.88
350.93	1304.56
351.14	1279.98
351.35	1308.65
351.56	1263.60
351.77	1277.93
351.99	1275.88
352.20	1294.32
352.41	1196.01
352.62	1341.42
352.83	1308.65
353.04	1255.40
353.25	1284.08
353.46	1202.16
353.67	1263.60
353.88	1277.93
354.09	1273.84
354.30	1243.12
354.52	1333.23
354.73	1312.75
354.94	1253.36
355.15	1273.84
355.36	1269.74
355.57	1288.17
355.78	1314.80
355.99	1236.97
356.20	1265.64
356.41	1290.22
356.62	1232.88
356.83	1273.84
357.04	1271.79
357.25	1134.57
357.46	1265.64
357.68	1222.64
357.89	1257.45
358.10	1228.78
358.31	1249.26
358.52	1236.97
358.73	1327.08
358.94	1259.50
359.15	1275.88
359.36	1357.80
359.57	1298.41
359.78	1232.88
359.99	1277.93
360.20	1232.88
360.41	1284.08
360.62	1310.70
360.83	1296.36
361.04	1206.25
361.25	1253.36
361.46	1261.55
361.67	1284.08
361.88	1232.88
362.09	1259.50
362.30	1253.36
362.51	1290.22
362.72	1277.93
362.93	1255.40
363.14	1294.32
363.35	1304.56
363.56	1277.93
363.78	1296.36
363.99	1279.98
364.20	1290.22
364.41	1257.45
364.62	1269.74
364.83	1255.40
365.04	1245.16
365.25	1275.88
365.46	1269.74
365.67	1234.93
365.88	1286.12
366.09	1220.59
366.30	1247.21
366.51	1282.03
366.72	1253.36
366.93	1277.93
367.14	1318.89
367.35	1282.03
367.56	1292.27
367.77	1322.99
367.98	1271.79
368.18	1335.28
368.39	1355.76
368.60	1273.84
368.81	1241.07
369.02	1329.13
369.23	1243.12
369.44	1343.47
369.65	1263.60
369.86	1284.08
370.07	1220.59
370.28	1314.80
370.49	1275.88
370.70	1284.08
370.91	1228.78
371.12	1308.65
371.33	1288.17
371.54	1249.26
371.75	1279.98
371.96	1177.58
372.17	1265.64
372.38	1316.84
372.59	1314.80
372.80	1279.98
373.01	1239.02
373.22	1275.88
373.43	1232.88
373.64	1218.54
373.85	1306.60
374.06	1288.17
374.26	1216.49
374.47	1273.84
374.68	1288.17
374.89	1204.21
375.10	1314.80
375.31	1296.36
375.52	1210.35
375.73	1232.88
375.94	1267.69
376.15	1220.59
376.36	1214.45
376.57	1243.12
376.78	1286.12
376.99	1183.73
377.20	1314.80
377.40	1312.75
377.61	1308.65
377.82	1228.78
378.03	1310.70
378.24	1191.92
378.45	1322.99
378.66	1345.52
378.87	1294.32
379.08	1222.64
379.29	1282.03
379.50	1259.50
379.71	1275.88
379.91	1304.56
380.12	1284.08
380.33	1230.83
380.54	1308.65
380.75	1284.08
380.96	1222.64
381.17	1279.98
381.38	1234.93
381.59	1279.98
381.80	1263.60
382.00	1259.50
382.21	1292.27
382.42	1343.47
382.63	1224.69
382.84	1249.26
383.05	1216.49
383.26	1370.09
383.47	1261.55
383.68	1275.88
383.88	1249.26
384.09	1273.84
384.30	1253.36
384.51	1277.93
384.72	1298.41
384.93	1263.60
385.14	1288.17
385.35	1263.60
385.55	1277.93
385.76	1302.51
385.97	1257.45
386.18	1206.25
386.39	1286.12
386.60	1259.50
386.81	1286.12
387.02	1275.88
387.22	1193.97
387.43	1275.88
387.64	1284.08
387.85	1247.21
388.06	1269.74
388.27	1296.36
388.48	1189.87
388.68	1339.37
388.89	1245.16
389.10	1257.45
389.31	1310.70
389.52	1257.45
389.73	1261.55
389.93	1314.80
390.14	1302.51
390.35	1243.12
390.56	1228.78
390.77	1232.88
390.98	1259.50
391.18	1294.32
391.39	1189.87
391.60	1261.55
391.81	1298.41
392.02	1304.56
392.23	1298.41
392.43	1306.60
392.64	1214.45
392.85	1282.03
393.06	1265.64
393.27	1316.84
393.47	1191.92
393.68	1198.06
393.89	1343.47
394.10	1306.60
394.31	1271.79
394.52	1335.28
394.72	1257.45
394.93	1257.45
395.14	1251.31
395.35	1368.04
395.56	1208.30
395.76	1284.08
395.97	1216.49
396.18	1226.73
396.39	1273.84
396.60	1271.79
396.80	1232.88
397.01	1273.84
397.22	1286.12
397.43	1306.60
397.64	1269.74
397.84	1208.30
398.05	1253.36
398.26	1255.40
398.47	1296.36
398.67	1269.74
398.88	1300.46
399.09	1282.03
399.30	1243.12
399.51	1273.84
399.71	1241.07
399.92	1286.12
400.13	1273.84
400.34	1271.79
400.54	1208.30
400.75	1216.49
400.96	1277.93
401.17	1206.25
401.37	1204.21
401.58	1298.41
401.79	1232.88
402.00	1290.22
402.21	1288.17
402.41	1271.79
402.62	1294.32
402.83	1312.75
403.04	1265.64
403.24	1245.16
403.45	1275.88
403.66	1288.17
403.87	1261.55
404.07	1245.16
404.28	1265.64
404.49	1310.70
404.70	1267.69
404.90	1312.75
405.11	1224.69
405.32	1261.55
405.52	1253.36
405.73	1245.16
405.94	1232.88
406.15	1296.36
406.35	1320.94
406.56	1271.79
406.77	1230.83
406.98	1253.36
407.18	1200.11
407.39	1284.08
407.60	1292.27
407.80	1273.84
408.01	1257.45
408.22	1329.13
408.43	1212.40
408.63	1232.88
408.84	1335.28
409.05	1261.55
409.25	1368.04
409.46	1312.75
409.67	1243.12
409.88	1249.26
410.08	1253.36
410.29	1320.94
410.50	1265.64
410.70	1253.36
410.91	1216.49
411.12	1339.37
411.32	1212.40
411.53	1255.40
411.74	1232.88
411.95	1247.21
412.15	1316.84
412.36	1265.64
412.57	1265.64
412.77	1306.60
412.98	1255.40
413.19	1320.94
413.39	1261.55
413.60	1245.16
413.81	1292.27
414.01	1318.89
414.22	1253.36
414.43	1224.69
414.63	1310.70
414.84	1292.27
415.05	1243.12
415.25	1165.29
415.46	1298.41
415.67	1310.70
415.87	1255.40
416.08	1253.36
416.29	1228.78
416.49	1249.26
416.70	1224.69
416.91	1245.16
417.11	1279.98
417.32	1263.60
417.53	1318.89
417.73	1322.99
417.94	1236.97
418.15	1232.88
418.35	1243.12
418.56	1290.22
418.77	1294.32
418.97	1290.22
419.18	1214.45
419.38	1320.94
419.59	1179.63
419.80	1337.32
420.00	1236.97
420.21	1306.60
420.42	1177.58
420.62	1277.93
420.83	1320.94
421.04	1245.16
421.24	1306.60
421.45	1292.27
421.65	1251.31
421.86	1275.88
422.07	1265.64
422.27	1271.79
422.48	1265.64
422.69	1210.35
422.89	1290.22
423.10	1288.17
423.30	1294.32
423.51	1366.00
423.72	1300.46
423.92	1153.01
424.13	1247.21
424.33	1261.55
424.54	1218.54
424.75	1236.97
424.95	1275.88
425.16	1282.03
425.36	1300.46
425.57	1320.94
425.78	1329.13
425.98	1226.73
426.19	1300.46
426.39	1273.84
426.60	1275.88
426.81	1290.22
427.01	1216.49
427.22	1257.45
427.42	1286.12
427.63	1282.03
427.83	1314.80
428.04	1265.64
428.25	1296.36
428.45	1312.75
428.66	1306.60
428.86	1310.70
429.07	1282.03
429.28	1273.84
429.48	1230.83
429.69	1212.40
429.89	1337.32
430.10	1411.05
430.30	1232.88
430.51	1263.60
430.71	1316.84
430.92	1269.74
431.13	1279.98
431.33	1273.84
431.54	1267.69
431.74	1239.02
431.95	1245.16
432.15	1243.12
432.36	1284.08
432.56	1218.54
432.77	1232.88
432.98	1241.07
433.18	1302.51
433.39	1251.31
433.59	1300.46
433.80	1329.13
434.00	1308.65
434.21	1316.84
434.41	1206.25
434.62	1316.84
434.82	1224.69
435.03	1210.35
435.23	1239.02
435.44	1275.88
435.64	1265.64
435.85	1267.69
436.06	1275.88
436.26	1290.22
436.47	1208.30
436.67	1286.12
436.88	1228.78
437.08	1288.17
437.29	1294.32
437.49	1210.35
437.70	1294.32
437.90	1271.79
438.11	1288.17
438.31	1298.41
438.52	1275.88
438.72	1282.03
438.93	1243.12
439.13	1282.03
439.34	1288.17
439.54	1247.21
439.75	1277.93
439.95	1312.75
440.16	1232.88
440.36	1251.31
440.57	1282.03
440.77	1257.45
440.98	1329.13
441.18	1300.46
441.39	1327.08
441.59	1296.36
441.80	1277.93
442.00	1296.36
442.21	1310.70
442.41	1206.25
442.62	1298.41
442.82	1191.92
443.02	1286.12
443.23	1249.26
443.43	1236.97
443.64	1249.26
443.84	1200.11
444.05	1302.51
444.25	1275.88
444.46	1269.74
444.66	1241.07
444.87	1245.16
445.07	1257.45
445.28	1372.14
445.48	1308.65
445.69	1277.93
445.89	1279.98
446.09	1290.22
446.30	1277.93
446.50	1259.50
446.71	1269.74
446.91	1243.12
447.12	1259.50
447.32	1271.79
447.53	1267.69
447.73	1275.88
447.93	1345.52
448.14	1187.82
448.34	1247.21
448.55	1230.83
448.75	1220.59
448.96	1279.98
449.16	1329.13
449.36	1302.51
449.57	1286.12
449.77	1351.66
449.98	1204.21
450.18	1298.41
450.39	1271.79
450.59	1253.36
450.79	1232.88
451.00	1282.03
451.20	1279.98
451.41	1273.84
451.61	1273.84
451.81	1277.93
452.02	1216.49
452.22	1261.55
452.43	1255.40
452.63	1249.26
