SpectraSuite Data File
++++++++++++++++++++++++++++++++++++
Date: Sun Apr 03 19:55:32 CEST 2016
User: root
Dark Spectrum Present: No
Reference Spectrum Present: No
Number of Sampled Component Spectra: 1
Spectrometers: USB4C02835
Integration Time (usec): 10000 (USB4C02835)
Spectra Averaged: 1 (USB4C02835)
Boxcar Smoothing: 0 (USB4C02835)
Correct for Electrical Dark: No (USB4C02835)
Strobe/Lamp Enabled: No (USB4C02835)
Correct for Detector Non-linearity: No (USB4C02835)
Correct for Stray Light: No (USB4C02835)
Number of Pixels in Processed Spectrum: 3648
>>>>>Begin Processed Spectral Data<<<<<
177.47	1228.78
177.69	1228.78
177.91	1228.78
178.13	1288.17
178.36	1286.12
178.58	1282.03
178.80	1267.69
179.02	1259.50
179.24	1282.03
179.46	1230.83
179.68	1306.60
179.90	1232.88
180.13	1304.56
180.35	1290.22
180.57	1245.16
180.79	1255.40
181.01	1279.98
181.23	1277.93
181.45	1282.03
181.67	1304.56
181.90	1255.40
182.12	1267.69
182.34	1288.17
182.56	1249.26
182.78	1298.41
183.00	1269.74
183.22	1284.08
183.44	1261.55
183.66	1222.64
183.89	1271.79
184.11	1277.93
184.33	1312.75
184.55	1282.03
184.77	1214.45
184.99	1290.22
185.21	1212.40
185.43	1337.32
185.65	1308.65
185.87	1253.36
186.10	1226.73
186.32	1349.61
186.54	1247.21
186.76	1298.41
186.98	1265.64
187.20	1277.93
187.42	1271.79
187.64	1294.32
187.86	1357.80
188.08	1247.21
188.30	1247.21
188.52	1224.69
188.75	1249.26
188.97	1277.93
189.19	1310.70
189.41	1208.30
189.63	1200.11
189.85	1224.69
190.07	1247.21
190.29	1306.60
190.51	1279.98
190.73	1327.08
190.95	1277.93
191.17	1183.73
191.39	1308.65
191.61	1257.45
191.84	1257.45
192.06	1212.40
192.28	1314.80
192.50	1290.22
192.72	1245.16
192.94	1269.74
193.16	1316.84
193.38	1259.50
193.60	1245.16
193.82	1296.36
194.04	1327.08
194.26	1290.22
194.48	1234.93
194.70	1234.93
194.92	1247.21
195.14	1339.37
195.36	1304.56
195.58	1316.84
195.80	1296.36
196.02	1251.31
196.24	1241.07
196.46	1290.22
196.69	1257.45
196.91	1294.32
197.13	1228.78
197.35	1294.32
197.57	1277.93
197.79	1298.41
198.01	1302.51
198.23	1241.07
198.45	1202.16
198.67	1349.61
198.89	1255.40
199.11	1331.18
199.33	1243.12
199.55	1212.40
199.77	1267.69
199.99	1320.94
200.21	1239.02
200.43	1263.60
200.65	1236.97
200.87	1236.97
201.09	1275.88
201.31	1232.88
201.53	1265.64
201.75	1335.28
201.97	1300.46
202.19	1286.12
202.41	1191.92
202.63	1257.45
202.85	1243.12
203.07	1253.36
203.29	1216.49
203.51	1292.27
203.73	1247.21
203.95	1259.50
204.17	1329.13
204.39	1273.84
204.61	1202.16
204.83	1357.80
205.05	1243.12
205.27	1277.93
205.49	1271.79
205.71	1296.36
205.93	1269.74
206.15	1259.50
206.37	1189.87
206.59	1284.08
206.81	1275.88
207.03	1253.36
207.25	1265.64
207.47	1226.73
207.69	1298.41
207.91	1208.30
208.13	1288.17
208.34	1267.69
208.56	1306.60
208.78	1183.73
209.00	1275.88
209.22	1273.84
209.44	1259.50
209.66	1310.70
209.88	1306.60
210.10	1220.59
210.32	1298.41
210.54	1263.60
210.76	1261.55
210.98	1296.36
211.20	1243.12
211.42	1224.69
211.64	1253.36
211.86	1247.21
212.08	1327.08
212.30	1286.12
212.52	1222.64
212.74	1325.04
212.96	1253.36
213.17	1241.07
213.39	1279.98
213.61	1300.46
213.83	1257.45
214.05	1339.37
214.27	1263.60
214.49	1273.84
214.71	1216.49
214.93	1304.56
215.15	1306.60
215.37	1314.80
215.59	1259.50
215.81	1191.92
216.03	1304.56
216.24	1234.93
216.46	1228.78
216.68	1257.45
216.90	1271.79
217.12	1279.98
217.34	1253.36
217.56	1290.22
217.78	1288.17
218.00	1282.03
218.22	1249.26
218.44	1216.49
218.66	1261.55
218.87	1241.07
219.09	1318.89
219.31	1277.93
219.53	1277.93
219.75	1384.43
219.97	1212.40
220.19	1302.51
220.41	1243.12
220.63	1314.80
220.85	1234.93
221.06	1327.08
221.28	1224.69
221.50	1279.98
221.72	1300.46
221.94	1208.30
222.16	1255.40
222.38	1320.94
222.60	1216.49
222.82	1337.32
223.03	1304.56
223.25	1296.36
223.47	1239.02
223.69	1298.41
223.91	1282.03
224.13	1290.22
224.35	1306.60
224.57	1261.55
224.78	1253.36
225.00	1279.98
225.22	1304.56
225.44	1255.40
225.66	1259.50
225.88	1230.83
226.10	1204.21
226.32	1269.74
226.53	1214.45
226.75	1277.93
226.97	1279.98
227.19	1216.49
227.41	1279.98
227.63	1288.17
227.85	1347.56
228.06	1236.97
228.28	1261.55
228.50	1236.97
228.72	1271.79
228.94	1300.46
229.16	1214.45
229.37	1257.45
229.59	1345.52
229.81	1269.74
230.03	1263.60
230.25	1357.80
230.47	1232.88
230.69	1257.45
230.90	1226.73
231.12	1300.46
231.34	1279.98
231.56	1294.32
231.78	1312.75
232.00	1261.55
232.21	1267.69
232.43	1306.60
232.65	1175.53
232.87	1296.36
233.09	1259.50
233.30	1243.12
233.52	1206.25
233.74	1318.89
233.96	1202.16
234.18	1218.54
234.40	1261.55
234.61	1271.79
234.83	1255.40
235.05	1230.83
235.27	1273.84
235.49	1308.65
235.70	1271.79
235.92	1294.32
236.14	1273.84
236.36	1263.60
236.58	1259.50
236.79	1304.56
237.01	1257.45
237.23	1277.93
237.45	1259.50
237.67	1241.07
237.88	1263.60
238.10	1259.50
238.32	1243.12
238.54	1234.93
238.76	1277.93
238.97	1288.17
239.19	1273.84
239.41	1286.12
239.63	1239.02
239.85	1259.50
240.06	1234.93
240.28	1228.78
240.50	1216.49
240.72	1335.28
240.93	1243.12
241.15	1298.41
241.37	1259.50
241.59	1279.98
241.81	1239.02
242.02	1163.25
242.24	1314.80
242.46	1314.80
242.68	1257.45
242.89	1239.02
243.11	1306.60
243.33	1282.03
243.55	1282.03
243.76	1286.12
243.98	1277.93
244.20	1249.26
244.42	1239.02
244.64	1243.12
244.85	1322.99
245.07	1239.02
245.29	1245.16
245.51	1230.83
245.72	1273.84
245.94	1247.21
246.16	1273.84
246.38	1413.10
246.59	1212.40
246.81	1298.41
247.03	1279.98
247.24	1282.03
247.46	1288.17
247.68	1251.31
247.90	1325.04
248.11	1243.12
248.33	1236.97
248.55	1316.84
248.77	1249.26
248.98	1275.88
249.20	1282.03
249.42	1220.59
249.64	1224.69
249.85	1282.03
250.07	1210.35
250.29	1282.03
250.50	1316.84
250.72	1325.04
250.94	1247.21
251.16	1308.65
251.37	1261.55
251.59	1206.25
251.81	1302.51
252.02	1288.17
252.24	1253.36
252.46	1304.56
252.68	1257.45
252.89	1304.56
253.11	1308.65
253.33	1339.37
253.54	1279.98
253.76	1267.69
253.98	1210.35
254.20	1253.36
254.41	1322.99
254.63	1294.32
254.85	1189.87
255.06	1150.96
255.28	1253.36
255.50	1255.40
255.71	1255.40
255.93	1306.60
256.15	1241.07
256.36	1257.45
256.58	1230.83
256.80	1345.52
257.02	1234.93
257.23	1228.78
257.45	1224.69
257.67	1310.70
257.88	1322.99
258.10	1292.27
258.32	1284.08
258.53	1275.88
258.75	1251.31
258.97	1333.23
259.18	1218.54
259.40	1243.12
259.62	1282.03
259.83	1273.84
260.05	1255.40
260.27	1261.55
260.48	1247.21
260.70	1331.18
260.92	1294.32
261.13	1292.27
261.35	1249.26
261.57	1290.22
261.78	1253.36
262.00	1316.84
262.22	1290.22
262.43	1273.84
262.65	1208.30
262.86	1269.74
263.08	1318.89
263.30	1331.18
263.51	1234.93
263.73	1267.69
263.95	1275.88
264.16	1243.12
264.38	1279.98
264.60	1304.56
264.81	1228.78
265.03	1282.03
265.25	1210.35
265.46	1267.69
265.68	1284.08
265.89	1269.74
266.11	1245.16
266.33	1279.98
266.54	1239.02
266.76	1267.69
266.98	1304.56
267.19	1232.88
267.41	1259.50
267.62	1279.98
267.84	1243.12
268.06	1263.60
268.27	1259.50
268.49	1220.59
268.70	1224.69
268.92	1312.75
269.14	1279.98
269.35	1247.21
269.57	1245.16
269.79	1296.36
270.00	1308.65
270.22	1249.26
270.43	1251.31
270.65	1259.50
270.87	1306.60
271.08	1232.88
271.30	1273.84
271.51	1230.83
271.73	1302.51
271.95	1228.78
272.16	1230.83
272.38	1271.79
272.59	1236.97
272.81	1253.36
273.02	1263.60
273.24	1214.45
273.46	1284.08
273.67	1232.88
273.89	1316.84
274.10	1290.22
274.32	1318.89
274.54	1236.97
274.75	1273.84
274.97	1292.27
275.18	1150.96
275.40	1288.17
275.61	1300.46
275.83	1257.45
276.05	1193.97
276.26	1273.84
276.48	1318.89
276.69	1310.70
276.91	1251.31
277.12	1290.22
277.34	1277.93
277.55	1265.64
277.77	1222.64
277.99	1271.79
278.20	1288.17
278.42	1294.32
278.63	1249.26
278.85	1253.36
279.06	1257.45
279.28	1214.45
279.49	1206.25
279.71	1296.36
279.93	1269.74
280.14	1257.45
280.36	1304.56
280.57	1249.26
280.79	1296.36
281.00	1279.98
281.22	1232.88
281.43	1279.98
281.65	1271.79
281.86	1214.45
282.08	1327.08
282.29	1230.83
282.51	1275.88
282.73	1208.30
282.94	1279.98
283.16	1265.64
283.37	1306.60
283.59	1210.35
283.80	1245.16
284.02	1312.75
284.23	1167.34
284.45	1327.08
284.66	1284.08
284.88	1277.93
285.09	1294.32
285.31	1263.60
285.52	1286.12
285.74	1275.88
285.95	1265.64
286.17	1271.79
286.38	1236.97
286.60	1269.74
286.81	1292.27
287.03	1200.11
287.24	1277.93
287.46	1275.88
287.67	1292.27
287.89	1234.93
288.10	1257.45
288.32	1226.73
288.53	1253.36
288.75	1339.37
288.96	1249.26
289.18	1282.03
289.39	1265.64
289.61	1224.69
289.82	1306.60
290.04	1255.40
290.25	1249.26
290.47	1193.97
290.68	1257.45
290.90	1200.11
291.11	1239.02
291.33	1337.32
291.54	1259.50
291.76	1257.45
291.97	1304.56
292.18	1255.40
292.40	1243.12
292.61	1261.55
292.83	1200.11
293.04	1255.40
293.26	1232.88
293.47	1335.28
293.69	1277.93
293.90	1277.93
294.12	1279.98
294.33	1277.93
294.55	1247.21
294.76	1359.85
294.97	1273.84
295.19	1306.60
295.40	1253.36
295.62	1322.99
295.83	1273.84
296.05	1259.50
296.26	1333.23
296.48	1216.49
296.69	1304.56
296.90	1187.82
297.12	1273.84
297.33	1271.79
297.55	1265.64
297.76	1249.26
297.98	1337.32
298.19	1298.41
298.41	1267.69
298.62	1208.30
298.83	1335.28
299.05	1333.23
299.26	1310.70
299.48	1286.12
299.69	1243.12
299.90	1212.40
300.12	1204.21
300.33	1304.56
300.55	1273.84
300.76	1333.23
300.98	1226.73
301.19	1228.78
301.40	1261.55
301.62	1288.17
301.83	1259.50
302.05	1294.32
302.26	1257.45
302.47	1249.26
302.69	1243.12
302.90	1271.79
303.12	1333.23
303.33	1290.22
303.54	1339.37
303.76	1331.18
303.97	1333.23
304.19	1257.45
304.40	1249.26
304.61	1318.89
304.83	1251.31
305.04	1327.08
305.26	1265.64
305.47	1247.21
305.68	1218.54
305.90	1234.93
306.11	1359.85
306.33	1282.03
306.54	1286.12
306.75	1366.00
306.97	1271.79
307.18	1279.98
307.39	1333.23
307.61	1355.76
307.82	1257.45
308.04	1286.12
308.25	1265.64
308.46	1204.21
308.68	1255.40
308.89	1345.52
309.10	1220.59
309.32	1212.40
309.53	1284.08
309.74	1290.22
309.96	1193.97
310.17	1241.07
310.39	1253.36
310.60	1400.81
310.81	1236.97
311.03	1241.07
311.24	1286.12
311.45	1304.56
311.67	1279.98
311.88	1263.60
312.09	1234.93
312.31	1265.64
312.52	1185.77
312.73	1279.98
312.95	1286.12
313.16	1333.23
313.37	1255.40
313.59	1304.56
313.80	1271.79
314.01	1290.22
314.23	1261.55
314.44	1282.03
314.65	1224.69
314.87	1288.17
315.08	1279.98
315.29	1263.60
315.51	1210.35
315.72	1271.79
315.93	1249.26
316.15	1239.02
316.36	1304.56
316.57	1265.64
316.79	1279.98
317.00	1222.64
317.21	1306.60
317.43	1302.51
317.64	1253.36
317.85	1335.28
318.07	1202.16
318.28	1216.49
318.49	1232.88
318.70	1243.12
318.92	1198.06
319.13	1294.32
319.34	1259.50
319.56	1224.69
319.77	1298.41
319.98	1191.92
320.20	1226.73
320.41	1351.66
320.62	1255.40
320.83	1236.97
321.05	1298.41
321.26	1263.60
321.47	1255.40
321.69	1208.30
321.90	1257.45
322.11	1247.21
322.32	1308.65
322.54	1267.69
322.75	1310.70
322.96	1286.12
323.18	1290.22
323.39	1236.97
323.60	1253.36
323.81	1331.18
324.03	1298.41
324.24	1347.56
324.45	1253.36
324.66	1382.38
324.88	1308.65
325.09	1275.88
325.30	1259.50
325.52	1298.41
325.73	1316.84
325.94	1210.35
326.15	1236.97
326.37	1171.44
326.58	1243.12
326.79	1298.41
327.00	1224.69
327.22	1255.40
327.43	1234.93
327.64	1259.50
327.85	1241.07
328.07	1300.46
328.28	1298.41
328.49	1275.88
328.70	1234.93
328.92	1239.02
329.13	1257.45
329.34	1279.98
329.55	1343.47
329.76	1220.59
329.98	1296.36
330.19	1282.03
330.40	1259.50
330.61	1255.40
330.83	1253.36
331.04	1253.36
331.25	1224.69
331.46	1304.56
331.68	1222.64
331.89	1230.83
332.10	1239.02
332.31	1331.18
332.52	1320.94
332.74	1282.03
332.95	1322.99
333.16	1196.01
333.37	1265.64
333.58	1300.46
333.80	1290.22
334.01	1245.16
334.22	1347.56
334.43	1298.41
334.64	1259.50
334.86	1284.08
335.07	1304.56
335.28	1241.07
335.49	1267.69
335.70	1300.46
335.92	1267.69
336.13	1310.70
336.34	1224.69
336.55	1204.21
336.76	1202.16
336.98	1302.51
337.19	1265.64
337.40	1224.69
337.61	1312.75
337.82	1343.47
338.04	1234.93
338.25	1171.44
338.46	1316.84
338.67	1282.03
338.88	1249.26
339.09	1253.36
339.31	1271.79
339.52	1239.02
339.73	1296.36
339.94	1300.46
340.15	1247.21
340.36	1288.17
340.58	1267.69
340.79	1347.56
341.00	1288.17
341.21	1206.25
341.42	1292.27
341.63	1259.50
341.85	1263.60
342.06	1275.88
342.27	1325.04
342.48	1247.21
342.69	1277.93
342.90	1294.32
343.12	1273.84
343.33	1241.07
343.54	1263.60
343.75	1279.98
343.96	1288.17
344.17	1251.31
344.38	1214.45
344.60	1148.91
344.81	1189.87
345.02	1259.50
345.23	1292.27
345.44	1286.12
345.65	1208.30
345.86	1318.89
346.07	1261.55
346.29	1212.40
346.50	1339.37
346.71	1290.22
346.92	1298.41
347.13	1279.98
347.34	1331.18
347.55	1241.07
347.76	1251.31
347.98	1306.60
348.19	1255.40
348.40	1284.08
348.61	1269.74
348.82	1253.36
349.03	1296.36
349.24	1220.59
349.45	1273.84
349.66	1294.32
349.88	1298.41
350.09	1320.94
350.30	1298.41
350.51	1234.93
350.72	1210.35
350.93	1239.02
351.14	1241.07
351.35	1271.79
351.56	1282.03
351.77	1247.21
351.99	1273.84
352.20	1189.87
352.41	1241.07
352.62	1329.13
352.83	1333.23
353.04	1271.79
353.25	1275.88
353.46	1310.70
353.67	1216.49
353.88	1298.41
354.09	1224.69
354.30	1236.97
354.52	1247.21
354.73	1318.89
354.94	1187.82
355.15	1259.50
355.36	1275.88
355.57	1288.17
355.78	1308.65
355.99	1380.33
356.20	1304.56
356.41	1300.46
356.62	1290.22
356.83	1312.75
357.04	1218.54
357.25	1282.03
357.46	1349.61
357.68	1302.51
357.89	1232.88
358.10	1308.65
358.31	1292.27
358.52	1249.26
358.73	1255.40
358.94	1269.74
359.15	1249.26
359.36	1308.65
359.57	1298.41
359.78	1339.37
359.99	1298.41
360.20	1210.35
360.41	1243.12
360.62	1243.12
360.83	1275.88
361.04	1271.79
361.25	1236.97
361.46	1245.16
361.67	1269.74
361.88	1228.78
362.09	1292.27
362.30	1333.23
362.51	1206.25
362.72	1241.07
362.93	1333.23
363.14	1265.64
363.35	1218.54
363.56	1241.07
363.78	1269.74
363.99	1279.98
364.20	1187.82
364.41	1320.94
364.62	1204.21
364.83	1230.83
365.04	1218.54
365.25	1290.22
365.46	1226.73
365.67	1263.60
365.88	1226.73
366.09	1253.36
366.30	1183.73
366.51	1226.73
366.72	1286.12
366.93	1322.99
367.14	1335.28
367.35	1353.71
367.56	1288.17
367.77	1296.36
367.98	1288.17
368.18	1232.88
368.39	1269.74
368.60	1234.93
368.81	1196.01
369.02	1259.50
369.23	1208.30
369.44	1286.12
369.65	1282.03
369.86	1218.54
370.07	1257.45
370.28	1200.11
370.49	1232.88
370.70	1347.56
370.91	1304.56
371.12	1267.69
371.33	1267.69
371.54	1214.45
371.75	1267.69
371.96	1306.60
372.17	1257.45
372.38	1259.50
372.59	1290.22
372.80	1306.60
373.01	1296.36
373.22	1265.64
373.43	1263.60
373.64	1247.21
373.85	1243.12
374.06	1288.17
374.26	1304.56
374.47	1222.64
374.68	1173.49
374.89	1304.56
375.10	1208.30
375.31	1253.36
375.52	1259.50
375.73	1275.88
375.94	1271.79
376.15	1261.55
376.36	1271.79
376.57	1277.93
376.78	1302.51
376.99	1298.41
377.20	1294.32
377.40	1251.31
377.61	1277.93
377.82	1271.79
378.03	1298.41
378.24	1339.37
378.45	1245.16
378.66	1196.01
378.87	1329.13
379.08	1232.88
379.29	1322.99
379.50	1277.93
379.71	1220.59
379.91	1343.47
380.12	1148.91
380.33	1273.84
380.54	1298.41
380.75	1255.40
380.96	1302.51
381.17	1247.21
381.38	1247.21
381.59	1236.97
381.80	1312.75
382.00	1277.93
382.21	1277.93
382.42	1265.64
382.63	1267.69
382.84	1288.17
383.05	1275.88
383.26	1259.50
383.47	1341.42
383.68	1284.08
383.88	1206.25
384.09	1331.18
384.30	1228.78
384.51	1304.56
384.72	1271.79
384.93	1329.13
385.14	1294.32
385.35	1302.51
385.55	1208.30
385.76	1288.17
385.97	1236.97
386.18	1241.07
386.39	1372.14
386.60	1288.17
386.81	1310.70
387.02	1282.03
387.22	1269.74
387.43	1169.39
387.64	1218.54
387.85	1316.84
388.06	1288.17
388.27	1286.12
388.48	1275.88
388.68	1263.60
388.89	1327.08
389.10	1255.40
389.31	1210.35
389.52	1273.84
389.73	1245.16
389.93	1232.88
390.14	1179.63
390.35	1251.31
390.56	1243.12
390.77	1279.98
390.98	1265.64
391.18	1210.35
391.39	1279.98
391.60	1265.64
391.81	1234.93
392.02	1257.45
392.23	1304.56
392.43	1290.22
392.64	1224.69
392.85	1239.02
393.06	1282.03
393.27	1314.80
393.47	1204.21
393.68	1236.97
393.89	1277.93
394.10	1269.74
394.31	1183.73
394.52	1273.84
394.72	1282.03
394.93	1298.41
395.14	1253.36
395.35	1306.60
395.56	1263.60
395.76	1288.17
395.97	1290.22
396.18	1249.26
396.39	1351.66
396.60	1267.69
396.80	1286.12
397.01	1263.60
397.22	1245.16
397.43	1200.11
397.64	1304.56
397.84	1271.79
398.05	1271.79
398.26	1241.07
398.47	1296.36
398.67	1372.14
398.88	1230.83
399.09	1286.12
399.30	1251.31
399.51	1200.11
399.71	1290.22
399.92	1259.50
400.13	1220.59
400.34	1269.74
400.54	1351.66
400.75	1296.36
400.96	1198.06
401.17	1257.45
401.37	1269.74
401.58	1257.45
401.79	1181.68
402.00	1292.27
402.21	1298.41
402.41	1310.70
402.62	1251.31
402.83	1314.80
403.04	1269.74
403.24	1300.46
403.45	1339.37
403.66	1224.69
403.87	1331.18
404.07	1216.49
404.28	1282.03
404.49	1230.83
404.70	1226.73
404.90	1327.08
405.11	1349.61
405.32	1279.98
405.52	1257.45
405.73	1265.64
405.94	1286.12
406.15	1265.64
406.35	1226.73
406.56	1241.07
406.77	1249.26
406.98	1171.44
407.18	1277.93
407.39	1257.45
407.60	1257.45
407.80	1277.93
408.01	1333.23
408.22	1275.88
408.43	1191.92
408.63	1234.93
408.84	1304.56
409.05	1191.92
409.25	1277.93
409.46	1230.83
409.67	1277.93
409.88	1273.84
410.08	1308.65
410.29	1249.26
410.50	1204.21
410.70	1286.12
410.91	1255.40
411.12	1308.65
411.32	1191.92
411.53	1269.74
411.74	1294.32
411.95	1288.17
412.15	1286.12
412.36	1259.50
412.57	1286.12
412.77	1296.36
412.98	1261.55
413.19	1222.64
413.39	1290.22
413.60	1288.17
413.81	1257.45
414.01	1259.50
414.22	1310.70
414.43	1279.98
414.63	1179.63
414.84	1210.35
415.05	1208.30
415.25	1279.98
415.46	1247.21
415.67	1228.78
415.87	1169.39
416.08	1271.79
416.29	1267.69
416.49	1296.36
416.70	1208.30
416.91	1298.41
417.11	1292.27
417.32	1279.98
417.53	1232.88
417.73	1329.13
417.94	1300.46
418.15	1236.97
418.35	1304.56
418.56	1228.78
418.77	1253.36
418.97	1320.94
419.18	1255.40
419.38	1329.13
419.59	1265.64
419.80	1298.41
420.00	1206.25
420.21	1196.01
420.42	1298.41
420.62	1300.46
420.83	1228.78
421.04	1198.06
421.24	1253.36
421.45	1222.64
421.65	1239.02
421.86	1255.40
422.07	1357.80
422.27	1226.73
422.48	1253.36
422.69	1232.88
422.89	1298.41
423.10	1257.45
423.30	1253.36
423.51	1265.64
423.72	1212.40
423.92	1314.80
424.13	1216.49
424.33	1329.13
424.54	1329.13
424.75	1306.60
424.95	1247.21
425.16	1310.70
425.36	1286.12
425.57	1292.27
425.78	1224.69
425.98	1226.73
426.19	1243.12
426.39	1302.51
426.60	1359.85
426.81	1335.28
427.01	1335.28
427.22	1359.85
427.42	1286.12
427.63	1243.12
427.83	1200.11
428.04	1294.32
428.25	1273.84
428.45	1312.75
428.66	1222.64
428.86	1257.45
429.07	1269.74
429.28	1275.88
429.48	1271.79
429.69	1273.84
429.89	1234.93
430.10	1286.12
430.30	1298.41
430.51	1277.93
430.71	1273.84
430.92	1241.07
431.13	1290.22
431.33	1288.17
431.54	1220.59
431.74	1282.03
431.95	1202.16
432.15	1234.93
432.36	1304.56
432.56	1286.12
432.77	1284.08
432.98	1304.56
433.18	1247.21
433.39	1331.18
433.59	1263.60
433.80	1372.14
434.00	1269.74
434.21	1290.22
434.41	1267.69
434.62	1294.32
434.82	1267.69
435.03	1277.93
435.23	1202.16
435.44	1288.17
435.64	1279.98
435.85	1208.30
436.06	1257.45
436.26	1212.40
436.47	1206.25
436.67	1269.74
436.88	1296.36
437.08	1269.74
437.29	1230.83
437.49	1329.13
437.70	1329.13
437.90	1290.22
438.11	1247.21
438.31	1269.74
438.52	1294.32
438.72	1236.97
438.93	1230.83
439.13	1249.26
439.34	1216.49
439.54	1353.71
439.75	1265.64
439.95	1378.28
440.16	1234.93
440.36	1222.64
440.57	1249.26
440.77	1288.17
440.98	1292.27
441.18	1316.84
441.39	1290.22
441.59	1310.70
441.80	1257.45
442.00	1290.22
442.21	1253.36
442.41	1277.93
442.62	1284.08
442.82	1249.26
443.02	1310.70
443.23	1253.36
443.43	1292.27
443.64	1271.79
443.84	1335.28
444.05	1224.69
444.25	1253.36
444.46	1290.22
444.66	1263.60
444.87	1275.88
445.07	1302.51
445.28	1286.12
445.48	1322.99
445.69	1267.69
445.89	1175.53
446.09	1263.60
446.30	1290.22
446.50	1341.42
446.71	1243.12
446.91	1269.74
447.12	1337.32
447.32	1275.88
447.53	1236.97
447.73	1292.27
447.93	1275.88
448.14	1353.71
448.34	1251.31
448.55	1257.45
448.75	1413.10
448.96	1275.88
449.16	1241.07
449.36	1224.69
449.57	1224.69
449.77	1306.60
449.98	1292.27
450.18	1241.07
450.39	1310.70
450.59	1230.83
450.79	1288.17
451.00	1343.47
451.20	1318.89
451.41	1366.00
451.61	1206.25
451.81	1232.88
452.02	1239.02
452.22	1341.42
452.43	1279.98
452.63	1282.03
