SpectraSuite Data File
++++++++++++++++++++++++++++++++++++
Date: Sun Apr 03 19:55:53 CEST 2016
User: root
Dark Spectrum Present: No
Reference Spectrum Present: No
Number of Sampled Component Spectra: 1
Spectrometers: USB4C02835
Integration Time (usec): 10000 (USB4C02835)
Spectra Averaged: 1 (USB4C02835)
Boxcar Smoothing: 0 (USB4C02835)
Correct for Electrical Dark: No (USB4C02835)
Strobe/Lamp Enabled: No (USB4C02835)
Correct for Detector Non-linearity: No (USB4C02835)
Correct for Stray Light: No (USB4C02835)
Number of Pixels in Processed Spectrum: 3648
>>>>>Begin Processed Spectral Data<<<<<
177.47	1245.16
177.69	1245.16
177.91	1245.16
178.13	1249.26
178.36	1185.77
178.58	1216.49
178.80	1206.25
179.02	1304.56
179.24	1314.80
179.46	1255.40
179.68	1251.31
179.90	1232.88
180.13	1320.94
180.35	1253.36
180.57	1282.03
180.79	1300.46
181.01	1226.73
181.23	1214.45
181.45	1263.60
181.67	1316.84
181.90	1300.46
182.12	1273.84
182.34	1286.12
182.56	1228.78
182.78	1236.97
183.00	1253.36
183.22	1331.18
183.44	1216.49
183.66	1339.37
183.89	1359.85
184.11	1263.60
184.33	1265.64
184.55	1282.03
184.77	1241.07
184.99	1298.41
185.21	1226.73
185.43	1316.84
185.65	1288.17
185.87	1234.93
186.10	1296.36
186.32	1253.36
186.54	1261.55
186.76	1337.32
186.98	1265.64
187.20	1339.37
187.42	1177.58
187.64	1275.88
187.86	1277.93
188.08	1304.56
188.30	1210.35
188.52	1263.60
188.75	1302.51
188.97	1265.64
189.19	1226.73
189.41	1224.69
189.63	1245.16
189.85	1239.02
190.07	1257.45
190.29	1251.31
190.51	1179.63
190.73	1267.69
190.95	1257.45
191.17	1249.26
191.39	1304.56
191.61	1222.64
191.84	1265.64
192.06	1259.50
192.28	1257.45
192.50	1247.21
192.72	1282.03
192.94	1282.03
193.16	1255.40
193.38	1302.51
193.60	1261.55
193.82	1322.99
194.04	1175.53
194.26	1329.13
194.48	1236.97
194.70	1306.60
194.92	1263.60
195.14	1318.89
195.36	1284.08
195.58	1214.45
195.80	1265.64
196.02	1335.28
196.24	1169.39
196.46	1265.64
196.69	1271.79
196.91	1187.82
197.13	1232.88
197.35	1216.49
197.57	1320.94
197.79	1290.22
198.01	1277.93
198.23	1269.74
198.45	1279.98
198.67	1241.07
198.89	1282.03
199.11	1279.98
199.33	1257.45
199.55	1288.17
199.77	1230.83
199.99	1222.64
200.21	1318.89
200.43	1239.02
200.65	1337.32
200.87	1304.56
201.09	1247.21
201.31	1325.04
201.53	1302.51
201.75	1220.59
201.97	1277.93
202.19	1284.08
202.41	1249.26
202.63	1282.03
202.85	1257.45
203.07	1249.26
203.29	1282.03
203.51	1273.84
203.73	1255.40
203.95	1292.27
204.17	1202.16
204.39	1232.88
204.61	1294.32
204.83	1208.30
205.05	1265.64
205.27	1312.75
205.49	1296.36
205.71	1222.64
205.93	1257.45
206.15	1269.74
206.37	1275.88
206.59	1251.31
206.81	1273.84
207.03	1351.66
207.25	1271.79
207.47	1306.60
207.69	1245.16
207.91	1226.73
208.13	1261.55
208.34	1191.92
208.56	1228.78
208.78	1269.74
209.00	1286.12
209.22	1265.64
209.44	1208.30
209.66	1288.17
209.88	1349.61
210.10	1271.79
210.32	1290.22
210.54	1222.64
210.76	1314.80
210.98	1226.73
211.20	1245.16
211.42	1265.64
211.64	1320.94
211.86	1292.27
212.08	1308.65
212.30	1265.64
212.52	1220.59
212.74	1290.22
212.96	1284.08
213.17	1236.97
213.39	1216.49
213.61	1298.41
213.83	1259.50
214.05	1300.46
214.27	1241.07
214.49	1273.84
214.71	1310.70
214.93	1251.31
215.15	1304.56
215.37	1265.64
215.59	1263.60
215.81	1134.57
216.03	1298.41
216.24	1288.17
216.46	1300.46
216.68	1286.12
216.90	1257.45
217.12	1234.93
217.34	1226.73
217.56	1232.88
217.78	1284.08
218.00	1265.64
218.22	1200.11
218.44	1255.40
218.66	1263.60
218.87	1255.40
219.09	1343.47
219.31	1255.40
219.53	1232.88
219.75	1234.93
219.97	1251.31
220.19	1310.70
220.41	1241.07
220.63	1284.08
220.85	1273.84
221.06	1282.03
221.28	1302.51
221.50	1218.54
221.72	1302.51
221.94	1279.98
222.16	1282.03
222.38	1241.07
222.60	1200.11
222.82	1232.88
223.03	1277.93
223.25	1345.52
223.47	1239.02
223.69	1306.60
223.91	1228.78
224.13	1236.97
224.35	1234.93
224.57	1349.61
224.78	1253.36
225.00	1300.46
225.22	1282.03
225.44	1306.60
225.66	1304.56
225.88	1234.93
226.10	1286.12
226.32	1273.84
226.53	1269.74
226.75	1366.00
226.97	1316.84
227.19	1290.22
227.41	1232.88
227.63	1220.59
227.85	1279.98
228.06	1212.40
228.28	1177.58
228.50	1257.45
228.72	1193.97
228.94	1257.45
229.16	1226.73
229.37	1249.26
229.59	1230.83
229.81	1267.69
230.03	1220.59
230.25	1282.03
230.47	1204.21
230.69	1257.45
230.90	1284.08
231.12	1255.40
231.34	1279.98
231.56	1212.40
231.78	1282.03
232.00	1261.55
232.21	1241.07
232.43	1302.51
232.65	1150.96
232.87	1290.22
233.09	1261.55
233.30	1261.55
233.52	1243.12
233.74	1224.69
233.96	1230.83
234.18	1255.40
234.40	1210.35
234.61	1290.22
234.83	1216.49
235.05	1277.93
235.27	1308.65
235.49	1284.08
235.70	1294.32
235.92	1218.54
236.14	1298.41
236.36	1308.65
236.58	1284.08
236.79	1255.40
237.01	1282.03
237.23	1312.75
237.45	1236.97
237.67	1294.32
237.88	1204.21
238.10	1208.30
238.32	1267.69
238.54	1284.08
238.76	1275.88
238.97	1290.22
239.19	1251.31
239.41	1247.21
239.63	1306.60
239.85	1292.27
240.06	1247.21
240.28	1234.93
240.50	1366.00
240.72	1230.83
240.93	1298.41
241.15	1245.16
241.37	1306.60
241.59	1263.60
241.81	1247.21
242.02	1300.46
242.24	1331.18
242.46	1349.61
242.68	1308.65
242.89	1232.88
243.11	1269.74
243.33	1279.98
243.55	1245.16
243.76	1282.03
243.98	1265.64
244.20	1265.64
244.42	1279.98
244.64	1282.03
244.85	1179.63
245.07	1200.11
245.29	1298.41
245.51	1271.79
245.72	1269.74
245.94	1318.89
246.16	1304.56
246.38	1273.84
246.59	1273.84
246.81	1263.60
247.03	1265.64
247.24	1208.30
247.46	1241.07
247.68	1290.22
247.90	1318.89
248.11	1239.02
248.33	1294.32
248.55	1265.64
248.77	1296.36
248.98	1298.41
249.20	1294.32
249.42	1265.64
249.64	1273.84
249.85	1282.03
250.07	1294.32
250.29	1261.55
250.50	1318.89
250.72	1271.79
250.94	1232.88
251.16	1279.98
251.37	1243.12
251.59	1298.41
251.81	1343.47
252.02	1208.30
252.24	1329.13
252.46	1361.90
252.68	1288.17
252.89	1296.36
253.11	1273.84
253.33	1271.79
253.54	1239.02
253.76	1255.40
253.98	1247.21
254.20	1251.31
254.41	1269.74
254.63	1279.98
254.85	1279.98
255.06	1253.36
255.28	1275.88
255.50	1292.27
255.71	1333.23
255.93	1259.50
256.15	1243.12
256.36	1226.73
256.58	1320.94
256.80	1298.41
257.02	1267.69
257.23	1251.31
257.45	1316.84
257.67	1263.60
257.88	1204.21
258.10	1230.83
258.32	1288.17
258.53	1273.84
258.75	1249.26
258.97	1257.45
259.18	1294.32
259.40	1292.27
259.62	1200.11
259.83	1232.88
260.05	1288.17
260.27	1290.22
260.48	1253.36
260.70	1226.73
260.92	1294.32
261.13	1302.51
261.35	1282.03
261.57	1294.32
261.78	1267.69
262.00	1220.59
262.22	1286.12
262.43	1267.69
262.65	1204.21
262.86	1222.64
263.08	1247.21
263.30	1263.60
263.51	1200.11
263.73	1298.41
263.95	1294.32
264.16	1214.45
264.38	1298.41
264.60	1224.69
264.81	1259.50
265.03	1339.37
265.25	1325.04
265.46	1259.50
265.68	1253.36
265.89	1224.69
266.11	1269.74
266.33	1257.45
266.54	1345.52
266.76	1196.01
266.98	1298.41
267.19	1304.56
267.41	1253.36
267.62	1198.06
267.84	1302.51
268.06	1306.60
268.27	1306.60
268.49	1286.12
268.70	1239.02
268.92	1265.64
269.14	1302.51
269.35	1243.12
269.57	1230.83
269.79	1267.69
270.00	1312.75
270.22	1257.45
270.43	1259.50
270.65	1284.08
270.87	1265.64
271.08	1345.52
271.30	1181.68
271.51	1284.08
271.73	1290.22
271.95	1255.40
272.16	1185.77
272.38	1343.47
272.59	1304.56
272.81	1282.03
273.02	1200.11
273.24	1292.27
273.46	1220.59
273.67	1279.98
273.89	1200.11
274.10	1271.79
274.32	1265.64
274.54	1224.69
274.75	1341.42
274.97	1253.36
275.18	1282.03
275.40	1298.41
275.61	1220.59
275.83	1216.49
276.05	1232.88
276.26	1230.83
276.48	1306.60
276.69	1265.64
276.91	1261.55
277.12	1210.35
277.34	1279.98
277.55	1343.47
277.77	1222.64
277.99	1269.74
278.20	1245.16
278.42	1243.12
278.63	1230.83
278.85	1226.73
279.06	1259.50
279.28	1320.94
279.49	1222.64
279.71	1216.49
279.93	1316.84
280.14	1255.40
280.36	1228.78
280.57	1388.52
280.79	1279.98
281.00	1220.59
281.22	1282.03
281.43	1226.73
281.65	1239.02
281.86	1277.93
282.08	1306.60
282.29	1269.74
282.51	1226.73
282.73	1249.26
282.94	1222.64
283.16	1269.74
283.37	1282.03
283.59	1257.45
283.80	1310.70
284.02	1241.07
284.23	1204.21
284.45	1331.18
284.66	1228.78
284.88	1331.18
285.09	1288.17
285.31	1296.36
285.52	1241.07
285.74	1273.84
285.95	1296.36
286.17	1261.55
286.38	1282.03
286.60	1259.50
286.81	1220.59
287.03	1245.16
287.24	1257.45
287.46	1253.36
287.67	1290.22
287.89	1298.41
288.10	1263.60
288.32	1343.47
288.53	1296.36
288.75	1230.83
288.96	1261.55
289.18	1247.21
289.39	1353.71
289.61	1339.37
289.82	1261.55
290.04	1282.03
290.25	1253.36
290.47	1361.90
290.68	1226.73
290.90	1263.60
291.11	1232.88
291.33	1331.18
291.54	1294.32
291.76	1284.08
291.97	1200.11
292.18	1271.79
292.40	1296.36
292.61	1191.92
292.83	1239.02
293.04	1284.08
293.26	1320.94
293.47	1300.46
293.69	1241.07
293.90	1290.22
294.12	1228.78
294.33	1286.12
294.55	1265.64
294.76	1279.98
294.97	1193.97
295.19	1269.74
295.40	1255.40
295.62	1304.56
295.83	1322.99
296.05	1273.84
296.26	1247.21
296.48	1286.12
296.69	1253.36
296.90	1310.70
297.12	1261.55
297.33	1273.84
297.55	1241.07
297.76	1210.35
297.98	1339.37
298.19	1314.80
298.41	1290.22
298.62	1265.64
298.83	1273.84
299.05	1232.88
299.26	1245.16
299.48	1253.36
299.69	1257.45
299.90	1302.51
300.12	1181.68
300.33	1247.21
300.55	1222.64
300.76	1263.60
300.98	1249.26
301.19	1310.70
301.40	1236.97
301.62	1263.60
301.83	1251.31
302.05	1296.36
302.26	1343.47
302.47	1347.56
302.69	1257.45
302.90	1239.02
303.12	1320.94
303.33	1329.13
303.54	1284.08
303.76	1339.37
303.97	1316.84
304.19	1286.12
304.40	1253.36
304.61	1232.88
304.83	1286.12
305.04	1265.64
305.26	1288.17
305.47	1304.56
305.68	1273.84
305.90	1275.88
306.11	1243.12
306.33	1267.69
306.54	1236.97
306.75	1339.37
306.97	1234.93
307.18	1296.36
307.39	1292.27
307.61	1253.36
307.82	1288.17
308.04	1232.88
308.25	1253.36
308.46	1282.03
308.68	1191.92
308.89	1208.30
309.10	1294.32
309.32	1302.51
309.53	1241.07
309.74	1286.12
309.96	1298.41
310.17	1247.21
310.39	1206.25
310.60	1232.88
310.81	1292.27
311.03	1220.59
311.24	1302.51
311.45	1234.93
311.67	1339.37
311.88	1247.21
312.09	1294.32
312.31	1284.08
312.52	1249.26
312.73	1290.22
312.95	1239.02
313.16	1216.49
313.37	1239.02
313.59	1241.07
313.80	1306.60
314.01	1316.84
314.23	1335.28
314.44	1249.26
314.65	1282.03
314.87	1249.26
315.08	1277.93
315.29	1220.59
315.51	1200.11
315.72	1325.04
315.93	1337.32
316.15	1322.99
316.36	1257.45
316.57	1175.53
316.79	1236.97
317.00	1304.56
317.21	1218.54
317.43	1234.93
317.64	1236.97
317.85	1296.36
318.07	1277.93
318.28	1249.26
318.49	1255.40
318.70	1269.74
318.92	1259.50
319.13	1251.31
319.34	1241.07
319.56	1339.37
319.77	1279.98
319.98	1288.17
320.20	1253.36
320.41	1243.12
320.62	1224.69
320.83	1325.04
321.05	1318.89
321.26	1282.03
321.47	1249.26
321.69	1279.98
321.90	1290.22
322.11	1300.46
322.32	1173.49
322.54	1275.88
322.75	1257.45
322.96	1292.27
323.18	1241.07
323.39	1308.65
323.60	1288.17
323.81	1271.79
324.03	1241.07
324.24	1343.47
324.45	1322.99
324.66	1236.97
324.88	1290.22
325.09	1239.02
325.30	1273.84
325.52	1230.83
325.73	1284.08
325.94	1228.78
326.15	1267.69
326.37	1247.21
326.58	1241.07
326.79	1257.45
327.00	1232.88
327.22	1290.22
327.43	1263.60
327.64	1236.97
327.85	1275.88
328.07	1247.21
328.28	1228.78
328.49	1226.73
328.70	1322.99
328.92	1290.22
329.13	1273.84
329.34	1290.22
329.55	1261.55
329.76	1249.26
329.98	1279.98
330.19	1224.69
330.40	1224.69
330.61	1261.55
330.83	1269.74
331.04	1222.64
331.25	1277.93
331.46	1175.53
331.68	1290.22
331.89	1271.79
332.10	1302.51
332.31	1230.83
332.52	1296.36
332.74	1245.16
332.95	1140.72
333.16	1279.98
333.37	1216.49
333.58	1253.36
333.80	1247.21
334.01	1189.87
334.22	1306.60
334.43	1290.22
334.64	1300.46
334.86	1251.31
335.07	1191.92
335.28	1251.31
335.49	1222.64
335.70	1232.88
335.92	1290.22
336.13	1245.16
336.34	1150.96
336.55	1292.27
336.76	1218.54
336.98	1196.01
337.19	1243.12
337.40	1314.80
337.61	1253.36
337.82	1230.83
338.04	1204.21
338.25	1296.36
338.46	1196.01
338.67	1267.69
338.88	1257.45
339.09	1216.49
339.31	1263.60
339.52	1292.27
339.73	1304.56
339.94	1279.98
340.15	1220.59
340.36	1230.83
340.58	1249.26
340.79	1341.42
341.00	1204.21
341.21	1208.30
341.42	1308.65
341.63	1286.12
341.85	1310.70
342.06	1210.35
342.27	1193.97
342.48	1222.64
342.69	1241.07
342.90	1296.36
343.12	1298.41
343.33	1226.73
343.54	1304.56
343.75	1314.80
343.96	1318.89
344.17	1306.60
344.38	1232.88
344.60	1253.36
344.81	1286.12
345.02	1292.27
345.23	1220.59
345.44	1202.16
345.65	1214.45
345.86	1294.32
346.07	1296.36
346.29	1265.64
346.50	1331.18
346.71	1241.07
346.92	1271.79
347.13	1200.11
347.34	1265.64
347.55	1304.56
347.76	1159.15
347.98	1249.26
348.19	1310.70
348.40	1265.64
348.61	1241.07
348.82	1251.31
349.03	1224.69
349.24	1218.54
349.45	1316.84
349.66	1175.53
349.88	1230.83
350.09	1224.69
350.30	1210.35
350.51	1271.79
350.72	1267.69
350.93	1286.12
351.14	1279.98
351.35	1269.74
351.56	1155.05
351.77	1222.64
351.99	1363.95
352.20	1322.99
352.41	1296.36
352.62	1241.07
352.83	1277.93
353.04	1255.40
353.25	1322.99
353.46	1273.84
353.67	1273.84
353.88	1261.55
354.09	1304.56
354.30	1267.69
354.52	1259.50
354.73	1271.79
354.94	1257.45
355.15	1255.40
355.36	1286.12
355.57	1322.99
355.78	1308.65
355.99	1224.69
356.20	1255.40
356.41	1206.25
356.62	1284.08
356.83	1312.75
357.04	1269.74
357.25	1271.79
357.46	1218.54
357.68	1259.50
357.89	1208.30
358.10	1333.23
358.31	1290.22
358.52	1271.79
358.73	1312.75
358.94	1359.85
359.15	1263.60
359.36	1253.36
359.57	1271.79
359.78	1263.60
359.99	1265.64
360.20	1206.25
360.41	1239.02
360.62	1255.40
360.83	1400.81
361.04	1277.93
361.25	1345.52
361.46	1214.45
361.67	1251.31
361.88	1257.45
362.09	1349.61
362.30	1228.78
362.51	1218.54
362.72	1312.75
362.93	1228.78
363.14	1277.93
363.35	1226.73
363.56	1212.40
363.78	1224.69
363.99	1234.93
364.20	1284.08
364.41	1282.03
364.62	1245.16
364.83	1339.37
365.04	1265.64
365.25	1322.99
365.46	1243.12
365.67	1253.36
365.88	1314.80
366.09	1316.84
366.30	1261.55
366.51	1255.40
366.72	1236.97
366.93	1314.80
367.14	1286.12
367.35	1269.74
367.56	1224.69
367.77	1257.45
367.98	1153.01
368.18	1187.82
368.39	1214.45
368.60	1273.84
368.81	1261.55
369.02	1239.02
369.23	1245.16
369.44	1239.02
369.65	1275.88
369.86	1265.64
370.07	1263.60
370.28	1312.75
370.49	1232.88
370.70	1304.56
370.91	1284.08
371.12	1329.13
371.33	1261.55
371.54	1279.98
371.75	1265.64
371.96	1241.07
372.17	1282.03
372.38	1263.60
372.59	1247.21
372.80	1271.79
373.01	1292.27
373.22	1302.51
373.43	1275.88
373.64	1263.60
373.85	1247.21
374.06	1282.03
374.26	1296.36
374.47	1298.41
374.68	1251.31
374.89	1236.97
375.10	1255.40
375.31	1198.06
375.52	1294.32
375.73	1275.88
375.94	1298.41
376.15	1220.59
376.36	1288.17
376.57	1265.64
376.78	1249.26
376.99	1284.08
377.20	1263.60
377.40	1282.03
377.61	1298.41
377.82	1322.99
378.03	1216.49
378.24	1253.36
378.45	1284.08
378.66	1282.03
378.87	1304.56
379.08	1286.12
379.29	1232.88
379.50	1273.84
379.71	1288.17
379.91	1185.77
380.12	1306.60
380.33	1310.70
380.54	1284.08
380.75	1230.83
380.96	1218.54
381.17	1263.60
381.38	1243.12
381.59	1277.93
381.80	1279.98
382.00	1341.42
382.21	1267.69
382.42	1363.95
382.63	1277.93
382.84	1306.60
383.05	1292.27
383.26	1261.55
383.47	1224.69
383.68	1245.16
383.88	1282.03
384.09	1263.60
384.30	1200.11
384.51	1361.90
384.72	1331.18
384.93	1273.84
385.14	1279.98
385.35	1306.60
385.55	1353.71
385.76	1265.64
385.97	1245.16
386.18	1216.49
386.39	1290.22
386.60	1312.75
386.81	1318.89
387.02	1296.36
387.22	1257.45
387.43	1359.85
387.64	1333.23
387.85	1290.22
388.06	1228.78
388.27	1243.12
388.48	1255.40
388.68	1224.69
388.89	1304.56
389.10	1298.41
389.31	1300.46
389.52	1263.60
389.73	1292.27
389.93	1257.45
390.14	1198.06
390.35	1296.36
390.56	1275.88
390.77	1267.69
390.98	1200.11
391.18	1312.75
391.39	1208.30
391.60	1183.73
391.81	1325.04
392.02	1282.03
392.23	1228.78
392.43	1292.27
392.64	1249.26
392.85	1224.69
393.06	1226.73
393.27	1277.93
393.47	1327.08
393.68	1216.49
393.89	1249.26
394.10	1337.32
394.31	1306.60
394.52	1263.60
394.72	1224.69
394.93	1259.50
395.14	1224.69
395.35	1282.03
395.56	1302.51
395.76	1271.79
395.97	1275.88
396.18	1245.16
396.39	1298.41
396.60	1320.94
396.80	1253.36
397.01	1247.21
397.22	1202.16
397.43	1277.93
397.64	1366.00
397.84	1312.75
398.05	1329.13
398.26	1292.27
398.47	1224.69
398.67	1261.55
398.88	1224.69
399.09	1222.64
399.30	1232.88
399.51	1288.17
399.71	1224.69
399.92	1255.40
400.13	1286.12
400.34	1279.98
400.54	1189.87
400.75	1304.56
400.96	1257.45
401.17	1314.80
401.37	1212.40
401.58	1320.94
401.79	1218.54
402.00	1275.88
402.21	1236.97
402.41	1259.50
402.62	1234.93
402.83	1218.54
403.04	1277.93
403.24	1271.79
403.45	1320.94
403.66	1212.40
403.87	1279.98
404.07	1208.30
404.28	1243.12
404.49	1193.97
404.70	1331.18
404.90	1189.87
405.11	1275.88
405.32	1304.56
405.52	1286.12
405.73	1279.98
405.94	1265.64
406.15	1230.83
406.35	1239.02
406.56	1257.45
406.77	1239.02
406.98	1300.46
407.18	1286.12
407.39	1288.17
407.60	1343.47
407.80	1288.17
408.01	1271.79
408.22	1296.36
408.43	1290.22
408.63	1318.89
408.84	1304.56
409.05	1273.84
409.25	1273.84
409.46	1228.78
409.67	1300.46
409.88	1312.75
410.08	1271.79
410.29	1312.75
410.50	1245.16
410.70	1271.79
410.91	1306.60
411.12	1294.32
411.32	1239.02
411.53	1273.84
411.74	1312.75
411.95	1339.37
412.15	1259.50
412.36	1269.74
412.57	1282.03
412.77	1318.89
412.98	1333.23
413.19	1296.36
413.39	1304.56
413.60	1286.12
413.81	1218.54
414.01	1302.51
414.22	1236.97
414.43	1277.93
414.63	1150.96
414.84	1212.40
415.05	1269.74
415.25	1374.19
415.46	1234.93
415.67	1347.56
415.87	1296.36
416.08	1275.88
416.29	1318.89
416.49	1267.69
416.70	1282.03
416.91	1265.64
417.11	1320.94
417.32	1286.12
417.53	1247.21
417.73	1224.69
417.94	1202.16
418.15	1245.16
418.35	1216.49
418.56	1322.99
418.77	1210.35
418.97	1277.93
419.18	1286.12
419.38	1185.77
419.59	1284.08
419.80	1312.75
420.00	1341.42
420.21	1144.81
420.42	1265.64
420.62	1273.84
420.83	1196.01
421.04	1224.69
421.24	1210.35
421.45	1265.64
421.65	1239.02
421.86	1265.64
422.07	1308.65
422.27	1236.97
422.48	1308.65
422.69	1273.84
422.89	1236.97
423.10	1271.79
423.30	1234.93
423.51	1288.17
423.72	1275.88
423.92	1327.08
424.13	1294.32
424.33	1257.45
424.54	1267.69
424.75	1292.27
424.95	1277.93
425.16	1318.89
425.36	1236.97
425.57	1208.30
425.78	1243.12
425.98	1337.32
426.19	1249.26
426.39	1253.36
426.60	1247.21
426.81	1243.12
427.01	1277.93
427.22	1187.82
427.42	1230.83
427.63	1296.36
427.83	1286.12
428.04	1269.74
428.25	1312.75
428.45	1216.49
428.66	1255.40
428.86	1331.18
429.07	1249.26
429.28	1228.78
429.48	1265.64
429.69	1271.79
429.89	1255.40
430.10	1263.60
430.30	1247.21
430.51	1245.16
430.71	1218.54
430.92	1310.70
431.13	1214.45
431.33	1212.40
431.54	1310.70
431.74	1200.11
431.95	1279.98
432.15	1282.03
432.36	1251.31
432.56	1282.03
432.77	1292.27
432.98	1314.80
433.18	1284.08
433.39	1310.70
433.59	1294.32
433.80	1296.36
434.00	1259.50
434.21	1306.60
434.41	1271.79
434.62	1298.41
434.82	1249.26
435.03	1265.64
435.23	1218.54
435.44	1314.80
435.64	1261.55
435.85	1243.12
436.06	1263.60
436.26	1271.79
436.47	1234.93
436.67	1259.50
436.88	1239.02
437.08	1347.56
437.29	1234.93
437.49	1273.84
437.70	1275.88
437.90	1263.60
438.11	1265.64
438.31	1288.17
438.52	1228.78
438.72	1318.89
438.93	1247.21
439.13	1265.64
439.34	1269.74
439.54	1259.50
439.75	1232.88
439.95	1345.52
440.16	1294.32
440.36	1259.50
440.57	1251.31
440.77	1155.05
440.98	1261.55
441.18	1296.36
441.39	1290.22
441.59	1224.69
441.80	1290.22
442.00	1306.60
442.21	1265.64
442.41	1239.02
442.62	1230.83
442.82	1251.31
443.02	1284.08
443.23	1257.45
443.43	1208.30
443.64	1339.37
443.84	1230.83
444.05	1288.17
444.25	1325.04
444.46	1302.51
444.66	1257.45
444.87	1234.93
445.07	1302.51
445.28	1312.75
445.48	1294.32
445.69	1273.84
445.89	1310.70
446.09	1300.46
446.30	1339.37
446.50	1249.26
446.71	1275.88
446.91	1310.70
447.12	1234.93
447.32	1243.12
447.53	1265.64
447.73	1273.84
447.93	1318.89
448.14	1275.88
448.34	1257.45
448.55	1263.60
448.75	1259.50
448.96	1261.55
449.16	1275.88
449.36	1216.49
449.57	1236.97
449.77	1302.51
449.98	1322.99
450.18	1282.03
450.39	1243.12
450.59	1339.37
450.79	1318.89
451.00	1216.49
451.20	1269.74
451.41	1208.30
451.61	1245.16
451.81	1306.60
452.02	1304.56
452.22	1372.14
452.43	1368.04
452.63	1216.49
