SpectraSuite Data File
++++++++++++++++++++++++++++++++++++
Date: Sun Apr 03 19:55:54 CEST 2016
User: root
Dark Spectrum Present: No
Reference Spectrum Present: No
Number of Sampled Component Spectra: 1
Spectrometers: USB4C02835
Integration Time (usec): 10000 (USB4C02835)
Spectra Averaged: 1 (USB4C02835)
Boxcar Smoothing: 0 (USB4C02835)
Correct for Electrical Dark: No (USB4C02835)
Strobe/Lamp Enabled: No (USB4C02835)
Correct for Detector Non-linearity: No (USB4C02835)
Correct for Stray Light: No (USB4C02835)
Number of Pixels in Processed Spectrum: 3648
>>>>>Begin Processed Spectral Data<<<<<
177.47	1277.93
177.69	1277.93
177.91	1277.93
178.13	1259.50
178.36	1224.69
178.58	1277.93
178.80	1279.98
179.02	1247.21
179.24	1277.93
179.46	1208.30
179.68	1257.45
179.90	1316.84
180.13	1265.64
180.35	1245.16
180.57	1275.88
180.79	1261.55
181.01	1196.01
181.23	1220.59
181.45	1325.04
181.67	1216.49
181.90	1255.40
182.12	1261.55
182.34	1337.32
182.56	1247.21
182.78	1290.22
183.00	1206.25
183.22	1232.88
183.44	1261.55
183.66	1265.64
183.89	1284.08
184.11	1259.50
184.33	1271.79
184.55	1267.69
184.77	1290.22
184.99	1288.17
185.21	1239.02
185.43	1202.16
185.65	1245.16
185.87	1230.83
186.10	1296.36
186.32	1286.12
186.54	1212.40
186.76	1255.40
186.98	1212.40
187.20	1218.54
187.42	1286.12
187.64	1255.40
187.86	1230.83
188.08	1249.26
188.30	1288.17
188.52	1267.69
188.75	1214.45
188.97	1273.84
189.19	1249.26
189.41	1327.08
189.63	1255.40
189.85	1243.12
190.07	1239.02
190.29	1277.93
190.51	1216.49
190.73	1243.12
190.95	1243.12
191.17	1298.41
191.39	1212.40
191.61	1249.26
191.84	1261.55
192.06	1251.31
192.28	1255.40
192.50	1241.07
192.72	1220.59
192.94	1263.60
193.16	1220.59
193.38	1275.88
193.60	1241.07
193.82	1333.23
194.04	1304.56
194.26	1296.36
194.48	1122.29
194.70	1226.73
194.92	1265.64
195.14	1234.93
195.36	1282.03
195.58	1232.88
195.80	1318.89
196.02	1239.02
196.24	1294.32
196.46	1239.02
196.69	1249.26
196.91	1300.46
197.13	1249.26
197.35	1312.75
197.57	1226.73
197.79	1267.69
198.01	1218.54
198.23	1267.69
198.45	1206.25
198.67	1239.02
198.89	1257.45
199.11	1325.04
199.33	1277.93
199.55	1226.73
199.77	1277.93
199.99	1241.07
200.21	1306.60
200.43	1249.26
200.65	1257.45
200.87	1232.88
201.09	1286.12
201.31	1286.12
201.53	1292.27
201.75	1267.69
201.97	1275.88
202.19	1277.93
202.41	1210.35
202.63	1345.52
202.85	1206.25
203.07	1255.40
203.29	1255.40
203.51	1271.79
203.73	1210.35
203.95	1206.25
204.17	1275.88
204.39	1298.41
204.61	1204.21
204.83	1314.80
205.05	1304.56
205.27	1218.54
205.49	1253.36
205.71	1368.04
205.93	1232.88
206.15	1255.40
206.37	1259.50
206.59	1257.45
206.81	1247.21
207.03	1230.83
207.25	1279.98
207.47	1230.83
207.69	1325.04
207.91	1230.83
208.13	1257.45
208.34	1222.64
208.56	1253.36
208.78	1181.68
209.00	1224.69
209.22	1286.12
209.44	1363.95
209.66	1290.22
209.88	1273.84
210.10	1269.74
210.32	1253.36
210.54	1279.98
210.76	1302.51
210.98	1257.45
211.20	1239.02
211.42	1331.18
211.64	1196.01
211.86	1284.08
212.08	1306.60
212.30	1304.56
212.52	1232.88
212.74	1236.97
212.96	1167.34
213.17	1255.40
213.39	1304.56
213.61	1247.21
213.83	1239.02
214.05	1273.84
214.27	1290.22
214.49	1337.32
214.71	1282.03
214.93	1314.80
215.15	1261.55
215.37	1296.36
215.59	1325.04
215.81	1302.51
216.03	1282.03
216.24	1325.04
216.46	1251.31
216.68	1310.70
216.90	1312.75
217.12	1259.50
217.34	1204.21
217.56	1261.55
217.78	1331.18
218.00	1249.26
218.22	1302.51
218.44	1302.51
218.66	1306.60
218.87	1335.28
219.09	1232.88
219.31	1222.64
219.53	1296.36
219.75	1230.83
219.97	1327.08
220.19	1255.40
220.41	1234.93
220.63	1259.50
220.85	1288.17
221.06	1140.72
221.28	1200.11
221.50	1302.51
221.72	1243.12
221.94	1296.36
222.16	1220.59
222.38	1253.36
222.60	1257.45
222.82	1298.41
223.03	1261.55
223.25	1214.45
223.47	1284.08
223.69	1265.64
223.91	1220.59
224.13	1322.99
224.35	1271.79
224.57	1312.75
224.78	1243.12
225.00	1361.90
225.22	1263.60
225.44	1259.50
225.66	1337.32
225.88	1308.65
226.10	1273.84
226.32	1247.21
226.53	1357.80
226.75	1257.45
226.97	1261.55
227.19	1269.74
227.41	1275.88
227.63	1196.01
227.85	1290.22
228.06	1224.69
228.28	1236.97
228.50	1396.71
228.72	1267.69
228.94	1310.70
229.16	1230.83
229.37	1304.56
229.59	1255.40
229.81	1290.22
230.03	1288.17
230.25	1265.64
230.47	1214.45
230.69	1259.50
230.90	1220.59
231.12	1304.56
231.34	1251.31
231.56	1249.26
231.78	1312.75
232.00	1257.45
232.21	1306.60
232.43	1277.93
232.65	1325.04
232.87	1298.41
233.09	1226.73
233.30	1253.36
233.52	1290.22
233.74	1249.26
233.96	1286.12
234.18	1271.79
234.40	1273.84
234.61	1300.46
234.83	1288.17
235.05	1220.59
235.27	1218.54
235.49	1265.64
235.70	1247.21
235.92	1273.84
236.14	1273.84
236.36	1226.73
236.58	1259.50
236.79	1288.17
237.01	1271.79
237.23	1271.79
237.45	1312.75
237.67	1271.79
237.88	1243.12
238.10	1341.42
238.32	1298.41
238.54	1239.02
238.76	1263.60
238.97	1269.74
239.19	1249.26
239.41	1257.45
239.63	1243.12
239.85	1277.93
240.06	1247.21
240.28	1273.84
240.50	1288.17
240.72	1304.56
240.93	1249.26
241.15	1277.93
241.37	1230.83
241.59	1286.12
241.81	1331.18
242.02	1236.97
242.24	1261.55
242.46	1310.70
242.68	1282.03
242.89	1271.79
243.11	1193.97
243.33	1335.28
243.55	1232.88
243.76	1218.54
243.98	1263.60
244.20	1269.74
244.42	1273.84
244.64	1275.88
244.85	1189.87
245.07	1269.74
245.29	1257.45
245.51	1314.80
245.72	1331.18
245.94	1253.36
246.16	1273.84
246.38	1263.60
246.59	1292.27
246.81	1249.26
247.03	1261.55
247.24	1265.64
247.46	1263.60
247.68	1249.26
247.90	1314.80
248.11	1282.03
248.33	1308.65
248.55	1290.22
248.77	1269.74
248.98	1245.16
249.20	1269.74
249.42	1273.84
249.64	1222.64
249.85	1298.41
250.07	1259.50
250.29	1282.03
250.50	1230.83
250.72	1261.55
250.94	1288.17
251.16	1200.11
251.37	1275.88
251.59	1296.36
251.81	1296.36
252.02	1310.70
252.24	1187.82
252.46	1304.56
252.68	1269.74
252.89	1314.80
253.11	1239.02
253.33	1320.94
253.54	1267.69
253.76	1251.31
253.98	1267.69
254.20	1232.88
254.41	1241.07
254.63	1298.41
254.85	1269.74
255.06	1329.13
255.28	1279.98
255.50	1226.73
255.71	1300.46
255.93	1224.69
256.15	1308.65
256.36	1308.65
256.58	1275.88
256.80	1327.08
257.02	1220.59
257.23	1183.73
257.45	1243.12
257.67	1376.24
257.88	1279.98
258.10	1251.31
258.32	1290.22
258.53	1271.79
258.75	1265.64
258.97	1228.78
259.18	1312.75
259.40	1286.12
259.62	1298.41
259.83	1236.97
260.05	1241.07
260.27	1269.74
260.48	1214.45
260.70	1230.83
260.92	1275.88
261.13	1300.46
261.35	1257.45
261.57	1294.32
261.78	1288.17
262.00	1177.58
262.22	1216.49
262.43	1230.83
262.65	1228.78
262.86	1212.40
263.08	1302.51
263.30	1249.26
263.51	1302.51
263.73	1329.13
263.95	1259.50
264.16	1218.54
264.38	1251.31
264.60	1271.79
264.81	1239.02
265.03	1277.93
265.25	1239.02
265.46	1294.32
265.68	1259.50
265.89	1191.92
266.11	1208.30
266.33	1269.74
266.54	1249.26
266.76	1296.36
266.98	1290.22
267.19	1296.36
267.41	1245.16
267.62	1263.60
267.84	1288.17
268.06	1271.79
268.27	1269.74
268.49	1292.27
268.70	1331.18
268.92	1378.28
269.14	1347.56
269.35	1310.70
269.57	1275.88
269.79	1173.49
270.00	1253.36
270.22	1290.22
270.43	1234.93
270.65	1232.88
270.87	1259.50
271.08	1290.22
271.30	1239.02
271.51	1263.60
271.73	1345.52
271.95	1269.74
272.16	1255.40
272.38	1243.12
272.59	1271.79
272.81	1245.16
273.02	1216.49
273.24	1337.32
273.46	1253.36
273.67	1259.50
273.89	1263.60
274.10	1232.88
274.32	1265.64
274.54	1234.93
274.75	1292.27
274.97	1282.03
275.18	1302.51
275.40	1282.03
275.61	1339.37
275.83	1290.22
276.05	1253.36
276.26	1284.08
276.48	1200.11
276.69	1216.49
276.91	1232.88
277.12	1282.03
277.34	1208.30
277.55	1335.28
277.77	1333.23
277.99	1255.40
278.20	1249.26
278.42	1249.26
278.63	1341.42
278.85	1331.18
279.06	1294.32
279.28	1308.65
279.49	1191.92
279.71	1239.02
279.93	1271.79
280.14	1279.98
280.36	1273.84
280.57	1282.03
280.79	1282.03
281.00	1347.56
281.22	1284.08
281.43	1329.13
281.65	1300.46
281.86	1230.83
282.08	1271.79
282.29	1286.12
282.51	1292.27
282.73	1288.17
282.94	1316.84
283.16	1191.92
283.37	1333.23
283.59	1204.21
283.80	1226.73
284.02	1247.21
284.23	1171.44
284.45	1212.40
284.66	1341.42
284.88	1212.40
285.09	1245.16
285.31	1302.51
285.52	1290.22
285.74	1269.74
285.95	1249.26
286.17	1286.12
286.38	1304.56
286.60	1226.73
286.81	1216.49
287.03	1210.35
287.24	1251.31
287.46	1271.79
287.67	1261.55
287.89	1273.84
288.10	1224.69
288.32	1271.79
288.53	1277.93
288.75	1347.56
288.96	1275.88
289.18	1277.93
289.39	1241.07
289.61	1271.79
289.82	1349.61
290.04	1294.32
290.25	1277.93
290.47	1306.60
290.68	1230.83
290.90	1236.97
291.11	1243.12
291.33	1296.36
291.54	1234.93
291.76	1271.79
291.97	1175.53
292.18	1294.32
292.40	1212.40
292.61	1333.23
292.83	1310.70
293.04	1265.64
293.26	1273.84
293.47	1232.88
293.69	1306.60
293.90	1196.01
294.12	1296.36
294.33	1259.50
294.55	1312.75
294.76	1335.28
294.97	1255.40
295.19	1288.17
295.40	1249.26
295.62	1263.60
295.83	1224.69
296.05	1245.16
296.26	1286.12
296.48	1226.73
296.69	1251.31
296.90	1304.56
297.12	1341.42
297.33	1216.49
297.55	1314.80
297.76	1306.60
297.98	1302.51
298.19	1298.41
298.41	1222.64
298.62	1234.93
298.83	1282.03
299.05	1286.12
299.26	1279.98
299.48	1247.21
299.69	1292.27
299.90	1214.45
300.12	1273.84
300.33	1300.46
300.55	1269.74
300.76	1282.03
300.98	1320.94
301.19	1298.41
301.40	1245.16
301.62	1290.22
301.83	1265.64
302.05	1322.99
302.26	1304.56
302.47	1257.45
302.69	1259.50
302.90	1314.80
303.12	1271.79
303.33	1239.02
303.54	1308.65
303.76	1245.16
303.97	1322.99
304.19	1185.77
304.40	1316.84
304.61	1335.28
304.83	1322.99
305.04	1253.36
305.26	1271.79
305.47	1255.40
305.68	1282.03
305.90	1286.12
306.11	1241.07
306.33	1273.84
306.54	1273.84
306.75	1286.12
306.97	1267.69
307.18	1241.07
307.39	1271.79
307.61	1314.80
307.82	1230.83
308.04	1288.17
308.25	1214.45
308.46	1263.60
308.68	1236.97
308.89	1286.12
309.10	1302.51
309.32	1277.93
309.53	1284.08
309.74	1294.32
309.96	1263.60
310.17	1253.36
310.39	1316.84
310.60	1290.22
310.81	1316.84
311.03	1251.31
311.24	1353.71
311.45	1296.36
311.67	1277.93
311.88	1247.21
312.09	1271.79
312.31	1226.73
312.52	1247.21
312.73	1277.93
312.95	1122.29
313.16	1265.64
313.37	1279.98
313.59	1296.36
313.80	1290.22
314.01	1300.46
314.23	1239.02
314.44	1310.70
314.65	1302.51
314.87	1286.12
315.08	1296.36
315.29	1241.07
315.51	1198.06
315.72	1253.36
315.93	1251.31
316.15	1282.03
316.36	1249.26
316.57	1263.60
316.79	1198.06
317.00	1232.88
317.21	1271.79
317.43	1298.41
317.64	1277.93
317.85	1208.30
318.07	1241.07
318.28	1253.36
318.49	1265.64
318.70	1300.46
318.92	1284.08
319.13	1312.75
319.34	1226.73
319.56	1273.84
319.77	1282.03
319.98	1292.27
320.20	1200.11
320.41	1243.12
320.62	1171.44
320.83	1263.60
321.05	1249.26
321.26	1222.64
321.47	1243.12
321.69	1210.35
321.90	1265.64
322.11	1257.45
322.32	1294.32
322.54	1255.40
322.75	1216.49
322.96	1279.98
323.18	1259.50
323.39	1257.45
323.60	1265.64
323.81	1222.64
324.03	1263.60
324.24	1298.41
324.45	1265.64
324.66	1236.97
324.88	1298.41
325.09	1331.18
325.30	1273.84
325.52	1204.21
325.73	1243.12
325.94	1185.77
326.15	1255.40
326.37	1234.93
326.58	1296.36
326.79	1345.52
327.00	1288.17
327.22	1329.13
327.43	1363.95
327.64	1241.07
327.85	1257.45
328.07	1308.65
328.28	1267.69
328.49	1273.84
328.70	1306.60
328.92	1232.88
329.13	1245.16
329.34	1259.50
329.55	1247.21
329.76	1271.79
329.98	1245.16
330.19	1304.56
330.40	1265.64
330.61	1167.34
330.83	1255.40
331.04	1218.54
331.25	1302.51
331.46	1284.08
331.68	1263.60
331.89	1277.93
332.10	1251.31
332.31	1273.84
332.52	1243.12
332.74	1304.56
332.95	1239.02
333.16	1241.07
333.37	1249.26
333.58	1308.65
333.80	1284.08
334.01	1314.80
334.22	1218.54
334.43	1261.55
334.64	1359.85
334.86	1279.98
335.07	1245.16
335.28	1363.95
335.49	1245.16
335.70	1320.94
335.92	1187.82
336.13	1300.46
336.34	1286.12
336.55	1255.40
336.76	1273.84
336.98	1310.70
337.19	1304.56
337.40	1337.32
337.61	1226.73
337.82	1253.36
338.04	1325.04
338.25	1206.25
338.46	1263.60
338.67	1286.12
338.88	1265.64
339.09	1275.88
339.31	1284.08
339.52	1273.84
339.73	1251.31
339.94	1243.12
340.15	1210.35
340.36	1273.84
340.58	1292.27
340.79	1255.40
341.00	1224.69
341.21	1288.17
341.42	1265.64
341.63	1267.69
341.85	1288.17
342.06	1290.22
342.27	1265.64
342.48	1257.45
342.69	1308.65
342.90	1247.21
343.12	1150.96
343.33	1245.16
343.54	1263.60
343.75	1179.63
343.96	1257.45
344.17	1157.10
344.38	1290.22
344.60	1273.84
344.81	1259.50
345.02	1271.79
345.23	1349.61
345.44	1370.09
345.65	1267.69
345.86	1269.74
346.07	1335.28
346.29	1161.20
346.50	1294.32
346.71	1331.18
346.92	1234.93
347.13	1273.84
347.34	1210.35
347.55	1239.02
347.76	1298.41
347.98	1286.12
348.19	1386.47
348.40	1273.84
348.61	1204.21
348.82	1228.78
349.03	1290.22
349.24	1288.17
349.45	1239.02
349.66	1206.25
349.88	1288.17
350.09	1304.56
350.30	1277.93
350.51	1265.64
350.72	1273.84
350.93	1271.79
351.14	1300.46
351.35	1327.08
351.56	1298.41
351.77	1265.64
351.99	1247.21
352.20	1230.83
352.41	1253.36
352.62	1284.08
352.83	1255.40
353.04	1279.98
353.25	1306.60
353.46	1216.49
353.67	1271.79
353.88	1263.60
354.09	1232.88
354.30	1286.12
354.52	1271.79
354.73	1310.70
354.94	1263.60
355.15	1253.36
355.36	1296.36
355.57	1263.60
355.78	1226.73
355.99	1263.60
356.20	1261.55
356.41	1308.65
356.62	1329.13
356.83	1259.50
357.04	1296.36
357.25	1290.22
357.46	1327.08
357.68	1312.75
357.89	1284.08
358.10	1279.98
358.31	1306.60
358.52	1286.12
358.73	1243.12
358.94	1269.74
359.15	1273.84
359.36	1230.83
359.57	1191.92
359.78	1378.28
359.99	1329.13
360.20	1241.07
360.41	1269.74
360.62	1239.02
360.83	1263.60
361.04	1306.60
361.25	1271.79
361.46	1241.07
361.67	1271.79
361.88	1302.51
362.09	1329.13
362.30	1296.36
362.51	1343.47
362.72	1271.79
362.93	1255.40
363.14	1236.97
363.35	1265.64
363.56	1335.28
363.78	1320.94
363.99	1193.97
364.20	1296.36
364.41	1277.93
364.62	1218.54
364.83	1300.46
365.04	1226.73
365.25	1236.97
365.46	1345.52
365.67	1292.27
365.88	1228.78
366.09	1298.41
366.30	1249.26
366.51	1302.51
366.72	1228.78
366.93	1271.79
367.14	1269.74
367.35	1241.07
367.56	1204.21
367.77	1337.32
367.98	1263.60
368.18	1228.78
368.39	1202.16
368.60	1298.41
368.81	1304.56
369.02	1277.93
369.23	1228.78
369.44	1228.78
369.65	1253.36
369.86	1220.59
370.07	1306.60
370.28	1286.12
370.49	1300.46
370.70	1368.04
370.91	1232.88
371.12	1306.60
371.33	1232.88
371.54	1300.46
371.75	1189.87
371.96	1282.03
372.17	1306.60
372.38	1257.45
372.59	1298.41
372.80	1230.83
373.01	1247.21
373.22	1243.12
373.43	1253.36
373.64	1236.97
373.85	1243.12
374.06	1159.15
374.26	1306.60
374.47	1243.12
374.68	1304.56
374.89	1347.56
375.10	1210.35
375.31	1302.51
375.52	1257.45
375.73	1214.45
375.94	1263.60
376.15	1263.60
376.36	1265.64
376.57	1236.97
376.78	1314.80
376.99	1271.79
377.20	1294.32
377.40	1257.45
377.61	1226.73
377.82	1308.65
378.03	1196.01
378.24	1282.03
378.45	1251.31
378.66	1249.26
378.87	1265.64
379.08	1286.12
379.29	1236.97
379.50	1331.18
379.71	1222.64
379.91	1279.98
380.12	1300.46
380.33	1265.64
380.54	1300.46
380.75	1236.97
380.96	1208.30
381.17	1245.16
381.38	1234.93
381.59	1314.80
381.80	1232.88
382.00	1359.85
382.21	1218.54
382.42	1382.38
382.63	1298.41
382.84	1279.98
383.05	1282.03
383.26	1318.89
383.47	1230.83
383.68	1300.46
383.88	1243.12
384.09	1206.25
384.30	1302.51
384.51	1290.22
384.72	1239.02
384.93	1273.84
385.14	1304.56
385.35	1255.40
385.55	1206.25
385.76	1290.22
385.97	1284.08
386.18	1275.88
386.39	1290.22
386.60	1241.07
386.81	1271.79
387.02	1259.50
387.22	1300.46
387.43	1282.03
387.64	1298.41
387.85	1271.79
388.06	1255.40
388.27	1259.50
388.48	1310.70
388.68	1306.60
388.89	1275.88
389.10	1236.97
389.31	1308.65
389.52	1329.13
389.73	1269.74
389.93	1265.64
390.14	1245.16
390.35	1263.60
390.56	1298.41
390.77	1269.74
390.98	1271.79
391.18	1304.56
391.39	1249.26
391.60	1267.69
391.81	1239.02
392.02	1314.80
392.23	1261.55
392.43	1220.59
392.64	1298.41
392.85	1187.82
393.06	1286.12
393.27	1298.41
393.47	1335.28
393.68	1253.36
393.89	1267.69
394.10	1290.22
394.31	1224.69
394.52	1234.93
394.72	1263.60
394.93	1241.07
395.14	1249.26
395.35	1253.36
395.56	1222.64
395.76	1210.35
395.97	1204.21
396.18	1228.78
396.39	1179.63
396.60	1241.07
396.80	1306.60
397.01	1232.88
397.22	1273.84
397.43	1288.17
397.64	1327.08
397.84	1294.32
398.05	1253.36
398.26	1206.25
398.47	1279.98
398.67	1290.22
398.88	1292.27
399.09	1310.70
399.30	1271.79
399.51	1298.41
399.71	1239.02
399.92	1210.35
400.13	1290.22
400.34	1251.31
400.54	1298.41
400.75	1290.22
400.96	1193.97
401.17	1322.99
401.37	1202.16
401.58	1288.17
401.79	1251.31
402.00	1269.74
402.21	1243.12
402.41	1296.36
402.62	1257.45
402.83	1255.40
403.04	1175.53
403.24	1245.16
403.45	1290.22
403.66	1282.03
403.87	1265.64
404.07	1206.25
404.28	1183.73
404.49	1267.69
404.70	1279.98
404.90	1267.69
405.11	1277.93
405.32	1279.98
405.52	1320.94
405.73	1279.98
405.94	1202.16
406.15	1294.32
406.35	1253.36
406.56	1327.08
406.77	1257.45
406.98	1275.88
407.18	1271.79
407.39	1320.94
407.60	1210.35
407.80	1296.36
408.01	1271.79
408.22	1275.88
408.43	1218.54
408.63	1234.93
408.84	1298.41
409.05	1279.98
409.25	1279.98
409.46	1228.78
409.67	1255.40
409.88	1296.36
410.08	1251.31
410.29	1263.60
410.50	1302.51
410.70	1253.36
410.91	1359.85
411.12	1253.36
411.32	1265.64
411.53	1263.60
411.74	1298.41
411.95	1286.12
412.15	1314.80
412.36	1298.41
412.57	1265.64
412.77	1239.02
412.98	1251.31
413.19	1241.07
413.39	1208.30
413.60	1279.98
413.81	1224.69
414.01	1196.01
414.22	1267.69
414.43	1259.50
414.63	1230.83
414.84	1298.41
415.05	1245.16
415.25	1234.93
415.46	1314.80
415.67	1263.60
415.87	1275.88
416.08	1277.93
416.29	1282.03
416.49	1271.79
416.70	1312.75
416.91	1226.73
417.11	1249.26
417.32	1273.84
417.53	1210.35
417.73	1370.09
417.94	1267.69
418.15	1273.84
418.35	1279.98
418.56	1267.69
418.77	1255.40
418.97	1261.55
419.18	1273.84
419.38	1255.40
419.59	1241.07
419.80	1279.98
420.00	1279.98
420.21	1290.22
420.42	1269.74
420.62	1300.46
420.83	1290.22
421.04	1267.69
421.24	1236.97
421.45	1261.55
421.65	1294.32
421.86	1208.30
422.07	1271.79
422.27	1329.13
422.48	1249.26
422.69	1200.11
422.89	1247.21
423.10	1220.59
423.30	1329.13
423.51	1296.36
423.72	1261.55
423.92	1236.97
424.13	1247.21
424.33	1288.17
424.54	1236.97
424.75	1216.49
424.95	1306.60
425.16	1212.40
425.36	1271.79
425.57	1294.32
425.78	1255.40
425.98	1263.60
426.19	1288.17
426.39	1308.65
426.60	1302.51
426.81	1312.75
427.01	1267.69
427.22	1263.60
427.42	1222.64
427.63	1300.46
427.83	1243.12
428.04	1198.06
428.25	1257.45
428.45	1249.26
428.66	1314.80
428.86	1304.56
429.07	1247.21
429.28	1261.55
429.48	1247.21
429.69	1312.75
429.89	1275.88
430.10	1236.97
430.30	1269.74
430.51	1222.64
430.71	1224.69
430.92	1349.61
431.13	1300.46
431.33	1265.64
431.54	1316.84
431.74	1216.49
431.95	1298.41
432.15	1355.76
432.36	1351.66
432.56	1247.21
432.77	1288.17
432.98	1249.26
433.18	1282.03
433.39	1257.45
433.59	1202.16
433.80	1249.26
434.00	1279.98
434.21	1273.84
434.41	1247.21
434.62	1181.68
434.82	1329.13
435.03	1273.84
435.23	1304.56
435.44	1273.84
435.64	1251.31
435.85	1193.97
436.06	1282.03
436.26	1259.50
436.47	1267.69
436.67	1234.93
436.88	1318.89
437.08	1255.40
437.29	1290.22
437.49	1304.56
437.70	1173.49
437.90	1257.45
438.11	1318.89
438.31	1298.41
438.52	1255.40
438.72	1265.64
438.93	1259.50
439.13	1308.65
439.34	1232.88
439.54	1300.46
439.75	1294.32
439.95	1300.46
440.16	1232.88
440.36	1267.69
440.57	1177.58
440.77	1337.32
440.98	1249.26
441.18	1255.40
441.39	1236.97
441.59	1282.03
441.80	1245.16
442.00	1257.45
442.21	1263.60
442.41	1331.18
442.62	1265.64
442.82	1349.61
443.02	1353.71
443.23	1259.50
443.43	1298.41
443.64	1228.78
443.84	1259.50
444.05	1255.40
444.25	1296.36
444.46	1236.97
444.66	1216.49
444.87	1261.55
445.07	1224.69
445.28	1318.89
445.48	1308.65
445.69	1275.88
445.89	1310.70
446.09	1310.70
446.30	1234.93
446.50	1279.98
446.71	1316.84
446.91	1302.51
447.12	1316.84
447.32	1257.45
447.53	1329.13
447.73	1171.44
447.93	1255.40
448.14	1296.36
448.34	1318.89
448.55	1308.65
448.75	1271.79
448.96	1279.98
449.16	1210.35
449.36	1224.69
449.57	1308.65
449.77	1345.52
449.98	1300.46
450.18	1312.75
450.39	1302.51
450.59	1265.64
450.79	1259.50
451.00	1271.79
451.20	1277.93
451.41	1257.45
451.61	1294.32
451.81	1259.50
452.02	1282.03
452.22	1325.04
452.43	1241.07
452.63	1232.88
