SpectraSuite Data File
++++++++++++++++++++++++++++++++++++
Date: Sun Apr 03 19:55:49 CEST 2016
User: root
Dark Spectrum Present: No
Reference Spectrum Present: No
Number of Sampled Component Spectra: 1
Spectrometers: USB4C02835
Integration Time (usec): 10000 (USB4C02835)
Spectra Averaged: 1 (USB4C02835)
Boxcar Smoothing: 0 (USB4C02835)
Correct for Electrical Dark: No (USB4C02835)
Strobe/Lamp Enabled: No (USB4C02835)
Correct for Detector Non-linearity: No (USB4C02835)
Correct for Stray Light: No (USB4C02835)
Number of Pixels in Processed Spectrum: 3648
>>>>>Begin Processed Spectral Data<<<<<
177.47	1253.36
177.69	1253.36
177.91	1253.36
178.13	1257.45
178.36	1247.21
178.58	1277.93
178.80	1298.41
179.02	1208.30
179.24	1204.21
179.46	1286.12
179.68	1279.98
179.90	1302.51
180.13	1226.73
180.35	1282.03
180.57	1241.07
180.79	1304.56
181.01	1300.46
181.23	1173.49
181.45	1296.36
181.67	1251.31
181.90	1210.35
182.12	1234.93
182.34	1312.75
182.56	1304.56
182.78	1261.55
183.00	1298.41
183.22	1325.04
183.44	1273.84
183.66	1286.12
183.89	1255.40
184.11	1284.08
184.33	1263.60
184.55	1249.26
184.77	1257.45
184.99	1249.26
185.21	1228.78
185.43	1308.65
185.65	1310.70
185.87	1357.80
186.10	1243.12
186.32	1255.40
186.54	1292.27
186.76	1232.88
186.98	1298.41
187.20	1239.02
187.42	1298.41
187.64	1282.03
187.86	1259.50
188.08	1255.40
188.30	1263.60
188.52	1247.21
188.75	1296.36
188.97	1257.45
189.19	1239.02
189.41	1198.06
189.63	1230.83
189.85	1335.28
190.07	1273.84
190.29	1216.49
190.51	1263.60
190.73	1243.12
190.95	1314.80
191.17	1273.84
191.39	1257.45
191.61	1247.21
191.84	1239.02
192.06	1329.13
192.28	1339.37
192.50	1200.11
192.72	1288.17
192.94	1331.18
193.16	1230.83
193.38	1265.64
193.60	1261.55
193.82	1314.80
194.04	1171.44
194.26	1320.94
194.48	1273.84
194.70	1249.26
194.92	1208.30
195.14	1224.69
195.36	1255.40
195.58	1290.22
195.80	1314.80
196.02	1339.37
196.24	1286.12
196.46	1310.70
196.69	1232.88
196.91	1316.84
197.13	1325.04
197.35	1302.51
197.57	1322.99
197.79	1249.26
198.01	1216.49
198.23	1343.47
198.45	1275.88
198.67	1292.27
198.89	1292.27
199.11	1327.08
199.33	1208.30
199.55	1277.93
199.77	1269.74
199.99	1216.49
200.21	1273.84
200.43	1243.12
200.65	1286.12
200.87	1267.69
201.09	1312.75
201.31	1232.88
201.53	1257.45
201.75	1226.73
201.97	1257.45
202.19	1327.08
202.41	1251.31
202.63	1286.12
202.85	1271.79
203.07	1234.93
203.29	1232.88
203.51	1298.41
203.73	1279.98
203.95	1329.13
204.17	1179.63
204.39	1230.83
204.61	1327.08
204.83	1261.55
205.05	1277.93
205.27	1247.21
205.49	1286.12
205.71	1261.55
205.93	1277.93
206.15	1288.17
206.37	1304.56
206.59	1241.07
206.81	1308.65
207.03	1265.64
207.25	1232.88
207.47	1267.69
207.69	1236.97
207.91	1275.88
208.13	1265.64
208.34	1351.66
208.56	1263.60
208.78	1288.17
209.00	1306.60
209.22	1312.75
209.44	1234.93
209.66	1251.31
209.88	1241.07
210.10	1284.08
210.32	1296.36
210.54	1200.11
210.76	1300.46
210.98	1232.88
211.20	1255.40
211.42	1257.45
211.64	1204.21
211.86	1241.07
212.08	1320.94
212.30	1282.03
212.52	1175.53
212.74	1230.83
212.96	1173.49
213.17	1351.66
213.39	1288.17
213.61	1296.36
213.83	1329.13
214.05	1251.31
214.27	1284.08
214.49	1316.84
214.71	1255.40
214.93	1247.21
215.15	1241.07
215.37	1218.54
215.59	1214.45
215.81	1318.89
216.03	1284.08
216.24	1320.94
216.46	1282.03
216.68	1282.03
216.90	1159.15
217.12	1339.37
217.34	1279.98
217.56	1249.26
217.78	1322.99
218.00	1284.08
218.22	1251.31
218.44	1265.64
218.66	1230.83
218.87	1271.79
219.09	1306.60
219.31	1263.60
219.53	1220.59
219.75	1267.69
219.97	1275.88
220.19	1236.97
220.41	1218.54
220.63	1212.40
220.85	1249.26
221.06	1312.75
221.28	1236.97
221.50	1210.35
221.72	1273.84
221.94	1261.55
222.16	1288.17
222.38	1279.98
222.60	1318.89
222.82	1349.61
223.03	1200.11
223.25	1212.40
223.47	1284.08
223.69	1222.64
223.91	1251.31
224.13	1302.51
224.35	1189.87
224.57	1286.12
224.78	1247.21
225.00	1284.08
225.22	1251.31
225.44	1306.60
225.66	1257.45
225.88	1245.16
226.10	1257.45
226.32	1292.27
226.53	1310.70
226.75	1241.07
226.97	1308.65
227.19	1300.46
227.41	1304.56
227.63	1265.64
227.85	1310.70
228.06	1273.84
228.28	1243.12
228.50	1255.40
228.72	1288.17
228.94	1333.23
229.16	1208.30
229.37	1253.36
229.59	1349.61
229.81	1257.45
230.03	1251.31
230.25	1249.26
230.47	1165.29
230.69	1363.95
230.90	1271.79
231.12	1271.79
231.34	1220.59
231.56	1232.88
231.78	1288.17
232.00	1279.98
232.21	1263.60
232.43	1277.93
232.65	1290.22
232.87	1267.69
233.09	1251.31
233.30	1257.45
233.52	1273.84
233.74	1290.22
233.96	1275.88
234.18	1296.36
234.40	1222.64
234.61	1292.27
234.83	1247.21
235.05	1183.73
235.27	1261.55
235.49	1259.50
235.70	1320.94
235.92	1296.36
236.14	1253.36
236.36	1282.03
236.58	1279.98
236.79	1257.45
237.01	1167.34
237.23	1337.32
237.45	1292.27
237.67	1241.07
237.88	1265.64
238.10	1191.92
238.32	1279.98
238.54	1310.70
238.76	1341.42
238.97	1261.55
239.19	1220.59
239.41	1298.41
239.63	1239.02
239.85	1239.02
240.06	1226.73
240.28	1263.60
240.50	1202.16
240.72	1294.32
240.93	1267.69
241.15	1193.97
241.37	1316.84
241.59	1327.08
241.81	1310.70
242.02	1257.45
242.24	1320.94
242.46	1253.36
242.68	1302.51
242.89	1296.36
243.11	1273.84
243.33	1249.26
243.55	1234.93
243.76	1224.69
243.98	1206.25
244.20	1288.17
244.42	1185.77
244.64	1261.55
244.85	1208.30
245.07	1265.64
245.29	1253.36
245.51	1196.01
245.72	1239.02
245.94	1290.22
246.16	1288.17
246.38	1271.79
246.59	1257.45
246.81	1290.22
247.03	1396.71
247.24	1253.36
247.46	1322.99
247.68	1232.88
247.90	1255.40
248.11	1255.40
248.33	1232.88
248.55	1279.98
248.77	1261.55
248.98	1339.37
249.20	1255.40
249.42	1251.31
249.64	1216.49
249.85	1265.64
250.07	1265.64
250.29	1302.51
250.50	1304.56
250.72	1263.60
250.94	1232.88
251.16	1300.46
251.37	1253.36
251.59	1304.56
251.81	1253.36
252.02	1275.88
252.24	1226.73
252.46	1318.89
252.68	1310.70
252.89	1279.98
253.11	1265.64
253.33	1263.60
253.54	1282.03
253.76	1290.22
253.98	1224.69
254.20	1243.12
254.41	1282.03
254.63	1269.74
254.85	1243.12
255.06	1279.98
255.28	1282.03
255.50	1273.84
255.71	1284.08
255.93	1279.98
256.15	1325.04
256.36	1216.49
256.58	1218.54
256.80	1224.69
257.02	1306.60
257.23	1306.60
257.45	1234.93
257.67	1265.64
257.88	1261.55
258.10	1282.03
258.32	1304.56
258.53	1224.69
258.75	1279.98
258.97	1320.94
259.18	1325.04
259.40	1216.49
259.62	1327.08
259.83	1320.94
260.05	1218.54
260.27	1282.03
260.48	1298.41
260.70	1236.97
260.92	1302.51
261.13	1247.21
261.35	1282.03
261.57	1259.50
261.78	1222.64
262.00	1271.79
262.22	1316.84
262.43	1329.13
262.65	1257.45
262.86	1187.82
263.08	1277.93
263.30	1243.12
263.51	1255.40
263.73	1257.45
263.95	1228.78
264.16	1304.56
264.38	1302.51
264.60	1257.45
264.81	1302.51
265.03	1263.60
265.25	1380.33
265.46	1392.62
265.68	1282.03
265.89	1306.60
266.11	1282.03
266.33	1308.65
266.54	1253.36
266.76	1288.17
266.98	1282.03
267.19	1232.88
267.41	1251.31
267.62	1257.45
267.84	1210.35
268.06	1206.25
268.27	1249.26
268.49	1357.80
268.70	1241.07
268.92	1296.36
269.14	1249.26
269.35	1261.55
269.57	1269.74
269.79	1239.02
270.00	1284.08
270.22	1236.97
270.43	1214.45
270.65	1366.00
270.87	1204.21
271.08	1251.31
271.30	1218.54
271.51	1314.80
271.73	1212.40
271.95	1308.65
272.16	1316.84
272.38	1232.88
272.59	1259.50
272.81	1267.69
273.02	1275.88
273.24	1275.88
273.46	1234.93
273.67	1337.32
273.89	1255.40
274.10	1198.06
274.32	1255.40
274.54	1288.17
274.75	1247.21
274.97	1357.80
275.18	1327.08
275.40	1218.54
275.61	1245.16
275.83	1263.60
276.05	1282.03
276.26	1259.50
276.48	1265.64
276.69	1220.59
276.91	1255.40
277.12	1282.03
277.34	1282.03
277.55	1206.25
277.77	1277.93
277.99	1331.18
278.20	1288.17
278.42	1286.12
278.63	1236.97
278.85	1216.49
279.06	1306.60
279.28	1288.17
279.49	1234.93
279.71	1294.32
279.93	1322.99
280.14	1269.74
280.36	1267.69
280.57	1269.74
280.79	1259.50
281.00	1277.93
281.22	1236.97
281.43	1255.40
281.65	1257.45
281.86	1343.47
282.08	1257.45
282.29	1304.56
282.51	1306.60
282.73	1257.45
282.94	1347.56
283.16	1269.74
283.37	1239.02
283.59	1292.27
283.80	1304.56
284.02	1320.94
284.23	1259.50
284.45	1216.49
284.66	1271.79
284.88	1259.50
285.09	1251.31
285.31	1263.60
285.52	1249.26
285.74	1261.55
285.95	1296.36
286.17	1282.03
286.38	1325.04
286.60	1204.21
286.81	1347.56
287.03	1216.49
287.24	1275.88
287.46	1239.02
287.67	1277.93
287.89	1253.36
288.10	1216.49
288.32	1273.84
288.53	1261.55
288.75	1284.08
288.96	1312.75
289.18	1261.55
289.39	1220.59
289.61	1349.61
289.82	1257.45
290.04	1204.21
290.25	1318.89
290.47	1335.28
290.68	1247.21
290.90	1206.25
291.11	1183.73
291.33	1253.36
291.54	1257.45
291.76	1294.32
291.97	1239.02
292.18	1318.89
292.40	1257.45
292.61	1290.22
292.83	1159.15
293.04	1273.84
293.26	1269.74
293.47	1267.69
293.69	1333.23
293.90	1196.01
294.12	1329.13
294.33	1206.25
294.55	1259.50
294.76	1265.64
294.97	1308.65
295.19	1353.71
295.40	1269.74
295.62	1198.06
295.83	1312.75
296.05	1318.89
296.26	1267.69
296.48	1273.84
296.69	1259.50
296.90	1314.80
297.12	1304.56
297.33	1259.50
297.55	1253.36
297.76	1224.69
297.98	1284.08
298.19	1263.60
298.41	1269.74
298.62	1353.71
298.83	1216.49
299.05	1325.04
299.26	1282.03
299.48	1259.50
299.69	1259.50
299.90	1261.55
300.12	1277.93
300.33	1191.92
300.55	1239.02
300.76	1241.07
300.98	1204.21
301.19	1294.32
301.40	1267.69
301.62	1292.27
301.83	1296.36
302.05	1298.41
302.26	1265.64
302.47	1279.98
302.69	1263.60
302.90	1292.27
303.12	1302.51
303.33	1312.75
303.54	1286.12
303.76	1286.12
303.97	1331.18
304.19	1239.02
304.40	1292.27
304.61	1230.83
304.83	1234.93
305.04	1361.90
305.26	1284.08
305.47	1208.30
305.68	1327.08
305.90	1247.21
306.11	1265.64
306.33	1255.40
306.54	1306.60
306.75	1277.93
306.97	1218.54
307.18	1320.94
307.39	1251.31
307.61	1277.93
307.82	1220.59
308.04	1298.41
308.25	1296.36
308.46	1232.88
308.68	1245.16
308.89	1312.75
309.10	1249.26
309.32	1300.46
309.53	1312.75
309.74	1298.41
309.96	1187.82
310.17	1314.80
310.39	1282.03
310.60	1249.26
310.81	1277.93
311.03	1271.79
311.24	1220.59
311.45	1273.84
311.67	1302.51
311.88	1251.31
312.09	1232.88
312.31	1273.84
312.52	1290.22
312.73	1247.21
312.95	1279.98
313.16	1353.71
313.37	1224.69
313.59	1275.88
313.80	1275.88
314.01	1247.21
314.23	1279.98
314.44	1253.36
314.65	1232.88
314.87	1247.21
315.08	1298.41
315.29	1216.49
315.51	1249.26
315.72	1245.16
315.93	1255.40
316.15	1290.22
316.36	1159.15
316.57	1298.41
316.79	1261.55
317.00	1271.79
317.21	1298.41
317.43	1304.56
317.64	1316.84
317.85	1200.11
318.07	1245.16
318.28	1251.31
318.49	1226.73
318.70	1249.26
318.92	1310.70
319.13	1302.51
319.34	1236.97
319.56	1308.65
319.77	1310.70
319.98	1304.56
320.20	1269.74
320.41	1216.49
320.62	1239.02
320.83	1232.88
321.05	1290.22
321.26	1253.36
321.47	1245.16
321.69	1310.70
321.90	1214.45
322.11	1196.01
322.32	1255.40
322.54	1298.41
322.75	1300.46
322.96	1249.26
323.18	1265.64
323.39	1279.98
323.60	1300.46
323.81	1337.32
324.03	1282.03
324.24	1228.78
324.45	1259.50
324.66	1241.07
324.88	1273.84
325.09	1312.75
325.30	1337.32
325.52	1275.88
325.73	1224.69
325.94	1157.10
326.15	1210.35
326.37	1259.50
326.58	1239.02
326.79	1179.63
327.00	1220.59
327.22	1304.56
327.43	1212.40
327.64	1247.21
327.85	1302.51
328.07	1253.36
328.28	1265.64
328.49	1239.02
328.70	1312.75
328.92	1279.98
329.13	1273.84
329.34	1236.97
329.55	1275.88
329.76	1214.45
329.98	1288.17
330.19	1300.46
330.40	1259.50
330.61	1247.21
330.83	1259.50
331.04	1255.40
331.25	1269.74
331.46	1251.31
331.68	1312.75
331.89	1282.03
332.10	1193.97
332.31	1310.70
332.52	1243.12
332.74	1304.56
332.95	1333.23
333.16	1224.69
333.37	1249.26
333.58	1228.78
333.80	1193.97
334.01	1302.51
334.22	1288.17
334.43	1216.49
334.64	1294.32
334.86	1224.69
335.07	1327.08
335.28	1271.79
335.49	1253.36
335.70	1265.64
335.92	1191.92
336.13	1327.08
336.34	1200.11
336.55	1304.56
336.76	1279.98
336.98	1236.97
337.19	1335.28
337.40	1245.16
337.61	1253.36
337.82	1263.60
338.04	1202.16
338.25	1343.47
338.46	1173.49
338.67	1306.60
338.88	1314.80
339.09	1288.17
339.31	1277.93
339.52	1239.02
339.73	1257.45
339.94	1343.47
340.15	1308.65
340.36	1275.88
340.58	1257.45
340.79	1290.22
341.00	1234.93
341.21	1269.74
341.42	1249.26
341.63	1257.45
341.85	1279.98
342.06	1288.17
342.27	1273.84
342.48	1265.64
342.69	1249.26
342.90	1296.36
343.12	1288.17
343.33	1290.22
343.54	1232.88
343.75	1351.66
343.96	1282.03
344.17	1257.45
344.38	1175.53
344.60	1320.94
344.81	1224.69
345.02	1187.82
345.23	1261.55
345.44	1265.64
345.65	1236.97
345.86	1243.12
346.07	1224.69
346.29	1257.45
346.50	1247.21
346.71	1271.79
346.92	1259.50
347.13	1257.45
347.34	1308.65
347.55	1249.26
347.76	1298.41
347.98	1234.93
348.19	1130.48
348.40	1282.03
348.61	1325.04
348.82	1220.59
349.03	1282.03
349.24	1277.93
349.45	1316.84
349.66	1329.13
349.88	1286.12
350.09	1216.49
350.30	1310.70
350.51	1279.98
350.72	1193.97
350.93	1310.70
351.14	1275.88
351.35	1286.12
351.56	1212.40
351.77	1265.64
351.99	1261.55
352.20	1232.88
352.41	1277.93
352.62	1273.84
352.83	1212.40
353.04	1265.64
353.25	1220.59
353.46	1247.21
353.67	1343.47
353.88	1253.36
354.09	1259.50
354.30	1265.64
354.52	1296.36
354.73	1273.84
354.94	1257.45
355.15	1222.64
355.36	1275.88
355.57	1249.26
355.78	1282.03
355.99	1257.45
356.20	1284.08
356.41	1282.03
356.62	1308.65
356.83	1294.32
357.04	1247.21
357.25	1337.32
357.46	1275.88
357.68	1290.22
357.89	1230.83
358.10	1290.22
358.31	1263.60
358.52	1253.36
358.73	1333.23
358.94	1261.55
359.15	1273.84
359.36	1259.50
359.57	1226.73
359.78	1271.79
359.99	1234.93
360.20	1224.69
360.41	1275.88
360.62	1290.22
360.83	1263.60
361.04	1310.70
361.25	1339.37
361.46	1249.26
361.67	1249.26
361.88	1210.35
362.09	1357.80
362.30	1351.66
362.51	1208.30
362.72	1290.22
362.93	1218.54
363.14	1228.78
363.35	1234.93
363.56	1247.21
363.78	1230.83
363.99	1198.06
364.20	1294.32
364.41	1296.36
364.62	1230.83
364.83	1265.64
365.04	1232.88
365.25	1234.93
365.46	1300.46
365.67	1314.80
365.88	1220.59
366.09	1212.40
366.30	1222.64
366.51	1273.84
366.72	1271.79
366.93	1243.12
367.14	1273.84
367.35	1273.84
367.56	1277.93
367.77	1267.69
367.98	1306.60
368.18	1259.50
368.39	1318.89
368.60	1226.73
368.81	1249.26
369.02	1288.17
369.23	1163.25
369.44	1208.30
369.65	1275.88
369.86	1204.21
370.07	1269.74
370.28	1269.74
370.49	1335.28
370.70	1298.41
370.91	1269.74
371.12	1306.60
371.33	1245.16
371.54	1261.55
371.75	1224.69
371.96	1224.69
372.17	1245.16
372.38	1196.01
372.59	1302.51
372.80	1306.60
373.01	1302.51
373.22	1269.74
373.43	1232.88
373.64	1335.28
373.85	1212.40
374.06	1271.79
374.26	1245.16
374.47	1230.83
374.68	1312.75
374.89	1290.22
375.10	1306.60
375.31	1236.97
375.52	1292.27
375.73	1273.84
375.94	1245.16
376.15	1296.36
376.36	1257.45
376.57	1306.60
376.78	1286.12
376.99	1337.32
377.20	1277.93
377.40	1277.93
377.61	1282.03
377.82	1322.99
378.03	1230.83
378.24	1265.64
378.45	1259.50
378.66	1271.79
378.87	1271.79
379.08	1196.01
379.29	1282.03
379.50	1282.03
379.71	1249.26
379.91	1325.04
380.12	1288.17
380.33	1241.07
380.54	1296.36
380.75	1249.26
380.96	1234.93
381.17	1355.76
381.38	1296.36
381.59	1329.13
381.80	1325.04
382.00	1167.34
382.21	1294.32
382.42	1271.79
382.63	1265.64
382.84	1249.26
383.05	1251.31
383.26	1282.03
383.47	1232.88
383.68	1325.04
383.88	1333.23
384.09	1243.12
384.30	1230.83
384.51	1308.65
384.72	1249.26
384.93	1273.84
385.14	1304.56
385.35	1306.60
385.55	1253.36
385.76	1216.49
385.97	1251.31
386.18	1253.36
386.39	1253.36
386.60	1325.04
386.81	1251.31
387.02	1304.56
387.22	1243.12
387.43	1271.79
387.64	1228.78
387.85	1290.22
388.06	1269.74
388.27	1329.13
388.48	1277.93
388.68	1292.27
388.89	1265.64
389.10	1300.46
389.31	1269.74
389.52	1359.85
389.73	1249.26
389.93	1251.31
390.14	1241.07
390.35	1290.22
390.56	1251.31
390.77	1261.55
390.98	1206.25
391.18	1247.21
391.39	1214.45
391.60	1259.50
391.81	1325.04
392.02	1284.08
392.23	1275.88
392.43	1269.74
392.64	1290.22
392.85	1226.73
393.06	1255.40
393.27	1249.26
393.47	1312.75
393.68	1202.16
393.89	1265.64
394.10	1226.73
394.31	1284.08
394.52	1306.60
394.72	1228.78
394.93	1261.55
395.14	1265.64
395.35	1288.17
395.56	1202.16
395.76	1325.04
395.97	1249.26
396.18	1253.36
396.39	1312.75
396.60	1253.36
396.80	1140.72
397.01	1320.94
397.22	1263.60
397.43	1267.69
397.64	1267.69
397.84	1251.31
398.05	1269.74
398.26	1288.17
398.47	1286.12
398.67	1353.71
398.88	1304.56
399.09	1255.40
399.30	1169.39
399.51	1275.88
399.71	1261.55
399.92	1279.98
400.13	1304.56
400.34	1196.01
400.54	1259.50
400.75	1257.45
400.96	1236.97
401.17	1273.84
401.37	1216.49
401.58	1239.02
401.79	1290.22
402.00	1331.18
402.21	1273.84
402.41	1204.21
402.62	1284.08
402.83	1220.59
403.04	1310.70
403.24	1198.06
403.45	1273.84
403.66	1335.28
403.87	1236.97
404.07	1245.16
404.28	1292.27
404.49	1337.32
404.70	1241.07
404.90	1271.79
405.11	1269.74
405.32	1249.26
405.52	1249.26
405.73	1257.45
405.94	1236.97
406.15	1245.16
406.35	1318.89
406.56	1288.17
406.77	1204.21
406.98	1247.21
407.18	1292.27
407.39	1275.88
407.60	1275.88
407.80	1247.21
408.01	1286.12
408.22	1282.03
408.43	1298.41
408.63	1263.60
408.84	1253.36
409.05	1318.89
409.25	1277.93
409.46	1277.93
409.67	1265.64
409.88	1239.02
410.08	1314.80
410.29	1331.18
410.50	1265.64
410.70	1220.59
410.91	1300.46
411.12	1224.69
411.32	1296.36
411.53	1249.26
411.74	1263.60
411.95	1261.55
412.15	1232.88
412.36	1284.08
412.57	1277.93
412.77	1241.07
412.98	1224.69
413.19	1253.36
413.39	1290.22
413.60	1339.37
413.81	1255.40
414.01	1255.40
414.22	1269.74
414.43	1320.94
414.63	1220.59
414.84	1320.94
415.05	1222.64
415.25	1339.37
415.46	1273.84
415.67	1269.74
415.87	1327.08
416.08	1273.84
416.29	1245.16
416.49	1271.79
416.70	1298.41
416.91	1318.89
417.11	1282.03
417.32	1204.21
417.53	1210.35
417.73	1314.80
417.94	1243.12
418.15	1359.85
418.35	1304.56
418.56	1210.35
418.77	1341.42
418.97	1300.46
419.18	1212.40
419.38	1204.21
419.59	1208.30
419.80	1269.74
420.00	1279.98
420.21	1279.98
420.42	1329.13
420.62	1228.78
420.83	1241.07
421.04	1263.60
421.24	1193.97
421.45	1234.93
421.65	1255.40
421.86	1312.75
422.07	1249.26
422.27	1273.84
422.48	1241.07
422.69	1284.08
422.89	1210.35
423.10	1226.73
423.30	1247.21
423.51	1269.74
423.72	1322.99
423.92	1255.40
424.13	1198.06
424.33	1263.60
424.54	1279.98
424.75	1236.97
424.95	1353.71
425.16	1271.79
425.36	1298.41
425.57	1251.31
425.78	1247.21
425.98	1247.21
426.19	1234.93
426.39	1331.18
426.60	1320.94
426.81	1288.17
427.01	1329.13
427.22	1312.75
427.42	1277.93
427.63	1347.56
427.83	1314.80
428.04	1331.18
428.25	1218.54
428.45	1249.26
428.66	1337.32
428.86	1275.88
429.07	1302.51
429.28	1322.99
429.48	1253.36
429.69	1263.60
429.89	1290.22
430.10	1196.01
430.30	1228.78
430.51	1208.30
430.71	1171.44
430.92	1304.56
431.13	1257.45
431.33	1239.02
431.54	1277.93
431.74	1300.46
431.95	1300.46
432.15	1331.18
432.36	1187.82
432.56	1239.02
432.77	1253.36
432.98	1208.30
433.18	1290.22
433.39	1212.40
433.59	1314.80
433.80	1230.83
434.00	1310.70
434.21	1243.12
434.41	1236.97
434.62	1296.36
434.82	1148.91
435.03	1261.55
435.23	1269.74
435.44	1279.98
435.64	1279.98
435.85	1296.36
436.06	1189.87
436.26	1337.32
436.47	1241.07
436.67	1263.60
436.88	1224.69
437.08	1318.89
437.29	1232.88
437.49	1251.31
437.70	1312.75
437.90	1341.42
438.11	1222.64
438.31	1253.36
438.52	1329.13
438.72	1300.46
438.93	1316.84
439.13	1261.55
439.34	1288.17
439.54	1298.41
439.75	1314.80
439.95	1296.36
440.16	1255.40
440.36	1249.26
440.57	1374.19
440.77	1212.40
440.98	1302.51
441.18	1327.08
441.39	1290.22
441.59	1325.04
441.80	1265.64
442.00	1314.80
442.21	1366.00
442.41	1275.88
442.62	1247.21
442.82	1216.49
443.02	1255.40
443.23	1257.45
443.43	1247.21
443.64	1304.56
443.84	1282.03
444.05	1259.50
444.25	1335.28
444.46	1265.64
444.66	1247.21
444.87	1232.88
445.07	1325.04
445.28	1206.25
445.48	1255.40
445.69	1325.04
445.89	1290.22
446.09	1288.17
446.30	1296.36
446.50	1300.46
446.71	1363.95
446.91	1222.64
447.12	1191.92
447.32	1308.65
447.53	1251.31
447.73	1292.27
447.93	1304.56
448.14	1247.21
448.34	1212.40
448.55	1222.64
448.75	1265.64
448.96	1210.35
449.16	1314.80
449.36	1214.45
449.57	1247.21
449.77	1230.83
449.98	1349.61
450.18	1355.76
450.39	1306.60
450.59	1363.95
450.79	1273.84
451.00	1202.16
451.20	1296.36
451.41	1271.79
451.61	1257.45
451.81	1216.49
452.02	1329.13
452.22	1269.74
452.43	1243.12
452.63	1296.36
