SpectraSuite Data File
++++++++++++++++++++++++++++++++++++
Date: Sun Apr 03 19:55:47 CEST 2016
User: root
Dark Spectrum Present: No
Reference Spectrum Present: No
Number of Sampled Component Spectra: 1
Spectrometers: USB4C02835
Integration Time (usec): 10000 (USB4C02835)
Spectra Averaged: 1 (USB4C02835)
Boxcar Smoothing: 0 (USB4C02835)
Correct for Electrical Dark: No (USB4C02835)
Strobe/Lamp Enabled: No (USB4C02835)
Correct for Detector Non-linearity: No (USB4C02835)
Correct for Stray Light: No (USB4C02835)
Number of Pixels in Processed Spectrum: 3648
>>>>>Begin Processed Spectral Data<<<<<
177.47	1331.18
177.69	1331.18
177.91	1331.18
178.13	1255.40
178.36	1271.79
178.58	1273.84
178.80	1257.45
179.02	1257.45
179.24	1241.07
179.46	1310.70
179.68	1263.60
179.90	1230.83
180.13	1234.93
180.35	1249.26
180.57	1255.40
180.79	1304.56
181.01	1277.93
181.23	1241.07
181.45	1300.46
181.67	1298.41
181.90	1275.88
182.12	1212.40
182.34	1265.64
182.56	1341.42
182.78	1226.73
183.00	1185.77
183.22	1251.31
183.44	1298.41
183.66	1257.45
183.89	1251.31
184.11	1234.93
184.33	1292.27
184.55	1255.40
184.77	1284.08
184.99	1374.19
185.21	1331.18
185.43	1261.55
185.65	1241.07
185.87	1277.93
186.10	1257.45
186.32	1228.78
186.54	1316.84
186.76	1310.70
186.98	1269.74
187.20	1308.65
187.42	1265.64
187.64	1265.64
187.86	1306.60
188.08	1261.55
188.30	1341.42
188.52	1265.64
188.75	1236.97
188.97	1269.74
189.19	1298.41
189.41	1292.27
189.63	1230.83
189.85	1261.55
190.07	1294.32
190.29	1257.45
190.51	1288.17
190.73	1286.12
190.95	1279.98
191.17	1216.49
191.39	1263.60
191.61	1232.88
191.84	1267.69
192.06	1259.50
192.28	1316.84
192.50	1257.45
192.72	1253.36
192.94	1214.45
193.16	1210.35
193.38	1273.84
193.60	1200.11
193.82	1226.73
194.04	1296.36
194.26	1308.65
194.48	1267.69
194.70	1269.74
194.92	1249.26
195.14	1257.45
195.36	1306.60
195.58	1255.40
195.80	1234.93
196.02	1304.56
196.24	1236.97
196.46	1247.21
196.69	1275.88
196.91	1318.89
197.13	1306.60
197.35	1265.64
197.57	1220.59
197.79	1368.04
198.01	1320.94
198.23	1228.78
198.45	1257.45
198.67	1247.21
198.89	1275.88
199.11	1288.17
199.33	1255.40
199.55	1279.98
199.77	1265.64
199.99	1306.60
200.21	1232.88
200.43	1314.80
200.65	1279.98
200.87	1255.40
201.09	1251.31
201.31	1226.73
201.53	1265.64
201.75	1259.50
201.97	1265.64
202.19	1273.84
202.41	1257.45
202.63	1228.78
202.85	1288.17
203.07	1306.60
203.29	1234.93
203.51	1312.75
203.73	1284.08
203.95	1314.80
204.17	1275.88
204.39	1245.16
204.61	1333.23
204.83	1253.36
205.05	1269.74
205.27	1267.69
205.49	1335.28
205.71	1265.64
205.93	1247.21
206.15	1279.98
206.37	1302.51
206.59	1241.07
206.81	1288.17
207.03	1273.84
207.25	1304.56
207.47	1286.12
207.69	1183.73
207.91	1267.69
208.13	1253.36
208.34	1279.98
208.56	1271.79
208.78	1249.26
209.00	1191.92
209.22	1275.88
209.44	1320.94
209.66	1214.45
209.88	1259.50
210.10	1279.98
210.32	1261.55
210.54	1226.73
210.76	1337.32
210.98	1284.08
211.20	1267.69
211.42	1306.60
211.64	1253.36
211.86	1267.69
212.08	1226.73
212.30	1294.32
212.52	1210.35
212.74	1263.60
212.96	1218.54
213.17	1277.93
213.39	1308.65
213.61	1253.36
213.83	1236.97
214.05	1282.03
214.27	1292.27
214.49	1265.64
214.71	1214.45
214.93	1279.98
215.15	1282.03
215.37	1282.03
215.59	1351.66
215.81	1241.07
216.03	1210.35
216.24	1277.93
216.46	1255.40
216.68	1236.97
216.90	1308.65
217.12	1320.94
217.34	1308.65
217.56	1273.84
217.78	1257.45
218.00	1208.30
218.22	1312.75
218.44	1308.65
218.66	1302.51
218.87	1259.50
219.09	1232.88
219.31	1306.60
219.53	1222.64
219.75	1275.88
219.97	1316.84
220.19	1292.27
220.41	1245.16
220.63	1269.74
220.85	1300.46
221.06	1261.55
221.28	1302.51
221.50	1284.08
221.72	1253.36
221.94	1298.41
222.16	1253.36
222.38	1220.59
222.60	1263.60
222.82	1296.36
223.03	1189.87
223.25	1298.41
223.47	1261.55
223.69	1265.64
223.91	1245.16
224.13	1282.03
224.35	1220.59
224.57	1296.36
224.78	1282.03
225.00	1327.08
225.22	1234.93
225.44	1298.41
225.66	1282.03
225.88	1236.97
226.10	1359.85
226.32	1236.97
226.53	1337.32
226.75	1253.36
226.97	1308.65
227.19	1226.73
227.41	1212.40
227.63	1277.93
227.85	1247.21
228.06	1310.70
228.28	1224.69
228.50	1308.65
228.72	1273.84
228.94	1216.49
229.16	1312.75
229.37	1257.45
229.59	1200.11
229.81	1232.88
230.03	1312.75
230.25	1263.60
230.47	1255.40
230.69	1294.32
230.90	1298.41
231.12	1296.36
231.34	1218.54
231.56	1296.36
231.78	1210.35
232.00	1245.16
232.21	1241.07
232.43	1181.68
232.65	1247.21
232.87	1322.99
233.09	1261.55
233.30	1255.40
233.52	1277.93
233.74	1306.60
233.96	1288.17
234.18	1331.18
234.40	1339.37
234.61	1241.07
234.83	1249.26
235.05	1239.02
235.27	1265.64
235.49	1236.97
235.70	1298.41
235.92	1318.89
236.14	1253.36
236.36	1329.13
236.58	1224.69
236.79	1286.12
237.01	1318.89
237.23	1206.25
237.45	1298.41
237.67	1292.27
237.88	1273.84
238.10	1232.88
238.32	1216.49
238.54	1265.64
238.76	1222.64
238.97	1316.84
239.19	1267.69
239.41	1304.56
239.63	1259.50
239.85	1271.79
240.06	1224.69
240.28	1277.93
240.50	1302.51
240.72	1298.41
240.93	1232.88
241.15	1341.42
241.37	1185.77
241.59	1306.60
241.81	1282.03
242.02	1282.03
242.24	1257.45
242.46	1277.93
242.68	1269.74
242.89	1306.60
243.11	1333.23
243.33	1222.64
243.55	1183.73
243.76	1210.35
243.98	1234.93
244.20	1247.21
244.42	1306.60
244.64	1312.75
244.85	1251.31
245.07	1222.64
245.29	1269.74
245.51	1271.79
245.72	1187.82
245.94	1218.54
246.16	1275.88
246.38	1322.99
246.59	1286.12
246.81	1208.30
247.03	1290.22
247.24	1331.18
247.46	1366.00
247.68	1277.93
247.90	1286.12
248.11	1277.93
248.33	1290.22
248.55	1218.54
248.77	1253.36
248.98	1357.80
249.20	1220.59
249.42	1208.30
249.64	1220.59
249.85	1243.12
250.07	1212.40
250.29	1247.21
250.50	1263.60
250.72	1265.64
250.94	1277.93
251.16	1273.84
251.37	1251.31
251.59	1269.74
251.81	1204.21
252.02	1290.22
252.24	1224.69
252.46	1277.93
252.68	1279.98
252.89	1296.36
253.11	1206.25
253.33	1325.04
253.54	1222.64
253.76	1277.93
253.98	1329.13
254.20	1261.55
254.41	1304.56
254.63	1269.74
254.85	1210.35
255.06	1294.32
255.28	1359.85
255.50	1163.25
255.71	1243.12
255.93	1253.36
256.15	1206.25
256.36	1275.88
256.58	1273.84
256.80	1212.40
257.02	1222.64
257.23	1298.41
257.45	1282.03
257.67	1331.18
257.88	1288.17
258.10	1265.64
258.32	1275.88
258.53	1259.50
258.75	1263.60
258.97	1294.32
259.18	1251.31
259.40	1300.46
259.62	1226.73
259.83	1269.74
260.05	1214.45
260.27	1146.86
260.48	1265.64
260.70	1255.40
260.92	1279.98
261.13	1247.21
261.35	1187.82
261.57	1277.93
261.78	1261.55
262.00	1296.36
262.22	1216.49
262.43	1228.78
262.65	1308.65
262.86	1275.88
263.08	1302.51
263.30	1253.36
263.51	1298.41
263.73	1189.87
263.95	1290.22
264.16	1239.02
264.38	1177.58
264.60	1253.36
264.81	1366.00
265.03	1279.98
265.25	1202.16
265.46	1257.45
265.68	1247.21
265.89	1226.73
266.11	1243.12
266.33	1245.16
266.54	1273.84
266.76	1183.73
266.98	1282.03
267.19	1228.78
267.41	1279.98
267.62	1277.93
267.84	1247.21
268.06	1284.08
268.27	1275.88
268.49	1271.79
268.70	1263.60
268.92	1290.22
269.14	1290.22
269.35	1255.40
269.57	1243.12
269.79	1206.25
270.00	1267.69
270.22	1282.03
270.43	1296.36
270.65	1257.45
270.87	1263.60
271.08	1269.74
271.30	1247.21
271.51	1318.89
271.73	1198.06
271.95	1296.36
272.16	1210.35
272.38	1265.64
272.59	1277.93
272.81	1298.41
273.02	1253.36
273.24	1298.41
273.46	1300.46
273.67	1249.26
273.89	1282.03
274.10	1306.60
274.32	1251.31
274.54	1251.31
274.75	1302.51
274.97	1277.93
275.18	1253.36
275.40	1310.70
275.61	1247.21
275.83	1277.93
276.05	1245.16
276.26	1234.93
276.48	1239.02
276.69	1306.60
276.91	1228.78
277.12	1263.60
277.34	1310.70
277.55	1271.79
277.77	1273.84
277.99	1341.42
278.20	1257.45
278.42	1249.26
278.63	1306.60
278.85	1265.64
279.06	1284.08
279.28	1251.31
279.49	1294.32
279.71	1216.49
279.93	1302.51
280.14	1282.03
280.36	1273.84
280.57	1279.98
280.79	1239.02
281.00	1267.69
281.22	1282.03
281.43	1263.60
281.65	1239.02
281.86	1282.03
282.08	1216.49
282.29	1288.17
282.51	1284.08
282.73	1251.31
282.94	1300.46
283.16	1292.27
283.37	1294.32
283.59	1310.70
283.80	1271.79
284.02	1310.70
284.23	1273.84
284.45	1226.73
284.66	1300.46
284.88	1206.25
285.09	1245.16
285.31	1261.55
285.52	1239.02
285.74	1304.56
285.95	1298.41
286.17	1232.88
286.38	1249.26
286.60	1304.56
286.81	1245.16
287.03	1245.16
287.24	1245.16
287.46	1296.36
287.67	1241.07
287.89	1284.08
288.10	1247.21
288.32	1294.32
288.53	1284.08
288.75	1292.27
288.96	1261.55
289.18	1265.64
289.39	1216.49
289.61	1259.50
289.82	1251.31
290.04	1318.89
290.25	1277.93
290.47	1232.88
290.68	1286.12
290.90	1263.60
291.11	1247.21
291.33	1279.98
291.54	1263.60
291.76	1296.36
291.97	1257.45
292.18	1298.41
292.40	1263.60
292.61	1288.17
292.83	1282.03
293.04	1263.60
293.26	1257.45
293.47	1210.35
293.69	1300.46
293.90	1341.42
294.12	1243.12
294.33	1300.46
294.55	1284.08
294.76	1282.03
294.97	1259.50
295.19	1294.32
295.40	1245.16
295.62	1310.70
295.83	1282.03
296.05	1226.73
296.26	1247.21
296.48	1251.31
296.69	1220.59
296.90	1282.03
297.12	1290.22
297.33	1341.42
297.55	1292.27
297.76	1187.82
297.98	1261.55
298.19	1253.36
298.41	1204.21
298.62	1247.21
298.83	1230.83
299.05	1286.12
299.26	1253.36
299.48	1261.55
299.69	1310.70
299.90	1279.98
300.12	1226.73
300.33	1294.32
300.55	1314.80
300.76	1294.32
300.98	1302.51
301.19	1239.02
301.40	1374.19
301.62	1318.89
301.83	1234.93
302.05	1333.23
302.26	1271.79
302.47	1241.07
302.69	1239.02
302.90	1314.80
303.12	1253.36
303.33	1251.31
303.54	1288.17
303.76	1261.55
303.97	1300.46
304.19	1269.74
304.40	1202.16
304.61	1322.99
304.83	1259.50
305.04	1306.60
305.26	1263.60
305.47	1208.30
305.68	1294.32
305.90	1306.60
306.11	1222.64
306.33	1265.64
306.54	1298.41
306.75	1314.80
306.97	1275.88
307.18	1265.64
307.39	1337.32
307.61	1257.45
307.82	1247.21
308.04	1273.84
308.25	1261.55
308.46	1273.84
308.68	1263.60
308.89	1241.07
309.10	1267.69
309.32	1308.65
309.53	1224.69
309.74	1294.32
309.96	1261.55
310.17	1279.98
310.39	1314.80
310.60	1257.45
310.81	1275.88
311.03	1271.79
311.24	1306.60
311.45	1220.59
311.67	1265.64
311.88	1251.31
312.09	1222.64
312.31	1269.74
312.52	1263.60
312.73	1290.22
312.95	1220.59
313.16	1282.03
313.37	1269.74
313.59	1282.03
313.80	1316.84
314.01	1255.40
314.23	1282.03
314.44	1275.88
314.65	1300.46
314.87	1296.36
315.08	1226.73
315.29	1273.84
315.51	1251.31
315.72	1277.93
315.93	1265.64
316.15	1241.07
316.36	1279.98
316.57	1241.07
316.79	1279.98
317.00	1298.41
317.21	1300.46
317.43	1331.18
317.64	1222.64
317.85	1251.31
318.07	1308.65
318.28	1279.98
318.49	1245.16
318.70	1290.22
318.92	1304.56
319.13	1243.12
319.34	1282.03
319.56	1234.93
319.77	1241.07
319.98	1167.34
320.20	1275.88
320.41	1277.93
320.62	1265.64
320.83	1253.36
321.05	1249.26
321.26	1357.80
321.47	1247.21
321.69	1265.64
321.90	1236.97
322.11	1249.26
322.32	1206.25
322.54	1298.41
322.75	1292.27
322.96	1263.60
323.18	1310.70
323.39	1255.40
323.60	1273.84
323.81	1253.36
324.03	1290.22
324.24	1253.36
324.45	1273.84
324.66	1222.64
324.88	1337.32
325.09	1189.87
325.30	1292.27
325.52	1226.73
325.73	1322.99
325.94	1325.04
326.15	1214.45
326.37	1271.79
326.58	1292.27
326.79	1265.64
327.00	1232.88
327.22	1257.45
327.43	1296.36
327.64	1308.65
327.85	1288.17
328.07	1304.56
328.28	1224.69
328.49	1316.84
328.70	1251.31
328.92	1331.18
329.13	1183.73
329.34	1279.98
329.55	1230.83
329.76	1298.41
329.98	1253.36
330.19	1273.84
330.40	1282.03
330.61	1269.74
330.83	1214.45
331.04	1273.84
331.25	1288.17
331.46	1282.03
331.68	1320.94
331.89	1300.46
332.10	1376.24
332.31	1275.88
332.52	1218.54
332.74	1228.78
332.95	1239.02
333.16	1236.97
333.37	1306.60
333.58	1273.84
333.80	1269.74
334.01	1292.27
334.22	1220.59
334.43	1257.45
334.64	1288.17
334.86	1247.21
335.07	1193.97
335.28	1245.16
335.49	1286.12
335.70	1257.45
335.92	1259.50
336.13	1306.60
336.34	1255.40
336.55	1257.45
336.76	1253.36
336.98	1212.40
337.19	1230.83
337.40	1253.36
337.61	1249.26
337.82	1279.98
338.04	1261.55
338.25	1271.79
338.46	1224.69
338.67	1380.33
338.88	1275.88
339.09	1230.83
339.31	1206.25
339.52	1198.06
339.73	1261.55
339.94	1282.03
340.15	1253.36
340.36	1277.93
340.58	1275.88
340.79	1232.88
341.00	1290.22
341.21	1318.89
341.42	1249.26
341.63	1296.36
341.85	1191.92
342.06	1294.32
342.27	1249.26
342.48	1210.35
342.69	1267.69
342.90	1290.22
343.12	1245.16
343.33	1312.75
343.54	1300.46
343.75	1206.25
343.96	1183.73
344.17	1263.60
344.38	1257.45
344.60	1206.25
344.81	1249.26
345.02	1282.03
345.23	1234.93
345.44	1286.12
345.65	1271.79
345.86	1257.45
346.07	1265.64
346.29	1292.27
346.50	1349.61
346.71	1216.49
346.92	1196.01
347.13	1251.31
347.34	1306.60
347.55	1214.45
347.76	1181.68
347.98	1247.21
348.19	1261.55
348.40	1286.12
348.61	1322.99
348.82	1298.41
349.03	1353.71
349.24	1265.64
349.45	1329.13
349.66	1214.45
349.88	1236.97
350.09	1257.45
350.30	1265.64
350.51	1245.16
350.72	1257.45
350.93	1277.93
351.14	1204.21
351.35	1292.27
351.56	1316.84
351.77	1257.45
351.99	1290.22
352.20	1292.27
352.41	1232.88
352.62	1265.64
352.83	1193.97
353.04	1308.65
353.25	1282.03
353.46	1271.79
353.67	1239.02
353.88	1304.56
354.09	1232.88
354.30	1279.98
354.52	1263.60
354.73	1245.16
354.94	1265.64
355.15	1269.74
355.36	1325.04
355.57	1275.88
355.78	1230.83
355.99	1300.46
356.20	1263.60
356.41	1241.07
356.62	1216.49
356.83	1320.94
357.04	1288.17
357.25	1296.36
357.46	1282.03
357.68	1265.64
357.89	1279.98
358.10	1279.98
358.31	1239.02
358.52	1230.83
358.73	1263.60
358.94	1243.12
359.15	1236.97
359.36	1263.60
359.57	1234.93
359.78	1265.64
359.99	1322.99
360.20	1259.50
360.41	1304.56
360.62	1239.02
360.83	1259.50
361.04	1294.32
361.25	1279.98
361.46	1282.03
361.67	1308.65
361.88	1269.74
362.09	1249.26
362.30	1200.11
362.51	1261.55
362.72	1249.26
362.93	1185.77
363.14	1236.97
363.35	1214.45
363.56	1292.27
363.78	1304.56
363.99	1236.97
364.20	1216.49
364.41	1275.88
364.62	1363.95
364.83	1222.64
365.04	1259.50
365.25	1222.64
365.46	1282.03
365.67	1279.98
365.88	1286.12
366.09	1304.56
366.30	1277.93
366.51	1275.88
366.72	1228.78
366.93	1286.12
367.14	1302.51
367.35	1325.04
367.56	1304.56
367.77	1224.69
367.98	1247.21
368.18	1290.22
368.39	1277.93
368.60	1273.84
368.81	1230.83
369.02	1316.84
369.23	1208.30
369.44	1327.08
369.65	1236.97
369.86	1241.07
370.07	1245.16
370.28	1263.60
370.49	1222.64
370.70	1296.36
370.91	1320.94
371.12	1265.64
371.33	1243.12
371.54	1302.51
371.75	1218.54
371.96	1288.17
372.17	1286.12
372.38	1286.12
372.59	1241.07
372.80	1290.22
373.01	1275.88
373.22	1198.06
373.43	1277.93
373.64	1210.35
373.85	1251.31
374.06	1269.74
374.26	1296.36
374.47	1224.69
374.68	1245.16
374.89	1214.45
375.10	1218.54
375.31	1275.88
375.52	1224.69
375.73	1286.12
375.94	1284.08
376.15	1343.47
376.36	1247.21
376.57	1193.97
376.78	1208.30
376.99	1245.16
377.20	1296.36
377.40	1308.65
377.61	1267.69
377.82	1261.55
378.03	1292.27
378.24	1284.08
378.45	1257.45
378.66	1292.27
378.87	1214.45
379.08	1345.52
379.29	1327.08
379.50	1294.32
379.71	1228.78
379.91	1239.02
380.12	1230.83
380.33	1296.36
380.54	1298.41
380.75	1259.50
380.96	1269.74
381.17	1261.55
381.38	1312.75
381.59	1306.60
381.80	1259.50
382.00	1286.12
382.21	1325.04
382.42	1320.94
382.63	1286.12
382.84	1304.56
383.05	1228.78
383.26	1206.25
383.47	1253.36
383.68	1277.93
383.88	1277.93
384.09	1249.26
384.30	1329.13
384.51	1202.16
384.72	1243.12
384.93	1284.08
385.14	1206.25
385.35	1284.08
385.55	1210.35
385.76	1249.26
385.97	1271.79
386.18	1206.25
386.39	1253.36
386.60	1230.83
386.81	1314.80
387.02	1302.51
387.22	1284.08
387.43	1288.17
387.64	1257.45
387.85	1239.02
388.06	1267.69
388.27	1294.32
388.48	1292.27
388.68	1245.16
388.89	1296.36
389.10	1286.12
389.31	1298.41
389.52	1226.73
389.73	1206.25
389.93	1312.75
390.14	1241.07
390.35	1245.16
390.56	1247.21
390.77	1255.40
390.98	1300.46
391.18	1163.25
391.39	1286.12
391.60	1208.30
391.81	1288.17
392.02	1316.84
392.23	1284.08
392.43	1269.74
392.64	1290.22
392.85	1257.45
393.06	1271.79
393.27	1316.84
393.47	1286.12
393.68	1169.39
393.89	1325.04
394.10	1257.45
394.31	1189.87
394.52	1290.22
394.72	1269.74
394.93	1247.21
395.14	1273.84
395.35	1243.12
395.56	1198.06
395.76	1230.83
395.97	1282.03
396.18	1343.47
396.39	1312.75
396.60	1304.56
396.80	1322.99
397.01	1269.74
397.22	1193.97
397.43	1241.07
397.64	1275.88
397.84	1245.16
398.05	1181.68
398.26	1337.32
398.47	1247.21
398.67	1333.23
398.88	1265.64
399.09	1329.13
399.30	1245.16
399.51	1243.12
399.71	1318.89
399.92	1322.99
400.13	1267.69
400.34	1243.12
400.54	1171.44
400.75	1312.75
400.96	1232.88
401.17	1290.22
401.37	1232.88
401.58	1320.94
401.79	1210.35
402.00	1273.84
402.21	1204.21
402.41	1298.41
402.62	1296.36
402.83	1247.21
403.04	1271.79
403.24	1302.51
403.45	1271.79
403.66	1314.80
403.87	1212.40
404.07	1290.22
404.28	1269.74
404.49	1304.56
404.70	1220.59
404.90	1322.99
405.11	1275.88
405.32	1357.80
405.52	1302.51
405.73	1257.45
405.94	1331.18
406.15	1214.45
406.35	1273.84
406.56	1257.45
406.77	1265.64
406.98	1247.21
407.18	1269.74
407.39	1341.42
407.60	1277.93
407.80	1306.60
408.01	1329.13
408.22	1261.55
408.43	1277.93
408.63	1288.17
408.84	1257.45
409.05	1269.74
409.25	1312.75
409.46	1257.45
409.67	1239.02
409.88	1298.41
410.08	1214.45
410.29	1216.49
410.50	1277.93
410.70	1279.98
410.91	1247.21
411.12	1265.64
411.32	1294.32
411.53	1275.88
411.74	1376.24
411.95	1273.84
412.15	1271.79
412.36	1271.79
412.57	1306.60
412.77	1302.51
412.98	1314.80
413.19	1267.69
413.39	1255.40
413.60	1226.73
413.81	1230.83
414.01	1271.79
414.22	1249.26
414.43	1269.74
414.63	1290.22
414.84	1239.02
415.05	1308.65
415.25	1288.17
415.46	1259.50
415.67	1271.79
415.87	1288.17
416.08	1232.88
416.29	1312.75
416.49	1337.32
416.70	1230.83
416.91	1239.02
417.11	1339.37
417.32	1261.55
417.53	1210.35
417.73	1193.97
417.94	1263.60
418.15	1271.79
418.35	1296.36
418.56	1261.55
418.77	1269.74
418.97	1234.93
419.18	1277.93
419.38	1333.23
419.59	1271.79
419.80	1279.98
420.00	1239.02
420.21	1257.45
420.42	1200.11
420.62	1245.16
420.83	1228.78
421.04	1200.11
421.24	1267.69
421.45	1294.32
421.65	1298.41
421.86	1282.03
422.07	1302.51
422.27	1300.46
422.48	1230.83
422.69	1236.97
422.89	1249.26
423.10	1247.21
423.30	1263.60
423.51	1267.69
423.72	1214.45
423.92	1304.56
424.13	1193.97
424.33	1265.64
424.54	1290.22
424.75	1279.98
424.95	1267.69
425.16	1247.21
425.36	1167.34
425.57	1298.41
425.78	1257.45
425.98	1204.21
426.19	1241.07
426.39	1257.45
426.60	1265.64
426.81	1347.56
427.01	1302.51
427.22	1290.22
427.42	1273.84
427.63	1214.45
427.83	1224.69
428.04	1259.50
428.25	1249.26
428.45	1259.50
428.66	1259.50
428.86	1202.16
429.07	1216.49
429.28	1265.64
429.48	1277.93
429.69	1298.41
429.89	1261.55
430.10	1269.74
430.30	1179.63
430.51	1241.07
430.71	1243.12
430.92	1251.31
431.13	1310.70
431.33	1267.69
431.54	1269.74
431.74	1304.56
431.95	1255.40
432.15	1279.98
432.36	1257.45
432.56	1257.45
432.77	1310.70
432.98	1282.03
433.18	1294.32
433.39	1236.97
433.59	1261.55
433.80	1290.22
434.00	1288.17
434.21	1363.95
434.41	1300.46
434.62	1241.07
434.82	1277.93
435.03	1265.64
435.23	1265.64
435.44	1296.36
435.64	1296.36
435.85	1173.49
436.06	1243.12
436.26	1392.62
436.47	1222.64
436.67	1273.84
436.88	1241.07
437.08	1191.92
437.29	1220.59
437.49	1282.03
437.70	1196.01
437.90	1298.41
438.11	1273.84
438.31	1300.46
438.52	1236.97
438.72	1300.46
438.93	1312.75
439.13	1263.60
439.34	1271.79
439.54	1306.60
439.75	1277.93
439.95	1232.88
440.16	1294.32
440.36	1288.17
440.57	1294.32
440.77	1294.32
440.98	1206.25
441.18	1265.64
441.39	1279.98
441.59	1269.74
441.80	1286.12
442.00	1228.78
442.21	1271.79
442.41	1257.45
442.62	1288.17
442.82	1337.32
443.02	1320.94
443.23	1378.28
443.43	1325.04
443.64	1286.12
443.84	1236.97
444.05	1306.60
444.25	1337.32
444.46	1271.79
444.66	1234.93
444.87	1322.99
445.07	1349.61
445.28	1251.31
445.48	1193.97
445.69	1304.56
445.89	1249.26
446.09	1208.30
446.30	1271.79
446.50	1298.41
446.71	1228.78
446.91	1245.16
447.12	1198.06
447.32	1257.45
447.53	1294.32
447.73	1343.47
447.93	1191.92
448.14	1251.31
448.34	1286.12
448.55	1302.51
448.75	1230.83
448.96	1267.69
449.16	1337.32
449.36	1273.84
449.57	1296.36
449.77	1196.01
449.98	1249.26
450.18	1306.60
450.39	1267.69
450.59	1275.88
450.79	1331.18
451.00	1302.51
451.20	1267.69
451.41	1284.08
451.61	1253.36
451.81	1312.75
452.02	1251.31
452.22	1273.84
452.43	1325.04
452.63	1226.73
