SpectraSuite Data File
++++++++++++++++++++++++++++++++++++
Date: Sun Apr 03 19:55:25 CEST 2016
User: root
Dark Spectrum Present: No
Reference Spectrum Present: No
Number of Sampled Component Spectra: 1
Spectrometers: USB4C02835
Integration Time (usec): 10000 (USB4C02835)
Spectra Averaged: 1 (USB4C02835)
Boxcar Smoothing: 0 (USB4C02835)
Correct for Electrical Dark: No (USB4C02835)
Strobe/Lamp Enabled: No (USB4C02835)
Correct for Detector Non-linearity: No (USB4C02835)
Correct for Stray Light: No (USB4C02835)
Number of Pixels in Processed Spectrum: 3648
>>>>>Begin Processed Spectral Data<<<<<
177.47	1161.20
177.69	1161.20
177.91	1161.20
178.13	1208.30
178.36	1296.36
178.58	1206.25
178.80	1294.32
179.02	1234.93
179.24	1322.99
179.46	1216.49
179.68	1261.55
179.90	1249.26
180.13	1286.12
180.35	1320.94
180.57	1259.50
180.79	1275.88
181.01	1206.25
181.23	1269.74
181.45	1292.27
181.67	1239.02
181.90	1228.78
182.12	1241.07
182.34	1251.31
182.56	1298.41
182.78	1255.40
183.00	1284.08
183.22	1312.75
183.44	1224.69
183.66	1253.36
183.89	1251.31
184.11	1329.13
184.33	1273.84
184.55	1267.69
184.77	1245.16
184.99	1243.12
185.21	1196.01
185.43	1239.02
185.65	1282.03
185.87	1310.70
186.10	1249.26
186.32	1320.94
186.54	1228.78
186.76	1253.36
186.98	1292.27
187.20	1277.93
187.42	1232.88
187.64	1193.97
187.86	1300.46
188.08	1294.32
188.30	1239.02
188.52	1259.50
188.75	1302.51
188.97	1245.16
189.19	1259.50
189.41	1261.55
189.63	1214.45
189.85	1257.45
190.07	1306.60
190.29	1286.12
190.51	1222.64
190.73	1282.03
190.95	1279.98
191.17	1361.90
191.39	1277.93
191.61	1308.65
191.84	1177.58
192.06	1302.51
192.28	1269.74
192.50	1284.08
192.72	1245.16
192.94	1304.56
193.16	1284.08
193.38	1269.74
193.60	1267.69
193.82	1253.36
194.04	1282.03
194.26	1202.16
194.48	1261.55
194.70	1216.49
194.92	1290.22
195.14	1273.84
195.36	1232.88
195.58	1310.70
195.80	1222.64
196.02	1261.55
196.24	1245.16
196.46	1286.12
196.69	1314.80
196.91	1253.36
197.13	1214.45
197.35	1259.50
197.57	1253.36
197.79	1173.49
198.01	1228.78
198.23	1259.50
198.45	1253.36
198.67	1216.49
198.89	1263.60
199.11	1245.16
199.33	1251.31
199.55	1269.74
199.77	1196.01
199.99	1322.99
200.21	1277.93
200.43	1282.03
200.65	1267.69
200.87	1277.93
201.09	1286.12
201.31	1251.31
201.53	1318.89
201.75	1269.74
201.97	1202.16
202.19	1302.51
202.41	1255.40
202.63	1322.99
202.85	1273.84
203.07	1243.12
203.29	1347.56
203.51	1230.83
203.73	1226.73
203.95	1222.64
204.17	1271.79
204.39	1292.27
204.61	1216.49
204.83	1243.12
205.05	1157.10
205.27	1284.08
205.49	1277.93
205.71	1251.31
205.93	1200.11
206.15	1228.78
206.37	1316.84
206.59	1269.74
206.81	1239.02
207.03	1179.63
207.25	1302.51
207.47	1255.40
207.69	1316.84
207.91	1333.23
208.13	1304.56
208.34	1271.79
208.56	1193.97
208.78	1247.21
209.00	1257.45
209.22	1314.80
209.44	1300.46
209.66	1271.79
209.88	1308.65
210.10	1312.75
210.32	1255.40
210.54	1239.02
210.76	1265.64
210.98	1288.17
211.20	1271.79
211.42	1267.69
211.64	1243.12
211.86	1247.21
212.08	1249.26
212.30	1298.41
212.52	1269.74
212.74	1261.55
212.96	1308.65
213.17	1259.50
213.39	1234.93
213.61	1314.80
213.83	1318.89
214.05	1251.31
214.27	1196.01
214.49	1300.46
214.71	1257.45
214.93	1241.07
215.15	1263.60
215.37	1310.70
215.59	1202.16
215.81	1251.31
216.03	1216.49
216.24	1279.98
216.46	1263.60
216.68	1255.40
216.90	1249.26
217.12	1271.79
217.34	1273.84
217.56	1296.36
217.78	1275.88
218.00	1296.36
218.22	1333.23
218.44	1298.41
218.66	1220.59
218.87	1331.18
219.09	1245.16
219.31	1343.47
219.53	1275.88
219.75	1284.08
219.97	1249.26
220.19	1206.25
220.41	1257.45
220.63	1279.98
220.85	1230.83
221.06	1200.11
221.28	1177.58
221.50	1263.60
221.72	1200.11
221.94	1228.78
222.16	1273.84
222.38	1222.64
222.60	1304.56
222.82	1345.52
223.03	1304.56
223.25	1239.02
223.47	1239.02
223.69	1216.49
223.91	1284.08
224.13	1265.64
224.35	1267.69
224.57	1228.78
224.78	1212.40
225.00	1261.55
225.22	1255.40
225.44	1265.64
225.66	1236.97
225.88	1257.45
226.10	1224.69
226.32	1253.36
226.53	1263.60
226.75	1273.84
226.97	1267.69
227.19	1271.79
227.41	1245.16
227.63	1306.60
227.85	1196.01
228.06	1218.54
228.28	1347.56
228.50	1200.11
228.72	1282.03
228.94	1279.98
229.16	1239.02
229.37	1308.65
229.59	1288.17
229.81	1247.21
230.03	1208.30
230.25	1286.12
230.47	1210.35
230.69	1282.03
230.90	1189.87
231.12	1345.52
231.34	1236.97
231.56	1298.41
231.78	1200.11
232.00	1310.70
232.21	1241.07
232.43	1257.45
232.65	1214.45
232.87	1269.74
233.09	1284.08
233.30	1267.69
233.52	1226.73
233.74	1239.02
233.96	1228.78
234.18	1286.12
234.40	1296.36
234.61	1292.27
234.83	1230.83
235.05	1269.74
235.27	1224.69
235.49	1298.41
235.70	1261.55
235.92	1304.56
236.14	1331.18
236.36	1181.68
236.58	1269.74
236.79	1333.23
237.01	1298.41
237.23	1255.40
237.45	1279.98
237.67	1273.84
237.88	1253.36
238.10	1193.97
238.32	1349.61
238.54	1253.36
238.76	1363.95
238.97	1255.40
239.19	1236.97
239.41	1271.79
239.63	1241.07
239.85	1249.26
240.06	1292.27
240.28	1253.36
240.50	1282.03
240.72	1286.12
240.93	1318.89
241.15	1327.08
241.37	1226.73
241.59	1271.79
241.81	1294.32
242.02	1300.46
242.24	1298.41
242.46	1214.45
242.68	1282.03
242.89	1349.61
243.11	1312.75
243.33	1304.56
243.55	1224.69
243.76	1204.21
243.98	1245.16
244.20	1257.45
244.42	1267.69
244.64	1286.12
244.85	1259.50
245.07	1292.27
245.29	1294.32
245.51	1261.55
245.72	1241.07
245.94	1290.22
246.16	1222.64
246.38	1243.12
246.59	1261.55
246.81	1224.69
247.03	1224.69
247.24	1286.12
247.46	1322.99
247.68	1271.79
247.90	1296.36
248.11	1232.88
248.33	1275.88
248.55	1204.21
248.77	1284.08
248.98	1232.88
249.20	1247.21
249.42	1298.41
249.64	1290.22
249.85	1245.16
250.07	1269.74
250.29	1259.50
250.50	1286.12
250.72	1228.78
250.94	1275.88
251.16	1306.60
251.37	1234.93
251.59	1263.60
251.81	1247.21
252.02	1251.31
252.24	1220.59
252.46	1308.65
252.68	1308.65
252.89	1333.23
253.11	1263.60
253.33	1290.22
253.54	1335.28
253.76	1267.69
253.98	1261.55
254.20	1247.21
254.41	1236.97
254.63	1265.64
254.85	1282.03
255.06	1226.73
255.28	1314.80
255.50	1320.94
255.71	1243.12
255.93	1259.50
256.15	1314.80
256.36	1218.54
256.58	1261.55
256.80	1269.74
257.02	1318.89
257.23	1279.98
257.45	1282.03
257.67	1210.35
257.88	1331.18
258.10	1204.21
258.32	1294.32
258.53	1265.64
258.75	1257.45
258.97	1282.03
259.18	1286.12
259.40	1257.45
259.62	1234.93
259.83	1306.60
260.05	1282.03
260.27	1279.98
260.48	1212.40
260.70	1239.02
260.92	1249.26
261.13	1320.94
261.35	1312.75
261.57	1232.88
261.78	1335.28
262.00	1314.80
262.22	1267.69
262.43	1284.08
262.65	1279.98
262.86	1341.42
263.08	1282.03
263.30	1196.01
263.51	1224.69
263.73	1236.97
263.95	1269.74
264.16	1218.54
264.38	1228.78
264.60	1271.79
264.81	1292.27
265.03	1310.70
265.25	1320.94
265.46	1241.07
265.68	1298.41
265.89	1220.59
266.11	1185.77
266.33	1271.79
266.54	1284.08
266.76	1351.66
266.98	1277.93
267.19	1327.08
267.41	1257.45
267.62	1343.47
267.84	1196.01
268.06	1284.08
268.27	1204.21
268.49	1298.41
268.70	1239.02
268.92	1327.08
269.14	1175.53
269.35	1277.93
269.57	1306.60
269.79	1241.07
270.00	1261.55
270.22	1302.51
270.43	1259.50
270.65	1214.45
270.87	1226.73
271.08	1331.18
271.30	1282.03
271.51	1222.64
271.73	1236.97
271.95	1257.45
272.16	1337.32
272.38	1245.16
272.59	1247.21
272.81	1273.84
273.02	1279.98
273.24	1257.45
273.46	1327.08
273.67	1279.98
273.89	1245.16
274.10	1239.02
274.32	1273.84
274.54	1292.27
274.75	1331.18
274.97	1245.16
275.18	1331.18
275.40	1214.45
275.61	1296.36
275.83	1214.45
276.05	1247.21
276.26	1251.31
276.48	1265.64
276.69	1224.69
276.91	1218.54
277.12	1282.03
277.34	1306.60
277.55	1298.41
277.77	1300.46
277.99	1304.56
278.20	1249.26
278.42	1257.45
278.63	1310.70
278.85	1255.40
279.06	1255.40
279.28	1341.42
279.49	1277.93
279.71	1224.69
279.93	1187.82
280.14	1181.68
280.36	1185.77
280.57	1277.93
280.79	1273.84
281.00	1312.75
281.22	1298.41
281.43	1306.60
281.65	1290.22
281.86	1308.65
282.08	1325.04
282.29	1230.83
282.51	1142.77
282.73	1282.03
282.94	1249.26
283.16	1202.16
283.37	1320.94
283.59	1320.94
283.80	1241.07
284.02	1337.32
284.23	1230.83
284.45	1275.88
284.66	1288.17
284.88	1208.30
285.09	1314.80
285.31	1318.89
285.52	1302.51
285.74	1329.13
285.95	1275.88
286.17	1196.01
286.38	1298.41
286.60	1286.12
286.81	1263.60
287.03	1314.80
287.24	1277.93
287.46	1320.94
287.67	1249.26
287.89	1249.26
288.10	1243.12
288.32	1228.78
288.53	1277.93
288.75	1230.83
288.96	1286.12
289.18	1222.64
289.39	1279.98
289.61	1245.16
289.82	1273.84
290.04	1263.60
290.25	1157.10
290.47	1236.97
290.68	1210.35
290.90	1271.79
291.11	1234.93
291.33	1255.40
291.54	1218.54
291.76	1271.79
291.97	1294.32
292.18	1257.45
292.40	1243.12
292.61	1191.92
292.83	1284.08
293.04	1318.89
293.26	1255.40
293.47	1290.22
293.69	1253.36
293.90	1296.36
294.12	1255.40
294.33	1230.83
294.55	1277.93
294.76	1245.16
294.97	1218.54
295.19	1255.40
295.40	1300.46
295.62	1314.80
295.83	1220.59
296.05	1286.12
296.26	1279.98
296.48	1347.56
296.69	1296.36
296.90	1257.45
297.12	1234.93
297.33	1232.88
297.55	1218.54
297.76	1222.64
297.98	1247.21
298.19	1234.93
298.41	1204.21
298.62	1292.27
298.83	1314.80
299.05	1230.83
299.26	1247.21
299.48	1255.40
299.69	1271.79
299.90	1288.17
300.12	1214.45
300.33	1265.64
300.55	1255.40
300.76	1234.93
300.98	1320.94
301.19	1290.22
301.40	1198.06
301.62	1273.84
301.83	1273.84
302.05	1251.31
302.26	1263.60
302.47	1300.46
302.69	1298.41
302.90	1292.27
303.12	1245.16
303.33	1273.84
303.54	1271.79
303.76	1257.45
303.97	1259.50
304.19	1351.66
304.40	1341.42
304.61	1241.07
304.83	1296.36
305.04	1345.52
305.26	1243.12
305.47	1230.83
305.68	1300.46
305.90	1179.63
306.11	1267.69
306.33	1282.03
306.54	1216.49
306.75	1333.23
306.97	1212.40
307.18	1363.95
307.39	1325.04
307.61	1257.45
307.82	1304.56
308.04	1239.02
308.25	1261.55
308.46	1310.70
308.68	1239.02
308.89	1251.31
309.10	1284.08
309.32	1279.98
309.53	1325.04
309.74	1306.60
309.96	1253.36
310.17	1322.99
310.39	1304.56
310.60	1245.16
310.81	1236.97
311.03	1329.13
311.24	1318.89
311.45	1253.36
311.67	1286.12
311.88	1247.21
312.09	1220.59
312.31	1228.78
312.52	1296.36
312.73	1255.40
312.95	1267.69
313.16	1288.17
313.37	1290.22
313.59	1236.97
313.80	1257.45
314.01	1378.28
314.23	1202.16
314.44	1239.02
314.65	1267.69
314.87	1282.03
315.08	1320.94
315.29	1279.98
315.51	1222.64
315.72	1282.03
315.93	1232.88
316.15	1257.45
316.36	1243.12
316.57	1269.74
316.79	1277.93
317.00	1308.65
317.21	1220.59
317.43	1206.25
317.64	1284.08
317.85	1239.02
318.07	1257.45
318.28	1331.18
318.49	1273.84
318.70	1228.78
318.92	1257.45
319.13	1255.40
319.34	1267.69
319.56	1294.32
319.77	1245.16
319.98	1216.49
320.20	1226.73
320.41	1302.51
320.62	1325.04
320.83	1214.45
321.05	1341.42
321.26	1277.93
321.47	1220.59
321.69	1284.08
321.90	1230.83
322.11	1247.21
322.32	1234.93
322.54	1247.21
322.75	1302.51
322.96	1255.40
323.18	1249.26
323.39	1263.60
323.60	1296.36
323.81	1279.98
324.03	1277.93
324.24	1304.56
324.45	1302.51
324.66	1261.55
324.88	1228.78
325.09	1263.60
325.30	1292.27
325.52	1298.41
325.73	1282.03
325.94	1206.25
326.15	1298.41
326.37	1241.07
326.58	1325.04
326.79	1300.46
327.00	1273.84
327.22	1198.06
327.43	1261.55
327.64	1241.07
327.85	1224.69
328.07	1257.45
328.28	1259.50
328.49	1212.40
328.70	1239.02
328.92	1273.84
329.13	1234.93
329.34	1249.26
329.55	1312.75
329.76	1269.74
329.98	1204.21
330.19	1261.55
330.40	1239.02
330.61	1302.51
330.83	1277.93
331.04	1249.26
331.25	1290.22
331.46	1234.93
331.68	1294.32
331.89	1275.88
332.10	1206.25
332.31	1337.32
332.52	1318.89
332.74	1300.46
332.95	1218.54
333.16	1275.88
333.37	1251.31
333.58	1251.31
333.80	1261.55
334.01	1255.40
334.22	1320.94
334.43	1284.08
334.64	1337.32
334.86	1263.60
335.07	1253.36
335.28	1189.87
335.49	1251.31
335.70	1304.56
335.92	1263.60
336.13	1341.42
336.34	1314.80
336.55	1329.13
336.76	1290.22
336.98	1253.36
337.19	1263.60
337.40	1290.22
337.61	1269.74
337.82	1257.45
338.04	1282.03
338.25	1175.53
338.46	1257.45
338.67	1232.88
338.88	1290.22
339.09	1230.83
339.31	1286.12
339.52	1253.36
339.73	1263.60
339.94	1228.78
340.15	1288.17
340.36	1279.98
340.58	1243.12
340.79	1302.51
341.00	1286.12
341.21	1314.80
341.42	1253.36
341.63	1263.60
341.85	1292.27
342.06	1357.80
342.27	1257.45
342.48	1284.08
342.69	1224.69
342.90	1183.73
343.12	1253.36
343.33	1255.40
343.54	1263.60
343.75	1259.50
343.96	1318.89
344.17	1228.78
344.38	1271.79
344.60	1247.21
344.81	1224.69
345.02	1218.54
345.23	1267.69
345.44	1222.64
345.65	1331.18
345.86	1271.79
346.07	1224.69
346.29	1249.26
346.50	1241.07
346.71	1236.97
346.92	1282.03
347.13	1255.40
347.34	1239.02
347.55	1179.63
347.76	1263.60
347.98	1222.64
348.19	1239.02
348.40	1296.36
348.61	1228.78
348.82	1259.50
349.03	1327.08
349.24	1312.75
349.45	1279.98
349.66	1261.55
349.88	1290.22
350.09	1286.12
350.30	1347.56
350.51	1300.46
350.72	1271.79
350.93	1191.92
351.14	1228.78
351.35	1296.36
351.56	1243.12
351.77	1206.25
351.99	1212.40
352.20	1257.45
352.41	1302.51
352.62	1183.73
352.83	1284.08
353.04	1257.45
353.25	1282.03
353.46	1261.55
353.67	1314.80
353.88	1284.08
354.09	1206.25
354.30	1210.35
354.52	1288.17
354.73	1247.21
354.94	1232.88
355.15	1265.64
355.36	1288.17
355.57	1282.03
355.78	1241.07
355.99	1200.11
356.20	1314.80
356.41	1290.22
356.62	1296.36
356.83	1298.41
357.04	1277.93
357.25	1247.21
357.46	1284.08
357.68	1320.94
357.89	1288.17
358.10	1239.02
358.31	1157.10
358.52	1316.84
358.73	1279.98
358.94	1286.12
359.15	1239.02
359.36	1329.13
359.57	1271.79
359.78	1253.36
359.99	1234.93
360.20	1212.40
360.41	1304.56
360.62	1210.35
360.83	1257.45
361.04	1308.65
361.25	1257.45
361.46	1314.80
361.67	1290.22
361.88	1243.12
362.09	1245.16
362.30	1310.70
362.51	1265.64
362.72	1271.79
362.93	1230.83
363.14	1277.93
363.35	1255.40
363.56	1306.60
363.78	1206.25
363.99	1275.88
364.20	1347.56
364.41	1226.73
364.62	1290.22
364.83	1341.42
365.04	1247.21
365.25	1335.28
365.46	1265.64
365.67	1298.41
365.88	1257.45
366.09	1273.84
366.30	1288.17
366.51	1359.85
366.72	1243.12
366.93	1259.50
367.14	1214.45
367.35	1259.50
367.56	1277.93
367.77	1308.65
367.98	1187.82
368.18	1363.95
368.39	1333.23
368.60	1277.93
368.81	1286.12
369.02	1296.36
369.23	1275.88
369.44	1253.36
369.65	1257.45
369.86	1300.46
370.07	1230.83
370.28	1253.36
370.49	1282.03
370.70	1279.98
370.91	1292.27
371.12	1292.27
371.33	1279.98
371.54	1232.88
371.75	1234.93
371.96	1247.21
372.17	1290.22
372.38	1259.50
372.59	1189.87
372.80	1310.70
373.01	1314.80
373.22	1222.64
373.43	1275.88
373.64	1290.22
373.85	1230.83
374.06	1265.64
374.26	1263.60
374.47	1210.35
374.68	1318.89
374.89	1374.19
375.10	1329.13
375.31	1273.84
375.52	1187.82
375.73	1273.84
375.94	1320.94
376.15	1282.03
376.36	1290.22
376.57	1277.93
376.78	1308.65
376.99	1347.56
377.20	1327.08
377.40	1273.84
377.61	1202.16
377.82	1251.31
378.03	1189.87
378.24	1253.36
378.45	1236.97
378.66	1232.88
378.87	1263.60
379.08	1347.56
379.29	1232.88
379.50	1284.08
379.71	1300.46
379.91	1277.93
380.12	1290.22
380.33	1290.22
380.54	1273.84
380.75	1306.60
380.96	1273.84
381.17	1257.45
381.38	1232.88
381.59	1306.60
381.80	1325.04
382.00	1271.79
382.21	1300.46
382.42	1312.75
382.63	1216.49
382.84	1249.26
383.05	1234.93
383.26	1257.45
383.47	1241.07
383.68	1284.08
383.88	1304.56
384.09	1232.88
384.30	1271.79
384.51	1314.80
384.72	1296.36
384.93	1314.80
385.14	1210.35
385.35	1208.30
385.55	1318.89
385.76	1263.60
385.97	1294.32
386.18	1245.16
386.39	1275.88
386.60	1255.40
386.81	1208.30
387.02	1329.13
387.22	1282.03
387.43	1214.45
387.64	1261.55
387.85	1312.75
388.06	1329.13
388.27	1306.60
388.48	1304.56
388.68	1275.88
388.89	1241.07
389.10	1208.30
389.31	1249.26
389.52	1312.75
389.73	1241.07
389.93	1245.16
390.14	1314.80
390.35	1302.51
390.56	1251.31
390.77	1320.94
390.98	1302.51
391.18	1255.40
391.39	1259.50
391.60	1271.79
391.81	1355.76
392.02	1277.93
392.23	1253.36
392.43	1304.56
392.64	1300.46
392.85	1245.16
393.06	1253.36
393.27	1253.36
393.47	1271.79
393.68	1294.32
393.89	1308.65
394.10	1308.65
394.31	1247.21
394.52	1271.79
394.72	1253.36
394.93	1249.26
395.14	1279.98
395.35	1271.79
395.56	1222.64
395.76	1253.36
395.97	1333.23
396.18	1290.22
396.39	1206.25
396.60	1271.79
396.80	1290.22
397.01	1196.01
397.22	1257.45
397.43	1245.16
397.64	1290.22
397.84	1232.88
398.05	1271.79
398.26	1275.88
398.47	1284.08
398.67	1329.13
398.88	1318.89
399.09	1208.30
399.30	1271.79
399.51	1298.41
399.71	1247.21
399.92	1282.03
400.13	1255.40
400.34	1284.08
400.54	1277.93
400.75	1216.49
400.96	1269.74
401.17	1202.16
401.37	1220.59
401.58	1224.69
401.79	1249.26
402.00	1228.78
402.21	1282.03
402.41	1288.17
402.62	1257.45
402.83	1265.64
403.04	1251.31
403.24	1239.02
403.45	1222.64
403.66	1265.64
403.87	1243.12
404.07	1282.03
404.28	1318.89
404.49	1232.88
404.70	1257.45
404.90	1204.21
405.11	1259.50
405.32	1204.21
405.52	1290.22
405.73	1257.45
405.94	1331.18
406.15	1198.06
406.35	1206.25
406.56	1267.69
406.77	1234.93
406.98	1239.02
407.18	1216.49
407.39	1277.93
407.60	1304.56
407.80	1236.97
408.01	1331.18
408.22	1310.70
408.43	1327.08
408.63	1286.12
408.84	1302.51
409.05	1236.97
409.25	1273.84
409.46	1271.79
409.67	1263.60
409.88	1306.60
410.08	1265.64
410.29	1243.12
410.50	1216.49
410.70	1273.84
410.91	1218.54
411.12	1263.60
411.32	1296.36
411.53	1273.84
411.74	1298.41
411.95	1314.80
412.15	1267.69
412.36	1355.76
412.57	1228.78
412.77	1290.22
412.98	1206.25
413.19	1331.18
413.39	1279.98
413.60	1249.26
413.81	1243.12
414.01	1302.51
414.22	1257.45
414.43	1318.89
414.63	1312.75
414.84	1228.78
415.05	1267.69
415.25	1265.64
415.46	1320.94
415.67	1226.73
415.87	1253.36
416.08	1232.88
416.29	1286.12
416.49	1226.73
416.70	1284.08
416.91	1271.79
417.11	1234.93
417.32	1206.25
417.53	1310.70
417.73	1288.17
417.94	1288.17
418.15	1275.88
418.35	1232.88
418.56	1230.83
418.77	1210.35
418.97	1282.03
419.18	1306.60
419.38	1322.99
419.59	1247.21
419.80	1312.75
420.00	1300.46
420.21	1292.27
420.42	1255.40
420.62	1282.03
420.83	1181.68
421.04	1271.79
421.24	1284.08
421.45	1288.17
421.65	1187.82
421.86	1241.07
422.07	1290.22
422.27	1263.60
422.48	1306.60
422.69	1247.21
422.89	1314.80
423.10	1286.12
423.30	1216.49
423.51	1236.97
423.72	1181.68
423.92	1339.37
424.13	1277.93
424.33	1236.97
424.54	1255.40
424.75	1282.03
424.95	1292.27
425.16	1271.79
425.36	1245.16
425.57	1245.16
425.78	1232.88
425.98	1329.13
426.19	1198.06
426.39	1241.07
426.60	1257.45
426.81	1290.22
427.01	1308.65
427.22	1249.26
427.42	1241.07
427.63	1220.59
427.83	1234.93
428.04	1298.41
428.25	1269.74
428.45	1247.21
428.66	1257.45
428.86	1265.64
429.07	1308.65
429.28	1208.30
429.48	1277.93
429.69	1292.27
429.89	1247.21
430.10	1282.03
430.30	1275.88
430.51	1288.17
430.71	1216.49
430.92	1228.78
431.13	1259.50
431.33	1302.51
431.54	1222.64
431.74	1241.07
431.95	1314.80
432.15	1259.50
432.36	1290.22
432.56	1263.60
432.77	1241.07
432.98	1294.32
433.18	1277.93
433.39	1322.99
433.59	1212.40
433.80	1368.04
434.00	1318.89
434.21	1273.84
434.41	1300.46
434.62	1226.73
434.82	1230.83
435.03	1232.88
435.23	1255.40
435.44	1273.84
435.64	1177.58
435.85	1236.97
436.06	1204.21
436.26	1310.70
436.47	1282.03
436.67	1304.56
436.88	1294.32
437.08	1261.55
437.29	1257.45
437.49	1265.64
437.70	1234.93
437.90	1214.45
438.11	1234.93
438.31	1267.69
438.52	1236.97
438.72	1284.08
438.93	1292.27
439.13	1253.36
439.34	1300.46
439.54	1247.21
439.75	1232.88
439.95	1296.36
440.16	1259.50
440.36	1257.45
440.57	1310.70
440.77	1347.56
440.98	1226.73
441.18	1304.56
441.39	1288.17
441.59	1267.69
441.80	1214.45
442.00	1335.28
442.21	1271.79
442.41	1298.41
442.62	1277.93
442.82	1257.45
443.02	1284.08
443.23	1271.79
443.43	1249.26
443.64	1275.88
443.84	1265.64
444.05	1255.40
444.25	1300.46
444.46	1228.78
444.66	1257.45
444.87	1306.60
445.07	1263.60
445.28	1241.07
445.48	1257.45
445.69	1263.60
445.89	1273.84
446.09	1247.21
446.30	1208.30
446.50	1253.36
446.71	1318.89
446.91	1302.51
447.12	1347.56
447.32	1292.27
447.53	1288.17
447.73	1290.22
447.93	1298.41
448.14	1294.32
448.34	1269.74
448.55	1308.65
448.75	1312.75
448.96	1314.80
449.16	1310.70
449.36	1296.36
449.57	1298.41
449.77	1314.80
449.98	1290.22
450.18	1329.13
450.39	1202.16
450.59	1253.36
450.79	1304.56
451.00	1343.47
451.20	1290.22
451.41	1269.74
451.61	1300.46
451.81	1300.46
452.02	1279.98
452.22	1304.56
452.43	1247.21
452.63	1204.21
