SpectraSuite Data File
++++++++++++++++++++++++++++++++++++
Date: Sun Apr 03 19:55:13 CEST 2016
User: root
Dark Spectrum Present: No
Reference Spectrum Present: No
Number of Sampled Component Spectra: 1
Spectrometers: USB4C02835
Integration Time (usec): 10000 (USB4C02835)
Spectra Averaged: 1 (USB4C02835)
Boxcar Smoothing: 0 (USB4C02835)
Correct for Electrical Dark: No (USB4C02835)
Strobe/Lamp Enabled: No (USB4C02835)
Correct for Detector Non-linearity: No (USB4C02835)
Correct for Stray Light: No (USB4C02835)
Number of Pixels in Processed Spectrum: 3648
>>>>>Begin Processed Spectral Data<<<<<
177.47	1263.60
177.69	1263.60
177.91	1263.60
178.13	1279.98
178.36	1251.31
178.58	1271.79
178.80	1200.11
179.02	1185.77
179.24	1257.45
179.46	1306.60
179.68	1273.84
179.90	1222.64
180.13	1236.97
180.35	1294.32
180.57	1249.26
180.79	1286.12
181.01	1247.21
181.23	1232.88
181.45	1312.75
181.67	1286.12
181.90	1290.22
182.12	1230.83
182.34	1271.79
182.56	1222.64
182.78	1331.18
183.00	1220.59
183.22	1249.26
183.44	1163.25
183.66	1251.31
183.89	1273.84
184.11	1308.65
184.33	1312.75
184.55	1239.02
184.77	1294.32
184.99	1265.64
185.21	1259.50
185.43	1290.22
185.65	1286.12
185.87	1230.83
186.10	1286.12
186.32	1255.40
186.54	1275.88
186.76	1279.98
186.98	1284.08
187.20	1271.79
187.42	1251.31
187.64	1267.69
187.86	1181.68
188.08	1273.84
188.30	1226.73
188.52	1279.98
188.75	1286.12
188.97	1241.07
189.19	1232.88
189.41	1228.78
189.63	1318.89
189.85	1298.41
190.07	1255.40
190.29	1202.16
190.51	1216.49
190.73	1312.75
190.95	1220.59
191.17	1253.36
191.39	1337.32
191.61	1290.22
191.84	1353.71
192.06	1292.27
192.28	1245.16
192.50	1247.21
192.72	1177.58
192.94	1257.45
193.16	1204.21
193.38	1265.64
193.60	1288.17
193.82	1288.17
194.04	1247.21
194.26	1279.98
194.48	1279.98
194.70	1187.82
194.92	1249.26
195.14	1220.59
195.36	1253.36
195.58	1275.88
195.80	1316.84
196.02	1284.08
196.24	1314.80
196.46	1253.36
196.69	1234.93
196.91	1327.08
197.13	1296.36
197.35	1261.55
197.57	1193.97
197.79	1329.13
198.01	1300.46
198.23	1239.02
198.45	1251.31
198.67	1216.49
198.89	1216.49
199.11	1255.40
199.33	1290.22
199.55	1214.45
199.77	1224.69
199.99	1224.69
200.21	1275.88
200.43	1279.98
200.65	1279.98
200.87	1232.88
201.09	1224.69
201.31	1206.25
201.53	1191.92
201.75	1279.98
201.97	1284.08
202.19	1292.27
202.41	1247.21
202.63	1284.08
202.85	1241.07
203.07	1263.60
203.29	1249.26
203.51	1269.74
203.73	1216.49
203.95	1282.03
204.17	1322.99
204.39	1247.21
204.61	1210.35
204.83	1294.32
205.05	1325.04
205.27	1210.35
205.49	1314.80
205.71	1327.08
205.93	1327.08
206.15	1320.94
206.37	1271.79
206.59	1243.12
206.81	1277.93
207.03	1341.42
207.25	1318.89
207.47	1253.36
207.69	1327.08
207.91	1294.32
208.13	1247.21
208.34	1269.74
208.56	1284.08
208.78	1286.12
209.00	1306.60
209.22	1261.55
209.44	1198.06
209.66	1230.83
209.88	1279.98
210.10	1228.78
210.32	1243.12
210.54	1304.56
210.76	1273.84
210.98	1218.54
211.20	1261.55
211.42	1241.07
211.64	1253.36
211.86	1261.55
212.08	1310.70
212.30	1298.41
212.52	1273.84
212.74	1247.21
212.96	1249.26
213.17	1286.12
213.39	1218.54
213.61	1306.60
213.83	1265.64
214.05	1224.69
214.27	1189.87
214.49	1288.17
214.71	1296.36
214.93	1310.70
215.15	1284.08
215.37	1273.84
215.59	1327.08
215.81	1220.59
216.03	1263.60
216.24	1286.12
216.46	1267.69
216.68	1165.29
216.90	1286.12
217.12	1259.50
217.34	1255.40
217.56	1296.36
217.78	1298.41
218.00	1304.56
218.22	1200.11
218.44	1263.60
218.66	1277.93
218.87	1310.70
219.09	1269.74
219.31	1312.75
219.53	1288.17
219.75	1308.65
219.97	1286.12
220.19	1220.59
220.41	1312.75
220.63	1263.60
220.85	1263.60
221.06	1261.55
221.28	1183.73
221.50	1296.36
221.72	1366.00
221.94	1279.98
222.16	1304.56
222.38	1251.31
222.60	1249.26
222.82	1247.21
223.03	1228.78
223.25	1234.93
223.47	1286.12
223.69	1257.45
223.91	1282.03
224.13	1312.75
224.35	1265.64
224.57	1320.94
224.78	1282.03
225.00	1267.69
225.22	1273.84
225.44	1294.32
225.66	1236.97
225.88	1259.50
226.10	1331.18
226.32	1273.84
226.53	1304.56
226.75	1288.17
226.97	1300.46
227.19	1292.27
227.41	1298.41
227.63	1255.40
227.85	1271.79
228.06	1312.75
228.28	1292.27
228.50	1298.41
228.72	1363.95
228.94	1251.31
229.16	1290.22
229.37	1230.83
229.59	1263.60
229.81	1361.90
230.03	1288.17
230.25	1181.68
230.47	1306.60
230.69	1341.42
230.90	1322.99
231.12	1316.84
231.34	1275.88
231.56	1318.89
231.78	1273.84
232.00	1343.47
232.21	1304.56
232.43	1202.16
232.65	1284.08
232.87	1239.02
233.09	1212.40
233.30	1212.40
233.52	1271.79
233.74	1339.37
233.96	1292.27
234.18	1296.36
234.40	1239.02
234.61	1275.88
234.83	1290.22
235.05	1249.26
235.27	1241.07
235.49	1347.56
235.70	1243.12
235.92	1343.47
236.14	1265.64
236.36	1265.64
236.58	1271.79
236.79	1294.32
237.01	1312.75
237.23	1282.03
237.45	1298.41
237.67	1292.27
237.88	1296.36
238.10	1269.74
238.32	1282.03
238.54	1288.17
238.76	1259.50
238.97	1290.22
239.19	1224.69
239.41	1241.07
239.63	1236.97
239.85	1267.69
240.06	1249.26
240.28	1226.73
240.50	1374.19
240.72	1296.36
240.93	1249.26
241.15	1312.75
241.37	1296.36
241.59	1288.17
241.81	1224.69
242.02	1226.73
242.24	1232.88
242.46	1247.21
242.68	1282.03
242.89	1296.36
243.11	1304.56
243.33	1286.12
243.55	1239.02
243.76	1300.46
243.98	1187.82
244.20	1269.74
244.42	1273.84
244.64	1300.46
244.85	1261.55
245.07	1288.17
245.29	1296.36
245.51	1318.89
245.72	1318.89
245.94	1263.60
246.16	1277.93
246.38	1290.22
246.59	1306.60
246.81	1329.13
247.03	1220.59
247.24	1277.93
247.46	1228.78
247.68	1273.84
247.90	1282.03
248.11	1251.31
248.33	1277.93
248.55	1222.64
248.77	1249.26
248.98	1279.98
249.20	1261.55
249.42	1304.56
249.64	1261.55
249.85	1234.93
250.07	1320.94
250.29	1265.64
250.50	1257.45
250.72	1263.60
250.94	1286.12
251.16	1302.51
251.37	1243.12
251.59	1226.73
251.81	1171.44
252.02	1304.56
252.24	1275.88
252.46	1249.26
252.68	1259.50
252.89	1255.40
253.11	1292.27
253.33	1355.76
253.54	1306.60
253.76	1224.69
253.98	1279.98
254.20	1257.45
254.41	1300.46
254.63	1294.32
254.85	1312.75
255.06	1249.26
255.28	1282.03
255.50	1224.69
255.71	1206.25
255.93	1298.41
256.15	1284.08
256.36	1193.97
256.58	1212.40
256.80	1286.12
257.02	1290.22
257.23	1279.98
257.45	1267.69
257.67	1308.65
257.88	1267.69
258.10	1255.40
258.32	1277.93
258.53	1267.69
258.75	1216.49
258.97	1210.35
259.18	1263.60
259.40	1314.80
259.62	1300.46
259.83	1263.60
260.05	1269.74
260.27	1316.84
260.48	1167.34
260.70	1265.64
260.92	1310.70
261.13	1314.80
261.35	1296.36
261.57	1282.03
261.78	1267.69
262.00	1255.40
262.22	1232.88
262.43	1302.51
262.65	1232.88
262.86	1226.73
263.08	1273.84
263.30	1247.21
263.51	1243.12
263.73	1292.27
263.95	1265.64
264.16	1261.55
264.38	1208.30
264.60	1232.88
264.81	1292.27
265.03	1241.07
265.25	1292.27
265.46	1191.92
265.68	1269.74
265.89	1329.13
266.11	1198.06
266.33	1220.59
266.54	1312.75
266.76	1228.78
266.98	1331.18
267.19	1247.21
267.41	1322.99
267.62	1228.78
267.84	1271.79
268.06	1345.52
268.27	1253.36
268.49	1298.41
268.70	1322.99
268.92	1282.03
269.14	1308.65
269.35	1210.35
269.57	1308.65
269.79	1304.56
270.00	1333.23
270.22	1306.60
270.43	1243.12
270.65	1298.41
270.87	1220.59
271.08	1257.45
271.30	1298.41
271.51	1210.35
271.73	1277.93
271.95	1232.88
272.16	1296.36
272.38	1249.26
272.59	1296.36
272.81	1206.25
273.02	1249.26
273.24	1239.02
273.46	1343.47
273.67	1302.51
273.89	1269.74
274.10	1306.60
274.32	1279.98
274.54	1271.79
274.75	1277.93
274.97	1304.56
275.18	1218.54
275.40	1265.64
275.61	1239.02
275.83	1363.95
276.05	1263.60
276.26	1169.39
276.48	1288.17
276.69	1273.84
276.91	1236.97
277.12	1282.03
277.34	1277.93
277.55	1265.64
277.77	1243.12
277.99	1232.88
278.20	1257.45
278.42	1241.07
278.63	1273.84
278.85	1185.77
279.06	1304.56
279.28	1325.04
279.49	1320.94
279.71	1298.41
279.93	1226.73
280.14	1284.08
280.36	1343.47
280.57	1277.93
280.79	1273.84
281.00	1265.64
281.22	1243.12
281.43	1241.07
281.65	1361.90
281.86	1300.46
282.08	1318.89
282.29	1255.40
282.51	1284.08
282.73	1202.16
282.94	1265.64
283.16	1230.83
283.37	1288.17
283.59	1271.79
283.80	1257.45
284.02	1296.36
284.23	1296.36
284.45	1249.26
284.66	1214.45
284.88	1298.41
285.09	1275.88
285.31	1353.71
285.52	1257.45
285.74	1310.70
285.95	1273.84
286.17	1300.46
286.38	1263.60
286.60	1230.83
286.81	1253.36
287.03	1261.55
287.24	1273.84
287.46	1247.21
287.67	1220.59
287.89	1241.07
288.10	1277.93
288.32	1331.18
288.53	1261.55
288.75	1300.46
288.96	1275.88
289.18	1222.64
289.39	1222.64
289.61	1185.77
289.82	1327.08
290.04	1314.80
290.25	1298.41
290.47	1243.12
290.68	1228.78
290.90	1316.84
291.11	1247.21
291.33	1261.55
291.54	1310.70
291.76	1273.84
291.97	1193.97
292.18	1290.22
292.40	1236.97
292.61	1337.32
292.83	1384.43
293.04	1314.80
293.26	1300.46
293.47	1259.50
293.69	1249.26
293.90	1236.97
294.12	1234.93
294.33	1216.49
294.55	1234.93
294.76	1206.25
294.97	1236.97
295.19	1253.36
295.40	1271.79
295.62	1306.60
295.83	1214.45
296.05	1298.41
296.26	1257.45
296.48	1286.12
296.69	1187.82
296.90	1214.45
297.12	1253.36
297.33	1257.45
297.55	1273.84
297.76	1290.22
297.98	1279.98
298.19	1275.88
298.41	1239.02
298.62	1245.16
298.83	1296.36
299.05	1249.26
299.26	1179.63
299.48	1335.28
299.69	1261.55
299.90	1259.50
300.12	1241.07
300.33	1343.47
300.55	1249.26
300.76	1230.83
300.98	1208.30
301.19	1273.84
301.40	1339.37
301.62	1279.98
301.83	1247.21
302.05	1290.22
302.26	1222.64
302.47	1318.89
302.69	1200.11
302.90	1279.98
303.12	1269.74
303.33	1228.78
303.54	1288.17
303.76	1288.17
303.97	1265.64
304.19	1253.36
304.40	1273.84
304.61	1318.89
304.83	1218.54
305.04	1253.36
305.26	1277.93
305.47	1277.93
305.68	1298.41
305.90	1298.41
306.11	1245.16
306.33	1241.07
306.54	1183.73
306.75	1269.74
306.97	1298.41
307.18	1296.36
307.39	1335.28
307.61	1298.41
307.82	1314.80
308.04	1273.84
308.25	1236.97
308.46	1224.69
308.68	1247.21
308.89	1226.73
309.10	1239.02
309.32	1284.08
309.53	1255.40
309.74	1224.69
309.96	1263.60
310.17	1302.51
310.39	1165.29
310.60	1243.12
310.81	1296.36
311.03	1247.21
311.24	1206.25
311.45	1271.79
311.67	1245.16
311.88	1249.26
312.09	1275.88
312.31	1322.99
312.52	1282.03
312.73	1189.87
312.95	1189.87
313.16	1284.08
313.37	1298.41
313.59	1216.49
313.80	1290.22
314.01	1302.51
314.23	1316.84
314.44	1325.04
314.65	1267.69
314.87	1208.30
315.08	1286.12
315.29	1271.79
315.51	1263.60
315.72	1249.26
315.93	1247.21
316.15	1298.41
316.36	1224.69
316.57	1265.64
316.79	1236.97
317.00	1314.80
317.21	1212.40
317.43	1265.64
317.64	1265.64
317.85	1263.60
318.07	1331.18
318.28	1296.36
318.49	1349.61
318.70	1261.55
318.92	1294.32
319.13	1261.55
319.34	1279.98
319.56	1243.12
319.77	1279.98
319.98	1271.79
320.20	1320.94
320.41	1232.88
320.62	1308.65
320.83	1234.93
321.05	1216.49
321.26	1279.98
321.47	1286.12
321.69	1241.07
321.90	1263.60
322.11	1308.65
322.32	1261.55
322.54	1322.99
322.75	1218.54
322.96	1322.99
323.18	1253.36
323.39	1224.69
323.60	1320.94
323.81	1257.45
324.03	1259.50
324.24	1314.80
324.45	1290.22
324.66	1243.12
324.88	1286.12
325.09	1200.11
325.30	1265.64
325.52	1284.08
325.73	1282.03
325.94	1296.36
326.15	1351.66
326.37	1329.13
326.58	1267.69
326.79	1286.12
327.00	1286.12
327.22	1290.22
327.43	1245.16
327.64	1255.40
327.85	1265.64
328.07	1257.45
328.28	1353.71
328.49	1310.70
328.70	1243.12
328.92	1263.60
329.13	1208.30
329.34	1239.02
329.55	1247.21
329.76	1249.26
329.98	1255.40
330.19	1261.55
330.40	1251.31
330.61	1279.98
330.83	1300.46
331.04	1310.70
331.25	1263.60
331.46	1279.98
331.68	1230.83
331.89	1290.22
332.10	1257.45
332.31	1292.27
332.52	1245.16
332.74	1282.03
332.95	1279.98
333.16	1282.03
333.37	1284.08
333.58	1263.60
333.80	1230.83
334.01	1255.40
334.22	1255.40
334.43	1253.36
334.64	1333.23
334.86	1245.16
335.07	1247.21
335.28	1277.93
335.49	1228.78
335.70	1294.32
335.92	1243.12
336.13	1263.60
336.34	1263.60
336.55	1343.47
336.76	1249.26
336.98	1296.36
337.19	1204.21
337.40	1292.27
337.61	1310.70
337.82	1290.22
338.04	1236.97
338.25	1298.41
338.46	1277.93
338.67	1265.64
338.88	1273.84
339.09	1257.45
339.31	1253.36
339.52	1232.88
339.73	1300.46
339.94	1273.84
340.15	1302.51
340.36	1198.06
340.58	1277.93
340.79	1253.36
341.00	1249.26
341.21	1261.55
341.42	1298.41
341.63	1312.75
341.85	1208.30
342.06	1279.98
342.27	1384.43
342.48	1282.03
342.69	1224.69
342.90	1249.26
343.12	1214.45
343.33	1251.31
343.54	1271.79
343.75	1271.79
343.96	1277.93
344.17	1239.02
344.38	1251.31
344.60	1284.08
344.81	1202.16
345.02	1325.04
345.23	1288.17
345.44	1265.64
345.65	1267.69
345.86	1277.93
346.07	1288.17
346.29	1243.12
346.50	1282.03
346.71	1232.88
346.92	1306.60
347.13	1282.03
347.34	1327.08
347.55	1216.49
347.76	1304.56
347.98	1259.50
348.19	1304.56
348.40	1331.18
348.61	1212.40
348.82	1257.45
349.03	1247.21
349.24	1339.37
349.45	1261.55
349.66	1363.95
349.88	1193.97
350.09	1265.64
350.30	1279.98
350.51	1290.22
350.72	1298.41
350.93	1273.84
351.14	1196.01
351.35	1310.70
351.56	1277.93
351.77	1245.16
351.99	1265.64
352.20	1251.31
352.41	1282.03
352.62	1271.79
352.83	1331.18
353.04	1312.75
353.25	1241.07
353.46	1236.97
353.67	1241.07
353.88	1288.17
354.09	1343.47
354.30	1277.93
354.52	1224.69
354.73	1243.12
354.94	1273.84
355.15	1187.82
355.36	1306.60
355.57	1218.54
355.78	1257.45
355.99	1304.56
356.20	1263.60
356.41	1279.98
356.62	1286.12
356.83	1302.51
357.04	1304.56
357.25	1286.12
357.46	1249.26
357.68	1265.64
357.89	1255.40
358.10	1290.22
358.31	1271.79
358.52	1347.56
358.73	1402.86
358.94	1269.74
359.15	1271.79
359.36	1286.12
359.57	1302.51
359.78	1230.83
359.99	1263.60
360.20	1226.73
360.41	1189.87
360.62	1277.93
360.83	1290.22
361.04	1241.07
361.25	1222.64
361.46	1208.30
361.67	1273.84
361.88	1300.46
362.09	1290.22
362.30	1314.80
362.51	1306.60
362.72	1234.93
362.93	1314.80
363.14	1302.51
363.35	1222.64
363.56	1318.89
363.78	1300.46
363.99	1271.79
364.20	1208.30
364.41	1296.36
364.62	1208.30
364.83	1249.26
365.04	1222.64
365.25	1267.69
365.46	1224.69
365.67	1341.42
365.88	1275.88
366.09	1222.64
366.30	1257.45
366.51	1279.98
366.72	1230.83
366.93	1259.50
367.14	1296.36
367.35	1286.12
367.56	1236.97
367.77	1320.94
367.98	1265.64
368.18	1255.40
368.39	1286.12
368.60	1263.60
368.81	1288.17
369.02	1355.76
369.23	1249.26
369.44	1241.07
369.65	1230.83
369.86	1224.69
370.07	1320.94
370.28	1261.55
370.49	1181.68
370.70	1257.45
370.91	1216.49
371.12	1282.03
371.33	1271.79
371.54	1292.27
371.75	1271.79
371.96	1263.60
372.17	1269.74
372.38	1271.79
372.59	1314.80
372.80	1294.32
373.01	1322.99
373.22	1314.80
373.43	1284.08
373.64	1279.98
373.85	1290.22
374.06	1230.83
374.26	1269.74
374.47	1298.41
374.68	1247.21
374.89	1308.65
375.10	1273.84
375.31	1273.84
375.52	1273.84
375.73	1329.13
375.94	1327.08
376.15	1273.84
376.36	1298.41
376.57	1249.26
376.78	1275.88
376.99	1255.40
377.20	1204.21
377.40	1236.97
377.61	1245.16
377.82	1257.45
378.03	1234.93
378.24	1214.45
378.45	1243.12
378.66	1261.55
378.87	1296.36
379.08	1159.15
379.29	1261.55
379.50	1214.45
379.71	1288.17
379.91	1241.07
380.12	1206.25
380.33	1282.03
380.54	1255.40
380.75	1306.60
380.96	1269.74
381.17	1277.93
381.38	1234.93
381.59	1269.74
381.80	1286.12
382.00	1286.12
382.21	1322.99
382.42	1288.17
382.63	1308.65
382.84	1269.74
383.05	1259.50
383.26	1236.97
383.47	1200.11
383.68	1253.36
383.88	1298.41
384.09	1298.41
384.30	1273.84
384.51	1306.60
384.72	1230.83
384.93	1230.83
385.14	1292.27
385.35	1230.83
385.55	1341.42
385.76	1255.40
385.97	1308.65
386.18	1220.59
386.39	1314.80
386.60	1310.70
386.81	1202.16
387.02	1261.55
387.22	1257.45
387.43	1253.36
387.64	1175.53
387.85	1306.60
388.06	1253.36
388.27	1251.31
388.48	1279.98
388.68	1230.83
388.89	1222.64
389.10	1230.83
389.31	1247.21
389.52	1257.45
389.73	1204.21
389.93	1286.12
390.14	1322.99
390.35	1277.93
390.56	1224.69
390.77	1310.70
390.98	1257.45
391.18	1245.16
391.39	1234.93
391.60	1265.64
391.81	1284.08
392.02	1245.16
392.23	1249.26
392.43	1239.02
392.64	1304.56
392.85	1339.37
393.06	1331.18
393.27	1249.26
393.47	1230.83
393.68	1279.98
393.89	1245.16
394.10	1234.93
394.31	1322.99
394.52	1318.89
394.72	1292.27
394.93	1343.47
395.14	1310.70
395.35	1304.56
395.56	1282.03
395.76	1355.76
395.97	1306.60
396.18	1351.66
396.39	1218.54
396.60	1230.83
396.80	1320.94
397.01	1279.98
397.22	1265.64
397.43	1271.79
397.64	1228.78
397.84	1273.84
398.05	1279.98
398.26	1236.97
398.47	1275.88
398.67	1263.60
398.88	1204.21
399.09	1296.36
399.30	1224.69
399.51	1277.93
399.71	1214.45
399.92	1298.41
400.13	1232.88
400.34	1253.36
400.54	1259.50
400.75	1318.89
400.96	1316.84
401.17	1241.07
401.37	1247.21
401.58	1261.55
401.79	1243.12
402.00	1230.83
402.21	1196.01
402.41	1304.56
402.62	1243.12
402.83	1304.56
403.04	1216.49
403.24	1222.64
403.45	1210.35
403.66	1222.64
403.87	1304.56
404.07	1296.36
404.28	1269.74
404.49	1286.12
404.70	1218.54
404.90	1286.12
405.11	1279.98
405.32	1228.78
405.52	1267.69
405.73	1292.27
405.94	1247.21
406.15	1343.47
406.35	1300.46
406.56	1273.84
406.77	1273.84
406.98	1353.71
407.18	1249.26
407.39	1302.51
407.60	1296.36
407.80	1282.03
408.01	1290.22
408.22	1255.40
408.43	1273.84
408.63	1279.98
408.84	1290.22
409.05	1290.22
409.25	1249.26
409.46	1294.32
409.67	1312.75
409.88	1304.56
410.08	1222.64
410.29	1239.02
410.50	1204.21
410.70	1277.93
410.91	1263.60
411.12	1277.93
411.32	1284.08
411.53	1222.64
411.74	1288.17
411.95	1234.93
412.15	1282.03
412.36	1232.88
412.57	1241.07
412.77	1312.75
412.98	1282.03
413.19	1251.31
413.39	1304.56
413.60	1226.73
413.81	1193.97
414.01	1290.22
414.22	1314.80
414.43	1263.60
414.63	1310.70
414.84	1271.79
415.05	1193.97
415.25	1255.40
415.46	1239.02
415.67	1290.22
415.87	1306.60
416.08	1226.73
416.29	1265.64
416.49	1253.36
416.70	1245.16
416.91	1284.08
417.11	1288.17
417.32	1304.56
417.53	1245.16
417.73	1222.64
417.94	1247.21
418.15	1261.55
418.35	1288.17
418.56	1243.12
418.77	1232.88
418.97	1339.37
419.18	1292.27
419.38	1239.02
419.59	1249.26
419.80	1239.02
420.00	1216.49
420.21	1253.36
420.42	1243.12
420.62	1263.60
420.83	1318.89
421.04	1259.50
421.24	1290.22
421.45	1255.40
421.65	1294.32
421.86	1255.40
422.07	1239.02
422.27	1327.08
422.48	1216.49
422.69	1304.56
422.89	1196.01
423.10	1269.74
423.30	1318.89
423.51	1306.60
423.72	1302.51
423.92	1343.47
424.13	1263.60
424.33	1331.18
424.54	1288.17
424.75	1306.60
424.95	1267.69
425.16	1282.03
425.36	1267.69
425.57	1257.45
425.78	1261.55
425.98	1296.36
426.19	1286.12
426.39	1273.84
426.60	1314.80
426.81	1322.99
427.01	1306.60
427.22	1282.03
427.42	1279.98
427.63	1259.50
427.83	1316.84
428.04	1257.45
428.25	1212.40
428.45	1279.98
428.66	1263.60
428.86	1247.21
429.07	1253.36
429.28	1292.27
429.48	1300.46
429.69	1232.88
429.89	1296.36
430.10	1353.71
430.30	1308.65
430.51	1269.74
430.71	1288.17
430.92	1232.88
431.13	1241.07
431.33	1308.65
431.54	1300.46
431.74	1273.84
431.95	1290.22
432.15	1183.73
432.36	1275.88
432.56	1279.98
432.77	1249.26
432.98	1202.16
433.18	1253.36
433.39	1355.76
433.59	1355.76
433.80	1306.60
434.00	1261.55
434.21	1282.03
434.41	1288.17
434.62	1212.40
434.82	1294.32
435.03	1288.17
435.23	1314.80
435.44	1265.64
435.64	1253.36
435.85	1277.93
436.06	1314.80
436.26	1337.32
436.47	1253.36
436.67	1298.41
436.88	1267.69
437.08	1279.98
437.29	1269.74
437.49	1239.02
437.70	1275.88
437.90	1257.45
438.11	1228.78
438.31	1253.36
438.52	1310.70
438.72	1232.88
438.93	1261.55
439.13	1255.40
439.34	1253.36
439.54	1222.64
439.75	1228.78
439.95	1261.55
440.16	1275.88
440.36	1333.23
440.57	1228.78
440.77	1288.17
440.98	1306.60
441.18	1273.84
441.39	1226.73
441.59	1318.89
441.80	1255.40
442.00	1234.93
442.21	1271.79
442.41	1282.03
442.62	1314.80
442.82	1329.13
443.02	1177.58
443.23	1376.24
443.43	1345.52
443.64	1187.82
443.84	1290.22
444.05	1279.98
444.25	1243.12
444.46	1257.45
444.66	1214.45
444.87	1318.89
445.07	1224.69
445.28	1300.46
445.48	1259.50
445.69	1339.37
445.89	1294.32
446.09	1269.74
446.30	1200.11
446.50	1288.17
446.71	1300.46
446.91	1271.79
447.12	1269.74
447.32	1294.32
447.53	1304.56
447.73	1265.64
447.93	1286.12
448.14	1306.60
448.34	1277.93
448.55	1279.98
448.75	1282.03
448.96	1325.04
449.16	1226.73
449.36	1243.12
449.57	1265.64
449.77	1298.41
449.98	1275.88
450.18	1224.69
450.39	1331.18
450.59	1308.65
450.79	1247.21
451.00	1288.17
451.20	1261.55
451.41	1273.84
451.61	1288.17
451.81	1284.08
452.02	1243.12
452.22	1277.93
452.43	1288.17
452.63	1257.45
