SpectraSuite Data File
++++++++++++++++++++++++++++++++++++
Date: Sun Apr 03 19:55:19 CEST 2016
User: root
Dark Spectrum Present: No
Reference Spectrum Present: No
Number of Sampled Component Spectra: 1
Spectrometers: USB4C02835
Integration Time (usec): 10000 (USB4C02835)
Spectra Averaged: 1 (USB4C02835)
Boxcar Smoothing: 0 (USB4C02835)
Correct for Electrical Dark: No (USB4C02835)
Strobe/Lamp Enabled: No (USB4C02835)
Correct for Detector Non-linearity: No (USB4C02835)
Correct for Stray Light: No (USB4C02835)
Number of Pixels in Processed Spectrum: 3648
>>>>>Begin Processed Spectral Data<<<<<
177.47	1212.40
177.69	1212.40
177.91	1212.40
178.13	1271.79
178.36	1241.07
178.58	1251.31
178.80	1212.40
179.02	1171.44
179.24	1245.16
179.46	1300.46
179.68	1212.40
179.90	1193.97
180.13	1286.12
180.35	1284.08
180.57	1239.02
180.79	1282.03
181.01	1304.56
181.23	1267.69
181.45	1220.59
181.67	1269.74
181.90	1296.36
182.12	1275.88
182.34	1224.69
182.56	1271.79
182.78	1271.79
183.00	1234.93
183.22	1304.56
183.44	1253.36
183.66	1300.46
183.89	1230.83
184.11	1282.03
184.33	1259.50
184.55	1206.25
184.77	1263.60
184.99	1273.84
185.21	1290.22
185.43	1247.21
185.65	1253.36
185.87	1206.25
186.10	1253.36
186.32	1177.58
186.54	1279.98
186.76	1306.60
186.98	1318.89
187.20	1316.84
187.42	1198.06
187.64	1247.21
187.86	1284.08
188.08	1214.45
188.30	1253.36
188.52	1312.75
188.75	1241.07
188.97	1228.78
189.19	1257.45
189.41	1292.27
189.63	1222.64
189.85	1325.04
190.07	1210.35
190.29	1333.23
190.51	1257.45
190.73	1173.49
190.95	1204.21
191.17	1232.88
191.39	1200.11
191.61	1241.07
191.84	1245.16
192.06	1249.26
192.28	1204.21
192.50	1230.83
192.72	1296.36
192.94	1329.13
193.16	1312.75
193.38	1212.40
193.60	1253.36
193.82	1273.84
194.04	1218.54
194.26	1251.31
194.48	1245.16
194.70	1294.32
194.92	1200.11
195.14	1273.84
195.36	1228.78
195.58	1314.80
195.80	1196.01
196.02	1273.84
196.24	1208.30
196.46	1273.84
196.69	1286.12
196.91	1216.49
197.13	1257.45
197.35	1265.64
197.57	1226.73
197.79	1275.88
198.01	1294.32
198.23	1329.13
198.45	1265.64
198.67	1216.49
198.89	1230.83
199.11	1239.02
199.33	1298.41
199.55	1292.27
199.77	1239.02
199.99	1290.22
200.21	1226.73
200.43	1333.23
200.65	1302.51
200.87	1257.45
201.09	1263.60
201.31	1339.37
201.53	1267.69
201.75	1300.46
201.97	1298.41
202.19	1228.78
202.41	1314.80
202.63	1236.97
202.85	1327.08
203.07	1236.97
203.29	1257.45
203.51	1275.88
203.73	1247.21
203.95	1273.84
204.17	1257.45
204.39	1304.56
204.61	1245.16
204.83	1222.64
205.05	1282.03
205.27	1347.56
205.49	1275.88
205.71	1288.17
205.93	1275.88
206.15	1263.60
206.37	1288.17
206.59	1245.16
206.81	1253.36
207.03	1253.36
207.25	1292.27
207.47	1279.98
207.69	1224.69
207.91	1257.45
208.13	1228.78
208.34	1282.03
208.56	1296.36
208.78	1273.84
209.00	1267.69
209.22	1171.44
209.44	1277.93
209.66	1208.30
209.88	1241.07
210.10	1277.93
210.32	1290.22
210.54	1234.93
210.76	1273.84
210.98	1177.58
211.20	1279.98
211.42	1206.25
211.64	1189.87
211.86	1290.22
212.08	1288.17
212.30	1353.71
212.52	1279.98
212.74	1306.60
212.96	1245.16
213.17	1300.46
213.39	1255.40
213.61	1335.28
213.83	1345.52
214.05	1245.16
214.27	1253.36
214.49	1234.93
214.71	1234.93
214.93	1241.07
215.15	1249.26
215.37	1322.99
215.59	1273.84
215.81	1308.65
216.03	1296.36
216.24	1259.50
216.46	1239.02
216.68	1249.26
216.90	1251.31
217.12	1296.36
217.34	1298.41
217.56	1288.17
217.78	1253.36
218.00	1331.18
218.22	1255.40
218.44	1224.69
218.66	1290.22
218.87	1318.89
219.09	1300.46
219.31	1257.45
219.53	1325.04
219.75	1288.17
219.97	1310.70
220.19	1232.88
220.41	1308.65
220.63	1304.56
220.85	1322.99
221.06	1300.46
221.28	1232.88
221.50	1314.80
221.72	1251.31
221.94	1271.79
222.16	1290.22
222.38	1243.12
222.60	1306.60
222.82	1263.60
223.03	1255.40
223.25	1284.08
223.47	1298.41
223.69	1275.88
223.91	1269.74
224.13	1294.32
224.35	1265.64
224.57	1343.47
224.78	1255.40
225.00	1198.06
225.22	1241.07
225.44	1318.89
225.66	1306.60
225.88	1249.26
226.10	1327.08
226.32	1218.54
226.53	1236.97
226.75	1275.88
226.97	1220.59
227.19	1271.79
227.41	1269.74
227.63	1288.17
227.85	1294.32
228.06	1345.52
228.28	1286.12
228.50	1265.64
228.72	1279.98
228.94	1269.74
229.16	1245.16
229.37	1277.93
229.59	1255.40
229.81	1286.12
230.03	1253.36
230.25	1269.74
230.47	1232.88
230.69	1333.23
230.90	1259.50
231.12	1210.35
231.34	1253.36
231.56	1271.79
231.78	1206.25
232.00	1296.36
232.21	1310.70
232.43	1312.75
232.65	1292.27
232.87	1230.83
233.09	1267.69
233.30	1298.41
233.52	1331.18
233.74	1300.46
233.96	1277.93
234.18	1187.82
234.40	1271.79
234.61	1286.12
234.83	1298.41
235.05	1284.08
235.27	1206.25
235.49	1394.67
235.70	1253.36
235.92	1314.80
236.14	1196.01
236.36	1271.79
236.58	1232.88
236.79	1224.69
237.01	1214.45
237.23	1218.54
237.45	1288.17
237.67	1206.25
237.88	1267.69
238.10	1292.27
238.32	1302.51
238.54	1255.40
238.76	1271.79
238.97	1277.93
239.19	1284.08
239.41	1232.88
239.63	1282.03
239.85	1236.97
240.06	1257.45
240.28	1224.69
240.50	1243.12
240.72	1314.80
240.93	1249.26
241.15	1210.35
241.37	1265.64
241.59	1279.98
241.81	1331.18
242.02	1316.84
242.24	1245.16
242.46	1320.94
242.68	1286.12
242.89	1300.46
243.11	1216.49
243.33	1279.98
243.55	1255.40
243.76	1294.32
243.98	1290.22
244.20	1370.09
244.42	1310.70
244.64	1222.64
244.85	1273.84
245.07	1259.50
245.29	1269.74
245.51	1310.70
245.72	1236.97
245.94	1320.94
246.16	1253.36
246.38	1269.74
246.59	1308.65
246.81	1247.21
247.03	1243.12
247.24	1292.27
247.46	1322.99
247.68	1228.78
247.90	1241.07
248.11	1202.16
248.33	1224.69
248.55	1351.66
248.77	1290.22
248.98	1294.32
249.20	1249.26
249.42	1245.16
249.64	1271.79
249.85	1193.97
250.07	1257.45
250.29	1296.36
250.50	1300.46
250.72	1331.18
250.94	1306.60
251.16	1271.79
251.37	1320.94
251.59	1228.78
251.81	1263.60
252.02	1228.78
252.24	1277.93
252.46	1179.63
252.68	1296.36
252.89	1318.89
253.11	1228.78
253.33	1269.74
253.54	1222.64
253.76	1327.08
253.98	1249.26
254.20	1279.98
254.41	1269.74
254.63	1245.16
254.85	1275.88
255.06	1257.45
255.28	1347.56
255.50	1259.50
255.71	1261.55
255.93	1304.56
256.15	1294.32
256.36	1239.02
256.58	1290.22
256.80	1230.83
257.02	1206.25
257.23	1322.99
257.45	1179.63
257.67	1322.99
257.88	1220.59
258.10	1220.59
258.32	1232.88
258.53	1318.89
258.75	1290.22
258.97	1273.84
259.18	1341.42
259.40	1259.50
259.62	1269.74
259.83	1232.88
260.05	1257.45
260.27	1204.21
260.48	1271.79
260.70	1226.73
260.92	1282.03
261.13	1255.40
261.35	1298.41
261.57	1339.37
261.78	1345.52
262.00	1245.16
262.22	1331.18
262.43	1298.41
262.65	1288.17
262.86	1241.07
263.08	1329.13
263.30	1255.40
263.51	1261.55
263.73	1255.40
263.95	1302.51
264.16	1304.56
264.38	1255.40
264.60	1224.69
264.81	1282.03
265.03	1304.56
265.25	1306.60
265.46	1370.09
265.68	1277.93
265.89	1273.84
266.11	1298.41
266.33	1241.07
266.54	1216.49
266.76	1345.52
266.98	1282.03
267.19	1214.45
267.41	1290.22
267.62	1273.84
267.84	1312.75
268.06	1296.36
268.27	1257.45
268.49	1232.88
268.70	1275.88
268.92	1279.98
269.14	1222.64
269.35	1290.22
269.57	1216.49
269.79	1259.50
270.00	1290.22
270.22	1196.01
270.43	1290.22
270.65	1273.84
270.87	1261.55
271.08	1298.41
271.30	1257.45
271.51	1230.83
271.73	1290.22
271.95	1241.07
272.16	1202.16
272.38	1275.88
272.59	1245.16
272.81	1243.12
273.02	1269.74
273.24	1224.69
273.46	1236.97
273.67	1234.93
273.89	1292.27
274.10	1316.84
274.32	1228.78
274.54	1273.84
274.75	1204.21
274.97	1265.64
275.18	1279.98
275.40	1239.02
275.61	1310.70
275.83	1269.74
276.05	1279.98
276.26	1208.30
276.48	1275.88
276.69	1339.37
276.91	1253.36
277.12	1290.22
277.34	1290.22
277.55	1341.42
277.77	1259.50
277.99	1200.11
278.20	1302.51
278.42	1279.98
278.63	1263.60
278.85	1265.64
279.06	1290.22
279.28	1265.64
279.49	1196.01
279.71	1259.50
279.93	1271.79
280.14	1296.36
280.36	1306.60
280.57	1224.69
280.79	1275.88
281.00	1214.45
281.22	1224.69
281.43	1251.31
281.65	1241.07
281.86	1241.07
282.08	1220.59
282.29	1189.87
282.51	1273.84
282.73	1279.98
282.94	1269.74
283.16	1306.60
283.37	1239.02
283.59	1239.02
283.80	1228.78
284.02	1294.32
284.23	1212.40
284.45	1255.40
284.66	1259.50
284.88	1298.41
285.09	1220.59
285.31	1267.69
285.52	1380.33
285.74	1271.79
285.95	1253.36
286.17	1284.08
286.38	1277.93
286.60	1257.45
286.81	1261.55
287.03	1298.41
287.24	1263.60
287.46	1232.88
287.67	1316.84
287.89	1290.22
288.10	1243.12
288.32	1263.60
288.53	1296.36
288.75	1288.17
288.96	1239.02
289.18	1245.16
289.39	1226.73
289.61	1282.03
289.82	1245.16
290.04	1286.12
290.25	1239.02
290.47	1243.12
290.68	1239.02
290.90	1228.78
291.11	1284.08
291.33	1282.03
291.54	1255.40
291.76	1273.84
291.97	1290.22
292.18	1302.51
292.40	1218.54
292.61	1306.60
292.83	1228.78
293.04	1226.73
293.26	1239.02
293.47	1257.45
293.69	1294.32
293.90	1314.80
294.12	1333.23
294.33	1304.56
294.55	1222.64
294.76	1259.50
294.97	1298.41
295.19	1265.64
295.40	1249.26
295.62	1282.03
295.83	1228.78
296.05	1212.40
296.26	1218.54
296.48	1210.35
296.69	1312.75
296.90	1279.98
297.12	1243.12
297.33	1296.36
297.55	1241.07
297.76	1300.46
297.98	1243.12
298.19	1277.93
298.41	1259.50
298.62	1290.22
298.83	1279.98
299.05	1265.64
299.26	1257.45
299.48	1320.94
299.69	1277.93
299.90	1288.17
300.12	1282.03
300.33	1296.36
300.55	1370.09
300.76	1314.80
300.98	1298.41
301.19	1259.50
301.40	1212.40
301.62	1339.37
301.83	1257.45
302.05	1257.45
302.26	1236.97
302.47	1222.64
302.69	1241.07
302.90	1286.12
303.12	1196.01
303.33	1263.60
303.54	1275.88
303.76	1216.49
303.97	1269.74
304.19	1239.02
304.40	1249.26
304.61	1236.97
304.83	1228.78
305.04	1290.22
305.26	1224.69
305.47	1275.88
305.68	1339.37
305.90	1269.74
306.11	1253.36
306.33	1204.21
306.54	1251.31
306.75	1368.04
306.97	1232.88
307.18	1214.45
307.39	1275.88
307.61	1306.60
307.82	1214.45
308.04	1210.35
308.25	1304.56
308.46	1290.22
308.68	1220.59
308.89	1249.26
309.10	1277.93
309.32	1255.40
309.53	1320.94
309.74	1269.74
309.96	1361.90
310.17	1245.16
310.39	1320.94
310.60	1239.02
310.81	1249.26
311.03	1269.74
311.24	1273.84
311.45	1331.18
311.67	1335.28
311.88	1220.59
312.09	1261.55
312.31	1265.64
312.52	1241.07
312.73	1298.41
312.95	1232.88
313.16	1273.84
313.37	1234.93
313.59	1347.56
313.80	1220.59
314.01	1239.02
314.23	1257.45
314.44	1282.03
314.65	1232.88
314.87	1288.17
315.08	1279.98
315.29	1263.60
315.51	1236.97
315.72	1275.88
315.93	1310.70
316.15	1347.56
316.36	1177.58
316.57	1236.97
316.79	1263.60
317.00	1253.36
317.21	1261.55
317.43	1232.88
317.64	1196.01
317.85	1290.22
318.07	1320.94
318.28	1310.70
318.49	1263.60
318.70	1306.60
318.92	1191.92
319.13	1306.60
319.34	1239.02
319.56	1263.60
319.77	1245.16
319.98	1243.12
320.20	1251.31
320.41	1290.22
320.62	1171.44
320.83	1177.58
321.05	1265.64
321.26	1226.73
321.47	1296.36
321.69	1224.69
321.90	1247.21
322.11	1226.73
322.32	1253.36
322.54	1314.80
322.75	1310.70
322.96	1296.36
323.18	1310.70
323.39	1325.04
323.60	1251.31
323.81	1216.49
324.03	1306.60
324.24	1263.60
324.45	1255.40
324.66	1279.98
324.88	1288.17
325.09	1269.74
325.30	1318.89
325.52	1243.12
325.73	1259.50
325.94	1249.26
326.15	1282.03
326.37	1300.46
326.58	1259.50
326.79	1146.86
327.00	1187.82
327.22	1257.45
327.43	1236.97
327.64	1216.49
327.85	1185.77
328.07	1312.75
328.28	1222.64
328.49	1284.08
328.70	1263.60
328.92	1253.36
329.13	1286.12
329.34	1312.75
329.55	1243.12
329.76	1277.93
329.98	1261.55
330.19	1322.99
330.40	1236.97
330.61	1277.93
330.83	1239.02
331.04	1312.75
331.25	1208.30
331.46	1279.98
331.68	1220.59
331.89	1304.56
332.10	1245.16
332.31	1251.31
332.52	1300.46
332.74	1232.88
332.95	1261.55
333.16	1298.41
333.37	1300.46
333.58	1304.56
333.80	1255.40
334.01	1179.63
334.22	1202.16
334.43	1294.32
334.64	1224.69
334.86	1232.88
335.07	1337.32
335.28	1269.74
335.49	1236.97
335.70	1236.97
335.92	1251.31
336.13	1296.36
336.34	1290.22
336.55	1279.98
336.76	1300.46
336.98	1286.12
337.19	1243.12
337.40	1339.37
337.61	1210.35
337.82	1249.26
338.04	1279.98
338.25	1253.36
338.46	1269.74
338.67	1300.46
338.88	1236.97
339.09	1312.75
339.31	1337.32
339.52	1294.32
339.73	1159.15
339.94	1275.88
340.15	1286.12
340.36	1304.56
340.58	1284.08
340.79	1253.36
341.00	1275.88
341.21	1216.49
341.42	1298.41
341.63	1322.99
341.85	1277.93
342.06	1327.08
342.27	1288.17
342.48	1273.84
342.69	1275.88
342.90	1245.16
343.12	1224.69
343.33	1204.21
343.54	1298.41
343.75	1341.42
343.96	1282.03
344.17	1286.12
344.38	1271.79
344.60	1228.78
344.81	1282.03
345.02	1234.93
345.23	1239.02
345.44	1263.60
345.65	1253.36
345.86	1234.93
346.07	1322.99
346.29	1226.73
346.50	1257.45
346.71	1308.65
346.92	1298.41
347.13	1296.36
347.34	1177.58
347.55	1275.88
347.76	1300.46
347.98	1282.03
348.19	1263.60
348.40	1257.45
348.61	1247.21
348.82	1206.25
349.03	1288.17
349.24	1253.36
349.45	1239.02
349.66	1282.03
349.88	1214.45
350.09	1245.16
350.30	1230.83
350.51	1312.75
350.72	1243.12
350.93	1279.98
351.14	1292.27
351.35	1218.54
351.56	1279.98
351.77	1253.36
351.99	1255.40
352.20	1327.08
352.41	1200.11
352.62	1273.84
352.83	1298.41
353.04	1212.40
353.25	1245.16
353.46	1271.79
353.67	1290.22
353.88	1257.45
354.09	1263.60
354.30	1275.88
354.52	1292.27
354.73	1251.31
354.94	1288.17
355.15	1247.21
355.36	1275.88
355.57	1232.88
355.78	1241.07
355.99	1245.16
356.20	1361.90
356.41	1187.82
356.62	1312.75
356.83	1347.56
357.04	1257.45
357.25	1228.78
357.46	1220.59
357.68	1312.75
357.89	1288.17
358.10	1245.16
358.31	1327.08
358.52	1275.88
358.73	1269.74
358.94	1318.89
359.15	1308.65
359.36	1239.02
359.57	1259.50
359.78	1312.75
359.99	1257.45
360.20	1265.64
360.41	1187.82
360.62	1220.59
360.83	1224.69
361.04	1257.45
361.25	1241.07
361.46	1224.69
361.67	1255.40
361.88	1267.69
362.09	1279.98
362.30	1282.03
362.51	1302.51
362.72	1224.69
362.93	1277.93
363.14	1249.26
363.35	1294.32
363.56	1230.83
363.78	1282.03
363.99	1337.32
364.20	1273.84
364.41	1200.11
364.62	1249.26
364.83	1302.51
365.04	1329.13
365.25	1269.74
365.46	1196.01
365.67	1249.26
365.88	1277.93
366.09	1308.65
366.30	1273.84
366.51	1302.51
366.72	1273.84
366.93	1331.18
367.14	1245.16
367.35	1341.42
367.56	1302.51
367.77	1255.40
367.98	1277.93
368.18	1273.84
368.39	1310.70
368.60	1302.51
368.81	1214.45
369.02	1282.03
369.23	1273.84
369.44	1249.26
369.65	1296.36
369.86	1273.84
370.07	1284.08
370.28	1208.30
370.49	1251.31
370.70	1216.49
370.91	1226.73
371.12	1279.98
371.33	1222.64
371.54	1249.26
371.75	1288.17
371.96	1282.03
372.17	1343.47
372.38	1212.40
372.59	1247.21
372.80	1226.73
373.01	1296.36
373.22	1239.02
373.43	1189.87
373.64	1306.60
373.85	1257.45
374.06	1253.36
374.26	1320.94
374.47	1267.69
374.68	1298.41
374.89	1304.56
375.10	1263.60
375.31	1228.78
375.52	1290.22
375.73	1267.69
375.94	1230.83
376.15	1329.13
376.36	1187.82
376.57	1265.64
376.78	1243.12
376.99	1308.65
377.20	1245.16
377.40	1277.93
377.61	1286.12
377.82	1232.88
378.03	1259.50
378.24	1304.56
378.45	1314.80
378.66	1286.12
378.87	1329.13
379.08	1224.69
379.29	1286.12
379.50	1333.23
379.71	1275.88
379.91	1298.41
380.12	1253.36
380.33	1214.45
380.54	1265.64
380.75	1249.26
380.96	1224.69
381.17	1255.40
381.38	1228.78
381.59	1335.28
381.80	1312.75
382.00	1288.17
382.21	1234.93
382.42	1261.55
382.63	1271.79
382.84	1224.69
383.05	1286.12
383.26	1236.97
383.47	1243.12
383.68	1251.31
383.88	1300.46
384.09	1277.93
384.30	1236.97
384.51	1259.50
384.72	1171.44
384.93	1292.27
385.14	1288.17
385.35	1290.22
385.55	1259.50
385.76	1230.83
385.97	1218.54
386.18	1339.37
386.39	1312.75
386.60	1247.21
386.81	1300.46
387.02	1265.64
387.22	1255.40
387.43	1216.49
387.64	1251.31
387.85	1243.12
388.06	1308.65
388.27	1259.50
388.48	1279.98
388.68	1255.40
388.89	1259.50
389.10	1282.03
389.31	1288.17
389.52	1271.79
389.73	1216.49
389.93	1318.89
390.14	1245.16
390.35	1255.40
390.56	1245.16
390.77	1275.88
390.98	1251.31
391.18	1273.84
391.39	1206.25
391.60	1239.02
391.81	1257.45
392.02	1175.53
392.23	1359.85
392.43	1277.93
392.64	1265.64
392.85	1302.51
393.06	1224.69
393.27	1277.93
393.47	1331.18
393.68	1304.56
393.89	1277.93
394.10	1206.25
394.31	1267.69
394.52	1277.93
394.72	1241.07
394.93	1298.41
395.14	1288.17
395.35	1224.69
395.56	1282.03
395.76	1230.83
395.97	1290.22
396.18	1251.31
396.39	1204.21
396.60	1304.56
396.80	1343.47
397.01	1269.74
397.22	1275.88
397.43	1261.55
397.64	1245.16
397.84	1249.26
398.05	1277.93
398.26	1261.55
398.47	1234.93
398.67	1257.45
398.88	1302.51
399.09	1298.41
399.30	1257.45
399.51	1236.97
399.71	1314.80
399.92	1255.40
400.13	1236.97
400.34	1298.41
400.54	1327.08
400.75	1265.64
400.96	1259.50
401.17	1298.41
401.37	1185.77
401.58	1331.18
401.79	1245.16
402.00	1224.69
402.21	1265.64
402.41	1173.49
402.62	1294.32
402.83	1243.12
403.04	1204.21
403.24	1275.88
403.45	1239.02
403.66	1275.88
403.87	1273.84
404.07	1251.31
404.28	1232.88
404.49	1239.02
404.70	1359.85
404.90	1284.08
405.11	1271.79
405.32	1277.93
405.52	1243.12
405.73	1189.87
405.94	1212.40
406.15	1314.80
406.35	1222.64
406.56	1243.12
406.77	1269.74
406.98	1255.40
407.18	1300.46
407.39	1282.03
407.60	1284.08
407.80	1282.03
408.01	1320.94
408.22	1310.70
408.43	1232.88
408.63	1257.45
408.84	1318.89
409.05	1267.69
409.25	1220.59
409.46	1236.97
409.67	1222.64
409.88	1339.37
410.08	1234.93
410.29	1200.11
410.50	1284.08
410.70	1226.73
410.91	1200.11
411.12	1206.25
411.32	1275.88
411.53	1288.17
411.74	1306.60
411.95	1282.03
412.15	1302.51
412.36	1292.27
412.57	1200.11
412.77	1267.69
412.98	1306.60
413.19	1230.83
413.39	1277.93
413.60	1273.84
413.81	1320.94
414.01	1239.02
414.22	1284.08
414.43	1228.78
414.63	1241.07
414.84	1310.70
415.05	1259.50
415.25	1249.26
415.46	1263.60
415.67	1306.60
415.87	1331.18
416.08	1220.59
416.29	1214.45
416.49	1302.51
416.70	1232.88
416.91	1282.03
417.11	1300.46
417.32	1257.45
417.53	1232.88
417.73	1245.16
417.94	1239.02
418.15	1345.52
418.35	1269.74
418.56	1236.97
418.77	1310.70
418.97	1230.83
419.18	1204.21
419.38	1294.32
419.59	1288.17
419.80	1282.03
420.00	1296.36
420.21	1251.31
420.42	1261.55
420.62	1263.60
420.83	1243.12
421.04	1228.78
421.24	1247.21
421.45	1191.92
421.65	1251.31
421.86	1284.08
422.07	1302.51
422.27	1220.59
422.48	1191.92
422.69	1243.12
422.89	1273.84
423.10	1308.65
423.30	1322.99
423.51	1310.70
423.72	1245.16
423.92	1304.56
424.13	1259.50
424.33	1239.02
424.54	1310.70
424.75	1226.73
424.95	1304.56
425.16	1239.02
425.36	1277.93
425.57	1236.97
425.78	1312.75
425.98	1327.08
426.19	1269.74
426.39	1241.07
426.60	1282.03
426.81	1253.36
427.01	1322.99
427.22	1200.11
427.42	1282.03
427.63	1265.64
427.83	1185.77
428.04	1198.06
428.25	1322.99
428.45	1243.12
428.66	1269.74
428.86	1216.49
429.07	1245.16
429.28	1271.79
429.48	1261.55
429.69	1249.26
429.89	1239.02
430.10	1200.11
430.30	1177.58
430.51	1204.21
430.71	1273.84
430.92	1234.93
431.13	1277.93
431.33	1308.65
431.54	1277.93
431.74	1343.47
431.95	1288.17
432.15	1294.32
432.36	1247.21
432.56	1263.60
432.77	1267.69
432.98	1267.69
433.18	1337.32
433.39	1214.45
433.59	1286.12
433.80	1239.02
434.00	1263.60
434.21	1228.78
434.41	1257.45
434.62	1327.08
434.82	1200.11
435.03	1249.26
435.23	1230.83
435.44	1273.84
435.64	1228.78
435.85	1236.97
436.06	1236.97
436.26	1306.60
436.47	1296.36
436.67	1257.45
436.88	1218.54
437.08	1304.56
437.29	1286.12
437.49	1320.94
437.70	1259.50
437.90	1306.60
438.11	1214.45
438.31	1261.55
438.52	1236.97
438.72	1292.27
438.93	1222.64
439.13	1304.56
439.34	1275.88
439.54	1267.69
439.75	1191.92
439.95	1306.60
440.16	1304.56
440.36	1245.16
440.57	1265.64
440.77	1325.04
440.98	1329.13
441.18	1232.88
441.39	1308.65
441.59	1277.93
441.80	1304.56
442.00	1300.46
442.21	1318.89
442.41	1245.16
442.62	1212.40
442.82	1191.92
443.02	1320.94
443.23	1333.23
443.43	1216.49
443.64	1310.70
443.84	1232.88
444.05	1273.84
444.25	1185.77
444.46	1263.60
444.66	1269.74
444.87	1249.26
445.07	1187.82
445.28	1261.55
445.48	1253.36
445.69	1263.60
445.89	1191.92
446.09	1208.30
446.30	1279.98
446.50	1212.40
446.71	1269.74
446.91	1282.03
447.12	1247.21
447.32	1314.80
447.53	1310.70
447.73	1316.84
447.93	1349.61
448.14	1249.26
448.34	1261.55
448.55	1224.69
448.75	1271.79
448.96	1288.17
449.16	1286.12
449.36	1345.52
449.57	1300.46
449.77	1318.89
449.98	1294.32
450.18	1310.70
450.39	1294.32
450.59	1306.60
450.79	1206.25
451.00	1222.64
451.20	1251.31
451.41	1282.03
451.61	1241.07
451.81	1298.41
452.02	1300.46
452.22	1290.22
452.43	1290.22
452.63	1249.26
