SpectraSuite Data File
++++++++++++++++++++++++++++++++++++
Date: Sun Apr 03 19:55:38 CEST 2016
User: root
Dark Spectrum Present: No
Reference Spectrum Present: No
Number of Sampled Component Spectra: 1
Spectrometers: USB4C02835
Integration Time (usec): 10000 (USB4C02835)
Spectra Averaged: 1 (USB4C02835)
Boxcar Smoothing: 0 (USB4C02835)
Correct for Electrical Dark: No (USB4C02835)
Strobe/Lamp Enabled: No (USB4C02835)
Correct for Detector Non-linearity: No (USB4C02835)
Correct for Stray Light: No (USB4C02835)
Number of Pixels in Processed Spectrum: 3648
>>>>>Begin Processed Spectral Data<<<<<
177.47	1220.59
177.69	1220.59
177.91	1220.59
178.13	1271.79
178.36	1249.26
178.58	1320.94
178.80	1251.31
179.02	1247.21
179.24	1243.12
179.46	1277.93
179.68	1255.40
179.90	1263.60
180.13	1249.26
180.35	1255.40
180.57	1282.03
180.79	1267.69
181.01	1261.55
181.23	1222.64
181.45	1243.12
181.67	1234.93
181.90	1232.88
182.12	1337.32
182.34	1314.80
182.56	1228.78
182.78	1310.70
183.00	1273.84
183.22	1251.31
183.44	1310.70
183.66	1304.56
183.89	1288.17
184.11	1265.64
184.33	1298.41
184.55	1243.12
184.77	1257.45
184.99	1234.93
185.21	1249.26
185.43	1243.12
185.65	1286.12
185.87	1343.47
186.10	1265.64
186.32	1210.35
186.54	1284.08
186.76	1247.21
186.98	1212.40
187.20	1286.12
187.42	1220.59
187.64	1312.75
187.86	1228.78
188.08	1261.55
188.30	1171.44
188.52	1241.07
188.75	1251.31
188.97	1257.45
189.19	1304.56
189.41	1255.40
189.63	1318.89
189.85	1290.22
190.07	1251.31
190.29	1267.69
190.51	1163.25
190.73	1275.88
190.95	1257.45
191.17	1273.84
191.39	1224.69
191.61	1292.27
191.84	1351.66
192.06	1286.12
192.28	1230.83
192.50	1251.31
192.72	1300.46
192.94	1265.64
193.16	1220.59
193.38	1253.36
193.60	1175.53
193.82	1286.12
194.04	1220.59
194.26	1222.64
194.48	1275.88
194.70	1253.36
194.92	1241.07
195.14	1263.60
195.36	1284.08
195.58	1210.35
195.80	1259.50
196.02	1296.36
196.24	1290.22
196.46	1282.03
196.69	1277.93
196.91	1234.93
197.13	1273.84
197.35	1279.98
197.57	1304.56
197.79	1247.21
198.01	1247.21
198.23	1224.69
198.45	1308.65
198.67	1249.26
198.89	1222.64
199.11	1265.64
199.33	1236.97
199.55	1290.22
199.77	1298.41
199.99	1253.36
200.21	1290.22
200.43	1196.01
200.65	1261.55
200.87	1273.84
201.09	1241.07
201.31	1224.69
201.53	1284.08
201.75	1228.78
201.97	1298.41
202.19	1196.01
202.41	1279.98
202.63	1251.31
202.85	1263.60
203.07	1181.68
203.29	1173.49
203.51	1232.88
203.73	1261.55
203.95	1390.57
204.17	1318.89
204.39	1271.79
204.61	1226.73
204.83	1173.49
205.05	1220.59
205.27	1277.93
205.49	1271.79
205.71	1241.07
205.93	1253.36
206.15	1208.30
206.37	1183.73
206.59	1253.36
206.81	1345.52
207.03	1335.28
207.25	1177.58
207.47	1331.18
207.69	1277.93
207.91	1224.69
208.13	1257.45
208.34	1269.74
208.56	1245.16
208.78	1216.49
209.00	1241.07
209.22	1224.69
209.44	1191.92
209.66	1292.27
209.88	1273.84
210.10	1306.60
210.32	1251.31
210.54	1279.98
210.76	1241.07
210.98	1292.27
211.20	1288.17
211.42	1257.45
211.64	1236.97
211.86	1265.64
212.08	1239.02
212.30	1288.17
212.52	1282.03
212.74	1249.26
212.96	1228.78
213.17	1239.02
213.39	1290.22
213.61	1220.59
213.83	1232.88
214.05	1298.41
214.27	1273.84
214.49	1255.40
214.71	1253.36
214.93	1339.37
215.15	1263.60
215.37	1320.94
215.59	1243.12
215.81	1269.74
216.03	1257.45
216.24	1284.08
216.46	1277.93
216.68	1347.56
216.90	1267.69
217.12	1263.60
217.34	1316.84
217.56	1228.78
217.78	1300.46
218.00	1216.49
218.22	1302.51
218.44	1257.45
218.66	1212.40
218.87	1275.88
219.09	1214.45
219.31	1277.93
219.53	1265.64
219.75	1273.84
219.97	1269.74
220.19	1310.70
220.41	1298.41
220.63	1320.94
220.85	1220.59
221.06	1300.46
221.28	1277.93
221.50	1243.12
221.72	1241.07
221.94	1357.80
222.16	1261.55
222.38	1294.32
222.60	1279.98
222.82	1298.41
223.03	1257.45
223.25	1277.93
223.47	1290.22
223.69	1273.84
223.91	1259.50
224.13	1245.16
224.35	1212.40
224.57	1296.36
224.78	1316.84
225.00	1273.84
225.22	1298.41
225.44	1292.27
225.66	1191.92
225.88	1257.45
226.10	1277.93
226.32	1292.27
226.53	1259.50
226.75	1224.69
226.97	1296.36
227.19	1265.64
227.41	1236.97
227.63	1259.50
227.85	1298.41
228.06	1220.59
228.28	1273.84
228.50	1290.22
228.72	1257.45
228.94	1241.07
229.16	1288.17
229.37	1284.08
229.59	1241.07
229.81	1263.60
230.03	1267.69
230.25	1296.36
230.47	1300.46
230.69	1214.45
230.90	1282.03
231.12	1339.37
231.34	1212.40
231.56	1288.17
231.78	1210.35
232.00	1300.46
232.21	1220.59
232.43	1292.27
232.65	1304.56
232.87	1269.74
233.09	1263.60
233.30	1308.65
233.52	1284.08
233.74	1277.93
233.96	1294.32
234.18	1306.60
234.40	1277.93
234.61	1224.69
234.83	1257.45
235.05	1185.77
235.27	1224.69
235.49	1337.32
235.70	1257.45
235.92	1300.46
236.14	1310.70
236.36	1259.50
236.58	1302.51
236.79	1247.21
237.01	1247.21
237.23	1273.84
237.45	1251.31
237.67	1269.74
237.88	1343.47
238.10	1325.04
238.32	1167.34
238.54	1249.26
238.76	1228.78
238.97	1279.98
239.19	1226.73
239.41	1284.08
239.63	1249.26
239.85	1202.16
240.06	1325.04
240.28	1282.03
240.50	1267.69
240.72	1396.71
240.93	1286.12
241.15	1279.98
241.37	1214.45
241.59	1224.69
241.81	1216.49
242.02	1253.36
242.24	1257.45
242.46	1232.88
242.68	1259.50
242.89	1273.84
243.11	1167.34
243.33	1298.41
243.55	1241.07
243.76	1282.03
243.98	1212.40
244.20	1314.80
244.42	1214.45
244.64	1245.16
244.85	1284.08
245.07	1273.84
245.29	1376.24
245.51	1218.54
245.72	1320.94
245.94	1298.41
246.16	1310.70
246.38	1269.74
246.59	1214.45
246.81	1273.84
247.03	1325.04
247.24	1247.21
247.46	1318.89
247.68	1241.07
247.90	1261.55
248.11	1296.36
248.33	1259.50
248.55	1226.73
248.77	1230.83
248.98	1327.08
249.20	1257.45
249.42	1290.22
249.64	1273.84
249.85	1298.41
250.07	1245.16
250.29	1312.75
250.50	1273.84
250.72	1343.47
250.94	1216.49
251.16	1239.02
251.37	1263.60
251.59	1202.16
251.81	1265.64
252.02	1222.64
252.24	1249.26
252.46	1257.45
252.68	1271.79
252.89	1247.21
253.11	1243.12
253.33	1265.64
253.54	1239.02
253.76	1251.31
253.98	1290.22
254.20	1292.27
254.41	1335.28
254.63	1261.55
254.85	1302.51
255.06	1275.88
255.28	1343.47
255.50	1228.78
255.71	1210.35
255.93	1290.22
256.15	1263.60
256.36	1347.56
256.58	1228.78
256.80	1253.36
257.02	1296.36
257.23	1290.22
257.45	1331.18
257.67	1298.41
257.88	1214.45
258.10	1224.69
258.32	1298.41
258.53	1269.74
258.75	1222.64
258.97	1247.21
259.18	1271.79
259.40	1361.90
259.62	1267.69
259.83	1292.27
260.05	1286.12
260.27	1277.93
260.48	1298.41
260.70	1284.08
260.92	1210.35
261.13	1208.30
261.35	1214.45
261.57	1269.74
261.78	1314.80
262.00	1263.60
262.22	1267.69
262.43	1251.31
262.65	1277.93
262.86	1279.98
263.08	1279.98
263.30	1193.97
263.51	1245.16
263.73	1239.02
263.95	1202.16
264.16	1265.64
264.38	1251.31
264.60	1314.80
264.81	1265.64
265.03	1284.08
265.25	1261.55
265.46	1366.00
265.68	1277.93
265.89	1296.36
266.11	1239.02
266.33	1236.97
266.54	1271.79
266.76	1239.02
266.98	1302.51
267.19	1267.69
267.41	1292.27
267.62	1261.55
267.84	1290.22
268.06	1261.55
268.27	1298.41
268.49	1271.79
268.70	1259.50
268.92	1257.45
269.14	1298.41
269.35	1304.56
269.57	1275.88
269.79	1255.40
270.00	1290.22
270.22	1322.99
270.43	1308.65
270.65	1277.93
270.87	1193.97
271.08	1210.35
271.30	1249.26
271.51	1282.03
271.73	1214.45
271.95	1312.75
272.16	1245.16
272.38	1298.41
272.59	1253.36
272.81	1255.40
273.02	1314.80
273.24	1259.50
273.46	1310.70
273.67	1247.21
273.89	1286.12
274.10	1263.60
274.32	1263.60
274.54	1236.97
274.75	1210.35
274.97	1255.40
275.18	1298.41
275.40	1282.03
275.61	1312.75
275.83	1286.12
276.05	1279.98
276.26	1300.46
276.48	1249.26
276.69	1263.60
276.91	1322.99
277.12	1302.51
277.34	1300.46
277.55	1257.45
277.77	1255.40
277.99	1261.55
278.20	1308.65
278.42	1261.55
278.63	1253.36
278.85	1269.74
279.06	1212.40
279.28	1200.11
279.49	1275.88
279.71	1255.40
279.93	1257.45
280.14	1206.25
280.36	1300.46
280.57	1249.26
280.79	1275.88
281.00	1279.98
281.22	1265.64
281.43	1290.22
281.65	1236.97
281.86	1304.56
282.08	1212.40
282.29	1226.73
282.51	1279.98
282.73	1269.74
282.94	1370.09
283.16	1286.12
283.37	1284.08
283.59	1159.15
283.80	1308.65
284.02	1294.32
284.23	1245.16
284.45	1322.99
284.66	1220.59
284.88	1312.75
285.09	1335.28
285.31	1312.75
285.52	1327.08
285.74	1271.79
285.95	1308.65
286.17	1204.21
286.38	1228.78
286.60	1247.21
286.81	1265.64
287.03	1255.40
287.24	1208.30
287.46	1347.56
287.67	1273.84
287.89	1269.74
288.10	1247.21
288.32	1286.12
288.53	1271.79
288.75	1267.69
288.96	1257.45
289.18	1241.07
289.39	1329.13
289.61	1196.01
289.82	1210.35
290.04	1308.65
290.25	1255.40
290.47	1314.80
290.68	1269.74
290.90	1300.46
291.11	1273.84
291.33	1249.26
291.54	1198.06
291.76	1302.51
291.97	1236.97
292.18	1284.08
292.40	1271.79
292.61	1275.88
292.83	1347.56
293.04	1236.97
293.26	1277.93
293.47	1239.02
293.69	1290.22
293.90	1173.49
294.12	1331.18
294.33	1249.26
294.55	1265.64
294.76	1314.80
294.97	1290.22
295.19	1288.17
295.40	1279.98
295.62	1304.56
295.83	1191.92
296.05	1296.36
296.26	1271.79
296.48	1271.79
296.69	1271.79
296.90	1275.88
297.12	1282.03
297.33	1282.03
297.55	1255.40
297.76	1243.12
297.98	1224.69
298.19	1255.40
298.41	1255.40
298.62	1318.89
298.83	1318.89
299.05	1230.83
299.26	1257.45
299.48	1206.25
299.69	1286.12
299.90	1234.93
300.12	1243.12
300.33	1339.37
300.55	1322.99
300.76	1212.40
300.98	1236.97
301.19	1288.17
301.40	1267.69
301.62	1224.69
301.83	1234.93
302.05	1318.89
302.26	1290.22
302.47	1157.10
302.69	1208.30
302.90	1253.36
303.12	1183.73
303.33	1273.84
303.54	1241.07
303.76	1302.51
303.97	1308.65
304.19	1251.31
304.40	1247.21
304.61	1322.99
304.83	1284.08
305.04	1275.88
305.26	1298.41
305.47	1239.02
305.68	1347.56
305.90	1196.01
306.11	1261.55
306.33	1277.93
306.54	1251.31
306.75	1236.97
306.97	1279.98
307.18	1271.79
307.39	1279.98
307.61	1284.08
307.82	1220.59
308.04	1212.40
308.25	1249.26
308.46	1275.88
308.68	1320.94
308.89	1241.07
309.10	1302.51
309.32	1251.31
309.53	1275.88
309.74	1290.22
309.96	1298.41
310.17	1325.04
310.39	1269.74
310.60	1322.99
310.81	1271.79
311.03	1282.03
311.24	1282.03
311.45	1263.60
311.67	1247.21
311.88	1232.88
312.09	1234.93
312.31	1282.03
312.52	1282.03
312.73	1247.21
312.95	1251.31
313.16	1296.36
313.37	1273.84
313.59	1198.06
313.80	1310.70
314.01	1267.69
314.23	1224.69
314.44	1228.78
314.65	1296.36
314.87	1318.89
315.08	1286.12
315.29	1343.47
315.51	1241.07
315.72	1208.30
315.93	1300.46
316.15	1259.50
316.36	1355.76
316.57	1271.79
316.79	1304.56
317.00	1249.26
317.21	1271.79
317.43	1290.22
317.64	1282.03
317.85	1267.69
318.07	1247.21
318.28	1314.80
318.49	1247.21
318.70	1271.79
318.92	1204.21
319.13	1232.88
319.34	1239.02
319.56	1222.64
319.77	1273.84
319.98	1294.32
320.20	1208.30
320.41	1282.03
320.62	1249.26
320.83	1294.32
321.05	1267.69
321.26	1275.88
321.47	1265.64
321.69	1273.84
321.90	1263.60
322.11	1353.71
322.32	1275.88
322.54	1245.16
322.75	1220.59
322.96	1316.84
323.18	1253.36
323.39	1214.45
323.60	1277.93
323.81	1249.26
324.03	1265.64
324.24	1263.60
324.45	1228.78
324.66	1259.50
324.88	1228.78
325.09	1245.16
325.30	1247.21
325.52	1241.07
325.73	1228.78
325.94	1261.55
326.15	1273.84
326.37	1245.16
326.58	1267.69
326.79	1302.51
327.00	1271.79
327.22	1304.56
327.43	1257.45
327.64	1292.27
327.85	1284.08
328.07	1284.08
328.28	1251.31
328.49	1249.26
328.70	1232.88
328.92	1290.22
329.13	1234.93
329.34	1300.46
329.55	1290.22
329.76	1226.73
329.98	1290.22
330.19	1282.03
330.40	1245.16
330.61	1239.02
330.83	1255.40
331.04	1257.45
331.25	1226.73
331.46	1271.79
331.68	1253.36
331.89	1239.02
332.10	1208.30
332.31	1265.64
332.52	1243.12
332.74	1222.64
332.95	1243.12
333.16	1279.98
333.37	1269.74
333.58	1286.12
333.80	1316.84
334.01	1259.50
334.22	1267.69
334.43	1253.36
334.64	1245.16
334.86	1261.55
335.07	1261.55
335.28	1224.69
335.49	1216.49
335.70	1308.65
335.92	1239.02
336.13	1310.70
336.34	1222.64
336.55	1249.26
336.76	1322.99
336.98	1290.22
337.19	1288.17
337.40	1288.17
337.61	1273.84
337.82	1271.79
338.04	1269.74
338.25	1282.03
338.46	1271.79
338.67	1236.97
338.88	1275.88
339.09	1261.55
339.31	1273.84
339.52	1245.16
339.73	1284.08
339.94	1226.73
340.15	1218.54
340.36	1263.60
340.58	1273.84
340.79	1187.82
341.00	1245.16
341.21	1339.37
341.42	1306.60
341.63	1236.97
341.85	1290.22
342.06	1247.21
342.27	1208.30
342.48	1212.40
342.69	1224.69
342.90	1218.54
343.12	1253.36
343.33	1259.50
343.54	1304.56
343.75	1247.21
343.96	1265.64
344.17	1310.70
344.38	1273.84
344.60	1232.88
344.81	1306.60
345.02	1214.45
345.23	1216.49
345.44	1236.97
345.65	1275.88
345.86	1277.93
346.07	1243.12
346.29	1265.64
346.50	1239.02
346.71	1292.27
346.92	1286.12
347.13	1277.93
347.34	1253.36
347.55	1304.56
347.76	1345.52
347.98	1228.78
348.19	1249.26
348.40	1288.17
348.61	1236.97
348.82	1284.08
349.03	1310.70
349.24	1302.51
349.45	1249.26
349.66	1271.79
349.88	1226.73
350.09	1255.40
350.30	1261.55
350.51	1294.32
350.72	1259.50
350.93	1234.93
351.14	1255.40
351.35	1232.88
351.56	1218.54
351.77	1310.70
351.99	1318.89
352.20	1214.45
352.41	1310.70
352.62	1267.69
352.83	1255.40
353.04	1329.13
353.25	1298.41
353.46	1302.51
353.67	1312.75
353.88	1263.60
354.09	1243.12
354.30	1314.80
354.52	1345.52
354.73	1245.16
354.94	1290.22
355.15	1234.93
355.36	1327.08
355.57	1304.56
355.78	1255.40
355.99	1243.12
356.20	1193.97
356.41	1273.84
356.62	1277.93
356.83	1296.36
357.04	1265.64
357.25	1347.56
357.46	1232.88
357.68	1267.69
357.89	1298.41
358.10	1220.59
358.31	1269.74
358.52	1214.45
358.73	1269.74
358.94	1257.45
359.15	1345.52
359.36	1294.32
359.57	1304.56
359.78	1269.74
359.99	1322.99
360.20	1282.03
360.41	1294.32
360.62	1234.93
360.83	1314.80
361.04	1312.75
361.25	1277.93
361.46	1259.50
361.67	1228.78
361.88	1294.32
362.09	1310.70
362.30	1339.37
362.51	1241.07
362.72	1300.46
362.93	1202.16
363.14	1249.26
363.35	1232.88
363.56	1228.78
363.78	1179.63
363.99	1251.31
364.20	1284.08
364.41	1298.41
364.62	1312.75
364.83	1212.40
365.04	1216.49
365.25	1290.22
365.46	1263.60
365.67	1267.69
365.88	1239.02
366.09	1318.89
366.30	1273.84
366.51	1208.30
366.72	1318.89
366.93	1204.21
367.14	1327.08
367.35	1249.26
367.56	1310.70
367.77	1230.83
367.98	1339.37
368.18	1282.03
368.39	1210.35
368.60	1337.32
368.81	1288.17
369.02	1228.78
369.23	1337.32
369.44	1282.03
369.65	1261.55
369.86	1282.03
370.07	1310.70
370.28	1204.21
370.49	1320.94
370.70	1253.36
370.91	1218.54
371.12	1245.16
371.33	1288.17
371.54	1398.76
371.75	1214.45
371.96	1255.40
372.17	1224.69
372.38	1216.49
372.59	1302.51
372.80	1288.17
373.01	1228.78
373.22	1249.26
373.43	1320.94
373.64	1267.69
373.85	1232.88
374.06	1222.64
374.26	1251.31
374.47	1290.22
374.68	1275.88
374.89	1284.08
375.10	1241.07
375.31	1345.52
375.52	1247.21
375.73	1277.93
375.94	1206.25
376.15	1331.18
376.36	1368.04
376.57	1249.26
376.78	1216.49
376.99	1245.16
377.20	1245.16
377.40	1243.12
377.61	1282.03
377.82	1286.12
378.03	1257.45
378.24	1251.31
378.45	1245.16
378.66	1282.03
378.87	1196.01
379.08	1277.93
379.29	1259.50
379.50	1316.84
379.71	1275.88
379.91	1259.50
380.12	1259.50
380.33	1267.69
380.54	1296.36
380.75	1308.65
380.96	1218.54
381.17	1236.97
381.38	1288.17
381.59	1222.64
381.80	1286.12
382.00	1279.98
382.21	1265.64
382.42	1239.02
382.63	1224.69
382.84	1376.24
383.05	1257.45
383.26	1226.73
383.47	1310.70
383.68	1308.65
383.88	1265.64
384.09	1290.22
384.30	1279.98
384.51	1241.07
384.72	1245.16
384.93	1239.02
385.14	1327.08
385.35	1282.03
385.55	1214.45
385.76	1193.97
385.97	1239.02
386.18	1277.93
386.39	1216.49
386.60	1230.83
386.81	1228.78
387.02	1261.55
387.22	1253.36
387.43	1286.12
387.64	1361.90
387.85	1265.64
388.06	1294.32
388.27	1279.98
388.48	1322.99
388.68	1216.49
388.89	1247.21
389.10	1257.45
389.31	1298.41
389.52	1220.59
389.73	1339.37
389.93	1314.80
390.14	1267.69
390.35	1261.55
390.56	1253.36
390.77	1333.23
390.98	1292.27
391.18	1226.73
391.39	1198.06
391.60	1308.65
391.81	1253.36
392.02	1243.12
392.23	1265.64
392.43	1220.59
392.64	1257.45
392.85	1273.84
393.06	1296.36
393.27	1208.30
393.47	1306.60
393.68	1380.33
393.89	1325.04
394.10	1193.97
394.31	1294.32
394.52	1273.84
394.72	1224.69
394.93	1265.64
395.14	1271.79
395.35	1288.17
395.56	1335.28
395.76	1306.60
395.97	1263.60
396.18	1304.56
396.39	1255.40
396.60	1296.36
396.80	1331.18
397.01	1265.64
397.22	1275.88
397.43	1290.22
397.64	1271.79
397.84	1265.64
398.05	1212.40
398.26	1267.69
398.47	1298.41
398.67	1361.90
398.88	1298.41
399.09	1282.03
399.30	1275.88
399.51	1255.40
399.71	1257.45
399.92	1271.79
400.13	1241.07
400.34	1304.56
400.54	1351.66
400.75	1257.45
400.96	1239.02
401.17	1249.26
401.37	1224.69
401.58	1284.08
401.79	1230.83
402.00	1206.25
402.21	1271.79
402.41	1277.93
402.62	1314.80
402.83	1282.03
403.04	1267.69
403.24	1279.98
403.45	1290.22
403.66	1335.28
403.87	1331.18
404.07	1261.55
404.28	1245.16
404.49	1271.79
404.70	1228.78
404.90	1245.16
405.11	1245.16
405.32	1277.93
405.52	1226.73
405.73	1288.17
405.94	1224.69
406.15	1343.47
406.35	1249.26
406.56	1345.52
406.77	1249.26
406.98	1273.84
407.18	1327.08
407.39	1284.08
407.60	1243.12
407.80	1251.31
408.01	1249.26
408.22	1191.92
408.43	1236.97
408.63	1292.27
408.84	1286.12
409.05	1288.17
409.25	1269.74
409.46	1322.99
409.67	1159.15
409.88	1245.16
410.08	1292.27
410.29	1212.40
410.50	1241.07
410.70	1273.84
410.91	1320.94
411.12	1253.36
411.32	1202.16
411.53	1259.50
411.74	1341.42
411.95	1312.75
412.15	1257.45
412.36	1196.01
412.57	1210.35
412.77	1269.74
412.98	1310.70
413.19	1306.60
413.39	1282.03
413.60	1271.79
413.81	1249.26
414.01	1255.40
414.22	1249.26
414.43	1271.79
414.63	1329.13
414.84	1275.88
415.05	1220.59
415.25	1279.98
415.46	1257.45
415.67	1214.45
415.87	1372.14
416.08	1339.37
416.29	1200.11
416.49	1239.02
416.70	1241.07
416.91	1269.74
417.11	1267.69
417.32	1236.97
417.53	1200.11
417.73	1247.21
417.94	1277.93
418.15	1257.45
418.35	1263.60
418.56	1261.55
418.77	1239.02
418.97	1191.92
419.18	1226.73
419.38	1302.51
419.59	1142.77
419.80	1351.66
420.00	1269.74
420.21	1259.50
420.42	1304.56
420.62	1208.30
420.83	1232.88
421.04	1320.94
421.24	1273.84
421.45	1296.36
421.65	1255.40
421.86	1298.41
422.07	1290.22
422.27	1257.45
422.48	1222.64
422.69	1294.32
422.89	1284.08
423.10	1218.54
423.30	1228.78
423.51	1282.03
423.72	1314.80
423.92	1251.31
424.13	1251.31
424.33	1312.75
424.54	1263.60
424.75	1353.71
424.95	1226.73
425.16	1290.22
425.36	1343.47
425.57	1290.22
425.78	1288.17
425.98	1277.93
426.19	1249.26
426.39	1288.17
426.60	1236.97
426.81	1191.92
427.01	1150.96
427.22	1255.40
427.42	1247.21
427.63	1306.60
427.83	1220.59
428.04	1261.55
428.25	1337.32
428.45	1279.98
428.66	1275.88
428.86	1275.88
429.07	1286.12
429.28	1284.08
429.48	1263.60
429.69	1216.49
429.89	1286.12
430.10	1337.32
430.30	1339.37
430.51	1253.36
430.71	1335.28
430.92	1300.46
431.13	1302.51
431.33	1341.42
431.54	1226.73
431.74	1236.97
431.95	1265.64
432.15	1277.93
432.36	1290.22
432.56	1284.08
432.77	1269.74
432.98	1306.60
433.18	1251.31
433.39	1249.26
433.59	1253.36
433.80	1316.84
434.00	1296.36
434.21	1269.74
434.41	1208.30
434.62	1271.79
434.82	1218.54
435.03	1298.41
435.23	1318.89
435.44	1269.74
435.64	1249.26
435.85	1329.13
436.06	1271.79
436.26	1325.04
436.47	1232.88
436.67	1200.11
436.88	1316.84
437.08	1279.98
437.29	1327.08
437.49	1279.98
437.70	1271.79
437.90	1212.40
438.11	1273.84
438.31	1347.56
438.52	1228.78
438.72	1222.64
438.93	1279.98
439.13	1314.80
439.34	1314.80
439.54	1310.70
439.75	1224.69
439.95	1296.36
440.16	1286.12
440.36	1193.97
440.57	1236.97
440.77	1318.89
440.98	1183.73
441.18	1275.88
441.39	1277.93
441.59	1282.03
441.80	1302.51
442.00	1279.98
442.21	1261.55
442.41	1257.45
442.62	1339.37
442.82	1273.84
443.02	1277.93
443.23	1216.49
443.43	1322.99
443.64	1290.22
443.84	1222.64
444.05	1282.03
444.25	1288.17
444.46	1216.49
444.66	1310.70
444.87	1308.65
445.07	1312.75
445.28	1251.31
445.48	1241.07
445.69	1259.50
445.89	1193.97
446.09	1308.65
446.30	1273.84
446.50	1282.03
446.71	1343.47
446.91	1269.74
447.12	1224.69
447.32	1308.65
447.53	1282.03
447.73	1306.60
447.93	1202.16
448.14	1318.89
448.34	1273.84
448.55	1253.36
448.75	1241.07
448.96	1310.70
449.16	1196.01
449.36	1290.22
449.57	1282.03
449.77	1239.02
449.98	1282.03
450.18	1232.88
450.39	1208.30
450.59	1288.17
450.79	1267.69
451.00	1308.65
451.20	1298.41
451.41	1298.41
451.61	1294.32
451.81	1286.12
452.02	1322.99
452.22	1304.56
452.43	1284.08
452.63	1226.73
