SpectraSuite Data File
++++++++++++++++++++++++++++++++++++
Date: Sun Apr 03 19:55:29 CEST 2016
User: root
Dark Spectrum Present: No
Reference Spectrum Present: No
Number of Sampled Component Spectra: 1
Spectrometers: USB4C02835
Integration Time (usec): 10000 (USB4C02835)
Spectra Averaged: 1 (USB4C02835)
Boxcar Smoothing: 0 (USB4C02835)
Correct for Electrical Dark: No (USB4C02835)
Strobe/Lamp Enabled: No (USB4C02835)
Correct for Detector Non-linearity: No (USB4C02835)
Correct for Stray Light: No (USB4C02835)
Number of Pixels in Processed Spectrum: 3648
>>>>>Begin Processed Spectral Data<<<<<
177.47	1216.49
177.69	1216.49
177.91	1216.49
178.13	1255.40
178.36	1306.60
178.58	1290.22
178.80	1257.45
179.02	1302.51
179.24	1290.22
179.46	1265.64
179.68	1226.73
179.90	1279.98
180.13	1273.84
180.35	1306.60
180.57	1290.22
180.79	1251.31
181.01	1189.87
181.23	1322.99
181.45	1255.40
181.67	1314.80
181.90	1282.03
182.12	1339.37
182.34	1277.93
182.56	1290.22
182.78	1320.94
183.00	1269.74
183.22	1222.64
183.44	1257.45
183.66	1257.45
183.89	1265.64
184.11	1232.88
184.33	1157.10
184.55	1318.89
184.77	1286.12
184.99	1243.12
185.21	1216.49
185.43	1210.35
185.65	1320.94
185.87	1226.73
186.10	1239.02
186.32	1286.12
186.54	1304.56
186.76	1351.66
186.98	1322.99
187.20	1275.88
187.42	1265.64
187.64	1329.13
187.86	1210.35
188.08	1259.50
188.30	1224.69
188.52	1259.50
188.75	1318.89
188.97	1269.74
189.19	1277.93
189.41	1255.40
189.63	1320.94
189.85	1245.16
190.07	1241.07
190.29	1261.55
190.51	1294.32
190.73	1177.58
190.95	1226.73
191.17	1277.93
191.39	1271.79
191.61	1290.22
191.84	1273.84
192.06	1339.37
192.28	1290.22
192.50	1298.41
192.72	1269.74
192.94	1261.55
193.16	1267.69
193.38	1249.26
193.60	1234.93
193.82	1230.83
194.04	1294.32
194.26	1220.59
194.48	1249.26
194.70	1253.36
194.92	1298.41
195.14	1265.64
195.36	1261.55
195.58	1265.64
195.80	1282.03
196.02	1286.12
196.24	1249.26
196.46	1253.36
196.69	1347.56
196.91	1304.56
197.13	1296.36
197.35	1261.55
197.57	1241.07
197.79	1257.45
198.01	1314.80
198.23	1198.06
198.45	1265.64
198.67	1296.36
198.89	1282.03
199.11	1228.78
199.33	1236.97
199.55	1304.56
199.77	1269.74
199.99	1288.17
200.21	1300.46
200.43	1282.03
200.65	1284.08
200.87	1261.55
201.09	1253.36
201.31	1251.31
201.53	1335.28
201.75	1298.41
201.97	1355.76
202.19	1216.49
202.41	1249.26
202.63	1310.70
202.85	1267.69
203.07	1200.11
203.29	1316.84
203.51	1300.46
203.73	1271.79
203.95	1206.25
204.17	1290.22
204.39	1333.23
204.61	1300.46
204.83	1247.21
205.05	1171.44
205.27	1239.02
205.49	1329.13
205.71	1204.21
205.93	1189.87
206.15	1306.60
206.37	1310.70
206.59	1298.41
206.81	1202.16
207.03	1312.75
207.25	1275.88
207.47	1273.84
207.69	1241.07
207.91	1255.40
208.13	1308.65
208.34	1206.25
208.56	1292.27
208.78	1249.26
209.00	1292.27
209.22	1224.69
209.44	1284.08
209.66	1292.27
209.88	1212.40
210.10	1257.45
210.32	1290.22
210.54	1243.12
210.76	1300.46
210.98	1224.69
211.20	1259.50
211.42	1292.27
211.64	1155.05
211.86	1296.36
212.08	1226.73
212.30	1243.12
212.52	1290.22
212.74	1253.36
212.96	1290.22
213.17	1329.13
213.39	1384.43
213.61	1255.40
213.83	1251.31
214.05	1202.16
214.27	1210.35
214.49	1282.03
214.71	1257.45
214.93	1269.74
215.15	1265.64
215.37	1271.79
215.59	1269.74
215.81	1288.17
216.03	1253.36
216.24	1318.89
216.46	1193.97
216.68	1341.42
216.90	1294.32
217.12	1230.83
217.34	1245.16
217.56	1253.36
217.78	1267.69
218.00	1325.04
218.22	1296.36
218.44	1294.32
218.66	1257.45
218.87	1345.52
219.09	1271.79
219.31	1322.99
219.53	1337.32
219.75	1282.03
219.97	1239.02
220.19	1275.88
220.41	1245.16
220.63	1282.03
220.85	1271.79
221.06	1208.30
221.28	1318.89
221.50	1261.55
221.72	1296.36
221.94	1275.88
222.16	1341.42
222.38	1327.08
222.60	1282.03
222.82	1312.75
223.03	1236.97
223.25	1271.79
223.47	1347.56
223.69	1312.75
223.91	1269.74
224.13	1204.21
224.35	1216.49
224.57	1275.88
224.78	1255.40
225.00	1255.40
225.22	1245.16
225.44	1263.60
225.66	1212.40
225.88	1308.65
226.10	1255.40
226.32	1269.74
226.53	1216.49
226.75	1267.69
226.97	1251.31
227.19	1290.22
227.41	1253.36
227.63	1343.47
227.85	1218.54
228.06	1347.56
228.28	1316.84
228.50	1292.27
228.72	1163.25
228.94	1310.70
229.16	1263.60
229.37	1290.22
229.59	1245.16
229.81	1310.70
230.03	1282.03
230.25	1214.45
230.47	1333.23
230.69	1224.69
230.90	1228.78
231.12	1273.84
231.34	1241.07
231.56	1325.04
231.78	1306.60
232.00	1232.88
232.21	1257.45
232.43	1257.45
232.65	1216.49
232.87	1310.70
233.09	1265.64
233.30	1294.32
233.52	1271.79
233.74	1245.16
233.96	1312.75
234.18	1304.56
234.40	1239.02
234.61	1263.60
234.83	1267.69
235.05	1279.98
235.27	1296.36
235.49	1239.02
235.70	1259.50
235.92	1269.74
236.14	1230.83
236.36	1296.36
236.58	1181.68
236.79	1286.12
237.01	1255.40
237.23	1269.74
237.45	1265.64
237.67	1298.41
237.88	1267.69
238.10	1279.98
238.32	1273.84
238.54	1351.66
238.76	1296.36
238.97	1265.64
239.19	1294.32
239.41	1261.55
239.63	1261.55
239.85	1314.80
240.06	1316.84
240.28	1318.89
240.50	1263.60
240.72	1310.70
240.93	1263.60
241.15	1263.60
241.37	1255.40
241.59	1279.98
241.81	1251.31
242.02	1310.70
242.24	1304.56
242.46	1210.35
242.68	1279.98
242.89	1245.16
243.11	1288.17
243.33	1245.16
243.55	1261.55
243.76	1279.98
243.98	1290.22
244.20	1259.50
244.42	1302.51
244.64	1271.79
244.85	1296.36
245.07	1279.98
245.29	1331.18
245.51	1312.75
245.72	1247.21
245.94	1200.11
246.16	1282.03
246.38	1255.40
246.59	1236.97
246.81	1247.21
247.03	1249.26
247.24	1222.64
247.46	1196.01
247.68	1294.32
247.90	1216.49
248.11	1222.64
248.33	1298.41
248.55	1304.56
248.77	1226.73
248.98	1279.98
249.20	1241.07
249.42	1236.97
249.64	1236.97
249.85	1277.93
250.07	1306.60
250.29	1322.99
250.50	1300.46
250.72	1267.69
250.94	1243.12
251.16	1284.08
251.37	1267.69
251.59	1216.49
251.81	1236.97
252.02	1269.74
252.24	1271.79
252.46	1247.21
252.68	1310.70
252.89	1273.84
253.11	1279.98
253.33	1222.64
253.54	1236.97
253.76	1267.69
253.98	1316.84
254.20	1249.26
254.41	1259.50
254.63	1212.40
254.85	1296.36
255.06	1316.84
255.28	1288.17
255.50	1269.74
255.71	1228.78
255.93	1247.21
256.15	1279.98
256.36	1286.12
256.58	1259.50
256.80	1265.64
257.02	1298.41
257.23	1265.64
257.45	1175.53
257.67	1245.16
257.88	1286.12
258.10	1286.12
258.32	1177.58
258.53	1290.22
258.75	1282.03
258.97	1245.16
259.18	1224.69
259.40	1359.85
259.62	1298.41
259.83	1236.97
260.05	1290.22
260.27	1253.36
260.48	1273.84
260.70	1251.31
260.92	1224.69
261.13	1236.97
261.35	1290.22
261.57	1271.79
261.78	1296.36
262.00	1325.04
262.22	1273.84
262.43	1245.16
262.65	1245.16
262.86	1333.23
263.08	1222.64
263.30	1306.60
263.51	1224.69
263.73	1261.55
263.95	1265.64
264.16	1304.56
264.38	1226.73
264.60	1245.16
264.81	1261.55
265.03	1255.40
265.25	1302.51
265.46	1255.40
265.68	1318.89
265.89	1269.74
266.11	1218.54
266.33	1265.64
266.54	1269.74
266.76	1282.03
266.98	1241.07
267.19	1320.94
267.41	1316.84
267.62	1239.02
267.84	1232.88
268.06	1363.95
268.27	1253.36
268.49	1290.22
268.70	1294.32
268.92	1314.80
269.14	1294.32
269.35	1251.31
269.57	1320.94
269.79	1290.22
270.00	1304.56
270.22	1282.03
270.43	1234.93
270.65	1249.26
270.87	1279.98
271.08	1257.45
271.30	1277.93
271.51	1243.12
271.73	1251.31
271.95	1261.55
272.16	1267.69
272.38	1320.94
272.59	1239.02
272.81	1230.83
273.02	1265.64
273.24	1292.27
273.46	1236.97
273.67	1314.80
273.89	1249.26
274.10	1220.59
274.32	1294.32
274.54	1214.45
274.75	1259.50
274.97	1277.93
275.18	1206.25
275.40	1189.87
275.61	1306.60
275.83	1255.40
276.05	1212.40
276.26	1236.97
276.48	1265.64
276.69	1320.94
276.91	1189.87
277.12	1224.69
277.34	1267.69
277.55	1257.45
277.77	1236.97
277.99	1357.80
278.20	1294.32
278.42	1329.13
278.63	1265.64
278.85	1320.94
279.06	1411.05
279.28	1288.17
279.49	1386.47
279.71	1261.55
279.93	1269.74
280.14	1325.04
280.36	1259.50
280.57	1286.12
280.79	1318.89
281.00	1267.69
281.22	1271.79
281.43	1298.41
281.65	1294.32
281.86	1322.99
282.08	1261.55
282.29	1279.98
282.51	1255.40
282.73	1322.99
282.94	1300.46
283.16	1300.46
283.37	1234.93
283.59	1241.07
283.80	1298.41
284.02	1269.74
284.23	1298.41
284.45	1292.27
284.66	1279.98
284.88	1245.16
285.09	1247.21
285.31	1288.17
285.52	1312.75
285.74	1286.12
285.95	1224.69
286.17	1282.03
286.38	1279.98
286.60	1306.60
286.81	1296.36
287.03	1214.45
287.24	1189.87
287.46	1261.55
287.67	1224.69
287.89	1261.55
288.10	1243.12
288.32	1284.08
288.53	1269.74
288.75	1331.18
288.96	1275.88
289.18	1236.97
289.39	1243.12
289.61	1249.26
289.82	1263.60
290.04	1302.51
290.25	1232.88
290.47	1196.01
290.68	1286.12
290.90	1177.58
291.11	1269.74
291.33	1331.18
291.54	1245.16
291.76	1390.57
291.97	1255.40
292.18	1222.64
292.40	1228.78
292.61	1290.22
292.83	1257.45
293.04	1230.83
293.26	1275.88
293.47	1267.69
293.69	1284.08
293.90	1312.75
294.12	1239.02
294.33	1230.83
294.55	1267.69
294.76	1214.45
294.97	1230.83
295.19	1331.18
295.40	1335.28
295.62	1216.49
295.83	1269.74
296.05	1286.12
296.26	1298.41
296.48	1279.98
296.69	1232.88
296.90	1284.08
297.12	1300.46
297.33	1259.50
297.55	1290.22
297.76	1239.02
297.98	1255.40
298.19	1253.36
298.41	1339.37
298.62	1245.16
298.83	1196.01
299.05	1236.97
299.26	1265.64
299.48	1314.80
299.69	1198.06
299.90	1300.46
300.12	1267.69
300.33	1294.32
300.55	1286.12
300.76	1286.12
300.98	1220.59
301.19	1255.40
301.40	1294.32
301.62	1263.60
301.83	1302.51
302.05	1333.23
302.26	1173.49
302.47	1304.56
302.69	1222.64
302.90	1249.26
303.12	1263.60
303.33	1249.26
303.54	1245.16
303.76	1316.84
303.97	1263.60
304.19	1232.88
304.40	1232.88
304.61	1306.60
304.83	1300.46
305.04	1290.22
305.26	1322.99
305.47	1255.40
305.68	1224.69
305.90	1271.79
306.11	1269.74
306.33	1236.97
306.54	1273.84
306.75	1224.69
306.97	1292.27
307.18	1249.26
307.39	1263.60
307.61	1296.36
307.82	1279.98
308.04	1263.60
308.25	1224.69
308.46	1236.97
308.68	1271.79
308.89	1255.40
309.10	1247.21
309.32	1290.22
309.53	1296.36
309.74	1269.74
309.96	1298.41
310.17	1251.31
310.39	1228.78
310.60	1273.84
310.81	1284.08
311.03	1327.08
311.24	1210.35
311.45	1314.80
311.67	1277.93
311.88	1251.31
312.09	1239.02
312.31	1232.88
312.52	1271.79
312.73	1273.84
312.95	1210.35
313.16	1284.08
313.37	1296.36
313.59	1251.31
313.80	1327.08
314.01	1243.12
314.23	1308.65
314.44	1263.60
314.65	1234.93
314.87	1177.58
315.08	1251.31
315.29	1257.45
315.51	1261.55
315.72	1318.89
315.93	1286.12
316.15	1239.02
316.36	1236.97
316.57	1269.74
316.79	1212.40
317.00	1236.97
317.21	1357.80
317.43	1247.21
317.64	1265.64
317.85	1282.03
318.07	1290.22
318.28	1261.55
318.49	1279.98
318.70	1247.21
318.92	1284.08
319.13	1236.97
319.34	1263.60
319.56	1275.88
319.77	1269.74
319.98	1255.40
320.20	1247.21
320.41	1259.50
320.62	1279.98
320.83	1310.70
321.05	1302.51
321.26	1327.08
321.47	1243.12
321.69	1261.55
321.90	1212.40
322.11	1257.45
322.32	1261.55
322.54	1279.98
322.75	1263.60
322.96	1351.66
323.18	1222.64
323.39	1292.27
323.60	1222.64
323.81	1259.50
324.03	1302.51
324.24	1306.60
324.45	1193.97
324.66	1259.50
324.88	1292.27
325.09	1339.37
325.30	1296.36
325.52	1241.07
325.73	1249.26
325.94	1265.64
326.15	1265.64
326.37	1196.01
326.58	1310.70
326.79	1226.73
327.00	1251.31
327.22	1265.64
327.43	1245.16
327.64	1236.97
327.85	1288.17
328.07	1304.56
328.28	1275.88
328.49	1239.02
328.70	1279.98
328.92	1279.98
329.13	1298.41
329.34	1204.21
329.55	1253.36
329.76	1273.84
329.98	1247.21
330.19	1275.88
330.40	1259.50
330.61	1337.32
330.83	1284.08
331.04	1249.26
331.25	1228.78
331.46	1247.21
331.68	1290.22
331.89	1277.93
332.10	1232.88
332.31	1263.60
332.52	1284.08
332.74	1286.12
332.95	1249.26
333.16	1255.40
333.37	1300.46
333.58	1216.49
333.80	1292.27
334.01	1322.99
334.22	1273.84
334.43	1220.59
334.64	1290.22
334.86	1314.80
335.07	1347.56
335.28	1282.03
335.49	1226.73
335.70	1210.35
335.92	1347.56
336.13	1210.35
336.34	1251.31
336.55	1298.41
336.76	1243.12
336.98	1249.26
337.19	1310.70
337.40	1259.50
337.61	1249.26
337.82	1265.64
338.04	1263.60
338.25	1255.40
338.46	1255.40
338.67	1267.69
338.88	1282.03
339.09	1181.68
339.31	1232.88
339.52	1243.12
339.73	1226.73
339.94	1322.99
340.15	1286.12
340.36	1302.51
340.58	1245.16
340.79	1239.02
341.00	1288.17
341.21	1318.89
341.42	1294.32
341.63	1239.02
341.85	1241.07
342.06	1310.70
342.27	1292.27
342.48	1273.84
342.69	1279.98
342.90	1314.80
343.12	1357.80
343.33	1308.65
343.54	1232.88
343.75	1257.45
343.96	1265.64
344.17	1322.99
344.38	1269.74
344.60	1267.69
344.81	1216.49
345.02	1253.36
345.23	1224.69
345.44	1243.12
345.65	1376.24
345.86	1302.51
346.07	1247.21
346.29	1216.49
346.50	1232.88
346.71	1236.97
346.92	1310.70
347.13	1306.60
347.34	1189.87
347.55	1265.64
347.76	1261.55
347.98	1232.88
348.19	1228.78
348.40	1261.55
348.61	1300.46
348.82	1304.56
349.03	1286.12
349.24	1263.60
349.45	1320.94
349.66	1218.54
349.88	1241.07
350.09	1282.03
350.30	1312.75
350.51	1318.89
350.72	1216.49
350.93	1253.36
351.14	1298.41
351.35	1286.12
351.56	1267.69
351.77	1273.84
351.99	1322.99
352.20	1239.02
352.41	1271.79
352.62	1282.03
352.83	1275.88
353.04	1249.26
353.25	1282.03
353.46	1259.50
353.67	1292.27
353.88	1267.69
354.09	1314.80
354.30	1308.65
354.52	1269.74
354.73	1236.97
354.94	1277.93
355.15	1175.53
355.36	1290.22
355.57	1290.22
355.78	1265.64
355.99	1243.12
356.20	1271.79
356.41	1236.97
356.62	1314.80
356.83	1253.36
357.04	1290.22
357.25	1288.17
357.46	1259.50
357.68	1222.64
357.89	1302.51
358.10	1271.79
358.31	1300.46
358.52	1302.51
358.73	1322.99
358.94	1245.16
359.15	1269.74
359.36	1261.55
359.57	1218.54
359.78	1302.51
359.99	1286.12
360.20	1239.02
360.41	1206.25
360.62	1265.64
360.83	1241.07
361.04	1378.28
361.25	1327.08
361.46	1271.79
361.67	1318.89
361.88	1298.41
362.09	1296.36
362.30	1249.26
362.51	1345.52
362.72	1196.01
362.93	1361.90
363.14	1282.03
363.35	1296.36
363.56	1290.22
363.78	1277.93
363.99	1279.98
364.20	1267.69
364.41	1257.45
364.62	1263.60
364.83	1243.12
365.04	1261.55
365.25	1239.02
365.46	1263.60
365.67	1257.45
365.88	1189.87
366.09	1275.88
366.30	1232.88
366.51	1310.70
366.72	1343.47
366.93	1269.74
367.14	1306.60
367.35	1304.56
367.56	1218.54
367.77	1286.12
367.98	1251.31
368.18	1257.45
368.39	1245.16
368.60	1282.03
368.81	1261.55
369.02	1284.08
369.23	1279.98
369.44	1234.93
369.65	1220.59
369.86	1294.32
370.07	1318.89
370.28	1236.97
370.49	1318.89
370.70	1204.21
370.91	1255.40
371.12	1279.98
371.33	1277.93
371.54	1316.84
371.75	1327.08
371.96	1243.12
372.17	1277.93
372.38	1279.98
372.59	1298.41
372.80	1259.50
373.01	1259.50
373.22	1236.97
373.43	1279.98
373.64	1302.51
373.85	1298.41
374.06	1312.75
374.26	1251.31
374.47	1314.80
374.68	1236.97
374.89	1298.41
375.10	1300.46
375.31	1257.45
375.52	1261.55
375.73	1298.41
375.94	1241.07
376.15	1302.51
376.36	1247.21
376.57	1300.46
376.78	1224.69
376.99	1261.55
377.20	1230.83
377.40	1267.69
377.61	1282.03
377.82	1265.64
378.03	1251.31
378.24	1284.08
378.45	1204.21
378.66	1243.12
378.87	1282.03
379.08	1253.36
379.29	1245.16
379.50	1236.97
379.71	1331.18
379.91	1255.40
380.12	1251.31
380.33	1253.36
380.54	1259.50
380.75	1275.88
380.96	1249.26
381.17	1228.78
381.38	1220.59
381.59	1265.64
381.80	1339.37
382.00	1322.99
382.21	1249.26
382.42	1304.56
382.63	1273.84
382.84	1249.26
383.05	1296.36
383.26	1282.03
383.47	1249.26
383.68	1290.22
383.88	1247.21
384.09	1288.17
384.30	1200.11
384.51	1198.06
384.72	1214.45
384.93	1294.32
385.14	1216.49
385.35	1163.25
385.55	1206.25
385.76	1239.02
385.97	1239.02
386.18	1261.55
386.39	1279.98
386.60	1335.28
386.81	1241.07
387.02	1249.26
387.22	1304.56
387.43	1296.36
387.64	1329.13
387.85	1249.26
388.06	1204.21
388.27	1253.36
388.48	1282.03
388.68	1308.65
388.89	1198.06
389.10	1222.64
389.31	1302.51
389.52	1288.17
389.73	1286.12
389.93	1320.94
390.14	1333.23
390.35	1292.27
390.56	1224.69
390.77	1341.42
390.98	1273.84
391.18	1257.45
391.39	1259.50
391.60	1318.89
391.81	1253.36
392.02	1249.26
392.23	1214.45
392.43	1212.40
392.64	1218.54
392.85	1310.70
393.06	1255.40
393.27	1263.60
393.47	1300.46
393.68	1253.36
393.89	1210.35
394.10	1286.12
394.31	1277.93
394.52	1218.54
394.72	1263.60
394.93	1245.16
395.14	1212.40
395.35	1263.60
395.56	1228.78
395.76	1239.02
395.97	1206.25
396.18	1249.26
396.39	1243.12
396.60	1271.79
396.80	1351.66
397.01	1284.08
397.22	1261.55
397.43	1263.60
397.64	1286.12
397.84	1259.50
398.05	1179.63
398.26	1314.80
398.47	1261.55
398.67	1282.03
398.88	1212.40
399.09	1271.79
399.30	1325.04
399.51	1216.49
399.71	1259.50
399.92	1318.89
400.13	1329.13
400.34	1329.13
400.54	1210.35
400.75	1265.64
400.96	1292.27
401.17	1304.56
401.37	1271.79
401.58	1263.60
401.79	1331.18
402.00	1267.69
402.21	1228.78
402.41	1288.17
402.62	1300.46
402.83	1363.95
403.04	1255.40
403.24	1228.78
403.45	1271.79
403.66	1241.07
403.87	1243.12
404.07	1271.79
404.28	1327.08
404.49	1198.06
404.70	1167.34
404.90	1279.98
405.11	1304.56
405.32	1257.45
405.52	1279.98
405.73	1290.22
405.94	1228.78
406.15	1271.79
406.35	1222.64
406.56	1243.12
406.77	1206.25
406.98	1300.46
407.18	1269.74
407.39	1224.69
407.60	1290.22
407.80	1214.45
408.01	1214.45
408.22	1247.21
408.43	1279.98
408.63	1279.98
408.84	1271.79
409.05	1198.06
409.25	1286.12
409.46	1304.56
409.67	1296.36
409.88	1234.93
410.08	1273.84
410.29	1253.36
410.50	1275.88
410.70	1286.12
410.91	1267.69
411.12	1214.45
411.32	1204.21
411.53	1212.40
411.74	1265.64
411.95	1245.16
412.15	1245.16
412.36	1279.98
412.57	1243.12
412.77	1279.98
412.98	1288.17
413.19	1226.73
413.39	1269.74
413.60	1294.32
413.81	1243.12
414.01	1284.08
414.22	1337.32
414.43	1253.36
414.63	1351.66
414.84	1308.65
415.05	1302.51
415.25	1271.79
415.46	1146.86
415.67	1279.98
415.87	1288.17
416.08	1310.70
416.29	1279.98
416.49	1220.59
416.70	1253.36
416.91	1265.64
417.11	1310.70
417.32	1241.07
417.53	1247.21
417.73	1282.03
417.94	1269.74
418.15	1247.21
418.35	1302.51
418.56	1292.27
418.77	1312.75
418.97	1265.64
419.18	1216.49
419.38	1241.07
419.59	1302.51
419.80	1273.84
420.00	1257.45
420.21	1292.27
420.42	1288.17
420.62	1253.36
420.83	1226.73
421.04	1304.56
421.24	1269.74
421.45	1175.53
421.65	1267.69
421.86	1251.31
422.07	1275.88
422.27	1255.40
422.48	1282.03
422.69	1300.46
422.89	1226.73
423.10	1290.22
423.30	1294.32
423.51	1239.02
423.72	1249.26
423.92	1302.51
424.13	1236.97
424.33	1273.84
424.54	1282.03
424.75	1196.01
424.95	1286.12
425.16	1241.07
425.36	1230.83
425.57	1224.69
425.78	1261.55
425.98	1234.93
426.19	1241.07
426.39	1255.40
426.60	1277.93
426.81	1310.70
427.01	1306.60
427.22	1267.69
427.42	1294.32
427.63	1257.45
427.83	1275.88
428.04	1296.36
428.25	1339.37
428.45	1331.18
428.66	1255.40
428.86	1312.75
429.07	1232.88
429.28	1378.28
429.48	1302.51
429.69	1279.98
429.89	1193.97
430.10	1210.35
430.30	1239.02
430.51	1325.04
430.71	1314.80
430.92	1220.59
431.13	1247.21
431.33	1316.84
431.54	1243.12
431.74	1265.64
431.95	1320.94
432.15	1296.36
432.36	1200.11
432.56	1282.03
432.77	1236.97
432.98	1243.12
433.18	1271.79
433.39	1245.16
433.59	1288.17
433.80	1304.56
434.00	1232.88
434.21	1271.79
434.41	1249.26
434.62	1277.93
434.82	1265.64
435.03	1245.16
435.23	1269.74
435.44	1204.21
435.64	1271.79
435.85	1234.93
436.06	1253.36
436.26	1290.22
436.47	1304.56
436.67	1312.75
436.88	1255.40
437.08	1255.40
437.29	1320.94
437.49	1257.45
437.70	1318.89
437.90	1271.79
438.11	1282.03
438.31	1257.45
438.52	1218.54
438.72	1296.36
438.93	1282.03
439.13	1284.08
439.34	1294.32
439.54	1249.26
439.75	1232.88
439.95	1222.64
440.16	1247.21
440.36	1296.36
440.57	1320.94
440.77	1273.84
440.98	1327.08
441.18	1284.08
441.39	1269.74
441.59	1259.50
441.80	1277.93
442.00	1241.07
442.21	1275.88
442.41	1269.74
442.62	1277.93
442.82	1294.32
443.02	1249.26
443.23	1251.31
443.43	1263.60
443.64	1271.79
443.84	1284.08
444.05	1353.71
444.25	1243.12
444.46	1314.80
444.66	1304.56
444.87	1255.40
445.07	1282.03
445.28	1241.07
445.48	1345.52
445.69	1298.41
445.89	1255.40
446.09	1288.17
446.30	1329.13
446.50	1239.02
446.71	1263.60
446.91	1271.79
447.12	1290.22
447.32	1290.22
447.53	1208.30
447.73	1302.51
447.93	1189.87
448.14	1290.22
448.34	1255.40
448.55	1267.69
448.75	1259.50
448.96	1282.03
449.16	1277.93
449.36	1253.36
449.57	1255.40
449.77	1294.32
449.98	1273.84
450.18	1306.60
450.39	1234.93
450.59	1296.36
450.79	1224.69
451.00	1282.03
451.20	1294.32
451.41	1300.46
451.61	1329.13
451.81	1294.32
452.02	1306.60
452.22	1275.88
452.43	1234.93
452.63	1191.92
