SpectraSuite Data File
++++++++++++++++++++++++++++++++++++
Date: Sun Apr 03 19:55:19 CEST 2016
User: root
Dark Spectrum Present: No
Reference Spectrum Present: No
Number of Sampled Component Spectra: 1
Spectrometers: USB4C02835
Integration Time (usec): 10000 (USB4C02835)
Spectra Averaged: 1 (USB4C02835)
Boxcar Smoothing: 0 (USB4C02835)
Correct for Electrical Dark: No (USB4C02835)
Strobe/Lamp Enabled: No (USB4C02835)
Correct for Detector Non-linearity: No (USB4C02835)
Correct for Stray Light: No (USB4C02835)
Number of Pixels in Processed Spectrum: 3648
>>>>>Begin Processed Spectral Data<<<<<
177.47	1275.88
177.69	1275.88
177.91	1275.88
178.13	1232.88
178.36	1226.73
178.58	1208.30
178.80	1243.12
179.02	1263.60
179.24	1308.65
179.46	1308.65
179.68	1363.95
179.90	1245.16
180.13	1296.36
180.35	1224.69
180.57	1220.59
180.79	1292.27
181.01	1259.50
181.23	1216.49
181.45	1259.50
181.67	1267.69
181.90	1265.64
182.12	1247.21
182.34	1294.32
182.56	1222.64
182.78	1306.60
183.00	1257.45
183.22	1290.22
183.44	1212.40
183.66	1239.02
183.89	1306.60
184.11	1222.64
184.33	1255.40
184.55	1314.80
184.77	1230.83
184.99	1304.56
185.21	1183.73
185.43	1243.12
185.65	1306.60
185.87	1214.45
186.10	1232.88
186.32	1267.69
186.54	1196.01
186.76	1279.98
186.98	1261.55
187.20	1255.40
187.42	1286.12
187.64	1296.36
187.86	1277.93
188.08	1306.60
188.30	1210.35
188.52	1329.13
188.75	1255.40
188.97	1286.12
189.19	1222.64
189.41	1253.36
189.63	1267.69
189.85	1263.60
190.07	1310.70
190.29	1279.98
190.51	1267.69
190.73	1312.75
190.95	1241.07
191.17	1263.60
191.39	1261.55
191.61	1239.02
191.84	1310.70
192.06	1277.93
192.28	1247.21
192.50	1312.75
192.72	1263.60
192.94	1296.36
193.16	1282.03
193.38	1212.40
193.60	1320.94
193.82	1210.35
194.04	1273.84
194.26	1284.08
194.48	1263.60
194.70	1257.45
194.92	1275.88
195.14	1191.92
195.36	1284.08
195.58	1298.41
195.80	1302.51
196.02	1253.36
196.24	1243.12
196.46	1239.02
196.69	1273.84
196.91	1249.26
197.13	1273.84
197.35	1322.99
197.57	1294.32
197.79	1271.79
198.01	1261.55
198.23	1187.82
198.45	1249.26
198.67	1286.12
198.89	1277.93
199.11	1255.40
199.33	1275.88
199.55	1294.32
199.77	1275.88
199.99	1277.93
200.21	1263.60
200.43	1202.16
200.65	1290.22
200.87	1255.40
201.09	1228.78
201.31	1343.47
201.53	1290.22
201.75	1198.06
201.97	1191.92
202.19	1253.36
202.41	1249.26
202.63	1333.23
202.85	1271.79
203.07	1306.60
203.29	1267.69
203.51	1286.12
203.73	1249.26
203.95	1331.18
204.17	1251.31
204.39	1224.69
204.61	1191.92
204.83	1271.79
205.05	1255.40
205.27	1259.50
205.49	1277.93
205.71	1347.56
205.93	1267.69
206.15	1243.12
206.37	1226.73
206.59	1310.70
206.81	1257.45
207.03	1271.79
207.25	1290.22
207.47	1304.56
207.69	1224.69
207.91	1370.09
208.13	1224.69
208.34	1312.75
208.56	1308.65
208.78	1329.13
209.00	1320.94
209.22	1284.08
209.44	1181.68
209.66	1265.64
209.88	1212.40
210.10	1210.35
210.32	1314.80
210.54	1335.28
210.76	1275.88
210.98	1267.69
211.20	1286.12
211.42	1286.12
211.64	1265.64
211.86	1181.68
212.08	1265.64
212.30	1355.76
212.52	1273.84
212.74	1290.22
212.96	1245.16
213.17	1282.03
213.39	1273.84
213.61	1263.60
213.83	1327.08
214.05	1271.79
214.27	1239.02
214.49	1218.54
214.71	1273.84
214.93	1312.75
215.15	1273.84
215.37	1304.56
215.59	1257.45
215.81	1292.27
216.03	1302.51
216.24	1296.36
216.46	1245.16
216.68	1259.50
216.90	1255.40
217.12	1241.07
217.34	1298.41
217.56	1245.16
217.78	1329.13
218.00	1308.65
218.22	1310.70
218.44	1310.70
218.66	1206.25
218.87	1294.32
219.09	1267.69
219.31	1220.59
219.53	1228.78
219.75	1236.97
219.97	1234.93
220.19	1302.51
220.41	1222.64
220.63	1284.08
220.85	1208.30
221.06	1339.37
221.28	1275.88
221.50	1187.82
221.72	1294.32
221.94	1304.56
222.16	1261.55
222.38	1257.45
222.60	1288.17
222.82	1265.64
223.03	1255.40
223.25	1218.54
223.47	1255.40
223.69	1243.12
223.91	1204.21
224.13	1249.26
224.35	1290.22
224.57	1232.88
224.78	1325.04
225.00	1232.88
225.22	1220.59
225.44	1316.84
225.66	1275.88
225.88	1284.08
226.10	1271.79
226.32	1263.60
226.53	1273.84
226.75	1265.64
226.97	1296.36
227.19	1261.55
227.41	1263.60
227.63	1298.41
227.85	1222.64
228.06	1327.08
228.28	1257.45
228.50	1282.03
228.72	1300.46
228.94	1271.79
229.16	1290.22
229.37	1282.03
229.59	1290.22
229.81	1282.03
230.03	1325.04
230.25	1294.32
230.47	1277.93
230.69	1232.88
230.90	1257.45
231.12	1236.97
231.34	1247.21
231.56	1292.27
231.78	1204.21
232.00	1271.79
232.21	1234.93
232.43	1193.97
232.65	1259.50
232.87	1308.65
233.09	1279.98
233.30	1286.12
233.52	1247.21
233.74	1339.37
233.96	1267.69
234.18	1259.50
234.40	1255.40
234.61	1218.54
234.83	1198.06
235.05	1234.93
235.27	1296.36
235.49	1282.03
235.70	1265.64
235.92	1255.40
236.14	1226.73
236.36	1288.17
236.58	1298.41
236.79	1214.45
237.01	1222.64
237.23	1243.12
237.45	1267.69
237.67	1286.12
237.88	1191.92
238.10	1247.21
238.32	1310.70
238.54	1269.74
238.76	1318.89
238.97	1335.28
239.19	1259.50
239.41	1267.69
239.63	1214.45
239.85	1185.77
240.06	1269.74
240.28	1294.32
240.50	1210.35
240.72	1255.40
240.93	1286.12
241.15	1249.26
241.37	1228.78
241.59	1273.84
241.81	1284.08
242.02	1320.94
242.24	1179.63
242.46	1226.73
242.68	1288.17
242.89	1318.89
243.11	1310.70
243.33	1204.21
243.55	1257.45
243.76	1279.98
243.98	1253.36
244.20	1279.98
244.42	1261.55
244.64	1302.51
244.85	1210.35
245.07	1286.12
245.29	1302.51
245.51	1222.64
245.72	1300.46
245.94	1347.56
246.16	1249.26
246.38	1337.32
246.59	1236.97
246.81	1288.17
247.03	1277.93
247.24	1216.49
247.46	1282.03
247.68	1161.20
247.90	1275.88
248.11	1298.41
248.33	1253.36
248.55	1298.41
248.77	1220.59
248.98	1298.41
249.20	1310.70
249.42	1224.69
249.64	1300.46
249.85	1234.93
250.07	1343.47
250.29	1173.49
250.50	1245.16
250.72	1290.22
250.94	1310.70
251.16	1294.32
251.37	1251.31
251.59	1318.89
251.81	1247.21
252.02	1226.73
252.24	1175.53
252.46	1241.07
252.68	1318.89
252.89	1318.89
253.11	1282.03
253.33	1286.12
253.54	1236.97
253.76	1261.55
253.98	1292.27
254.20	1308.65
254.41	1286.12
254.63	1290.22
254.85	1241.07
255.06	1253.36
255.28	1224.69
255.50	1224.69
255.71	1282.03
255.93	1273.84
256.15	1298.41
256.36	1263.60
256.58	1294.32
256.80	1236.97
257.02	1296.36
257.23	1269.74
257.45	1271.79
257.67	1245.16
257.88	1271.79
258.10	1292.27
258.32	1279.98
258.53	1216.49
258.75	1261.55
258.97	1337.32
259.18	1247.21
259.40	1251.31
259.62	1269.74
259.83	1253.36
260.05	1257.45
260.27	1310.70
260.48	1249.26
260.70	1329.13
260.92	1232.88
261.13	1257.45
261.35	1220.59
261.57	1277.93
261.78	1243.12
262.00	1290.22
262.22	1249.26
262.43	1263.60
262.65	1322.99
262.86	1263.60
263.08	1302.51
263.30	1243.12
263.51	1271.79
263.73	1312.75
263.95	1284.08
264.16	1261.55
264.38	1339.37
264.60	1267.69
264.81	1318.89
265.03	1243.12
265.25	1277.93
265.46	1288.17
265.68	1247.21
265.89	1353.71
266.11	1306.60
266.33	1292.27
266.54	1277.93
266.76	1263.60
266.98	1230.83
267.19	1294.32
267.41	1249.26
267.62	1275.88
267.84	1284.08
268.06	1267.69
268.27	1343.47
268.49	1271.79
268.70	1277.93
268.92	1359.85
269.14	1286.12
269.35	1255.40
269.57	1310.70
269.79	1290.22
270.00	1206.25
270.22	1320.94
270.43	1308.65
270.65	1236.97
270.87	1296.36
271.08	1265.64
271.30	1232.88
271.51	1306.60
271.73	1183.73
271.95	1193.97
272.16	1241.07
272.38	1343.47
272.59	1263.60
272.81	1269.74
273.02	1230.83
273.24	1249.26
273.46	1267.69
273.67	1288.17
273.89	1277.93
274.10	1310.70
274.32	1296.36
274.54	1271.79
274.75	1269.74
274.97	1245.16
275.18	1241.07
275.40	1277.93
275.61	1228.78
275.83	1308.65
276.05	1185.77
276.26	1290.22
276.48	1277.93
276.69	1306.60
276.91	1222.64
277.12	1290.22
277.34	1245.16
277.55	1226.73
277.77	1232.88
277.99	1298.41
278.20	1206.25
278.42	1271.79
278.63	1286.12
278.85	1189.87
279.06	1302.51
279.28	1316.84
279.49	1167.34
279.71	1304.56
279.93	1277.93
280.14	1224.69
280.36	1284.08
280.57	1306.60
280.79	1234.93
281.00	1249.26
281.22	1273.84
281.43	1261.55
281.65	1284.08
281.86	1212.40
282.08	1218.54
282.29	1271.79
282.51	1282.03
282.73	1290.22
282.94	1247.21
283.16	1273.84
283.37	1249.26
283.59	1290.22
283.80	1230.83
284.02	1263.60
284.23	1284.08
284.45	1306.60
284.66	1179.63
284.88	1290.22
285.09	1284.08
285.31	1306.60
285.52	1257.45
285.74	1286.12
285.95	1327.08
286.17	1249.26
286.38	1273.84
286.60	1310.70
286.81	1282.03
287.03	1304.56
287.24	1273.84
287.46	1218.54
287.67	1226.73
287.89	1279.98
288.10	1304.56
288.32	1232.88
288.53	1263.60
288.75	1226.73
288.96	1236.97
289.18	1273.84
289.39	1308.65
289.61	1349.61
289.82	1245.16
290.04	1327.08
290.25	1271.79
290.47	1306.60
290.68	1253.36
290.90	1245.16
291.11	1251.31
291.33	1239.02
291.54	1306.60
291.76	1327.08
291.97	1273.84
292.18	1279.98
292.40	1310.70
292.61	1257.45
292.83	1208.30
293.04	1208.30
293.26	1304.56
293.47	1327.08
293.69	1271.79
293.90	1290.22
294.12	1308.65
294.33	1218.54
294.55	1230.83
294.76	1288.17
294.97	1316.84
295.19	1269.74
295.40	1312.75
295.62	1325.04
295.83	1228.78
296.05	1271.79
296.26	1355.76
296.48	1279.98
296.69	1259.50
296.90	1290.22
297.12	1245.16
297.33	1318.89
297.55	1275.88
297.76	1271.79
297.98	1243.12
298.19	1253.36
298.41	1275.88
298.62	1273.84
298.83	1294.32
299.05	1320.94
299.26	1322.99
299.48	1228.78
299.69	1316.84
299.90	1271.79
300.12	1253.36
300.33	1314.80
300.55	1302.51
300.76	1208.30
300.98	1208.30
301.19	1290.22
301.40	1198.06
301.62	1214.45
301.83	1241.07
302.05	1271.79
302.26	1216.49
302.47	1265.64
302.69	1296.36
302.90	1265.64
303.12	1218.54
303.33	1288.17
303.54	1206.25
303.76	1224.69
303.97	1257.45
304.19	1249.26
304.40	1314.80
304.61	1300.46
304.83	1257.45
305.04	1214.45
305.26	1257.45
305.47	1206.25
305.68	1230.83
305.90	1247.21
306.11	1253.36
306.33	1269.74
306.54	1259.50
306.75	1318.89
306.97	1230.83
307.18	1228.78
307.39	1294.32
307.61	1265.64
307.82	1286.12
308.04	1222.64
308.25	1327.08
308.46	1185.77
308.68	1232.88
308.89	1208.30
309.10	1288.17
309.32	1267.69
309.53	1234.93
309.74	1329.13
309.96	1277.93
310.17	1290.22
310.39	1314.80
310.60	1253.36
310.81	1210.35
311.03	1335.28
311.24	1300.46
311.45	1239.02
311.67	1304.56
311.88	1277.93
312.09	1232.88
312.31	1245.16
312.52	1247.21
312.73	1337.32
312.95	1243.12
313.16	1232.88
313.37	1273.84
313.59	1273.84
313.80	1282.03
314.01	1214.45
314.23	1191.92
314.44	1273.84
314.65	1185.77
314.87	1224.69
315.08	1253.36
315.29	1310.70
315.51	1265.64
315.72	1320.94
315.93	1294.32
316.15	1271.79
316.36	1271.79
316.57	1273.84
316.79	1226.73
317.00	1271.79
317.21	1269.74
317.43	1275.88
317.64	1325.04
317.85	1228.78
318.07	1251.31
318.28	1265.64
318.49	1259.50
318.70	1308.65
318.92	1263.60
319.13	1261.55
319.34	1251.31
319.56	1247.21
319.77	1232.88
319.98	1247.21
320.20	1210.35
320.41	1331.18
320.62	1224.69
320.83	1267.69
321.05	1339.37
321.26	1243.12
321.47	1230.83
321.69	1216.49
321.90	1253.36
322.11	1249.26
322.32	1214.45
322.54	1294.32
322.75	1290.22
322.96	1288.17
323.18	1263.60
323.39	1259.50
323.60	1279.98
323.81	1243.12
324.03	1230.83
324.24	1298.41
324.45	1214.45
324.66	1196.01
324.88	1245.16
325.09	1302.51
325.30	1310.70
325.52	1249.26
325.73	1181.68
325.94	1187.82
326.15	1288.17
326.37	1224.69
326.58	1294.32
326.79	1298.41
327.00	1290.22
327.22	1300.46
327.43	1249.26
327.64	1232.88
327.85	1363.95
328.07	1257.45
328.28	1247.21
328.49	1230.83
328.70	1267.69
328.92	1294.32
329.13	1253.36
329.34	1314.80
329.55	1255.40
329.76	1189.87
329.98	1282.03
330.19	1294.32
330.40	1251.31
330.61	1253.36
330.83	1284.08
331.04	1265.64
331.25	1239.02
331.46	1304.56
331.68	1232.88
331.89	1325.04
332.10	1290.22
332.31	1269.74
332.52	1257.45
332.74	1259.50
332.95	1327.08
333.16	1249.26
333.37	1298.41
333.58	1263.60
333.80	1228.78
334.01	1183.73
334.22	1279.98
334.43	1294.32
334.64	1286.12
334.86	1279.98
335.07	1261.55
335.28	1318.89
335.49	1230.83
335.70	1255.40
335.92	1257.45
336.13	1282.03
336.34	1212.40
336.55	1331.18
336.76	1318.89
336.98	1169.39
337.19	1257.45
337.40	1271.79
337.61	1175.53
337.82	1308.65
338.04	1243.12
338.25	1286.12
338.46	1290.22
338.67	1247.21
338.88	1271.79
339.09	1304.56
339.31	1378.28
339.52	1251.31
339.73	1290.22
339.94	1232.88
340.15	1236.97
340.36	1310.70
340.58	1279.98
340.79	1247.21
341.00	1298.41
341.21	1300.46
341.42	1232.88
341.63	1198.06
341.85	1204.21
342.06	1253.36
342.27	1245.16
342.48	1288.17
342.69	1228.78
342.90	1286.12
343.12	1288.17
343.33	1224.69
343.54	1245.16
343.75	1261.55
343.96	1222.64
344.17	1181.68
344.38	1257.45
344.60	1259.50
344.81	1257.45
345.02	1267.69
345.23	1269.74
345.44	1302.51
345.65	1251.31
345.86	1277.93
346.07	1222.64
346.29	1298.41
346.50	1339.37
346.71	1275.88
346.92	1271.79
347.13	1261.55
347.34	1337.32
347.55	1251.31
347.76	1298.41
347.98	1257.45
348.19	1282.03
348.40	1269.74
348.61	1359.85
348.82	1200.11
349.03	1136.62
349.24	1288.17
349.45	1222.64
349.66	1271.79
349.88	1214.45
350.09	1232.88
350.30	1363.95
350.51	1247.21
350.72	1245.16
350.93	1191.92
351.14	1273.84
351.35	1220.59
351.56	1196.01
351.77	1236.97
351.99	1198.06
352.20	1230.83
352.41	1245.16
352.62	1296.36
352.83	1220.59
353.04	1273.84
353.25	1228.78
353.46	1284.08
353.67	1257.45
353.88	1265.64
354.09	1327.08
354.30	1247.21
354.52	1236.97
354.73	1339.37
354.94	1241.07
355.15	1198.06
355.36	1261.55
355.57	1257.45
355.78	1273.84
355.99	1210.35
356.20	1304.56
356.41	1259.50
356.62	1292.27
356.83	1257.45
357.04	1228.78
357.25	1265.64
357.46	1198.06
357.68	1300.46
357.89	1257.45
358.10	1277.93
358.31	1220.59
358.52	1179.63
358.73	1239.02
358.94	1261.55
359.15	1298.41
359.36	1322.99
359.57	1253.36
359.78	1279.98
359.99	1327.08
360.20	1210.35
360.41	1351.66
360.62	1224.69
360.83	1249.26
361.04	1335.28
361.25	1259.50
361.46	1271.79
361.67	1290.22
361.88	1263.60
362.09	1386.47
362.30	1236.97
362.51	1347.56
362.72	1218.54
362.93	1196.01
363.14	1322.99
363.35	1343.47
363.56	1273.84
363.78	1267.69
363.99	1259.50
364.20	1269.74
364.41	1216.49
364.62	1294.32
364.83	1294.32
365.04	1241.07
365.25	1257.45
365.46	1273.84
365.67	1247.21
365.88	1304.56
366.09	1267.69
366.30	1273.84
366.51	1261.55
366.72	1239.02
366.93	1263.60
367.14	1288.17
367.35	1257.45
367.56	1294.32
367.77	1294.32
367.98	1267.69
368.18	1271.79
368.39	1228.78
368.60	1267.69
368.81	1263.60
369.02	1314.80
369.23	1308.65
369.44	1259.50
369.65	1345.52
369.86	1236.97
370.07	1249.26
370.28	1261.55
370.49	1216.49
370.70	1284.08
370.91	1296.36
371.12	1253.36
371.33	1230.83
371.54	1193.97
371.75	1269.74
371.96	1288.17
372.17	1251.31
372.38	1265.64
372.59	1222.64
372.80	1228.78
373.01	1243.12
373.22	1236.97
373.43	1267.69
373.64	1312.75
373.85	1267.69
374.06	1277.93
374.26	1236.97
374.47	1232.88
374.68	1222.64
374.89	1267.69
375.10	1251.31
375.31	1265.64
375.52	1261.55
375.73	1234.93
375.94	1271.79
376.15	1261.55
376.36	1261.55
376.57	1249.26
376.78	1298.41
376.99	1206.25
377.20	1245.16
377.40	1249.26
377.61	1279.98
377.82	1292.27
378.03	1214.45
378.24	1304.56
378.45	1288.17
378.66	1294.32
378.87	1232.88
379.08	1220.59
379.29	1277.93
379.50	1273.84
379.71	1210.35
379.91	1284.08
380.12	1206.25
380.33	1267.69
380.54	1275.88
380.75	1273.84
380.96	1234.93
381.17	1206.25
381.38	1290.22
381.59	1292.27
381.80	1314.80
382.00	1331.18
382.21	1279.98
382.42	1247.21
382.63	1347.56
382.84	1251.31
383.05	1261.55
383.26	1230.83
383.47	1243.12
383.68	1306.60
383.88	1247.21
384.09	1255.40
384.30	1284.08
384.51	1257.45
384.72	1216.49
384.93	1243.12
385.14	1296.36
385.35	1234.93
385.55	1292.27
385.76	1290.22
385.97	1304.56
386.18	1275.88
386.39	1282.03
386.60	1259.50
386.81	1267.69
387.02	1300.46
387.22	1265.64
387.43	1247.21
387.64	1271.79
387.85	1368.04
388.06	1279.98
388.27	1239.02
388.48	1241.07
388.68	1273.84
388.89	1255.40
389.10	1234.93
389.31	1316.84
389.52	1212.40
389.73	1245.16
389.93	1312.75
390.14	1341.42
390.35	1261.55
390.56	1267.69
390.77	1282.03
390.98	1214.45
391.18	1265.64
391.39	1304.56
391.60	1296.36
391.81	1290.22
392.02	1304.56
392.23	1232.88
392.43	1239.02
392.64	1310.70
392.85	1243.12
393.06	1273.84
393.27	1269.74
393.47	1267.69
393.68	1275.88
393.89	1259.50
394.10	1292.27
394.31	1273.84
394.52	1292.27
394.72	1282.03
394.93	1193.97
395.14	1255.40
395.35	1187.82
395.56	1275.88
395.76	1218.54
395.97	1331.18
396.18	1320.94
396.39	1257.45
396.60	1284.08
396.80	1257.45
397.01	1261.55
397.22	1267.69
397.43	1249.26
397.64	1196.01
397.84	1212.40
398.05	1234.93
398.26	1294.32
398.47	1263.60
398.67	1306.60
398.88	1247.21
399.09	1247.21
399.30	1181.68
399.51	1286.12
399.71	1282.03
399.92	1292.27
400.13	1263.60
400.34	1284.08
400.54	1253.36
400.75	1236.97
400.96	1261.55
401.17	1302.51
401.37	1187.82
401.58	1261.55
401.79	1294.32
402.00	1279.98
402.21	1259.50
402.41	1249.26
402.62	1277.93
402.83	1288.17
403.04	1298.41
403.24	1249.26
403.45	1288.17
403.66	1218.54
403.87	1245.16
404.07	1243.12
404.28	1236.97
404.49	1275.88
404.70	1249.26
404.90	1294.32
405.11	1320.94
405.32	1265.64
405.52	1265.64
405.73	1212.40
405.94	1277.93
406.15	1279.98
406.35	1267.69
406.56	1302.51
406.77	1282.03
406.98	1329.13
407.18	1230.83
407.39	1277.93
407.60	1277.93
407.80	1279.98
408.01	1257.45
408.22	1273.84
408.43	1232.88
408.63	1284.08
408.84	1228.78
409.05	1296.36
409.25	1361.90
409.46	1255.40
409.67	1245.16
409.88	1339.37
410.08	1224.69
410.29	1288.17
410.50	1247.21
410.70	1218.54
410.91	1241.07
411.12	1232.88
411.32	1226.73
411.53	1236.97
411.74	1200.11
411.95	1202.16
412.15	1255.40
412.36	1318.89
412.57	1218.54
412.77	1261.55
412.98	1279.98
413.19	1216.49
413.39	1271.79
413.60	1298.41
413.81	1239.02
414.01	1286.12
414.22	1288.17
414.43	1322.99
414.63	1255.40
414.84	1277.93
415.05	1236.97
415.25	1234.93
415.46	1327.08
415.67	1306.60
415.87	1253.36
416.08	1302.51
416.29	1284.08
416.49	1204.21
416.70	1277.93
416.91	1189.87
417.11	1239.02
417.32	1310.70
417.53	1214.45
417.73	1288.17
417.94	1282.03
418.15	1294.32
418.35	1247.21
418.56	1226.73
418.77	1306.60
418.97	1200.11
419.18	1185.77
419.38	1236.97
419.59	1232.88
419.80	1245.16
420.00	1279.98
420.21	1236.97
420.42	1224.69
420.62	1298.41
420.83	1230.83
421.04	1228.78
421.24	1265.64
421.45	1294.32
421.65	1247.21
421.86	1306.60
422.07	1245.16
422.27	1267.69
422.48	1257.45
422.69	1257.45
422.89	1314.80
423.10	1249.26
423.30	1210.35
423.51	1220.59
423.72	1234.93
423.92	1251.31
424.13	1275.88
424.33	1263.60
424.54	1271.79
424.75	1380.33
424.95	1269.74
425.16	1306.60
425.36	1290.22
425.57	1265.64
425.78	1304.56
425.98	1247.21
426.19	1273.84
426.39	1347.56
426.60	1220.59
426.81	1288.17
427.01	1275.88
427.22	1282.03
427.42	1232.88
427.63	1216.49
427.83	1263.60
428.04	1288.17
428.25	1218.54
428.45	1265.64
428.66	1214.45
428.86	1265.64
429.07	1366.00
429.28	1263.60
429.48	1316.84
429.69	1349.61
429.89	1220.59
430.10	1282.03
430.30	1308.65
430.51	1198.06
430.71	1226.73
430.92	1230.83
431.13	1241.07
431.33	1284.08
431.54	1294.32
431.74	1241.07
431.95	1277.93
432.15	1263.60
432.36	1265.64
432.56	1202.16
432.77	1302.51
432.98	1263.60
433.18	1265.64
433.39	1316.84
433.59	1279.98
433.80	1222.64
434.00	1253.36
434.21	1257.45
434.41	1267.69
434.62	1206.25
434.82	1230.83
435.03	1275.88
435.23	1337.32
435.44	1183.73
435.64	1302.51
435.85	1286.12
436.06	1302.51
436.26	1220.59
436.47	1298.41
436.67	1298.41
436.88	1245.16
437.08	1263.60
437.29	1300.46
437.49	1259.50
437.70	1247.21
437.90	1282.03
438.11	1236.97
438.31	1257.45
438.52	1187.82
438.72	1277.93
438.93	1247.21
439.13	1294.32
439.34	1304.56
439.54	1320.94
439.75	1265.64
439.95	1265.64
440.16	1239.02
440.36	1234.93
440.57	1257.45
440.77	1245.16
440.98	1310.70
441.18	1286.12
441.39	1316.84
441.59	1286.12
441.80	1355.76
442.00	1331.18
442.21	1333.23
442.41	1210.35
442.62	1265.64
442.82	1290.22
443.02	1257.45
443.23	1300.46
443.43	1189.87
443.64	1234.93
443.84	1257.45
444.05	1232.88
444.25	1296.36
444.46	1286.12
444.66	1298.41
444.87	1267.69
445.07	1255.40
445.28	1271.79
445.48	1261.55
445.69	1339.37
445.89	1277.93
446.09	1320.94
446.30	1245.16
446.50	1327.08
446.71	1298.41
446.91	1245.16
447.12	1296.36
447.32	1263.60
447.53	1290.22
447.73	1218.54
447.93	1308.65
448.14	1196.01
448.34	1277.93
448.55	1288.17
448.75	1257.45
448.96	1232.88
449.16	1261.55
449.36	1337.32
449.57	1279.98
449.77	1267.69
449.98	1269.74
450.18	1247.21
450.39	1277.93
450.59	1296.36
450.79	1327.08
451.00	1261.55
451.20	1339.37
451.41	1226.73
451.61	1220.59
451.81	1304.56
452.02	1273.84
452.22	1220.59
452.43	1292.27
452.63	1271.79
