SpectraSuite Data File
++++++++++++++++++++++++++++++++++++
Date: Sun Apr 03 19:55:16 CEST 2016
User: root
Dark Spectrum Present: No
Reference Spectrum Present: No
Number of Sampled Component Spectra: 1
Spectrometers: USB4C02835
Integration Time (usec): 10000 (USB4C02835)
Spectra Averaged: 1 (USB4C02835)
Boxcar Smoothing: 0 (USB4C02835)
Correct for Electrical Dark: No (USB4C02835)
Strobe/Lamp Enabled: No (USB4C02835)
Correct for Detector Non-linearity: No (USB4C02835)
Correct for Stray Light: No (USB4C02835)
Number of Pixels in Processed Spectrum: 3648
>>>>>Begin Processed Spectral Data<<<<<
177.47	1202.16
177.69	1202.16
177.91	1202.16
178.13	1269.74
178.36	1232.88
178.58	1308.65
178.80	1253.36
179.02	1220.59
179.24	1290.22
179.46	1255.40
179.68	1279.98
179.90	1226.73
180.13	1290.22
180.35	1277.93
180.57	1218.54
180.79	1300.46
181.01	1290.22
181.23	1308.65
181.45	1306.60
181.67	1298.41
181.90	1239.02
182.12	1255.40
182.34	1302.51
182.56	1253.36
182.78	1257.45
183.00	1292.27
183.22	1269.74
183.44	1253.36
183.66	1239.02
183.89	1286.12
184.11	1310.70
184.33	1335.28
184.55	1200.11
184.77	1257.45
184.99	1255.40
185.21	1304.56
185.43	1312.75
185.65	1253.36
185.87	1228.78
186.10	1288.17
186.32	1292.27
186.54	1239.02
186.76	1300.46
186.98	1290.22
187.20	1210.35
187.42	1253.36
187.64	1320.94
187.86	1220.59
188.08	1183.73
188.30	1298.41
188.52	1247.21
188.75	1320.94
188.97	1312.75
189.19	1294.32
189.41	1267.69
189.63	1210.35
189.85	1294.32
190.07	1316.84
190.29	1236.97
190.51	1290.22
190.73	1249.26
190.95	1318.89
191.17	1261.55
191.39	1306.60
191.61	1286.12
191.84	1247.21
192.06	1312.75
192.28	1230.83
192.50	1304.56
192.72	1220.59
192.94	1220.59
193.16	1206.25
193.38	1263.60
193.60	1204.21
193.82	1269.74
194.04	1239.02
194.26	1296.36
194.48	1202.16
194.70	1349.61
194.92	1214.45
195.14	1243.12
195.36	1322.99
195.58	1282.03
195.80	1292.27
196.02	1296.36
196.24	1245.16
196.46	1216.49
196.69	1263.60
196.91	1298.41
197.13	1275.88
197.35	1267.69
197.57	1173.49
197.79	1288.17
198.01	1234.93
198.23	1265.64
198.45	1171.44
198.67	1282.03
198.89	1286.12
199.11	1239.02
199.33	1196.01
199.55	1329.13
199.77	1314.80
199.99	1343.47
200.21	1245.16
200.43	1198.06
200.65	1175.53
200.87	1263.60
201.09	1314.80
201.31	1308.65
201.53	1259.50
201.75	1236.97
201.97	1214.45
202.19	1193.97
202.41	1263.60
202.63	1253.36
202.85	1253.36
203.07	1310.70
203.29	1222.64
203.51	1271.79
203.73	1325.04
203.95	1322.99
204.17	1269.74
204.39	1345.52
204.61	1337.32
204.83	1286.12
205.05	1265.64
205.27	1265.64
205.49	1251.31
205.71	1204.21
205.93	1253.36
206.15	1271.79
206.37	1329.13
206.59	1302.51
206.81	1288.17
207.03	1257.45
207.25	1241.07
207.47	1298.41
207.69	1259.50
207.91	1239.02
208.13	1261.55
208.34	1255.40
208.56	1245.16
208.78	1265.64
209.00	1214.45
209.22	1296.36
209.44	1243.12
209.66	1275.88
209.88	1265.64
210.10	1232.88
210.32	1300.46
210.54	1273.84
210.76	1236.97
210.98	1189.87
211.20	1239.02
211.42	1296.36
211.64	1253.36
211.86	1273.84
212.08	1232.88
212.30	1247.21
212.52	1212.40
212.74	1316.84
212.96	1302.51
213.17	1247.21
213.39	1282.03
213.61	1314.80
213.83	1288.17
214.05	1265.64
214.27	1255.40
214.49	1251.31
214.71	1241.07
214.93	1261.55
215.15	1314.80
215.37	1253.36
215.59	1245.16
215.81	1218.54
216.03	1245.16
216.24	1314.80
216.46	1298.41
216.68	1253.36
216.90	1222.64
217.12	1279.98
217.34	1298.41
217.56	1325.04
217.78	1239.02
218.00	1226.73
218.22	1247.21
218.44	1236.97
218.66	1294.32
218.87	1247.21
219.09	1273.84
219.31	1247.21
219.53	1214.45
219.75	1232.88
219.97	1308.65
220.19	1200.11
220.41	1222.64
220.63	1312.75
220.85	1269.74
221.06	1290.22
221.28	1351.66
221.50	1308.65
221.72	1296.36
221.94	1304.56
222.16	1327.08
222.38	1222.64
222.60	1261.55
222.82	1302.51
223.03	1196.01
223.25	1275.88
223.47	1241.07
223.69	1271.79
223.91	1284.08
224.13	1300.46
224.35	1290.22
224.57	1290.22
224.78	1196.01
225.00	1251.31
225.22	1345.52
225.44	1339.37
225.66	1275.88
225.88	1322.99
226.10	1257.45
226.32	1255.40
226.53	1249.26
226.75	1249.26
226.97	1210.35
227.19	1279.98
227.41	1316.84
227.63	1359.85
227.85	1189.87
228.06	1251.31
228.28	1290.22
228.50	1292.27
228.72	1198.06
228.94	1189.87
229.16	1232.88
229.37	1265.64
229.59	1290.22
229.81	1226.73
230.03	1292.27
230.25	1298.41
230.47	1249.26
230.69	1294.32
230.90	1318.89
231.12	1267.69
231.34	1263.60
231.56	1304.56
231.78	1198.06
232.00	1316.84
232.21	1218.54
232.43	1314.80
232.65	1286.12
232.87	1214.45
233.09	1277.93
233.30	1298.41
233.52	1259.50
233.74	1288.17
233.96	1247.21
234.18	1372.14
234.40	1279.98
234.61	1351.66
234.83	1253.36
235.05	1230.83
235.27	1361.90
235.49	1214.45
235.70	1306.60
235.92	1222.64
236.14	1282.03
236.36	1302.51
236.58	1304.56
236.79	1214.45
237.01	1279.98
237.23	1322.99
237.45	1298.41
237.67	1325.04
237.88	1294.32
238.10	1310.70
238.32	1261.55
238.54	1271.79
238.76	1212.40
238.97	1236.97
239.19	1279.98
239.41	1300.46
239.63	1290.22
239.85	1306.60
240.06	1290.22
240.28	1259.50
240.50	1243.12
240.72	1282.03
240.93	1271.79
241.15	1320.94
241.37	1267.69
241.59	1298.41
241.81	1296.36
242.02	1263.60
242.24	1304.56
242.46	1308.65
242.68	1230.83
242.89	1241.07
243.11	1216.49
243.33	1206.25
243.55	1239.02
243.76	1271.79
243.98	1232.88
244.20	1257.45
244.42	1388.52
244.64	1245.16
244.85	1224.69
245.07	1304.56
245.29	1208.30
245.51	1271.79
245.72	1255.40
245.94	1269.74
246.16	1257.45
246.38	1316.84
246.59	1294.32
246.81	1218.54
247.03	1259.50
247.24	1314.80
247.46	1275.88
247.68	1251.31
247.90	1243.12
248.11	1279.98
248.33	1275.88
248.55	1206.25
248.77	1273.84
248.98	1249.26
249.20	1241.07
249.42	1224.69
249.64	1206.25
249.85	1286.12
250.07	1275.88
250.29	1316.84
250.50	1193.97
250.72	1325.04
250.94	1304.56
251.16	1265.64
251.37	1310.70
251.59	1290.22
251.81	1208.30
252.02	1286.12
252.24	1290.22
252.46	1284.08
252.68	1236.97
252.89	1331.18
253.11	1226.73
253.33	1228.78
253.54	1316.84
253.76	1273.84
253.98	1288.17
254.20	1290.22
254.41	1247.21
254.63	1296.36
254.85	1202.16
255.06	1263.60
255.28	1329.13
255.50	1284.08
255.71	1282.03
255.93	1279.98
256.15	1310.70
256.36	1308.65
256.58	1290.22
256.80	1282.03
257.02	1302.51
257.23	1378.28
257.45	1183.73
257.67	1234.93
257.88	1284.08
258.10	1263.60
258.32	1257.45
258.53	1284.08
258.75	1261.55
258.97	1314.80
259.18	1241.07
259.40	1277.93
259.62	1228.78
259.83	1325.04
260.05	1269.74
260.27	1298.41
260.48	1265.64
260.70	1329.13
260.92	1263.60
261.13	1251.31
261.35	1245.16
261.57	1208.30
261.78	1261.55
262.00	1267.69
262.22	1230.83
262.43	1271.79
262.65	1282.03
262.86	1249.26
263.08	1269.74
263.30	1251.31
263.51	1271.79
263.73	1241.07
263.95	1216.49
264.16	1261.55
264.38	1269.74
264.60	1275.88
264.81	1226.73
265.03	1282.03
265.25	1282.03
265.46	1208.30
265.68	1265.64
265.89	1308.65
266.11	1089.52
266.33	1263.60
266.54	1236.97
266.76	1296.36
266.98	1267.69
267.19	1390.57
267.41	1259.50
267.62	1234.93
267.84	1253.36
268.06	1257.45
268.27	1296.36
268.49	1251.31
268.70	1273.84
268.92	1288.17
269.14	1284.08
269.35	1198.06
269.57	1232.88
269.79	1275.88
270.00	1298.41
270.22	1271.79
270.43	1353.71
270.65	1224.69
270.87	1322.99
271.08	1339.37
271.30	1239.02
271.51	1249.26
271.73	1271.79
271.95	1245.16
272.16	1196.01
272.38	1279.98
272.59	1220.59
272.81	1239.02
273.02	1255.40
273.24	1294.32
273.46	1243.12
273.67	1269.74
273.89	1290.22
274.10	1282.03
274.32	1290.22
274.54	1232.88
274.75	1220.59
274.97	1275.88
275.18	1253.36
275.40	1247.21
275.61	1294.32
275.83	1228.78
276.05	1257.45
276.26	1277.93
276.48	1249.26
276.69	1306.60
276.91	1302.51
277.12	1253.36
277.34	1341.42
277.55	1288.17
277.77	1257.45
277.99	1265.64
278.20	1251.31
278.42	1294.32
278.63	1138.67
278.85	1241.07
279.06	1259.50
279.28	1253.36
279.49	1265.64
279.71	1288.17
279.93	1265.64
280.14	1302.51
280.36	1312.75
280.57	1232.88
280.79	1204.21
281.00	1290.22
281.22	1249.26
281.43	1255.40
281.65	1265.64
281.86	1210.35
282.08	1288.17
282.29	1216.49
282.51	1314.80
282.73	1271.79
282.94	1310.70
283.16	1302.51
283.37	1220.59
283.59	1204.21
283.80	1269.74
284.02	1290.22
284.23	1245.16
284.45	1230.83
284.66	1236.97
284.88	1265.64
285.09	1275.88
285.31	1212.40
285.52	1220.59
285.74	1282.03
285.95	1265.64
286.17	1333.23
286.38	1290.22
286.60	1271.79
286.81	1308.65
287.03	1204.21
287.24	1239.02
287.46	1234.93
287.67	1263.60
287.89	1255.40
288.10	1243.12
288.32	1263.60
288.53	1269.74
288.75	1220.59
288.96	1263.60
289.18	1173.49
289.39	1269.74
289.61	1228.78
289.82	1230.83
290.04	1304.56
290.25	1267.69
290.47	1241.07
290.68	1226.73
290.90	1306.60
291.11	1255.40
291.33	1236.97
291.54	1302.51
291.76	1257.45
291.97	1257.45
292.18	1302.51
292.40	1228.78
292.61	1331.18
292.83	1239.02
293.04	1224.69
293.26	1271.79
293.47	1241.07
293.69	1239.02
293.90	1329.13
294.12	1267.69
294.33	1239.02
294.55	1234.93
294.76	1263.60
294.97	1279.98
295.19	1259.50
295.40	1273.84
295.62	1271.79
295.83	1316.84
296.05	1308.65
296.26	1214.45
296.48	1253.36
296.69	1271.79
296.90	1279.98
297.12	1282.03
297.33	1312.75
297.55	1300.46
297.76	1255.40
297.98	1196.01
298.19	1249.26
298.41	1288.17
298.62	1243.12
298.83	1269.74
299.05	1253.36
299.26	1253.36
299.48	1277.93
299.69	1257.45
299.90	1267.69
300.12	1226.73
300.33	1267.69
300.55	1234.93
300.76	1298.41
300.98	1226.73
301.19	1331.18
301.40	1279.98
301.62	1232.88
301.83	1261.55
302.05	1263.60
302.26	1259.50
302.47	1259.50
302.69	1261.55
302.90	1294.32
303.12	1271.79
303.33	1284.08
303.54	1318.89
303.76	1255.40
303.97	1183.73
304.19	1253.36
304.40	1261.55
304.61	1226.73
304.83	1210.35
305.04	1316.84
305.26	1275.88
305.47	1314.80
305.68	1236.97
305.90	1263.60
306.11	1234.93
306.33	1286.12
306.54	1234.93
306.75	1255.40
306.97	1345.52
307.18	1232.88
307.39	1312.75
307.61	1294.32
307.82	1245.16
308.04	1249.26
308.25	1271.79
308.46	1218.54
308.68	1216.49
308.89	1241.07
309.10	1226.73
309.32	1273.84
309.53	1314.80
309.74	1257.45
309.96	1257.45
310.17	1198.06
310.39	1243.12
310.60	1265.64
310.81	1179.63
311.03	1290.22
311.24	1261.55
311.45	1331.18
311.67	1226.73
311.88	1196.01
312.09	1282.03
312.31	1273.84
312.52	1308.65
312.73	1310.70
312.95	1265.64
313.16	1279.98
313.37	1218.54
313.59	1298.41
313.80	1208.30
314.01	1253.36
314.23	1228.78
314.44	1241.07
314.65	1286.12
314.87	1306.60
315.08	1265.64
315.29	1308.65
315.51	1282.03
315.72	1277.93
315.93	1230.83
316.15	1312.75
316.36	1247.21
316.57	1269.74
316.79	1273.84
317.00	1314.80
317.21	1247.21
317.43	1218.54
317.64	1236.97
317.85	1320.94
318.07	1251.31
318.28	1296.36
318.49	1206.25
318.70	1253.36
318.92	1222.64
319.13	1239.02
319.34	1226.73
319.56	1265.64
319.77	1322.99
319.98	1239.02
320.20	1298.41
320.41	1271.79
320.62	1353.71
320.83	1312.75
321.05	1288.17
321.26	1273.84
321.47	1298.41
321.69	1253.36
321.90	1345.52
322.11	1363.95
322.32	1302.51
322.54	1277.93
322.75	1279.98
322.96	1230.83
323.18	1249.26
323.39	1275.88
323.60	1304.56
323.81	1327.08
324.03	1239.02
324.24	1247.21
324.45	1275.88
324.66	1255.40
324.88	1259.50
325.09	1351.66
325.30	1302.51
325.52	1279.98
325.73	1267.69
325.94	1290.22
326.15	1277.93
326.37	1265.64
326.58	1245.16
326.79	1200.11
327.00	1288.17
327.22	1257.45
327.43	1304.56
327.64	1314.80
327.85	1343.47
328.07	1263.60
328.28	1249.26
328.49	1277.93
328.70	1167.34
328.92	1212.40
329.13	1335.28
329.34	1310.70
329.55	1288.17
329.76	1335.28
329.98	1306.60
330.19	1232.88
330.40	1316.84
330.61	1300.46
330.83	1275.88
331.04	1224.69
331.25	1232.88
331.46	1265.64
331.68	1181.68
331.89	1263.60
332.10	1247.21
332.31	1298.41
332.52	1224.69
332.74	1234.93
332.95	1286.12
333.16	1263.60
333.37	1236.97
333.58	1265.64
333.80	1218.54
334.01	1343.47
334.22	1239.02
334.43	1286.12
334.64	1220.59
334.86	1298.41
335.07	1331.18
335.28	1247.21
335.49	1196.01
335.70	1271.79
335.92	1282.03
336.13	1298.41
336.34	1290.22
336.55	1298.41
336.76	1224.69
336.98	1269.74
337.19	1310.70
337.40	1216.49
337.61	1222.64
337.82	1300.46
338.04	1284.08
338.25	1236.97
338.46	1269.74
338.67	1339.37
338.88	1294.32
339.09	1255.40
339.31	1329.13
339.52	1296.36
339.73	1273.84
339.94	1243.12
340.15	1253.36
340.36	1249.26
340.58	1241.07
340.79	1247.21
341.00	1273.84
341.21	1245.16
341.42	1183.73
341.63	1284.08
341.85	1269.74
342.06	1241.07
342.27	1322.99
342.48	1310.70
342.69	1236.97
342.90	1167.34
343.12	1232.88
343.33	1325.04
343.54	1277.93
343.75	1249.26
343.96	1263.60
344.17	1224.69
344.38	1210.35
344.60	1228.78
344.81	1230.83
345.02	1234.93
345.23	1288.17
345.44	1327.08
345.65	1282.03
345.86	1294.32
346.07	1220.59
346.29	1282.03
346.50	1220.59
346.71	1304.56
346.92	1239.02
347.13	1339.37
347.34	1245.16
347.55	1314.80
347.76	1275.88
347.98	1269.74
348.19	1341.42
348.40	1316.84
348.61	1296.36
348.82	1337.32
349.03	1273.84
349.24	1308.65
349.45	1236.97
349.66	1247.21
349.88	1269.74
350.09	1333.23
350.30	1314.80
350.51	1196.01
350.72	1284.08
350.93	1251.31
351.14	1300.46
351.35	1249.26
351.56	1208.30
351.77	1282.03
351.99	1282.03
352.20	1243.12
352.41	1296.36
352.62	1288.17
352.83	1279.98
353.04	1271.79
353.25	1284.08
353.46	1349.61
353.67	1214.45
353.88	1253.36
354.09	1277.93
354.30	1218.54
354.52	1298.41
354.73	1325.04
354.94	1200.11
355.15	1241.07
355.36	1208.30
355.57	1288.17
355.78	1265.64
355.99	1292.27
356.20	1239.02
356.41	1263.60
356.62	1206.25
356.83	1318.89
357.04	1249.26
357.25	1257.45
357.46	1228.78
357.68	1267.69
357.89	1300.46
358.10	1298.41
358.31	1296.36
358.52	1257.45
358.73	1232.88
358.94	1257.45
359.15	1261.55
359.36	1279.98
359.57	1214.45
359.78	1255.40
359.99	1224.69
360.20	1261.55
360.41	1236.97
360.62	1273.84
360.83	1218.54
361.04	1230.83
361.25	1257.45
361.46	1271.79
361.67	1267.69
361.88	1304.56
362.09	1247.21
362.30	1288.17
362.51	1241.07
362.72	1255.40
362.93	1210.35
363.14	1236.97
363.35	1218.54
363.56	1277.93
363.78	1265.64
363.99	1298.41
364.20	1341.42
364.41	1353.71
364.62	1261.55
364.83	1284.08
365.04	1198.06
365.25	1255.40
365.46	1236.97
365.67	1286.12
365.88	1308.65
366.09	1273.84
366.30	1214.45
366.51	1345.52
366.72	1210.35
366.93	1292.27
367.14	1333.23
367.35	1337.32
367.56	1282.03
367.77	1167.34
367.98	1259.50
368.18	1310.70
368.39	1288.17
368.60	1265.64
368.81	1212.40
369.02	1349.61
369.23	1294.32
369.44	1290.22
369.65	1234.93
369.86	1243.12
370.07	1224.69
370.28	1322.99
370.49	1341.42
370.70	1224.69
370.91	1202.16
371.12	1306.60
371.33	1296.36
371.54	1253.36
371.75	1290.22
371.96	1230.83
372.17	1288.17
372.38	1239.02
372.59	1241.07
372.80	1298.41
373.01	1230.83
373.22	1343.47
373.43	1257.45
373.64	1222.64
373.85	1290.22
374.06	1222.64
374.26	1300.46
374.47	1282.03
374.68	1214.45
374.89	1251.31
375.10	1198.06
375.31	1241.07
375.52	1204.21
375.73	1251.31
375.94	1249.26
376.15	1273.84
376.36	1302.51
376.57	1294.32
376.78	1261.55
376.99	1304.56
377.20	1228.78
377.40	1265.64
377.61	1247.21
377.82	1198.06
378.03	1304.56
378.24	1306.60
378.45	1339.37
378.66	1257.45
378.87	1279.98
379.08	1265.64
379.29	1202.16
379.50	1275.88
379.71	1247.21
379.91	1282.03
380.12	1206.25
380.33	1275.88
380.54	1298.41
380.75	1265.64
380.96	1331.18
381.17	1298.41
381.38	1204.21
381.59	1325.04
381.80	1265.64
382.00	1218.54
382.21	1255.40
382.42	1308.65
382.63	1234.93
382.84	1216.49
383.05	1228.78
383.26	1200.11
383.47	1269.74
383.68	1374.19
383.88	1271.79
384.09	1300.46
384.30	1298.41
384.51	1200.11
384.72	1279.98
384.93	1290.22
385.14	1333.23
385.35	1298.41
385.55	1216.49
385.76	1239.02
385.97	1306.60
386.18	1259.50
386.39	1341.42
386.60	1298.41
386.81	1241.07
387.02	1265.64
387.22	1249.26
387.43	1259.50
387.64	1286.12
387.85	1255.40
388.06	1310.70
388.27	1271.79
388.48	1282.03
388.68	1232.88
388.89	1245.16
389.10	1224.69
389.31	1277.93
389.52	1222.64
389.73	1271.79
389.93	1318.89
390.14	1257.45
390.35	1257.45
390.56	1232.88
390.77	1290.22
390.98	1198.06
391.18	1198.06
391.39	1222.64
391.60	1271.79
391.81	1290.22
392.02	1269.74
392.23	1322.99
392.43	1263.60
392.64	1255.40
392.85	1302.51
393.06	1343.47
393.27	1220.59
393.47	1290.22
393.68	1232.88
393.89	1277.93
394.10	1331.18
394.31	1253.36
394.52	1236.97
394.72	1306.60
394.93	1298.41
395.14	1232.88
395.35	1267.69
395.56	1255.40
395.76	1226.73
395.97	1255.40
396.18	1241.07
396.39	1275.88
396.60	1228.78
396.80	1218.54
397.01	1271.79
397.22	1241.07
397.43	1226.73
397.64	1220.59
397.84	1232.88
398.05	1261.55
398.26	1241.07
398.47	1261.55
398.67	1304.56
398.88	1196.01
399.09	1243.12
399.30	1234.93
399.51	1302.51
399.71	1236.97
399.92	1282.03
400.13	1228.78
400.34	1218.54
400.54	1277.93
400.75	1265.64
400.96	1234.93
401.17	1269.74
401.37	1259.50
401.58	1241.07
401.79	1290.22
402.00	1273.84
402.21	1257.45
402.41	1282.03
402.62	1277.93
402.83	1226.73
403.04	1259.50
403.24	1298.41
403.45	1230.83
403.66	1265.64
403.87	1271.79
404.07	1265.64
404.28	1275.88
404.49	1316.84
404.70	1296.36
404.90	1243.12
405.11	1171.44
405.32	1243.12
405.52	1286.12
405.73	1279.98
405.94	1271.79
406.15	1228.78
406.35	1282.03
406.56	1273.84
406.77	1341.42
406.98	1224.69
407.18	1277.93
407.39	1257.45
407.60	1302.51
407.80	1263.60
408.01	1212.40
408.22	1269.74
408.43	1167.34
408.63	1222.64
408.84	1239.02
409.05	1306.60
409.25	1337.32
409.46	1320.94
409.67	1265.64
409.88	1306.60
410.08	1232.88
410.29	1304.56
410.50	1243.12
410.70	1277.93
410.91	1228.78
411.12	1222.64
411.32	1279.98
411.53	1273.84
411.74	1271.79
411.95	1277.93
412.15	1247.21
412.36	1232.88
412.57	1165.29
412.77	1275.88
412.98	1296.36
413.19	1247.21
413.39	1284.08
413.60	1275.88
413.81	1216.49
414.01	1236.97
414.22	1245.16
414.43	1214.45
414.63	1249.26
414.84	1368.04
415.05	1263.60
415.25	1269.74
415.46	1286.12
415.67	1236.97
415.87	1220.59
416.08	1341.42
416.29	1245.16
416.49	1288.17
416.70	1257.45
416.91	1304.56
417.11	1257.45
417.32	1286.12
417.53	1275.88
417.73	1241.07
417.94	1253.36
418.15	1273.84
418.35	1296.36
418.56	1304.56
418.77	1230.83
418.97	1284.08
419.18	1198.06
419.38	1241.07
419.59	1275.88
419.80	1236.97
420.00	1284.08
420.21	1327.08
420.42	1304.56
420.62	1310.70
420.83	1255.40
421.04	1249.26
421.24	1292.27
421.45	1255.40
421.65	1282.03
421.86	1230.83
422.07	1214.45
422.27	1284.08
422.48	1206.25
422.69	1230.83
422.89	1228.78
423.10	1298.41
423.30	1210.35
423.51	1290.22
423.72	1234.93
423.92	1255.40
424.13	1253.36
424.33	1325.04
424.54	1261.55
424.75	1259.50
424.95	1322.99
425.16	1200.11
425.36	1241.07
425.57	1251.31
425.78	1284.08
425.98	1279.98
426.19	1271.79
426.39	1259.50
426.60	1288.17
426.81	1275.88
427.01	1224.69
427.22	1226.73
427.42	1300.46
427.63	1249.26
427.83	1292.27
428.04	1341.42
428.25	1286.12
428.45	1288.17
428.66	1218.54
428.86	1171.44
429.07	1267.69
429.28	1241.07
429.48	1249.26
429.69	1245.16
429.89	1327.08
430.10	1261.55
430.30	1236.97
430.51	1247.21
430.71	1290.22
430.92	1261.55
431.13	1275.88
431.33	1304.56
431.54	1261.55
431.74	1290.22
431.95	1304.56
432.15	1255.40
432.36	1300.46
432.56	1343.47
432.77	1298.41
432.98	1296.36
433.18	1247.21
433.39	1257.45
433.59	1277.93
433.80	1257.45
434.00	1247.21
434.21	1304.56
434.41	1255.40
434.62	1277.93
434.82	1263.60
435.03	1290.22
435.23	1255.40
435.44	1198.06
435.64	1325.04
435.85	1322.99
436.06	1304.56
436.26	1181.68
436.47	1253.36
436.67	1271.79
436.88	1202.16
437.08	1304.56
437.29	1308.65
437.49	1269.74
437.70	1282.03
437.90	1259.50
438.11	1251.31
438.31	1282.03
438.52	1263.60
438.72	1288.17
438.93	1259.50
439.13	1288.17
439.34	1304.56
439.54	1243.12
439.75	1212.40
439.95	1206.25
440.16	1245.16
440.36	1304.56
440.57	1236.97
440.77	1304.56
440.98	1292.27
441.18	1345.52
441.39	1273.84
441.59	1261.55
441.80	1345.52
442.00	1247.21
442.21	1234.93
442.41	1310.70
442.62	1277.93
442.82	1314.80
443.02	1241.07
443.23	1183.73
443.43	1284.08
443.64	1345.52
443.84	1234.93
444.05	1345.52
444.25	1292.27
444.46	1245.16
444.66	1247.21
444.87	1308.65
445.07	1234.93
445.28	1249.26
445.48	1202.16
445.69	1265.64
445.89	1255.40
446.09	1310.70
446.30	1286.12
446.50	1308.65
446.71	1224.69
446.91	1294.32
447.12	1271.79
447.32	1359.85
447.53	1261.55
447.73	1277.93
447.93	1251.31
448.14	1306.60
448.34	1312.75
448.55	1245.16
448.75	1306.60
448.96	1261.55
449.16	1243.12
449.36	1339.37
449.57	1273.84
449.77	1196.01
449.98	1232.88
450.18	1269.74
450.39	1347.56
450.59	1261.55
450.79	1277.93
451.00	1230.83
451.20	1263.60
451.41	1279.98
451.61	1265.64
451.81	1214.45
452.02	1269.74
452.22	1337.32
452.43	1259.50
452.63	1267.69
