SpectraSuite Data File
++++++++++++++++++++++++++++++++++++
Date: Sun Apr 03 19:55:29 CEST 2016
User: root
Dark Spectrum Present: No
Reference Spectrum Present: No
Number of Sampled Component Spectra: 1
Spectrometers: USB4C02835
Integration Time (usec): 10000 (USB4C02835)
Spectra Averaged: 1 (USB4C02835)
Boxcar Smoothing: 0 (USB4C02835)
Correct for Electrical Dark: No (USB4C02835)
Strobe/Lamp Enabled: No (USB4C02835)
Correct for Detector Non-linearity: No (USB4C02835)
Correct for Stray Light: No (USB4C02835)
Number of Pixels in Processed Spectrum: 3648
>>>>>Begin Processed Spectral Data<<<<<
177.47	1275.88
177.69	1275.88
177.91	1275.88
178.13	1310.70
178.36	1222.64
178.58	1224.69
178.80	1265.64
179.02	1234.93
179.24	1187.82
179.46	1245.16
179.68	1193.97
179.90	1294.32
180.13	1310.70
180.35	1245.16
180.57	1224.69
180.79	1220.59
181.01	1216.49
181.23	1282.03
181.45	1261.55
181.67	1333.23
181.90	1282.03
182.12	1275.88
182.34	1234.93
182.56	1261.55
182.78	1224.69
183.00	1232.88
183.22	1294.32
183.44	1204.21
183.66	1249.26
183.89	1286.12
184.11	1294.32
184.33	1249.26
184.55	1255.40
184.77	1247.21
184.99	1298.41
185.21	1267.69
185.43	1239.02
185.65	1263.60
185.87	1275.88
186.10	1212.40
186.32	1253.36
186.54	1298.41
186.76	1249.26
186.98	1228.78
187.20	1234.93
187.42	1288.17
187.64	1212.40
187.86	1310.70
188.08	1269.74
188.30	1263.60
188.52	1310.70
188.75	1226.73
188.97	1210.35
189.19	1224.69
189.41	1308.65
189.63	1269.74
189.85	1310.70
190.07	1218.54
190.29	1249.26
190.51	1220.59
190.73	1234.93
190.95	1263.60
191.17	1251.31
191.39	1277.93
191.61	1304.56
191.84	1228.78
192.06	1243.12
192.28	1191.92
192.50	1263.60
192.72	1196.01
192.94	1320.94
193.16	1196.01
193.38	1275.88
193.60	1275.88
193.82	1255.40
194.04	1216.49
194.26	1267.69
194.48	1216.49
194.70	1282.03
194.92	1200.11
195.14	1290.22
195.36	1255.40
195.58	1279.98
195.80	1150.96
196.02	1322.99
196.24	1243.12
196.46	1320.94
196.69	1275.88
196.91	1314.80
197.13	1267.69
197.35	1228.78
197.57	1329.13
197.79	1196.01
198.01	1312.75
198.23	1232.88
198.45	1234.93
198.67	1282.03
198.89	1298.41
199.11	1236.97
199.33	1271.79
199.55	1353.71
199.77	1294.32
199.99	1345.52
200.21	1255.40
200.43	1230.83
200.65	1245.16
200.87	1222.64
201.09	1271.79
201.31	1257.45
201.53	1294.32
201.75	1245.16
201.97	1245.16
202.19	1257.45
202.41	1226.73
202.63	1183.73
202.85	1335.28
203.07	1286.12
203.29	1247.21
203.51	1302.51
203.73	1296.36
203.95	1343.47
204.17	1263.60
204.39	1314.80
204.61	1296.36
204.83	1286.12
205.05	1222.64
205.27	1329.13
205.49	1239.02
205.71	1288.17
205.93	1296.36
206.15	1249.26
206.37	1208.30
206.59	1259.50
206.81	1171.44
207.03	1327.08
207.25	1308.65
207.47	1234.93
207.69	1204.21
207.91	1243.12
208.13	1232.88
208.34	1247.21
208.56	1226.73
208.78	1277.93
209.00	1288.17
209.22	1249.26
209.44	1259.50
209.66	1271.79
209.88	1296.36
210.10	1292.27
210.32	1214.45
210.54	1228.78
210.76	1245.16
210.98	1320.94
211.20	1279.98
211.42	1337.32
211.64	1275.88
211.86	1284.08
212.08	1232.88
212.30	1286.12
212.52	1226.73
212.74	1247.21
212.96	1304.56
213.17	1337.32
213.39	1259.50
213.61	1277.93
213.83	1308.65
214.05	1241.07
214.27	1255.40
214.49	1308.65
214.71	1243.12
214.93	1200.11
215.15	1230.83
215.37	1234.93
215.59	1222.64
215.81	1216.49
216.03	1202.16
216.24	1226.73
216.46	1304.56
216.68	1300.46
216.90	1271.79
217.12	1275.88
217.34	1290.22
217.56	1257.45
217.78	1263.60
218.00	1251.31
218.22	1226.73
218.44	1230.83
218.66	1286.12
218.87	1318.89
219.09	1312.75
219.31	1318.89
219.53	1310.70
219.75	1306.60
219.97	1368.04
220.19	1232.88
220.41	1216.49
220.63	1302.51
220.85	1318.89
221.06	1265.64
221.28	1269.74
221.50	1269.74
221.72	1232.88
221.94	1341.42
222.16	1247.21
222.38	1206.25
222.60	1267.69
222.82	1337.32
223.03	1288.17
223.25	1314.80
223.47	1308.65
223.69	1218.54
223.91	1243.12
224.13	1247.21
224.35	1253.36
224.57	1339.37
224.78	1259.50
225.00	1212.40
225.22	1277.93
225.44	1286.12
225.66	1241.07
225.88	1241.07
226.10	1265.64
226.32	1245.16
226.53	1296.36
226.75	1183.73
226.97	1300.46
227.19	1320.94
227.41	1284.08
227.63	1259.50
227.85	1288.17
228.06	1261.55
228.28	1255.40
228.50	1271.79
228.72	1300.46
228.94	1208.30
229.16	1277.93
229.37	1277.93
229.59	1241.07
229.81	1312.75
230.03	1296.36
230.25	1226.73
230.47	1279.98
230.69	1275.88
230.90	1232.88
231.12	1236.97
231.34	1220.59
231.56	1241.07
231.78	1249.26
232.00	1271.79
232.21	1200.11
232.43	1265.64
232.65	1232.88
232.87	1298.41
233.09	1222.64
233.30	1216.49
233.52	1286.12
233.74	1245.16
233.96	1247.21
234.18	1253.36
234.40	1275.88
234.61	1308.65
234.83	1290.22
235.05	1316.84
235.27	1292.27
235.49	1271.79
235.70	1249.26
235.92	1331.18
236.14	1224.69
236.36	1322.99
236.58	1282.03
236.79	1298.41
237.01	1296.36
237.23	1271.79
237.45	1308.65
237.67	1239.02
237.88	1243.12
238.10	1300.46
238.32	1236.97
238.54	1267.69
238.76	1245.16
238.97	1310.70
239.19	1214.45
239.41	1269.74
239.63	1314.80
239.85	1261.55
240.06	1243.12
240.28	1282.03
240.50	1304.56
240.72	1345.52
240.93	1300.46
241.15	1306.60
241.37	1366.00
241.59	1236.97
241.81	1189.87
242.02	1306.60
242.24	1269.74
242.46	1255.40
242.68	1247.21
242.89	1193.97
243.11	1275.88
243.33	1249.26
243.55	1269.74
243.76	1310.70
243.98	1216.49
244.20	1302.51
244.42	1279.98
244.64	1298.41
244.85	1200.11
245.07	1243.12
245.29	1310.70
245.51	1251.31
245.72	1228.78
245.94	1351.66
246.16	1230.83
246.38	1312.75
246.59	1255.40
246.81	1284.08
247.03	1314.80
247.24	1329.13
247.46	1302.51
247.68	1265.64
247.90	1251.31
248.11	1277.93
248.33	1267.69
248.55	1294.32
248.77	1304.56
248.98	1279.98
249.20	1269.74
249.42	1292.27
249.64	1300.46
249.85	1300.46
250.07	1236.97
250.29	1329.13
250.50	1351.66
250.72	1208.30
250.94	1253.36
251.16	1255.40
251.37	1255.40
251.59	1308.65
251.81	1200.11
252.02	1296.36
252.24	1218.54
252.46	1255.40
252.68	1302.51
252.89	1292.27
253.11	1220.59
253.33	1286.12
253.54	1216.49
253.76	1265.64
253.98	1234.93
254.20	1308.65
254.41	1277.93
254.63	1308.65
254.85	1251.31
255.06	1290.22
255.28	1230.83
255.50	1259.50
255.71	1259.50
255.93	1265.64
256.15	1226.73
256.36	1271.79
256.58	1241.07
256.80	1249.26
257.02	1183.73
257.23	1239.02
257.45	1212.40
257.67	1232.88
257.88	1243.12
258.10	1288.17
258.32	1224.69
258.53	1298.41
258.75	1271.79
258.97	1245.16
259.18	1282.03
259.40	1257.45
259.62	1273.84
259.83	1228.78
260.05	1273.84
260.27	1247.21
260.48	1290.22
260.70	1259.50
260.92	1269.74
261.13	1318.89
261.35	1243.12
261.57	1208.30
261.78	1255.40
262.00	1245.16
262.22	1241.07
262.43	1241.07
262.65	1308.65
262.86	1261.55
263.08	1310.70
263.30	1333.23
263.51	1253.36
263.73	1271.79
263.95	1335.28
264.16	1282.03
264.38	1202.16
264.60	1265.64
264.81	1220.59
265.03	1290.22
265.25	1298.41
265.46	1325.04
265.68	1286.12
265.89	1234.93
266.11	1228.78
266.33	1318.89
266.54	1320.94
266.76	1255.40
266.98	1236.97
267.19	1269.74
267.41	1277.93
267.62	1263.60
267.84	1265.64
268.06	1222.64
268.27	1210.35
268.49	1322.99
268.70	1185.77
268.92	1320.94
269.14	1279.98
269.35	1271.79
269.57	1257.45
269.79	1241.07
270.00	1247.21
270.22	1314.80
270.43	1218.54
270.65	1261.55
270.87	1273.84
271.08	1320.94
271.30	1261.55
271.51	1212.40
271.73	1343.47
271.95	1292.27
272.16	1271.79
272.38	1312.75
272.59	1234.93
272.81	1279.98
273.02	1216.49
273.24	1230.83
273.46	1253.36
273.67	1234.93
273.89	1253.36
274.10	1282.03
274.32	1259.50
274.54	1308.65
274.75	1314.80
274.97	1243.12
275.18	1308.65
275.40	1292.27
275.61	1269.74
275.83	1265.64
276.05	1193.97
276.26	1304.56
276.48	1335.28
276.69	1267.69
276.91	1232.88
277.12	1257.45
277.34	1286.12
277.55	1253.36
277.77	1241.07
277.99	1212.40
278.20	1316.84
278.42	1263.60
278.63	1327.08
278.85	1288.17
279.06	1239.02
279.28	1189.87
279.49	1320.94
279.71	1312.75
279.93	1253.36
280.14	1261.55
280.36	1290.22
280.57	1357.80
280.79	1204.21
281.00	1277.93
281.22	1300.46
281.43	1232.88
281.65	1288.17
281.86	1200.11
282.08	1290.22
282.29	1294.32
282.51	1273.84
282.73	1259.50
282.94	1230.83
283.16	1288.17
283.37	1218.54
283.59	1273.84
283.80	1181.68
284.02	1277.93
284.23	1263.60
284.45	1210.35
284.66	1320.94
284.88	1329.13
285.09	1322.99
285.31	1275.88
285.52	1228.78
285.74	1236.97
285.95	1239.02
286.17	1273.84
286.38	1351.66
286.60	1263.60
286.81	1239.02
287.03	1249.26
287.24	1261.55
287.46	1236.97
287.67	1202.16
287.89	1249.26
288.10	1325.04
288.32	1259.50
288.53	1257.45
288.75	1275.88
288.96	1300.46
289.18	1208.30
289.39	1228.78
289.61	1275.88
289.82	1310.70
290.04	1261.55
290.25	1200.11
290.47	1329.13
290.68	1212.40
290.90	1253.36
291.11	1300.46
291.33	1257.45
291.54	1275.88
291.76	1286.12
291.97	1347.56
292.18	1257.45
292.40	1232.88
292.61	1249.26
292.83	1273.84
293.04	1249.26
293.26	1218.54
293.47	1230.83
293.69	1239.02
293.90	1216.49
294.12	1265.64
294.33	1288.17
294.55	1249.26
294.76	1282.03
294.97	1296.36
295.19	1304.56
295.40	1196.01
295.62	1228.78
295.83	1249.26
296.05	1269.74
296.26	1234.93
296.48	1265.64
296.69	1308.65
296.90	1269.74
297.12	1282.03
297.33	1271.79
297.55	1224.69
297.76	1282.03
297.98	1249.26
298.19	1234.93
298.41	1253.36
298.62	1286.12
298.83	1243.12
299.05	1279.98
299.26	1265.64
299.48	1279.98
299.69	1288.17
299.90	1298.41
300.12	1226.73
300.33	1282.03
300.55	1259.50
300.76	1241.07
300.98	1290.22
301.19	1236.97
301.40	1257.45
301.62	1259.50
301.83	1282.03
302.05	1189.87
302.26	1263.60
302.47	1333.23
302.69	1245.16
302.90	1275.88
303.12	1228.78
303.33	1261.55
303.54	1247.21
303.76	1288.17
303.97	1302.51
304.19	1265.64
304.40	1255.40
304.61	1265.64
304.83	1286.12
305.04	1341.42
305.26	1267.69
305.47	1273.84
305.68	1224.69
305.90	1271.79
306.11	1263.60
306.33	1273.84
306.54	1247.21
306.75	1247.21
306.97	1294.32
307.18	1226.73
307.39	1228.78
307.61	1234.93
307.82	1249.26
308.04	1298.41
308.25	1279.98
308.46	1210.35
308.68	1230.83
308.89	1290.22
309.10	1271.79
309.32	1318.89
309.53	1298.41
309.74	1208.30
309.96	1247.21
310.17	1329.13
310.39	1261.55
310.60	1337.32
310.81	1255.40
311.03	1275.88
311.24	1306.60
311.45	1220.59
311.67	1273.84
311.88	1245.16
312.09	1261.55
312.31	1224.69
312.52	1279.98
312.73	1245.16
312.95	1261.55
313.16	1267.69
313.37	1292.27
313.59	1241.07
313.80	1214.45
314.01	1296.36
314.23	1302.51
314.44	1234.93
314.65	1292.27
314.87	1290.22
315.08	1228.78
315.29	1267.69
315.51	1261.55
315.72	1249.26
315.93	1296.36
316.15	1288.17
316.36	1220.59
316.57	1269.74
316.79	1341.42
317.00	1198.06
317.21	1265.64
317.43	1263.60
317.64	1263.60
317.85	1286.12
318.07	1273.84
318.28	1251.31
318.49	1167.34
318.70	1263.60
318.92	1277.93
319.13	1271.79
319.34	1277.93
319.56	1216.49
319.77	1361.90
319.98	1308.65
320.20	1284.08
320.41	1273.84
320.62	1234.93
320.83	1370.09
321.05	1290.22
321.26	1249.26
321.47	1234.93
321.69	1224.69
321.90	1284.08
322.11	1251.31
322.32	1249.26
322.54	1249.26
322.75	1316.84
322.96	1306.60
323.18	1320.94
323.39	1263.60
323.60	1337.32
323.81	1288.17
324.03	1251.31
324.24	1241.07
324.45	1228.78
324.66	1257.45
324.88	1243.12
325.09	1228.78
325.30	1236.97
325.52	1214.45
325.73	1253.36
325.94	1277.93
326.15	1261.55
326.37	1259.50
326.58	1249.26
326.79	1277.93
327.00	1282.03
327.22	1286.12
327.43	1257.45
327.64	1247.21
327.85	1212.40
328.07	1302.51
328.28	1282.03
328.49	1290.22
328.70	1273.84
328.92	1269.74
329.13	1243.12
329.34	1290.22
329.55	1255.40
329.76	1247.21
329.98	1275.88
330.19	1298.41
330.40	1261.55
330.61	1279.98
330.83	1312.75
331.04	1261.55
331.25	1275.88
331.46	1216.49
331.68	1224.69
331.89	1234.93
332.10	1335.28
332.31	1306.60
332.52	1269.74
332.74	1255.40
332.95	1288.17
333.16	1282.03
333.37	1267.69
333.58	1198.06
333.80	1292.27
334.01	1273.84
334.22	1251.31
334.43	1302.51
334.64	1216.49
334.86	1345.52
335.07	1302.51
335.28	1294.32
335.49	1255.40
335.70	1245.16
335.92	1226.73
336.13	1314.80
336.34	1232.88
336.55	1296.36
336.76	1275.88
336.98	1230.83
337.19	1253.36
337.40	1212.40
337.61	1288.17
337.82	1241.07
338.04	1314.80
338.25	1226.73
338.46	1249.26
338.67	1318.89
338.88	1277.93
339.09	1284.08
339.31	1230.83
339.52	1208.30
339.73	1175.53
339.94	1292.27
340.15	1290.22
340.36	1300.46
340.58	1212.40
340.79	1241.07
341.00	1314.80
341.21	1304.56
341.42	1177.58
341.63	1230.83
341.85	1232.88
342.06	1245.16
342.27	1279.98
342.48	1314.80
342.69	1265.64
342.90	1259.50
343.12	1193.97
343.33	1210.35
343.54	1218.54
343.75	1314.80
343.96	1220.59
344.17	1269.74
344.38	1196.01
344.60	1298.41
344.81	1359.85
345.02	1288.17
345.23	1230.83
345.44	1243.12
345.65	1216.49
345.86	1230.83
346.07	1249.26
346.29	1261.55
346.50	1159.15
346.71	1210.35
346.92	1329.13
347.13	1228.78
347.34	1273.84
347.55	1306.60
347.76	1239.02
347.98	1322.99
348.19	1216.49
348.40	1304.56
348.61	1271.79
348.82	1271.79
349.03	1263.60
349.24	1224.69
349.45	1288.17
349.66	1210.35
349.88	1265.64
350.09	1290.22
350.30	1216.49
350.51	1325.04
350.72	1191.92
350.93	1329.13
351.14	1249.26
351.35	1304.56
351.56	1243.12
351.77	1212.40
351.99	1249.26
352.20	1282.03
352.41	1232.88
352.62	1208.30
352.83	1263.60
353.04	1253.36
353.25	1251.31
353.46	1265.64
353.67	1232.88
353.88	1286.12
354.09	1230.83
354.30	1331.18
354.52	1206.25
354.73	1279.98
354.94	1239.02
355.15	1249.26
355.36	1241.07
355.57	1296.36
355.78	1335.28
355.99	1230.83
356.20	1265.64
356.41	1333.23
356.62	1294.32
356.83	1208.30
357.04	1273.84
357.25	1279.98
357.46	1253.36
357.68	1257.45
357.89	1210.35
358.10	1290.22
358.31	1232.88
358.52	1282.03
358.73	1294.32
358.94	1290.22
359.15	1333.23
359.36	1236.97
359.57	1345.52
359.78	1241.07
359.99	1304.56
360.20	1222.64
360.41	1255.40
360.62	1263.60
360.83	1239.02
361.04	1294.32
361.25	1275.88
361.46	1198.06
361.67	1232.88
361.88	1314.80
362.09	1247.21
362.30	1259.50
362.51	1183.73
362.72	1296.36
362.93	1322.99
363.14	1273.84
363.35	1282.03
363.56	1290.22
363.78	1259.50
363.99	1271.79
364.20	1318.89
364.41	1202.16
364.62	1220.59
364.83	1245.16
365.04	1265.64
365.25	1286.12
365.46	1294.32
365.67	1282.03
365.88	1312.75
366.09	1253.36
366.30	1236.97
366.51	1255.40
366.72	1251.31
366.93	1339.37
367.14	1273.84
367.35	1253.36
367.56	1255.40
367.77	1361.90
367.98	1263.60
368.18	1294.32
368.39	1224.69
368.60	1308.65
368.81	1253.36
369.02	1257.45
369.23	1222.64
369.44	1347.56
369.65	1300.46
369.86	1230.83
370.07	1245.16
370.28	1269.74
370.49	1343.47
370.70	1308.65
370.91	1191.92
371.12	1335.28
371.33	1271.79
371.54	1275.88
371.75	1335.28
371.96	1177.58
372.17	1267.69
372.38	1208.30
372.59	1290.22
372.80	1302.51
373.01	1263.60
373.22	1312.75
373.43	1249.26
373.64	1335.28
373.85	1193.97
374.06	1224.69
374.26	1296.36
374.47	1296.36
374.68	1275.88
374.89	1269.74
375.10	1157.10
375.31	1318.89
375.52	1253.36
375.73	1236.97
375.94	1251.31
376.15	1314.80
376.36	1189.87
376.57	1294.32
376.78	1220.59
376.99	1279.98
377.20	1286.12
377.40	1265.64
377.61	1220.59
377.82	1232.88
378.03	1298.41
378.24	1282.03
378.45	1308.65
378.66	1314.80
378.87	1259.50
379.08	1279.98
379.29	1271.79
379.50	1257.45
379.71	1380.33
379.91	1310.70
380.12	1320.94
380.33	1318.89
380.54	1277.93
380.75	1277.93
380.96	1329.13
381.17	1216.49
381.38	1202.16
381.59	1302.51
381.80	1294.32
382.00	1236.97
382.21	1277.93
382.42	1288.17
382.63	1310.70
382.84	1189.87
383.05	1279.98
383.26	1187.82
383.47	1224.69
383.68	1294.32
383.88	1208.30
384.09	1271.79
384.30	1261.55
384.51	1320.94
384.72	1210.35
384.93	1306.60
385.14	1224.69
385.35	1243.12
385.55	1236.97
385.76	1247.21
385.97	1277.93
386.18	1255.40
386.39	1189.87
386.60	1257.45
386.81	1251.31
387.02	1277.93
387.22	1210.35
387.43	1312.75
387.64	1239.02
387.85	1337.32
388.06	1245.16
388.27	1282.03
388.48	1200.11
388.68	1314.80
388.89	1249.26
389.10	1296.36
389.31	1226.73
389.52	1273.84
389.73	1275.88
389.93	1249.26
390.14	1261.55
390.35	1230.83
390.56	1261.55
390.77	1265.64
390.98	1269.74
391.18	1308.65
391.39	1212.40
391.60	1314.80
391.81	1269.74
392.02	1247.21
392.23	1228.78
392.43	1310.70
392.64	1204.21
392.85	1294.32
393.06	1290.22
393.27	1255.40
393.47	1241.07
393.68	1271.79
393.89	1267.69
394.10	1269.74
394.31	1187.82
394.52	1322.99
394.72	1261.55
394.93	1200.11
395.14	1273.84
395.35	1275.88
395.56	1257.45
395.76	1230.83
395.97	1286.12
396.18	1198.06
396.39	1322.99
396.60	1327.08
396.80	1296.36
397.01	1279.98
397.22	1230.83
397.43	1259.50
397.64	1257.45
397.84	1257.45
398.05	1337.32
398.26	1249.26
398.47	1298.41
398.67	1265.64
398.88	1271.79
399.09	1282.03
399.30	1265.64
399.51	1224.69
399.71	1267.69
399.92	1253.36
400.13	1228.78
400.34	1329.13
400.54	1279.98
400.75	1275.88
400.96	1284.08
401.17	1279.98
401.37	1337.32
401.58	1306.60
401.79	1210.35
402.00	1290.22
402.21	1249.26
402.41	1230.83
402.62	1273.84
402.83	1298.41
403.04	1322.99
403.24	1286.12
403.45	1312.75
403.66	1232.88
403.87	1253.36
404.07	1339.37
404.28	1273.84
404.49	1261.55
404.70	1288.17
404.90	1277.93
405.11	1239.02
405.32	1253.36
405.52	1243.12
405.73	1259.50
405.94	1187.82
406.15	1347.56
406.35	1304.56
406.56	1282.03
406.77	1333.23
406.98	1318.89
407.18	1302.51
407.39	1255.40
407.60	1265.64
407.80	1290.22
408.01	1200.11
408.22	1279.98
408.43	1277.93
408.63	1331.18
408.84	1316.84
409.05	1271.79
409.25	1294.32
409.46	1212.40
409.67	1200.11
409.88	1198.06
410.08	1300.46
410.29	1275.88
410.50	1331.18
410.70	1296.36
410.91	1265.64
411.12	1249.26
411.32	1271.79
411.53	1249.26
411.74	1265.64
411.95	1208.30
412.15	1226.73
412.36	1206.25
412.57	1277.93
412.77	1196.01
412.98	1263.60
413.19	1239.02
413.39	1269.74
413.60	1282.03
413.81	1298.41
414.01	1322.99
414.22	1193.97
414.43	1279.98
414.63	1288.17
414.84	1361.90
415.05	1191.92
415.25	1206.25
415.46	1261.55
415.67	1263.60
415.87	1306.60
416.08	1253.36
416.29	1236.97
416.49	1298.41
416.70	1257.45
416.91	1314.80
417.11	1245.16
417.32	1230.83
417.53	1249.26
417.73	1271.79
417.94	1196.01
418.15	1193.97
418.35	1224.69
418.56	1282.03
418.77	1273.84
418.97	1241.07
419.18	1228.78
419.38	1226.73
419.59	1210.35
419.80	1251.31
420.00	1347.56
420.21	1249.26
420.42	1259.50
420.62	1257.45
420.83	1308.65
421.04	1247.21
421.24	1261.55
421.45	1339.37
421.65	1230.83
421.86	1165.29
422.07	1273.84
422.27	1279.98
422.48	1230.83
422.69	1308.65
422.89	1261.55
423.10	1222.64
423.30	1232.88
423.51	1279.98
423.72	1288.17
423.92	1370.09
424.13	1261.55
424.33	1245.16
424.54	1212.40
424.75	1259.50
424.95	1271.79
425.16	1230.83
425.36	1282.03
425.57	1243.12
425.78	1261.55
425.98	1255.40
426.19	1290.22
426.39	1241.07
426.60	1239.02
426.81	1302.51
427.01	1331.18
427.22	1290.22
427.42	1265.64
427.63	1263.60
427.83	1267.69
428.04	1261.55
428.25	1263.60
428.45	1304.56
428.66	1222.64
428.86	1279.98
429.07	1234.93
429.28	1306.60
429.48	1255.40
429.69	1224.69
429.89	1339.37
430.10	1322.99
430.30	1263.60
430.51	1275.88
430.71	1325.04
430.92	1279.98
431.13	1331.18
431.33	1261.55
431.54	1284.08
431.74	1257.45
431.95	1292.27
432.15	1271.79
432.36	1253.36
432.56	1239.02
432.77	1306.60
432.98	1331.18
433.18	1290.22
433.39	1286.12
433.59	1265.64
433.80	1298.41
434.00	1259.50
434.21	1279.98
434.41	1265.64
434.62	1322.99
434.82	1239.02
435.03	1302.51
435.23	1247.21
435.44	1265.64
435.64	1259.50
435.85	1247.21
436.06	1320.94
436.26	1282.03
436.47	1312.75
436.67	1263.60
436.88	1269.74
437.08	1249.26
437.29	1296.36
437.49	1316.84
437.70	1284.08
437.90	1239.02
438.11	1277.93
438.31	1282.03
438.52	1275.88
438.72	1230.83
438.93	1277.93
439.13	1193.97
439.34	1269.74
439.54	1204.21
439.75	1282.03
439.95	1284.08
440.16	1286.12
440.36	1310.70
440.57	1228.78
440.77	1226.73
440.98	1269.74
441.18	1241.07
441.39	1286.12
441.59	1279.98
441.80	1306.60
442.00	1255.40
442.21	1269.74
442.41	1222.64
442.62	1286.12
442.82	1279.98
443.02	1241.07
443.23	1245.16
443.43	1273.84
443.64	1218.54
443.84	1302.51
444.05	1329.13
444.25	1304.56
444.46	1277.93
444.66	1224.69
444.87	1247.21
445.07	1218.54
445.28	1216.49
445.48	1245.16
445.69	1253.36
445.89	1277.93
446.09	1243.12
446.30	1290.22
446.50	1320.94
446.71	1259.50
446.91	1232.88
447.12	1177.58
447.32	1239.02
447.53	1222.64
447.73	1261.55
447.93	1245.16
448.14	1298.41
448.34	1282.03
448.55	1300.46
448.75	1234.93
448.96	1232.88
449.16	1243.12
449.36	1255.40
449.57	1220.59
449.77	1306.60
449.98	1304.56
450.18	1284.08
450.39	1310.70
450.59	1345.52
450.79	1288.17
451.00	1331.18
451.20	1257.45
451.41	1263.60
451.61	1298.41
451.81	1290.22
452.02	1396.71
452.22	1318.89
452.43	1226.73
452.63	1265.64
