SpectraSuite Data File
++++++++++++++++++++++++++++++++++++
Date: Sun Apr 03 19:55:13 CEST 2016
User: root
Dark Spectrum Present: No
Reference Spectrum Present: No
Number of Sampled Component Spectra: 1
Spectrometers: USB4C02835
Integration Time (usec): 10000 (USB4C02835)
Spectra Averaged: 1 (USB4C02835)
Boxcar Smoothing: 0 (USB4C02835)
Correct for Electrical Dark: No (USB4C02835)
Strobe/Lamp Enabled: No (USB4C02835)
Correct for Detector Non-linearity: No (USB4C02835)
Correct for Stray Light: No (USB4C02835)
Number of Pixels in Processed Spectrum: 3648
>>>>>Begin Processed Spectral Data<<<<<
177.47	1230.83
177.69	1230.83
177.91	1230.83
178.13	1290.22
178.36	1261.55
178.58	1347.56
178.80	1261.55
179.02	1214.45
179.24	1275.88
179.46	1236.97
179.68	1288.17
179.90	1271.79
180.13	1191.92
180.35	1245.16
180.57	1224.69
180.79	1230.83
181.01	1222.64
181.23	1265.64
181.45	1249.26
181.67	1255.40
181.90	1239.02
182.12	1282.03
182.34	1247.21
182.56	1271.79
182.78	1247.21
183.00	1288.17
183.22	1245.16
183.44	1228.78
183.66	1247.21
183.89	1241.07
184.11	1273.84
184.33	1251.31
184.55	1290.22
184.77	1228.78
184.99	1298.41
185.21	1247.21
185.43	1333.23
185.65	1273.84
185.87	1263.60
186.10	1157.10
186.32	1273.84
186.54	1294.32
186.76	1234.93
186.98	1265.64
187.20	1298.41
187.42	1224.69
187.64	1329.13
187.86	1275.88
188.08	1263.60
188.30	1191.92
188.52	1310.70
188.75	1304.56
188.97	1257.45
189.19	1226.73
189.41	1245.16
189.63	1200.11
189.85	1265.64
190.07	1310.70
190.29	1230.83
190.51	1253.36
190.73	1230.83
190.95	1277.93
191.17	1247.21
191.39	1198.06
191.61	1212.40
191.84	1294.32
192.06	1277.93
192.28	1322.99
192.50	1243.12
192.72	1286.12
192.94	1226.73
193.16	1255.40
193.38	1204.21
193.60	1222.64
193.82	1273.84
194.04	1261.55
194.26	1286.12
194.48	1269.74
194.70	1310.70
194.92	1288.17
195.14	1189.87
195.36	1310.70
195.58	1337.32
195.80	1284.08
196.02	1292.27
196.24	1282.03
196.46	1214.45
196.69	1286.12
196.91	1279.98
197.13	1247.21
197.35	1247.21
197.57	1322.99
197.79	1284.08
198.01	1265.64
198.23	1277.93
198.45	1257.45
198.67	1251.31
198.89	1320.94
199.11	1249.26
199.33	1253.36
199.55	1243.12
199.77	1275.88
199.99	1290.22
200.21	1243.12
200.43	1290.22
200.65	1245.16
200.87	1273.84
201.09	1271.79
201.31	1216.49
201.53	1216.49
201.75	1275.88
201.97	1282.03
202.19	1284.08
202.41	1232.88
202.63	1343.47
202.85	1282.03
203.07	1230.83
203.29	1320.94
203.51	1269.74
203.73	1273.84
203.95	1263.60
204.17	1296.36
204.39	1310.70
204.61	1271.79
204.83	1214.45
205.05	1224.69
205.27	1249.26
205.49	1304.56
205.71	1261.55
205.93	1294.32
206.15	1228.78
206.37	1239.02
206.59	1216.49
206.81	1282.03
207.03	1325.04
207.25	1327.08
207.47	1345.52
207.69	1269.74
207.91	1273.84
208.13	1314.80
208.34	1271.79
208.56	1341.42
208.78	1306.60
209.00	1275.88
209.22	1230.83
209.44	1279.98
209.66	1277.93
209.88	1228.78
210.10	1329.13
210.32	1279.98
210.54	1325.04
210.76	1257.45
210.98	1271.79
211.20	1193.97
211.42	1294.32
211.64	1400.81
211.86	1292.27
212.08	1343.47
212.30	1294.32
212.52	1259.50
212.74	1241.07
212.96	1314.80
213.17	1265.64
213.39	1257.45
213.61	1292.27
213.83	1171.44
214.05	1284.08
214.27	1271.79
214.49	1288.17
214.71	1288.17
214.93	1320.94
215.15	1269.74
215.37	1366.00
215.59	1255.40
215.81	1310.70
216.03	1322.99
216.24	1322.99
216.46	1331.18
216.68	1302.51
216.90	1241.07
217.12	1218.54
217.34	1290.22
217.56	1296.36
217.78	1222.64
218.00	1267.69
218.22	1220.59
218.44	1345.52
218.66	1275.88
218.87	1284.08
219.09	1232.88
219.31	1255.40
219.53	1214.45
219.75	1241.07
219.97	1200.11
220.19	1282.03
220.41	1257.45
220.63	1273.84
220.85	1339.37
221.06	1253.36
221.28	1314.80
221.50	1335.28
221.72	1253.36
221.94	1331.18
222.16	1249.26
222.38	1322.99
222.60	1273.84
222.82	1224.69
223.03	1185.77
223.25	1273.84
223.47	1218.54
223.69	1288.17
223.91	1241.07
224.13	1273.84
224.35	1284.08
224.57	1216.49
224.78	1304.56
225.00	1282.03
225.22	1259.50
225.44	1282.03
225.66	1284.08
225.88	1277.93
226.10	1282.03
226.32	1247.21
226.53	1191.92
226.75	1292.27
226.97	1267.69
227.19	1298.41
227.41	1220.59
227.63	1212.40
227.85	1337.32
228.06	1292.27
228.28	1298.41
228.50	1296.36
228.72	1290.22
228.94	1296.36
229.16	1216.49
229.37	1279.98
229.59	1218.54
229.81	1261.55
230.03	1273.84
230.25	1288.17
230.47	1204.21
230.69	1243.12
230.90	1241.07
231.12	1322.99
231.34	1296.36
231.56	1290.22
231.78	1286.12
232.00	1224.69
232.21	1232.88
232.43	1249.26
232.65	1314.80
232.87	1257.45
233.09	1304.56
233.30	1230.83
233.52	1257.45
233.74	1249.26
233.96	1327.08
234.18	1261.55
234.40	1288.17
234.61	1259.50
234.83	1275.88
235.05	1302.51
235.27	1284.08
235.49	1271.79
235.70	1245.16
235.92	1226.73
236.14	1282.03
236.36	1249.26
236.58	1218.54
236.79	1296.36
237.01	1288.17
237.23	1320.94
237.45	1333.23
237.67	1271.79
237.88	1249.26
238.10	1279.98
238.32	1271.79
238.54	1249.26
238.76	1273.84
238.97	1208.30
239.19	1304.56
239.41	1366.00
239.63	1265.64
239.85	1232.88
240.06	1296.36
240.28	1230.83
240.50	1294.32
240.72	1273.84
240.93	1298.41
241.15	1312.75
241.37	1257.45
241.59	1306.60
241.81	1294.32
242.02	1273.84
242.24	1273.84
242.46	1196.01
242.68	1343.47
242.89	1320.94
243.11	1277.93
243.33	1226.73
243.55	1255.40
243.76	1212.40
243.98	1282.03
244.20	1222.64
244.42	1394.67
244.64	1349.61
244.85	1230.83
245.07	1275.88
245.29	1282.03
245.51	1222.64
245.72	1284.08
245.94	1288.17
246.16	1298.41
246.38	1263.60
246.59	1224.69
246.81	1241.07
247.03	1232.88
247.24	1261.55
247.46	1296.36
247.68	1263.60
247.90	1292.27
248.11	1204.21
248.33	1282.03
248.55	1259.50
248.77	1224.69
248.98	1308.65
249.20	1273.84
249.42	1286.12
249.64	1220.59
249.85	1259.50
250.07	1187.82
250.29	1290.22
250.50	1263.60
250.72	1249.26
250.94	1255.40
251.16	1249.26
251.37	1271.79
251.59	1329.13
251.81	1265.64
252.02	1247.21
252.24	1292.27
252.46	1357.80
252.68	1245.16
252.89	1257.45
253.11	1214.45
253.33	1232.88
253.54	1327.08
253.76	1232.88
253.98	1310.70
254.20	1200.11
254.41	1255.40
254.63	1288.17
254.85	1230.83
255.06	1312.75
255.28	1241.07
255.50	1337.32
255.71	1230.83
255.93	1300.46
256.15	1228.78
256.36	1228.78
256.58	1302.51
256.80	1247.21
257.02	1241.07
257.23	1275.88
257.45	1251.31
257.67	1286.12
257.88	1243.12
258.10	1208.30
258.32	1253.36
258.53	1349.61
258.75	1179.63
258.97	1406.95
259.18	1251.31
259.40	1300.46
259.62	1312.75
259.83	1261.55
260.05	1198.06
260.27	1290.22
260.48	1255.40
260.70	1339.37
260.92	1249.26
261.13	1312.75
261.35	1331.18
261.57	1271.79
261.78	1247.21
262.00	1298.41
262.22	1232.88
262.43	1282.03
262.65	1210.35
262.86	1232.88
263.08	1284.08
263.30	1249.26
263.51	1259.50
263.73	1263.60
263.95	1267.69
264.16	1277.93
264.38	1275.88
264.60	1265.64
264.81	1179.63
265.03	1239.02
265.25	1234.93
265.46	1273.84
265.68	1257.45
265.89	1271.79
266.11	1284.08
266.33	1273.84
266.54	1257.45
266.76	1259.50
266.98	1265.64
267.19	1259.50
267.41	1339.37
267.62	1234.93
267.84	1349.61
268.06	1284.08
268.27	1247.21
268.49	1273.84
268.70	1288.17
268.92	1296.36
269.14	1224.69
269.35	1222.64
269.57	1316.84
269.79	1282.03
270.00	1269.74
270.22	1282.03
270.43	1251.31
270.65	1198.06
270.87	1212.40
271.08	1251.31
271.30	1232.88
271.51	1239.02
271.73	1251.31
271.95	1269.74
272.16	1337.32
272.38	1263.60
272.59	1243.12
272.81	1267.69
273.02	1277.93
273.24	1288.17
273.46	1273.84
273.67	1206.25
273.89	1243.12
274.10	1241.07
274.32	1325.04
274.54	1245.16
274.75	1265.64
274.97	1347.56
275.18	1259.50
275.40	1198.06
275.61	1236.97
275.83	1261.55
276.05	1200.11
276.26	1249.26
276.48	1296.36
276.69	1253.36
276.91	1230.83
277.12	1222.64
277.34	1234.93
277.55	1222.64
277.77	1216.49
277.99	1306.60
278.20	1269.74
278.42	1247.21
278.63	1269.74
278.85	1259.50
279.06	1265.64
279.28	1236.97
279.49	1275.88
279.71	1306.60
279.93	1267.69
280.14	1290.22
280.36	1263.60
280.57	1298.41
280.79	1232.88
281.00	1298.41
281.22	1265.64
281.43	1298.41
281.65	1218.54
281.86	1290.22
282.08	1275.88
282.29	1353.71
282.51	1277.93
282.73	1234.93
282.94	1316.84
283.16	1320.94
283.37	1314.80
283.59	1226.73
283.80	1216.49
284.02	1263.60
284.23	1193.97
284.45	1253.36
284.66	1167.34
284.88	1255.40
285.09	1230.83
285.31	1296.36
285.52	1267.69
285.74	1249.26
285.95	1271.79
286.17	1312.75
286.38	1302.51
286.60	1292.27
286.81	1224.69
287.03	1302.51
287.24	1204.21
287.46	1251.31
287.67	1277.93
287.89	1247.21
288.10	1273.84
288.32	1269.74
288.53	1275.88
288.75	1277.93
288.96	1257.45
289.18	1277.93
289.39	1300.46
289.61	1290.22
289.82	1220.59
290.04	1282.03
290.25	1296.36
290.47	1288.17
290.68	1277.93
290.90	1388.52
291.11	1234.93
291.33	1277.93
291.54	1187.82
291.76	1257.45
291.97	1232.88
292.18	1304.56
292.40	1316.84
292.61	1273.84
292.83	1218.54
293.04	1363.95
293.26	1204.21
293.47	1230.83
293.69	1216.49
293.90	1316.84
294.12	1312.75
294.33	1300.46
294.55	1239.02
294.76	1224.69
294.97	1271.79
295.19	1202.16
295.40	1298.41
295.62	1230.83
295.83	1263.60
296.05	1320.94
296.26	1200.11
296.48	1265.64
296.69	1333.23
296.90	1263.60
297.12	1329.13
297.33	1308.65
297.55	1273.84
297.76	1230.83
297.98	1347.56
298.19	1345.52
298.41	1249.26
298.62	1290.22
298.83	1206.25
299.05	1263.60
299.26	1279.98
299.48	1253.36
299.69	1306.60
299.90	1304.56
300.12	1208.30
300.33	1208.30
300.55	1255.40
300.76	1200.11
300.98	1318.89
301.19	1355.76
301.40	1298.41
301.62	1269.74
301.83	1265.64
302.05	1253.36
302.26	1200.11
302.47	1189.87
302.69	1353.71
302.90	1259.50
303.12	1263.60
303.33	1355.76
303.54	1355.76
303.76	1253.36
303.97	1351.66
304.19	1247.21
304.40	1255.40
304.61	1400.81
304.83	1290.22
305.04	1318.89
305.26	1236.97
305.47	1218.54
305.68	1247.21
305.90	1273.84
306.11	1245.16
306.33	1259.50
306.54	1232.88
306.75	1222.64
306.97	1277.93
307.18	1335.28
307.39	1306.60
307.61	1255.40
307.82	1247.21
308.04	1232.88
308.25	1243.12
308.46	1198.06
308.68	1322.99
308.89	1300.46
309.10	1245.16
309.32	1255.40
309.53	1208.30
309.74	1261.55
309.96	1230.83
310.17	1284.08
310.39	1306.60
310.60	1290.22
310.81	1247.21
311.03	1239.02
311.24	1316.84
311.45	1253.36
311.67	1267.69
311.88	1253.36
312.09	1279.98
312.31	1279.98
312.52	1308.65
312.73	1271.79
312.95	1247.21
313.16	1247.21
313.37	1277.93
313.59	1224.69
313.80	1279.98
314.01	1271.79
314.23	1306.60
314.44	1263.60
314.65	1224.69
314.87	1271.79
315.08	1263.60
315.29	1230.83
315.51	1294.32
315.72	1308.65
315.93	1247.21
316.15	1275.88
316.36	1286.12
316.57	1339.37
316.79	1247.21
317.00	1218.54
317.21	1337.32
317.43	1210.35
317.64	1255.40
317.85	1187.82
318.07	1282.03
318.28	1236.97
318.49	1200.11
318.70	1271.79
318.92	1310.70
319.13	1279.98
319.34	1214.45
319.56	1288.17
319.77	1224.69
319.98	1273.84
320.20	1298.41
320.41	1218.54
320.62	1269.74
320.83	1273.84
321.05	1331.18
321.26	1322.99
321.47	1271.79
321.69	1292.27
321.90	1275.88
322.11	1200.11
322.32	1294.32
322.54	1284.08
322.75	1292.27
322.96	1239.02
323.18	1232.88
323.39	1263.60
323.60	1253.36
323.81	1284.08
324.03	1269.74
324.24	1236.97
324.45	1257.45
324.66	1320.94
324.88	1208.30
325.09	1224.69
325.30	1277.93
325.52	1251.31
325.73	1271.79
325.94	1302.51
326.15	1257.45
326.37	1212.40
326.58	1349.61
326.79	1220.59
327.00	1296.36
327.22	1337.32
327.43	1273.84
327.64	1298.41
327.85	1247.21
328.07	1282.03
328.28	1263.60
328.49	1284.08
328.70	1263.60
328.92	1261.55
329.13	1208.30
329.34	1224.69
329.55	1298.41
329.76	1253.36
329.98	1331.18
330.19	1239.02
330.40	1298.41
330.61	1296.36
330.83	1249.26
331.04	1296.36
331.25	1271.79
331.46	1216.49
331.68	1300.46
331.89	1198.06
332.10	1261.55
332.31	1265.64
332.52	1271.79
332.74	1191.92
332.95	1298.41
333.16	1302.51
333.37	1267.69
333.58	1206.25
333.80	1279.98
334.01	1251.31
334.22	1296.36
334.43	1355.76
334.64	1318.89
334.86	1212.40
335.07	1263.60
335.28	1308.65
335.49	1214.45
335.70	1218.54
335.92	1173.49
336.13	1261.55
336.34	1310.70
336.55	1314.80
336.76	1222.64
336.98	1273.84
337.19	1279.98
337.40	1314.80
337.61	1294.32
337.82	1300.46
338.04	1269.74
338.25	1247.21
338.46	1212.40
338.67	1347.56
338.88	1271.79
339.09	1224.69
339.31	1257.45
339.52	1314.80
339.73	1325.04
339.94	1312.75
340.15	1349.61
340.36	1282.03
340.58	1298.41
340.79	1255.40
341.00	1234.93
341.21	1259.50
341.42	1314.80
341.63	1257.45
341.85	1282.03
342.06	1292.27
342.27	1273.84
342.48	1253.36
342.69	1206.25
342.90	1292.27
343.12	1234.93
343.33	1210.35
343.54	1236.97
343.75	1265.64
343.96	1179.63
344.17	1314.80
344.38	1214.45
344.60	1220.59
344.81	1212.40
345.02	1271.79
345.23	1277.93
345.44	1325.04
345.65	1275.88
345.86	1325.04
346.07	1292.27
346.29	1222.64
346.50	1314.80
346.71	1263.60
346.92	1294.32
347.13	1253.36
347.34	1269.74
347.55	1288.17
347.76	1279.98
347.98	1271.79
348.19	1286.12
348.40	1325.04
348.61	1296.36
348.82	1298.41
349.03	1341.42
349.24	1349.61
349.45	1267.69
349.66	1239.02
349.88	1255.40
350.09	1320.94
350.30	1269.74
350.51	1296.36
350.72	1318.89
350.93	1210.35
351.14	1253.36
351.35	1320.94
351.56	1253.36
351.77	1241.07
351.99	1312.75
352.20	1273.84
352.41	1271.79
352.62	1175.53
352.83	1267.69
353.04	1304.56
353.25	1312.75
353.46	1269.74
353.67	1212.40
353.88	1306.60
354.09	1226.73
354.30	1230.83
354.52	1304.56
354.73	1255.40
354.94	1296.36
355.15	1251.31
355.36	1292.27
355.57	1261.55
355.78	1279.98
355.99	1173.49
356.20	1282.03
356.41	1292.27
356.62	1347.56
356.83	1304.56
357.04	1239.02
357.25	1243.12
357.46	1316.84
357.68	1304.56
357.89	1257.45
358.10	1279.98
358.31	1241.07
358.52	1263.60
358.73	1220.59
358.94	1249.26
359.15	1251.31
359.36	1230.83
359.57	1241.07
359.78	1325.04
359.99	1302.51
360.20	1265.64
360.41	1269.74
360.62	1288.17
360.83	1241.07
361.04	1290.22
361.25	1288.17
361.46	1224.69
361.67	1282.03
361.88	1239.02
362.09	1337.32
362.30	1296.36
362.51	1292.27
362.72	1271.79
362.93	1300.46
363.14	1239.02
363.35	1214.45
363.56	1298.41
363.78	1206.25
363.99	1277.93
364.20	1234.93
364.41	1239.02
364.62	1292.27
364.83	1255.40
365.04	1271.79
365.25	1263.60
365.46	1265.64
365.67	1279.98
365.88	1269.74
366.09	1253.36
366.30	1241.07
366.51	1249.26
366.72	1257.45
366.93	1292.27
367.14	1279.98
367.35	1322.99
367.56	1255.40
367.77	1300.46
367.98	1239.02
368.18	1273.84
368.39	1314.80
368.60	1245.16
368.81	1298.41
369.02	1300.46
369.23	1290.22
369.44	1212.40
369.65	1185.77
369.86	1243.12
370.07	1298.41
370.28	1275.88
370.49	1261.55
370.70	1267.69
370.91	1257.45
371.12	1302.51
371.33	1290.22
371.54	1226.73
371.75	1292.27
371.96	1265.64
372.17	1316.84
372.38	1279.98
372.59	1304.56
372.80	1228.78
373.01	1212.40
373.22	1288.17
373.43	1282.03
373.64	1200.11
373.85	1288.17
374.06	1228.78
374.26	1335.28
374.47	1275.88
374.68	1253.36
374.89	1216.49
375.10	1304.56
375.31	1255.40
375.52	1253.36
375.73	1234.93
375.94	1273.84
376.15	1296.36
376.36	1226.73
376.57	1251.31
376.78	1251.31
376.99	1265.64
377.20	1253.36
377.40	1290.22
377.61	1294.32
377.82	1286.12
378.03	1275.88
378.24	1296.36
378.45	1279.98
378.66	1343.47
378.87	1282.03
379.08	1247.21
379.29	1210.35
379.50	1265.64
379.71	1230.83
379.91	1286.12
380.12	1249.26
380.33	1253.36
380.54	1214.45
380.75	1241.07
380.96	1351.66
381.17	1261.55
381.38	1343.47
381.59	1226.73
381.80	1294.32
382.00	1173.49
382.21	1339.37
382.42	1259.50
382.63	1245.16
382.84	1265.64
383.05	1253.36
383.26	1255.40
383.47	1179.63
383.68	1284.08
383.88	1216.49
384.09	1193.97
384.30	1261.55
384.51	1263.60
384.72	1214.45
384.93	1292.27
385.14	1267.69
385.35	1314.80
385.55	1277.93
385.76	1312.75
385.97	1290.22
386.18	1214.45
386.39	1286.12
386.60	1245.16
386.81	1134.57
387.02	1263.60
387.22	1177.58
387.43	1316.84
387.64	1251.31
387.85	1333.23
388.06	1327.08
388.27	1294.32
388.48	1261.55
388.68	1325.04
388.89	1298.41
389.10	1277.93
389.31	1224.69
389.52	1245.16
389.73	1198.06
389.93	1337.32
390.14	1220.59
390.35	1189.87
390.56	1308.65
390.77	1196.01
390.98	1310.70
391.18	1257.45
391.39	1269.74
391.60	1279.98
391.81	1322.99
392.02	1292.27
392.23	1306.60
392.43	1271.79
392.64	1212.40
392.85	1214.45
393.06	1282.03
393.27	1302.51
393.47	1224.69
393.68	1224.69
393.89	1255.40
394.10	1263.60
394.31	1284.08
394.52	1261.55
394.72	1232.88
394.93	1353.71
395.14	1236.97
395.35	1302.51
395.56	1269.74
395.76	1222.64
395.97	1259.50
396.18	1304.56
396.39	1275.88
396.60	1218.54
396.80	1220.59
397.01	1296.36
397.22	1282.03
397.43	1292.27
397.64	1269.74
397.84	1335.28
398.05	1320.94
398.26	1200.11
398.47	1290.22
398.67	1247.21
398.88	1236.97
399.09	1228.78
399.30	1263.60
399.51	1294.32
399.71	1286.12
399.92	1282.03
400.13	1253.36
400.34	1316.84
400.54	1306.60
400.75	1310.70
400.96	1261.55
401.17	1234.93
401.37	1275.88
401.58	1312.75
401.79	1226.73
402.00	1216.49
402.21	1279.98
402.41	1265.64
402.62	1286.12
402.83	1220.59
403.04	1302.51
403.24	1292.27
403.45	1243.12
403.66	1351.66
403.87	1171.44
404.07	1316.84
404.28	1282.03
404.49	1294.32
404.70	1253.36
404.90	1232.88
405.11	1263.60
405.32	1343.47
405.52	1232.88
405.73	1316.84
405.94	1206.25
406.15	1257.45
406.35	1290.22
406.56	1282.03
406.77	1306.60
406.98	1257.45
407.18	1247.21
407.39	1273.84
407.60	1267.69
407.80	1218.54
408.01	1247.21
408.22	1343.47
408.43	1245.16
408.63	1273.84
408.84	1294.32
409.05	1261.55
409.25	1191.92
409.46	1204.21
409.67	1318.89
409.88	1300.46
410.08	1273.84
410.29	1234.93
410.50	1206.25
410.70	1230.83
410.91	1230.83
411.12	1204.21
411.32	1253.36
411.53	1261.55
411.74	1325.04
411.95	1265.64
412.15	1245.16
412.36	1300.46
412.57	1300.46
412.77	1302.51
412.98	1273.84
413.19	1247.21
413.39	1284.08
413.60	1290.22
413.81	1175.53
414.01	1349.61
414.22	1239.02
414.43	1322.99
414.63	1259.50
414.84	1269.74
415.05	1294.32
415.25	1239.02
415.46	1296.36
415.67	1304.56
415.87	1333.23
416.08	1228.78
416.29	1343.47
416.49	1325.04
416.70	1241.07
416.91	1288.17
417.11	1310.70
417.32	1255.40
417.53	1257.45
417.73	1312.75
417.94	1300.46
418.15	1187.82
418.35	1255.40
418.56	1318.89
418.77	1251.31
418.97	1284.08
419.18	1212.40
419.38	1218.54
419.59	1314.80
419.80	1277.93
420.00	1196.01
420.21	1261.55
420.42	1185.77
420.62	1234.93
420.83	1216.49
421.04	1243.12
421.24	1318.89
421.45	1304.56
421.65	1239.02
421.86	1265.64
422.07	1212.40
422.27	1318.89
422.48	1245.16
422.69	1249.26
422.89	1290.22
423.10	1298.41
423.30	1333.23
423.51	1355.76
423.72	1269.74
423.92	1333.23
424.13	1247.21
424.33	1314.80
424.54	1314.80
424.75	1304.56
424.95	1259.50
425.16	1234.93
425.36	1331.18
425.57	1284.08
425.78	1224.69
425.98	1218.54
426.19	1263.60
426.39	1339.37
426.60	1251.31
426.81	1292.27
427.01	1191.92
427.22	1341.42
427.42	1198.06
427.63	1267.69
427.83	1277.93
428.04	1284.08
428.25	1335.28
428.45	1271.79
428.66	1236.97
428.86	1165.29
429.07	1273.84
429.28	1220.59
429.48	1230.83
429.69	1234.93
429.89	1269.74
430.10	1341.42
430.30	1312.75
430.51	1343.47
430.71	1277.93
430.92	1279.98
431.13	1253.36
431.33	1290.22
431.54	1312.75
431.74	1196.01
431.95	1261.55
432.15	1257.45
432.36	1259.50
432.56	1298.41
432.77	1290.22
432.98	1273.84
433.18	1263.60
433.39	1310.70
433.59	1202.16
433.80	1331.18
434.00	1277.93
434.21	1255.40
434.41	1265.64
434.62	1249.26
434.82	1224.69
435.03	1263.60
435.23	1230.83
435.44	1277.93
435.64	1234.93
435.85	1216.49
436.06	1263.60
436.26	1298.41
436.47	1269.74
436.67	1279.98
436.88	1245.16
437.08	1279.98
437.29	1269.74
437.49	1239.02
437.70	1296.36
437.90	1353.71
438.11	1277.93
438.31	1269.74
438.52	1284.08
438.72	1247.21
438.93	1255.40
439.13	1255.40
439.34	1355.76
439.54	1273.84
439.75	1284.08
439.95	1255.40
440.16	1290.22
440.36	1273.84
440.57	1249.26
440.77	1273.84
440.98	1247.21
441.18	1290.22
441.39	1314.80
441.59	1253.36
441.80	1298.41
442.00	1388.52
442.21	1318.89
442.41	1259.50
442.62	1279.98
442.82	1318.89
443.02	1284.08
443.23	1247.21
443.43	1304.56
443.64	1284.08
443.84	1243.12
444.05	1218.54
444.25	1204.21
444.46	1316.84
444.66	1257.45
444.87	1298.41
445.07	1271.79
445.28	1343.47
445.48	1210.35
445.69	1259.50
445.89	1275.88
446.09	1288.17
446.30	1310.70
446.50	1282.03
446.71	1208.30
446.91	1249.26
447.12	1222.64
447.32	1329.13
447.53	1277.93
447.73	1304.56
447.93	1308.65
448.14	1286.12
448.34	1232.88
448.55	1361.90
448.75	1312.75
448.96	1341.42
449.16	1320.94
449.36	1259.50
449.57	1322.99
449.77	1286.12
449.98	1275.88
450.18	1277.93
450.39	1271.79
450.59	1312.75
450.79	1245.16
451.00	1222.64
451.20	1206.25
451.41	1269.74
451.61	1269.74
451.81	1236.97
452.02	1230.83
452.22	1302.51
452.43	1263.60
452.63	1273.84
