SpectraSuite Data File
++++++++++++++++++++++++++++++++++++
Date: Sun Apr 03 19:55:43 CEST 2016
User: root
Dark Spectrum Present: No
Reference Spectrum Present: No
Number of Sampled Component Spectra: 1
Spectrometers: USB4C02835
Integration Time (usec): 10000 (USB4C02835)
Spectra Averaged: 1 (USB4C02835)
Boxcar Smoothing: 0 (USB4C02835)
Correct for Electrical Dark: No (USB4C02835)
Strobe/Lamp Enabled: No (USB4C02835)
Correct for Detector Non-linearity: No (USB4C02835)
Correct for Stray Light: No (USB4C02835)
Number of Pixels in Processed Spectrum: 3648
>>>>>Begin Processed Spectral Data<<<<<
177.47	1298.41
177.69	1298.41
177.91	1298.41
178.13	1257.45
178.36	1208.30
178.58	1290.22
178.80	1288.17
179.02	1239.02
179.24	1298.41
179.46	1228.78
179.68	1296.36
179.90	1331.18
180.13	1257.45
180.35	1310.70
180.57	1200.11
180.79	1234.93
181.01	1261.55
181.23	1257.45
181.45	1298.41
181.67	1271.79
181.90	1267.69
182.12	1249.26
182.34	1218.54
182.56	1269.74
182.78	1234.93
183.00	1286.12
183.22	1249.26
183.44	1325.04
183.66	1306.60
183.89	1269.74
184.11	1286.12
184.33	1333.23
184.55	1230.83
184.77	1361.90
184.99	1306.60
185.21	1263.60
185.43	1259.50
185.65	1312.75
185.87	1179.63
186.10	1267.69
186.32	1318.89
186.54	1271.79
186.76	1296.36
186.98	1247.21
187.20	1228.78
187.42	1245.16
187.64	1249.26
187.86	1263.60
188.08	1222.64
188.30	1220.59
188.52	1294.32
188.75	1263.60
188.97	1204.21
189.19	1298.41
189.41	1296.36
189.63	1302.51
189.85	1314.80
190.07	1310.70
190.29	1247.21
190.51	1245.16
190.73	1314.80
190.95	1325.04
191.17	1257.45
191.39	1286.12
191.61	1302.51
191.84	1216.49
192.06	1320.94
192.28	1296.36
192.50	1271.79
192.72	1255.40
192.94	1193.97
193.16	1230.83
193.38	1345.52
193.60	1265.64
193.82	1298.41
194.04	1300.46
194.26	1298.41
194.48	1204.21
194.70	1277.93
194.92	1290.22
195.14	1261.55
195.36	1204.21
195.58	1314.80
195.80	1255.40
196.02	1243.12
196.24	1275.88
196.46	1296.36
196.69	1208.30
196.91	1269.74
197.13	1247.21
197.35	1198.06
197.57	1306.60
197.79	1286.12
198.01	1275.88
198.23	1279.98
198.45	1273.84
198.67	1359.85
198.89	1222.64
199.11	1337.32
199.33	1265.64
199.55	1210.35
199.77	1236.97
199.99	1263.60
200.21	1306.60
200.43	1255.40
200.65	1292.27
200.87	1271.79
201.09	1304.56
201.31	1263.60
201.53	1257.45
201.75	1220.59
201.97	1249.26
202.19	1255.40
202.41	1298.41
202.63	1255.40
202.85	1279.98
203.07	1312.75
203.29	1173.49
203.51	1261.55
203.73	1265.64
203.95	1384.43
204.17	1290.22
204.39	1288.17
204.61	1286.12
204.83	1273.84
205.05	1282.03
205.27	1181.68
205.49	1236.97
205.71	1294.32
205.93	1232.88
206.15	1220.59
206.37	1265.64
206.59	1322.99
206.81	1228.78
207.03	1222.64
207.25	1320.94
207.47	1286.12
207.69	1179.63
207.91	1257.45
208.13	1210.35
208.34	1279.98
208.56	1216.49
208.78	1232.88
209.00	1296.36
209.22	1255.40
209.44	1269.74
209.66	1253.36
209.88	1232.88
210.10	1267.69
210.32	1257.45
210.54	1191.92
210.76	1310.70
210.98	1222.64
211.20	1310.70
211.42	1245.16
211.64	1236.97
211.86	1251.31
212.08	1275.88
212.30	1312.75
212.52	1241.07
212.74	1288.17
212.96	1267.69
213.17	1247.21
213.39	1318.89
213.61	1265.64
213.83	1243.12
214.05	1296.36
214.27	1265.64
214.49	1232.88
214.71	1308.65
214.93	1345.52
215.15	1277.93
215.37	1271.79
215.59	1243.12
215.81	1247.21
216.03	1259.50
216.24	1241.07
216.46	1226.73
216.68	1286.12
216.90	1275.88
217.12	1296.36
217.34	1167.34
217.56	1300.46
217.78	1257.45
218.00	1241.07
218.22	1335.28
218.44	1271.79
218.66	1212.40
218.87	1300.46
219.09	1196.01
219.31	1269.74
219.53	1196.01
219.75	1298.41
219.97	1253.36
220.19	1292.27
220.41	1220.59
220.63	1300.46
220.85	1286.12
221.06	1257.45
221.28	1224.69
221.50	1335.28
221.72	1269.74
221.94	1275.88
222.16	1245.16
222.38	1308.65
222.60	1290.22
222.82	1279.98
223.03	1290.22
223.25	1277.93
223.47	1265.64
223.69	1304.56
223.91	1279.98
224.13	1282.03
224.35	1263.60
224.57	1265.64
224.78	1226.73
225.00	1239.02
225.22	1300.46
225.44	1288.17
225.66	1275.88
225.88	1261.55
226.10	1214.45
226.32	1249.26
226.53	1271.79
226.75	1296.36
226.97	1290.22
227.19	1243.12
227.41	1331.18
227.63	1251.31
227.85	1177.58
228.06	1232.88
228.28	1261.55
228.50	1222.64
228.72	1288.17
228.94	1312.75
229.16	1247.21
229.37	1261.55
229.59	1290.22
229.81	1239.02
230.03	1214.45
230.25	1361.90
230.47	1275.88
230.69	1193.97
230.90	1290.22
231.12	1251.31
231.34	1300.46
231.56	1239.02
231.78	1216.49
232.00	1316.84
232.21	1247.21
232.43	1290.22
232.65	1255.40
232.87	1255.40
233.09	1247.21
233.30	1265.64
233.52	1226.73
233.74	1306.60
233.96	1288.17
234.18	1189.87
234.40	1210.35
234.61	1206.25
234.83	1275.88
235.05	1216.49
235.27	1249.26
235.49	1263.60
235.70	1282.03
235.92	1343.47
236.14	1226.73
236.36	1257.45
236.58	1255.40
236.79	1255.40
237.01	1251.31
237.23	1286.12
237.45	1230.83
237.67	1312.75
237.88	1224.69
238.10	1220.59
238.32	1290.22
238.54	1263.60
238.76	1298.41
238.97	1298.41
239.19	1236.97
239.41	1224.69
239.63	1279.98
239.85	1204.21
240.06	1296.36
240.28	1288.17
240.50	1251.31
240.72	1251.31
240.93	1228.78
241.15	1294.32
241.37	1220.59
241.59	1284.08
241.81	1284.08
242.02	1255.40
242.24	1200.11
242.46	1275.88
242.68	1206.25
242.89	1279.98
243.11	1261.55
243.33	1302.51
243.55	1286.12
243.76	1239.02
243.98	1241.07
244.20	1296.36
244.42	1241.07
244.64	1251.31
244.85	1273.84
245.07	1269.74
245.29	1218.54
245.51	1290.22
245.72	1282.03
245.94	1255.40
246.16	1320.94
246.38	1267.69
246.59	1292.27
246.81	1196.01
247.03	1255.40
247.24	1239.02
247.46	1304.56
247.68	1271.79
247.90	1257.45
248.11	1304.56
248.33	1249.26
248.55	1298.41
248.77	1216.49
248.98	1241.07
249.20	1251.31
249.42	1339.37
249.64	1279.98
249.85	1216.49
250.07	1179.63
250.29	1298.41
250.50	1308.65
250.72	1198.06
250.94	1255.40
251.16	1296.36
251.37	1271.79
251.59	1253.36
251.81	1275.88
252.02	1214.45
252.24	1275.88
252.46	1318.89
252.68	1310.70
252.89	1273.84
253.11	1282.03
253.33	1277.93
253.54	1208.30
253.76	1282.03
253.98	1310.70
254.20	1296.36
254.41	1218.54
254.63	1265.64
254.85	1306.60
255.06	1253.36
255.28	1312.75
255.50	1241.07
255.71	1224.69
255.93	1269.74
256.15	1310.70
256.36	1241.07
256.58	1335.28
256.80	1236.97
257.02	1185.77
257.23	1310.70
257.45	1277.93
257.67	1261.55
257.88	1241.07
258.10	1282.03
258.32	1279.98
258.53	1261.55
258.75	1282.03
258.97	1345.52
259.18	1335.28
259.40	1286.12
259.62	1294.32
259.83	1282.03
260.05	1234.93
260.27	1300.46
260.48	1277.93
260.70	1292.27
260.92	1243.12
261.13	1253.36
261.35	1214.45
261.57	1286.12
261.78	1294.32
262.00	1263.60
262.22	1269.74
262.43	1271.79
262.65	1271.79
262.86	1312.75
263.08	1210.35
263.30	1191.92
263.51	1247.21
263.73	1306.60
263.95	1333.23
264.16	1267.69
264.38	1257.45
264.60	1286.12
264.81	1286.12
265.03	1300.46
265.25	1277.93
265.46	1210.35
265.68	1279.98
265.89	1304.56
266.11	1241.07
266.33	1277.93
266.54	1306.60
266.76	1302.51
266.98	1290.22
267.19	1288.17
267.41	1249.26
267.62	1275.88
267.84	1241.07
268.06	1294.32
268.27	1193.97
268.49	1247.21
268.70	1249.26
268.92	1257.45
269.14	1257.45
269.35	1267.69
269.57	1202.16
269.79	1279.98
270.00	1261.55
270.22	1232.88
270.43	1353.71
270.65	1251.31
270.87	1271.79
271.08	1243.12
271.30	1282.03
271.51	1265.64
271.73	1249.26
271.95	1261.55
272.16	1273.84
272.38	1298.41
272.59	1255.40
272.81	1269.74
273.02	1224.69
273.24	1294.32
273.46	1220.59
273.67	1359.85
273.89	1140.72
274.10	1263.60
274.32	1249.26
274.54	1253.36
274.75	1284.08
274.97	1241.07
275.18	1230.83
275.40	1286.12
275.61	1257.45
275.83	1351.66
276.05	1304.56
276.26	1308.65
276.48	1292.27
276.69	1318.89
276.91	1269.74
277.12	1236.97
277.34	1312.75
277.55	1337.32
277.77	1306.60
277.99	1284.08
278.20	1234.93
278.42	1206.25
278.63	1310.70
278.85	1302.51
279.06	1269.74
279.28	1210.35
279.49	1245.16
279.71	1239.02
279.93	1245.16
280.14	1271.79
280.36	1243.12
280.57	1247.21
280.79	1179.63
281.00	1263.60
281.22	1228.78
281.43	1253.36
281.65	1273.84
281.86	1292.27
282.08	1198.06
282.29	1251.31
282.51	1243.12
282.73	1265.64
282.94	1239.02
283.16	1224.69
283.37	1263.60
283.59	1271.79
283.80	1261.55
284.02	1265.64
284.23	1265.64
284.45	1214.45
284.66	1292.27
284.88	1273.84
285.09	1290.22
285.31	1286.12
285.52	1208.30
285.74	1243.12
285.95	1265.64
286.17	1316.84
286.38	1298.41
286.60	1275.88
286.81	1171.44
287.03	1316.84
287.24	1310.70
287.46	1312.75
287.67	1257.45
287.89	1304.56
288.10	1277.93
288.32	1267.69
288.53	1288.17
288.75	1265.64
288.96	1294.32
289.18	1294.32
289.39	1271.79
289.61	1314.80
289.82	1298.41
290.04	1310.70
290.25	1286.12
290.47	1263.60
290.68	1320.94
290.90	1208.30
291.11	1241.07
291.33	1288.17
291.54	1325.04
291.76	1214.45
291.97	1226.73
292.18	1306.60
292.40	1333.23
292.61	1298.41
292.83	1271.79
293.04	1277.93
293.26	1218.54
293.47	1239.02
293.69	1216.49
293.90	1257.45
294.12	1294.32
294.33	1247.21
294.55	1267.69
294.76	1300.46
294.97	1316.84
295.19	1191.92
295.40	1329.13
295.62	1257.45
295.83	1294.32
296.05	1232.88
296.26	1284.08
296.48	1216.49
296.69	1220.59
296.90	1269.74
297.12	1296.36
297.33	1269.74
297.55	1216.49
297.76	1202.16
297.98	1271.79
298.19	1298.41
298.41	1337.32
298.62	1228.78
298.83	1318.89
299.05	1275.88
299.26	1261.55
299.48	1271.79
299.69	1251.31
299.90	1251.31
300.12	1257.45
300.33	1277.93
300.55	1230.83
300.76	1267.69
300.98	1230.83
301.19	1277.93
301.40	1277.93
301.62	1296.36
301.83	1335.28
302.05	1292.27
302.26	1230.83
302.47	1263.60
302.69	1300.46
302.90	1320.94
303.12	1234.93
303.33	1290.22
303.54	1245.16
303.76	1351.66
303.97	1204.21
304.19	1331.18
304.40	1331.18
304.61	1189.87
304.83	1288.17
305.04	1282.03
305.26	1202.16
305.47	1255.40
305.68	1243.12
305.90	1290.22
306.11	1333.23
306.33	1353.71
306.54	1255.40
306.75	1265.64
306.97	1288.17
307.18	1290.22
307.39	1253.36
307.61	1292.27
307.82	1312.75
308.04	1282.03
308.25	1220.59
308.46	1247.21
308.68	1198.06
308.89	1263.60
309.10	1245.16
309.32	1275.88
309.53	1241.07
309.74	1345.52
309.96	1261.55
310.17	1222.64
310.39	1282.03
310.60	1298.41
310.81	1220.59
311.03	1261.55
311.24	1208.30
311.45	1296.36
311.67	1247.21
311.88	1288.17
312.09	1212.40
312.31	1282.03
312.52	1245.16
312.73	1290.22
312.95	1239.02
313.16	1259.50
313.37	1253.36
313.59	1298.41
313.80	1255.40
314.01	1290.22
314.23	1292.27
314.44	1314.80
314.65	1271.79
314.87	1290.22
315.08	1253.36
315.29	1296.36
315.51	1302.51
315.72	1267.69
315.93	1251.31
316.15	1243.12
316.36	1259.50
316.57	1286.12
316.79	1265.64
317.00	1267.69
317.21	1282.03
317.43	1196.01
317.64	1302.51
317.85	1279.98
318.07	1247.21
318.28	1249.26
318.49	1265.64
318.70	1232.88
318.92	1279.98
319.13	1255.40
319.34	1286.12
319.56	1255.40
319.77	1202.16
319.98	1241.07
320.20	1267.69
320.41	1241.07
320.62	1255.40
320.83	1220.59
321.05	1214.45
321.26	1257.45
321.47	1251.31
321.69	1292.27
321.90	1298.41
322.11	1263.60
322.32	1265.64
322.54	1271.79
322.75	1236.97
322.96	1239.02
323.18	1193.97
323.39	1290.22
323.60	1230.83
323.81	1294.32
324.03	1234.93
324.24	1284.08
324.45	1310.70
324.66	1265.64
324.88	1271.79
325.09	1312.75
325.30	1173.49
325.52	1290.22
325.73	1191.92
325.94	1224.69
326.15	1300.46
326.37	1259.50
326.58	1230.83
326.79	1335.28
327.00	1275.88
327.22	1273.84
327.43	1329.13
327.64	1277.93
327.85	1247.21
328.07	1251.31
328.28	1341.42
328.49	1247.21
328.70	1265.64
328.92	1271.79
329.13	1277.93
329.34	1341.42
329.55	1288.17
329.76	1310.70
329.98	1290.22
330.19	1290.22
330.40	1263.60
330.61	1267.69
330.83	1271.79
331.04	1243.12
331.25	1282.03
331.46	1304.56
331.68	1265.64
331.89	1206.25
332.10	1265.64
332.31	1267.69
332.52	1308.65
332.74	1255.40
332.95	1273.84
333.16	1302.51
333.37	1241.07
333.58	1288.17
333.80	1239.02
334.01	1333.23
334.22	1288.17
334.43	1247.21
334.64	1261.55
334.86	1282.03
335.07	1228.78
335.28	1273.84
335.49	1228.78
335.70	1306.60
335.92	1304.56
336.13	1316.84
336.34	1296.36
336.55	1282.03
336.76	1245.16
336.98	1282.03
337.19	1273.84
337.40	1191.92
337.61	1208.30
337.82	1257.45
338.04	1275.88
338.25	1208.30
338.46	1269.74
338.67	1212.40
338.88	1243.12
339.09	1222.64
339.31	1239.02
339.52	1304.56
339.73	1210.35
339.94	1286.12
340.15	1288.17
340.36	1306.60
340.58	1288.17
340.79	1257.45
341.00	1310.70
341.21	1322.99
341.42	1263.60
341.63	1255.40
341.85	1296.36
342.06	1236.97
342.27	1284.08
342.48	1298.41
342.69	1300.46
342.90	1220.59
343.12	1259.50
343.33	1255.40
343.54	1230.83
343.75	1333.23
343.96	1191.92
344.17	1226.73
344.38	1257.45
344.60	1222.64
344.81	1275.88
345.02	1241.07
345.23	1302.51
345.44	1310.70
345.65	1220.59
345.86	1255.40
346.07	1253.36
346.29	1214.45
346.50	1298.41
346.71	1185.77
346.92	1286.12
347.13	1234.93
347.34	1224.69
347.55	1208.30
347.76	1232.88
347.98	1277.93
348.19	1337.32
348.40	1294.32
348.61	1214.45
348.82	1265.64
349.03	1247.21
349.24	1329.13
349.45	1251.31
349.66	1208.30
349.88	1290.22
350.09	1300.46
350.30	1286.12
350.51	1359.85
350.72	1243.12
350.93	1271.79
351.14	1277.93
351.35	1282.03
351.56	1314.80
351.77	1312.75
351.99	1245.16
352.20	1249.26
352.41	1189.87
352.62	1314.80
352.83	1253.36
353.04	1284.08
353.25	1265.64
353.46	1200.11
353.67	1341.42
353.88	1249.26
354.09	1255.40
354.30	1279.98
354.52	1306.60
354.73	1304.56
354.94	1257.45
355.15	1265.64
355.36	1359.85
355.57	1345.52
355.78	1216.49
355.99	1265.64
356.20	1292.27
356.41	1288.17
356.62	1294.32
356.83	1279.98
357.04	1241.07
357.25	1275.88
357.46	1292.27
357.68	1284.08
357.89	1314.80
358.10	1343.47
358.31	1232.88
358.52	1142.77
358.73	1234.93
358.94	1222.64
359.15	1263.60
359.36	1259.50
359.57	1269.74
359.78	1294.32
359.99	1269.74
360.20	1347.56
360.41	1196.01
360.62	1294.32
360.83	1251.31
361.04	1230.83
361.25	1257.45
361.46	1228.78
361.67	1208.30
361.88	1302.51
362.09	1329.13
362.30	1310.70
362.51	1249.26
362.72	1232.88
362.93	1253.36
363.14	1273.84
363.35	1353.71
363.56	1214.45
363.78	1255.40
363.99	1234.93
364.20	1187.82
364.41	1236.97
364.62	1216.49
364.83	1337.32
365.04	1210.35
365.25	1245.16
365.46	1212.40
365.67	1181.68
365.88	1308.65
366.09	1277.93
366.30	1247.21
366.51	1322.99
366.72	1292.27
366.93	1300.46
367.14	1218.54
367.35	1226.73
367.56	1290.22
367.77	1298.41
367.98	1318.89
368.18	1308.65
368.39	1316.84
368.60	1245.16
368.81	1286.12
369.02	1267.69
369.23	1243.12
369.44	1230.83
369.65	1222.64
369.86	1249.26
370.07	1255.40
370.28	1306.60
370.49	1257.45
370.70	1220.59
370.91	1245.16
371.12	1257.45
371.33	1259.50
371.54	1202.16
371.75	1290.22
371.96	1325.04
372.17	1230.83
372.38	1310.70
372.59	1265.64
372.80	1310.70
373.01	1200.11
373.22	1329.13
373.43	1185.77
373.64	1189.87
373.85	1232.88
374.06	1222.64
374.26	1271.79
374.47	1284.08
374.68	1265.64
374.89	1265.64
375.10	1271.79
375.31	1288.17
375.52	1304.56
375.73	1232.88
375.94	1212.40
376.15	1210.35
376.36	1232.88
376.57	1304.56
376.78	1226.73
376.99	1286.12
377.20	1251.31
377.40	1327.08
377.61	1308.65
377.82	1243.12
378.03	1343.47
378.24	1337.32
378.45	1265.64
378.66	1255.40
378.87	1232.88
379.08	1245.16
379.29	1234.93
379.50	1273.84
379.71	1265.64
379.91	1304.56
380.12	1255.40
380.33	1265.64
380.54	1302.51
380.75	1200.11
380.96	1228.78
381.17	1257.45
381.38	1294.32
381.59	1316.84
381.80	1312.75
382.00	1374.19
382.21	1251.31
382.42	1271.79
382.63	1251.31
382.84	1253.36
383.05	1298.41
383.26	1310.70
383.47	1282.03
383.68	1279.98
383.88	1284.08
384.09	1382.38
384.30	1261.55
384.51	1302.51
384.72	1216.49
384.93	1282.03
385.14	1290.22
385.35	1284.08
385.55	1282.03
385.76	1245.16
385.97	1239.02
386.18	1259.50
386.39	1275.88
386.60	1320.94
386.81	1290.22
387.02	1191.92
387.22	1273.84
387.43	1265.64
387.64	1230.83
387.85	1253.36
388.06	1298.41
388.27	1265.64
388.48	1247.21
388.68	1279.98
388.89	1243.12
389.10	1316.84
389.31	1318.89
389.52	1234.93
389.73	1255.40
389.93	1251.31
390.14	1304.56
390.35	1257.45
390.56	1196.01
390.77	1271.79
390.98	1255.40
391.18	1191.92
391.39	1314.80
391.60	1306.60
391.81	1249.26
392.02	1271.79
392.23	1265.64
392.43	1220.59
392.64	1273.84
392.85	1265.64
393.06	1245.16
393.27	1226.73
393.47	1208.30
393.68	1230.83
393.89	1345.52
394.10	1312.75
394.31	1232.88
394.52	1232.88
394.72	1181.68
394.93	1312.75
395.14	1288.17
395.35	1224.69
395.56	1249.26
395.76	1300.46
395.97	1310.70
396.18	1263.60
396.39	1245.16
396.60	1286.12
396.80	1230.83
397.01	1329.13
397.22	1277.93
397.43	1224.69
397.64	1290.22
397.84	1232.88
398.05	1247.21
398.26	1322.99
398.47	1234.93
398.67	1257.45
398.88	1286.12
399.09	1292.27
399.30	1269.74
399.51	1343.47
399.71	1296.36
399.92	1279.98
400.13	1269.74
400.34	1314.80
400.54	1249.26
400.75	1304.56
400.96	1337.32
401.17	1222.64
401.37	1300.46
401.58	1224.69
401.79	1236.97
402.00	1267.69
402.21	1232.88
402.41	1288.17
402.62	1198.06
402.83	1275.88
403.04	1314.80
403.24	1353.71
403.45	1236.97
403.66	1255.40
403.87	1226.73
404.07	1245.16
404.28	1216.49
404.49	1304.56
404.70	1261.55
404.90	1273.84
405.11	1185.77
405.32	1320.94
405.52	1273.84
405.73	1269.74
405.94	1277.93
406.15	1257.45
406.35	1261.55
406.56	1314.80
406.77	1236.97
406.98	1243.12
407.18	1292.27
407.39	1314.80
407.60	1191.92
407.80	1206.25
408.01	1269.74
408.22	1216.49
408.43	1267.69
408.63	1241.07
408.84	1243.12
409.05	1292.27
409.25	1279.98
409.46	1273.84
409.67	1269.74
409.88	1261.55
410.08	1249.26
410.29	1249.26
410.50	1277.93
410.70	1267.69
410.91	1271.79
411.12	1282.03
411.32	1222.64
411.53	1308.65
411.74	1191.92
411.95	1304.56
412.15	1232.88
412.36	1325.04
412.57	1269.74
412.77	1286.12
412.98	1273.84
413.19	1296.36
413.39	1230.83
413.60	1273.84
413.81	1282.03
414.01	1318.89
414.22	1220.59
414.43	1335.28
414.63	1269.74
414.84	1214.45
415.05	1316.84
415.25	1302.51
415.46	1316.84
415.67	1327.08
415.87	1300.46
416.08	1316.84
416.29	1288.17
416.49	1275.88
416.70	1259.50
416.91	1218.54
417.11	1236.97
417.32	1327.08
417.53	1208.30
417.73	1247.21
417.94	1308.65
418.15	1316.84
418.35	1355.76
418.56	1224.69
418.77	1318.89
418.97	1271.79
419.18	1273.84
419.38	1218.54
419.59	1269.74
419.80	1294.32
420.00	1226.73
420.21	1337.32
420.42	1298.41
420.62	1265.64
420.83	1318.89
421.04	1312.75
421.24	1316.84
421.45	1232.88
421.65	1247.21
421.86	1312.75
422.07	1253.36
422.27	1218.54
422.48	1306.60
422.69	1255.40
422.89	1279.98
423.10	1232.88
423.30	1355.76
423.51	1224.69
423.72	1218.54
423.92	1241.07
424.13	1273.84
424.33	1296.36
424.54	1251.31
424.75	1249.26
424.95	1216.49
425.16	1329.13
425.36	1259.50
425.57	1296.36
425.78	1286.12
425.98	1310.70
426.19	1239.02
426.39	1290.22
426.60	1294.32
426.81	1329.13
427.01	1310.70
427.22	1247.21
427.42	1322.99
427.63	1337.32
427.83	1322.99
428.04	1306.60
428.25	1249.26
428.45	1298.41
428.66	1286.12
428.86	1259.50
429.07	1212.40
429.28	1308.65
429.48	1277.93
429.69	1292.27
429.89	1251.31
430.10	1261.55
430.30	1322.99
430.51	1288.17
430.71	1306.60
430.92	1279.98
431.13	1306.60
431.33	1206.25
431.54	1286.12
431.74	1302.51
431.95	1214.45
432.15	1259.50
432.36	1282.03
432.56	1243.12
432.77	1277.93
432.98	1349.61
433.18	1347.56
433.39	1302.51
433.59	1241.07
433.80	1265.64
434.00	1249.26
434.21	1279.98
434.41	1298.41
434.62	1230.83
434.82	1282.03
435.03	1269.74
435.23	1257.45
435.44	1247.21
435.64	1296.36
435.85	1361.90
436.06	1279.98
436.26	1351.66
436.47	1247.21
436.67	1298.41
436.88	1232.88
437.08	1275.88
437.29	1292.27
437.49	1308.65
437.70	1290.22
437.90	1214.45
438.11	1241.07
438.31	1282.03
438.52	1267.69
438.72	1298.41
438.93	1257.45
439.13	1325.04
439.34	1259.50
439.54	1218.54
439.75	1218.54
439.95	1236.97
440.16	1239.02
440.36	1292.27
440.57	1257.45
440.77	1239.02
440.98	1241.07
441.18	1290.22
441.39	1277.93
441.59	1282.03
441.80	1265.64
442.00	1257.45
442.21	1310.70
442.41	1314.80
442.62	1253.36
442.82	1232.88
443.02	1245.16
443.23	1259.50
443.43	1308.65
443.64	1251.31
443.84	1214.45
444.05	1232.88
444.25	1320.94
444.46	1304.56
444.66	1292.27
444.87	1255.40
445.07	1275.88
445.28	1296.36
445.48	1193.97
445.69	1222.64
445.89	1269.74
446.09	1200.11
446.30	1320.94
446.50	1329.13
446.71	1255.40
446.91	1249.26
447.12	1251.31
447.32	1320.94
447.53	1253.36
447.73	1316.84
447.93	1357.80
448.14	1390.57
448.34	1265.64
448.55	1282.03
448.75	1273.84
448.96	1247.21
449.16	1294.32
449.36	1253.36
449.57	1269.74
449.77	1267.69
449.98	1312.75
450.18	1253.36
450.39	1243.12
450.59	1316.84
450.79	1277.93
451.00	1284.08
451.20	1322.99
451.41	1314.80
451.61	1239.02
451.81	1345.52
452.02	1355.76
452.22	1216.49
452.43	1269.74
452.63	1290.22
