SpectraSuite Data File
++++++++++++++++++++++++++++++++++++
Date: Sun Apr 03 19:55:29 CEST 2016
User: root
Dark Spectrum Present: No
Reference Spectrum Present: No
Number of Sampled Component Spectra: 1
Spectrometers: USB4C02835
Integration Time (usec): 10000 (USB4C02835)
Spectra Averaged: 1 (USB4C02835)
Boxcar Smoothing: 0 (USB4C02835)
Correct for Electrical Dark: No (USB4C02835)
Strobe/Lamp Enabled: No (USB4C02835)
Correct for Detector Non-linearity: No (USB4C02835)
Correct for Stray Light: No (USB4C02835)
Number of Pixels in Processed Spectrum: 3648
>>>>>Begin Processed Spectral Data<<<<<
177.47	1222.64
177.69	1222.64
177.91	1222.64
178.13	1322.99
178.36	1249.26
178.58	1212.40
178.80	1222.64
179.02	1230.83
179.24	1222.64
179.46	1269.74
179.68	1298.41
179.90	1337.32
180.13	1181.68
180.35	1232.88
180.57	1206.25
180.79	1279.98
181.01	1288.17
181.23	1298.41
181.45	1310.70
181.67	1243.12
181.90	1245.16
182.12	1304.56
182.34	1275.88
182.56	1196.01
182.78	1279.98
183.00	1265.64
183.22	1257.45
183.44	1212.40
183.66	1277.93
183.89	1202.16
184.11	1298.41
184.33	1224.69
184.55	1294.32
184.77	1282.03
184.99	1271.79
185.21	1253.36
185.43	1247.21
185.65	1179.63
185.87	1267.69
186.10	1294.32
186.32	1292.27
186.54	1200.11
186.76	1310.70
186.98	1226.73
187.20	1284.08
187.42	1265.64
187.64	1314.80
187.86	1294.32
188.08	1245.16
188.30	1302.51
188.52	1269.74
188.75	1306.60
188.97	1296.36
189.19	1267.69
189.41	1273.84
189.63	1322.99
189.85	1259.50
190.07	1275.88
190.29	1310.70
190.51	1239.02
190.73	1224.69
190.95	1318.89
191.17	1241.07
191.39	1224.69
191.61	1298.41
191.84	1298.41
192.06	1339.37
192.28	1267.69
192.50	1208.30
192.72	1249.26
192.94	1277.93
193.16	1267.69
193.38	1320.94
193.60	1220.59
193.82	1165.29
194.04	1257.45
194.26	1159.15
194.48	1220.59
194.70	1327.08
194.92	1271.79
195.14	1322.99
195.36	1259.50
195.58	1296.36
195.80	1249.26
196.02	1345.52
196.24	1261.55
196.46	1265.64
196.69	1275.88
196.91	1220.59
197.13	1269.74
197.35	1232.88
197.57	1306.60
197.79	1230.83
198.01	1234.93
198.23	1263.60
198.45	1216.49
198.67	1320.94
198.89	1271.79
199.11	1279.98
199.33	1255.40
199.55	1277.93
199.77	1267.69
199.99	1261.55
200.21	1273.84
200.43	1210.35
200.65	1157.10
200.87	1245.16
201.09	1212.40
201.31	1363.95
201.53	1247.21
201.75	1265.64
201.97	1253.36
202.19	1249.26
202.41	1232.88
202.63	1331.18
202.85	1298.41
203.07	1296.36
203.29	1212.40
203.51	1353.71
203.73	1228.78
203.95	1212.40
204.17	1370.09
204.39	1265.64
204.61	1267.69
204.83	1263.60
205.05	1331.18
205.27	1236.97
205.49	1286.12
205.71	1282.03
205.93	1232.88
206.15	1316.84
206.37	1298.41
206.59	1206.25
206.81	1271.79
207.03	1202.16
207.25	1286.12
207.47	1243.12
207.69	1249.26
207.91	1308.65
208.13	1239.02
208.34	1265.64
208.56	1290.22
208.78	1245.16
209.00	1339.37
209.22	1208.30
209.44	1298.41
209.66	1290.22
209.88	1349.61
210.10	1341.42
210.32	1325.04
210.54	1314.80
210.76	1331.18
210.98	1308.65
211.20	1255.40
211.42	1226.73
211.64	1247.21
211.86	1290.22
212.08	1241.07
212.30	1279.98
212.52	1247.21
212.74	1296.36
212.96	1302.51
213.17	1304.56
213.39	1271.79
213.61	1279.98
213.83	1271.79
214.05	1249.26
214.27	1189.87
214.49	1214.45
214.71	1245.16
214.93	1337.32
215.15	1255.40
215.37	1269.74
215.59	1230.83
215.81	1273.84
216.03	1200.11
216.24	1271.79
216.46	1263.60
216.68	1247.21
216.90	1275.88
217.12	1275.88
217.34	1267.69
217.56	1292.27
217.78	1202.16
218.00	1257.45
218.22	1257.45
218.44	1255.40
218.66	1234.93
218.87	1273.84
219.09	1296.36
219.31	1271.79
219.53	1257.45
219.75	1261.55
219.97	1206.25
220.19	1257.45
220.41	1218.54
220.63	1196.01
220.85	1275.88
221.06	1253.36
221.28	1255.40
221.50	1304.56
221.72	1261.55
221.94	1300.46
222.16	1351.66
222.38	1230.83
222.60	1275.88
222.82	1253.36
223.03	1245.16
223.25	1327.08
223.47	1228.78
223.69	1320.94
223.91	1236.97
224.13	1271.79
224.35	1298.41
224.57	1247.21
224.78	1290.22
225.00	1310.70
225.22	1222.64
225.44	1282.03
225.66	1282.03
225.88	1286.12
226.10	1318.89
226.32	1265.64
226.53	1286.12
226.75	1271.79
226.97	1306.60
227.19	1308.65
227.41	1282.03
227.63	1288.17
227.85	1214.45
228.06	1236.97
228.28	1200.11
228.50	1290.22
228.72	1279.98
228.94	1261.55
229.16	1251.31
229.37	1241.07
229.59	1247.21
229.81	1259.50
230.03	1232.88
230.25	1243.12
230.47	1288.17
230.69	1265.64
230.90	1251.31
231.12	1255.40
231.34	1236.97
231.56	1284.08
231.78	1308.65
232.00	1255.40
232.21	1245.16
232.43	1228.78
232.65	1234.93
232.87	1290.22
233.09	1284.08
233.30	1236.97
233.52	1310.70
233.74	1279.98
233.96	1208.30
234.18	1269.74
234.40	1200.11
234.61	1284.08
234.83	1261.55
235.05	1314.80
235.27	1265.64
235.49	1282.03
235.70	1191.92
235.92	1370.09
236.14	1357.80
236.36	1251.31
236.58	1271.79
236.79	1271.79
237.01	1273.84
237.23	1241.07
237.45	1329.13
237.67	1253.36
237.88	1282.03
238.10	1273.84
238.32	1259.50
238.54	1239.02
238.76	1343.47
238.97	1312.75
239.19	1210.35
239.41	1171.44
239.63	1282.03
239.85	1255.40
240.06	1222.64
240.28	1239.02
240.50	1286.12
240.72	1269.74
240.93	1247.21
241.15	1277.93
241.37	1210.35
241.59	1206.25
241.81	1265.64
242.02	1259.50
242.24	1234.93
242.46	1243.12
242.68	1232.88
242.89	1212.40
243.11	1296.36
243.33	1243.12
243.55	1265.64
243.76	1277.93
243.98	1284.08
244.20	1347.56
244.42	1220.59
244.64	1273.84
244.85	1230.83
245.07	1294.32
245.29	1253.36
245.51	1265.64
245.72	1296.36
245.94	1245.16
246.16	1257.45
246.38	1263.60
246.59	1318.89
246.81	1277.93
247.03	1279.98
247.24	1257.45
247.46	1232.88
247.68	1226.73
247.90	1282.03
248.11	1191.92
248.33	1241.07
248.55	1296.36
248.77	1251.31
248.98	1251.31
249.20	1286.12
249.42	1259.50
249.64	1345.52
249.85	1273.84
250.07	1232.88
250.29	1343.47
250.50	1294.32
250.72	1314.80
250.94	1245.16
251.16	1251.31
251.37	1234.93
251.59	1251.31
251.81	1366.00
252.02	1245.16
252.24	1257.45
252.46	1273.84
252.68	1234.93
252.89	1337.32
253.11	1230.83
253.33	1279.98
253.54	1345.52
253.76	1259.50
253.98	1243.12
254.20	1314.80
254.41	1261.55
254.63	1292.27
254.85	1304.56
255.06	1312.75
255.28	1226.73
255.50	1183.73
255.71	1363.95
255.93	1335.28
256.15	1249.26
256.36	1302.51
256.58	1245.16
256.80	1267.69
257.02	1316.84
257.23	1267.69
257.45	1232.88
257.67	1204.21
257.88	1214.45
258.10	1271.79
258.32	1224.69
258.53	1259.50
258.75	1288.17
258.97	1286.12
259.18	1265.64
259.40	1316.84
259.62	1257.45
259.83	1292.27
260.05	1271.79
260.27	1216.49
260.48	1300.46
260.70	1282.03
260.92	1224.69
261.13	1279.98
261.35	1331.18
261.57	1337.32
261.78	1288.17
262.00	1318.89
262.22	1247.21
262.43	1232.88
262.65	1300.46
262.86	1298.41
263.08	1333.23
263.30	1245.16
263.51	1318.89
263.73	1232.88
263.95	1284.08
264.16	1300.46
264.38	1191.92
264.60	1183.73
264.81	1308.65
265.03	1267.69
265.25	1284.08
265.46	1314.80
265.68	1302.51
265.89	1202.16
266.11	1265.64
266.33	1241.07
266.54	1206.25
266.76	1290.22
266.98	1220.59
267.19	1249.26
267.41	1232.88
267.62	1218.54
267.84	1322.99
268.06	1296.36
268.27	1249.26
268.49	1322.99
268.70	1232.88
268.92	1279.98
269.14	1304.56
269.35	1302.51
269.57	1318.89
269.79	1359.85
270.00	1198.06
270.22	1251.31
270.43	1245.16
270.65	1273.84
270.87	1257.45
271.08	1282.03
271.30	1249.26
271.51	1245.16
271.73	1251.31
271.95	1243.12
272.16	1267.69
272.38	1290.22
272.59	1282.03
272.81	1267.69
273.02	1277.93
273.24	1329.13
273.46	1294.32
273.67	1243.12
273.89	1294.32
274.10	1314.80
274.32	1259.50
274.54	1224.69
274.75	1318.89
274.97	1218.54
275.18	1288.17
275.40	1304.56
275.61	1241.07
275.83	1255.40
276.05	1275.88
276.26	1304.56
276.48	1314.80
276.69	1236.97
276.91	1290.22
277.12	1292.27
277.34	1230.83
277.55	1290.22
277.77	1216.49
277.99	1316.84
278.20	1216.49
278.42	1267.69
278.63	1275.88
278.85	1296.36
279.06	1282.03
279.28	1271.79
279.49	1247.21
279.71	1265.64
279.93	1239.02
280.14	1251.31
280.36	1288.17
280.57	1306.60
280.79	1263.60
281.00	1230.83
281.22	1241.07
281.43	1249.26
281.65	1212.40
281.86	1232.88
282.08	1282.03
282.29	1247.21
282.51	1273.84
282.73	1271.79
282.94	1210.35
283.16	1243.12
283.37	1226.73
283.59	1157.10
283.80	1257.45
284.02	1308.65
284.23	1320.94
284.45	1257.45
284.66	1261.55
284.88	1304.56
285.09	1286.12
285.31	1247.21
285.52	1218.54
285.74	1228.78
285.95	1294.32
286.17	1284.08
286.38	1216.49
286.60	1304.56
286.81	1234.93
287.03	1257.45
287.24	1286.12
287.46	1314.80
287.67	1257.45
287.89	1212.40
288.10	1339.37
288.32	1263.60
288.53	1253.36
288.75	1236.97
288.96	1296.36
289.18	1282.03
289.39	1292.27
289.61	1277.93
289.82	1200.11
290.04	1228.78
290.25	1251.31
290.47	1288.17
290.68	1236.97
290.90	1191.92
291.11	1243.12
291.33	1259.50
291.54	1236.97
291.76	1249.26
291.97	1279.98
292.18	1322.99
292.40	1316.84
292.61	1249.26
292.83	1263.60
293.04	1320.94
293.26	1251.31
293.47	1230.83
293.69	1316.84
293.90	1282.03
294.12	1277.93
294.33	1296.36
294.55	1284.08
294.76	1265.64
294.97	1300.46
295.19	1284.08
295.40	1269.74
295.62	1284.08
295.83	1200.11
296.05	1273.84
296.26	1257.45
296.48	1314.80
296.69	1105.90
296.90	1333.23
297.12	1290.22
297.33	1339.37
297.55	1255.40
297.76	1249.26
297.98	1206.25
298.19	1298.41
298.41	1253.36
298.62	1329.13
298.83	1247.21
299.05	1271.79
299.26	1265.64
299.48	1251.31
299.69	1198.06
299.90	1263.60
300.12	1300.46
300.33	1294.32
300.55	1333.23
300.76	1245.16
300.98	1243.12
301.19	1304.56
301.40	1284.08
301.62	1271.79
301.83	1292.27
302.05	1255.40
302.26	1230.83
302.47	1314.80
302.69	1372.14
302.90	1271.79
303.12	1294.32
303.33	1245.16
303.54	1222.64
303.76	1359.85
303.97	1234.93
304.19	1269.74
304.40	1267.69
304.61	1314.80
304.83	1257.45
305.04	1288.17
305.26	1249.26
305.47	1310.70
305.68	1193.97
305.90	1349.61
306.11	1314.80
306.33	1228.78
306.54	1247.21
306.75	1222.64
306.97	1257.45
307.18	1318.89
307.39	1257.45
307.61	1282.03
307.82	1290.22
308.04	1331.18
308.25	1251.31
308.46	1288.17
308.68	1249.26
308.89	1241.07
309.10	1333.23
309.32	1236.97
309.53	1222.64
309.74	1275.88
309.96	1306.60
310.17	1277.93
310.39	1273.84
310.60	1298.41
310.81	1298.41
311.03	1290.22
311.24	1212.40
311.45	1275.88
311.67	1263.60
311.88	1298.41
312.09	1243.12
312.31	1288.17
312.52	1212.40
312.73	1290.22
312.95	1208.30
313.16	1265.64
313.37	1236.97
313.59	1271.79
313.80	1249.26
314.01	1284.08
314.23	1322.99
314.44	1279.98
314.65	1292.27
314.87	1265.64
315.08	1290.22
315.29	1273.84
315.51	1316.84
315.72	1273.84
315.93	1271.79
316.15	1218.54
316.36	1279.98
316.57	1196.01
316.79	1269.74
317.00	1294.32
317.21	1265.64
317.43	1277.93
317.64	1245.16
317.85	1312.75
318.07	1228.78
318.28	1196.01
318.49	1234.93
318.70	1314.80
318.92	1251.31
319.13	1277.93
319.34	1316.84
319.56	1259.50
319.77	1308.65
319.98	1288.17
320.20	1232.88
320.41	1363.95
320.62	1234.93
320.83	1204.21
321.05	1261.55
321.26	1259.50
321.47	1275.88
321.69	1308.65
321.90	1277.93
322.11	1298.41
322.32	1372.14
322.54	1312.75
322.75	1212.40
322.96	1275.88
323.18	1241.07
323.39	1325.04
323.60	1245.16
323.81	1310.70
324.03	1236.97
324.24	1232.88
324.45	1249.26
324.66	1230.83
324.88	1290.22
325.09	1275.88
325.30	1234.93
325.52	1247.21
325.73	1253.36
325.94	1265.64
326.15	1257.45
326.37	1290.22
326.58	1302.51
326.79	1251.31
327.00	1234.93
327.22	1265.64
327.43	1247.21
327.64	1214.45
327.85	1261.55
328.07	1273.84
328.28	1300.46
328.49	1273.84
328.70	1277.93
328.92	1300.46
329.13	1279.98
329.34	1269.74
329.55	1284.08
329.76	1273.84
329.98	1269.74
330.19	1269.74
330.40	1239.02
330.61	1263.60
330.83	1282.03
331.04	1304.56
331.25	1257.45
331.46	1288.17
331.68	1286.12
331.89	1249.26
332.10	1284.08
332.31	1288.17
332.52	1267.69
332.74	1279.98
332.95	1253.36
333.16	1261.55
333.37	1265.64
333.58	1257.45
333.80	1279.98
334.01	1187.82
334.22	1322.99
334.43	1265.64
334.64	1273.84
334.86	1243.12
335.07	1277.93
335.28	1193.97
335.49	1257.45
335.70	1341.42
335.92	1204.21
336.13	1226.73
336.34	1236.97
336.55	1292.27
336.76	1290.22
336.98	1230.83
337.19	1288.17
337.40	1259.50
337.61	1245.16
337.82	1214.45
338.04	1228.78
338.25	1228.78
338.46	1181.68
338.67	1245.16
338.88	1277.93
339.09	1232.88
339.31	1263.60
339.52	1239.02
339.73	1263.60
339.94	1214.45
340.15	1282.03
340.36	1165.29
340.58	1282.03
340.79	1343.47
341.00	1239.02
341.21	1310.70
341.42	1288.17
341.63	1269.74
341.85	1243.12
342.06	1236.97
342.27	1329.13
342.48	1275.88
342.69	1310.70
342.90	1232.88
343.12	1222.64
343.33	1314.80
343.54	1259.50
343.75	1269.74
343.96	1259.50
344.17	1292.27
344.38	1236.97
344.60	1302.51
344.81	1322.99
345.02	1177.58
345.23	1370.09
345.44	1361.90
345.65	1316.84
345.86	1247.21
346.07	1206.25
346.29	1198.06
346.50	1306.60
346.71	1257.45
346.92	1265.64
347.13	1329.13
347.34	1275.88
347.55	1349.61
347.76	1277.93
347.98	1275.88
348.19	1294.32
348.40	1277.93
348.61	1298.41
348.82	1302.51
349.03	1230.83
349.24	1191.92
349.45	1241.07
349.66	1261.55
349.88	1255.40
350.09	1222.64
350.30	1251.31
350.51	1308.65
350.72	1279.98
350.93	1302.51
351.14	1286.12
351.35	1286.12
351.56	1241.07
351.77	1243.12
351.99	1218.54
352.20	1275.88
352.41	1224.69
352.62	1218.54
352.83	1230.83
353.04	1236.97
353.25	1202.16
353.46	1279.98
353.67	1314.80
353.88	1294.32
354.09	1316.84
354.30	1286.12
354.52	1298.41
354.73	1230.83
354.94	1296.36
355.15	1255.40
355.36	1261.55
355.57	1279.98
355.78	1239.02
355.99	1286.12
356.20	1241.07
356.41	1247.21
356.62	1196.01
356.83	1286.12
357.04	1306.60
357.25	1279.98
357.46	1290.22
357.68	1265.64
357.89	1241.07
358.10	1236.97
358.31	1251.31
358.52	1226.73
358.73	1255.40
358.94	1304.56
359.15	1259.50
359.36	1251.31
359.57	1284.08
359.78	1277.93
359.99	1255.40
360.20	1214.45
360.41	1308.65
360.62	1253.36
360.83	1253.36
361.04	1265.64
361.25	1298.41
361.46	1259.50
361.67	1185.77
361.88	1304.56
362.09	1265.64
362.30	1282.03
362.51	1241.07
362.72	1261.55
362.93	1241.07
363.14	1261.55
363.35	1239.02
363.56	1290.22
363.78	1302.51
363.99	1259.50
364.20	1275.88
364.41	1200.11
364.62	1239.02
364.83	1302.51
365.04	1277.93
365.25	1294.32
365.46	1327.08
365.67	1331.18
365.88	1202.16
366.09	1245.16
366.30	1187.82
366.51	1284.08
366.72	1241.07
366.93	1263.60
367.14	1263.60
367.35	1331.18
367.56	1251.31
367.77	1263.60
367.98	1269.74
368.18	1275.88
368.39	1341.42
368.60	1224.69
368.81	1298.41
369.02	1288.17
369.23	1253.36
369.44	1339.37
369.65	1179.63
369.86	1224.69
370.07	1249.26
370.28	1302.51
370.49	1300.46
370.70	1269.74
370.91	1218.54
371.12	1255.40
371.33	1214.45
371.54	1245.16
371.75	1216.49
371.96	1361.90
372.17	1202.16
372.38	1314.80
372.59	1294.32
372.80	1271.79
373.01	1275.88
373.22	1196.01
373.43	1251.31
373.64	1361.90
373.85	1249.26
374.06	1228.78
374.26	1257.45
374.47	1292.27
374.68	1230.83
374.89	1208.30
375.10	1261.55
375.31	1294.32
375.52	1298.41
375.73	1193.97
375.94	1208.30
376.15	1298.41
376.36	1234.93
376.57	1298.41
376.78	1183.73
376.99	1292.27
377.20	1249.26
377.40	1265.64
377.61	1232.88
377.82	1300.46
378.03	1302.51
378.24	1325.04
378.45	1288.17
378.66	1284.08
378.87	1284.08
379.08	1298.41
379.29	1261.55
379.50	1322.99
379.71	1263.60
379.91	1267.69
380.12	1222.64
380.33	1275.88
380.54	1357.80
380.75	1245.16
380.96	1212.40
381.17	1257.45
381.38	1204.21
381.59	1273.84
381.80	1216.49
382.00	1263.60
382.21	1212.40
382.42	1345.52
382.63	1214.45
382.84	1261.55
383.05	1251.31
383.26	1224.69
383.47	1232.88
383.68	1265.64
383.88	1228.78
384.09	1288.17
384.30	1322.99
384.51	1263.60
384.72	1257.45
384.93	1181.68
385.14	1269.74
385.35	1253.36
385.55	1341.42
385.76	1269.74
385.97	1288.17
386.18	1253.36
386.39	1292.27
386.60	1234.93
386.81	1159.15
387.02	1316.84
387.22	1234.93
387.43	1273.84
387.64	1239.02
387.85	1286.12
388.06	1325.04
388.27	1314.80
388.48	1218.54
388.68	1271.79
388.89	1322.99
389.10	1261.55
389.31	1331.18
389.52	1269.74
389.73	1290.22
389.93	1329.13
390.14	1265.64
390.35	1236.97
390.56	1236.97
390.77	1335.28
390.98	1286.12
391.18	1259.50
391.39	1202.16
391.60	1292.27
391.81	1245.16
392.02	1185.77
392.23	1302.51
392.43	1359.85
392.64	1286.12
392.85	1245.16
393.06	1257.45
393.27	1236.97
393.47	1259.50
393.68	1251.31
393.89	1296.36
394.10	1245.16
394.31	1206.25
394.52	1222.64
394.72	1294.32
394.93	1239.02
395.14	1265.64
395.35	1249.26
395.56	1306.60
395.76	1222.64
395.97	1220.59
396.18	1265.64
396.39	1249.26
396.60	1251.31
396.80	1312.75
397.01	1239.02
397.22	1282.03
397.43	1290.22
397.64	1294.32
397.84	1273.84
398.05	1294.32
398.26	1253.36
398.47	1232.88
398.67	1265.64
398.88	1224.69
399.09	1261.55
399.30	1239.02
399.51	1269.74
399.71	1228.78
399.92	1331.18
400.13	1296.36
400.34	1241.07
400.54	1214.45
400.75	1370.09
400.96	1230.83
401.17	1329.13
401.37	1265.64
401.58	1202.16
401.79	1282.03
402.00	1249.26
402.21	1224.69
402.41	1265.64
402.62	1255.40
402.83	1296.36
403.04	1257.45
403.24	1241.07
403.45	1247.21
403.66	1292.27
403.87	1286.12
404.07	1191.92
404.28	1259.50
404.49	1286.12
404.70	1239.02
404.90	1212.40
405.11	1208.30
405.32	1230.83
405.52	1228.78
405.73	1253.36
405.94	1255.40
406.15	1286.12
406.35	1290.22
406.56	1253.36
406.77	1214.45
406.98	1310.70
407.18	1257.45
407.39	1253.36
407.60	1245.16
407.80	1263.60
408.01	1279.98
408.22	1288.17
408.43	1271.79
408.63	1333.23
408.84	1220.59
409.05	1251.31
409.25	1273.84
409.46	1296.36
409.67	1337.32
409.88	1345.52
410.08	1302.51
410.29	1208.30
410.50	1331.18
410.70	1261.55
410.91	1200.11
411.12	1265.64
411.32	1159.15
411.53	1249.26
411.74	1257.45
411.95	1302.51
412.15	1275.88
412.36	1259.50
412.57	1261.55
412.77	1298.41
412.98	1245.16
413.19	1179.63
413.39	1288.17
413.60	1314.80
413.81	1218.54
414.01	1296.36
414.22	1302.51
414.43	1261.55
414.63	1185.77
414.84	1282.03
415.05	1294.32
415.25	1296.36
415.46	1247.21
415.67	1263.60
415.87	1200.11
416.08	1257.45
416.29	1257.45
416.49	1198.06
416.70	1333.23
416.91	1185.77
417.11	1228.78
417.32	1253.36
417.53	1173.49
417.73	1292.27
417.94	1243.12
418.15	1259.50
418.35	1269.74
418.56	1265.64
418.77	1259.50
418.97	1163.25
419.18	1294.32
419.38	1286.12
419.59	1210.35
419.80	1255.40
420.00	1239.02
420.21	1345.52
420.42	1216.49
420.62	1236.97
420.83	1275.88
421.04	1189.87
421.24	1288.17
421.45	1241.07
421.65	1224.69
421.86	1282.03
422.07	1269.74
422.27	1255.40
422.48	1255.40
422.69	1249.26
422.89	1232.88
423.10	1292.27
423.30	1193.97
423.51	1275.88
423.72	1269.74
423.92	1247.21
424.13	1179.63
424.33	1247.21
424.54	1259.50
424.75	1214.45
424.95	1249.26
425.16	1298.41
425.36	1200.11
425.57	1187.82
425.78	1261.55
425.98	1265.64
426.19	1294.32
426.39	1212.40
426.60	1275.88
426.81	1241.07
427.01	1232.88
427.22	1253.36
427.42	1212.40
427.63	1269.74
427.83	1282.03
428.04	1333.23
428.25	1255.40
428.45	1239.02
428.66	1222.64
428.86	1269.74
429.07	1224.69
429.28	1277.93
429.48	1214.45
429.69	1273.84
429.89	1322.99
430.10	1181.68
430.30	1255.40
430.51	1245.16
430.71	1284.08
430.92	1263.60
431.13	1222.64
431.33	1257.45
431.54	1277.93
431.74	1167.34
431.95	1347.56
432.15	1294.32
432.36	1245.16
432.56	1316.84
432.77	1288.17
432.98	1339.37
433.18	1294.32
433.39	1279.98
433.59	1239.02
433.80	1279.98
434.00	1294.32
434.21	1329.13
434.41	1290.22
434.62	1214.45
434.82	1265.64
435.03	1204.21
435.23	1210.35
435.44	1322.99
435.64	1253.36
435.85	1253.36
436.06	1269.74
436.26	1191.92
436.47	1204.21
436.67	1286.12
436.88	1261.55
437.08	1275.88
437.29	1202.16
437.49	1212.40
437.70	1265.64
437.90	1232.88
438.11	1216.49
438.31	1236.97
438.52	1259.50
438.72	1259.50
438.93	1335.28
439.13	1298.41
439.34	1226.73
439.54	1314.80
439.75	1314.80
439.95	1271.79
440.16	1300.46
440.36	1222.64
440.57	1220.59
440.77	1292.27
440.98	1298.41
441.18	1286.12
441.39	1226.73
441.59	1189.87
441.80	1273.84
442.00	1310.70
442.21	1300.46
442.41	1271.79
442.62	1255.40
442.82	1286.12
443.02	1232.88
443.23	1294.32
443.43	1296.36
443.64	1271.79
443.84	1232.88
444.05	1277.93
444.25	1275.88
444.46	1222.64
444.66	1325.04
444.87	1331.18
445.07	1267.69
445.28	1320.94
445.48	1290.22
445.69	1273.84
445.89	1370.09
446.09	1247.21
446.30	1300.46
446.50	1261.55
446.71	1351.66
446.91	1288.17
447.12	1279.98
447.32	1296.36
447.53	1271.79
447.73	1279.98
447.93	1210.35
448.14	1351.66
448.34	1325.04
448.55	1247.21
448.75	1214.45
448.96	1275.88
449.16	1236.97
449.36	1265.64
449.57	1318.89
449.77	1294.32
449.98	1247.21
450.18	1320.94
450.39	1275.88
450.59	1269.74
450.79	1261.55
451.00	1406.95
451.20	1241.07
451.41	1298.41
451.61	1304.56
451.81	1202.16
452.02	1239.02
452.22	1335.28
452.43	1304.56
452.63	1310.70
