SpectraSuite Data File
++++++++++++++++++++++++++++++++++++
Date: Sun Apr 03 19:55:40 CEST 2016
User: root
Dark Spectrum Present: No
Reference Spectrum Present: No
Number of Sampled Component Spectra: 1
Spectrometers: USB4C02835
Integration Time (usec): 10000 (USB4C02835)
Spectra Averaged: 1 (USB4C02835)
Boxcar Smoothing: 0 (USB4C02835)
Correct for Electrical Dark: No (USB4C02835)
Strobe/Lamp Enabled: No (USB4C02835)
Correct for Detector Non-linearity: No (USB4C02835)
Correct for Stray Light: No (USB4C02835)
Number of Pixels in Processed Spectrum: 3648
>>>>>Begin Processed Spectral Data<<<<<
177.47	1298.41
177.69	1298.41
177.91	1298.41
178.13	1249.26
178.36	1249.26
178.58	1257.45
178.80	1329.13
179.02	1245.16
179.24	1261.55
179.46	1210.35
179.68	1284.08
179.90	1249.26
180.13	1239.02
180.35	1279.98
180.57	1312.75
180.79	1339.37
181.01	1304.56
181.23	1296.36
181.45	1296.36
181.67	1241.07
181.90	1300.46
182.12	1333.23
182.34	1214.45
182.56	1290.22
182.78	1349.61
183.00	1267.69
183.22	1275.88
183.44	1255.40
183.66	1302.51
183.89	1253.36
184.11	1310.70
184.33	1257.45
184.55	1255.40
184.77	1255.40
184.99	1208.30
185.21	1243.12
185.43	1298.41
185.65	1310.70
185.87	1171.44
186.10	1279.98
186.32	1329.13
186.54	1271.79
186.76	1232.88
186.98	1265.64
187.20	1267.69
187.42	1286.12
187.64	1226.73
187.86	1239.02
188.08	1220.59
188.30	1181.68
188.52	1228.78
188.75	1279.98
188.97	1337.32
189.19	1320.94
189.41	1208.30
189.63	1302.51
189.85	1247.21
190.07	1228.78
190.29	1288.17
190.51	1312.75
190.73	1226.73
190.95	1296.36
191.17	1257.45
191.39	1239.02
191.61	1273.84
191.84	1243.12
192.06	1228.78
192.28	1320.94
192.50	1245.16
192.72	1300.46
192.94	1288.17
193.16	1243.12
193.38	1265.64
193.60	1247.21
193.82	1310.70
194.04	1277.93
194.26	1251.31
194.48	1325.04
194.70	1296.36
194.92	1230.83
195.14	1224.69
195.36	1196.01
195.58	1273.84
195.80	1189.87
196.02	1220.59
196.24	1163.25
196.46	1316.84
196.69	1273.84
196.91	1312.75
197.13	1314.80
197.35	1298.41
197.57	1214.45
197.79	1202.16
198.01	1290.22
198.23	1296.36
198.45	1292.27
198.67	1312.75
198.89	1279.98
199.11	1257.45
199.33	1200.11
199.55	1189.87
199.77	1245.16
199.99	1314.80
200.21	1286.12
200.43	1230.83
200.65	1255.40
200.87	1232.88
201.09	1245.16
201.31	1255.40
201.53	1196.01
201.75	1312.75
201.97	1312.75
202.19	1275.88
202.41	1302.51
202.63	1304.56
202.85	1255.40
203.07	1279.98
203.29	1339.37
203.51	1265.64
203.73	1249.26
203.95	1325.04
204.17	1288.17
204.39	1183.73
204.61	1271.79
204.83	1259.50
205.05	1290.22
205.27	1284.08
205.49	1312.75
205.71	1255.40
205.93	1300.46
206.15	1218.54
206.37	1322.99
206.59	1320.94
206.81	1257.45
207.03	1271.79
207.25	1245.16
207.47	1300.46
207.69	1300.46
207.91	1335.28
208.13	1296.36
208.34	1234.93
208.56	1286.12
208.78	1247.21
209.00	1267.69
209.22	1300.46
209.44	1214.45
209.66	1316.84
209.88	1263.60
210.10	1222.64
210.32	1243.12
210.54	1224.69
210.76	1269.74
210.98	1271.79
211.20	1269.74
211.42	1294.32
211.64	1257.45
211.86	1216.49
212.08	1267.69
212.30	1279.98
212.52	1267.69
212.74	1265.64
212.96	1228.78
213.17	1271.79
213.39	1261.55
213.61	1249.26
213.83	1273.84
214.05	1245.16
214.27	1216.49
214.49	1304.56
214.71	1181.68
214.93	1320.94
215.15	1308.65
215.37	1255.40
215.59	1234.93
215.81	1249.26
216.03	1263.60
216.24	1267.69
216.46	1322.99
216.68	1232.88
216.90	1306.60
217.12	1261.55
217.34	1265.64
217.56	1228.78
217.78	1239.02
218.00	1263.60
218.22	1351.66
218.44	1300.46
218.66	1212.40
218.87	1247.21
219.09	1304.56
219.31	1284.08
219.53	1296.36
219.75	1273.84
219.97	1273.84
220.19	1265.64
220.41	1310.70
220.63	1302.51
220.85	1245.16
221.06	1206.25
221.28	1216.49
221.50	1296.36
221.72	1245.16
221.94	1228.78
222.16	1255.40
222.38	1249.26
222.60	1288.17
222.82	1286.12
223.03	1322.99
223.25	1320.94
223.47	1304.56
223.69	1224.69
223.91	1279.98
224.13	1273.84
224.35	1214.45
224.57	1335.28
224.78	1236.97
225.00	1204.21
225.22	1241.07
225.44	1337.32
225.66	1251.31
225.88	1279.98
226.10	1347.56
226.32	1312.75
226.53	1220.59
226.75	1294.32
226.97	1325.04
227.19	1216.49
227.41	1292.27
227.63	1255.40
227.85	1263.60
228.06	1288.17
228.28	1290.22
228.50	1236.97
228.72	1249.26
228.94	1228.78
229.16	1282.03
229.37	1282.03
229.59	1288.17
229.81	1298.41
230.03	1241.07
230.25	1273.84
230.47	1318.89
230.69	1335.28
230.90	1247.21
231.12	1292.27
231.34	1271.79
231.56	1247.21
231.78	1249.26
232.00	1306.60
232.21	1234.93
232.43	1148.91
232.65	1253.36
232.87	1232.88
233.09	1275.88
233.30	1298.41
233.52	1298.41
233.74	1257.45
233.96	1257.45
234.18	1282.03
234.40	1320.94
234.61	1204.21
234.83	1304.56
235.05	1267.69
235.27	1308.65
235.49	1298.41
235.70	1247.21
235.92	1271.79
236.14	1263.60
236.36	1318.89
236.58	1361.90
236.79	1275.88
237.01	1282.03
237.23	1306.60
237.45	1241.07
237.67	1222.64
237.88	1298.41
238.10	1212.40
238.32	1290.22
238.54	1312.75
238.76	1249.26
238.97	1249.26
239.19	1308.65
239.41	1241.07
239.63	1189.87
239.85	1314.80
240.06	1294.32
240.28	1239.02
240.50	1306.60
240.72	1284.08
240.93	1275.88
241.15	1257.45
241.37	1228.78
241.59	1239.02
241.81	1249.26
242.02	1257.45
242.24	1247.21
242.46	1247.21
242.68	1255.40
242.89	1290.22
243.11	1222.64
243.33	1292.27
243.55	1279.98
243.76	1257.45
243.98	1304.56
244.20	1331.18
244.42	1216.49
244.64	1302.51
244.85	1224.69
245.07	1304.56
245.29	1333.23
245.51	1298.41
245.72	1288.17
245.94	1296.36
246.16	1333.23
246.38	1273.84
246.59	1304.56
246.81	1257.45
247.03	1261.55
247.24	1261.55
247.46	1282.03
247.68	1249.26
247.90	1288.17
248.11	1282.03
248.33	1290.22
248.55	1284.08
248.77	1339.37
248.98	1273.84
249.20	1232.88
249.42	1304.56
249.64	1277.93
249.85	1316.84
250.07	1282.03
250.29	1298.41
250.50	1253.36
250.72	1284.08
250.94	1232.88
251.16	1230.83
251.37	1257.45
251.59	1294.32
251.81	1345.52
252.02	1290.22
252.24	1220.59
252.46	1284.08
252.68	1310.70
252.89	1251.31
253.11	1288.17
253.33	1236.97
253.54	1271.79
253.76	1259.50
253.98	1327.08
254.20	1304.56
254.41	1271.79
254.63	1228.78
254.85	1226.73
255.06	1331.18
255.28	1275.88
255.50	1253.36
255.71	1318.89
255.93	1212.40
256.15	1271.79
256.36	1310.70
256.58	1251.31
256.80	1294.32
257.02	1310.70
257.23	1243.12
257.45	1247.21
257.67	1255.40
257.88	1339.37
258.10	1220.59
258.32	1273.84
258.53	1267.69
258.75	1298.41
258.97	1206.25
259.18	1277.93
259.40	1224.69
259.62	1269.74
259.83	1234.93
260.05	1284.08
260.27	1271.79
260.48	1232.88
260.70	1298.41
260.92	1255.40
261.13	1232.88
261.35	1329.13
261.57	1212.40
261.78	1206.25
262.00	1241.07
262.22	1243.12
262.43	1236.97
262.65	1302.51
262.86	1255.40
263.08	1363.95
263.30	1292.27
263.51	1220.59
263.73	1282.03
263.95	1286.12
264.16	1300.46
264.38	1212.40
264.60	1259.50
264.81	1236.97
265.03	1249.26
265.25	1257.45
265.46	1300.46
265.68	1296.36
265.89	1249.26
266.11	1302.51
266.33	1325.04
266.54	1232.88
266.76	1296.36
266.98	1298.41
267.19	1206.25
267.41	1216.49
267.62	1279.98
267.84	1271.79
268.06	1327.08
268.27	1263.60
268.49	1292.27
268.70	1228.78
268.92	1239.02
269.14	1255.40
269.35	1187.82
269.57	1306.60
269.79	1298.41
270.00	1263.60
270.22	1271.79
270.43	1255.40
270.65	1159.15
270.87	1279.98
271.08	1253.36
271.30	1359.85
271.51	1282.03
271.73	1234.93
271.95	1331.18
272.16	1282.03
272.38	1347.56
272.59	1279.98
272.81	1292.27
273.02	1257.45
273.24	1279.98
273.46	1316.84
273.67	1275.88
273.89	1286.12
274.10	1167.34
274.32	1243.12
274.54	1304.56
274.75	1241.07
274.97	1265.64
275.18	1320.94
275.40	1320.94
275.61	1300.46
275.83	1216.49
276.05	1259.50
276.26	1267.69
276.48	1218.54
276.69	1263.60
276.91	1206.25
277.12	1316.84
277.34	1261.55
277.55	1296.36
277.77	1228.78
277.99	1290.22
278.20	1218.54
278.42	1193.97
278.63	1255.40
278.85	1310.70
279.06	1273.84
279.28	1204.21
279.49	1234.93
279.71	1292.27
279.93	1228.78
280.14	1288.17
280.36	1187.82
280.57	1273.84
280.79	1247.21
281.00	1253.36
281.22	1253.36
281.43	1271.79
281.65	1273.84
281.86	1243.12
282.08	1241.07
282.29	1279.98
282.51	1292.27
282.73	1306.60
282.94	1247.21
283.16	1304.56
283.37	1236.97
283.59	1282.03
283.80	1224.69
284.02	1300.46
284.23	1320.94
284.45	1282.03
284.66	1290.22
284.88	1347.56
285.09	1255.40
285.31	1257.45
285.52	1239.02
285.74	1236.97
285.95	1290.22
286.17	1341.42
286.38	1267.69
286.60	1320.94
286.81	1294.32
287.03	1204.21
287.24	1265.64
287.46	1327.08
287.67	1292.27
287.89	1261.55
288.10	1263.60
288.32	1245.16
288.53	1302.51
288.75	1273.84
288.96	1329.13
289.18	1273.84
289.39	1296.36
289.61	1304.56
289.82	1220.59
290.04	1284.08
290.25	1234.93
290.47	1286.12
290.68	1284.08
290.90	1245.16
291.11	1212.40
291.33	1300.46
291.54	1300.46
291.76	1228.78
291.97	1177.58
292.18	1261.55
292.40	1343.47
292.61	1298.41
292.83	1292.27
293.04	1298.41
293.26	1245.16
293.47	1263.60
293.69	1320.94
293.90	1271.79
294.12	1290.22
294.33	1316.84
294.55	1345.52
294.76	1216.49
294.97	1271.79
295.19	1200.11
295.40	1275.88
295.62	1277.93
295.83	1183.73
296.05	1314.80
296.26	1284.08
296.48	1300.46
296.69	1224.69
296.90	1239.02
297.12	1232.88
297.33	1279.98
297.55	1208.30
297.76	1308.65
297.98	1189.87
298.19	1341.42
298.41	1261.55
298.62	1251.31
298.83	1318.89
299.05	1236.97
299.26	1284.08
299.48	1267.69
299.69	1234.93
299.90	1286.12
300.12	1337.32
300.33	1282.03
300.55	1173.49
300.76	1206.25
300.98	1296.36
301.19	1312.75
301.40	1263.60
301.62	1245.16
301.83	1249.26
302.05	1273.84
302.26	1261.55
302.47	1255.40
302.69	1253.36
302.90	1224.69
303.12	1333.23
303.33	1282.03
303.54	1331.18
303.76	1292.27
303.97	1296.36
304.19	1273.84
304.40	1236.97
304.61	1241.07
304.83	1243.12
305.04	1253.36
305.26	1355.76
305.47	1267.69
305.68	1259.50
305.90	1177.58
306.11	1277.93
306.33	1279.98
306.54	1257.45
306.75	1239.02
306.97	1286.12
307.18	1222.64
307.39	1335.28
307.61	1279.98
307.82	1292.27
308.04	1286.12
308.25	1220.59
308.46	1296.36
308.68	1271.79
308.89	1247.21
309.10	1273.84
309.32	1322.99
309.53	1239.02
309.74	1347.56
309.96	1249.26
310.17	1312.75
310.39	1271.79
310.60	1294.32
310.81	1255.40
311.03	1290.22
311.24	1282.03
311.45	1302.51
311.67	1249.26
311.88	1273.84
312.09	1275.88
312.31	1253.36
312.52	1339.37
312.73	1263.60
312.95	1216.49
313.16	1370.09
313.37	1208.30
313.59	1255.40
313.80	1282.03
314.01	1224.69
314.23	1265.64
314.44	1239.02
314.65	1232.88
314.87	1292.27
315.08	1239.02
315.29	1226.73
315.51	1204.21
315.72	1314.80
315.93	1265.64
316.15	1292.27
316.36	1279.98
316.57	1339.37
316.79	1257.45
317.00	1296.36
317.21	1228.78
317.43	1282.03
317.64	1329.13
317.85	1234.93
318.07	1279.98
318.28	1304.56
318.49	1239.02
318.70	1322.99
318.92	1200.11
319.13	1251.31
319.34	1236.97
319.56	1347.56
319.77	1265.64
319.98	1275.88
320.20	1271.79
320.41	1191.92
320.62	1249.26
320.83	1236.97
321.05	1368.04
321.26	1241.07
321.47	1245.16
321.69	1286.12
321.90	1212.40
322.11	1331.18
322.32	1300.46
322.54	1312.75
322.75	1228.78
322.96	1306.60
323.18	1230.83
323.39	1277.93
323.60	1222.64
323.81	1320.94
324.03	1257.45
324.24	1279.98
324.45	1302.51
324.66	1314.80
324.88	1255.40
325.09	1273.84
325.30	1255.40
325.52	1257.45
325.73	1249.26
325.94	1271.79
326.15	1249.26
326.37	1366.00
326.58	1220.59
326.79	1341.42
327.00	1236.97
327.22	1249.26
327.43	1282.03
327.64	1261.55
327.85	1282.03
328.07	1220.59
328.28	1282.03
328.49	1331.18
328.70	1312.75
328.92	1261.55
329.13	1300.46
329.34	1277.93
329.55	1267.69
329.76	1306.60
329.98	1239.02
330.19	1333.23
330.40	1236.97
330.61	1288.17
330.83	1200.11
331.04	1275.88
331.25	1259.50
331.46	1255.40
331.68	1261.55
331.89	1255.40
332.10	1226.73
332.31	1322.99
332.52	1236.97
332.74	1249.26
332.95	1275.88
333.16	1345.52
333.37	1304.56
333.58	1236.97
333.80	1267.69
334.01	1279.98
334.22	1208.30
334.43	1247.21
334.64	1261.55
334.86	1189.87
335.07	1222.64
335.28	1267.69
335.49	1286.12
335.70	1300.46
335.92	1249.26
336.13	1267.69
336.34	1343.47
336.55	1220.59
336.76	1294.32
336.98	1247.21
337.19	1261.55
337.40	1310.70
337.61	1279.98
337.82	1277.93
338.04	1288.17
338.25	1259.50
338.46	1247.21
338.67	1269.74
338.88	1275.88
339.09	1318.89
339.31	1271.79
339.52	1322.99
339.73	1277.93
339.94	1284.08
340.15	1347.56
340.36	1269.74
340.58	1249.26
340.79	1343.47
341.00	1259.50
341.21	1253.36
341.42	1284.08
341.63	1339.37
341.85	1212.40
342.06	1363.95
342.27	1290.22
342.48	1261.55
342.69	1282.03
342.90	1245.16
343.12	1286.12
343.33	1353.71
343.54	1265.64
343.75	1284.08
343.96	1306.60
344.17	1241.07
344.38	1228.78
344.60	1232.88
344.81	1271.79
345.02	1271.79
345.23	1345.52
345.44	1318.89
345.65	1226.73
345.86	1273.84
346.07	1236.97
346.29	1232.88
346.50	1187.82
346.71	1245.16
346.92	1183.73
347.13	1239.02
347.34	1275.88
347.55	1239.02
347.76	1220.59
347.98	1306.60
348.19	1294.32
348.40	1257.45
348.61	1286.12
348.82	1232.88
349.03	1267.69
349.24	1288.17
349.45	1200.11
349.66	1232.88
349.88	1261.55
350.09	1163.25
350.30	1304.56
350.51	1279.98
350.72	1241.07
350.93	1261.55
351.14	1279.98
351.35	1249.26
351.56	1230.83
351.77	1279.98
351.99	1259.50
352.20	1314.80
352.41	1249.26
352.62	1241.07
352.83	1353.71
353.04	1267.69
353.25	1234.93
353.46	1228.78
353.67	1308.65
353.88	1222.64
354.09	1290.22
354.30	1290.22
354.52	1263.60
354.73	1290.22
354.94	1366.00
355.15	1271.79
355.36	1249.26
355.57	1286.12
355.78	1159.15
355.99	1286.12
356.20	1282.03
356.41	1247.21
356.62	1304.56
356.83	1312.75
357.04	1249.26
357.25	1241.07
357.46	1284.08
357.68	1239.02
357.89	1236.97
358.10	1290.22
358.31	1214.45
358.52	1320.94
358.73	1232.88
358.94	1275.88
359.15	1304.56
359.36	1345.52
359.57	1304.56
359.78	1288.17
359.99	1236.97
360.20	1257.45
360.41	1314.80
360.62	1247.21
360.83	1345.52
361.04	1312.75
361.25	1290.22
361.46	1327.08
361.67	1277.93
361.88	1265.64
362.09	1286.12
362.30	1302.51
362.51	1296.36
362.72	1312.75
362.93	1275.88
363.14	1275.88
363.35	1234.93
363.56	1239.02
363.78	1236.97
363.99	1257.45
364.20	1300.46
364.41	1269.74
364.62	1282.03
364.83	1327.08
365.04	1359.85
365.25	1286.12
365.46	1253.36
365.67	1265.64
365.88	1335.28
366.09	1304.56
366.30	1286.12
366.51	1222.64
366.72	1261.55
366.93	1325.04
367.14	1241.07
367.35	1191.92
367.56	1253.36
367.77	1298.41
367.98	1286.12
368.18	1277.93
368.39	1220.59
368.60	1212.40
368.81	1255.40
369.02	1208.30
369.23	1290.22
369.44	1253.36
369.65	1212.40
369.86	1247.21
370.07	1204.21
370.28	1273.84
370.49	1263.60
370.70	1286.12
370.91	1277.93
371.12	1286.12
371.33	1255.40
371.54	1273.84
371.75	1296.36
371.96	1251.31
372.17	1282.03
372.38	1310.70
372.59	1253.36
372.80	1302.51
373.01	1255.40
373.22	1300.46
373.43	1257.45
373.64	1298.41
373.85	1331.18
374.06	1241.07
374.26	1208.30
374.47	1236.97
374.68	1273.84
374.89	1261.55
375.10	1230.83
375.31	1304.56
375.52	1290.22
375.73	1206.25
375.94	1255.40
376.15	1312.75
376.36	1370.09
376.57	1230.83
376.78	1253.36
376.99	1343.47
377.20	1310.70
377.40	1265.64
377.61	1191.92
377.82	1300.46
378.03	1251.31
378.24	1306.60
378.45	1247.21
378.66	1273.84
378.87	1220.59
379.08	1206.25
379.29	1210.35
379.50	1232.88
379.71	1228.78
379.91	1228.78
380.12	1290.22
380.33	1310.70
380.54	1273.84
380.75	1269.74
380.96	1279.98
381.17	1257.45
381.38	1257.45
381.59	1124.33
381.80	1282.03
382.00	1298.41
382.21	1245.16
382.42	1308.65
382.63	1224.69
382.84	1322.99
383.05	1247.21
383.26	1290.22
383.47	1245.16
383.68	1228.78
383.88	1224.69
384.09	1298.41
384.30	1193.97
384.51	1302.51
384.72	1189.87
384.93	1239.02
385.14	1267.69
385.35	1216.49
385.55	1337.32
385.76	1331.18
385.97	1263.60
386.18	1314.80
386.39	1304.56
386.60	1249.26
386.81	1314.80
387.02	1226.73
387.22	1261.55
387.43	1327.08
387.64	1277.93
387.85	1273.84
388.06	1253.36
388.27	1191.92
388.48	1275.88
388.68	1349.61
388.89	1325.04
389.10	1304.56
389.31	1290.22
389.52	1312.75
389.73	1230.83
389.93	1290.22
390.14	1239.02
390.35	1294.32
390.56	1212.40
390.77	1206.25
390.98	1224.69
391.18	1284.08
391.39	1200.11
391.60	1308.65
391.81	1267.69
392.02	1222.64
392.23	1282.03
392.43	1292.27
392.64	1277.93
392.85	1296.36
393.06	1228.78
393.27	1247.21
393.47	1329.13
393.68	1230.83
393.89	1214.45
394.10	1214.45
394.31	1343.47
394.52	1208.30
394.72	1355.76
394.93	1228.78
395.14	1275.88
395.35	1329.13
395.56	1265.64
395.76	1288.17
395.97	1284.08
396.18	1214.45
396.39	1259.50
396.60	1284.08
396.80	1277.93
397.01	1253.36
397.22	1212.40
397.43	1247.21
397.64	1357.80
397.84	1263.60
398.05	1224.69
398.26	1284.08
398.47	1314.80
398.67	1198.06
398.88	1259.50
399.09	1376.24
399.30	1218.54
399.51	1294.32
399.71	1310.70
399.92	1282.03
400.13	1290.22
400.34	1247.21
400.54	1220.59
400.75	1292.27
400.96	1228.78
401.17	1279.98
401.37	1349.61
401.58	1159.15
401.79	1214.45
402.00	1245.16
402.21	1284.08
402.41	1318.89
402.62	1177.58
402.83	1228.78
403.04	1263.60
403.24	1279.98
403.45	1241.07
403.66	1259.50
403.87	1306.60
404.07	1251.31
404.28	1253.36
404.49	1318.89
404.70	1320.94
404.90	1322.99
405.11	1265.64
405.32	1228.78
405.52	1353.71
405.73	1245.16
405.94	1296.36
406.15	1286.12
406.35	1253.36
406.56	1304.56
406.77	1273.84
406.98	1255.40
407.18	1236.97
407.39	1251.31
407.60	1189.87
407.80	1292.27
408.01	1247.21
408.22	1249.26
408.43	1253.36
408.63	1290.22
408.84	1234.93
409.05	1257.45
409.25	1267.69
409.46	1241.07
409.67	1277.93
409.88	1271.79
410.08	1228.78
410.29	1302.51
410.50	1265.64
410.70	1286.12
410.91	1298.41
411.12	1267.69
411.32	1193.97
411.53	1279.98
411.74	1290.22
411.95	1302.51
412.15	1234.93
412.36	1236.97
412.57	1253.36
412.77	1279.98
412.98	1277.93
413.19	1316.84
413.39	1198.06
413.60	1263.60
413.81	1214.45
414.01	1314.80
414.22	1257.45
414.43	1251.31
414.63	1292.27
414.84	1306.60
415.05	1275.88
415.25	1277.93
415.46	1265.64
415.67	1196.01
415.87	1218.54
416.08	1298.41
416.29	1187.82
416.49	1277.93
416.70	1329.13
416.91	1216.49
417.11	1292.27
417.32	1296.36
417.53	1263.60
417.73	1282.03
417.94	1335.28
418.15	1275.88
418.35	1282.03
418.56	1257.45
418.77	1245.16
418.97	1300.46
419.18	1218.54
419.38	1193.97
419.59	1228.78
419.80	1320.94
420.00	1282.03
420.21	1331.18
420.42	1300.46
420.62	1322.99
420.83	1239.02
421.04	1331.18
421.24	1216.49
421.45	1204.21
421.65	1226.73
421.86	1208.30
422.07	1279.98
422.27	1310.70
422.48	1304.56
422.69	1220.59
422.89	1222.64
423.10	1216.49
423.30	1208.30
423.51	1275.88
423.72	1255.40
423.92	1279.98
424.13	1269.74
424.33	1345.52
424.54	1224.69
424.75	1187.82
424.95	1236.97
425.16	1232.88
425.36	1234.93
425.57	1243.12
425.78	1263.60
425.98	1265.64
426.19	1232.88
426.39	1216.49
426.60	1222.64
426.81	1298.41
427.01	1241.07
427.22	1343.47
427.42	1333.23
427.63	1298.41
427.83	1249.26
428.04	1181.68
428.25	1216.49
428.45	1322.99
428.66	1329.13
428.86	1220.59
429.07	1261.55
429.28	1312.75
429.48	1320.94
429.69	1312.75
429.89	1284.08
430.10	1206.25
430.30	1249.26
430.51	1292.27
430.71	1234.93
430.92	1261.55
431.13	1349.61
431.33	1279.98
431.54	1243.12
431.74	1327.08
431.95	1271.79
432.15	1241.07
432.36	1236.97
432.56	1241.07
432.77	1302.51
432.98	1251.31
433.18	1300.46
433.39	1300.46
433.59	1247.21
433.80	1257.45
434.00	1284.08
434.21	1318.89
434.41	1275.88
434.62	1304.56
434.82	1214.45
435.03	1335.28
435.23	1216.49
435.44	1277.93
435.64	1277.93
435.85	1339.37
436.06	1247.21
436.26	1222.64
436.47	1279.98
436.67	1214.45
436.88	1241.07
437.08	1253.36
437.29	1245.16
437.49	1314.80
437.70	1253.36
437.90	1243.12
438.11	1243.12
438.31	1300.46
438.52	1243.12
438.72	1298.41
438.93	1230.83
439.13	1290.22
439.34	1191.92
439.54	1310.70
439.75	1257.45
439.95	1241.07
440.16	1259.50
440.36	1247.21
440.57	1265.64
440.77	1279.98
440.98	1261.55
441.18	1271.79
441.39	1179.63
441.59	1196.01
441.80	1277.93
442.00	1298.41
442.21	1259.50
442.41	1286.12
442.62	1253.36
442.82	1271.79
443.02	1265.64
443.23	1206.25
443.43	1288.17
443.64	1212.40
443.84	1226.73
444.05	1271.79
444.25	1249.26
444.46	1218.54
444.66	1255.40
444.87	1239.02
445.07	1245.16
445.28	1304.56
445.48	1341.42
445.69	1245.16
445.89	1265.64
446.09	1271.79
446.30	1232.88
446.50	1310.70
446.71	1308.65
446.91	1271.79
447.12	1255.40
447.32	1228.78
447.53	1224.69
447.73	1273.84
447.93	1255.40
448.14	1296.36
448.34	1267.69
448.55	1284.08
448.75	1249.26
448.96	1302.51
449.16	1220.59
449.36	1251.31
449.57	1333.23
449.77	1224.69
449.98	1218.54
450.18	1286.12
450.39	1327.08
450.59	1282.03
450.79	1245.16
451.00	1355.76
451.20	1273.84
451.41	1269.74
451.61	1277.93
451.81	1329.13
452.02	1298.41
452.22	1251.31
452.43	1241.07
452.63	1312.75
