SpectraSuite Data File
++++++++++++++++++++++++++++++++++++
Date: Sun Apr 03 19:55:21 CEST 2016
User: root
Dark Spectrum Present: No
Reference Spectrum Present: No
Number of Sampled Component Spectra: 1
Spectrometers: USB4C02835
Integration Time (usec): 10000 (USB4C02835)
Spectra Averaged: 1 (USB4C02835)
Boxcar Smoothing: 0 (USB4C02835)
Correct for Electrical Dark: No (USB4C02835)
Strobe/Lamp Enabled: No (USB4C02835)
Correct for Detector Non-linearity: No (USB4C02835)
Correct for Stray Light: No (USB4C02835)
Number of Pixels in Processed Spectrum: 3648
>>>>>Begin Processed Spectral Data<<<<<
177.47	1288.17
177.69	1288.17
177.91	1288.17
178.13	1298.41
178.36	1269.74
178.58	1191.92
178.80	1267.69
179.02	1263.60
179.24	1279.98
179.46	1269.74
179.68	1275.88
179.90	1239.02
180.13	1312.75
180.35	1267.69
180.57	1214.45
180.79	1294.32
181.01	1204.21
181.23	1259.50
181.45	1247.21
181.67	1306.60
181.90	1300.46
182.12	1255.40
182.34	1220.59
182.56	1232.88
182.78	1249.26
183.00	1224.69
183.22	1282.03
183.44	1282.03
183.66	1277.93
183.89	1298.41
184.11	1322.99
184.33	1241.07
184.55	1224.69
184.77	1308.65
184.99	1230.83
185.21	1267.69
185.43	1294.32
185.65	1306.60
185.87	1214.45
186.10	1232.88
186.32	1349.61
186.54	1314.80
186.76	1212.40
186.98	1269.74
187.20	1296.36
187.42	1314.80
187.64	1337.32
187.86	1275.88
188.08	1216.49
188.30	1204.21
188.52	1247.21
188.75	1343.47
188.97	1239.02
189.19	1273.84
189.41	1241.07
189.63	1261.55
189.85	1275.88
190.07	1314.80
190.29	1181.68
190.51	1247.21
190.73	1234.93
190.95	1261.55
191.17	1286.12
191.39	1222.64
191.61	1269.74
191.84	1282.03
192.06	1267.69
192.28	1232.88
192.50	1241.07
192.72	1228.78
192.94	1275.88
193.16	1259.50
193.38	1290.22
193.60	1314.80
193.82	1234.93
194.04	1200.11
194.26	1226.73
194.48	1271.79
194.70	1312.75
194.92	1282.03
195.14	1282.03
195.36	1212.40
195.58	1255.40
195.80	1243.12
196.02	1200.11
196.24	1296.36
196.46	1255.40
196.69	1249.26
196.91	1222.64
197.13	1241.07
197.35	1286.12
197.57	1259.50
197.79	1249.26
198.01	1243.12
198.23	1269.74
198.45	1337.32
198.67	1296.36
198.89	1259.50
199.11	1267.69
199.33	1320.94
199.55	1322.99
199.77	1236.97
199.99	1249.26
200.21	1226.73
200.43	1239.02
200.65	1171.44
200.87	1234.93
201.09	1273.84
201.31	1226.73
201.53	1230.83
201.75	1230.83
201.97	1349.61
202.19	1273.84
202.41	1279.98
202.63	1306.60
202.85	1245.16
203.07	1230.83
203.29	1243.12
203.51	1251.31
203.73	1318.89
203.95	1263.60
204.17	1292.27
204.39	1222.64
204.61	1253.36
204.83	1245.16
205.05	1300.46
205.27	1239.02
205.49	1255.40
205.71	1300.46
205.93	1284.08
206.15	1325.04
206.37	1298.41
206.59	1261.55
206.81	1241.07
207.03	1241.07
207.25	1286.12
207.47	1310.70
207.69	1279.98
207.91	1257.45
208.13	1269.74
208.34	1230.83
208.56	1294.32
208.78	1282.03
209.00	1290.22
209.22	1245.16
209.44	1234.93
209.66	1357.80
209.88	1210.35
210.10	1304.56
210.32	1302.51
210.54	1247.21
210.76	1294.32
210.98	1345.52
211.20	1271.79
211.42	1292.27
211.64	1173.49
211.86	1288.17
212.08	1263.60
212.30	1322.99
212.52	1298.41
212.74	1271.79
212.96	1275.88
213.17	1265.64
213.39	1275.88
213.61	1247.21
213.83	1286.12
214.05	1253.36
214.27	1277.93
214.49	1204.21
214.71	1241.07
214.93	1263.60
215.15	1302.51
215.37	1279.98
215.59	1222.64
215.81	1232.88
216.03	1314.80
216.24	1273.84
216.46	1253.36
216.68	1286.12
216.90	1230.83
217.12	1261.55
217.34	1245.16
217.56	1335.28
217.78	1320.94
218.00	1286.12
218.22	1265.64
218.44	1263.60
218.66	1226.73
218.87	1265.64
219.09	1292.27
219.31	1208.30
219.53	1269.74
219.75	1267.69
219.97	1257.45
220.19	1241.07
220.41	1357.80
220.63	1277.93
220.85	1263.60
221.06	1245.16
221.28	1292.27
221.50	1214.45
221.72	1224.69
221.94	1255.40
222.16	1230.83
222.38	1263.60
222.60	1179.63
222.82	1241.07
223.03	1267.69
223.25	1282.03
223.47	1247.21
223.69	1312.75
223.91	1284.08
224.13	1273.84
224.35	1308.65
224.57	1308.65
224.78	1236.97
225.00	1320.94
225.22	1363.95
225.44	1265.64
225.66	1224.69
225.88	1271.79
226.10	1304.56
226.32	1312.75
226.53	1286.12
226.75	1282.03
226.97	1245.16
227.19	1216.49
227.41	1173.49
227.63	1220.59
227.85	1271.79
228.06	1335.28
228.28	1247.21
228.50	1228.78
228.72	1220.59
228.94	1302.51
229.16	1269.74
229.37	1208.30
229.59	1253.36
229.81	1226.73
230.03	1222.64
230.25	1279.98
230.47	1288.17
230.69	1259.50
230.90	1228.78
231.12	1247.21
231.34	1251.31
231.56	1282.03
231.78	1294.32
232.00	1183.73
232.21	1306.60
232.43	1247.21
232.65	1306.60
232.87	1273.84
233.09	1273.84
233.30	1286.12
233.52	1265.64
233.74	1314.80
233.96	1249.26
234.18	1320.94
234.40	1320.94
234.61	1273.84
234.83	1239.02
235.05	1304.56
235.27	1220.59
235.49	1282.03
235.70	1284.08
235.92	1290.22
236.14	1236.97
236.36	1288.17
236.58	1282.03
236.79	1253.36
237.01	1296.36
237.23	1271.79
237.45	1228.78
237.67	1327.08
237.88	1185.77
238.10	1296.36
238.32	1210.35
238.54	1339.37
238.76	1249.26
238.97	1310.70
239.19	1331.18
239.41	1232.88
239.63	1279.98
239.85	1277.93
240.06	1241.07
240.28	1290.22
240.50	1232.88
240.72	1294.32
240.93	1302.51
241.15	1345.52
241.37	1308.65
241.59	1247.21
241.81	1257.45
242.02	1304.56
242.24	1193.97
242.46	1304.56
242.68	1261.55
242.89	1239.02
243.11	1300.46
243.33	1273.84
243.55	1298.41
243.76	1226.73
243.98	1320.94
244.20	1265.64
244.42	1253.36
244.64	1290.22
244.85	1259.50
245.07	1292.27
245.29	1370.09
245.51	1306.60
245.72	1308.65
245.94	1298.41
246.16	1259.50
246.38	1243.12
246.59	1286.12
246.81	1300.46
247.03	1228.78
247.24	1316.84
247.46	1302.51
247.68	1208.30
247.90	1275.88
248.11	1286.12
248.33	1259.50
248.55	1298.41
248.77	1312.75
248.98	1255.40
249.20	1239.02
249.42	1204.21
249.64	1269.74
249.85	1308.65
250.07	1255.40
250.29	1359.85
250.50	1292.27
250.72	1232.88
250.94	1247.21
251.16	1277.93
251.37	1253.36
251.59	1263.60
251.81	1335.28
252.02	1282.03
252.24	1308.65
252.46	1241.07
252.68	1165.29
252.89	1261.55
253.11	1265.64
253.33	1279.98
253.54	1239.02
253.76	1255.40
253.98	1236.97
254.20	1279.98
254.41	1263.60
254.63	1306.60
254.85	1269.74
255.06	1325.04
255.28	1298.41
255.50	1210.35
255.71	1312.75
255.93	1224.69
256.15	1212.40
256.36	1214.45
256.58	1286.12
256.80	1253.36
257.02	1163.25
257.23	1277.93
257.45	1239.02
257.67	1257.45
257.88	1290.22
258.10	1282.03
258.32	1265.64
258.53	1292.27
258.75	1239.02
258.97	1277.93
259.18	1322.99
259.40	1191.92
259.62	1320.94
259.83	1224.69
260.05	1257.45
260.27	1302.51
260.48	1269.74
260.70	1224.69
260.92	1325.04
261.13	1306.60
261.35	1220.59
261.57	1193.97
261.78	1263.60
262.00	1210.35
262.22	1251.31
262.43	1208.30
262.65	1267.69
262.86	1251.31
263.08	1200.11
263.30	1298.41
263.51	1312.75
263.73	1308.65
263.95	1241.07
264.16	1277.93
264.38	1312.75
264.60	1304.56
264.81	1314.80
265.03	1273.84
265.25	1267.69
265.46	1239.02
265.68	1222.64
265.89	1279.98
266.11	1224.69
266.33	1204.21
266.54	1304.56
266.76	1247.21
266.98	1273.84
267.19	1327.08
267.41	1284.08
267.62	1304.56
267.84	1202.16
268.06	1247.21
268.27	1247.21
268.49	1308.65
268.70	1239.02
268.92	1222.64
269.14	1224.69
269.35	1222.64
269.57	1247.21
269.79	1290.22
270.00	1228.78
270.22	1253.36
270.43	1253.36
270.65	1284.08
270.87	1296.36
271.08	1269.74
271.30	1224.69
271.51	1296.36
271.73	1277.93
271.95	1224.69
272.16	1226.73
272.38	1355.76
272.59	1255.40
272.81	1312.75
273.02	1286.12
273.24	1269.74
273.46	1241.07
273.67	1294.32
273.89	1243.12
274.10	1318.89
274.32	1341.42
274.54	1296.36
274.75	1247.21
274.97	1331.18
275.18	1214.45
275.40	1310.70
275.61	1239.02
275.83	1220.59
276.05	1239.02
276.26	1261.55
276.48	1282.03
276.69	1273.84
276.91	1243.12
277.12	1308.65
277.34	1261.55
277.55	1275.88
277.77	1247.21
277.99	1279.98
278.20	1196.01
278.42	1325.04
278.63	1200.11
278.85	1218.54
279.06	1263.60
279.28	1263.60
279.49	1273.84
279.71	1253.36
279.93	1249.26
280.14	1277.93
280.36	1320.94
280.57	1296.36
280.79	1212.40
281.00	1327.08
281.22	1257.45
281.43	1263.60
281.65	1212.40
281.86	1294.32
282.08	1218.54
282.29	1331.18
282.51	1257.45
282.73	1288.17
282.94	1193.97
283.16	1308.65
283.37	1325.04
283.59	1318.89
283.80	1284.08
284.02	1236.97
284.23	1279.98
284.45	1226.73
284.66	1265.64
284.88	1261.55
285.09	1265.64
285.31	1314.80
285.52	1273.84
285.74	1263.60
285.95	1177.58
286.17	1265.64
286.38	1294.32
286.60	1296.36
286.81	1269.74
287.03	1224.69
287.24	1316.84
287.46	1224.69
287.67	1218.54
287.89	1273.84
288.10	1357.80
288.32	1304.56
288.53	1290.22
288.75	1306.60
288.96	1322.99
289.18	1269.74
289.39	1286.12
289.61	1253.36
289.82	1275.88
290.04	1218.54
290.25	1159.15
290.47	1239.02
290.68	1234.93
290.90	1234.93
291.11	1212.40
291.33	1310.70
291.54	1275.88
291.76	1243.12
291.97	1351.66
292.18	1331.18
292.40	1265.64
292.61	1267.69
292.83	1325.04
293.04	1306.60
293.26	1339.37
293.47	1251.31
293.69	1251.31
293.90	1243.12
294.12	1222.64
294.33	1316.84
294.55	1249.26
294.76	1351.66
294.97	1290.22
295.19	1306.60
295.40	1255.40
295.62	1300.46
295.83	1234.93
296.05	1290.22
296.26	1329.13
296.48	1296.36
296.69	1286.12
296.90	1228.78
297.12	1214.45
297.33	1290.22
297.55	1263.60
297.76	1249.26
297.98	1273.84
298.19	1318.89
298.41	1185.77
298.62	1232.88
298.83	1302.51
299.05	1173.49
299.26	1236.97
299.48	1275.88
299.69	1267.69
299.90	1292.27
300.12	1257.45
300.33	1241.07
300.55	1304.56
300.76	1329.13
300.98	1265.64
301.19	1249.26
301.40	1259.50
301.62	1234.93
301.83	1269.74
302.05	1210.35
302.26	1257.45
302.47	1230.83
302.69	1273.84
302.90	1267.69
303.12	1218.54
303.33	1341.42
303.54	1239.02
303.76	1290.22
303.97	1249.26
304.19	1384.43
304.40	1193.97
304.61	1198.06
304.83	1253.36
305.04	1247.21
305.26	1308.65
305.47	1241.07
305.68	1265.64
305.90	1310.70
306.11	1292.27
306.33	1257.45
306.54	1251.31
306.75	1216.49
306.97	1224.69
307.18	1273.84
307.39	1255.40
307.61	1228.78
307.82	1271.79
308.04	1245.16
308.25	1187.82
308.46	1261.55
308.68	1292.27
308.89	1239.02
309.10	1230.83
309.32	1314.80
309.53	1275.88
309.74	1232.88
309.96	1304.56
310.17	1288.17
310.39	1204.21
310.60	1271.79
310.81	1243.12
311.03	1241.07
311.24	1312.75
311.45	1263.60
311.67	1241.07
311.88	1290.22
312.09	1208.30
312.31	1277.93
312.52	1302.51
312.73	1271.79
312.95	1275.88
313.16	1210.35
313.37	1310.70
313.59	1220.59
313.80	1247.21
314.01	1265.64
314.23	1241.07
314.44	1200.11
314.65	1249.26
314.87	1279.98
315.08	1273.84
315.29	1273.84
315.51	1320.94
315.72	1374.19
315.93	1284.08
316.15	1279.98
316.36	1275.88
316.57	1230.83
316.79	1296.36
317.00	1282.03
317.21	1216.49
317.43	1247.21
317.64	1224.69
317.85	1316.84
318.07	1239.02
318.28	1290.22
318.49	1269.74
318.70	1253.36
318.92	1284.08
319.13	1273.84
319.34	1282.03
319.56	1204.21
319.77	1275.88
319.98	1167.34
320.20	1282.03
320.41	1263.60
320.62	1157.10
320.83	1296.36
321.05	1271.79
321.26	1275.88
321.47	1249.26
321.69	1214.45
321.90	1277.93
322.11	1265.64
322.32	1253.36
322.54	1337.32
322.75	1265.64
322.96	1302.51
323.18	1259.50
323.39	1316.84
323.60	1273.84
323.81	1353.71
324.03	1247.21
324.24	1265.64
324.45	1265.64
324.66	1300.46
324.88	1257.45
325.09	1279.98
325.30	1247.21
325.52	1308.65
325.73	1210.35
325.94	1296.36
326.15	1366.00
326.37	1275.88
326.58	1247.21
326.79	1222.64
327.00	1288.17
327.22	1300.46
327.43	1273.84
327.64	1286.12
327.85	1290.22
328.07	1212.40
328.28	1263.60
328.49	1327.08
328.70	1245.16
328.92	1339.37
329.13	1257.45
329.34	1236.97
329.55	1327.08
329.76	1290.22
329.98	1267.69
330.19	1232.88
330.40	1269.74
330.61	1245.16
330.83	1263.60
331.04	1273.84
331.25	1277.93
331.46	1325.04
331.68	1146.86
331.89	1216.49
332.10	1282.03
332.31	1279.98
332.52	1306.60
332.74	1316.84
332.95	1314.80
333.16	1271.79
333.37	1247.21
333.58	1259.50
333.80	1189.87
334.01	1298.41
334.22	1271.79
334.43	1273.84
334.64	1259.50
334.86	1294.32
335.07	1230.83
335.28	1292.27
335.49	1206.25
335.70	1337.32
335.92	1292.27
336.13	1224.69
336.34	1275.88
336.55	1261.55
336.76	1302.51
336.98	1216.49
337.19	1232.88
337.40	1282.03
337.61	1228.78
337.82	1314.80
338.04	1298.41
338.25	1232.88
338.46	1259.50
338.67	1298.41
338.88	1255.40
339.09	1271.79
339.31	1177.58
339.52	1290.22
339.73	1259.50
339.94	1271.79
340.15	1273.84
340.36	1212.40
340.58	1261.55
340.79	1220.59
341.00	1216.49
341.21	1267.69
341.42	1234.93
341.63	1198.06
341.85	1220.59
342.06	1306.60
342.27	1314.80
342.48	1265.64
342.69	1216.49
342.90	1277.93
343.12	1318.89
343.33	1259.50
343.54	1214.45
343.75	1271.79
343.96	1290.22
344.17	1236.97
344.38	1247.21
344.60	1257.45
344.81	1263.60
345.02	1232.88
345.23	1304.56
345.44	1243.12
345.65	1341.42
345.86	1271.79
346.07	1269.74
346.29	1265.64
346.50	1249.26
346.71	1284.08
346.92	1304.56
347.13	1304.56
347.34	1239.02
347.55	1245.16
347.76	1314.80
347.98	1222.64
348.19	1257.45
348.40	1282.03
348.61	1269.74
348.82	1286.12
349.03	1331.18
349.24	1333.23
349.45	1173.49
349.66	1202.16
349.88	1265.64
350.09	1251.31
350.30	1298.41
350.51	1296.36
350.72	1212.40
350.93	1257.45
351.14	1290.22
351.35	1220.59
351.56	1273.84
351.77	1214.45
351.99	1316.84
352.20	1318.89
352.41	1222.64
352.62	1322.99
352.83	1273.84
353.04	1269.74
353.25	1267.69
353.46	1286.12
353.67	1204.21
353.88	1329.13
354.09	1265.64
354.30	1265.64
354.52	1290.22
354.73	1265.64
354.94	1345.52
355.15	1259.50
355.36	1331.18
355.57	1218.54
355.78	1277.93
355.99	1296.36
356.20	1210.35
356.41	1247.21
356.62	1249.26
356.83	1232.88
357.04	1247.21
357.25	1312.75
357.46	1271.79
357.68	1294.32
357.89	1294.32
358.10	1331.18
358.31	1286.12
358.52	1279.98
358.73	1273.84
358.94	1208.30
359.15	1236.97
359.36	1241.07
359.57	1220.59
359.78	1302.51
359.99	1241.07
360.20	1312.75
360.41	1263.60
360.62	1239.02
360.83	1277.93
361.04	1261.55
361.25	1292.27
361.46	1322.99
361.67	1349.61
361.88	1306.60
362.09	1335.28
362.30	1314.80
362.51	1261.55
362.72	1232.88
362.93	1284.08
363.14	1253.36
363.35	1261.55
363.56	1220.59
363.78	1216.49
363.99	1306.60
364.20	1249.26
364.41	1318.89
364.62	1267.69
364.83	1243.12
365.04	1253.36
365.25	1249.26
365.46	1243.12
365.67	1279.98
365.88	1372.14
366.09	1265.64
366.30	1247.21
366.51	1265.64
366.72	1288.17
366.93	1273.84
367.14	1251.31
367.35	1302.51
367.56	1226.73
367.77	1261.55
367.98	1277.93
368.18	1308.65
368.39	1288.17
368.60	1314.80
368.81	1214.45
369.02	1312.75
369.23	1267.69
369.44	1253.36
369.65	1269.74
369.86	1179.63
370.07	1275.88
370.28	1325.04
370.49	1273.84
370.70	1255.40
370.91	1236.97
371.12	1282.03
371.33	1261.55
371.54	1325.04
371.75	1241.07
371.96	1310.70
372.17	1220.59
372.38	1249.26
372.59	1236.97
372.80	1335.28
373.01	1286.12
373.22	1239.02
373.43	1294.32
373.64	1273.84
373.85	1277.93
374.06	1257.45
374.26	1296.36
374.47	1241.07
374.68	1236.97
374.89	1196.01
375.10	1320.94
375.31	1251.31
375.52	1251.31
375.73	1273.84
375.94	1269.74
376.15	1331.18
376.36	1279.98
376.57	1239.02
376.78	1214.45
376.99	1222.64
377.20	1290.22
377.40	1243.12
377.61	1196.01
377.82	1277.93
378.03	1206.25
378.24	1198.06
378.45	1294.32
378.66	1275.88
378.87	1314.80
379.08	1290.22
379.29	1300.46
379.50	1300.46
379.71	1241.07
379.91	1218.54
380.12	1185.77
380.33	1241.07
380.54	1196.01
380.75	1353.71
380.96	1181.68
381.17	1265.64
381.38	1245.16
381.59	1253.36
381.80	1216.49
382.00	1251.31
382.21	1259.50
382.42	1277.93
382.63	1265.64
382.84	1282.03
383.05	1286.12
383.26	1296.36
383.47	1269.74
383.68	1275.88
383.88	1286.12
384.09	1239.02
384.30	1179.63
384.51	1302.51
384.72	1193.97
384.93	1282.03
385.14	1286.12
385.35	1247.21
385.55	1253.36
385.76	1249.26
385.97	1300.46
386.18	1277.93
386.39	1226.73
386.60	1282.03
386.81	1200.11
387.02	1265.64
387.22	1310.70
387.43	1290.22
387.64	1251.31
387.85	1222.64
388.06	1263.60
388.27	1257.45
388.48	1271.79
388.68	1322.99
388.89	1161.20
389.10	1257.45
389.31	1306.60
389.52	1335.28
389.73	1224.69
389.93	1314.80
390.14	1284.08
390.35	1247.21
390.56	1300.46
390.77	1306.60
390.98	1228.78
391.18	1241.07
391.39	1230.83
391.60	1239.02
391.81	1320.94
392.02	1257.45
392.23	1257.45
392.43	1343.47
392.64	1257.45
392.85	1273.84
393.06	1294.32
393.27	1298.41
393.47	1228.78
393.68	1298.41
393.89	1269.74
394.10	1284.08
394.31	1257.45
394.52	1245.16
394.72	1284.08
394.93	1228.78
395.14	1200.11
395.35	1302.51
395.56	1224.69
395.76	1253.36
395.97	1232.88
396.18	1288.17
396.39	1224.69
396.60	1247.21
396.80	1220.59
397.01	1241.07
397.22	1257.45
397.43	1261.55
397.64	1185.77
397.84	1282.03
398.05	1277.93
398.26	1269.74
398.47	1267.69
398.67	1226.73
398.88	1325.04
399.09	1327.08
399.30	1253.36
399.51	1308.65
399.71	1282.03
399.92	1216.49
400.13	1247.21
400.34	1163.25
400.54	1255.40
400.75	1339.37
400.96	1224.69
401.17	1259.50
401.37	1306.60
401.58	1263.60
401.79	1314.80
402.00	1208.30
402.21	1261.55
402.41	1310.70
402.62	1292.27
402.83	1269.74
403.04	1308.65
403.24	1196.01
403.45	1239.02
403.66	1193.97
403.87	1294.32
404.07	1269.74
404.28	1185.77
404.49	1216.49
404.70	1318.89
404.90	1277.93
405.11	1322.99
405.32	1208.30
405.52	1230.83
405.73	1218.54
405.94	1187.82
406.15	1193.97
406.35	1232.88
406.56	1239.02
406.77	1259.50
406.98	1269.74
407.18	1255.40
407.39	1288.17
407.60	1329.13
407.80	1343.47
408.01	1222.64
408.22	1269.74
408.43	1275.88
408.63	1322.99
408.84	1261.55
409.05	1257.45
409.25	1198.06
409.46	1277.93
409.67	1339.37
409.88	1163.25
410.08	1298.41
410.29	1193.97
410.50	1198.06
410.70	1249.26
410.91	1269.74
411.12	1247.21
411.32	1230.83
411.53	1265.64
411.74	1259.50
411.95	1282.03
412.15	1224.69
412.36	1320.94
412.57	1275.88
412.77	1224.69
412.98	1253.36
413.19	1243.12
413.39	1296.36
413.60	1261.55
413.81	1214.45
414.01	1282.03
414.22	1226.73
414.43	1249.26
414.63	1220.59
414.84	1208.30
415.05	1208.30
415.25	1282.03
415.46	1185.77
415.67	1282.03
415.87	1302.51
416.08	1275.88
416.29	1288.17
416.49	1314.80
416.70	1308.65
416.91	1271.79
417.11	1245.16
417.32	1279.98
417.53	1208.30
417.73	1288.17
417.94	1228.78
418.15	1249.26
418.35	1290.22
418.56	1286.12
418.77	1269.74
418.97	1294.32
419.18	1224.69
419.38	1249.26
419.59	1269.74
419.80	1294.32
420.00	1279.98
420.21	1298.41
420.42	1236.97
420.62	1298.41
420.83	1304.56
421.04	1259.50
421.24	1198.06
421.45	1226.73
421.65	1296.36
421.86	1267.69
422.07	1249.26
422.27	1261.55
422.48	1245.16
422.69	1222.64
422.89	1267.69
423.10	1253.36
423.30	1208.30
423.51	1306.60
423.72	1286.12
423.92	1241.07
424.13	1245.16
424.33	1224.69
424.54	1265.64
424.75	1282.03
424.95	1251.31
425.16	1275.88
425.36	1255.40
425.57	1208.30
425.78	1339.37
425.98	1239.02
426.19	1236.97
426.39	1200.11
426.60	1251.31
426.81	1265.64
427.01	1269.74
427.22	1267.69
427.42	1224.69
427.63	1292.27
427.83	1288.17
428.04	1298.41
428.25	1208.30
428.45	1255.40
428.66	1245.16
428.86	1275.88
429.07	1245.16
429.28	1310.70
429.48	1236.97
429.69	1220.59
429.89	1204.21
430.10	1183.73
430.30	1255.40
430.51	1314.80
430.71	1247.21
430.92	1216.49
431.13	1290.22
431.33	1241.07
431.54	1187.82
431.74	1284.08
431.95	1218.54
432.15	1314.80
432.36	1261.55
432.56	1325.04
432.77	1327.08
432.98	1245.16
433.18	1300.46
433.39	1320.94
433.59	1239.02
433.80	1267.69
434.00	1320.94
434.21	1279.98
434.41	1222.64
434.62	1261.55
434.82	1296.36
435.03	1247.21
435.23	1325.04
435.44	1193.97
435.64	1196.01
435.85	1314.80
436.06	1232.88
436.26	1243.12
436.47	1335.28
436.67	1277.93
436.88	1257.45
437.08	1212.40
437.29	1304.56
437.49	1257.45
437.70	1224.69
437.90	1306.60
438.11	1183.73
438.31	1269.74
438.52	1269.74
438.72	1265.64
438.93	1335.28
439.13	1318.89
439.34	1261.55
439.54	1253.36
439.75	1345.52
439.95	1269.74
440.16	1202.16
440.36	1255.40
440.57	1271.79
440.77	1230.83
440.98	1165.29
441.18	1196.01
441.39	1273.84
441.59	1331.18
441.80	1320.94
442.00	1302.51
442.21	1245.16
442.41	1273.84
442.62	1277.93
442.82	1263.60
443.02	1239.02
443.23	1241.07
443.43	1228.78
443.64	1269.74
443.84	1257.45
444.05	1269.74
444.25	1220.59
444.46	1245.16
444.66	1275.88
444.87	1249.26
445.07	1337.32
445.28	1263.60
445.48	1218.54
445.69	1275.88
445.89	1288.17
446.09	1302.51
446.30	1249.26
446.50	1269.74
446.71	1265.64
446.91	1300.46
447.12	1216.49
447.32	1257.45
447.53	1320.94
447.73	1329.13
447.93	1310.70
448.14	1306.60
448.34	1265.64
448.55	1275.88
448.75	1286.12
448.96	1296.36
449.16	1206.25
449.36	1353.71
449.57	1304.56
449.77	1290.22
449.98	1245.16
450.18	1259.50
450.39	1312.75
450.59	1282.03
450.79	1267.69
451.00	1241.07
451.20	1273.84
451.41	1267.69
451.61	1226.73
451.81	1284.08
452.02	1259.50
452.22	1335.28
452.43	1282.03
452.63	1282.03
