SpectraSuite Data File
++++++++++++++++++++++++++++++++++++
Date: Sun Apr 03 19:55:15 CEST 2016
User: root
Dark Spectrum Present: No
Reference Spectrum Present: No
Number of Sampled Component Spectra: 1
Spectrometers: USB4C02835
Integration Time (usec): 10000 (USB4C02835)
Spectra Averaged: 1 (USB4C02835)
Boxcar Smoothing: 0 (USB4C02835)
Correct for Electrical Dark: No (USB4C02835)
Strobe/Lamp Enabled: No (USB4C02835)
Correct for Detector Non-linearity: No (USB4C02835)
Correct for Stray Light: No (USB4C02835)
Number of Pixels in Processed Spectrum: 3648
>>>>>Begin Processed Spectral Data<<<<<
177.47	1267.69
177.69	1267.69
177.91	1267.69
178.13	1226.73
178.36	1232.88
178.58	1202.16
178.80	1273.84
179.02	1308.65
179.24	1339.37
179.46	1253.36
179.68	1269.74
179.90	1257.45
180.13	1247.21
180.35	1339.37
180.57	1218.54
180.79	1306.60
181.01	1282.03
181.23	1265.64
181.45	1284.08
181.67	1284.08
181.90	1259.50
182.12	1267.69
182.34	1245.16
182.56	1249.26
182.78	1198.06
183.00	1239.02
183.22	1232.88
183.44	1247.21
183.66	1304.56
183.89	1202.16
184.11	1349.61
184.33	1302.51
184.55	1206.25
184.77	1292.27
184.99	1257.45
185.21	1253.36
185.43	1230.83
185.65	1265.64
185.87	1247.21
186.10	1322.99
186.32	1325.04
186.54	1300.46
186.76	1290.22
186.98	1251.31
187.20	1314.80
187.42	1226.73
187.64	1220.59
187.86	1298.41
188.08	1316.84
188.30	1261.55
188.52	1232.88
188.75	1329.13
188.97	1292.27
189.19	1263.60
189.41	1263.60
189.63	1300.46
189.85	1243.12
190.07	1212.40
190.29	1320.94
190.51	1183.73
190.73	1251.31
190.95	1241.07
191.17	1271.79
191.39	1202.16
191.61	1234.93
191.84	1247.21
192.06	1249.26
192.28	1198.06
192.50	1341.42
192.72	1245.16
192.94	1261.55
193.16	1239.02
193.38	1247.21
193.60	1239.02
193.82	1271.79
194.04	1241.07
194.26	1273.84
194.48	1298.41
194.70	1241.07
194.92	1247.21
195.14	1298.41
195.36	1216.49
195.58	1247.21
195.80	1269.74
196.02	1312.75
196.24	1245.16
196.46	1320.94
196.69	1345.52
196.91	1251.31
197.13	1269.74
197.35	1259.50
197.57	1312.75
197.79	1212.40
198.01	1284.08
198.23	1298.41
198.45	1294.32
198.67	1277.93
198.89	1269.74
199.11	1339.37
199.33	1255.40
199.55	1271.79
199.77	1300.46
199.99	1269.74
200.21	1196.01
200.43	1249.26
200.65	1245.16
200.87	1282.03
201.09	1239.02
201.31	1249.26
201.53	1298.41
201.75	1306.60
201.97	1208.30
202.19	1282.03
202.41	1327.08
202.63	1298.41
202.85	1290.22
203.07	1304.56
203.29	1271.79
203.51	1265.64
203.73	1284.08
203.95	1279.98
204.17	1284.08
204.39	1261.55
204.61	1251.31
204.83	1325.04
205.05	1312.75
205.27	1204.21
205.49	1249.26
205.71	1243.12
205.93	1251.31
206.15	1239.02
206.37	1230.83
206.59	1247.21
206.81	1296.36
207.03	1196.01
207.25	1310.70
207.47	1216.49
207.69	1304.56
207.91	1302.51
208.13	1294.32
208.34	1263.60
208.56	1224.69
208.78	1236.97
209.00	1271.79
209.22	1322.99
209.44	1325.04
209.66	1253.36
209.88	1249.26
210.10	1279.98
210.32	1273.84
210.54	1261.55
210.76	1286.12
210.98	1247.21
211.20	1290.22
211.42	1222.64
211.64	1234.93
211.86	1277.93
212.08	1253.36
212.30	1222.64
212.52	1353.71
212.74	1247.21
212.96	1247.21
213.17	1316.84
213.39	1306.60
213.61	1292.27
213.83	1275.88
214.05	1337.32
214.27	1282.03
214.49	1290.22
214.71	1294.32
214.93	1298.41
215.15	1284.08
215.37	1245.16
215.59	1224.69
215.81	1275.88
216.03	1363.95
216.24	1322.99
216.46	1261.55
216.68	1253.36
216.90	1230.83
217.12	1279.98
217.34	1232.88
217.56	1228.78
217.78	1312.75
218.00	1318.89
218.22	1261.55
218.44	1329.13
218.66	1286.12
218.87	1282.03
219.09	1294.32
219.31	1329.13
219.53	1243.12
219.75	1331.18
219.97	1298.41
220.19	1282.03
220.41	1243.12
220.63	1216.49
220.85	1273.84
221.06	1230.83
221.28	1275.88
221.50	1259.50
221.72	1265.64
221.94	1263.60
222.16	1212.40
222.38	1253.36
222.60	1243.12
222.82	1202.16
223.03	1263.60
223.25	1191.92
223.47	1322.99
223.69	1337.32
223.91	1239.02
224.13	1300.46
224.35	1279.98
224.57	1288.17
224.78	1304.56
225.00	1265.64
225.22	1288.17
225.44	1232.88
225.66	1247.21
225.88	1265.64
226.10	1236.97
226.32	1275.88
226.53	1312.75
226.75	1230.83
226.97	1265.64
227.19	1320.94
227.41	1249.26
227.63	1290.22
227.85	1220.59
228.06	1306.60
228.28	1273.84
228.50	1259.50
228.72	1271.79
228.94	1265.64
229.16	1226.73
229.37	1224.69
229.59	1290.22
229.81	1306.60
230.03	1169.39
230.25	1271.79
230.47	1302.51
230.69	1210.35
230.90	1269.74
231.12	1277.93
231.34	1249.26
231.56	1343.47
231.78	1216.49
232.00	1245.16
232.21	1304.56
232.43	1320.94
232.65	1232.88
232.87	1265.64
233.09	1333.23
233.30	1310.70
233.52	1267.69
233.74	1255.40
233.96	1329.13
234.18	1259.50
234.40	1269.74
234.61	1247.21
234.83	1206.25
235.05	1292.27
235.27	1267.69
235.49	1284.08
235.70	1269.74
235.92	1255.40
236.14	1322.99
236.36	1247.21
236.58	1296.36
236.79	1265.64
237.01	1310.70
237.23	1355.76
237.45	1298.41
237.67	1288.17
237.88	1249.26
238.10	1314.80
238.32	1218.54
238.54	1335.28
238.76	1175.53
238.97	1294.32
239.19	1271.79
239.41	1257.45
239.63	1284.08
239.85	1296.36
240.06	1304.56
240.28	1183.73
240.50	1347.56
240.72	1310.70
240.93	1292.27
241.15	1261.55
241.37	1218.54
241.59	1329.13
241.81	1239.02
242.02	1282.03
242.24	1253.36
242.46	1296.36
242.68	1284.08
242.89	1255.40
243.11	1253.36
243.33	1269.74
243.55	1300.46
243.76	1218.54
243.98	1271.79
244.20	1282.03
244.42	1245.16
244.64	1320.94
244.85	1255.40
245.07	1261.55
245.29	1265.64
245.51	1202.16
245.72	1271.79
245.94	1282.03
246.16	1329.13
246.38	1226.73
246.59	1230.83
246.81	1294.32
247.03	1239.02
247.24	1361.90
247.46	1316.84
247.68	1196.01
247.90	1198.06
248.11	1294.32
248.33	1189.87
248.55	1216.49
248.77	1267.69
248.98	1255.40
249.20	1304.56
249.42	1222.64
249.64	1185.77
249.85	1230.83
250.07	1196.01
250.29	1290.22
250.50	1208.30
250.72	1220.59
250.94	1245.16
251.16	1236.97
251.37	1308.65
251.59	1263.60
251.81	1279.98
252.02	1277.93
252.24	1282.03
252.46	1302.51
252.68	1290.22
252.89	1327.08
253.11	1185.77
253.33	1282.03
253.54	1275.88
253.76	1331.18
253.98	1212.40
254.20	1310.70
254.41	1241.07
254.63	1255.40
254.85	1261.55
255.06	1234.93
255.28	1333.23
255.50	1288.17
255.71	1243.12
255.93	1279.98
256.15	1171.44
256.36	1214.45
256.58	1243.12
256.80	1308.65
257.02	1269.74
257.23	1318.89
257.45	1232.88
257.67	1310.70
257.88	1173.49
258.10	1249.26
258.32	1243.12
258.53	1245.16
258.75	1191.92
258.97	1249.26
259.18	1249.26
259.40	1214.45
259.62	1294.32
259.83	1245.16
260.05	1241.07
260.27	1312.75
260.48	1257.45
260.70	1284.08
260.92	1275.88
261.13	1269.74
261.35	1294.32
261.57	1265.64
261.78	1271.79
262.00	1236.97
262.22	1275.88
262.43	1277.93
262.65	1261.55
262.86	1253.36
263.08	1277.93
263.30	1224.69
263.51	1269.74
263.73	1320.94
263.95	1320.94
264.16	1253.36
264.38	1279.98
264.60	1263.60
264.81	1304.56
265.03	1265.64
265.25	1320.94
265.46	1251.31
265.68	1259.50
265.89	1290.22
266.11	1181.68
266.33	1265.64
266.54	1279.98
266.76	1271.79
266.98	1222.64
267.19	1232.88
267.41	1296.36
267.62	1320.94
267.84	1206.25
268.06	1335.28
268.27	1253.36
268.49	1239.02
268.70	1212.40
268.92	1251.31
269.14	1218.54
269.35	1255.40
269.57	1257.45
269.79	1345.52
270.00	1163.25
270.22	1351.66
270.43	1296.36
270.65	1286.12
270.87	1253.36
271.08	1198.06
271.30	1275.88
271.51	1261.55
271.73	1232.88
271.95	1257.45
272.16	1245.16
272.38	1208.30
272.59	1251.31
272.81	1277.93
273.02	1157.10
273.24	1347.56
273.46	1239.02
273.67	1273.84
273.89	1288.17
274.10	1284.08
274.32	1304.56
274.54	1257.45
274.75	1275.88
274.97	1290.22
275.18	1302.51
275.40	1294.32
275.61	1214.45
275.83	1327.08
276.05	1253.36
276.26	1292.27
276.48	1308.65
276.69	1261.55
276.91	1316.84
277.12	1298.41
277.34	1208.30
277.55	1316.84
277.77	1314.80
277.99	1259.50
278.20	1351.66
278.42	1196.01
278.63	1243.12
278.85	1296.36
279.06	1304.56
279.28	1327.08
279.49	1282.03
279.71	1247.21
279.93	1263.60
280.14	1228.78
280.36	1226.73
280.57	1304.56
280.79	1273.84
281.00	1290.22
281.22	1247.21
281.43	1292.27
281.65	1290.22
281.86	1273.84
282.08	1212.40
282.29	1232.88
282.51	1300.46
282.73	1298.41
282.94	1255.40
283.16	1308.65
283.37	1306.60
283.59	1322.99
283.80	1286.12
284.02	1302.51
284.23	1277.93
284.45	1265.64
284.66	1218.54
284.88	1304.56
285.09	1277.93
285.31	1230.83
285.52	1241.07
285.74	1210.35
285.95	1304.56
286.17	1302.51
286.38	1239.02
286.60	1275.88
286.81	1329.13
287.03	1290.22
287.24	1294.32
287.46	1312.75
287.67	1298.41
287.89	1210.35
288.10	1265.64
288.32	1277.93
288.53	1214.45
288.75	1220.59
288.96	1189.87
289.18	1247.21
289.39	1284.08
289.61	1261.55
289.82	1228.78
290.04	1337.32
290.25	1232.88
290.47	1304.56
290.68	1282.03
290.90	1308.65
291.11	1224.69
291.33	1296.36
291.54	1255.40
291.76	1247.21
291.97	1212.40
292.18	1302.51
292.40	1251.31
292.61	1331.18
292.83	1298.41
293.04	1282.03
293.26	1220.59
293.47	1292.27
293.69	1316.84
293.90	1220.59
294.12	1300.46
294.33	1271.79
294.55	1304.56
294.76	1265.64
294.97	1218.54
295.19	1322.99
295.40	1304.56
295.62	1345.52
295.83	1296.36
296.05	1275.88
296.26	1290.22
296.48	1216.49
296.69	1296.36
296.90	1290.22
297.12	1239.02
297.33	1175.53
297.55	1265.64
297.76	1304.56
297.98	1275.88
298.19	1263.60
298.41	1292.27
298.62	1322.99
298.83	1288.17
299.05	1318.89
299.26	1298.41
299.48	1273.84
299.69	1298.41
299.90	1306.60
300.12	1269.74
300.33	1302.51
300.55	1302.51
300.76	1302.51
300.98	1337.32
301.19	1304.56
301.40	1271.79
301.62	1318.89
301.83	1290.22
302.05	1228.78
302.26	1251.31
302.47	1320.94
302.69	1294.32
302.90	1322.99
303.12	1243.12
303.33	1253.36
303.54	1220.59
303.76	1271.79
303.97	1230.83
304.19	1253.36
304.40	1314.80
304.61	1294.32
304.83	1306.60
305.04	1279.98
305.26	1249.26
305.47	1314.80
305.68	1273.84
305.90	1310.70
306.11	1294.32
306.33	1290.22
306.54	1269.74
306.75	1257.45
306.97	1273.84
307.18	1249.26
307.39	1265.64
307.61	1302.51
307.82	1263.60
308.04	1273.84
308.25	1298.41
308.46	1259.50
308.68	1290.22
308.89	1298.41
309.10	1296.36
309.32	1341.42
309.53	1218.54
309.74	1249.26
309.96	1265.64
310.17	1335.28
310.39	1286.12
310.60	1247.21
310.81	1214.45
311.03	1251.31
311.24	1337.32
311.45	1275.88
311.67	1327.08
311.88	1261.55
312.09	1261.55
312.31	1300.46
312.52	1302.51
312.73	1273.84
312.95	1325.04
313.16	1304.56
313.37	1261.55
313.59	1255.40
313.80	1245.16
314.01	1275.88
314.23	1232.88
314.44	1212.40
314.65	1333.23
314.87	1251.31
315.08	1290.22
315.29	1294.32
315.51	1210.35
315.72	1191.92
315.93	1327.08
316.15	1257.45
316.36	1243.12
316.57	1196.01
316.79	1318.89
317.00	1261.55
317.21	1257.45
317.43	1284.08
317.64	1271.79
317.85	1298.41
318.07	1282.03
318.28	1171.44
318.49	1269.74
318.70	1304.56
318.92	1290.22
319.13	1171.44
319.34	1224.69
319.56	1290.22
319.77	1206.25
319.98	1263.60
320.20	1189.87
320.41	1245.16
320.62	1284.08
320.83	1339.37
321.05	1251.31
321.26	1322.99
321.47	1284.08
321.69	1394.67
321.90	1251.31
322.11	1245.16
322.32	1241.07
322.54	1312.75
322.75	1245.16
322.96	1304.56
323.18	1232.88
323.39	1277.93
323.60	1282.03
323.81	1234.93
324.03	1222.64
324.24	1320.94
324.45	1216.49
324.66	1277.93
324.88	1249.26
325.09	1294.32
325.30	1234.93
325.52	1251.31
325.73	1279.98
325.94	1265.64
326.15	1193.97
326.37	1316.84
326.58	1208.30
326.79	1296.36
327.00	1290.22
327.22	1220.59
327.43	1251.31
327.64	1204.21
327.85	1320.94
328.07	1341.42
328.28	1296.36
328.49	1255.40
328.70	1241.07
328.92	1320.94
329.13	1208.30
329.34	1267.69
329.55	1277.93
329.76	1302.51
329.98	1312.75
330.19	1206.25
330.40	1290.22
330.61	1284.08
330.83	1294.32
331.04	1224.69
331.25	1247.21
331.46	1310.70
331.68	1279.98
331.89	1275.88
332.10	1277.93
332.31	1230.83
332.52	1263.60
332.74	1247.21
332.95	1279.98
333.16	1226.73
333.37	1234.93
333.58	1189.87
333.80	1234.93
334.01	1294.32
334.22	1316.84
334.43	1267.69
334.64	1308.65
334.86	1290.22
335.07	1349.61
335.28	1259.50
335.49	1263.60
335.70	1263.60
335.92	1173.49
336.13	1204.21
336.34	1279.98
336.55	1304.56
336.76	1236.97
336.98	1247.21
337.19	1261.55
337.40	1202.16
337.61	1243.12
337.82	1286.12
338.04	1261.55
338.25	1310.70
338.46	1277.93
338.67	1282.03
338.88	1275.88
339.09	1251.31
339.31	1224.69
339.52	1263.60
339.73	1224.69
339.94	1345.52
340.15	1282.03
340.36	1304.56
340.58	1290.22
340.79	1267.69
341.00	1296.36
341.21	1261.55
341.42	1200.11
341.63	1282.03
341.85	1243.12
342.06	1249.26
342.27	1183.73
342.48	1288.17
342.69	1327.08
342.90	1193.97
343.12	1265.64
343.33	1239.02
343.54	1302.51
343.75	1337.32
343.96	1224.69
344.17	1333.23
344.38	1282.03
344.60	1220.59
344.81	1265.64
345.02	1234.93
345.23	1251.31
345.44	1290.22
345.65	1232.88
345.86	1257.45
346.07	1302.51
346.29	1239.02
346.50	1241.07
346.71	1263.60
346.92	1214.45
347.13	1361.90
347.34	1277.93
347.55	1273.84
347.76	1279.98
347.98	1210.35
348.19	1267.69
348.40	1253.36
348.61	1294.32
348.82	1224.69
349.03	1179.63
349.24	1253.36
349.45	1279.98
349.66	1255.40
349.88	1210.35
350.09	1241.07
350.30	1236.97
350.51	1261.55
350.72	1214.45
350.93	1335.28
351.14	1275.88
351.35	1232.88
351.56	1302.51
351.77	1257.45
351.99	1288.17
352.20	1214.45
352.41	1255.40
352.62	1339.37
352.83	1232.88
353.04	1239.02
353.25	1228.78
353.46	1294.32
353.67	1337.32
353.88	1251.31
354.09	1253.36
354.30	1279.98
354.52	1298.41
354.73	1212.40
354.94	1314.80
355.15	1288.17
355.36	1255.40
355.57	1265.64
355.78	1228.78
355.99	1273.84
356.20	1275.88
356.41	1294.32
356.62	1200.11
356.83	1306.60
357.04	1286.12
357.25	1300.46
357.46	1255.40
357.68	1243.12
357.89	1243.12
358.10	1247.21
358.31	1279.98
358.52	1282.03
358.73	1292.27
358.94	1327.08
359.15	1245.16
359.36	1329.13
359.57	1251.31
359.78	1327.08
359.99	1306.60
360.20	1302.51
360.41	1298.41
360.62	1411.05
360.83	1245.16
361.04	1243.12
361.25	1216.49
361.46	1263.60
361.67	1279.98
361.88	1320.94
362.09	1271.79
362.30	1306.60
362.51	1228.78
362.72	1284.08
362.93	1241.07
363.14	1267.69
363.35	1261.55
363.56	1236.97
363.78	1335.28
363.99	1320.94
364.20	1210.35
364.41	1277.93
364.62	1282.03
364.83	1267.69
365.04	1222.64
365.25	1236.97
365.46	1361.90
365.67	1292.27
365.88	1253.36
366.09	1265.64
366.30	1322.99
366.51	1271.79
366.72	1282.03
366.93	1279.98
367.14	1232.88
367.35	1335.28
367.56	1284.08
367.77	1279.98
367.98	1210.35
368.18	1265.64
368.39	1322.99
368.60	1228.78
368.81	1253.36
369.02	1318.89
369.23	1265.64
369.44	1308.65
369.65	1200.11
369.86	1316.84
370.07	1210.35
370.28	1224.69
370.49	1253.36
370.70	1292.27
370.91	1224.69
371.12	1269.74
371.33	1200.11
371.54	1216.49
371.75	1282.03
371.96	1288.17
372.17	1255.40
372.38	1271.79
372.59	1282.03
372.80	1284.08
373.01	1329.13
373.22	1329.13
373.43	1312.75
373.64	1331.18
373.85	1298.41
374.06	1265.64
374.26	1204.21
374.47	1247.21
374.68	1253.36
374.89	1331.18
375.10	1239.02
375.31	1312.75
375.52	1273.84
375.73	1239.02
375.94	1202.16
376.15	1263.60
376.36	1275.88
376.57	1290.22
376.78	1292.27
376.99	1273.84
377.20	1282.03
377.40	1282.03
377.61	1255.40
377.82	1318.89
378.03	1294.32
378.24	1284.08
378.45	1216.49
378.66	1304.56
378.87	1298.41
379.08	1230.83
379.29	1247.21
379.50	1255.40
379.71	1212.40
379.91	1282.03
380.12	1189.87
380.33	1216.49
380.54	1275.88
380.75	1251.31
380.96	1333.23
381.17	1236.97
381.38	1279.98
381.59	1265.64
381.80	1267.69
382.00	1265.64
382.21	1253.36
382.42	1271.79
382.63	1249.26
382.84	1265.64
383.05	1290.22
383.26	1249.26
383.47	1249.26
383.68	1282.03
383.88	1167.34
384.09	1292.27
384.30	1273.84
384.51	1296.36
384.72	1261.55
384.93	1218.54
385.14	1279.98
385.35	1329.13
385.55	1218.54
385.76	1247.21
385.97	1286.12
386.18	1243.12
386.39	1318.89
386.60	1308.65
386.81	1265.64
387.02	1275.88
387.22	1302.51
387.43	1210.35
387.64	1269.74
387.85	1239.02
388.06	1200.11
388.27	1277.93
388.48	1290.22
388.68	1304.56
388.89	1279.98
389.10	1239.02
389.31	1265.64
389.52	1345.52
389.73	1253.36
389.93	1226.73
390.14	1308.65
390.35	1261.55
390.56	1257.45
390.77	1183.73
390.98	1308.65
391.18	1228.78
391.39	1267.69
391.60	1298.41
391.81	1337.32
392.02	1206.25
392.23	1245.16
392.43	1255.40
392.64	1306.60
392.85	1288.17
393.06	1261.55
393.27	1290.22
393.47	1343.47
393.68	1286.12
393.89	1267.69
394.10	1353.71
394.31	1230.83
394.52	1286.12
394.72	1249.26
394.93	1251.31
395.14	1273.84
395.35	1314.80
395.56	1239.02
395.76	1220.59
395.97	1261.55
396.18	1228.78
396.39	1253.36
396.60	1220.59
396.80	1284.08
397.01	1288.17
397.22	1255.40
397.43	1261.55
397.64	1249.26
397.84	1239.02
398.05	1273.84
398.26	1271.79
398.47	1275.88
398.67	1253.36
398.88	1263.60
399.09	1273.84
399.30	1253.36
399.51	1234.93
399.71	1288.17
399.92	1288.17
400.13	1277.93
400.34	1306.60
400.54	1261.55
400.75	1263.60
400.96	1224.69
401.17	1253.36
401.37	1290.22
401.58	1288.17
401.79	1236.97
402.00	1363.95
402.21	1216.49
402.41	1273.84
402.62	1220.59
402.83	1253.36
403.04	1296.36
403.24	1298.41
403.45	1214.45
403.66	1267.69
403.87	1298.41
404.07	1286.12
404.28	1292.27
404.49	1308.65
404.70	1255.40
404.90	1247.21
405.11	1243.12
405.32	1343.47
405.52	1275.88
405.73	1329.13
405.94	1271.79
406.15	1271.79
406.35	1298.41
406.56	1292.27
406.77	1255.40
406.98	1255.40
407.18	1263.60
407.39	1263.60
407.60	1275.88
407.80	1249.26
408.01	1312.75
408.22	1236.97
408.43	1226.73
408.63	1300.46
408.84	1214.45
409.05	1296.36
409.25	1300.46
409.46	1267.69
409.67	1310.70
409.88	1232.88
410.08	1304.56
410.29	1277.93
410.50	1259.50
410.70	1308.65
410.91	1247.21
411.12	1255.40
411.32	1273.84
411.53	1222.64
411.74	1232.88
411.95	1277.93
412.15	1228.78
412.36	1282.03
412.57	1228.78
412.77	1329.13
412.98	1261.55
413.19	1255.40
413.39	1255.40
413.60	1236.97
413.81	1236.97
414.01	1234.93
414.22	1257.45
414.43	1286.12
414.63	1277.93
414.84	1306.60
415.05	1232.88
415.25	1269.74
415.46	1298.41
415.67	1271.79
415.87	1241.07
416.08	1267.69
416.29	1241.07
416.49	1300.46
416.70	1284.08
416.91	1277.93
417.11	1304.56
417.32	1241.07
417.53	1290.22
417.73	1255.40
417.94	1277.93
418.15	1202.16
418.35	1257.45
418.56	1282.03
418.77	1290.22
418.97	1296.36
419.18	1214.45
419.38	1257.45
419.59	1261.55
419.80	1327.08
420.00	1296.36
420.21	1232.88
420.42	1226.73
420.62	1216.49
420.83	1230.83
421.04	1273.84
421.24	1263.60
421.45	1318.89
421.65	1249.26
421.86	1257.45
422.07	1243.12
422.27	1269.74
422.48	1277.93
422.69	1253.36
422.89	1263.60
423.10	1331.18
423.30	1349.61
423.51	1265.64
423.72	1257.45
423.92	1249.26
424.13	1296.36
424.33	1265.64
424.54	1245.16
424.75	1263.60
424.95	1337.32
425.16	1220.59
425.36	1341.42
425.57	1316.84
425.78	1239.02
425.98	1282.03
426.19	1228.78
426.39	1249.26
426.60	1249.26
426.81	1253.36
427.01	1269.74
427.22	1208.30
427.42	1220.59
427.63	1249.26
427.83	1284.08
428.04	1294.32
428.25	1265.64
428.45	1306.60
428.66	1257.45
428.86	1275.88
429.07	1310.70
429.28	1204.21
429.48	1239.02
429.69	1259.50
429.89	1271.79
430.10	1300.46
430.30	1255.40
430.51	1286.12
430.71	1265.64
430.92	1249.26
431.13	1222.64
431.33	1288.17
431.54	1271.79
431.74	1318.89
431.95	1327.08
432.15	1220.59
432.36	1271.79
432.56	1273.84
432.77	1232.88
432.98	1216.49
433.18	1322.99
433.39	1312.75
433.59	1253.36
433.80	1306.60
434.00	1210.35
434.21	1298.41
434.41	1306.60
434.62	1257.45
434.82	1239.02
435.03	1249.26
435.23	1269.74
435.44	1261.55
435.64	1228.78
435.85	1230.83
436.06	1296.36
436.26	1241.07
436.47	1267.69
436.67	1318.89
436.88	1284.08
437.08	1251.31
437.29	1191.92
437.49	1296.36
437.70	1222.64
437.90	1243.12
438.11	1300.46
438.31	1271.79
438.52	1224.69
438.72	1359.85
438.93	1279.98
439.13	1273.84
439.34	1308.65
439.54	1302.51
439.75	1284.08
439.95	1200.11
440.16	1273.84
440.36	1288.17
440.57	1228.78
440.77	1284.08
440.98	1277.93
441.18	1257.45
441.39	1265.64
441.59	1247.21
441.80	1251.31
442.00	1218.54
442.21	1290.22
442.41	1339.37
442.62	1263.60
442.82	1273.84
443.02	1247.21
443.23	1310.70
443.43	1302.51
443.64	1298.41
443.84	1294.32
444.05	1347.56
444.25	1331.18
444.46	1267.69
444.66	1224.69
444.87	1316.84
445.07	1275.88
445.28	1259.50
445.48	1290.22
445.69	1329.13
445.89	1341.42
446.09	1312.75
446.30	1290.22
446.50	1214.45
446.71	1249.26
446.91	1255.40
447.12	1245.16
447.32	1269.74
447.53	1261.55
447.73	1298.41
447.93	1304.56
448.14	1257.45
448.34	1206.25
448.55	1267.69
448.75	1304.56
448.96	1333.23
449.16	1282.03
449.36	1279.98
449.57	1245.16
449.77	1218.54
449.98	1282.03
450.18	1261.55
450.39	1191.92
450.59	1273.84
450.79	1275.88
451.00	1296.36
451.20	1236.97
451.41	1230.83
451.61	1269.74
451.81	1216.49
452.02	1216.49
452.22	1245.16
452.43	1329.13
452.63	1191.92
