SpectraSuite Data File
++++++++++++++++++++++++++++++++++++
Date: Sun Apr 03 19:55:22 CEST 2016
User: root
Dark Spectrum Present: No
Reference Spectrum Present: No
Number of Sampled Component Spectra: 1
Spectrometers: USB4C02835
Integration Time (usec): 10000 (USB4C02835)
Spectra Averaged: 1 (USB4C02835)
Boxcar Smoothing: 0 (USB4C02835)
Correct for Electrical Dark: No (USB4C02835)
Strobe/Lamp Enabled: No (USB4C02835)
Correct for Detector Non-linearity: No (USB4C02835)
Correct for Stray Light: No (USB4C02835)
Number of Pixels in Processed Spectrum: 3648
>>>>>Begin Processed Spectral Data<<<<<
177.47	1187.82
177.69	1187.82
177.91	1187.82
178.13	1259.50
178.36	1263.60
178.58	1261.55
178.80	1261.55
179.02	1249.26
179.24	1234.93
179.46	1200.11
179.68	1249.26
179.90	1277.93
180.13	1327.08
180.35	1292.27
180.57	1212.40
180.79	1228.78
181.01	1318.89
181.23	1257.45
181.45	1279.98
181.67	1253.36
181.90	1306.60
182.12	1329.13
182.34	1241.07
182.56	1290.22
182.78	1378.28
183.00	1259.50
183.22	1208.30
183.44	1327.08
183.66	1271.79
183.89	1296.36
184.11	1202.16
184.33	1335.28
184.55	1265.64
184.77	1302.51
184.99	1322.99
185.21	1316.84
185.43	1290.22
185.65	1265.64
185.87	1232.88
186.10	1284.08
186.32	1253.36
186.54	1239.02
186.76	1288.17
186.98	1261.55
187.20	1265.64
187.42	1191.92
187.64	1214.45
187.86	1288.17
188.08	1269.74
188.30	1206.25
188.52	1206.25
188.75	1261.55
188.97	1232.88
189.19	1337.32
189.41	1249.26
189.63	1310.70
189.85	1273.84
190.07	1255.40
190.29	1255.40
190.51	1275.88
190.73	1292.27
190.95	1312.75
191.17	1310.70
191.39	1320.94
191.61	1222.64
191.84	1271.79
192.06	1273.84
192.28	1228.78
192.50	1228.78
192.72	1267.69
192.94	1247.21
193.16	1261.55
193.38	1259.50
193.60	1273.84
193.82	1245.16
194.04	1245.16
194.26	1298.41
194.48	1277.93
194.70	1298.41
194.92	1226.73
195.14	1236.97
195.36	1318.89
195.58	1247.21
195.80	1275.88
196.02	1273.84
196.24	1230.83
196.46	1339.37
196.69	1298.41
196.91	1224.69
197.13	1259.50
197.35	1282.03
197.57	1271.79
197.79	1236.97
198.01	1218.54
198.23	1275.88
198.45	1228.78
198.67	1284.08
198.89	1224.69
199.11	1275.88
199.33	1243.12
199.55	1325.04
199.77	1220.59
199.99	1282.03
200.21	1308.65
200.43	1226.73
200.65	1288.17
200.87	1306.60
201.09	1198.06
201.31	1267.69
201.53	1316.84
201.75	1265.64
201.97	1245.16
202.19	1306.60
202.41	1277.93
202.63	1279.98
202.85	1222.64
203.07	1249.26
203.29	1204.21
203.51	1282.03
203.73	1198.06
203.95	1263.60
204.17	1206.25
204.39	1259.50
204.61	1193.97
204.83	1320.94
205.05	1288.17
205.27	1288.17
205.49	1243.12
205.71	1267.69
205.93	1173.49
206.15	1253.36
206.37	1269.74
206.59	1282.03
206.81	1261.55
207.03	1310.70
207.25	1267.69
207.47	1277.93
207.69	1302.51
207.91	1298.41
208.13	1310.70
208.34	1286.12
208.56	1224.69
208.78	1308.65
209.00	1298.41
209.22	1212.40
209.44	1290.22
209.66	1236.97
209.88	1245.16
210.10	1347.56
210.32	1247.21
210.54	1277.93
210.76	1230.83
210.98	1327.08
211.20	1292.27
211.42	1343.47
211.64	1327.08
211.86	1200.11
212.08	1290.22
212.30	1288.17
212.52	1316.84
212.74	1208.30
212.96	1257.45
213.17	1263.60
213.39	1200.11
213.61	1378.28
213.83	1241.07
214.05	1245.16
214.27	1232.88
214.49	1286.12
214.71	1196.01
214.93	1257.45
215.15	1288.17
215.37	1241.07
215.59	1200.11
215.81	1263.60
216.03	1224.69
216.24	1306.60
216.46	1277.93
216.68	1318.89
216.90	1290.22
217.12	1277.93
217.34	1218.54
217.56	1261.55
217.78	1245.16
218.00	1296.36
218.22	1273.84
218.44	1267.69
218.66	1239.02
218.87	1312.75
219.09	1261.55
219.31	1286.12
219.53	1273.84
219.75	1263.60
219.97	1224.69
220.19	1230.83
220.41	1257.45
220.63	1251.31
220.85	1243.12
221.06	1214.45
221.28	1286.12
221.50	1169.39
221.72	1224.69
221.94	1230.83
222.16	1167.34
222.38	1220.59
222.60	1302.51
222.82	1271.79
223.03	1357.80
223.25	1251.31
223.47	1284.08
223.69	1275.88
223.91	1249.26
224.13	1269.74
224.35	1353.71
224.57	1279.98
224.78	1269.74
225.00	1404.91
225.22	1312.75
225.44	1212.40
225.66	1277.93
225.88	1312.75
226.10	1284.08
226.32	1267.69
226.53	1212.40
226.75	1257.45
226.97	1273.84
227.19	1222.64
227.41	1304.56
227.63	1312.75
227.85	1234.93
228.06	1216.49
228.28	1271.79
228.50	1251.31
228.72	1239.02
228.94	1271.79
229.16	1236.97
229.37	1230.83
229.59	1173.49
229.81	1386.47
230.03	1220.59
230.25	1282.03
230.47	1241.07
230.69	1279.98
230.90	1173.49
231.12	1286.12
231.34	1269.74
231.56	1345.52
231.78	1267.69
232.00	1273.84
232.21	1245.16
232.43	1267.69
232.65	1173.49
232.87	1230.83
233.09	1241.07
233.30	1241.07
233.52	1279.98
233.74	1236.97
233.96	1226.73
234.18	1226.73
234.40	1234.93
234.61	1316.84
234.83	1257.45
235.05	1279.98
235.27	1241.07
235.49	1359.85
235.70	1191.92
235.92	1257.45
236.14	1261.55
236.36	1273.84
236.58	1247.21
236.79	1273.84
237.01	1267.69
237.23	1327.08
237.45	1335.28
237.67	1253.36
237.88	1282.03
238.10	1265.64
238.32	1259.50
238.54	1320.94
238.76	1224.69
238.97	1353.71
239.19	1316.84
239.41	1277.93
239.63	1267.69
239.85	1236.97
240.06	1210.35
240.28	1259.50
240.50	1216.49
240.72	1263.60
240.93	1251.31
241.15	1261.55
241.37	1269.74
241.59	1286.12
241.81	1249.26
242.02	1282.03
242.24	1257.45
242.46	1310.70
242.68	1298.41
242.89	1263.60
243.11	1290.22
243.33	1310.70
243.55	1198.06
243.76	1222.64
243.98	1294.32
244.20	1232.88
244.42	1259.50
244.64	1308.65
244.85	1296.36
245.07	1279.98
245.29	1239.02
245.51	1239.02
245.72	1267.69
245.94	1300.46
246.16	1257.45
246.38	1296.36
246.59	1282.03
246.81	1302.51
247.03	1204.21
247.24	1267.69
247.46	1316.84
247.68	1306.60
247.90	1275.88
248.11	1241.07
248.33	1245.16
248.55	1263.60
248.77	1243.12
248.98	1196.01
249.20	1282.03
249.42	1228.78
249.64	1257.45
249.85	1298.41
250.07	1196.01
250.29	1335.28
250.50	1269.74
250.72	1335.28
250.94	1304.56
251.16	1273.84
251.37	1286.12
251.59	1255.40
251.81	1300.46
252.02	1312.75
252.24	1286.12
252.46	1355.76
252.68	1277.93
252.89	1245.16
253.11	1208.30
253.33	1265.64
253.54	1267.69
253.76	1308.65
253.98	1308.65
254.20	1304.56
254.41	1261.55
254.63	1265.64
254.85	1292.27
255.06	1302.51
255.28	1271.79
255.50	1312.75
255.71	1234.93
255.93	1249.26
256.15	1183.73
256.36	1255.40
256.58	1265.64
256.80	1302.51
257.02	1277.93
257.23	1269.74
257.45	1265.64
257.67	1259.50
257.88	1282.03
258.10	1263.60
258.32	1230.83
258.53	1239.02
258.75	1288.17
258.97	1292.27
259.18	1288.17
259.40	1267.69
259.62	1230.83
259.83	1269.74
260.05	1282.03
260.27	1294.32
260.48	1234.93
260.70	1296.36
260.92	1271.79
261.13	1273.84
261.35	1239.02
261.57	1325.04
261.78	1249.26
262.00	1226.73
262.22	1226.73
262.43	1265.64
262.65	1267.69
262.86	1298.41
263.08	1259.50
263.30	1308.65
263.51	1269.74
263.73	1177.58
263.95	1304.56
264.16	1253.36
264.38	1308.65
264.60	1204.21
264.81	1300.46
265.03	1277.93
265.25	1275.88
265.46	1191.92
265.68	1216.49
265.89	1249.26
266.11	1220.59
266.33	1193.97
266.54	1200.11
266.76	1275.88
266.98	1290.22
267.19	1329.13
267.41	1298.41
267.62	1261.55
267.84	1298.41
268.06	1282.03
268.27	1284.08
268.49	1288.17
268.70	1214.45
268.92	1245.16
269.14	1179.63
269.35	1284.08
269.57	1245.16
269.79	1298.41
270.00	1241.07
270.22	1279.98
270.43	1257.45
270.65	1251.31
270.87	1189.87
271.08	1224.69
271.30	1263.60
271.51	1216.49
271.73	1271.79
271.95	1300.46
272.16	1294.32
272.38	1284.08
272.59	1247.21
272.81	1269.74
273.02	1298.41
273.24	1253.36
273.46	1304.56
273.67	1341.42
273.89	1294.32
274.10	1298.41
274.32	1173.49
274.54	1257.45
274.75	1271.79
274.97	1308.65
275.18	1271.79
275.40	1253.36
275.61	1259.50
275.83	1232.88
276.05	1337.32
276.26	1275.88
276.48	1230.83
276.69	1384.43
276.91	1292.27
277.12	1253.36
277.34	1247.21
277.55	1318.89
277.77	1284.08
277.99	1210.35
278.20	1273.84
278.42	1261.55
278.63	1218.54
278.85	1226.73
279.06	1292.27
279.28	1279.98
279.49	1214.45
279.71	1265.64
279.93	1273.84
280.14	1318.89
280.36	1247.21
280.57	1271.79
280.79	1271.79
281.00	1263.60
281.22	1302.51
281.43	1255.40
281.65	1226.73
281.86	1277.93
282.08	1232.88
282.29	1296.36
282.51	1214.45
282.73	1277.93
282.94	1255.40
283.16	1234.93
283.37	1265.64
283.59	1239.02
283.80	1226.73
284.02	1216.49
284.23	1220.59
284.45	1347.56
284.66	1269.74
284.88	1222.64
285.09	1228.78
285.31	1263.60
285.52	1286.12
285.74	1265.64
285.95	1212.40
286.17	1322.99
286.38	1347.56
286.60	1279.98
286.81	1273.84
287.03	1306.60
287.24	1269.74
287.46	1288.17
287.67	1300.46
287.89	1236.97
288.10	1294.32
288.32	1310.70
288.53	1308.65
288.75	1212.40
288.96	1355.76
289.18	1298.41
289.39	1222.64
289.61	1245.16
289.82	1284.08
290.04	1308.65
290.25	1251.31
290.47	1265.64
290.68	1263.60
290.90	1306.60
291.11	1337.32
291.33	1236.97
291.54	1314.80
291.76	1325.04
291.97	1220.59
292.18	1253.36
292.40	1304.56
292.61	1173.49
292.83	1269.74
293.04	1325.04
293.26	1343.47
293.47	1292.27
293.69	1224.69
293.90	1308.65
294.12	1300.46
294.33	1210.35
294.55	1261.55
294.76	1263.60
294.97	1245.16
295.19	1228.78
295.40	1271.79
295.62	1234.93
295.83	1243.12
296.05	1265.64
296.26	1271.79
296.48	1187.82
296.69	1257.45
296.90	1296.36
297.12	1288.17
297.33	1267.69
297.55	1345.52
297.76	1222.64
297.98	1210.35
298.19	1300.46
298.41	1286.12
298.62	1306.60
298.83	1257.45
299.05	1312.75
299.26	1247.21
299.48	1269.74
299.69	1290.22
299.90	1296.36
300.12	1304.56
300.33	1339.37
300.55	1284.08
300.76	1208.30
300.98	1255.40
301.19	1226.73
301.40	1234.93
301.62	1331.18
301.83	1335.28
302.05	1200.11
302.26	1320.94
302.47	1181.68
302.69	1345.52
302.90	1249.26
303.12	1206.25
303.33	1206.25
303.54	1261.55
303.76	1218.54
303.97	1232.88
304.19	1312.75
304.40	1353.71
304.61	1263.60
304.83	1316.84
305.04	1341.42
305.26	1265.64
305.47	1230.83
305.68	1236.97
305.90	1150.96
306.11	1218.54
306.33	1282.03
306.54	1282.03
306.75	1255.40
306.97	1253.36
307.18	1247.21
307.39	1304.56
307.61	1282.03
307.82	1290.22
308.04	1265.64
308.25	1208.30
308.46	1226.73
308.68	1267.69
308.89	1253.36
309.10	1198.06
309.32	1239.02
309.53	1282.03
309.74	1304.56
309.96	1277.93
310.17	1312.75
310.39	1269.74
310.60	1228.78
310.81	1282.03
311.03	1245.16
311.24	1288.17
311.45	1269.74
311.67	1247.21
311.88	1265.64
312.09	1345.52
312.31	1277.93
312.52	1247.21
312.73	1322.99
312.95	1234.93
313.16	1263.60
313.37	1304.56
313.59	1193.97
313.80	1279.98
314.01	1306.60
314.23	1259.50
314.44	1200.11
314.65	1257.45
314.87	1236.97
315.08	1257.45
315.29	1200.11
315.51	1167.34
315.72	1316.84
315.93	1273.84
316.15	1249.26
316.36	1341.42
316.57	1255.40
316.79	1257.45
317.00	1241.07
317.21	1290.22
317.43	1236.97
317.64	1243.12
317.85	1208.30
318.07	1277.93
318.28	1226.73
318.49	1277.93
318.70	1345.52
318.92	1257.45
319.13	1267.69
319.34	1249.26
319.56	1230.83
319.77	1314.80
319.98	1271.79
320.20	1200.11
320.41	1243.12
320.62	1234.93
320.83	1277.93
321.05	1335.28
321.26	1226.73
321.47	1243.12
321.69	1253.36
321.90	1226.73
322.11	1265.64
322.32	1282.03
322.54	1282.03
322.75	1290.22
322.96	1288.17
323.18	1318.89
323.39	1284.08
323.60	1292.27
323.81	1290.22
324.03	1243.12
324.24	1290.22
324.45	1226.73
324.66	1306.60
324.88	1292.27
325.09	1339.37
325.30	1267.69
325.52	1329.13
325.73	1241.07
325.94	1257.45
326.15	1214.45
326.37	1165.29
326.58	1273.84
326.79	1243.12
327.00	1241.07
327.22	1318.89
327.43	1236.97
327.64	1251.31
327.85	1245.16
328.07	1226.73
328.28	1247.21
328.49	1329.13
328.70	1312.75
328.92	1265.64
329.13	1290.22
329.34	1214.45
329.55	1222.64
329.76	1277.93
329.98	1241.07
330.19	1214.45
330.40	1239.02
330.61	1263.60
330.83	1277.93
331.04	1224.69
331.25	1206.25
331.46	1265.64
331.68	1222.64
331.89	1206.25
332.10	1271.79
332.31	1208.30
332.52	1269.74
332.74	1218.54
332.95	1234.93
333.16	1304.56
333.37	1255.40
333.58	1267.69
333.80	1193.97
334.01	1222.64
334.22	1243.12
334.43	1226.73
334.64	1224.69
334.86	1196.01
335.07	1265.64
335.28	1316.84
335.49	1224.69
335.70	1275.88
335.92	1292.27
336.13	1271.79
336.34	1296.36
336.55	1259.50
336.76	1224.69
336.98	1279.98
337.19	1255.40
337.40	1310.70
337.61	1302.51
337.82	1236.97
338.04	1220.59
338.25	1279.98
338.46	1282.03
338.67	1267.69
338.88	1279.98
339.09	1210.35
339.31	1290.22
339.52	1273.84
339.73	1284.08
339.94	1277.93
340.15	1200.11
340.36	1236.97
340.58	1200.11
340.79	1249.26
341.00	1279.98
341.21	1296.36
341.42	1261.55
341.63	1282.03
341.85	1210.35
342.06	1255.40
342.27	1320.94
342.48	1271.79
342.69	1247.21
342.90	1298.41
343.12	1269.74
343.33	1243.12
343.54	1296.36
343.75	1243.12
343.96	1196.01
344.17	1183.73
344.38	1316.84
344.60	1245.16
344.81	1308.65
345.02	1165.29
345.23	1245.16
345.44	1189.87
345.65	1216.49
345.86	1220.59
346.07	1304.56
346.29	1228.78
346.50	1271.79
346.71	1247.21
346.92	1245.16
347.13	1255.40
347.34	1269.74
347.55	1347.56
347.76	1249.26
347.98	1269.74
348.19	1257.45
348.40	1312.75
348.61	1216.49
348.82	1210.35
349.03	1275.88
349.24	1228.78
349.45	1298.41
349.66	1239.02
349.88	1234.93
350.09	1279.98
350.30	1273.84
350.51	1312.75
350.72	1318.89
350.93	1267.69
351.14	1259.50
351.35	1308.65
351.56	1275.88
351.77	1300.46
351.99	1277.93
352.20	1265.64
352.41	1284.08
352.62	1298.41
352.83	1298.41
353.04	1308.65
353.25	1308.65
353.46	1249.26
353.67	1308.65
353.88	1322.99
354.09	1204.21
354.30	1200.11
354.52	1339.37
354.73	1292.27
354.94	1257.45
355.15	1320.94
355.36	1210.35
355.57	1247.21
355.78	1314.80
355.99	1290.22
356.20	1243.12
356.41	1296.36
356.62	1267.69
356.83	1349.61
357.04	1249.26
357.25	1282.03
357.46	1222.64
357.68	1273.84
357.89	1183.73
358.10	1271.79
358.31	1241.07
358.52	1279.98
358.73	1247.21
358.94	1249.26
359.15	1302.51
359.36	1222.64
359.57	1249.26
359.78	1327.08
359.99	1208.30
360.20	1271.79
360.41	1187.82
360.62	1239.02
360.83	1308.65
361.04	1206.25
361.25	1183.73
361.46	1302.51
361.67	1267.69
361.88	1294.32
362.09	1259.50
362.30	1257.45
362.51	1316.84
362.72	1298.41
362.93	1290.22
363.14	1241.07
363.35	1239.02
363.56	1325.04
363.78	1257.45
363.99	1200.11
364.20	1171.44
364.41	1292.27
364.62	1198.06
364.83	1271.79
365.04	1261.55
365.25	1357.80
365.46	1271.79
365.67	1257.45
365.88	1269.74
366.09	1230.83
366.30	1288.17
366.51	1247.21
366.72	1193.97
366.93	1255.40
367.14	1228.78
367.35	1288.17
367.56	1191.92
367.77	1208.30
367.98	1259.50
368.18	1218.54
368.39	1320.94
368.60	1300.46
368.81	1300.46
369.02	1273.84
369.23	1206.25
369.44	1343.47
369.65	1267.69
369.86	1286.12
370.07	1206.25
370.28	1234.93
370.49	1275.88
370.70	1345.52
370.91	1318.89
371.12	1279.98
371.33	1353.71
371.54	1288.17
371.75	1265.64
371.96	1273.84
372.17	1355.76
372.38	1222.64
372.59	1265.64
372.80	1253.36
373.01	1232.88
373.22	1263.60
373.43	1273.84
373.64	1249.26
373.85	1322.99
374.06	1292.27
374.26	1265.64
374.47	1294.32
374.68	1271.79
374.89	1228.78
375.10	1269.74
375.31	1245.16
375.52	1298.41
375.73	1261.55
375.94	1286.12
376.15	1316.84
376.36	1167.34
376.57	1251.31
376.78	1290.22
376.99	1212.40
377.20	1327.08
377.40	1271.79
377.61	1275.88
377.82	1161.20
378.03	1230.83
378.24	1263.60
378.45	1257.45
378.66	1298.41
378.87	1290.22
379.08	1277.93
379.29	1320.94
379.50	1337.32
379.71	1331.18
379.91	1296.36
380.12	1196.01
380.33	1339.37
380.54	1290.22
380.75	1208.30
380.96	1279.98
381.17	1275.88
381.38	1296.36
381.59	1263.60
381.80	1224.69
382.00	1275.88
382.21	1251.31
382.42	1339.37
382.63	1322.99
382.84	1212.40
383.05	1183.73
383.26	1302.51
383.47	1302.51
383.68	1337.32
383.88	1314.80
384.09	1232.88
384.30	1306.60
384.51	1259.50
384.72	1257.45
384.93	1251.31
385.14	1232.88
385.35	1298.41
385.55	1359.85
385.76	1265.64
385.97	1245.16
386.18	1245.16
386.39	1269.74
386.60	1269.74
386.81	1341.42
387.02	1267.69
387.22	1243.12
387.43	1318.89
387.64	1300.46
387.85	1286.12
388.06	1304.56
388.27	1275.88
388.48	1279.98
388.68	1208.30
388.89	1245.16
389.10	1249.26
389.31	1298.41
389.52	1271.79
389.73	1263.60
389.93	1314.80
390.14	1282.03
390.35	1220.59
390.56	1224.69
390.77	1216.49
390.98	1269.74
391.18	1245.16
391.39	1282.03
391.60	1355.76
391.81	1251.31
392.02	1230.83
392.23	1228.78
392.43	1232.88
392.64	1245.16
392.85	1282.03
393.06	1214.45
393.27	1273.84
393.47	1247.21
393.68	1292.27
393.89	1253.36
394.10	1249.26
394.31	1241.07
394.52	1239.02
394.72	1249.26
394.93	1322.99
395.14	1275.88
395.35	1277.93
395.56	1335.28
395.76	1216.49
395.97	1298.41
396.18	1249.26
396.39	1208.30
396.60	1247.21
396.80	1183.73
397.01	1185.77
397.22	1310.70
397.43	1282.03
397.64	1200.11
397.84	1349.61
398.05	1269.74
398.26	1304.56
398.47	1273.84
398.67	1224.69
398.88	1245.16
399.09	1273.84
399.30	1173.49
399.51	1269.74
399.71	1279.98
399.92	1273.84
400.13	1220.59
400.34	1294.32
400.54	1288.17
400.75	1239.02
400.96	1261.55
401.17	1286.12
401.37	1220.59
401.58	1259.50
401.79	1269.74
402.00	1269.74
402.21	1241.07
402.41	1228.78
402.62	1275.88
402.83	1204.21
403.04	1222.64
403.24	1339.37
403.45	1282.03
403.66	1333.23
403.87	1239.02
404.07	1265.64
404.28	1339.37
404.49	1310.70
404.70	1273.84
404.90	1243.12
405.11	1224.69
405.32	1339.37
405.52	1230.83
405.73	1300.46
405.94	1341.42
406.15	1304.56
406.35	1312.75
406.56	1347.56
406.77	1335.28
406.98	1216.49
407.18	1294.32
407.39	1253.36
407.60	1239.02
407.80	1228.78
408.01	1179.63
408.22	1255.40
408.43	1253.36
408.63	1249.26
408.84	1228.78
409.05	1263.60
409.25	1255.40
409.46	1249.26
409.67	1339.37
409.88	1265.64
410.08	1261.55
410.29	1284.08
410.50	1261.55
410.70	1226.73
410.91	1175.53
411.12	1316.84
411.32	1249.26
411.53	1306.60
411.74	1218.54
411.95	1228.78
412.15	1296.36
412.36	1251.31
412.57	1263.60
412.77	1257.45
412.98	1327.08
413.19	1294.32
413.39	1251.31
413.60	1267.69
413.81	1286.12
414.01	1279.98
414.22	1318.89
414.43	1255.40
414.63	1298.41
414.84	1329.13
415.05	1304.56
415.25	1189.87
415.46	1335.28
415.67	1329.13
415.87	1230.83
416.08	1277.93
416.29	1339.37
416.49	1247.21
416.70	1312.75
416.91	1259.50
417.11	1292.27
417.32	1306.60
417.53	1212.40
417.73	1265.64
417.94	1245.16
418.15	1322.99
418.35	1243.12
418.56	1353.71
418.77	1245.16
418.97	1273.84
419.18	1265.64
419.38	1368.04
419.59	1314.80
419.80	1236.97
420.00	1241.07
420.21	1265.64
420.42	1193.97
420.62	1306.60
420.83	1271.79
421.04	1322.99
421.24	1212.40
421.45	1316.84
421.65	1271.79
421.86	1279.98
422.07	1257.45
422.27	1286.12
422.48	1239.02
422.69	1296.36
422.89	1257.45
423.10	1261.55
423.30	1239.02
423.51	1208.30
423.72	1296.36
423.92	1216.49
424.13	1222.64
424.33	1218.54
424.54	1300.46
424.75	1318.89
424.95	1196.01
425.16	1290.22
425.36	1277.93
425.57	1226.73
425.78	1267.69
425.98	1327.08
426.19	1271.79
426.39	1322.99
426.60	1263.60
426.81	1310.70
427.01	1290.22
427.22	1286.12
427.42	1220.59
427.63	1257.45
427.83	1308.65
428.04	1271.79
428.25	1333.23
428.45	1224.69
428.66	1247.21
428.86	1230.83
429.07	1314.80
429.28	1279.98
429.48	1216.49
429.69	1255.40
429.89	1271.79
430.10	1327.08
430.30	1253.36
430.51	1273.84
430.71	1243.12
430.92	1316.84
431.13	1296.36
431.33	1243.12
431.54	1253.36
431.74	1286.12
431.95	1269.74
432.15	1253.36
432.36	1236.97
432.56	1290.22
432.77	1335.28
432.98	1230.83
433.18	1292.27
433.39	1269.74
433.59	1247.21
433.80	1288.17
434.00	1288.17
434.21	1243.12
434.41	1271.79
434.62	1259.50
434.82	1189.87
435.03	1312.75
435.23	1236.97
435.44	1241.07
435.64	1212.40
435.85	1263.60
436.06	1275.88
436.26	1232.88
436.47	1226.73
436.67	1279.98
436.88	1267.69
437.08	1351.66
437.29	1267.69
437.49	1241.07
437.70	1312.75
437.90	1202.16
438.11	1333.23
438.31	1261.55
438.52	1320.94
438.72	1245.16
438.93	1183.73
439.13	1347.56
439.34	1245.16
439.54	1218.54
439.75	1310.70
439.95	1296.36
440.16	1279.98
440.36	1212.40
440.57	1259.50
440.77	1226.73
440.98	1241.07
441.18	1300.46
441.39	1202.16
441.59	1251.31
441.80	1239.02
442.00	1257.45
442.21	1355.76
442.41	1210.35
442.62	1361.90
442.82	1288.17
443.02	1255.40
443.23	1327.08
443.43	1257.45
443.64	1269.74
443.84	1257.45
444.05	1247.21
444.25	1267.69
444.46	1269.74
444.66	1298.41
444.87	1253.36
445.07	1284.08
445.28	1253.36
445.48	1277.93
445.69	1288.17
445.89	1298.41
446.09	1255.40
446.30	1263.60
446.50	1347.56
446.71	1271.79
446.91	1282.03
447.12	1261.55
447.32	1273.84
447.53	1275.88
447.73	1212.40
447.93	1249.26
448.14	1279.98
448.34	1318.89
448.55	1322.99
448.75	1226.73
448.96	1261.55
449.16	1206.25
449.36	1312.75
449.57	1310.70
449.77	1230.83
449.98	1243.12
450.18	1263.60
450.39	1273.84
450.59	1308.65
450.79	1265.64
451.00	1265.64
451.20	1271.79
451.41	1226.73
451.61	1314.80
451.81	1286.12
452.02	1279.98
452.22	1216.49
452.43	1245.16
452.63	1284.08
