SpectraSuite Data File
++++++++++++++++++++++++++++++++++++
Date: Sun Apr 03 19:55:54 CEST 2016
User: root
Dark Spectrum Present: No
Reference Spectrum Present: No
Number of Sampled Component Spectra: 1
Spectrometers: USB4C02835
Integration Time (usec): 10000 (USB4C02835)
Spectra Averaged: 1 (USB4C02835)
Boxcar Smoothing: 0 (USB4C02835)
Correct for Electrical Dark: No (USB4C02835)
Strobe/Lamp Enabled: No (USB4C02835)
Correct for Detector Non-linearity: No (USB4C02835)
Correct for Stray Light: No (USB4C02835)
Number of Pixels in Processed Spectrum: 3648
>>>>>Begin Processed Spectral Data<<<<<
177.47	1232.88
177.69	1232.88
177.91	1232.88
178.13	1220.59
178.36	1228.78
178.58	1275.88
178.80	1292.27
179.02	1318.89
179.24	1241.07
179.46	1216.49
179.68	1259.50
179.90	1212.40
180.13	1239.02
180.35	1247.21
180.57	1257.45
180.79	1265.64
181.01	1294.32
181.23	1214.45
181.45	1255.40
181.67	1261.55
181.90	1224.69
182.12	1257.45
182.34	1335.28
182.56	1206.25
182.78	1208.30
183.00	1300.46
183.22	1232.88
183.44	1165.29
183.66	1312.75
183.89	1255.40
184.11	1200.11
184.33	1290.22
184.55	1288.17
184.77	1239.02
184.99	1292.27
185.21	1279.98
185.43	1316.84
185.65	1312.75
185.87	1306.60
186.10	1234.93
186.32	1310.70
186.54	1282.03
186.76	1271.79
186.98	1265.64
187.20	1247.21
187.42	1292.27
187.64	1320.94
187.86	1208.30
188.08	1253.36
188.30	1298.41
188.52	1370.09
188.75	1290.22
188.97	1161.20
189.19	1298.41
189.41	1279.98
189.63	1271.79
189.85	1286.12
190.07	1275.88
190.29	1259.50
190.51	1241.07
190.73	1257.45
190.95	1230.83
191.17	1300.46
191.39	1234.93
191.61	1236.97
191.84	1239.02
192.06	1304.56
192.28	1220.59
192.50	1308.65
192.72	1314.80
192.94	1200.11
193.16	1253.36
193.38	1327.08
193.60	1257.45
193.82	1200.11
194.04	1236.97
194.26	1275.88
194.48	1347.56
194.70	1275.88
194.92	1269.74
195.14	1239.02
195.36	1294.32
195.58	1288.17
195.80	1247.21
196.02	1255.40
196.24	1273.84
196.46	1282.03
196.69	1300.46
196.91	1327.08
197.13	1265.64
197.35	1253.36
197.57	1308.65
197.79	1302.51
198.01	1230.83
198.23	1290.22
198.45	1322.99
198.67	1322.99
198.89	1198.06
199.11	1253.36
199.33	1286.12
199.55	1181.68
199.77	1185.77
199.99	1255.40
200.21	1271.79
200.43	1302.51
200.65	1282.03
200.87	1279.98
201.09	1245.16
201.31	1277.93
201.53	1271.79
201.75	1234.93
201.97	1259.50
202.19	1243.12
202.41	1245.16
202.63	1212.40
202.85	1232.88
203.07	1247.21
203.29	1294.32
203.51	1247.21
203.73	1263.60
203.95	1329.13
204.17	1286.12
204.39	1288.17
204.61	1249.26
204.83	1279.98
205.05	1245.16
205.27	1257.45
205.49	1271.79
205.71	1230.83
205.93	1267.69
206.15	1347.56
206.37	1298.41
206.59	1212.40
206.81	1234.93
207.03	1241.07
207.25	1239.02
207.47	1277.93
207.69	1318.89
207.91	1257.45
208.13	1277.93
208.34	1261.55
208.56	1298.41
208.78	1331.18
209.00	1196.01
209.22	1376.24
209.44	1267.69
209.66	1259.50
209.88	1273.84
210.10	1337.32
210.32	1247.21
210.54	1261.55
210.76	1325.04
210.98	1234.93
211.20	1234.93
211.42	1308.65
211.64	1224.69
211.86	1257.45
212.08	1275.88
212.30	1286.12
212.52	1275.88
212.74	1265.64
212.96	1216.49
213.17	1212.40
213.39	1255.40
213.61	1329.13
213.83	1261.55
214.05	1245.16
214.27	1310.70
214.49	1271.79
214.71	1253.36
214.93	1200.11
215.15	1232.88
215.37	1282.03
215.59	1279.98
215.81	1361.90
216.03	1279.98
216.24	1310.70
216.46	1236.97
216.68	1226.73
216.90	1267.69
217.12	1296.36
217.34	1306.60
217.56	1224.69
217.78	1320.94
218.00	1284.08
218.22	1277.93
218.44	1320.94
218.66	1275.88
218.87	1234.93
219.09	1243.12
219.31	1253.36
219.53	1261.55
219.75	1271.79
219.97	1234.93
220.19	1232.88
220.41	1208.30
220.63	1310.70
220.85	1255.40
221.06	1226.73
221.28	1302.51
221.50	1290.22
221.72	1249.26
221.94	1327.08
222.16	1218.54
222.38	1320.94
222.60	1329.13
222.82	1300.46
223.03	1273.84
223.25	1173.49
223.47	1325.04
223.69	1265.64
223.91	1257.45
224.13	1261.55
224.35	1294.32
224.57	1273.84
224.78	1255.40
225.00	1286.12
225.22	1275.88
225.44	1296.36
225.66	1288.17
225.88	1259.50
226.10	1312.75
226.32	1275.88
226.53	1296.36
226.75	1220.59
226.97	1288.17
227.19	1314.80
227.41	1220.59
227.63	1259.50
227.85	1257.45
228.06	1255.40
228.28	1241.07
228.50	1253.36
228.72	1265.64
228.94	1265.64
229.16	1300.46
229.37	1261.55
229.59	1320.94
229.81	1245.16
230.03	1259.50
230.25	1202.16
230.47	1261.55
230.69	1263.60
230.90	1271.79
231.12	1363.95
231.34	1282.03
231.56	1249.26
231.78	1255.40
232.00	1222.64
232.21	1259.50
232.43	1271.79
232.65	1198.06
232.87	1257.45
233.09	1300.46
233.30	1226.73
233.52	1341.42
233.74	1228.78
233.96	1343.47
234.18	1298.41
234.40	1234.93
234.61	1275.88
234.83	1232.88
235.05	1279.98
235.27	1316.84
235.49	1353.71
235.70	1261.55
235.92	1308.65
236.14	1284.08
236.36	1208.30
236.58	1312.75
236.79	1279.98
237.01	1171.44
237.23	1290.22
237.45	1304.56
237.67	1265.64
237.88	1294.32
238.10	1296.36
238.32	1249.26
238.54	1304.56
238.76	1275.88
238.97	1302.51
239.19	1212.40
239.41	1245.16
239.63	1331.18
239.85	1302.51
240.06	1224.69
240.28	1269.74
240.50	1290.22
240.72	1314.80
240.93	1253.36
241.15	1282.03
241.37	1232.88
241.59	1228.78
241.81	1318.89
242.02	1284.08
242.24	1294.32
242.46	1343.47
242.68	1284.08
242.89	1290.22
243.11	1251.31
243.33	1251.31
243.55	1316.84
243.76	1253.36
243.98	1271.79
244.20	1249.26
244.42	1245.16
244.64	1243.12
244.85	1239.02
245.07	1349.61
245.29	1257.45
245.51	1282.03
245.72	1259.50
245.94	1273.84
246.16	1267.69
246.38	1296.36
246.59	1208.30
246.81	1284.08
247.03	1292.27
247.24	1263.60
247.46	1196.01
247.68	1314.80
247.90	1259.50
248.11	1241.07
248.33	1296.36
248.55	1279.98
248.77	1329.13
248.98	1261.55
249.20	1310.70
249.42	1261.55
249.64	1241.07
249.85	1306.60
250.07	1249.26
250.29	1349.61
250.50	1286.12
250.72	1216.49
250.94	1247.21
251.16	1245.16
251.37	1290.22
251.59	1236.97
251.81	1265.64
252.02	1253.36
252.24	1273.84
252.46	1273.84
252.68	1263.60
252.89	1210.35
253.11	1282.03
253.33	1304.56
253.54	1236.97
253.76	1261.55
253.98	1314.80
254.20	1255.40
254.41	1220.59
254.63	1263.60
254.85	1267.69
255.06	1232.88
255.28	1271.79
255.50	1337.32
255.71	1224.69
255.93	1290.22
256.15	1236.97
256.36	1226.73
256.58	1220.59
256.80	1249.26
257.02	1271.79
257.23	1234.93
257.45	1243.12
257.67	1243.12
257.88	1284.08
258.10	1298.41
258.32	1267.69
258.53	1196.01
258.75	1275.88
258.97	1257.45
259.18	1265.64
259.40	1296.36
259.62	1271.79
259.83	1282.03
260.05	1243.12
260.27	1249.26
260.48	1314.80
260.70	1249.26
260.92	1232.88
261.13	1273.84
261.35	1310.70
261.57	1155.05
261.78	1202.16
262.00	1282.03
262.22	1261.55
262.43	1320.94
262.65	1222.64
262.86	1234.93
263.08	1253.36
263.30	1304.56
263.51	1308.65
263.73	1275.88
263.95	1216.49
264.16	1216.49
264.38	1261.55
264.60	1327.08
264.81	1320.94
265.03	1302.51
265.25	1243.12
265.46	1316.84
265.68	1286.12
265.89	1251.31
266.11	1320.94
266.33	1308.65
266.54	1226.73
266.76	1187.82
266.98	1275.88
267.19	1273.84
267.41	1282.03
267.62	1265.64
267.84	1232.88
268.06	1312.75
268.27	1265.64
268.49	1269.74
268.70	1198.06
268.92	1296.36
269.14	1269.74
269.35	1243.12
269.57	1224.69
269.79	1226.73
270.00	1249.26
270.22	1247.21
270.43	1261.55
270.65	1312.75
270.87	1261.55
271.08	1265.64
271.30	1282.03
271.51	1255.40
271.73	1249.26
271.95	1286.12
272.16	1247.21
272.38	1316.84
272.59	1251.31
272.81	1249.26
273.02	1304.56
273.24	1353.71
273.46	1236.97
273.67	1318.89
273.89	1271.79
274.10	1271.79
274.32	1333.23
274.54	1267.69
274.75	1269.74
274.97	1302.51
275.18	1247.21
275.40	1296.36
275.61	1269.74
275.83	1333.23
276.05	1333.23
276.26	1269.74
276.48	1316.84
276.69	1204.21
276.91	1245.16
277.12	1345.52
277.34	1251.31
277.55	1212.40
277.77	1277.93
277.99	1298.41
278.20	1263.60
278.42	1259.50
278.63	1263.60
278.85	1269.74
279.06	1286.12
279.28	1234.93
279.49	1277.93
279.71	1265.64
279.93	1286.12
280.14	1302.51
280.36	1290.22
280.57	1183.73
280.79	1226.73
281.00	1224.69
281.22	1243.12
281.43	1241.07
281.65	1218.54
281.86	1282.03
282.08	1204.21
282.29	1243.12
282.51	1214.45
282.73	1257.45
282.94	1261.55
283.16	1314.80
283.37	1243.12
283.59	1269.74
283.80	1253.36
284.02	1273.84
284.23	1269.74
284.45	1214.45
284.66	1279.98
284.88	1255.40
285.09	1247.21
285.31	1288.17
285.52	1210.35
285.74	1232.88
285.95	1230.83
286.17	1249.26
286.38	1269.74
286.60	1228.78
286.81	1230.83
287.03	1277.93
287.24	1241.07
287.46	1245.16
287.67	1347.56
287.89	1241.07
288.10	1345.52
288.32	1308.65
288.53	1224.69
288.75	1214.45
288.96	1304.56
289.18	1286.12
289.39	1255.40
289.61	1296.36
289.82	1241.07
290.04	1255.40
290.25	1261.55
290.47	1216.49
290.68	1239.02
290.90	1251.31
291.11	1273.84
291.33	1273.84
291.54	1220.59
291.76	1216.49
291.97	1267.69
292.18	1255.40
292.40	1232.88
292.61	1355.76
292.83	1269.74
293.04	1265.64
293.26	1255.40
293.47	1253.36
293.69	1202.16
293.90	1222.64
294.12	1259.50
294.33	1196.01
294.55	1314.80
294.76	1239.02
294.97	1292.27
295.19	1290.22
295.40	1277.93
295.62	1273.84
295.83	1265.64
296.05	1265.64
296.26	1288.17
296.48	1298.41
296.69	1288.17
296.90	1288.17
297.12	1304.56
297.33	1253.36
297.55	1292.27
297.76	1296.36
297.98	1261.55
298.19	1355.76
298.41	1236.97
298.62	1282.03
298.83	1255.40
299.05	1175.53
299.26	1325.04
299.48	1314.80
299.69	1239.02
299.90	1193.97
300.12	1204.21
300.33	1187.82
300.55	1386.47
300.76	1304.56
300.98	1259.50
301.19	1255.40
301.40	1202.16
301.62	1314.80
301.83	1212.40
302.05	1222.64
302.26	1284.08
302.47	1216.49
302.69	1322.99
302.90	1282.03
303.12	1245.16
303.33	1247.21
303.54	1234.93
303.76	1251.31
303.97	1284.08
304.19	1275.88
304.40	1294.32
304.61	1222.64
304.83	1316.84
305.04	1198.06
305.26	1296.36
305.47	1239.02
305.68	1247.21
305.90	1204.21
306.11	1294.32
306.33	1265.64
306.54	1267.69
306.75	1292.27
306.97	1259.50
307.18	1284.08
307.39	1228.78
307.61	1290.22
307.82	1290.22
308.04	1296.36
308.25	1245.16
308.46	1277.93
308.68	1351.66
308.89	1286.12
309.10	1181.68
309.32	1273.84
309.53	1210.35
309.74	1220.59
309.96	1310.70
310.17	1292.27
310.39	1224.69
310.60	1314.80
310.81	1216.49
311.03	1255.40
311.24	1253.36
311.45	1183.73
311.67	1265.64
311.88	1271.79
312.09	1236.97
312.31	1216.49
312.52	1320.94
312.73	1208.30
312.95	1277.93
313.16	1265.64
313.37	1292.27
313.59	1257.45
313.80	1263.60
314.01	1339.37
314.23	1329.13
314.44	1234.93
314.65	1261.55
314.87	1193.97
315.08	1247.21
315.29	1218.54
315.51	1255.40
315.72	1288.17
315.93	1236.97
316.15	1380.33
316.36	1245.16
316.57	1290.22
316.79	1265.64
317.00	1368.04
317.21	1282.03
317.43	1284.08
317.64	1198.06
317.85	1337.32
318.07	1232.88
318.28	1265.64
318.49	1243.12
318.70	1306.60
318.92	1210.35
319.13	1292.27
319.34	1265.64
319.56	1302.51
319.77	1318.89
319.98	1327.08
320.20	1302.51
320.41	1347.56
320.62	1261.55
320.83	1265.64
321.05	1306.60
321.26	1259.50
321.47	1253.36
321.69	1187.82
321.90	1265.64
322.11	1351.66
322.32	1220.59
322.54	1310.70
322.75	1212.40
322.96	1282.03
323.18	1302.51
323.39	1245.16
323.60	1345.52
323.81	1288.17
324.03	1232.88
324.24	1259.50
324.45	1230.83
324.66	1259.50
324.88	1296.36
325.09	1224.69
325.30	1257.45
325.52	1273.84
325.73	1279.98
325.94	1284.08
326.15	1304.56
326.37	1273.84
326.58	1298.41
326.79	1269.74
327.00	1222.64
327.22	1226.73
327.43	1257.45
327.64	1366.00
327.85	1271.79
328.07	1310.70
328.28	1306.60
328.49	1337.32
328.70	1232.88
328.92	1318.89
329.13	1284.08
329.34	1267.69
329.55	1302.51
329.76	1271.79
329.98	1312.75
330.19	1202.16
330.40	1304.56
330.61	1302.51
330.83	1300.46
331.04	1232.88
331.25	1290.22
331.46	1247.21
331.68	1249.26
331.89	1232.88
332.10	1163.25
332.31	1255.40
332.52	1302.51
332.74	1202.16
332.95	1206.25
333.16	1181.68
333.37	1273.84
333.58	1353.71
333.80	1286.12
334.01	1247.21
334.22	1206.25
334.43	1322.99
334.64	1275.88
334.86	1210.35
335.07	1224.69
335.28	1142.77
335.49	1355.76
335.70	1251.31
335.92	1282.03
336.13	1214.45
336.34	1279.98
336.55	1286.12
336.76	1267.69
336.98	1286.12
337.19	1277.93
337.40	1241.07
337.61	1232.88
337.82	1316.84
338.04	1236.97
338.25	1284.08
338.46	1261.55
338.67	1333.23
338.88	1257.45
339.09	1234.93
339.31	1273.84
339.52	1335.28
339.73	1331.18
339.94	1232.88
340.15	1335.28
340.36	1259.50
340.58	1204.21
340.79	1292.27
341.00	1271.79
341.21	1230.83
341.42	1247.21
341.63	1298.41
341.85	1220.59
342.06	1282.03
342.27	1232.88
342.48	1232.88
342.69	1290.22
342.90	1247.21
343.12	1271.79
343.33	1271.79
343.54	1361.90
343.75	1327.08
343.96	1243.12
344.17	1251.31
344.38	1318.89
344.60	1271.79
344.81	1253.36
345.02	1181.68
345.23	1308.65
345.44	1298.41
345.65	1196.01
345.86	1267.69
346.07	1230.83
346.29	1247.21
346.50	1259.50
346.71	1284.08
346.92	1349.61
347.13	1327.08
347.34	1320.94
347.55	1259.50
347.76	1241.07
347.98	1236.97
348.19	1206.25
348.40	1232.88
348.61	1208.30
348.82	1263.60
349.03	1243.12
349.24	1279.98
349.45	1267.69
349.66	1249.26
349.88	1292.27
350.09	1259.50
350.30	1308.65
350.51	1243.12
350.72	1378.28
350.93	1198.06
351.14	1212.40
351.35	1220.59
351.56	1253.36
351.77	1220.59
351.99	1265.64
352.20	1374.19
352.41	1247.21
352.62	1314.80
352.83	1222.64
353.04	1279.98
353.25	1247.21
353.46	1236.97
353.67	1318.89
353.88	1335.28
354.09	1212.40
354.30	1312.75
354.52	1267.69
354.73	1304.56
354.94	1300.46
355.15	1279.98
355.36	1216.49
355.57	1216.49
355.78	1251.31
355.99	1351.66
356.20	1304.56
356.41	1335.28
356.62	1234.93
356.83	1302.51
357.04	1271.79
357.25	1241.07
357.46	1269.74
357.68	1200.11
357.89	1208.30
358.10	1279.98
358.31	1341.42
358.52	1267.69
358.73	1302.51
358.94	1247.21
359.15	1284.08
359.36	1282.03
359.57	1220.59
359.78	1306.60
359.99	1245.16
360.20	1290.22
360.41	1312.75
360.62	1226.73
360.83	1284.08
361.04	1265.64
361.25	1230.83
361.46	1273.84
361.67	1279.98
361.88	1300.46
362.09	1214.45
362.30	1189.87
362.51	1214.45
362.72	1273.84
362.93	1261.55
363.14	1312.75
363.35	1277.93
363.56	1271.79
363.78	1286.12
363.99	1243.12
364.20	1353.71
364.41	1282.03
364.62	1245.16
364.83	1273.84
365.04	1366.00
365.25	1198.06
365.46	1286.12
365.67	1193.97
365.88	1279.98
366.09	1329.13
366.30	1294.32
366.51	1222.64
366.72	1249.26
366.93	1265.64
367.14	1273.84
367.35	1273.84
367.56	1267.69
367.77	1245.16
367.98	1255.40
368.18	1214.45
368.39	1257.45
368.60	1312.75
368.81	1204.21
369.02	1234.93
369.23	1273.84
369.44	1275.88
369.65	1232.88
369.86	1263.60
370.07	1204.21
370.28	1290.22
370.49	1216.49
370.70	1316.84
370.91	1214.45
371.12	1263.60
371.33	1294.32
371.54	1265.64
371.75	1296.36
371.96	1255.40
372.17	1277.93
372.38	1302.51
372.59	1216.49
372.80	1314.80
373.01	1310.70
373.22	1249.26
373.43	1282.03
373.64	1290.22
373.85	1243.12
374.06	1255.40
374.26	1236.97
374.47	1314.80
374.68	1232.88
374.89	1261.55
375.10	1267.69
375.31	1232.88
375.52	1263.60
375.73	1253.36
375.94	1232.88
376.15	1216.49
376.36	1173.49
376.57	1263.60
376.78	1290.22
376.99	1320.94
377.20	1335.28
377.40	1236.97
377.61	1245.16
377.82	1304.56
378.03	1239.02
378.24	1241.07
378.45	1322.99
378.66	1282.03
378.87	1247.21
379.08	1204.21
379.29	1275.88
379.50	1277.93
379.71	1261.55
379.91	1308.65
380.12	1210.35
380.33	1300.46
380.54	1282.03
380.75	1275.88
380.96	1267.69
381.17	1230.83
381.38	1288.17
381.59	1251.31
381.80	1257.45
382.00	1296.36
382.21	1255.40
382.42	1286.12
382.63	1249.26
382.84	1292.27
383.05	1286.12
383.26	1267.69
383.47	1249.26
383.68	1243.12
383.88	1333.23
384.09	1251.31
384.30	1288.17
384.51	1273.84
384.72	1269.74
384.93	1337.32
385.14	1325.04
385.35	1370.09
385.55	1267.69
385.76	1255.40
385.97	1257.45
386.18	1263.60
386.39	1183.73
386.60	1253.36
386.81	1253.36
387.02	1359.85
387.22	1269.74
387.43	1279.98
387.64	1267.69
387.85	1341.42
388.06	1308.65
388.27	1212.40
388.48	1325.04
388.68	1273.84
388.89	1232.88
389.10	1290.22
389.31	1212.40
389.52	1271.79
389.73	1224.69
389.93	1304.56
390.14	1294.32
390.35	1296.36
390.56	1241.07
390.77	1265.64
390.98	1333.23
391.18	1284.08
391.39	1228.78
391.60	1230.83
391.81	1239.02
392.02	1243.12
392.23	1284.08
392.43	1249.26
392.64	1204.21
392.85	1251.31
393.06	1322.99
393.27	1302.51
393.47	1234.93
393.68	1255.40
393.89	1259.50
394.10	1232.88
394.31	1308.65
394.52	1239.02
394.72	1259.50
394.93	1247.21
395.14	1259.50
395.35	1306.60
395.56	1275.88
395.76	1312.75
395.97	1316.84
396.18	1288.17
396.39	1263.60
396.60	1318.89
396.80	1316.84
397.01	1228.78
397.22	1302.51
397.43	1388.52
397.64	1277.93
397.84	1308.65
398.05	1294.32
398.26	1282.03
398.47	1206.25
398.67	1288.17
398.88	1284.08
399.09	1232.88
399.30	1200.11
399.51	1271.79
399.71	1214.45
399.92	1265.64
400.13	1255.40
400.34	1216.49
400.54	1273.84
400.75	1267.69
400.96	1275.88
401.17	1204.21
401.37	1282.03
401.58	1288.17
401.79	1236.97
402.00	1204.21
402.21	1308.65
402.41	1239.02
402.62	1257.45
402.83	1302.51
403.04	1304.56
403.24	1236.97
403.45	1271.79
403.66	1294.32
403.87	1265.64
404.07	1290.22
404.28	1288.17
404.49	1316.84
404.70	1226.73
404.90	1247.21
405.11	1220.59
405.32	1249.26
405.52	1245.16
405.73	1259.50
405.94	1282.03
406.15	1253.36
406.35	1249.26
406.56	1341.42
406.77	1320.94
406.98	1290.22
407.18	1298.41
407.39	1304.56
407.60	1218.54
407.80	1269.74
408.01	1241.07
408.22	1249.26
408.43	1226.73
408.63	1277.93
408.84	1200.11
409.05	1226.73
409.25	1265.64
409.46	1273.84
409.67	1314.80
409.88	1288.17
410.08	1249.26
410.29	1302.51
410.50	1298.41
410.70	1261.55
410.91	1234.93
411.12	1226.73
411.32	1196.01
411.53	1279.98
411.74	1241.07
411.95	1265.64
412.15	1294.32
412.36	1275.88
412.57	1271.79
412.77	1228.78
412.98	1271.79
413.19	1275.88
413.39	1200.11
413.60	1267.69
413.81	1277.93
414.01	1322.99
414.22	1179.63
414.43	1277.93
414.63	1279.98
414.84	1296.36
415.05	1296.36
415.25	1288.17
415.46	1273.84
415.67	1322.99
415.87	1222.64
416.08	1259.50
416.29	1261.55
416.49	1294.32
416.70	1314.80
416.91	1294.32
417.11	1339.37
417.32	1286.12
417.53	1263.60
417.73	1288.17
417.94	1236.97
418.15	1292.27
418.35	1196.01
418.56	1226.73
418.77	1298.41
418.97	1298.41
419.18	1320.94
419.38	1296.36
419.59	1269.74
419.80	1273.84
420.00	1286.12
420.21	1288.17
420.42	1210.35
420.62	1298.41
420.83	1273.84
421.04	1214.45
421.24	1216.49
421.45	1296.36
421.65	1294.32
421.86	1263.60
422.07	1277.93
422.27	1282.03
422.48	1269.74
422.69	1267.69
422.89	1277.93
423.10	1226.73
423.30	1302.51
423.51	1243.12
423.72	1337.32
423.92	1265.64
424.13	1228.78
424.33	1243.12
424.54	1247.21
424.75	1314.80
424.95	1275.88
425.16	1271.79
425.36	1259.50
425.57	1261.55
425.78	1251.31
425.98	1271.79
426.19	1243.12
426.39	1261.55
426.60	1202.16
426.81	1220.59
427.01	1208.30
427.22	1296.36
427.42	1222.64
427.63	1269.74
427.83	1273.84
428.04	1306.60
428.25	1222.64
428.45	1277.93
428.66	1224.69
428.86	1318.89
429.07	1290.22
429.28	1327.08
429.48	1196.01
429.69	1290.22
429.89	1306.60
430.10	1290.22
430.30	1333.23
430.51	1314.80
430.71	1220.59
430.92	1277.93
431.13	1312.75
431.33	1306.60
431.54	1298.41
431.74	1214.45
431.95	1261.55
432.15	1273.84
432.36	1220.59
432.56	1271.79
432.77	1228.78
432.98	1259.50
433.18	1279.98
433.39	1275.88
433.59	1282.03
433.80	1265.64
434.00	1275.88
434.21	1253.36
434.41	1310.70
434.62	1204.21
434.82	1310.70
435.03	1261.55
435.23	1245.16
435.44	1384.43
435.64	1253.36
435.85	1286.12
436.06	1314.80
436.26	1296.36
436.47	1327.08
436.67	1265.64
436.88	1220.59
437.08	1267.69
437.29	1224.69
437.49	1257.45
437.70	1257.45
437.90	1341.42
438.11	1329.13
438.31	1279.98
438.52	1253.36
438.72	1296.36
438.93	1198.06
439.13	1304.56
439.34	1320.94
439.54	1282.03
439.75	1181.68
439.95	1300.46
440.16	1290.22
440.36	1292.27
440.57	1275.88
440.77	1187.82
440.98	1273.84
441.18	1234.93
441.39	1275.88
441.59	1230.83
441.80	1286.12
442.00	1275.88
442.21	1366.00
442.41	1286.12
442.62	1331.18
442.82	1341.42
443.02	1261.55
443.23	1306.60
443.43	1239.02
443.64	1304.56
443.84	1279.98
444.05	1290.22
444.25	1247.21
444.46	1296.36
444.66	1263.60
444.87	1288.17
445.07	1275.88
445.28	1251.31
445.48	1333.23
445.69	1341.42
445.89	1357.80
446.09	1241.07
446.30	1286.12
446.50	1310.70
446.71	1255.40
446.91	1271.79
447.12	1273.84
447.32	1245.16
447.53	1327.08
447.73	1241.07
447.93	1257.45
448.14	1325.04
448.34	1290.22
448.55	1275.88
448.75	1243.12
448.96	1347.56
449.16	1322.99
449.36	1267.69
449.57	1300.46
449.77	1308.65
449.98	1271.79
450.18	1345.52
450.39	1333.23
450.59	1257.45
450.79	1245.16
451.00	1320.94
451.20	1378.28
451.41	1316.84
451.61	1263.60
451.81	1241.07
452.02	1247.21
452.22	1249.26
452.43	1234.93
452.63	1259.50
