SpectraSuite Data File
++++++++++++++++++++++++++++++++++++
Date: Sun Apr 03 19:55:52 CEST 2016
User: root
Dark Spectrum Present: No
Reference Spectrum Present: No
Number of Sampled Component Spectra: 1
Spectrometers: USB4C02835
Integration Time (usec): 10000 (USB4C02835)
Spectra Averaged: 1 (USB4C02835)
Boxcar Smoothing: 0 (USB4C02835)
Correct for Electrical Dark: No (USB4C02835)
Strobe/Lamp Enabled: No (USB4C02835)
Correct for Detector Non-linearity: No (USB4C02835)
Correct for Stray Light: No (USB4C02835)
Number of Pixels in Processed Spectrum: 3648
>>>>>Begin Processed Spectral Data<<<<<
177.47	1245.16
177.69	1245.16
177.91	1245.16
178.13	1263.60
178.36	1286.12
178.58	1228.78
178.80	1226.73
179.02	1224.69
179.24	1257.45
179.46	1243.12
179.68	1310.70
179.90	1210.35
180.13	1257.45
180.35	1290.22
180.57	1275.88
180.79	1345.52
181.01	1208.30
181.23	1259.50
181.45	1271.79
181.67	1290.22
181.90	1314.80
182.12	1290.22
182.34	1241.07
182.56	1333.23
182.78	1286.12
183.00	1257.45
183.22	1298.41
183.44	1277.93
183.66	1226.73
183.89	1298.41
184.11	1228.78
184.33	1216.49
184.55	1271.79
184.77	1284.08
184.99	1249.26
185.21	1241.07
185.43	1267.69
185.65	1222.64
185.87	1245.16
186.10	1308.65
186.32	1277.93
186.54	1210.35
186.76	1189.87
186.98	1269.74
187.20	1273.84
187.42	1245.16
187.64	1292.27
187.86	1210.35
188.08	1286.12
188.30	1259.50
188.52	1314.80
188.75	1212.40
188.97	1271.79
189.19	1325.04
189.41	1331.18
189.63	1247.21
189.85	1232.88
190.07	1220.59
190.29	1306.60
190.51	1226.73
190.73	1322.99
190.95	1263.60
191.17	1267.69
191.39	1196.01
191.61	1273.84
191.84	1216.49
192.06	1239.02
192.28	1245.16
192.50	1312.75
192.72	1269.74
192.94	1232.88
193.16	1273.84
193.38	1279.98
193.60	1241.07
193.82	1277.93
194.04	1269.74
194.26	1286.12
194.48	1253.36
194.70	1232.88
194.92	1337.32
195.14	1286.12
195.36	1261.55
195.58	1247.21
195.80	1245.16
196.02	1290.22
196.24	1247.21
196.46	1273.84
196.69	1279.98
196.91	1261.55
197.13	1284.08
197.35	1302.51
197.57	1253.36
197.79	1320.94
198.01	1273.84
198.23	1286.12
198.45	1247.21
198.67	1247.21
198.89	1243.12
199.11	1347.56
199.33	1267.69
199.55	1282.03
199.77	1224.69
199.99	1230.83
200.21	1218.54
200.43	1333.23
200.65	1187.82
200.87	1271.79
201.09	1312.75
201.31	1282.03
201.53	1355.76
201.75	1277.93
201.97	1249.26
202.19	1322.99
202.41	1253.36
202.63	1294.32
202.85	1265.64
203.07	1222.64
203.29	1337.32
203.51	1239.02
203.73	1286.12
203.95	1279.98
204.17	1339.37
204.39	1263.60
204.61	1208.30
204.83	1265.64
205.05	1241.07
205.27	1228.78
205.49	1300.46
205.71	1245.16
205.93	1282.03
206.15	1232.88
206.37	1275.88
206.59	1218.54
206.81	1255.40
207.03	1320.94
207.25	1245.16
207.47	1290.22
207.69	1271.79
207.91	1288.17
208.13	1306.60
208.34	1263.60
208.56	1255.40
208.78	1325.04
209.00	1241.07
209.22	1234.93
209.44	1245.16
209.66	1269.74
209.88	1275.88
210.10	1314.80
210.32	1294.32
210.54	1288.17
210.76	1267.69
210.98	1212.40
211.20	1359.85
211.42	1284.08
211.64	1220.59
211.86	1212.40
212.08	1259.50
212.30	1292.27
212.52	1275.88
212.74	1304.56
212.96	1312.75
213.17	1290.22
213.39	1300.46
213.61	1239.02
213.83	1259.50
214.05	1234.93
214.27	1296.36
214.49	1296.36
214.71	1198.06
214.93	1318.89
215.15	1366.00
215.37	1306.60
215.59	1294.32
215.81	1286.12
216.03	1282.03
216.24	1204.21
216.46	1247.21
216.68	1302.51
216.90	1255.40
217.12	1234.93
217.34	1251.31
217.56	1271.79
217.78	1271.79
218.00	1216.49
218.22	1226.73
218.44	1284.08
218.66	1239.02
218.87	1296.36
219.09	1232.88
219.31	1347.56
219.53	1288.17
219.75	1236.97
219.97	1275.88
220.19	1296.36
220.41	1286.12
220.63	1230.83
220.85	1259.50
221.06	1206.25
221.28	1251.31
221.50	1277.93
221.72	1275.88
221.94	1318.89
222.16	1212.40
222.38	1298.41
222.60	1241.07
222.82	1304.56
223.03	1241.07
223.25	1261.55
223.47	1257.45
223.69	1241.07
223.91	1302.51
224.13	1282.03
224.35	1267.69
224.57	1239.02
224.78	1253.36
225.00	1312.75
225.22	1318.89
225.44	1230.83
225.66	1294.32
225.88	1253.36
226.10	1335.28
226.32	1284.08
226.53	1243.12
226.75	1208.30
226.97	1222.64
227.19	1232.88
227.41	1347.56
227.63	1241.07
227.85	1304.56
228.06	1232.88
228.28	1263.60
228.50	1175.53
228.72	1259.50
228.94	1265.64
229.16	1286.12
229.37	1277.93
229.59	1241.07
229.81	1318.89
230.03	1253.36
230.25	1288.17
230.47	1232.88
230.69	1290.22
230.90	1245.16
231.12	1271.79
231.34	1263.60
231.56	1273.84
231.78	1300.46
232.00	1320.94
232.21	1304.56
232.43	1271.79
232.65	1279.98
232.87	1308.65
233.09	1306.60
233.30	1243.12
233.52	1214.45
233.74	1325.04
233.96	1249.26
234.18	1277.93
234.40	1286.12
234.61	1282.03
234.83	1226.73
235.05	1314.80
235.27	1269.74
235.49	1251.31
235.70	1292.27
235.92	1325.04
236.14	1212.40
236.36	1265.64
236.58	1245.16
236.79	1261.55
237.01	1202.16
237.23	1322.99
237.45	1310.70
237.67	1282.03
237.88	1304.56
238.10	1282.03
238.32	1294.32
238.54	1216.49
238.76	1290.22
238.97	1265.64
239.19	1288.17
239.41	1304.56
239.63	1253.36
239.85	1230.83
240.06	1331.18
240.28	1292.27
240.50	1255.40
240.72	1345.52
240.93	1290.22
241.15	1277.93
241.37	1261.55
241.59	1263.60
241.81	1241.07
242.02	1228.78
242.24	1216.49
242.46	1261.55
242.68	1320.94
242.89	1288.17
243.11	1222.64
243.33	1230.83
243.55	1275.88
243.76	1261.55
243.98	1269.74
244.20	1306.60
244.42	1206.25
244.64	1263.60
244.85	1245.16
245.07	1294.32
245.29	1282.03
245.51	1232.88
245.72	1257.45
245.94	1302.51
246.16	1253.36
246.38	1298.41
246.59	1286.12
246.81	1179.63
247.03	1314.80
247.24	1255.40
247.46	1275.88
247.68	1273.84
247.90	1253.36
248.11	1224.69
248.33	1345.52
248.55	1245.16
248.77	1269.74
248.98	1345.52
249.20	1259.50
249.42	1290.22
249.64	1206.25
249.85	1288.17
250.07	1269.74
250.29	1325.04
250.50	1230.83
250.72	1265.64
250.94	1234.93
251.16	1298.41
251.37	1255.40
251.59	1232.88
251.81	1265.64
252.02	1249.26
252.24	1269.74
252.46	1257.45
252.68	1316.84
252.89	1277.93
253.11	1314.80
253.33	1269.74
253.54	1265.64
253.76	1271.79
253.98	1232.88
254.20	1290.22
254.41	1261.55
254.63	1331.18
254.85	1226.73
255.06	1292.27
255.28	1245.16
255.50	1368.04
255.71	1322.99
255.93	1279.98
256.15	1236.97
256.36	1314.80
256.58	1271.79
256.80	1251.31
257.02	1298.41
257.23	1279.98
257.45	1327.08
257.67	1308.65
257.88	1230.83
258.10	1259.50
258.32	1251.31
258.53	1345.52
258.75	1257.45
258.97	1265.64
259.18	1234.93
259.40	1282.03
259.62	1212.40
259.83	1255.40
260.05	1300.46
260.27	1269.74
260.48	1306.60
260.70	1308.65
260.92	1249.26
261.13	1304.56
261.35	1271.79
261.57	1236.97
261.78	1241.07
262.00	1251.31
262.22	1302.51
262.43	1296.36
262.65	1214.45
262.86	1353.71
263.08	1302.51
263.30	1234.93
263.51	1247.21
263.73	1273.84
263.95	1279.98
264.16	1267.69
264.38	1337.32
264.60	1267.69
264.81	1322.99
265.03	1288.17
265.25	1239.02
265.46	1282.03
265.68	1294.32
265.89	1290.22
266.11	1245.16
266.33	1251.31
266.54	1271.79
266.76	1249.26
266.98	1249.26
267.19	1308.65
267.41	1222.64
267.62	1224.69
267.84	1212.40
268.06	1204.21
268.27	1261.55
268.49	1228.78
268.70	1273.84
268.92	1353.71
269.14	1243.12
269.35	1339.37
269.57	1257.45
269.79	1261.55
270.00	1304.56
270.22	1286.12
270.43	1230.83
270.65	1204.21
270.87	1232.88
271.08	1263.60
271.30	1253.36
271.51	1329.13
271.73	1230.83
271.95	1298.41
272.16	1310.70
272.38	1263.60
272.59	1241.07
272.81	1269.74
273.02	1275.88
273.24	1230.83
273.46	1255.40
273.67	1279.98
273.89	1247.21
274.10	1316.84
274.32	1286.12
274.54	1273.84
274.75	1208.30
274.97	1249.26
275.18	1259.50
275.40	1267.69
275.61	1200.11
275.83	1247.21
276.05	1224.69
276.26	1222.64
276.48	1226.73
276.69	1298.41
276.91	1263.60
277.12	1279.98
277.34	1204.21
277.55	1279.98
277.77	1267.69
277.99	1273.84
278.20	1292.27
278.42	1234.93
278.63	1304.56
278.85	1314.80
279.06	1267.69
279.28	1288.17
279.49	1351.66
279.71	1284.08
279.93	1232.88
280.14	1220.59
280.36	1210.35
280.57	1236.97
280.79	1300.46
281.00	1286.12
281.22	1329.13
281.43	1261.55
281.65	1265.64
281.86	1284.08
282.08	1249.26
282.29	1314.80
282.51	1298.41
282.73	1263.60
282.94	1290.22
283.16	1263.60
283.37	1288.17
283.59	1230.83
283.80	1316.84
284.02	1247.21
284.23	1298.41
284.45	1316.84
284.66	1230.83
284.88	1327.08
285.09	1257.45
285.31	1216.49
285.52	1325.04
285.74	1333.23
285.95	1327.08
286.17	1265.64
286.38	1337.32
286.60	1189.87
286.81	1263.60
287.03	1279.98
287.24	1239.02
287.46	1230.83
287.67	1249.26
287.89	1273.84
288.10	1249.26
288.32	1271.79
288.53	1228.78
288.75	1296.36
288.96	1251.31
289.18	1284.08
289.39	1271.79
289.61	1304.56
289.82	1167.34
290.04	1265.64
290.25	1269.74
290.47	1300.46
290.68	1218.54
290.90	1241.07
291.11	1288.17
291.33	1294.32
291.54	1294.32
291.76	1265.64
291.97	1259.50
292.18	1304.56
292.40	1257.45
292.61	1273.84
292.83	1345.52
293.04	1257.45
293.26	1273.84
293.47	1298.41
293.69	1290.22
293.90	1302.51
294.12	1249.26
294.33	1341.42
294.55	1263.60
294.76	1296.36
294.97	1296.36
295.19	1325.04
295.40	1263.60
295.62	1169.39
295.83	1263.60
296.05	1230.83
296.26	1255.40
296.48	1300.46
296.69	1257.45
296.90	1333.23
297.12	1318.89
297.33	1275.88
297.55	1239.02
297.76	1253.36
297.98	1298.41
298.19	1224.69
298.41	1255.40
298.62	1257.45
298.83	1290.22
299.05	1306.60
299.26	1277.93
299.48	1239.02
299.69	1292.27
299.90	1228.78
300.12	1236.97
300.33	1277.93
300.55	1298.41
300.76	1292.27
300.98	1236.97
301.19	1232.88
301.40	1316.84
301.62	1277.93
301.83	1234.93
302.05	1292.27
302.26	1318.89
302.47	1216.49
302.69	1257.45
302.90	1322.99
303.12	1279.98
303.33	1294.32
303.54	1239.02
303.76	1300.46
303.97	1269.74
304.19	1255.40
304.40	1232.88
304.61	1296.36
304.83	1267.69
305.04	1267.69
305.26	1202.16
305.47	1265.64
305.68	1257.45
305.90	1298.41
306.11	1263.60
306.33	1247.21
306.54	1210.35
306.75	1253.36
306.97	1224.69
307.18	1335.28
307.39	1322.99
307.61	1290.22
307.82	1290.22
308.04	1277.93
308.25	1310.70
308.46	1318.89
308.68	1290.22
308.89	1312.75
309.10	1333.23
309.32	1183.73
309.53	1245.16
309.74	1267.69
309.96	1273.84
310.17	1329.13
310.39	1224.69
310.60	1249.26
310.81	1322.99
311.03	1273.84
311.24	1243.12
311.45	1263.60
311.67	1300.46
311.88	1310.70
312.09	1261.55
312.31	1322.99
312.52	1284.08
312.73	1251.31
312.95	1327.08
313.16	1271.79
313.37	1228.78
313.59	1279.98
313.80	1341.42
314.01	1308.65
314.23	1232.88
314.44	1243.12
314.65	1226.73
314.87	1312.75
315.08	1286.12
315.29	1296.36
315.51	1277.93
315.72	1255.40
315.93	1261.55
316.15	1236.97
316.36	1230.83
316.57	1206.25
316.79	1282.03
317.00	1241.07
317.21	1341.42
317.43	1230.83
317.64	1200.11
317.85	1282.03
318.07	1267.69
318.28	1279.98
318.49	1224.69
318.70	1267.69
318.92	1243.12
319.13	1249.26
319.34	1234.93
319.56	1294.32
319.77	1263.60
319.98	1271.79
320.20	1277.93
320.41	1308.65
320.62	1253.36
320.83	1308.65
321.05	1284.08
321.26	1257.45
321.47	1224.69
321.69	1310.70
321.90	1267.69
322.11	1300.46
322.32	1306.60
322.54	1271.79
322.75	1253.36
322.96	1271.79
323.18	1279.98
323.39	1277.93
323.60	1232.88
323.81	1282.03
324.03	1245.16
324.24	1253.36
324.45	1239.02
324.66	1220.59
324.88	1300.46
325.09	1243.12
325.30	1253.36
325.52	1329.13
325.73	1306.60
325.94	1222.64
326.15	1294.32
326.37	1333.23
326.58	1265.64
326.79	1232.88
327.00	1224.69
327.22	1200.11
327.43	1200.11
327.64	1230.83
327.85	1263.60
328.07	1320.94
328.28	1277.93
328.49	1292.27
328.70	1261.55
328.92	1257.45
329.13	1232.88
329.34	1234.93
329.55	1329.13
329.76	1208.30
329.98	1306.60
330.19	1282.03
330.40	1306.60
330.61	1239.02
330.83	1247.21
331.04	1304.56
331.25	1269.74
331.46	1284.08
331.68	1171.44
331.89	1275.88
332.10	1277.93
332.31	1292.27
332.52	1177.58
332.74	1282.03
332.95	1265.64
333.16	1282.03
333.37	1290.22
333.58	1261.55
333.80	1353.71
334.01	1292.27
334.22	1239.02
334.43	1265.64
334.64	1253.36
334.86	1216.49
335.07	1275.88
335.28	1302.51
335.49	1306.60
335.70	1255.40
335.92	1257.45
336.13	1243.12
336.34	1259.50
336.55	1273.84
336.76	1277.93
336.98	1208.30
337.19	1261.55
337.40	1277.93
337.61	1277.93
337.82	1230.83
338.04	1255.40
338.25	1314.80
338.46	1216.49
338.67	1322.99
338.88	1189.87
339.09	1232.88
339.31	1267.69
339.52	1284.08
339.73	1284.08
339.94	1310.70
340.15	1169.39
340.36	1282.03
340.58	1255.40
340.79	1224.69
341.00	1245.16
341.21	1265.64
341.42	1322.99
341.63	1277.93
341.85	1245.16
342.06	1230.83
342.27	1222.64
342.48	1228.78
342.69	1255.40
342.90	1333.23
343.12	1185.77
343.33	1284.08
343.54	1284.08
343.75	1273.84
343.96	1277.93
344.17	1320.94
344.38	1173.49
344.60	1251.31
344.81	1222.64
345.02	1241.07
345.23	1196.01
345.44	1259.50
345.65	1200.11
345.86	1247.21
346.07	1255.40
346.29	1224.69
346.50	1269.74
346.71	1222.64
346.92	1253.36
347.13	1300.46
347.34	1284.08
347.55	1271.79
347.76	1261.55
347.98	1198.06
348.19	1177.58
348.40	1273.84
348.61	1193.97
348.82	1216.49
349.03	1296.36
349.24	1230.83
349.45	1290.22
349.66	1366.00
349.88	1300.46
350.09	1294.32
350.30	1173.49
350.51	1298.41
350.72	1359.85
350.93	1290.22
351.14	1302.51
351.35	1294.32
351.56	1263.60
351.77	1212.40
351.99	1310.70
352.20	1284.08
352.41	1243.12
352.62	1198.06
352.83	1222.64
353.04	1241.07
353.25	1288.17
353.46	1230.83
353.67	1329.13
353.88	1251.31
354.09	1273.84
354.30	1277.93
354.52	1249.26
354.73	1310.70
354.94	1232.88
355.15	1279.98
355.36	1253.36
355.57	1243.12
355.78	1220.59
355.99	1273.84
356.20	1286.12
356.41	1347.56
356.62	1310.70
356.83	1306.60
357.04	1325.04
357.25	1275.88
357.46	1253.36
357.68	1204.21
357.89	1298.41
358.10	1337.32
358.31	1232.88
358.52	1255.40
358.73	1306.60
358.94	1257.45
359.15	1200.11
359.36	1290.22
359.57	1277.93
359.78	1265.64
359.99	1300.46
360.20	1300.46
360.41	1222.64
360.62	1316.84
360.83	1189.87
361.04	1304.56
361.25	1228.78
361.46	1249.26
361.67	1273.84
361.88	1296.36
362.09	1300.46
362.30	1282.03
362.51	1259.50
362.72	1335.28
362.93	1241.07
363.14	1241.07
363.35	1322.99
363.56	1245.16
363.78	1296.36
363.99	1275.88
364.20	1140.72
364.41	1249.26
364.62	1239.02
364.83	1308.65
365.04	1370.09
365.25	1230.83
365.46	1288.17
365.67	1259.50
365.88	1228.78
366.09	1265.64
366.30	1284.08
366.51	1239.02
366.72	1300.46
366.93	1198.06
367.14	1273.84
367.35	1273.84
367.56	1265.64
367.77	1261.55
367.98	1269.74
368.18	1228.78
368.39	1255.40
368.60	1253.36
368.81	1234.93
369.02	1273.84
369.23	1228.78
369.44	1261.55
369.65	1288.17
369.86	1236.97
370.07	1245.16
370.28	1314.80
370.49	1282.03
370.70	1310.70
370.91	1249.26
371.12	1284.08
371.33	1216.49
371.54	1275.88
371.75	1294.32
371.96	1259.50
372.17	1288.17
372.38	1214.45
372.59	1189.87
372.80	1273.84
373.01	1306.60
373.22	1279.98
373.43	1216.49
373.64	1206.25
373.85	1286.12
374.06	1314.80
374.26	1249.26
374.47	1267.69
374.68	1325.04
374.89	1228.78
375.10	1271.79
375.31	1318.89
375.52	1263.60
375.73	1388.52
375.94	1263.60
376.15	1247.21
376.36	1339.37
376.57	1263.60
376.78	1220.59
376.99	1249.26
377.20	1296.36
377.40	1253.36
377.61	1239.02
377.82	1267.69
378.03	1245.16
378.24	1282.03
378.45	1243.12
378.66	1286.12
378.87	1191.92
379.08	1230.83
379.29	1341.42
379.50	1267.69
379.71	1298.41
379.91	1265.64
380.12	1220.59
380.33	1329.13
380.54	1290.22
380.75	1298.41
380.96	1261.55
381.17	1263.60
381.38	1294.32
381.59	1275.88
381.80	1253.36
382.00	1200.11
382.21	1306.60
382.42	1327.08
382.63	1290.22
382.84	1302.51
383.05	1234.93
383.26	1277.93
383.47	1294.32
383.68	1257.45
383.88	1269.74
384.09	1273.84
384.30	1273.84
384.51	1249.26
384.72	1245.16
384.93	1271.79
385.14	1214.45
385.35	1232.88
385.55	1298.41
385.76	1288.17
385.97	1241.07
386.18	1241.07
386.39	1265.64
386.60	1271.79
386.81	1339.37
387.02	1312.75
387.22	1228.78
387.43	1261.55
387.64	1261.55
387.85	1253.36
388.06	1302.51
388.27	1277.93
388.48	1189.87
388.68	1286.12
388.89	1306.60
389.10	1251.31
389.31	1263.60
389.52	1232.88
389.73	1269.74
389.93	1220.59
390.14	1275.88
390.35	1224.69
390.56	1273.84
390.77	1331.18
390.98	1312.75
391.18	1273.84
391.39	1198.06
391.60	1245.16
391.81	1308.65
392.02	1232.88
392.23	1294.32
392.43	1335.28
392.64	1284.08
392.85	1290.22
393.06	1265.64
393.27	1249.26
393.47	1292.27
393.68	1183.73
393.89	1226.73
394.10	1314.80
394.31	1318.89
394.52	1298.41
394.72	1279.98
394.93	1249.26
395.14	1294.32
395.35	1257.45
395.56	1257.45
395.76	1251.31
395.97	1275.88
396.18	1241.07
396.39	1263.60
396.60	1300.46
396.80	1230.83
397.01	1298.41
397.22	1284.08
397.43	1273.84
397.64	1251.31
397.84	1275.88
398.05	1243.12
398.26	1304.56
398.47	1368.04
398.67	1230.83
398.88	1284.08
399.09	1259.50
399.30	1210.35
399.51	1327.08
399.71	1339.37
399.92	1257.45
400.13	1277.93
400.34	1234.93
400.54	1312.75
400.75	1273.84
400.96	1214.45
401.17	1376.24
401.37	1341.42
401.58	1273.84
401.79	1259.50
402.00	1296.36
402.21	1234.93
402.41	1261.55
402.62	1292.27
402.83	1247.21
403.04	1265.64
403.24	1322.99
403.45	1243.12
403.66	1200.11
403.87	1208.30
404.07	1271.79
404.28	1249.26
404.49	1294.32
404.70	1241.07
404.90	1265.64
405.11	1282.03
405.32	1343.47
405.52	1243.12
405.73	1259.50
405.94	1265.64
406.15	1333.23
406.35	1279.98
406.56	1230.83
406.77	1306.60
406.98	1230.83
407.18	1300.46
407.39	1214.45
407.60	1310.70
407.80	1224.69
408.01	1249.26
408.22	1208.30
408.43	1304.56
408.63	1296.36
408.84	1243.12
409.05	1269.74
409.25	1265.64
409.46	1306.60
409.67	1282.03
409.88	1302.51
410.08	1218.54
410.29	1292.27
410.50	1259.50
410.70	1298.41
410.91	1296.36
411.12	1255.40
411.32	1310.70
411.53	1296.36
411.74	1181.68
411.95	1284.08
412.15	1282.03
412.36	1347.56
412.57	1247.21
412.77	1312.75
412.98	1198.06
413.19	1286.12
413.39	1282.03
413.60	1286.12
413.81	1187.82
414.01	1298.41
414.22	1249.26
414.43	1314.80
414.63	1230.83
414.84	1247.21
415.05	1267.69
415.25	1159.15
415.46	1183.73
415.67	1329.13
415.87	1273.84
416.08	1292.27
416.29	1288.17
416.49	1261.55
416.70	1263.60
416.91	1247.21
417.11	1327.08
417.32	1239.02
417.53	1296.36
417.73	1261.55
417.94	1257.45
418.15	1302.51
418.35	1271.79
418.56	1241.07
418.77	1218.54
418.97	1245.16
419.18	1220.59
419.38	1273.84
419.59	1239.02
419.80	1343.47
420.00	1257.45
420.21	1341.42
420.42	1257.45
420.62	1282.03
420.83	1273.84
421.04	1224.69
421.24	1212.40
421.45	1318.89
421.65	1288.17
421.86	1275.88
422.07	1220.59
422.27	1232.88
422.48	1263.60
422.69	1294.32
422.89	1296.36
423.10	1286.12
423.30	1275.88
423.51	1269.74
423.72	1288.17
423.92	1316.84
424.13	1267.69
424.33	1267.69
424.54	1214.45
424.75	1284.08
424.95	1300.46
425.16	1316.84
425.36	1234.93
425.57	1253.36
425.78	1239.02
425.98	1298.41
426.19	1232.88
426.39	1267.69
426.60	1198.06
426.81	1300.46
427.01	1245.16
427.22	1327.08
427.42	1271.79
427.63	1204.21
427.83	1218.54
428.04	1257.45
428.25	1263.60
428.45	1314.80
428.66	1271.79
428.86	1218.54
429.07	1234.93
429.28	1271.79
429.48	1282.03
429.69	1290.22
429.89	1226.73
430.10	1249.26
430.30	1253.36
430.51	1339.37
430.71	1288.17
430.92	1298.41
431.13	1220.59
431.33	1349.61
431.54	1263.60
431.74	1206.25
431.95	1245.16
432.15	1208.30
432.36	1298.41
432.56	1267.69
432.77	1261.55
432.98	1241.07
433.18	1304.56
433.39	1259.50
433.59	1239.02
433.80	1245.16
434.00	1333.23
434.21	1261.55
434.41	1220.59
434.62	1296.36
434.82	1253.36
435.03	1277.93
435.23	1255.40
435.44	1275.88
435.64	1265.64
435.85	1226.73
436.06	1308.65
436.26	1292.27
436.47	1257.45
436.67	1263.60
436.88	1271.79
437.08	1202.16
437.29	1222.64
437.49	1243.12
437.70	1230.83
437.90	1193.97
438.11	1290.22
438.31	1275.88
438.52	1290.22
438.72	1247.21
438.93	1263.60
439.13	1261.55
439.34	1294.32
439.54	1294.32
439.75	1239.02
439.95	1271.79
440.16	1261.55
440.36	1298.41
440.57	1361.90
440.77	1296.36
440.98	1269.74
441.18	1273.84
441.39	1243.12
441.59	1226.73
441.80	1347.56
442.00	1327.08
442.21	1279.98
442.41	1243.12
442.62	1296.36
442.82	1230.83
443.02	1263.60
443.23	1261.55
443.43	1275.88
443.64	1355.76
443.84	1337.32
444.05	1269.74
444.25	1245.16
444.46	1191.92
444.66	1267.69
444.87	1314.80
445.07	1296.36
445.28	1277.93
445.48	1222.64
445.69	1292.27
445.89	1265.64
446.09	1239.02
446.30	1304.56
446.50	1312.75
446.71	1218.54
446.91	1286.12
447.12	1288.17
447.32	1300.46
447.53	1261.55
447.73	1284.08
447.93	1228.78
448.14	1245.16
448.34	1232.88
448.55	1380.33
448.75	1269.74
448.96	1337.32
449.16	1294.32
449.36	1275.88
449.57	1275.88
449.77	1337.32
449.98	1224.69
450.18	1267.69
450.39	1210.35
450.59	1296.36
450.79	1216.49
451.00	1259.50
451.20	1288.17
451.41	1290.22
451.61	1257.45
451.81	1279.98
452.02	1296.36
452.22	1320.94
452.43	1292.27
452.63	1296.36
