SpectraSuite Data File
++++++++++++++++++++++++++++++++++++
Date: Sun Apr 03 19:55:46 CEST 2016
User: root
Dark Spectrum Present: No
Reference Spectrum Present: No
Number of Sampled Component Spectra: 1
Spectrometers: USB4C02835
Integration Time (usec): 10000 (USB4C02835)
Spectra Averaged: 1 (USB4C02835)
Boxcar Smoothing: 0 (USB4C02835)
Correct for Electrical Dark: No (USB4C02835)
Strobe/Lamp Enabled: No (USB4C02835)
Correct for Detector Non-linearity: No (USB4C02835)
Correct for Stray Light: No (USB4C02835)
Number of Pixels in Processed Spectrum: 3648
>>>>>Begin Processed Spectral Data<<<<<
177.47	1234.93
177.69	1234.93
177.91	1234.93
178.13	1265.64
178.36	1288.17
178.58	1302.51
178.80	1273.84
179.02	1277.93
179.24	1187.82
179.46	1302.51
179.68	1196.01
179.90	1210.35
180.13	1255.40
180.35	1198.06
180.57	1165.29
180.79	1279.98
181.01	1271.79
181.23	1331.18
181.45	1236.97
181.67	1261.55
181.90	1306.60
182.12	1255.40
182.34	1191.92
182.56	1279.98
182.78	1288.17
183.00	1306.60
183.22	1290.22
183.44	1224.69
183.66	1245.16
183.89	1304.56
184.11	1249.26
184.33	1206.25
184.55	1224.69
184.77	1230.83
184.99	1247.21
185.21	1249.26
185.43	1339.37
185.65	1239.02
185.87	1304.56
186.10	1169.39
186.32	1226.73
186.54	1245.16
186.76	1298.41
186.98	1275.88
187.20	1284.08
187.42	1220.59
187.64	1304.56
187.86	1337.32
188.08	1292.27
188.30	1316.84
188.52	1275.88
188.75	1261.55
188.97	1355.76
189.19	1316.84
189.41	1282.03
189.63	1236.97
189.85	1222.64
190.07	1288.17
190.29	1220.59
190.51	1277.93
190.73	1327.08
190.95	1294.32
191.17	1310.70
191.39	1226.73
191.61	1232.88
191.84	1247.21
192.06	1243.12
192.28	1263.60
192.50	1279.98
192.72	1210.35
192.94	1320.94
193.16	1288.17
193.38	1187.82
193.60	1255.40
193.82	1310.70
194.04	1329.13
194.26	1222.64
194.48	1239.02
194.70	1298.41
194.92	1290.22
195.14	1263.60
195.36	1269.74
195.58	1247.21
195.80	1148.91
196.02	1300.46
196.24	1216.49
196.46	1263.60
196.69	1257.45
196.91	1296.36
197.13	1302.51
197.35	1265.64
197.57	1312.75
197.79	1288.17
198.01	1361.90
198.23	1222.64
198.45	1249.26
198.67	1263.60
198.89	1275.88
199.11	1316.84
199.33	1253.36
199.55	1310.70
199.77	1214.45
199.99	1284.08
200.21	1226.73
200.43	1273.84
200.65	1310.70
200.87	1263.60
201.09	1251.31
201.31	1292.27
201.53	1189.87
201.75	1165.29
201.97	1255.40
202.19	1271.79
202.41	1241.07
202.63	1234.93
202.85	1224.69
203.07	1263.60
203.29	1288.17
203.51	1249.26
203.73	1241.07
203.95	1325.04
204.17	1249.26
204.39	1214.45
204.61	1255.40
204.83	1273.84
205.05	1236.97
205.27	1292.27
205.49	1236.97
205.71	1247.21
205.93	1273.84
206.15	1277.93
206.37	1271.79
206.59	1271.79
206.81	1239.02
207.03	1345.52
207.25	1222.64
207.47	1327.08
207.69	1273.84
207.91	1249.26
208.13	1265.64
208.34	1306.60
208.56	1234.93
208.78	1245.16
209.00	1345.52
209.22	1273.84
209.44	1286.12
209.66	1204.21
209.88	1228.78
210.10	1247.21
210.32	1269.74
210.54	1271.79
210.76	1316.84
210.98	1249.26
211.20	1236.97
211.42	1255.40
211.64	1269.74
211.86	1263.60
212.08	1216.49
212.30	1325.04
212.52	1222.64
212.74	1273.84
212.96	1267.69
213.17	1355.76
213.39	1236.97
213.61	1232.88
213.83	1210.35
214.05	1249.26
214.27	1198.06
214.49	1232.88
214.71	1200.11
214.93	1327.08
215.15	1306.60
215.37	1198.06
215.59	1257.45
215.81	1302.51
216.03	1202.16
216.24	1193.97
216.46	1224.69
216.68	1304.56
216.90	1284.08
217.12	1292.27
217.34	1253.36
217.56	1251.31
217.78	1286.12
218.00	1282.03
218.22	1212.40
218.44	1318.89
218.66	1206.25
218.87	1273.84
219.09	1290.22
219.31	1255.40
219.53	1185.77
219.75	1290.22
219.97	1271.79
220.19	1234.93
220.41	1298.41
220.63	1273.84
220.85	1284.08
221.06	1273.84
221.28	1251.31
221.50	1318.89
221.72	1275.88
221.94	1333.23
222.16	1202.16
222.38	1232.88
222.60	1282.03
222.82	1230.83
223.03	1310.70
223.25	1316.84
223.47	1239.02
223.69	1241.07
223.91	1259.50
224.13	1308.65
224.35	1277.93
224.57	1247.21
224.78	1320.94
225.00	1282.03
225.22	1255.40
225.44	1355.76
225.66	1196.01
225.88	1222.64
226.10	1253.36
226.32	1230.83
226.53	1286.12
226.75	1257.45
226.97	1279.98
227.19	1243.12
227.41	1218.54
227.63	1263.60
227.85	1310.70
228.06	1277.93
228.28	1171.44
228.50	1228.78
228.72	1255.40
228.94	1286.12
229.16	1310.70
229.37	1226.73
229.59	1234.93
229.81	1320.94
230.03	1277.93
230.25	1282.03
230.47	1193.97
230.69	1296.36
230.90	1232.88
231.12	1322.99
231.34	1288.17
231.56	1255.40
231.78	1228.78
232.00	1265.64
232.21	1185.77
232.43	1335.28
232.65	1179.63
232.87	1310.70
233.09	1261.55
233.30	1263.60
233.52	1284.08
233.74	1304.56
233.96	1284.08
234.18	1337.32
234.40	1275.88
234.61	1298.41
234.83	1304.56
235.05	1290.22
235.27	1290.22
235.49	1290.22
235.70	1198.06
235.92	1296.36
236.14	1282.03
236.36	1255.40
236.58	1261.55
236.79	1263.60
237.01	1220.59
237.23	1314.80
237.45	1269.74
237.67	1312.75
237.88	1304.56
238.10	1341.42
238.32	1306.60
238.54	1259.50
238.76	1239.02
238.97	1218.54
239.19	1322.99
239.41	1277.93
239.63	1292.27
239.85	1218.54
240.06	1212.40
240.28	1284.08
240.50	1232.88
240.72	1193.97
240.93	1329.13
241.15	1267.69
241.37	1234.93
241.59	1288.17
241.81	1304.56
242.02	1251.31
242.24	1236.97
242.46	1214.45
242.68	1327.08
242.89	1302.51
243.11	1234.93
243.33	1251.31
243.55	1259.50
243.76	1292.27
243.98	1243.12
244.20	1279.98
244.42	1265.64
244.64	1216.49
244.85	1318.89
245.07	1234.93
245.29	1200.11
245.51	1230.83
245.72	1257.45
245.94	1355.76
246.16	1247.21
246.38	1257.45
246.59	1343.47
246.81	1263.60
247.03	1247.21
247.24	1279.98
247.46	1288.17
247.68	1292.27
247.90	1310.70
248.11	1257.45
248.33	1259.50
248.55	1257.45
248.77	1277.93
248.98	1267.69
249.20	1290.22
249.42	1208.30
249.64	1304.56
249.85	1339.37
250.07	1251.31
250.29	1310.70
250.50	1239.02
250.72	1259.50
250.94	1228.78
251.16	1320.94
251.37	1304.56
251.59	1322.99
251.81	1239.02
252.02	1282.03
252.24	1312.75
252.46	1322.99
252.68	1212.40
252.89	1247.21
253.11	1212.40
253.33	1263.60
253.54	1304.56
253.76	1273.84
253.98	1329.13
254.20	1216.49
254.41	1304.56
254.63	1222.64
254.85	1290.22
255.06	1284.08
255.28	1288.17
255.50	1275.88
255.71	1241.07
255.93	1269.74
256.15	1294.32
256.36	1296.36
256.58	1277.93
256.80	1239.02
257.02	1234.93
257.23	1273.84
257.45	1308.65
257.67	1239.02
257.88	1222.64
258.10	1310.70
258.32	1265.64
258.53	1216.49
258.75	1208.30
258.97	1265.64
259.18	1236.97
259.40	1253.36
259.62	1353.71
259.83	1277.93
260.05	1300.46
260.27	1261.55
260.48	1234.93
260.70	1198.06
260.92	1306.60
261.13	1337.32
261.35	1288.17
261.57	1294.32
261.78	1234.93
262.00	1247.21
262.22	1230.83
262.43	1296.36
262.65	1275.88
262.86	1263.60
263.08	1224.69
263.30	1255.40
263.51	1255.40
263.73	1314.80
263.95	1320.94
264.16	1247.21
264.38	1306.60
264.60	1247.21
264.81	1255.40
265.03	1292.27
265.25	1243.12
265.46	1241.07
265.68	1273.84
265.89	1300.46
266.11	1269.74
266.33	1300.46
266.54	1294.32
266.76	1241.07
266.98	1179.63
267.19	1286.12
267.41	1202.16
267.62	1333.23
267.84	1228.78
268.06	1282.03
268.27	1228.78
268.49	1347.56
268.70	1226.73
268.92	1245.16
269.14	1236.97
269.35	1200.11
269.57	1269.74
269.79	1304.56
270.00	1357.80
270.22	1339.37
270.43	1318.89
270.65	1320.94
270.87	1269.74
271.08	1239.02
271.30	1343.47
271.51	1271.79
271.73	1228.78
271.95	1284.08
272.16	1343.47
272.38	1247.21
272.59	1251.31
272.81	1298.41
273.02	1214.45
273.24	1294.32
273.46	1282.03
273.67	1282.03
273.89	1247.21
274.10	1288.17
274.32	1327.08
274.54	1267.69
274.75	1279.98
274.97	1300.46
275.18	1298.41
275.40	1259.50
275.61	1247.21
275.83	1257.45
276.05	1273.84
276.26	1298.41
276.48	1312.75
276.69	1306.60
276.91	1269.74
277.12	1255.40
277.34	1320.94
277.55	1226.73
277.77	1288.17
277.99	1261.55
278.20	1220.59
278.42	1275.88
278.63	1234.93
278.85	1214.45
279.06	1339.37
279.28	1236.97
279.49	1228.78
279.71	1392.62
279.93	1224.69
280.14	1277.93
280.36	1279.98
280.57	1277.93
280.79	1208.30
281.00	1173.49
281.22	1329.13
281.43	1282.03
281.65	1247.21
281.86	1255.40
282.08	1302.51
282.29	1292.27
282.51	1232.88
282.73	1304.56
282.94	1257.45
283.16	1257.45
283.37	1226.73
283.59	1263.60
283.80	1255.40
284.02	1210.35
284.23	1282.03
284.45	1273.84
284.66	1273.84
284.88	1282.03
285.09	1193.97
285.31	1306.60
285.52	1284.08
285.74	1198.06
285.95	1210.35
286.17	1282.03
286.38	1273.84
286.60	1261.55
286.81	1210.35
287.03	1273.84
287.24	1173.49
287.46	1271.79
287.67	1273.84
287.89	1288.17
288.10	1279.98
288.32	1234.93
288.53	1298.41
288.75	1300.46
288.96	1226.73
289.18	1269.74
289.39	1230.83
289.61	1306.60
289.82	1300.46
290.04	1236.97
290.25	1214.45
290.47	1206.25
290.68	1347.56
290.90	1261.55
291.11	1282.03
291.33	1249.26
291.54	1253.36
291.76	1249.26
291.97	1300.46
292.18	1275.88
292.40	1310.70
292.61	1322.99
292.83	1290.22
293.04	1277.93
293.26	1261.55
293.47	1286.12
293.69	1210.35
293.90	1308.65
294.12	1247.21
294.33	1312.75
294.55	1273.84
294.76	1267.69
294.97	1224.69
295.19	1241.07
295.40	1277.93
295.62	1193.97
295.83	1267.69
296.05	1241.07
296.26	1271.79
296.48	1339.37
296.69	1310.70
296.90	1222.64
297.12	1220.59
297.33	1279.98
297.55	1255.40
297.76	1275.88
297.98	1202.16
298.19	1239.02
298.41	1210.35
298.62	1275.88
298.83	1249.26
299.05	1290.22
299.26	1304.56
299.48	1232.88
299.69	1294.32
299.90	1230.83
300.12	1253.36
300.33	1243.12
300.55	1239.02
300.76	1271.79
300.98	1253.36
301.19	1282.03
301.40	1220.59
301.62	1236.97
301.83	1169.39
302.05	1150.96
302.26	1300.46
302.47	1277.93
302.69	1208.30
302.90	1288.17
303.12	1206.25
303.33	1228.78
303.54	1308.65
303.76	1314.80
303.97	1243.12
304.19	1288.17
304.40	1257.45
304.61	1220.59
304.83	1271.79
305.04	1363.95
305.26	1224.69
305.47	1224.69
305.68	1300.46
305.90	1187.82
306.11	1288.17
306.33	1230.83
306.54	1282.03
306.75	1241.07
306.97	1279.98
307.18	1271.79
307.39	1206.25
307.61	1241.07
307.82	1314.80
308.04	1224.69
308.25	1253.36
308.46	1271.79
308.68	1310.70
308.89	1228.78
309.10	1337.32
309.32	1339.37
309.53	1282.03
309.74	1282.03
309.96	1206.25
310.17	1257.45
310.39	1282.03
310.60	1189.87
310.81	1271.79
311.03	1245.16
311.24	1261.55
311.45	1265.64
311.67	1249.26
311.88	1314.80
312.09	1247.21
312.31	1216.49
312.52	1277.93
312.73	1265.64
312.95	1271.79
313.16	1249.26
313.37	1310.70
313.59	1302.51
313.80	1290.22
314.01	1232.88
314.23	1138.67
314.44	1284.08
314.65	1273.84
314.87	1277.93
315.08	1306.60
315.29	1259.50
315.51	1263.60
315.72	1263.60
315.93	1339.37
316.15	1236.97
316.36	1245.16
316.57	1249.26
316.79	1216.49
317.00	1320.94
317.21	1259.50
317.43	1261.55
317.64	1196.01
317.85	1255.40
318.07	1290.22
318.28	1273.84
318.49	1271.79
318.70	1236.97
318.92	1290.22
319.13	1265.64
319.34	1290.22
319.56	1177.58
319.77	1269.74
319.98	1322.99
320.20	1232.88
320.41	1249.26
320.62	1218.54
320.83	1267.69
321.05	1335.28
321.26	1306.60
321.47	1302.51
321.69	1320.94
321.90	1282.03
322.11	1306.60
322.32	1349.61
322.54	1296.36
322.75	1243.12
322.96	1288.17
323.18	1241.07
323.39	1282.03
323.60	1171.44
323.81	1185.77
324.03	1314.80
324.24	1290.22
324.45	1234.93
324.66	1245.16
324.88	1304.56
325.09	1314.80
325.30	1271.79
325.52	1257.45
325.73	1263.60
325.94	1300.46
326.15	1220.59
326.37	1265.64
326.58	1224.69
326.79	1218.54
327.00	1304.56
327.22	1253.36
327.43	1294.32
327.64	1257.45
327.85	1290.22
328.07	1224.69
328.28	1286.12
328.49	1255.40
328.70	1226.73
328.92	1239.02
329.13	1273.84
329.34	1261.55
329.55	1341.42
329.76	1257.45
329.98	1267.69
330.19	1306.60
330.40	1251.31
330.61	1308.65
330.83	1263.60
331.04	1312.75
331.25	1273.84
331.46	1282.03
331.68	1277.93
331.89	1294.32
332.10	1222.64
332.31	1300.46
332.52	1286.12
332.74	1247.21
332.95	1204.21
333.16	1255.40
333.37	1306.60
333.58	1292.27
333.80	1179.63
334.01	1218.54
334.22	1224.69
334.43	1249.26
334.64	1226.73
334.86	1271.79
335.07	1251.31
335.28	1247.21
335.49	1265.64
335.70	1279.98
335.92	1302.51
336.13	1234.93
336.34	1275.88
336.55	1312.75
336.76	1210.35
336.98	1267.69
337.19	1322.99
337.40	1306.60
337.61	1320.94
337.82	1259.50
338.04	1196.01
338.25	1277.93
338.46	1259.50
338.67	1282.03
338.88	1198.06
339.09	1325.04
339.31	1286.12
339.52	1218.54
339.73	1269.74
339.94	1255.40
340.15	1300.46
340.36	1208.30
340.58	1345.52
340.79	1265.64
341.00	1320.94
341.21	1314.80
341.42	1314.80
341.63	1273.84
341.85	1261.55
342.06	1251.31
342.27	1279.98
342.48	1269.74
342.69	1292.27
342.90	1290.22
343.12	1267.69
343.33	1273.84
343.54	1310.70
343.75	1306.60
343.96	1232.88
344.17	1241.07
344.38	1232.88
344.60	1277.93
344.81	1318.89
345.02	1286.12
345.23	1347.56
345.44	1290.22
345.65	1273.84
345.86	1284.08
346.07	1290.22
346.29	1228.78
346.50	1239.02
346.71	1228.78
346.92	1239.02
347.13	1247.21
347.34	1284.08
347.55	1282.03
347.76	1290.22
347.98	1269.74
348.19	1298.41
348.40	1261.55
348.61	1261.55
348.82	1216.49
349.03	1290.22
349.24	1263.60
349.45	1228.78
349.66	1236.97
349.88	1226.73
350.09	1259.50
350.30	1228.78
350.51	1306.60
350.72	1249.26
350.93	1189.87
351.14	1249.26
351.35	1255.40
351.56	1189.87
351.77	1251.31
351.99	1265.64
352.20	1259.50
352.41	1239.02
352.62	1298.41
352.83	1222.64
353.04	1271.79
353.25	1331.18
353.46	1279.98
353.67	1239.02
353.88	1288.17
354.09	1341.42
354.30	1196.01
354.52	1310.70
354.73	1331.18
354.94	1230.83
355.15	1255.40
355.36	1296.36
355.57	1331.18
355.78	1257.45
355.99	1275.88
356.20	1226.73
356.41	1255.40
356.62	1292.27
356.83	1253.36
357.04	1282.03
357.25	1279.98
357.46	1292.27
357.68	1243.12
357.89	1224.69
358.10	1284.08
358.31	1210.35
358.52	1243.12
358.73	1265.64
358.94	1304.56
359.15	1253.36
359.36	1286.12
359.57	1253.36
359.78	1230.83
359.99	1314.80
360.20	1249.26
360.41	1273.84
360.62	1275.88
360.83	1216.49
361.04	1224.69
361.25	1265.64
361.46	1282.03
361.67	1290.22
361.88	1208.30
362.09	1290.22
362.30	1286.12
362.51	1161.20
362.72	1210.35
362.93	1316.84
363.14	1214.45
363.35	1226.73
363.56	1302.51
363.78	1255.40
363.99	1298.41
364.20	1279.98
364.41	1341.42
364.62	1335.28
364.83	1263.60
365.04	1261.55
365.25	1222.64
365.46	1267.69
365.67	1200.11
365.88	1257.45
366.09	1351.66
366.30	1265.64
366.51	1265.64
366.72	1257.45
366.93	1296.36
367.14	1312.75
367.35	1306.60
367.56	1308.65
367.77	1325.04
367.98	1335.28
368.18	1308.65
368.39	1325.04
368.60	1267.69
368.81	1269.74
369.02	1308.65
369.23	1267.69
369.44	1200.11
369.65	1277.93
369.86	1273.84
370.07	1185.77
370.28	1306.60
370.49	1239.02
370.70	1236.97
370.91	1273.84
371.12	1257.45
371.33	1282.03
371.54	1347.56
371.75	1294.32
371.96	1249.26
372.17	1275.88
372.38	1236.97
372.59	1202.16
372.80	1138.67
373.01	1296.36
373.22	1228.78
373.43	1249.26
373.64	1206.25
373.85	1228.78
374.06	1234.93
374.26	1245.16
374.47	1257.45
374.68	1257.45
374.89	1310.70
375.10	1249.26
375.31	1232.88
375.52	1265.64
375.73	1257.45
375.94	1187.82
376.15	1329.13
376.36	1261.55
376.57	1226.73
376.78	1253.36
376.99	1243.12
377.20	1284.08
377.40	1253.36
377.61	1279.98
377.82	1261.55
378.03	1241.07
378.24	1361.90
378.45	1279.98
378.66	1148.91
378.87	1343.47
379.08	1247.21
379.29	1210.35
379.50	1259.50
379.71	1187.82
379.91	1290.22
380.12	1282.03
380.33	1200.11
380.54	1239.02
380.75	1322.99
380.96	1275.88
381.17	1236.97
381.38	1284.08
381.59	1290.22
381.80	1286.12
382.00	1265.64
382.21	1255.40
382.42	1277.93
382.63	1277.93
382.84	1218.54
383.05	1263.60
383.26	1253.36
383.47	1335.28
383.68	1265.64
383.88	1243.12
384.09	1210.35
384.30	1224.69
384.51	1247.21
384.72	1322.99
384.93	1312.75
385.14	1314.80
385.35	1214.45
385.55	1191.92
385.76	1304.56
385.97	1372.14
386.18	1271.79
386.39	1304.56
386.60	1339.37
386.81	1286.12
387.02	1261.55
387.22	1247.21
387.43	1236.97
387.64	1292.27
387.85	1320.94
388.06	1259.50
388.27	1228.78
388.48	1277.93
388.68	1275.88
388.89	1282.03
389.10	1265.64
389.31	1300.46
389.52	1318.89
389.73	1290.22
389.93	1259.50
390.14	1310.70
390.35	1277.93
390.56	1167.34
390.77	1247.21
390.98	1212.40
391.18	1271.79
391.39	1214.45
391.60	1308.65
391.81	1306.60
392.02	1306.60
392.23	1277.93
392.43	1196.01
392.64	1341.42
392.85	1286.12
393.06	1279.98
393.27	1255.40
393.47	1327.08
393.68	1296.36
393.89	1196.01
394.10	1310.70
394.31	1292.27
394.52	1251.31
394.72	1327.08
394.93	1282.03
395.14	1148.91
395.35	1325.04
395.56	1210.35
395.76	1286.12
395.97	1206.25
396.18	1220.59
396.39	1308.65
396.60	1333.23
396.80	1335.28
397.01	1255.40
397.22	1286.12
397.43	1236.97
397.64	1310.70
397.84	1298.41
398.05	1277.93
398.26	1310.70
398.47	1241.07
398.67	1288.17
398.88	1249.26
399.09	1251.31
399.30	1251.31
399.51	1187.82
399.71	1298.41
399.92	1253.36
400.13	1277.93
400.34	1282.03
400.54	1312.75
400.75	1241.07
400.96	1294.32
401.17	1259.50
401.37	1300.46
401.58	1255.40
401.79	1236.97
402.00	1249.26
402.21	1239.02
402.41	1181.68
402.62	1251.31
402.83	1282.03
403.04	1275.88
403.24	1267.69
403.45	1249.26
403.66	1277.93
403.87	1253.36
404.07	1279.98
404.28	1247.21
404.49	1286.12
404.70	1212.40
404.90	1257.45
405.11	1298.41
405.32	1282.03
405.52	1247.21
405.73	1292.27
405.94	1224.69
406.15	1298.41
406.35	1257.45
406.56	1341.42
406.77	1206.25
406.98	1320.94
407.18	1284.08
407.39	1335.28
407.60	1234.93
407.80	1198.06
408.01	1218.54
408.22	1208.30
408.43	1314.80
408.63	1214.45
408.84	1241.07
409.05	1259.50
409.25	1236.97
409.46	1269.74
409.67	1243.12
409.88	1366.00
410.08	1253.36
410.29	1253.36
410.50	1333.23
410.70	1234.93
410.91	1267.69
411.12	1306.60
411.32	1228.78
411.53	1282.03
411.74	1310.70
411.95	1273.84
412.15	1277.93
412.36	1163.25
412.57	1290.22
412.77	1292.27
412.98	1267.69
413.19	1267.69
413.39	1290.22
413.60	1251.31
413.81	1251.31
414.01	1310.70
414.22	1241.07
414.43	1269.74
414.63	1216.49
414.84	1234.93
415.05	1255.40
415.25	1236.97
415.46	1271.79
415.67	1202.16
415.87	1318.89
416.08	1228.78
416.29	1320.94
416.49	1275.88
416.70	1296.36
416.91	1257.45
417.11	1257.45
417.32	1247.21
417.53	1308.65
417.73	1322.99
417.94	1351.66
418.15	1239.02
418.35	1198.06
418.56	1230.83
418.77	1263.60
418.97	1349.61
419.18	1259.50
419.38	1245.16
419.59	1316.84
419.80	1249.26
420.00	1218.54
420.21	1327.08
420.42	1255.40
420.62	1232.88
420.83	1257.45
421.04	1226.73
421.24	1288.17
421.45	1298.41
421.65	1286.12
421.86	1275.88
422.07	1265.64
422.27	1277.93
422.48	1308.65
422.69	1232.88
422.89	1257.45
423.10	1275.88
423.30	1361.90
423.51	1290.22
423.72	1255.40
423.92	1298.41
424.13	1204.21
424.33	1288.17
424.54	1243.12
424.75	1304.56
424.95	1241.07
425.16	1206.25
425.36	1224.69
425.57	1312.75
425.78	1257.45
425.98	1269.74
426.19	1249.26
426.39	1239.02
426.60	1271.79
426.81	1333.23
427.01	1331.18
427.22	1245.16
427.42	1255.40
427.63	1394.67
427.83	1245.16
428.04	1304.56
428.25	1210.35
428.45	1245.16
428.66	1298.41
428.86	1294.32
429.07	1249.26
429.28	1320.94
429.48	1259.50
429.69	1191.92
429.89	1322.99
430.10	1273.84
430.30	1232.88
430.51	1275.88
430.71	1261.55
430.92	1288.17
431.13	1333.23
431.33	1339.37
431.54	1198.06
431.74	1222.64
431.95	1189.87
432.15	1179.63
432.36	1277.93
432.56	1284.08
432.77	1208.30
432.98	1327.08
433.18	1245.16
433.39	1275.88
433.59	1279.98
433.80	1247.21
434.00	1327.08
434.21	1284.08
434.41	1239.02
434.62	1282.03
434.82	1286.12
435.03	1204.21
435.23	1261.55
435.44	1347.56
435.64	1259.50
435.85	1230.83
436.06	1204.21
436.26	1226.73
436.47	1253.36
436.67	1282.03
436.88	1282.03
437.08	1279.98
437.29	1275.88
437.49	1257.45
437.70	1247.21
437.90	1279.98
438.11	1347.56
438.31	1277.93
438.52	1249.26
438.72	1325.04
438.93	1370.09
439.13	1232.88
439.34	1294.32
439.54	1312.75
439.75	1253.36
439.95	1335.28
440.16	1318.89
440.36	1212.40
440.57	1236.97
440.77	1286.12
440.98	1316.84
441.18	1331.18
441.39	1294.32
441.59	1310.70
441.80	1239.02
442.00	1212.40
442.21	1275.88
442.41	1259.50
442.62	1253.36
442.82	1269.74
443.02	1318.89
443.23	1265.64
443.43	1216.49
443.64	1259.50
443.84	1284.08
444.05	1257.45
444.25	1314.80
444.46	1415.15
444.66	1263.60
444.87	1222.64
445.07	1282.03
445.28	1296.36
445.48	1302.51
445.69	1310.70
445.89	1294.32
446.09	1331.18
446.30	1294.32
446.50	1236.97
446.71	1247.21
446.91	1232.88
447.12	1302.51
447.32	1288.17
447.53	1271.79
447.73	1314.80
447.93	1320.94
448.14	1255.40
448.34	1316.84
448.55	1300.46
448.75	1279.98
448.96	1222.64
449.16	1216.49
449.36	1304.56
449.57	1255.40
449.77	1339.37
449.98	1243.12
450.18	1292.27
450.39	1273.84
450.59	1253.36
450.79	1327.08
451.00	1279.98
451.20	1200.11
451.41	1329.13
451.61	1273.84
451.81	1292.27
452.02	1275.88
452.22	1263.60
452.43	1277.93
452.63	1275.88
