SpectraSuite Data File
++++++++++++++++++++++++++++++++++++
Date: Sun Apr 03 19:55:38 CEST 2016
User: root
Dark Spectrum Present: No
Reference Spectrum Present: No
Number of Sampled Component Spectra: 1
Spectrometers: USB4C02835
Integration Time (usec): 10000 (USB4C02835)
Spectra Averaged: 1 (USB4C02835)
Boxcar Smoothing: 0 (USB4C02835)
Correct for Electrical Dark: No (USB4C02835)
Strobe/Lamp Enabled: No (USB4C02835)
Correct for Detector Non-linearity: No (USB4C02835)
Correct for Stray Light: No (USB4C02835)
Number of Pixels in Processed Spectrum: 3648
>>>>>Begin Processed Spectral Data<<<<<
177.47	1249.26
177.69	1249.26
177.91	1249.26
178.13	1263.60
178.36	1210.35
178.58	1222.64
178.80	1253.36
179.02	1257.45
179.24	1263.60
179.46	1198.06
179.68	1312.75
179.90	1236.97
180.13	1241.07
180.35	1202.16
180.57	1288.17
180.79	1339.37
181.01	1232.88
181.23	1206.25
181.45	1269.74
181.67	1224.69
181.90	1200.11
182.12	1247.21
182.34	1232.88
182.56	1273.84
182.78	1294.32
183.00	1263.60
183.22	1304.56
183.44	1261.55
183.66	1359.85
183.89	1265.64
184.11	1232.88
184.33	1277.93
184.55	1253.36
184.77	1322.99
184.99	1243.12
185.21	1257.45
185.43	1277.93
185.65	1290.22
185.87	1359.85
186.10	1224.69
186.32	1288.17
186.54	1331.18
186.76	1271.79
186.98	1290.22
187.20	1288.17
187.42	1263.60
187.64	1300.46
187.86	1236.97
188.08	1265.64
188.30	1255.40
188.52	1251.31
188.75	1226.73
188.97	1322.99
189.19	1279.98
189.41	1302.51
189.63	1263.60
189.85	1232.88
190.07	1325.04
190.29	1239.02
190.51	1322.99
190.73	1273.84
190.95	1245.16
191.17	1288.17
191.39	1273.84
191.61	1200.11
191.84	1239.02
192.06	1226.73
192.28	1292.27
192.50	1277.93
192.72	1325.04
192.94	1271.79
193.16	1320.94
193.38	1325.04
193.60	1304.56
193.82	1320.94
194.04	1271.79
194.26	1294.32
194.48	1294.32
194.70	1241.07
194.92	1243.12
195.14	1339.37
195.36	1243.12
195.58	1263.60
195.80	1292.27
196.02	1247.21
196.24	1300.46
196.46	1263.60
196.69	1251.31
196.91	1249.26
197.13	1220.59
197.35	1265.64
197.57	1216.49
197.79	1241.07
198.01	1216.49
198.23	1255.40
198.45	1222.64
198.67	1316.84
198.89	1236.97
199.11	1296.36
199.33	1292.27
199.55	1286.12
199.77	1259.50
199.99	1232.88
200.21	1263.60
200.43	1320.94
200.65	1236.97
200.87	1294.32
201.09	1282.03
201.31	1241.07
201.53	1290.22
201.75	1306.60
201.97	1366.00
202.19	1253.36
202.41	1294.32
202.63	1255.40
202.85	1290.22
203.07	1286.12
203.29	1247.21
203.51	1343.47
203.73	1261.55
203.95	1273.84
204.17	1288.17
204.39	1216.49
204.61	1249.26
204.83	1253.36
205.05	1269.74
205.27	1347.56
205.49	1269.74
205.71	1279.98
205.93	1302.51
206.15	1282.03
206.37	1318.89
206.59	1312.75
206.81	1175.53
207.03	1284.08
207.25	1228.78
207.47	1279.98
207.69	1265.64
207.91	1257.45
208.13	1292.27
208.34	1273.84
208.56	1239.02
208.78	1224.69
209.00	1306.60
209.22	1228.78
209.44	1310.70
209.66	1259.50
209.88	1335.28
210.10	1265.64
210.32	1234.93
210.54	1298.41
210.76	1255.40
210.98	1343.47
211.20	1206.25
211.42	1251.31
211.64	1294.32
211.86	1245.16
212.08	1226.73
212.30	1304.56
212.52	1277.93
212.74	1232.88
212.96	1263.60
213.17	1312.75
213.39	1267.69
213.61	1232.88
213.83	1204.21
214.05	1275.88
214.27	1206.25
214.49	1243.12
214.71	1267.69
214.93	1306.60
215.15	1294.32
215.37	1282.03
215.59	1275.88
215.81	1234.93
216.03	1284.08
216.24	1236.97
216.46	1251.31
216.68	1269.74
216.90	1259.50
217.12	1290.22
217.34	1230.83
217.56	1302.51
217.78	1249.26
218.00	1255.40
218.22	1359.85
218.44	1284.08
218.66	1284.08
218.87	1200.11
219.09	1259.50
219.31	1259.50
219.53	1318.89
219.75	1267.69
219.97	1265.64
220.19	1298.41
220.41	1239.02
220.63	1263.60
220.85	1368.04
221.06	1230.83
221.28	1234.93
221.50	1273.84
221.72	1339.37
221.94	1200.11
222.16	1279.98
222.38	1331.18
222.60	1265.64
222.82	1241.07
223.03	1218.54
223.25	1265.64
223.47	1298.41
223.69	1228.78
223.91	1267.69
224.13	1349.61
224.35	1304.56
224.57	1275.88
224.78	1277.93
225.00	1288.17
225.22	1304.56
225.44	1239.02
225.66	1255.40
225.88	1198.06
226.10	1294.32
226.32	1279.98
226.53	1241.07
226.75	1277.93
226.97	1288.17
227.19	1222.64
227.41	1253.36
227.63	1269.74
227.85	1304.56
228.06	1202.16
228.28	1255.40
228.50	1251.31
228.72	1277.93
228.94	1263.60
229.16	1271.79
229.37	1310.70
229.59	1263.60
229.81	1318.89
230.03	1341.42
230.25	1255.40
230.47	1273.84
230.69	1290.22
230.90	1251.31
231.12	1273.84
231.34	1294.32
231.56	1275.88
231.78	1224.69
232.00	1212.40
232.21	1263.60
232.43	1206.25
232.65	1232.88
232.87	1308.65
233.09	1241.07
233.30	1273.84
233.52	1312.75
233.74	1355.76
233.96	1261.55
234.18	1355.76
234.40	1189.87
234.61	1247.21
234.83	1273.84
235.05	1239.02
235.27	1269.74
235.49	1296.36
235.70	1279.98
235.92	1259.50
236.14	1294.32
236.36	1322.99
236.58	1269.74
236.79	1212.40
237.01	1224.69
237.23	1265.64
237.45	1290.22
237.67	1226.73
237.88	1290.22
238.10	1234.93
238.32	1216.49
238.54	1386.47
238.76	1218.54
238.97	1286.12
239.19	1249.26
239.41	1228.78
239.63	1212.40
239.85	1263.60
240.06	1261.55
240.28	1327.08
240.50	1306.60
240.72	1255.40
240.93	1279.98
241.15	1228.78
241.37	1290.22
241.59	1312.75
241.81	1245.16
242.02	1265.64
242.24	1253.36
242.46	1243.12
242.68	1310.70
242.89	1335.28
243.11	1247.21
243.33	1271.79
243.55	1243.12
243.76	1271.79
243.98	1202.16
244.20	1259.50
244.42	1308.65
244.64	1239.02
244.85	1267.69
245.07	1247.21
245.29	1251.31
245.51	1247.21
245.72	1290.22
245.94	1279.98
246.16	1310.70
246.38	1247.21
246.59	1273.84
246.81	1239.02
247.03	1271.79
247.24	1265.64
247.46	1243.12
247.68	1243.12
247.90	1257.45
248.11	1269.74
248.33	1222.64
248.55	1294.32
248.77	1322.99
248.98	1269.74
249.20	1273.84
249.42	1222.64
249.64	1228.78
249.85	1292.27
250.07	1228.78
250.29	1265.64
250.50	1232.88
250.72	1247.21
250.94	1277.93
251.16	1335.28
251.37	1294.32
251.59	1292.27
251.81	1318.89
252.02	1222.64
252.24	1245.16
252.46	1273.84
252.68	1255.40
252.89	1200.11
253.11	1263.60
253.33	1243.12
253.54	1284.08
253.76	1239.02
253.98	1327.08
254.20	1263.60
254.41	1212.40
254.63	1322.99
254.85	1206.25
255.06	1245.16
255.28	1302.51
255.50	1269.74
255.71	1216.49
255.93	1322.99
256.15	1275.88
256.36	1228.78
256.58	1210.35
256.80	1241.07
257.02	1261.55
257.23	1265.64
257.45	1236.97
257.67	1239.02
257.88	1302.51
258.10	1241.07
258.32	1222.64
258.53	1318.89
258.75	1357.80
258.97	1312.75
259.18	1302.51
259.40	1263.60
259.62	1310.70
259.83	1339.37
260.05	1222.64
260.27	1290.22
260.48	1329.13
260.70	1335.28
260.92	1243.12
261.13	1298.41
261.35	1284.08
261.57	1304.56
261.78	1241.07
262.00	1232.88
262.22	1245.16
262.43	1214.45
262.65	1300.46
262.86	1316.84
263.08	1255.40
263.30	1267.69
263.51	1175.53
263.73	1234.93
263.95	1263.60
264.16	1316.84
264.38	1224.69
264.60	1249.26
264.81	1220.59
265.03	1279.98
265.25	1292.27
265.46	1269.74
265.68	1277.93
265.89	1249.26
266.11	1232.88
266.33	1271.79
266.54	1290.22
266.76	1294.32
266.98	1241.07
267.19	1286.12
267.41	1267.69
267.62	1259.50
267.84	1204.21
268.06	1267.69
268.27	1259.50
268.49	1298.41
268.70	1228.78
268.92	1284.08
269.14	1282.03
269.35	1277.93
269.57	1269.74
269.79	1306.60
270.00	1204.21
270.22	1349.61
270.43	1308.65
270.65	1394.67
270.87	1271.79
271.08	1271.79
271.30	1210.35
271.51	1320.94
271.73	1212.40
271.95	1306.60
272.16	1267.69
272.38	1265.64
272.59	1220.59
272.81	1251.31
273.02	1239.02
273.24	1261.55
273.46	1224.69
273.67	1245.16
273.89	1269.74
274.10	1314.80
274.32	1347.56
274.54	1325.04
274.75	1259.50
274.97	1292.27
275.18	1282.03
275.40	1245.16
275.61	1343.47
275.83	1232.88
276.05	1245.16
276.26	1302.51
276.48	1245.16
276.69	1314.80
276.91	1320.94
277.12	1196.01
277.34	1308.65
277.55	1222.64
277.77	1271.79
277.99	1288.17
278.20	1282.03
278.42	1255.40
278.63	1277.93
278.85	1296.36
279.06	1247.21
279.28	1208.30
279.49	1339.37
279.71	1282.03
279.93	1236.97
280.14	1269.74
280.36	1185.77
280.57	1271.79
280.79	1284.08
281.00	1271.79
281.22	1294.32
281.43	1220.59
281.65	1296.36
281.86	1294.32
282.08	1271.79
282.29	1333.23
282.51	1226.73
282.73	1249.26
282.94	1261.55
283.16	1216.49
283.37	1236.97
283.59	1232.88
283.80	1208.30
284.02	1292.27
284.23	1286.12
284.45	1269.74
284.66	1277.93
284.88	1202.16
285.09	1273.84
285.31	1277.93
285.52	1241.07
285.74	1243.12
285.95	1300.46
286.17	1261.55
286.38	1292.27
286.60	1255.40
286.81	1331.18
287.03	1273.84
287.24	1353.71
287.46	1312.75
287.67	1314.80
287.89	1257.45
288.10	1255.40
288.32	1255.40
288.53	1224.69
288.75	1314.80
288.96	1302.51
289.18	1288.17
289.39	1247.21
289.61	1245.16
289.82	1261.55
290.04	1302.51
290.25	1189.87
290.47	1177.58
290.68	1269.74
290.90	1226.73
291.11	1269.74
291.33	1265.64
291.54	1245.16
291.76	1312.75
291.97	1232.88
292.18	1210.35
292.40	1277.93
292.61	1200.11
292.83	1300.46
293.04	1273.84
293.26	1187.82
293.47	1261.55
293.69	1243.12
293.90	1312.75
294.12	1265.64
294.33	1277.93
294.55	1318.89
294.76	1282.03
294.97	1261.55
295.19	1271.79
295.40	1298.41
295.62	1290.22
295.83	1216.49
296.05	1257.45
296.26	1290.22
296.48	1245.16
296.69	1200.11
296.90	1220.59
297.12	1267.69
297.33	1302.51
297.55	1333.23
297.76	1284.08
297.98	1282.03
298.19	1249.26
298.41	1275.88
298.62	1228.78
298.83	1228.78
299.05	1302.51
299.26	1216.49
299.48	1263.60
299.69	1265.64
299.90	1263.60
300.12	1316.84
300.33	1157.10
300.55	1277.93
300.76	1267.69
300.98	1269.74
301.19	1298.41
301.40	1294.32
301.62	1284.08
301.83	1222.64
302.05	1331.18
302.26	1265.64
302.47	1251.31
302.69	1267.69
302.90	1206.25
303.12	1306.60
303.33	1247.21
303.54	1236.97
303.76	1343.47
303.97	1265.64
304.19	1306.60
304.40	1325.04
304.61	1228.78
304.83	1255.40
305.04	1189.87
305.26	1234.93
305.47	1257.45
305.68	1214.45
305.90	1239.02
306.11	1208.30
306.33	1292.27
306.54	1296.36
306.75	1239.02
306.97	1210.35
307.18	1247.21
307.39	1263.60
307.61	1222.64
307.82	1316.84
308.04	1208.30
308.25	1269.74
308.46	1286.12
308.68	1175.53
308.89	1265.64
309.10	1302.51
309.32	1202.16
309.53	1232.88
309.74	1314.80
309.96	1232.88
310.17	1224.69
310.39	1271.79
310.60	1261.55
310.81	1288.17
311.03	1208.30
311.24	1279.98
311.45	1296.36
311.67	1294.32
311.88	1331.18
312.09	1322.99
312.31	1241.07
312.52	1265.64
312.73	1296.36
312.95	1314.80
313.16	1314.80
313.37	1304.56
313.59	1273.84
313.80	1290.22
314.01	1222.64
314.23	1300.46
314.44	1290.22
314.65	1277.93
314.87	1208.30
315.08	1269.74
315.29	1290.22
315.51	1193.97
315.72	1320.94
315.93	1204.21
316.15	1243.12
316.36	1269.74
316.57	1232.88
316.79	1282.03
317.00	1273.84
317.21	1292.27
317.43	1296.36
317.64	1279.98
317.85	1331.18
318.07	1296.36
318.28	1265.64
318.49	1269.74
318.70	1337.32
318.92	1275.88
319.13	1284.08
319.34	1308.65
319.56	1316.84
319.77	1290.22
319.98	1290.22
320.20	1234.93
320.41	1245.16
320.62	1265.64
320.83	1327.08
321.05	1286.12
321.26	1251.31
321.47	1308.65
321.69	1255.40
321.90	1257.45
322.11	1212.40
322.32	1310.70
322.54	1259.50
322.75	1249.26
322.96	1322.99
323.18	1284.08
323.39	1277.93
323.60	1218.54
323.81	1271.79
324.03	1243.12
324.24	1298.41
324.45	1337.32
324.66	1304.56
324.88	1310.70
325.09	1357.80
325.30	1263.60
325.52	1245.16
325.73	1257.45
325.94	1286.12
326.15	1298.41
326.37	1249.26
326.58	1243.12
326.79	1312.75
327.00	1265.64
327.22	1286.12
327.43	1294.32
327.64	1187.82
327.85	1253.36
328.07	1261.55
328.28	1257.45
328.49	1269.74
328.70	1239.02
328.92	1200.11
329.13	1261.55
329.34	1245.16
329.55	1370.09
329.76	1327.08
329.98	1310.70
330.19	1306.60
330.40	1253.36
330.61	1288.17
330.83	1271.79
331.04	1290.22
331.25	1275.88
331.46	1241.07
331.68	1284.08
331.89	1310.70
332.10	1251.31
332.31	1327.08
332.52	1286.12
332.74	1259.50
332.95	1181.68
333.16	1265.64
333.37	1263.60
333.58	1335.28
333.80	1245.16
334.01	1208.30
334.22	1284.08
334.43	1230.83
334.64	1316.84
334.86	1277.93
335.07	1224.69
335.28	1300.46
335.49	1292.27
335.70	1290.22
335.92	1290.22
336.13	1257.45
336.34	1241.07
336.55	1255.40
336.76	1312.75
336.98	1220.59
337.19	1316.84
337.40	1331.18
337.61	1290.22
337.82	1265.64
338.04	1300.46
338.25	1253.36
338.46	1239.02
338.67	1292.27
338.88	1208.30
339.09	1232.88
339.31	1167.34
339.52	1288.17
339.73	1308.65
339.94	1175.53
340.15	1353.71
340.36	1282.03
340.58	1261.55
340.79	1306.60
341.00	1212.40
341.21	1331.18
341.42	1263.60
341.63	1187.82
341.85	1331.18
342.06	1318.89
342.27	1316.84
342.48	1261.55
342.69	1224.69
342.90	1273.84
343.12	1228.78
343.33	1341.42
343.54	1245.16
343.75	1263.60
343.96	1251.31
344.17	1300.46
344.38	1302.51
344.60	1241.07
344.81	1343.47
345.02	1294.32
345.23	1277.93
345.44	1208.30
345.65	1251.31
345.86	1245.16
346.07	1300.46
346.29	1222.64
346.50	1243.12
346.71	1294.32
346.92	1245.16
347.13	1298.41
347.34	1269.74
347.55	1265.64
347.76	1228.78
347.98	1265.64
348.19	1294.32
348.40	1222.64
348.61	1251.31
348.82	1249.26
349.03	1267.69
349.24	1292.27
349.45	1228.78
349.66	1220.59
349.88	1249.26
350.09	1210.35
350.30	1187.82
350.51	1249.26
350.72	1239.02
350.93	1245.16
351.14	1241.07
351.35	1314.80
351.56	1249.26
351.77	1277.93
351.99	1288.17
352.20	1206.25
352.41	1279.98
352.62	1327.08
352.83	1275.88
353.04	1279.98
353.25	1183.73
353.46	1259.50
353.67	1263.60
353.88	1322.99
354.09	1169.39
354.30	1232.88
354.52	1243.12
354.73	1269.74
354.94	1200.11
355.15	1300.46
355.36	1239.02
355.57	1191.92
355.78	1239.02
355.99	1322.99
356.20	1253.36
356.41	1271.79
356.62	1257.45
356.83	1200.11
357.04	1255.40
357.25	1300.46
357.46	1265.64
357.68	1191.92
357.89	1263.60
358.10	1216.49
358.31	1282.03
358.52	1208.30
358.73	1277.93
358.94	1230.83
359.15	1241.07
359.36	1314.80
359.57	1239.02
359.78	1286.12
359.99	1230.83
360.20	1292.27
360.41	1255.40
360.62	1337.32
360.83	1308.65
361.04	1329.13
361.25	1239.02
361.46	1273.84
361.67	1306.60
361.88	1282.03
362.09	1224.69
362.30	1249.26
362.51	1300.46
362.72	1277.93
362.93	1271.79
363.14	1214.45
363.35	1290.22
363.56	1286.12
363.78	1249.26
363.99	1263.60
364.20	1257.45
364.41	1241.07
364.62	1290.22
364.83	1320.94
365.04	1224.69
365.25	1267.69
365.46	1292.27
365.67	1255.40
365.88	1259.50
366.09	1306.60
366.30	1222.64
366.51	1284.08
366.72	1265.64
366.93	1296.36
367.14	1347.56
367.35	1263.60
367.56	1243.12
367.77	1259.50
367.98	1249.26
368.18	1222.64
368.39	1308.65
368.60	1320.94
368.81	1314.80
369.02	1292.27
369.23	1273.84
369.44	1253.36
369.65	1253.36
369.86	1351.66
370.07	1232.88
370.28	1306.60
370.49	1298.41
370.70	1193.97
370.91	1273.84
371.12	1302.51
371.33	1245.16
371.54	1310.70
371.75	1245.16
371.96	1236.97
372.17	1275.88
372.38	1230.83
372.59	1314.80
372.80	1232.88
373.01	1226.73
373.22	1284.08
373.43	1292.27
373.64	1220.59
373.85	1236.97
374.06	1310.70
374.26	1277.93
374.47	1304.56
374.68	1314.80
374.89	1325.04
375.10	1300.46
375.31	1298.41
375.52	1247.21
375.73	1337.32
375.94	1308.65
376.15	1247.21
376.36	1249.26
376.57	1230.83
376.78	1222.64
376.99	1247.21
377.20	1279.98
377.40	1208.30
377.61	1265.64
377.82	1224.69
378.03	1257.45
378.24	1271.79
378.45	1267.69
378.66	1298.41
378.87	1220.59
379.08	1292.27
379.29	1290.22
379.50	1273.84
379.71	1261.55
379.91	1286.12
380.12	1345.52
380.33	1216.49
380.54	1243.12
380.75	1239.02
380.96	1241.07
381.17	1257.45
381.38	1263.60
381.59	1220.59
381.80	1304.56
382.00	1329.13
382.21	1298.41
382.42	1247.21
382.63	1300.46
382.84	1218.54
383.05	1257.45
383.26	1257.45
383.47	1222.64
383.68	1247.21
383.88	1247.21
384.09	1275.88
384.30	1257.45
384.51	1204.21
384.72	1306.60
384.93	1282.03
385.14	1218.54
385.35	1335.28
385.55	1243.12
385.76	1214.45
385.97	1271.79
386.18	1196.01
386.39	1265.64
386.60	1259.50
386.81	1245.16
387.02	1249.26
387.22	1300.46
387.43	1241.07
387.64	1282.03
387.85	1290.22
388.06	1269.74
388.27	1236.97
388.48	1232.88
388.68	1300.46
388.89	1228.78
389.10	1259.50
389.31	1269.74
389.52	1275.88
389.73	1366.00
389.93	1290.22
390.14	1273.84
390.35	1296.36
390.56	1259.50
390.77	1220.59
390.98	1198.06
391.18	1284.08
391.39	1284.08
391.60	1331.18
391.81	1288.17
392.02	1255.40
392.23	1261.55
392.43	1245.16
392.64	1310.70
392.85	1265.64
393.06	1279.98
393.27	1273.84
393.47	1263.60
393.68	1304.56
393.89	1298.41
394.10	1245.16
394.31	1265.64
394.52	1265.64
394.72	1302.51
394.93	1243.12
395.14	1259.50
395.35	1241.07
395.56	1212.40
395.76	1255.40
395.97	1279.98
396.18	1253.36
396.39	1339.37
396.60	1269.74
396.80	1271.79
397.01	1277.93
397.22	1288.17
397.43	1273.84
397.64	1177.58
397.84	1234.93
398.05	1210.35
398.26	1273.84
398.47	1282.03
398.67	1273.84
398.88	1284.08
399.09	1191.92
399.30	1255.40
399.51	1318.89
399.71	1253.36
399.92	1288.17
400.13	1236.97
400.34	1218.54
400.54	1282.03
400.75	1251.31
400.96	1253.36
401.17	1325.04
401.37	1245.16
401.58	1302.51
401.79	1228.78
402.00	1247.21
402.21	1292.27
402.41	1302.51
402.62	1241.07
402.83	1263.60
403.04	1222.64
403.24	1241.07
403.45	1310.70
403.66	1300.46
403.87	1257.45
404.07	1216.49
404.28	1333.23
404.49	1218.54
404.70	1325.04
404.90	1286.12
405.11	1290.22
405.32	1368.04
405.52	1191.92
405.73	1239.02
405.94	1191.92
406.15	1349.61
406.35	1261.55
406.56	1327.08
406.77	1255.40
406.98	1310.70
407.18	1288.17
407.39	1253.36
407.60	1216.49
407.80	1277.93
408.01	1339.37
408.22	1304.56
408.43	1241.07
408.63	1210.35
408.84	1255.40
409.05	1329.13
409.25	1245.16
409.46	1310.70
409.67	1333.23
409.88	1284.08
410.08	1294.32
410.29	1294.32
410.50	1282.03
410.70	1263.60
410.91	1208.30
411.12	1243.12
411.32	1290.22
411.53	1275.88
411.74	1245.16
411.95	1298.41
412.15	1267.69
412.36	1249.26
412.57	1247.21
412.77	1314.80
412.98	1322.99
413.19	1232.88
413.39	1247.21
413.60	1282.03
413.81	1206.25
414.01	1220.59
414.22	1253.36
414.43	1355.76
414.63	1245.16
414.84	1308.65
415.05	1183.73
415.25	1253.36
415.46	1292.27
415.67	1241.07
415.87	1171.44
416.08	1273.84
416.29	1208.30
416.49	1277.93
416.70	1288.17
416.91	1239.02
417.11	1308.65
417.32	1212.40
417.53	1335.28
417.73	1282.03
417.94	1267.69
418.15	1331.18
418.35	1230.83
418.56	1312.75
418.77	1179.63
418.97	1275.88
419.18	1284.08
419.38	1288.17
419.59	1263.60
419.80	1269.74
420.00	1273.84
420.21	1310.70
420.42	1267.69
420.62	1253.36
420.83	1226.73
421.04	1245.16
421.24	1232.88
421.45	1288.17
421.65	1247.21
421.86	1224.69
422.07	1239.02
422.27	1312.75
422.48	1279.98
422.69	1279.98
422.89	1245.16
423.10	1259.50
423.30	1327.08
423.51	1273.84
423.72	1282.03
423.92	1247.21
424.13	1212.40
424.33	1314.80
424.54	1273.84
424.75	1298.41
424.95	1318.89
425.16	1325.04
425.36	1257.45
425.57	1296.36
425.78	1241.07
425.98	1200.11
426.19	1292.27
426.39	1185.77
426.60	1304.56
426.81	1282.03
427.01	1302.51
427.22	1247.21
427.42	1161.20
427.63	1359.85
427.83	1243.12
428.04	1261.55
428.25	1253.36
428.45	1234.93
428.66	1292.27
428.86	1255.40
429.07	1269.74
429.28	1290.22
429.48	1318.89
429.69	1234.93
429.89	1318.89
430.10	1329.13
430.30	1239.02
430.51	1241.07
430.71	1322.99
430.92	1253.36
431.13	1224.69
431.33	1255.40
431.54	1269.74
431.74	1228.78
431.95	1202.16
432.15	1269.74
432.36	1282.03
432.56	1275.88
432.77	1210.35
432.98	1263.60
433.18	1236.97
433.39	1249.26
433.59	1234.93
433.80	1259.50
434.00	1314.80
434.21	1210.35
434.41	1271.79
434.62	1279.98
434.82	1189.87
435.03	1247.21
435.23	1214.45
435.44	1214.45
435.64	1261.55
435.85	1290.22
436.06	1357.80
436.26	1245.16
436.47	1290.22
436.67	1277.93
436.88	1339.37
437.08	1251.31
437.29	1249.26
437.49	1296.36
437.70	1247.21
437.90	1304.56
438.11	1335.28
438.31	1257.45
438.52	1312.75
438.72	1355.76
438.93	1318.89
439.13	1275.88
439.34	1286.12
439.54	1255.40
439.75	1298.41
439.95	1214.45
440.16	1310.70
440.36	1335.28
440.57	1245.16
440.77	1339.37
440.98	1263.60
441.18	1284.08
441.39	1263.60
441.59	1329.13
441.80	1222.64
442.00	1226.73
442.21	1296.36
442.41	1234.93
442.62	1232.88
442.82	1265.64
443.02	1216.49
443.23	1249.26
443.43	1263.60
443.64	1277.93
443.84	1255.40
444.05	1310.70
444.25	1302.51
444.46	1329.13
444.66	1286.12
444.87	1380.33
445.07	1298.41
445.28	1277.93
445.48	1265.64
445.69	1171.44
445.89	1296.36
446.09	1267.69
446.30	1335.28
446.50	1243.12
446.71	1316.84
446.91	1290.22
447.12	1271.79
447.32	1312.75
447.53	1304.56
447.73	1304.56
447.93	1316.84
448.14	1239.02
448.34	1251.31
448.55	1275.88
448.75	1273.84
448.96	1345.52
449.16	1271.79
449.36	1288.17
449.57	1249.26
449.77	1382.38
449.98	1312.75
450.18	1263.60
450.39	1206.25
450.59	1161.20
450.79	1296.36
451.00	1331.18
451.20	1361.90
451.41	1292.27
451.61	1306.60
451.81	1300.46
452.02	1179.63
452.22	1292.27
452.43	1345.52
452.63	1345.52
