SpectraSuite Data File
++++++++++++++++++++++++++++++++++++
Date: Sun Apr 03 19:55:38 CEST 2016
User: root
Dark Spectrum Present: No
Reference Spectrum Present: No
Number of Sampled Component Spectra: 1
Spectrometers: USB4C02835
Integration Time (usec): 10000 (USB4C02835)
Spectra Averaged: 1 (USB4C02835)
Boxcar Smoothing: 0 (USB4C02835)
Correct for Electrical Dark: No (USB4C02835)
Strobe/Lamp Enabled: No (USB4C02835)
Correct for Detector Non-linearity: No (USB4C02835)
Correct for Stray Light: No (USB4C02835)
Number of Pixels in Processed Spectrum: 3648
>>>>>Begin Processed Spectral Data<<<<<
177.47	1320.94
177.69	1320.94
177.91	1320.94
178.13	1310.70
178.36	1255.40
178.58	1183.73
178.80	1298.41
179.02	1247.21
179.24	1277.93
179.46	1267.69
179.68	1269.74
179.90	1206.25
180.13	1314.80
180.35	1335.28
180.57	1284.08
180.79	1298.41
181.01	1206.25
181.23	1284.08
181.45	1304.56
181.67	1249.26
181.90	1263.60
182.12	1167.34
182.34	1308.65
182.56	1292.27
182.78	1261.55
183.00	1269.74
183.22	1214.45
183.44	1333.23
183.66	1277.93
183.89	1239.02
184.11	1261.55
184.33	1230.83
184.55	1265.64
184.77	1275.88
184.99	1290.22
185.21	1282.03
185.43	1261.55
185.65	1236.97
185.87	1282.03
186.10	1300.46
186.32	1333.23
186.54	1232.88
186.76	1222.64
186.98	1228.78
187.20	1314.80
187.42	1290.22
187.64	1300.46
187.86	1316.84
188.08	1234.93
188.30	1243.12
188.52	1212.40
188.75	1239.02
188.97	1271.79
189.19	1261.55
189.41	1275.88
189.63	1218.54
189.85	1222.64
190.07	1302.51
190.29	1292.27
190.51	1249.26
190.73	1206.25
190.95	1232.88
191.17	1257.45
191.39	1226.73
191.61	1198.06
191.84	1273.84
192.06	1337.32
192.28	1253.36
192.50	1251.31
192.72	1257.45
192.94	1253.36
193.16	1267.69
193.38	1243.12
193.60	1275.88
193.82	1232.88
194.04	1282.03
194.26	1339.37
194.48	1265.64
194.70	1269.74
194.92	1228.78
195.14	1322.99
195.36	1247.21
195.58	1310.70
195.80	1318.89
196.02	1314.80
196.24	1275.88
196.46	1275.88
196.69	1251.31
196.91	1318.89
197.13	1245.16
197.35	1355.76
197.57	1265.64
197.79	1232.88
198.01	1286.12
198.23	1306.60
198.45	1210.35
198.67	1298.41
198.89	1230.83
199.11	1329.13
199.33	1220.59
199.55	1241.07
199.77	1333.23
199.99	1288.17
200.21	1277.93
200.43	1290.22
200.65	1288.17
200.87	1263.60
201.09	1167.34
201.31	1282.03
201.53	1247.21
201.75	1271.79
201.97	1265.64
202.19	1263.60
202.41	1298.41
202.63	1298.41
202.85	1249.26
203.07	1277.93
203.29	1230.83
203.51	1236.97
203.73	1273.84
203.95	1320.94
204.17	1290.22
204.39	1298.41
204.61	1249.26
204.83	1325.04
205.05	1245.16
205.27	1234.93
205.49	1300.46
205.71	1263.60
205.93	1228.78
206.15	1228.78
206.37	1222.64
206.59	1337.32
206.81	1290.22
207.03	1241.07
207.25	1279.98
207.47	1282.03
207.69	1232.88
207.91	1273.84
208.13	1251.31
208.34	1218.54
208.56	1333.23
208.78	1282.03
209.00	1257.45
209.22	1232.88
209.44	1277.93
209.66	1257.45
209.88	1259.50
210.10	1294.32
210.32	1251.31
210.54	1361.90
210.76	1249.26
210.98	1343.47
211.20	1257.45
211.42	1343.47
211.64	1271.79
211.86	1230.83
212.08	1267.69
212.30	1314.80
212.52	1173.49
212.74	1273.84
212.96	1232.88
213.17	1316.84
213.39	1267.69
213.61	1239.02
213.83	1279.98
214.05	1208.30
214.27	1286.12
214.49	1267.69
214.71	1298.41
214.93	1241.07
215.15	1279.98
215.37	1269.74
215.59	1210.35
215.81	1261.55
216.03	1279.98
216.24	1304.56
216.46	1269.74
216.68	1253.36
216.90	1288.17
217.12	1253.36
217.34	1253.36
217.56	1312.75
217.78	1239.02
218.00	1296.36
218.22	1290.22
218.44	1224.69
218.66	1243.12
218.87	1269.74
219.09	1267.69
219.31	1265.64
219.53	1290.22
219.75	1241.07
219.97	1222.64
220.19	1333.23
220.41	1331.18
220.63	1298.41
220.85	1284.08
221.06	1261.55
221.28	1300.46
221.50	1298.41
221.72	1267.69
221.94	1298.41
222.16	1286.12
222.38	1232.88
222.60	1247.21
222.82	1302.51
223.03	1269.74
223.25	1398.76
223.47	1210.35
223.69	1282.03
223.91	1193.97
224.13	1251.31
224.35	1267.69
224.57	1300.46
224.78	1271.79
225.00	1247.21
225.22	1269.74
225.44	1222.64
225.66	1372.14
225.88	1239.02
226.10	1226.73
226.32	1263.60
226.53	1298.41
226.75	1296.36
226.97	1265.64
227.19	1294.32
227.41	1243.12
227.63	1294.32
227.85	1196.01
228.06	1294.32
228.28	1269.74
228.50	1241.07
228.72	1302.51
228.94	1282.03
229.16	1263.60
229.37	1220.59
229.59	1267.69
229.81	1290.22
230.03	1308.65
230.25	1349.61
230.47	1249.26
230.69	1296.36
230.90	1232.88
231.12	1226.73
231.34	1290.22
231.56	1349.61
231.78	1226.73
232.00	1273.84
232.21	1279.98
232.43	1249.26
232.65	1263.60
232.87	1304.56
233.09	1247.21
233.30	1224.69
233.52	1204.21
233.74	1277.93
233.96	1224.69
234.18	1282.03
234.40	1288.17
234.61	1288.17
234.83	1288.17
235.05	1304.56
235.27	1400.81
235.49	1300.46
235.70	1245.16
235.92	1294.32
236.14	1275.88
236.36	1322.99
236.58	1226.73
236.79	1247.21
237.01	1259.50
237.23	1296.36
237.45	1269.74
237.67	1296.36
237.88	1306.60
238.10	1241.07
238.32	1277.93
238.54	1243.12
238.76	1208.30
238.97	1253.36
239.19	1253.36
239.41	1296.36
239.63	1310.70
239.85	1298.41
240.06	1206.25
240.28	1226.73
240.50	1234.93
240.72	1279.98
240.93	1310.70
241.15	1269.74
241.37	1351.66
241.59	1236.97
241.81	1226.73
242.02	1361.90
242.24	1222.64
242.46	1255.40
242.68	1302.51
242.89	1320.94
243.11	1267.69
243.33	1224.69
243.55	1265.64
243.76	1277.93
243.98	1288.17
244.20	1251.31
244.42	1232.88
244.64	1329.13
244.85	1267.69
245.07	1290.22
245.29	1224.69
245.51	1327.08
245.72	1300.46
245.94	1347.56
246.16	1265.64
246.38	1318.89
246.59	1284.08
246.81	1273.84
247.03	1228.78
247.24	1273.84
247.46	1257.45
247.68	1247.21
247.90	1239.02
248.11	1329.13
248.33	1232.88
248.55	1249.26
248.77	1359.85
248.98	1222.64
249.20	1230.83
249.42	1290.22
249.64	1253.36
249.85	1282.03
250.07	1265.64
250.29	1222.64
250.50	1191.92
250.72	1202.16
250.94	1236.97
251.16	1271.79
251.37	1255.40
251.59	1249.26
251.81	1298.41
252.02	1249.26
252.24	1257.45
252.46	1267.69
252.68	1288.17
252.89	1253.36
253.11	1284.08
253.33	1316.84
253.54	1288.17
253.76	1282.03
253.98	1202.16
254.20	1273.84
254.41	1279.98
254.63	1337.32
254.85	1232.88
255.06	1378.28
255.28	1265.64
255.50	1261.55
255.71	1333.23
255.93	1261.55
256.15	1263.60
256.36	1298.41
256.58	1277.93
256.80	1286.12
257.02	1220.59
257.23	1224.69
257.45	1265.64
257.67	1275.88
257.88	1292.27
258.10	1273.84
258.32	1234.93
258.53	1183.73
258.75	1275.88
258.97	1271.79
259.18	1259.50
259.40	1279.98
259.62	1294.32
259.83	1286.12
260.05	1380.33
260.27	1306.60
260.48	1279.98
260.70	1279.98
260.92	1204.21
261.13	1247.21
261.35	1265.64
261.57	1249.26
261.78	1234.93
262.00	1173.49
262.22	1351.66
262.43	1320.94
262.65	1224.69
262.86	1269.74
263.08	1279.98
263.30	1251.31
263.51	1292.27
263.73	1230.83
263.95	1263.60
264.16	1331.18
264.38	1267.69
264.60	1243.12
264.81	1247.21
265.03	1245.16
265.25	1259.50
265.46	1294.32
265.68	1290.22
265.89	1265.64
266.11	1253.36
266.33	1322.99
266.54	1265.64
266.76	1269.74
266.98	1279.98
267.19	1286.12
267.41	1271.79
267.62	1331.18
267.84	1150.96
268.06	1271.79
268.27	1224.69
268.49	1222.64
268.70	1273.84
268.92	1318.89
269.14	1239.02
269.35	1275.88
269.57	1277.93
269.79	1294.32
270.00	1251.31
270.22	1335.28
270.43	1183.73
270.65	1282.03
270.87	1208.30
271.08	1265.64
271.30	1212.40
271.51	1245.16
271.73	1232.88
271.95	1296.36
272.16	1216.49
272.38	1241.07
272.59	1253.36
272.81	1232.88
273.02	1228.78
273.24	1206.25
273.46	1269.74
273.67	1345.52
273.89	1269.74
274.10	1271.79
274.32	1318.89
274.54	1298.41
274.75	1275.88
274.97	1243.12
275.18	1318.89
275.40	1241.07
275.61	1263.60
275.83	1257.45
276.05	1200.11
276.26	1253.36
276.48	1224.69
276.69	1259.50
276.91	1241.07
277.12	1290.22
277.34	1200.11
277.55	1296.36
277.77	1177.58
277.99	1257.45
278.20	1284.08
278.42	1255.40
278.63	1275.88
278.85	1222.64
279.06	1245.16
279.28	1282.03
279.49	1298.41
279.71	1282.03
279.93	1269.74
280.14	1339.37
280.36	1288.17
280.57	1345.52
280.79	1306.60
281.00	1290.22
281.22	1230.83
281.43	1263.60
281.65	1271.79
281.86	1304.56
282.08	1271.79
282.29	1314.80
282.51	1222.64
282.73	1351.66
282.94	1251.31
283.16	1282.03
283.37	1218.54
283.59	1275.88
283.80	1284.08
284.02	1230.83
284.23	1179.63
284.45	1198.06
284.66	1230.83
284.88	1239.02
285.09	1230.83
285.31	1210.35
285.52	1239.02
285.74	1269.74
285.95	1255.40
286.17	1282.03
286.38	1271.79
286.60	1247.21
286.81	1267.69
287.03	1282.03
287.24	1296.36
287.46	1286.12
287.67	1267.69
287.89	1232.88
288.10	1271.79
288.32	1257.45
288.53	1243.12
288.75	1257.45
288.96	1239.02
289.18	1253.36
289.39	1286.12
289.61	1296.36
289.82	1249.26
290.04	1318.89
290.25	1275.88
290.47	1239.02
290.68	1261.55
290.90	1306.60
291.11	1286.12
291.33	1314.80
291.54	1189.87
291.76	1220.59
291.97	1312.75
292.18	1308.65
292.40	1327.08
292.61	1302.51
292.83	1239.02
293.04	1257.45
293.26	1230.83
293.47	1275.88
293.69	1243.12
293.90	1296.36
294.12	1265.64
294.33	1228.78
294.55	1193.97
294.76	1282.03
294.97	1327.08
295.19	1269.74
295.40	1206.25
295.62	1253.36
295.83	1232.88
296.05	1239.02
296.26	1304.56
296.48	1241.07
296.69	1263.60
296.90	1267.69
297.12	1245.16
297.33	1275.88
297.55	1370.09
297.76	1257.45
297.98	1206.25
298.19	1273.84
298.41	1253.36
298.62	1224.69
298.83	1271.79
299.05	1271.79
299.26	1245.16
299.48	1243.12
299.69	1292.27
299.90	1257.45
300.12	1202.16
300.33	1241.07
300.55	1263.60
300.76	1241.07
300.98	1253.36
301.19	1271.79
301.40	1249.26
301.62	1249.26
301.83	1329.13
302.05	1273.84
302.26	1241.07
302.47	1214.45
302.69	1277.93
302.90	1200.11
303.12	1318.89
303.33	1271.79
303.54	1224.69
303.76	1282.03
303.97	1308.65
304.19	1314.80
304.40	1243.12
304.61	1241.07
304.83	1224.69
305.04	1337.32
305.26	1296.36
305.47	1232.88
305.68	1314.80
305.90	1218.54
306.11	1308.65
306.33	1353.71
306.54	1191.92
306.75	1273.84
306.97	1236.97
307.18	1300.46
307.39	1296.36
307.61	1314.80
307.82	1284.08
308.04	1310.70
308.25	1173.49
308.46	1273.84
308.68	1239.02
308.89	1292.27
309.10	1220.59
309.32	1318.89
309.53	1261.55
309.74	1269.74
309.96	1312.75
310.17	1265.64
310.39	1333.23
310.60	1300.46
310.81	1249.26
311.03	1290.22
311.24	1263.60
311.45	1259.50
311.67	1222.64
311.88	1230.83
312.09	1263.60
312.31	1288.17
312.52	1220.59
312.73	1247.21
312.95	1312.75
313.16	1308.65
313.37	1327.08
313.59	1265.64
313.80	1333.23
314.01	1226.73
314.23	1265.64
314.44	1279.98
314.65	1312.75
314.87	1277.93
315.08	1275.88
315.29	1279.98
315.51	1265.64
315.72	1230.83
315.93	1298.41
316.15	1337.32
316.36	1273.84
316.57	1300.46
316.79	1282.03
317.00	1265.64
317.21	1327.08
317.43	1304.56
317.64	1316.84
317.85	1261.55
318.07	1224.69
318.28	1322.99
318.49	1239.02
318.70	1187.82
318.92	1259.50
319.13	1265.64
319.34	1169.39
319.56	1273.84
319.77	1243.12
319.98	1292.27
320.20	1181.68
320.41	1218.54
320.62	1273.84
320.83	1247.21
321.05	1312.75
321.26	1288.17
321.47	1263.60
321.69	1337.32
321.90	1214.45
322.11	1245.16
322.32	1333.23
322.54	1257.45
322.75	1230.83
322.96	1277.93
323.18	1265.64
323.39	1189.87
323.60	1206.25
323.81	1267.69
324.03	1239.02
324.24	1261.55
324.45	1310.70
324.66	1198.06
324.88	1249.26
325.09	1312.75
325.30	1255.40
325.52	1210.35
325.73	1288.17
325.94	1228.78
326.15	1271.79
326.37	1298.41
326.58	1261.55
326.79	1222.64
327.00	1275.88
327.22	1322.99
327.43	1243.12
327.64	1288.17
327.85	1200.11
328.07	1255.40
328.28	1257.45
328.49	1257.45
328.70	1312.75
328.92	1314.80
329.13	1216.49
329.34	1320.94
329.55	1288.17
329.76	1234.93
329.98	1236.97
330.19	1189.87
330.40	1232.88
330.61	1327.08
330.83	1314.80
331.04	1265.64
331.25	1277.93
331.46	1277.93
331.68	1261.55
331.89	1290.22
332.10	1267.69
332.31	1308.65
332.52	1320.94
332.74	1228.78
332.95	1279.98
333.16	1241.07
333.37	1296.36
333.58	1232.88
333.80	1257.45
334.01	1308.65
334.22	1337.32
334.43	1241.07
334.64	1282.03
334.86	1298.41
335.07	1284.08
335.28	1247.21
335.49	1222.64
335.70	1277.93
335.92	1318.89
336.13	1271.79
336.34	1259.50
336.55	1245.16
336.76	1245.16
336.98	1265.64
337.19	1314.80
337.40	1234.93
337.61	1322.99
337.82	1298.41
338.04	1228.78
338.25	1241.07
338.46	1249.26
338.67	1273.84
338.88	1265.64
339.09	1298.41
339.31	1220.59
339.52	1302.51
339.73	1267.69
339.94	1300.46
340.15	1228.78
340.36	1298.41
340.58	1316.84
340.79	1259.50
341.00	1241.07
341.21	1271.79
341.42	1200.11
341.63	1241.07
341.85	1241.07
342.06	1263.60
342.27	1337.32
342.48	1298.41
342.69	1282.03
342.90	1259.50
343.12	1232.88
343.33	1255.40
343.54	1275.88
343.75	1298.41
343.96	1277.93
344.17	1269.74
344.38	1193.97
344.60	1249.26
344.81	1196.01
345.02	1259.50
345.23	1286.12
345.44	1318.89
345.65	1241.07
345.86	1232.88
346.07	1298.41
346.29	1200.11
346.50	1290.22
346.71	1261.55
346.92	1322.99
347.13	1327.08
347.34	1243.12
347.55	1288.17
347.76	1265.64
347.98	1232.88
348.19	1200.11
348.40	1282.03
348.61	1210.35
348.82	1282.03
349.03	1224.69
349.24	1273.84
349.45	1271.79
349.66	1228.78
349.88	1251.31
350.09	1241.07
350.30	1189.87
350.51	1224.69
350.72	1222.64
350.93	1216.49
351.14	1253.36
351.35	1245.16
351.56	1269.74
351.77	1312.75
351.99	1232.88
352.20	1302.51
352.41	1249.26
352.62	1304.56
352.83	1273.84
353.04	1239.02
353.25	1261.55
353.46	1210.35
353.67	1265.64
353.88	1253.36
354.09	1247.21
354.30	1263.60
354.52	1259.50
354.73	1249.26
354.94	1255.40
355.15	1263.60
355.36	1294.32
355.57	1314.80
355.78	1232.88
355.99	1216.49
356.20	1251.31
356.41	1243.12
356.62	1257.45
356.83	1269.74
357.04	1241.07
357.25	1247.21
357.46	1234.93
357.68	1239.02
357.89	1298.41
358.10	1275.88
358.31	1259.50
358.52	1298.41
358.73	1269.74
358.94	1249.26
359.15	1236.97
359.36	1286.12
359.57	1236.97
359.78	1241.07
359.99	1275.88
360.20	1286.12
360.41	1312.75
360.62	1292.27
360.83	1372.14
361.04	1239.02
361.25	1263.60
361.46	1232.88
361.67	1232.88
361.88	1288.17
362.09	1212.40
362.30	1343.47
362.51	1218.54
362.72	1232.88
362.93	1320.94
363.14	1288.17
363.35	1265.64
363.56	1243.12
363.78	1286.12
363.99	1257.45
364.20	1290.22
364.41	1263.60
364.62	1306.60
364.83	1210.35
365.04	1255.40
365.25	1232.88
365.46	1304.56
365.67	1327.08
365.88	1273.84
366.09	1279.98
366.30	1212.40
366.51	1337.32
366.72	1222.64
366.93	1198.06
367.14	1286.12
367.35	1249.26
367.56	1277.93
367.77	1222.64
367.98	1243.12
368.18	1275.88
368.39	1318.89
368.60	1288.17
368.81	1239.02
369.02	1202.16
369.23	1308.65
369.44	1279.98
369.65	1290.22
369.86	1251.31
370.07	1312.75
370.28	1249.26
370.49	1273.84
370.70	1304.56
370.91	1253.36
371.12	1247.21
371.33	1183.73
371.54	1284.08
371.75	1224.69
371.96	1228.78
372.17	1325.04
372.38	1304.56
372.59	1224.69
372.80	1282.03
373.01	1320.94
373.22	1322.99
373.43	1193.97
373.64	1255.40
373.85	1204.21
374.06	1271.79
374.26	1251.31
374.47	1335.28
374.68	1259.50
374.89	1204.21
375.10	1298.41
375.31	1269.74
375.52	1322.99
375.73	1210.35
375.94	1343.47
376.15	1243.12
376.36	1288.17
376.57	1253.36
376.78	1228.78
376.99	1316.84
377.20	1286.12
377.40	1302.51
377.61	1265.64
377.82	1292.27
378.03	1245.16
378.24	1206.25
378.45	1198.06
378.66	1331.18
378.87	1232.88
379.08	1286.12
379.29	1284.08
379.50	1277.93
379.71	1241.07
379.91	1265.64
380.12	1234.93
380.33	1241.07
380.54	1267.69
380.75	1228.78
380.96	1292.27
381.17	1277.93
381.38	1302.51
381.59	1220.59
381.80	1208.30
382.00	1269.74
382.21	1239.02
382.42	1224.69
382.63	1316.84
382.84	1230.83
383.05	1269.74
383.26	1183.73
383.47	1286.12
383.68	1286.12
383.88	1273.84
384.09	1327.08
384.30	1187.82
384.51	1212.40
384.72	1267.69
384.93	1284.08
385.14	1245.16
385.35	1224.69
385.55	1245.16
385.76	1279.98
385.97	1247.21
386.18	1269.74
386.39	1212.40
386.60	1331.18
386.81	1191.92
387.02	1331.18
387.22	1282.03
387.43	1331.18
387.64	1259.50
387.85	1241.07
388.06	1214.45
388.27	1296.36
388.48	1232.88
388.68	1267.69
388.89	1249.26
389.10	1273.84
389.31	1253.36
389.52	1286.12
389.73	1296.36
389.93	1275.88
390.14	1245.16
390.35	1255.40
390.56	1200.11
390.77	1222.64
390.98	1196.01
391.18	1253.36
391.39	1288.17
391.60	1300.46
391.81	1322.99
392.02	1255.40
392.23	1275.88
392.43	1327.08
392.64	1290.22
392.85	1236.97
393.06	1337.32
393.27	1259.50
393.47	1290.22
393.68	1226.73
393.89	1292.27
394.10	1245.16
394.31	1243.12
394.52	1288.17
394.72	1222.64
394.93	1241.07
395.14	1230.83
395.35	1257.45
395.56	1284.08
395.76	1308.65
395.97	1282.03
396.18	1331.18
396.39	1294.32
396.60	1212.40
396.80	1245.16
397.01	1196.01
397.22	1249.26
397.43	1325.04
397.64	1292.27
397.84	1257.45
398.05	1243.12
398.26	1318.89
398.47	1333.23
398.67	1267.69
398.88	1273.84
399.09	1216.49
399.30	1322.99
399.51	1247.21
399.71	1196.01
399.92	1222.64
400.13	1339.37
400.34	1224.69
400.54	1339.37
400.75	1284.08
400.96	1267.69
401.17	1351.66
401.37	1234.93
401.58	1257.45
401.79	1290.22
402.00	1259.50
402.21	1251.31
402.41	1193.97
402.62	1249.26
402.83	1247.21
403.04	1243.12
403.24	1234.93
403.45	1200.11
403.66	1296.36
403.87	1224.69
404.07	1288.17
404.28	1179.63
404.49	1220.59
404.70	1273.84
404.90	1267.69
405.11	1273.84
405.32	1216.49
405.52	1275.88
405.73	1255.40
405.94	1191.92
406.15	1257.45
406.35	1257.45
406.56	1288.17
406.77	1239.02
406.98	1259.50
407.18	1224.69
407.39	1263.60
407.60	1218.54
407.80	1189.87
408.01	1267.69
408.22	1265.64
408.43	1257.45
408.63	1253.36
408.84	1224.69
409.05	1222.64
409.25	1206.25
409.46	1222.64
409.67	1304.56
409.88	1314.80
410.08	1312.75
410.29	1157.10
410.50	1292.27
410.70	1214.45
410.91	1202.16
411.12	1302.51
411.32	1265.64
411.53	1314.80
411.74	1292.27
411.95	1279.98
412.15	1265.64
412.36	1239.02
412.57	1251.31
412.77	1214.45
412.98	1247.21
413.19	1322.99
413.39	1273.84
413.60	1273.84
413.81	1312.75
414.01	1302.51
414.22	1318.89
414.43	1312.75
414.63	1218.54
414.84	1286.12
415.05	1259.50
415.25	1296.36
415.46	1228.78
415.67	1259.50
415.87	1245.16
416.08	1298.41
416.29	1304.56
416.49	1263.60
416.70	1230.83
416.91	1286.12
417.11	1314.80
417.32	1306.60
417.53	1251.31
417.73	1263.60
417.94	1292.27
418.15	1318.89
418.35	1193.97
418.56	1214.45
418.77	1202.16
418.97	1325.04
419.18	1241.07
419.38	1335.28
419.59	1277.93
419.80	1304.56
420.00	1308.65
420.21	1253.36
420.42	1249.26
420.62	1290.22
420.83	1257.45
421.04	1226.73
421.24	1255.40
421.45	1232.88
421.65	1204.21
421.86	1288.17
422.07	1335.28
422.27	1279.98
422.48	1322.99
422.69	1298.41
422.89	1310.70
423.10	1290.22
423.30	1273.84
423.51	1230.83
423.72	1214.45
423.92	1282.03
424.13	1275.88
424.33	1312.75
424.54	1320.94
424.75	1306.60
424.95	1335.28
425.16	1288.17
425.36	1253.36
425.57	1290.22
425.78	1355.76
425.98	1265.64
426.19	1187.82
426.39	1257.45
426.60	1234.93
426.81	1208.30
427.01	1267.69
427.22	1351.66
427.42	1273.84
427.63	1288.17
427.83	1312.75
428.04	1282.03
428.25	1271.79
428.45	1292.27
428.66	1271.79
428.86	1271.79
429.07	1286.12
429.28	1282.03
429.48	1275.88
429.69	1279.98
429.89	1304.56
430.10	1210.35
430.30	1286.12
430.51	1314.80
430.71	1294.32
430.92	1273.84
431.13	1271.79
431.33	1296.36
431.54	1249.26
431.74	1275.88
431.95	1277.93
432.15	1239.02
432.36	1216.49
432.56	1282.03
432.77	1245.16
432.98	1329.13
433.18	1251.31
433.39	1322.99
433.59	1302.51
433.80	1243.12
434.00	1282.03
434.21	1329.13
434.41	1216.49
434.62	1302.51
434.82	1241.07
435.03	1247.21
435.23	1271.79
435.44	1251.31
435.64	1241.07
435.85	1265.64
436.06	1249.26
436.26	1306.60
436.47	1288.17
436.67	1298.41
436.88	1298.41
437.08	1273.84
437.29	1322.99
437.49	1249.26
437.70	1241.07
437.90	1286.12
438.11	1253.36
438.31	1282.03
438.52	1314.80
438.72	1216.49
438.93	1273.84
439.13	1314.80
439.34	1316.84
439.54	1206.25
439.75	1224.69
439.95	1236.97
440.16	1187.82
440.36	1232.88
440.57	1257.45
440.77	1355.76
440.98	1263.60
441.18	1277.93
441.39	1249.26
441.59	1269.74
441.80	1284.08
442.00	1269.74
442.21	1284.08
442.41	1306.60
442.62	1249.26
442.82	1263.60
443.02	1267.69
443.23	1300.46
443.43	1257.45
443.64	1294.32
443.84	1275.88
444.05	1261.55
444.25	1306.60
444.46	1294.32
444.66	1282.03
444.87	1306.60
445.07	1257.45
445.28	1269.74
445.48	1302.51
445.69	1243.12
445.89	1230.83
446.09	1273.84
446.30	1368.04
446.50	1202.16
446.71	1322.99
446.91	1253.36
447.12	1224.69
447.32	1314.80
447.53	1335.28
447.73	1273.84
447.93	1251.31
448.14	1257.45
448.34	1302.51
448.55	1216.49
448.75	1339.37
448.96	1308.65
449.16	1300.46
449.36	1298.41
449.57	1273.84
449.77	1298.41
449.98	1198.06
450.18	1292.27
450.39	1249.26
450.59	1310.70
450.79	1263.60
451.00	1286.12
451.20	1329.13
451.41	1335.28
451.61	1271.79
451.81	1310.70
452.02	1279.98
452.22	1347.56
452.43	1220.59
452.63	1239.02
