SpectraSuite Data File
++++++++++++++++++++++++++++++++++++
Date: Sun Apr 03 19:55:38 CEST 2016
User: root
Dark Spectrum Present: No
Reference Spectrum Present: No
Number of Sampled Component Spectra: 1
Spectrometers: USB4C02835
Integration Time (usec): 10000 (USB4C02835)
Spectra Averaged: 1 (USB4C02835)
Boxcar Smoothing: 0 (USB4C02835)
Correct for Electrical Dark: No (USB4C02835)
Strobe/Lamp Enabled: No (USB4C02835)
Correct for Detector Non-linearity: No (USB4C02835)
Correct for Stray Light: No (USB4C02835)
Number of Pixels in Processed Spectrum: 3648
>>>>>Begin Processed Spectral Data<<<<<
177.47	1208.30
177.69	1208.30
177.91	1208.30
178.13	1294.32
178.36	1308.65
178.58	1316.84
178.80	1241.07
179.02	1277.93
179.24	1241.07
179.46	1304.56
179.68	1202.16
179.90	1304.56
180.13	1277.93
180.35	1318.89
180.57	1347.56
180.79	1302.51
181.01	1267.69
181.23	1304.56
181.45	1255.40
181.67	1255.40
181.90	1239.02
182.12	1232.88
182.34	1259.50
182.56	1286.12
182.78	1331.18
183.00	1257.45
183.22	1259.50
183.44	1290.22
183.66	1234.93
183.89	1273.84
184.11	1247.21
184.33	1312.75
184.55	1232.88
184.77	1212.40
184.99	1279.98
185.21	1216.49
185.43	1253.36
185.65	1277.93
185.87	1282.03
186.10	1275.88
186.32	1273.84
186.54	1243.12
186.76	1245.16
186.98	1279.98
187.20	1322.99
187.42	1296.36
187.64	1331.18
187.86	1171.44
188.08	1302.51
188.30	1251.31
188.52	1230.83
188.75	1282.03
188.97	1257.45
189.19	1196.01
189.41	1239.02
189.63	1282.03
189.85	1284.08
190.07	1275.88
190.29	1306.60
190.51	1259.50
190.73	1320.94
190.95	1267.69
191.17	1277.93
191.39	1200.11
191.61	1275.88
191.84	1251.31
192.06	1304.56
192.28	1253.36
192.50	1300.46
192.72	1232.88
192.94	1255.40
193.16	1302.51
193.38	1263.60
193.60	1247.21
193.82	1308.65
194.04	1292.27
194.26	1257.45
194.48	1251.31
194.70	1259.50
194.92	1249.26
195.14	1157.10
195.36	1310.70
195.58	1269.74
195.80	1206.25
196.02	1275.88
196.24	1265.64
196.46	1204.21
196.69	1337.32
196.91	1267.69
197.13	1329.13
197.35	1269.74
197.57	1273.84
197.79	1251.31
198.01	1224.69
198.23	1273.84
198.45	1232.88
198.67	1204.21
198.89	1245.16
199.11	1257.45
199.33	1275.88
199.55	1298.41
199.77	1290.22
199.99	1257.45
200.21	1282.03
200.43	1230.83
200.65	1243.12
200.87	1212.40
201.09	1220.59
201.31	1279.98
201.53	1296.36
201.75	1230.83
201.97	1232.88
202.19	1263.60
202.41	1284.08
202.63	1294.32
202.85	1236.97
203.07	1255.40
203.29	1359.85
203.51	1279.98
203.73	1318.89
203.95	1296.36
204.17	1269.74
204.39	1234.93
204.61	1265.64
204.83	1271.79
205.05	1306.60
205.27	1259.50
205.49	1253.36
205.71	1271.79
205.93	1337.32
206.15	1310.70
206.37	1216.49
206.59	1226.73
206.81	1241.07
207.03	1255.40
207.25	1239.02
207.47	1286.12
207.69	1271.79
207.91	1279.98
208.13	1279.98
208.34	1239.02
208.56	1277.93
208.78	1257.45
209.00	1288.17
209.22	1243.12
209.44	1253.36
209.66	1290.22
209.88	1279.98
210.10	1255.40
210.32	1298.41
210.54	1310.70
210.76	1198.06
210.98	1232.88
211.20	1361.90
211.42	1243.12
211.64	1308.65
211.86	1282.03
212.08	1216.49
212.30	1249.26
212.52	1245.16
212.74	1179.63
212.96	1230.83
213.17	1284.08
213.39	1277.93
213.61	1343.47
213.83	1333.23
214.05	1314.80
214.27	1245.16
214.49	1187.82
214.71	1265.64
214.93	1232.88
215.15	1255.40
215.37	1282.03
215.59	1271.79
215.81	1277.93
216.03	1296.36
216.24	1275.88
216.46	1249.26
216.68	1339.37
216.90	1300.46
217.12	1222.64
217.34	1316.84
217.56	1224.69
217.78	1349.61
218.00	1327.08
218.22	1228.78
218.44	1245.16
218.66	1226.73
218.87	1271.79
219.09	1306.60
219.31	1294.32
219.53	1304.56
219.75	1284.08
219.97	1302.51
220.19	1298.41
220.41	1294.32
220.63	1275.88
220.85	1271.79
221.06	1294.32
221.28	1183.73
221.50	1296.36
221.72	1277.93
221.94	1277.93
222.16	1222.64
222.38	1236.97
222.60	1218.54
222.82	1292.27
223.03	1327.08
223.25	1339.37
223.47	1279.98
223.69	1263.60
223.91	1284.08
224.13	1251.31
224.35	1279.98
224.57	1296.36
224.78	1279.98
225.00	1239.02
225.22	1265.64
225.44	1269.74
225.66	1325.04
225.88	1279.98
226.10	1275.88
226.32	1273.84
226.53	1277.93
226.75	1204.21
226.97	1253.36
227.19	1259.50
227.41	1234.93
227.63	1288.17
227.85	1267.69
228.06	1251.31
228.28	1218.54
228.50	1347.56
228.72	1255.40
228.94	1310.70
229.16	1230.83
229.37	1290.22
229.59	1318.89
229.81	1267.69
230.03	1193.97
230.25	1273.84
230.47	1230.83
230.69	1202.16
230.90	1286.12
231.12	1366.00
231.34	1257.45
231.56	1216.49
231.78	1234.93
232.00	1202.16
232.21	1243.12
232.43	1257.45
232.65	1286.12
232.87	1357.80
233.09	1214.45
233.30	1351.66
233.52	1232.88
233.74	1329.13
233.96	1210.35
234.18	1261.55
234.40	1239.02
234.61	1318.89
234.83	1181.68
235.05	1220.59
235.27	1286.12
235.49	1251.31
235.70	1191.92
235.92	1282.03
236.14	1224.69
236.36	1290.22
236.58	1206.25
236.79	1275.88
237.01	1290.22
237.23	1277.93
237.45	1286.12
237.67	1236.97
237.88	1325.04
238.10	1249.26
238.32	1273.84
238.54	1335.28
238.76	1249.26
238.97	1308.65
239.19	1306.60
239.41	1265.64
239.63	1284.08
239.85	1300.46
240.06	1208.30
240.28	1320.94
240.50	1310.70
240.72	1271.79
240.93	1251.31
241.15	1269.74
241.37	1261.55
241.59	1300.46
241.81	1243.12
242.02	1312.75
242.24	1220.59
242.46	1202.16
242.68	1304.56
242.89	1226.73
243.11	1275.88
243.33	1306.60
243.55	1335.28
243.76	1241.07
243.98	1279.98
244.20	1300.46
244.42	1247.21
244.64	1320.94
244.85	1261.55
245.07	1290.22
245.29	1247.21
245.51	1306.60
245.72	1265.64
245.94	1218.54
246.16	1361.90
246.38	1331.18
246.59	1255.40
246.81	1261.55
247.03	1275.88
247.24	1282.03
247.46	1273.84
247.68	1261.55
247.90	1265.64
248.11	1208.30
248.33	1259.50
248.55	1357.80
248.77	1247.21
248.98	1343.47
249.20	1234.93
249.42	1298.41
249.64	1255.40
249.85	1259.50
250.07	1245.16
250.29	1292.27
250.50	1196.01
250.72	1222.64
250.94	1222.64
251.16	1265.64
251.37	1294.32
251.59	1294.32
251.81	1275.88
252.02	1218.54
252.24	1224.69
252.46	1376.24
252.68	1327.08
252.89	1241.07
253.11	1247.21
253.33	1249.26
253.54	1284.08
253.76	1296.36
253.98	1222.64
254.20	1298.41
254.41	1249.26
254.63	1300.46
254.85	1210.35
255.06	1339.37
255.28	1236.97
255.50	1271.79
255.71	1277.93
255.93	1286.12
256.15	1275.88
256.36	1314.80
256.58	1273.84
256.80	1314.80
257.02	1294.32
257.23	1224.69
257.45	1249.26
257.67	1284.08
257.88	1325.04
258.10	1327.08
258.32	1226.73
258.53	1325.04
258.75	1222.64
258.97	1234.93
259.18	1306.60
259.40	1314.80
259.62	1257.45
259.83	1251.31
260.05	1269.74
260.27	1343.47
260.48	1335.28
260.70	1314.80
260.92	1273.84
261.13	1322.99
261.35	1220.59
261.57	1357.80
261.78	1230.83
262.00	1273.84
262.22	1322.99
262.43	1273.84
262.65	1284.08
262.86	1257.45
263.08	1230.83
263.30	1284.08
263.51	1263.60
263.73	1290.22
263.95	1288.17
264.16	1208.30
264.38	1300.46
264.60	1220.59
264.81	1222.64
265.03	1257.45
265.25	1191.92
265.46	1251.31
265.68	1304.56
265.89	1232.88
266.11	1306.60
266.33	1341.42
266.54	1247.21
266.76	1329.13
266.98	1269.74
267.19	1316.84
267.41	1372.14
267.62	1306.60
267.84	1185.77
268.06	1263.60
268.27	1204.21
268.49	1253.36
268.70	1304.56
268.92	1234.93
269.14	1253.36
269.35	1302.51
269.57	1241.07
269.79	1329.13
270.00	1298.41
270.22	1322.99
270.43	1300.46
270.65	1208.30
270.87	1273.84
271.08	1286.12
271.30	1228.78
271.51	1290.22
271.73	1249.26
271.95	1325.04
272.16	1277.93
272.38	1337.32
272.59	1183.73
272.81	1335.28
273.02	1277.93
273.24	1247.21
273.46	1263.60
273.67	1245.16
273.89	1185.77
274.10	1355.76
274.32	1259.50
274.54	1322.99
274.75	1329.13
274.97	1263.60
275.18	1220.59
275.40	1212.40
275.61	1241.07
275.83	1269.74
276.05	1218.54
276.26	1302.51
276.48	1314.80
276.69	1259.50
276.91	1290.22
277.12	1261.55
277.34	1259.50
277.55	1300.46
277.77	1232.88
277.99	1277.93
278.20	1259.50
278.42	1296.36
278.63	1318.89
278.85	1296.36
279.06	1322.99
279.28	1263.60
279.49	1212.40
279.71	1292.27
279.93	1298.41
280.14	1243.12
280.36	1243.12
280.57	1331.18
280.79	1253.36
281.00	1236.97
281.22	1243.12
281.43	1253.36
281.65	1316.84
281.86	1214.45
282.08	1255.40
282.29	1255.40
282.51	1339.37
282.73	1247.21
282.94	1259.50
283.16	1212.40
283.37	1243.12
283.59	1249.26
283.80	1308.65
284.02	1269.74
284.23	1263.60
284.45	1134.57
284.66	1267.69
284.88	1290.22
285.09	1210.35
285.31	1325.04
285.52	1279.98
285.74	1173.49
285.95	1253.36
286.17	1304.56
286.38	1245.16
286.60	1286.12
286.81	1263.60
287.03	1230.83
287.24	1214.45
287.46	1282.03
287.67	1294.32
287.89	1253.36
288.10	1261.55
288.32	1241.07
288.53	1249.26
288.75	1257.45
288.96	1357.80
289.18	1273.84
289.39	1230.83
289.61	1249.26
289.82	1259.50
290.04	1234.93
290.25	1286.12
290.47	1306.60
290.68	1251.31
290.90	1212.40
291.11	1257.45
291.33	1312.75
291.54	1253.36
291.76	1224.69
291.97	1277.93
292.18	1210.35
292.40	1290.22
292.61	1228.78
292.83	1277.93
293.04	1245.16
293.26	1265.64
293.47	1312.75
293.69	1284.08
293.90	1294.32
294.12	1382.38
294.33	1314.80
294.55	1222.64
294.76	1288.17
294.97	1300.46
295.19	1282.03
295.40	1261.55
295.62	1298.41
295.83	1271.79
296.05	1302.51
296.26	1269.74
296.48	1294.32
296.69	1265.64
296.90	1249.26
297.12	1275.88
297.33	1292.27
297.55	1216.49
297.76	1228.78
297.98	1220.59
298.19	1263.60
298.41	1220.59
298.62	1308.65
298.83	1306.60
299.05	1263.60
299.26	1304.56
299.48	1253.36
299.69	1257.45
299.90	1286.12
300.12	1251.31
300.33	1273.84
300.55	1241.07
300.76	1214.45
300.98	1216.49
301.19	1298.41
301.40	1335.28
301.62	1218.54
301.83	1239.02
302.05	1265.64
302.26	1271.79
302.47	1265.64
302.69	1282.03
302.90	1263.60
303.12	1337.32
303.33	1284.08
303.54	1302.51
303.76	1249.26
303.97	1265.64
304.19	1247.21
304.40	1251.31
304.61	1310.70
304.83	1314.80
305.04	1290.22
305.26	1286.12
305.47	1288.17
305.68	1320.94
305.90	1257.45
306.11	1236.97
306.33	1284.08
306.54	1308.65
306.75	1263.60
306.97	1265.64
307.18	1263.60
307.39	1269.74
307.61	1224.69
307.82	1228.78
308.04	1273.84
308.25	1255.40
308.46	1308.65
308.68	1226.73
308.89	1255.40
309.10	1239.02
309.32	1275.88
309.53	1263.60
309.74	1273.84
309.96	1210.35
310.17	1155.05
310.39	1247.21
310.60	1249.26
310.81	1255.40
311.03	1271.79
311.24	1253.36
311.45	1271.79
311.67	1286.12
311.88	1298.41
312.09	1288.17
312.31	1222.64
312.52	1304.56
312.73	1232.88
312.95	1212.40
313.16	1271.79
313.37	1210.35
313.59	1253.36
313.80	1275.88
314.01	1312.75
314.23	1310.70
314.44	1341.42
314.65	1245.16
314.87	1208.30
315.08	1316.84
315.29	1286.12
315.51	1343.47
315.72	1253.36
315.93	1265.64
316.15	1298.41
316.36	1290.22
316.57	1196.01
316.79	1267.69
317.00	1251.31
317.21	1216.49
317.43	1259.50
317.64	1269.74
317.85	1282.03
318.07	1275.88
318.28	1277.93
318.49	1325.04
318.70	1220.59
318.92	1277.93
319.13	1236.97
319.34	1243.12
319.56	1308.65
319.77	1337.32
319.98	1349.61
320.20	1310.70
320.41	1232.88
320.62	1241.07
320.83	1226.73
321.05	1300.46
321.26	1259.50
321.47	1298.41
321.69	1273.84
321.90	1255.40
322.11	1243.12
322.32	1284.08
322.54	1296.36
322.75	1308.65
322.96	1253.36
323.18	1249.26
323.39	1294.32
323.60	1224.69
323.81	1269.74
324.03	1279.98
324.24	1218.54
324.45	1263.60
324.66	1214.45
324.88	1204.21
325.09	1216.49
325.30	1253.36
325.52	1273.84
325.73	1261.55
325.94	1222.64
326.15	1259.50
326.37	1247.21
326.58	1298.41
326.79	1267.69
327.00	1288.17
327.22	1259.50
327.43	1292.27
327.64	1314.80
327.85	1247.21
328.07	1345.52
328.28	1310.70
328.49	1232.88
328.70	1236.97
328.92	1314.80
329.13	1329.13
329.34	1222.64
329.55	1343.47
329.76	1337.32
329.98	1226.73
330.19	1232.88
330.40	1230.83
330.61	1294.32
330.83	1290.22
331.04	1273.84
331.25	1277.93
331.46	1243.12
331.68	1210.35
331.89	1224.69
332.10	1241.07
332.31	1286.12
332.52	1247.21
332.74	1282.03
332.95	1198.06
333.16	1210.35
333.37	1314.80
333.58	1232.88
333.80	1314.80
334.01	1247.21
334.22	1239.02
334.43	1273.84
334.64	1296.36
334.86	1232.88
335.07	1261.55
335.28	1298.41
335.49	1249.26
335.70	1298.41
335.92	1218.54
336.13	1257.45
336.34	1286.12
336.55	1218.54
336.76	1314.80
336.98	1333.23
337.19	1294.32
337.40	1232.88
337.61	1259.50
337.82	1310.70
338.04	1310.70
338.25	1277.93
338.46	1288.17
338.67	1230.83
338.88	1314.80
339.09	1255.40
339.31	1204.21
339.52	1259.50
339.73	1236.97
339.94	1282.03
340.15	1294.32
340.36	1210.35
340.58	1269.74
340.79	1271.79
341.00	1187.82
341.21	1259.50
341.42	1236.97
341.63	1294.32
341.85	1236.97
342.06	1265.64
342.27	1267.69
342.48	1277.93
342.69	1214.45
342.90	1255.40
343.12	1290.22
343.33	1234.93
343.54	1294.32
343.75	1249.26
343.96	1261.55
344.17	1259.50
344.38	1322.99
344.60	1212.40
344.81	1282.03
345.02	1269.74
345.23	1282.03
345.44	1277.93
345.65	1239.02
345.86	1269.74
346.07	1300.46
346.29	1277.93
346.50	1263.60
346.71	1196.01
346.92	1322.99
347.13	1300.46
347.34	1202.16
347.55	1239.02
347.76	1310.70
347.98	1290.22
348.19	1267.69
348.40	1261.55
348.61	1196.01
348.82	1298.41
349.03	1267.69
349.24	1298.41
349.45	1232.88
349.66	1282.03
349.88	1218.54
350.09	1243.12
350.30	1325.04
350.51	1249.26
350.72	1267.69
350.93	1228.78
351.14	1212.40
351.35	1255.40
351.56	1187.82
351.77	1263.60
351.99	1257.45
352.20	1333.23
352.41	1253.36
352.62	1310.70
352.83	1349.61
353.04	1249.26
353.25	1302.51
353.46	1273.84
353.67	1210.35
353.88	1243.12
354.09	1267.69
354.30	1284.08
354.52	1202.16
354.73	1263.60
354.94	1284.08
355.15	1269.74
355.36	1255.40
355.57	1284.08
355.78	1275.88
355.99	1282.03
356.20	1249.26
356.41	1314.80
356.62	1210.35
356.83	1245.16
357.04	1271.79
357.25	1279.98
357.46	1167.34
357.68	1261.55
357.89	1247.21
358.10	1193.97
358.31	1187.82
358.52	1302.51
358.73	1277.93
358.94	1265.64
359.15	1304.56
359.36	1263.60
359.57	1224.69
359.78	1310.70
359.99	1290.22
360.20	1216.49
360.41	1279.98
360.62	1296.36
360.83	1318.89
361.04	1316.84
361.25	1269.74
361.46	1284.08
361.67	1210.35
361.88	1243.12
362.09	1288.17
362.30	1271.79
362.51	1318.89
362.72	1245.16
362.93	1239.02
363.14	1245.16
363.35	1284.08
363.56	1261.55
363.78	1279.98
363.99	1239.02
364.20	1243.12
364.41	1222.64
364.62	1241.07
364.83	1288.17
365.04	1239.02
365.25	1241.07
365.46	1255.40
365.67	1236.97
365.88	1314.80
366.09	1327.08
366.30	1279.98
366.51	1279.98
366.72	1232.88
366.93	1304.56
367.14	1247.21
367.35	1325.04
367.56	1236.97
367.77	1341.42
367.98	1247.21
368.18	1214.45
368.39	1275.88
368.60	1220.59
368.81	1316.84
369.02	1279.98
369.23	1251.31
369.44	1275.88
369.65	1320.94
369.86	1228.78
370.07	1239.02
370.28	1273.84
370.49	1204.21
370.70	1312.75
370.91	1245.16
371.12	1282.03
371.33	1236.97
371.54	1277.93
371.75	1263.60
371.96	1277.93
372.17	1247.21
372.38	1267.69
372.59	1239.02
372.80	1263.60
373.01	1279.98
373.22	1222.64
373.43	1290.22
373.64	1255.40
373.85	1212.40
374.06	1273.84
374.26	1277.93
374.47	1277.93
374.68	1241.07
374.89	1249.26
375.10	1234.93
375.31	1310.70
375.52	1271.79
375.73	1259.50
375.94	1263.60
376.15	1193.97
376.36	1335.28
376.57	1165.29
376.78	1261.55
376.99	1277.93
377.20	1269.74
377.40	1269.74
377.61	1308.65
377.82	1290.22
378.03	1226.73
378.24	1298.41
378.45	1290.22
378.66	1271.79
378.87	1290.22
379.08	1224.69
379.29	1269.74
379.50	1265.64
379.71	1275.88
379.91	1316.84
380.12	1316.84
380.33	1269.74
380.54	1247.21
380.75	1279.98
380.96	1269.74
381.17	1290.22
381.38	1302.51
381.59	1239.02
381.80	1277.93
382.00	1279.98
382.21	1271.79
382.42	1257.45
382.63	1259.50
382.84	1312.75
383.05	1316.84
383.26	1343.47
383.47	1218.54
383.68	1257.45
383.88	1277.93
384.09	1259.50
384.30	1251.31
384.51	1263.60
384.72	1273.84
384.93	1257.45
385.14	1277.93
385.35	1251.31
385.55	1196.01
385.76	1251.31
385.97	1247.21
386.18	1269.74
386.39	1224.69
386.60	1273.84
386.81	1359.85
387.02	1269.74
387.22	1263.60
387.43	1226.73
387.64	1263.60
387.85	1263.60
388.06	1282.03
388.27	1255.40
388.48	1339.37
388.68	1312.75
388.89	1226.73
389.10	1316.84
389.31	1222.64
389.52	1337.32
389.73	1279.98
389.93	1290.22
390.14	1288.17
390.35	1298.41
390.56	1208.30
390.77	1286.12
390.98	1228.78
391.18	1327.08
391.39	1226.73
391.60	1282.03
391.81	1193.97
392.02	1282.03
392.23	1310.70
392.43	1298.41
392.64	1290.22
392.85	1363.95
393.06	1296.36
393.27	1277.93
393.47	1265.64
393.68	1273.84
393.89	1308.65
394.10	1292.27
394.31	1312.75
394.52	1320.94
394.72	1316.84
394.93	1261.55
395.14	1265.64
395.35	1337.32
395.56	1220.59
395.76	1263.60
395.97	1329.13
396.18	1208.30
396.39	1247.21
396.60	1259.50
396.80	1183.73
397.01	1320.94
397.22	1263.60
397.43	1290.22
397.64	1282.03
397.84	1214.45
398.05	1236.97
398.26	1286.12
398.47	1220.59
398.67	1322.99
398.88	1202.16
399.09	1288.17
399.30	1335.28
399.51	1255.40
399.71	1249.26
399.92	1294.32
400.13	1318.89
400.34	1271.79
400.54	1189.87
400.75	1269.74
400.96	1210.35
401.17	1296.36
401.37	1265.64
401.58	1290.22
401.79	1271.79
402.00	1292.27
402.21	1290.22
402.41	1273.84
402.62	1236.97
402.83	1284.08
403.04	1257.45
403.24	1282.03
403.45	1308.65
403.66	1275.88
403.87	1302.51
404.07	1241.07
404.28	1206.25
404.49	1292.27
404.70	1306.60
404.90	1374.19
405.11	1294.32
405.32	1259.50
405.52	1267.69
405.73	1257.45
405.94	1300.46
406.15	1284.08
406.35	1271.79
406.56	1259.50
406.77	1208.30
406.98	1239.02
407.18	1302.51
407.39	1294.32
407.60	1216.49
407.80	1259.50
408.01	1318.89
408.22	1239.02
408.43	1193.97
408.63	1196.01
408.84	1267.69
409.05	1282.03
409.25	1204.21
409.46	1277.93
409.67	1228.78
409.88	1187.82
410.08	1218.54
410.29	1320.94
410.50	1302.51
410.70	1290.22
410.91	1318.89
411.12	1331.18
411.32	1279.98
411.53	1265.64
411.74	1335.28
411.95	1327.08
412.15	1298.41
412.36	1335.28
412.57	1210.35
412.77	1312.75
412.98	1275.88
413.19	1202.16
413.39	1210.35
413.60	1304.56
413.81	1255.40
414.01	1255.40
414.22	1273.84
414.43	1271.79
414.63	1189.87
414.84	1288.17
415.05	1298.41
415.25	1286.12
415.46	1232.88
415.67	1193.97
415.87	1257.45
416.08	1331.18
416.29	1185.77
416.49	1216.49
416.70	1239.02
416.91	1269.74
417.11	1247.21
417.32	1298.41
417.53	1206.25
417.73	1288.17
417.94	1347.56
418.15	1169.39
418.35	1257.45
418.56	1329.13
418.77	1241.07
418.97	1253.36
419.18	1368.04
419.38	1288.17
419.59	1282.03
419.80	1249.26
420.00	1271.79
420.21	1300.46
420.42	1277.93
420.62	1273.84
420.83	1277.93
421.04	1298.41
421.24	1218.54
421.45	1255.40
421.65	1263.60
421.86	1234.93
422.07	1316.84
422.27	1228.78
422.48	1263.60
422.69	1347.56
422.89	1271.79
423.10	1226.73
423.30	1247.21
423.51	1275.88
423.72	1265.64
423.92	1288.17
424.13	1279.98
424.33	1259.50
424.54	1198.06
424.75	1232.88
424.95	1320.94
425.16	1220.59
425.36	1318.89
425.57	1271.79
425.78	1251.31
425.98	1263.60
426.19	1228.78
426.39	1218.54
426.60	1269.74
426.81	1216.49
427.01	1226.73
427.22	1265.64
427.42	1273.84
427.63	1245.16
427.83	1224.69
428.04	1310.70
428.25	1224.69
428.45	1288.17
428.66	1300.46
428.86	1277.93
429.07	1284.08
429.28	1306.60
429.48	1255.40
429.69	1222.64
429.89	1325.04
430.10	1253.36
430.30	1193.97
430.51	1277.93
430.71	1265.64
430.92	1376.24
431.13	1265.64
431.33	1273.84
431.54	1243.12
431.74	1275.88
431.95	1310.70
432.15	1251.31
432.36	1228.78
432.56	1292.27
432.77	1308.65
432.98	1245.16
433.18	1288.17
433.39	1255.40
433.59	1187.82
433.80	1259.50
434.00	1290.22
434.21	1257.45
434.41	1304.56
434.62	1279.98
434.82	1275.88
435.03	1212.40
435.23	1245.16
435.44	1222.64
435.64	1279.98
435.85	1232.88
436.06	1198.06
436.26	1279.98
436.47	1265.64
436.67	1331.18
436.88	1247.21
437.08	1296.36
437.29	1333.23
437.49	1214.45
437.70	1331.18
437.90	1247.21
438.11	1220.59
438.31	1198.06
438.52	1204.21
438.72	1265.64
438.93	1271.79
439.13	1232.88
439.34	1245.16
439.54	1296.36
439.75	1212.40
439.95	1210.35
440.16	1245.16
440.36	1265.64
440.57	1286.12
440.77	1288.17
440.98	1232.88
441.18	1312.75
441.39	1245.16
441.59	1284.08
441.80	1243.12
442.00	1212.40
442.21	1290.22
442.41	1335.28
442.62	1243.12
442.82	1312.75
443.02	1263.60
443.23	1325.04
443.43	1265.64
443.64	1296.36
443.84	1220.59
444.05	1239.02
444.25	1290.22
444.46	1331.18
444.66	1325.04
444.87	1230.83
445.07	1255.40
445.28	1318.89
445.48	1327.08
445.69	1329.13
445.89	1314.80
446.09	1298.41
446.30	1294.32
446.50	1335.28
446.71	1232.88
446.91	1314.80
447.12	1245.16
447.32	1288.17
447.53	1310.70
447.73	1167.34
447.93	1310.70
448.14	1214.45
448.34	1273.84
448.55	1290.22
448.75	1216.49
448.96	1290.22
449.16	1279.98
449.36	1288.17
449.57	1204.21
449.77	1310.70
449.98	1300.46
450.18	1265.64
450.39	1265.64
450.59	1230.83
450.79	1218.54
451.00	1296.36
451.20	1279.98
451.41	1269.74
451.61	1310.70
451.81	1312.75
452.02	1304.56
452.22	1282.03
452.43	1269.74
452.63	1314.80
