SpectraSuite Data File
++++++++++++++++++++++++++++++++++++
Date: Sun Apr 03 19:55:27 CEST 2016
User: root
Dark Spectrum Present: No
Reference Spectrum Present: No
Number of Sampled Component Spectra: 1
Spectrometers: USB4C02835
Integration Time (usec): 10000 (USB4C02835)
Spectra Averaged: 1 (USB4C02835)
Boxcar Smoothing: 0 (USB4C02835)
Correct for Electrical Dark: No (USB4C02835)
Strobe/Lamp Enabled: No (USB4C02835)
Correct for Detector Non-linearity: No (USB4C02835)
Correct for Stray Light: No (USB4C02835)
Number of Pixels in Processed Spectrum: 3648
>>>>>Begin Processed Spectral Data<<<<<
177.47	1204.21
177.69	1204.21
177.91	1204.21
178.13	1208.30
178.36	1296.36
178.58	1288.17
178.80	1261.55
179.02	1290.22
179.24	1282.03
179.46	1226.73
179.68	1290.22
179.90	1279.98
180.13	1302.51
180.35	1216.49
180.57	1179.63
180.79	1187.82
181.01	1345.52
181.23	1273.84
181.45	1218.54
181.67	1132.53
181.90	1247.21
182.12	1277.93
182.34	1245.16
182.56	1212.40
182.78	1300.46
183.00	1279.98
183.22	1312.75
183.44	1292.27
183.66	1265.64
183.89	1247.21
184.11	1298.41
184.33	1265.64
184.55	1306.60
184.77	1224.69
184.99	1314.80
185.21	1230.83
185.43	1300.46
185.65	1304.56
185.87	1257.45
186.10	1265.64
186.32	1320.94
186.54	1327.08
186.76	1312.75
186.98	1265.64
187.20	1214.45
187.42	1239.02
187.64	1292.27
187.86	1288.17
188.08	1269.74
188.30	1232.88
188.52	1251.31
188.75	1265.64
188.97	1177.58
189.19	1318.89
189.41	1249.26
189.63	1175.53
189.85	1312.75
190.07	1288.17
190.29	1259.50
190.51	1208.30
190.73	1304.56
190.95	1243.12
191.17	1224.69
191.39	1251.31
191.61	1267.69
191.84	1318.89
192.06	1284.08
192.28	1239.02
192.50	1296.36
192.72	1259.50
192.94	1226.73
193.16	1228.78
193.38	1306.60
193.60	1234.93
193.82	1298.41
194.04	1300.46
194.26	1212.40
194.48	1296.36
194.70	1302.51
194.92	1310.70
195.14	1247.21
195.36	1247.21
195.58	1284.08
195.80	1263.60
196.02	1327.08
196.24	1224.69
196.46	1265.64
196.69	1282.03
196.91	1271.79
197.13	1249.26
197.35	1171.44
197.57	1298.41
197.79	1290.22
198.01	1253.36
198.23	1155.05
198.45	1267.69
198.67	1261.55
198.89	1339.37
199.11	1286.12
199.33	1320.94
199.55	1206.25
199.77	1298.41
199.99	1269.74
200.21	1226.73
200.43	1310.70
200.65	1275.88
200.87	1263.60
201.09	1322.99
201.31	1269.74
201.53	1325.04
201.75	1288.17
201.97	1277.93
202.19	1275.88
202.41	1390.57
202.63	1290.22
202.85	1267.69
203.07	1292.27
203.29	1286.12
203.51	1247.21
203.73	1224.69
203.95	1187.82
204.17	1247.21
204.39	1284.08
204.61	1236.97
204.83	1275.88
205.05	1304.56
205.27	1298.41
205.49	1269.74
205.71	1245.16
205.93	1232.88
206.15	1208.30
206.37	1337.32
206.59	1239.02
206.81	1335.28
207.03	1327.08
207.25	1275.88
207.47	1241.07
207.69	1265.64
207.91	1257.45
208.13	1247.21
208.34	1245.16
208.56	1267.69
208.78	1343.47
209.00	1304.56
209.22	1271.79
209.44	1288.17
209.66	1228.78
209.88	1275.88
210.10	1257.45
210.32	1245.16
210.54	1343.47
210.76	1275.88
210.98	1306.60
211.20	1265.64
211.42	1247.21
211.64	1163.25
211.86	1239.02
212.08	1253.36
212.30	1320.94
212.52	1255.40
212.74	1353.71
212.96	1196.01
213.17	1286.12
213.39	1294.32
213.61	1232.88
213.83	1292.27
214.05	1327.08
214.27	1275.88
214.49	1273.84
214.71	1218.54
214.93	1314.80
215.15	1308.65
215.37	1306.60
215.59	1222.64
215.81	1275.88
216.03	1234.93
216.24	1304.56
216.46	1247.21
216.68	1263.60
216.90	1243.12
217.12	1298.41
217.34	1212.40
217.56	1259.50
217.78	1224.69
218.00	1277.93
218.22	1279.98
218.44	1243.12
218.66	1243.12
218.87	1314.80
219.09	1208.30
219.31	1239.02
219.53	1308.65
219.75	1302.51
219.97	1271.79
220.19	1206.25
220.41	1279.98
220.63	1273.84
220.85	1253.36
221.06	1277.93
221.28	1232.88
221.50	1366.00
221.72	1308.65
221.94	1257.45
222.16	1214.45
222.38	1269.74
222.60	1294.32
222.82	1290.22
223.03	1251.31
223.25	1214.45
223.47	1265.64
223.69	1318.89
223.91	1245.16
224.13	1314.80
224.35	1279.98
224.57	1245.16
224.78	1245.16
225.00	1239.02
225.22	1251.31
225.44	1220.59
225.66	1247.21
225.88	1212.40
226.10	1308.65
226.32	1310.70
226.53	1331.18
226.75	1282.03
226.97	1271.79
227.19	1263.60
227.41	1224.69
227.63	1306.60
227.85	1304.56
228.06	1228.78
228.28	1294.32
228.50	1222.64
228.72	1304.56
228.94	1314.80
229.16	1232.88
229.37	1261.55
229.59	1263.60
229.81	1286.12
230.03	1230.83
230.25	1282.03
230.47	1232.88
230.69	1267.69
230.90	1279.98
231.12	1214.45
231.34	1318.89
231.56	1300.46
231.78	1267.69
232.00	1261.55
232.21	1230.83
232.43	1241.07
232.65	1259.50
232.87	1265.64
233.09	1302.51
233.30	1314.80
233.52	1232.88
233.74	1216.49
233.96	1204.21
234.18	1318.89
234.40	1306.60
234.61	1368.04
234.83	1271.79
235.05	1310.70
235.27	1232.88
235.49	1224.69
235.70	1230.83
235.92	1304.56
236.14	1234.93
236.36	1306.60
236.58	1304.56
236.79	1255.40
237.01	1290.22
237.23	1232.88
237.45	1267.69
237.67	1296.36
237.88	1210.35
238.10	1335.28
238.32	1245.16
238.54	1247.21
238.76	1290.22
238.97	1288.17
239.19	1193.97
239.41	1310.70
239.63	1261.55
239.85	1267.69
240.06	1224.69
240.28	1249.26
240.50	1241.07
240.72	1255.40
240.93	1249.26
241.15	1335.28
241.37	1245.16
241.59	1288.17
241.81	1300.46
242.02	1196.01
242.24	1249.26
242.46	1263.60
242.68	1304.56
242.89	1308.65
243.11	1253.36
243.33	1261.55
243.55	1259.50
243.76	1224.69
243.98	1279.98
244.20	1271.79
244.42	1302.51
244.64	1267.69
244.85	1259.50
245.07	1257.45
245.29	1300.46
245.51	1322.99
245.72	1243.12
245.94	1165.29
246.16	1257.45
246.38	1288.17
246.59	1325.04
246.81	1273.84
247.03	1230.83
247.24	1282.03
247.46	1261.55
247.68	1267.69
247.90	1302.51
248.11	1286.12
248.33	1214.45
248.55	1331.18
248.77	1302.51
248.98	1288.17
249.20	1218.54
249.42	1208.30
249.64	1228.78
249.85	1245.16
250.07	1296.36
250.29	1220.59
250.50	1245.16
250.72	1222.64
250.94	1224.69
251.16	1322.99
251.37	1261.55
251.59	1269.74
251.81	1253.36
252.02	1327.08
252.24	1339.37
252.46	1286.12
252.68	1271.79
252.89	1339.37
253.11	1275.88
253.33	1329.13
253.54	1257.45
253.76	1282.03
253.98	1277.93
254.20	1298.41
254.41	1284.08
254.63	1271.79
254.85	1302.51
255.06	1296.36
255.28	1331.18
255.50	1222.64
255.71	1302.51
255.93	1265.64
256.15	1236.97
256.36	1234.93
256.58	1290.22
256.80	1263.60
257.02	1314.80
257.23	1226.73
257.45	1294.32
257.67	1335.28
257.88	1196.01
258.10	1314.80
258.32	1271.79
258.53	1304.56
258.75	1259.50
258.97	1306.60
259.18	1241.07
259.40	1257.45
259.62	1298.41
259.83	1249.26
260.05	1216.49
260.27	1322.99
260.48	1298.41
260.70	1284.08
260.92	1249.26
261.13	1253.36
261.35	1300.46
261.57	1245.16
261.78	1200.11
262.00	1279.98
262.22	1259.50
262.43	1257.45
262.65	1302.51
262.86	1275.88
263.08	1245.16
263.30	1239.02
263.51	1261.55
263.73	1261.55
263.95	1296.36
264.16	1251.31
264.38	1263.60
264.60	1228.78
264.81	1259.50
265.03	1273.84
265.25	1202.16
265.46	1314.80
265.68	1284.08
265.89	1318.89
266.11	1251.31
266.33	1286.12
266.54	1259.50
266.76	1325.04
266.98	1269.74
267.19	1247.21
267.41	1251.31
267.62	1273.84
267.84	1228.78
268.06	1294.32
268.27	1210.35
268.49	1216.49
268.70	1286.12
268.92	1253.36
269.14	1255.40
269.35	1269.74
269.57	1228.78
269.79	1261.55
270.00	1255.40
270.22	1263.60
270.43	1198.06
270.65	1241.07
270.87	1331.18
271.08	1284.08
271.30	1304.56
271.51	1218.54
271.73	1216.49
271.95	1312.75
272.16	1304.56
272.38	1288.17
272.59	1251.31
272.81	1302.51
273.02	1202.16
273.24	1304.56
273.46	1306.60
273.67	1247.21
273.89	1226.73
274.10	1267.69
274.32	1257.45
274.54	1261.55
274.75	1228.78
274.97	1234.93
275.18	1218.54
275.40	1234.93
275.61	1300.46
275.83	1279.98
276.05	1200.11
276.26	1316.84
276.48	1232.88
276.69	1230.83
276.91	1273.84
277.12	1279.98
277.34	1255.40
277.55	1290.22
277.77	1277.93
277.99	1296.36
278.20	1282.03
278.42	1304.56
278.63	1269.74
278.85	1245.16
279.06	1232.88
279.28	1251.31
279.49	1279.98
279.71	1232.88
279.93	1265.64
280.14	1327.08
280.36	1302.51
280.57	1290.22
280.79	1222.64
281.00	1329.13
281.22	1269.74
281.43	1310.70
281.65	1239.02
281.86	1269.74
282.08	1239.02
282.29	1296.36
282.51	1198.06
282.73	1173.49
282.94	1286.12
283.16	1214.45
283.37	1277.93
283.59	1312.75
283.80	1265.64
284.02	1333.23
284.23	1263.60
284.45	1312.75
284.66	1306.60
284.88	1255.40
285.09	1277.93
285.31	1292.27
285.52	1333.23
285.74	1286.12
285.95	1245.16
286.17	1316.84
286.38	1302.51
286.60	1249.26
286.81	1341.42
287.03	1298.41
287.24	1343.47
287.46	1277.93
287.67	1261.55
287.89	1181.68
288.10	1243.12
288.32	1298.41
288.53	1232.88
288.75	1310.70
288.96	1269.74
289.18	1261.55
289.39	1372.14
289.61	1347.56
289.82	1273.84
290.04	1322.99
290.25	1206.25
290.47	1230.83
290.68	1241.07
290.90	1277.93
291.11	1198.06
291.33	1243.12
291.54	1273.84
291.76	1241.07
291.97	1161.20
292.18	1200.11
292.40	1243.12
292.61	1212.40
292.83	1269.74
293.04	1322.99
293.26	1318.89
293.47	1212.40
293.69	1249.26
293.90	1214.45
294.12	1341.42
294.33	1279.98
294.55	1212.40
294.76	1247.21
294.97	1228.78
295.19	1331.18
295.40	1257.45
295.62	1239.02
295.83	1239.02
296.05	1269.74
296.26	1322.99
296.48	1284.08
296.69	1251.31
296.90	1212.40
297.12	1271.79
297.33	1261.55
297.55	1286.12
297.76	1265.64
297.98	1236.97
298.19	1314.80
298.41	1294.32
298.62	1265.64
298.83	1255.40
299.05	1273.84
299.26	1220.59
299.48	1294.32
299.69	1294.32
299.90	1275.88
300.12	1216.49
300.33	1200.11
300.55	1271.79
300.76	1253.36
300.98	1327.08
301.19	1277.93
301.40	1212.40
301.62	1308.65
301.83	1247.21
302.05	1284.08
302.26	1232.88
302.47	1236.97
302.69	1331.18
302.90	1239.02
303.12	1259.50
303.33	1257.45
303.54	1290.22
303.76	1282.03
303.97	1255.40
304.19	1279.98
304.40	1214.45
304.61	1265.64
304.83	1339.37
305.04	1277.93
305.26	1257.45
305.47	1294.32
305.68	1247.21
305.90	1279.98
306.11	1263.60
306.33	1322.99
306.54	1302.51
306.75	1239.02
306.97	1284.08
307.18	1337.32
307.39	1212.40
307.61	1304.56
307.82	1261.55
308.04	1261.55
308.25	1284.08
308.46	1312.75
308.68	1236.97
308.89	1273.84
309.10	1267.69
309.32	1228.78
309.53	1263.60
309.74	1265.64
309.96	1239.02
310.17	1282.03
310.39	1275.88
310.60	1196.01
310.81	1241.07
311.03	1259.50
311.24	1273.84
311.45	1331.18
311.67	1236.97
311.88	1204.21
312.09	1288.17
312.31	1259.50
312.52	1204.21
312.73	1241.07
312.95	1314.80
313.16	1255.40
313.37	1300.46
313.59	1341.42
313.80	1255.40
314.01	1318.89
314.23	1271.79
314.44	1253.36
314.65	1261.55
314.87	1253.36
315.08	1181.68
315.29	1224.69
315.51	1298.41
315.72	1222.64
315.93	1232.88
316.15	1337.32
316.36	1210.35
316.57	1241.07
316.79	1265.64
317.00	1279.98
317.21	1282.03
317.43	1206.25
317.64	1228.78
317.85	1286.12
318.07	1357.80
318.28	1265.64
318.49	1257.45
318.70	1257.45
318.92	1261.55
319.13	1247.21
319.34	1243.12
319.56	1314.80
319.77	1298.41
319.98	1177.58
320.20	1296.36
320.41	1275.88
320.62	1294.32
320.83	1282.03
321.05	1292.27
321.26	1269.74
321.47	1267.69
321.69	1148.91
321.90	1304.56
322.11	1290.22
322.32	1275.88
322.54	1298.41
322.75	1265.64
322.96	1341.42
323.18	1290.22
323.39	1331.18
323.60	1253.36
323.81	1222.64
324.03	1206.25
324.24	1232.88
324.45	1251.31
324.66	1306.60
324.88	1255.40
325.09	1288.17
325.30	1339.37
325.52	1331.18
325.73	1320.94
325.94	1335.28
326.15	1353.71
326.37	1282.03
326.58	1286.12
326.79	1251.31
327.00	1284.08
327.22	1273.84
327.43	1204.21
327.64	1269.74
327.85	1249.26
328.07	1224.69
328.28	1269.74
328.49	1255.40
328.70	1282.03
328.92	1259.50
329.13	1335.28
329.34	1222.64
329.55	1288.17
329.76	1273.84
329.98	1187.82
330.19	1271.79
330.40	1251.31
330.61	1253.36
330.83	1224.69
331.04	1259.50
331.25	1275.88
331.46	1314.80
331.68	1269.74
331.89	1257.45
332.10	1275.88
332.31	1234.93
332.52	1173.49
332.74	1296.36
332.95	1288.17
333.16	1191.92
333.37	1306.60
333.58	1273.84
333.80	1230.83
334.01	1265.64
334.22	1220.59
334.43	1304.56
334.64	1253.36
334.86	1269.74
335.07	1290.22
335.28	1249.26
335.49	1277.93
335.70	1249.26
335.92	1337.32
336.13	1267.69
336.34	1298.41
336.55	1292.27
336.76	1300.46
336.98	1277.93
337.19	1234.93
337.40	1271.79
337.61	1263.60
337.82	1298.41
338.04	1263.60
338.25	1241.07
338.46	1327.08
338.67	1255.40
338.88	1337.32
339.09	1286.12
339.31	1282.03
339.52	1255.40
339.73	1253.36
339.94	1271.79
340.15	1204.21
340.36	1216.49
340.58	1273.84
340.79	1298.41
341.00	1259.50
341.21	1304.56
341.42	1312.75
341.63	1347.56
341.85	1228.78
342.06	1222.64
342.27	1212.40
342.48	1273.84
342.69	1230.83
342.90	1243.12
343.12	1275.88
343.33	1202.16
343.54	1210.35
343.75	1296.36
343.96	1253.36
344.17	1363.95
344.38	1337.32
344.60	1331.18
344.81	1222.64
345.02	1263.60
345.23	1282.03
345.44	1298.41
345.65	1337.32
345.86	1224.69
346.07	1249.26
346.29	1245.16
346.50	1282.03
346.71	1275.88
346.92	1333.23
347.13	1267.69
347.34	1232.88
347.55	1267.69
347.76	1269.74
347.98	1239.02
348.19	1206.25
348.40	1290.22
348.61	1269.74
348.82	1228.78
349.03	1286.12
349.24	1200.11
349.45	1337.32
349.66	1290.22
349.88	1273.84
350.09	1263.60
350.30	1228.78
350.51	1257.45
350.72	1312.75
350.93	1249.26
351.14	1247.21
351.35	1261.55
351.56	1263.60
351.77	1310.70
351.99	1216.49
352.20	1277.93
352.41	1294.32
352.62	1322.99
352.83	1247.21
353.04	1279.98
353.25	1255.40
353.46	1265.64
353.67	1263.60
353.88	1298.41
354.09	1245.16
354.30	1200.11
354.52	1224.69
354.73	1279.98
354.94	1208.30
355.15	1239.02
355.36	1255.40
355.57	1257.45
355.78	1253.36
355.99	1292.27
356.20	1245.16
356.41	1257.45
356.62	1300.46
356.83	1282.03
357.04	1232.88
357.25	1284.08
357.46	1290.22
357.68	1288.17
357.89	1279.98
358.10	1228.78
358.31	1310.70
358.52	1239.02
358.73	1208.30
358.94	1314.80
359.15	1267.69
359.36	1288.17
359.57	1279.98
359.78	1239.02
359.99	1261.55
360.20	1222.64
360.41	1222.64
360.62	1228.78
360.83	1312.75
361.04	1198.06
361.25	1214.45
361.46	1300.46
361.67	1306.60
361.88	1265.64
362.09	1265.64
362.30	1318.89
362.51	1275.88
362.72	1294.32
362.93	1302.51
363.14	1302.51
363.35	1216.49
363.56	1351.66
363.78	1196.01
363.99	1312.75
364.20	1253.36
364.41	1298.41
364.62	1288.17
364.83	1308.65
365.04	1232.88
365.25	1294.32
365.46	1273.84
365.67	1183.73
365.88	1189.87
366.09	1257.45
366.30	1333.23
366.51	1241.07
366.72	1234.93
366.93	1228.78
367.14	1224.69
367.35	1232.88
367.56	1230.83
367.77	1216.49
367.98	1177.58
368.18	1259.50
368.39	1259.50
368.60	1282.03
368.81	1249.26
369.02	1292.27
369.23	1288.17
369.44	1236.97
369.65	1216.49
369.86	1255.40
370.07	1200.11
370.28	1282.03
370.49	1251.31
370.70	1353.71
370.91	1234.93
371.12	1255.40
371.33	1273.84
371.54	1312.75
371.75	1279.98
371.96	1253.36
372.17	1284.08
372.38	1230.83
372.59	1300.46
372.80	1222.64
373.01	1286.12
373.22	1298.41
373.43	1290.22
373.64	1198.06
373.85	1239.02
374.06	1273.84
374.26	1277.93
374.47	1259.50
374.68	1273.84
374.89	1335.28
375.10	1257.45
375.31	1261.55
375.52	1296.36
375.73	1216.49
375.94	1304.56
376.15	1253.36
376.36	1302.51
376.57	1279.98
376.78	1214.45
376.99	1245.16
377.20	1282.03
377.40	1239.02
377.61	1236.97
377.82	1288.17
378.03	1282.03
378.24	1298.41
378.45	1206.25
378.66	1310.70
378.87	1290.22
379.08	1302.51
379.29	1257.45
379.50	1331.18
379.71	1353.71
379.91	1312.75
380.12	1251.31
380.33	1251.31
380.54	1275.88
380.75	1228.78
380.96	1273.84
381.17	1234.93
381.38	1249.26
381.59	1267.69
381.80	1294.32
382.00	1314.80
382.21	1277.93
382.42	1294.32
382.63	1298.41
382.84	1220.59
383.05	1271.79
383.26	1288.17
383.47	1290.22
383.68	1232.88
383.88	1239.02
384.09	1288.17
384.30	1222.64
384.51	1257.45
384.72	1279.98
384.93	1241.07
385.14	1267.69
385.35	1265.64
385.55	1257.45
385.76	1286.12
385.97	1271.79
386.18	1222.64
386.39	1259.50
386.60	1279.98
386.81	1239.02
387.02	1306.60
387.22	1200.11
387.43	1265.64
387.64	1279.98
387.85	1191.92
388.06	1249.26
388.27	1261.55
388.48	1341.42
388.68	1228.78
388.89	1249.26
389.10	1269.74
389.31	1257.45
389.52	1306.60
389.73	1306.60
389.93	1255.40
390.14	1339.37
390.35	1312.75
390.56	1282.03
390.77	1267.69
390.98	1325.04
391.18	1249.26
391.39	1232.88
391.60	1275.88
391.81	1290.22
392.02	1191.92
392.23	1333.23
392.43	1216.49
392.64	1239.02
392.85	1263.60
393.06	1343.47
393.27	1298.41
393.47	1259.50
393.68	1232.88
393.89	1325.04
394.10	1300.46
394.31	1337.32
394.52	1208.30
394.72	1296.36
394.93	1214.45
395.14	1279.98
395.35	1212.40
395.56	1236.97
395.76	1243.12
395.97	1263.60
396.18	1200.11
396.39	1228.78
396.60	1304.56
396.80	1316.84
397.01	1288.17
397.22	1224.69
397.43	1255.40
397.64	1282.03
397.84	1277.93
398.05	1339.37
398.26	1327.08
398.47	1236.97
398.67	1267.69
398.88	1337.32
399.09	1282.03
399.30	1318.89
399.51	1265.64
399.71	1308.65
399.92	1263.60
400.13	1279.98
400.34	1249.26
400.54	1265.64
400.75	1288.17
400.96	1302.51
401.17	1277.93
401.37	1273.84
401.58	1286.12
401.79	1249.26
402.00	1302.51
402.21	1224.69
402.41	1265.64
402.62	1208.30
402.83	1292.27
403.04	1267.69
403.24	1251.31
403.45	1216.49
403.66	1349.61
403.87	1271.79
404.07	1216.49
404.28	1341.42
404.49	1282.03
404.70	1265.64
404.90	1329.13
405.11	1277.93
405.32	1196.01
405.52	1257.45
405.73	1312.75
405.94	1253.36
406.15	1282.03
406.35	1335.28
406.56	1284.08
406.77	1255.40
406.98	1259.50
407.18	1204.21
407.39	1282.03
407.60	1222.64
407.80	1282.03
408.01	1257.45
408.22	1222.64
408.43	1296.36
408.63	1306.60
408.84	1202.16
409.05	1275.88
409.25	1255.40
409.46	1306.60
409.67	1286.12
409.88	1288.17
410.08	1337.32
410.29	1222.64
410.50	1279.98
410.70	1335.28
410.91	1296.36
411.12	1255.40
411.32	1302.51
411.53	1193.97
411.74	1255.40
411.95	1224.69
412.15	1277.93
412.36	1275.88
412.57	1239.02
412.77	1214.45
412.98	1322.99
413.19	1232.88
413.39	1318.89
413.60	1202.16
413.81	1329.13
414.01	1310.70
414.22	1243.12
414.43	1257.45
414.63	1263.60
414.84	1359.85
415.05	1318.89
415.25	1284.08
415.46	1234.93
415.67	1322.99
415.87	1255.40
416.08	1298.41
416.29	1220.59
416.49	1241.07
416.70	1247.21
416.91	1261.55
417.11	1241.07
417.32	1320.94
417.53	1318.89
417.73	1183.73
417.94	1249.26
418.15	1241.07
418.35	1325.04
418.56	1290.22
418.77	1341.42
418.97	1296.36
419.18	1282.03
419.38	1210.35
419.59	1331.18
419.80	1433.58
420.00	1306.60
420.21	1253.36
420.42	1302.51
420.62	1255.40
420.83	1345.52
421.04	1241.07
421.24	1245.16
421.45	1327.08
421.65	1267.69
421.86	1271.79
422.07	1325.04
422.27	1222.64
422.48	1298.41
422.69	1251.31
422.89	1249.26
423.10	1265.64
423.30	1288.17
423.51	1257.45
423.72	1261.55
423.92	1241.07
424.13	1249.26
424.33	1347.56
424.54	1304.56
424.75	1292.27
424.95	1271.79
425.16	1318.89
425.36	1251.31
425.57	1310.70
425.78	1249.26
425.98	1304.56
426.19	1224.69
426.39	1294.32
426.60	1355.76
426.81	1310.70
427.01	1261.55
427.22	1320.94
427.42	1234.93
427.63	1230.83
427.83	1290.22
428.04	1261.55
428.25	1196.01
428.45	1277.93
428.66	1286.12
428.86	1224.69
429.07	1243.12
429.28	1232.88
429.48	1279.98
429.69	1257.45
429.89	1271.79
430.10	1310.70
430.30	1286.12
430.51	1273.84
430.71	1220.59
430.92	1265.64
431.13	1253.36
431.33	1279.98
431.54	1279.98
431.74	1374.19
431.95	1239.02
432.15	1271.79
432.36	1230.83
432.56	1343.47
432.77	1273.84
432.98	1261.55
433.18	1316.84
433.39	1314.80
433.59	1234.93
433.80	1220.59
434.00	1290.22
434.21	1259.50
434.41	1210.35
434.62	1300.46
434.82	1265.64
435.03	1335.28
435.23	1318.89
435.44	1271.79
435.64	1271.79
435.85	1271.79
436.06	1345.52
436.26	1255.40
436.47	1210.35
436.67	1216.49
436.88	1247.21
437.08	1294.32
437.29	1241.07
437.49	1333.23
437.70	1306.60
437.90	1230.83
438.11	1351.66
438.31	1292.27
438.52	1208.30
438.72	1214.45
438.93	1286.12
439.13	1261.55
439.34	1251.31
439.54	1222.64
439.75	1243.12
439.95	1277.93
440.16	1279.98
440.36	1304.56
440.57	1282.03
440.77	1236.97
440.98	1343.47
441.18	1331.18
441.39	1189.87
441.59	1263.60
441.80	1296.36
442.00	1282.03
442.21	1298.41
442.41	1284.08
442.62	1228.78
442.82	1298.41
443.02	1271.79
443.23	1261.55
443.43	1245.16
443.64	1218.54
443.84	1308.65
444.05	1376.24
444.25	1318.89
444.46	1202.16
444.66	1343.47
444.87	1279.98
445.07	1269.74
445.28	1279.98
445.48	1269.74
445.69	1259.50
445.89	1290.22
446.09	1298.41
446.30	1284.08
446.50	1261.55
446.71	1296.36
446.91	1269.74
447.12	1208.30
447.32	1263.60
447.53	1239.02
447.73	1253.36
447.93	1247.21
448.14	1220.59
448.34	1282.03
448.55	1296.36
448.75	1329.13
448.96	1322.99
449.16	1271.79
449.36	1230.83
449.57	1239.02
449.77	1298.41
449.98	1202.16
450.18	1251.31
450.39	1288.17
450.59	1339.37
450.79	1294.32
451.00	1273.84
451.20	1325.04
451.41	1263.60
451.61	1349.61
451.81	1239.02
452.02	1300.46
452.22	1239.02
452.43	1279.98
452.63	1239.02
