SpectraSuite Data File
++++++++++++++++++++++++++++++++++++
Date: Sun Apr 03 19:55:25 CEST 2016
User: root
Dark Spectrum Present: No
Reference Spectrum Present: No
Number of Sampled Component Spectra: 1
Spectrometers: USB4C02835
Integration Time (usec): 10000 (USB4C02835)
Spectra Averaged: 1 (USB4C02835)
Boxcar Smoothing: 0 (USB4C02835)
Correct for Electrical Dark: No (USB4C02835)
Strobe/Lamp Enabled: No (USB4C02835)
Correct for Detector Non-linearity: No (USB4C02835)
Correct for Stray Light: No (USB4C02835)
Number of Pixels in Processed Spectrum: 3648
>>>>>Begin Processed Spectral Data<<<<<
177.47	1132.53
177.69	1132.53
177.91	1132.53
178.13	1288.17
178.36	1273.84
178.58	1286.12
178.80	1224.69
179.02	1200.11
179.24	1288.17
179.46	1308.65
179.68	1372.14
179.90	1261.55
180.13	1239.02
180.35	1288.17
180.57	1275.88
180.79	1212.40
181.01	1310.70
181.23	1236.97
181.45	1294.32
181.67	1220.59
181.90	1230.83
182.12	1202.16
182.34	1273.84
182.56	1275.88
182.78	1251.31
183.00	1185.77
183.22	1288.17
183.44	1310.70
183.66	1279.98
183.89	1249.26
184.11	1204.21
184.33	1245.16
184.55	1212.40
184.77	1286.12
184.99	1220.59
185.21	1259.50
185.43	1257.45
185.65	1257.45
185.87	1273.84
186.10	1271.79
186.32	1292.27
186.54	1263.60
186.76	1390.57
186.98	1325.04
187.20	1271.79
187.42	1236.97
187.64	1306.60
187.86	1243.12
188.08	1259.50
188.30	1218.54
188.52	1304.56
188.75	1277.93
188.97	1234.93
189.19	1179.63
189.41	1259.50
189.63	1177.58
189.85	1239.02
190.07	1298.41
190.29	1257.45
190.51	1267.69
190.73	1277.93
190.95	1300.46
191.17	1279.98
191.39	1277.93
191.61	1224.69
191.84	1218.54
192.06	1249.26
192.28	1208.30
192.50	1243.12
192.72	1296.36
192.94	1247.21
193.16	1329.13
193.38	1306.60
193.60	1304.56
193.82	1337.32
194.04	1298.41
194.26	1329.13
194.48	1241.07
194.70	1267.69
194.92	1320.94
195.14	1320.94
195.36	1249.26
195.58	1253.36
195.80	1282.03
196.02	1265.64
196.24	1249.26
196.46	1224.69
196.69	1251.31
196.91	1226.73
197.13	1300.46
197.35	1249.26
197.57	1251.31
197.79	1261.55
198.01	1372.14
198.23	1226.73
198.45	1294.32
198.67	1300.46
198.89	1224.69
199.11	1318.89
199.33	1300.46
199.55	1267.69
199.77	1308.65
199.99	1232.88
200.21	1290.22
200.43	1247.21
200.65	1245.16
200.87	1284.08
201.09	1275.88
201.31	1314.80
201.53	1269.74
201.75	1290.22
201.97	1222.64
202.19	1206.25
202.41	1204.21
202.63	1331.18
202.85	1298.41
203.07	1273.84
203.29	1214.45
203.51	1277.93
203.73	1288.17
203.95	1290.22
204.17	1200.11
204.39	1224.69
204.61	1263.60
204.83	1255.40
205.05	1318.89
205.27	1259.50
205.49	1279.98
205.71	1247.21
205.93	1263.60
206.15	1302.51
206.37	1232.88
206.59	1183.73
206.81	1249.26
207.03	1257.45
207.25	1257.45
207.47	1259.50
207.69	1282.03
207.91	1277.93
208.13	1249.26
208.34	1200.11
208.56	1241.07
208.78	1296.36
209.00	1282.03
209.22	1269.74
209.44	1294.32
209.66	1253.36
209.88	1224.69
210.10	1288.17
210.32	1271.79
210.54	1179.63
210.76	1269.74
210.98	1286.12
211.20	1286.12
211.42	1247.21
211.64	1216.49
211.86	1226.73
212.08	1261.55
212.30	1310.70
212.52	1239.02
212.74	1228.78
212.96	1269.74
213.17	1245.16
213.39	1304.56
213.61	1204.21
213.83	1189.87
214.05	1249.26
214.27	1284.08
214.49	1239.02
214.71	1249.26
214.93	1312.75
215.15	1253.36
215.37	1257.45
215.59	1226.73
215.81	1308.65
216.03	1191.92
216.24	1378.28
216.46	1282.03
216.68	1298.41
216.90	1177.58
217.12	1298.41
217.34	1257.45
217.56	1249.26
217.78	1306.60
218.00	1265.64
218.22	1277.93
218.44	1300.46
218.66	1234.93
218.87	1269.74
219.09	1224.69
219.31	1226.73
219.53	1273.84
219.75	1208.30
219.97	1282.03
220.19	1247.21
220.41	1267.69
220.63	1339.37
220.85	1279.98
221.06	1292.27
221.28	1304.56
221.50	1302.51
221.72	1261.55
221.94	1243.12
222.16	1212.40
222.38	1355.76
222.60	1310.70
222.82	1234.93
223.03	1306.60
223.25	1251.31
223.47	1271.79
223.69	1339.37
223.91	1298.41
224.13	1292.27
224.35	1251.31
224.57	1249.26
224.78	1286.12
225.00	1277.93
225.22	1282.03
225.44	1304.56
225.66	1241.07
225.88	1322.99
226.10	1368.04
226.32	1275.88
226.53	1322.99
226.75	1212.40
226.97	1247.21
227.19	1261.55
227.41	1241.07
227.63	1345.52
227.85	1263.60
228.06	1284.08
228.28	1239.02
228.50	1304.56
228.72	1204.21
228.94	1331.18
229.16	1257.45
229.37	1284.08
229.59	1241.07
229.81	1306.60
230.03	1275.88
230.25	1247.21
230.47	1181.68
230.69	1314.80
230.90	1275.88
231.12	1271.79
231.34	1243.12
231.56	1275.88
231.78	1275.88
232.00	1314.80
232.21	1257.45
232.43	1210.35
232.65	1222.64
232.87	1265.64
233.09	1257.45
233.30	1196.01
233.52	1208.30
233.74	1228.78
233.96	1216.49
234.18	1249.26
234.40	1277.93
234.61	1310.70
234.83	1294.32
235.05	1271.79
235.27	1234.93
235.49	1257.45
235.70	1251.31
235.92	1290.22
236.14	1249.26
236.36	1292.27
236.58	1214.45
236.79	1273.84
237.01	1189.87
237.23	1275.88
237.45	1251.31
237.67	1239.02
237.88	1339.37
238.10	1265.64
238.32	1267.69
238.54	1259.50
238.76	1232.88
238.97	1298.41
239.19	1263.60
239.41	1312.75
239.63	1282.03
239.85	1298.41
240.06	1288.17
240.28	1277.93
240.50	1275.88
240.72	1245.16
240.93	1249.26
241.15	1304.56
241.37	1275.88
241.59	1212.40
241.81	1288.17
242.02	1247.21
242.24	1339.37
242.46	1245.16
242.68	1292.27
242.89	1325.04
243.11	1243.12
243.33	1271.79
243.55	1265.64
243.76	1300.46
243.98	1290.22
244.20	1306.60
244.42	1302.51
244.64	1279.98
244.85	1257.45
245.07	1288.17
245.29	1284.08
245.51	1222.64
245.72	1253.36
245.94	1228.78
246.16	1226.73
246.38	1263.60
246.59	1288.17
246.81	1253.36
247.03	1282.03
247.24	1259.50
247.46	1265.64
247.68	1239.02
247.90	1341.42
248.11	1222.64
248.33	1318.89
248.55	1282.03
248.77	1273.84
248.98	1245.16
249.20	1269.74
249.42	1228.78
249.64	1286.12
249.85	1322.99
250.07	1189.87
250.29	1282.03
250.50	1234.93
250.72	1259.50
250.94	1275.88
251.16	1331.18
251.37	1300.46
251.59	1279.98
251.81	1282.03
252.02	1277.93
252.24	1308.65
252.46	1273.84
252.68	1277.93
252.89	1284.08
253.11	1273.84
253.33	1339.37
253.54	1298.41
253.76	1271.79
253.98	1290.22
254.20	1279.98
254.41	1224.69
254.63	1241.07
254.85	1275.88
255.06	1294.32
255.28	1351.66
255.50	1224.69
255.71	1243.12
255.93	1277.93
256.15	1181.68
256.36	1312.75
256.58	1325.04
256.80	1259.50
257.02	1218.54
257.23	1279.98
257.45	1206.25
257.67	1243.12
257.88	1236.97
258.10	1273.84
258.32	1284.08
258.53	1298.41
258.75	1275.88
258.97	1296.36
259.18	1265.64
259.40	1310.70
259.62	1284.08
259.83	1265.64
260.05	1290.22
260.27	1284.08
260.48	1290.22
260.70	1243.12
260.92	1277.93
261.13	1312.75
261.35	1308.65
261.57	1265.64
261.78	1216.49
262.00	1351.66
262.22	1341.42
262.43	1298.41
262.65	1251.31
262.86	1292.27
263.08	1282.03
263.30	1273.84
263.51	1257.45
263.73	1292.27
263.95	1300.46
264.16	1259.50
264.38	1255.40
264.60	1282.03
264.81	1206.25
265.03	1230.83
265.25	1279.98
265.46	1267.69
265.68	1230.83
265.89	1265.64
266.11	1318.89
266.33	1255.40
266.54	1198.06
266.76	1267.69
266.98	1314.80
267.19	1271.79
267.41	1271.79
267.62	1265.64
267.84	1226.73
268.06	1355.76
268.27	1314.80
268.49	1318.89
268.70	1286.12
268.92	1282.03
269.14	1228.78
269.35	1339.37
269.57	1353.71
269.79	1259.50
270.00	1292.27
270.22	1263.60
270.43	1216.49
270.65	1239.02
270.87	1263.60
271.08	1284.08
271.30	1249.26
271.51	1251.31
271.73	1243.12
271.95	1241.07
272.16	1191.92
272.38	1333.23
272.59	1236.97
272.81	1310.70
273.02	1298.41
273.24	1259.50
273.46	1339.37
273.67	1310.70
273.89	1265.64
274.10	1370.09
274.32	1277.93
274.54	1277.93
274.75	1265.64
274.97	1210.35
275.18	1210.35
275.40	1251.31
275.61	1359.85
275.83	1239.02
276.05	1212.40
276.26	1247.21
276.48	1355.76
276.69	1230.83
276.91	1286.12
277.12	1329.13
277.34	1177.58
277.55	1329.13
277.77	1296.36
277.99	1288.17
278.20	1279.98
278.42	1304.56
278.63	1308.65
278.85	1257.45
279.06	1302.51
279.28	1296.36
279.49	1255.40
279.71	1263.60
279.93	1239.02
280.14	1308.65
280.36	1294.32
280.57	1222.64
280.79	1234.93
281.00	1232.88
281.22	1282.03
281.43	1325.04
281.65	1183.73
281.86	1271.79
282.08	1310.70
282.29	1306.60
282.51	1245.16
282.73	1226.73
282.94	1329.13
283.16	1290.22
283.37	1185.77
283.59	1288.17
283.80	1189.87
284.02	1318.89
284.23	1253.36
284.45	1282.03
284.66	1290.22
284.88	1347.56
285.09	1282.03
285.31	1318.89
285.52	1243.12
285.74	1253.36
285.95	1249.26
286.17	1320.94
286.38	1245.16
286.60	1271.79
286.81	1245.16
287.03	1292.27
287.24	1273.84
287.46	1306.60
287.67	1173.49
287.89	1290.22
288.10	1300.46
288.32	1277.93
288.53	1226.73
288.75	1259.50
288.96	1279.98
289.18	1335.28
289.39	1253.36
289.61	1296.36
289.82	1310.70
290.04	1279.98
290.25	1247.21
290.47	1275.88
290.68	1282.03
290.90	1249.26
291.11	1275.88
291.33	1243.12
291.54	1236.97
291.76	1224.69
291.97	1273.84
292.18	1282.03
292.40	1177.58
292.61	1271.79
292.83	1284.08
293.04	1259.50
293.26	1273.84
293.47	1265.64
293.69	1290.22
293.90	1292.27
294.12	1302.51
294.33	1298.41
294.55	1304.56
294.76	1220.59
294.97	1294.32
295.19	1282.03
295.40	1255.40
295.62	1234.93
295.83	1230.83
296.05	1222.64
296.26	1222.64
296.48	1345.52
296.69	1218.54
296.90	1239.02
297.12	1228.78
297.33	1288.17
297.55	1322.99
297.76	1286.12
297.98	1279.98
298.19	1239.02
298.41	1236.97
298.62	1255.40
298.83	1222.64
299.05	1271.79
299.26	1228.78
299.48	1193.97
299.69	1230.83
299.90	1300.46
300.12	1271.79
300.33	1255.40
300.55	1320.94
300.76	1241.07
300.98	1298.41
301.19	1265.64
301.40	1230.83
301.62	1310.70
301.83	1304.56
302.05	1288.17
302.26	1273.84
302.47	1306.60
302.69	1249.26
302.90	1282.03
303.12	1257.45
303.33	1273.84
303.54	1271.79
303.76	1314.80
303.97	1255.40
304.19	1255.40
304.40	1249.26
304.61	1345.52
304.83	1183.73
305.04	1298.41
305.26	1220.59
305.47	1273.84
305.68	1337.32
305.90	1331.18
306.11	1220.59
306.33	1279.98
306.54	1257.45
306.75	1343.47
306.97	1271.79
307.18	1271.79
307.39	1232.88
307.61	1314.80
307.82	1208.30
308.04	1284.08
308.25	1232.88
308.46	1314.80
308.68	1234.93
308.89	1310.70
309.10	1255.40
309.32	1290.22
309.53	1257.45
309.74	1284.08
309.96	1312.75
310.17	1347.56
310.39	1267.69
310.60	1257.45
310.81	1220.59
311.03	1257.45
311.24	1224.69
311.45	1181.68
311.67	1220.59
311.88	1296.36
312.09	1273.84
312.31	1257.45
312.52	1288.17
312.73	1208.30
312.95	1234.93
313.16	1290.22
313.37	1220.59
313.59	1298.41
313.80	1318.89
314.01	1310.70
314.23	1232.88
314.44	1312.75
314.65	1245.16
314.87	1243.12
315.08	1198.06
315.29	1273.84
315.51	1273.84
315.72	1249.26
315.93	1243.12
316.15	1267.69
316.36	1239.02
316.57	1259.50
316.79	1310.70
317.00	1286.12
317.21	1273.84
317.43	1318.89
317.64	1267.69
317.85	1284.08
318.07	1241.07
318.28	1175.53
318.49	1234.93
318.70	1263.60
318.92	1312.75
319.13	1245.16
319.34	1284.08
319.56	1304.56
319.77	1292.27
319.98	1327.08
320.20	1300.46
320.41	1339.37
320.62	1251.31
320.83	1271.79
321.05	1286.12
321.26	1214.45
321.47	1316.84
321.69	1271.79
321.90	1177.58
322.11	1185.77
322.32	1228.78
322.54	1296.36
322.75	1331.18
322.96	1347.56
323.18	1196.01
323.39	1249.26
323.60	1228.78
323.81	1277.93
324.03	1245.16
324.24	1253.36
324.45	1263.60
324.66	1273.84
324.88	1337.32
325.09	1269.74
325.30	1290.22
325.52	1337.32
325.73	1249.26
325.94	1226.73
326.15	1220.59
326.37	1312.75
326.58	1200.11
326.79	1271.79
327.00	1294.32
327.22	1241.07
327.43	1228.78
327.64	1349.61
327.85	1282.03
328.07	1214.45
328.28	1300.46
328.49	1273.84
328.70	1282.03
328.92	1290.22
329.13	1329.13
329.34	1228.78
329.55	1218.54
329.76	1245.16
329.98	1302.51
330.19	1230.83
330.40	1228.78
330.61	1333.23
330.83	1286.12
331.04	1263.60
331.25	1241.07
331.46	1300.46
331.68	1255.40
331.89	1353.71
332.10	1245.16
332.31	1236.97
332.52	1292.27
332.74	1265.64
332.95	1306.60
333.16	1269.74
333.37	1251.31
333.58	1239.02
333.80	1368.04
334.01	1241.07
334.22	1163.25
334.43	1259.50
334.64	1284.08
334.86	1300.46
335.07	1245.16
335.28	1247.21
335.49	1310.70
335.70	1239.02
335.92	1245.16
336.13	1245.16
336.34	1185.77
336.55	1222.64
336.76	1306.60
336.98	1296.36
337.19	1224.69
337.40	1265.64
337.61	1292.27
337.82	1265.64
338.04	1284.08
338.25	1294.32
338.46	1218.54
338.67	1230.83
338.88	1322.99
339.09	1322.99
339.31	1226.73
339.52	1271.79
339.73	1310.70
339.94	1294.32
340.15	1363.95
340.36	1263.60
340.58	1314.80
340.79	1273.84
341.00	1253.36
341.21	1241.07
341.42	1241.07
341.63	1325.04
341.85	1261.55
342.06	1275.88
342.27	1325.04
342.48	1327.08
342.69	1265.64
342.90	1234.93
343.12	1261.55
343.33	1308.65
343.54	1292.27
343.75	1232.88
343.96	1284.08
344.17	1265.64
344.38	1318.89
344.60	1193.97
344.81	1249.26
345.02	1222.64
345.23	1296.36
345.44	1282.03
345.65	1275.88
345.86	1368.04
346.07	1204.21
346.29	1202.16
346.50	1275.88
346.71	1273.84
346.92	1292.27
347.13	1247.21
347.34	1271.79
347.55	1269.74
347.76	1230.83
347.98	1296.36
348.19	1255.40
348.40	1224.69
348.61	1216.49
348.82	1275.88
349.03	1284.08
349.24	1245.16
349.45	1288.17
349.66	1265.64
349.88	1306.60
350.09	1247.21
350.30	1310.70
350.51	1312.75
350.72	1304.56
350.93	1271.79
351.14	1216.49
351.35	1290.22
351.56	1228.78
351.77	1279.98
351.99	1279.98
352.20	1322.99
352.41	1236.97
352.62	1284.08
352.83	1327.08
353.04	1296.36
353.25	1226.73
353.46	1198.06
353.67	1259.50
353.88	1249.26
354.09	1224.69
354.30	1271.79
354.52	1241.07
354.73	1284.08
354.94	1284.08
355.15	1239.02
355.36	1269.74
355.57	1361.90
355.78	1224.69
355.99	1263.60
356.20	1236.97
356.41	1312.75
356.62	1257.45
356.83	1284.08
357.04	1288.17
357.25	1282.03
357.46	1253.36
357.68	1263.60
357.89	1210.35
358.10	1208.30
358.31	1247.21
358.52	1284.08
358.73	1275.88
358.94	1261.55
359.15	1310.70
359.36	1265.64
359.57	1216.49
359.78	1257.45
359.99	1224.69
360.20	1292.27
360.41	1230.83
360.62	1247.21
360.83	1253.36
361.04	1306.60
361.25	1296.36
361.46	1208.30
361.67	1232.88
361.88	1284.08
362.09	1298.41
362.30	1239.02
362.51	1279.98
362.72	1247.21
362.93	1253.36
363.14	1214.45
363.35	1290.22
363.56	1245.16
363.78	1327.08
363.99	1302.51
364.20	1243.12
364.41	1193.97
364.62	1351.66
364.83	1200.11
365.04	1232.88
365.25	1249.26
365.46	1239.02
365.67	1300.46
365.88	1265.64
366.09	1265.64
366.30	1222.64
366.51	1265.64
366.72	1318.89
366.93	1224.69
367.14	1267.69
367.35	1288.17
367.56	1210.35
367.77	1288.17
367.98	1341.42
368.18	1241.07
368.39	1322.99
368.60	1218.54
368.81	1304.56
369.02	1284.08
369.23	1286.12
369.44	1241.07
369.65	1320.94
369.86	1216.49
370.07	1298.41
370.28	1249.26
370.49	1263.60
370.70	1292.27
370.91	1241.07
371.12	1259.50
371.33	1284.08
371.54	1366.00
371.75	1241.07
371.96	1212.40
372.17	1218.54
372.38	1284.08
372.59	1259.50
372.80	1279.98
373.01	1337.32
373.22	1290.22
373.43	1263.60
373.64	1247.21
373.85	1234.93
374.06	1263.60
374.26	1312.75
374.47	1320.94
374.68	1210.35
374.89	1279.98
375.10	1327.08
375.31	1355.76
375.52	1269.74
375.73	1263.60
375.94	1279.98
376.15	1228.78
376.36	1282.03
376.57	1208.30
376.78	1263.60
376.99	1282.03
377.20	1241.07
377.40	1296.36
377.61	1267.69
377.82	1243.12
378.03	1243.12
378.24	1232.88
378.45	1284.08
378.66	1378.28
378.87	1255.40
379.08	1245.16
379.29	1275.88
379.50	1247.21
379.71	1351.66
379.91	1273.84
380.12	1243.12
380.33	1265.64
380.54	1241.07
380.75	1253.36
380.96	1255.40
381.17	1253.36
381.38	1208.30
381.59	1337.32
381.80	1193.97
382.00	1273.84
382.21	1253.36
382.42	1275.88
382.63	1249.26
382.84	1288.17
383.05	1163.25
383.26	1265.64
383.47	1271.79
383.68	1263.60
383.88	1228.78
384.09	1247.21
384.30	1288.17
384.51	1325.04
384.72	1245.16
384.93	1282.03
385.14	1302.51
385.35	1329.13
385.55	1251.31
385.76	1316.84
385.97	1218.54
386.18	1255.40
386.39	1257.45
386.60	1243.12
386.81	1251.31
387.02	1261.55
387.22	1273.84
387.43	1286.12
387.64	1298.41
387.85	1263.60
388.06	1251.31
388.27	1298.41
388.48	1249.26
388.68	1257.45
388.89	1245.16
389.10	1308.65
389.31	1249.26
389.52	1339.37
389.73	1329.13
389.93	1306.60
390.14	1314.80
390.35	1243.12
390.56	1247.21
390.77	1304.56
390.98	1220.59
391.18	1255.40
391.39	1183.73
391.60	1181.68
391.81	1314.80
392.02	1216.49
392.23	1325.04
392.43	1294.32
392.64	1318.89
392.85	1304.56
393.06	1320.94
393.27	1255.40
393.47	1245.16
393.68	1331.18
393.89	1288.17
394.10	1314.80
394.31	1277.93
394.52	1376.24
394.72	1286.12
394.93	1253.36
395.14	1302.51
395.35	1314.80
395.56	1312.75
395.76	1259.50
395.97	1255.40
396.18	1333.23
396.39	1185.77
396.60	1312.75
396.80	1271.79
397.01	1265.64
397.22	1263.60
397.43	1259.50
397.64	1284.08
397.84	1269.74
398.05	1273.84
398.26	1273.84
398.47	1236.97
398.67	1273.84
398.88	1232.88
399.09	1267.69
399.30	1271.79
399.51	1228.78
399.71	1232.88
399.92	1282.03
400.13	1224.69
400.34	1269.74
400.54	1239.02
400.75	1322.99
400.96	1288.17
401.17	1228.78
401.37	1279.98
401.58	1312.75
401.79	1261.55
402.00	1296.36
402.21	1277.93
402.41	1228.78
402.62	1220.59
402.83	1271.79
403.04	1257.45
403.24	1265.64
403.45	1185.77
403.66	1265.64
403.87	1259.50
404.07	1232.88
404.28	1298.41
404.49	1249.26
404.70	1251.31
404.90	1200.11
405.11	1265.64
405.32	1355.76
405.52	1210.35
405.73	1261.55
405.94	1288.17
406.15	1261.55
406.35	1265.64
406.56	1263.60
406.77	1251.31
406.98	1349.61
407.18	1200.11
407.39	1310.70
407.60	1275.88
407.80	1290.22
408.01	1259.50
408.22	1247.21
408.43	1241.07
408.63	1232.88
408.84	1292.27
409.05	1271.79
409.25	1251.31
409.46	1275.88
409.67	1267.69
409.88	1337.32
410.08	1294.32
410.29	1341.42
410.50	1263.60
410.70	1255.40
410.91	1247.21
411.12	1341.42
411.32	1243.12
411.53	1288.17
411.74	1198.06
411.95	1277.93
412.15	1275.88
412.36	1302.51
412.57	1193.97
412.77	1292.27
412.98	1304.56
413.19	1279.98
413.39	1265.64
413.60	1304.56
413.81	1261.55
414.01	1265.64
414.22	1228.78
414.43	1243.12
414.63	1245.16
414.84	1314.80
415.05	1269.74
415.25	1263.60
415.46	1290.22
415.67	1257.45
415.87	1300.46
416.08	1228.78
416.29	1298.41
416.49	1249.26
416.70	1286.12
416.91	1286.12
417.11	1263.60
417.32	1331.18
417.53	1210.35
417.73	1241.07
417.94	1275.88
418.15	1314.80
418.35	1306.60
418.56	1226.73
418.77	1220.59
418.97	1290.22
419.18	1271.79
419.38	1226.73
419.59	1183.73
419.80	1339.37
420.00	1257.45
420.21	1269.74
420.42	1275.88
420.62	1290.22
420.83	1312.75
421.04	1263.60
421.24	1226.73
421.45	1265.64
421.65	1245.16
421.86	1282.03
422.07	1302.51
422.27	1224.69
422.48	1202.16
422.69	1320.94
422.89	1265.64
423.10	1228.78
423.30	1245.16
423.51	1224.69
423.72	1263.60
423.92	1304.56
424.13	1269.74
424.33	1318.89
424.54	1255.40
424.75	1273.84
424.95	1271.79
425.16	1265.64
425.36	1302.51
425.57	1230.83
425.78	1288.17
425.98	1247.21
426.19	1222.64
426.39	1226.73
426.60	1308.65
426.81	1249.26
427.01	1310.70
427.22	1273.84
427.42	1284.08
427.63	1279.98
427.83	1214.45
428.04	1329.13
428.25	1302.51
428.45	1322.99
428.66	1232.88
428.86	1304.56
429.07	1247.21
429.28	1265.64
429.48	1298.41
429.69	1343.47
429.89	1273.84
430.10	1224.69
430.30	1335.28
430.51	1296.36
430.71	1253.36
430.92	1249.26
431.13	1220.59
431.33	1288.17
431.54	1257.45
431.74	1273.84
431.95	1304.56
432.15	1294.32
432.36	1263.60
432.56	1310.70
432.77	1298.41
432.98	1265.64
433.18	1265.64
433.39	1310.70
433.59	1263.60
433.80	1286.12
434.00	1245.16
434.21	1298.41
434.41	1275.88
434.62	1298.41
434.82	1308.65
435.03	1267.69
435.23	1353.71
435.44	1214.45
435.64	1241.07
435.85	1286.12
436.06	1234.93
436.26	1288.17
436.47	1304.56
436.67	1261.55
436.88	1175.53
437.08	1320.94
437.29	1263.60
437.49	1312.75
437.70	1275.88
437.90	1302.51
438.11	1310.70
438.31	1208.30
438.52	1273.84
438.72	1288.17
438.93	1288.17
439.13	1288.17
439.34	1236.97
439.54	1261.55
439.75	1212.40
439.95	1230.83
440.16	1322.99
440.36	1222.64
440.57	1312.75
440.77	1265.64
440.98	1343.47
441.18	1282.03
441.39	1253.36
441.59	1359.85
441.80	1286.12
442.00	1251.31
442.21	1277.93
442.41	1343.47
442.62	1290.22
442.82	1320.94
443.02	1245.16
443.23	1306.60
443.43	1271.79
443.64	1271.79
443.84	1265.64
444.05	1308.65
444.25	1339.37
444.46	1282.03
444.66	1284.08
444.87	1300.46
445.07	1228.78
445.28	1277.93
445.48	1193.97
445.69	1308.65
445.89	1314.80
446.09	1302.51
446.30	1327.08
446.50	1241.07
446.71	1239.02
446.91	1314.80
447.12	1243.12
447.32	1282.03
447.53	1271.79
447.73	1273.84
447.93	1269.74
448.14	1263.60
448.34	1224.69
448.55	1253.36
448.75	1284.08
448.96	1241.07
449.16	1349.61
449.36	1312.75
449.57	1298.41
449.77	1241.07
449.98	1288.17
450.18	1259.50
450.39	1284.08
450.59	1267.69
450.79	1255.40
451.00	1277.93
451.20	1220.59
451.41	1247.21
451.61	1251.31
451.81	1296.36
452.02	1282.03
452.22	1304.56
452.43	1282.03
452.63	1249.26
