SpectraSuite Data File
++++++++++++++++++++++++++++++++++++
Date: Sun Apr 03 19:55:37 CEST 2016
User: root
Dark Spectrum Present: No
Reference Spectrum Present: No
Number of Sampled Component Spectra: 1
Spectrometers: USB4C02835
Integration Time (usec): 10000 (USB4C02835)
Spectra Averaged: 1 (USB4C02835)
Boxcar Smoothing: 0 (USB4C02835)
Correct for Electrical Dark: No (USB4C02835)
Strobe/Lamp Enabled: No (USB4C02835)
Correct for Detector Non-linearity: No (USB4C02835)
Correct for Stray Light: No (USB4C02835)
Number of Pixels in Processed Spectrum: 3648
>>>>>Begin Processed Spectral Data<<<<<
177.47	1218.54
177.69	1218.54
177.91	1218.54
178.13	1284.08
178.36	1247.21
178.58	1290.22
178.80	1277.93
179.02	1271.79
179.24	1257.45
179.46	1279.98
179.68	1220.59
179.90	1316.84
180.13	1282.03
180.35	1314.80
180.57	1271.79
180.79	1251.31
181.01	1267.69
181.23	1322.99
181.45	1275.88
181.67	1277.93
181.90	1259.50
182.12	1224.69
182.34	1304.56
182.56	1284.08
182.78	1290.22
183.00	1286.12
183.22	1214.45
183.44	1236.97
183.66	1286.12
183.89	1253.36
184.11	1255.40
184.33	1241.07
184.55	1259.50
184.77	1226.73
184.99	1298.41
185.21	1265.64
185.43	1288.17
185.65	1265.64
185.87	1271.79
186.10	1284.08
186.32	1271.79
186.54	1239.02
186.76	1255.40
186.98	1329.13
187.20	1236.97
187.42	1157.10
187.64	1302.51
187.86	1196.01
188.08	1220.59
188.30	1257.45
188.52	1200.11
188.75	1273.84
188.97	1181.68
189.19	1245.16
189.41	1288.17
189.63	1259.50
189.85	1320.94
190.07	1241.07
190.29	1294.32
190.51	1257.45
190.73	1312.75
190.95	1279.98
191.17	1243.12
191.39	1247.21
191.61	1255.40
191.84	1241.07
192.06	1284.08
192.28	1267.69
192.50	1259.50
192.72	1327.08
192.94	1306.60
193.16	1279.98
193.38	1300.46
193.60	1232.88
193.82	1294.32
194.04	1261.55
194.26	1296.36
194.48	1304.56
194.70	1304.56
194.92	1236.97
195.14	1296.36
195.36	1267.69
195.58	1208.30
195.80	1228.78
196.02	1316.84
196.24	1214.45
196.46	1230.83
196.69	1302.51
196.91	1208.30
197.13	1228.78
197.35	1329.13
197.57	1308.65
197.79	1279.98
198.01	1290.22
198.23	1216.49
198.45	1298.41
198.67	1304.56
198.89	1298.41
199.11	1282.03
199.33	1202.16
199.55	1236.97
199.77	1265.64
199.99	1273.84
200.21	1277.93
200.43	1294.32
200.65	1286.12
200.87	1271.79
201.09	1230.83
201.31	1273.84
201.53	1294.32
201.75	1224.69
201.97	1263.60
202.19	1245.16
202.41	1198.06
202.63	1277.93
202.85	1261.55
203.07	1308.65
203.29	1343.47
203.51	1232.88
203.73	1228.78
203.95	1294.32
204.17	1259.50
204.39	1243.12
204.61	1222.64
204.83	1271.79
205.05	1304.56
205.27	1294.32
205.49	1296.36
205.71	1290.22
205.93	1273.84
206.15	1277.93
206.37	1239.02
206.59	1282.03
206.81	1288.17
207.03	1302.51
207.25	1277.93
207.47	1230.83
207.69	1300.46
207.91	1327.08
208.13	1173.49
208.34	1296.36
208.56	1271.79
208.78	1249.26
209.00	1269.74
209.22	1296.36
209.44	1271.79
209.66	1298.41
209.88	1267.69
210.10	1296.36
210.32	1257.45
210.54	1300.46
210.76	1263.60
210.98	1269.74
211.20	1228.78
211.42	1261.55
211.64	1191.92
211.86	1247.21
212.08	1296.36
212.30	1196.01
212.52	1241.07
212.74	1279.98
212.96	1294.32
213.17	1271.79
213.39	1228.78
213.61	1243.12
213.83	1277.93
214.05	1282.03
214.27	1300.46
214.49	1253.36
214.71	1380.33
214.93	1239.02
215.15	1230.83
215.37	1294.32
215.59	1273.84
215.81	1300.46
216.03	1284.08
216.24	1302.51
216.46	1296.36
216.68	1296.36
216.90	1376.24
217.12	1247.21
217.34	1261.55
217.56	1249.26
217.78	1277.93
218.00	1253.36
218.22	1269.74
218.44	1275.88
218.66	1288.17
218.87	1310.70
219.09	1218.54
219.31	1263.60
219.53	1236.97
219.75	1222.64
219.97	1310.70
220.19	1171.44
220.41	1243.12
220.63	1218.54
220.85	1325.04
221.06	1239.02
221.28	1204.21
221.50	1263.60
221.72	1216.49
221.94	1179.63
222.16	1243.12
222.38	1314.80
222.60	1269.74
222.82	1271.79
223.03	1239.02
223.25	1396.71
223.47	1292.27
223.69	1271.79
223.91	1320.94
224.13	1271.79
224.35	1284.08
224.57	1327.08
224.78	1263.60
225.00	1361.90
225.22	1286.12
225.44	1198.06
225.66	1351.66
225.88	1271.79
226.10	1308.65
226.32	1265.64
226.53	1239.02
226.75	1298.41
226.97	1282.03
227.19	1222.64
227.41	1230.83
227.63	1265.64
227.85	1251.31
228.06	1296.36
228.28	1298.41
228.50	1239.02
228.72	1308.65
228.94	1265.64
229.16	1298.41
229.37	1263.60
229.59	1349.61
229.81	1271.79
230.03	1261.55
230.25	1206.25
230.47	1206.25
230.69	1271.79
230.90	1290.22
231.12	1269.74
231.34	1286.12
231.56	1216.49
231.78	1279.98
232.00	1282.03
232.21	1269.74
232.43	1247.21
232.65	1230.83
232.87	1273.84
233.09	1220.59
233.30	1263.60
233.52	1239.02
233.74	1312.75
233.96	1257.45
234.18	1290.22
234.40	1277.93
234.61	1298.41
234.83	1284.08
235.05	1255.40
235.27	1290.22
235.49	1241.07
235.70	1275.88
235.92	1312.75
236.14	1271.79
236.36	1277.93
236.58	1294.32
236.79	1249.26
237.01	1286.12
237.23	1335.28
237.45	1259.50
237.67	1300.46
237.88	1253.36
238.10	1300.46
238.32	1236.97
238.54	1322.99
238.76	1302.51
238.97	1271.79
239.19	1230.83
239.41	1306.60
239.63	1257.45
239.85	1290.22
240.06	1290.22
240.28	1267.69
240.50	1275.88
240.72	1267.69
240.93	1271.79
241.15	1312.75
241.37	1257.45
241.59	1255.40
241.81	1273.84
242.02	1249.26
242.24	1216.49
242.46	1263.60
242.68	1314.80
242.89	1357.80
243.11	1296.36
243.33	1224.69
243.55	1298.41
243.76	1292.27
243.98	1253.36
244.20	1292.27
244.42	1298.41
244.64	1228.78
244.85	1257.45
245.07	1325.04
245.29	1284.08
245.51	1279.98
245.72	1271.79
245.94	1292.27
246.16	1230.83
246.38	1255.40
246.59	1255.40
246.81	1265.64
247.03	1234.93
247.24	1247.21
247.46	1204.21
247.68	1341.42
247.90	1273.84
248.11	1241.07
248.33	1271.79
248.55	1292.27
248.77	1314.80
248.98	1273.84
249.20	1277.93
249.42	1279.98
249.64	1265.64
249.85	1245.16
250.07	1239.02
250.29	1226.73
250.50	1310.70
250.72	1253.36
250.94	1294.32
251.16	1325.04
251.37	1241.07
251.59	1230.83
251.81	1224.69
252.02	1253.36
252.24	1191.92
252.46	1282.03
252.68	1222.64
252.89	1236.97
253.11	1259.50
253.33	1325.04
253.54	1216.49
253.76	1241.07
253.98	1241.07
254.20	1261.55
254.41	1232.88
254.63	1228.78
254.85	1241.07
255.06	1267.69
255.28	1249.26
255.50	1232.88
255.71	1265.64
255.93	1239.02
256.15	1320.94
256.36	1273.84
256.58	1282.03
256.80	1239.02
257.02	1259.50
257.23	1269.74
257.45	1304.56
257.67	1247.21
257.88	1224.69
258.10	1232.88
258.32	1179.63
258.53	1333.23
258.75	1234.93
258.97	1298.41
259.18	1294.32
259.40	1249.26
259.62	1253.36
259.83	1345.52
260.05	1300.46
260.27	1253.36
260.48	1308.65
260.70	1216.49
260.92	1257.45
261.13	1239.02
261.35	1187.82
261.57	1251.31
261.78	1210.35
262.00	1376.24
262.22	1224.69
262.43	1314.80
262.65	1257.45
262.86	1368.04
263.08	1275.88
263.30	1239.02
263.51	1302.51
263.73	1296.36
263.95	1294.32
264.16	1306.60
264.38	1300.46
264.60	1279.98
264.81	1239.02
265.03	1339.37
265.25	1279.98
265.46	1294.32
265.68	1247.21
265.89	1294.32
266.11	1304.56
266.33	1265.64
266.54	1314.80
266.76	1204.21
266.98	1277.93
267.19	1296.36
267.41	1239.02
267.62	1193.97
267.84	1345.52
268.06	1247.21
268.27	1210.35
268.49	1241.07
268.70	1243.12
268.92	1228.78
269.14	1277.93
269.35	1210.35
269.57	1191.92
269.79	1331.18
270.00	1245.16
270.22	1251.31
270.43	1255.40
270.65	1310.70
270.87	1255.40
271.08	1232.88
271.30	1200.11
271.51	1314.80
271.73	1269.74
271.95	1232.88
272.16	1130.48
272.38	1279.98
272.59	1259.50
272.81	1202.16
273.02	1304.56
273.24	1222.64
273.46	1224.69
273.67	1222.64
273.89	1273.84
274.10	1306.60
274.32	1216.49
274.54	1265.64
274.75	1220.59
274.97	1277.93
275.18	1310.70
275.40	1318.89
275.61	1216.49
275.83	1269.74
276.05	1222.64
276.26	1200.11
276.48	1249.26
276.69	1306.60
276.91	1234.93
277.12	1267.69
277.34	1236.97
277.55	1366.00
277.77	1249.26
277.99	1288.17
278.20	1325.04
278.42	1255.40
278.63	1224.69
278.85	1271.79
279.06	1314.80
279.28	1222.64
279.49	1249.26
279.71	1263.60
279.93	1224.69
280.14	1226.73
280.36	1236.97
280.57	1294.32
280.79	1249.26
281.00	1339.37
281.22	1269.74
281.43	1261.55
281.65	1253.36
281.86	1253.36
282.08	1304.56
282.29	1275.88
282.51	1247.21
282.73	1302.51
282.94	1245.16
283.16	1294.32
283.37	1320.94
283.59	1290.22
283.80	1224.69
284.02	1200.11
284.23	1228.78
284.45	1298.41
284.66	1247.21
284.88	1275.88
285.09	1251.31
285.31	1320.94
285.52	1214.45
285.74	1312.75
285.95	1257.45
286.17	1286.12
286.38	1279.98
286.60	1191.92
286.81	1236.97
287.03	1292.27
287.24	1273.84
287.46	1325.04
287.67	1267.69
287.89	1298.41
288.10	1232.88
288.32	1247.21
288.53	1261.55
288.75	1214.45
288.96	1261.55
289.18	1214.45
289.39	1261.55
289.61	1267.69
289.82	1275.88
290.04	1286.12
290.25	1277.93
290.47	1298.41
290.68	1259.50
290.90	1261.55
291.11	1263.60
291.33	1263.60
291.54	1181.68
291.76	1214.45
291.97	1282.03
292.18	1261.55
292.40	1234.93
292.61	1304.56
292.83	1269.74
293.04	1316.84
293.26	1251.31
293.47	1226.73
293.69	1265.64
293.90	1259.50
294.12	1210.35
294.33	1208.30
294.55	1193.97
294.76	1212.40
294.97	1312.75
295.19	1298.41
295.40	1265.64
295.62	1286.12
295.83	1265.64
296.05	1331.18
296.26	1277.93
296.48	1251.31
296.69	1279.98
296.90	1216.49
297.12	1286.12
297.33	1316.84
297.55	1230.83
297.76	1161.20
297.98	1263.60
298.19	1243.12
298.41	1296.36
298.62	1282.03
298.83	1239.02
299.05	1279.98
299.26	1265.64
299.48	1288.17
299.69	1269.74
299.90	1282.03
300.12	1255.40
300.33	1241.07
300.55	1265.64
300.76	1290.22
300.98	1236.97
301.19	1249.26
301.40	1312.75
301.62	1302.51
301.83	1288.17
302.05	1239.02
302.26	1273.84
302.47	1294.32
302.69	1216.49
302.90	1327.08
303.12	1191.92
303.33	1273.84
303.54	1224.69
303.76	1325.04
303.97	1302.51
304.19	1234.93
304.40	1212.40
304.61	1273.84
304.83	1284.08
305.04	1243.12
305.26	1269.74
305.47	1290.22
305.68	1298.41
305.90	1208.30
306.11	1269.74
306.33	1290.22
306.54	1210.35
306.75	1245.16
306.97	1247.21
307.18	1279.98
307.39	1314.80
307.61	1304.56
307.82	1284.08
308.04	1232.88
308.25	1318.89
308.46	1318.89
308.68	1243.12
308.89	1288.17
309.10	1286.12
309.32	1232.88
309.53	1253.36
309.74	1216.49
309.96	1239.02
310.17	1257.45
310.39	1286.12
310.60	1228.78
310.81	1316.84
311.03	1273.84
311.24	1286.12
311.45	1275.88
311.67	1312.75
311.88	1304.56
312.09	1300.46
312.31	1335.28
312.52	1314.80
312.73	1216.49
312.95	1290.22
313.16	1267.69
313.37	1241.07
313.59	1261.55
313.80	1224.69
314.01	1226.73
314.23	1302.51
314.44	1265.64
314.65	1220.59
314.87	1255.40
315.08	1290.22
315.29	1222.64
315.51	1198.06
315.72	1316.84
315.93	1263.60
316.15	1249.26
316.36	1236.97
316.57	1304.56
316.79	1204.21
317.00	1218.54
317.21	1251.31
317.43	1167.34
317.64	1239.02
317.85	1286.12
318.07	1279.98
318.28	1265.64
318.49	1349.61
318.70	1322.99
318.92	1308.65
319.13	1351.66
319.34	1271.79
319.56	1304.56
319.77	1236.97
319.98	1247.21
320.20	1347.56
320.41	1183.73
320.62	1271.79
320.83	1304.56
321.05	1232.88
321.26	1277.93
321.47	1200.11
321.69	1277.93
321.90	1292.27
322.11	1263.60
322.32	1331.18
322.54	1288.17
322.75	1320.94
322.96	1306.60
323.18	1239.02
323.39	1279.98
323.60	1290.22
323.81	1271.79
324.03	1218.54
324.24	1265.64
324.45	1259.50
324.66	1247.21
324.88	1300.46
325.09	1271.79
325.30	1275.88
325.52	1271.79
325.73	1249.26
325.94	1296.36
326.15	1241.07
326.37	1239.02
326.58	1292.27
326.79	1275.88
327.00	1193.97
327.22	1236.97
327.43	1273.84
327.64	1286.12
327.85	1327.08
328.07	1249.26
328.28	1265.64
328.49	1239.02
328.70	1245.16
328.92	1236.97
329.13	1228.78
329.34	1253.36
329.55	1239.02
329.76	1304.56
329.98	1222.64
330.19	1306.60
330.40	1337.32
330.61	1218.54
330.83	1241.07
331.04	1265.64
331.25	1259.50
331.46	1271.79
331.68	1196.01
331.89	1232.88
332.10	1228.78
332.31	1210.35
332.52	1243.12
332.74	1271.79
332.95	1257.45
333.16	1241.07
333.37	1257.45
333.58	1275.88
333.80	1271.79
334.01	1232.88
334.22	1273.84
334.43	1347.56
334.64	1249.26
334.86	1216.49
335.07	1265.64
335.28	1265.64
335.49	1251.31
335.70	1253.36
335.92	1169.39
336.13	1282.03
336.34	1241.07
336.55	1316.84
336.76	1306.60
336.98	1220.59
337.19	1239.02
337.40	1212.40
337.61	1251.31
337.82	1384.43
338.04	1271.79
338.25	1275.88
338.46	1275.88
338.67	1239.02
338.88	1232.88
339.09	1333.23
339.31	1288.17
339.52	1302.51
339.73	1228.78
339.94	1261.55
340.15	1255.40
340.36	1249.26
340.58	1253.36
340.79	1290.22
341.00	1290.22
341.21	1228.78
341.42	1306.60
341.63	1302.51
341.85	1259.50
342.06	1239.02
342.27	1306.60
342.48	1245.16
342.69	1275.88
342.90	1316.84
343.12	1273.84
343.33	1275.88
343.54	1271.79
343.75	1265.64
343.96	1267.69
344.17	1296.36
344.38	1288.17
344.60	1277.93
344.81	1275.88
345.02	1257.45
345.23	1312.75
345.44	1257.45
345.65	1282.03
345.86	1288.17
346.07	1187.82
346.29	1202.16
346.50	1249.26
346.71	1263.60
346.92	1261.55
347.13	1263.60
347.34	1200.11
347.55	1243.12
347.76	1218.54
347.98	1304.56
348.19	1286.12
348.40	1216.49
348.61	1251.31
348.82	1226.73
349.03	1277.93
349.24	1257.45
349.45	1275.88
349.66	1300.46
349.88	1267.69
350.09	1224.69
350.30	1267.69
350.51	1265.64
350.72	1247.21
350.93	1271.79
351.14	1249.26
351.35	1232.88
351.56	1255.40
351.77	1329.13
351.99	1247.21
352.20	1273.84
352.41	1245.16
352.62	1181.68
352.83	1230.83
353.04	1322.99
353.25	1243.12
353.46	1259.50
353.67	1232.88
353.88	1255.40
354.09	1245.16
354.30	1224.69
354.52	1298.41
354.73	1294.32
354.94	1249.26
355.15	1257.45
355.36	1245.16
355.57	1241.07
355.78	1320.94
355.99	1322.99
356.20	1243.12
356.41	1279.98
356.62	1310.70
356.83	1263.60
357.04	1286.12
357.25	1232.88
357.46	1236.97
357.68	1249.26
357.89	1251.31
358.10	1277.93
358.31	1296.36
358.52	1339.37
358.73	1265.64
358.94	1200.11
359.15	1275.88
359.36	1243.12
359.57	1306.60
359.78	1269.74
359.99	1200.11
360.20	1232.88
360.41	1304.56
360.62	1308.65
360.83	1253.36
361.04	1253.36
361.25	1322.99
361.46	1314.80
361.67	1230.83
361.88	1279.98
362.09	1257.45
362.30	1320.94
362.51	1206.25
362.72	1320.94
362.93	1216.49
363.14	1277.93
363.35	1279.98
363.56	1296.36
363.78	1243.12
363.99	1273.84
364.20	1257.45
364.41	1361.90
364.62	1218.54
364.83	1275.88
365.04	1269.74
365.25	1282.03
365.46	1288.17
365.67	1220.59
365.88	1288.17
366.09	1241.07
366.30	1230.83
366.51	1378.28
366.72	1212.40
366.93	1247.21
367.14	1286.12
367.35	1314.80
367.56	1218.54
367.77	1292.27
367.98	1245.16
368.18	1247.21
368.39	1302.51
368.60	1179.63
368.81	1277.93
369.02	1320.94
369.23	1277.93
369.44	1245.16
369.65	1222.64
369.86	1282.03
370.07	1275.88
370.28	1269.74
370.49	1288.17
370.70	1314.80
370.91	1277.93
371.12	1263.60
371.33	1202.16
371.54	1277.93
371.75	1261.55
371.96	1263.60
372.17	1253.36
372.38	1241.07
372.59	1353.71
372.80	1363.95
373.01	1202.16
373.22	1296.36
373.43	1275.88
373.64	1208.30
373.85	1335.28
374.06	1232.88
374.26	1257.45
374.47	1335.28
374.68	1292.27
374.89	1275.88
375.10	1284.08
375.31	1253.36
375.52	1243.12
375.73	1284.08
375.94	1239.02
376.15	1265.64
376.36	1312.75
376.57	1245.16
376.78	1169.39
376.99	1241.07
377.20	1243.12
377.40	1275.88
377.61	1255.40
377.82	1247.21
378.03	1314.80
378.24	1216.49
378.45	1259.50
378.66	1273.84
378.87	1261.55
379.08	1245.16
379.29	1271.79
379.50	1198.06
379.71	1351.66
379.91	1347.56
380.12	1273.84
380.33	1349.61
380.54	1247.21
380.75	1241.07
380.96	1257.45
381.17	1218.54
381.38	1282.03
381.59	1224.69
381.80	1245.16
382.00	1269.74
382.21	1255.40
382.42	1322.99
382.63	1208.30
382.84	1265.64
383.05	1331.18
383.26	1294.32
383.47	1275.88
383.68	1251.31
383.88	1302.51
384.09	1198.06
384.30	1284.08
384.51	1255.40
384.72	1269.74
384.93	1261.55
385.14	1275.88
385.35	1243.12
385.55	1261.55
385.76	1306.60
385.97	1224.69
386.18	1261.55
386.39	1277.93
386.60	1107.95
386.81	1294.32
387.02	1286.12
387.22	1224.69
387.43	1251.31
387.64	1269.74
387.85	1200.11
388.06	1271.79
388.27	1333.23
388.48	1247.21
388.68	1271.79
388.89	1222.64
389.10	1257.45
389.31	1249.26
389.52	1298.41
389.73	1273.84
389.93	1247.21
390.14	1251.31
390.35	1312.75
390.56	1261.55
390.77	1265.64
390.98	1234.93
391.18	1241.07
391.39	1263.60
391.60	1222.64
391.81	1282.03
392.02	1257.45
392.23	1259.50
392.43	1257.45
392.64	1282.03
392.85	1316.84
393.06	1191.92
393.27	1269.74
393.47	1245.16
393.68	1269.74
393.89	1263.60
394.10	1255.40
394.31	1267.69
394.52	1263.60
394.72	1261.55
394.93	1265.64
395.14	1271.79
395.35	1228.78
395.56	1218.54
395.76	1245.16
395.97	1300.46
396.18	1300.46
396.39	1251.31
396.60	1314.80
396.80	1202.16
397.01	1320.94
397.22	1298.41
397.43	1263.60
397.64	1247.21
397.84	1234.93
398.05	1329.13
398.26	1232.88
398.47	1253.36
398.67	1314.80
398.88	1234.93
399.09	1294.32
399.30	1224.69
399.51	1294.32
399.71	1298.41
399.92	1288.17
400.13	1290.22
400.34	1214.45
400.54	1255.40
400.75	1271.79
400.96	1331.18
401.17	1275.88
401.37	1234.93
401.58	1241.07
401.79	1333.23
402.00	1335.28
402.21	1251.31
402.41	1239.02
402.62	1226.73
402.83	1329.13
403.04	1308.65
403.24	1304.56
403.45	1224.69
403.66	1357.80
403.87	1196.01
404.07	1275.88
404.28	1263.60
404.49	1263.60
404.70	1243.12
404.90	1349.61
405.11	1277.93
405.32	1273.84
405.52	1290.22
405.73	1234.93
405.94	1206.25
406.15	1228.78
406.35	1257.45
406.56	1208.30
406.77	1279.98
406.98	1255.40
407.18	1245.16
407.39	1206.25
407.60	1267.69
407.80	1255.40
408.01	1206.25
408.22	1296.36
408.43	1318.89
408.63	1337.32
408.84	1257.45
409.05	1265.64
409.25	1263.60
409.46	1286.12
409.67	1187.82
409.88	1296.36
410.08	1228.78
410.29	1316.84
410.50	1286.12
410.70	1247.21
410.91	1183.73
411.12	1288.17
411.32	1267.69
411.53	1263.60
411.74	1273.84
411.95	1337.32
412.15	1263.60
412.36	1261.55
412.57	1290.22
412.77	1216.49
412.98	1202.16
413.19	1286.12
413.39	1320.94
413.60	1282.03
413.81	1222.64
414.01	1267.69
414.22	1257.45
414.43	1245.16
414.63	1253.36
414.84	1245.16
415.05	1298.41
415.25	1277.93
415.46	1241.07
415.67	1200.11
415.87	1263.60
416.08	1282.03
416.29	1245.16
416.49	1245.16
416.70	1193.97
416.91	1206.25
417.11	1257.45
417.32	1294.32
417.53	1234.93
417.73	1294.32
417.94	1249.26
418.15	1279.98
418.35	1275.88
418.56	1271.79
418.77	1245.16
418.97	1263.60
419.18	1275.88
419.38	1163.25
419.59	1298.41
419.80	1292.27
420.00	1298.41
420.21	1294.32
420.42	1181.68
420.62	1245.16
420.83	1218.54
421.04	1302.51
421.24	1275.88
421.45	1261.55
421.65	1282.03
421.86	1308.65
422.07	1228.78
422.27	1322.99
422.48	1277.93
422.69	1294.32
422.89	1298.41
423.10	1228.78
423.30	1234.93
423.51	1177.58
423.72	1236.97
423.92	1224.69
424.13	1208.30
424.33	1296.36
424.54	1210.35
424.75	1247.21
424.95	1226.73
425.16	1273.84
425.36	1333.23
425.57	1318.89
425.78	1279.98
425.98	1167.34
426.19	1273.84
426.39	1290.22
426.60	1193.97
426.81	1290.22
427.01	1308.65
427.22	1345.52
427.42	1236.97
427.63	1200.11
427.83	1351.66
428.04	1288.17
428.25	1333.23
428.45	1200.11
428.66	1222.64
428.86	1263.60
429.07	1265.64
429.28	1327.08
429.48	1267.69
429.69	1265.64
429.89	1226.73
430.10	1269.74
430.30	1253.36
430.51	1234.93
430.71	1267.69
430.92	1257.45
431.13	1224.69
431.33	1292.27
431.54	1226.73
431.74	1247.21
431.95	1370.09
432.15	1288.17
432.36	1187.82
432.56	1257.45
432.77	1232.88
432.98	1329.13
433.18	1243.12
433.39	1271.79
433.59	1245.16
433.80	1290.22
434.00	1224.69
434.21	1245.16
434.41	1259.50
434.62	1296.36
434.82	1245.16
435.03	1308.65
435.23	1216.49
435.44	1198.06
435.64	1327.08
435.85	1255.40
436.06	1286.12
436.26	1249.26
436.47	1222.64
436.67	1333.23
436.88	1296.36
437.08	1222.64
437.29	1181.68
437.49	1269.74
437.70	1259.50
437.90	1302.51
438.11	1263.60
438.31	1265.64
438.52	1333.23
438.72	1273.84
438.93	1175.53
439.13	1179.63
439.34	1331.18
439.54	1226.73
439.75	1224.69
439.95	1290.22
440.16	1239.02
440.36	1220.59
440.57	1290.22
440.77	1257.45
440.98	1249.26
441.18	1318.89
441.39	1226.73
441.59	1292.27
441.80	1288.17
442.00	1304.56
442.21	1212.40
442.41	1290.22
442.62	1316.84
442.82	1220.59
443.02	1327.08
443.23	1267.69
443.43	1261.55
443.64	1363.95
443.84	1308.65
444.05	1255.40
444.25	1232.88
444.46	1302.51
444.66	1247.21
444.87	1284.08
445.07	1355.76
445.28	1310.70
445.48	1245.16
445.69	1349.61
445.89	1290.22
446.09	1314.80
446.30	1214.45
446.50	1216.49
446.71	1335.28
446.91	1318.89
447.12	1269.74
447.32	1257.45
447.53	1282.03
447.73	1286.12
447.93	1249.26
448.14	1345.52
448.34	1306.60
448.55	1236.97
448.75	1284.08
448.96	1245.16
449.16	1333.23
449.36	1290.22
449.57	1253.36
449.77	1226.73
449.98	1265.64
450.18	1294.32
450.39	1345.52
450.59	1269.74
450.79	1241.07
451.00	1284.08
451.20	1193.97
451.41	1200.11
451.61	1249.26
451.81	1322.99
452.02	1265.64
452.22	1247.21
452.43	1247.21
452.63	1273.84
