SpectraSuite Data File
++++++++++++++++++++++++++++++++++++
Date: Sun Apr 03 19:55:13 CEST 2016
User: root
Dark Spectrum Present: No
Reference Spectrum Present: No
Number of Sampled Component Spectra: 1
Spectrometers: USB4C02835
Integration Time (usec): 10000 (USB4C02835)
Spectra Averaged: 1 (USB4C02835)
Boxcar Smoothing: 0 (USB4C02835)
Correct for Electrical Dark: No (USB4C02835)
Strobe/Lamp Enabled: No (USB4C02835)
Correct for Detector Non-linearity: No (USB4C02835)
Correct for Stray Light: No (USB4C02835)
Number of Pixels in Processed Spectrum: 3648
>>>>>Begin Processed Spectral Data<<<<<
177.47	1310.70
177.69	1310.70
177.91	1310.70
178.13	1187.82
178.36	1247.21
178.58	1232.88
178.80	1273.84
179.02	1212.40
179.24	1230.83
179.46	1167.34
179.68	1296.36
179.90	1204.21
180.13	1288.17
180.35	1304.56
180.57	1255.40
180.79	1243.12
181.01	1247.21
181.23	1216.49
181.45	1230.83
181.67	1277.93
181.90	1269.74
182.12	1257.45
182.34	1193.97
182.56	1263.60
182.78	1308.65
183.00	1300.46
183.22	1224.69
183.44	1232.88
183.66	1302.51
183.89	1302.51
184.11	1251.31
184.33	1282.03
184.55	1288.17
184.77	1341.42
184.99	1247.21
185.21	1261.55
185.43	1355.76
185.65	1320.94
185.87	1296.36
186.10	1253.36
186.32	1232.88
186.54	1329.13
186.76	1286.12
186.98	1263.60
187.20	1277.93
187.42	1265.64
187.64	1249.26
187.86	1277.93
188.08	1296.36
188.30	1204.21
188.52	1312.75
188.75	1292.27
188.97	1275.88
189.19	1343.47
189.41	1331.18
189.63	1267.69
189.85	1296.36
190.07	1310.70
190.29	1306.60
190.51	1232.88
190.73	1183.73
190.95	1257.45
191.17	1279.98
191.39	1210.35
191.61	1277.93
191.84	1269.74
192.06	1249.26
192.28	1314.80
192.50	1282.03
192.72	1257.45
192.94	1288.17
193.16	1312.75
193.38	1279.98
193.60	1234.93
193.82	1224.69
194.04	1222.64
194.26	1247.21
194.48	1253.36
194.70	1269.74
194.92	1320.94
195.14	1230.83
195.36	1212.40
195.58	1259.50
195.80	1279.98
196.02	1265.64
196.24	1239.02
196.46	1236.97
196.69	1239.02
196.91	1310.70
197.13	1271.79
197.35	1265.64
197.57	1241.07
197.79	1271.79
198.01	1228.78
198.23	1337.32
198.45	1347.56
198.67	1267.69
198.89	1251.31
199.11	1279.98
199.33	1249.26
199.55	1273.84
199.77	1294.32
199.99	1204.21
200.21	1234.93
200.43	1300.46
200.65	1267.69
200.87	1255.40
201.09	1279.98
201.31	1216.49
201.53	1322.99
201.75	1322.99
201.97	1296.36
202.19	1259.50
202.41	1314.80
202.63	1288.17
202.85	1282.03
203.07	1257.45
203.29	1245.16
203.51	1277.93
203.73	1212.40
203.95	1216.49
204.17	1251.31
204.39	1322.99
204.61	1269.74
204.83	1288.17
205.05	1282.03
205.27	1298.41
205.49	1296.36
205.71	1284.08
205.93	1271.79
206.15	1300.46
206.37	1318.89
206.59	1253.36
206.81	1296.36
207.03	1282.03
207.25	1228.78
207.47	1253.36
207.69	1298.41
207.91	1286.12
208.13	1310.70
208.34	1304.56
208.56	1210.35
208.78	1282.03
209.00	1216.49
209.22	1232.88
209.44	1189.87
209.66	1259.50
209.88	1263.60
210.10	1300.46
210.32	1304.56
210.54	1314.80
210.76	1304.56
210.98	1230.83
211.20	1239.02
211.42	1245.16
211.64	1210.35
211.86	1253.36
212.08	1273.84
212.30	1312.75
212.52	1277.93
212.74	1208.30
212.96	1290.22
213.17	1230.83
213.39	1277.93
213.61	1263.60
213.83	1294.32
214.05	1271.79
214.27	1218.54
214.49	1257.45
214.71	1292.27
214.93	1314.80
215.15	1282.03
215.37	1298.41
215.59	1345.52
215.81	1241.07
216.03	1275.88
216.24	1243.12
216.46	1269.74
216.68	1298.41
216.90	1257.45
217.12	1204.21
217.34	1220.59
217.56	1255.40
217.78	1294.32
218.00	1279.98
218.22	1275.88
218.44	1304.56
218.66	1282.03
218.87	1300.46
219.09	1286.12
219.31	1232.88
219.53	1253.36
219.75	1261.55
219.97	1200.11
220.19	1314.80
220.41	1343.47
220.63	1191.92
220.85	1267.69
221.06	1279.98
221.28	1228.78
221.50	1308.65
221.72	1290.22
221.94	1249.26
222.16	1257.45
222.38	1241.07
222.60	1228.78
222.82	1208.30
223.03	1243.12
223.25	1320.94
223.47	1263.60
223.69	1243.12
223.91	1290.22
224.13	1286.12
224.35	1339.37
224.57	1302.51
224.78	1249.26
225.00	1253.36
225.22	1298.41
225.44	1312.75
225.66	1296.36
225.88	1230.83
226.10	1282.03
226.32	1286.12
226.53	1275.88
226.75	1282.03
226.97	1339.37
227.19	1214.45
227.41	1245.16
227.63	1232.88
227.85	1257.45
228.06	1226.73
228.28	1261.55
228.50	1222.64
228.72	1273.84
228.94	1236.97
229.16	1222.64
229.37	1200.11
229.59	1320.94
229.81	1339.37
230.03	1325.04
230.25	1251.31
230.47	1302.51
230.69	1290.22
230.90	1288.17
231.12	1265.64
231.34	1271.79
231.56	1308.65
231.78	1288.17
232.00	1245.16
232.21	1310.70
232.43	1314.80
232.65	1273.84
232.87	1202.16
233.09	1185.77
233.30	1230.83
233.52	1269.74
233.74	1241.07
233.96	1294.32
234.18	1239.02
234.40	1236.97
234.61	1261.55
234.83	1273.84
235.05	1179.63
235.27	1284.08
235.49	1298.41
235.70	1232.88
235.92	1249.26
236.14	1288.17
236.36	1288.17
236.58	1288.17
236.79	1200.11
237.01	1282.03
237.23	1251.31
237.45	1271.79
237.67	1277.93
237.88	1327.08
238.10	1329.13
238.32	1263.60
238.54	1257.45
238.76	1259.50
238.97	1288.17
239.19	1271.79
239.41	1277.93
239.63	1257.45
239.85	1302.51
240.06	1370.09
240.28	1232.88
240.50	1333.23
240.72	1310.70
240.93	1216.49
241.15	1265.64
241.37	1200.11
241.59	1288.17
241.81	1210.35
242.02	1161.20
242.24	1245.16
242.46	1288.17
242.68	1269.74
242.89	1245.16
243.11	1220.59
243.33	1292.27
243.55	1259.50
243.76	1249.26
243.98	1269.74
244.20	1325.04
244.42	1271.79
244.64	1273.84
244.85	1259.50
245.07	1232.88
245.29	1247.21
245.51	1249.26
245.72	1273.84
245.94	1275.88
246.16	1218.54
246.38	1335.28
246.59	1228.78
246.81	1191.92
247.03	1329.13
247.24	1294.32
247.46	1226.73
247.68	1298.41
247.90	1290.22
248.11	1290.22
248.33	1275.88
248.55	1261.55
248.77	1343.47
248.98	1200.11
249.20	1275.88
249.42	1263.60
249.64	1322.99
249.85	1286.12
250.07	1267.69
250.29	1208.30
250.50	1251.31
250.72	1261.55
250.94	1271.79
251.16	1304.56
251.37	1243.12
251.59	1331.18
251.81	1261.55
252.02	1275.88
252.24	1273.84
252.46	1361.90
252.68	1269.74
252.89	1255.40
253.11	1267.69
253.33	1306.60
253.54	1296.36
253.76	1259.50
253.98	1239.02
254.20	1261.55
254.41	1284.08
254.63	1329.13
254.85	1267.69
255.06	1269.74
255.28	1245.16
255.50	1279.98
255.71	1253.36
255.93	1198.06
256.15	1361.90
256.36	1253.36
256.58	1214.45
256.80	1243.12
257.02	1177.58
257.23	1277.93
257.45	1253.36
257.67	1200.11
257.88	1236.97
258.10	1292.27
258.32	1251.31
258.53	1263.60
258.75	1265.64
258.97	1284.08
259.18	1337.32
259.40	1288.17
259.62	1327.08
259.83	1228.78
260.05	1265.64
260.27	1314.80
260.48	1241.07
260.70	1302.51
260.92	1279.98
261.13	1191.92
261.35	1249.26
261.57	1273.84
261.78	1230.83
262.00	1239.02
262.22	1275.88
262.43	1251.31
262.65	1249.26
262.86	1275.88
263.08	1325.04
263.30	1228.78
263.51	1300.46
263.73	1226.73
263.95	1312.75
264.16	1306.60
264.38	1253.36
264.60	1204.21
264.81	1220.59
265.03	1257.45
265.25	1282.03
265.46	1271.79
265.68	1308.65
265.89	1273.84
266.11	1366.00
266.33	1265.64
266.54	1314.80
266.76	1300.46
266.98	1265.64
267.19	1294.32
267.41	1269.74
267.62	1267.69
267.84	1222.64
268.06	1337.32
268.27	1294.32
268.49	1288.17
268.70	1220.59
268.92	1259.50
269.14	1298.41
269.35	1290.22
269.57	1372.14
269.79	1189.87
270.00	1329.13
270.22	1329.13
270.43	1253.36
270.65	1294.32
270.87	1302.51
271.08	1316.84
271.30	1327.08
271.51	1257.45
271.73	1222.64
271.95	1269.74
272.16	1308.65
272.38	1273.84
272.59	1298.41
272.81	1277.93
273.02	1241.07
273.24	1288.17
273.46	1290.22
273.67	1263.60
273.89	1228.78
274.10	1284.08
274.32	1208.30
274.54	1308.65
274.75	1273.84
274.97	1296.36
275.18	1306.60
275.40	1300.46
275.61	1282.03
275.83	1216.49
276.05	1271.79
276.26	1241.07
276.48	1322.99
276.69	1310.70
276.91	1208.30
277.12	1267.69
277.34	1300.46
277.55	1302.51
277.77	1290.22
277.99	1183.73
278.20	1308.65
278.42	1247.21
278.63	1247.21
278.85	1331.18
279.06	1265.64
279.28	1298.41
279.49	1236.97
279.71	1314.80
279.93	1273.84
280.14	1198.06
280.36	1243.12
280.57	1239.02
280.79	1282.03
281.00	1255.40
281.22	1269.74
281.43	1296.36
281.65	1245.16
281.86	1257.45
282.08	1257.45
282.29	1298.41
282.51	1224.69
282.73	1263.60
282.94	1239.02
283.16	1173.49
283.37	1222.64
283.59	1284.08
283.80	1269.74
284.02	1267.69
284.23	1290.22
284.45	1282.03
284.66	1224.69
284.88	1298.41
285.09	1288.17
285.31	1282.03
285.52	1251.31
285.74	1261.55
285.95	1316.84
286.17	1230.83
286.38	1312.75
286.60	1259.50
286.81	1189.87
287.03	1290.22
287.24	1247.21
287.46	1290.22
287.67	1269.74
287.89	1177.58
288.10	1232.88
288.32	1316.84
288.53	1282.03
288.75	1251.31
288.96	1193.97
289.18	1322.99
289.39	1302.51
289.61	1290.22
289.82	1290.22
290.04	1243.12
290.25	1304.56
290.47	1273.84
290.68	1239.02
290.90	1327.08
291.11	1259.50
291.33	1214.45
291.54	1251.31
291.76	1214.45
291.97	1255.40
292.18	1226.73
292.40	1345.52
292.61	1318.89
292.83	1306.60
293.04	1251.31
293.26	1239.02
293.47	1310.70
293.69	1253.36
293.90	1300.46
294.12	1304.56
294.33	1355.76
294.55	1183.73
294.76	1259.50
294.97	1245.16
295.19	1257.45
295.40	1339.37
295.62	1259.50
295.83	1241.07
296.05	1226.73
296.26	1230.83
296.48	1234.93
296.69	1232.88
296.90	1214.45
297.12	1255.40
297.33	1185.77
297.55	1284.08
297.76	1275.88
297.98	1302.51
298.19	1271.79
298.41	1271.79
298.62	1239.02
298.83	1269.74
299.05	1279.98
299.26	1249.26
299.48	1300.46
299.69	1292.27
299.90	1388.52
300.12	1302.51
300.33	1228.78
300.55	1304.56
300.76	1279.98
300.98	1286.12
301.19	1353.71
301.40	1302.51
301.62	1263.60
301.83	1253.36
302.05	1261.55
302.26	1294.32
302.47	1335.28
302.69	1173.49
302.90	1282.03
303.12	1310.70
303.33	1292.27
303.54	1232.88
303.76	1263.60
303.97	1298.41
304.19	1298.41
304.40	1355.76
304.61	1286.12
304.83	1349.61
305.04	1282.03
305.26	1269.74
305.47	1310.70
305.68	1298.41
305.90	1271.79
306.11	1239.02
306.33	1294.32
306.54	1296.36
306.75	1306.60
306.97	1220.59
307.18	1245.16
307.39	1261.55
307.61	1255.40
307.82	1273.84
308.04	1288.17
308.25	1286.12
308.46	1284.08
308.68	1247.21
308.89	1232.88
309.10	1230.83
309.32	1316.84
309.53	1273.84
309.74	1255.40
309.96	1218.54
310.17	1261.55
310.39	1322.99
310.60	1335.28
310.81	1245.16
311.03	1286.12
311.24	1228.78
311.45	1247.21
311.67	1308.65
311.88	1239.02
312.09	1363.95
312.31	1290.22
312.52	1253.36
312.73	1304.56
312.95	1286.12
313.16	1282.03
313.37	1282.03
313.59	1316.84
313.80	1306.60
314.01	1249.26
314.23	1271.79
314.44	1228.78
314.65	1257.45
314.87	1304.56
315.08	1216.49
315.29	1304.56
315.51	1249.26
315.72	1298.41
315.93	1183.73
316.15	1306.60
316.36	1257.45
316.57	1224.69
316.79	1318.89
317.00	1222.64
317.21	1265.64
317.43	1265.64
317.64	1296.36
317.85	1302.51
318.07	1296.36
318.28	1239.02
318.49	1302.51
318.70	1302.51
318.92	1318.89
319.13	1271.79
319.34	1374.19
319.56	1232.88
319.77	1269.74
319.98	1312.75
320.20	1322.99
320.41	1277.93
320.62	1245.16
320.83	1241.07
321.05	1214.45
321.26	1236.97
321.47	1269.74
321.69	1286.12
321.90	1257.45
322.11	1261.55
322.32	1241.07
322.54	1304.56
322.75	1261.55
322.96	1294.32
323.18	1279.98
323.39	1243.12
323.60	1273.84
323.81	1234.93
324.03	1271.79
324.24	1290.22
324.45	1261.55
324.66	1300.46
324.88	1277.93
325.09	1271.79
325.30	1255.40
325.52	1261.55
325.73	1243.12
325.94	1312.75
326.15	1241.07
326.37	1302.51
326.58	1294.32
326.79	1247.21
327.00	1208.30
327.22	1243.12
327.43	1294.32
327.64	1296.36
327.85	1253.36
328.07	1290.22
328.28	1288.17
328.49	1247.21
328.70	1282.03
328.92	1279.98
329.13	1279.98
329.34	1298.41
329.55	1265.64
329.76	1257.45
329.98	1230.83
330.19	1341.42
330.40	1288.17
330.61	1253.36
330.83	1288.17
331.04	1173.49
331.25	1234.93
331.46	1288.17
331.68	1279.98
331.89	1296.36
332.10	1259.50
332.31	1282.03
332.52	1228.78
332.74	1290.22
332.95	1249.26
333.16	1261.55
333.37	1318.89
333.58	1259.50
333.80	1257.45
334.01	1275.88
334.22	1271.79
334.43	1269.74
334.64	1316.84
334.86	1265.64
335.07	1294.32
335.28	1359.85
335.49	1300.46
335.70	1308.65
335.92	1230.83
336.13	1300.46
336.34	1318.89
336.55	1191.92
336.76	1228.78
336.98	1286.12
337.19	1206.25
337.40	1351.66
337.61	1306.60
337.82	1312.75
338.04	1243.12
338.25	1253.36
338.46	1345.52
338.67	1337.32
338.88	1232.88
339.09	1187.82
339.31	1261.55
339.52	1234.93
339.73	1265.64
339.94	1286.12
340.15	1275.88
340.36	1351.66
340.58	1236.97
340.79	1212.40
341.00	1269.74
341.21	1304.56
341.42	1337.32
341.63	1210.35
341.85	1226.73
342.06	1327.08
342.27	1259.50
342.48	1290.22
342.69	1257.45
342.90	1255.40
343.12	1189.87
343.33	1222.64
343.54	1267.69
343.75	1273.84
343.96	1257.45
344.17	1216.49
344.38	1370.09
344.60	1279.98
344.81	1284.08
345.02	1277.93
345.23	1163.25
345.44	1243.12
345.65	1275.88
345.86	1292.27
346.07	1275.88
346.29	1275.88
346.50	1300.46
346.71	1210.35
346.92	1331.18
347.13	1183.73
347.34	1224.69
347.55	1269.74
347.76	1198.06
347.98	1288.17
348.19	1302.51
348.40	1353.71
348.61	1249.26
348.82	1232.88
349.03	1234.93
349.24	1228.78
349.45	1275.88
349.66	1230.83
349.88	1263.60
350.09	1314.80
350.30	1294.32
350.51	1255.40
350.72	1257.45
350.93	1255.40
351.14	1329.13
351.35	1249.26
351.56	1251.31
351.77	1234.93
351.99	1259.50
352.20	1288.17
352.41	1249.26
352.62	1282.03
352.83	1302.51
353.04	1253.36
353.25	1277.93
353.46	1241.07
353.67	1247.21
353.88	1214.45
354.09	1288.17
354.30	1249.26
354.52	1226.73
354.73	1265.64
354.94	1249.26
355.15	1257.45
355.36	1208.30
355.57	1290.22
355.78	1290.22
355.99	1327.08
356.20	1189.87
356.41	1265.64
356.62	1255.40
356.83	1187.82
357.04	1218.54
357.25	1253.36
357.46	1222.64
357.68	1239.02
357.89	1253.36
358.10	1232.88
358.31	1273.84
358.52	1304.56
358.73	1259.50
358.94	1327.08
359.15	1224.69
359.36	1300.46
359.57	1273.84
359.78	1263.60
359.99	1228.78
360.20	1212.40
360.41	1232.88
360.62	1363.95
360.83	1282.03
361.04	1263.60
361.25	1269.74
361.46	1298.41
361.67	1269.74
361.88	1230.83
362.09	1314.80
362.30	1267.69
362.51	1275.88
362.72	1271.79
362.93	1243.12
363.14	1308.65
363.35	1314.80
363.56	1286.12
363.78	1277.93
363.99	1292.27
364.20	1273.84
364.41	1284.08
364.62	1284.08
364.83	1292.27
365.04	1300.46
365.25	1312.75
365.46	1212.40
365.67	1282.03
365.88	1275.88
366.09	1318.89
366.30	1288.17
366.51	1224.69
366.72	1253.36
366.93	1220.59
367.14	1251.31
367.35	1286.12
367.56	1279.98
367.77	1359.85
367.98	1284.08
368.18	1292.27
368.39	1310.70
368.60	1234.93
368.81	1288.17
369.02	1273.84
369.23	1257.45
369.44	1255.40
369.65	1282.03
369.86	1351.66
370.07	1314.80
370.28	1200.11
370.49	1247.21
370.70	1286.12
370.91	1294.32
371.12	1261.55
371.33	1196.01
371.54	1255.40
371.75	1249.26
371.96	1267.69
372.17	1247.21
372.38	1279.98
372.59	1310.70
372.80	1232.88
373.01	1269.74
373.22	1253.36
373.43	1230.83
373.64	1282.03
373.85	1236.97
374.06	1232.88
374.26	1355.76
374.47	1306.60
374.68	1191.92
374.89	1312.75
375.10	1261.55
375.31	1265.64
375.52	1210.35
375.73	1212.40
375.94	1282.03
376.15	1243.12
376.36	1294.32
376.57	1222.64
376.78	1279.98
376.99	1245.16
377.20	1298.41
377.40	1267.69
377.61	1196.01
377.82	1302.51
378.03	1241.07
378.24	1251.31
378.45	1253.36
378.66	1312.75
378.87	1292.27
379.08	1306.60
379.29	1279.98
379.50	1286.12
379.71	1286.12
379.91	1282.03
380.12	1171.44
380.33	1249.26
380.54	1290.22
380.75	1224.69
380.96	1288.17
381.17	1216.49
381.38	1259.50
381.59	1228.78
381.80	1286.12
382.00	1232.88
382.21	1257.45
382.42	1292.27
382.63	1345.52
382.84	1191.92
383.05	1279.98
383.26	1273.84
383.47	1241.07
383.68	1331.18
383.88	1339.37
384.09	1224.69
384.30	1234.93
384.51	1265.64
384.72	1226.73
384.93	1312.75
385.14	1265.64
385.35	1279.98
385.55	1284.08
385.76	1312.75
385.97	1241.07
386.18	1257.45
386.39	1204.21
386.60	1284.08
386.81	1277.93
387.02	1265.64
387.22	1290.22
387.43	1275.88
387.64	1284.08
387.85	1257.45
388.06	1181.68
388.27	1228.78
388.48	1210.35
388.68	1284.08
388.89	1232.88
389.10	1290.22
389.31	1263.60
389.52	1345.52
389.73	1157.10
389.93	1257.45
390.14	1212.40
390.35	1288.17
390.56	1239.02
390.77	1261.55
390.98	1214.45
391.18	1247.21
391.39	1304.56
391.60	1296.36
391.81	1204.21
392.02	1212.40
392.23	1325.04
392.43	1325.04
392.64	1261.55
392.85	1193.97
393.06	1370.09
393.27	1230.83
393.47	1329.13
393.68	1300.46
393.89	1236.97
394.10	1183.73
394.31	1257.45
394.52	1263.60
394.72	1302.51
394.93	1261.55
395.14	1210.35
395.35	1302.51
395.56	1224.69
395.76	1265.64
395.97	1253.36
396.18	1335.28
396.39	1241.07
396.60	1288.17
396.80	1343.47
397.01	1290.22
397.22	1193.97
397.43	1218.54
397.64	1253.36
397.84	1236.97
398.05	1261.55
398.26	1275.88
398.47	1265.64
398.67	1251.31
398.88	1234.93
399.09	1288.17
399.30	1234.93
399.51	1228.78
399.71	1259.50
399.92	1181.68
400.13	1212.40
400.34	1288.17
400.54	1290.22
400.75	1368.04
400.96	1327.08
401.17	1310.70
401.37	1249.26
401.58	1298.41
401.79	1308.65
402.00	1298.41
402.21	1271.79
402.41	1214.45
402.62	1298.41
402.83	1277.93
403.04	1226.73
403.24	1284.08
403.45	1277.93
403.66	1232.88
403.87	1284.08
404.07	1279.98
404.28	1222.64
404.49	1239.02
404.70	1212.40
404.90	1222.64
405.11	1253.36
405.32	1296.36
405.52	1234.93
405.73	1273.84
405.94	1290.22
406.15	1206.25
406.35	1247.21
406.56	1198.06
406.77	1267.69
406.98	1265.64
407.18	1196.01
407.39	1232.88
407.60	1222.64
407.80	1288.17
408.01	1251.31
408.22	1294.32
408.43	1226.73
408.63	1259.50
408.84	1249.26
409.05	1228.78
409.25	1298.41
409.46	1298.41
409.67	1239.02
409.88	1251.31
410.08	1234.93
410.29	1304.56
410.50	1320.94
410.70	1335.28
410.91	1226.73
411.12	1265.64
411.32	1284.08
411.53	1265.64
411.74	1320.94
411.95	1253.36
412.15	1294.32
412.36	1298.41
412.57	1198.06
412.77	1310.70
412.98	1253.36
413.19	1259.50
413.39	1290.22
413.60	1284.08
413.81	1308.65
414.01	1253.36
414.22	1286.12
414.43	1320.94
414.63	1290.22
414.84	1286.12
415.05	1239.02
415.25	1157.10
415.46	1316.84
415.67	1282.03
415.87	1200.11
416.08	1249.26
416.29	1249.26
416.49	1171.44
416.70	1290.22
416.91	1239.02
417.11	1191.92
417.32	1245.16
417.53	1247.21
417.73	1236.97
417.94	1290.22
418.15	1253.36
418.35	1243.12
418.56	1216.49
418.77	1284.08
418.97	1257.45
419.18	1304.56
419.38	1255.40
419.59	1253.36
419.80	1269.74
420.00	1224.69
420.21	1277.93
420.42	1284.08
420.62	1187.82
420.83	1308.65
421.04	1245.16
421.24	1243.12
421.45	1267.69
421.65	1265.64
421.86	1232.88
422.07	1322.99
422.27	1304.56
422.48	1335.28
422.69	1282.03
422.89	1257.45
423.10	1282.03
423.30	1275.88
423.51	1259.50
423.72	1337.32
423.92	1239.02
424.13	1234.93
424.33	1273.84
424.54	1273.84
424.75	1306.60
424.95	1279.98
425.16	1300.46
425.36	1282.03
425.57	1279.98
425.78	1288.17
425.98	1239.02
426.19	1286.12
426.39	1261.55
426.60	1263.60
426.81	1300.46
427.01	1304.56
427.22	1288.17
427.42	1327.08
427.63	1265.64
427.83	1249.26
428.04	1261.55
428.25	1224.69
428.45	1298.41
428.66	1257.45
428.86	1353.71
429.07	1241.07
429.28	1245.16
429.48	1245.16
429.69	1296.36
429.89	1288.17
430.10	1292.27
430.30	1290.22
430.51	1320.94
430.71	1239.02
430.92	1273.84
431.13	1212.40
431.33	1292.27
431.54	1236.97
431.74	1243.12
431.95	1269.74
432.15	1288.17
432.36	1230.83
432.56	1245.16
432.77	1284.08
432.98	1339.37
433.18	1224.69
433.39	1247.21
433.59	1177.58
433.80	1243.12
434.00	1239.02
434.21	1239.02
434.41	1245.16
434.62	1288.17
434.82	1261.55
435.03	1331.18
435.23	1249.26
435.44	1212.40
435.64	1236.97
435.85	1279.98
436.06	1322.99
436.26	1333.23
436.47	1232.88
436.67	1257.45
436.88	1271.79
437.08	1220.59
437.29	1265.64
437.49	1196.01
437.70	1306.60
437.90	1267.69
438.11	1286.12
438.31	1269.74
438.52	1269.74
438.72	1247.21
438.93	1200.11
439.13	1265.64
439.34	1306.60
439.54	1282.03
439.75	1245.16
439.95	1253.36
440.16	1343.47
440.36	1214.45
440.57	1327.08
440.77	1300.46
440.98	1157.10
441.18	1396.71
441.39	1263.60
441.59	1306.60
441.80	1320.94
442.00	1286.12
442.21	1298.41
442.41	1232.88
442.62	1243.12
442.82	1273.84
443.02	1284.08
443.23	1234.93
443.43	1251.31
443.64	1226.73
443.84	1261.55
444.05	1249.26
444.25	1218.54
444.46	1273.84
444.66	1224.69
444.87	1273.84
445.07	1236.97
445.28	1296.36
445.48	1208.30
445.69	1253.36
445.89	1241.07
446.09	1277.93
446.30	1269.74
446.50	1255.40
446.71	1284.08
446.91	1282.03
447.12	1251.31
447.32	1253.36
447.53	1279.98
447.73	1294.32
447.93	1284.08
448.14	1310.70
448.34	1218.54
448.55	1191.92
448.75	1310.70
448.96	1273.84
449.16	1259.50
449.36	1306.60
449.57	1331.18
449.77	1236.97
449.98	1279.98
450.18	1206.25
450.39	1216.49
450.59	1255.40
450.79	1265.64
451.00	1290.22
451.20	1255.40
451.41	1273.84
451.61	1267.69
451.81	1263.60
452.02	1253.36
452.22	1347.56
452.43	1359.85
452.63	1312.75
