SpectraSuite Data File
++++++++++++++++++++++++++++++++++++
Date: Sun Apr 03 19:55:16 CEST 2016
User: root
Dark Spectrum Present: No
Reference Spectrum Present: No
Number of Sampled Component Spectra: 1
Spectrometers: USB4C02835
Integration Time (usec): 10000 (USB4C02835)
Spectra Averaged: 1 (USB4C02835)
Boxcar Smoothing: 0 (USB4C02835)
Correct for Electrical Dark: No (USB4C02835)
Strobe/Lamp Enabled: No (USB4C02835)
Correct for Detector Non-linearity: No (USB4C02835)
Correct for Stray Light: No (USB4C02835)
Number of Pixels in Processed Spectrum: 3648
>>>>>Begin Processed Spectral Data<<<<<
177.47	1302.51
177.69	1302.51
177.91	1302.51
178.13	1241.07
178.36	1306.60
178.58	1325.04
178.80	1267.69
179.02	1245.16
179.24	1224.69
179.46	1322.99
179.68	1308.65
179.90	1185.77
180.13	1279.98
180.35	1243.12
180.57	1320.94
180.79	1284.08
181.01	1296.36
181.23	1275.88
181.45	1327.08
181.67	1337.32
181.90	1263.60
182.12	1255.40
182.34	1294.32
182.56	1275.88
182.78	1271.79
183.00	1230.83
183.22	1224.69
183.44	1259.50
183.66	1308.65
183.89	1308.65
184.11	1261.55
184.33	1208.30
184.55	1183.73
184.77	1331.18
184.99	1196.01
185.21	1314.80
185.43	1345.52
185.65	1322.99
185.87	1282.03
186.10	1247.21
186.32	1372.14
186.54	1294.32
186.76	1306.60
186.98	1214.45
187.20	1271.79
187.42	1302.51
187.64	1308.65
187.86	1257.45
188.08	1279.98
188.30	1267.69
188.52	1271.79
188.75	1234.93
188.97	1329.13
189.19	1290.22
189.41	1269.74
189.63	1269.74
189.85	1187.82
190.07	1224.69
190.29	1349.61
190.51	1236.97
190.73	1277.93
190.95	1275.88
191.17	1265.64
191.39	1257.45
191.61	1288.17
191.84	1267.69
192.06	1310.70
192.28	1327.08
192.50	1302.51
192.72	1228.78
192.94	1294.32
193.16	1269.74
193.38	1269.74
193.60	1298.41
193.82	1282.03
194.04	1361.90
194.26	1261.55
194.48	1228.78
194.70	1318.89
194.92	1304.56
195.14	1214.45
195.36	1286.12
195.58	1277.93
195.80	1294.32
196.02	1249.26
196.24	1257.45
196.46	1255.40
196.69	1269.74
196.91	1269.74
197.13	1300.46
197.35	1251.31
197.57	1267.69
197.79	1241.07
198.01	1232.88
198.23	1245.16
198.45	1288.17
198.67	1236.97
198.89	1271.79
199.11	1257.45
199.33	1232.88
199.55	1261.55
199.77	1259.50
199.99	1282.03
200.21	1228.78
200.43	1239.02
200.65	1284.08
200.87	1261.55
201.09	1224.69
201.31	1302.51
201.53	1277.93
201.75	1282.03
201.97	1226.73
202.19	1298.41
202.41	1239.02
202.63	1226.73
202.85	1273.84
203.07	1290.22
203.29	1241.07
203.51	1218.54
203.73	1259.50
203.95	1329.13
204.17	1226.73
204.39	1296.36
204.61	1363.95
204.83	1267.69
205.05	1193.97
205.27	1306.60
205.49	1239.02
205.71	1296.36
205.93	1241.07
206.15	1259.50
206.37	1277.93
206.59	1214.45
206.81	1228.78
207.03	1261.55
207.25	1224.69
207.47	1304.56
207.69	1271.79
207.91	1202.16
208.13	1339.37
208.34	1269.74
208.56	1271.79
208.78	1241.07
209.00	1243.12
209.22	1322.99
209.44	1245.16
209.66	1249.26
209.88	1316.84
210.10	1271.79
210.32	1306.60
210.54	1292.27
210.76	1257.45
210.98	1386.47
211.20	1296.36
211.42	1232.88
211.64	1265.64
211.86	1259.50
212.08	1267.69
212.30	1277.93
212.52	1247.21
212.74	1331.18
212.96	1294.32
213.17	1333.23
213.39	1302.51
213.61	1241.07
213.83	1265.64
214.05	1263.60
214.27	1187.82
214.49	1224.69
214.71	1249.26
214.93	1277.93
215.15	1282.03
215.37	1343.47
215.59	1316.84
215.81	1302.51
216.03	1243.12
216.24	1263.60
216.46	1277.93
216.68	1314.80
216.90	1292.27
217.12	1288.17
217.34	1322.99
217.56	1302.51
217.78	1196.01
218.00	1282.03
218.22	1232.88
218.44	1296.36
218.66	1271.79
218.87	1255.40
219.09	1279.98
219.31	1261.55
219.53	1284.08
219.75	1322.99
219.97	1265.64
220.19	1255.40
220.41	1236.97
220.63	1230.83
220.85	1239.02
221.06	1234.93
221.28	1220.59
221.50	1300.46
221.72	1294.32
221.94	1257.45
222.16	1314.80
222.38	1298.41
222.60	1296.36
222.82	1273.84
223.03	1277.93
223.25	1372.14
223.47	1318.89
223.69	1257.45
223.91	1279.98
224.13	1294.32
224.35	1277.93
224.57	1292.27
224.78	1249.26
225.00	1232.88
225.22	1290.22
225.44	1257.45
225.66	1259.50
225.88	1257.45
226.10	1241.07
226.32	1271.79
226.53	1253.36
226.75	1222.64
226.97	1294.32
227.19	1249.26
227.41	1290.22
227.63	1234.93
227.85	1177.58
228.06	1320.94
228.28	1269.74
228.50	1290.22
228.72	1185.77
228.94	1277.93
229.16	1296.36
229.37	1286.12
229.59	1249.26
229.81	1249.26
230.03	1263.60
230.25	1294.32
230.47	1220.59
230.69	1314.80
230.90	1191.92
231.12	1265.64
231.34	1271.79
231.56	1318.89
231.78	1228.78
232.00	1208.30
232.21	1214.45
232.43	1288.17
232.65	1241.07
232.87	1275.88
233.09	1253.36
233.30	1257.45
233.52	1183.73
233.74	1255.40
233.96	1228.78
234.18	1236.97
234.40	1279.98
234.61	1232.88
234.83	1241.07
235.05	1261.55
235.27	1294.32
235.49	1298.41
235.70	1366.00
235.92	1318.89
236.14	1251.31
236.36	1331.18
236.58	1224.69
236.79	1294.32
237.01	1306.60
237.23	1294.32
237.45	1347.56
237.67	1257.45
237.88	1239.02
238.10	1265.64
238.32	1220.59
238.54	1294.32
238.76	1267.69
238.97	1302.51
239.19	1312.75
239.41	1345.52
239.63	1273.84
239.85	1308.65
240.06	1241.07
240.28	1265.64
240.50	1308.65
240.72	1267.69
240.93	1279.98
241.15	1302.51
241.37	1249.26
241.59	1226.73
241.81	1300.46
242.02	1288.17
242.24	1249.26
242.46	1316.84
242.68	1286.12
242.89	1290.22
243.11	1275.88
243.33	1288.17
243.55	1279.98
243.76	1329.13
243.98	1253.36
244.20	1261.55
244.42	1255.40
244.64	1314.80
244.85	1300.46
245.07	1239.02
245.29	1347.56
245.51	1286.12
245.72	1259.50
245.94	1310.70
246.16	1253.36
246.38	1271.79
246.59	1140.72
246.81	1234.93
247.03	1257.45
247.24	1249.26
247.46	1234.93
247.68	1314.80
247.90	1288.17
248.11	1288.17
248.33	1234.93
248.55	1228.78
248.77	1236.97
248.98	1265.64
249.20	1322.99
249.42	1230.83
249.64	1279.98
249.85	1314.80
250.07	1261.55
250.29	1290.22
250.50	1224.69
250.72	1253.36
250.94	1306.60
251.16	1253.36
251.37	1247.21
251.59	1204.21
251.81	1193.97
252.02	1257.45
252.24	1277.93
252.46	1222.64
252.68	1273.84
252.89	1265.64
253.11	1230.83
253.33	1314.80
253.54	1318.89
253.76	1308.65
253.98	1253.36
254.20	1236.97
254.41	1265.64
254.63	1263.60
254.85	1316.84
255.06	1253.36
255.28	1372.14
255.50	1224.69
255.71	1284.08
255.93	1294.32
256.15	1273.84
256.36	1290.22
256.58	1171.44
256.80	1320.94
257.02	1294.32
257.23	1277.93
257.45	1245.16
257.67	1222.64
257.88	1255.40
258.10	1304.56
258.32	1329.13
258.53	1273.84
258.75	1251.31
258.97	1288.17
259.18	1335.28
259.40	1345.52
259.62	1247.21
259.83	1236.97
260.05	1181.68
260.27	1208.30
260.48	1249.26
260.70	1273.84
260.92	1251.31
261.13	1269.74
261.35	1245.16
261.57	1218.54
261.78	1329.13
262.00	1261.55
262.22	1261.55
262.43	1185.77
262.65	1292.27
262.86	1327.08
263.08	1245.16
263.30	1294.32
263.51	1263.60
263.73	1214.45
263.95	1345.52
264.16	1265.64
264.38	1239.02
264.60	1249.26
264.81	1308.65
265.03	1245.16
265.25	1312.75
265.46	1322.99
265.68	1269.74
265.89	1306.60
266.11	1216.49
266.33	1257.45
266.54	1189.87
266.76	1271.79
266.98	1316.84
267.19	1292.27
267.41	1320.94
267.62	1191.92
267.84	1288.17
268.06	1261.55
268.27	1247.21
268.49	1296.36
268.70	1316.84
268.92	1177.58
269.14	1241.07
269.35	1296.36
269.57	1230.83
269.79	1318.89
270.00	1279.98
270.22	1269.74
270.43	1277.93
270.65	1226.73
270.87	1335.28
271.08	1316.84
271.30	1282.03
271.51	1271.79
271.73	1273.84
271.95	1263.60
272.16	1263.60
272.38	1288.17
272.59	1261.55
272.81	1228.78
273.02	1296.36
273.24	1290.22
273.46	1265.64
273.67	1300.46
273.89	1187.82
274.10	1320.94
274.32	1318.89
274.54	1185.77
274.75	1241.07
274.97	1302.51
275.18	1251.31
275.40	1357.80
275.61	1277.93
275.83	1249.26
276.05	1294.32
276.26	1300.46
276.48	1267.69
276.69	1290.22
276.91	1290.22
277.12	1308.65
277.34	1290.22
277.55	1329.13
277.77	1239.02
277.99	1325.04
278.20	1243.12
278.42	1232.88
278.63	1241.07
278.85	1249.26
279.06	1269.74
279.28	1191.92
279.49	1265.64
279.71	1298.41
279.93	1282.03
280.14	1239.02
280.36	1275.88
280.57	1228.78
280.79	1343.47
281.00	1198.06
281.22	1279.98
281.43	1249.26
281.65	1259.50
281.86	1228.78
282.08	1322.99
282.29	1284.08
282.51	1241.07
282.73	1318.89
282.94	1255.40
283.16	1265.64
283.37	1275.88
283.59	1257.45
283.80	1290.22
284.02	1298.41
284.23	1255.40
284.45	1273.84
284.66	1314.80
284.88	1288.17
285.09	1234.93
285.31	1300.46
285.52	1247.21
285.74	1294.32
285.95	1259.50
286.17	1216.49
286.38	1261.55
286.60	1320.94
286.81	1234.93
287.03	1316.84
287.24	1234.93
287.46	1255.40
287.67	1275.88
287.89	1271.79
288.10	1218.54
288.32	1253.36
288.53	1265.64
288.75	1329.13
288.96	1273.84
289.18	1310.70
289.39	1282.03
289.61	1275.88
289.82	1261.55
290.04	1292.27
290.25	1273.84
290.47	1185.77
290.68	1298.41
290.90	1271.79
291.11	1273.84
291.33	1214.45
291.54	1208.30
291.76	1212.40
291.97	1253.36
292.18	1277.93
292.40	1187.82
292.61	1239.02
292.83	1304.56
293.04	1212.40
293.26	1267.69
293.47	1253.36
293.69	1269.74
293.90	1234.93
294.12	1212.40
294.33	1304.56
294.55	1279.98
294.76	1277.93
294.97	1282.03
295.19	1288.17
295.40	1253.36
295.62	1298.41
295.83	1290.22
296.05	1288.17
296.26	1263.60
296.48	1271.79
296.69	1304.56
296.90	1249.26
297.12	1243.12
297.33	1279.98
297.55	1261.55
297.76	1310.70
297.98	1204.21
298.19	1226.73
298.41	1300.46
298.62	1183.73
298.83	1183.73
299.05	1181.68
299.26	1216.49
299.48	1226.73
299.69	1259.50
299.90	1316.84
300.12	1232.88
300.33	1253.36
300.55	1228.78
300.76	1271.79
300.98	1234.93
301.19	1249.26
301.40	1306.60
301.62	1349.61
301.83	1220.59
302.05	1296.36
302.26	1198.06
302.47	1292.27
302.69	1261.55
302.90	1275.88
303.12	1271.79
303.33	1325.04
303.54	1275.88
303.76	1302.51
303.97	1314.80
304.19	1339.37
304.40	1226.73
304.61	1243.12
304.83	1241.07
305.04	1279.98
305.26	1210.35
305.47	1302.51
305.68	1290.22
305.90	1282.03
306.11	1216.49
306.33	1253.36
306.54	1261.55
306.75	1292.27
306.97	1343.47
307.18	1306.60
307.39	1198.06
307.61	1267.69
307.82	1275.88
308.04	1320.94
308.25	1253.36
308.46	1214.45
308.68	1232.88
308.89	1257.45
309.10	1288.17
309.32	1275.88
309.53	1208.30
309.74	1245.16
309.96	1232.88
310.17	1292.27
310.39	1298.41
310.60	1263.60
310.81	1277.93
311.03	1286.12
311.24	1327.08
311.45	1290.22
311.67	1282.03
311.88	1298.41
312.09	1290.22
312.31	1271.79
312.52	1212.40
312.73	1288.17
312.95	1230.83
313.16	1228.78
313.37	1302.51
313.59	1216.49
313.80	1296.36
314.01	1257.45
314.23	1306.60
314.44	1263.60
314.65	1288.17
314.87	1255.40
315.08	1269.74
315.29	1179.63
315.51	1282.03
315.72	1243.12
315.93	1345.52
316.15	1230.83
316.36	1329.13
316.57	1210.35
316.79	1273.84
317.00	1298.41
317.21	1214.45
317.43	1273.84
317.64	1255.40
317.85	1261.55
318.07	1298.41
318.28	1224.69
318.49	1306.60
318.70	1273.84
318.92	1236.97
319.13	1212.40
319.34	1310.70
319.56	1247.21
319.77	1273.84
319.98	1275.88
320.20	1294.32
320.41	1243.12
320.62	1232.88
320.83	1267.69
321.05	1302.51
321.26	1282.03
321.47	1306.60
321.69	1282.03
321.90	1329.13
322.11	1249.26
322.32	1249.26
322.54	1257.45
322.75	1277.93
322.96	1312.75
323.18	1212.40
323.39	1304.56
323.60	1312.75
323.81	1286.12
324.03	1273.84
324.24	1234.93
324.45	1282.03
324.66	1247.21
324.88	1239.02
325.09	1306.60
325.30	1357.80
325.52	1214.45
325.73	1282.03
325.94	1306.60
326.15	1226.73
326.37	1277.93
326.58	1257.45
326.79	1210.35
327.00	1284.08
327.22	1247.21
327.43	1327.08
327.64	1247.21
327.85	1333.23
328.07	1234.93
328.28	1253.36
328.49	1275.88
328.70	1279.98
328.92	1331.18
329.13	1290.22
329.34	1320.94
329.55	1284.08
329.76	1325.04
329.98	1269.74
330.19	1241.07
330.40	1263.60
330.61	1269.74
330.83	1292.27
331.04	1245.16
331.25	1257.45
331.46	1284.08
331.68	1241.07
331.89	1298.41
332.10	1251.31
332.31	1286.12
332.52	1286.12
332.74	1259.50
332.95	1187.82
333.16	1322.99
333.37	1279.98
333.58	1241.07
333.80	1333.23
334.01	1263.60
334.22	1269.74
334.43	1300.46
334.64	1255.40
334.86	1300.46
335.07	1249.26
335.28	1179.63
335.49	1241.07
335.70	1329.13
335.92	1275.88
336.13	1265.64
336.34	1279.98
336.55	1232.88
336.76	1277.93
336.98	1226.73
337.19	1265.64
337.40	1372.14
337.61	1288.17
337.82	1343.47
338.04	1249.26
338.25	1265.64
338.46	1226.73
338.67	1333.23
338.88	1212.40
339.09	1298.41
339.31	1249.26
339.52	1269.74
339.73	1241.07
339.94	1241.07
340.15	1368.04
340.36	1269.74
340.58	1257.45
340.79	1226.73
341.00	1243.12
341.21	1263.60
341.42	1204.21
341.63	1341.42
341.85	1261.55
342.06	1298.41
342.27	1236.97
342.48	1226.73
342.69	1275.88
342.90	1282.03
343.12	1232.88
343.33	1245.16
343.54	1302.51
343.75	1267.69
343.96	1226.73
344.17	1267.69
344.38	1263.60
344.60	1306.60
344.81	1277.93
345.02	1320.94
345.23	1247.21
345.44	1230.83
345.65	1275.88
345.86	1249.26
346.07	1206.25
346.29	1253.36
346.50	1230.83
346.71	1255.40
346.92	1322.99
347.13	1212.40
347.34	1214.45
347.55	1255.40
347.76	1298.41
347.98	1226.73
348.19	1284.08
348.40	1230.83
348.61	1312.75
348.82	1302.51
349.03	1189.87
349.24	1245.16
349.45	1288.17
349.66	1279.98
349.88	1222.64
350.09	1353.71
350.30	1212.40
350.51	1193.97
350.72	1204.21
350.93	1292.27
351.14	1284.08
351.35	1259.50
351.56	1241.07
351.77	1388.52
351.99	1259.50
352.20	1277.93
352.41	1349.61
352.62	1249.26
352.83	1243.12
353.04	1265.64
353.25	1284.08
353.46	1277.93
353.67	1249.26
353.88	1302.51
354.09	1314.80
354.30	1198.06
354.52	1267.69
354.73	1216.49
354.94	1265.64
355.15	1222.64
355.36	1288.17
355.57	1298.41
355.78	1282.03
355.99	1257.45
356.20	1341.42
356.41	1245.16
356.62	1331.18
356.83	1271.79
357.04	1337.32
357.25	1282.03
357.46	1259.50
357.68	1265.64
357.89	1226.73
358.10	1290.22
358.31	1282.03
358.52	1288.17
358.73	1216.49
358.94	1267.69
359.15	1245.16
359.36	1247.21
359.57	1290.22
359.78	1314.80
359.99	1245.16
360.20	1218.54
360.41	1296.36
360.62	1298.41
360.83	1202.16
361.04	1189.87
361.25	1296.36
361.46	1183.73
361.67	1251.31
361.88	1314.80
362.09	1177.58
362.30	1312.75
362.51	1290.22
362.72	1216.49
362.93	1255.40
363.14	1282.03
363.35	1249.26
363.56	1292.27
363.78	1275.88
363.99	1189.87
364.20	1214.45
364.41	1288.17
364.62	1284.08
364.83	1279.98
365.04	1232.88
365.25	1282.03
365.46	1337.32
365.67	1275.88
365.88	1282.03
366.09	1271.79
366.30	1318.89
366.51	1273.84
366.72	1288.17
366.93	1265.64
367.14	1273.84
367.35	1247.21
367.56	1261.55
367.77	1282.03
367.98	1247.21
368.18	1306.60
368.39	1222.64
368.60	1263.60
368.81	1271.79
369.02	1249.26
369.23	1308.65
369.44	1282.03
369.65	1259.50
369.86	1314.80
370.07	1261.55
370.28	1306.60
370.49	1275.88
370.70	1257.45
370.91	1249.26
371.12	1265.64
371.33	1282.03
371.54	1208.30
371.75	1314.80
371.96	1298.41
372.17	1255.40
372.38	1286.12
372.59	1249.26
372.80	1251.31
373.01	1220.59
373.22	1263.60
373.43	1279.98
373.64	1300.46
373.85	1271.79
374.06	1263.60
374.26	1171.44
374.47	1308.65
374.68	1265.64
374.89	1353.71
375.10	1265.64
375.31	1255.40
375.52	1271.79
375.73	1320.94
375.94	1261.55
376.15	1249.26
376.36	1253.36
376.57	1255.40
376.78	1298.41
376.99	1261.55
377.20	1206.25
377.40	1236.97
377.61	1265.64
377.82	1202.16
378.03	1273.84
378.24	1239.02
378.45	1290.22
378.66	1265.64
378.87	1239.02
379.08	1216.49
379.29	1251.31
379.50	1216.49
379.71	1265.64
379.91	1245.16
380.12	1243.12
380.33	1288.17
380.54	1288.17
380.75	1314.80
380.96	1239.02
381.17	1241.07
381.38	1273.84
381.59	1228.78
381.80	1247.21
382.00	1286.12
382.21	1228.78
382.42	1318.89
382.63	1202.16
382.84	1234.93
383.05	1249.26
383.26	1257.45
383.47	1267.69
383.68	1288.17
383.88	1191.92
384.09	1241.07
384.30	1284.08
384.51	1269.74
384.72	1359.85
384.93	1277.93
385.14	1282.03
385.35	1286.12
385.55	1308.65
385.76	1265.64
385.97	1296.36
386.18	1279.98
386.39	1247.21
386.60	1316.84
386.81	1286.12
387.02	1187.82
387.22	1273.84
387.43	1306.60
387.64	1228.78
387.85	1265.64
388.06	1300.46
388.27	1232.88
388.48	1224.69
388.68	1216.49
388.89	1245.16
389.10	1273.84
389.31	1214.45
389.52	1306.60
389.73	1294.32
389.93	1200.11
390.14	1294.32
390.35	1308.65
390.56	1241.07
390.77	1308.65
390.98	1255.40
391.18	1265.64
391.39	1286.12
391.60	1306.60
391.81	1269.74
392.02	1273.84
392.23	1222.64
392.43	1322.99
392.64	1265.64
392.85	1282.03
393.06	1261.55
393.27	1273.84
393.47	1265.64
393.68	1269.74
393.89	1236.97
394.10	1200.11
394.31	1232.88
394.52	1259.50
394.72	1273.84
394.93	1282.03
395.14	1265.64
395.35	1292.27
395.56	1224.69
395.76	1314.80
395.97	1202.16
396.18	1308.65
396.39	1312.75
396.60	1294.32
396.80	1247.21
397.01	1226.73
397.22	1288.17
397.43	1232.88
397.64	1257.45
397.84	1359.85
398.05	1251.31
398.26	1284.08
398.47	1196.01
398.67	1249.26
398.88	1265.64
399.09	1341.42
399.30	1245.16
399.51	1279.98
399.71	1308.65
399.92	1251.31
400.13	1284.08
400.34	1234.93
400.54	1232.88
400.75	1265.64
400.96	1357.80
401.17	1320.94
401.37	1253.36
401.58	1263.60
401.79	1224.69
402.00	1271.79
402.21	1269.74
402.41	1265.64
402.62	1257.45
402.83	1212.40
403.04	1265.64
403.24	1255.40
403.45	1224.69
403.66	1265.64
403.87	1279.98
404.07	1294.32
404.28	1302.51
404.49	1273.84
404.70	1296.36
404.90	1282.03
405.11	1277.93
405.32	1206.25
405.52	1286.12
405.73	1306.60
405.94	1306.60
406.15	1245.16
406.35	1275.88
406.56	1259.50
406.77	1271.79
406.98	1206.25
407.18	1339.37
407.39	1222.64
407.60	1224.69
407.80	1214.45
408.01	1257.45
408.22	1271.79
408.43	1347.56
408.63	1306.60
408.84	1304.56
409.05	1310.70
409.25	1314.80
409.46	1222.64
409.67	1220.59
409.88	1183.73
410.08	1298.41
410.29	1296.36
410.50	1239.02
410.70	1216.49
410.91	1255.40
411.12	1271.79
411.32	1277.93
411.53	1241.07
411.74	1196.01
411.95	1241.07
412.15	1226.73
412.36	1296.36
412.57	1234.93
412.77	1243.12
412.98	1273.84
413.19	1284.08
413.39	1273.84
413.60	1275.88
413.81	1333.23
414.01	1202.16
414.22	1220.59
414.43	1302.51
414.63	1222.64
414.84	1247.21
415.05	1341.42
415.25	1294.32
415.46	1277.93
415.67	1265.64
415.87	1282.03
416.08	1222.64
416.29	1265.64
416.49	1292.27
416.70	1284.08
416.91	1255.40
417.11	1212.40
417.32	1300.46
417.53	1224.69
417.73	1230.83
417.94	1347.56
418.15	1249.26
418.35	1236.97
418.56	1204.21
418.77	1230.83
418.97	1345.52
419.18	1308.65
419.38	1249.26
419.59	1241.07
419.80	1279.98
420.00	1249.26
420.21	1298.41
420.42	1230.83
420.62	1234.93
420.83	1265.64
421.04	1253.36
421.24	1208.30
421.45	1310.70
421.65	1263.60
421.86	1306.60
422.07	1259.50
422.27	1310.70
422.48	1273.84
422.69	1341.42
422.89	1253.36
423.10	1353.71
423.30	1261.55
423.51	1286.12
423.72	1275.88
423.92	1247.21
424.13	1269.74
424.33	1206.25
424.54	1220.59
424.75	1269.74
424.95	1292.27
425.16	1290.22
425.36	1327.08
425.57	1234.93
425.78	1320.94
425.98	1267.69
426.19	1218.54
426.39	1284.08
426.60	1294.32
426.81	1267.69
427.01	1368.04
427.22	1292.27
427.42	1216.49
427.63	1290.22
427.83	1247.21
428.04	1302.51
428.25	1255.40
428.45	1345.52
428.66	1214.45
428.86	1232.88
429.07	1302.51
429.28	1298.41
429.48	1224.69
429.69	1204.21
429.89	1247.21
430.10	1241.07
430.30	1333.23
430.51	1304.56
430.71	1263.60
430.92	1259.50
431.13	1298.41
431.33	1302.51
431.54	1220.59
431.74	1339.37
431.95	1255.40
432.15	1247.21
432.36	1271.79
432.56	1304.56
432.77	1277.93
432.98	1349.61
433.18	1253.36
433.39	1277.93
433.59	1292.27
433.80	1232.88
434.00	1298.41
434.21	1304.56
434.41	1204.21
434.62	1279.98
434.82	1310.70
435.03	1279.98
435.23	1249.26
435.44	1318.89
435.64	1196.01
435.85	1304.56
436.06	1265.64
436.26	1290.22
436.47	1267.69
436.67	1261.55
436.88	1251.31
437.08	1228.78
437.29	1316.84
437.49	1249.26
437.70	1306.60
437.90	1288.17
438.11	1247.21
438.31	1296.36
438.52	1202.16
438.72	1273.84
438.93	1279.98
439.13	1361.90
439.34	1212.40
439.54	1243.12
439.75	1269.74
439.95	1239.02
440.16	1208.30
440.36	1288.17
440.57	1267.69
440.77	1212.40
440.98	1206.25
441.18	1263.60
441.39	1284.08
441.59	1236.97
441.80	1318.89
442.00	1327.08
442.21	1308.65
442.41	1349.61
442.62	1294.32
442.82	1265.64
443.02	1275.88
443.23	1331.18
443.43	1267.69
443.64	1259.50
443.84	1232.88
444.05	1279.98
444.25	1243.12
444.46	1275.88
444.66	1224.69
444.87	1273.84
445.07	1296.36
445.28	1267.69
445.48	1347.56
445.69	1341.42
445.89	1277.93
446.09	1294.32
446.30	1230.83
446.50	1322.99
446.71	1306.60
446.91	1251.31
447.12	1265.64
447.32	1306.60
447.53	1290.22
447.73	1269.74
447.93	1286.12
448.14	1308.65
448.34	1222.64
448.55	1265.64
448.75	1243.12
448.96	1245.16
449.16	1257.45
449.36	1267.69
449.57	1343.47
449.77	1279.98
449.98	1247.21
450.18	1230.83
450.39	1325.04
450.59	1345.52
450.79	1224.69
451.00	1300.46
451.20	1212.40
451.41	1304.56
451.61	1284.08
451.81	1234.93
452.02	1234.93
452.22	1253.36
452.43	1273.84
452.63	1312.75
