SpectraSuite Data File
++++++++++++++++++++++++++++++++++++
Date: Sun Apr 03 19:55:14 CEST 2016
User: root
Dark Spectrum Present: No
Reference Spectrum Present: No
Number of Sampled Component Spectra: 1
Spectrometers: USB4C02835
Integration Time (usec): 10000 (USB4C02835)
Spectra Averaged: 1 (USB4C02835)
Boxcar Smoothing: 0 (USB4C02835)
Correct for Electrical Dark: No (USB4C02835)
Strobe/Lamp Enabled: No (USB4C02835)
Correct for Detector Non-linearity: No (USB4C02835)
Correct for Stray Light: No (USB4C02835)
Number of Pixels in Processed Spectrum: 3648
>>>>>Begin Processed Spectral Data<<<<<
177.47	1245.16
177.69	1245.16
177.91	1245.16
178.13	1329.13
178.36	1228.78
178.58	1245.16
178.80	1296.36
179.02	1302.51
179.24	1216.49
179.46	1241.07
179.68	1292.27
179.90	1230.83
180.13	1239.02
180.35	1247.21
180.57	1251.31
180.79	1294.32
181.01	1183.73
181.23	1349.61
181.45	1312.75
181.67	1257.45
181.90	1290.22
182.12	1251.31
182.34	1284.08
182.56	1302.51
182.78	1304.56
183.00	1212.40
183.22	1273.84
183.44	1204.21
183.66	1300.46
183.89	1251.31
184.11	1251.31
184.33	1239.02
184.55	1398.76
184.77	1320.94
184.99	1232.88
185.21	1251.31
185.43	1314.80
185.65	1288.17
185.87	1273.84
186.10	1325.04
186.32	1257.45
186.54	1208.30
186.76	1239.02
186.98	1222.64
187.20	1306.60
187.42	1288.17
187.64	1296.36
187.86	1327.08
188.08	1279.98
188.30	1271.79
188.52	1312.75
188.75	1279.98
188.97	1214.45
189.19	1191.92
189.41	1316.84
189.63	1267.69
189.85	1337.32
190.07	1189.87
190.29	1296.36
190.51	1279.98
190.73	1277.93
190.95	1234.93
191.17	1253.36
191.39	1314.80
191.61	1341.42
191.84	1284.08
192.06	1222.64
192.28	1226.73
192.50	1286.12
192.72	1279.98
192.94	1218.54
193.16	1265.64
193.38	1286.12
193.60	1269.74
193.82	1298.41
194.04	1294.32
194.26	1300.46
194.48	1282.03
194.70	1361.90
194.92	1247.21
195.14	1245.16
195.36	1306.60
195.58	1247.21
195.80	1214.45
196.02	1228.78
196.24	1284.08
196.46	1234.93
196.69	1267.69
196.91	1267.69
197.13	1290.22
197.35	1279.98
197.57	1279.98
197.79	1200.11
198.01	1265.64
198.23	1306.60
198.45	1249.26
198.67	1335.28
198.89	1275.88
199.11	1306.60
199.33	1298.41
199.55	1294.32
199.77	1253.36
199.99	1236.97
200.21	1234.93
200.43	1318.89
200.65	1298.41
200.87	1243.12
201.09	1257.45
201.31	1222.64
201.53	1284.08
201.75	1259.50
201.97	1341.42
202.19	1273.84
202.41	1255.40
202.63	1236.97
202.85	1247.21
203.07	1253.36
203.29	1282.03
203.51	1255.40
203.73	1226.73
203.95	1286.12
204.17	1239.02
204.39	1208.30
204.61	1226.73
204.83	1239.02
205.05	1320.94
205.27	1261.55
205.49	1308.65
205.71	1341.42
205.93	1232.88
206.15	1271.79
206.37	1253.36
206.59	1282.03
206.81	1257.45
207.03	1230.83
207.25	1288.17
207.47	1284.08
207.69	1171.44
207.91	1259.50
208.13	1232.88
208.34	1279.98
208.56	1269.74
208.78	1277.93
209.00	1277.93
209.22	1251.31
209.44	1279.98
209.66	1316.84
209.88	1232.88
210.10	1290.22
210.32	1320.94
210.54	1282.03
210.76	1271.79
210.98	1308.65
211.20	1267.69
211.42	1271.79
211.64	1282.03
211.86	1296.36
212.08	1230.83
212.30	1351.66
212.52	1253.36
212.74	1232.88
212.96	1239.02
213.17	1331.18
213.39	1302.51
213.61	1275.88
213.83	1298.41
214.05	1253.36
214.27	1243.12
214.49	1265.64
214.71	1298.41
214.93	1279.98
215.15	1312.75
215.37	1282.03
215.59	1312.75
215.81	1255.40
216.03	1253.36
216.24	1267.69
216.46	1327.08
216.68	1329.13
216.90	1269.74
217.12	1169.39
217.34	1247.21
217.56	1259.50
217.78	1331.18
218.00	1294.32
218.22	1265.64
218.44	1177.58
218.66	1294.32
218.87	1288.17
219.09	1173.49
219.31	1284.08
219.53	1314.80
219.75	1253.36
219.97	1261.55
220.19	1306.60
220.41	1247.21
220.63	1259.50
220.85	1241.07
221.06	1243.12
221.28	1241.07
221.50	1218.54
221.72	1318.89
221.94	1271.79
222.16	1279.98
222.38	1228.78
222.60	1331.18
222.82	1329.13
223.03	1263.60
223.25	1337.32
223.47	1296.36
223.69	1241.07
223.91	1269.74
224.13	1302.51
224.35	1263.60
224.57	1290.22
224.78	1230.83
225.00	1224.69
225.22	1175.53
225.44	1232.88
225.66	1339.37
225.88	1259.50
226.10	1267.69
226.32	1316.84
226.53	1296.36
226.75	1216.49
226.97	1282.03
227.19	1273.84
227.41	1277.93
227.63	1279.98
227.85	1300.46
228.06	1239.02
228.28	1370.09
228.50	1306.60
228.72	1263.60
228.94	1253.36
229.16	1347.56
229.37	1282.03
229.59	1230.83
229.81	1345.52
230.03	1249.26
230.25	1196.01
230.47	1251.31
230.69	1212.40
230.90	1279.98
231.12	1294.32
231.34	1255.40
231.56	1331.18
231.78	1292.27
232.00	1277.93
232.21	1212.40
232.43	1284.08
232.65	1253.36
232.87	1292.27
233.09	1249.26
233.30	1261.55
233.52	1255.40
233.74	1253.36
233.96	1290.22
234.18	1292.27
234.40	1378.28
234.61	1304.56
234.83	1290.22
235.05	1267.69
235.27	1265.64
235.49	1253.36
235.70	1279.98
235.92	1249.26
236.14	1206.25
236.36	1347.56
236.58	1202.16
236.79	1259.50
237.01	1282.03
237.23	1290.22
237.45	1216.49
237.67	1290.22
237.88	1294.32
238.10	1269.74
238.32	1212.40
238.54	1310.70
238.76	1267.69
238.97	1312.75
239.19	1241.07
239.41	1273.84
239.63	1269.74
239.85	1284.08
240.06	1236.97
240.28	1257.45
240.50	1253.36
240.72	1263.60
240.93	1318.89
241.15	1214.45
241.37	1239.02
241.59	1218.54
241.81	1167.34
242.02	1310.70
242.24	1320.94
242.46	1277.93
242.68	1306.60
242.89	1261.55
243.11	1269.74
243.33	1284.08
243.55	1249.26
243.76	1226.73
243.98	1277.93
244.20	1304.56
244.42	1337.32
244.64	1249.26
244.85	1228.78
245.07	1269.74
245.29	1241.07
245.51	1282.03
245.72	1314.80
245.94	1259.50
246.16	1234.93
246.38	1204.21
246.59	1204.21
246.81	1343.47
247.03	1316.84
247.24	1239.02
247.46	1259.50
247.68	1232.88
247.90	1257.45
248.11	1282.03
248.33	1304.56
248.55	1273.84
248.77	1318.89
248.98	1253.36
249.20	1294.32
249.42	1282.03
249.64	1337.32
249.85	1284.08
250.07	1302.51
250.29	1282.03
250.50	1267.69
250.72	1265.64
250.94	1318.89
251.16	1294.32
251.37	1318.89
251.59	1322.99
251.81	1284.08
252.02	1296.36
252.24	1218.54
252.46	1339.37
252.68	1243.12
252.89	1232.88
253.11	1247.21
253.33	1212.40
253.54	1273.84
253.76	1228.78
253.98	1232.88
254.20	1273.84
254.41	1300.46
254.63	1306.60
254.85	1189.87
255.06	1261.55
255.28	1286.12
255.50	1279.98
255.71	1226.73
255.93	1286.12
256.15	1241.07
256.36	1316.84
256.58	1263.60
256.80	1320.94
257.02	1261.55
257.23	1206.25
257.45	1224.69
257.67	1245.16
257.88	1312.75
258.10	1290.22
258.32	1249.26
258.53	1191.92
258.75	1292.27
258.97	1279.98
259.18	1187.82
259.40	1304.56
259.62	1269.74
259.83	1302.51
260.05	1282.03
260.27	1232.88
260.48	1325.04
260.70	1314.80
260.92	1310.70
261.13	1265.64
261.35	1232.88
261.57	1263.60
261.78	1234.93
262.00	1241.07
262.22	1253.36
262.43	1267.69
262.65	1245.16
262.86	1222.64
263.08	1349.61
263.30	1279.98
263.51	1208.30
263.73	1239.02
263.95	1241.07
264.16	1335.28
264.38	1249.26
264.60	1216.49
264.81	1202.16
265.03	1288.17
265.25	1286.12
265.46	1253.36
265.68	1310.70
265.89	1275.88
266.11	1232.88
266.33	1200.11
266.54	1218.54
266.76	1288.17
266.98	1265.64
267.19	1294.32
267.41	1349.61
267.62	1198.06
267.84	1247.21
268.06	1241.07
268.27	1282.03
268.49	1282.03
268.70	1345.52
268.92	1255.40
269.14	1296.36
269.35	1296.36
269.57	1290.22
269.79	1277.93
270.00	1236.97
270.22	1329.13
270.43	1232.88
270.65	1212.40
270.87	1216.49
271.08	1282.03
271.30	1286.12
271.51	1210.35
271.73	1165.29
271.95	1208.30
272.16	1300.46
272.38	1243.12
272.59	1263.60
272.81	1241.07
273.02	1265.64
273.24	1312.75
273.46	1282.03
273.67	1267.69
273.89	1288.17
274.10	1267.69
274.32	1316.84
274.54	1232.88
274.75	1234.93
274.97	1329.13
275.18	1267.69
275.40	1226.73
275.61	1302.51
275.83	1286.12
276.05	1247.21
276.26	1306.60
276.48	1212.40
276.69	1265.64
276.91	1187.82
277.12	1249.26
277.34	1214.45
277.55	1239.02
277.77	1282.03
277.99	1255.40
278.20	1267.69
278.42	1261.55
278.63	1277.93
278.85	1322.99
279.06	1286.12
279.28	1271.79
279.49	1271.79
279.71	1245.16
279.93	1298.41
280.14	1271.79
280.36	1236.97
280.57	1345.52
280.79	1243.12
281.00	1249.26
281.22	1230.83
281.43	1200.11
281.65	1322.99
281.86	1214.45
282.08	1322.99
282.29	1218.54
282.51	1257.45
282.73	1265.64
282.94	1210.35
283.16	1269.74
283.37	1312.75
283.59	1232.88
283.80	1290.22
284.02	1251.31
284.23	1292.27
284.45	1314.80
284.66	1243.12
284.88	1212.40
285.09	1286.12
285.31	1271.79
285.52	1318.89
285.74	1325.04
285.95	1294.32
286.17	1202.16
286.38	1251.31
286.60	1292.27
286.81	1282.03
287.03	1273.84
287.24	1294.32
287.46	1265.64
287.67	1300.46
287.89	1273.84
288.10	1200.11
288.32	1304.56
288.53	1314.80
288.75	1271.79
288.96	1255.40
289.18	1255.40
289.39	1241.07
289.61	1345.52
289.82	1335.28
290.04	1255.40
290.25	1245.16
290.47	1245.16
290.68	1253.36
290.90	1284.08
291.11	1273.84
291.33	1288.17
291.54	1306.60
291.76	1239.02
291.97	1275.88
292.18	1325.04
292.40	1279.98
292.61	1282.03
292.83	1265.64
293.04	1275.88
293.26	1255.40
293.47	1239.02
293.69	1261.55
293.90	1310.70
294.12	1216.49
294.33	1275.88
294.55	1214.45
294.76	1363.95
294.97	1269.74
295.19	1304.56
295.40	1226.73
295.62	1263.60
295.83	1261.55
296.05	1296.36
296.26	1322.99
296.48	1302.51
296.69	1232.88
296.90	1298.41
297.12	1335.28
297.33	1288.17
297.55	1245.16
297.76	1257.45
297.98	1290.22
298.19	1282.03
298.41	1249.26
298.62	1255.40
298.83	1259.50
299.05	1312.75
299.26	1183.73
299.48	1261.55
299.69	1292.27
299.90	1259.50
300.12	1273.84
300.33	1370.09
300.55	1316.84
300.76	1247.21
300.98	1249.26
301.19	1255.40
301.40	1310.70
301.62	1263.60
301.83	1226.73
302.05	1275.88
302.26	1286.12
302.47	1294.32
302.69	1265.64
302.90	1327.08
303.12	1259.50
303.33	1261.55
303.54	1322.99
303.76	1157.10
303.97	1255.40
304.19	1255.40
304.40	1275.88
304.61	1226.73
304.83	1325.04
305.04	1261.55
305.26	1257.45
305.47	1198.06
305.68	1169.39
305.90	1304.56
306.11	1273.84
306.33	1236.97
306.54	1265.64
306.75	1243.12
306.97	1329.13
307.18	1273.84
307.39	1267.69
307.61	1253.36
307.82	1239.02
308.04	1355.76
308.25	1282.03
308.46	1279.98
308.68	1253.36
308.89	1269.74
309.10	1210.35
309.32	1277.93
309.53	1292.27
309.74	1288.17
309.96	1294.32
310.17	1222.64
310.39	1214.45
310.60	1269.74
310.81	1275.88
311.03	1314.80
311.24	1222.64
311.45	1228.78
311.67	1230.83
311.88	1212.40
312.09	1204.21
312.31	1271.79
312.52	1245.16
312.73	1329.13
312.95	1325.04
313.16	1288.17
313.37	1316.84
313.59	1279.98
313.80	1249.26
314.01	1273.84
314.23	1236.97
314.44	1329.13
314.65	1245.16
314.87	1296.36
315.08	1267.69
315.29	1241.07
315.51	1277.93
315.72	1265.64
315.93	1265.64
316.15	1308.65
316.36	1187.82
316.57	1216.49
316.79	1255.40
317.00	1267.69
317.21	1339.37
317.43	1255.40
317.64	1249.26
317.85	1251.31
318.07	1355.76
318.28	1265.64
318.49	1271.79
318.70	1273.84
318.92	1257.45
319.13	1325.04
319.34	1265.64
319.56	1253.36
319.77	1294.32
319.98	1333.23
320.20	1284.08
320.41	1300.46
320.62	1212.40
320.83	1277.93
321.05	1255.40
321.26	1257.45
321.47	1257.45
321.69	1286.12
321.90	1304.56
322.11	1275.88
322.32	1251.31
322.54	1306.60
322.75	1327.08
322.96	1298.41
323.18	1249.26
323.39	1239.02
323.60	1179.63
323.81	1263.60
324.03	1245.16
324.24	1294.32
324.45	1247.21
324.66	1298.41
324.88	1277.93
325.09	1247.21
325.30	1290.22
325.52	1296.36
325.73	1210.35
325.94	1279.98
326.15	1263.60
326.37	1259.50
326.58	1255.40
326.79	1294.32
327.00	1277.93
327.22	1290.22
327.43	1341.42
327.64	1300.46
327.85	1263.60
328.07	1224.69
328.28	1265.64
328.49	1253.36
328.70	1236.97
328.92	1263.60
329.13	1228.78
329.34	1232.88
329.55	1267.69
329.76	1226.73
329.98	1249.26
330.19	1298.41
330.40	1263.60
330.61	1214.45
330.83	1257.45
331.04	1325.04
331.25	1230.83
331.46	1239.02
331.68	1222.64
331.89	1241.07
332.10	1292.27
332.31	1239.02
332.52	1312.75
332.74	1263.60
332.95	1206.25
333.16	1269.74
333.37	1271.79
333.58	1253.36
333.80	1255.40
334.01	1296.36
334.22	1314.80
334.43	1206.25
334.64	1290.22
334.86	1282.03
335.07	1236.97
335.28	1222.64
335.49	1275.88
335.70	1277.93
335.92	1228.78
336.13	1241.07
336.34	1277.93
336.55	1363.95
336.76	1224.69
336.98	1208.30
337.19	1189.87
337.40	1271.79
337.61	1191.92
337.82	1279.98
338.04	1247.21
338.25	1261.55
338.46	1228.78
338.67	1310.70
338.88	1236.97
339.09	1263.60
339.31	1261.55
339.52	1183.73
339.73	1279.98
339.94	1257.45
340.15	1288.17
340.36	1271.79
340.58	1308.65
340.79	1241.07
341.00	1263.60
341.21	1343.47
341.42	1290.22
341.63	1193.97
341.85	1196.01
342.06	1298.41
342.27	1261.55
342.48	1247.21
342.69	1253.36
342.90	1249.26
343.12	1273.84
343.33	1216.49
343.54	1247.21
343.75	1386.47
343.96	1320.94
344.17	1282.03
344.38	1230.83
344.60	1267.69
344.81	1206.25
345.02	1327.08
345.23	1296.36
345.44	1284.08
345.65	1218.54
345.86	1296.36
346.07	1306.60
346.29	1322.99
346.50	1306.60
346.71	1298.41
346.92	1239.02
347.13	1263.60
347.34	1279.98
347.55	1265.64
347.76	1327.08
347.98	1302.51
348.19	1239.02
348.40	1220.59
348.61	1302.51
348.82	1300.46
349.03	1236.97
349.24	1263.60
349.45	1273.84
349.66	1271.79
349.88	1222.64
350.09	1335.28
350.30	1279.98
350.51	1253.36
350.72	1282.03
350.93	1294.32
351.14	1314.80
351.35	1269.74
351.56	1292.27
351.77	1245.16
351.99	1261.55
352.20	1292.27
352.41	1359.85
352.62	1257.45
352.83	1263.60
353.04	1351.66
353.25	1263.60
353.46	1275.88
353.67	1230.83
353.88	1263.60
354.09	1220.59
354.30	1279.98
354.52	1286.12
354.73	1279.98
354.94	1179.63
355.15	1263.60
355.36	1263.60
355.57	1212.40
355.78	1273.84
355.99	1290.22
356.20	1243.12
356.41	1263.60
356.62	1275.88
356.83	1296.36
357.04	1255.40
357.25	1249.26
357.46	1284.08
357.68	1306.60
357.89	1275.88
358.10	1263.60
358.31	1277.93
358.52	1245.16
358.73	1290.22
358.94	1196.01
359.15	1222.64
359.36	1255.40
359.57	1343.47
359.78	1196.01
359.99	1251.31
360.20	1269.74
360.41	1271.79
360.62	1271.79
360.83	1322.99
361.04	1243.12
361.25	1277.93
361.46	1259.50
361.67	1298.41
361.88	1239.02
362.09	1234.93
362.30	1282.03
362.51	1378.28
362.72	1290.22
362.93	1224.69
363.14	1296.36
363.35	1333.23
363.56	1279.98
363.78	1322.99
363.99	1300.46
364.20	1228.78
364.41	1298.41
364.62	1185.77
364.83	1222.64
365.04	1263.60
365.25	1224.69
365.46	1331.18
365.67	1327.08
365.88	1230.83
366.09	1300.46
366.30	1198.06
366.51	1249.26
366.72	1296.36
366.93	1175.53
367.14	1253.36
367.35	1234.93
367.56	1347.56
367.77	1241.07
367.98	1189.87
368.18	1245.16
368.39	1245.16
368.60	1241.07
368.81	1304.56
369.02	1241.07
369.23	1224.69
369.44	1206.25
369.65	1222.64
369.86	1284.08
370.07	1310.70
370.28	1277.93
370.49	1304.56
370.70	1286.12
370.91	1245.16
371.12	1239.02
371.33	1282.03
371.54	1320.94
371.75	1335.28
371.96	1228.78
372.17	1200.11
372.38	1329.13
372.59	1265.64
372.80	1228.78
373.01	1294.32
373.22	1361.90
373.43	1279.98
373.64	1271.79
373.85	1304.56
374.06	1290.22
374.26	1206.25
374.47	1245.16
374.68	1230.83
374.89	1232.88
375.10	1267.69
375.31	1284.08
375.52	1220.59
375.73	1294.32
375.94	1312.75
376.15	1290.22
376.36	1245.16
376.57	1306.60
376.78	1284.08
376.99	1251.31
377.20	1239.02
377.40	1366.00
377.61	1269.74
377.82	1345.52
378.03	1259.50
378.24	1296.36
378.45	1294.32
378.66	1282.03
378.87	1247.21
379.08	1261.55
379.29	1290.22
379.50	1269.74
379.71	1282.03
379.91	1310.70
380.12	1216.49
380.33	1206.25
380.54	1279.98
380.75	1282.03
380.96	1200.11
381.17	1296.36
381.38	1230.83
381.59	1298.41
381.80	1212.40
382.00	1247.21
382.21	1322.99
382.42	1302.51
382.63	1181.68
382.84	1310.70
383.05	1269.74
383.26	1290.22
383.47	1306.60
383.68	1282.03
383.88	1177.58
384.09	1241.07
384.30	1259.50
384.51	1275.88
384.72	1314.80
384.93	1249.26
385.14	1267.69
385.35	1275.88
385.55	1294.32
385.76	1218.54
385.97	1359.85
386.18	1308.65
386.39	1275.88
386.60	1189.87
386.81	1294.32
387.02	1208.30
387.22	1259.50
387.43	1224.69
387.64	1243.12
387.85	1222.64
388.06	1263.60
388.27	1363.95
388.48	1183.73
388.68	1273.84
388.89	1224.69
389.10	1253.36
389.31	1216.49
389.52	1228.78
389.73	1185.77
389.93	1257.45
390.14	1322.99
390.35	1263.60
390.56	1222.64
390.77	1296.36
390.98	1251.31
391.18	1277.93
391.39	1255.40
391.60	1239.02
391.81	1300.46
392.02	1230.83
392.23	1282.03
392.43	1275.88
392.64	1271.79
392.85	1255.40
393.06	1265.64
393.27	1306.60
393.47	1243.12
393.68	1269.74
393.89	1257.45
394.10	1263.60
394.31	1249.26
394.52	1292.27
394.72	1275.88
394.93	1241.07
395.14	1318.89
395.35	1277.93
395.56	1167.34
395.76	1245.16
395.97	1259.50
396.18	1284.08
396.39	1228.78
396.60	1226.73
396.80	1288.17
397.01	1189.87
397.22	1189.87
397.43	1263.60
397.64	1224.69
397.84	1249.26
398.05	1337.32
398.26	1247.21
398.47	1337.32
398.67	1302.51
398.88	1277.93
399.09	1310.70
399.30	1230.83
399.51	1275.88
399.71	1245.16
399.92	1216.49
400.13	1226.73
400.34	1241.07
400.54	1257.45
400.75	1286.12
400.96	1259.50
401.17	1263.60
401.37	1230.83
401.58	1263.60
401.79	1345.52
402.00	1257.45
402.21	1236.97
402.41	1230.83
402.62	1267.69
402.83	1261.55
403.04	1282.03
403.24	1298.41
403.45	1253.36
403.66	1275.88
403.87	1310.70
404.07	1308.65
404.28	1288.17
404.49	1296.36
404.70	1282.03
404.90	1294.32
405.11	1288.17
405.32	1255.40
405.52	1214.45
405.73	1263.60
405.94	1290.22
406.15	1220.59
406.35	1253.36
406.56	1245.16
406.77	1183.73
406.98	1267.69
407.18	1349.61
407.39	1345.52
407.60	1275.88
407.80	1269.74
408.01	1232.88
408.22	1251.31
408.43	1261.55
408.63	1308.65
408.84	1273.84
409.05	1314.80
409.25	1284.08
409.46	1196.01
409.67	1294.32
409.88	1253.36
410.08	1261.55
410.29	1259.50
410.50	1263.60
410.70	1230.83
410.91	1279.98
411.12	1316.84
411.32	1253.36
411.53	1196.01
411.74	1241.07
411.95	1269.74
412.15	1239.02
412.36	1329.13
412.57	1296.36
412.77	1226.73
412.98	1277.93
413.19	1251.31
413.39	1265.64
413.60	1345.52
413.81	1296.36
414.01	1245.16
414.22	1316.84
414.43	1275.88
414.63	1255.40
414.84	1284.08
415.05	1314.80
415.25	1286.12
415.46	1284.08
415.67	1292.27
415.87	1249.26
416.08	1288.17
416.29	1296.36
416.49	1204.21
416.70	1218.54
416.91	1232.88
417.11	1284.08
417.32	1251.31
417.53	1249.26
417.73	1331.18
417.94	1216.49
418.15	1249.26
418.35	1255.40
418.56	1279.98
418.77	1230.83
418.97	1265.64
419.18	1351.66
419.38	1322.99
419.59	1206.25
419.80	1261.55
420.00	1275.88
420.21	1318.89
420.42	1294.32
420.62	1271.79
420.83	1282.03
421.04	1232.88
421.24	1312.75
421.45	1271.79
421.65	1263.60
421.86	1253.36
422.07	1234.93
422.27	1218.54
422.48	1288.17
422.69	1259.50
422.89	1316.84
423.10	1243.12
423.30	1245.16
423.51	1286.12
423.72	1267.69
423.92	1269.74
424.13	1265.64
424.33	1171.44
424.54	1325.04
424.75	1290.22
424.95	1302.51
425.16	1300.46
425.36	1267.69
425.57	1202.16
425.78	1267.69
425.98	1271.79
426.19	1343.47
426.39	1294.32
426.60	1245.16
426.81	1269.74
427.01	1234.93
427.22	1241.07
427.42	1234.93
427.63	1282.03
427.83	1277.93
428.04	1269.74
428.25	1318.89
428.45	1282.03
428.66	1241.07
428.86	1257.45
429.07	1204.21
429.28	1187.82
429.48	1275.88
429.69	1189.87
429.89	1269.74
430.10	1286.12
430.30	1249.26
430.51	1247.21
430.71	1308.65
430.92	1249.26
431.13	1298.41
431.33	1318.89
431.54	1298.41
431.74	1277.93
431.95	1253.36
432.15	1187.82
432.36	1308.65
432.56	1314.80
432.77	1320.94
432.98	1245.16
433.18	1234.93
433.39	1294.32
433.59	1251.31
433.80	1198.06
434.00	1277.93
434.21	1228.78
434.41	1302.51
434.62	1288.17
434.82	1279.98
435.03	1243.12
435.23	1294.32
435.44	1243.12
435.64	1269.74
435.85	1288.17
436.06	1298.41
436.26	1302.51
436.47	1261.55
436.67	1351.66
436.88	1230.83
437.08	1294.32
437.29	1206.25
437.49	1310.70
437.70	1263.60
437.90	1212.40
438.11	1245.16
438.31	1304.56
438.52	1347.56
438.72	1282.03
438.93	1245.16
439.13	1228.78
439.34	1282.03
439.54	1337.32
439.75	1325.04
439.95	1230.83
440.16	1241.07
440.36	1273.84
440.57	1310.70
440.77	1269.74
440.98	1245.16
441.18	1290.22
441.39	1282.03
441.59	1273.84
441.80	1286.12
442.00	1234.93
442.21	1241.07
442.41	1193.97
442.62	1263.60
442.82	1249.26
443.02	1292.27
443.23	1288.17
443.43	1263.60
443.64	1263.60
443.84	1241.07
444.05	1230.83
444.25	1282.03
444.46	1296.36
444.66	1341.42
444.87	1290.22
445.07	1304.56
445.28	1239.02
445.48	1257.45
445.69	1306.60
445.89	1306.60
446.09	1331.18
446.30	1241.07
446.50	1198.06
446.71	1269.74
446.91	1273.84
447.12	1224.69
447.32	1357.80
447.53	1226.73
447.73	1314.80
447.93	1181.68
448.14	1318.89
448.34	1310.70
448.55	1243.12
448.75	1263.60
448.96	1247.21
449.16	1263.60
449.36	1265.64
449.57	1306.60
449.77	1257.45
449.98	1224.69
450.18	1300.46
450.39	1286.12
450.59	1249.26
450.79	1296.36
451.00	1308.65
451.20	1275.88
451.41	1230.83
451.61	1265.64
451.81	1257.45
452.02	1251.31
452.22	1308.65
452.43	1259.50
452.63	1312.75
