SpectraSuite Data File
++++++++++++++++++++++++++++++++++++
Date: Sun Apr 03 19:55:15 CEST 2016
User: root
Dark Spectrum Present: No
Reference Spectrum Present: No
Number of Sampled Component Spectra: 1
Spectrometers: USB4C02835
Integration Time (usec): 10000 (USB4C02835)
Spectra Averaged: 1 (USB4C02835)
Boxcar Smoothing: 0 (USB4C02835)
Correct for Electrical Dark: No (USB4C02835)
Strobe/Lamp Enabled: No (USB4C02835)
Correct for Detector Non-linearity: No (USB4C02835)
Correct for Stray Light: No (USB4C02835)
Number of Pixels in Processed Spectrum: 3648
>>>>>Begin Processed Spectral Data<<<<<
177.47	1267.69
177.69	1267.69
177.91	1267.69
178.13	1245.16
178.36	1226.73
178.58	1279.98
178.80	1267.69
179.02	1253.36
179.24	1277.93
179.46	1265.64
179.68	1263.60
179.90	1255.40
180.13	1271.79
180.35	1304.56
180.57	1216.49
180.79	1314.80
181.01	1265.64
181.23	1230.83
181.45	1251.31
181.67	1239.02
181.90	1304.56
182.12	1292.27
182.34	1372.14
182.56	1300.46
182.78	1187.82
183.00	1288.17
183.22	1304.56
183.44	1265.64
183.66	1230.83
183.89	1247.21
184.11	1196.01
184.33	1253.36
184.55	1318.89
184.77	1300.46
184.99	1249.26
185.21	1322.99
185.43	1251.31
185.65	1243.12
185.87	1308.65
186.10	1255.40
186.32	1255.40
186.54	1294.32
186.76	1253.36
186.98	1304.56
187.20	1294.32
187.42	1294.32
187.64	1325.04
187.86	1277.93
188.08	1243.12
188.30	1249.26
188.52	1288.17
188.75	1335.28
188.97	1284.08
189.19	1206.25
189.41	1251.31
189.63	1224.69
189.85	1241.07
190.07	1300.46
190.29	1263.60
190.51	1271.79
190.73	1247.21
190.95	1239.02
191.17	1183.73
191.39	1228.78
191.61	1300.46
191.84	1249.26
192.06	1245.16
192.28	1273.84
192.50	1269.74
192.72	1243.12
192.94	1214.45
193.16	1288.17
193.38	1277.93
193.60	1241.07
193.82	1265.64
194.04	1294.32
194.26	1234.93
194.48	1249.26
194.70	1243.12
194.92	1286.12
195.14	1306.60
195.36	1239.02
195.58	1292.27
195.80	1216.49
196.02	1247.21
196.24	1277.93
196.46	1279.98
196.69	1269.74
196.91	1361.90
197.13	1273.84
197.35	1257.45
197.57	1267.69
197.79	1273.84
198.01	1220.59
198.23	1245.16
198.45	1339.37
198.67	1239.02
198.89	1247.21
199.11	1249.26
199.33	1243.12
199.55	1269.74
199.77	1320.94
199.99	1277.93
200.21	1228.78
200.43	1271.79
200.65	1216.49
200.87	1257.45
201.09	1247.21
201.31	1304.56
201.53	1234.93
201.75	1273.84
201.97	1232.88
202.19	1269.74
202.41	1261.55
202.63	1259.50
202.85	1284.08
203.07	1277.93
203.29	1253.36
203.51	1241.07
203.73	1212.40
203.95	1282.03
204.17	1275.88
204.39	1292.27
204.61	1263.60
204.83	1208.30
205.05	1232.88
205.27	1263.60
205.49	1269.74
205.71	1200.11
205.93	1253.36
206.15	1245.16
206.37	1249.26
206.59	1271.79
206.81	1191.92
207.03	1255.40
207.25	1298.41
207.47	1245.16
207.69	1335.28
207.91	1212.40
208.13	1267.69
208.34	1273.84
208.56	1185.77
208.78	1380.33
209.00	1226.73
209.22	1304.56
209.44	1253.36
209.66	1198.06
209.88	1267.69
210.10	1288.17
210.32	1259.50
210.54	1288.17
210.76	1232.88
210.98	1378.28
211.20	1265.64
211.42	1370.09
211.64	1257.45
211.86	1214.45
212.08	1202.16
212.30	1216.49
212.52	1259.50
212.74	1277.93
212.96	1263.60
213.17	1277.93
213.39	1269.74
213.61	1275.88
213.83	1271.79
214.05	1251.31
214.27	1230.83
214.49	1255.40
214.71	1253.36
214.93	1255.40
215.15	1249.26
215.37	1228.78
215.59	1290.22
215.81	1232.88
216.03	1267.69
216.24	1271.79
216.46	1286.12
216.68	1271.79
216.90	1200.11
217.12	1265.64
217.34	1218.54
217.56	1255.40
217.78	1273.84
218.00	1284.08
218.22	1249.26
218.44	1255.40
218.66	1257.45
218.87	1189.87
219.09	1304.56
219.31	1263.60
219.53	1222.64
219.75	1265.64
219.97	1265.64
220.19	1284.08
220.41	1288.17
220.63	1271.79
220.85	1236.97
221.06	1243.12
221.28	1331.18
221.50	1247.21
221.72	1292.27
221.94	1243.12
222.16	1316.84
222.38	1206.25
222.60	1308.65
222.82	1261.55
223.03	1196.01
223.25	1202.16
223.47	1286.12
223.69	1304.56
223.91	1267.69
224.13	1325.04
224.35	1251.31
224.57	1279.98
224.78	1234.93
225.00	1296.36
225.22	1224.69
225.44	1220.59
225.66	1228.78
225.88	1228.78
226.10	1241.07
226.32	1257.45
226.53	1273.84
226.75	1200.11
226.97	1245.16
227.19	1273.84
227.41	1232.88
227.63	1355.76
227.85	1245.16
228.06	1218.54
228.28	1247.21
228.50	1251.31
228.72	1263.60
228.94	1310.70
229.16	1308.65
229.37	1257.45
229.59	1290.22
229.81	1294.32
230.03	1241.07
230.25	1245.16
230.47	1282.03
230.69	1322.99
230.90	1296.36
231.12	1296.36
231.34	1259.50
231.56	1292.27
231.78	1271.79
232.00	1245.16
232.21	1347.56
232.43	1372.14
232.65	1200.11
232.87	1271.79
233.09	1284.08
233.30	1265.64
233.52	1257.45
233.74	1232.88
233.96	1230.83
234.18	1230.83
234.40	1378.28
234.61	1232.88
234.83	1148.91
235.05	1277.93
235.27	1257.45
235.49	1296.36
235.70	1333.23
235.92	1265.64
236.14	1271.79
236.36	1206.25
236.58	1294.32
236.79	1259.50
237.01	1273.84
237.23	1314.80
237.45	1277.93
237.67	1273.84
237.88	1298.41
238.10	1226.73
238.32	1249.26
238.54	1236.97
238.76	1316.84
238.97	1234.93
239.19	1212.40
239.41	1320.94
239.63	1312.75
239.85	1337.32
240.06	1218.54
240.28	1224.69
240.50	1269.74
240.72	1206.25
240.93	1286.12
241.15	1228.78
241.37	1222.64
241.59	1245.16
241.81	1214.45
242.02	1320.94
242.24	1232.88
242.46	1239.02
242.68	1253.36
242.89	1282.03
243.11	1243.12
243.33	1273.84
243.55	1247.21
243.76	1300.46
243.98	1290.22
244.20	1200.11
244.42	1282.03
244.64	1298.41
244.85	1206.25
245.07	1230.83
245.29	1208.30
245.51	1241.07
245.72	1245.16
245.94	1255.40
246.16	1253.36
246.38	1290.22
246.59	1271.79
246.81	1269.74
247.03	1273.84
247.24	1191.92
247.46	1267.69
247.68	1232.88
247.90	1279.98
248.11	1236.97
248.33	1236.97
248.55	1269.74
248.77	1337.32
248.98	1204.21
249.20	1267.69
249.42	1212.40
249.64	1253.36
249.85	1279.98
250.07	1239.02
250.29	1261.55
250.50	1292.27
250.72	1329.13
250.94	1230.83
251.16	1241.07
251.37	1247.21
251.59	1363.95
251.81	1222.64
252.02	1337.32
252.24	1243.12
252.46	1267.69
252.68	1220.59
252.89	1284.08
253.11	1290.22
253.33	1179.63
253.54	1327.08
253.76	1255.40
253.98	1282.03
254.20	1218.54
254.41	1230.83
254.63	1257.45
254.85	1294.32
255.06	1220.59
255.28	1279.98
255.50	1259.50
255.71	1255.40
255.93	1232.88
256.15	1282.03
256.36	1226.73
256.58	1253.36
256.80	1265.64
257.02	1204.21
257.23	1275.88
257.45	1232.88
257.67	1302.51
257.88	1206.25
258.10	1347.56
258.32	1257.45
258.53	1230.83
258.75	1339.37
258.97	1236.97
259.18	1279.98
259.40	1306.60
259.62	1320.94
259.83	1304.56
260.05	1310.70
260.27	1263.60
260.48	1212.40
260.70	1302.51
260.92	1239.02
261.13	1279.98
261.35	1261.55
261.57	1222.64
261.78	1222.64
262.00	1290.22
262.22	1232.88
262.43	1214.45
262.65	1185.77
262.86	1275.88
263.08	1329.13
263.30	1226.73
263.51	1304.56
263.73	1304.56
263.95	1304.56
264.16	1245.16
264.38	1259.50
264.60	1263.60
264.81	1267.69
265.03	1308.65
265.25	1296.36
265.46	1290.22
265.68	1257.45
265.89	1290.22
266.11	1318.89
266.33	1286.12
266.54	1273.84
266.76	1257.45
266.98	1265.64
267.19	1322.99
267.41	1282.03
267.62	1222.64
267.84	1277.93
268.06	1189.87
268.27	1224.69
268.49	1253.36
268.70	1142.77
268.92	1247.21
269.14	1214.45
269.35	1249.26
269.57	1329.13
269.79	1220.59
270.00	1296.36
270.22	1284.08
270.43	1273.84
270.65	1302.51
270.87	1341.42
271.08	1341.42
271.30	1271.79
271.51	1232.88
271.73	1320.94
271.95	1247.21
272.16	1273.84
272.38	1220.59
272.59	1226.73
272.81	1290.22
273.02	1257.45
273.24	1300.46
273.46	1236.97
273.67	1206.25
273.89	1288.17
274.10	1288.17
274.32	1241.07
274.54	1363.95
274.75	1271.79
274.97	1208.30
275.18	1222.64
275.40	1372.14
275.61	1265.64
275.83	1226.73
276.05	1290.22
276.26	1265.64
276.48	1304.56
276.69	1294.32
276.91	1265.64
277.12	1277.93
277.34	1286.12
277.55	1255.40
277.77	1308.65
277.99	1226.73
278.20	1267.69
278.42	1265.64
278.63	1222.64
278.85	1275.88
279.06	1187.82
279.28	1257.45
279.49	1265.64
279.71	1247.21
279.93	1153.01
280.14	1171.44
280.36	1243.12
280.57	1251.31
280.79	1320.94
281.00	1234.93
281.22	1191.92
281.43	1318.89
281.65	1275.88
281.86	1271.79
282.08	1333.23
282.29	1327.08
282.51	1265.64
282.73	1224.69
282.94	1302.51
283.16	1239.02
283.37	1241.07
283.59	1310.70
283.80	1259.50
284.02	1316.84
284.23	1300.46
284.45	1236.97
284.66	1232.88
284.88	1279.98
285.09	1286.12
285.31	1222.64
285.52	1304.56
285.74	1273.84
285.95	1269.74
286.17	1273.84
286.38	1310.70
286.60	1239.02
286.81	1292.27
287.03	1271.79
287.24	1267.69
287.46	1234.93
287.67	1193.97
287.89	1366.00
288.10	1253.36
288.32	1243.12
288.53	1222.64
288.75	1245.16
288.96	1282.03
289.18	1265.64
289.39	1290.22
289.61	1314.80
289.82	1333.23
290.04	1249.26
290.25	1257.45
290.47	1370.09
290.68	1308.65
290.90	1239.02
291.11	1185.77
291.33	1214.45
291.54	1267.69
291.76	1265.64
291.97	1318.89
292.18	1247.21
292.40	1247.21
292.61	1263.60
292.83	1279.98
293.04	1228.78
293.26	1202.16
293.47	1239.02
293.69	1284.08
293.90	1228.78
294.12	1222.64
294.33	1251.31
294.55	1316.84
294.76	1206.25
294.97	1300.46
295.19	1243.12
295.40	1259.50
295.62	1261.55
295.83	1267.69
296.05	1294.32
296.26	1265.64
296.48	1257.45
296.69	1296.36
296.90	1288.17
297.12	1214.45
297.33	1333.23
297.55	1290.22
297.76	1259.50
297.98	1198.06
298.19	1271.79
298.41	1204.21
298.62	1208.30
298.83	1230.83
299.05	1228.78
299.26	1298.41
299.48	1224.69
299.69	1320.94
299.90	1263.60
300.12	1228.78
300.33	1247.21
300.55	1251.31
300.76	1263.60
300.98	1243.12
301.19	1253.36
301.40	1316.84
301.62	1277.93
301.83	1255.40
302.05	1216.49
302.26	1243.12
302.47	1259.50
302.69	1200.11
302.90	1249.26
303.12	1236.97
303.33	1349.61
303.54	1253.36
303.76	1304.56
303.97	1279.98
304.19	1216.49
304.40	1271.79
304.61	1206.25
304.83	1236.97
305.04	1249.26
305.26	1306.60
305.47	1320.94
305.68	1329.13
305.90	1284.08
306.11	1322.99
306.33	1300.46
306.54	1275.88
306.75	1222.64
306.97	1269.74
307.18	1243.12
307.39	1284.08
307.61	1245.16
307.82	1298.41
308.04	1239.02
308.25	1243.12
308.46	1216.49
308.68	1273.84
308.89	1257.45
309.10	1245.16
309.32	1239.02
309.53	1318.89
309.74	1333.23
309.96	1275.88
310.17	1245.16
310.39	1232.88
310.60	1298.41
310.81	1232.88
311.03	1255.40
311.24	1273.84
311.45	1218.54
311.67	1355.76
311.88	1279.98
312.09	1232.88
312.31	1173.49
312.52	1255.40
312.73	1159.15
312.95	1290.22
313.16	1282.03
313.37	1286.12
313.59	1302.51
313.80	1314.80
314.01	1271.79
314.23	1318.89
314.44	1232.88
314.65	1271.79
314.87	1239.02
315.08	1316.84
315.29	1259.50
315.51	1177.58
315.72	1327.08
315.93	1294.32
316.15	1271.79
316.36	1251.31
316.57	1216.49
316.79	1308.65
317.00	1304.56
317.21	1337.32
317.43	1335.28
317.64	1214.45
317.85	1312.75
318.07	1312.75
318.28	1306.60
318.49	1273.84
318.70	1302.51
318.92	1251.31
319.13	1236.97
319.34	1241.07
319.56	1306.60
319.77	1232.88
319.98	1198.06
320.20	1279.98
320.41	1361.90
320.62	1261.55
320.83	1255.40
321.05	1228.78
321.26	1251.31
321.47	1255.40
321.69	1300.46
321.90	1161.20
322.11	1251.31
322.32	1288.17
322.54	1322.99
322.75	1239.02
322.96	1284.08
323.18	1236.97
323.39	1261.55
323.60	1267.69
323.81	1279.98
324.03	1312.75
324.24	1292.27
324.45	1312.75
324.66	1341.42
324.88	1263.60
325.09	1279.98
325.30	1279.98
325.52	1282.03
325.73	1290.22
325.94	1273.84
326.15	1241.07
326.37	1286.12
326.58	1243.12
326.79	1355.76
327.00	1282.03
327.22	1273.84
327.43	1265.64
327.64	1288.17
327.85	1277.93
328.07	1318.89
328.28	1257.45
328.49	1247.21
328.70	1230.83
328.92	1173.49
329.13	1234.93
329.34	1275.88
329.55	1224.69
329.76	1349.61
329.98	1312.75
330.19	1310.70
330.40	1337.32
330.61	1222.64
330.83	1300.46
331.04	1247.21
331.25	1255.40
331.46	1298.41
331.68	1294.32
331.89	1216.49
332.10	1245.16
332.31	1216.49
332.52	1282.03
332.74	1220.59
332.95	1218.54
333.16	1316.84
333.37	1216.49
333.58	1243.12
333.80	1220.59
334.01	1212.40
334.22	1294.32
334.43	1335.28
334.64	1320.94
334.86	1210.35
335.07	1284.08
335.28	1269.74
335.49	1251.31
335.70	1269.74
335.92	1320.94
336.13	1275.88
336.34	1273.84
336.55	1271.79
336.76	1239.02
336.98	1241.07
337.19	1239.02
337.40	1333.23
337.61	1228.78
337.82	1253.36
338.04	1327.08
338.25	1241.07
338.46	1300.46
338.67	1263.60
338.88	1185.77
339.09	1236.97
339.31	1279.98
339.52	1308.65
339.73	1241.07
339.94	1220.59
340.15	1296.36
340.36	1279.98
340.58	1308.65
340.79	1236.97
341.00	1261.55
341.21	1288.17
341.42	1236.97
341.63	1249.26
341.85	1312.75
342.06	1232.88
342.27	1296.36
342.48	1259.50
342.69	1245.16
342.90	1325.04
343.12	1298.41
343.33	1282.03
343.54	1255.40
343.75	1243.12
343.96	1239.02
344.17	1290.22
344.38	1290.22
344.60	1333.23
344.81	1304.56
345.02	1273.84
345.23	1263.60
345.44	1222.64
345.65	1277.93
345.86	1247.21
346.07	1267.69
346.29	1325.04
346.50	1249.26
346.71	1288.17
346.92	1241.07
347.13	1296.36
347.34	1320.94
347.55	1228.78
347.76	1284.08
347.98	1314.80
348.19	1220.59
348.40	1271.79
348.61	1230.83
348.82	1259.50
349.03	1206.25
349.24	1357.80
349.45	1230.83
349.66	1308.65
349.88	1290.22
350.09	1298.41
350.30	1228.78
350.51	1304.56
350.72	1294.32
350.93	1284.08
351.14	1259.50
351.35	1255.40
351.56	1259.50
351.77	1247.21
351.99	1220.59
352.20	1286.12
352.41	1374.19
352.62	1220.59
352.83	1294.32
353.04	1265.64
353.25	1216.49
353.46	1282.03
353.67	1304.56
353.88	1204.21
354.09	1277.93
354.30	1236.97
354.52	1255.40
354.73	1306.60
354.94	1214.45
355.15	1257.45
355.36	1273.84
355.57	1310.70
355.78	1216.49
355.99	1288.17
356.20	1191.92
356.41	1224.69
356.62	1290.22
356.83	1247.21
357.04	1322.99
357.25	1271.79
357.46	1247.21
357.68	1234.93
357.89	1267.69
358.10	1206.25
358.31	1234.93
358.52	1298.41
358.73	1304.56
358.94	1275.88
359.15	1318.89
359.36	1255.40
359.57	1265.64
359.78	1275.88
359.99	1218.54
360.20	1224.69
360.41	1234.93
360.62	1275.88
360.83	1210.35
361.04	1241.07
361.25	1234.93
361.46	1243.12
361.67	1255.40
361.88	1288.17
362.09	1325.04
362.30	1275.88
362.51	1312.75
362.72	1226.73
362.93	1265.64
363.14	1294.32
363.35	1239.02
363.56	1265.64
363.78	1226.73
363.99	1288.17
364.20	1269.74
364.41	1249.26
364.62	1329.13
364.83	1275.88
365.04	1296.36
365.25	1243.12
365.46	1261.55
365.67	1277.93
365.88	1183.73
366.09	1292.27
366.30	1304.56
366.51	1298.41
366.72	1255.40
366.93	1300.46
367.14	1191.92
367.35	1288.17
367.56	1234.93
367.77	1279.98
367.98	1271.79
368.18	1230.83
368.39	1288.17
368.60	1292.27
368.81	1288.17
369.02	1228.78
369.23	1247.21
369.44	1290.22
369.65	1298.41
369.86	1298.41
370.07	1243.12
370.28	1284.08
370.49	1228.78
370.70	1212.40
370.91	1241.07
371.12	1220.59
371.33	1286.12
371.54	1247.21
371.75	1247.21
371.96	1333.23
372.17	1290.22
372.38	1255.40
372.59	1320.94
372.80	1327.08
373.01	1251.31
373.22	1312.75
373.43	1253.36
373.64	1214.45
373.85	1318.89
374.06	1337.32
374.26	1300.46
374.47	1304.56
374.68	1265.64
374.89	1226.73
375.10	1257.45
375.31	1298.41
375.52	1284.08
375.73	1210.35
375.94	1333.23
376.15	1218.54
376.36	1257.45
376.57	1277.93
376.78	1279.98
376.99	1282.03
377.20	1228.78
377.40	1327.08
377.61	1286.12
377.82	1322.99
378.03	1245.16
378.24	1294.32
378.45	1200.11
378.66	1337.32
378.87	1265.64
379.08	1279.98
379.29	1175.53
379.50	1298.41
379.71	1239.02
379.91	1312.75
380.12	1265.64
380.33	1243.12
380.54	1257.45
380.75	1271.79
380.96	1282.03
381.17	1279.98
381.38	1341.42
381.59	1271.79
381.80	1298.41
382.00	1261.55
382.21	1253.36
382.42	1306.60
382.63	1236.97
382.84	1271.79
383.05	1308.65
383.26	1222.64
383.47	1191.92
383.68	1290.22
383.88	1247.21
384.09	1259.50
384.30	1265.64
384.51	1245.16
384.72	1320.94
384.93	1241.07
385.14	1306.60
385.35	1286.12
385.55	1298.41
385.76	1232.88
385.97	1265.64
386.18	1298.41
386.39	1249.26
386.60	1277.93
386.81	1271.79
387.02	1243.12
387.22	1322.99
387.43	1363.95
387.64	1253.36
387.85	1284.08
388.06	1226.73
388.27	1263.60
388.48	1263.60
388.68	1232.88
388.89	1210.35
389.10	1200.11
389.31	1296.36
389.52	1236.97
389.73	1263.60
389.93	1322.99
390.14	1294.32
390.35	1257.45
390.56	1314.80
390.77	1310.70
390.98	1298.41
391.18	1355.76
391.39	1261.55
391.60	1282.03
391.81	1267.69
392.02	1306.60
392.23	1298.41
392.43	1361.90
392.64	1234.93
392.85	1306.60
393.06	1314.80
393.27	1269.74
393.47	1148.91
393.68	1308.65
393.89	1296.36
394.10	1249.26
394.31	1312.75
394.52	1277.93
394.72	1279.98
394.93	1216.49
395.14	1286.12
395.35	1263.60
395.56	1249.26
395.76	1271.79
395.97	1308.65
396.18	1269.74
396.39	1230.83
396.60	1329.13
396.80	1222.64
397.01	1279.98
397.22	1255.40
397.43	1267.69
397.64	1304.56
397.84	1234.93
398.05	1296.36
398.26	1263.60
398.47	1245.16
398.67	1279.98
398.88	1267.69
399.09	1316.84
399.30	1261.55
399.51	1241.07
399.71	1327.08
399.92	1214.45
400.13	1253.36
400.34	1265.64
400.54	1214.45
400.75	1263.60
400.96	1208.30
401.17	1286.12
401.37	1216.49
401.58	1230.83
401.79	1232.88
402.00	1261.55
402.21	1239.02
402.41	1259.50
402.62	1257.45
402.83	1228.78
403.04	1204.21
403.24	1251.31
403.45	1255.40
403.66	1327.08
403.87	1275.88
404.07	1279.98
404.28	1216.49
404.49	1251.31
404.70	1316.84
404.90	1200.11
405.11	1320.94
405.32	1263.60
405.52	1249.26
405.73	1298.41
405.94	1259.50
406.15	1200.11
406.35	1257.45
406.56	1257.45
406.77	1255.40
406.98	1339.37
407.18	1243.12
407.39	1308.65
407.60	1284.08
407.80	1196.01
408.01	1306.60
408.22	1263.60
408.43	1277.93
408.63	1243.12
408.84	1277.93
409.05	1279.98
409.25	1243.12
409.46	1290.22
409.67	1292.27
409.88	1222.64
410.08	1222.64
410.29	1259.50
410.50	1243.12
410.70	1265.64
410.91	1253.36
411.12	1298.41
411.32	1249.26
411.53	1269.74
411.74	1243.12
411.95	1259.50
412.15	1265.64
412.36	1300.46
412.57	1265.64
412.77	1275.88
412.98	1325.04
413.19	1224.69
413.39	1312.75
413.60	1294.32
413.81	1185.77
414.01	1214.45
414.22	1288.17
414.43	1310.70
414.63	1306.60
414.84	1230.83
415.05	1304.56
415.25	1232.88
415.46	1208.30
415.67	1214.45
415.87	1273.84
416.08	1298.41
416.29	1255.40
416.49	1290.22
416.70	1249.26
416.91	1304.56
417.11	1161.20
417.32	1220.59
417.53	1251.31
417.73	1273.84
417.94	1259.50
418.15	1255.40
418.35	1185.77
418.56	1222.64
418.77	1333.23
418.97	1374.19
419.18	1275.88
419.38	1267.69
419.59	1210.35
419.80	1224.69
420.00	1296.36
420.21	1243.12
420.42	1286.12
420.62	1265.64
420.83	1265.64
421.04	1247.21
421.24	1271.79
421.45	1308.65
421.65	1261.55
421.86	1312.75
422.07	1236.97
422.27	1191.92
422.48	1308.65
422.69	1224.69
422.89	1255.40
423.10	1222.64
423.30	1275.88
423.51	1261.55
423.72	1339.37
423.92	1259.50
424.13	1300.46
424.33	1345.52
424.54	1228.78
424.75	1257.45
424.95	1288.17
425.16	1269.74
425.36	1304.56
425.57	1277.93
425.78	1175.53
425.98	1247.21
426.19	1247.21
426.39	1286.12
426.60	1263.60
426.81	1353.71
427.01	1261.55
427.22	1216.49
427.42	1286.12
427.63	1249.26
427.83	1294.32
428.04	1245.16
428.25	1329.13
428.45	1232.88
428.66	1253.36
428.86	1251.31
429.07	1279.98
429.28	1191.92
429.48	1327.08
429.69	1300.46
429.89	1265.64
430.10	1310.70
430.30	1273.84
430.51	1271.79
430.71	1273.84
430.92	1230.83
431.13	1257.45
431.33	1232.88
431.54	1243.12
431.74	1251.31
431.95	1271.79
432.15	1308.65
432.36	1325.04
432.56	1318.89
432.77	1310.70
432.98	1273.84
433.18	1216.49
433.39	1347.56
433.59	1271.79
433.80	1284.08
434.00	1372.14
434.21	1322.99
434.41	1243.12
434.62	1314.80
434.82	1284.08
435.03	1234.93
435.23	1267.69
435.44	1273.84
435.64	1343.47
435.85	1269.74
436.06	1290.22
436.26	1290.22
436.47	1320.94
436.67	1220.59
436.88	1310.70
437.08	1265.64
437.29	1325.04
437.49	1226.73
437.70	1261.55
437.90	1247.21
438.11	1286.12
438.31	1308.65
438.52	1316.84
438.72	1298.41
438.93	1277.93
439.13	1214.45
439.34	1308.65
439.54	1261.55
439.75	1320.94
439.95	1267.69
440.16	1288.17
440.36	1257.45
440.57	1241.07
440.77	1298.41
440.98	1316.84
441.18	1288.17
441.39	1249.26
441.59	1261.55
441.80	1284.08
442.00	1310.70
442.21	1253.36
442.41	1253.36
442.62	1208.30
442.82	1202.16
443.02	1306.60
443.23	1335.28
443.43	1216.49
443.64	1265.64
443.84	1241.07
444.05	1288.17
444.25	1263.60
444.46	1294.32
444.66	1218.54
444.87	1316.84
445.07	1218.54
445.28	1273.84
445.48	1298.41
445.69	1243.12
445.89	1314.80
446.09	1290.22
446.30	1239.02
446.50	1226.73
446.71	1234.93
446.91	1239.02
447.12	1239.02
447.32	1275.88
447.53	1218.54
447.73	1206.25
447.93	1333.23
448.14	1345.52
448.34	1241.07
448.55	1269.74
448.75	1228.78
448.96	1253.36
449.16	1306.60
449.36	1263.60
449.57	1339.37
449.77	1279.98
449.98	1251.31
450.18	1292.27
450.39	1320.94
450.59	1191.92
450.79	1312.75
451.00	1251.31
451.20	1288.17
451.41	1255.40
451.61	1234.93
451.81	1316.84
452.02	1253.36
452.22	1310.70
452.43	1306.60
452.63	1259.50
