SpectraSuite Data File
++++++++++++++++++++++++++++++++++++
Date: Sun Apr 03 19:55:45 CEST 2016
User: root
Dark Spectrum Present: No
Reference Spectrum Present: No
Number of Sampled Component Spectra: 1
Spectrometers: USB4C02835
Integration Time (usec): 10000 (USB4C02835)
Spectra Averaged: 1 (USB4C02835)
Boxcar Smoothing: 0 (USB4C02835)
Correct for Electrical Dark: No (USB4C02835)
Strobe/Lamp Enabled: No (USB4C02835)
Correct for Detector Non-linearity: No (USB4C02835)
Correct for Stray Light: No (USB4C02835)
Number of Pixels in Processed Spectrum: 3648
>>>>>Begin Processed Spectral Data<<<<<
177.47	1253.36
177.69	1253.36
177.91	1253.36
178.13	1247.21
178.36	1294.32
178.58	1279.98
178.80	1277.93
179.02	1224.69
179.24	1265.64
179.46	1320.94
179.68	1325.04
179.90	1279.98
180.13	1198.06
180.35	1241.07
180.57	1257.45
180.79	1257.45
181.01	1232.88
181.23	1267.69
181.45	1296.36
181.67	1234.93
181.90	1226.73
182.12	1288.17
182.34	1214.45
182.56	1216.49
182.78	1255.40
183.00	1259.50
183.22	1282.03
183.44	1261.55
183.66	1249.26
183.89	1241.07
184.11	1277.93
184.33	1263.60
184.55	1243.12
184.77	1304.56
184.99	1247.21
185.21	1220.59
185.43	1359.85
185.65	1320.94
185.87	1294.32
186.10	1249.26
186.32	1206.25
186.54	1196.01
186.76	1290.22
186.98	1316.84
187.20	1296.36
187.42	1286.12
187.64	1222.64
187.86	1257.45
188.08	1277.93
188.30	1279.98
188.52	1253.36
188.75	1261.55
188.97	1243.12
189.19	1267.69
189.41	1275.88
189.63	1296.36
189.85	1316.84
190.07	1251.31
190.29	1208.30
190.51	1247.21
190.73	1257.45
190.95	1239.02
191.17	1277.93
191.39	1271.79
191.61	1282.03
191.84	1320.94
192.06	1226.73
192.28	1353.71
192.50	1282.03
192.72	1263.60
192.94	1253.36
193.16	1210.35
193.38	1296.36
193.60	1249.26
193.82	1249.26
194.04	1288.17
194.26	1290.22
194.48	1265.64
194.70	1308.65
194.92	1290.22
195.14	1282.03
195.36	1286.12
195.58	1247.21
195.80	1261.55
196.02	1253.36
196.24	1265.64
196.46	1173.49
196.69	1210.35
196.91	1224.69
197.13	1236.97
197.35	1185.77
197.57	1298.41
197.79	1222.64
198.01	1306.60
198.23	1243.12
198.45	1265.64
198.67	1273.84
198.89	1271.79
199.11	1277.93
199.33	1325.04
199.55	1259.50
199.77	1226.73
199.99	1337.32
200.21	1267.69
200.43	1292.27
200.65	1257.45
200.87	1267.69
201.09	1331.18
201.31	1296.36
201.53	1220.59
201.75	1232.88
201.97	1269.74
202.19	1273.84
202.41	1290.22
202.63	1308.65
202.85	1294.32
203.07	1302.51
203.29	1249.26
203.51	1284.08
203.73	1253.36
203.95	1306.60
204.17	1296.36
204.39	1228.78
204.61	1298.41
204.83	1310.70
205.05	1261.55
205.27	1251.31
205.49	1259.50
205.71	1220.59
205.93	1331.18
206.15	1286.12
206.37	1269.74
206.59	1320.94
206.81	1290.22
207.03	1239.02
207.25	1273.84
207.47	1241.07
207.69	1239.02
207.91	1230.83
208.13	1261.55
208.34	1329.13
208.56	1294.32
208.78	1310.70
209.00	1210.35
209.22	1263.60
209.44	1177.58
209.66	1179.63
209.88	1241.07
210.10	1286.12
210.32	1282.03
210.54	1298.41
210.76	1275.88
210.98	1306.60
211.20	1269.74
211.42	1335.28
211.64	1300.46
211.86	1253.36
212.08	1241.07
212.30	1245.16
212.52	1232.88
212.74	1320.94
212.96	1300.46
213.17	1257.45
213.39	1202.16
213.61	1312.75
213.83	1271.79
214.05	1265.64
214.27	1232.88
214.49	1265.64
214.71	1312.75
214.93	1286.12
215.15	1267.69
215.37	1257.45
215.59	1298.41
215.81	1255.40
216.03	1263.60
216.24	1294.32
216.46	1312.75
216.68	1292.27
216.90	1341.42
217.12	1257.45
217.34	1382.38
217.56	1249.26
217.78	1249.26
218.00	1255.40
218.22	1279.98
218.44	1226.73
218.66	1372.14
218.87	1282.03
219.09	1308.65
219.31	1265.64
219.53	1279.98
219.75	1255.40
219.97	1206.25
220.19	1314.80
220.41	1241.07
220.63	1353.71
220.85	1245.16
221.06	1267.69
221.28	1216.49
221.50	1292.27
221.72	1269.74
221.94	1263.60
222.16	1282.03
222.38	1298.41
222.60	1322.99
222.82	1239.02
223.03	1288.17
223.25	1249.26
223.47	1284.08
223.69	1265.64
223.91	1204.21
224.13	1300.46
224.35	1304.56
224.57	1325.04
224.78	1314.80
225.00	1236.97
225.22	1245.16
225.44	1247.21
225.66	1300.46
225.88	1255.40
226.10	1271.79
226.32	1222.64
226.53	1310.70
226.75	1212.40
226.97	1337.32
227.19	1236.97
227.41	1273.84
227.63	1226.73
227.85	1257.45
228.06	1224.69
228.28	1320.94
228.50	1279.98
228.72	1279.98
228.94	1239.02
229.16	1275.88
229.37	1259.50
229.59	1320.94
229.81	1294.32
230.03	1271.79
230.25	1208.30
230.47	1239.02
230.69	1232.88
230.90	1245.16
231.12	1263.60
231.34	1288.17
231.56	1257.45
231.78	1286.12
232.00	1314.80
232.21	1290.22
232.43	1259.50
232.65	1277.93
232.87	1310.70
233.09	1224.69
233.30	1282.03
233.52	1284.08
233.74	1310.70
233.96	1255.40
234.18	1273.84
234.40	1331.18
234.61	1296.36
234.83	1253.36
235.05	1271.79
235.27	1210.35
235.49	1273.84
235.70	1273.84
235.92	1290.22
236.14	1226.73
236.36	1183.73
236.58	1224.69
236.79	1265.64
237.01	1294.32
237.23	1239.02
237.45	1220.59
237.67	1296.36
237.88	1271.79
238.10	1236.97
238.32	1286.12
238.54	1265.64
238.76	1204.21
238.97	1269.74
239.19	1202.16
239.41	1234.93
239.63	1255.40
239.85	1277.93
240.06	1236.97
240.28	1339.37
240.50	1206.25
240.72	1228.78
240.93	1193.97
241.15	1251.31
241.37	1277.93
241.59	1198.06
241.81	1282.03
242.02	1300.46
242.24	1349.61
242.46	1298.41
242.68	1200.11
242.89	1187.82
243.11	1263.60
243.33	1273.84
243.55	1300.46
243.76	1265.64
243.98	1343.47
244.20	1275.88
244.42	1300.46
244.64	1230.83
244.85	1320.94
245.07	1232.88
245.29	1306.60
245.51	1284.08
245.72	1261.55
245.94	1265.64
246.16	1327.08
246.38	1232.88
246.59	1261.55
246.81	1181.68
247.03	1269.74
247.24	1153.01
247.46	1308.65
247.68	1222.64
247.90	1255.40
248.11	1212.40
248.33	1277.93
248.55	1224.69
248.77	1214.45
248.98	1325.04
249.20	1247.21
249.42	1249.26
249.64	1239.02
249.85	1214.45
250.07	1251.31
250.29	1239.02
250.50	1316.84
250.72	1257.45
250.94	1253.36
251.16	1343.47
251.37	1294.32
251.59	1286.12
251.81	1290.22
252.02	1282.03
252.24	1263.60
252.46	1300.46
252.68	1222.64
252.89	1187.82
253.11	1267.69
253.33	1220.59
253.54	1339.37
253.76	1234.93
253.98	1261.55
254.20	1265.64
254.41	1306.60
254.63	1296.36
254.85	1255.40
255.06	1279.98
255.28	1257.45
255.50	1277.93
255.71	1239.02
255.93	1265.64
256.15	1298.41
256.36	1271.79
256.58	1243.12
256.80	1267.69
257.02	1171.44
257.23	1325.04
257.45	1212.40
257.67	1267.69
257.88	1257.45
258.10	1255.40
258.32	1257.45
258.53	1279.98
258.75	1279.98
258.97	1220.59
259.18	1308.65
259.40	1312.75
259.62	1241.07
259.83	1265.64
260.05	1230.83
260.27	1302.51
260.48	1265.64
260.70	1282.03
260.92	1251.31
261.13	1241.07
261.35	1243.12
261.57	1251.31
261.78	1167.34
262.00	1247.21
262.22	1232.88
262.43	1275.88
262.65	1230.83
262.86	1296.36
263.08	1265.64
263.30	1210.35
263.51	1239.02
263.73	1302.51
263.95	1216.49
264.16	1257.45
264.38	1253.36
264.60	1230.83
264.81	1322.99
265.03	1304.56
265.25	1230.83
265.46	1273.84
265.68	1251.31
265.89	1271.79
266.11	1212.40
266.33	1265.64
266.54	1294.32
266.76	1273.84
266.98	1220.59
267.19	1226.73
267.41	1226.73
267.62	1286.12
267.84	1216.49
268.06	1202.16
268.27	1286.12
268.49	1263.60
268.70	1277.93
268.92	1269.74
269.14	1185.77
269.35	1253.36
269.57	1271.79
269.79	1236.97
270.00	1179.63
270.22	1308.65
270.43	1327.08
270.65	1173.49
270.87	1161.20
271.08	1273.84
271.30	1228.78
271.51	1275.88
271.73	1335.28
271.95	1271.79
272.16	1255.40
272.38	1271.79
272.59	1208.30
272.81	1245.16
273.02	1290.22
273.24	1255.40
273.46	1312.75
273.67	1329.13
273.89	1298.41
274.10	1310.70
274.32	1273.84
274.54	1288.17
274.75	1265.64
274.97	1245.16
275.18	1312.75
275.40	1214.45
275.61	1277.93
275.83	1247.21
276.05	1241.07
276.26	1286.12
276.48	1310.70
276.69	1204.21
276.91	1245.16
277.12	1241.07
277.34	1292.27
277.55	1245.16
277.77	1241.07
277.99	1222.64
278.20	1286.12
278.42	1363.95
278.63	1241.07
278.85	1282.03
279.06	1210.35
279.28	1245.16
279.49	1292.27
279.71	1316.84
279.93	1232.88
280.14	1236.97
280.36	1232.88
280.57	1271.79
280.79	1239.02
281.00	1232.88
281.22	1234.93
281.43	1337.32
281.65	1210.35
281.86	1263.60
282.08	1193.97
282.29	1284.08
282.51	1259.50
282.73	1245.16
282.94	1206.25
283.16	1232.88
283.37	1284.08
283.59	1226.73
283.80	1300.46
284.02	1275.88
284.23	1284.08
284.45	1265.64
284.66	1236.97
284.88	1286.12
285.09	1306.60
285.31	1279.98
285.52	1241.07
285.74	1241.07
285.95	1191.92
286.17	1259.50
286.38	1196.01
286.60	1261.55
286.81	1224.69
287.03	1265.64
287.24	1273.84
287.46	1263.60
287.67	1302.51
287.89	1241.07
288.10	1261.55
288.32	1228.78
288.53	1327.08
288.75	1271.79
288.96	1198.06
289.18	1322.99
289.39	1296.36
289.61	1288.17
289.82	1284.08
290.04	1220.59
290.25	1302.51
290.47	1232.88
290.68	1230.83
290.90	1277.93
291.11	1259.50
291.33	1286.12
291.54	1263.60
291.76	1320.94
291.97	1267.69
292.18	1277.93
292.40	1259.50
292.61	1275.88
292.83	1357.80
293.04	1265.64
293.26	1282.03
293.47	1232.88
293.69	1224.69
293.90	1212.40
294.12	1279.98
294.33	1212.40
294.55	1257.45
294.76	1288.17
294.97	1335.28
295.19	1316.84
295.40	1228.78
295.62	1224.69
295.83	1269.74
296.05	1300.46
296.26	1267.69
296.48	1251.31
296.69	1239.02
296.90	1269.74
297.12	1349.61
297.33	1257.45
297.55	1273.84
297.76	1310.70
297.98	1302.51
298.19	1339.37
298.41	1331.18
298.62	1239.02
298.83	1273.84
299.05	1265.64
299.26	1249.26
299.48	1269.74
299.69	1337.32
299.90	1255.40
300.12	1273.84
300.33	1320.94
300.55	1298.41
300.76	1247.21
300.98	1218.54
301.19	1273.84
301.40	1249.26
301.62	1318.89
301.83	1343.47
302.05	1243.12
302.26	1273.84
302.47	1255.40
302.69	1300.46
302.90	1173.49
303.12	1208.30
303.33	1222.64
303.54	1273.84
303.76	1325.04
303.97	1236.97
304.19	1265.64
304.40	1243.12
304.61	1275.88
304.83	1290.22
305.04	1329.13
305.26	1214.45
305.47	1275.88
305.68	1236.97
305.90	1286.12
306.11	1341.42
306.33	1236.97
306.54	1212.40
306.75	1269.74
306.97	1286.12
307.18	1322.99
307.39	1234.93
307.61	1298.41
307.82	1247.21
308.04	1304.56
308.25	1251.31
308.46	1239.02
308.68	1380.33
308.89	1241.07
309.10	1232.88
309.32	1222.64
309.53	1292.27
309.74	1331.18
309.96	1226.73
310.17	1296.36
310.39	1228.78
310.60	1290.22
310.81	1247.21
311.03	1294.32
311.24	1292.27
311.45	1243.12
311.67	1347.56
311.88	1257.45
312.09	1304.56
312.31	1245.16
312.52	1193.97
312.73	1288.17
312.95	1175.53
313.16	1290.22
313.37	1290.22
313.59	1247.21
313.80	1282.03
314.01	1212.40
314.23	1267.69
314.44	1294.32
314.65	1218.54
314.87	1312.75
315.08	1267.69
315.29	1304.56
315.51	1218.54
315.72	1257.45
315.93	1308.65
316.15	1275.88
316.36	1333.23
316.57	1239.02
316.79	1212.40
317.00	1236.97
317.21	1232.88
317.43	1339.37
317.64	1286.12
317.85	1228.78
318.07	1263.60
318.28	1304.56
318.49	1245.16
318.70	1236.97
318.92	1245.16
319.13	1325.04
319.34	1279.98
319.56	1228.78
319.77	1230.83
319.98	1226.73
320.20	1341.42
320.41	1325.04
320.62	1292.27
320.83	1230.83
321.05	1241.07
321.26	1269.74
321.47	1378.28
321.69	1341.42
321.90	1282.03
322.11	1196.01
322.32	1253.36
322.54	1249.26
322.75	1245.16
322.96	1288.17
323.18	1210.35
323.39	1234.93
323.60	1275.88
323.81	1234.93
324.03	1263.60
324.24	1239.02
324.45	1310.70
324.66	1331.18
324.88	1265.64
325.09	1271.79
325.30	1265.64
325.52	1284.08
325.73	1310.70
325.94	1247.21
326.15	1230.83
326.37	1345.52
326.58	1245.16
326.79	1290.22
327.00	1218.54
327.22	1318.89
327.43	1290.22
327.64	1153.01
327.85	1322.99
328.07	1245.16
328.28	1292.27
328.49	1304.56
328.70	1245.16
328.92	1241.07
329.13	1286.12
329.34	1265.64
329.55	1216.49
329.76	1245.16
329.98	1306.60
330.19	1329.13
330.40	1292.27
330.61	1261.55
330.83	1261.55
331.04	1204.21
331.25	1261.55
331.46	1198.06
331.68	1189.87
331.89	1282.03
332.10	1247.21
332.31	1241.07
332.52	1257.45
332.74	1230.83
332.95	1234.93
333.16	1335.28
333.37	1286.12
333.58	1259.50
333.80	1335.28
334.01	1294.32
334.22	1212.40
334.43	1214.45
334.64	1216.49
334.86	1294.32
335.07	1259.50
335.28	1263.60
335.49	1269.74
335.70	1320.94
335.92	1288.17
336.13	1265.64
336.34	1214.45
336.55	1253.36
336.76	1282.03
336.98	1230.83
337.19	1273.84
337.40	1320.94
337.61	1318.89
337.82	1230.83
338.04	1286.12
338.25	1247.21
338.46	1206.25
338.67	1265.64
338.88	1239.02
339.09	1290.22
339.31	1339.37
339.52	1277.93
339.73	1216.49
339.94	1212.40
340.15	1222.64
340.36	1312.75
340.58	1282.03
340.79	1265.64
341.00	1284.08
341.21	1308.65
341.42	1273.84
341.63	1275.88
341.85	1239.02
342.06	1265.64
342.27	1318.89
342.48	1267.69
342.69	1312.75
342.90	1292.27
343.12	1343.47
343.33	1253.36
343.54	1232.88
343.75	1269.74
343.96	1363.95
344.17	1216.49
344.38	1257.45
344.60	1292.27
344.81	1261.55
345.02	1273.84
345.23	1251.31
345.44	1259.50
345.65	1271.79
345.86	1279.98
346.07	1343.47
346.29	1298.41
346.50	1255.40
346.71	1271.79
346.92	1263.60
347.13	1228.78
347.34	1249.26
347.55	1292.27
347.76	1234.93
347.98	1275.88
348.19	1290.22
348.40	1232.88
348.61	1273.84
348.82	1265.64
349.03	1253.36
349.24	1265.64
349.45	1284.08
349.66	1265.64
349.88	1257.45
350.09	1304.56
350.30	1222.64
350.51	1304.56
350.72	1181.68
350.93	1232.88
351.14	1153.01
351.35	1196.01
351.56	1306.60
351.77	1306.60
351.99	1241.07
352.20	1279.98
352.41	1322.99
352.62	1273.84
352.83	1318.89
353.04	1214.45
353.25	1218.54
353.46	1314.80
353.67	1273.84
353.88	1243.12
354.09	1263.60
354.30	1269.74
354.52	1216.49
354.73	1239.02
354.94	1265.64
355.15	1302.51
355.36	1275.88
355.57	1249.26
355.78	1296.36
355.99	1314.80
356.20	1245.16
356.41	1273.84
356.62	1269.74
356.83	1357.80
357.04	1306.60
357.25	1196.01
357.46	1320.94
357.68	1255.40
357.89	1284.08
358.10	1271.79
358.31	1335.28
358.52	1337.32
358.73	1275.88
358.94	1247.21
359.15	1224.69
359.36	1318.89
359.57	1247.21
359.78	1284.08
359.99	1189.87
360.20	1200.11
360.41	1255.40
360.62	1282.03
360.83	1228.78
361.04	1200.11
361.25	1308.65
361.46	1239.02
361.67	1267.69
361.88	1300.46
362.09	1277.93
362.30	1263.60
362.51	1257.45
362.72	1239.02
362.93	1343.47
363.14	1296.36
363.35	1241.07
363.56	1282.03
363.78	1241.07
363.99	1282.03
364.20	1253.36
364.41	1265.64
364.62	1267.69
364.83	1196.01
365.04	1310.70
365.25	1275.88
365.46	1265.64
365.67	1273.84
365.88	1271.79
366.09	1224.69
366.30	1318.89
366.51	1198.06
366.72	1294.32
366.93	1222.64
367.14	1318.89
367.35	1226.73
367.56	1228.78
367.77	1255.40
367.98	1210.35
368.18	1263.60
368.39	1267.69
368.60	1243.12
368.81	1220.59
369.02	1247.21
369.23	1320.94
369.44	1286.12
369.65	1226.73
369.86	1232.88
370.07	1269.74
370.28	1335.28
370.49	1310.70
370.70	1263.60
370.91	1257.45
371.12	1239.02
371.33	1257.45
371.54	1271.79
371.75	1245.16
371.96	1245.16
372.17	1263.60
372.38	1286.12
372.59	1296.36
372.80	1228.78
373.01	1204.21
373.22	1269.74
373.43	1263.60
373.64	1220.59
373.85	1214.45
374.06	1331.18
374.26	1232.88
374.47	1314.80
374.68	1247.21
374.89	1247.21
375.10	1232.88
375.31	1228.78
375.52	1292.27
375.73	1269.74
375.94	1212.40
376.15	1255.40
376.36	1257.45
376.57	1279.98
376.78	1284.08
376.99	1198.06
377.20	1179.63
377.40	1275.88
377.61	1249.26
377.82	1261.55
378.03	1234.93
378.24	1331.18
378.45	1228.78
378.66	1239.02
378.87	1251.31
379.08	1265.64
379.29	1241.07
379.50	1269.74
379.71	1232.88
379.91	1284.08
380.12	1247.21
380.33	1304.56
380.54	1265.64
380.75	1261.55
380.96	1216.49
381.17	1255.40
381.38	1232.88
381.59	1308.65
381.80	1236.97
382.00	1320.94
382.21	1220.59
382.42	1257.45
382.63	1331.18
382.84	1290.22
383.05	1286.12
383.26	1267.69
383.47	1232.88
383.68	1302.51
383.88	1318.89
384.09	1206.25
384.30	1361.90
384.51	1261.55
384.72	1239.02
384.93	1257.45
385.14	1265.64
385.35	1277.93
385.55	1214.45
385.76	1296.36
385.97	1202.16
386.18	1241.07
386.39	1314.80
386.60	1306.60
386.81	1282.03
387.02	1216.49
387.22	1255.40
387.43	1296.36
387.64	1267.69
387.85	1228.78
388.06	1212.40
388.27	1271.79
388.48	1236.97
388.68	1292.27
388.89	1232.88
389.10	1265.64
389.31	1271.79
389.52	1265.64
389.73	1316.84
389.93	1261.55
390.14	1286.12
390.35	1277.93
390.56	1288.17
390.77	1286.12
390.98	1374.19
391.18	1234.93
391.39	1284.08
391.60	1329.13
391.81	1370.09
392.02	1218.54
392.23	1241.07
392.43	1304.56
392.64	1243.12
392.85	1298.41
393.06	1232.88
393.27	1318.89
393.47	1318.89
393.68	1257.45
393.89	1306.60
394.10	1181.68
394.31	1257.45
394.52	1288.17
394.72	1226.73
394.93	1226.73
395.14	1255.40
395.35	1292.27
395.56	1298.41
395.76	1253.36
395.97	1247.21
396.18	1298.41
396.39	1218.54
396.60	1325.04
396.80	1306.60
397.01	1265.64
397.22	1306.60
397.43	1259.50
397.64	1241.07
397.84	1296.36
398.05	1243.12
398.26	1288.17
398.47	1239.02
398.67	1245.16
398.88	1228.78
399.09	1255.40
399.30	1325.04
399.51	1230.83
399.71	1187.82
399.92	1191.92
400.13	1253.36
400.34	1265.64
400.54	1265.64
400.75	1214.45
400.96	1277.93
401.17	1304.56
401.37	1277.93
401.58	1275.88
401.79	1247.21
402.00	1339.37
402.21	1257.45
402.41	1351.66
402.62	1282.03
402.83	1296.36
403.04	1218.54
403.24	1292.27
403.45	1312.75
403.66	1366.00
403.87	1249.26
404.07	1302.51
404.28	1355.76
404.49	1273.84
404.70	1275.88
404.90	1322.99
405.11	1271.79
405.32	1265.64
405.52	1296.36
405.73	1286.12
405.94	1228.78
406.15	1228.78
406.35	1228.78
406.56	1214.45
406.77	1196.01
406.98	1210.35
407.18	1320.94
407.39	1208.30
407.60	1271.79
407.80	1292.27
408.01	1320.94
408.22	1189.87
408.43	1265.64
408.63	1230.83
408.84	1286.12
409.05	1388.52
409.25	1249.26
409.46	1247.21
409.67	1320.94
409.88	1269.74
410.08	1290.22
410.29	1261.55
410.50	1241.07
410.70	1255.40
410.91	1220.59
411.12	1222.64
411.32	1169.39
411.53	1294.32
411.74	1296.36
411.95	1292.27
412.15	1327.08
412.36	1273.84
412.57	1304.56
412.77	1288.17
412.98	1247.21
413.19	1265.64
413.39	1206.25
413.60	1320.94
413.81	1273.84
414.01	1177.58
414.22	1286.12
414.43	1183.73
414.63	1286.12
414.84	1292.27
415.05	1212.40
415.25	1173.49
415.46	1269.74
415.67	1282.03
415.87	1265.64
416.08	1261.55
416.29	1261.55
416.49	1236.97
416.70	1275.88
416.91	1273.84
417.11	1232.88
417.32	1310.70
417.53	1257.45
417.73	1179.63
417.94	1277.93
418.15	1261.55
418.35	1263.60
418.56	1245.16
418.77	1308.65
418.97	1230.83
419.18	1232.88
419.38	1275.88
419.59	1275.88
419.80	1200.11
420.00	1312.75
420.21	1208.30
420.42	1251.31
420.62	1226.73
420.83	1200.11
421.04	1302.51
421.24	1347.56
421.45	1249.26
421.65	1257.45
421.86	1249.26
422.07	1286.12
422.27	1277.93
422.48	1284.08
422.69	1339.37
422.89	1202.16
423.10	1263.60
423.30	1329.13
423.51	1296.36
423.72	1263.60
423.92	1263.60
424.13	1228.78
424.33	1257.45
424.54	1228.78
424.75	1261.55
424.95	1208.30
425.16	1302.51
425.36	1282.03
425.57	1247.21
425.78	1310.70
425.98	1214.45
426.19	1259.50
426.39	1286.12
426.60	1327.08
426.81	1251.31
427.01	1267.69
427.22	1249.26
427.42	1302.51
427.63	1259.50
427.83	1273.84
428.04	1318.89
428.25	1288.17
428.45	1245.16
428.66	1310.70
428.86	1204.21
429.07	1257.45
429.28	1241.07
429.48	1298.41
429.69	1245.16
429.89	1191.92
430.10	1241.07
430.30	1257.45
430.51	1296.36
430.71	1249.26
430.92	1212.40
431.13	1271.79
431.33	1343.47
431.54	1265.64
431.74	1316.84
431.95	1265.64
432.15	1279.98
432.36	1271.79
432.56	1290.22
432.77	1302.51
432.98	1302.51
433.18	1320.94
433.39	1279.98
433.59	1208.30
433.80	1339.37
434.00	1298.41
434.21	1294.32
434.41	1259.50
434.62	1241.07
434.82	1259.50
435.03	1347.56
435.23	1273.84
435.44	1304.56
435.64	1300.46
435.85	1253.36
436.06	1318.89
436.26	1255.40
436.47	1279.98
436.67	1241.07
436.88	1325.04
437.08	1318.89
437.29	1300.46
437.49	1265.64
437.70	1261.55
437.90	1316.84
438.11	1232.88
438.31	1296.36
438.52	1316.84
438.72	1302.51
438.93	1282.03
439.13	1232.88
439.34	1267.69
439.54	1236.97
439.75	1236.97
439.95	1261.55
440.16	1210.35
440.36	1261.55
440.57	1296.36
440.77	1269.74
440.98	1298.41
441.18	1277.93
441.39	1318.89
441.59	1255.40
441.80	1298.41
442.00	1212.40
442.21	1333.23
442.41	1196.01
442.62	1277.93
442.82	1249.26
443.02	1236.97
443.23	1277.93
443.43	1261.55
443.64	1230.83
443.84	1322.99
444.05	1247.21
444.25	1257.45
444.46	1296.36
444.66	1230.83
444.87	1372.14
445.07	1288.17
445.28	1298.41
445.48	1220.59
445.69	1230.83
445.89	1259.50
446.09	1279.98
446.30	1232.88
446.50	1265.64
446.71	1279.98
446.91	1273.84
447.12	1279.98
447.32	1294.32
447.53	1282.03
447.73	1232.88
447.93	1290.22
448.14	1257.45
448.34	1241.07
448.55	1302.51
448.75	1279.98
448.96	1277.93
449.16	1316.84
449.36	1314.80
449.57	1314.80
449.77	1220.59
449.98	1257.45
450.18	1314.80
450.39	1286.12
450.59	1298.41
450.79	1173.49
451.00	1314.80
451.20	1261.55
451.41	1265.64
451.61	1257.45
451.81	1298.41
452.02	1245.16
452.22	1325.04
452.43	1282.03
452.63	1316.84
