SpectraSuite Data File
++++++++++++++++++++++++++++++++++++
Date: Sun Apr 03 19:55:53 CEST 2016
User: root
Dark Spectrum Present: No
Reference Spectrum Present: No
Number of Sampled Component Spectra: 1
Spectrometers: USB4C02835
Integration Time (usec): 10000 (USB4C02835)
Spectra Averaged: 1 (USB4C02835)
Boxcar Smoothing: 0 (USB4C02835)
Correct for Electrical Dark: No (USB4C02835)
Strobe/Lamp Enabled: No (USB4C02835)
Correct for Detector Non-linearity: No (USB4C02835)
Correct for Stray Light: No (USB4C02835)
Number of Pixels in Processed Spectrum: 3648
>>>>>Begin Processed Spectral Data<<<<<
177.47	1296.36
177.69	1296.36
177.91	1296.36
178.13	1230.83
178.36	1232.88
178.58	1294.32
178.80	1282.03
179.02	1267.69
179.24	1232.88
179.46	1239.02
179.68	1259.50
179.90	1234.93
180.13	1288.17
180.35	1269.74
180.57	1255.40
180.79	1302.51
181.01	1292.27
181.23	1265.64
181.45	1265.64
181.67	1286.12
181.90	1273.84
182.12	1277.93
182.34	1331.18
182.56	1294.32
182.78	1331.18
183.00	1253.36
183.22	1359.85
183.44	1284.08
183.66	1282.03
183.89	1255.40
184.11	1204.21
184.33	1277.93
184.55	1284.08
184.77	1230.83
184.99	1372.14
185.21	1271.79
185.43	1228.78
185.65	1286.12
185.87	1198.06
186.10	1245.16
186.32	1222.64
186.54	1257.45
186.76	1314.80
186.98	1279.98
187.20	1292.27
187.42	1222.64
187.64	1275.88
187.86	1282.03
188.08	1329.13
188.30	1269.74
188.52	1279.98
188.75	1335.28
188.97	1298.41
189.19	1306.60
189.41	1312.75
189.63	1263.60
189.85	1263.60
190.07	1279.98
190.29	1306.60
190.51	1257.45
190.73	1261.55
190.95	1214.45
191.17	1345.52
191.39	1282.03
191.61	1251.31
191.84	1259.50
192.06	1327.08
192.28	1224.69
192.50	1282.03
192.72	1214.45
192.94	1288.17
193.16	1251.31
193.38	1269.74
193.60	1267.69
193.82	1325.04
194.04	1300.46
194.26	1282.03
194.48	1251.31
194.70	1316.84
194.92	1288.17
195.14	1279.98
195.36	1234.93
195.58	1267.69
195.80	1230.83
196.02	1249.26
196.24	1304.56
196.46	1267.69
196.69	1241.07
196.91	1279.98
197.13	1259.50
197.35	1279.98
197.57	1218.54
197.79	1290.22
198.01	1230.83
198.23	1302.51
198.45	1222.64
198.67	1318.89
198.89	1224.69
199.11	1261.55
199.33	1236.97
199.55	1228.78
199.77	1284.08
199.99	1320.94
200.21	1312.75
200.43	1271.79
200.65	1306.60
200.87	1310.70
201.09	1316.84
201.31	1253.36
201.53	1308.65
201.75	1230.83
201.97	1230.83
202.19	1228.78
202.41	1341.42
202.63	1310.70
202.85	1275.88
203.07	1288.17
203.29	1212.40
203.51	1300.46
203.73	1263.60
203.95	1351.66
204.17	1253.36
204.39	1312.75
204.61	1263.60
204.83	1245.16
205.05	1277.93
205.27	1247.21
205.49	1232.88
205.71	1304.56
205.93	1249.26
206.15	1232.88
206.37	1259.50
206.59	1255.40
206.81	1290.22
207.03	1234.93
207.25	1259.50
207.47	1247.21
207.69	1271.79
207.91	1286.12
208.13	1322.99
208.34	1263.60
208.56	1253.36
208.78	1271.79
209.00	1241.07
209.22	1322.99
209.44	1220.59
209.66	1234.93
209.88	1263.60
210.10	1298.41
210.32	1300.46
210.54	1224.69
210.76	1204.21
210.98	1351.66
211.20	1220.59
211.42	1292.27
211.64	1239.02
211.86	1257.45
212.08	1247.21
212.30	1253.36
212.52	1306.60
212.74	1255.40
212.96	1265.64
213.17	1222.64
213.39	1271.79
213.61	1255.40
213.83	1263.60
214.05	1181.68
214.27	1208.30
214.49	1228.78
214.71	1212.40
214.93	1271.79
215.15	1265.64
215.37	1263.60
215.59	1296.36
215.81	1312.75
216.03	1208.30
216.24	1204.21
216.46	1298.41
216.68	1249.26
216.90	1241.07
217.12	1249.26
217.34	1298.41
217.56	1327.08
217.78	1327.08
218.00	1325.04
218.22	1318.89
218.44	1282.03
218.66	1302.51
218.87	1279.98
219.09	1243.12
219.31	1290.22
219.53	1275.88
219.75	1222.64
219.97	1265.64
220.19	1271.79
220.41	1329.13
220.63	1325.04
220.85	1171.44
221.06	1288.17
221.28	1275.88
221.50	1306.60
221.72	1234.93
221.94	1216.49
222.16	1269.74
222.38	1325.04
222.60	1282.03
222.82	1308.65
223.03	1300.46
223.25	1292.27
223.47	1220.59
223.69	1335.28
223.91	1220.59
224.13	1325.04
224.35	1261.55
224.57	1337.32
224.78	1282.03
225.00	1241.07
225.22	1261.55
225.44	1208.30
225.66	1259.50
225.88	1333.23
226.10	1224.69
226.32	1318.89
226.53	1286.12
226.75	1247.21
226.97	1245.16
227.19	1261.55
227.41	1298.41
227.63	1282.03
227.85	1251.31
228.06	1241.07
228.28	1282.03
228.50	1243.12
228.72	1298.41
228.94	1259.50
229.16	1234.93
229.37	1249.26
229.59	1216.49
229.81	1292.27
230.03	1282.03
230.25	1214.45
230.47	1208.30
230.69	1271.79
230.90	1286.12
231.12	1263.60
231.34	1239.02
231.56	1304.56
231.78	1214.45
232.00	1298.41
232.21	1325.04
232.43	1259.50
232.65	1320.94
232.87	1339.37
233.09	1277.93
233.30	1259.50
233.52	1222.64
233.74	1214.45
233.96	1263.60
234.18	1284.08
234.40	1310.70
234.61	1298.41
234.83	1273.84
235.05	1269.74
235.27	1257.45
235.49	1345.52
235.70	1298.41
235.92	1282.03
236.14	1275.88
236.36	1273.84
236.58	1284.08
236.79	1247.21
237.01	1318.89
237.23	1282.03
237.45	1273.84
237.67	1271.79
237.88	1277.93
238.10	1208.30
238.32	1255.40
238.54	1310.70
238.76	1257.45
238.97	1171.44
239.19	1277.93
239.41	1314.80
239.63	1275.88
239.85	1298.41
240.06	1245.16
240.28	1263.60
240.50	1279.98
240.72	1220.59
240.93	1196.01
241.15	1253.36
241.37	1224.69
241.59	1259.50
241.81	1222.64
242.02	1249.26
242.24	1316.84
242.46	1320.94
242.68	1226.73
242.89	1306.60
243.11	1226.73
243.33	1245.16
243.55	1200.11
243.76	1269.74
243.98	1247.21
244.20	1234.93
244.42	1245.16
244.64	1277.93
244.85	1220.59
245.07	1279.98
245.29	1251.31
245.51	1220.59
245.72	1300.46
245.94	1189.87
246.16	1277.93
246.38	1279.98
246.59	1302.51
246.81	1230.83
247.03	1337.32
247.24	1282.03
247.46	1322.99
247.68	1267.69
247.90	1234.93
248.11	1286.12
248.33	1329.13
248.55	1312.75
248.77	1304.56
248.98	1265.64
249.20	1279.98
249.42	1288.17
249.64	1234.93
249.85	1290.22
250.07	1267.69
250.29	1288.17
250.50	1236.97
250.72	1314.80
250.94	1253.36
251.16	1259.50
251.37	1277.93
251.59	1339.37
251.81	1265.64
252.02	1243.12
252.24	1347.56
252.46	1257.45
252.68	1239.02
252.89	1193.97
253.11	1228.78
253.33	1222.64
253.54	1243.12
253.76	1296.36
253.98	1243.12
254.20	1302.51
254.41	1200.11
254.63	1296.36
254.85	1208.30
255.06	1220.59
255.28	1294.32
255.50	1193.97
255.71	1292.27
255.93	1228.78
256.15	1261.55
256.36	1320.94
256.58	1286.12
256.80	1243.12
257.02	1208.30
257.23	1222.64
257.45	1249.26
257.67	1288.17
257.88	1247.21
258.10	1261.55
258.32	1273.84
258.53	1290.22
258.75	1304.56
258.97	1206.25
259.18	1259.50
259.40	1255.40
259.62	1329.13
259.83	1224.69
260.05	1232.88
260.27	1300.46
260.48	1269.74
260.70	1265.64
260.92	1259.50
261.13	1359.85
261.35	1286.12
261.57	1230.83
261.78	1320.94
262.00	1331.18
262.22	1224.69
262.43	1314.80
262.65	1239.02
262.86	1325.04
263.08	1298.41
263.30	1275.88
263.51	1292.27
263.73	1255.40
263.95	1349.61
264.16	1232.88
264.38	1208.30
264.60	1273.84
264.81	1296.36
265.03	1269.74
265.25	1249.26
265.46	1273.84
265.68	1202.16
265.89	1286.12
266.11	1294.32
266.33	1249.26
266.54	1292.27
266.76	1294.32
266.98	1216.49
267.19	1298.41
267.41	1239.02
267.62	1212.40
267.84	1277.93
268.06	1290.22
268.27	1275.88
268.49	1259.50
268.70	1200.11
268.92	1265.64
269.14	1286.12
269.35	1230.83
269.57	1267.69
269.79	1249.26
270.00	1253.36
270.22	1265.64
270.43	1263.60
270.65	1370.09
270.87	1241.07
271.08	1249.26
271.30	1247.21
271.51	1316.84
271.73	1273.84
271.95	1271.79
272.16	1296.36
272.38	1277.93
272.59	1200.11
272.81	1222.64
273.02	1220.59
273.24	1247.21
273.46	1294.32
273.67	1251.31
273.89	1198.06
274.10	1206.25
274.32	1312.75
274.54	1310.70
274.75	1243.12
274.97	1251.31
275.18	1269.74
275.40	1322.99
275.61	1318.89
275.83	1296.36
276.05	1261.55
276.26	1236.97
276.48	1300.46
276.69	1212.40
276.91	1277.93
277.12	1261.55
277.34	1269.74
277.55	1249.26
277.77	1302.51
277.99	1298.41
278.20	1253.36
278.42	1298.41
278.63	1210.35
278.85	1308.65
279.06	1353.71
279.28	1220.59
279.49	1239.02
279.71	1196.01
279.93	1236.97
280.14	1282.03
280.36	1265.64
280.57	1337.32
280.79	1277.93
281.00	1357.80
281.22	1273.84
281.43	1261.55
281.65	1286.12
281.86	1308.65
282.08	1234.93
282.29	1282.03
282.51	1216.49
282.73	1236.97
282.94	1251.31
283.16	1255.40
283.37	1232.88
283.59	1177.58
283.80	1304.56
284.02	1202.16
284.23	1216.49
284.45	1306.60
284.66	1271.79
284.88	1212.40
285.09	1310.70
285.31	1236.97
285.52	1273.84
285.74	1208.30
285.95	1304.56
286.17	1232.88
286.38	1226.73
286.60	1300.46
286.81	1279.98
287.03	1265.64
287.24	1239.02
287.46	1269.74
287.67	1216.49
287.89	1304.56
288.10	1347.56
288.32	1251.31
288.53	1286.12
288.75	1277.93
288.96	1318.89
289.18	1284.08
289.39	1261.55
289.61	1245.16
289.82	1341.42
290.04	1318.89
290.25	1259.50
290.47	1269.74
290.68	1241.07
290.90	1290.22
291.11	1230.83
291.33	1300.46
291.54	1255.40
291.76	1286.12
291.97	1279.98
292.18	1372.14
292.40	1279.98
292.61	1300.46
292.83	1277.93
293.04	1304.56
293.26	1347.56
293.47	1310.70
293.69	1304.56
293.90	1320.94
294.12	1275.88
294.33	1302.51
294.55	1214.45
294.76	1286.12
294.97	1251.31
295.19	1249.26
295.40	1282.03
295.62	1271.79
295.83	1292.27
296.05	1288.17
296.26	1239.02
296.48	1269.74
296.69	1263.60
296.90	1269.74
297.12	1263.60
297.33	1245.16
297.55	1267.69
297.76	1255.40
297.98	1224.69
298.19	1247.21
298.41	1239.02
298.62	1351.66
298.83	1290.22
299.05	1200.11
299.26	1302.51
299.48	1286.12
299.69	1259.50
299.90	1259.50
300.12	1275.88
300.33	1273.84
300.55	1249.26
300.76	1253.36
300.98	1282.03
301.19	1320.94
301.40	1259.50
301.62	1284.08
301.83	1247.21
302.05	1263.60
302.26	1267.69
302.47	1259.50
302.69	1271.79
302.90	1261.55
303.12	1220.59
303.33	1294.32
303.54	1259.50
303.76	1320.94
303.97	1335.28
304.19	1263.60
304.40	1263.60
304.61	1306.60
304.83	1220.59
305.04	1284.08
305.26	1271.79
305.47	1265.64
305.68	1202.16
305.90	1275.88
306.11	1343.47
306.33	1261.55
306.54	1212.40
306.75	1296.36
306.97	1290.22
307.18	1279.98
307.39	1202.16
307.61	1304.56
307.82	1366.00
308.04	1251.31
308.25	1269.74
308.46	1304.56
308.68	1251.31
308.89	1273.84
309.10	1277.93
309.32	1234.93
309.53	1257.45
309.74	1253.36
309.96	1273.84
310.17	1296.36
310.39	1234.93
310.60	1208.30
310.81	1239.02
311.03	1325.04
311.24	1269.74
311.45	1265.64
311.67	1282.03
311.88	1249.26
312.09	1259.50
312.31	1279.98
312.52	1224.69
312.73	1310.70
312.95	1257.45
313.16	1239.02
313.37	1257.45
313.59	1257.45
313.80	1294.32
314.01	1265.64
314.23	1312.75
314.44	1255.40
314.65	1232.88
314.87	1193.97
315.08	1296.36
315.29	1263.60
315.51	1277.93
315.72	1286.12
315.93	1269.74
316.15	1282.03
316.36	1243.12
316.57	1263.60
316.79	1349.61
317.00	1298.41
317.21	1282.03
317.43	1230.83
317.64	1286.12
317.85	1271.79
318.07	1277.93
318.28	1261.55
318.49	1208.30
318.70	1245.16
318.92	1284.08
319.13	1282.03
319.34	1226.73
319.56	1302.51
319.77	1267.69
319.98	1163.25
320.20	1282.03
320.41	1372.14
320.62	1282.03
320.83	1282.03
321.05	1257.45
321.26	1290.22
321.47	1212.40
321.69	1265.64
321.90	1263.60
322.11	1282.03
322.32	1236.97
322.54	1196.01
322.75	1249.26
322.96	1304.56
323.18	1245.16
323.39	1282.03
323.60	1282.03
323.81	1271.79
324.03	1222.64
324.24	1206.25
324.45	1265.64
324.66	1173.49
324.88	1296.36
325.09	1247.21
325.30	1239.02
325.52	1288.17
325.73	1220.59
325.94	1249.26
326.15	1206.25
326.37	1202.16
326.58	1349.61
326.79	1366.00
327.00	1255.40
327.22	1245.16
327.43	1216.49
327.64	1290.22
327.85	1239.02
328.07	1286.12
328.28	1290.22
328.49	1232.88
328.70	1191.92
328.92	1247.21
329.13	1286.12
329.34	1310.70
329.55	1245.16
329.76	1312.75
329.98	1265.64
330.19	1320.94
330.40	1257.45
330.61	1275.88
330.83	1294.32
331.04	1239.02
331.25	1236.97
331.46	1306.60
331.68	1290.22
331.89	1263.60
332.10	1249.26
332.31	1239.02
332.52	1265.64
332.74	1296.36
332.95	1245.16
333.16	1300.46
333.37	1239.02
333.58	1310.70
333.80	1196.01
334.01	1239.02
334.22	1243.12
334.43	1241.07
334.64	1253.36
334.86	1257.45
335.07	1286.12
335.28	1234.93
335.49	1320.94
335.70	1290.22
335.92	1286.12
336.13	1257.45
336.34	1236.97
336.55	1261.55
336.76	1234.93
336.98	1173.49
337.19	1279.98
337.40	1322.99
337.61	1329.13
337.82	1249.26
338.04	1345.52
338.25	1253.36
338.46	1277.93
338.67	1318.89
338.88	1296.36
339.09	1261.55
339.31	1269.74
339.52	1284.08
339.73	1232.88
339.94	1196.01
340.15	1325.04
340.36	1306.60
340.58	1196.01
340.79	1302.51
341.00	1196.01
341.21	1245.16
341.42	1339.37
341.63	1249.26
341.85	1277.93
342.06	1220.59
342.27	1263.60
342.48	1282.03
342.69	1239.02
342.90	1279.98
343.12	1200.11
343.33	1269.74
343.54	1282.03
343.75	1284.08
343.96	1318.89
344.17	1312.75
344.38	1234.93
344.60	1312.75
344.81	1241.07
345.02	1247.21
345.23	1257.45
345.44	1247.21
345.65	1267.69
345.86	1298.41
346.07	1263.60
346.29	1310.70
346.50	1322.99
346.71	1286.12
346.92	1296.36
347.13	1294.32
347.34	1232.88
347.55	1312.75
347.76	1239.02
347.98	1239.02
348.19	1249.26
348.40	1368.04
348.61	1290.22
348.82	1259.50
349.03	1259.50
349.24	1255.40
349.45	1327.08
349.66	1216.49
349.88	1298.41
350.09	1212.40
350.30	1282.03
350.51	1265.64
350.72	1189.87
350.93	1294.32
351.14	1251.31
351.35	1265.64
351.56	1316.84
351.77	1279.98
351.99	1290.22
352.20	1259.50
352.41	1331.18
352.62	1320.94
352.83	1189.87
353.04	1312.75
353.25	1284.08
353.46	1269.74
353.67	1222.64
353.88	1224.69
354.09	1212.40
354.30	1282.03
354.52	1218.54
354.73	1224.69
354.94	1228.78
355.15	1269.74
355.36	1284.08
355.57	1261.55
355.78	1363.95
355.99	1226.73
356.20	1220.59
356.41	1208.30
356.62	1271.79
356.83	1322.99
357.04	1325.04
357.25	1314.80
357.46	1300.46
357.68	1282.03
357.89	1271.79
358.10	1241.07
358.31	1226.73
358.52	1304.56
358.73	1284.08
358.94	1318.89
359.15	1273.84
359.36	1331.18
359.57	1327.08
359.78	1228.78
359.99	1263.60
360.20	1282.03
360.41	1298.41
360.62	1226.73
360.83	1247.21
361.04	1247.21
361.25	1386.47
361.46	1255.40
361.67	1355.76
361.88	1292.27
362.09	1308.65
362.30	1320.94
362.51	1265.64
362.72	1312.75
362.93	1220.59
363.14	1245.16
363.35	1267.69
363.56	1339.37
363.78	1259.50
363.99	1284.08
364.20	1284.08
364.41	1279.98
364.62	1267.69
364.83	1255.40
365.04	1243.12
365.25	1271.79
365.46	1200.11
365.67	1325.04
365.88	1290.22
366.09	1279.98
366.30	1214.45
366.51	1292.27
366.72	1208.30
366.93	1277.93
367.14	1288.17
367.35	1245.16
367.56	1263.60
367.77	1247.21
367.98	1292.27
368.18	1294.32
368.39	1179.63
368.60	1277.93
368.81	1282.03
369.02	1230.83
369.23	1255.40
369.44	1279.98
369.65	1302.51
369.86	1320.94
370.07	1269.74
370.28	1249.26
370.49	1300.46
370.70	1296.36
370.91	1290.22
371.12	1249.26
371.33	1230.83
371.54	1302.51
371.75	1298.41
371.96	1325.04
372.17	1208.30
372.38	1292.27
372.59	1290.22
372.80	1347.56
373.01	1175.53
373.22	1269.74
373.43	1200.11
373.64	1216.49
373.85	1234.93
374.06	1232.88
374.26	1279.98
374.47	1314.80
374.68	1331.18
374.89	1306.60
375.10	1228.78
375.31	1302.51
375.52	1232.88
375.73	1271.79
375.94	1282.03
376.15	1310.70
376.36	1200.11
376.57	1196.01
376.78	1222.64
376.99	1220.59
377.20	1310.70
377.40	1241.07
377.61	1239.02
377.82	1288.17
378.03	1275.88
378.24	1279.98
378.45	1251.31
378.66	1251.31
378.87	1236.97
379.08	1239.02
379.29	1284.08
379.50	1275.88
379.71	1286.12
379.91	1279.98
380.12	1271.79
380.33	1298.41
380.54	1261.55
380.75	1265.64
380.96	1300.46
381.17	1210.35
381.38	1273.84
381.59	1214.45
381.80	1265.64
382.00	1224.69
382.21	1236.97
382.42	1343.47
382.63	1308.65
382.84	1261.55
383.05	1298.41
383.26	1251.31
383.47	1249.26
383.68	1230.83
383.88	1261.55
384.09	1327.08
384.30	1245.16
384.51	1290.22
384.72	1230.83
384.93	1216.49
385.14	1282.03
385.35	1300.46
385.55	1277.93
385.76	1310.70
385.97	1263.60
386.18	1308.65
386.39	1232.88
386.60	1241.07
386.81	1294.32
387.02	1247.21
387.22	1224.69
387.43	1228.78
387.64	1222.64
387.85	1243.12
388.06	1304.56
388.27	1341.42
388.48	1290.22
388.68	1273.84
388.89	1284.08
389.10	1331.18
389.31	1241.07
389.52	1216.49
389.73	1214.45
389.93	1302.51
390.14	1290.22
390.35	1271.79
390.56	1269.74
390.77	1394.67
390.98	1257.45
391.18	1304.56
391.39	1357.80
391.60	1306.60
391.81	1290.22
392.02	1265.64
392.23	1230.83
392.43	1263.60
392.64	1290.22
392.85	1265.64
393.06	1273.84
393.27	1343.47
393.47	1312.75
393.68	1294.32
393.89	1216.49
394.10	1259.50
394.31	1308.65
394.52	1329.13
394.72	1322.99
394.93	1314.80
395.14	1226.73
395.35	1290.22
395.56	1282.03
395.76	1239.02
395.97	1288.17
396.18	1308.65
396.39	1257.45
396.60	1253.36
396.80	1249.26
397.01	1284.08
397.22	1290.22
397.43	1273.84
397.64	1239.02
397.84	1282.03
398.05	1234.93
398.26	1228.78
398.47	1220.59
398.67	1296.36
398.88	1286.12
399.09	1310.70
399.30	1290.22
399.51	1339.37
399.71	1218.54
399.92	1253.36
400.13	1325.04
400.34	1282.03
400.54	1286.12
400.75	1304.56
400.96	1241.07
401.17	1279.98
401.37	1368.04
401.58	1177.58
401.79	1284.08
402.00	1325.04
402.21	1228.78
402.41	1271.79
402.62	1234.93
402.83	1277.93
403.04	1159.15
403.24	1239.02
403.45	1253.36
403.66	1339.37
403.87	1226.73
404.07	1345.52
404.28	1236.97
404.49	1296.36
404.70	1273.84
404.90	1277.93
405.11	1275.88
405.32	1312.75
405.52	1271.79
405.73	1306.60
405.94	1212.40
406.15	1327.08
406.35	1224.69
406.56	1296.36
406.77	1232.88
406.98	1269.74
407.18	1249.26
407.39	1257.45
407.60	1208.30
407.80	1304.56
408.01	1273.84
408.22	1275.88
408.43	1259.50
408.63	1331.18
408.84	1296.36
409.05	1322.99
409.25	1282.03
409.46	1320.94
409.67	1185.77
409.88	1206.25
410.08	1183.73
410.29	1288.17
410.50	1255.40
410.70	1347.56
410.91	1275.88
411.12	1247.21
411.32	1286.12
411.53	1271.79
411.74	1282.03
411.95	1275.88
412.15	1212.40
412.36	1253.36
412.57	1263.60
412.77	1312.75
412.98	1265.64
413.19	1318.89
413.39	1232.88
413.60	1279.98
413.81	1236.97
414.01	1247.21
414.22	1253.36
414.43	1325.04
414.63	1265.64
414.84	1198.06
415.05	1222.64
415.25	1314.80
415.46	1275.88
415.67	1259.50
415.87	1277.93
416.08	1216.49
416.29	1265.64
416.49	1304.56
416.70	1316.84
416.91	1208.30
417.11	1271.79
417.32	1286.12
417.53	1302.51
417.73	1243.12
417.94	1296.36
418.15	1288.17
418.35	1222.64
418.56	1314.80
418.77	1308.65
418.97	1314.80
419.18	1273.84
419.38	1304.56
419.59	1212.40
419.80	1322.99
420.00	1257.45
420.21	1284.08
420.42	1284.08
420.62	1282.03
420.83	1271.79
421.04	1255.40
421.24	1318.89
421.45	1253.36
421.65	1265.64
421.86	1220.59
422.07	1275.88
422.27	1316.84
422.48	1267.69
422.69	1218.54
422.89	1251.31
423.10	1284.08
423.30	1310.70
423.51	1263.60
423.72	1255.40
423.92	1208.30
424.13	1279.98
424.33	1341.42
424.54	1228.78
424.75	1292.27
424.95	1288.17
425.16	1161.20
425.36	1302.51
425.57	1247.21
425.78	1226.73
425.98	1239.02
426.19	1236.97
426.39	1269.74
426.60	1210.35
426.81	1339.37
427.01	1257.45
427.22	1269.74
427.42	1185.77
427.63	1230.83
427.83	1273.84
428.04	1308.65
428.25	1230.83
428.45	1257.45
428.66	1232.88
428.86	1277.93
429.07	1226.73
429.28	1282.03
429.48	1288.17
429.69	1294.32
429.89	1216.49
430.10	1226.73
430.30	1294.32
430.51	1298.41
430.71	1284.08
430.92	1312.75
431.13	1220.59
431.33	1284.08
431.54	1296.36
431.74	1230.83
431.95	1210.35
432.15	1275.88
432.36	1271.79
432.56	1277.93
432.77	1263.60
432.98	1243.12
433.18	1228.78
433.39	1206.25
433.59	1271.79
433.80	1275.88
434.00	1271.79
434.21	1284.08
434.41	1265.64
434.62	1275.88
434.82	1257.45
435.03	1191.92
435.23	1316.84
435.44	1206.25
435.64	1226.73
435.85	1290.22
436.06	1361.90
436.26	1347.56
436.47	1327.08
436.67	1273.84
436.88	1294.32
437.08	1292.27
437.29	1257.45
437.49	1243.12
437.70	1300.46
437.90	1290.22
438.11	1269.74
438.31	1298.41
438.52	1335.28
438.72	1304.56
438.93	1265.64
439.13	1263.60
439.34	1314.80
439.54	1304.56
439.75	1249.26
439.95	1294.32
440.16	1247.21
440.36	1220.59
440.57	1312.75
440.77	1312.75
440.98	1222.64
441.18	1296.36
441.39	1327.08
441.59	1249.26
441.80	1267.69
442.00	1253.36
442.21	1220.59
442.41	1224.69
442.62	1255.40
442.82	1279.98
443.02	1173.49
443.23	1259.50
443.43	1187.82
443.64	1335.28
443.84	1249.26
444.05	1255.40
444.25	1218.54
444.46	1329.13
444.66	1265.64
444.87	1269.74
445.07	1247.21
445.28	1255.40
445.48	1257.45
445.69	1234.93
445.89	1265.64
446.09	1292.27
446.30	1228.78
446.50	1222.64
446.71	1368.04
446.91	1277.93
447.12	1279.98
447.32	1273.84
447.53	1288.17
447.73	1339.37
447.93	1277.93
448.14	1286.12
448.34	1282.03
448.55	1234.93
448.75	1273.84
448.96	1273.84
449.16	1300.46
449.36	1337.32
449.57	1196.01
449.77	1306.60
449.98	1271.79
450.18	1302.51
450.39	1322.99
450.59	1243.12
450.79	1355.76
451.00	1320.94
451.20	1267.69
451.41	1288.17
451.61	1263.60
451.81	1212.40
452.02	1249.26
452.22	1259.50
452.43	1265.64
452.63	1212.40
