SpectraSuite Data File
++++++++++++++++++++++++++++++++++++
Date: Sun Apr 03 19:55:49 CEST 2016
User: root
Dark Spectrum Present: No
Reference Spectrum Present: No
Number of Sampled Component Spectra: 1
Spectrometers: USB4C02835
Integration Time (usec): 10000 (USB4C02835)
Spectra Averaged: 1 (USB4C02835)
Boxcar Smoothing: 0 (USB4C02835)
Correct for Electrical Dark: No (USB4C02835)
Strobe/Lamp Enabled: No (USB4C02835)
Correct for Detector Non-linearity: No (USB4C02835)
Correct for Stray Light: No (USB4C02835)
Number of Pixels in Processed Spectrum: 3648
>>>>>Begin Processed Spectral Data<<<<<
177.47	1245.16
177.69	1245.16
177.91	1245.16
178.13	1284.08
178.36	1261.55
178.58	1290.22
178.80	1267.69
179.02	1263.60
179.24	1335.28
179.46	1253.36
179.68	1247.21
179.90	1210.35
180.13	1239.02
180.35	1314.80
180.57	1249.26
180.79	1294.32
181.01	1249.26
181.23	1226.73
181.45	1318.89
181.67	1253.36
181.90	1288.17
182.12	1282.03
182.34	1251.31
182.56	1265.64
182.78	1327.08
183.00	1251.31
183.22	1282.03
183.44	1282.03
183.66	1308.65
183.89	1224.69
184.11	1282.03
184.33	1241.07
184.55	1239.02
184.77	1230.83
184.99	1265.64
185.21	1284.08
185.43	1241.07
185.65	1269.74
185.87	1208.30
186.10	1224.69
186.32	1337.32
186.54	1255.40
186.76	1255.40
186.98	1316.84
187.20	1306.60
187.42	1243.12
187.64	1230.83
187.86	1259.50
188.08	1296.36
188.30	1263.60
188.52	1218.54
188.75	1286.12
188.97	1298.41
189.19	1193.97
189.41	1245.16
189.63	1261.55
189.85	1200.11
190.07	1212.40
190.29	1257.45
190.51	1265.64
190.73	1275.88
190.95	1308.65
191.17	1253.36
191.39	1253.36
191.61	1269.74
191.84	1255.40
192.06	1314.80
192.28	1214.45
192.50	1239.02
192.72	1241.07
192.94	1265.64
193.16	1316.84
193.38	1230.83
193.60	1263.60
193.82	1304.56
194.04	1222.64
194.26	1296.36
194.48	1206.25
194.70	1224.69
194.92	1306.60
195.14	1257.45
195.36	1290.22
195.58	1263.60
195.80	1257.45
196.02	1300.46
196.24	1314.80
196.46	1288.17
196.69	1261.55
196.91	1282.03
197.13	1290.22
197.35	1214.45
197.57	1294.32
197.79	1288.17
198.01	1308.65
198.23	1251.31
198.45	1247.21
198.67	1339.37
198.89	1265.64
199.11	1288.17
199.33	1255.40
199.55	1247.21
199.77	1302.51
199.99	1339.37
200.21	1331.18
200.43	1308.65
200.65	1259.50
200.87	1183.73
201.09	1265.64
201.31	1177.58
201.53	1255.40
201.75	1200.11
201.97	1249.26
202.19	1282.03
202.41	1228.78
202.63	1277.93
202.85	1269.74
203.07	1216.49
203.29	1269.74
203.51	1300.46
203.73	1261.55
203.95	1325.04
204.17	1302.51
204.39	1228.78
204.61	1277.93
204.83	1290.22
205.05	1263.60
205.27	1327.08
205.49	1234.93
205.71	1249.26
205.93	1277.93
206.15	1265.64
206.37	1320.94
206.59	1222.64
206.81	1261.55
207.03	1263.60
207.25	1300.46
207.47	1214.45
207.69	1247.21
207.91	1322.99
208.13	1282.03
208.34	1290.22
208.56	1343.47
208.78	1314.80
209.00	1257.45
209.22	1253.36
209.44	1193.97
209.66	1243.12
209.88	1189.87
210.10	1249.26
210.32	1232.88
210.54	1241.07
210.76	1261.55
210.98	1239.02
211.20	1275.88
211.42	1292.27
211.64	1257.45
211.86	1286.12
212.08	1224.69
212.30	1255.40
212.52	1277.93
212.74	1273.84
212.96	1257.45
213.17	1241.07
213.39	1310.70
213.61	1253.36
213.83	1218.54
214.05	1218.54
214.27	1302.51
214.49	1204.21
214.71	1271.79
214.93	1279.98
215.15	1261.55
215.37	1183.73
215.59	1296.36
215.81	1257.45
216.03	1382.38
216.24	1282.03
216.46	1310.70
216.68	1327.08
216.90	1279.98
217.12	1224.69
217.34	1282.03
217.56	1263.60
217.78	1275.88
218.00	1193.97
218.22	1306.60
218.44	1198.06
218.66	1284.08
218.87	1296.36
219.09	1331.18
219.31	1230.83
219.53	1288.17
219.75	1345.52
219.97	1320.94
220.19	1216.49
220.41	1275.88
220.63	1300.46
220.85	1185.77
221.06	1288.17
221.28	1263.60
221.50	1298.41
221.72	1261.55
221.94	1320.94
222.16	1265.64
222.38	1239.02
222.60	1230.83
222.82	1275.88
223.03	1282.03
223.25	1257.45
223.47	1306.60
223.69	1253.36
223.91	1257.45
224.13	1267.69
224.35	1296.36
224.57	1310.70
224.78	1255.40
225.00	1243.12
225.22	1322.99
225.44	1245.16
225.66	1298.41
225.88	1279.98
226.10	1298.41
226.32	1263.60
226.53	1271.79
226.75	1206.25
226.97	1327.08
227.19	1273.84
227.41	1273.84
227.63	1310.70
227.85	1232.88
228.06	1306.60
228.28	1257.45
228.50	1306.60
228.72	1257.45
228.94	1224.69
229.16	1275.88
229.37	1239.02
229.59	1253.36
229.81	1271.79
230.03	1255.40
230.25	1302.51
230.47	1277.93
230.69	1243.12
230.90	1288.17
231.12	1189.87
231.34	1243.12
231.56	1290.22
231.78	1220.59
232.00	1230.83
232.21	1241.07
232.43	1259.50
232.65	1277.93
232.87	1222.64
233.09	1265.64
233.30	1216.49
233.52	1257.45
233.74	1263.60
233.96	1273.84
234.18	1310.70
234.40	1253.36
234.61	1286.12
234.83	1261.55
235.05	1271.79
235.27	1265.64
235.49	1292.27
235.70	1337.32
235.92	1312.75
236.14	1275.88
236.36	1273.84
236.58	1232.88
236.79	1345.52
237.01	1275.88
237.23	1228.78
237.45	1277.93
237.67	1273.84
237.88	1288.17
238.10	1275.88
238.32	1263.60
238.54	1282.03
238.76	1198.06
238.97	1290.22
239.19	1259.50
239.41	1308.65
239.63	1286.12
239.85	1251.31
240.06	1282.03
240.28	1263.60
240.50	1288.17
240.72	1214.45
240.93	1249.26
241.15	1296.36
241.37	1275.88
241.59	1261.55
241.81	1230.83
242.02	1380.33
242.24	1257.45
242.46	1300.46
242.68	1222.64
242.89	1290.22
243.11	1306.60
243.33	1343.47
243.55	1261.55
243.76	1273.84
243.98	1322.99
244.20	1261.55
244.42	1206.25
244.64	1243.12
244.85	1290.22
245.07	1239.02
245.29	1251.31
245.51	1255.40
245.72	1245.16
245.94	1273.84
246.16	1245.16
246.38	1265.64
246.59	1173.49
246.81	1275.88
247.03	1302.51
247.24	1279.98
247.46	1234.93
247.68	1320.94
247.90	1234.93
248.11	1290.22
248.33	1267.69
248.55	1271.79
248.77	1236.97
248.98	1277.93
249.20	1275.88
249.42	1220.59
249.64	1261.55
249.85	1228.78
250.07	1245.16
250.29	1314.80
250.50	1159.15
250.72	1245.16
250.94	1308.65
251.16	1298.41
251.37	1239.02
251.59	1245.16
251.81	1206.25
252.02	1198.06
252.24	1302.51
252.46	1279.98
252.68	1234.93
252.89	1259.50
253.11	1230.83
253.33	1255.40
253.54	1275.88
253.76	1200.11
253.98	1312.75
254.20	1296.36
254.41	1269.74
254.63	1239.02
254.85	1271.79
255.06	1181.68
255.28	1265.64
255.50	1300.46
255.71	1310.70
255.93	1341.42
256.15	1310.70
256.36	1271.79
256.58	1335.28
256.80	1277.93
257.02	1296.36
257.23	1275.88
257.45	1277.93
257.67	1306.60
257.88	1183.73
258.10	1271.79
258.32	1298.41
258.53	1277.93
258.75	1275.88
258.97	1232.88
259.18	1273.84
259.40	1265.64
259.62	1271.79
259.83	1298.41
260.05	1271.79
260.27	1308.65
260.48	1249.26
260.70	1189.87
260.92	1279.98
261.13	1306.60
261.35	1312.75
261.57	1269.74
261.78	1304.56
262.00	1257.45
262.22	1253.36
262.43	1255.40
262.65	1265.64
262.86	1259.50
263.08	1255.40
263.30	1300.46
263.51	1230.83
263.73	1220.59
263.95	1316.84
264.16	1257.45
264.38	1322.99
264.60	1351.66
264.81	1259.50
265.03	1245.16
265.25	1232.88
265.46	1216.49
265.68	1234.93
265.89	1288.17
266.11	1271.79
266.33	1218.54
266.54	1243.12
266.76	1216.49
266.98	1286.12
267.19	1329.13
267.41	1261.55
267.62	1222.64
267.84	1314.80
268.06	1351.66
268.27	1228.78
268.49	1296.36
268.70	1337.32
268.92	1325.04
269.14	1228.78
269.35	1241.07
269.57	1263.60
269.79	1210.35
270.00	1275.88
270.22	1257.45
270.43	1245.16
270.65	1271.79
270.87	1222.64
271.08	1241.07
271.30	1202.16
271.51	1269.74
271.73	1327.08
271.95	1290.22
272.16	1222.64
272.38	1282.03
272.59	1183.73
272.81	1282.03
273.02	1189.87
273.24	1282.03
273.46	1236.97
273.67	1230.83
273.89	1212.40
274.10	1226.73
274.32	1265.64
274.54	1288.17
274.75	1279.98
274.97	1345.52
275.18	1247.21
275.40	1286.12
275.61	1345.52
275.83	1183.73
276.05	1282.03
276.26	1286.12
276.48	1310.70
276.69	1196.01
276.91	1271.79
277.12	1228.78
277.34	1298.41
277.55	1263.60
277.77	1261.55
277.99	1314.80
278.20	1230.83
278.42	1306.60
278.63	1255.40
278.85	1292.27
279.06	1275.88
279.28	1257.45
279.49	1253.36
279.71	1290.22
279.93	1206.25
280.14	1304.56
280.36	1335.28
280.57	1282.03
280.79	1241.07
281.00	1230.83
281.22	1296.36
281.43	1239.02
281.65	1204.21
281.86	1304.56
282.08	1265.64
282.29	1236.97
282.51	1261.55
282.73	1312.75
282.94	1261.55
283.16	1275.88
283.37	1347.56
283.59	1294.32
283.80	1282.03
284.02	1234.93
284.23	1196.01
284.45	1261.55
284.66	1284.08
284.88	1265.64
285.09	1251.31
285.31	1243.12
285.52	1286.12
285.74	1304.56
285.95	1316.84
286.17	1320.94
286.38	1347.56
286.60	1298.41
286.81	1191.92
287.03	1275.88
287.24	1224.69
287.46	1284.08
287.67	1204.21
287.89	1263.60
288.10	1288.17
288.32	1288.17
288.53	1253.36
288.75	1212.40
288.96	1292.27
289.18	1224.69
289.39	1243.12
289.61	1298.41
289.82	1286.12
290.04	1374.19
290.25	1241.07
290.47	1241.07
290.68	1273.84
290.90	1269.74
291.11	1269.74
291.33	1300.46
291.54	1228.78
291.76	1208.30
291.97	1271.79
292.18	1284.08
292.40	1257.45
292.61	1216.49
292.83	1363.95
293.04	1269.74
293.26	1259.50
293.47	1302.51
293.69	1265.64
293.90	1273.84
294.12	1253.36
294.33	1282.03
294.55	1312.75
294.76	1232.88
294.97	1267.69
295.19	1302.51
295.40	1263.60
295.62	1284.08
295.83	1320.94
296.05	1257.45
296.26	1232.88
296.48	1249.26
296.69	1292.27
296.90	1269.74
297.12	1337.32
297.33	1251.31
297.55	1286.12
297.76	1243.12
297.98	1288.17
298.19	1247.21
298.41	1333.23
298.62	1257.45
298.83	1320.94
299.05	1245.16
299.26	1259.50
299.48	1296.36
299.69	1310.70
299.90	1284.08
300.12	1218.54
300.33	1292.27
300.55	1224.69
300.76	1253.36
300.98	1232.88
301.19	1282.03
301.40	1296.36
301.62	1214.45
301.83	1253.36
302.05	1312.75
302.26	1265.64
302.47	1335.28
302.69	1204.21
302.90	1284.08
303.12	1265.64
303.33	1288.17
303.54	1220.59
303.76	1243.12
303.97	1275.88
304.19	1110.00
304.40	1222.64
304.61	1265.64
304.83	1308.65
305.04	1327.08
305.26	1232.88
305.47	1286.12
305.68	1265.64
305.90	1243.12
306.11	1224.69
306.33	1255.40
306.54	1302.51
306.75	1294.32
306.97	1286.12
307.18	1247.21
307.39	1284.08
307.61	1234.93
307.82	1302.51
308.04	1196.01
308.25	1300.46
308.46	1314.80
308.68	1261.55
308.89	1222.64
309.10	1241.07
309.32	1175.53
309.53	1273.84
309.74	1243.12
309.96	1310.70
310.17	1335.28
310.39	1263.60
310.60	1241.07
310.81	1296.36
311.03	1232.88
311.24	1282.03
311.45	1263.60
311.67	1327.08
311.88	1314.80
312.09	1263.60
312.31	1318.89
312.52	1210.35
312.73	1263.60
312.95	1269.74
313.16	1312.75
313.37	1331.18
313.59	1261.55
313.80	1263.60
314.01	1261.55
314.23	1261.55
314.44	1269.74
314.65	1243.12
314.87	1206.25
315.08	1265.64
315.29	1355.76
315.51	1232.88
315.72	1226.73
315.93	1232.88
316.15	1253.36
316.36	1255.40
316.57	1200.11
316.79	1290.22
317.00	1257.45
317.21	1155.05
317.43	1202.16
317.64	1239.02
317.85	1322.99
318.07	1253.36
318.28	1288.17
318.49	1245.16
318.70	1286.12
318.92	1351.66
319.13	1273.84
319.34	1286.12
319.56	1198.06
319.77	1275.88
319.98	1292.27
320.20	1277.93
320.41	1282.03
320.62	1320.94
320.83	1243.12
321.05	1273.84
321.26	1259.50
321.47	1251.31
321.69	1273.84
321.90	1302.51
322.11	1232.88
322.32	1228.78
322.54	1263.60
322.75	1290.22
322.96	1322.99
323.18	1265.64
323.39	1300.46
323.60	1193.97
323.81	1288.17
324.03	1243.12
324.24	1155.05
324.45	1249.26
324.66	1320.94
324.88	1290.22
325.09	1261.55
325.30	1253.36
325.52	1216.49
325.73	1265.64
325.94	1277.93
326.15	1265.64
326.37	1322.99
326.58	1282.03
326.79	1296.36
327.00	1316.84
327.22	1220.59
327.43	1308.65
327.64	1265.64
327.85	1259.50
328.07	1222.64
328.28	1288.17
328.49	1318.89
328.70	1300.46
328.92	1224.69
329.13	1308.65
329.34	1204.21
329.55	1259.50
329.76	1304.56
329.98	1198.06
330.19	1282.03
330.40	1216.49
330.61	1277.93
330.83	1218.54
331.04	1230.83
331.25	1279.98
331.46	1284.08
331.68	1232.88
331.89	1271.79
332.10	1210.35
332.31	1306.60
332.52	1257.45
332.74	1234.93
332.95	1308.65
333.16	1292.27
333.37	1284.08
333.58	1304.56
333.80	1275.88
334.01	1193.97
334.22	1239.02
334.43	1267.69
334.64	1271.79
334.86	1312.75
335.07	1222.64
335.28	1306.60
335.49	1243.12
335.70	1249.26
335.92	1275.88
336.13	1263.60
336.34	1249.26
336.55	1359.85
336.76	1337.32
336.98	1294.32
337.19	1232.88
337.40	1269.74
337.61	1288.17
337.82	1245.16
338.04	1312.75
338.25	1322.99
338.46	1300.46
338.67	1255.40
338.88	1269.74
339.09	1273.84
339.31	1216.49
339.52	1306.60
339.73	1216.49
339.94	1286.12
340.15	1282.03
340.36	1191.92
340.58	1286.12
340.79	1251.31
341.00	1273.84
341.21	1288.17
341.42	1314.80
341.63	1271.79
341.85	1300.46
342.06	1300.46
342.27	1337.32
342.48	1316.84
342.69	1277.93
342.90	1245.16
343.12	1218.54
343.33	1335.28
343.54	1265.64
343.75	1308.65
343.96	1243.12
344.17	1224.69
344.38	1271.79
344.60	1259.50
344.81	1310.70
345.02	1269.74
345.23	1234.93
345.44	1220.59
345.65	1226.73
345.86	1265.64
346.07	1320.94
346.29	1249.26
346.50	1376.24
346.71	1302.51
346.92	1304.56
347.13	1265.64
347.34	1290.22
347.55	1255.40
347.76	1300.46
347.98	1269.74
348.19	1218.54
348.40	1320.94
348.61	1306.60
348.82	1206.25
349.03	1267.69
349.24	1282.03
349.45	1241.07
349.66	1302.51
349.88	1202.16
350.09	1218.54
350.30	1314.80
350.51	1265.64
350.72	1316.84
350.93	1224.69
351.14	1275.88
351.35	1263.60
351.56	1282.03
351.77	1312.75
351.99	1241.07
352.20	1296.36
352.41	1312.75
352.62	1208.30
352.83	1302.51
353.04	1226.73
353.25	1261.55
353.46	1216.49
353.67	1275.88
353.88	1292.27
354.09	1243.12
354.30	1247.21
354.52	1294.32
354.73	1296.36
354.94	1208.30
355.15	1239.02
355.36	1286.12
355.57	1318.89
355.78	1284.08
355.99	1222.64
356.20	1314.80
356.41	1343.47
356.62	1288.17
356.83	1253.36
357.04	1208.30
357.25	1314.80
357.46	1298.41
357.68	1249.26
357.89	1241.07
358.10	1306.60
358.31	1271.79
358.52	1296.36
358.73	1296.36
358.94	1241.07
359.15	1259.50
359.36	1306.60
359.57	1279.98
359.78	1255.40
359.99	1241.07
360.20	1325.04
360.41	1310.70
360.62	1306.60
360.83	1241.07
361.04	1298.41
361.25	1296.36
361.46	1236.97
361.67	1210.35
361.88	1230.83
362.09	1339.37
362.30	1257.45
362.51	1232.88
362.72	1257.45
362.93	1343.47
363.14	1232.88
363.35	1253.36
363.56	1249.26
363.78	1255.40
363.99	1241.07
364.20	1294.32
364.41	1273.84
364.62	1265.64
364.83	1292.27
365.04	1298.41
365.25	1265.64
365.46	1247.21
365.67	1230.83
365.88	1316.84
366.09	1337.32
366.30	1236.97
366.51	1243.12
366.72	1241.07
366.93	1230.83
367.14	1273.84
367.35	1282.03
367.56	1249.26
367.77	1306.60
367.98	1234.93
368.18	1206.25
368.39	1251.31
368.60	1337.32
368.81	1249.26
369.02	1282.03
369.23	1228.78
369.44	1247.21
369.65	1339.37
369.86	1304.56
370.07	1286.12
370.28	1206.25
370.49	1331.18
370.70	1277.93
370.91	1288.17
371.12	1277.93
371.33	1306.60
371.54	1355.76
371.75	1179.63
371.96	1327.08
372.17	1267.69
372.38	1306.60
372.59	1269.74
372.80	1273.84
373.01	1253.36
373.22	1273.84
373.43	1277.93
373.64	1228.78
373.85	1267.69
374.06	1228.78
374.26	1171.44
374.47	1255.40
374.68	1302.51
374.89	1302.51
375.10	1259.50
375.31	1263.60
375.52	1222.64
375.73	1251.31
375.94	1277.93
376.15	1241.07
376.36	1232.88
376.57	1255.40
376.78	1261.55
376.99	1247.21
377.20	1245.16
377.40	1183.73
377.61	1269.74
377.82	1220.59
378.03	1282.03
378.24	1302.51
378.45	1308.65
378.66	1329.13
378.87	1214.45
379.08	1259.50
379.29	1243.12
379.50	1267.69
379.71	1212.40
379.91	1279.98
380.12	1226.73
380.33	1247.21
380.54	1230.83
380.75	1241.07
380.96	1284.08
381.17	1255.40
381.38	1245.16
381.59	1257.45
381.80	1273.84
382.00	1224.69
382.21	1331.18
382.42	1320.94
382.63	1249.26
382.84	1292.27
383.05	1232.88
383.26	1282.03
383.47	1279.98
383.68	1282.03
383.88	1269.74
384.09	1200.11
384.30	1200.11
384.51	1230.83
384.72	1259.50
384.93	1249.26
385.14	1228.78
385.35	1292.27
385.55	1294.32
385.76	1298.41
385.97	1206.25
386.18	1263.60
386.39	1261.55
386.60	1259.50
386.81	1206.25
387.02	1269.74
387.22	1329.13
387.43	1345.52
387.64	1286.12
387.85	1224.69
388.06	1286.12
388.27	1257.45
388.48	1322.99
388.68	1310.70
388.89	1222.64
389.10	1271.79
389.31	1265.64
389.52	1316.84
389.73	1255.40
389.93	1267.69
390.14	1206.25
390.35	1273.84
390.56	1296.36
390.77	1185.77
390.98	1279.98
391.18	1247.21
391.39	1282.03
391.60	1232.88
391.81	1218.54
392.02	1243.12
392.23	1247.21
392.43	1304.56
392.64	1290.22
392.85	1370.09
393.06	1267.69
393.27	1302.51
393.47	1353.71
393.68	1239.02
393.89	1314.80
394.10	1220.59
394.31	1320.94
394.52	1298.41
394.72	1177.58
394.93	1265.64
395.14	1267.69
395.35	1193.97
395.56	1337.32
395.76	1173.49
395.97	1218.54
396.18	1263.60
396.39	1314.80
396.60	1243.12
396.80	1255.40
397.01	1302.51
397.22	1241.07
397.43	1290.22
397.64	1302.51
397.84	1218.54
398.05	1202.16
398.26	1327.08
398.47	1275.88
398.67	1296.36
398.88	1251.31
399.09	1275.88
399.30	1234.93
399.51	1300.46
399.71	1249.26
399.92	1279.98
400.13	1302.51
400.34	1228.78
400.54	1306.60
400.75	1269.74
400.96	1169.39
401.17	1275.88
401.37	1239.02
401.58	1288.17
401.79	1302.51
402.00	1277.93
402.21	1308.65
402.41	1284.08
402.62	1302.51
402.83	1249.26
403.04	1288.17
403.24	1343.47
403.45	1257.45
403.66	1247.21
403.87	1304.56
404.07	1273.84
404.28	1343.47
404.49	1261.55
404.70	1259.50
404.90	1368.04
405.11	1304.56
405.32	1261.55
405.52	1269.74
405.73	1245.16
405.94	1241.07
406.15	1236.97
406.35	1279.98
406.56	1271.79
406.77	1234.93
406.98	1339.37
407.18	1310.70
407.39	1265.64
407.60	1333.23
407.80	1314.80
408.01	1279.98
408.22	1269.74
408.43	1296.36
408.63	1239.02
408.84	1292.27
409.05	1279.98
409.25	1239.02
409.46	1279.98
409.67	1269.74
409.88	1241.07
410.08	1230.83
410.29	1259.50
410.50	1337.32
410.70	1210.35
410.91	1204.21
411.12	1345.52
411.32	1204.21
411.53	1265.64
411.74	1339.37
411.95	1265.64
412.15	1247.21
412.36	1255.40
412.57	1241.07
412.77	1294.32
412.98	1245.16
413.19	1261.55
413.39	1263.60
413.60	1300.46
413.81	1327.08
414.01	1320.94
414.22	1249.26
414.43	1314.80
414.63	1245.16
414.84	1275.88
415.05	1224.69
415.25	1259.50
415.46	1296.36
415.67	1277.93
415.87	1236.97
416.08	1312.75
416.29	1277.93
416.49	1259.50
416.70	1153.01
416.91	1253.36
417.11	1241.07
417.32	1275.88
417.53	1277.93
417.73	1271.79
417.94	1298.41
418.15	1259.50
418.35	1263.60
418.56	1312.75
418.77	1267.69
418.97	1269.74
419.18	1273.84
419.38	1284.08
419.59	1253.36
419.80	1314.80
420.00	1271.79
420.21	1247.21
420.42	1247.21
420.62	1243.12
420.83	1261.55
421.04	1282.03
421.24	1316.84
421.45	1294.32
421.65	1288.17
421.86	1306.60
422.07	1300.46
422.27	1159.15
422.48	1241.07
422.69	1257.45
422.89	1234.93
423.10	1265.64
423.30	1200.11
423.51	1314.80
423.72	1208.30
423.92	1288.17
424.13	1333.23
424.33	1222.64
424.54	1245.16
424.75	1228.78
424.95	1245.16
425.16	1339.37
425.36	1253.36
425.57	1273.84
425.78	1202.16
425.98	1292.27
426.19	1187.82
426.39	1296.36
426.60	1247.21
426.81	1257.45
427.01	1302.51
427.22	1316.84
427.42	1294.32
427.63	1275.88
427.83	1296.36
428.04	1208.30
428.25	1282.03
428.45	1239.02
428.66	1261.55
428.86	1294.32
429.07	1310.70
429.28	1255.40
429.48	1191.92
429.69	1230.83
429.89	1351.66
430.10	1249.26
430.30	1241.07
430.51	1245.16
430.71	1294.32
430.92	1331.18
431.13	1300.46
431.33	1269.74
431.54	1275.88
431.74	1273.84
431.95	1327.08
432.15	1308.65
432.36	1275.88
432.56	1343.47
432.77	1247.21
432.98	1269.74
433.18	1314.80
433.39	1273.84
433.59	1253.36
433.80	1288.17
434.00	1261.55
434.21	1335.28
434.41	1312.75
434.62	1214.45
434.82	1253.36
435.03	1263.60
435.23	1273.84
435.44	1279.98
435.64	1322.99
435.85	1251.31
436.06	1253.36
436.26	1361.90
436.47	1269.74
436.67	1273.84
436.88	1275.88
437.08	1288.17
437.29	1247.21
437.49	1222.64
437.70	1300.46
437.90	1214.45
438.11	1253.36
438.31	1355.76
438.52	1308.65
438.72	1292.27
438.93	1255.40
439.13	1247.21
439.34	1243.12
439.54	1259.50
439.75	1228.78
439.95	1273.84
440.16	1204.21
440.36	1290.22
440.57	1232.88
440.77	1310.70
440.98	1269.74
441.18	1251.31
441.39	1284.08
441.59	1247.21
441.80	1329.13
442.00	1214.45
442.21	1255.40
442.41	1318.89
442.62	1290.22
442.82	1279.98
443.02	1308.65
443.23	1320.94
443.43	1239.02
443.64	1296.36
443.84	1286.12
444.05	1236.97
444.25	1263.60
444.46	1275.88
444.66	1267.69
444.87	1310.70
445.07	1282.03
445.28	1347.56
445.48	1173.49
445.69	1316.84
445.89	1265.64
446.09	1265.64
446.30	1222.64
446.50	1269.74
446.71	1232.88
446.91	1279.98
447.12	1275.88
447.32	1267.69
447.53	1308.65
447.73	1245.16
447.93	1302.51
448.14	1314.80
448.34	1247.21
448.55	1284.08
448.75	1265.64
448.96	1279.98
449.16	1218.54
449.36	1343.47
449.57	1296.36
449.77	1241.07
449.98	1259.50
450.18	1251.31
450.39	1314.80
450.59	1282.03
450.79	1275.88
451.00	1296.36
451.20	1277.93
451.41	1249.26
451.61	1290.22
451.81	1304.56
452.02	1298.41
452.22	1271.79
452.43	1376.24
452.63	1275.88
