SpectraSuite Data File
++++++++++++++++++++++++++++++++++++
Date: Sun Apr 03 19:55:50 CEST 2016
User: root
Dark Spectrum Present: No
Reference Spectrum Present: No
Number of Sampled Component Spectra: 1
Spectrometers: USB4C02835
Integration Time (usec): 10000 (USB4C02835)
Spectra Averaged: 1 (USB4C02835)
Boxcar Smoothing: 0 (USB4C02835)
Correct for Electrical Dark: No (USB4C02835)
Strobe/Lamp Enabled: No (USB4C02835)
Correct for Detector Non-linearity: No (USB4C02835)
Correct for Stray Light: No (USB4C02835)
Number of Pixels in Processed Spectrum: 3648
>>>>>Begin Processed Spectral Data<<<<<
177.47	1206.25
177.69	1206.25
177.91	1206.25
178.13	1243.12
178.36	1239.02
178.58	1320.94
178.80	1181.68
179.02	1294.32
179.24	1275.88
179.46	1275.88
179.68	1257.45
179.90	1353.71
180.13	1343.47
180.35	1275.88
180.57	1282.03
180.79	1263.60
181.01	1314.80
181.23	1175.53
181.45	1261.55
181.67	1241.07
181.90	1366.00
182.12	1290.22
182.34	1322.99
182.56	1230.83
182.78	1263.60
183.00	1269.74
183.22	1277.93
183.44	1273.84
183.66	1318.89
183.89	1204.21
184.11	1298.41
184.33	1277.93
184.55	1271.79
184.77	1234.93
184.99	1306.60
185.21	1271.79
185.43	1316.84
185.65	1286.12
185.87	1294.32
186.10	1210.35
186.32	1308.65
186.54	1296.36
186.76	1273.84
186.98	1331.18
187.20	1273.84
187.42	1298.41
187.64	1294.32
187.86	1261.55
188.08	1239.02
188.30	1327.08
188.52	1228.78
188.75	1259.50
188.97	1265.64
189.19	1282.03
189.41	1316.84
189.63	1157.10
189.85	1214.45
190.07	1251.31
190.29	1228.78
190.51	1335.28
190.73	1263.60
190.95	1206.25
191.17	1288.17
191.39	1224.69
191.61	1232.88
191.84	1263.60
192.06	1312.75
192.28	1208.30
192.50	1232.88
192.72	1314.80
192.94	1259.50
193.16	1269.74
193.38	1298.41
193.60	1279.98
193.82	1298.41
194.04	1312.75
194.26	1284.08
194.48	1271.79
194.70	1249.26
194.92	1306.60
195.14	1249.26
195.36	1241.07
195.58	1253.36
195.80	1316.84
196.02	1267.69
196.24	1296.36
196.46	1234.93
196.69	1230.83
196.91	1337.32
197.13	1290.22
197.35	1165.29
197.57	1288.17
197.79	1339.37
198.01	1288.17
198.23	1296.36
198.45	1253.36
198.67	1271.79
198.89	1257.45
199.11	1290.22
199.33	1265.64
199.55	1320.94
199.77	1214.45
199.99	1284.08
200.21	1247.21
200.43	1255.40
200.65	1292.27
200.87	1210.35
201.09	1216.49
201.31	1273.84
201.53	1294.32
201.75	1331.18
201.97	1249.26
202.19	1222.64
202.41	1290.22
202.63	1198.06
202.85	1284.08
203.07	1310.70
203.29	1265.64
203.51	1318.89
203.73	1265.64
203.95	1253.36
204.17	1296.36
204.39	1288.17
204.61	1349.61
204.83	1271.79
205.05	1294.32
205.27	1249.26
205.49	1230.83
205.71	1339.37
205.93	1275.88
206.15	1247.21
206.37	1265.64
206.59	1193.97
206.81	1298.41
207.03	1187.82
207.25	1253.36
207.47	1294.32
207.69	1257.45
207.91	1271.79
208.13	1335.28
208.34	1304.56
208.56	1200.11
208.78	1286.12
209.00	1294.32
209.22	1232.88
209.44	1243.12
209.66	1296.36
209.88	1275.88
210.10	1189.87
210.32	1220.59
210.54	1255.40
210.76	1269.74
210.98	1214.45
211.20	1265.64
211.42	1249.26
211.64	1290.22
211.86	1216.49
212.08	1206.25
212.30	1259.50
212.52	1282.03
212.74	1216.49
212.96	1304.56
213.17	1331.18
213.39	1232.88
213.61	1251.31
213.83	1318.89
214.05	1322.99
214.27	1228.78
214.49	1298.41
214.71	1257.45
214.93	1298.41
215.15	1349.61
215.37	1191.92
215.59	1230.83
215.81	1261.55
216.03	1288.17
216.24	1294.32
216.46	1179.63
216.68	1312.75
216.90	1349.61
217.12	1224.69
217.34	1333.23
217.56	1263.60
217.78	1224.69
218.00	1263.60
218.22	1302.51
218.44	1243.12
218.66	1255.40
218.87	1284.08
219.09	1257.45
219.31	1222.64
219.53	1263.60
219.75	1288.17
219.97	1267.69
220.19	1228.78
220.41	1236.97
220.63	1322.99
220.85	1224.69
221.06	1267.69
221.28	1327.08
221.50	1282.03
221.72	1224.69
221.94	1304.56
222.16	1245.16
222.38	1243.12
222.60	1357.80
222.82	1298.41
223.03	1234.93
223.25	1241.07
223.47	1263.60
223.69	1273.84
223.91	1234.93
224.13	1210.35
224.35	1306.60
224.57	1230.83
224.78	1282.03
225.00	1218.54
225.22	1228.78
225.44	1316.84
225.66	1277.93
225.88	1261.55
226.10	1284.08
226.32	1275.88
226.53	1243.12
226.75	1339.37
226.97	1263.60
227.19	1236.97
227.41	1273.84
227.63	1247.21
227.85	1273.84
228.06	1243.12
228.28	1187.82
228.50	1259.50
228.72	1245.16
228.94	1220.59
229.16	1243.12
229.37	1273.84
229.59	1249.26
229.81	1257.45
230.03	1306.60
230.25	1267.69
230.47	1212.40
230.69	1241.07
230.90	1271.79
231.12	1253.36
231.34	1263.60
231.56	1314.80
231.78	1277.93
232.00	1284.08
232.21	1222.64
232.43	1265.64
232.65	1275.88
232.87	1320.94
233.09	1255.40
233.30	1232.88
233.52	1347.56
233.74	1251.31
233.96	1234.93
234.18	1236.97
234.40	1277.93
234.61	1296.36
234.83	1343.47
235.05	1177.58
235.27	1308.65
235.49	1308.65
235.70	1275.88
235.92	1265.64
236.14	1208.30
236.36	1273.84
236.58	1347.56
236.79	1232.88
237.01	1187.82
237.23	1261.55
237.45	1224.69
237.67	1216.49
237.88	1290.22
238.10	1337.32
238.32	1251.31
238.54	1191.92
238.76	1249.26
238.97	1218.54
239.19	1265.64
239.41	1277.93
239.63	1257.45
239.85	1251.31
240.06	1232.88
240.28	1265.64
240.50	1261.55
240.72	1273.84
240.93	1271.79
241.15	1337.32
241.37	1308.65
241.59	1251.31
241.81	1284.08
242.02	1290.22
242.24	1230.83
242.46	1245.16
242.68	1302.51
242.89	1306.60
243.11	1318.89
243.33	1261.55
243.55	1257.45
243.76	1236.97
243.98	1296.36
244.20	1294.32
244.42	1300.46
244.64	1335.28
244.85	1269.74
245.07	1245.16
245.29	1257.45
245.51	1284.08
245.72	1282.03
245.94	1306.60
246.16	1277.93
246.38	1292.27
246.59	1183.73
246.81	1251.31
247.03	1337.32
247.24	1292.27
247.46	1279.98
247.68	1243.12
247.90	1245.16
248.11	1306.60
248.33	1288.17
248.55	1249.26
248.77	1232.88
248.98	1292.27
249.20	1302.51
249.42	1241.07
249.64	1327.08
249.85	1304.56
250.07	1224.69
250.29	1265.64
250.50	1300.46
250.72	1341.42
250.94	1286.12
251.16	1241.07
251.37	1279.98
251.59	1259.50
251.81	1241.07
252.02	1320.94
252.24	1273.84
252.46	1308.65
252.68	1306.60
252.89	1282.03
253.11	1320.94
253.33	1163.25
253.54	1282.03
253.76	1228.78
253.98	1314.80
254.20	1239.02
254.41	1325.04
254.63	1331.18
254.85	1259.50
255.06	1314.80
255.28	1249.26
255.50	1200.11
255.71	1259.50
255.93	1302.51
256.15	1224.69
256.36	1239.02
256.58	1302.51
256.80	1267.69
257.02	1220.59
257.23	1331.18
257.45	1224.69
257.67	1282.03
257.88	1241.07
258.10	1265.64
258.32	1263.60
258.53	1308.65
258.75	1198.06
258.97	1288.17
259.18	1269.74
259.40	1239.02
259.62	1325.04
259.83	1325.04
260.05	1284.08
260.27	1265.64
260.48	1271.79
260.70	1292.27
260.92	1273.84
261.13	1327.08
261.35	1314.80
261.57	1249.26
261.78	1251.31
262.00	1261.55
262.22	1292.27
262.43	1216.49
262.65	1245.16
262.86	1279.98
263.08	1265.64
263.30	1241.07
263.51	1224.69
263.73	1286.12
263.95	1183.73
264.16	1325.04
264.38	1249.26
264.60	1253.36
264.81	1310.70
265.03	1261.55
265.25	1249.26
265.46	1271.79
265.68	1282.03
265.89	1259.50
266.11	1298.41
266.33	1226.73
266.54	1253.36
266.76	1286.12
266.98	1279.98
267.19	1347.56
267.41	1277.93
267.62	1175.53
267.84	1296.36
268.06	1261.55
268.27	1255.40
268.49	1322.99
268.70	1300.46
268.92	1304.56
269.14	1206.25
269.35	1255.40
269.57	1243.12
269.79	1314.80
270.00	1271.79
270.22	1222.64
270.43	1159.15
270.65	1236.97
270.87	1273.84
271.08	1267.69
271.30	1239.02
271.51	1212.40
271.73	1304.56
271.95	1239.02
272.16	1329.13
272.38	1253.36
272.59	1255.40
272.81	1222.64
273.02	1327.08
273.24	1298.41
273.46	1261.55
273.67	1306.60
273.89	1306.60
274.10	1288.17
274.32	1230.83
274.54	1249.26
274.75	1331.18
274.97	1327.08
275.18	1245.16
275.40	1259.50
275.61	1318.89
275.83	1263.60
276.05	1288.17
276.26	1224.69
276.48	1339.37
276.69	1232.88
276.91	1292.27
277.12	1320.94
277.34	1267.69
277.55	1255.40
277.77	1271.79
277.99	1288.17
278.20	1318.89
278.42	1263.60
278.63	1318.89
278.85	1253.36
279.06	1230.83
279.28	1216.49
279.49	1236.97
279.71	1236.97
279.93	1232.88
280.14	1271.79
280.36	1275.88
280.57	1257.45
280.79	1249.26
281.00	1282.03
281.22	1261.55
281.43	1265.64
281.65	1257.45
281.86	1298.41
282.08	1294.32
282.29	1218.54
282.51	1239.02
282.73	1290.22
282.94	1292.27
283.16	1290.22
283.37	1263.60
283.59	1275.88
283.80	1273.84
284.02	1230.83
284.23	1218.54
284.45	1204.21
284.66	1263.60
284.88	1214.45
285.09	1214.45
285.31	1245.16
285.52	1302.51
285.74	1259.50
285.95	1241.07
286.17	1257.45
286.38	1294.32
286.60	1284.08
286.81	1269.74
287.03	1204.21
287.24	1269.74
287.46	1282.03
287.67	1288.17
287.89	1243.12
288.10	1200.11
288.32	1327.08
288.53	1216.49
288.75	1273.84
288.96	1267.69
289.18	1271.79
289.39	1257.45
289.61	1298.41
289.82	1357.80
290.04	1279.98
290.25	1288.17
290.47	1277.93
290.68	1177.58
290.90	1331.18
291.11	1296.36
291.33	1216.49
291.54	1187.82
291.76	1200.11
291.97	1298.41
292.18	1206.25
292.40	1247.21
292.61	1282.03
292.83	1275.88
293.04	1263.60
293.26	1222.64
293.47	1228.78
293.69	1300.46
293.90	1284.08
294.12	1290.22
294.33	1191.92
294.55	1224.69
294.76	1290.22
294.97	1255.40
295.19	1294.32
295.40	1292.27
295.62	1216.49
295.83	1241.07
296.05	1259.50
296.26	1271.79
296.48	1228.78
296.69	1312.75
296.90	1267.69
297.12	1202.16
297.33	1236.97
297.55	1263.60
297.76	1228.78
297.98	1288.17
298.19	1271.79
298.41	1241.07
298.62	1277.93
298.83	1261.55
299.05	1310.70
299.26	1265.64
299.48	1304.56
299.69	1245.16
299.90	1302.51
300.12	1282.03
300.33	1263.60
300.55	1255.40
300.76	1277.93
300.98	1275.88
301.19	1290.22
301.40	1279.98
301.62	1277.93
301.83	1259.50
302.05	1243.12
302.26	1284.08
302.47	1247.21
302.69	1284.08
302.90	1298.41
303.12	1216.49
303.33	1247.21
303.54	1339.37
303.76	1294.32
303.97	1255.40
304.19	1269.74
304.40	1302.51
304.61	1245.16
304.83	1282.03
305.04	1273.84
305.26	1189.87
305.47	1263.60
305.68	1282.03
305.90	1259.50
306.11	1333.23
306.33	1259.50
306.54	1294.32
306.75	1273.84
306.97	1265.64
307.18	1265.64
307.39	1386.47
307.61	1167.34
307.82	1226.73
308.04	1259.50
308.25	1329.13
308.46	1261.55
308.68	1282.03
308.89	1226.73
309.10	1273.84
309.32	1267.69
309.53	1236.97
309.74	1273.84
309.96	1312.75
310.17	1292.27
310.39	1277.93
310.60	1288.17
310.81	1304.56
311.03	1241.07
311.24	1353.71
311.45	1296.36
311.67	1282.03
311.88	1298.41
312.09	1245.16
312.31	1290.22
312.52	1148.91
312.73	1277.93
312.95	1189.87
313.16	1316.84
313.37	1261.55
313.59	1247.21
313.80	1277.93
314.01	1331.18
314.23	1236.97
314.44	1243.12
314.65	1245.16
314.87	1282.03
315.08	1245.16
315.29	1257.45
315.51	1247.21
315.72	1331.18
315.93	1282.03
316.15	1269.74
316.36	1247.21
316.57	1241.07
316.79	1273.84
317.00	1243.12
317.21	1265.64
317.43	1378.28
317.64	1277.93
317.85	1204.21
318.07	1216.49
318.28	1259.50
318.49	1198.06
318.70	1318.89
318.92	1249.26
319.13	1269.74
319.34	1230.83
319.56	1294.32
319.77	1216.49
319.98	1236.97
320.20	1282.03
320.41	1318.89
320.62	1239.02
320.83	1322.99
321.05	1265.64
321.26	1327.08
321.47	1232.88
321.69	1275.88
321.90	1322.99
322.11	1271.79
322.32	1187.82
322.54	1331.18
322.75	1198.06
322.96	1284.08
323.18	1210.35
323.39	1269.74
323.60	1226.73
323.81	1226.73
324.03	1230.83
324.24	1216.49
324.45	1322.99
324.66	1335.28
324.88	1247.21
325.09	1271.79
325.30	1298.41
325.52	1310.70
325.73	1265.64
325.94	1271.79
326.15	1236.97
326.37	1273.84
326.58	1271.79
326.79	1292.27
327.00	1218.54
327.22	1261.55
327.43	1239.02
327.64	1290.22
327.85	1243.12
328.07	1247.21
328.28	1224.69
328.49	1265.64
328.70	1267.69
328.92	1357.80
329.13	1216.49
329.34	1304.56
329.55	1331.18
329.76	1255.40
329.98	1243.12
330.19	1241.07
330.40	1222.64
330.61	1331.18
330.83	1282.03
331.04	1288.17
331.25	1230.83
331.46	1306.60
331.68	1216.49
331.89	1269.74
332.10	1210.35
332.31	1230.83
332.52	1228.78
332.74	1292.27
332.95	1271.79
333.16	1226.73
333.37	1275.88
333.58	1247.21
333.80	1288.17
334.01	1298.41
334.22	1220.59
334.43	1255.40
334.64	1306.60
334.86	1251.31
335.07	1279.98
335.28	1228.78
335.49	1286.12
335.70	1318.89
335.92	1288.17
336.13	1288.17
336.34	1279.98
336.55	1304.56
336.76	1294.32
336.98	1302.51
337.19	1286.12
337.40	1253.36
337.61	1294.32
337.82	1298.41
338.04	1249.26
338.25	1290.22
338.46	1372.14
338.67	1206.25
338.88	1265.64
339.09	1259.50
339.31	1267.69
339.52	1273.84
339.73	1269.74
339.94	1263.60
340.15	1269.74
340.36	1294.32
340.58	1228.78
340.79	1296.36
341.00	1269.74
341.21	1245.16
341.42	1220.59
341.63	1263.60
341.85	1234.93
342.06	1314.80
342.27	1292.27
342.48	1247.21
342.69	1196.01
342.90	1273.84
343.12	1255.40
343.33	1220.59
343.54	1284.08
343.75	1234.93
343.96	1277.93
344.17	1327.08
344.38	1245.16
344.60	1271.79
344.81	1310.70
345.02	1273.84
345.23	1228.78
345.44	1331.18
345.65	1282.03
345.86	1275.88
346.07	1275.88
346.29	1279.98
346.50	1251.31
346.71	1245.16
346.92	1251.31
347.13	1302.51
347.34	1292.27
347.55	1267.69
347.76	1251.31
347.98	1202.16
348.19	1271.79
348.40	1259.50
348.61	1220.59
348.82	1296.36
349.03	1312.75
349.24	1247.21
349.45	1241.07
349.66	1257.45
349.88	1253.36
350.09	1271.79
350.30	1286.12
350.51	1257.45
350.72	1353.71
350.93	1325.04
351.14	1236.97
351.35	1263.60
351.56	1288.17
351.77	1222.64
351.99	1251.31
352.20	1337.32
352.41	1251.31
352.62	1308.65
352.83	1245.16
353.04	1241.07
353.25	1261.55
353.46	1171.44
353.67	1220.59
353.88	1271.79
354.09	1265.64
354.30	1335.28
354.52	1327.08
354.73	1265.64
354.94	1224.69
355.15	1247.21
355.36	1279.98
355.57	1290.22
355.78	1269.74
355.99	1279.98
356.20	1265.64
356.41	1249.26
356.62	1200.11
356.83	1288.17
357.04	1265.64
357.25	1239.02
357.46	1216.49
357.68	1222.64
357.89	1259.50
358.10	1318.89
358.31	1255.40
358.52	1247.21
358.73	1261.55
358.94	1189.87
359.15	1249.26
359.36	1304.56
359.57	1253.36
359.78	1286.12
359.99	1273.84
360.20	1263.60
360.41	1308.65
360.62	1247.21
360.83	1304.56
361.04	1222.64
361.25	1216.49
361.46	1308.65
361.67	1335.28
361.88	1288.17
362.09	1245.16
362.30	1279.98
362.51	1282.03
362.72	1292.27
362.93	1327.08
363.14	1236.97
363.35	1294.32
363.56	1343.47
363.78	1286.12
363.99	1253.36
364.20	1312.75
364.41	1304.56
364.62	1263.60
364.83	1284.08
365.04	1361.90
365.25	1275.88
365.46	1314.80
365.67	1318.89
365.88	1267.69
366.09	1277.93
366.30	1243.12
366.51	1232.88
366.72	1325.04
366.93	1298.41
367.14	1247.21
367.35	1290.22
367.56	1275.88
367.77	1322.99
367.98	1218.54
368.18	1331.18
368.39	1204.21
368.60	1282.03
368.81	1263.60
369.02	1306.60
369.23	1361.90
369.44	1228.78
369.65	1263.60
369.86	1269.74
370.07	1247.21
370.28	1241.07
370.49	1261.55
370.70	1282.03
370.91	1288.17
371.12	1306.60
371.33	1265.64
371.54	1245.16
371.75	1322.99
371.96	1255.40
372.17	1286.12
372.38	1253.36
372.59	1251.31
372.80	1247.21
373.01	1247.21
373.22	1277.93
373.43	1298.41
373.64	1243.12
373.85	1236.97
374.06	1247.21
374.26	1269.74
374.47	1245.16
374.68	1214.45
374.89	1370.09
375.10	1363.95
375.31	1288.17
375.52	1325.04
375.73	1294.32
375.94	1236.97
376.15	1300.46
376.36	1253.36
376.57	1325.04
376.78	1275.88
376.99	1239.02
377.20	1277.93
377.40	1249.26
377.61	1292.27
377.82	1304.56
378.03	1245.16
378.24	1261.55
378.45	1247.21
378.66	1200.11
378.87	1183.73
379.08	1212.40
379.29	1228.78
379.50	1300.46
379.71	1251.31
379.91	1296.36
380.12	1259.50
380.33	1286.12
380.54	1218.54
380.75	1261.55
380.96	1327.08
381.17	1286.12
381.38	1275.88
381.59	1239.02
381.80	1198.06
382.00	1279.98
382.21	1306.60
382.42	1320.94
382.63	1265.64
382.84	1183.73
383.05	1241.07
383.26	1232.88
383.47	1279.98
383.68	1294.32
383.88	1275.88
384.09	1224.69
384.30	1298.41
384.51	1329.13
384.72	1230.83
384.93	1255.40
385.14	1327.08
385.35	1267.69
385.55	1241.07
385.76	1265.64
385.97	1275.88
386.18	1265.64
386.39	1222.64
386.60	1282.03
386.81	1322.99
387.02	1253.36
387.22	1316.84
387.43	1208.30
387.64	1284.08
387.85	1241.07
388.06	1275.88
388.27	1325.04
388.48	1279.98
388.68	1288.17
388.89	1314.80
389.10	1259.50
389.31	1159.15
389.52	1335.28
389.73	1277.93
389.93	1337.32
390.14	1212.40
390.35	1263.60
390.56	1290.22
390.77	1251.31
390.98	1314.80
391.18	1282.03
391.39	1271.79
391.60	1304.56
391.81	1286.12
392.02	1306.60
392.23	1271.79
392.43	1269.74
392.64	1284.08
392.85	1255.40
393.06	1284.08
393.27	1312.75
393.47	1239.02
393.68	1273.84
393.89	1255.40
394.10	1269.74
394.31	1275.88
394.52	1298.41
394.72	1298.41
394.93	1236.97
395.14	1292.27
395.35	1214.45
395.56	1267.69
395.76	1286.12
395.97	1245.16
396.18	1249.26
396.39	1202.16
396.60	1282.03
396.80	1333.23
397.01	1304.56
397.22	1282.03
397.43	1300.46
397.64	1277.93
397.84	1245.16
398.05	1269.74
398.26	1279.98
398.47	1339.37
398.67	1275.88
398.88	1286.12
399.09	1220.59
399.30	1251.31
399.51	1224.69
399.71	1269.74
399.92	1271.79
400.13	1273.84
400.34	1288.17
400.54	1249.26
400.75	1288.17
400.96	1310.70
401.17	1275.88
401.37	1325.04
401.58	1257.45
401.79	1261.55
402.00	1292.27
402.21	1366.00
402.41	1279.98
402.62	1255.40
402.83	1273.84
403.04	1269.74
403.24	1243.12
403.45	1253.36
403.66	1196.01
403.87	1236.97
404.07	1316.84
404.28	1284.08
404.49	1298.41
404.70	1226.73
404.90	1206.25
405.11	1257.45
405.32	1216.49
405.52	1253.36
405.73	1212.40
405.94	1247.21
406.15	1282.03
406.35	1331.18
406.56	1245.16
406.77	1306.60
406.98	1304.56
407.18	1325.04
407.39	1314.80
407.60	1253.36
407.80	1345.52
408.01	1222.64
408.22	1329.13
408.43	1277.93
408.63	1187.82
408.84	1290.22
409.05	1273.84
409.25	1294.32
409.46	1363.95
409.67	1249.26
409.88	1222.64
410.08	1247.21
410.29	1286.12
410.50	1318.89
410.70	1255.40
410.91	1263.60
411.12	1279.98
411.32	1241.07
411.53	1298.41
411.74	1222.64
411.95	1335.28
412.15	1253.36
412.36	1259.50
412.57	1234.93
412.77	1236.97
412.98	1243.12
413.19	1273.84
413.39	1263.60
413.60	1236.97
413.81	1277.93
414.01	1245.16
414.22	1298.41
414.43	1277.93
414.63	1290.22
414.84	1255.40
415.05	1261.55
415.25	1245.16
415.46	1271.79
415.67	1261.55
415.87	1314.80
416.08	1249.26
416.29	1339.37
416.49	1292.27
416.70	1329.13
416.91	1267.69
417.11	1290.22
417.32	1298.41
417.53	1273.84
417.73	1320.94
417.94	1339.37
418.15	1245.16
418.35	1273.84
418.56	1275.88
418.77	1265.64
418.97	1294.32
419.18	1232.88
419.38	1255.40
419.59	1269.74
419.80	1355.76
420.00	1153.01
420.21	1267.69
420.42	1288.17
420.62	1337.32
420.83	1251.31
421.04	1304.56
421.24	1214.45
421.45	1347.56
421.65	1257.45
421.86	1259.50
422.07	1296.36
422.27	1241.07
422.48	1273.84
422.69	1284.08
422.89	1337.32
423.10	1325.04
423.30	1230.83
423.51	1257.45
423.72	1220.59
423.92	1232.88
424.13	1306.60
424.33	1218.54
424.54	1265.64
424.75	1193.97
424.95	1302.51
425.16	1193.97
425.36	1286.12
425.57	1226.73
425.78	1284.08
425.98	1216.49
426.19	1226.73
426.39	1175.53
426.60	1249.26
426.81	1306.60
427.01	1245.16
427.22	1218.54
427.42	1206.25
427.63	1218.54
427.83	1249.26
428.04	1314.80
428.25	1316.84
428.45	1347.56
428.66	1300.46
428.86	1234.93
429.07	1232.88
429.28	1345.52
429.48	1216.49
429.69	1288.17
429.89	1249.26
430.10	1269.74
430.30	1351.66
430.51	1286.12
430.71	1222.64
430.92	1198.06
431.13	1257.45
431.33	1263.60
431.54	1298.41
431.74	1304.56
431.95	1249.26
432.15	1288.17
432.36	1226.73
432.56	1218.54
432.77	1290.22
432.98	1198.06
433.18	1277.93
433.39	1290.22
433.59	1255.40
433.80	1257.45
434.00	1163.25
434.21	1251.31
434.41	1228.78
434.62	1253.36
434.82	1277.93
435.03	1198.06
435.23	1302.51
435.44	1259.50
435.64	1206.25
435.85	1230.83
436.06	1284.08
436.26	1277.93
436.47	1230.83
436.67	1241.07
436.88	1288.17
437.08	1363.95
437.29	1331.18
437.49	1290.22
437.70	1304.56
437.90	1230.83
438.11	1265.64
438.31	1296.36
438.52	1255.40
438.72	1212.40
438.93	1263.60
439.13	1279.98
439.34	1247.21
439.54	1218.54
439.75	1290.22
439.95	1265.64
440.16	1277.93
440.36	1304.56
440.57	1302.51
440.77	1386.47
440.98	1308.65
441.18	1286.12
441.39	1277.93
441.59	1337.32
441.80	1322.99
442.00	1265.64
442.21	1308.65
442.41	1255.40
442.62	1224.69
442.82	1226.73
443.02	1322.99
443.23	1384.43
443.43	1296.36
443.64	1259.50
443.84	1245.16
444.05	1236.97
444.25	1286.12
444.46	1304.56
444.66	1304.56
444.87	1282.03
445.07	1296.36
445.28	1316.84
445.48	1218.54
445.69	1279.98
445.89	1226.73
446.09	1282.03
446.30	1374.19
446.50	1273.84
446.71	1298.41
446.91	1314.80
447.12	1290.22
447.32	1320.94
447.53	1370.09
447.73	1243.12
447.93	1255.40
448.14	1300.46
448.34	1300.46
448.55	1298.41
448.75	1271.79
448.96	1218.54
449.16	1288.17
449.36	1286.12
449.57	1212.40
449.77	1261.55
449.98	1267.69
450.18	1245.16
450.39	1310.70
450.59	1230.83
450.79	1230.83
451.00	1210.35
451.20	1271.79
451.41	1271.79
451.61	1294.32
451.81	1304.56
452.02	1282.03
452.22	1314.80
452.43	1382.38
452.63	1241.07
