SpectraSuite Data File
++++++++++++++++++++++++++++++++++++
Date: Sun Apr 03 19:55:48 CEST 2016
User: root
Dark Spectrum Present: No
Reference Spectrum Present: No
Number of Sampled Component Spectra: 1
Spectrometers: USB4C02835
Integration Time (usec): 10000 (USB4C02835)
Spectra Averaged: 1 (USB4C02835)
Boxcar Smoothing: 0 (USB4C02835)
Correct for Electrical Dark: No (USB4C02835)
Strobe/Lamp Enabled: No (USB4C02835)
Correct for Detector Non-linearity: No (USB4C02835)
Correct for Stray Light: No (USB4C02835)
Number of Pixels in Processed Spectrum: 3648
>>>>>Begin Processed Spectral Data<<<<<
177.47	1257.45
177.69	1257.45
177.91	1257.45
178.13	1265.64
178.36	1226.73
178.58	1255.40
178.80	1320.94
179.02	1257.45
179.24	1284.08
179.46	1312.75
179.68	1282.03
179.90	1310.70
180.13	1282.03
180.35	1277.93
180.57	1251.31
180.79	1253.36
181.01	1282.03
181.23	1243.12
181.45	1228.78
181.67	1304.56
181.90	1288.17
182.12	1253.36
182.34	1300.46
182.56	1261.55
182.78	1249.26
183.00	1322.99
183.22	1239.02
183.44	1253.36
183.66	1294.32
183.89	1239.02
184.11	1271.79
184.33	1308.65
184.55	1271.79
184.77	1261.55
184.99	1232.88
185.21	1210.35
185.43	1220.59
185.65	1290.22
185.87	1243.12
186.10	1320.94
186.32	1277.93
186.54	1269.74
186.76	1304.56
186.98	1296.36
187.20	1277.93
187.42	1267.69
187.64	1212.40
187.86	1275.88
188.08	1310.70
188.30	1284.08
188.52	1259.50
188.75	1275.88
188.97	1255.40
189.19	1243.12
189.41	1292.27
189.63	1282.03
189.85	1245.16
190.07	1249.26
190.29	1277.93
190.51	1298.41
190.73	1214.45
190.95	1318.89
191.17	1279.98
191.39	1341.42
191.61	1277.93
191.84	1245.16
192.06	1267.69
192.28	1288.17
192.50	1294.32
192.72	1247.21
192.94	1245.16
193.16	1204.21
193.38	1345.52
193.60	1273.84
193.82	1275.88
194.04	1247.21
194.26	1185.77
194.48	1267.69
194.70	1261.55
194.92	1222.64
195.14	1298.41
195.36	1251.31
195.58	1216.49
195.80	1310.70
196.02	1282.03
196.24	1322.99
196.46	1273.84
196.69	1220.59
196.91	1298.41
197.13	1234.93
197.35	1257.45
197.57	1251.31
197.79	1216.49
198.01	1286.12
198.23	1255.40
198.45	1282.03
198.67	1243.12
198.89	1306.60
199.11	1327.08
199.33	1228.78
199.55	1288.17
199.77	1220.59
199.99	1286.12
200.21	1310.70
200.43	1261.55
200.65	1269.74
200.87	1249.26
201.09	1232.88
201.31	1255.40
201.53	1284.08
201.75	1314.80
201.97	1230.83
202.19	1206.25
202.41	1337.32
202.63	1370.09
202.85	1277.93
203.07	1247.21
203.29	1294.32
203.51	1288.17
203.73	1296.36
203.95	1306.60
204.17	1232.88
204.39	1298.41
204.61	1341.42
204.83	1230.83
205.05	1236.97
205.27	1271.79
205.49	1322.99
205.71	1243.12
205.93	1292.27
206.15	1228.78
206.37	1284.08
206.59	1327.08
206.81	1275.88
207.03	1206.25
207.25	1312.75
207.47	1245.16
207.69	1294.32
207.91	1290.22
208.13	1224.69
208.34	1224.69
208.56	1218.54
208.78	1282.03
209.00	1222.64
209.22	1290.22
209.44	1322.99
209.66	1230.83
209.88	1239.02
210.10	1277.93
210.32	1179.63
210.54	1247.21
210.76	1193.97
210.98	1267.69
211.20	1218.54
211.42	1245.16
211.64	1322.99
211.86	1279.98
212.08	1247.21
212.30	1193.97
212.52	1226.73
212.74	1322.99
212.96	1302.51
213.17	1288.17
213.39	1234.93
213.61	1314.80
213.83	1282.03
214.05	1269.74
214.27	1296.36
214.49	1245.16
214.71	1241.07
214.93	1277.93
215.15	1239.02
215.37	1300.46
215.59	1275.88
215.81	1277.93
216.03	1245.16
216.24	1296.36
216.46	1271.79
216.68	1255.40
216.90	1288.17
217.12	1316.84
217.34	1243.12
217.56	1339.37
217.78	1189.87
218.00	1300.46
218.22	1271.79
218.44	1312.75
218.66	1288.17
218.87	1249.26
219.09	1273.84
219.31	1257.45
219.53	1318.89
219.75	1277.93
219.97	1271.79
220.19	1279.98
220.41	1273.84
220.63	1318.89
220.85	1275.88
221.06	1269.74
221.28	1271.79
221.50	1273.84
221.72	1296.36
221.94	1210.35
222.16	1243.12
222.38	1253.36
222.60	1245.16
222.82	1210.35
223.03	1273.84
223.25	1222.64
223.47	1198.06
223.69	1298.41
223.91	1214.45
224.13	1300.46
224.35	1284.08
224.57	1331.18
224.78	1296.36
225.00	1298.41
225.22	1273.84
225.44	1243.12
225.66	1265.64
225.88	1322.99
226.10	1267.69
226.32	1288.17
226.53	1322.99
226.75	1247.21
226.97	1241.07
227.19	1290.22
227.41	1267.69
227.63	1363.95
227.85	1222.64
228.06	1251.31
228.28	1259.50
228.50	1292.27
228.72	1314.80
228.94	1288.17
229.16	1261.55
229.37	1298.41
229.59	1269.74
229.81	1284.08
230.03	1230.83
230.25	1259.50
230.47	1300.46
230.69	1236.97
230.90	1300.46
231.12	1290.22
231.34	1243.12
231.56	1259.50
231.78	1267.69
232.00	1263.60
232.21	1286.12
232.43	1257.45
232.65	1331.18
232.87	1269.74
233.09	1193.97
233.30	1232.88
233.52	1222.64
233.74	1300.46
233.96	1273.84
234.18	1292.27
234.40	1253.36
234.61	1234.93
234.83	1312.75
235.05	1265.64
235.27	1353.71
235.49	1296.36
235.70	1265.64
235.92	1241.07
236.14	1202.16
236.36	1251.31
236.58	1220.59
236.79	1290.22
237.01	1288.17
237.23	1196.01
237.45	1343.47
237.67	1226.73
237.88	1255.40
238.10	1277.93
238.32	1206.25
238.54	1290.22
238.76	1249.26
238.97	1202.16
239.19	1193.97
239.41	1296.36
239.63	1279.98
239.85	1288.17
240.06	1284.08
240.28	1247.21
240.50	1202.16
240.72	1320.94
240.93	1279.98
241.15	1302.51
241.37	1277.93
241.59	1263.60
241.81	1327.08
242.02	1333.23
242.24	1316.84
242.46	1193.97
242.68	1202.16
242.89	1282.03
243.11	1265.64
243.33	1312.75
243.55	1300.46
243.76	1277.93
243.98	1331.18
244.20	1249.26
244.42	1239.02
244.64	1279.98
244.85	1212.40
245.07	1241.07
245.29	1218.54
245.51	1279.98
245.72	1273.84
245.94	1304.56
246.16	1239.02
246.38	1366.00
246.59	1196.01
246.81	1271.79
247.03	1275.88
247.24	1230.83
247.46	1273.84
247.68	1349.61
247.90	1255.40
248.11	1230.83
248.33	1208.30
248.55	1277.93
248.77	1255.40
248.98	1306.60
249.20	1257.45
249.42	1243.12
249.64	1298.41
249.85	1288.17
250.07	1206.25
250.29	1304.56
250.50	1279.98
250.72	1314.80
250.94	1296.36
251.16	1271.79
251.37	1261.55
251.59	1265.64
251.81	1284.08
252.02	1290.22
252.24	1257.45
252.46	1239.02
252.68	1265.64
252.89	1230.83
253.11	1261.55
253.33	1208.30
253.54	1282.03
253.76	1187.82
253.98	1210.35
254.20	1298.41
254.41	1327.08
254.63	1273.84
254.85	1247.21
255.06	1249.26
255.28	1284.08
255.50	1333.23
255.71	1292.27
255.93	1286.12
256.15	1271.79
256.36	1312.75
256.58	1257.45
256.80	1320.94
257.02	1187.82
257.23	1314.80
257.45	1298.41
257.67	1329.13
257.88	1361.90
258.10	1239.02
258.32	1245.16
258.53	1267.69
258.75	1245.16
258.97	1222.64
259.18	1228.78
259.40	1245.16
259.62	1284.08
259.83	1316.84
260.05	1292.27
260.27	1292.27
260.48	1286.12
260.70	1255.40
260.92	1302.51
261.13	1232.88
261.35	1267.69
261.57	1230.83
261.78	1300.46
262.00	1241.07
262.22	1247.21
262.43	1308.65
262.65	1322.99
262.86	1273.84
263.08	1243.12
263.30	1230.83
263.51	1226.73
263.73	1273.84
263.95	1257.45
264.16	1216.49
264.38	1255.40
264.60	1267.69
264.81	1316.84
265.03	1234.93
265.25	1239.02
265.46	1206.25
265.68	1308.65
265.89	1226.73
266.11	1292.27
266.33	1261.55
266.54	1282.03
266.76	1269.74
266.98	1251.31
267.19	1232.88
267.41	1261.55
267.62	1259.50
267.84	1286.12
268.06	1251.31
268.27	1245.16
268.49	1300.46
268.70	1273.84
268.92	1298.41
269.14	1247.21
269.35	1255.40
269.57	1263.60
269.79	1310.70
270.00	1306.60
270.22	1296.36
270.43	1247.21
270.65	1214.45
270.87	1290.22
271.08	1228.78
271.30	1306.60
271.51	1234.93
271.73	1263.60
271.95	1316.84
272.16	1335.28
272.38	1282.03
272.59	1316.84
272.81	1239.02
273.02	1265.64
273.24	1345.52
273.46	1241.07
273.67	1261.55
273.89	1290.22
274.10	1183.73
274.32	1196.01
274.54	1279.98
274.75	1263.60
274.97	1212.40
275.18	1288.17
275.40	1310.70
275.61	1222.64
275.83	1222.64
276.05	1265.64
276.26	1263.60
276.48	1282.03
276.69	1269.74
276.91	1144.81
277.12	1273.84
277.34	1253.36
277.55	1236.97
277.77	1228.78
277.99	1351.66
278.20	1253.36
278.42	1255.40
278.63	1265.64
278.85	1314.80
279.06	1288.17
279.28	1298.41
279.49	1312.75
279.71	1290.22
279.93	1234.93
280.14	1265.64
280.36	1232.88
280.57	1255.40
280.79	1288.17
281.00	1261.55
281.22	1243.12
281.43	1320.94
281.65	1300.46
281.86	1232.88
282.08	1220.59
282.29	1296.36
282.51	1286.12
282.73	1241.07
282.94	1284.08
283.16	1224.69
283.37	1247.21
283.59	1265.64
283.80	1284.08
284.02	1263.60
284.23	1282.03
284.45	1257.45
284.66	1294.32
284.88	1232.88
285.09	1255.40
285.31	1228.78
285.52	1251.31
285.74	1210.35
285.95	1269.74
286.17	1380.33
286.38	1273.84
286.60	1286.12
286.81	1212.40
287.03	1234.93
287.24	1337.32
287.46	1257.45
287.67	1308.65
287.89	1273.84
288.10	1228.78
288.32	1292.27
288.53	1271.79
288.75	1267.69
288.96	1253.36
289.18	1247.21
289.39	1265.64
289.61	1275.88
289.82	1335.28
290.04	1251.31
290.25	1277.93
290.47	1230.83
290.68	1275.88
290.90	1292.27
291.11	1232.88
291.33	1347.56
291.54	1230.83
291.76	1230.83
291.97	1275.88
292.18	1222.64
292.40	1253.36
292.61	1306.60
292.83	1218.54
293.04	1320.94
293.26	1241.07
293.47	1312.75
293.69	1259.50
293.90	1337.32
294.12	1320.94
294.33	1243.12
294.55	1263.60
294.76	1198.06
294.97	1183.73
295.19	1212.40
295.40	1236.97
295.62	1304.56
295.83	1232.88
296.05	1265.64
296.26	1329.13
296.48	1292.27
296.69	1275.88
296.90	1269.74
297.12	1251.31
297.33	1239.02
297.55	1263.60
297.76	1273.84
297.98	1279.98
298.19	1200.11
298.41	1259.50
298.62	1298.41
298.83	1331.18
299.05	1216.49
299.26	1261.55
299.48	1318.89
299.69	1302.51
299.90	1290.22
300.12	1228.78
300.33	1310.70
300.55	1314.80
300.76	1359.85
300.98	1243.12
301.19	1269.74
301.40	1273.84
301.62	1271.79
301.83	1333.23
302.05	1288.17
302.26	1306.60
302.47	1292.27
302.69	1331.18
302.90	1333.23
303.12	1267.69
303.33	1232.88
303.54	1257.45
303.76	1279.98
303.97	1249.26
304.19	1322.99
304.40	1251.31
304.61	1306.60
304.83	1349.61
305.04	1267.69
305.26	1322.99
305.47	1284.08
305.68	1220.59
305.90	1234.93
306.11	1202.16
306.33	1380.33
306.54	1292.27
306.75	1322.99
306.97	1267.69
307.18	1232.88
307.39	1206.25
307.61	1263.60
307.82	1366.00
308.04	1343.47
308.25	1294.32
308.46	1304.56
308.68	1296.36
308.89	1226.73
309.10	1251.31
309.32	1308.65
309.53	1214.45
309.74	1265.64
309.96	1267.69
310.17	1216.49
310.39	1198.06
310.60	1290.22
310.81	1249.26
311.03	1284.08
311.24	1220.59
311.45	1314.80
311.67	1310.70
311.88	1318.89
312.09	1306.60
312.31	1263.60
312.52	1288.17
312.73	1300.46
312.95	1292.27
313.16	1347.56
313.37	1282.03
313.59	1234.93
313.80	1304.56
314.01	1204.21
314.23	1253.36
314.44	1286.12
314.65	1257.45
314.87	1200.11
315.08	1191.92
315.29	1314.80
315.51	1259.50
315.72	1320.94
315.93	1310.70
316.15	1335.28
316.36	1329.13
316.57	1249.26
316.79	1269.74
317.00	1243.12
317.21	1255.40
317.43	1230.83
317.64	1314.80
317.85	1228.78
318.07	1251.31
318.28	1249.26
318.49	1259.50
318.70	1318.89
318.92	1273.84
319.13	1277.93
319.34	1275.88
319.56	1222.64
319.77	1224.69
319.98	1261.55
320.20	1290.22
320.41	1296.36
320.62	1265.64
320.83	1204.21
321.05	1282.03
321.26	1253.36
321.47	1232.88
321.69	1325.04
321.90	1263.60
322.11	1249.26
322.32	1271.79
322.54	1267.69
322.75	1269.74
322.96	1306.60
323.18	1247.21
323.39	1320.94
323.60	1226.73
323.81	1298.41
324.03	1263.60
324.24	1253.36
324.45	1269.74
324.66	1271.79
324.88	1265.64
325.09	1261.55
325.30	1206.25
325.52	1300.46
325.73	1316.84
325.94	1261.55
326.15	1249.26
326.37	1288.17
326.58	1279.98
326.79	1306.60
327.00	1279.98
327.22	1230.83
327.43	1251.31
327.64	1259.50
327.85	1308.65
328.07	1282.03
328.28	1296.36
328.49	1282.03
328.70	1239.02
328.92	1294.32
329.13	1320.94
329.34	1230.83
329.55	1245.16
329.76	1279.98
329.98	1261.55
330.19	1279.98
330.40	1370.09
330.61	1255.40
330.83	1265.64
331.04	1222.64
331.25	1261.55
331.46	1253.36
331.68	1216.49
331.89	1255.40
332.10	1322.99
332.31	1275.88
332.52	1255.40
332.74	1265.64
332.95	1230.83
333.16	1320.94
333.37	1271.79
333.58	1300.46
333.80	1282.03
334.01	1290.22
334.22	1249.26
334.43	1316.84
334.64	1298.41
334.86	1279.98
335.07	1261.55
335.28	1298.41
335.49	1271.79
335.70	1241.07
335.92	1249.26
336.13	1312.75
336.34	1368.04
336.55	1282.03
336.76	1206.25
336.98	1273.84
337.19	1263.60
337.40	1214.45
337.61	1279.98
337.82	1249.26
338.04	1241.07
338.25	1169.39
338.46	1200.11
338.67	1267.69
338.88	1241.07
339.09	1220.59
339.31	1222.64
339.52	1335.28
339.73	1284.08
339.94	1200.11
340.15	1214.45
340.36	1277.93
340.58	1247.21
340.79	1271.79
341.00	1345.52
341.21	1345.52
341.42	1202.16
341.63	1249.26
341.85	1345.52
342.06	1298.41
342.27	1288.17
342.48	1243.12
342.69	1206.25
342.90	1269.74
343.12	1198.06
343.33	1232.88
343.54	1247.21
343.75	1314.80
343.96	1222.64
344.17	1296.36
344.38	1253.36
344.60	1298.41
344.81	1263.60
345.02	1333.23
345.23	1241.07
345.44	1288.17
345.65	1218.54
345.86	1304.56
346.07	1269.74
346.29	1265.64
346.50	1253.36
346.71	1265.64
346.92	1325.04
347.13	1253.36
347.34	1298.41
347.55	1208.30
347.76	1316.84
347.98	1265.64
348.19	1302.51
348.40	1325.04
348.61	1359.85
348.82	1239.02
349.03	1298.41
349.24	1239.02
349.45	1255.40
349.66	1316.84
349.88	1288.17
350.09	1310.70
350.30	1247.21
350.51	1251.31
350.72	1249.26
350.93	1273.84
351.14	1288.17
351.35	1282.03
351.56	1193.97
351.77	1210.35
351.99	1277.93
352.20	1296.36
352.41	1294.32
352.62	1300.46
352.83	1327.08
353.04	1181.68
353.25	1318.89
353.46	1224.69
353.67	1239.02
353.88	1234.93
354.09	1257.45
354.30	1294.32
354.52	1322.99
354.73	1241.07
354.94	1251.31
355.15	1325.04
355.36	1275.88
355.57	1187.82
355.78	1236.97
355.99	1263.60
356.20	1214.45
356.41	1296.36
356.62	1312.75
356.83	1279.98
357.04	1320.94
357.25	1243.12
357.46	1282.03
357.68	1263.60
357.89	1247.21
358.10	1304.56
358.31	1247.21
358.52	1269.74
358.73	1312.75
358.94	1282.03
359.15	1267.69
359.36	1255.40
359.57	1277.93
359.78	1265.64
359.99	1331.18
360.20	1232.88
360.41	1290.22
360.62	1314.80
360.83	1290.22
361.04	1320.94
361.25	1232.88
361.46	1267.69
361.67	1269.74
361.88	1267.69
362.09	1302.51
362.30	1267.69
362.51	1284.08
362.72	1230.83
362.93	1222.64
363.14	1331.18
363.35	1316.84
363.56	1245.16
363.78	1216.49
363.99	1277.93
364.20	1239.02
364.41	1236.97
364.62	1335.28
364.83	1343.47
365.04	1314.80
365.25	1273.84
365.46	1259.50
365.67	1273.84
365.88	1269.74
366.09	1226.73
366.30	1259.50
366.51	1241.07
366.72	1204.21
366.93	1243.12
367.14	1236.97
367.35	1279.98
367.56	1251.31
367.77	1269.74
367.98	1279.98
368.18	1267.69
368.39	1228.78
368.60	1286.12
368.81	1269.74
369.02	1222.64
369.23	1302.51
369.44	1296.36
369.65	1257.45
369.86	1232.88
370.07	1284.08
370.28	1253.36
370.49	1263.60
370.70	1175.53
370.91	1241.07
371.12	1236.97
371.33	1306.60
371.54	1282.03
371.75	1202.16
371.96	1249.26
372.17	1286.12
372.38	1243.12
372.59	1286.12
372.80	1257.45
373.01	1257.45
373.22	1259.50
373.43	1204.21
373.64	1218.54
373.85	1318.89
374.06	1279.98
374.26	1155.05
374.47	1226.73
374.68	1314.80
374.89	1259.50
375.10	1318.89
375.31	1210.35
375.52	1265.64
375.73	1257.45
375.94	1200.11
376.15	1279.98
376.36	1368.04
376.57	1193.97
376.78	1366.00
376.99	1304.56
377.20	1288.17
377.40	1208.30
377.61	1239.02
377.82	1247.21
378.03	1286.12
378.24	1282.03
378.45	1265.64
378.66	1277.93
378.87	1230.83
379.08	1271.79
379.29	1304.56
379.50	1277.93
379.71	1267.69
379.91	1275.88
380.12	1368.04
380.33	1337.32
380.54	1239.02
380.75	1265.64
380.96	1372.14
381.17	1294.32
381.38	1263.60
381.59	1271.79
381.80	1306.60
382.00	1245.16
382.21	1198.06
382.42	1282.03
382.63	1165.29
382.84	1320.94
383.05	1245.16
383.26	1263.60
383.47	1249.26
383.68	1277.93
383.88	1312.75
384.09	1271.79
384.30	1286.12
384.51	1265.64
384.72	1296.36
384.93	1298.41
385.14	1263.60
385.35	1314.80
385.55	1216.49
385.76	1327.08
385.97	1226.73
386.18	1273.84
386.39	1251.31
386.60	1239.02
386.81	1275.88
387.02	1243.12
387.22	1208.30
387.43	1294.32
387.64	1300.46
387.85	1277.93
388.06	1288.17
388.27	1265.64
388.48	1273.84
388.68	1335.28
388.89	1277.93
389.10	1284.08
389.31	1286.12
389.52	1210.35
389.73	1339.37
389.93	1290.22
390.14	1316.84
390.35	1208.30
390.56	1288.17
390.77	1333.23
390.98	1322.99
391.18	1314.80
391.39	1277.93
391.60	1214.45
391.81	1327.08
392.02	1273.84
392.23	1257.45
392.43	1263.60
392.64	1200.11
392.85	1255.40
393.06	1245.16
393.27	1259.50
393.47	1269.74
393.68	1241.07
393.89	1224.69
394.10	1298.41
394.31	1214.45
394.52	1257.45
394.72	1308.65
394.93	1282.03
395.14	1288.17
395.35	1277.93
395.56	1239.02
395.76	1265.64
395.97	1290.22
396.18	1269.74
396.39	1308.65
396.60	1271.79
396.80	1290.22
397.01	1282.03
397.22	1222.64
397.43	1249.26
397.64	1263.60
397.84	1290.22
398.05	1277.93
398.26	1312.75
398.47	1251.31
398.67	1243.12
398.88	1224.69
399.09	1310.70
399.30	1236.97
399.51	1259.50
399.71	1269.74
399.92	1302.51
400.13	1282.03
400.34	1304.56
400.54	1234.93
400.75	1269.74
400.96	1273.84
401.17	1222.64
401.37	1296.36
401.58	1271.79
401.79	1214.45
402.00	1292.27
402.21	1316.84
402.41	1253.36
402.62	1263.60
402.83	1320.94
403.04	1200.11
403.24	1288.17
403.45	1261.55
403.66	1363.95
403.87	1234.93
404.07	1181.68
404.28	1267.69
404.49	1304.56
404.70	1304.56
404.90	1241.07
405.11	1302.51
405.32	1333.23
405.52	1267.69
405.73	1277.93
405.94	1261.55
406.15	1187.82
406.35	1232.88
406.56	1322.99
406.77	1204.21
406.98	1259.50
407.18	1259.50
407.39	1331.18
407.60	1306.60
407.80	1339.37
408.01	1218.54
408.22	1275.88
408.43	1304.56
408.63	1259.50
408.84	1277.93
409.05	1261.55
409.25	1251.31
409.46	1294.32
409.67	1179.63
409.88	1312.75
410.08	1232.88
410.29	1249.26
410.50	1290.22
410.70	1282.03
410.91	1208.30
411.12	1218.54
411.32	1232.88
411.53	1253.36
411.74	1288.17
411.95	1351.66
412.15	1275.88
412.36	1271.79
412.57	1222.64
412.77	1337.32
412.98	1214.45
413.19	1249.26
413.39	1294.32
413.60	1337.32
413.81	1269.74
414.01	1314.80
414.22	1282.03
414.43	1304.56
414.63	1269.74
414.84	1265.64
415.05	1212.40
415.25	1255.40
415.46	1269.74
415.67	1191.92
415.87	1300.46
416.08	1277.93
416.29	1269.74
416.49	1236.97
416.70	1249.26
416.91	1245.16
417.11	1220.59
417.32	1361.90
417.53	1355.76
417.73	1271.79
417.94	1376.24
418.15	1300.46
418.35	1306.60
418.56	1257.45
418.77	1269.74
418.97	1290.22
419.18	1288.17
419.38	1312.75
419.59	1265.64
419.80	1249.26
420.00	1298.41
420.21	1304.56
420.42	1298.41
420.62	1218.54
420.83	1239.02
421.04	1173.49
421.24	1198.06
421.45	1218.54
421.65	1288.17
421.86	1251.31
422.07	1259.50
422.27	1310.70
422.48	1263.60
422.69	1236.97
422.89	1220.59
423.10	1273.84
423.30	1269.74
423.51	1263.60
423.72	1191.92
423.92	1271.79
424.13	1202.16
424.33	1290.22
424.54	1273.84
424.75	1271.79
424.95	1255.40
425.16	1292.27
425.36	1243.12
425.57	1314.80
425.78	1286.12
425.98	1279.98
426.19	1239.02
426.39	1249.26
426.60	1288.17
426.81	1279.98
427.01	1265.64
427.22	1255.40
427.42	1312.75
427.63	1277.93
427.83	1296.36
428.04	1228.78
428.25	1314.80
428.45	1273.84
428.66	1243.12
428.86	1228.78
429.07	1314.80
429.28	1279.98
429.48	1277.93
429.69	1304.56
429.89	1288.17
430.10	1265.64
430.30	1325.04
430.51	1275.88
430.71	1267.69
430.92	1224.69
431.13	1228.78
431.33	1292.27
431.54	1286.12
431.74	1245.16
431.95	1208.30
432.15	1304.56
432.36	1308.65
432.56	1226.73
432.77	1228.78
432.98	1249.26
433.18	1300.46
433.39	1247.21
433.59	1241.07
433.80	1316.84
434.00	1269.74
434.21	1290.22
434.41	1277.93
434.62	1232.88
434.82	1204.21
435.03	1277.93
435.23	1271.79
435.44	1312.75
435.64	1349.61
435.85	1310.70
436.06	1294.32
436.26	1339.37
436.47	1269.74
436.67	1322.99
436.88	1255.40
437.08	1292.27
437.29	1355.76
437.49	1243.12
437.70	1279.98
437.90	1294.32
438.11	1273.84
438.31	1251.31
438.52	1288.17
438.72	1302.51
438.93	1327.08
439.13	1273.84
439.34	1331.18
439.54	1198.06
439.75	1300.46
439.95	1228.78
440.16	1200.11
440.36	1236.97
440.57	1282.03
440.77	1232.88
440.98	1234.93
441.18	1232.88
441.39	1245.16
441.59	1304.56
441.80	1243.12
442.00	1273.84
442.21	1265.64
442.41	1314.80
442.62	1212.40
442.82	1191.92
443.02	1253.36
443.23	1251.31
443.43	1341.42
443.64	1273.84
443.84	1286.12
444.05	1214.45
444.25	1325.04
444.46	1306.60
444.66	1279.98
444.87	1259.50
445.07	1200.11
445.28	1224.69
445.48	1257.45
445.69	1322.99
445.89	1290.22
446.09	1232.88
446.30	1290.22
446.50	1224.69
446.71	1204.21
446.91	1292.27
447.12	1294.32
447.32	1257.45
447.53	1177.58
447.73	1314.80
447.93	1275.88
448.14	1253.36
448.34	1241.07
448.55	1312.75
448.75	1282.03
448.96	1331.18
449.16	1302.51
449.36	1271.79
449.57	1245.16
449.77	1230.83
449.98	1318.89
450.18	1277.93
450.39	1327.08
450.59	1241.07
450.79	1300.46
451.00	1259.50
451.20	1216.49
451.41	1327.08
451.61	1214.45
451.81	1333.23
452.02	1267.69
452.22	1255.40
452.43	1318.89
452.63	1343.47
