SpectraSuite Data File
++++++++++++++++++++++++++++++++++++
Date: Sun Apr 03 19:55:21 CEST 2016
User: root
Dark Spectrum Present: No
Reference Spectrum Present: No
Number of Sampled Component Spectra: 1
Spectrometers: USB4C02835
Integration Time (usec): 10000 (USB4C02835)
Spectra Averaged: 1 (USB4C02835)
Boxcar Smoothing: 0 (USB4C02835)
Correct for Electrical Dark: No (USB4C02835)
Strobe/Lamp Enabled: No (USB4C02835)
Correct for Detector Non-linearity: No (USB4C02835)
Correct for Stray Light: No (USB4C02835)
Number of Pixels in Processed Spectrum: 3648
>>>>>Begin Processed Spectral Data<<<<<
177.47	1308.65
177.69	1308.65
177.91	1308.65
178.13	1222.64
178.36	1325.04
178.58	1249.26
178.80	1247.21
179.02	1275.88
179.24	1251.31
179.46	1288.17
179.68	1210.35
179.90	1245.16
180.13	1198.06
180.35	1234.93
180.57	1300.46
180.79	1269.74
181.01	1261.55
181.23	1204.21
181.45	1267.69
181.67	1243.12
181.90	1298.41
182.12	1296.36
182.34	1249.26
182.56	1320.94
182.78	1310.70
183.00	1275.88
183.22	1282.03
183.44	1253.36
183.66	1304.56
183.89	1255.40
184.11	1271.79
184.33	1296.36
184.55	1239.02
184.77	1234.93
184.99	1255.40
185.21	1249.26
185.43	1241.07
185.65	1234.93
185.87	1298.41
186.10	1257.45
186.32	1298.41
186.54	1236.97
186.76	1310.70
186.98	1251.31
187.20	1257.45
187.42	1355.76
187.64	1312.75
187.86	1253.36
188.08	1232.88
188.30	1169.39
188.52	1302.51
188.75	1255.40
188.97	1282.03
189.19	1200.11
189.41	1261.55
189.63	1277.93
189.85	1247.21
190.07	1210.35
190.29	1273.84
190.51	1177.58
190.73	1296.36
190.95	1318.89
191.17	1288.17
191.39	1284.08
191.61	1284.08
191.84	1310.70
192.06	1296.36
192.28	1288.17
192.50	1234.93
192.72	1284.08
192.94	1374.19
193.16	1255.40
193.38	1282.03
193.60	1241.07
193.82	1236.97
194.04	1308.65
194.26	1273.84
194.48	1304.56
194.70	1271.79
194.92	1245.16
195.14	1253.36
195.36	1331.18
195.58	1325.04
195.80	1327.08
196.02	1292.27
196.24	1249.26
196.46	1314.80
196.69	1187.82
196.91	1329.13
197.13	1300.46
197.35	1290.22
197.57	1226.73
197.79	1314.80
198.01	1335.28
198.23	1200.11
198.45	1345.52
198.67	1273.84
198.89	1239.02
199.11	1314.80
199.33	1228.78
199.55	1255.40
199.77	1306.60
199.99	1302.51
200.21	1257.45
200.43	1251.31
200.65	1212.40
200.87	1363.95
201.09	1169.39
201.31	1257.45
201.53	1359.85
201.75	1288.17
201.97	1247.21
202.19	1294.32
202.41	1286.12
202.63	1271.79
202.85	1249.26
203.07	1222.64
203.29	1251.31
203.51	1288.17
203.73	1300.46
203.95	1239.02
204.17	1288.17
204.39	1294.32
204.61	1267.69
204.83	1316.84
205.05	1236.97
205.27	1284.08
205.49	1198.06
205.71	1304.56
205.93	1288.17
206.15	1294.32
206.37	1286.12
206.59	1208.30
206.81	1296.36
207.03	1335.28
207.25	1263.60
207.47	1259.50
207.69	1318.89
207.91	1279.98
208.13	1253.36
208.34	1273.84
208.56	1314.80
208.78	1296.36
209.00	1290.22
209.22	1314.80
209.44	1171.44
209.66	1245.16
209.88	1243.12
210.10	1277.93
210.32	1292.27
210.54	1234.93
210.76	1275.88
210.98	1232.88
211.20	1314.80
211.42	1273.84
211.64	1275.88
211.86	1208.30
212.08	1282.03
212.30	1263.60
212.52	1298.41
212.74	1290.22
212.96	1335.28
213.17	1245.16
213.39	1284.08
213.61	1269.74
213.83	1220.59
214.05	1296.36
214.27	1228.78
214.49	1282.03
214.71	1263.60
214.93	1191.92
215.15	1241.07
215.37	1282.03
215.59	1273.84
215.81	1310.70
216.03	1275.88
216.24	1288.17
216.46	1273.84
216.68	1228.78
216.90	1200.11
217.12	1290.22
217.34	1245.16
217.56	1284.08
217.78	1286.12
218.00	1271.79
218.22	1198.06
218.44	1271.79
218.66	1245.16
218.87	1312.75
219.09	1304.56
219.31	1236.97
219.53	1300.46
219.75	1253.36
219.97	1222.64
220.19	1212.40
220.41	1282.03
220.63	1236.97
220.85	1212.40
221.06	1288.17
221.28	1208.30
221.50	1320.94
221.72	1210.35
221.94	1232.88
222.16	1267.69
222.38	1267.69
222.60	1249.26
222.82	1249.26
223.03	1247.21
223.25	1222.64
223.47	1239.02
223.69	1357.80
223.91	1300.46
224.13	1255.40
224.35	1175.53
224.57	1232.88
224.78	1314.80
225.00	1282.03
225.22	1249.26
225.44	1284.08
225.66	1351.66
225.88	1239.02
226.10	1320.94
226.32	1318.89
226.53	1228.78
226.75	1263.60
226.97	1308.65
227.19	1267.69
227.41	1292.27
227.63	1337.32
227.85	1318.89
228.06	1288.17
228.28	1263.60
228.50	1249.26
228.72	1150.96
228.94	1316.84
229.16	1259.50
229.37	1214.45
229.59	1261.55
229.81	1306.60
230.03	1277.93
230.25	1275.88
230.47	1314.80
230.69	1241.07
230.90	1284.08
231.12	1253.36
231.34	1214.45
231.56	1241.07
231.78	1245.16
232.00	1310.70
232.21	1282.03
232.43	1314.80
232.65	1232.88
232.87	1230.83
233.09	1269.74
233.30	1234.93
233.52	1241.07
233.74	1257.45
233.96	1232.88
234.18	1261.55
234.40	1310.70
234.61	1249.26
234.83	1263.60
235.05	1284.08
235.27	1341.42
235.49	1226.73
235.70	1234.93
235.92	1273.84
236.14	1255.40
236.36	1185.77
236.58	1300.46
236.79	1220.59
237.01	1298.41
237.23	1327.08
237.45	1224.69
237.67	1249.26
237.88	1241.07
238.10	1294.32
238.32	1263.60
238.54	1310.70
238.76	1251.31
238.97	1232.88
239.19	1288.17
239.41	1314.80
239.63	1306.60
239.85	1269.74
240.06	1241.07
240.28	1208.30
240.50	1314.80
240.72	1236.97
240.93	1239.02
241.15	1259.50
241.37	1337.32
241.59	1236.97
241.81	1269.74
242.02	1314.80
242.24	1228.78
242.46	1265.64
242.68	1251.31
242.89	1284.08
243.11	1343.47
243.33	1241.07
243.55	1224.69
243.76	1277.93
243.98	1263.60
244.20	1247.21
244.42	1214.45
244.64	1234.93
244.85	1265.64
245.07	1222.64
245.29	1275.88
245.51	1292.27
245.72	1261.55
245.94	1329.13
246.16	1222.64
246.38	1310.70
246.59	1228.78
246.81	1263.60
247.03	1224.69
247.24	1345.52
247.46	1300.46
247.68	1206.25
247.90	1304.56
248.11	1290.22
248.33	1275.88
248.55	1265.64
248.77	1255.40
248.98	1204.21
249.20	1273.84
249.42	1269.74
249.64	1279.98
249.85	1302.51
250.07	1259.50
250.29	1318.89
250.50	1273.84
250.72	1243.12
250.94	1269.74
251.16	1300.46
251.37	1253.36
251.59	1296.36
251.81	1263.60
252.02	1257.45
252.24	1187.82
252.46	1380.33
252.68	1337.32
252.89	1284.08
253.11	1306.60
253.33	1331.18
253.54	1277.93
253.76	1275.88
253.98	1261.55
254.20	1273.84
254.41	1322.99
254.63	1261.55
254.85	1294.32
255.06	1265.64
255.28	1288.17
255.50	1327.08
255.71	1249.26
255.93	1241.07
256.15	1279.98
256.36	1271.79
256.58	1196.01
256.80	1292.27
257.02	1208.30
257.23	1300.46
257.45	1202.16
257.67	1261.55
257.88	1298.41
258.10	1298.41
258.32	1245.16
258.53	1253.36
258.75	1318.89
258.97	1298.41
259.18	1316.84
259.40	1288.17
259.62	1204.21
259.83	1273.84
260.05	1189.87
260.27	1306.60
260.48	1355.76
260.70	1327.08
260.92	1271.79
261.13	1312.75
261.35	1228.78
261.57	1263.60
261.78	1241.07
262.00	1302.51
262.22	1232.88
262.43	1327.08
262.65	1271.79
262.86	1249.26
263.08	1267.69
263.30	1230.83
263.51	1216.49
263.73	1312.75
263.95	1191.92
264.16	1275.88
264.38	1245.16
264.60	1214.45
264.81	1228.78
265.03	1296.36
265.25	1247.21
265.46	1288.17
265.68	1216.49
265.89	1226.73
266.11	1232.88
266.33	1251.31
266.54	1253.36
266.76	1220.59
266.98	1327.08
267.19	1163.25
267.41	1247.21
267.62	1322.99
267.84	1247.21
268.06	1304.56
268.27	1308.65
268.49	1279.98
268.70	1222.64
268.92	1230.83
269.14	1327.08
269.35	1239.02
269.57	1253.36
269.79	1214.45
270.00	1220.59
270.22	1277.93
270.43	1218.54
270.65	1273.84
270.87	1261.55
271.08	1292.27
271.30	1273.84
271.51	1228.78
271.73	1243.12
271.95	1279.98
272.16	1331.18
272.38	1267.69
272.59	1261.55
272.81	1230.83
273.02	1224.69
273.24	1306.60
273.46	1247.21
273.67	1271.79
273.89	1271.79
274.10	1306.60
274.32	1306.60
274.54	1228.78
274.75	1220.59
274.97	1239.02
275.18	1247.21
275.40	1222.64
275.61	1286.12
275.83	1255.40
276.05	1228.78
276.26	1300.46
276.48	1234.93
276.69	1210.35
276.91	1255.40
277.12	1288.17
277.34	1224.69
277.55	1308.65
277.77	1222.64
277.99	1279.98
278.20	1300.46
278.42	1261.55
278.63	1210.35
278.85	1288.17
279.06	1316.84
279.28	1312.75
279.49	1226.73
279.71	1322.99
279.93	1253.36
280.14	1230.83
280.36	1304.56
280.57	1335.28
280.79	1234.93
281.00	1273.84
281.22	1247.21
281.43	1296.36
281.65	1269.74
281.86	1259.50
282.08	1202.16
282.29	1290.22
282.51	1302.51
282.73	1286.12
282.94	1253.36
283.16	1269.74
283.37	1300.46
283.59	1257.45
283.80	1236.97
284.02	1261.55
284.23	1222.64
284.45	1247.21
284.66	1241.07
284.88	1304.56
285.09	1185.77
285.31	1277.93
285.52	1251.31
285.74	1284.08
285.95	1341.42
286.17	1255.40
286.38	1331.18
286.60	1261.55
286.81	1261.55
287.03	1312.75
287.24	1251.31
287.46	1310.70
287.67	1310.70
287.89	1263.60
288.10	1261.55
288.32	1249.26
288.53	1204.21
288.75	1239.02
288.96	1288.17
289.18	1277.93
289.39	1216.49
289.61	1345.52
289.82	1261.55
290.04	1220.59
290.25	1269.74
290.47	1339.37
290.68	1226.73
290.90	1327.08
291.11	1191.92
291.33	1271.79
291.54	1308.65
291.76	1273.84
291.97	1236.97
292.18	1314.80
292.40	1234.93
292.61	1290.22
292.83	1349.61
293.04	1271.79
293.26	1298.41
293.47	1232.88
293.69	1284.08
293.90	1273.84
294.12	1329.13
294.33	1273.84
294.55	1255.40
294.76	1345.52
294.97	1304.56
295.19	1271.79
295.40	1230.83
295.62	1310.70
295.83	1288.17
296.05	1263.60
296.26	1222.64
296.48	1232.88
296.69	1245.16
296.90	1284.08
297.12	1286.12
297.33	1259.50
297.55	1255.40
297.76	1271.79
297.98	1294.32
298.19	1243.12
298.41	1243.12
298.62	1320.94
298.83	1306.60
299.05	1282.03
299.26	1251.31
299.48	1198.06
299.69	1271.79
299.90	1271.79
300.12	1273.84
300.33	1370.09
300.55	1286.12
300.76	1282.03
300.98	1282.03
301.19	1288.17
301.40	1300.46
301.62	1191.92
301.83	1288.17
302.05	1200.11
302.26	1198.06
302.47	1288.17
302.69	1284.08
302.90	1275.88
303.12	1241.07
303.33	1290.22
303.54	1279.98
303.76	1228.78
303.97	1265.64
304.19	1273.84
304.40	1210.35
304.61	1298.41
304.83	1282.03
305.04	1220.59
305.26	1322.99
305.47	1310.70
305.68	1214.45
305.90	1189.87
306.11	1314.80
306.33	1267.69
306.54	1249.26
306.75	1284.08
306.97	1253.36
307.18	1282.03
307.39	1269.74
307.61	1245.16
307.82	1236.97
308.04	1245.16
308.25	1263.60
308.46	1220.59
308.68	1286.12
308.89	1259.50
309.10	1316.84
309.32	1226.73
309.53	1290.22
309.74	1271.79
309.96	1230.83
310.17	1282.03
310.39	1265.64
310.60	1269.74
310.81	1310.70
311.03	1245.16
311.24	1269.74
311.45	1243.12
311.67	1275.88
311.88	1267.69
312.09	1230.83
312.31	1304.56
312.52	1239.02
312.73	1249.26
312.95	1222.64
313.16	1267.69
313.37	1320.94
313.59	1232.88
313.80	1308.65
314.01	1290.22
314.23	1333.23
314.44	1279.98
314.65	1261.55
314.87	1292.27
315.08	1218.54
315.29	1361.90
315.51	1236.97
315.72	1271.79
315.93	1232.88
316.15	1298.41
316.36	1296.36
316.57	1239.02
316.79	1312.75
317.00	1261.55
317.21	1277.93
317.43	1265.64
317.64	1271.79
317.85	1247.21
318.07	1261.55
318.28	1265.64
318.49	1314.80
318.70	1191.92
318.92	1282.03
319.13	1298.41
319.34	1253.36
319.56	1245.16
319.77	1288.17
319.98	1232.88
320.20	1273.84
320.41	1204.21
320.62	1357.80
320.83	1314.80
321.05	1357.80
321.26	1271.79
321.47	1247.21
321.69	1312.75
321.90	1183.73
322.11	1275.88
322.32	1236.97
322.54	1306.60
322.75	1302.51
322.96	1282.03
323.18	1263.60
323.39	1241.07
323.60	1185.77
323.81	1282.03
324.03	1306.60
324.24	1308.65
324.45	1273.84
324.66	1261.55
324.88	1312.75
325.09	1245.16
325.30	1273.84
325.52	1198.06
325.73	1282.03
325.94	1241.07
326.15	1288.17
326.37	1267.69
326.58	1290.22
326.79	1298.41
327.00	1304.56
327.22	1308.65
327.43	1329.13
327.64	1298.41
327.85	1261.55
328.07	1257.45
328.28	1265.64
328.49	1253.36
328.70	1234.93
328.92	1286.12
329.13	1261.55
329.34	1300.46
329.55	1255.40
329.76	1239.02
329.98	1255.40
330.19	1355.76
330.40	1292.27
330.61	1243.12
330.83	1255.40
331.04	1249.26
331.25	1316.84
331.46	1312.75
331.68	1300.46
331.89	1318.89
332.10	1292.27
332.31	1314.80
332.52	1296.36
332.74	1279.98
332.95	1216.49
333.16	1249.26
333.37	1218.54
333.58	1271.79
333.80	1247.21
334.01	1251.31
334.22	1298.41
334.43	1273.84
334.64	1220.59
334.86	1361.90
335.07	1253.36
335.28	1341.42
335.49	1269.74
335.70	1314.80
335.92	1243.12
336.13	1306.60
336.34	1208.30
336.55	1302.51
336.76	1249.26
336.98	1214.45
337.19	1337.32
337.40	1310.70
337.61	1251.31
337.82	1298.41
338.04	1282.03
338.25	1245.16
338.46	1216.49
338.67	1239.02
338.88	1249.26
339.09	1273.84
339.31	1241.07
339.52	1267.69
339.73	1286.12
339.94	1222.64
340.15	1296.36
340.36	1255.40
340.58	1265.64
340.79	1271.79
341.00	1275.88
341.21	1277.93
341.42	1267.69
341.63	1290.22
341.85	1183.73
342.06	1255.40
342.27	1333.23
342.48	1333.23
342.69	1232.88
342.90	1230.83
343.12	1282.03
343.33	1345.52
343.54	1288.17
343.75	1282.03
343.96	1171.44
344.17	1267.69
344.38	1277.93
344.60	1345.52
344.81	1261.55
345.02	1277.93
345.23	1230.83
345.44	1277.93
345.65	1265.64
345.86	1257.45
346.07	1228.78
346.29	1239.02
346.50	1265.64
346.71	1243.12
346.92	1263.60
347.13	1241.07
347.34	1279.98
347.55	1236.97
347.76	1277.93
347.98	1267.69
348.19	1353.71
348.40	1298.41
348.61	1212.40
348.82	1220.59
349.03	1304.56
349.24	1241.07
349.45	1302.51
349.66	1253.36
349.88	1275.88
350.09	1253.36
350.30	1224.69
350.51	1341.42
350.72	1275.88
350.93	1284.08
351.14	1322.99
351.35	1286.12
351.56	1302.51
351.77	1216.49
351.99	1361.90
352.20	1239.02
352.41	1202.16
352.62	1196.01
352.83	1284.08
353.04	1236.97
353.25	1265.64
353.46	1314.80
353.67	1257.45
353.88	1292.27
354.09	1322.99
354.30	1282.03
354.52	1261.55
354.73	1294.32
354.94	1259.50
355.15	1343.47
355.36	1279.98
355.57	1312.75
355.78	1224.69
355.99	1232.88
356.20	1257.45
356.41	1343.47
356.62	1316.84
356.83	1288.17
357.04	1236.97
357.25	1277.93
357.46	1257.45
357.68	1206.25
357.89	1210.35
358.10	1245.16
358.31	1230.83
358.52	1249.26
358.73	1265.64
358.94	1282.03
359.15	1265.64
359.36	1255.40
359.57	1288.17
359.78	1247.21
359.99	1314.80
360.20	1341.42
360.41	1271.79
360.62	1312.75
360.83	1306.60
361.04	1290.22
361.25	1306.60
361.46	1300.46
361.67	1329.13
361.88	1316.84
362.09	1290.22
362.30	1241.07
362.51	1257.45
362.72	1355.76
362.93	1253.36
363.14	1224.69
363.35	1267.69
363.56	1294.32
363.78	1329.13
363.99	1279.98
364.20	1236.97
364.41	1241.07
364.62	1255.40
364.83	1204.21
365.04	1275.88
365.25	1210.35
365.46	1294.32
365.67	1318.89
365.88	1245.16
366.09	1265.64
366.30	1269.74
366.51	1273.84
366.72	1253.36
366.93	1220.59
367.14	1294.32
367.35	1187.82
367.56	1269.74
367.77	1273.84
367.98	1327.08
368.18	1327.08
368.39	1267.69
368.60	1175.53
368.81	1232.88
369.02	1271.79
369.23	1239.02
369.44	1247.21
369.65	1296.36
369.86	1259.50
370.07	1222.64
370.28	1329.13
370.49	1298.41
370.70	1267.69
370.91	1255.40
371.12	1322.99
371.33	1232.88
371.54	1249.26
371.75	1308.65
371.96	1282.03
372.17	1279.98
372.38	1337.32
372.59	1288.17
372.80	1226.73
373.01	1228.78
373.22	1222.64
373.43	1245.16
373.64	1320.94
373.85	1290.22
374.06	1304.56
374.26	1220.59
374.47	1325.04
374.68	1359.85
374.89	1347.56
375.10	1249.26
375.31	1316.84
375.52	1208.30
375.73	1288.17
375.94	1257.45
376.15	1337.32
376.36	1183.73
376.57	1325.04
376.78	1345.52
376.99	1361.90
377.20	1290.22
377.40	1277.93
377.61	1275.88
377.82	1298.41
378.03	1288.17
378.24	1269.74
378.45	1282.03
378.66	1236.97
378.87	1239.02
379.08	1243.12
379.29	1286.12
379.50	1249.26
379.71	1263.60
379.91	1259.50
380.12	1259.50
380.33	1273.84
380.54	1269.74
380.75	1304.56
380.96	1234.93
381.17	1232.88
381.38	1298.41
381.59	1282.03
381.80	1220.59
382.00	1275.88
382.21	1333.23
382.42	1193.97
382.63	1267.69
382.84	1320.94
383.05	1279.98
383.26	1261.55
383.47	1302.51
383.68	1288.17
383.88	1249.26
384.09	1302.51
384.30	1267.69
384.51	1249.26
384.72	1265.64
384.93	1216.49
385.14	1257.45
385.35	1300.46
385.55	1204.21
385.76	1284.08
385.97	1282.03
386.18	1282.03
386.39	1177.58
386.60	1286.12
386.81	1165.29
387.02	1247.21
387.22	1277.93
387.43	1302.51
387.64	1243.12
387.85	1304.56
388.06	1263.60
388.27	1267.69
388.48	1257.45
388.68	1273.84
388.89	1251.31
389.10	1234.93
389.31	1294.32
389.52	1314.80
389.73	1279.98
389.93	1239.02
390.14	1316.84
390.35	1376.24
390.56	1230.83
390.77	1337.32
390.98	1306.60
391.18	1247.21
391.39	1241.07
391.60	1269.74
391.81	1282.03
392.02	1253.36
392.23	1314.80
392.43	1255.40
392.64	1284.08
392.85	1236.97
393.06	1265.64
393.27	1198.06
393.47	1204.21
393.68	1271.79
393.89	1269.74
394.10	1234.93
394.31	1261.55
394.52	1298.41
394.72	1267.69
394.93	1296.36
395.14	1320.94
395.35	1306.60
395.56	1234.93
395.76	1322.99
395.97	1308.65
396.18	1312.75
396.39	1294.32
396.60	1259.50
396.80	1236.97
397.01	1216.49
397.22	1265.64
397.43	1236.97
397.64	1261.55
397.84	1294.32
398.05	1269.74
398.26	1198.06
398.47	1310.70
398.67	1253.36
398.88	1296.36
399.09	1234.93
399.30	1310.70
399.51	1196.01
399.71	1261.55
399.92	1308.65
400.13	1253.36
400.34	1249.26
400.54	1249.26
400.75	1241.07
400.96	1320.94
401.17	1212.40
401.37	1265.64
401.58	1310.70
401.79	1292.27
402.00	1279.98
402.21	1302.51
402.41	1224.69
402.62	1257.45
402.83	1331.18
403.04	1267.69
403.24	1302.51
403.45	1202.16
403.66	1273.84
403.87	1267.69
404.07	1294.32
404.28	1206.25
404.49	1343.47
404.70	1230.83
404.90	1413.10
405.11	1187.82
405.32	1247.21
405.52	1245.16
405.73	1220.59
405.94	1253.36
406.15	1320.94
406.35	1296.36
406.56	1230.83
406.77	1226.73
406.98	1288.17
407.18	1310.70
407.39	1216.49
407.60	1239.02
407.80	1271.79
408.01	1202.16
408.22	1216.49
408.43	1245.16
408.63	1294.32
408.84	1284.08
409.05	1277.93
409.25	1251.31
409.46	1224.69
409.67	1282.03
409.88	1351.66
410.08	1230.83
410.29	1257.45
410.50	1212.40
410.70	1241.07
410.91	1275.88
411.12	1282.03
411.32	1333.23
411.53	1236.97
411.74	1314.80
411.95	1333.23
412.15	1208.30
412.36	1255.40
412.57	1298.41
412.77	1312.75
412.98	1312.75
413.19	1265.64
413.39	1204.21
413.60	1284.08
413.81	1273.84
414.01	1282.03
414.22	1282.03
414.43	1249.26
414.63	1325.04
414.84	1206.25
415.05	1286.12
415.25	1222.64
415.46	1347.56
415.67	1304.56
415.87	1232.88
416.08	1228.78
416.29	1206.25
416.49	1292.27
416.70	1286.12
416.91	1304.56
417.11	1212.40
417.32	1230.83
417.53	1282.03
417.73	1316.84
417.94	1204.21
418.15	1294.32
418.35	1216.49
418.56	1341.42
418.77	1206.25
418.97	1339.37
419.18	1241.07
419.38	1271.79
419.59	1257.45
419.80	1255.40
420.00	1259.50
420.21	1337.32
420.42	1267.69
420.62	1232.88
420.83	1212.40
421.04	1263.60
421.24	1222.64
421.45	1214.45
421.65	1241.07
421.86	1263.60
422.07	1314.80
422.27	1329.13
422.48	1265.64
422.69	1249.26
422.89	1282.03
423.10	1239.02
423.30	1298.41
423.51	1288.17
423.72	1284.08
423.92	1277.93
424.13	1214.45
424.33	1298.41
424.54	1234.93
424.75	1241.07
424.95	1318.89
425.16	1245.16
425.36	1271.79
425.57	1306.60
425.78	1259.50
425.98	1288.17
426.19	1234.93
426.39	1224.69
426.60	1249.26
426.81	1306.60
427.01	1234.93
427.22	1282.03
427.42	1306.60
427.63	1163.25
427.83	1310.70
428.04	1249.26
428.25	1275.88
428.45	1310.70
428.66	1253.36
428.86	1370.09
429.07	1310.70
429.28	1314.80
429.48	1226.73
429.69	1298.41
429.89	1312.75
430.10	1320.94
430.30	1261.55
430.51	1214.45
430.71	1273.84
430.92	1269.74
431.13	1232.88
431.33	1312.75
431.54	1265.64
431.74	1312.75
431.95	1314.80
432.15	1302.51
432.36	1226.73
432.56	1263.60
432.77	1282.03
432.98	1232.88
433.18	1249.26
433.39	1335.28
433.59	1212.40
433.80	1294.32
434.00	1296.36
434.21	1183.73
434.41	1236.97
434.62	1306.60
434.82	1259.50
435.03	1282.03
435.23	1331.18
435.44	1247.21
435.64	1241.07
435.85	1251.31
436.06	1308.65
436.26	1320.94
436.47	1302.51
436.67	1322.99
436.88	1314.80
437.08	1294.32
437.29	1247.21
437.49	1282.03
437.70	1228.78
437.90	1245.16
438.11	1253.36
438.31	1296.36
438.52	1230.83
438.72	1349.61
438.93	1273.84
439.13	1290.22
439.34	1249.26
439.54	1247.21
439.75	1339.37
439.95	1284.08
440.16	1290.22
440.36	1296.36
440.57	1310.70
440.77	1331.18
440.98	1271.79
441.18	1370.09
441.39	1304.56
441.59	1263.60
441.80	1212.40
442.00	1257.45
442.21	1243.12
442.41	1198.06
442.62	1314.80
442.82	1261.55
443.02	1241.07
443.23	1220.59
443.43	1271.79
443.64	1245.16
443.84	1349.61
444.05	1290.22
444.25	1282.03
444.46	1304.56
444.66	1318.89
444.87	1279.98
445.07	1204.21
445.28	1314.80
445.48	1290.22
445.69	1304.56
445.89	1282.03
446.09	1267.69
446.30	1302.51
446.50	1265.64
446.71	1333.23
446.91	1296.36
447.12	1218.54
447.32	1249.26
447.53	1306.60
447.73	1265.64
447.93	1292.27
448.14	1302.51
448.34	1286.12
448.55	1236.97
448.75	1228.78
448.96	1296.36
449.16	1310.70
449.36	1279.98
449.57	1200.11
449.77	1310.70
449.98	1298.41
450.18	1226.73
450.39	1230.83
450.59	1249.26
450.79	1320.94
451.00	1312.75
451.20	1288.17
451.41	1253.36
451.61	1257.45
451.81	1200.11
452.02	1204.21
452.22	1316.84
452.43	1249.26
452.63	1294.32
