SpectraSuite Data File
++++++++++++++++++++++++++++++++++++
Date: Sun Apr 03 19:55:25 CEST 2016
User: root
Dark Spectrum Present: No
Reference Spectrum Present: No
Number of Sampled Component Spectra: 1
Spectrometers: USB4C02835
Integration Time (usec): 10000 (USB4C02835)
Spectra Averaged: 1 (USB4C02835)
Boxcar Smoothing: 0 (USB4C02835)
Correct for Electrical Dark: No (USB4C02835)
Strobe/Lamp Enabled: No (USB4C02835)
Correct for Detector Non-linearity: No (USB4C02835)
Correct for Stray Light: No (USB4C02835)
Number of Pixels in Processed Spectrum: 3648
>>>>>Begin Processed Spectral Data<<<<<
177.47	1214.45
177.69	1214.45
177.91	1214.45
178.13	1220.59
178.36	1265.64
178.58	1366.00
178.80	1232.88
179.02	1279.98
179.24	1286.12
179.46	1245.16
179.68	1247.21
179.90	1241.07
180.13	1271.79
180.35	1265.64
180.57	1284.08
180.79	1271.79
181.01	1298.41
181.23	1304.56
181.45	1253.36
181.67	1228.78
181.90	1224.69
182.12	1253.36
182.34	1243.12
182.56	1322.99
182.78	1253.36
183.00	1214.45
183.22	1257.45
183.44	1265.64
183.66	1320.94
183.89	1294.32
184.11	1320.94
184.33	1245.16
184.55	1277.93
184.77	1370.09
184.99	1320.94
185.21	1236.97
185.43	1261.55
185.65	1343.47
185.87	1337.32
186.10	1224.69
186.32	1335.28
186.54	1286.12
186.76	1216.49
186.98	1243.12
187.20	1236.97
187.42	1265.64
187.64	1247.21
187.86	1200.11
188.08	1245.16
188.30	1208.30
188.52	1206.25
188.75	1198.06
188.97	1236.97
189.19	1206.25
189.41	1355.76
189.63	1310.70
189.85	1265.64
190.07	1257.45
190.29	1267.69
190.51	1236.97
190.73	1193.97
190.95	1243.12
191.17	1230.83
191.39	1259.50
191.61	1304.56
191.84	1247.21
192.06	1189.87
192.28	1255.40
192.50	1196.01
192.72	1259.50
192.94	1265.64
193.16	1300.46
193.38	1273.84
193.60	1241.07
193.82	1228.78
194.04	1257.45
194.26	1220.59
194.48	1273.84
194.70	1279.98
194.92	1249.26
195.14	1284.08
195.36	1218.54
195.58	1263.60
195.80	1265.64
196.02	1236.97
196.24	1263.60
196.46	1304.56
196.69	1191.92
196.91	1304.56
197.13	1198.06
197.35	1232.88
197.57	1337.32
197.79	1296.36
198.01	1271.79
198.23	1294.32
198.45	1251.31
198.67	1241.07
198.89	1257.45
199.11	1302.51
199.33	1265.64
199.55	1193.97
199.77	1202.16
199.99	1230.83
200.21	1257.45
200.43	1318.89
200.65	1251.31
200.87	1226.73
201.09	1355.76
201.31	1214.45
201.53	1243.12
201.75	1288.17
201.97	1318.89
202.19	1218.54
202.41	1253.36
202.63	1259.50
202.85	1318.89
203.07	1202.16
203.29	1257.45
203.51	1255.40
203.73	1273.84
203.95	1271.79
204.17	1284.08
204.39	1196.01
204.61	1286.12
204.83	1251.31
205.05	1300.46
205.27	1247.21
205.49	1218.54
205.71	1181.68
205.93	1286.12
206.15	1253.36
206.37	1269.74
206.59	1265.64
206.81	1220.59
207.03	1314.80
207.25	1222.64
207.47	1296.36
207.69	1284.08
207.91	1241.07
208.13	1314.80
208.34	1275.88
208.56	1236.97
208.78	1228.78
209.00	1282.03
209.22	1271.79
209.44	1286.12
209.66	1273.84
209.88	1241.07
210.10	1261.55
210.32	1249.26
210.54	1234.93
210.76	1255.40
210.98	1318.89
211.20	1277.93
211.42	1304.56
211.64	1177.58
211.86	1236.97
212.08	1337.32
212.30	1298.41
212.52	1310.70
212.74	1288.17
212.96	1196.01
213.17	1273.84
213.39	1230.83
213.61	1286.12
213.83	1279.98
214.05	1228.78
214.27	1259.50
214.49	1259.50
214.71	1333.23
214.93	1294.32
215.15	1314.80
215.37	1173.49
215.59	1249.26
215.81	1335.28
216.03	1349.61
216.24	1222.64
216.46	1286.12
216.68	1284.08
216.90	1269.74
217.12	1241.07
217.34	1290.22
217.56	1277.93
217.78	1286.12
218.00	1249.26
218.22	1257.45
218.44	1294.32
218.66	1294.32
218.87	1255.40
219.09	1294.32
219.31	1249.26
219.53	1193.97
219.75	1191.92
219.97	1304.56
220.19	1314.80
220.41	1265.64
220.63	1269.74
220.85	1214.45
221.06	1245.16
221.28	1296.36
221.50	1241.07
221.72	1241.07
221.94	1271.79
222.16	1232.88
222.38	1167.34
222.60	1265.64
222.82	1241.07
223.03	1296.36
223.25	1230.83
223.47	1210.35
223.69	1335.28
223.91	1224.69
224.13	1327.08
224.35	1331.18
224.57	1267.69
224.78	1253.36
225.00	1245.16
225.22	1218.54
225.44	1212.40
225.66	1273.84
225.88	1243.12
226.10	1314.80
226.32	1228.78
226.53	1249.26
226.75	1275.88
226.97	1290.22
227.19	1284.08
227.41	1261.55
227.63	1257.45
227.85	1359.85
228.06	1257.45
228.28	1232.88
228.50	1288.17
228.72	1286.12
228.94	1204.21
229.16	1267.69
229.37	1345.52
229.59	1208.30
229.81	1304.56
230.03	1275.88
230.25	1216.49
230.47	1259.50
230.69	1224.69
230.90	1310.70
231.12	1277.93
231.34	1286.12
231.56	1249.26
231.78	1224.69
232.00	1288.17
232.21	1263.60
232.43	1245.16
232.65	1196.01
232.87	1322.99
233.09	1245.16
233.30	1351.66
233.52	1306.60
233.74	1290.22
233.96	1277.93
234.18	1259.50
234.40	1241.07
234.61	1214.45
234.83	1220.59
235.05	1351.66
235.27	1277.93
235.49	1337.32
235.70	1253.36
235.92	1366.00
236.14	1263.60
236.36	1234.93
236.58	1226.73
236.79	1294.32
237.01	1263.60
237.23	1275.88
237.45	1335.28
237.67	1263.60
237.88	1312.75
238.10	1286.12
238.32	1247.21
238.54	1306.60
238.76	1275.88
238.97	1294.32
239.19	1218.54
239.41	1267.69
239.63	1226.73
239.85	1259.50
240.06	1282.03
240.28	1220.59
240.50	1290.22
240.72	1200.11
240.93	1314.80
241.15	1257.45
241.37	1265.64
241.59	1263.60
241.81	1306.60
242.02	1253.36
242.24	1275.88
242.46	1275.88
242.68	1255.40
242.89	1267.69
243.11	1216.49
243.33	1296.36
243.55	1241.07
243.76	1273.84
243.98	1232.88
244.20	1269.74
244.42	1275.88
244.64	1271.79
244.85	1300.46
245.07	1206.25
245.29	1308.65
245.51	1288.17
245.72	1273.84
245.94	1249.26
246.16	1290.22
246.38	1296.36
246.59	1304.56
246.81	1259.50
247.03	1249.26
247.24	1273.84
247.46	1214.45
247.68	1214.45
247.90	1290.22
248.11	1279.98
248.33	1251.31
248.55	1269.74
248.77	1253.36
248.98	1261.55
249.20	1306.60
249.42	1273.84
249.64	1251.31
249.85	1282.03
250.07	1245.16
250.29	1255.40
250.50	1314.80
250.72	1273.84
250.94	1241.07
251.16	1253.36
251.37	1257.45
251.59	1296.36
251.81	1255.40
252.02	1314.80
252.24	1294.32
252.46	1310.70
252.68	1265.64
252.89	1241.07
253.11	1282.03
253.33	1255.40
253.54	1282.03
253.76	1320.94
253.98	1339.37
254.20	1232.88
254.41	1241.07
254.63	1263.60
254.85	1298.41
255.06	1243.12
255.28	1247.21
255.50	1286.12
255.71	1329.13
255.93	1318.89
256.15	1243.12
256.36	1253.36
256.58	1312.75
256.80	1294.32
257.02	1243.12
257.23	1302.51
257.45	1296.36
257.67	1306.60
257.88	1339.37
258.10	1212.40
258.32	1259.50
258.53	1314.80
258.75	1253.36
258.97	1302.51
259.18	1269.74
259.40	1261.55
259.62	1275.88
259.83	1298.41
260.05	1314.80
260.27	1232.88
260.48	1308.65
260.70	1267.69
260.92	1243.12
261.13	1329.13
261.35	1220.59
261.57	1294.32
261.78	1292.27
262.00	1275.88
262.22	1284.08
262.43	1288.17
262.65	1261.55
262.86	1269.74
263.08	1234.93
263.30	1245.16
263.51	1234.93
263.73	1224.69
263.95	1286.12
264.16	1255.40
264.38	1271.79
264.60	1245.16
264.81	1271.79
265.03	1298.41
265.25	1292.27
265.46	1357.80
265.68	1288.17
265.89	1208.30
266.11	1261.55
266.33	1243.12
266.54	1310.70
266.76	1304.56
266.98	1251.31
267.19	1245.16
267.41	1335.28
267.62	1331.18
267.84	1333.23
268.06	1286.12
268.27	1294.32
268.49	1300.46
268.70	1302.51
268.92	1298.41
269.14	1232.88
269.35	1175.53
269.57	1345.52
269.79	1261.55
270.00	1269.74
270.22	1347.56
270.43	1247.21
270.65	1318.89
270.87	1239.02
271.08	1304.56
271.30	1204.21
271.51	1302.51
271.73	1175.53
271.95	1212.40
272.16	1257.45
272.38	1308.65
272.59	1277.93
272.81	1304.56
273.02	1288.17
273.24	1275.88
273.46	1261.55
273.67	1243.12
273.89	1259.50
274.10	1345.52
274.32	1279.98
274.54	1288.17
274.75	1216.49
274.97	1263.60
275.18	1265.64
275.40	1296.36
275.61	1310.70
275.83	1271.79
276.05	1279.98
276.26	1333.23
276.48	1275.88
276.69	1202.16
276.91	1263.60
277.12	1157.10
277.34	1286.12
277.55	1259.50
277.77	1236.97
277.99	1282.03
278.20	1261.55
278.42	1196.01
278.63	1234.93
278.85	1290.22
279.06	1265.64
279.28	1300.46
279.49	1212.40
279.71	1210.35
279.93	1239.02
280.14	1271.79
280.36	1286.12
280.57	1277.93
280.79	1249.26
281.00	1218.54
281.22	1232.88
281.43	1265.64
281.65	1298.41
281.86	1290.22
282.08	1261.55
282.29	1259.50
282.51	1177.58
282.73	1282.03
282.94	1298.41
283.16	1312.75
283.37	1302.51
283.59	1269.74
283.80	1284.08
284.02	1259.50
284.23	1292.27
284.45	1210.35
284.66	1273.84
284.88	1255.40
285.09	1185.77
285.31	1187.82
285.52	1302.51
285.74	1275.88
285.95	1279.98
286.17	1261.55
286.38	1318.89
286.60	1275.88
286.81	1282.03
287.03	1214.45
287.24	1239.02
287.46	1263.60
287.67	1284.08
287.89	1277.93
288.10	1329.13
288.32	1312.75
288.53	1271.79
288.75	1304.56
288.96	1208.30
289.18	1273.84
289.39	1257.45
289.61	1208.30
289.82	1245.16
290.04	1239.02
290.25	1222.64
290.47	1366.00
290.68	1247.21
290.90	1292.27
291.11	1251.31
291.33	1259.50
291.54	1216.49
291.76	1265.64
291.97	1247.21
292.18	1222.64
292.40	1257.45
292.61	1308.65
292.83	1269.74
293.04	1372.14
293.26	1206.25
293.47	1322.99
293.69	1314.80
293.90	1245.16
294.12	1286.12
294.33	1267.69
294.55	1318.89
294.76	1302.51
294.97	1318.89
295.19	1208.30
295.40	1239.02
295.62	1294.32
295.83	1218.54
296.05	1294.32
296.26	1267.69
296.48	1302.51
296.69	1214.45
296.90	1251.31
297.12	1253.36
297.33	1292.27
297.55	1261.55
297.76	1247.21
297.98	1294.32
298.19	1273.84
298.41	1228.78
298.62	1257.45
298.83	1275.88
299.05	1282.03
299.26	1279.98
299.48	1204.21
299.69	1226.73
299.90	1265.64
300.12	1214.45
300.33	1267.69
300.55	1288.17
300.76	1302.51
300.98	1216.49
301.19	1267.69
301.40	1271.79
301.62	1282.03
301.83	1269.74
302.05	1200.11
302.26	1314.80
302.47	1363.95
302.69	1284.08
302.90	1271.79
303.12	1224.69
303.33	1249.26
303.54	1318.89
303.76	1286.12
303.97	1253.36
304.19	1269.74
304.40	1243.12
304.61	1265.64
304.83	1267.69
305.04	1249.26
305.26	1294.32
305.47	1322.99
305.68	1265.64
305.90	1288.17
306.11	1296.36
306.33	1353.71
306.54	1222.64
306.75	1279.98
306.97	1286.12
307.18	1245.16
307.39	1169.39
307.61	1263.60
307.82	1249.26
308.04	1224.69
308.25	1273.84
308.46	1300.46
308.68	1206.25
308.89	1308.65
309.10	1257.45
309.32	1226.73
309.53	1261.55
309.74	1290.22
309.96	1296.36
310.17	1282.03
310.39	1251.31
310.60	1257.45
310.81	1308.65
311.03	1308.65
311.24	1259.50
311.45	1255.40
311.67	1331.18
311.88	1241.07
312.09	1187.82
312.31	1271.79
312.52	1220.59
312.73	1265.64
312.95	1179.63
313.16	1228.78
313.37	1253.36
313.59	1343.47
313.80	1249.26
314.01	1322.99
314.23	1277.93
314.44	1253.36
314.65	1337.32
314.87	1271.79
315.08	1257.45
315.29	1265.64
315.51	1282.03
315.72	1286.12
315.93	1247.21
316.15	1351.66
316.36	1325.04
316.57	1228.78
316.79	1269.74
317.00	1228.78
317.21	1269.74
317.43	1271.79
317.64	1236.97
317.85	1247.21
318.07	1245.16
318.28	1222.64
318.49	1255.40
318.70	1322.99
318.92	1306.60
319.13	1263.60
319.34	1271.79
319.56	1363.95
319.77	1232.88
319.98	1261.55
320.20	1288.17
320.41	1294.32
320.62	1312.75
320.83	1236.97
321.05	1286.12
321.26	1294.32
321.47	1204.21
321.69	1290.22
321.90	1277.93
322.11	1286.12
322.32	1241.07
322.54	1267.69
322.75	1239.02
322.96	1265.64
323.18	1302.51
323.39	1300.46
323.60	1294.32
323.81	1363.95
324.03	1220.59
324.24	1304.56
324.45	1245.16
324.66	1253.36
324.88	1253.36
325.09	1257.45
325.30	1245.16
325.52	1310.70
325.73	1310.70
325.94	1286.12
326.15	1290.22
326.37	1275.88
326.58	1230.83
326.79	1284.08
327.00	1222.64
327.22	1236.97
327.43	1222.64
327.64	1214.45
327.85	1277.93
328.07	1298.41
328.28	1251.31
328.49	1271.79
328.70	1290.22
328.92	1263.60
329.13	1300.46
329.34	1267.69
329.55	1353.71
329.76	1300.46
329.98	1273.84
330.19	1271.79
330.40	1236.97
330.61	1288.17
330.83	1263.60
331.04	1279.98
331.25	1236.97
331.46	1298.41
331.68	1253.36
331.89	1320.94
332.10	1277.93
332.31	1279.98
332.52	1222.64
332.74	1214.45
332.95	1222.64
333.16	1277.93
333.37	1265.64
333.58	1298.41
333.80	1277.93
334.01	1181.68
334.22	1292.27
334.43	1320.94
334.64	1204.21
334.86	1206.25
335.07	1351.66
335.28	1249.26
335.49	1253.36
335.70	1226.73
335.92	1232.88
336.13	1331.18
336.34	1282.03
336.55	1259.50
336.76	1222.64
336.98	1304.56
337.19	1279.98
337.40	1253.36
337.61	1290.22
337.82	1263.60
338.04	1234.93
338.25	1327.08
338.46	1306.60
338.67	1224.69
338.88	1148.91
339.09	1286.12
339.31	1271.79
339.52	1265.64
339.73	1226.73
339.94	1261.55
340.15	1253.36
340.36	1263.60
340.58	1206.25
340.79	1296.36
341.00	1228.78
341.21	1253.36
341.42	1263.60
341.63	1339.37
341.85	1271.79
342.06	1239.02
342.27	1259.50
342.48	1263.60
342.69	1279.98
342.90	1277.93
343.12	1312.75
343.33	1331.18
343.54	1265.64
343.75	1298.41
343.96	1269.74
344.17	1241.07
344.38	1304.56
344.60	1335.28
344.81	1333.23
345.02	1282.03
345.23	1288.17
345.44	1232.88
345.65	1234.93
345.86	1212.40
346.07	1279.98
346.29	1316.84
346.50	1282.03
346.71	1312.75
346.92	1251.31
347.13	1368.04
347.34	1226.73
347.55	1279.98
347.76	1275.88
347.98	1263.60
348.19	1316.84
348.40	1269.74
348.61	1220.59
348.82	1257.45
349.03	1228.78
349.24	1218.54
349.45	1259.50
349.66	1236.97
349.88	1277.93
350.09	1271.79
350.30	1277.93
350.51	1304.56
350.72	1224.69
350.93	1273.84
351.14	1306.60
351.35	1255.40
351.56	1290.22
351.77	1261.55
351.99	1255.40
352.20	1275.88
352.41	1208.30
352.62	1298.41
352.83	1265.64
353.04	1320.94
353.25	1224.69
353.46	1304.56
353.67	1257.45
353.88	1261.55
354.09	1277.93
354.30	1312.75
354.52	1290.22
354.73	1282.03
354.94	1329.13
355.15	1335.28
355.36	1251.31
355.57	1282.03
355.78	1208.30
355.99	1288.17
356.20	1286.12
356.41	1218.54
356.62	1273.84
356.83	1191.92
357.04	1269.74
357.25	1224.69
357.46	1300.46
357.68	1245.16
357.89	1200.11
358.10	1177.58
358.31	1292.27
358.52	1302.51
358.73	1290.22
358.94	1245.16
359.15	1241.07
359.36	1247.21
359.57	1277.93
359.78	1210.35
359.99	1302.51
360.20	1263.60
360.41	1288.17
360.62	1312.75
360.83	1249.26
361.04	1279.98
361.25	1318.89
361.46	1191.92
361.67	1247.21
361.88	1228.78
362.09	1273.84
362.30	1347.56
362.51	1306.60
362.72	1249.26
362.93	1304.56
363.14	1271.79
363.35	1263.60
363.56	1269.74
363.78	1234.93
363.99	1318.89
364.20	1306.60
364.41	1298.41
364.62	1318.89
364.83	1245.16
365.04	1245.16
365.25	1316.84
365.46	1257.45
365.67	1294.32
365.88	1247.21
366.09	1339.37
366.30	1298.41
366.51	1304.56
366.72	1279.98
366.93	1331.18
367.14	1277.93
367.35	1263.60
367.56	1279.98
367.77	1273.84
367.98	1228.78
368.18	1263.60
368.39	1253.36
368.60	1241.07
368.81	1220.59
369.02	1204.21
369.23	1306.60
369.44	1273.84
369.65	1267.69
369.86	1306.60
370.07	1279.98
370.28	1353.71
370.49	1296.36
370.70	1351.66
370.91	1247.21
371.12	1300.46
371.33	1361.90
371.54	1259.50
371.75	1292.27
371.96	1257.45
372.17	1292.27
372.38	1226.73
372.59	1232.88
372.80	1150.96
373.01	1251.31
373.22	1210.35
373.43	1243.12
373.64	1261.55
373.85	1200.11
374.06	1382.38
374.26	1273.84
374.47	1232.88
374.68	1312.75
374.89	1333.23
375.10	1279.98
375.31	1265.64
375.52	1212.40
375.73	1218.54
375.94	1273.84
376.15	1282.03
376.36	1218.54
376.57	1198.06
376.78	1193.97
376.99	1302.51
377.20	1185.77
377.40	1261.55
377.61	1329.13
377.82	1339.37
378.03	1308.65
378.24	1267.69
378.45	1296.36
378.66	1306.60
378.87	1257.45
379.08	1249.26
379.29	1259.50
379.50	1261.55
379.71	1257.45
379.91	1224.69
380.12	1290.22
380.33	1298.41
380.54	1222.64
380.75	1304.56
380.96	1234.93
381.17	1298.41
381.38	1214.45
381.59	1277.93
381.80	1304.56
382.00	1294.32
382.21	1263.60
382.42	1292.27
382.63	1320.94
382.84	1261.55
383.05	1304.56
383.26	1322.99
383.47	1261.55
383.68	1269.74
383.88	1257.45
384.09	1245.16
384.30	1355.76
384.51	1273.84
384.72	1310.70
384.93	1251.31
385.14	1277.93
385.35	1304.56
385.55	1282.03
385.76	1294.32
385.97	1263.60
386.18	1243.12
386.39	1159.15
386.60	1187.82
386.81	1224.69
387.02	1218.54
387.22	1284.08
387.43	1236.97
387.64	1292.27
387.85	1284.08
388.06	1249.26
388.27	1298.41
388.48	1253.36
388.68	1261.55
388.89	1214.45
389.10	1198.06
389.31	1294.32
389.52	1318.89
389.73	1249.26
389.93	1189.87
390.14	1267.69
390.35	1282.03
390.56	1265.64
390.77	1198.06
390.98	1251.31
391.18	1300.46
391.39	1255.40
391.60	1273.84
391.81	1228.78
392.02	1259.50
392.23	1267.69
392.43	1277.93
392.64	1249.26
392.85	1259.50
393.06	1236.97
393.27	1216.49
393.47	1269.74
393.68	1318.89
393.89	1304.56
394.10	1263.60
394.31	1247.21
394.52	1251.31
394.72	1239.02
394.93	1304.56
395.14	1263.60
395.35	1253.36
395.56	1245.16
395.76	1304.56
395.97	1232.88
396.18	1214.45
396.39	1249.26
396.60	1314.80
396.80	1265.64
397.01	1286.12
397.22	1288.17
397.43	1247.21
397.64	1212.40
397.84	1251.31
398.05	1312.75
398.26	1265.64
398.47	1310.70
398.67	1294.32
398.88	1275.88
399.09	1216.49
399.30	1247.21
399.51	1232.88
399.71	1308.65
399.92	1210.35
400.13	1230.83
400.34	1236.97
400.54	1282.03
400.75	1322.99
400.96	1187.82
401.17	1304.56
401.37	1249.26
401.58	1218.54
401.79	1327.08
402.00	1333.23
402.21	1269.74
402.41	1228.78
402.62	1261.55
402.83	1273.84
403.04	1247.21
403.24	1331.18
403.45	1253.36
403.66	1290.22
403.87	1212.40
404.07	1282.03
404.28	1284.08
404.49	1247.21
404.70	1224.69
404.90	1228.78
405.11	1292.27
405.32	1304.56
405.52	1306.60
405.73	1255.40
405.94	1267.69
406.15	1259.50
406.35	1206.25
406.56	1282.03
406.77	1290.22
406.98	1241.07
407.18	1318.89
407.39	1245.16
407.60	1212.40
407.80	1263.60
408.01	1236.97
408.22	1290.22
408.43	1259.50
408.63	1277.93
408.84	1232.88
409.05	1245.16
409.25	1218.54
409.46	1249.26
409.67	1257.45
409.88	1290.22
410.08	1279.98
410.29	1288.17
410.50	1257.45
410.70	1181.68
410.91	1196.01
411.12	1232.88
411.32	1288.17
411.53	1241.07
411.74	1261.55
411.95	1282.03
412.15	1261.55
412.36	1294.32
412.57	1312.75
412.77	1345.52
412.98	1228.78
413.19	1202.16
413.39	1294.32
413.60	1282.03
413.81	1300.46
414.01	1232.88
414.22	1296.36
414.43	1183.73
414.63	1269.74
414.84	1220.59
415.05	1318.89
415.25	1331.18
415.46	1341.42
415.67	1255.40
415.87	1279.98
416.08	1355.76
416.29	1230.83
416.49	1239.02
416.70	1251.31
416.91	1220.59
417.11	1269.74
417.32	1288.17
417.53	1273.84
417.73	1288.17
417.94	1269.74
418.15	1296.36
418.35	1263.60
418.56	1218.54
418.77	1292.27
418.97	1286.12
419.18	1279.98
419.38	1251.31
419.59	1263.60
419.80	1292.27
420.00	1249.26
420.21	1269.74
420.42	1216.49
420.62	1320.94
420.83	1222.64
421.04	1288.17
421.24	1210.35
421.45	1247.21
421.65	1314.80
421.86	1288.17
422.07	1337.32
422.27	1253.36
422.48	1286.12
422.69	1290.22
422.89	1251.31
423.10	1355.76
423.30	1224.69
423.51	1279.98
423.72	1232.88
423.92	1261.55
424.13	1271.79
424.33	1241.07
424.54	1290.22
424.75	1251.31
424.95	1318.89
425.16	1216.49
425.36	1226.73
425.57	1290.22
425.78	1339.37
425.98	1259.50
426.19	1243.12
426.39	1292.27
426.60	1245.16
426.81	1261.55
427.01	1275.88
427.22	1224.69
427.42	1296.36
427.63	1308.65
427.83	1249.26
428.04	1259.50
428.25	1331.18
428.45	1183.73
428.66	1189.87
428.86	1298.41
429.07	1331.18
429.28	1318.89
429.48	1267.69
429.69	1271.79
429.89	1298.41
430.10	1234.93
430.30	1249.26
430.51	1282.03
430.71	1286.12
430.92	1224.69
431.13	1288.17
431.33	1292.27
431.54	1259.50
431.74	1290.22
431.95	1259.50
432.15	1267.69
432.36	1265.64
432.56	1173.49
432.77	1318.89
432.98	1263.60
433.18	1292.27
433.39	1214.45
433.59	1271.79
433.80	1232.88
434.00	1300.46
434.21	1288.17
434.41	1234.93
434.62	1288.17
434.82	1325.04
435.03	1259.50
435.23	1302.51
435.44	1304.56
435.64	1177.58
435.85	1366.00
436.06	1304.56
436.26	1327.08
436.47	1198.06
436.67	1347.56
436.88	1290.22
437.08	1282.03
437.29	1255.40
437.49	1193.97
437.70	1304.56
437.90	1200.11
438.11	1290.22
438.31	1257.45
438.52	1290.22
438.72	1273.84
438.93	1245.16
439.13	1234.93
439.34	1269.74
439.54	1247.21
439.75	1300.46
439.95	1222.64
440.16	1320.94
440.36	1226.73
440.57	1279.98
440.77	1230.83
440.98	1304.56
441.18	1304.56
441.39	1255.40
441.59	1329.13
441.80	1275.88
442.00	1224.69
442.21	1286.12
442.41	1230.83
442.62	1318.89
442.82	1292.27
443.02	1359.85
443.23	1249.26
443.43	1265.64
443.64	1288.17
443.84	1212.40
444.05	1255.40
444.25	1282.03
444.46	1306.60
444.66	1306.60
444.87	1282.03
445.07	1300.46
445.28	1327.08
445.48	1247.21
445.69	1249.26
445.89	1351.66
446.09	1288.17
446.30	1275.88
446.50	1196.01
446.71	1284.08
446.91	1265.64
447.12	1187.82
447.32	1335.28
447.53	1255.40
447.73	1271.79
447.93	1224.69
448.14	1267.69
448.34	1388.52
448.55	1275.88
448.75	1316.84
448.96	1341.42
449.16	1251.31
449.36	1245.16
449.57	1308.65
449.77	1196.01
449.98	1329.13
450.18	1236.97
450.39	1312.75
450.59	1288.17
450.79	1296.36
451.00	1302.51
451.20	1292.27
451.41	1275.88
451.61	1267.69
451.81	1339.37
452.02	1245.16
452.22	1251.31
452.43	1257.45
452.63	1251.31
