SpectraSuite Data File
++++++++++++++++++++++++++++++++++++
Date: Sun Apr 03 19:55:31 CEST 2016
User: root
Dark Spectrum Present: No
Reference Spectrum Present: No
Number of Sampled Component Spectra: 1
Spectrometers: USB4C02835
Integration Time (usec): 10000 (USB4C02835)
Spectra Averaged: 1 (USB4C02835)
Boxcar Smoothing: 0 (USB4C02835)
Correct for Electrical Dark: No (USB4C02835)
Strobe/Lamp Enabled: No (USB4C02835)
Correct for Detector Non-linearity: No (USB4C02835)
Correct for Stray Light: No (USB4C02835)
Number of Pixels in Processed Spectrum: 3648
>>>>>Begin Processed Spectral Data<<<<<
177.47	1267.69
177.69	1267.69
177.91	1267.69
178.13	1366.00
178.36	1255.40
178.58	1212.40
178.80	1216.49
179.02	1361.90
179.24	1269.74
179.46	1341.42
179.68	1294.32
179.90	1241.07
180.13	1282.03
180.35	1198.06
180.57	1277.93
180.79	1185.77
181.01	1202.16
181.23	1277.93
181.45	1228.78
181.67	1271.79
181.90	1302.51
182.12	1286.12
182.34	1261.55
182.56	1249.26
182.78	1282.03
183.00	1241.07
183.22	1193.97
183.44	1241.07
183.66	1279.98
183.89	1312.75
184.11	1314.80
184.33	1220.59
184.55	1255.40
184.77	1286.12
184.99	1255.40
185.21	1255.40
185.43	1271.79
185.65	1220.59
185.87	1245.16
186.10	1226.73
186.32	1228.78
186.54	1302.51
186.76	1314.80
186.98	1275.88
187.20	1279.98
187.42	1212.40
187.64	1263.60
187.86	1212.40
188.08	1304.56
188.30	1259.50
188.52	1314.80
188.75	1183.73
188.97	1236.97
189.19	1269.74
189.41	1210.35
189.63	1310.70
189.85	1239.02
190.07	1232.88
190.29	1269.74
190.51	1279.98
190.73	1273.84
190.95	1243.12
191.17	1310.70
191.39	1206.25
191.61	1327.08
191.84	1351.66
192.06	1212.40
192.28	1361.90
192.50	1263.60
192.72	1310.70
192.94	1267.69
193.16	1269.74
193.38	1236.97
193.60	1255.40
193.82	1196.01
194.04	1335.28
194.26	1347.56
194.48	1255.40
194.70	1275.88
194.92	1204.21
195.14	1261.55
195.36	1282.03
195.58	1251.31
195.80	1277.93
196.02	1220.59
196.24	1288.17
196.46	1288.17
196.69	1290.22
196.91	1241.07
197.13	1271.79
197.35	1288.17
197.57	1239.02
197.79	1282.03
198.01	1292.27
198.23	1288.17
198.45	1300.46
198.67	1198.06
198.89	1329.13
199.11	1228.78
199.33	1232.88
199.55	1255.40
199.77	1316.84
199.99	1241.07
200.21	1247.21
200.43	1279.98
200.65	1193.97
200.87	1271.79
201.09	1269.74
201.31	1243.12
201.53	1255.40
201.75	1269.74
201.97	1277.93
202.19	1286.12
202.41	1226.73
202.63	1265.64
202.85	1368.04
203.07	1290.22
203.29	1216.49
203.51	1273.84
203.73	1290.22
203.95	1279.98
204.17	1226.73
204.39	1286.12
204.61	1339.37
204.83	1224.69
205.05	1257.45
205.27	1353.71
205.49	1255.40
205.71	1210.35
205.93	1284.08
206.15	1271.79
206.37	1222.64
206.59	1247.21
206.81	1255.40
207.03	1220.59
207.25	1269.74
207.47	1298.41
207.69	1212.40
207.91	1333.23
208.13	1314.80
208.34	1247.21
208.56	1339.37
208.78	1292.27
209.00	1279.98
209.22	1222.64
209.44	1273.84
209.66	1294.32
209.88	1232.88
210.10	1247.21
210.32	1253.36
210.54	1275.88
210.76	1335.28
210.98	1308.65
211.20	1224.69
211.42	1255.40
211.64	1347.56
211.86	1261.55
212.08	1263.60
212.30	1226.73
212.52	1275.88
212.74	1329.13
212.96	1261.55
213.17	1277.93
213.39	1257.45
213.61	1267.69
213.83	1247.21
214.05	1265.64
214.27	1294.32
214.49	1298.41
214.71	1210.35
214.93	1189.87
215.15	1273.84
215.37	1267.69
215.59	1253.36
215.81	1224.69
216.03	1255.40
216.24	1282.03
216.46	1218.54
216.68	1322.99
216.90	1224.69
217.12	1251.31
217.34	1292.27
217.56	1220.59
217.78	1339.37
218.00	1255.40
218.22	1239.02
218.44	1239.02
218.66	1282.03
218.87	1308.65
219.09	1261.55
219.31	1263.60
219.53	1169.39
219.75	1316.84
219.97	1288.17
220.19	1255.40
220.41	1249.26
220.63	1218.54
220.85	1359.85
221.06	1273.84
221.28	1251.31
221.50	1279.98
221.72	1314.80
221.94	1279.98
222.16	1241.07
222.38	1249.26
222.60	1187.82
222.82	1349.61
223.03	1249.26
223.25	1290.22
223.47	1294.32
223.69	1249.26
223.91	1257.45
224.13	1177.58
224.35	1282.03
224.57	1179.63
224.78	1263.60
225.00	1200.11
225.22	1216.49
225.44	1292.27
225.66	1198.06
225.88	1263.60
226.10	1259.50
226.32	1267.69
226.53	1286.12
226.75	1284.08
226.97	1239.02
227.19	1282.03
227.41	1372.14
227.63	1277.93
227.85	1316.84
228.06	1255.40
228.28	1216.49
228.50	1298.41
228.72	1296.36
228.94	1253.36
229.16	1275.88
229.37	1257.45
229.59	1296.36
229.81	1294.32
230.03	1288.17
230.25	1265.64
230.47	1279.98
230.69	1304.56
230.90	1294.32
231.12	1298.41
231.34	1257.45
231.56	1327.08
231.78	1241.07
232.00	1271.79
232.21	1298.41
232.43	1265.64
232.65	1335.28
232.87	1236.97
233.09	1265.64
233.30	1267.69
233.52	1335.28
233.74	1273.84
233.96	1249.26
234.18	1296.36
234.40	1257.45
234.61	1257.45
234.83	1198.06
235.05	1243.12
235.27	1206.25
235.49	1222.64
235.70	1296.36
235.92	1318.89
236.14	1220.59
236.36	1230.83
236.58	1269.74
236.79	1316.84
237.01	1343.47
237.23	1306.60
237.45	1322.99
237.67	1296.36
237.88	1298.41
238.10	1261.55
238.32	1222.64
238.54	1282.03
238.76	1300.46
238.97	1251.31
239.19	1277.93
239.41	1269.74
239.63	1241.07
239.85	1298.41
240.06	1243.12
240.28	1261.55
240.50	1222.64
240.72	1333.23
240.93	1271.79
241.15	1265.64
241.37	1255.40
241.59	1247.21
241.81	1230.83
242.02	1314.80
242.24	1230.83
242.46	1261.55
242.68	1239.02
242.89	1261.55
243.11	1241.07
243.33	1220.59
243.55	1212.40
243.76	1269.74
243.98	1271.79
244.20	1241.07
244.42	1251.31
244.64	1198.06
244.85	1308.65
245.07	1251.31
245.29	1232.88
245.51	1232.88
245.72	1316.84
245.94	1296.36
246.16	1249.26
246.38	1269.74
246.59	1198.06
246.81	1241.07
247.03	1345.52
247.24	1198.06
247.46	1277.93
247.68	1294.32
247.90	1253.36
248.11	1236.97
248.33	1222.64
248.55	1312.75
248.77	1263.60
248.98	1329.13
249.20	1298.41
249.42	1320.94
249.64	1228.78
249.85	1241.07
250.07	1263.60
250.29	1288.17
250.50	1230.83
250.72	1271.79
250.94	1306.60
251.16	1255.40
251.37	1284.08
251.59	1318.89
251.81	1253.36
252.02	1271.79
252.24	1224.69
252.46	1298.41
252.68	1292.27
252.89	1351.66
253.11	1288.17
253.33	1263.60
253.54	1224.69
253.76	1261.55
253.98	1314.80
254.20	1279.98
254.41	1269.74
254.63	1224.69
254.85	1212.40
255.06	1273.84
255.28	1265.64
255.50	1273.84
255.71	1247.21
255.93	1267.69
256.15	1314.80
256.36	1296.36
256.58	1310.70
256.80	1304.56
257.02	1241.07
257.23	1316.84
257.45	1302.51
257.67	1331.18
257.88	1204.21
258.10	1214.45
258.32	1214.45
258.53	1269.74
258.75	1279.98
258.97	1314.80
259.18	1282.03
259.40	1261.55
259.62	1286.12
259.83	1306.60
260.05	1261.55
260.27	1282.03
260.48	1208.30
260.70	1296.36
260.92	1290.22
261.13	1300.46
261.35	1322.99
261.57	1337.32
261.78	1284.08
262.00	1249.26
262.22	1257.45
262.43	1277.93
262.65	1284.08
262.86	1290.22
263.08	1206.25
263.30	1253.36
263.51	1243.12
263.73	1212.40
263.95	1310.70
264.16	1234.93
264.38	1300.46
264.60	1275.88
264.81	1249.26
265.03	1253.36
265.25	1236.97
265.46	1294.32
265.68	1191.92
265.89	1306.60
266.11	1279.98
266.33	1181.68
266.54	1294.32
266.76	1261.55
266.98	1282.03
267.19	1241.07
267.41	1304.56
267.62	1300.46
267.84	1239.02
268.06	1361.90
268.27	1282.03
268.49	1355.76
268.70	1304.56
268.92	1347.56
269.14	1277.93
269.35	1353.71
269.57	1298.41
269.79	1245.16
270.00	1304.56
270.22	1286.12
270.43	1247.21
270.65	1220.59
270.87	1304.56
271.08	1327.08
271.30	1320.94
271.51	1236.97
271.73	1265.64
271.95	1316.84
272.16	1214.45
272.38	1202.16
272.59	1247.21
272.81	1181.68
273.02	1312.75
273.24	1273.84
273.46	1343.47
273.67	1320.94
273.89	1247.21
274.10	1245.16
274.32	1347.56
274.54	1271.79
274.75	1337.32
274.97	1243.12
275.18	1214.45
275.40	1224.69
275.61	1296.36
275.83	1265.64
276.05	1318.89
276.26	1279.98
276.48	1269.74
276.69	1265.64
276.91	1222.64
277.12	1271.79
277.34	1249.26
277.55	1153.01
277.77	1222.64
277.99	1310.70
278.20	1239.02
278.42	1234.93
278.63	1263.60
278.85	1282.03
279.06	1286.12
279.28	1265.64
279.49	1271.79
279.71	1306.60
279.93	1279.98
280.14	1265.64
280.36	1204.21
280.57	1251.31
280.79	1320.94
281.00	1271.79
281.22	1247.21
281.43	1224.69
281.65	1214.45
281.86	1251.31
282.08	1288.17
282.29	1282.03
282.51	1286.12
282.73	1253.36
282.94	1363.95
283.16	1290.22
283.37	1236.97
283.59	1316.84
283.80	1245.16
284.02	1249.26
284.23	1273.84
284.45	1232.88
284.66	1308.65
284.88	1236.97
285.09	1327.08
285.31	1253.36
285.52	1296.36
285.74	1247.21
285.95	1251.31
286.17	1265.64
286.38	1261.55
286.60	1357.80
286.81	1284.08
287.03	1265.64
287.24	1273.84
287.46	1245.16
287.67	1239.02
287.89	1263.60
288.10	1267.69
288.32	1322.99
288.53	1302.51
288.75	1310.70
288.96	1249.26
289.18	1288.17
289.39	1269.74
289.61	1271.79
289.82	1269.74
290.04	1239.02
290.25	1277.93
290.47	1294.32
290.68	1316.84
290.90	1261.55
291.11	1234.93
291.33	1279.98
291.54	1245.16
291.76	1243.12
291.97	1320.94
292.18	1304.56
292.40	1236.97
292.61	1312.75
292.83	1318.89
293.04	1230.83
293.26	1249.26
293.47	1226.73
293.69	1214.45
293.90	1339.37
294.12	1230.83
294.33	1216.49
294.55	1228.78
294.76	1279.98
294.97	1236.97
295.19	1245.16
295.40	1204.21
295.62	1282.03
295.83	1257.45
296.05	1210.35
296.26	1175.53
296.48	1304.56
296.69	1239.02
296.90	1298.41
297.12	1255.40
297.33	1304.56
297.55	1261.55
297.76	1322.99
297.98	1247.21
298.19	1265.64
298.41	1279.98
298.62	1290.22
298.83	1224.69
299.05	1316.84
299.26	1183.73
299.48	1220.59
299.69	1253.36
299.90	1239.02
300.12	1279.98
300.33	1322.99
300.55	1255.40
300.76	1230.83
300.98	1255.40
301.19	1282.03
301.40	1271.79
301.62	1312.75
301.83	1257.45
302.05	1271.79
302.26	1228.78
302.47	1257.45
302.69	1335.28
302.90	1294.32
303.12	1241.07
303.33	1306.60
303.54	1304.56
303.76	1253.36
303.97	1267.69
304.19	1300.46
304.40	1230.83
304.61	1331.18
304.83	1302.51
305.04	1257.45
305.26	1224.69
305.47	1273.84
305.68	1296.36
305.90	1214.45
306.11	1302.51
306.33	1255.40
306.54	1241.07
306.75	1265.64
306.97	1204.21
307.18	1239.02
307.39	1263.60
307.61	1320.94
307.82	1212.40
308.04	1320.94
308.25	1325.04
308.46	1345.52
308.68	1265.64
308.89	1329.13
309.10	1331.18
309.32	1261.55
309.53	1249.26
309.74	1232.88
309.96	1261.55
310.17	1261.55
310.39	1288.17
310.60	1286.12
310.81	1284.08
311.03	1290.22
311.24	1304.56
311.45	1372.14
311.67	1312.75
311.88	1271.79
312.09	1265.64
312.31	1294.32
312.52	1249.26
312.73	1296.36
312.95	1286.12
313.16	1198.06
313.37	1232.88
313.59	1300.46
313.80	1275.88
314.01	1255.40
314.23	1304.56
314.44	1359.85
314.65	1249.26
314.87	1249.26
315.08	1302.51
315.29	1269.74
315.51	1298.41
315.72	1267.69
315.93	1220.59
316.15	1275.88
316.36	1282.03
316.57	1228.78
316.79	1277.93
317.00	1236.97
317.21	1294.32
317.43	1308.65
317.64	1284.08
317.85	1222.64
318.07	1277.93
318.28	1243.12
318.49	1212.40
318.70	1265.64
318.92	1245.16
319.13	1314.80
319.34	1343.47
319.56	1308.65
319.77	1279.98
319.98	1261.55
320.20	1206.25
320.41	1273.84
320.62	1282.03
320.83	1239.02
321.05	1253.36
321.26	1304.56
321.47	1271.79
321.69	1327.08
321.90	1263.60
322.11	1218.54
322.32	1308.65
322.54	1271.79
322.75	1222.64
322.96	1292.27
323.18	1273.84
323.39	1304.56
323.60	1228.78
323.81	1265.64
324.03	1253.36
324.24	1306.60
324.45	1294.32
324.66	1304.56
324.88	1216.49
325.09	1302.51
325.30	1243.12
325.52	1322.99
325.73	1269.74
325.94	1343.47
326.15	1296.36
326.37	1300.46
326.58	1296.36
326.79	1286.12
327.00	1282.03
327.22	1347.56
327.43	1228.78
327.64	1241.07
327.85	1343.47
328.07	1236.97
328.28	1294.32
328.49	1218.54
328.70	1216.49
328.92	1267.69
329.13	1292.27
329.34	1241.07
329.55	1265.64
329.76	1247.21
329.98	1259.50
330.19	1232.88
330.40	1306.60
330.61	1265.64
330.83	1277.93
331.04	1300.46
331.25	1308.65
331.46	1241.07
331.68	1296.36
331.89	1241.07
332.10	1329.13
332.31	1286.12
332.52	1304.56
332.74	1273.84
332.95	1269.74
333.16	1314.80
333.37	1247.21
333.58	1302.51
333.80	1239.02
334.01	1236.97
334.22	1331.18
334.43	1243.12
334.64	1230.83
334.86	1296.36
335.07	1208.30
335.28	1253.36
335.49	1286.12
335.70	1286.12
335.92	1277.93
336.13	1337.32
336.34	1273.84
336.55	1290.22
336.76	1286.12
336.98	1322.99
337.19	1214.45
337.40	1232.88
337.61	1259.50
337.82	1265.64
338.04	1167.34
338.25	1302.51
338.46	1261.55
338.67	1374.19
338.88	1204.21
339.09	1243.12
339.31	1189.87
339.52	1222.64
339.73	1277.93
339.94	1290.22
340.15	1290.22
340.36	1284.08
340.58	1234.93
340.79	1222.64
341.00	1222.64
341.21	1249.26
341.42	1279.98
341.63	1247.21
341.85	1210.35
342.06	1232.88
342.27	1333.23
342.48	1271.79
342.69	1214.45
342.90	1316.84
343.12	1314.80
343.33	1267.69
343.54	1312.75
343.75	1273.84
343.96	1228.78
344.17	1292.27
344.38	1220.59
344.60	1181.68
344.81	1232.88
345.02	1222.64
345.23	1310.70
345.44	1298.41
345.65	1304.56
345.86	1318.89
346.07	1265.64
346.29	1193.97
346.50	1306.60
346.71	1239.02
346.92	1333.23
347.13	1273.84
347.34	1218.54
347.55	1239.02
347.76	1275.88
347.98	1259.50
348.19	1202.16
348.40	1236.97
348.61	1261.55
348.82	1269.74
349.03	1279.98
349.24	1245.16
349.45	1304.56
349.66	1302.51
349.88	1288.17
350.09	1277.93
350.30	1257.45
350.51	1257.45
350.72	1226.73
350.93	1255.40
351.14	1306.60
351.35	1300.46
351.56	1353.71
351.77	1337.32
351.99	1241.07
352.20	1277.93
352.41	1279.98
352.62	1222.64
352.83	1304.56
353.04	1288.17
353.25	1306.60
353.46	1265.64
353.67	1275.88
353.88	1204.21
354.09	1216.49
354.30	1220.59
354.52	1245.16
354.73	1296.36
354.94	1224.69
355.15	1243.12
355.36	1261.55
355.57	1322.99
355.78	1279.98
355.99	1263.60
356.20	1269.74
356.41	1263.60
356.62	1273.84
356.83	1222.64
357.04	1265.64
357.25	1251.31
357.46	1322.99
357.68	1267.69
357.89	1279.98
358.10	1210.35
358.31	1327.08
358.52	1249.26
358.73	1296.36
358.94	1345.52
359.15	1275.88
359.36	1296.36
359.57	1265.64
359.78	1279.98
359.99	1198.06
360.20	1286.12
360.41	1304.56
360.62	1290.22
360.83	1265.64
361.04	1273.84
361.25	1269.74
361.46	1206.25
361.67	1302.51
361.88	1206.25
362.09	1220.59
362.30	1216.49
362.51	1224.69
362.72	1185.77
362.93	1255.40
363.14	1279.98
363.35	1259.50
363.56	1259.50
363.78	1273.84
363.99	1314.80
364.20	1292.27
364.41	1255.40
364.62	1273.84
364.83	1275.88
365.04	1288.17
365.25	1261.55
365.46	1263.60
365.67	1175.53
365.88	1265.64
366.09	1269.74
366.30	1318.89
366.51	1243.12
366.72	1261.55
366.93	1239.02
367.14	1243.12
367.35	1322.99
367.56	1259.50
367.77	1318.89
367.98	1296.36
368.18	1253.36
368.39	1263.60
368.60	1234.93
368.81	1277.93
369.02	1282.03
369.23	1255.40
369.44	1232.88
369.65	1241.07
369.86	1241.07
370.07	1234.93
370.28	1308.65
370.49	1267.69
370.70	1300.46
370.91	1304.56
371.12	1269.74
371.33	1232.88
371.54	1212.40
371.75	1241.07
371.96	1255.40
372.17	1228.78
372.38	1204.21
372.59	1236.97
372.80	1304.56
373.01	1247.21
373.22	1277.93
373.43	1257.45
373.64	1191.92
373.85	1298.41
374.06	1275.88
374.26	1282.03
374.47	1277.93
374.68	1308.65
374.89	1243.12
375.10	1253.36
375.31	1302.51
375.52	1277.93
375.73	1214.45
375.94	1284.08
376.15	1302.51
376.36	1273.84
376.57	1349.61
376.78	1263.60
376.99	1275.88
377.20	1302.51
377.40	1271.79
377.61	1286.12
377.82	1247.21
378.03	1251.31
378.24	1306.60
378.45	1177.58
378.66	1322.99
378.87	1216.49
379.08	1169.39
379.29	1239.02
379.50	1335.28
379.71	1218.54
379.91	1257.45
380.12	1243.12
380.33	1353.71
380.54	1226.73
380.75	1224.69
380.96	1282.03
381.17	1298.41
381.38	1310.70
381.59	1249.26
381.80	1300.46
382.00	1193.97
382.21	1179.63
382.42	1189.87
382.63	1273.84
382.84	1255.40
383.05	1314.80
383.26	1206.25
383.47	1302.51
383.68	1249.26
383.88	1273.84
384.09	1333.23
384.30	1294.32
384.51	1263.60
384.72	1271.79
384.93	1263.60
385.14	1267.69
385.35	1322.99
385.55	1257.45
385.76	1218.54
385.97	1335.28
386.18	1222.64
386.39	1198.06
386.60	1263.60
386.81	1263.60
387.02	1318.89
387.22	1202.16
387.43	1302.51
387.64	1308.65
387.85	1279.98
388.06	1259.50
388.27	1257.45
388.48	1234.93
388.68	1257.45
388.89	1263.60
389.10	1220.59
389.31	1267.69
389.52	1224.69
389.73	1298.41
389.93	1312.75
390.14	1347.56
390.35	1163.25
390.56	1351.66
390.77	1247.21
390.98	1271.79
391.18	1286.12
391.39	1208.30
391.60	1306.60
391.81	1155.05
392.02	1216.49
392.23	1349.61
392.43	1261.55
392.64	1259.50
392.85	1241.07
393.06	1279.98
393.27	1267.69
393.47	1228.78
393.68	1263.60
393.89	1308.65
394.10	1327.08
394.31	1282.03
394.52	1263.60
394.72	1273.84
394.93	1259.50
395.14	1257.45
395.35	1220.59
395.56	1247.21
395.76	1251.31
395.97	1294.32
396.18	1208.30
396.39	1214.45
396.60	1198.06
396.80	1284.08
397.01	1277.93
397.22	1214.45
397.43	1271.79
397.64	1329.13
397.84	1249.26
398.05	1218.54
398.26	1261.55
398.47	1271.79
398.67	1218.54
398.88	1232.88
399.09	1277.93
399.30	1275.88
399.51	1312.75
399.71	1185.77
399.92	1222.64
400.13	1345.52
400.34	1282.03
400.54	1263.60
400.75	1257.45
400.96	1189.87
401.17	1304.56
401.37	1318.89
401.58	1265.64
401.79	1302.51
402.00	1286.12
402.21	1239.02
402.41	1161.20
402.62	1253.36
402.83	1296.36
403.04	1253.36
403.24	1279.98
403.45	1320.94
403.66	1214.45
403.87	1261.55
404.07	1196.01
404.28	1282.03
404.49	1294.32
404.70	1220.59
404.90	1261.55
405.11	1269.74
405.32	1216.49
405.52	1150.96
405.73	1308.65
405.94	1224.69
406.15	1284.08
406.35	1275.88
406.56	1290.22
406.77	1261.55
406.98	1259.50
407.18	1241.07
407.39	1226.73
407.60	1222.64
407.80	1239.02
408.01	1257.45
408.22	1282.03
408.43	1218.54
408.63	1259.50
408.84	1241.07
409.05	1249.26
409.25	1267.69
409.46	1261.55
409.67	1275.88
409.88	1255.40
410.08	1214.45
410.29	1290.22
410.50	1273.84
410.70	1304.56
410.91	1273.84
411.12	1339.37
411.32	1212.40
411.53	1302.51
411.74	1251.31
411.95	1290.22
412.15	1316.84
412.36	1259.50
412.57	1288.17
412.77	1236.97
412.98	1267.69
413.19	1265.64
413.39	1249.26
413.60	1284.08
413.81	1310.70
414.01	1251.31
414.22	1257.45
414.43	1224.69
414.63	1222.64
414.84	1232.88
415.05	1236.97
415.25	1279.98
415.46	1265.64
415.67	1322.99
415.87	1257.45
416.08	1196.01
416.29	1294.32
416.49	1232.88
416.70	1222.64
416.91	1261.55
417.11	1249.26
417.32	1284.08
417.53	1220.59
417.73	1282.03
417.94	1216.49
418.15	1224.69
418.35	1161.20
418.56	1290.22
418.77	1249.26
418.97	1241.07
419.18	1263.60
419.38	1306.60
419.59	1249.26
419.80	1263.60
420.00	1261.55
420.21	1232.88
420.42	1245.16
420.62	1257.45
420.83	1306.60
421.04	1251.31
421.24	1300.46
421.45	1249.26
421.65	1245.16
421.86	1224.69
422.07	1368.04
422.27	1302.51
422.48	1343.47
422.69	1277.93
422.89	1277.93
423.10	1286.12
423.30	1284.08
423.51	1296.36
423.72	1318.89
423.92	1249.26
424.13	1236.97
424.33	1290.22
424.54	1236.97
424.75	1265.64
424.95	1300.46
425.16	1290.22
425.36	1302.51
425.57	1290.22
425.78	1239.02
425.98	1171.44
426.19	1181.68
426.39	1255.40
426.60	1271.79
426.81	1234.93
427.01	1247.21
427.22	1298.41
427.42	1222.64
427.63	1282.03
427.83	1300.46
428.04	1310.70
428.25	1265.64
428.45	1288.17
428.66	1253.36
428.86	1292.27
429.07	1279.98
429.28	1296.36
429.48	1181.68
429.69	1232.88
429.89	1269.74
430.10	1257.45
430.30	1310.70
430.51	1198.06
430.71	1314.80
430.92	1292.27
431.13	1339.37
431.33	1296.36
431.54	1251.31
431.74	1302.51
431.95	1296.36
432.15	1269.74
432.36	1277.93
432.56	1232.88
432.77	1232.88
432.98	1273.84
433.18	1290.22
433.39	1282.03
433.59	1275.88
433.80	1251.31
434.00	1294.32
434.21	1302.51
434.41	1318.89
434.62	1288.17
434.82	1214.45
435.03	1271.79
435.23	1247.21
435.44	1253.36
435.64	1271.79
435.85	1277.93
436.06	1259.50
436.26	1257.45
436.47	1255.40
436.67	1277.93
436.88	1300.46
437.08	1245.16
437.29	1251.31
437.49	1322.99
437.70	1245.16
437.90	1300.46
438.11	1279.98
438.31	1279.98
438.52	1193.97
438.72	1259.50
438.93	1302.51
439.13	1294.32
439.34	1275.88
439.54	1275.88
439.75	1312.75
439.95	1318.89
440.16	1286.12
440.36	1312.75
440.57	1288.17
440.77	1245.16
440.98	1302.51
441.18	1279.98
441.39	1277.93
441.59	1257.45
441.80	1296.36
442.00	1316.84
442.21	1247.21
442.41	1255.40
442.62	1290.22
442.82	1239.02
443.02	1290.22
443.23	1204.21
443.43	1269.74
443.64	1259.50
443.84	1261.55
444.05	1312.75
444.25	1322.99
444.46	1212.40
444.66	1335.28
444.87	1294.32
445.07	1255.40
445.28	1314.80
445.48	1282.03
445.69	1298.41
445.89	1279.98
446.09	1251.31
446.30	1335.28
446.50	1273.84
446.71	1247.21
446.91	1269.74
447.12	1284.08
447.32	1255.40
447.53	1284.08
447.73	1263.60
447.93	1249.26
448.14	1206.25
448.34	1261.55
448.55	1310.70
448.75	1253.36
448.96	1335.28
449.16	1282.03
449.36	1259.50
449.57	1232.88
449.77	1253.36
449.98	1249.26
450.18	1304.56
450.39	1271.79
450.59	1247.21
450.79	1357.80
451.00	1282.03
451.20	1339.37
451.41	1296.36
451.61	1224.69
451.81	1224.69
452.02	1316.84
452.22	1269.74
452.43	1259.50
452.63	1294.32
