SpectraSuite Data File
++++++++++++++++++++++++++++++++++++
Date: Sun Apr 03 19:55:38 CEST 2016
User: root
Dark Spectrum Present: No
Reference Spectrum Present: No
Number of Sampled Component Spectra: 1
Spectrometers: USB4C02835
Integration Time (usec): 10000 (USB4C02835)
Spectra Averaged: 1 (USB4C02835)
Boxcar Smoothing: 0 (USB4C02835)
Correct for Electrical Dark: No (USB4C02835)
Strobe/Lamp Enabled: No (USB4C02835)
Correct for Detector Non-linearity: No (USB4C02835)
Correct for Stray Light: No (USB4C02835)
Number of Pixels in Processed Spectrum: 3648
>>>>>Begin Processed Spectral Data<<<<<
177.47	1218.54
177.69	1218.54
177.91	1218.54
178.13	1304.56
178.36	1277.93
178.58	1226.73
178.80	1298.41
179.02	1269.74
179.24	1267.69
179.46	1241.07
179.68	1204.21
179.90	1224.69
180.13	1218.54
180.35	1308.65
180.57	1263.60
180.79	1257.45
181.01	1279.98
181.23	1245.16
181.45	1275.88
181.67	1320.94
181.90	1279.98
182.12	1228.78
182.34	1277.93
182.56	1337.32
182.78	1318.89
183.00	1148.91
183.22	1335.28
183.44	1224.69
183.66	1273.84
183.89	1228.78
184.11	1236.97
184.33	1202.16
184.55	1255.40
184.77	1296.36
184.99	1304.56
185.21	1277.93
185.43	1282.03
185.65	1337.32
185.87	1306.60
186.10	1265.64
186.32	1255.40
186.54	1265.64
186.76	1282.03
186.98	1210.35
187.20	1239.02
187.42	1296.36
187.64	1304.56
187.86	1218.54
188.08	1259.50
188.30	1273.84
188.52	1339.37
188.75	1290.22
188.97	1232.88
189.19	1277.93
189.41	1214.45
189.63	1239.02
189.85	1265.64
190.07	1282.03
190.29	1314.80
190.51	1261.55
190.73	1183.73
190.95	1306.60
191.17	1292.27
191.39	1273.84
191.61	1247.21
191.84	1312.75
192.06	1232.88
192.28	1239.02
192.50	1263.60
192.72	1308.65
192.94	1236.97
193.16	1239.02
193.38	1236.97
193.60	1259.50
193.82	1349.61
194.04	1226.73
194.26	1241.07
194.48	1226.73
194.70	1296.36
194.92	1200.11
195.14	1275.88
195.36	1327.08
195.58	1306.60
195.80	1202.16
196.02	1263.60
196.24	1255.40
196.46	1302.51
196.69	1224.69
196.91	1318.89
197.13	1239.02
197.35	1277.93
197.57	1226.73
197.79	1271.79
198.01	1265.64
198.23	1228.78
198.45	1222.64
198.67	1288.17
198.89	1298.41
199.11	1292.27
199.33	1273.84
199.55	1228.78
199.77	1282.03
199.99	1247.21
200.21	1206.25
200.43	1286.12
200.65	1298.41
200.87	1302.51
201.09	1310.70
201.31	1296.36
201.53	1269.74
201.75	1306.60
201.97	1370.09
202.19	1314.80
202.41	1189.87
202.63	1261.55
202.85	1228.78
203.07	1331.18
203.29	1279.98
203.51	1198.06
203.73	1241.07
203.95	1269.74
204.17	1257.45
204.39	1265.64
204.61	1263.60
204.83	1292.27
205.05	1191.92
205.27	1224.69
205.49	1302.51
205.71	1224.69
205.93	1232.88
206.15	1273.84
206.37	1196.01
206.59	1239.02
206.81	1234.93
207.03	1226.73
207.25	1277.93
207.47	1282.03
207.69	1257.45
207.91	1257.45
208.13	1249.26
208.34	1302.51
208.56	1284.08
208.78	1259.50
209.00	1212.40
209.22	1282.03
209.44	1224.69
209.66	1234.93
209.88	1322.99
210.10	1290.22
210.32	1345.52
210.54	1234.93
210.76	1202.16
210.98	1314.80
211.20	1249.26
211.42	1306.60
211.64	1241.07
211.86	1286.12
212.08	1228.78
212.30	1284.08
212.52	1296.36
212.74	1212.40
212.96	1279.98
213.17	1310.70
213.39	1335.28
213.61	1234.93
213.83	1249.26
214.05	1257.45
214.27	1257.45
214.49	1286.12
214.71	1265.64
214.93	1308.65
215.15	1251.31
215.37	1286.12
215.59	1263.60
215.81	1241.07
216.03	1335.28
216.24	1265.64
216.46	1234.93
216.68	1279.98
216.90	1284.08
217.12	1212.40
217.34	1234.93
217.56	1265.64
217.78	1282.03
218.00	1183.73
218.22	1322.99
218.44	1275.88
218.66	1298.41
218.87	1243.12
219.09	1286.12
219.31	1325.04
219.53	1224.69
219.75	1216.49
219.97	1224.69
220.19	1236.97
220.41	1312.75
220.63	1300.46
220.85	1298.41
221.06	1263.60
221.28	1345.52
221.50	1257.45
221.72	1296.36
221.94	1288.17
222.16	1312.75
222.38	1298.41
222.60	1243.12
222.82	1193.97
223.03	1288.17
223.25	1290.22
223.47	1279.98
223.69	1249.26
223.91	1247.21
224.13	1320.94
224.35	1322.99
224.57	1167.34
224.78	1247.21
225.00	1370.09
225.22	1257.45
225.44	1376.24
225.66	1249.26
225.88	1243.12
226.10	1234.93
226.32	1247.21
226.53	1257.45
226.75	1253.36
226.97	1316.84
227.19	1273.84
227.41	1257.45
227.63	1312.75
227.85	1251.31
228.06	1327.08
228.28	1331.18
228.50	1329.13
228.72	1245.16
228.94	1300.46
229.16	1222.64
229.37	1279.98
229.59	1300.46
229.81	1263.60
230.03	1257.45
230.25	1210.35
230.47	1308.65
230.69	1343.47
230.90	1269.74
231.12	1206.25
231.34	1239.02
231.56	1327.08
231.78	1261.55
232.00	1263.60
232.21	1294.32
232.43	1265.64
232.65	1255.40
232.87	1243.12
233.09	1251.31
233.30	1212.40
233.52	1257.45
233.74	1288.17
233.96	1296.36
234.18	1279.98
234.40	1261.55
234.61	1259.50
234.83	1239.02
235.05	1290.22
235.27	1259.50
235.49	1183.73
235.70	1282.03
235.92	1284.08
236.14	1236.97
236.36	1265.64
236.58	1296.36
236.79	1179.63
237.01	1318.89
237.23	1282.03
237.45	1228.78
237.67	1265.64
237.88	1306.60
238.10	1255.40
238.32	1247.21
238.54	1253.36
238.76	1249.26
238.97	1255.40
239.19	1298.41
239.41	1261.55
239.63	1288.17
239.85	1183.73
240.06	1308.65
240.28	1333.23
240.50	1257.45
240.72	1263.60
240.93	1282.03
241.15	1239.02
241.37	1234.93
241.59	1310.70
241.81	1259.50
242.02	1249.26
242.24	1320.94
242.46	1255.40
242.68	1263.60
242.89	1241.07
243.11	1263.60
243.33	1247.21
243.55	1318.89
243.76	1196.01
243.98	1322.99
244.20	1302.51
244.42	1206.25
244.64	1325.04
244.85	1239.02
245.07	1286.12
245.29	1347.56
245.51	1327.08
245.72	1243.12
245.94	1249.26
246.16	1243.12
246.38	1273.84
246.59	1284.08
246.81	1210.35
247.03	1214.45
247.24	1290.22
247.46	1290.22
247.68	1382.38
247.90	1300.46
248.11	1318.89
248.33	1249.26
248.55	1296.36
248.77	1265.64
248.98	1249.26
249.20	1253.36
249.42	1261.55
249.64	1288.17
249.85	1267.69
250.07	1304.56
250.29	1239.02
250.50	1247.21
250.72	1259.50
250.94	1282.03
251.16	1300.46
251.37	1331.18
251.59	1306.60
251.81	1228.78
252.02	1249.26
252.24	1232.88
252.46	1308.65
252.68	1296.36
252.89	1298.41
253.11	1239.02
253.33	1243.12
253.54	1214.45
253.76	1183.73
253.98	1247.21
254.20	1239.02
254.41	1298.41
254.63	1224.69
254.85	1294.32
255.06	1273.84
255.28	1263.60
255.50	1302.51
255.71	1292.27
255.93	1320.94
256.15	1306.60
256.36	1249.26
256.58	1208.30
256.80	1224.69
257.02	1243.12
257.23	1296.36
257.45	1271.79
257.67	1343.47
257.88	1259.50
258.10	1247.21
258.32	1245.16
258.53	1282.03
258.75	1271.79
258.97	1304.56
259.18	1290.22
259.40	1282.03
259.62	1218.54
259.83	1263.60
260.05	1253.36
260.27	1316.84
260.48	1265.64
260.70	1271.79
260.92	1279.98
261.13	1294.32
261.35	1296.36
261.57	1189.87
261.78	1372.14
262.00	1275.88
262.22	1261.55
262.43	1322.99
262.65	1263.60
262.86	1253.36
263.08	1261.55
263.30	1245.16
263.51	1282.03
263.73	1241.07
263.95	1308.65
264.16	1273.84
264.38	1314.80
264.60	1222.64
264.81	1249.26
265.03	1300.46
265.25	1245.16
265.46	1292.27
265.68	1251.31
265.89	1259.50
266.11	1245.16
266.33	1279.98
266.54	1282.03
266.76	1226.73
266.98	1320.94
267.19	1247.21
267.41	1292.27
267.62	1200.11
267.84	1220.59
268.06	1261.55
268.27	1288.17
268.49	1263.60
268.70	1320.94
268.92	1271.79
269.14	1316.84
269.35	1249.26
269.57	1239.02
269.79	1253.36
270.00	1329.13
270.22	1259.50
270.43	1263.60
270.65	1161.20
270.87	1337.32
271.08	1226.73
271.30	1288.17
271.51	1294.32
271.73	1302.51
271.95	1284.08
272.16	1314.80
272.38	1284.08
272.59	1261.55
272.81	1308.65
273.02	1345.52
273.24	1259.50
273.46	1286.12
273.67	1253.36
273.89	1253.36
274.10	1279.98
274.32	1247.21
274.54	1265.64
274.75	1282.03
274.97	1271.79
275.18	1286.12
275.40	1304.56
275.61	1267.69
275.83	1255.40
276.05	1220.59
276.26	1271.79
276.48	1267.69
276.69	1277.93
276.91	1275.88
277.12	1249.26
277.34	1255.40
277.55	1267.69
277.77	1249.26
277.99	1271.79
278.20	1159.15
278.42	1241.07
278.63	1269.74
278.85	1251.31
279.06	1245.16
279.28	1243.12
279.49	1277.93
279.71	1226.73
279.93	1286.12
280.14	1206.25
280.36	1361.90
280.57	1267.69
280.79	1249.26
281.00	1198.06
281.22	1241.07
281.43	1304.56
281.65	1300.46
281.86	1181.68
282.08	1275.88
282.29	1243.12
282.51	1263.60
282.73	1314.80
282.94	1220.59
283.16	1249.26
283.37	1212.40
283.59	1345.52
283.80	1230.83
284.02	1257.45
284.23	1218.54
284.45	1245.16
284.66	1228.78
284.88	1230.83
285.09	1220.59
285.31	1239.02
285.52	1279.98
285.74	1196.01
285.95	1257.45
286.17	1271.79
286.38	1331.18
286.60	1224.69
286.81	1253.36
287.03	1341.42
287.24	1271.79
287.46	1224.69
287.67	1208.30
287.89	1316.84
288.10	1228.78
288.32	1202.16
288.53	1284.08
288.75	1286.12
288.96	1290.22
289.18	1271.79
289.39	1320.94
289.61	1220.59
289.82	1300.46
290.04	1232.88
290.25	1232.88
290.47	1210.35
290.68	1310.70
290.90	1271.79
291.11	1247.21
291.33	1261.55
291.54	1234.93
291.76	1294.32
291.97	1310.70
292.18	1255.40
292.40	1298.41
292.61	1345.52
292.83	1304.56
293.04	1253.36
293.26	1376.24
293.47	1302.51
293.69	1292.27
293.90	1261.55
294.12	1261.55
294.33	1226.73
294.55	1230.83
294.76	1212.40
294.97	1249.26
295.19	1288.17
295.40	1345.52
295.62	1222.64
295.83	1175.53
296.05	1267.69
296.26	1296.36
296.48	1263.60
296.69	1282.03
296.90	1296.36
297.12	1298.41
297.33	1267.69
297.55	1255.40
297.76	1304.56
297.98	1251.31
298.19	1234.93
298.41	1294.32
298.62	1269.74
298.83	1277.93
299.05	1320.94
299.26	1236.97
299.48	1286.12
299.69	1253.36
299.90	1222.64
300.12	1318.89
300.33	1269.74
300.55	1226.73
300.76	1322.99
300.98	1306.60
301.19	1302.51
301.40	1241.07
301.62	1325.04
301.83	1239.02
302.05	1255.40
302.26	1265.64
302.47	1226.73
302.69	1316.84
302.90	1325.04
303.12	1288.17
303.33	1286.12
303.54	1339.37
303.76	1220.59
303.97	1247.21
304.19	1200.11
304.40	1230.83
304.61	1290.22
304.83	1288.17
305.04	1210.35
305.26	1306.60
305.47	1263.60
305.68	1234.93
305.90	1271.79
306.11	1249.26
306.33	1329.13
306.54	1337.32
306.75	1296.36
306.97	1284.08
307.18	1345.52
307.39	1269.74
307.61	1224.69
307.82	1318.89
308.04	1277.93
308.25	1282.03
308.46	1224.69
308.68	1290.22
308.89	1294.32
309.10	1347.56
309.32	1294.32
309.53	1261.55
309.74	1298.41
309.96	1234.93
310.17	1292.27
310.39	1298.41
310.60	1333.23
310.81	1265.64
311.03	1234.93
311.24	1273.84
311.45	1239.02
311.67	1196.01
311.88	1241.07
312.09	1269.74
312.31	1249.26
312.52	1243.12
312.73	1304.56
312.95	1275.88
313.16	1255.40
313.37	1236.97
313.59	1325.04
313.80	1302.51
314.01	1269.74
314.23	1372.14
314.44	1228.78
314.65	1226.73
314.87	1292.27
315.08	1183.73
315.29	1241.07
315.51	1339.37
315.72	1298.41
315.93	1296.36
316.15	1267.69
316.36	1259.50
316.57	1234.93
316.79	1232.88
317.00	1275.88
317.21	1187.82
317.43	1218.54
317.64	1249.26
317.85	1282.03
318.07	1269.74
318.28	1282.03
318.49	1257.45
318.70	1308.65
318.92	1228.78
319.13	1329.13
319.34	1249.26
319.56	1304.56
319.77	1308.65
319.98	1265.64
320.20	1337.32
320.41	1335.28
320.62	1327.08
320.83	1239.02
321.05	1296.36
321.26	1263.60
321.47	1261.55
321.69	1337.32
321.90	1257.45
322.11	1232.88
322.32	1318.89
322.54	1308.65
322.75	1257.45
322.96	1288.17
323.18	1239.02
323.39	1310.70
323.60	1267.69
323.81	1300.46
324.03	1275.88
324.24	1261.55
324.45	1290.22
324.66	1333.23
324.88	1300.46
325.09	1239.02
325.30	1265.64
325.52	1290.22
325.73	1239.02
325.94	1181.68
326.15	1300.46
326.37	1241.07
326.58	1253.36
326.79	1353.71
327.00	1314.80
327.22	1273.84
327.43	1310.70
327.64	1243.12
327.85	1282.03
328.07	1247.21
328.28	1351.66
328.49	1234.93
328.70	1308.65
328.92	1234.93
329.13	1279.98
329.34	1232.88
329.55	1298.41
329.76	1308.65
329.98	1265.64
330.19	1286.12
330.40	1263.60
330.61	1245.16
330.83	1263.60
331.04	1251.31
331.25	1302.51
331.46	1255.40
331.68	1253.36
331.89	1218.54
332.10	1236.97
332.31	1288.17
332.52	1224.69
332.74	1273.84
332.95	1263.60
333.16	1322.99
333.37	1318.89
333.58	1247.21
333.80	1216.49
334.01	1220.59
334.22	1296.36
334.43	1247.21
334.64	1253.36
334.86	1279.98
335.07	1306.60
335.28	1284.08
335.49	1279.98
335.70	1263.60
335.92	1247.21
336.13	1288.17
336.34	1292.27
336.55	1212.40
336.76	1288.17
336.98	1271.79
337.19	1210.35
337.40	1298.41
337.61	1282.03
337.82	1265.64
338.04	1257.45
338.25	1255.40
338.46	1296.36
338.67	1271.79
338.88	1232.88
339.09	1302.51
339.31	1234.93
339.52	1228.78
339.73	1228.78
339.94	1306.60
340.15	1257.45
340.36	1232.88
340.58	1290.22
340.79	1277.93
341.00	1236.97
341.21	1263.60
341.42	1316.84
341.63	1239.02
341.85	1308.65
342.06	1322.99
342.27	1218.54
342.48	1316.84
342.69	1255.40
342.90	1267.69
343.12	1296.36
343.33	1265.64
343.54	1378.28
343.75	1314.80
343.96	1220.59
344.17	1322.99
344.38	1259.50
344.60	1298.41
344.81	1253.36
345.02	1265.64
345.23	1226.73
345.44	1298.41
345.65	1161.20
345.86	1277.93
346.07	1249.26
346.29	1257.45
346.50	1247.21
346.71	1241.07
346.92	1290.22
347.13	1241.07
347.34	1277.93
347.55	1265.64
347.76	1263.60
347.98	1220.59
348.19	1243.12
348.40	1247.21
348.61	1277.93
348.82	1310.70
349.03	1294.32
349.24	1390.57
349.45	1320.94
349.66	1226.73
349.88	1255.40
350.09	1306.60
350.30	1308.65
350.51	1228.78
350.72	1239.02
350.93	1267.69
351.14	1263.60
351.35	1241.07
351.56	1267.69
351.77	1247.21
351.99	1255.40
352.20	1322.99
352.41	1259.50
352.62	1257.45
352.83	1241.07
353.04	1265.64
353.25	1335.28
353.46	1226.73
353.67	1232.88
353.88	1245.16
354.09	1277.93
354.30	1282.03
354.52	1353.71
354.73	1325.04
354.94	1241.07
355.15	1304.56
355.36	1294.32
355.57	1304.56
355.78	1241.07
355.99	1245.16
356.20	1249.26
356.41	1241.07
356.62	1257.45
356.83	1253.36
357.04	1236.97
357.25	1308.65
357.46	1146.86
357.68	1208.30
357.89	1200.11
358.10	1339.37
358.31	1249.26
358.52	1275.88
358.73	1241.07
358.94	1298.41
359.15	1261.55
359.36	1322.99
359.57	1329.13
359.78	1257.45
359.99	1296.36
360.20	1216.49
360.41	1277.93
360.62	1312.75
360.83	1255.40
361.04	1269.74
361.25	1239.02
361.46	1343.47
361.67	1261.55
361.88	1204.21
362.09	1218.54
362.30	1284.08
362.51	1224.69
362.72	1279.98
362.93	1300.46
363.14	1183.73
363.35	1306.60
363.56	1277.93
363.78	1353.71
363.99	1298.41
364.20	1255.40
364.41	1304.56
364.62	1300.46
364.83	1267.69
365.04	1267.69
365.25	1288.17
365.46	1286.12
365.67	1290.22
365.88	1245.16
366.09	1214.45
366.30	1226.73
366.51	1286.12
366.72	1275.88
366.93	1247.21
367.14	1273.84
367.35	1271.79
367.56	1226.73
367.77	1257.45
367.98	1218.54
368.18	1263.60
368.39	1284.08
368.60	1308.65
368.81	1265.64
369.02	1181.68
369.23	1275.88
369.44	1277.93
369.65	1298.41
369.86	1251.31
370.07	1304.56
370.28	1300.46
370.49	1273.84
370.70	1302.51
370.91	1341.42
371.12	1310.70
371.33	1322.99
371.54	1247.21
371.75	1308.65
371.96	1255.40
372.17	1265.64
372.38	1279.98
372.59	1288.17
372.80	1189.87
373.01	1363.95
373.22	1253.36
373.43	1200.11
373.64	1232.88
373.85	1232.88
374.06	1269.74
374.26	1318.89
374.47	1296.36
374.68	1294.32
374.89	1263.60
375.10	1243.12
375.31	1380.33
375.52	1200.11
375.73	1249.26
375.94	1308.65
376.15	1206.25
376.36	1232.88
376.57	1255.40
376.78	1216.49
376.99	1353.71
377.20	1277.93
377.40	1202.16
377.61	1273.84
377.82	1277.93
378.03	1208.30
378.24	1304.56
378.45	1216.49
378.66	1331.18
378.87	1224.69
379.08	1308.65
379.29	1232.88
379.50	1318.89
379.71	1292.27
379.91	1187.82
380.12	1226.73
380.33	1292.27
380.54	1290.22
380.75	1329.13
380.96	1314.80
381.17	1286.12
381.38	1267.69
381.59	1232.88
381.80	1267.69
382.00	1310.70
382.21	1247.21
382.42	1239.02
382.63	1271.79
382.84	1255.40
383.05	1343.47
383.26	1306.60
383.47	1239.02
383.68	1261.55
383.88	1224.69
384.09	1228.78
384.30	1296.36
384.51	1314.80
384.72	1224.69
384.93	1286.12
385.14	1173.49
385.35	1279.98
385.55	1263.60
385.76	1255.40
385.97	1284.08
386.18	1271.79
386.39	1275.88
386.60	1253.36
386.81	1296.36
387.02	1275.88
387.22	1304.56
387.43	1232.88
387.64	1275.88
387.85	1261.55
388.06	1255.40
388.27	1206.25
388.48	1318.89
388.68	1247.21
388.89	1243.12
389.10	1316.84
389.31	1273.84
389.52	1277.93
389.73	1255.40
389.93	1316.84
390.14	1267.69
390.35	1230.83
390.56	1210.35
390.77	1255.40
390.98	1171.44
391.18	1239.02
391.39	1298.41
391.60	1312.75
391.81	1245.16
392.02	1320.94
392.23	1265.64
392.43	1249.26
392.64	1259.50
392.85	1275.88
393.06	1259.50
393.27	1306.60
393.47	1218.54
393.68	1329.13
393.89	1286.12
394.10	1304.56
394.31	1198.06
394.52	1322.99
394.72	1185.77
394.93	1306.60
395.14	1271.79
395.35	1220.59
395.56	1277.93
395.76	1253.36
395.97	1267.69
396.18	1314.80
396.39	1277.93
396.60	1304.56
396.80	1279.98
397.01	1308.65
397.22	1286.12
397.43	1271.79
397.64	1265.64
397.84	1224.69
398.05	1189.87
398.26	1273.84
398.47	1241.07
398.67	1290.22
398.88	1359.85
399.09	1255.40
399.30	1247.21
399.51	1271.79
399.71	1302.51
399.92	1314.80
400.13	1288.17
400.34	1269.74
400.54	1277.93
400.75	1251.31
400.96	1232.88
401.17	1265.64
401.37	1257.45
401.58	1298.41
401.79	1322.99
402.00	1228.78
402.21	1234.93
402.41	1284.08
402.62	1245.16
402.83	1251.31
403.04	1212.40
403.24	1277.93
403.45	1284.08
403.66	1212.40
403.87	1271.79
404.07	1288.17
404.28	1255.40
404.49	1247.21
404.70	1255.40
404.90	1181.68
405.11	1279.98
405.32	1282.03
405.52	1200.11
405.73	1277.93
405.94	1331.18
406.15	1257.45
406.35	1241.07
406.56	1288.17
406.77	1226.73
406.98	1239.02
407.18	1232.88
407.39	1329.13
407.60	1284.08
407.80	1331.18
408.01	1267.69
408.22	1232.88
408.43	1322.99
408.63	1255.40
408.84	1216.49
409.05	1296.36
409.25	1300.46
409.46	1277.93
409.67	1210.35
409.88	1286.12
410.08	1372.14
410.29	1224.69
410.50	1290.22
410.70	1335.28
410.91	1239.02
411.12	1251.31
411.32	1279.98
411.53	1308.65
411.74	1224.69
411.95	1243.12
412.15	1249.26
412.36	1253.36
412.57	1255.40
412.77	1206.25
412.98	1267.69
413.19	1257.45
413.39	1216.49
413.60	1232.88
413.81	1261.55
414.01	1236.97
414.22	1175.53
414.43	1322.99
414.63	1222.64
414.84	1343.47
415.05	1273.84
415.25	1222.64
415.46	1236.97
415.67	1306.60
415.87	1275.88
416.08	1286.12
416.29	1259.50
416.49	1265.64
416.70	1247.21
416.91	1322.99
417.11	1159.15
417.32	1208.30
417.53	1253.36
417.73	1243.12
417.94	1251.31
418.15	1273.84
418.35	1253.36
418.56	1220.59
418.77	1294.32
418.97	1230.83
419.18	1255.40
419.38	1273.84
419.59	1228.78
419.80	1298.41
420.00	1234.93
420.21	1300.46
420.42	1308.65
420.62	1331.18
420.83	1261.55
421.04	1286.12
421.24	1185.77
421.45	1245.16
421.65	1275.88
421.86	1277.93
422.07	1345.52
422.27	1200.11
422.48	1345.52
422.69	1308.65
422.89	1300.46
423.10	1325.04
423.30	1261.55
423.51	1310.70
423.72	1288.17
423.92	1255.40
424.13	1306.60
424.33	1277.93
424.54	1273.84
424.75	1282.03
424.95	1335.28
425.16	1251.31
425.36	1314.80
425.57	1302.51
425.78	1279.98
425.98	1296.36
426.19	1269.74
426.39	1261.55
426.60	1279.98
426.81	1314.80
427.01	1329.13
427.22	1265.64
427.42	1271.79
427.63	1265.64
427.83	1279.98
428.04	1255.40
428.25	1271.79
428.45	1331.18
428.66	1355.76
428.86	1241.07
429.07	1302.51
429.28	1310.70
429.48	1259.50
429.69	1261.55
429.89	1331.18
430.10	1220.59
430.30	1187.82
430.51	1273.84
430.71	1310.70
430.92	1284.08
431.13	1208.30
431.33	1259.50
431.54	1288.17
431.74	1308.65
431.95	1318.89
432.15	1249.26
432.36	1267.69
432.56	1282.03
432.77	1265.64
432.98	1284.08
433.18	1312.75
433.39	1265.64
433.59	1249.26
433.80	1288.17
434.00	1345.52
434.21	1296.36
434.41	1277.93
434.62	1259.50
434.82	1273.84
435.03	1320.94
435.23	1331.18
435.44	1292.27
435.64	1165.29
435.85	1378.28
436.06	1322.99
436.26	1304.56
436.47	1343.47
436.67	1226.73
436.88	1290.22
437.08	1275.88
437.29	1298.41
437.49	1257.45
437.70	1341.42
437.90	1230.83
438.11	1310.70
438.31	1279.98
438.52	1345.52
438.72	1208.30
438.93	1279.98
439.13	1275.88
439.34	1241.07
439.54	1271.79
439.75	1265.64
439.95	1292.27
440.16	1189.87
440.36	1196.01
440.57	1261.55
440.77	1255.40
440.98	1275.88
441.18	1304.56
441.39	1251.31
441.59	1245.16
441.80	1320.94
442.00	1230.83
442.21	1300.46
442.41	1198.06
442.62	1222.64
442.82	1300.46
443.02	1349.61
443.23	1257.45
443.43	1236.97
443.64	1288.17
443.84	1218.54
444.05	1253.36
444.25	1282.03
444.46	1253.36
444.66	1259.50
444.87	1284.08
445.07	1228.78
445.28	1249.26
445.48	1239.02
445.69	1224.69
445.89	1253.36
446.09	1372.14
446.30	1247.21
446.50	1251.31
446.71	1257.45
446.91	1228.78
447.12	1302.51
447.32	1245.16
447.53	1284.08
447.73	1298.41
447.93	1273.84
448.14	1249.26
448.34	1296.36
448.55	1257.45
448.75	1294.32
448.96	1318.89
449.16	1277.93
449.36	1331.18
449.57	1236.97
449.77	1329.13
449.98	1277.93
450.18	1249.26
450.39	1335.28
450.59	1275.88
450.79	1327.08
451.00	1322.99
451.20	1290.22
451.41	1288.17
451.61	1288.17
451.81	1241.07
452.02	1236.97
452.22	1224.69
452.43	1277.93
452.63	1239.02
