SpectraSuite Data File
++++++++++++++++++++++++++++++++++++
Date: Sun Apr 03 19:55:38 CEST 2016
User: root
Dark Spectrum Present: No
Reference Spectrum Present: No
Number of Sampled Component Spectra: 1
Spectrometers: USB4C02835
Integration Time (usec): 10000 (USB4C02835)
Spectra Averaged: 1 (USB4C02835)
Boxcar Smoothing: 0 (USB4C02835)
Correct for Electrical Dark: No (USB4C02835)
Strobe/Lamp Enabled: No (USB4C02835)
Correct for Detector Non-linearity: No (USB4C02835)
Correct for Stray Light: No (USB4C02835)
Number of Pixels in Processed Spectrum: 3648
>>>>>Begin Processed Spectral Data<<<<<
177.47	1290.22
177.69	1290.22
177.91	1290.22
178.13	1222.64
178.36	1228.78
178.58	1142.77
178.80	1267.69
179.02	1292.27
179.24	1259.50
179.46	1245.16
179.68	1292.27
179.90	1300.46
180.13	1210.35
180.35	1277.93
180.57	1288.17
180.79	1212.40
181.01	1243.12
181.23	1196.01
181.45	1245.16
181.67	1306.60
181.90	1296.36
182.12	1259.50
182.34	1245.16
182.56	1284.08
182.78	1271.79
183.00	1255.40
183.22	1245.16
183.44	1322.99
183.66	1206.25
183.89	1234.93
184.11	1259.50
184.33	1282.03
184.55	1226.73
184.77	1210.35
184.99	1257.45
185.21	1314.80
185.43	1277.93
185.65	1249.26
185.87	1236.97
186.10	1286.12
186.32	1279.98
186.54	1304.56
186.76	1255.40
186.98	1320.94
187.20	1255.40
187.42	1230.83
187.64	1277.93
187.86	1222.64
188.08	1290.22
188.30	1306.60
188.52	1345.52
188.75	1261.55
188.97	1263.60
189.19	1212.40
189.41	1271.79
189.63	1175.53
189.85	1193.97
190.07	1208.30
190.29	1224.69
190.51	1175.53
190.73	1230.83
190.95	1286.12
191.17	1257.45
191.39	1167.34
191.61	1314.80
191.84	1210.35
192.06	1259.50
192.28	1271.79
192.50	1273.84
192.72	1308.65
192.94	1263.60
193.16	1214.45
193.38	1298.41
193.60	1214.45
193.82	1204.21
194.04	1325.04
194.26	1257.45
194.48	1239.02
194.70	1333.23
194.92	1208.30
195.14	1230.83
195.36	1263.60
195.58	1310.70
195.80	1277.93
196.02	1290.22
196.24	1249.26
196.46	1341.42
196.69	1212.40
196.91	1312.75
197.13	1296.36
197.35	1296.36
197.57	1208.30
197.79	1251.31
198.01	1277.93
198.23	1243.12
198.45	1249.26
198.67	1284.08
198.89	1232.88
199.11	1251.31
199.33	1265.64
199.55	1239.02
199.77	1253.36
199.99	1259.50
200.21	1255.40
200.43	1234.93
200.65	1208.30
200.87	1271.79
201.09	1228.78
201.31	1165.29
201.53	1241.07
201.75	1257.45
201.97	1230.83
202.19	1273.84
202.41	1239.02
202.63	1263.60
202.85	1263.60
203.07	1259.50
203.29	1236.97
203.51	1265.64
203.73	1249.26
203.95	1290.22
204.17	1279.98
204.39	1312.75
204.61	1208.30
204.83	1236.97
205.05	1322.99
205.27	1271.79
205.49	1275.88
205.71	1245.16
205.93	1349.61
206.15	1261.55
206.37	1288.17
206.59	1236.97
206.81	1210.35
207.03	1204.21
207.25	1325.04
207.47	1265.64
207.69	1247.21
207.91	1273.84
208.13	1267.69
208.34	1232.88
208.56	1234.93
208.78	1261.55
209.00	1296.36
209.22	1216.49
209.44	1236.97
209.66	1220.59
209.88	1247.21
210.10	1214.45
210.32	1261.55
210.54	1306.60
210.76	1253.36
210.98	1290.22
211.20	1236.97
211.42	1251.31
211.64	1204.21
211.86	1320.94
212.08	1277.93
212.30	1290.22
212.52	1220.59
212.74	1181.68
212.96	1255.40
213.17	1216.49
213.39	1265.64
213.61	1279.98
213.83	1253.36
214.05	1173.49
214.27	1241.07
214.49	1259.50
214.71	1257.45
214.93	1222.64
215.15	1245.16
215.37	1263.60
215.59	1290.22
215.81	1224.69
216.03	1257.45
216.24	1263.60
216.46	1322.99
216.68	1249.26
216.90	1271.79
217.12	1294.32
217.34	1288.17
217.56	1261.55
217.78	1255.40
218.00	1355.76
218.22	1247.21
218.44	1271.79
218.66	1220.59
218.87	1234.93
219.09	1312.75
219.31	1306.60
219.53	1300.46
219.75	1255.40
219.97	1265.64
220.19	1273.84
220.41	1210.35
220.63	1251.31
220.85	1320.94
221.06	1273.84
221.28	1245.16
221.50	1284.08
221.72	1320.94
221.94	1273.84
222.16	1241.07
222.38	1296.36
222.60	1331.18
222.82	1320.94
223.03	1269.74
223.25	1243.12
223.47	1255.40
223.69	1245.16
223.91	1263.60
224.13	1296.36
224.35	1288.17
224.57	1275.88
224.78	1275.88
225.00	1322.99
225.22	1271.79
225.44	1269.74
225.66	1212.40
225.88	1304.56
226.10	1214.45
226.32	1265.64
226.53	1259.50
226.75	1292.27
226.97	1312.75
227.19	1249.26
227.41	1259.50
227.63	1271.79
227.85	1273.84
228.06	1253.36
228.28	1249.26
228.50	1304.56
228.72	1298.41
228.94	1290.22
229.16	1271.79
229.37	1347.56
229.59	1257.45
229.81	1175.53
230.03	1245.16
230.25	1286.12
230.47	1265.64
230.69	1204.21
230.90	1185.77
231.12	1257.45
231.34	1171.44
231.56	1241.07
231.78	1312.75
232.00	1253.36
232.21	1259.50
232.43	1300.46
232.65	1239.02
232.87	1216.49
233.09	1279.98
233.30	1257.45
233.52	1286.12
233.74	1243.12
233.96	1253.36
234.18	1288.17
234.40	1269.74
234.61	1306.60
234.83	1253.36
235.05	1216.49
235.27	1269.74
235.49	1327.08
235.70	1189.87
235.92	1288.17
236.14	1249.26
236.36	1273.84
236.58	1230.83
236.79	1304.56
237.01	1290.22
237.23	1306.60
237.45	1304.56
237.67	1271.79
237.88	1288.17
238.10	1302.51
238.32	1257.45
238.54	1269.74
238.76	1241.07
238.97	1183.73
239.19	1275.88
239.41	1257.45
239.63	1208.30
239.85	1255.40
240.06	1296.36
240.28	1273.84
240.50	1288.17
240.72	1300.46
240.93	1329.13
241.15	1302.51
241.37	1304.56
241.59	1277.93
241.81	1271.79
242.02	1230.83
242.24	1263.60
242.46	1333.23
242.68	1255.40
242.89	1245.16
243.11	1282.03
243.33	1314.80
243.55	1200.11
243.76	1251.31
243.98	1269.74
244.20	1292.27
244.42	1269.74
244.64	1224.69
244.85	1202.16
245.07	1290.22
245.29	1193.97
245.51	1224.69
245.72	1308.65
245.94	1345.52
246.16	1243.12
246.38	1339.37
246.59	1302.51
246.81	1282.03
247.03	1253.36
247.24	1271.79
247.46	1232.88
247.68	1263.60
247.90	1241.07
248.11	1314.80
248.33	1241.07
248.55	1226.73
248.77	1290.22
248.98	1286.12
249.20	1337.32
249.42	1214.45
249.64	1239.02
249.85	1277.93
250.07	1191.92
250.29	1243.12
250.50	1300.46
250.72	1257.45
250.94	1234.93
251.16	1271.79
251.37	1310.70
251.59	1271.79
251.81	1282.03
252.02	1265.64
252.24	1216.49
252.46	1314.80
252.68	1222.64
252.89	1304.56
253.11	1296.36
253.33	1279.98
253.54	1292.27
253.76	1251.31
253.98	1243.12
254.20	1298.41
254.41	1331.18
254.63	1255.40
254.85	1171.44
255.06	1249.26
255.28	1265.64
255.50	1282.03
255.71	1251.31
255.93	1232.88
256.15	1216.49
256.36	1239.02
256.58	1261.55
256.80	1228.78
257.02	1245.16
257.23	1241.07
257.45	1257.45
257.67	1302.51
257.88	1251.31
258.10	1265.64
258.32	1275.88
258.53	1232.88
258.75	1249.26
258.97	1339.37
259.18	1222.64
259.40	1265.64
259.62	1265.64
259.83	1314.80
260.05	1290.22
260.27	1261.55
260.48	1187.82
260.70	1279.98
260.92	1255.40
261.13	1277.93
261.35	1312.75
261.57	1320.94
261.78	1310.70
262.00	1265.64
262.22	1343.47
262.43	1251.31
262.65	1314.80
262.86	1257.45
263.08	1329.13
263.30	1216.49
263.51	1200.11
263.73	1275.88
263.95	1277.93
264.16	1224.69
264.38	1288.17
264.60	1208.30
264.81	1286.12
265.03	1302.51
265.25	1316.84
265.46	1253.36
265.68	1253.36
265.89	1228.78
266.11	1267.69
266.33	1279.98
266.54	1275.88
266.76	1290.22
266.98	1263.60
267.19	1288.17
267.41	1208.30
267.62	1286.12
267.84	1245.16
268.06	1273.84
268.27	1282.03
268.49	1241.07
268.70	1298.41
268.92	1212.40
269.14	1322.99
269.35	1247.21
269.57	1294.32
269.79	1261.55
270.00	1316.84
270.22	1288.17
270.43	1341.42
270.65	1265.64
270.87	1230.83
271.08	1288.17
271.30	1294.32
271.51	1308.65
271.73	1288.17
271.95	1218.54
272.16	1298.41
272.38	1259.50
272.59	1286.12
272.81	1196.01
273.02	1290.22
273.24	1288.17
273.46	1271.79
273.67	1325.04
273.89	1198.06
274.10	1202.16
274.32	1269.74
274.54	1267.69
274.75	1222.64
274.97	1296.36
275.18	1282.03
275.40	1193.97
275.61	1273.84
275.83	1277.93
276.05	1284.08
276.26	1183.73
276.48	1216.49
276.69	1288.17
276.91	1253.36
277.12	1296.36
277.34	1296.36
277.55	1325.04
277.77	1275.88
277.99	1261.55
278.20	1277.93
278.42	1269.74
278.63	1284.08
278.85	1288.17
279.06	1204.21
279.28	1239.02
279.49	1218.54
279.71	1230.83
279.93	1253.36
280.14	1349.61
280.36	1314.80
280.57	1282.03
280.79	1308.65
281.00	1202.16
281.22	1257.45
281.43	1284.08
281.65	1230.83
281.86	1245.16
282.08	1247.21
282.29	1259.50
282.51	1322.99
282.73	1288.17
282.94	1304.56
283.16	1298.41
283.37	1312.75
283.59	1265.64
283.80	1222.64
284.02	1265.64
284.23	1275.88
284.45	1249.26
284.66	1257.45
284.88	1212.40
285.09	1284.08
285.31	1298.41
285.52	1241.07
285.74	1271.79
285.95	1251.31
286.17	1200.11
286.38	1284.08
286.60	1275.88
286.81	1257.45
287.03	1290.22
287.24	1306.60
287.46	1249.26
287.67	1273.84
287.89	1296.36
288.10	1327.08
288.32	1294.32
288.53	1257.45
288.75	1228.78
288.96	1284.08
289.18	1214.45
289.39	1267.69
289.61	1212.40
289.82	1347.56
290.04	1259.50
290.25	1286.12
290.47	1335.28
290.68	1243.12
290.90	1257.45
291.11	1282.03
291.33	1331.18
291.54	1247.21
291.76	1253.36
291.97	1294.32
292.18	1329.13
292.40	1210.35
292.61	1216.49
292.83	1294.32
293.04	1279.98
293.26	1263.60
293.47	1255.40
293.69	1179.63
293.90	1261.55
294.12	1267.69
294.33	1236.97
294.55	1267.69
294.76	1271.79
294.97	1259.50
295.19	1312.75
295.40	1261.55
295.62	1273.84
295.83	1257.45
296.05	1290.22
296.26	1212.40
296.48	1347.56
296.69	1298.41
296.90	1249.26
297.12	1288.17
297.33	1310.70
297.55	1259.50
297.76	1286.12
297.98	1236.97
298.19	1290.22
298.41	1333.23
298.62	1255.40
298.83	1343.47
299.05	1273.84
299.26	1236.97
299.48	1322.99
299.69	1265.64
299.90	1341.42
300.12	1232.88
300.33	1224.69
300.55	1249.26
300.76	1263.60
300.98	1251.31
301.19	1302.51
301.40	1245.16
301.62	1269.74
301.83	1306.60
302.05	1241.07
302.26	1312.75
302.47	1288.17
302.69	1183.73
302.90	1222.64
303.12	1290.22
303.33	1275.88
303.54	1228.78
303.76	1312.75
303.97	1255.40
304.19	1259.50
304.40	1175.53
304.61	1269.74
304.83	1263.60
305.04	1271.79
305.26	1245.16
305.47	1294.32
305.68	1269.74
305.90	1224.69
306.11	1282.03
306.33	1306.60
306.54	1243.12
306.75	1339.37
306.97	1282.03
307.18	1257.45
307.39	1241.07
307.61	1263.60
307.82	1251.31
308.04	1236.97
308.25	1296.36
308.46	1271.79
308.68	1271.79
308.89	1222.64
309.10	1290.22
309.32	1259.50
309.53	1241.07
309.74	1312.75
309.96	1236.97
310.17	1261.55
310.39	1146.86
310.60	1329.13
310.81	1214.45
311.03	1253.36
311.24	1372.14
311.45	1288.17
311.67	1267.69
311.88	1339.37
312.09	1251.31
312.31	1255.40
312.52	1210.35
312.73	1327.08
312.95	1296.36
313.16	1243.12
313.37	1193.97
313.59	1261.55
313.80	1304.56
314.01	1312.75
314.23	1224.69
314.44	1265.64
314.65	1214.45
314.87	1290.22
315.08	1247.21
315.29	1228.78
315.51	1228.78
315.72	1232.88
315.93	1249.26
316.15	1187.82
316.36	1322.99
316.57	1277.93
316.79	1277.93
317.00	1304.56
317.21	1247.21
317.43	1218.54
317.64	1314.80
317.85	1279.98
318.07	1267.69
318.28	1300.46
318.49	1241.07
318.70	1292.27
318.92	1245.16
319.13	1327.08
319.34	1355.76
319.56	1175.53
319.77	1253.36
319.98	1179.63
320.20	1208.30
320.41	1275.88
320.62	1267.69
320.83	1232.88
321.05	1265.64
321.26	1200.11
321.47	1255.40
321.69	1284.08
321.90	1294.32
322.11	1230.83
322.32	1212.40
322.54	1298.41
322.75	1320.94
322.96	1279.98
323.18	1298.41
323.39	1247.21
323.60	1228.78
323.81	1245.16
324.03	1249.26
324.24	1245.16
324.45	1257.45
324.66	1312.75
324.88	1308.65
325.09	1292.27
325.30	1277.93
325.52	1279.98
325.73	1273.84
325.94	1302.51
326.15	1277.93
326.37	1239.02
326.58	1222.64
326.79	1191.92
327.00	1218.54
327.22	1300.46
327.43	1300.46
327.64	1239.02
327.85	1302.51
328.07	1329.13
328.28	1275.88
328.49	1310.70
328.70	1257.45
328.92	1265.64
329.13	1265.64
329.34	1257.45
329.55	1212.40
329.76	1294.32
329.98	1212.40
330.19	1290.22
330.40	1335.28
330.61	1241.07
330.83	1224.69
331.04	1243.12
331.25	1261.55
331.46	1261.55
331.68	1206.25
331.89	1261.55
332.10	1286.12
332.31	1222.64
332.52	1284.08
332.74	1251.31
332.95	1222.64
333.16	1271.79
333.37	1204.21
333.58	1288.17
333.80	1232.88
334.01	1294.32
334.22	1284.08
334.43	1224.69
334.64	1325.04
334.86	1308.65
335.07	1245.16
335.28	1239.02
335.49	1208.30
335.70	1314.80
335.92	1259.50
336.13	1259.50
336.34	1255.40
336.55	1277.93
336.76	1273.84
336.98	1275.88
337.19	1306.60
337.40	1189.87
337.61	1273.84
337.82	1206.25
338.04	1279.98
338.25	1239.02
338.46	1161.20
338.67	1286.12
338.88	1232.88
339.09	1220.59
339.31	1245.16
339.52	1312.75
339.73	1261.55
339.94	1239.02
340.15	1263.60
340.36	1314.80
340.58	1286.12
340.79	1191.92
341.00	1318.89
341.21	1322.99
341.42	1218.54
341.63	1312.75
341.85	1253.36
342.06	1265.64
342.27	1253.36
342.48	1261.55
342.69	1234.93
342.90	1226.73
343.12	1298.41
343.33	1224.69
343.54	1204.21
343.75	1198.06
343.96	1257.45
344.17	1294.32
344.38	1191.92
344.60	1286.12
344.81	1220.59
345.02	1314.80
345.23	1310.70
345.44	1388.52
345.65	1267.69
345.86	1304.56
346.07	1290.22
346.29	1275.88
346.50	1226.73
346.71	1296.36
346.92	1253.36
347.13	1320.94
347.34	1284.08
347.55	1181.68
347.76	1286.12
347.98	1257.45
348.19	1257.45
348.40	1284.08
348.61	1275.88
348.82	1353.71
349.03	1275.88
349.24	1241.07
349.45	1230.83
349.66	1257.45
349.88	1349.61
350.09	1222.64
350.30	1322.99
350.51	1198.06
350.72	1302.51
350.93	1316.84
351.14	1224.69
351.35	1253.36
351.56	1284.08
351.77	1230.83
351.99	1314.80
352.20	1253.36
352.41	1214.45
352.62	1265.64
352.83	1284.08
353.04	1318.89
353.25	1249.26
353.46	1239.02
353.67	1294.32
353.88	1284.08
354.09	1325.04
354.30	1286.12
354.52	1284.08
354.73	1279.98
354.94	1228.78
355.15	1247.21
355.36	1351.66
355.57	1239.02
355.78	1320.94
355.99	1304.56
356.20	1318.89
356.41	1183.73
356.62	1255.40
356.83	1304.56
357.04	1306.60
357.25	1333.23
357.46	1265.64
357.68	1241.07
357.89	1261.55
358.10	1249.26
358.31	1310.70
358.52	1298.41
358.73	1279.98
358.94	1253.36
359.15	1257.45
359.36	1290.22
359.57	1372.14
359.78	1222.64
359.99	1275.88
360.20	1253.36
360.41	1214.45
360.62	1200.11
360.83	1236.97
361.04	1206.25
361.25	1222.64
361.46	1335.28
361.67	1228.78
361.88	1263.60
362.09	1239.02
362.30	1226.73
362.51	1286.12
362.72	1300.46
362.93	1247.21
363.14	1312.75
363.35	1351.66
363.56	1306.60
363.78	1316.84
363.99	1333.23
364.20	1312.75
364.41	1243.12
364.62	1200.11
364.83	1222.64
365.04	1288.17
365.25	1222.64
365.46	1222.64
365.67	1312.75
365.88	1265.64
366.09	1282.03
366.30	1267.69
366.51	1300.46
366.72	1322.99
366.93	1290.22
367.14	1279.98
367.35	1251.31
367.56	1279.98
367.77	1198.06
367.98	1253.36
368.18	1273.84
368.39	1322.99
368.60	1208.30
368.81	1329.13
369.02	1255.40
369.23	1224.69
369.44	1271.79
369.65	1226.73
369.86	1288.17
370.07	1265.64
370.28	1232.88
370.49	1310.70
370.70	1212.40
370.91	1265.64
371.12	1257.45
371.33	1284.08
371.54	1286.12
371.75	1294.32
371.96	1284.08
372.17	1304.56
372.38	1263.60
372.59	1259.50
372.80	1234.93
373.01	1265.64
373.22	1261.55
373.43	1259.50
373.64	1359.85
373.85	1273.84
374.06	1284.08
374.26	1243.12
374.47	1249.26
374.68	1179.63
374.89	1282.03
375.10	1300.46
375.31	1322.99
375.52	1288.17
375.73	1230.83
375.94	1230.83
376.15	1284.08
376.36	1294.32
376.57	1273.84
376.78	1261.55
376.99	1210.35
377.20	1302.51
377.40	1286.12
377.61	1277.93
377.82	1298.41
378.03	1357.80
378.24	1275.88
378.45	1261.55
378.66	1312.75
378.87	1253.36
379.08	1251.31
379.29	1306.60
379.50	1185.77
379.71	1275.88
379.91	1191.92
380.12	1279.98
380.33	1232.88
380.54	1239.02
380.75	1339.37
380.96	1251.31
381.17	1296.36
381.38	1212.40
381.59	1245.16
381.80	1218.54
382.00	1288.17
382.21	1265.64
382.42	1335.28
382.63	1290.22
382.84	1277.93
383.05	1273.84
383.26	1298.41
383.47	1296.36
383.68	1267.69
383.88	1290.22
384.09	1222.64
384.30	1218.54
384.51	1333.23
384.72	1267.69
384.93	1361.90
385.14	1290.22
385.35	1271.79
385.55	1306.60
385.76	1322.99
385.97	1279.98
386.18	1257.45
386.39	1327.08
386.60	1265.64
386.81	1239.02
387.02	1232.88
387.22	1333.23
387.43	1216.49
387.64	1247.21
387.85	1210.35
388.06	1236.97
388.27	1325.04
388.48	1263.60
388.68	1296.36
388.89	1216.49
389.10	1284.08
389.31	1343.47
389.52	1273.84
389.73	1292.27
389.93	1232.88
390.14	1259.50
390.35	1249.26
390.56	1284.08
390.77	1284.08
390.98	1259.50
391.18	1325.04
391.39	1300.46
391.60	1296.36
391.81	1239.02
392.02	1245.16
392.23	1253.36
392.43	1273.84
392.64	1302.51
392.85	1312.75
393.06	1292.27
393.27	1277.93
393.47	1255.40
393.68	1279.98
393.89	1306.60
394.10	1308.65
394.31	1343.47
394.52	1363.95
394.72	1236.97
394.93	1255.40
395.14	1273.84
395.35	1214.45
395.56	1282.03
395.76	1286.12
395.97	1243.12
396.18	1251.31
396.39	1216.49
396.60	1273.84
396.80	1286.12
397.01	1243.12
397.22	1234.93
397.43	1322.99
397.64	1265.64
397.84	1269.74
398.05	1275.88
398.26	1230.83
398.47	1200.11
398.67	1249.26
398.88	1204.21
399.09	1320.94
399.30	1290.22
399.51	1361.90
399.71	1296.36
399.92	1228.78
400.13	1193.97
400.34	1230.83
400.54	1222.64
400.75	1314.80
400.96	1241.07
401.17	1263.60
401.37	1241.07
401.58	1304.56
401.79	1282.03
402.00	1208.30
402.21	1282.03
402.41	1191.92
402.62	1232.88
402.83	1236.97
403.04	1312.75
403.24	1253.36
403.45	1189.87
403.66	1241.07
403.87	1310.70
404.07	1224.69
404.28	1347.56
404.49	1257.45
404.70	1216.49
404.90	1296.36
405.11	1284.08
405.32	1198.06
405.52	1271.79
405.73	1214.45
405.94	1318.89
406.15	1226.73
406.35	1253.36
406.56	1189.87
406.77	1288.17
406.98	1296.36
407.18	1187.82
407.39	1271.79
407.60	1263.60
407.80	1292.27
408.01	1239.02
408.22	1249.26
408.43	1228.78
408.63	1236.97
408.84	1255.40
409.05	1296.36
409.25	1271.79
409.46	1214.45
409.67	1236.97
409.88	1304.56
410.08	1316.84
410.29	1304.56
410.50	1282.03
410.70	1290.22
410.91	1265.64
411.12	1226.73
411.32	1286.12
411.53	1292.27
411.74	1230.83
411.95	1292.27
412.15	1304.56
412.36	1329.13
412.57	1243.12
412.77	1277.93
412.98	1253.36
413.19	1253.36
413.39	1286.12
413.60	1290.22
413.81	1273.84
414.01	1306.60
414.22	1234.93
414.43	1214.45
414.63	1302.51
414.84	1206.25
415.05	1296.36
415.25	1275.88
415.46	1312.75
415.67	1277.93
415.87	1333.23
416.08	1157.10
416.29	1253.36
416.49	1243.12
416.70	1257.45
416.91	1218.54
417.11	1206.25
417.32	1286.12
417.53	1286.12
417.73	1265.64
417.94	1210.35
418.15	1279.98
418.35	1282.03
418.56	1284.08
418.77	1277.93
418.97	1249.26
419.18	1353.71
419.38	1257.45
419.59	1304.56
419.80	1292.27
420.00	1253.36
420.21	1218.54
420.42	1253.36
420.62	1337.32
420.83	1259.50
421.04	1234.93
421.24	1288.17
421.45	1302.51
421.65	1273.84
421.86	1239.02
422.07	1257.45
422.27	1329.13
422.48	1234.93
422.69	1333.23
422.89	1296.36
423.10	1298.41
423.30	1298.41
423.51	1255.40
423.72	1255.40
423.92	1304.56
424.13	1275.88
424.33	1325.04
424.54	1263.60
424.75	1226.73
424.95	1343.47
425.16	1271.79
425.36	1230.83
425.57	1331.18
425.78	1275.88
425.98	1226.73
426.19	1335.28
426.39	1282.03
426.60	1269.74
426.81	1265.64
427.01	1288.17
427.22	1236.97
427.42	1271.79
427.63	1329.13
427.83	1277.93
428.04	1366.00
428.25	1236.97
428.45	1255.40
428.66	1263.60
428.86	1251.31
429.07	1310.70
429.28	1218.54
429.48	1337.32
429.69	1200.11
429.89	1279.98
430.10	1253.36
430.30	1247.21
430.51	1193.97
430.71	1300.46
430.92	1232.88
431.13	1304.56
431.33	1267.69
431.54	1216.49
431.74	1331.18
431.95	1269.74
432.15	1351.66
432.36	1263.60
432.56	1288.17
432.77	1208.30
432.98	1318.89
433.18	1290.22
433.39	1241.07
433.59	1239.02
433.80	1290.22
434.00	1196.01
434.21	1320.94
434.41	1275.88
434.62	1259.50
434.82	1329.13
435.03	1366.00
435.23	1273.84
435.44	1247.21
435.64	1355.76
435.85	1243.12
436.06	1347.56
436.26	1218.54
436.47	1216.49
436.67	1214.45
436.88	1198.06
437.08	1232.88
437.29	1255.40
437.49	1306.60
437.70	1208.30
437.90	1255.40
438.11	1277.93
438.31	1234.93
438.52	1257.45
438.72	1249.26
438.93	1263.60
439.13	1200.11
439.34	1249.26
439.54	1284.08
439.75	1267.69
439.95	1255.40
440.16	1353.71
440.36	1245.16
440.57	1271.79
440.77	1337.32
440.98	1277.93
441.18	1273.84
441.39	1288.17
441.59	1318.89
441.80	1277.93
442.00	1253.36
442.21	1306.60
442.41	1241.07
442.62	1255.40
442.82	1232.88
443.02	1224.69
443.23	1314.80
443.43	1284.08
443.64	1239.02
443.84	1253.36
444.05	1314.80
444.25	1282.03
444.46	1298.41
444.66	1294.32
444.87	1263.60
445.07	1183.73
445.28	1267.69
445.48	1312.75
445.69	1322.99
445.89	1286.12
446.09	1251.31
446.30	1331.18
446.50	1234.93
446.71	1214.45
446.91	1257.45
447.12	1253.36
447.32	1273.84
447.53	1320.94
447.73	1279.98
447.93	1296.36
448.14	1249.26
448.34	1339.37
448.55	1282.03
448.75	1290.22
448.96	1249.26
449.16	1255.40
449.36	1222.64
449.57	1290.22
449.77	1329.13
449.98	1308.65
450.18	1294.32
450.39	1257.45
450.59	1279.98
450.79	1327.08
451.00	1302.51
451.20	1253.36
451.41	1296.36
451.61	1316.84
451.81	1277.93
452.02	1318.89
452.22	1222.64
452.43	1206.25
452.63	1343.47
