SpectraSuite Data File
++++++++++++++++++++++++++++++++++++
Date: Sun Apr 03 19:55:38 CEST 2016
User: root
Dark Spectrum Present: No
Reference Spectrum Present: No
Number of Sampled Component Spectra: 1
Spectrometers: USB4C02835
Integration Time (usec): 10000 (USB4C02835)
Spectra Averaged: 1 (USB4C02835)
Boxcar Smoothing: 0 (USB4C02835)
Correct for Electrical Dark: No (USB4C02835)
Strobe/Lamp Enabled: No (USB4C02835)
Correct for Detector Non-linearity: No (USB4C02835)
Correct for Stray Light: No (USB4C02835)
Number of Pixels in Processed Spectrum: 3648
>>>>>Begin Processed Spectral Data<<<<<
177.47	1230.83
177.69	1230.83
177.91	1230.83
178.13	1204.21
178.36	1241.07
178.58	1376.24
178.80	1228.78
179.02	1214.45
179.24	1320.94
179.46	1191.92
179.68	1255.40
179.90	1265.64
180.13	1308.65
180.35	1179.63
180.57	1239.02
180.79	1241.07
181.01	1257.45
181.23	1290.22
181.45	1298.41
181.67	1282.03
181.90	1214.45
182.12	1265.64
182.34	1232.88
182.56	1316.84
182.78	1263.60
183.00	1261.55
183.22	1239.02
183.44	1290.22
183.66	1216.49
183.89	1271.79
184.11	1232.88
184.33	1226.73
184.55	1239.02
184.77	1251.31
184.99	1322.99
185.21	1286.12
185.43	1322.99
185.65	1284.08
185.87	1249.26
186.10	1282.03
186.32	1253.36
186.54	1196.01
186.76	1306.60
186.98	1269.74
187.20	1327.08
187.42	1257.45
187.64	1271.79
187.86	1261.55
188.08	1267.69
188.30	1173.49
188.52	1232.88
188.75	1263.60
188.97	1249.26
189.19	1243.12
189.41	1251.31
189.63	1279.98
189.85	1259.50
190.07	1253.36
190.29	1314.80
190.51	1288.17
190.73	1196.01
190.95	1267.69
191.17	1249.26
191.39	1208.30
191.61	1267.69
191.84	1279.98
192.06	1288.17
192.28	1241.07
192.50	1312.75
192.72	1298.41
192.94	1290.22
193.16	1290.22
193.38	1292.27
193.60	1284.08
193.82	1228.78
194.04	1243.12
194.26	1239.02
194.48	1296.36
194.70	1232.88
194.92	1292.27
195.14	1284.08
195.36	1255.40
195.58	1308.65
195.80	1249.26
196.02	1269.74
196.24	1300.46
196.46	1296.36
196.69	1277.93
196.91	1212.40
197.13	1286.12
197.35	1232.88
197.57	1239.02
197.79	1267.69
198.01	1298.41
198.23	1230.83
198.45	1314.80
198.67	1302.51
198.89	1318.89
199.11	1298.41
199.33	1234.93
199.55	1318.89
199.77	1183.73
199.99	1296.36
200.21	1267.69
200.43	1318.89
200.65	1163.25
200.87	1343.47
201.09	1236.97
201.31	1230.83
201.53	1325.04
201.75	1230.83
201.97	1284.08
202.19	1329.13
202.41	1277.93
202.63	1200.11
202.85	1279.98
203.07	1234.93
203.29	1308.65
203.51	1302.51
203.73	1230.83
203.95	1259.50
204.17	1286.12
204.39	1204.21
204.61	1331.18
204.83	1265.64
205.05	1261.55
205.27	1300.46
205.49	1232.88
205.71	1206.25
205.93	1191.92
206.15	1263.60
206.37	1196.01
206.59	1347.56
206.81	1267.69
207.03	1255.40
207.25	1312.75
207.47	1320.94
207.69	1232.88
207.91	1271.79
208.13	1230.83
208.34	1241.07
208.56	1220.59
208.78	1296.36
209.00	1284.08
209.22	1282.03
209.44	1232.88
209.66	1318.89
209.88	1331.18
210.10	1243.12
210.32	1204.21
210.54	1247.21
210.76	1298.41
210.98	1265.64
211.20	1294.32
211.42	1208.30
211.64	1400.81
211.86	1249.26
212.08	1222.64
212.30	1230.83
212.52	1277.93
212.74	1224.69
212.96	1292.27
213.17	1282.03
213.39	1241.07
213.61	1253.36
213.83	1314.80
214.05	1247.21
214.27	1271.79
214.49	1284.08
214.71	1277.93
214.93	1314.80
215.15	1286.12
215.37	1263.60
215.59	1282.03
215.81	1271.79
216.03	1255.40
216.24	1253.36
216.46	1245.16
216.68	1314.80
216.90	1257.45
217.12	1183.73
217.34	1302.51
217.56	1308.65
217.78	1271.79
218.00	1294.32
218.22	1232.88
218.44	1212.40
218.66	1316.84
218.87	1232.88
219.09	1239.02
219.31	1263.60
219.53	1150.96
219.75	1261.55
219.97	1294.32
220.19	1273.84
220.41	1267.69
220.63	1331.18
220.85	1331.18
221.06	1288.17
221.28	1314.80
221.50	1282.03
221.72	1286.12
221.94	1247.21
222.16	1210.35
222.38	1351.66
222.60	1206.25
222.82	1253.36
223.03	1277.93
223.25	1304.56
223.47	1306.60
223.69	1265.64
223.91	1320.94
224.13	1247.21
224.35	1294.32
224.57	1253.36
224.78	1331.18
225.00	1251.31
225.22	1269.74
225.44	1249.26
225.66	1251.31
225.88	1253.36
226.10	1245.16
226.32	1300.46
226.53	1290.22
226.75	1290.22
226.97	1306.60
227.19	1282.03
227.41	1189.87
227.63	1304.56
227.85	1300.46
228.06	1257.45
228.28	1300.46
228.50	1273.84
228.72	1271.79
228.94	1314.80
229.16	1277.93
229.37	1316.84
229.59	1314.80
229.81	1222.64
230.03	1224.69
230.25	1282.03
230.47	1234.93
230.69	1236.97
230.90	1232.88
231.12	1302.51
231.34	1275.88
231.56	1282.03
231.78	1230.83
232.00	1210.35
232.21	1198.06
232.43	1316.84
232.65	1314.80
232.87	1292.27
233.09	1261.55
233.30	1279.98
233.52	1241.07
233.74	1265.64
233.96	1234.93
234.18	1257.45
234.40	1331.18
234.61	1306.60
234.83	1282.03
235.05	1257.45
235.27	1245.16
235.49	1228.78
235.70	1251.31
235.92	1245.16
236.14	1273.84
236.36	1351.66
236.58	1282.03
236.79	1333.23
237.01	1243.12
237.23	1241.07
237.45	1257.45
237.67	1265.64
237.88	1288.17
238.10	1196.01
238.32	1261.55
238.54	1249.26
238.76	1304.56
238.97	1286.12
239.19	1314.80
239.41	1222.64
239.63	1279.98
239.85	1284.08
240.06	1222.64
240.28	1327.08
240.50	1296.36
240.72	1359.85
240.93	1275.88
241.15	1265.64
241.37	1232.88
241.59	1269.74
241.81	1310.70
242.02	1322.99
242.24	1279.98
242.46	1294.32
242.68	1249.26
242.89	1267.69
243.11	1333.23
243.33	1263.60
243.55	1255.40
243.76	1269.74
243.98	1302.51
244.20	1304.56
244.42	1208.30
244.64	1343.47
244.85	1243.12
245.07	1216.49
245.29	1300.46
245.51	1296.36
245.72	1255.40
245.94	1304.56
246.16	1249.26
246.38	1253.36
246.59	1257.45
246.81	1239.02
247.03	1191.92
247.24	1282.03
247.46	1267.69
247.68	1282.03
247.90	1361.90
248.11	1247.21
248.33	1312.75
248.55	1269.74
248.77	1200.11
248.98	1230.83
249.20	1226.73
249.42	1159.15
249.64	1193.97
249.85	1286.12
250.07	1286.12
250.29	1249.26
250.50	1288.17
250.72	1288.17
250.94	1284.08
251.16	1284.08
251.37	1269.74
251.59	1241.07
251.81	1333.23
252.02	1265.64
252.24	1312.75
252.46	1308.65
252.68	1253.36
252.89	1310.70
253.11	1198.06
253.33	1239.02
253.54	1300.46
253.76	1234.93
253.98	1331.18
254.20	1253.36
254.41	1150.96
254.63	1243.12
254.85	1288.17
255.06	1216.49
255.28	1220.59
255.50	1263.60
255.71	1253.36
255.93	1279.98
256.15	1308.65
256.36	1249.26
256.58	1247.21
256.80	1292.27
257.02	1210.35
257.23	1294.32
257.45	1261.55
257.67	1245.16
257.88	1208.30
258.10	1224.69
258.32	1275.88
258.53	1337.32
258.75	1253.36
258.97	1265.64
259.18	1236.97
259.40	1282.03
259.62	1271.79
259.83	1220.59
260.05	1255.40
260.27	1304.56
260.48	1255.40
260.70	1230.83
260.92	1253.36
261.13	1204.21
261.35	1308.65
261.57	1230.83
261.78	1277.93
262.00	1320.94
262.22	1273.84
262.43	1249.26
262.65	1273.84
262.86	1314.80
263.08	1228.78
263.30	1259.50
263.51	1296.36
263.73	1200.11
263.95	1290.22
264.16	1286.12
264.38	1212.40
264.60	1267.69
264.81	1282.03
265.03	1296.36
265.25	1271.79
265.46	1314.80
265.68	1314.80
265.89	1239.02
266.11	1275.88
266.33	1261.55
266.54	1169.39
266.76	1304.56
266.98	1253.36
267.19	1284.08
267.41	1284.08
267.62	1304.56
267.84	1267.69
268.06	1292.27
268.27	1239.02
268.49	1257.45
268.70	1284.08
268.92	1331.18
269.14	1241.07
269.35	1308.65
269.57	1230.83
269.79	1339.37
270.00	1261.55
270.22	1212.40
270.43	1290.22
270.65	1216.49
270.87	1243.12
271.08	1337.32
271.30	1255.40
271.51	1253.36
271.73	1265.64
271.95	1257.45
272.16	1243.12
272.38	1290.22
272.59	1284.08
272.81	1267.69
273.02	1271.79
273.24	1232.88
273.46	1228.78
273.67	1263.60
273.89	1267.69
274.10	1271.79
274.32	1286.12
274.54	1226.73
274.75	1341.42
274.97	1257.45
275.18	1216.49
275.40	1245.16
275.61	1204.21
275.83	1263.60
276.05	1259.50
276.26	1206.25
276.48	1325.04
276.69	1333.23
276.91	1294.32
277.12	1236.97
277.34	1310.70
277.55	1245.16
277.77	1296.36
277.99	1241.07
278.20	1331.18
278.42	1368.04
278.63	1298.41
278.85	1263.60
279.06	1386.47
279.28	1245.16
279.49	1232.88
279.71	1273.84
279.93	1288.17
280.14	1241.07
280.36	1296.36
280.57	1306.60
280.79	1316.84
281.00	1253.36
281.22	1366.00
281.43	1273.84
281.65	1284.08
281.86	1247.21
282.08	1308.65
282.29	1314.80
282.51	1300.46
282.73	1316.84
282.94	1224.69
283.16	1298.41
283.37	1220.59
283.59	1273.84
283.80	1306.60
284.02	1236.97
284.23	1351.66
284.45	1308.65
284.66	1284.08
284.88	1263.60
285.09	1247.21
285.31	1302.51
285.52	1247.21
285.74	1208.30
285.95	1284.08
286.17	1249.26
286.38	1277.93
286.60	1263.60
286.81	1204.21
287.03	1300.46
287.24	1294.32
287.46	1269.74
287.67	1316.84
287.89	1241.07
288.10	1265.64
288.32	1331.18
288.53	1302.51
288.75	1236.97
288.96	1155.05
289.18	1261.55
289.39	1275.88
289.61	1216.49
289.82	1273.84
290.04	1265.64
290.25	1253.36
290.47	1247.21
290.68	1312.75
290.90	1284.08
291.11	1241.07
291.33	1249.26
291.54	1308.65
291.76	1212.40
291.97	1314.80
292.18	1306.60
292.40	1241.07
292.61	1296.36
292.83	1355.76
293.04	1224.69
293.26	1245.16
293.47	1271.79
293.69	1304.56
293.90	1171.44
294.12	1298.41
294.33	1265.64
294.55	1284.08
294.76	1341.42
294.97	1206.25
295.19	1296.36
295.40	1226.73
295.62	1269.74
295.83	1308.65
296.05	1265.64
296.26	1284.08
296.48	1261.55
296.69	1234.93
296.90	1239.02
297.12	1277.93
297.33	1257.45
297.55	1306.60
297.76	1253.36
297.98	1175.53
298.19	1298.41
298.41	1308.65
298.62	1296.36
298.83	1257.45
299.05	1286.12
299.26	1265.64
299.48	1290.22
299.69	1292.27
299.90	1255.40
300.12	1249.26
300.33	1206.25
300.55	1228.78
300.76	1284.08
300.98	1298.41
301.19	1259.50
301.40	1269.74
301.62	1302.51
301.83	1273.84
302.05	1286.12
302.26	1228.78
302.47	1255.40
302.69	1279.98
302.90	1255.40
303.12	1245.16
303.33	1290.22
303.54	1222.64
303.76	1230.83
303.97	1259.50
304.19	1312.75
304.40	1298.41
304.61	1247.21
304.83	1239.02
305.04	1304.56
305.26	1308.65
305.47	1247.21
305.68	1243.12
305.90	1277.93
306.11	1202.16
306.33	1200.11
306.54	1273.84
306.75	1193.97
306.97	1249.26
307.18	1218.54
307.39	1228.78
307.61	1228.78
307.82	1267.69
308.04	1273.84
308.25	1257.45
308.46	1282.03
308.68	1286.12
308.89	1345.52
309.10	1308.65
309.32	1290.22
309.53	1279.98
309.74	1284.08
309.96	1243.12
310.17	1300.46
310.39	1222.64
310.60	1271.79
310.81	1269.74
311.03	1320.94
311.24	1210.35
311.45	1288.17
311.67	1241.07
311.88	1294.32
312.09	1259.50
312.31	1249.26
312.52	1275.88
312.73	1269.74
312.95	1198.06
313.16	1243.12
313.37	1329.13
313.59	1226.73
313.80	1314.80
314.01	1224.69
314.23	1241.07
314.44	1241.07
314.65	1210.35
314.87	1310.70
315.08	1275.88
315.29	1232.88
315.51	1253.36
315.72	1306.60
315.93	1353.71
316.15	1234.93
316.36	1226.73
316.57	1232.88
316.79	1318.89
317.00	1292.27
317.21	1243.12
317.43	1267.69
317.64	1257.45
317.85	1253.36
318.07	1208.30
318.28	1308.65
318.49	1273.84
318.70	1343.47
318.92	1253.36
319.13	1218.54
319.34	1257.45
319.56	1255.40
319.77	1265.64
319.98	1218.54
320.20	1271.79
320.41	1232.88
320.62	1275.88
320.83	1296.36
321.05	1261.55
321.26	1284.08
321.47	1261.55
321.69	1310.70
321.90	1294.32
322.11	1296.36
322.32	1261.55
322.54	1251.31
322.75	1282.03
322.96	1228.78
323.18	1232.88
323.39	1226.73
323.60	1241.07
323.81	1234.93
324.03	1173.49
324.24	1247.21
324.45	1193.97
324.66	1343.47
324.88	1318.89
325.09	1277.93
325.30	1286.12
325.52	1241.07
325.73	1294.32
325.94	1232.88
326.15	1267.69
326.37	1345.52
326.58	1275.88
326.79	1331.18
327.00	1263.60
327.22	1282.03
327.43	1228.78
327.64	1292.27
327.85	1247.21
328.07	1290.22
328.28	1296.36
328.49	1286.12
328.70	1273.84
328.92	1239.02
329.13	1279.98
329.34	1204.21
329.55	1269.74
329.76	1320.94
329.98	1241.07
330.19	1267.69
330.40	1251.31
330.61	1230.83
330.83	1277.93
331.04	1200.11
331.25	1265.64
331.46	1288.17
331.68	1275.88
331.89	1253.36
332.10	1218.54
332.31	1296.36
332.52	1216.49
332.74	1259.50
332.95	1243.12
333.16	1290.22
333.37	1247.21
333.58	1216.49
333.80	1259.50
334.01	1269.74
334.22	1232.88
334.43	1263.60
334.64	1263.60
334.86	1247.21
335.07	1257.45
335.28	1312.75
335.49	1257.45
335.70	1331.18
335.92	1325.04
336.13	1312.75
336.34	1236.97
336.55	1245.16
336.76	1286.12
336.98	1290.22
337.19	1267.69
337.40	1212.40
337.61	1310.70
337.82	1269.74
338.04	1214.45
338.25	1273.84
338.46	1202.16
338.67	1230.83
338.88	1224.69
339.09	1292.27
339.31	1282.03
339.52	1306.60
339.73	1236.97
339.94	1298.41
340.15	1224.69
340.36	1329.13
340.58	1247.21
340.79	1218.54
341.00	1181.68
341.21	1337.32
341.42	1277.93
341.63	1261.55
341.85	1230.83
342.06	1247.21
342.27	1241.07
342.48	1275.88
342.69	1304.56
342.90	1247.21
343.12	1318.89
343.33	1290.22
343.54	1292.27
343.75	1275.88
343.96	1196.01
344.17	1249.26
344.38	1275.88
344.60	1261.55
344.81	1234.93
345.02	1253.36
345.23	1316.84
345.44	1300.46
345.65	1275.88
345.86	1282.03
346.07	1322.99
346.29	1253.36
346.50	1228.78
346.71	1265.64
346.92	1339.37
347.13	1277.93
347.34	1335.28
347.55	1304.56
347.76	1196.01
347.98	1279.98
348.19	1359.85
348.40	1277.93
348.61	1257.45
348.82	1265.64
349.03	1224.69
349.24	1210.35
349.45	1247.21
349.66	1269.74
349.88	1333.23
350.09	1206.25
350.30	1347.56
350.51	1243.12
350.72	1275.88
350.93	1282.03
351.14	1220.59
351.35	1257.45
351.56	1271.79
351.77	1218.54
351.99	1329.13
352.20	1296.36
352.41	1335.28
352.62	1269.74
352.83	1275.88
353.04	1302.51
353.25	1290.22
353.46	1314.80
353.67	1271.79
353.88	1206.25
354.09	1261.55
354.30	1298.41
354.52	1331.18
354.73	1302.51
354.94	1257.45
355.15	1296.36
355.36	1286.12
355.57	1263.60
355.78	1243.12
355.99	1206.25
356.20	1286.12
356.41	1185.77
356.62	1298.41
356.83	1257.45
357.04	1284.08
357.25	1288.17
357.46	1312.75
357.68	1259.50
357.89	1282.03
358.10	1271.79
358.31	1224.69
358.52	1245.16
358.73	1302.51
358.94	1232.88
359.15	1241.07
359.36	1249.26
359.57	1265.64
359.78	1269.74
359.99	1265.64
360.20	1316.84
360.41	1308.65
360.62	1247.21
360.83	1208.30
361.04	1320.94
361.25	1290.22
361.46	1335.28
361.67	1249.26
361.88	1265.64
362.09	1265.64
362.30	1304.56
362.51	1241.07
362.72	1277.93
362.93	1220.59
363.14	1304.56
363.35	1306.60
363.56	1292.27
363.78	1218.54
363.99	1286.12
364.20	1279.98
364.41	1196.01
364.62	1273.84
364.83	1263.60
365.04	1351.66
365.25	1265.64
365.46	1269.74
365.67	1271.79
365.88	1239.02
366.09	1239.02
366.30	1261.55
366.51	1286.12
366.72	1198.06
366.93	1279.98
367.14	1329.13
367.35	1304.56
367.56	1216.49
367.77	1228.78
367.98	1193.97
368.18	1282.03
368.39	1327.08
368.60	1292.27
368.81	1279.98
369.02	1300.46
369.23	1341.42
369.44	1277.93
369.65	1216.49
369.86	1279.98
370.07	1269.74
370.28	1251.31
370.49	1249.26
370.70	1263.60
370.91	1222.64
371.12	1279.98
371.33	1214.45
371.54	1296.36
371.75	1372.14
371.96	1325.04
372.17	1232.88
372.38	1216.49
372.59	1279.98
372.80	1279.98
373.01	1243.12
373.22	1263.60
373.43	1277.93
373.64	1273.84
373.85	1245.16
374.06	1259.50
374.26	1269.74
374.47	1339.37
374.68	1294.32
374.89	1302.51
375.10	1269.74
375.31	1247.21
375.52	1267.69
375.73	1228.78
375.94	1271.79
376.15	1327.08
376.36	1341.42
376.57	1329.13
376.78	1257.45
376.99	1187.82
377.20	1286.12
377.40	1273.84
377.61	1204.21
377.82	1241.07
378.03	1261.55
378.24	1267.69
378.45	1214.45
378.66	1345.52
378.87	1183.73
379.08	1241.07
379.29	1236.97
379.50	1239.02
379.71	1249.26
379.91	1298.41
380.12	1265.64
380.33	1255.40
380.54	1253.36
380.75	1298.41
380.96	1249.26
381.17	1294.32
381.38	1271.79
381.59	1286.12
381.80	1247.21
382.00	1290.22
382.21	1253.36
382.42	1347.56
382.63	1290.22
382.84	1277.93
383.05	1232.88
383.26	1239.02
383.47	1310.70
383.68	1339.37
383.88	1218.54
384.09	1191.92
384.30	1298.41
384.51	1312.75
384.72	1196.01
384.93	1191.92
385.14	1204.21
385.35	1253.36
385.55	1255.40
385.76	1355.76
385.97	1171.44
386.18	1339.37
386.39	1202.16
386.60	1279.98
386.81	1243.12
387.02	1300.46
387.22	1255.40
387.43	1245.16
387.64	1191.92
387.85	1302.51
388.06	1331.18
388.27	1298.41
388.48	1322.99
388.68	1269.74
388.89	1273.84
389.10	1243.12
389.31	1193.97
389.52	1255.40
389.73	1226.73
389.93	1247.21
390.14	1294.32
390.35	1294.32
390.56	1279.98
390.77	1329.13
390.98	1204.21
391.18	1265.64
391.39	1241.07
391.60	1294.32
391.81	1228.78
392.02	1290.22
392.23	1265.64
392.43	1284.08
392.64	1253.36
392.85	1294.32
393.06	1249.26
393.27	1329.13
393.47	1267.69
393.68	1263.60
393.89	1228.78
394.10	1236.97
394.31	1212.40
394.52	1261.55
394.72	1318.89
394.93	1343.47
395.14	1269.74
395.35	1251.31
395.56	1267.69
395.76	1333.23
395.97	1300.46
396.18	1267.69
396.39	1302.51
396.60	1243.12
396.80	1177.58
397.01	1279.98
397.22	1288.17
397.43	1277.93
397.64	1173.49
397.84	1198.06
398.05	1204.21
398.26	1230.83
398.47	1318.89
398.67	1228.78
398.88	1320.94
399.09	1339.37
399.30	1236.97
399.51	1296.36
399.71	1245.16
399.92	1320.94
400.13	1234.93
400.34	1318.89
400.54	1312.75
400.75	1345.52
400.96	1273.84
401.17	1312.75
401.37	1282.03
401.58	1249.26
401.79	1263.60
402.00	1255.40
402.21	1200.11
402.41	1298.41
402.62	1200.11
402.83	1306.60
403.04	1279.98
403.24	1218.54
403.45	1288.17
403.66	1279.98
403.87	1222.64
404.07	1265.64
404.28	1277.93
404.49	1265.64
404.70	1232.88
404.90	1273.84
405.11	1245.16
405.32	1245.16
405.52	1232.88
405.73	1306.60
405.94	1208.30
406.15	1290.22
406.35	1296.36
406.56	1210.35
406.77	1269.74
406.98	1265.64
407.18	1224.69
407.39	1228.78
407.60	1304.56
407.80	1296.36
408.01	1220.59
408.22	1384.43
408.43	1259.50
408.63	1245.16
408.84	1239.02
409.05	1335.28
409.25	1249.26
409.46	1298.41
409.67	1306.60
409.88	1216.49
410.08	1329.13
410.29	1306.60
410.50	1259.50
410.70	1273.84
410.91	1267.69
411.12	1275.88
411.32	1220.59
411.53	1347.56
411.74	1265.64
411.95	1279.98
412.15	1304.56
412.36	1220.59
412.57	1300.46
412.77	1290.22
412.98	1196.01
413.19	1245.16
413.39	1304.56
413.60	1310.70
413.81	1265.64
414.01	1200.11
414.22	1382.38
414.43	1259.50
414.63	1312.75
414.84	1316.84
415.05	1247.21
415.25	1292.27
415.46	1310.70
415.67	1226.73
415.87	1271.79
416.08	1314.80
416.29	1277.93
416.49	1269.74
416.70	1228.78
416.91	1279.98
417.11	1210.35
417.32	1275.88
417.53	1337.32
417.73	1320.94
417.94	1322.99
418.15	1304.56
418.35	1224.69
418.56	1196.01
418.77	1327.08
418.97	1273.84
419.18	1277.93
419.38	1279.98
419.59	1253.36
419.80	1331.18
420.00	1245.16
420.21	1302.51
420.42	1273.84
420.62	1296.36
420.83	1239.02
421.04	1271.79
421.24	1306.60
421.45	1181.68
421.65	1304.56
421.86	1259.50
422.07	1241.07
422.27	1257.45
422.48	1290.22
422.69	1216.49
422.89	1263.60
423.10	1265.64
423.30	1263.60
423.51	1224.69
423.72	1206.25
423.92	1284.08
424.13	1226.73
424.33	1288.17
424.54	1312.75
424.75	1159.15
424.95	1298.41
425.16	1304.56
425.36	1249.26
425.57	1247.21
425.78	1327.08
425.98	1335.28
426.19	1302.51
426.39	1273.84
426.60	1185.77
426.81	1279.98
427.01	1290.22
427.22	1210.35
427.42	1300.46
427.63	1269.74
427.83	1294.32
428.04	1355.76
428.25	1230.83
428.45	1294.32
428.66	1273.84
428.86	1236.97
429.07	1322.99
429.28	1214.45
429.48	1271.79
429.69	1228.78
429.89	1298.41
430.10	1208.30
430.30	1267.69
430.51	1298.41
430.71	1261.55
430.92	1306.60
431.13	1232.88
431.33	1232.88
431.54	1257.45
431.74	1253.36
431.95	1288.17
432.15	1257.45
432.36	1249.26
432.56	1318.89
432.77	1277.93
432.98	1302.51
433.18	1273.84
433.39	1263.60
433.59	1302.51
433.80	1253.36
434.00	1234.93
434.21	1226.73
434.41	1230.83
434.62	1320.94
434.82	1279.98
435.03	1214.45
435.23	1232.88
435.44	1255.40
435.64	1327.08
435.85	1263.60
436.06	1288.17
436.26	1247.21
436.47	1322.99
436.67	1255.40
436.88	1302.51
437.08	1343.47
437.29	1200.11
437.49	1314.80
437.70	1314.80
437.90	1220.59
438.11	1208.30
438.31	1322.99
438.52	1296.36
438.72	1265.64
438.93	1261.55
439.13	1261.55
439.34	1243.12
439.54	1171.44
439.75	1234.93
439.95	1243.12
440.16	1267.69
440.36	1261.55
440.57	1271.79
440.77	1318.89
440.98	1314.80
441.18	1261.55
441.39	1286.12
441.59	1353.71
441.80	1245.16
442.00	1212.40
442.21	1253.36
442.41	1247.21
442.62	1269.74
442.82	1208.30
443.02	1279.98
443.23	1206.25
443.43	1271.79
443.64	1331.18
443.84	1320.94
444.05	1296.36
444.25	1257.45
444.46	1202.16
444.66	1210.35
444.87	1263.60
445.07	1236.97
445.28	1222.64
445.48	1218.54
445.69	1294.32
445.89	1333.23
446.09	1288.17
446.30	1279.98
446.50	1232.88
446.71	1243.12
446.91	1290.22
447.12	1314.80
447.32	1302.51
447.53	1273.84
447.73	1343.47
447.93	1269.74
448.14	1296.36
448.34	1265.64
448.55	1232.88
448.75	1220.59
448.96	1331.18
449.16	1232.88
449.36	1279.98
449.57	1212.40
449.77	1290.22
449.98	1286.12
450.18	1269.74
450.39	1296.36
450.59	1337.32
450.79	1343.47
451.00	1339.37
451.20	1228.78
451.41	1294.32
451.61	1251.31
451.81	1290.22
452.02	1241.07
452.22	1206.25
452.43	1239.02
452.63	1263.60
