SpectraSuite Data File
++++++++++++++++++++++++++++++++++++
Date: Sun Apr 03 19:55:31 CEST 2016
User: root
Dark Spectrum Present: No
Reference Spectrum Present: No
Number of Sampled Component Spectra: 1
Spectrometers: USB4C02835
Integration Time (usec): 10000 (USB4C02835)
Spectra Averaged: 1 (USB4C02835)
Boxcar Smoothing: 0 (USB4C02835)
Correct for Electrical Dark: No (USB4C02835)
Strobe/Lamp Enabled: No (USB4C02835)
Correct for Detector Non-linearity: No (USB4C02835)
Correct for Stray Light: No (USB4C02835)
Number of Pixels in Processed Spectrum: 3648
>>>>>Begin Processed Spectral Data<<<<<
177.47	1253.36
177.69	1253.36
177.91	1253.36
178.13	1241.07
178.36	1298.41
178.58	1284.08
178.80	1206.25
179.02	1230.83
179.24	1337.32
179.46	1300.46
179.68	1273.84
179.90	1236.97
180.13	1296.36
180.35	1218.54
180.57	1177.58
180.79	1343.47
181.01	1298.41
181.23	1230.83
181.45	1300.46
181.67	1224.69
181.90	1208.30
182.12	1290.22
182.34	1241.07
182.56	1296.36
182.78	1228.78
183.00	1191.92
183.22	1292.27
183.44	1241.07
183.66	1322.99
183.89	1269.74
184.11	1200.11
184.33	1193.97
184.55	1329.13
184.77	1261.55
184.99	1325.04
185.21	1245.16
185.43	1298.41
185.65	1263.60
185.87	1271.79
186.10	1214.45
186.32	1271.79
186.54	1241.07
186.76	1273.84
186.98	1302.51
187.20	1183.73
187.42	1257.45
187.64	1300.46
187.86	1212.40
188.08	1304.56
188.30	1292.27
188.52	1312.75
188.75	1327.08
188.97	1243.12
189.19	1288.17
189.41	1212.40
189.63	1294.32
189.85	1279.98
190.07	1265.64
190.29	1288.17
190.51	1290.22
190.73	1347.56
190.95	1224.69
191.17	1234.93
191.39	1286.12
191.61	1239.02
191.84	1234.93
192.06	1224.69
192.28	1216.49
192.50	1335.28
192.72	1249.26
192.94	1314.80
193.16	1230.83
193.38	1308.65
193.60	1275.88
193.82	1286.12
194.04	1245.16
194.26	1251.31
194.48	1335.28
194.70	1255.40
194.92	1322.99
195.14	1255.40
195.36	1269.74
195.58	1275.88
195.80	1187.82
196.02	1368.04
196.24	1282.03
196.46	1253.36
196.69	1275.88
196.91	1255.40
197.13	1286.12
197.35	1249.26
197.57	1279.98
197.79	1282.03
198.01	1273.84
198.23	1351.66
198.45	1312.75
198.67	1279.98
198.89	1230.83
199.11	1228.78
199.33	1314.80
199.55	1177.58
199.77	1257.45
199.99	1306.60
200.21	1302.51
200.43	1269.74
200.65	1261.55
200.87	1329.13
201.09	1302.51
201.31	1218.54
201.53	1351.66
201.75	1255.40
201.97	1224.69
202.19	1306.60
202.41	1218.54
202.63	1255.40
202.85	1347.56
203.07	1239.02
203.29	1144.81
203.51	1198.06
203.73	1239.02
203.95	1292.27
204.17	1220.59
204.39	1249.26
204.61	1306.60
204.83	1232.88
205.05	1241.07
205.27	1267.69
205.49	1265.64
205.71	1271.79
205.93	1308.65
206.15	1263.60
206.37	1249.26
206.59	1269.74
206.81	1224.69
207.03	1255.40
207.25	1269.74
207.47	1333.23
207.69	1310.70
207.91	1308.65
208.13	1249.26
208.34	1296.36
208.56	1263.60
208.78	1292.27
209.00	1204.21
209.22	1255.40
209.44	1282.03
209.66	1282.03
209.88	1247.21
210.10	1292.27
210.32	1273.84
210.54	1271.79
210.76	1271.79
210.98	1273.84
211.20	1261.55
211.42	1255.40
211.64	1261.55
211.86	1212.40
212.08	1333.23
212.30	1275.88
212.52	1257.45
212.74	1249.26
212.96	1329.13
213.17	1288.17
213.39	1249.26
213.61	1216.49
213.83	1239.02
214.05	1255.40
214.27	1187.82
214.49	1230.83
214.71	1245.16
214.93	1232.88
215.15	1329.13
215.37	1290.22
215.59	1236.97
215.81	1249.26
216.03	1255.40
216.24	1202.16
216.46	1216.49
216.68	1263.60
216.90	1228.78
217.12	1275.88
217.34	1243.12
217.56	1273.84
217.78	1259.50
218.00	1236.97
218.22	1286.12
218.44	1247.21
218.66	1269.74
218.87	1306.60
219.09	1296.36
219.31	1206.25
219.53	1286.12
219.75	1271.79
219.97	1265.64
220.19	1294.32
220.41	1298.41
220.63	1267.69
220.85	1232.88
221.06	1275.88
221.28	1275.88
221.50	1257.45
221.72	1261.55
221.94	1241.07
222.16	1286.12
222.38	1318.89
222.60	1327.08
222.82	1261.55
223.03	1255.40
223.25	1290.22
223.47	1273.84
223.69	1292.27
223.91	1349.61
224.13	1361.90
224.35	1220.59
224.57	1376.24
224.78	1275.88
225.00	1249.26
225.22	1296.36
225.44	1298.41
225.66	1284.08
225.88	1279.98
226.10	1296.36
226.32	1288.17
226.53	1249.26
226.75	1316.84
226.97	1298.41
227.19	1288.17
227.41	1306.60
227.63	1273.84
227.85	1234.93
228.06	1245.16
228.28	1284.08
228.50	1279.98
228.72	1353.71
228.94	1279.98
229.16	1294.32
229.37	1327.08
229.59	1243.12
229.81	1282.03
230.03	1251.31
230.25	1296.36
230.47	1308.65
230.69	1316.84
230.90	1290.22
231.12	1277.93
231.34	1247.21
231.56	1310.70
231.78	1218.54
232.00	1314.80
232.21	1310.70
232.43	1267.69
232.65	1269.74
232.87	1282.03
233.09	1263.60
233.30	1198.06
233.52	1290.22
233.74	1267.69
233.96	1308.65
234.18	1196.01
234.40	1224.69
234.61	1275.88
234.83	1296.36
235.05	1267.69
235.27	1355.76
235.49	1267.69
235.70	1349.61
235.92	1300.46
236.14	1366.00
236.36	1355.76
236.58	1261.55
236.79	1310.70
237.01	1247.21
237.23	1249.26
237.45	1320.94
237.67	1253.36
237.88	1308.65
238.10	1376.24
238.32	1277.93
238.54	1243.12
238.76	1306.60
238.97	1245.16
239.19	1292.27
239.41	1329.13
239.63	1239.02
239.85	1292.27
240.06	1322.99
240.28	1222.64
240.50	1279.98
240.72	1277.93
240.93	1220.59
241.15	1279.98
241.37	1312.75
241.59	1230.83
241.81	1292.27
242.02	1349.61
242.24	1322.99
242.46	1255.40
242.68	1306.60
242.89	1204.21
243.11	1216.49
243.33	1263.60
243.55	1247.21
243.76	1210.35
243.98	1304.56
244.20	1191.92
244.42	1247.21
244.64	1308.65
244.85	1304.56
245.07	1341.42
245.29	1269.74
245.51	1261.55
245.72	1265.64
245.94	1247.21
246.16	1220.59
246.38	1331.18
246.59	1265.64
246.81	1204.21
247.03	1245.16
247.24	1226.73
247.46	1286.12
247.68	1296.36
247.90	1243.12
248.11	1234.93
248.33	1286.12
248.55	1232.88
248.77	1263.60
248.98	1394.67
249.20	1204.21
249.42	1314.80
249.64	1306.60
249.85	1224.69
250.07	1290.22
250.29	1282.03
250.50	1304.56
250.72	1208.30
250.94	1304.56
251.16	1224.69
251.37	1284.08
251.59	1253.36
251.81	1253.36
252.02	1302.51
252.24	1269.74
252.46	1243.12
252.68	1230.83
252.89	1288.17
253.11	1265.64
253.33	1226.73
253.54	1284.08
253.76	1253.36
253.98	1257.45
254.20	1310.70
254.41	1206.25
254.63	1232.88
254.85	1288.17
255.06	1255.40
255.28	1347.56
255.50	1275.88
255.71	1273.84
255.93	1296.36
256.15	1361.90
256.36	1273.84
256.58	1322.99
256.80	1261.55
257.02	1263.60
257.23	1230.83
257.45	1196.01
257.67	1265.64
257.88	1265.64
258.10	1218.54
258.32	1300.46
258.53	1255.40
258.75	1277.93
258.97	1241.07
259.18	1316.84
259.40	1228.78
259.62	1298.41
259.83	1318.89
260.05	1298.41
260.27	1310.70
260.48	1306.60
260.70	1255.40
260.92	1298.41
261.13	1236.97
261.35	1269.74
261.57	1255.40
261.78	1286.12
262.00	1243.12
262.22	1318.89
262.43	1234.93
262.65	1337.32
262.86	1378.28
263.08	1341.42
263.30	1353.71
263.51	1273.84
263.73	1200.11
263.95	1251.31
264.16	1269.74
264.38	1183.73
264.60	1263.60
264.81	1271.79
265.03	1304.56
265.25	1247.21
265.46	1222.64
265.68	1239.02
265.89	1226.73
266.11	1214.45
266.33	1247.21
266.54	1302.51
266.76	1310.70
266.98	1335.28
267.19	1271.79
267.41	1275.88
267.62	1300.46
267.84	1273.84
268.06	1249.26
268.27	1232.88
268.49	1239.02
268.70	1298.41
268.92	1226.73
269.14	1271.79
269.35	1216.49
269.57	1282.03
269.79	1226.73
270.00	1298.41
270.22	1265.64
270.43	1302.51
270.65	1304.56
270.87	1232.88
271.08	1245.16
271.30	1220.59
271.51	1216.49
271.73	1243.12
271.95	1302.51
272.16	1218.54
272.38	1257.45
272.59	1308.65
272.81	1269.74
273.02	1243.12
273.24	1232.88
273.46	1263.60
273.67	1257.45
273.89	1269.74
274.10	1271.79
274.32	1171.44
274.54	1308.65
274.75	1275.88
274.97	1265.64
275.18	1236.97
275.40	1259.50
275.61	1232.88
275.83	1220.59
276.05	1171.44
276.26	1273.84
276.48	1275.88
276.69	1179.63
276.91	1181.68
277.12	1304.56
277.34	1241.07
277.55	1263.60
277.77	1271.79
277.99	1216.49
278.20	1261.55
278.42	1296.36
278.63	1243.12
278.85	1255.40
279.06	1331.18
279.28	1226.73
279.49	1173.49
279.71	1236.97
279.93	1236.97
280.14	1273.84
280.36	1234.93
280.57	1277.93
280.79	1308.65
281.00	1300.46
281.22	1257.45
281.43	1290.22
281.65	1310.70
281.86	1257.45
282.08	1314.80
282.29	1247.21
282.51	1271.79
282.73	1236.97
282.94	1228.78
283.16	1320.94
283.37	1288.17
283.59	1306.60
283.80	1187.82
284.02	1255.40
284.23	1286.12
284.45	1245.16
284.66	1189.87
284.88	1185.77
285.09	1284.08
285.31	1241.07
285.52	1269.74
285.74	1216.49
285.95	1234.93
286.17	1271.79
286.38	1288.17
286.60	1265.64
286.81	1261.55
287.03	1206.25
287.24	1318.89
287.46	1214.45
287.67	1245.16
287.89	1206.25
288.10	1269.74
288.32	1308.65
288.53	1206.25
288.75	1257.45
288.96	1263.60
289.18	1236.97
289.39	1241.07
289.61	1286.12
289.82	1230.83
290.04	1241.07
290.25	1216.49
290.47	1282.03
290.68	1253.36
290.90	1292.27
291.11	1284.08
291.33	1220.59
291.54	1212.40
291.76	1224.69
291.97	1265.64
292.18	1241.07
292.40	1271.79
292.61	1208.30
292.83	1275.88
293.04	1302.51
293.26	1284.08
293.47	1247.21
293.69	1320.94
293.90	1318.89
294.12	1216.49
294.33	1331.18
294.55	1286.12
294.76	1273.84
294.97	1282.03
295.19	1306.60
295.40	1277.93
295.62	1273.84
295.83	1273.84
296.05	1216.49
296.26	1318.89
296.48	1288.17
296.69	1259.50
296.90	1243.12
297.12	1212.40
297.33	1282.03
297.55	1247.21
297.76	1382.38
297.98	1241.07
298.19	1251.31
298.41	1294.32
298.62	1282.03
298.83	1275.88
299.05	1286.12
299.26	1353.71
299.48	1257.45
299.69	1251.31
299.90	1230.83
300.12	1275.88
300.33	1316.84
300.55	1259.50
300.76	1298.41
300.98	1304.56
301.19	1265.64
301.40	1204.21
301.62	1269.74
301.83	1279.98
302.05	1298.41
302.26	1286.12
302.47	1296.36
302.69	1325.04
302.90	1220.59
303.12	1210.35
303.33	1310.70
303.54	1249.26
303.76	1284.08
303.97	1300.46
304.19	1241.07
304.40	1294.32
304.61	1263.60
304.83	1234.93
305.04	1226.73
305.26	1257.45
305.47	1304.56
305.68	1232.88
305.90	1224.69
306.11	1294.32
306.33	1286.12
306.54	1239.02
306.75	1296.36
306.97	1206.25
307.18	1290.22
307.39	1312.75
307.61	1253.36
307.82	1288.17
308.04	1337.32
308.25	1300.46
308.46	1265.64
308.68	1288.17
308.89	1216.49
309.10	1239.02
309.32	1263.60
309.53	1200.11
309.74	1282.03
309.96	1245.16
310.17	1298.41
310.39	1261.55
310.60	1282.03
310.81	1189.87
311.03	1232.88
311.24	1247.21
311.45	1322.99
311.67	1212.40
311.88	1286.12
312.09	1232.88
312.31	1234.93
312.52	1175.53
312.73	1279.98
312.95	1300.46
313.16	1253.36
313.37	1261.55
313.59	1337.32
313.80	1312.75
314.01	1249.26
314.23	1296.36
314.44	1261.55
314.65	1228.78
314.87	1263.60
315.08	1316.84
315.29	1302.51
315.51	1259.50
315.72	1259.50
315.93	1279.98
316.15	1265.64
316.36	1261.55
316.57	1273.84
316.79	1243.12
317.00	1193.97
317.21	1241.07
317.43	1279.98
317.64	1275.88
317.85	1216.49
318.07	1273.84
318.28	1261.55
318.49	1290.22
318.70	1288.17
318.92	1288.17
319.13	1290.22
319.34	1234.93
319.56	1288.17
319.77	1308.65
319.98	1318.89
320.20	1314.80
320.41	1241.07
320.62	1228.78
320.83	1216.49
321.05	1277.93
321.26	1288.17
321.47	1255.40
321.69	1271.79
321.90	1253.36
322.11	1255.40
322.32	1310.70
322.54	1288.17
322.75	1230.83
322.96	1265.64
323.18	1290.22
323.39	1279.98
323.60	1251.31
323.81	1243.12
324.03	1214.45
324.24	1288.17
324.45	1300.46
324.66	1275.88
324.88	1230.83
325.09	1210.35
325.30	1214.45
325.52	1300.46
325.73	1265.64
325.94	1267.69
326.15	1277.93
326.37	1341.42
326.58	1208.30
326.79	1253.36
327.00	1312.75
327.22	1304.56
327.43	1234.93
327.64	1249.26
327.85	1257.45
328.07	1292.27
328.28	1351.66
328.49	1271.79
328.70	1282.03
328.92	1230.83
329.13	1261.55
329.34	1300.46
329.55	1279.98
329.76	1247.21
329.98	1322.99
330.19	1243.12
330.40	1263.60
330.61	1325.04
330.83	1261.55
331.04	1312.75
331.25	1271.79
331.46	1265.64
331.68	1247.21
331.89	1263.60
332.10	1267.69
332.31	1228.78
332.52	1206.25
332.74	1306.60
332.95	1277.93
333.16	1363.95
333.37	1239.02
333.58	1302.51
333.80	1331.18
334.01	1267.69
334.22	1263.60
334.43	1234.93
334.64	1302.51
334.86	1300.46
335.07	1222.64
335.28	1236.97
335.49	1290.22
335.70	1320.94
335.92	1290.22
336.13	1288.17
336.34	1347.56
336.55	1347.56
336.76	1298.41
336.98	1327.08
337.19	1269.74
337.40	1247.21
337.61	1224.69
337.82	1243.12
338.04	1236.97
338.25	1239.02
338.46	1284.08
338.67	1282.03
338.88	1310.70
339.09	1220.59
339.31	1245.16
339.52	1361.90
339.73	1277.93
339.94	1341.42
340.15	1298.41
340.36	1230.83
340.58	1273.84
340.79	1228.78
341.00	1279.98
341.21	1253.36
341.42	1282.03
341.63	1247.21
341.85	1247.21
342.06	1286.12
342.27	1214.45
342.48	1236.97
342.69	1212.40
342.90	1298.41
343.12	1214.45
343.33	1232.88
343.54	1290.22
343.75	1366.00
343.96	1261.55
344.17	1232.88
344.38	1337.32
344.60	1226.73
344.81	1208.30
345.02	1230.83
345.23	1263.60
345.44	1247.21
345.65	1241.07
345.86	1333.23
346.07	1251.31
346.29	1236.97
346.50	1314.80
346.71	1279.98
346.92	1306.60
347.13	1271.79
347.34	1202.16
347.55	1288.17
347.76	1294.32
347.98	1253.36
348.19	1275.88
348.40	1292.27
348.61	1222.64
348.82	1294.32
349.03	1277.93
349.24	1241.07
349.45	1241.07
349.66	1210.35
349.88	1304.56
350.09	1294.32
350.30	1232.88
350.51	1277.93
350.72	1277.93
350.93	1206.25
351.14	1251.31
351.35	1253.36
351.56	1257.45
351.77	1298.41
351.99	1255.40
352.20	1312.75
352.41	1241.07
352.62	1277.93
352.83	1261.55
353.04	1198.06
353.25	1251.31
353.46	1206.25
353.67	1290.22
353.88	1277.93
354.09	1204.21
354.30	1263.60
354.52	1271.79
354.73	1228.78
354.94	1269.74
355.15	1259.50
355.36	1318.89
355.57	1300.46
355.78	1306.60
355.99	1288.17
356.20	1226.73
356.41	1351.66
356.62	1306.60
356.83	1177.58
357.04	1263.60
357.25	1222.64
357.46	1255.40
357.68	1294.32
357.89	1296.36
358.10	1247.21
358.31	1282.03
358.52	1245.16
358.73	1261.55
358.94	1331.18
359.15	1247.21
359.36	1320.94
359.57	1249.26
359.78	1267.69
359.99	1261.55
360.20	1286.12
360.41	1193.97
360.62	1251.31
360.83	1210.35
361.04	1325.04
361.25	1218.54
361.46	1267.69
361.67	1267.69
361.88	1325.04
362.09	1282.03
362.30	1218.54
362.51	1296.36
362.72	1294.32
362.93	1310.70
363.14	1257.45
363.35	1282.03
363.56	1308.65
363.78	1273.84
363.99	1189.87
364.20	1232.88
364.41	1300.46
364.62	1224.69
364.83	1277.93
365.04	1269.74
365.25	1269.74
365.46	1265.64
365.67	1253.36
365.88	1234.93
366.09	1255.40
366.30	1247.21
366.51	1282.03
366.72	1304.56
366.93	1292.27
367.14	1300.46
367.35	1269.74
367.56	1296.36
367.77	1224.69
367.98	1228.78
368.18	1251.31
368.39	1284.08
368.60	1263.60
368.81	1196.01
369.02	1322.99
369.23	1198.06
369.44	1245.16
369.65	1200.11
369.86	1277.93
370.07	1263.60
370.28	1302.51
370.49	1247.21
370.70	1325.04
370.91	1306.60
371.12	1265.64
371.33	1327.08
371.54	1275.88
371.75	1253.36
371.96	1296.36
372.17	1275.88
372.38	1275.88
372.59	1247.21
372.80	1322.99
373.01	1298.41
373.22	1279.98
373.43	1200.11
373.64	1304.56
373.85	1236.97
374.06	1314.80
374.26	1232.88
374.47	1308.65
374.68	1259.50
374.89	1288.17
375.10	1308.65
375.31	1298.41
375.52	1232.88
375.73	1234.93
375.94	1306.60
376.15	1263.60
376.36	1247.21
376.57	1308.65
376.78	1210.35
376.99	1257.45
377.20	1200.11
377.40	1259.50
377.61	1292.27
377.82	1372.14
378.03	1296.36
378.24	1253.36
378.45	1245.16
378.66	1249.26
378.87	1277.93
379.08	1302.51
379.29	1271.79
379.50	1318.89
379.71	1257.45
379.91	1312.75
380.12	1253.36
380.33	1247.21
380.54	1306.60
380.75	1263.60
380.96	1261.55
381.17	1298.41
381.38	1284.08
381.59	1298.41
381.80	1208.30
382.00	1302.51
382.21	1265.64
382.42	1292.27
382.63	1277.93
382.84	1251.31
383.05	1222.64
383.26	1277.93
383.47	1275.88
383.68	1290.22
383.88	1390.57
384.09	1282.03
384.30	1187.82
384.51	1263.60
384.72	1290.22
384.93	1296.36
385.14	1249.26
385.35	1210.35
385.55	1294.32
385.76	1255.40
385.97	1337.32
386.18	1277.93
386.39	1302.51
386.60	1302.51
386.81	1253.36
387.02	1298.41
387.22	1220.59
387.43	1257.45
387.64	1208.30
387.85	1249.26
388.06	1212.40
388.27	1292.27
388.48	1298.41
388.68	1282.03
388.89	1232.88
389.10	1259.50
389.31	1282.03
389.52	1267.69
389.73	1208.30
389.93	1247.21
390.14	1353.71
390.35	1236.97
390.56	1232.88
390.77	1271.79
390.98	1257.45
391.18	1316.84
391.39	1206.25
391.60	1271.79
391.81	1288.17
392.02	1228.78
392.23	1306.60
392.43	1300.46
392.64	1353.71
392.85	1218.54
393.06	1284.08
393.27	1224.69
393.47	1261.55
393.68	1271.79
393.89	1288.17
394.10	1284.08
394.31	1245.16
394.52	1292.27
394.72	1234.93
394.93	1236.97
395.14	1239.02
395.35	1265.64
395.56	1247.21
395.76	1247.21
395.97	1224.69
396.18	1253.36
396.39	1292.27
396.60	1275.88
396.80	1257.45
397.01	1257.45
397.22	1312.75
397.43	1267.69
397.64	1306.60
397.84	1251.31
398.05	1228.78
398.26	1249.26
398.47	1239.02
398.67	1294.32
398.88	1202.16
399.09	1269.74
399.30	1341.42
399.51	1277.93
399.71	1302.51
399.92	1277.93
400.13	1261.55
400.34	1234.93
400.54	1253.36
400.75	1230.83
400.96	1210.35
401.17	1267.69
401.37	1282.03
401.58	1243.12
401.79	1247.21
402.00	1210.35
402.21	1337.32
402.41	1200.11
402.62	1228.78
402.83	1253.36
403.04	1325.04
403.24	1296.36
403.45	1206.25
403.66	1263.60
403.87	1308.65
404.07	1175.53
404.28	1275.88
404.49	1286.12
404.70	1222.64
404.90	1222.64
405.11	1294.32
405.32	1279.98
405.52	1322.99
405.73	1292.27
405.94	1230.83
406.15	1249.26
406.35	1273.84
406.56	1232.88
406.77	1259.50
406.98	1259.50
407.18	1249.26
407.39	1245.16
407.60	1265.64
407.80	1331.18
408.01	1236.97
408.22	1322.99
408.43	1251.31
408.63	1267.69
408.84	1236.97
409.05	1298.41
409.25	1316.84
409.46	1300.46
409.67	1157.10
409.88	1275.88
410.08	1273.84
410.29	1308.65
410.50	1271.79
410.70	1263.60
410.91	1306.60
411.12	1316.84
411.32	1251.31
411.53	1269.74
411.74	1306.60
411.95	1273.84
412.15	1308.65
412.36	1202.16
412.57	1247.21
412.77	1241.07
412.98	1314.80
413.19	1226.73
413.39	1302.51
413.60	1343.47
413.81	1265.64
414.01	1327.08
414.22	1247.21
414.43	1343.47
414.63	1245.16
414.84	1218.54
415.05	1277.93
415.25	1310.70
415.46	1255.40
415.67	1257.45
415.87	1284.08
416.08	1249.26
416.29	1204.21
416.49	1226.73
416.70	1312.75
416.91	1282.03
417.11	1259.50
417.32	1279.98
417.53	1277.93
417.73	1239.02
417.94	1206.25
418.15	1277.93
418.35	1222.64
418.56	1271.79
418.77	1277.93
418.97	1271.79
419.18	1230.83
419.38	1298.41
419.59	1253.36
419.80	1343.47
420.00	1226.73
420.21	1265.64
420.42	1284.08
420.62	1243.12
420.83	1279.98
421.04	1288.17
421.24	1318.89
421.45	1218.54
421.65	1210.35
421.86	1249.26
422.07	1202.16
422.27	1275.88
422.48	1222.64
422.69	1214.45
422.89	1306.60
423.10	1282.03
423.30	1218.54
423.51	1296.36
423.72	1263.60
423.92	1245.16
424.13	1191.92
424.33	1290.22
424.54	1261.55
424.75	1282.03
424.95	1224.69
425.16	1265.64
425.36	1284.08
425.57	1273.84
425.78	1249.26
425.98	1257.45
426.19	1251.31
426.39	1249.26
426.60	1265.64
426.81	1296.36
427.01	1259.50
427.22	1304.56
427.42	1249.26
427.63	1234.93
427.83	1208.30
428.04	1296.36
428.25	1292.27
428.45	1247.21
428.66	1245.16
428.86	1322.99
429.07	1300.46
429.28	1210.35
429.48	1259.50
429.69	1284.08
429.89	1284.08
430.10	1282.03
430.30	1228.78
430.51	1298.41
430.71	1245.16
430.92	1271.79
431.13	1249.26
431.33	1347.56
431.54	1314.80
431.74	1226.73
431.95	1314.80
432.15	1269.74
432.36	1275.88
432.56	1329.13
432.77	1361.90
432.98	1255.40
433.18	1259.50
433.39	1241.07
433.59	1271.79
433.80	1306.60
434.00	1300.46
434.21	1241.07
434.41	1210.35
434.62	1247.21
434.82	1245.16
435.03	1253.36
435.23	1257.45
435.44	1286.12
435.64	1298.41
435.85	1296.36
436.06	1239.02
436.26	1275.88
436.47	1366.00
436.67	1243.12
436.88	1261.55
437.08	1236.97
437.29	1261.55
437.49	1249.26
437.70	1314.80
437.90	1228.78
438.11	1302.51
438.31	1214.45
438.52	1220.59
438.72	1224.69
438.93	1308.65
439.13	1320.94
439.34	1265.64
439.54	1269.74
439.75	1306.60
439.95	1239.02
440.16	1249.26
440.36	1245.16
440.57	1263.60
440.77	1273.84
440.98	1304.56
441.18	1312.75
441.39	1343.47
441.59	1234.93
441.80	1306.60
442.00	1339.37
442.21	1298.41
442.41	1308.65
442.62	1292.27
442.82	1308.65
443.02	1265.64
443.23	1310.70
443.43	1218.54
443.64	1292.27
443.84	1286.12
444.05	1253.36
444.25	1243.12
444.46	1282.03
444.66	1253.36
444.87	1290.22
445.07	1206.25
445.28	1296.36
445.48	1279.98
445.69	1241.07
445.89	1273.84
446.09	1275.88
446.30	1298.41
446.50	1210.35
446.71	1265.64
446.91	1269.74
447.12	1279.98
447.32	1257.45
447.53	1261.55
447.73	1318.89
447.93	1290.22
448.14	1245.16
448.34	1306.60
448.55	1263.60
448.75	1298.41
448.96	1331.18
449.16	1263.60
449.36	1298.41
449.57	1259.50
449.77	1206.25
449.98	1261.55
450.18	1310.70
450.39	1279.98
450.59	1247.21
450.79	1282.03
451.00	1359.85
451.20	1189.87
451.41	1384.43
451.61	1241.07
451.81	1228.78
452.02	1331.18
452.22	1210.35
452.43	1318.89
452.63	1302.51
