SpectraSuite Data File
++++++++++++++++++++++++++++++++++++
Date: Sun Apr 03 19:55:46 CEST 2016
User: root
Dark Spectrum Present: No
Reference Spectrum Present: No
Number of Sampled Component Spectra: 1
Spectrometers: USB4C02835
Integration Time (usec): 10000 (USB4C02835)
Spectra Averaged: 1 (USB4C02835)
Boxcar Smoothing: 0 (USB4C02835)
Correct for Electrical Dark: No (USB4C02835)
Strobe/Lamp Enabled: No (USB4C02835)
Correct for Detector Non-linearity: No (USB4C02835)
Correct for Stray Light: No (USB4C02835)
Number of Pixels in Processed Spectrum: 3648
>>>>>Begin Processed Spectral Data<<<<<
177.47	1312.75
177.69	1312.75
177.91	1312.75
178.13	1300.46
178.36	1202.16
178.58	1241.07
178.80	1187.82
179.02	1269.74
179.24	1286.12
179.46	1308.65
179.68	1214.45
179.90	1183.73
180.13	1275.88
180.35	1320.94
180.57	1234.93
180.79	1226.73
181.01	1232.88
181.23	1220.59
181.45	1255.40
181.67	1255.40
181.90	1277.93
182.12	1271.79
182.34	1290.22
182.56	1253.36
182.78	1220.59
183.00	1343.47
183.22	1325.04
183.44	1236.97
183.66	1208.30
183.89	1284.08
184.11	1306.60
184.33	1247.21
184.55	1300.46
184.77	1257.45
184.99	1300.46
185.21	1265.64
185.43	1236.97
185.65	1171.44
185.87	1296.36
186.10	1320.94
186.32	1322.99
186.54	1236.97
186.76	1187.82
186.98	1255.40
187.20	1232.88
187.42	1208.30
187.64	1286.12
187.86	1284.08
188.08	1288.17
188.30	1261.55
188.52	1294.32
188.75	1282.03
188.97	1300.46
189.19	1292.27
189.41	1193.97
189.63	1337.32
189.85	1224.69
190.07	1308.65
190.29	1267.69
190.51	1267.69
190.73	1226.73
190.95	1271.79
191.17	1257.45
191.39	1247.21
191.61	1312.75
191.84	1257.45
192.06	1304.56
192.28	1271.79
192.50	1286.12
192.72	1241.07
192.94	1253.36
193.16	1306.60
193.38	1325.04
193.60	1245.16
193.82	1282.03
194.04	1228.78
194.26	1224.69
194.48	1288.17
194.70	1288.17
194.92	1230.83
195.14	1292.27
195.36	1245.16
195.58	1230.83
195.80	1269.74
196.02	1265.64
196.24	1212.40
196.46	1273.84
196.69	1236.97
196.91	1279.98
197.13	1314.80
197.35	1318.89
197.57	1193.97
197.79	1265.64
198.01	1247.21
198.23	1349.61
198.45	1253.36
198.67	1306.60
198.89	1310.70
199.11	1206.25
199.33	1286.12
199.55	1310.70
199.77	1263.60
199.99	1339.37
200.21	1302.51
200.43	1314.80
200.65	1251.31
200.87	1316.84
201.09	1269.74
201.31	1261.55
201.53	1259.50
201.75	1230.83
201.97	1269.74
202.19	1230.83
202.41	1269.74
202.63	1282.03
202.85	1251.31
203.07	1226.73
203.29	1306.60
203.51	1247.21
203.73	1290.22
203.95	1378.28
204.17	1243.12
204.39	1247.21
204.61	1271.79
204.83	1241.07
205.05	1288.17
205.27	1296.36
205.49	1208.30
205.71	1226.73
205.93	1290.22
206.15	1236.97
206.37	1292.27
206.59	1218.54
206.81	1251.31
207.03	1214.45
207.25	1312.75
207.47	1286.12
207.69	1216.49
207.91	1241.07
208.13	1267.69
208.34	1247.21
208.56	1337.32
208.78	1312.75
209.00	1335.28
209.22	1200.11
209.44	1253.36
209.66	1241.07
209.88	1290.22
210.10	1239.02
210.32	1296.36
210.54	1318.89
210.76	1253.36
210.98	1284.08
211.20	1284.08
211.42	1302.51
211.64	1298.41
211.86	1167.34
212.08	1259.50
212.30	1261.55
212.52	1275.88
212.74	1337.32
212.96	1277.93
213.17	1265.64
213.39	1251.31
213.61	1302.51
213.83	1226.73
214.05	1216.49
214.27	1249.26
214.49	1290.22
214.71	1210.35
214.93	1267.69
215.15	1214.45
215.37	1263.60
215.59	1255.40
215.81	1273.84
216.03	1273.84
216.24	1265.64
216.46	1241.07
216.68	1230.83
216.90	1251.31
217.12	1273.84
217.34	1249.26
217.56	1212.40
217.78	1253.36
218.00	1325.04
218.22	1312.75
218.44	1337.32
218.66	1273.84
218.87	1310.70
219.09	1230.83
219.31	1224.69
219.53	1222.64
219.75	1249.26
219.97	1286.12
220.19	1234.93
220.41	1189.87
220.63	1284.08
220.85	1306.60
221.06	1224.69
221.28	1230.83
221.50	1239.02
221.72	1302.51
221.94	1282.03
222.16	1306.60
222.38	1249.26
222.60	1263.60
222.82	1230.83
223.03	1247.21
223.25	1253.36
223.47	1290.22
223.69	1208.30
223.91	1296.36
224.13	1239.02
224.35	1218.54
224.57	1249.26
224.78	1271.79
225.00	1284.08
225.22	1265.64
225.44	1296.36
225.66	1243.12
225.88	1294.32
226.10	1245.16
226.32	1273.84
226.53	1290.22
226.75	1292.27
226.97	1208.30
227.19	1273.84
227.41	1275.88
227.63	1259.50
227.85	1232.88
228.06	1271.79
228.28	1318.89
228.50	1206.25
228.72	1282.03
228.94	1253.36
229.16	1257.45
229.37	1210.35
229.59	1249.26
229.81	1298.41
230.03	1308.65
230.25	1232.88
230.47	1253.36
230.69	1265.64
230.90	1224.69
231.12	1216.49
231.34	1267.69
231.56	1298.41
231.78	1196.01
232.00	1284.08
232.21	1226.73
232.43	1290.22
232.65	1335.28
232.87	1253.36
233.09	1245.16
233.30	1255.40
233.52	1302.51
233.74	1310.70
233.96	1249.26
234.18	1241.07
234.40	1257.45
234.61	1200.11
234.83	1208.30
235.05	1298.41
235.27	1325.04
235.49	1236.97
235.70	1288.17
235.92	1312.75
236.14	1290.22
236.36	1234.93
236.58	1290.22
236.79	1286.12
237.01	1249.26
237.23	1308.65
237.45	1269.74
237.67	1288.17
237.88	1228.78
238.10	1298.41
238.32	1230.83
238.54	1251.31
238.76	1251.31
238.97	1310.70
239.19	1333.23
239.41	1304.56
239.63	1271.79
239.85	1257.45
240.06	1261.55
240.28	1257.45
240.50	1296.36
240.72	1245.16
240.93	1232.88
241.15	1273.84
241.37	1247.21
241.59	1273.84
241.81	1249.26
242.02	1302.51
242.24	1288.17
242.46	1363.95
242.68	1236.97
242.89	1329.13
243.11	1267.69
243.33	1228.78
243.55	1277.93
243.76	1327.08
243.98	1169.39
244.20	1357.80
244.42	1263.60
244.64	1335.28
244.85	1220.59
245.07	1357.80
245.29	1314.80
245.51	1241.07
245.72	1218.54
245.94	1294.32
246.16	1261.55
246.38	1253.36
246.59	1247.21
246.81	1249.26
247.03	1234.93
247.24	1286.12
247.46	1224.69
247.68	1249.26
247.90	1327.08
248.11	1282.03
248.33	1247.21
248.55	1263.60
248.77	1325.04
248.98	1292.27
249.20	1277.93
249.42	1296.36
249.64	1267.69
249.85	1232.88
250.07	1282.03
250.29	1196.01
250.50	1191.92
250.72	1290.22
250.94	1269.74
251.16	1253.36
251.37	1296.36
251.59	1308.65
251.81	1245.16
252.02	1261.55
252.24	1202.16
252.46	1337.32
252.68	1322.99
252.89	1265.64
253.11	1277.93
253.33	1333.23
253.54	1253.36
253.76	1253.36
253.98	1245.16
254.20	1263.60
254.41	1277.93
254.63	1269.74
254.85	1206.25
255.06	1222.64
255.28	1208.30
255.50	1314.80
255.71	1282.03
255.93	1198.06
256.15	1279.98
256.36	1286.12
256.58	1279.98
256.80	1226.73
257.02	1236.97
257.23	1255.40
257.45	1243.12
257.67	1314.80
257.88	1368.04
258.10	1243.12
258.32	1255.40
258.53	1337.32
258.75	1255.40
258.97	1255.40
259.18	1290.22
259.40	1239.02
259.62	1241.07
259.83	1284.08
260.05	1271.79
260.27	1265.64
260.48	1275.88
260.70	1234.93
260.92	1320.94
261.13	1294.32
261.35	1312.75
261.57	1222.64
261.78	1214.45
262.00	1312.75
262.22	1214.45
262.43	1185.77
262.65	1253.36
262.86	1294.32
263.08	1249.26
263.30	1273.84
263.51	1241.07
263.73	1316.84
263.95	1245.16
264.16	1257.45
264.38	1245.16
264.60	1247.21
264.81	1216.49
265.03	1353.71
265.25	1265.64
265.46	1220.59
265.68	1310.70
265.89	1261.55
266.11	1241.07
266.33	1239.02
266.54	1306.60
266.76	1263.60
266.98	1296.36
267.19	1232.88
267.41	1284.08
267.62	1232.88
267.84	1183.73
268.06	1236.97
268.27	1304.56
268.49	1282.03
268.70	1226.73
268.92	1257.45
269.14	1273.84
269.35	1259.50
269.57	1175.53
269.79	1312.75
270.00	1320.94
270.22	1302.51
270.43	1249.26
270.65	1220.59
270.87	1210.35
271.08	1292.27
271.30	1259.50
271.51	1302.51
271.73	1290.22
271.95	1290.22
272.16	1212.40
272.38	1329.13
272.59	1214.45
272.81	1322.99
273.02	1296.36
273.24	1251.31
273.46	1228.78
273.67	1292.27
273.89	1261.55
274.10	1189.87
274.32	1300.46
274.54	1327.08
274.75	1322.99
274.97	1312.75
275.18	1286.12
275.40	1310.70
275.61	1298.41
275.83	1288.17
276.05	1275.88
276.26	1263.60
276.48	1177.58
276.69	1263.60
276.91	1269.74
277.12	1245.16
277.34	1286.12
277.55	1265.64
277.77	1300.46
277.99	1304.56
278.20	1261.55
278.42	1241.07
278.63	1193.97
278.85	1322.99
279.06	1327.08
279.28	1226.73
279.49	1314.80
279.71	1257.45
279.93	1253.36
280.14	1277.93
280.36	1259.50
280.57	1284.08
280.79	1273.84
281.00	1183.73
281.22	1282.03
281.43	1226.73
281.65	1187.82
281.86	1255.40
282.08	1277.93
282.29	1333.23
282.51	1279.98
282.73	1191.92
282.94	1263.60
283.16	1247.21
283.37	1253.36
283.59	1241.07
283.80	1335.28
284.02	1329.13
284.23	1271.79
284.45	1234.93
284.66	1265.64
284.88	1339.37
285.09	1279.98
285.31	1286.12
285.52	1247.21
285.74	1251.31
285.95	1296.36
286.17	1259.50
286.38	1277.93
286.60	1298.41
286.81	1245.16
287.03	1261.55
287.24	1200.11
287.46	1302.51
287.67	1255.40
287.89	1282.03
288.10	1286.12
288.32	1255.40
288.53	1286.12
288.75	1261.55
288.96	1232.88
289.18	1343.47
289.39	1290.22
289.61	1259.50
289.82	1304.56
290.04	1247.21
290.25	1232.88
290.47	1374.19
290.68	1312.75
290.90	1288.17
291.11	1333.23
291.33	1255.40
291.54	1302.51
291.76	1265.64
291.97	1216.49
292.18	1349.61
292.40	1298.41
292.61	1279.98
292.83	1253.36
293.04	1232.88
293.26	1232.88
293.47	1224.69
293.69	1204.21
293.90	1200.11
294.12	1206.25
294.33	1267.69
294.55	1320.94
294.76	1271.79
294.97	1286.12
295.19	1265.64
295.40	1232.88
295.62	1259.50
295.83	1228.78
296.05	1320.94
296.26	1277.93
296.48	1273.84
296.69	1294.32
296.90	1298.41
297.12	1296.36
297.33	1298.41
297.55	1294.32
297.76	1308.65
297.98	1253.36
298.19	1312.75
298.41	1232.88
298.62	1255.40
298.83	1312.75
299.05	1265.64
299.26	1249.26
299.48	1288.17
299.69	1204.21
299.90	1249.26
300.12	1247.21
300.33	1239.02
300.55	1239.02
300.76	1249.26
300.98	1196.01
301.19	1288.17
301.40	1269.74
301.62	1181.68
301.83	1261.55
302.05	1316.84
302.26	1265.64
302.47	1312.75
302.69	1224.69
302.90	1257.45
303.12	1279.98
303.33	1255.40
303.54	1251.31
303.76	1239.02
303.97	1261.55
304.19	1316.84
304.40	1290.22
304.61	1384.43
304.83	1245.16
305.04	1232.88
305.26	1351.66
305.47	1224.69
305.68	1220.59
305.90	1236.97
306.11	1247.21
306.33	1341.42
306.54	1245.16
306.75	1306.60
306.97	1267.69
307.18	1273.84
307.39	1267.69
307.61	1279.98
307.82	1214.45
308.04	1236.97
308.25	1222.64
308.46	1206.25
308.68	1298.41
308.89	1232.88
309.10	1255.40
309.32	1271.79
309.53	1277.93
309.74	1249.26
309.96	1208.30
310.17	1304.56
310.39	1253.36
310.60	1265.64
310.81	1273.84
311.03	1271.79
311.24	1294.32
311.45	1267.69
311.67	1327.08
311.88	1271.79
312.09	1241.07
312.31	1279.98
312.52	1249.26
312.73	1208.30
312.95	1239.02
313.16	1239.02
313.37	1210.35
313.59	1243.12
313.80	1196.01
314.01	1271.79
314.23	1286.12
314.44	1255.40
314.65	1245.16
314.87	1263.60
315.08	1191.92
315.29	1204.21
315.51	1228.78
315.72	1275.88
315.93	1208.30
316.15	1261.55
316.36	1316.84
316.57	1286.12
316.79	1222.64
317.00	1304.56
317.21	1263.60
317.43	1282.03
317.64	1259.50
317.85	1267.69
318.07	1214.45
318.28	1282.03
318.49	1206.25
318.70	1329.13
318.92	1259.50
319.13	1257.45
319.34	1308.65
319.56	1368.04
319.77	1327.08
319.98	1261.55
320.20	1292.27
320.41	1345.52
320.62	1228.78
320.83	1239.02
321.05	1335.28
321.26	1220.59
321.47	1302.51
321.69	1243.12
321.90	1214.45
322.11	1224.69
322.32	1284.08
322.54	1275.88
322.75	1146.86
322.96	1314.80
323.18	1249.26
323.39	1230.83
323.60	1263.60
323.81	1286.12
324.03	1282.03
324.24	1259.50
324.45	1302.51
324.66	1304.56
324.88	1249.26
325.09	1232.88
325.30	1304.56
325.52	1306.60
325.73	1249.26
325.94	1345.52
326.15	1294.32
326.37	1255.40
326.58	1239.02
326.79	1302.51
327.00	1204.21
327.22	1267.69
327.43	1210.35
327.64	1380.33
327.85	1267.69
328.07	1355.76
328.28	1239.02
328.49	1275.88
328.70	1224.69
328.92	1273.84
329.13	1273.84
329.34	1259.50
329.55	1277.93
329.76	1267.69
329.98	1322.99
330.19	1183.73
330.40	1322.99
330.61	1343.47
330.83	1241.07
331.04	1230.83
331.25	1263.60
331.46	1298.41
331.68	1288.17
331.89	1290.22
332.10	1282.03
332.31	1232.88
332.52	1333.23
332.74	1273.84
332.95	1193.97
333.16	1349.61
333.37	1220.59
333.58	1261.55
333.80	1325.04
334.01	1308.65
334.22	1277.93
334.43	1329.13
334.64	1263.60
334.86	1224.69
335.07	1249.26
335.28	1376.24
335.49	1210.35
335.70	1331.18
335.92	1320.94
336.13	1286.12
336.34	1288.17
336.55	1251.31
336.76	1298.41
336.98	1273.84
337.19	1243.12
337.40	1298.41
337.61	1255.40
337.82	1247.21
338.04	1265.64
338.25	1269.74
338.46	1245.16
338.67	1298.41
338.88	1245.16
339.09	1251.31
339.31	1286.12
339.52	1267.69
339.73	1181.68
339.94	1226.73
340.15	1273.84
340.36	1282.03
340.58	1228.78
340.79	1279.98
341.00	1304.56
341.21	1322.99
341.42	1318.89
341.63	1353.71
341.85	1316.84
342.06	1173.49
342.27	1263.60
342.48	1236.97
342.69	1261.55
342.90	1318.89
343.12	1290.22
343.33	1290.22
343.54	1275.88
343.75	1265.64
343.96	1347.56
344.17	1282.03
344.38	1329.13
344.60	1241.07
344.81	1251.31
345.02	1282.03
345.23	1273.84
345.44	1224.69
345.65	1241.07
345.86	1284.08
346.07	1212.40
346.29	1220.59
346.50	1265.64
346.71	1282.03
346.92	1325.04
347.13	1325.04
347.34	1351.66
347.55	1316.84
347.76	1265.64
347.98	1234.93
348.19	1255.40
348.40	1298.41
348.61	1222.64
348.82	1306.60
349.03	1251.31
349.24	1247.21
349.45	1198.06
349.66	1275.88
349.88	1224.69
350.09	1243.12
350.30	1271.79
350.51	1247.21
350.72	1277.93
350.93	1302.51
351.14	1320.94
351.35	1286.12
351.56	1212.40
351.77	1312.75
351.99	1267.69
352.20	1245.16
352.41	1261.55
352.62	1230.83
352.83	1204.21
353.04	1255.40
353.25	1206.25
353.46	1300.46
353.67	1253.36
353.88	1220.59
354.09	1304.56
354.30	1273.84
354.52	1228.78
354.73	1206.25
354.94	1314.80
355.15	1230.83
355.36	1294.32
355.57	1226.73
355.78	1224.69
355.99	1230.83
356.20	1296.36
356.41	1288.17
356.62	1294.32
356.83	1224.69
357.04	1361.90
357.25	1257.45
357.46	1245.16
357.68	1224.69
357.89	1234.93
358.10	1316.84
358.31	1282.03
358.52	1265.64
358.73	1310.70
358.94	1269.74
359.15	1310.70
359.36	1390.57
359.57	1275.88
359.78	1234.93
359.99	1265.64
360.20	1224.69
360.41	1255.40
360.62	1294.32
360.83	1265.64
361.04	1204.21
361.25	1269.74
361.46	1320.94
361.67	1271.79
361.88	1286.12
362.09	1263.60
362.30	1261.55
362.51	1200.11
362.72	1279.98
362.93	1292.27
363.14	1257.45
363.35	1286.12
363.56	1249.26
363.78	1241.07
363.99	1234.93
364.20	1253.36
364.41	1304.56
364.62	1230.83
364.83	1308.65
365.04	1259.50
365.25	1284.08
365.46	1322.99
365.67	1306.60
365.88	1232.88
366.09	1322.99
366.30	1259.50
366.51	1279.98
366.72	1292.27
366.93	1314.80
367.14	1230.83
367.35	1277.93
367.56	1337.32
367.77	1271.79
367.98	1279.98
368.18	1179.63
368.39	1269.74
368.60	1294.32
368.81	1212.40
369.02	1220.59
369.23	1251.31
369.44	1275.88
369.65	1267.69
369.86	1296.36
370.07	1290.22
370.28	1220.59
370.49	1282.03
370.70	1236.97
370.91	1206.25
371.12	1290.22
371.33	1249.26
371.54	1247.21
371.75	1322.99
371.96	1279.98
372.17	1210.35
372.38	1286.12
372.59	1320.94
372.80	1271.79
373.01	1253.36
373.22	1298.41
373.43	1300.46
373.64	1296.36
373.85	1284.08
374.06	1222.64
374.26	1257.45
374.47	1339.37
374.68	1234.93
374.89	1314.80
375.10	1294.32
375.31	1290.22
375.52	1320.94
375.73	1273.84
375.94	1245.16
376.15	1163.25
376.36	1265.64
376.57	1320.94
376.78	1251.31
376.99	1255.40
377.20	1310.70
377.40	1294.32
377.61	1271.79
377.82	1298.41
378.03	1191.92
378.24	1322.99
378.45	1255.40
378.66	1245.16
378.87	1241.07
379.08	1259.50
379.29	1259.50
379.50	1241.07
379.71	1273.84
379.91	1322.99
380.12	1257.45
380.33	1243.12
380.54	1230.83
380.75	1343.47
380.96	1228.78
381.17	1245.16
381.38	1284.08
381.59	1224.69
381.80	1298.41
382.00	1284.08
382.21	1232.88
382.42	1363.95
382.63	1230.83
382.84	1263.60
383.05	1187.82
383.26	1300.46
383.47	1288.17
383.68	1286.12
383.88	1361.90
384.09	1251.31
384.30	1261.55
384.51	1337.32
384.72	1212.40
384.93	1261.55
385.14	1355.76
385.35	1310.70
385.55	1261.55
385.76	1312.75
385.97	1288.17
386.18	1218.54
386.39	1320.94
386.60	1263.60
386.81	1279.98
387.02	1275.88
387.22	1241.07
387.43	1224.69
387.64	1279.98
387.85	1302.51
388.06	1269.74
388.27	1206.25
388.48	1327.08
388.68	1263.60
388.89	1189.87
389.10	1241.07
389.31	1298.41
389.52	1251.31
389.73	1220.59
389.93	1279.98
390.14	1232.88
390.35	1286.12
390.56	1257.45
390.77	1269.74
390.98	1230.83
391.18	1218.54
391.39	1292.27
391.60	1271.79
391.81	1200.11
392.02	1286.12
392.23	1251.31
392.43	1298.41
392.64	1290.22
392.85	1243.12
393.06	1288.17
393.27	1296.36
393.47	1282.03
393.68	1247.21
393.89	1327.08
394.10	1282.03
394.31	1245.16
394.52	1290.22
394.72	1243.12
394.93	1187.82
395.14	1261.55
395.35	1286.12
395.56	1255.40
395.76	1251.31
395.97	1286.12
396.18	1304.56
396.39	1245.16
396.60	1193.97
396.80	1257.45
397.01	1200.11
397.22	1296.36
397.43	1335.28
397.64	1220.59
397.84	1335.28
398.05	1269.74
398.26	1271.79
398.47	1277.93
398.67	1259.50
398.88	1220.59
399.09	1320.94
399.30	1204.21
399.51	1314.80
399.71	1263.60
399.92	1265.64
400.13	1236.97
400.34	1234.93
400.54	1300.46
400.75	1271.79
400.96	1222.64
401.17	1296.36
401.37	1236.97
401.58	1302.51
401.79	1228.78
402.00	1279.98
402.21	1327.08
402.41	1314.80
402.62	1288.17
402.83	1294.32
403.04	1306.60
403.24	1210.35
403.45	1261.55
403.66	1341.42
403.87	1273.84
404.07	1320.94
404.28	1286.12
404.49	1265.64
404.70	1271.79
404.90	1239.02
405.11	1196.01
405.32	1265.64
405.52	1318.89
405.73	1273.84
405.94	1259.50
406.15	1271.79
406.35	1316.84
406.56	1230.83
406.77	1275.88
406.98	1251.31
407.18	1234.93
407.39	1318.89
407.60	1269.74
407.80	1304.56
408.01	1208.30
408.22	1279.98
408.43	1255.40
408.63	1247.21
408.84	1232.88
409.05	1308.65
409.25	1236.97
409.46	1263.60
409.67	1214.45
409.88	1230.83
410.08	1253.36
410.29	1325.04
410.50	1257.45
410.70	1320.94
410.91	1245.16
411.12	1216.49
411.32	1255.40
411.53	1304.56
411.74	1243.12
411.95	1275.88
412.15	1249.26
412.36	1329.13
412.57	1226.73
412.77	1251.31
412.98	1187.82
413.19	1288.17
413.39	1185.77
413.60	1228.78
413.81	1286.12
414.01	1318.89
414.22	1236.97
414.43	1284.08
414.63	1282.03
414.84	1243.12
415.05	1331.18
415.25	1200.11
415.46	1228.78
415.67	1333.23
415.87	1320.94
416.08	1351.66
416.29	1312.75
416.49	1253.36
416.70	1290.22
416.91	1183.73
417.11	1230.83
417.32	1259.50
417.53	1294.32
417.73	1335.28
417.94	1257.45
418.15	1300.46
418.35	1216.49
418.56	1282.03
418.77	1322.99
418.97	1222.64
419.18	1370.09
419.38	1282.03
419.59	1245.16
419.80	1292.27
420.00	1232.88
420.21	1357.80
420.42	1187.82
420.62	1224.69
420.83	1337.32
421.04	1314.80
421.24	1208.30
421.45	1294.32
421.65	1304.56
421.86	1271.79
422.07	1208.30
422.27	1277.93
422.48	1273.84
422.69	1302.51
422.89	1279.98
423.10	1279.98
423.30	1275.88
423.51	1261.55
423.72	1304.56
423.92	1236.97
424.13	1292.27
424.33	1308.65
424.54	1335.28
424.75	1261.55
424.95	1300.46
425.16	1236.97
425.36	1286.12
425.57	1284.08
425.78	1261.55
425.98	1230.83
426.19	1236.97
426.39	1249.26
426.60	1224.69
426.81	1302.51
427.01	1288.17
427.22	1222.64
427.42	1294.32
427.63	1282.03
427.83	1224.69
428.04	1302.51
428.25	1234.93
428.45	1316.84
428.66	1271.79
428.86	1210.35
429.07	1255.40
429.28	1239.02
429.48	1259.50
429.69	1273.84
429.89	1273.84
430.10	1239.02
430.30	1247.21
430.51	1318.89
430.71	1294.32
430.92	1241.07
431.13	1282.03
431.33	1320.94
431.54	1271.79
431.74	1302.51
431.95	1247.21
432.15	1200.11
432.36	1255.40
432.56	1306.60
432.77	1316.84
432.98	1249.26
433.18	1298.41
433.39	1214.45
433.59	1218.54
433.80	1269.74
434.00	1304.56
434.21	1273.84
434.41	1333.23
434.62	1173.49
434.82	1345.52
435.03	1314.80
435.23	1222.64
435.44	1267.69
435.64	1212.40
435.85	1259.50
436.06	1277.93
436.26	1271.79
436.47	1275.88
436.67	1302.51
436.88	1368.04
437.08	1327.08
437.29	1257.45
437.49	1282.03
437.70	1277.93
437.90	1269.74
438.11	1249.26
438.31	1288.17
438.52	1271.79
438.72	1308.65
438.93	1243.12
439.13	1271.79
439.34	1273.84
439.54	1216.49
439.75	1230.83
439.95	1290.22
440.16	1204.21
440.36	1271.79
440.57	1320.94
440.77	1320.94
440.98	1196.01
441.18	1296.36
441.39	1224.69
441.59	1279.98
441.80	1271.79
442.00	1372.14
442.21	1282.03
442.41	1298.41
442.62	1316.84
442.82	1339.37
443.02	1290.22
443.23	1273.84
443.43	1302.51
443.64	1239.02
443.84	1290.22
444.05	1259.50
444.25	1273.84
444.46	1212.40
444.66	1290.22
444.87	1275.88
445.07	1310.70
445.28	1329.13
445.48	1253.36
445.69	1249.26
445.89	1236.97
446.09	1232.88
446.30	1277.93
446.50	1292.27
446.71	1236.97
446.91	1294.32
447.12	1304.56
447.32	1269.74
447.53	1198.06
447.73	1214.45
447.93	1236.97
448.14	1251.31
448.34	1261.55
448.55	1261.55
448.75	1249.26
448.96	1327.08
449.16	1273.84
449.36	1273.84
449.57	1329.13
449.77	1310.70
449.98	1271.79
450.18	1294.32
450.39	1263.60
450.59	1265.64
450.79	1298.41
451.00	1259.50
451.20	1216.49
451.41	1292.27
451.61	1247.21
451.81	1263.60
452.02	1257.45
452.22	1304.56
452.43	1310.70
452.63	1292.27
