SpectraSuite Data File
++++++++++++++++++++++++++++++++++++
Date: Sun Apr 03 19:55:27 CEST 2016
User: root
Dark Spectrum Present: No
Reference Spectrum Present: No
Number of Sampled Component Spectra: 1
Spectrometers: USB4C02835
Integration Time (usec): 10000 (USB4C02835)
Spectra Averaged: 1 (USB4C02835)
Boxcar Smoothing: 0 (USB4C02835)
Correct for Electrical Dark: No (USB4C02835)
Strobe/Lamp Enabled: No (USB4C02835)
Correct for Detector Non-linearity: No (USB4C02835)
Correct for Stray Light: No (USB4C02835)
Number of Pixels in Processed Spectrum: 3648
>>>>>Begin Processed Spectral Data<<<<<
177.47	1275.88
177.69	1275.88
177.91	1275.88
178.13	1261.55
178.36	1234.93
178.58	1251.31
178.80	1183.73
179.02	1220.59
179.24	1245.16
179.46	1296.36
179.68	1347.56
179.90	1212.40
180.13	1206.25
180.35	1210.35
180.57	1304.56
180.79	1269.74
181.01	1169.39
181.23	1331.18
181.45	1314.80
181.67	1236.97
181.90	1306.60
182.12	1265.64
182.34	1269.74
182.56	1275.88
182.78	1263.60
183.00	1224.69
183.22	1296.36
183.44	1290.22
183.66	1243.12
183.89	1210.35
184.11	1275.88
184.33	1288.17
184.55	1273.84
184.77	1298.41
184.99	1292.27
185.21	1265.64
185.43	1288.17
185.65	1239.02
185.87	1255.40
186.10	1284.08
186.32	1257.45
186.54	1335.28
186.76	1277.93
186.98	1257.45
187.20	1314.80
187.42	1255.40
187.64	1228.78
187.86	1329.13
188.08	1277.93
188.30	1314.80
188.52	1251.31
188.75	1245.16
188.97	1316.84
189.19	1306.60
189.41	1271.79
189.63	1202.16
189.85	1220.59
190.07	1257.45
190.29	1255.40
190.51	1306.60
190.73	1247.21
190.95	1279.98
191.17	1245.16
191.39	1306.60
191.61	1267.69
191.84	1230.83
192.06	1261.55
192.28	1226.73
192.50	1304.56
192.72	1200.11
192.94	1212.40
193.16	1290.22
193.38	1204.21
193.60	1277.93
193.82	1292.27
194.04	1236.97
194.26	1218.54
194.48	1245.16
194.70	1230.83
194.92	1224.69
195.14	1243.12
195.36	1259.50
195.58	1193.97
195.80	1220.59
196.02	1257.45
196.24	1249.26
196.46	1331.18
196.69	1292.27
196.91	1261.55
197.13	1236.97
197.35	1286.12
197.57	1173.49
197.79	1327.08
198.01	1202.16
198.23	1255.40
198.45	1243.12
198.67	1263.60
198.89	1232.88
199.11	1290.22
199.33	1304.56
199.55	1273.84
199.77	1253.36
199.99	1292.27
200.21	1329.13
200.43	1316.84
200.65	1218.54
200.87	1347.56
201.09	1290.22
201.31	1282.03
201.53	1335.28
201.75	1331.18
201.97	1282.03
202.19	1253.36
202.41	1257.45
202.63	1312.75
202.85	1239.02
203.07	1265.64
203.29	1265.64
203.51	1273.84
203.73	1202.16
203.95	1228.78
204.17	1257.45
204.39	1337.32
204.61	1247.21
204.83	1302.51
205.05	1263.60
205.27	1292.27
205.49	1290.22
205.71	1232.88
205.93	1290.22
206.15	1230.83
206.37	1251.31
206.59	1232.88
206.81	1302.51
207.03	1220.59
207.25	1318.89
207.47	1314.80
207.69	1212.40
207.91	1265.64
208.13	1191.92
208.34	1247.21
208.56	1202.16
208.78	1251.31
209.00	1290.22
209.22	1265.64
209.44	1277.93
209.66	1232.88
209.88	1226.73
210.10	1255.40
210.32	1185.77
210.54	1206.25
210.76	1193.97
210.98	1259.50
211.20	1196.01
211.42	1220.59
211.64	1269.74
211.86	1185.77
212.08	1290.22
212.30	1271.79
212.52	1259.50
212.74	1265.64
212.96	1241.07
213.17	1282.03
213.39	1257.45
213.61	1351.66
213.83	1269.74
214.05	1279.98
214.27	1241.07
214.49	1212.40
214.71	1269.74
214.93	1331.18
215.15	1255.40
215.37	1255.40
215.59	1241.07
215.81	1322.99
216.03	1282.03
216.24	1284.08
216.46	1267.69
216.68	1286.12
216.90	1286.12
217.12	1247.21
217.34	1239.02
217.56	1206.25
217.78	1200.11
218.00	1208.30
218.22	1318.89
218.44	1288.17
218.66	1282.03
218.87	1269.74
219.09	1292.27
219.31	1308.65
219.53	1222.64
219.75	1271.79
219.97	1265.64
220.19	1271.79
220.41	1239.02
220.63	1267.69
220.85	1312.75
221.06	1273.84
221.28	1228.78
221.50	1298.41
221.72	1298.41
221.94	1290.22
222.16	1210.35
222.38	1263.60
222.60	1218.54
222.82	1331.18
223.03	1236.97
223.25	1318.89
223.47	1224.69
223.69	1241.07
223.91	1286.12
224.13	1232.88
224.35	1269.74
224.57	1249.26
224.78	1265.64
225.00	1296.36
225.22	1255.40
225.44	1288.17
225.66	1257.45
225.88	1249.26
226.10	1249.26
226.32	1265.64
226.53	1251.31
226.75	1243.12
226.97	1327.08
227.19	1224.69
227.41	1271.79
227.63	1343.47
227.85	1198.06
228.06	1239.02
228.28	1271.79
228.50	1277.93
228.72	1302.51
228.94	1236.97
229.16	1267.69
229.37	1234.93
229.59	1206.25
229.81	1294.32
230.03	1288.17
230.25	1185.77
230.47	1245.16
230.69	1279.98
230.90	1230.83
231.12	1310.70
231.34	1239.02
231.56	1327.08
231.78	1288.17
232.00	1333.23
232.21	1234.93
232.43	1239.02
232.65	1265.64
232.87	1216.49
233.09	1269.74
233.30	1230.83
233.52	1302.51
233.74	1247.21
233.96	1163.25
234.18	1232.88
234.40	1263.60
234.61	1239.02
234.83	1241.07
235.05	1275.88
235.27	1277.93
235.49	1271.79
235.70	1320.94
235.92	1259.50
236.14	1241.07
236.36	1325.04
236.58	1241.07
236.79	1216.49
237.01	1208.30
237.23	1224.69
237.45	1279.98
237.67	1208.30
237.88	1296.36
238.10	1290.22
238.32	1286.12
238.54	1241.07
238.76	1224.69
238.97	1259.50
239.19	1318.89
239.41	1325.04
239.63	1212.40
239.85	1257.45
240.06	1255.40
240.28	1251.31
240.50	1400.81
240.72	1290.22
240.93	1228.78
241.15	1290.22
241.37	1249.26
241.59	1306.60
241.81	1239.02
242.02	1251.31
242.24	1234.93
242.46	1236.97
242.68	1275.88
242.89	1294.32
243.11	1187.82
243.33	1343.47
243.55	1218.54
243.76	1234.93
243.98	1347.56
244.20	1257.45
244.42	1251.31
244.64	1302.51
244.85	1241.07
245.07	1257.45
245.29	1302.51
245.51	1234.93
245.72	1257.45
245.94	1263.60
246.16	1210.35
246.38	1282.03
246.59	1294.32
246.81	1241.07
247.03	1228.78
247.24	1230.83
247.46	1261.55
247.68	1282.03
247.90	1249.26
248.11	1329.13
248.33	1234.93
248.55	1322.99
248.77	1198.06
248.98	1345.52
249.20	1251.31
249.42	1282.03
249.64	1255.40
249.85	1259.50
250.07	1261.55
250.29	1214.45
250.50	1310.70
250.72	1267.69
250.94	1290.22
251.16	1290.22
251.37	1224.69
251.59	1239.02
251.81	1239.02
252.02	1249.26
252.24	1277.93
252.46	1341.42
252.68	1255.40
252.89	1302.51
253.11	1236.97
253.33	1265.64
253.54	1261.55
253.76	1230.83
253.98	1294.32
254.20	1257.45
254.41	1275.88
254.63	1271.79
254.85	1271.79
255.06	1243.12
255.28	1279.98
255.50	1282.03
255.71	1243.12
255.93	1271.79
256.15	1265.64
256.36	1296.36
256.58	1239.02
256.80	1232.88
257.02	1234.93
257.23	1306.60
257.45	1261.55
257.67	1263.60
257.88	1325.04
258.10	1226.73
258.32	1277.93
258.53	1306.60
258.75	1298.41
258.97	1257.45
259.18	1132.53
259.40	1279.98
259.62	1288.17
259.83	1286.12
260.05	1288.17
260.27	1269.74
260.48	1226.73
260.70	1275.88
260.92	1318.89
261.13	1255.40
261.35	1282.03
261.57	1249.26
261.78	1302.51
262.00	1230.83
262.22	1277.93
262.43	1259.50
262.65	1277.93
262.86	1220.59
263.08	1290.22
263.30	1361.90
263.51	1171.44
263.73	1249.26
263.95	1212.40
264.16	1259.50
264.38	1308.65
264.60	1304.56
264.81	1200.11
265.03	1241.07
265.25	1296.36
265.46	1269.74
265.68	1259.50
265.89	1265.64
266.11	1181.68
266.33	1304.56
266.54	1251.31
266.76	1269.74
266.98	1288.17
267.19	1314.80
267.41	1234.93
267.62	1335.28
267.84	1286.12
268.06	1318.89
268.27	1296.36
268.49	1275.88
268.70	1269.74
268.92	1298.41
269.14	1286.12
269.35	1249.26
269.57	1302.51
269.79	1261.55
270.00	1245.16
270.22	1230.83
270.43	1167.34
270.65	1308.65
270.87	1314.80
271.08	1292.27
271.30	1304.56
271.51	1333.23
271.73	1296.36
271.95	1363.95
272.16	1296.36
272.38	1265.64
272.59	1302.51
272.81	1273.84
273.02	1298.41
273.24	1261.55
273.46	1341.42
273.67	1329.13
273.89	1222.64
274.10	1261.55
274.32	1259.50
274.54	1271.79
274.75	1216.49
274.97	1212.40
275.18	1267.69
275.40	1271.79
275.61	1243.12
275.83	1290.22
276.05	1257.45
276.26	1232.88
276.48	1292.27
276.69	1239.02
276.91	1224.69
277.12	1247.21
277.34	1335.28
277.55	1261.55
277.77	1271.79
277.99	1224.69
278.20	1300.46
278.42	1308.65
278.63	1259.50
278.85	1335.28
279.06	1251.31
279.28	1361.90
279.49	1277.93
279.71	1349.61
279.93	1243.12
280.14	1226.73
280.36	1320.94
280.57	1288.17
280.79	1200.11
281.00	1263.60
281.22	1271.79
281.43	1261.55
281.65	1253.36
281.86	1245.16
282.08	1288.17
282.29	1265.64
282.51	1234.93
282.73	1314.80
282.94	1294.32
283.16	1294.32
283.37	1284.08
283.59	1243.12
283.80	1245.16
284.02	1282.03
284.23	1265.64
284.45	1341.42
284.66	1236.97
284.88	1302.51
285.09	1226.73
285.31	1294.32
285.52	1232.88
285.74	1222.64
285.95	1247.21
286.17	1257.45
286.38	1271.79
286.60	1265.64
286.81	1308.65
287.03	1265.64
287.24	1234.93
287.46	1210.35
287.67	1243.12
287.89	1263.60
288.10	1228.78
288.32	1320.94
288.53	1206.25
288.75	1343.47
288.96	1290.22
289.18	1359.85
289.39	1282.03
289.61	1245.16
289.82	1300.46
290.04	1271.79
290.25	1204.21
290.47	1241.07
290.68	1247.21
290.90	1265.64
291.11	1265.64
291.33	1320.94
291.54	1253.36
291.76	1249.26
291.97	1206.25
292.18	1325.04
292.40	1308.65
292.61	1220.59
292.83	1224.69
293.04	1236.97
293.26	1294.32
293.47	1263.60
293.69	1239.02
293.90	1249.26
294.12	1257.45
294.33	1271.79
294.55	1298.41
294.76	1220.59
294.97	1212.40
295.19	1298.41
295.40	1214.45
295.62	1243.12
295.83	1257.45
296.05	1257.45
296.26	1325.04
296.48	1236.97
296.69	1208.30
296.90	1263.60
297.12	1241.07
297.33	1249.26
297.55	1220.59
297.76	1222.64
297.98	1290.22
298.19	1200.11
298.41	1224.69
298.62	1314.80
298.83	1245.16
299.05	1245.16
299.26	1277.93
299.48	1214.45
299.69	1273.84
299.90	1265.64
300.12	1267.69
300.33	1279.98
300.55	1208.30
300.76	1273.84
300.98	1241.07
301.19	1322.99
301.40	1337.32
301.62	1206.25
301.83	1275.88
302.05	1243.12
302.26	1232.88
302.47	1243.12
302.69	1239.02
302.90	1216.49
303.12	1314.80
303.33	1269.74
303.54	1239.02
303.76	1245.16
303.97	1318.89
304.19	1312.75
304.40	1290.22
304.61	1228.78
304.83	1255.40
305.04	1259.50
305.26	1239.02
305.47	1249.26
305.68	1247.21
305.90	1224.69
306.11	1257.45
306.33	1298.41
306.54	1271.79
306.75	1249.26
306.97	1206.25
307.18	1161.20
307.39	1228.78
307.61	1263.60
307.82	1265.64
308.04	1249.26
308.25	1298.41
308.46	1255.40
308.68	1349.61
308.89	1310.70
309.10	1327.08
309.32	1239.02
309.53	1284.08
309.74	1286.12
309.96	1255.40
310.17	1236.97
310.39	1312.75
310.60	1265.64
310.81	1232.88
311.03	1298.41
311.24	1288.17
311.45	1275.88
311.67	1189.87
311.88	1265.64
312.09	1271.79
312.31	1314.80
312.52	1206.25
312.73	1228.78
312.95	1247.21
313.16	1222.64
313.37	1228.78
313.59	1359.85
313.80	1275.88
314.01	1247.21
314.23	1218.54
314.44	1241.07
314.65	1216.49
314.87	1265.64
315.08	1212.40
315.29	1212.40
315.51	1202.16
315.72	1226.73
315.93	1279.98
316.15	1298.41
316.36	1265.64
316.57	1249.26
316.79	1187.82
317.00	1249.26
317.21	1302.51
317.43	1322.99
317.64	1327.08
317.85	1265.64
318.07	1290.22
318.28	1236.97
318.49	1214.45
318.70	1331.18
318.92	1308.65
319.13	1318.89
319.34	1216.49
319.56	1241.07
319.77	1247.21
319.98	1279.98
320.20	1253.36
320.41	1191.92
320.62	1214.45
320.83	1288.17
321.05	1306.60
321.26	1290.22
321.47	1218.54
321.69	1296.36
321.90	1265.64
322.11	1286.12
322.32	1269.74
322.54	1294.32
322.75	1228.78
322.96	1279.98
323.18	1312.75
323.39	1304.56
323.60	1318.89
323.81	1300.46
324.03	1314.80
324.24	1216.49
324.45	1310.70
324.66	1316.84
324.88	1286.12
325.09	1296.36
325.30	1282.03
325.52	1314.80
325.73	1282.03
325.94	1331.18
326.15	1261.55
326.37	1232.88
326.58	1353.71
326.79	1298.41
327.00	1294.32
327.22	1232.88
327.43	1200.11
327.64	1327.08
327.85	1302.51
328.07	1279.98
328.28	1359.85
328.49	1284.08
328.70	1230.83
328.92	1329.13
329.13	1300.46
329.34	1236.97
329.55	1269.74
329.76	1259.50
329.98	1261.55
330.19	1265.64
330.40	1345.52
330.61	1288.17
330.83	1329.13
331.04	1232.88
331.25	1282.03
331.46	1300.46
331.68	1189.87
331.89	1236.97
332.10	1239.02
332.31	1259.50
332.52	1275.88
332.74	1288.17
332.95	1325.04
333.16	1234.93
333.37	1271.79
333.58	1239.02
333.80	1271.79
334.01	1257.45
334.22	1282.03
334.43	1294.32
334.64	1247.21
334.86	1282.03
335.07	1286.12
335.28	1322.99
335.49	1290.22
335.70	1298.41
335.92	1220.59
336.13	1296.36
336.34	1269.74
336.55	1290.22
336.76	1271.79
336.98	1202.16
337.19	1210.35
337.40	1273.84
337.61	1306.60
337.82	1249.26
338.04	1306.60
338.25	1296.36
338.46	1294.32
338.67	1243.12
338.88	1290.22
339.09	1292.27
339.31	1253.36
339.52	1255.40
339.73	1230.83
339.94	1312.75
340.15	1253.36
340.36	1241.07
340.58	1271.79
340.79	1271.79
341.00	1288.17
341.21	1347.56
341.42	1218.54
341.63	1374.19
341.85	1263.60
342.06	1290.22
342.27	1329.13
342.48	1298.41
342.69	1189.87
342.90	1300.46
343.12	1292.27
343.33	1300.46
343.54	1241.07
343.75	1312.75
343.96	1316.84
344.17	1249.26
344.38	1327.08
344.60	1341.42
344.81	1226.73
345.02	1314.80
345.23	1296.36
345.44	1269.74
345.65	1318.89
345.86	1318.89
346.07	1294.32
346.29	1196.01
346.50	1304.56
346.71	1294.32
346.92	1294.32
347.13	1339.37
347.34	1187.82
347.55	1312.75
347.76	1265.64
347.98	1239.02
348.19	1255.40
348.40	1259.50
348.61	1271.79
348.82	1236.97
349.03	1193.97
349.24	1259.50
349.45	1288.17
349.66	1290.22
349.88	1273.84
350.09	1310.70
350.30	1230.83
350.51	1222.64
350.72	1288.17
350.93	1292.27
351.14	1284.08
351.35	1292.27
351.56	1173.49
351.77	1314.80
351.99	1241.07
352.20	1282.03
352.41	1318.89
352.62	1279.98
352.83	1286.12
353.04	1337.32
353.25	1210.35
353.46	1343.47
353.67	1284.08
353.88	1218.54
354.09	1290.22
354.30	1261.55
354.52	1232.88
354.73	1306.60
354.94	1232.88
355.15	1206.25
355.36	1234.93
355.57	1245.16
355.78	1247.21
355.99	1226.73
356.20	1204.21
356.41	1325.04
356.62	1284.08
356.83	1259.50
357.04	1327.08
357.25	1241.07
357.46	1310.70
357.68	1241.07
357.89	1251.31
358.10	1353.71
358.31	1286.12
358.52	1296.36
358.73	1234.93
358.94	1261.55
359.15	1241.07
359.36	1212.40
359.57	1286.12
359.78	1380.33
359.99	1273.84
360.20	1261.55
360.41	1243.12
360.62	1368.04
360.83	1284.08
361.04	1255.40
361.25	1226.73
361.46	1322.99
361.67	1230.83
361.88	1257.45
362.09	1271.79
362.30	1241.07
362.51	1232.88
362.72	1322.99
362.93	1314.80
363.14	1257.45
363.35	1292.27
363.56	1189.87
363.78	1214.45
363.99	1265.64
364.20	1222.64
364.41	1241.07
364.62	1253.36
364.83	1304.56
365.04	1196.01
365.25	1282.03
365.46	1271.79
365.67	1243.12
365.88	1234.93
366.09	1290.22
366.30	1286.12
366.51	1308.65
366.72	1255.40
366.93	1228.78
367.14	1214.45
367.35	1271.79
367.56	1269.74
367.77	1277.93
367.98	1247.21
368.18	1273.84
368.39	1277.93
368.60	1257.45
368.81	1288.17
369.02	1232.88
369.23	1247.21
369.44	1251.31
369.65	1310.70
369.86	1284.08
370.07	1282.03
370.28	1181.68
370.49	1345.52
370.70	1216.49
370.91	1302.51
371.12	1243.12
371.33	1314.80
371.54	1208.30
371.75	1290.22
371.96	1322.99
372.17	1259.50
372.38	1216.49
372.59	1329.13
372.80	1226.73
373.01	1269.74
373.22	1343.47
373.43	1327.08
373.64	1308.65
373.85	1265.64
374.06	1277.93
374.26	1273.84
374.47	1249.26
374.68	1275.88
374.89	1380.33
375.10	1232.88
375.31	1251.31
375.52	1308.65
375.73	1284.08
375.94	1224.69
376.15	1259.50
376.36	1220.59
376.57	1298.41
376.78	1220.59
376.99	1267.69
377.20	1253.36
377.40	1259.50
377.61	1286.12
377.82	1210.35
378.03	1327.08
378.24	1331.18
378.45	1243.12
378.66	1310.70
378.87	1325.04
379.08	1271.79
379.29	1249.26
379.50	1279.98
379.71	1234.93
379.91	1243.12
380.12	1282.03
380.33	1366.00
380.54	1228.78
380.75	1230.83
380.96	1245.16
381.17	1306.60
381.38	1253.36
381.59	1302.51
381.80	1204.21
382.00	1294.32
382.21	1349.61
382.42	1179.63
382.63	1243.12
382.84	1263.60
383.05	1234.93
383.26	1241.07
383.47	1218.54
383.68	1288.17
383.88	1273.84
384.09	1279.98
384.30	1351.66
384.51	1284.08
384.72	1218.54
384.93	1198.06
385.14	1318.89
385.35	1302.51
385.55	1312.75
385.76	1279.98
385.97	1333.23
386.18	1245.16
386.39	1163.25
386.60	1320.94
386.81	1335.28
387.02	1320.94
387.22	1196.01
387.43	1239.02
387.64	1298.41
387.85	1202.16
388.06	1251.31
388.27	1329.13
388.48	1236.97
388.68	1372.14
388.89	1251.31
389.10	1265.64
389.31	1290.22
389.52	1345.52
389.73	1271.79
389.93	1249.26
390.14	1210.35
390.35	1292.27
390.56	1316.84
390.77	1288.17
390.98	1306.60
391.18	1327.08
391.39	1267.69
391.60	1208.30
391.81	1159.15
392.02	1241.07
392.23	1232.88
392.43	1243.12
392.64	1327.08
392.85	1271.79
393.06	1230.83
393.27	1312.75
393.47	1245.16
393.68	1282.03
393.89	1204.21
394.10	1282.03
394.31	1288.17
394.52	1263.60
394.72	1212.40
394.93	1253.36
395.14	1175.53
395.35	1275.88
395.56	1304.56
395.76	1179.63
395.97	1298.41
396.18	1214.45
396.39	1230.83
396.60	1279.98
396.80	1245.16
397.01	1259.50
397.22	1292.27
397.43	1257.45
397.64	1294.32
397.84	1294.32
398.05	1265.64
398.26	1269.74
398.47	1249.26
398.67	1202.16
398.88	1224.69
399.09	1304.56
399.30	1236.97
399.51	1234.93
399.71	1255.40
399.92	1189.87
400.13	1286.12
400.34	1320.94
400.54	1226.73
400.75	1255.40
400.96	1224.69
401.17	1273.84
401.37	1273.84
401.58	1228.78
401.79	1228.78
402.00	1259.50
402.21	1216.49
402.41	1269.74
402.62	1277.93
402.83	1263.60
403.04	1249.26
403.24	1273.84
403.45	1306.60
403.66	1322.99
403.87	1245.16
404.07	1206.25
404.28	1290.22
404.49	1263.60
404.70	1269.74
404.90	1279.98
405.11	1265.64
405.32	1304.56
405.52	1265.64
405.73	1308.65
405.94	1269.74
406.15	1296.36
406.35	1196.01
406.56	1304.56
406.77	1200.11
406.98	1302.51
407.18	1277.93
407.39	1279.98
407.60	1255.40
407.80	1241.07
408.01	1216.49
408.22	1259.50
408.43	1161.20
408.63	1245.16
408.84	1368.04
409.05	1269.74
409.25	1169.39
409.46	1337.32
409.67	1286.12
409.88	1249.26
410.08	1243.12
410.29	1257.45
410.50	1331.18
410.70	1255.40
410.91	1275.88
411.12	1353.71
411.32	1329.13
411.53	1120.24
411.74	1292.27
411.95	1312.75
412.15	1349.61
412.36	1325.04
412.57	1290.22
412.77	1228.78
412.98	1318.89
413.19	1312.75
413.39	1241.07
413.60	1206.25
413.81	1218.54
414.01	1292.27
414.22	1230.83
414.43	1290.22
414.63	1171.44
414.84	1353.71
415.05	1247.21
415.25	1245.16
415.46	1249.26
415.67	1263.60
415.87	1218.54
416.08	1316.84
416.29	1222.64
416.49	1325.04
416.70	1245.16
416.91	1316.84
417.11	1247.21
417.32	1236.97
417.53	1251.31
417.73	1243.12
417.94	1263.60
418.15	1226.73
418.35	1257.45
418.56	1224.69
418.77	1253.36
418.97	1236.97
419.18	1247.21
419.38	1218.54
419.59	1220.59
419.80	1224.69
420.00	1239.02
420.21	1255.40
420.42	1325.04
420.62	1224.69
420.83	1198.06
421.04	1239.02
421.24	1273.84
421.45	1239.02
421.65	1183.73
421.86	1279.98
422.07	1224.69
422.27	1335.28
422.48	1249.26
422.69	1290.22
422.89	1325.04
423.10	1296.36
423.30	1308.65
423.51	1277.93
423.72	1265.64
423.92	1292.27
424.13	1193.97
424.33	1255.40
424.54	1288.17
424.75	1263.60
424.95	1251.31
425.16	1304.56
425.36	1228.78
425.57	1296.36
425.78	1296.36
425.98	1271.79
426.19	1259.50
426.39	1298.41
426.60	1322.99
426.81	1261.55
427.01	1251.31
427.22	1212.40
427.42	1251.31
427.63	1236.97
427.83	1263.60
428.04	1284.08
428.25	1322.99
428.45	1273.84
428.66	1277.93
428.86	1292.27
429.07	1277.93
429.28	1306.60
429.48	1255.40
429.69	1294.32
429.89	1247.21
430.10	1255.40
430.30	1253.36
430.51	1304.56
430.71	1239.02
430.92	1232.88
431.13	1292.27
431.33	1265.64
431.54	1257.45
431.74	1304.56
431.95	1265.64
432.15	1255.40
432.36	1177.58
432.56	1224.69
432.77	1208.30
432.98	1263.60
433.18	1218.54
433.39	1222.64
433.59	1245.16
433.80	1331.18
434.00	1267.69
434.21	1263.60
434.41	1247.21
434.62	1296.36
434.82	1239.02
435.03	1214.45
435.23	1216.49
435.44	1308.65
435.64	1261.55
435.85	1273.84
436.06	1361.90
436.26	1376.24
436.47	1210.35
436.67	1255.40
436.88	1206.25
437.08	1263.60
437.29	1140.72
437.49	1286.12
437.70	1253.36
437.90	1261.55
438.11	1243.12
438.31	1316.84
438.52	1279.98
438.72	1284.08
438.93	1271.79
439.13	1306.60
439.34	1212.40
439.54	1269.74
439.75	1232.88
439.95	1282.03
440.16	1179.63
440.36	1249.26
440.57	1245.16
440.77	1218.54
440.98	1214.45
441.18	1304.56
441.39	1228.78
441.59	1228.78
441.80	1245.16
442.00	1265.64
442.21	1247.21
442.41	1310.70
442.62	1308.65
442.82	1267.69
443.02	1220.59
443.23	1279.98
443.43	1275.88
443.64	1232.88
443.84	1302.51
444.05	1212.40
444.25	1271.79
444.46	1312.75
444.66	1277.93
444.87	1273.84
445.07	1351.66
445.28	1261.55
445.48	1288.17
445.69	1271.79
445.89	1222.64
446.09	1273.84
446.30	1304.56
446.50	1290.22
446.71	1212.40
446.91	1277.93
447.12	1277.93
447.32	1273.84
447.53	1275.88
447.73	1294.32
447.93	1290.22
448.14	1239.02
448.34	1257.45
448.55	1284.08
448.75	1253.36
448.96	1212.40
449.16	1259.50
449.36	1273.84
449.57	1191.92
449.77	1343.47
449.98	1300.46
450.18	1277.93
450.39	1253.36
450.59	1310.70
450.79	1286.12
451.00	1259.50
451.20	1333.23
451.41	1310.70
451.61	1275.88
451.81	1290.22
452.02	1304.56
452.22	1277.93
452.43	1234.93
452.63	1253.36
