SpectraSuite Data File
++++++++++++++++++++++++++++++++++++
Date: Sun Apr 03 19:55:21 CEST 2016
User: root
Dark Spectrum Present: No
Reference Spectrum Present: No
Number of Sampled Component Spectra: 1
Spectrometers: USB4C02835
Integration Time (usec): 10000 (USB4C02835)
Spectra Averaged: 1 (USB4C02835)
Boxcar Smoothing: 0 (USB4C02835)
Correct for Electrical Dark: No (USB4C02835)
Strobe/Lamp Enabled: No (USB4C02835)
Correct for Detector Non-linearity: No (USB4C02835)
Correct for Stray Light: No (USB4C02835)
Number of Pixels in Processed Spectrum: 3648
>>>>>Begin Processed Spectral Data<<<<<
177.47	1284.08
177.69	1284.08
177.91	1284.08
178.13	1322.99
178.36	1320.94
178.58	1273.84
178.80	1265.64
179.02	1202.16
179.24	1269.74
179.46	1220.59
179.68	1210.35
179.90	1322.99
180.13	1261.55
180.35	1376.24
180.57	1292.27
180.79	1267.69
181.01	1322.99
181.23	1286.12
181.45	1370.09
181.67	1257.45
181.90	1232.88
182.12	1288.17
182.34	1308.65
182.56	1218.54
182.78	1312.75
183.00	1275.88
183.22	1279.98
183.44	1267.69
183.66	1284.08
183.89	1347.56
184.11	1247.21
184.33	1196.01
184.55	1224.69
184.77	1259.50
184.99	1288.17
185.21	1273.84
185.43	1312.75
185.65	1224.69
185.87	1228.78
186.10	1267.69
186.32	1267.69
186.54	1331.18
186.76	1273.84
186.98	1173.49
187.20	1314.80
187.42	1267.69
187.64	1275.88
187.86	1279.98
188.08	1232.88
188.30	1239.02
188.52	1232.88
188.75	1273.84
188.97	1253.36
189.19	1284.08
189.41	1267.69
189.63	1329.13
189.85	1251.31
190.07	1290.22
190.29	1267.69
190.51	1239.02
190.73	1245.16
190.95	1314.80
191.17	1189.87
191.39	1214.45
191.61	1253.36
191.84	1257.45
192.06	1275.88
192.28	1216.49
192.50	1216.49
192.72	1343.47
192.94	1216.49
193.16	1261.55
193.38	1214.45
193.60	1277.93
193.82	1255.40
194.04	1251.31
194.26	1236.97
194.48	1314.80
194.70	1257.45
194.92	1255.40
195.14	1314.80
195.36	1298.41
195.58	1308.65
195.80	1282.03
196.02	1304.56
196.24	1273.84
196.46	1327.08
196.69	1228.78
196.91	1331.18
197.13	1204.21
197.35	1290.22
197.57	1322.99
197.79	1275.88
198.01	1290.22
198.23	1267.69
198.45	1222.64
198.67	1259.50
198.89	1257.45
199.11	1208.30
199.33	1255.40
199.55	1259.50
199.77	1335.28
199.99	1265.64
200.21	1208.30
200.43	1257.45
200.65	1208.30
200.87	1273.84
201.09	1277.93
201.31	1251.31
201.53	1337.32
201.75	1368.04
201.97	1245.16
202.19	1243.12
202.41	1236.97
202.63	1200.11
202.85	1255.40
203.07	1232.88
203.29	1318.89
203.51	1269.74
203.73	1198.06
203.95	1275.88
204.17	1218.54
204.39	1269.74
204.61	1273.84
204.83	1333.23
205.05	1234.93
205.27	1226.73
205.49	1310.70
205.71	1253.36
205.93	1249.26
206.15	1290.22
206.37	1322.99
206.59	1302.51
206.81	1200.11
207.03	1318.89
207.25	1196.01
207.47	1259.50
207.69	1224.69
207.91	1241.07
208.13	1212.40
208.34	1241.07
208.56	1226.73
208.78	1282.03
209.00	1271.79
209.22	1177.58
209.44	1306.60
209.66	1275.88
209.88	1239.02
210.10	1263.60
210.32	1341.42
210.54	1329.13
210.76	1257.45
210.98	1279.98
211.20	1173.49
211.42	1282.03
211.64	1202.16
211.86	1224.69
212.08	1294.32
212.30	1245.16
212.52	1202.16
212.74	1327.08
212.96	1255.40
213.17	1216.49
213.39	1226.73
213.61	1259.50
213.83	1337.32
214.05	1273.84
214.27	1122.29
214.49	1312.75
214.71	1325.04
214.93	1275.88
215.15	1214.45
215.37	1316.84
215.59	1253.36
215.81	1263.60
216.03	1232.88
216.24	1271.79
216.46	1236.97
216.68	1234.93
216.90	1273.84
217.12	1232.88
217.34	1267.69
217.56	1245.16
217.78	1234.93
218.00	1263.60
218.22	1220.59
218.44	1310.70
218.66	1202.16
218.87	1271.79
219.09	1247.21
219.31	1302.51
219.53	1212.40
219.75	1322.99
219.97	1282.03
220.19	1239.02
220.41	1257.45
220.63	1306.60
220.85	1329.13
221.06	1298.41
221.28	1300.46
221.50	1284.08
221.72	1259.50
221.94	1216.49
222.16	1267.69
222.38	1232.88
222.60	1298.41
222.82	1263.60
223.03	1208.30
223.25	1245.16
223.47	1234.93
223.69	1222.64
223.91	1255.40
224.13	1290.22
224.35	1196.01
224.57	1261.55
224.78	1284.08
225.00	1325.04
225.22	1261.55
225.44	1230.83
225.66	1294.32
225.88	1314.80
226.10	1226.73
226.32	1232.88
226.53	1347.56
226.75	1314.80
226.97	1263.60
227.19	1257.45
227.41	1327.08
227.63	1288.17
227.85	1308.65
228.06	1239.02
228.28	1322.99
228.50	1269.74
228.72	1310.70
228.94	1282.03
229.16	1296.36
229.37	1284.08
229.59	1273.84
229.81	1286.12
230.03	1257.45
230.25	1255.40
230.47	1251.31
230.69	1294.32
230.90	1296.36
231.12	1304.56
231.34	1314.80
231.56	1249.26
231.78	1343.47
232.00	1288.17
232.21	1310.70
232.43	1265.64
232.65	1265.64
232.87	1294.32
233.09	1282.03
233.30	1296.36
233.52	1316.84
233.74	1263.60
233.96	1218.54
234.18	1304.56
234.40	1273.84
234.61	1253.36
234.83	1214.45
235.05	1325.04
235.27	1222.64
235.49	1271.79
235.70	1273.84
235.92	1329.13
236.14	1251.31
236.36	1282.03
236.58	1255.40
236.79	1271.79
237.01	1222.64
237.23	1271.79
237.45	1200.11
237.67	1279.98
237.88	1222.64
238.10	1271.79
238.32	1251.31
238.54	1298.41
238.76	1312.75
238.97	1316.84
239.19	1314.80
239.41	1329.13
239.63	1294.32
239.85	1329.13
240.06	1175.53
240.28	1265.64
240.50	1277.93
240.72	1318.89
240.93	1249.26
241.15	1320.94
241.37	1236.97
241.59	1257.45
241.81	1222.64
242.02	1288.17
242.24	1292.27
242.46	1292.27
242.68	1316.84
242.89	1257.45
243.11	1249.26
243.33	1259.50
243.55	1273.84
243.76	1257.45
243.98	1290.22
244.20	1236.97
244.42	1267.69
244.64	1306.60
244.85	1257.45
245.07	1189.87
245.29	1210.35
245.51	1275.88
245.72	1247.21
245.94	1292.27
246.16	1306.60
246.38	1261.55
246.59	1198.06
246.81	1271.79
247.03	1294.32
247.24	1218.54
247.46	1286.12
247.68	1277.93
247.90	1265.64
248.11	1218.54
248.33	1253.36
248.55	1284.08
248.77	1187.82
248.98	1279.98
249.20	1261.55
249.42	1269.74
249.64	1216.49
249.85	1345.52
250.07	1239.02
250.29	1304.56
250.50	1247.21
250.72	1251.31
250.94	1259.50
251.16	1230.83
251.37	1273.84
251.59	1359.85
251.81	1306.60
252.02	1206.25
252.24	1275.88
252.46	1261.55
252.68	1259.50
252.89	1259.50
253.11	1267.69
253.33	1331.18
253.54	1314.80
253.76	1259.50
253.98	1304.56
254.20	1294.32
254.41	1249.26
254.63	1271.79
254.85	1298.41
255.06	1290.22
255.28	1210.35
255.50	1294.32
255.71	1275.88
255.93	1241.07
256.15	1224.69
256.36	1294.32
256.58	1245.16
256.80	1279.98
257.02	1265.64
257.23	1259.50
257.45	1251.31
257.67	1279.98
257.88	1251.31
258.10	1220.59
258.32	1277.93
258.53	1259.50
258.75	1253.36
258.97	1282.03
259.18	1263.60
259.40	1286.12
259.62	1241.07
259.83	1310.70
260.05	1257.45
260.27	1288.17
260.48	1253.36
260.70	1224.69
260.92	1261.55
261.13	1284.08
261.35	1265.64
261.57	1251.31
261.78	1257.45
262.00	1284.08
262.22	1259.50
262.43	1263.60
262.65	1322.99
262.86	1314.80
263.08	1255.40
263.30	1259.50
263.51	1220.59
263.73	1216.49
263.95	1286.12
264.16	1265.64
264.38	1187.82
264.60	1341.42
264.81	1251.31
265.03	1239.02
265.25	1296.36
265.46	1255.40
265.68	1275.88
265.89	1320.94
266.11	1220.59
266.33	1294.32
266.54	1282.03
266.76	1320.94
266.98	1279.98
267.19	1259.50
267.41	1241.07
267.62	1284.08
267.84	1236.97
268.06	1284.08
268.27	1265.64
268.49	1206.25
268.70	1261.55
268.92	1224.69
269.14	1275.88
269.35	1245.16
269.57	1232.88
269.79	1241.07
270.00	1327.08
270.22	1257.45
270.43	1257.45
270.65	1208.30
270.87	1204.21
271.08	1292.27
271.30	1212.40
271.51	1245.16
271.73	1245.16
271.95	1241.07
272.16	1232.88
272.38	1296.36
272.59	1286.12
272.81	1220.59
273.02	1206.25
273.24	1341.42
273.46	1337.32
273.67	1320.94
273.89	1236.97
274.10	1249.26
274.32	1304.56
274.54	1247.21
274.75	1312.75
274.97	1263.60
275.18	1277.93
275.40	1253.36
275.61	1277.93
275.83	1290.22
276.05	1273.84
276.26	1290.22
276.48	1263.60
276.69	1234.93
276.91	1271.79
277.12	1275.88
277.34	1265.64
277.55	1226.73
277.77	1288.17
277.99	1267.69
278.20	1288.17
278.42	1271.79
278.63	1245.16
278.85	1273.84
279.06	1212.40
279.28	1316.84
279.49	1279.98
279.71	1259.50
279.93	1269.74
280.14	1320.94
280.36	1277.93
280.57	1255.40
280.79	1343.47
281.00	1298.41
281.22	1267.69
281.43	1259.50
281.65	1222.64
281.86	1251.31
282.08	1282.03
282.29	1253.36
282.51	1245.16
282.73	1271.79
282.94	1202.16
283.16	1241.07
283.37	1290.22
283.59	1304.56
283.80	1224.69
284.02	1290.22
284.23	1189.87
284.45	1230.83
284.66	1189.87
284.88	1255.40
285.09	1259.50
285.31	1308.65
285.52	1183.73
285.74	1277.93
285.95	1257.45
286.17	1292.27
286.38	1261.55
286.60	1267.69
286.81	1259.50
287.03	1282.03
287.24	1288.17
287.46	1277.93
287.67	1261.55
287.89	1335.28
288.10	1331.18
288.32	1279.98
288.53	1294.32
288.75	1347.56
288.96	1247.21
289.18	1265.64
289.39	1279.98
289.61	1355.76
289.82	1302.51
290.04	1288.17
290.25	1273.84
290.47	1308.65
290.68	1212.40
290.90	1208.30
291.11	1243.12
291.33	1175.53
291.54	1304.56
291.76	1282.03
291.97	1282.03
292.18	1304.56
292.40	1267.69
292.61	1259.50
292.83	1241.07
293.04	1269.74
293.26	1282.03
293.47	1294.32
293.69	1261.55
293.90	1322.99
294.12	1265.64
294.33	1296.36
294.55	1210.35
294.76	1249.26
294.97	1347.56
295.19	1347.56
295.40	1273.84
295.62	1249.26
295.83	1249.26
296.05	1298.41
296.26	1239.02
296.48	1267.69
296.69	1255.40
296.90	1243.12
297.12	1322.99
297.33	1302.51
297.55	1290.22
297.76	1275.88
297.98	1279.98
298.19	1224.69
298.41	1243.12
298.62	1302.51
298.83	1216.49
299.05	1255.40
299.26	1335.28
299.48	1214.45
299.69	1288.17
299.90	1288.17
300.12	1279.98
300.33	1241.07
300.55	1212.40
300.76	1294.32
300.98	1331.18
301.19	1316.84
301.40	1279.98
301.62	1212.40
301.83	1300.46
302.05	1325.04
302.26	1306.60
302.47	1288.17
302.69	1279.98
302.90	1314.80
303.12	1261.55
303.33	1249.26
303.54	1286.12
303.76	1357.80
303.97	1253.36
304.19	1228.78
304.40	1304.56
304.61	1251.31
304.83	1308.65
305.04	1245.16
305.26	1322.99
305.47	1263.60
305.68	1234.93
305.90	1290.22
306.11	1294.32
306.33	1267.69
306.54	1277.93
306.75	1239.02
306.97	1316.84
307.18	1263.60
307.39	1273.84
307.61	1249.26
307.82	1331.18
308.04	1267.69
308.25	1239.02
308.46	1236.97
308.68	1159.15
308.89	1239.02
309.10	1267.69
309.32	1288.17
309.53	1245.16
309.74	1202.16
309.96	1300.46
310.17	1333.23
310.39	1241.07
310.60	1277.93
310.81	1234.93
311.03	1224.69
311.24	1310.70
311.45	1267.69
311.67	1245.16
311.88	1316.84
312.09	1247.21
312.31	1249.26
312.52	1292.27
312.73	1247.21
312.95	1200.11
313.16	1273.84
313.37	1310.70
313.59	1320.94
313.80	1312.75
314.01	1335.28
314.23	1279.98
314.44	1306.60
314.65	1155.05
314.87	1200.11
315.08	1267.69
315.29	1271.79
315.51	1259.50
315.72	1302.51
315.93	1312.75
316.15	1314.80
316.36	1245.16
316.57	1257.45
316.79	1273.84
317.00	1298.41
317.21	1216.49
317.43	1249.26
317.64	1290.22
317.85	1241.07
318.07	1273.84
318.28	1232.88
318.49	1251.31
318.70	1269.74
318.92	1224.69
319.13	1243.12
319.34	1189.87
319.56	1220.59
319.77	1253.36
319.98	1185.77
320.20	1296.36
320.41	1290.22
320.62	1189.87
320.83	1298.41
321.05	1245.16
321.26	1320.94
321.47	1271.79
321.69	1312.75
321.90	1232.88
322.11	1300.46
322.32	1245.16
322.54	1263.60
322.75	1265.64
322.96	1224.69
323.18	1257.45
323.39	1234.93
323.60	1279.98
323.81	1210.35
324.03	1269.74
324.24	1232.88
324.45	1259.50
324.66	1269.74
324.88	1302.51
325.09	1286.12
325.30	1306.60
325.52	1288.17
325.73	1306.60
325.94	1310.70
326.15	1261.55
326.37	1306.60
326.58	1290.22
326.79	1314.80
327.00	1302.51
327.22	1322.99
327.43	1212.40
327.64	1257.45
327.85	1304.56
328.07	1230.83
328.28	1267.69
328.49	1269.74
328.70	1232.88
328.92	1279.98
329.13	1230.83
329.34	1214.45
329.55	1306.60
329.76	1259.50
329.98	1214.45
330.19	1218.54
330.40	1296.36
330.61	1318.89
330.83	1316.84
331.04	1275.88
331.25	1284.08
331.46	1265.64
331.68	1298.41
331.89	1320.94
332.10	1322.99
332.31	1286.12
332.52	1296.36
332.74	1273.84
332.95	1263.60
333.16	1306.60
333.37	1249.26
333.58	1261.55
333.80	1212.40
334.01	1249.26
334.22	1257.45
334.43	1304.56
334.64	1241.07
334.86	1290.22
335.07	1253.36
335.28	1210.35
335.49	1308.65
335.70	1271.79
335.92	1183.73
336.13	1234.93
336.34	1257.45
336.55	1261.55
336.76	1286.12
336.98	1298.41
337.19	1329.13
337.40	1300.46
337.61	1232.88
337.82	1253.36
338.04	1241.07
338.25	1290.22
338.46	1198.06
338.67	1302.51
338.88	1314.80
339.09	1304.56
339.31	1284.08
339.52	1226.73
339.73	1275.88
339.94	1314.80
340.15	1218.54
340.36	1263.60
340.58	1284.08
340.79	1220.59
341.00	1298.41
341.21	1273.84
341.42	1263.60
341.63	1292.27
341.85	1202.16
342.06	1339.37
342.27	1290.22
342.48	1296.36
342.69	1269.74
342.90	1335.28
343.12	1335.28
343.33	1200.11
343.54	1216.49
343.75	1286.12
343.96	1265.64
344.17	1236.97
344.38	1277.93
344.60	1236.97
344.81	1263.60
345.02	1273.84
345.23	1288.17
345.44	1265.64
345.65	1239.02
345.86	1214.45
346.07	1292.27
346.29	1214.45
346.50	1200.11
346.71	1183.73
346.92	1228.78
347.13	1290.22
347.34	1249.26
347.55	1251.31
347.76	1267.69
347.98	1245.16
348.19	1271.79
348.40	1318.89
348.61	1304.56
348.82	1316.84
349.03	1300.46
349.24	1255.40
349.45	1312.75
349.66	1253.36
349.88	1226.73
350.09	1257.45
350.30	1269.74
350.51	1200.11
350.72	1234.93
350.93	1273.84
351.14	1183.73
351.35	1284.08
351.56	1277.93
351.77	1255.40
351.99	1169.39
352.20	1267.69
352.41	1273.84
352.62	1279.98
352.83	1232.88
353.04	1284.08
353.25	1269.74
353.46	1245.16
353.67	1236.97
353.88	1234.93
354.09	1247.21
354.30	1241.07
354.52	1251.31
354.73	1290.22
354.94	1261.55
355.15	1267.69
355.36	1320.94
355.57	1263.60
355.78	1259.50
355.99	1212.40
356.20	1228.78
356.41	1292.27
356.62	1267.69
356.83	1320.94
357.04	1236.97
357.25	1322.99
357.46	1239.02
357.68	1257.45
357.89	1214.45
358.10	1193.97
358.31	1224.69
358.52	1257.45
358.73	1341.42
358.94	1200.11
359.15	1275.88
359.36	1228.78
359.57	1296.36
359.78	1320.94
359.99	1230.83
360.20	1290.22
360.41	1257.45
360.62	1210.35
360.83	1271.79
361.04	1269.74
361.25	1282.03
361.46	1255.40
361.67	1261.55
361.88	1331.18
362.09	1249.26
362.30	1255.40
362.51	1267.69
362.72	1241.07
362.93	1216.49
363.14	1290.22
363.35	1214.45
363.56	1226.73
363.78	1239.02
363.99	1228.78
364.20	1249.26
364.41	1255.40
364.62	1290.22
364.83	1306.60
365.04	1255.40
365.25	1241.07
365.46	1282.03
365.67	1349.61
365.88	1320.94
366.09	1263.60
366.30	1292.27
366.51	1226.73
366.72	1271.79
366.93	1271.79
367.14	1261.55
367.35	1230.83
367.56	1257.45
367.77	1257.45
367.98	1275.88
368.18	1290.22
368.39	1241.07
368.60	1288.17
368.81	1257.45
369.02	1261.55
369.23	1261.55
369.44	1220.59
369.65	1286.12
369.86	1259.50
370.07	1169.39
370.28	1265.64
370.49	1286.12
370.70	1277.93
370.91	1245.16
371.12	1255.40
371.33	1210.35
371.54	1269.74
371.75	1243.12
371.96	1275.88
372.17	1245.16
372.38	1249.26
372.59	1294.32
372.80	1263.60
373.01	1214.45
373.22	1277.93
373.43	1282.03
373.64	1335.28
373.85	1316.84
374.06	1290.22
374.26	1271.79
374.47	1261.55
374.68	1298.41
374.89	1345.52
375.10	1275.88
375.31	1288.17
375.52	1282.03
375.73	1241.07
375.94	1273.84
376.15	1327.08
376.36	1327.08
376.57	1306.60
376.78	1232.88
376.99	1243.12
377.20	1255.40
377.40	1236.97
377.61	1277.93
377.82	1308.65
378.03	1316.84
378.24	1325.04
378.45	1249.26
378.66	1325.04
378.87	1206.25
379.08	1216.49
379.29	1286.12
379.50	1243.12
379.71	1302.51
379.91	1306.60
380.12	1249.26
380.33	1312.75
380.54	1282.03
380.75	1255.40
380.96	1275.88
381.17	1279.98
381.38	1269.74
381.59	1247.21
381.80	1392.62
382.00	1202.16
382.21	1269.74
382.42	1306.60
382.63	1359.85
382.84	1273.84
383.05	1310.70
383.26	1282.03
383.47	1286.12
383.68	1273.84
383.88	1357.80
384.09	1265.64
384.30	1228.78
384.51	1271.79
384.72	1269.74
384.93	1220.59
385.14	1312.75
385.35	1196.01
385.55	1196.01
385.76	1255.40
385.97	1259.50
386.18	1275.88
386.39	1343.47
386.60	1261.55
386.81	1300.46
387.02	1212.40
387.22	1275.88
387.43	1255.40
387.64	1271.79
387.85	1304.56
388.06	1251.31
388.27	1206.25
388.48	1206.25
388.68	1263.60
388.89	1241.07
389.10	1267.69
389.31	1290.22
389.52	1245.16
389.73	1189.87
389.93	1251.31
390.14	1245.16
390.35	1228.78
390.56	1261.55
390.77	1288.17
390.98	1218.54
391.18	1234.93
391.39	1253.36
391.60	1200.11
391.81	1402.86
392.02	1191.92
392.23	1251.31
392.43	1224.69
392.64	1279.98
392.85	1234.93
393.06	1333.23
393.27	1286.12
393.47	1294.32
393.68	1249.26
393.89	1241.07
394.10	1224.69
394.31	1273.84
394.52	1265.64
394.72	1204.21
394.93	1296.36
395.14	1204.21
395.35	1277.93
395.56	1226.73
395.76	1265.64
395.97	1214.45
396.18	1216.49
396.39	1253.36
396.60	1282.03
396.80	1320.94
397.01	1282.03
397.22	1322.99
397.43	1288.17
397.64	1288.17
397.84	1290.22
398.05	1200.11
398.26	1318.89
398.47	1290.22
398.67	1222.64
398.88	1228.78
399.09	1322.99
399.30	1243.12
399.51	1253.36
399.71	1261.55
399.92	1302.51
400.13	1239.02
400.34	1241.07
400.54	1267.69
400.75	1214.45
400.96	1232.88
401.17	1279.98
401.37	1245.16
401.58	1310.70
401.79	1220.59
402.00	1232.88
402.21	1312.75
402.41	1296.36
402.62	1224.69
402.83	1292.27
403.04	1341.42
403.24	1292.27
403.45	1255.40
403.66	1284.08
403.87	1249.26
404.07	1286.12
404.28	1218.54
404.49	1263.60
404.70	1251.31
404.90	1275.88
405.11	1265.64
405.32	1288.17
405.52	1214.45
405.73	1263.60
405.94	1261.55
406.15	1196.01
406.35	1247.21
406.56	1261.55
406.77	1318.89
406.98	1255.40
407.18	1300.46
407.39	1398.76
407.60	1306.60
407.80	1265.64
408.01	1288.17
408.22	1263.60
408.43	1212.40
408.63	1294.32
408.84	1265.64
409.05	1282.03
409.25	1228.78
409.46	1245.16
409.67	1292.27
409.88	1300.46
410.08	1288.17
410.29	1236.97
410.50	1374.19
410.70	1322.99
410.91	1243.12
411.12	1279.98
411.32	1273.84
411.53	1230.83
411.74	1290.22
411.95	1286.12
412.15	1271.79
412.36	1226.73
412.57	1265.64
412.77	1202.16
412.98	1286.12
413.19	1198.06
413.39	1335.28
413.60	1271.79
413.81	1253.36
414.01	1320.94
414.22	1363.95
414.43	1216.49
414.63	1308.65
414.84	1282.03
415.05	1257.45
415.25	1247.21
415.46	1257.45
415.67	1312.75
415.87	1247.21
416.08	1304.56
416.29	1267.69
416.49	1290.22
416.70	1232.88
416.91	1296.36
417.11	1267.69
417.32	1290.22
417.53	1257.45
417.73	1267.69
417.94	1263.60
418.15	1234.93
418.35	1292.27
418.56	1222.64
418.77	1204.21
418.97	1292.27
419.18	1220.59
419.38	1239.02
419.59	1310.70
419.80	1263.60
420.00	1196.01
420.21	1234.93
420.42	1294.32
420.62	1230.83
420.83	1320.94
421.04	1286.12
421.24	1222.64
421.45	1265.64
421.65	1247.21
421.86	1241.07
422.07	1232.88
422.27	1257.45
422.48	1322.99
422.69	1279.98
422.89	1316.84
423.10	1222.64
423.30	1222.64
423.51	1232.88
423.72	1239.02
423.92	1239.02
424.13	1196.01
424.33	1290.22
424.54	1292.27
424.75	1236.97
424.95	1300.46
425.16	1296.36
425.36	1253.36
425.57	1314.80
425.78	1245.16
425.98	1302.51
426.19	1273.84
426.39	1302.51
426.60	1232.88
426.81	1236.97
427.01	1263.60
427.22	1245.16
427.42	1286.12
427.63	1277.93
427.83	1277.93
428.04	1271.79
428.25	1255.40
428.45	1245.16
428.66	1234.93
428.86	1236.97
429.07	1327.08
429.28	1251.31
429.48	1222.64
429.69	1331.18
429.89	1265.64
430.10	1279.98
430.30	1277.93
430.51	1230.83
430.71	1290.22
430.92	1292.27
431.13	1300.46
431.33	1349.61
431.54	1204.21
431.74	1234.93
431.95	1241.07
432.15	1245.16
432.36	1173.49
432.56	1257.45
432.77	1302.51
432.98	1241.07
433.18	1167.34
433.39	1316.84
433.59	1234.93
433.80	1351.66
434.00	1241.07
434.21	1298.41
434.41	1196.01
434.62	1269.74
434.82	1269.74
435.03	1259.50
435.23	1271.79
435.44	1212.40
435.64	1247.21
435.85	1265.64
436.06	1243.12
436.26	1257.45
436.47	1306.60
436.67	1249.26
436.88	1253.36
437.08	1177.58
437.29	1333.23
437.49	1234.93
437.70	1294.32
437.90	1279.98
438.11	1265.64
438.31	1249.26
438.52	1322.99
438.72	1273.84
438.93	1267.69
439.13	1284.08
439.34	1236.97
439.54	1191.92
439.75	1247.21
439.95	1239.02
440.16	1216.49
440.36	1288.17
440.57	1269.74
440.77	1241.07
440.98	1286.12
441.18	1265.64
441.39	1245.16
441.59	1320.94
441.80	1269.74
442.00	1316.84
442.21	1312.75
442.41	1196.01
442.62	1284.08
442.82	1312.75
443.02	1261.55
443.23	1341.42
443.43	1316.84
443.64	1290.22
443.84	1259.50
444.05	1243.12
444.25	1273.84
444.46	1306.60
444.66	1308.65
444.87	1347.56
445.07	1286.12
445.28	1255.40
445.48	1282.03
445.69	1279.98
445.89	1359.85
446.09	1241.07
446.30	1337.32
446.50	1263.60
446.71	1279.98
446.91	1222.64
447.12	1263.60
447.32	1265.64
447.53	1269.74
447.73	1292.27
447.93	1251.31
448.14	1210.35
448.34	1282.03
448.55	1265.64
448.75	1247.21
448.96	1298.41
449.16	1310.70
449.36	1290.22
449.57	1284.08
449.77	1325.04
449.98	1351.66
450.18	1222.64
450.39	1312.75
450.59	1249.26
450.79	1271.79
451.00	1247.21
451.20	1288.17
451.41	1314.80
451.61	1228.78
451.81	1308.65
452.02	1290.22
452.22	1212.40
452.43	1310.70
452.63	1331.18
