SpectraSuite Data File
++++++++++++++++++++++++++++++++++++
Date: Sun Apr 03 19:55:12 CEST 2016
User: root
Dark Spectrum Present: No
Reference Spectrum Present: No
Number of Sampled Component Spectra: 1
Spectrometers: USB4C02835
Integration Time (usec): 10000 (USB4C02835)
Spectra Averaged: 1 (USB4C02835)
Boxcar Smoothing: 0 (USB4C02835)
Correct for Electrical Dark: No (USB4C02835)
Strobe/Lamp Enabled: No (USB4C02835)
Correct for Detector Non-linearity: No (USB4C02835)
Correct for Stray Light: No (USB4C02835)
Number of Pixels in Processed Spectrum: 3648
>>>>>Begin Processed Spectral Data<<<<<
177.47	1245.16
177.69	1245.16
177.91	1245.16
178.13	1275.88
178.36	1251.31
178.58	1259.50
178.80	1275.88
179.02	1239.02
179.24	1261.55
179.46	1279.98
179.68	1345.52
179.90	1286.12
180.13	1277.93
180.35	1275.88
180.57	1282.03
180.79	1292.27
181.01	1222.64
181.23	1196.01
181.45	1257.45
181.67	1230.83
181.90	1292.27
182.12	1257.45
182.34	1279.98
182.56	1290.22
182.78	1241.07
183.00	1198.06
183.22	1241.07
183.44	1265.64
183.66	1232.88
183.89	1320.94
184.11	1282.03
184.33	1247.21
184.55	1310.70
184.77	1255.40
184.99	1284.08
185.21	1286.12
185.43	1241.07
185.65	1253.36
185.87	1232.88
186.10	1261.55
186.32	1335.28
186.54	1286.12
186.76	1265.64
186.98	1247.21
187.20	1232.88
187.42	1279.98
187.64	1271.79
187.86	1234.93
188.08	1335.28
188.30	1282.03
188.52	1282.03
188.75	1218.54
188.97	1232.88
189.19	1343.47
189.41	1155.05
189.63	1249.26
189.85	1265.64
190.07	1314.80
190.29	1300.46
190.51	1234.93
190.73	1253.36
190.95	1263.60
191.17	1204.21
191.39	1243.12
191.61	1273.84
191.84	1181.68
192.06	1267.69
192.28	1224.69
192.50	1263.60
192.72	1261.55
192.94	1284.08
193.16	1271.79
193.38	1306.60
193.60	1265.64
193.82	1228.78
194.04	1327.08
194.26	1234.93
194.48	1273.84
194.70	1322.99
194.92	1329.13
195.14	1249.26
195.36	1298.41
195.58	1245.16
195.80	1212.40
196.02	1212.40
196.24	1191.92
196.46	1226.73
196.69	1290.22
196.91	1249.26
197.13	1316.84
197.35	1337.32
197.57	1230.83
197.79	1183.73
198.01	1175.53
198.23	1214.45
198.45	1275.88
198.67	1288.17
198.89	1269.74
199.11	1292.27
199.33	1304.56
199.55	1267.69
199.77	1232.88
199.99	1275.88
200.21	1253.36
200.43	1277.93
200.65	1241.07
200.87	1241.07
201.09	1308.65
201.31	1298.41
201.53	1357.80
201.75	1322.99
201.97	1220.59
202.19	1277.93
202.41	1239.02
202.63	1302.51
202.85	1210.35
203.07	1308.65
203.29	1226.73
203.51	1206.25
203.73	1261.55
203.95	1269.74
204.17	1265.64
204.39	1320.94
204.61	1218.54
204.83	1316.84
205.05	1181.68
205.27	1275.88
205.49	1267.69
205.71	1279.98
205.93	1212.40
206.15	1296.36
206.37	1288.17
206.59	1322.99
206.81	1277.93
207.03	1251.31
207.25	1263.60
207.47	1273.84
207.69	1304.56
207.91	1384.43
208.13	1308.65
208.34	1271.79
208.56	1277.93
208.78	1318.89
209.00	1292.27
209.22	1241.07
209.44	1259.50
209.66	1318.89
209.88	1228.78
210.10	1232.88
210.32	1267.69
210.54	1267.69
210.76	1267.69
210.98	1288.17
211.20	1249.26
211.42	1247.21
211.64	1257.45
211.86	1298.41
212.08	1378.28
212.30	1292.27
212.52	1255.40
212.74	1288.17
212.96	1269.74
213.17	1339.37
213.39	1310.70
213.61	1308.65
213.83	1251.31
214.05	1275.88
214.27	1236.97
214.49	1306.60
214.71	1253.36
214.93	1318.89
215.15	1200.11
215.37	1267.69
215.59	1314.80
215.81	1249.26
216.03	1298.41
216.24	1273.84
216.46	1331.18
216.68	1335.28
216.90	1224.69
217.12	1232.88
217.34	1310.70
217.56	1255.40
217.78	1249.26
218.00	1263.60
218.22	1255.40
218.44	1333.23
218.66	1273.84
218.87	1347.56
219.09	1241.07
219.31	1308.65
219.53	1247.21
219.75	1271.79
219.97	1204.21
220.19	1282.03
220.41	1345.52
220.63	1212.40
220.85	1232.88
221.06	1275.88
221.28	1312.75
221.50	1316.84
221.72	1257.45
221.94	1191.92
222.16	1255.40
222.38	1265.64
222.60	1267.69
222.82	1193.97
223.03	1329.13
223.25	1333.23
223.47	1251.31
223.69	1320.94
223.91	1288.17
224.13	1263.60
224.35	1296.36
224.57	1310.70
224.78	1292.27
225.00	1282.03
225.22	1308.65
225.44	1247.21
225.66	1286.12
225.88	1216.49
226.10	1232.88
226.32	1296.36
226.53	1247.21
226.75	1271.79
226.97	1273.84
227.19	1249.26
227.41	1327.08
227.63	1273.84
227.85	1300.46
228.06	1294.32
228.28	1322.99
228.50	1247.21
228.72	1271.79
228.94	1224.69
229.16	1200.11
229.37	1232.88
229.59	1255.40
229.81	1296.36
230.03	1275.88
230.25	1314.80
230.47	1279.98
230.69	1196.01
230.90	1288.17
231.12	1265.64
231.34	1214.45
231.56	1314.80
231.78	1298.41
232.00	1232.88
232.21	1247.21
232.43	1249.26
232.65	1282.03
232.87	1247.21
233.09	1316.84
233.30	1234.93
233.52	1212.40
233.74	1290.22
233.96	1218.54
234.18	1259.50
234.40	1306.60
234.61	1296.36
234.83	1249.26
235.05	1308.65
235.27	1257.45
235.49	1288.17
235.70	1253.36
235.92	1322.99
236.14	1290.22
236.36	1247.21
236.58	1208.30
236.79	1271.79
237.01	1200.11
237.23	1308.65
237.45	1277.93
237.67	1226.73
237.88	1290.22
238.10	1269.74
238.32	1220.59
238.54	1222.64
238.76	1257.45
238.97	1251.31
239.19	1298.41
239.41	1302.51
239.63	1277.93
239.85	1306.60
240.06	1310.70
240.28	1261.55
240.50	1267.69
240.72	1241.07
240.93	1279.98
241.15	1171.44
241.37	1257.45
241.59	1300.46
241.81	1298.41
242.02	1282.03
242.24	1273.84
242.46	1275.88
242.68	1261.55
242.89	1226.73
243.11	1349.61
243.33	1304.56
243.55	1251.31
243.76	1292.27
243.98	1198.06
244.20	1302.51
244.42	1257.45
244.64	1339.37
244.85	1239.02
245.07	1298.41
245.29	1310.70
245.51	1208.30
245.72	1298.41
245.94	1378.28
246.16	1230.83
246.38	1284.08
246.59	1204.21
246.81	1251.31
247.03	1206.25
247.24	1173.49
247.46	1230.83
247.68	1263.60
247.90	1259.50
248.11	1265.64
248.33	1286.12
248.55	1277.93
248.77	1288.17
248.98	1288.17
249.20	1220.59
249.42	1249.26
249.64	1300.46
249.85	1277.93
250.07	1304.56
250.29	1302.51
250.50	1230.83
250.72	1206.25
250.94	1277.93
251.16	1298.41
251.37	1253.36
251.59	1271.79
251.81	1277.93
252.02	1322.99
252.24	1251.31
252.46	1327.08
252.68	1312.75
252.89	1232.88
253.11	1284.08
253.33	1173.49
253.54	1306.60
253.76	1257.45
253.98	1243.12
254.20	1275.88
254.41	1279.98
254.63	1298.41
254.85	1282.03
255.06	1361.90
255.28	1265.64
255.50	1284.08
255.71	1210.35
255.93	1286.12
256.15	1273.84
256.36	1265.64
256.58	1318.89
256.80	1284.08
257.02	1204.21
257.23	1255.40
257.45	1265.64
257.67	1296.36
257.88	1185.77
258.10	1230.83
258.32	1341.42
258.53	1241.07
258.75	1245.16
258.97	1275.88
259.18	1259.50
259.40	1277.93
259.62	1300.46
259.83	1279.98
260.05	1204.21
260.27	1290.22
260.48	1265.64
260.70	1279.98
260.92	1294.32
261.13	1261.55
261.35	1277.93
261.57	1202.16
261.78	1284.08
262.00	1222.64
262.22	1255.40
262.43	1267.69
262.65	1273.84
262.86	1253.36
263.08	1206.25
263.30	1247.21
263.51	1308.65
263.73	1318.89
263.95	1308.65
264.16	1277.93
264.38	1224.69
264.60	1314.80
264.81	1212.40
265.03	1265.64
265.25	1255.40
265.46	1290.22
265.68	1288.17
265.89	1228.78
266.11	1257.45
266.33	1265.64
266.54	1273.84
266.76	1279.98
266.98	1216.49
267.19	1314.80
267.41	1263.60
267.62	1257.45
267.84	1255.40
268.06	1271.79
268.27	1224.69
268.49	1351.66
268.70	1257.45
268.92	1241.07
269.14	1239.02
269.35	1271.79
269.57	1277.93
269.79	1279.98
270.00	1214.45
270.22	1296.36
270.43	1253.36
270.65	1294.32
270.87	1257.45
271.08	1359.85
271.30	1247.21
271.51	1177.58
271.73	1255.40
271.95	1316.84
272.16	1308.65
272.38	1277.93
272.59	1261.55
272.81	1212.40
273.02	1282.03
273.24	1329.13
273.46	1234.93
273.67	1302.51
273.89	1212.40
274.10	1265.64
274.32	1243.12
274.54	1292.27
274.75	1261.55
274.97	1265.64
275.18	1267.69
275.40	1314.80
275.61	1271.79
275.83	1222.64
276.05	1282.03
276.26	1239.02
276.48	1245.16
276.69	1247.21
276.91	1310.70
277.12	1259.50
277.34	1306.60
277.55	1255.40
277.77	1304.56
277.99	1261.55
278.20	1255.40
278.42	1261.55
278.63	1294.32
278.85	1312.75
279.06	1341.42
279.28	1224.69
279.49	1204.21
279.71	1306.60
279.93	1282.03
280.14	1234.93
280.36	1282.03
280.57	1232.88
280.79	1294.32
281.00	1241.07
281.22	1288.17
281.43	1327.08
281.65	1210.35
281.86	1255.40
282.08	1265.64
282.29	1284.08
282.51	1177.58
282.73	1273.84
282.94	1232.88
283.16	1249.26
283.37	1214.45
283.59	1236.97
283.80	1226.73
284.02	1234.93
284.23	1322.99
284.45	1269.74
284.66	1347.56
284.88	1329.13
285.09	1327.08
285.31	1284.08
285.52	1220.59
285.74	1284.08
285.95	1312.75
286.17	1288.17
286.38	1279.98
286.60	1259.50
286.81	1286.12
287.03	1296.36
287.24	1259.50
287.46	1214.45
287.67	1282.03
287.89	1275.88
288.10	1314.80
288.32	1241.07
288.53	1253.36
288.75	1296.36
288.96	1286.12
289.18	1196.01
289.39	1335.28
289.61	1234.93
289.82	1271.79
290.04	1310.70
290.25	1312.75
290.47	1298.41
290.68	1286.12
290.90	1296.36
291.11	1273.84
291.33	1286.12
291.54	1257.45
291.76	1202.16
291.97	1282.03
292.18	1298.41
292.40	1228.78
292.61	1314.80
292.83	1228.78
293.04	1257.45
293.26	1228.78
293.47	1255.40
293.69	1210.35
293.90	1279.98
294.12	1243.12
294.33	1206.25
294.55	1222.64
294.76	1351.66
294.97	1241.07
295.19	1290.22
295.40	1275.88
295.62	1331.18
295.83	1269.74
296.05	1353.71
296.26	1275.88
296.48	1259.50
296.69	1257.45
296.90	1320.94
297.12	1181.68
297.33	1279.98
297.55	1263.60
297.76	1167.34
297.98	1263.60
298.19	1331.18
298.41	1236.97
298.62	1314.80
298.83	1267.69
299.05	1232.88
299.26	1292.27
299.48	1322.99
299.69	1275.88
299.90	1290.22
300.12	1320.94
300.33	1247.21
300.55	1157.10
300.76	1257.45
300.98	1230.83
301.19	1282.03
301.40	1243.12
301.62	1261.55
301.83	1275.88
302.05	1316.84
302.26	1214.45
302.47	1251.31
302.69	1306.60
302.90	1265.64
303.12	1167.34
303.33	1282.03
303.54	1302.51
303.76	1292.27
303.97	1206.25
304.19	1296.36
304.40	1261.55
304.61	1341.42
304.83	1245.16
305.04	1265.64
305.26	1302.51
305.47	1239.02
305.68	1337.32
305.90	1292.27
306.11	1224.69
306.33	1269.74
306.54	1284.08
306.75	1232.88
306.97	1314.80
307.18	1204.21
307.39	1290.22
307.61	1425.39
307.82	1247.21
308.04	1292.27
308.25	1212.40
308.46	1265.64
308.68	1265.64
308.89	1306.60
309.10	1265.64
309.32	1275.88
309.53	1241.07
309.74	1261.55
309.96	1282.03
310.17	1277.93
310.39	1269.74
310.60	1288.17
310.81	1314.80
311.03	1279.98
311.24	1251.31
311.45	1226.73
311.67	1261.55
311.88	1234.93
312.09	1222.64
312.31	1306.60
312.52	1290.22
312.73	1271.79
312.95	1267.69
313.16	1294.32
313.37	1279.98
313.59	1220.59
313.80	1275.88
314.01	1300.46
314.23	1257.45
314.44	1265.64
314.65	1243.12
314.87	1214.45
315.08	1251.31
315.29	1296.36
315.51	1282.03
315.72	1253.36
315.93	1288.17
316.15	1296.36
316.36	1277.93
316.57	1247.21
316.79	1245.16
317.00	1316.84
317.21	1232.88
317.43	1296.36
317.64	1198.06
317.85	1228.78
318.07	1181.68
318.28	1312.75
318.49	1224.69
318.70	1271.79
318.92	1251.31
319.13	1286.12
319.34	1183.73
319.56	1273.84
319.77	1265.64
319.98	1306.60
320.20	1234.93
320.41	1279.98
320.62	1300.46
320.83	1230.83
321.05	1300.46
321.26	1292.27
321.47	1236.97
321.69	1206.25
321.90	1249.26
322.11	1353.71
322.32	1243.12
322.54	1255.40
322.75	1224.69
322.96	1308.65
323.18	1249.26
323.39	1247.21
323.60	1341.42
323.81	1337.32
324.03	1202.16
324.24	1277.93
324.45	1290.22
324.66	1366.00
324.88	1239.02
325.09	1220.59
325.30	1294.32
325.52	1282.03
325.73	1286.12
325.94	1306.60
326.15	1298.41
326.37	1222.64
326.58	1284.08
326.79	1269.74
327.00	1249.26
327.22	1335.28
327.43	1204.21
327.64	1290.22
327.85	1189.87
328.07	1257.45
328.28	1279.98
328.49	1273.84
328.70	1230.83
328.92	1282.03
329.13	1236.97
329.34	1249.26
329.55	1300.46
329.76	1183.73
329.98	1298.41
330.19	1372.14
330.40	1265.64
330.61	1296.36
330.83	1273.84
331.04	1220.59
331.25	1296.36
331.46	1310.70
331.68	1298.41
331.89	1257.45
332.10	1294.32
332.31	1316.84
332.52	1236.97
332.74	1361.90
332.95	1318.89
333.16	1230.83
333.37	1206.25
333.58	1320.94
333.80	1316.84
334.01	1241.07
334.22	1226.73
334.43	1265.64
334.64	1265.64
334.86	1284.08
335.07	1222.64
335.28	1318.89
335.49	1226.73
335.70	1251.31
335.92	1255.40
336.13	1322.99
336.34	1277.93
336.55	1222.64
336.76	1302.51
336.98	1290.22
337.19	1216.49
337.40	1228.78
337.61	1265.64
337.82	1261.55
338.04	1234.93
338.25	1277.93
338.46	1302.51
338.67	1277.93
338.88	1306.60
339.09	1206.25
339.31	1214.45
339.52	1251.31
339.73	1271.79
339.94	1341.42
340.15	1232.88
340.36	1239.02
340.58	1255.40
340.79	1232.88
341.00	1327.08
341.21	1329.13
341.42	1214.45
341.63	1294.32
341.85	1259.50
342.06	1216.49
342.27	1329.13
342.48	1255.40
342.69	1247.21
342.90	1294.32
343.12	1286.12
343.33	1284.08
343.54	1318.89
343.75	1296.36
343.96	1275.88
344.17	1222.64
344.38	1261.55
344.60	1325.04
344.81	1259.50
345.02	1271.79
345.23	1304.56
345.44	1218.54
345.65	1241.07
345.86	1251.31
346.07	1255.40
346.29	1208.30
346.50	1306.60
346.71	1318.89
346.92	1279.98
347.13	1331.18
347.34	1304.56
347.55	1257.45
347.76	1269.74
347.98	1273.84
348.19	1241.07
348.40	1218.54
348.61	1261.55
348.82	1259.50
349.03	1261.55
349.24	1232.88
349.45	1290.22
349.66	1204.21
349.88	1230.83
350.09	1320.94
350.30	1290.22
350.51	1355.76
350.72	1251.31
350.93	1236.97
351.14	1255.40
351.35	1298.41
351.56	1253.36
351.77	1327.08
351.99	1255.40
352.20	1316.84
352.41	1277.93
352.62	1261.55
352.83	1380.33
353.04	1296.36
353.25	1277.93
353.46	1232.88
353.67	1269.74
353.88	1212.40
354.09	1257.45
354.30	1220.59
354.52	1267.69
354.73	1271.79
354.94	1251.31
355.15	1304.56
355.36	1247.21
355.57	1325.04
355.78	1296.36
355.99	1277.93
356.20	1304.56
356.41	1253.36
356.62	1363.95
356.83	1247.21
357.04	1239.02
357.25	1263.60
357.46	1265.64
357.68	1214.45
357.89	1257.45
358.10	1290.22
358.31	1247.21
358.52	1279.98
358.73	1312.75
358.94	1298.41
359.15	1228.78
359.36	1241.07
359.57	1298.41
359.78	1259.50
359.99	1239.02
360.20	1230.83
360.41	1216.49
360.62	1232.88
360.83	1318.89
361.04	1294.32
361.25	1265.64
361.46	1265.64
361.67	1255.40
361.88	1253.36
362.09	1277.93
362.30	1251.31
362.51	1241.07
362.72	1302.51
362.93	1337.32
363.14	1241.07
363.35	1261.55
363.56	1308.65
363.78	1269.74
363.99	1241.07
364.20	1216.49
364.41	1320.94
364.62	1314.80
364.83	1226.73
365.04	1230.83
365.25	1271.79
365.46	1308.65
365.67	1265.64
365.88	1247.21
366.09	1251.31
366.30	1366.00
366.51	1241.07
366.72	1269.74
366.93	1265.64
367.14	1282.03
367.35	1247.21
367.56	1318.89
367.77	1257.45
367.98	1228.78
368.18	1318.89
368.39	1216.49
368.60	1249.26
368.81	1249.26
369.02	1273.84
369.23	1273.84
369.44	1212.40
369.65	1202.16
369.86	1251.31
370.07	1208.30
370.28	1218.54
370.49	1284.08
370.70	1241.07
370.91	1282.03
371.12	1298.41
371.33	1316.84
371.54	1277.93
371.75	1263.60
371.96	1339.37
372.17	1200.11
372.38	1282.03
372.59	1279.98
372.80	1298.41
373.01	1261.55
373.22	1333.23
373.43	1296.36
373.64	1306.60
373.85	1255.40
374.06	1310.70
374.26	1253.36
374.47	1222.64
374.68	1304.56
374.89	1339.37
375.10	1273.84
375.31	1257.45
375.52	1220.59
375.73	1361.90
375.94	1257.45
376.15	1228.78
376.36	1320.94
376.57	1322.99
376.78	1243.12
376.99	1247.21
377.20	1314.80
377.40	1261.55
377.61	1298.41
377.82	1261.55
378.03	1286.12
378.24	1247.21
378.45	1222.64
378.66	1265.64
378.87	1255.40
379.08	1267.69
379.29	1282.03
379.50	1249.26
379.71	1267.69
379.91	1339.37
380.12	1273.84
380.33	1241.07
380.54	1259.50
380.75	1298.41
380.96	1318.89
381.17	1273.84
381.38	1284.08
381.59	1226.73
381.80	1245.16
382.00	1241.07
382.21	1253.36
382.42	1257.45
382.63	1200.11
382.84	1253.36
383.05	1277.93
383.26	1273.84
383.47	1279.98
383.68	1286.12
383.88	1255.40
384.09	1263.60
384.30	1249.26
384.51	1271.79
384.72	1216.49
384.93	1245.16
385.14	1308.65
385.35	1255.40
385.55	1286.12
385.76	1249.26
385.97	1191.92
386.18	1273.84
386.39	1273.84
386.60	1198.06
386.81	1296.36
387.02	1286.12
387.22	1224.69
387.43	1220.59
387.64	1267.69
387.85	1320.94
388.06	1261.55
388.27	1302.51
388.48	1249.26
388.68	1316.84
388.89	1236.97
389.10	1239.02
389.31	1347.56
389.52	1294.32
389.73	1282.03
389.93	1255.40
390.14	1277.93
390.35	1224.69
390.56	1216.49
390.77	1232.88
390.98	1255.40
391.18	1257.45
391.39	1269.74
391.60	1296.36
391.81	1277.93
392.02	1265.64
392.23	1196.01
392.43	1298.41
392.64	1271.79
392.85	1265.64
393.06	1308.65
393.27	1239.02
393.47	1230.83
393.68	1241.07
393.89	1191.92
394.10	1304.56
394.31	1222.64
394.52	1277.93
394.72	1239.02
394.93	1245.16
395.14	1314.80
395.35	1245.16
395.56	1243.12
395.76	1257.45
395.97	1239.02
396.18	1265.64
396.39	1177.58
396.60	1366.00
396.80	1302.51
397.01	1222.64
397.22	1243.12
397.43	1253.36
397.64	1273.84
397.84	1335.28
398.05	1322.99
398.26	1189.87
398.47	1296.36
398.67	1294.32
398.88	1273.84
399.09	1318.89
399.30	1335.28
399.51	1314.80
399.71	1279.98
399.92	1300.46
400.13	1224.69
400.34	1271.79
400.54	1273.84
400.75	1265.64
400.96	1212.40
401.17	1255.40
401.37	1302.51
401.58	1241.07
401.79	1284.08
402.00	1253.36
402.21	1318.89
402.41	1251.31
402.62	1261.55
402.83	1357.80
403.04	1216.49
403.24	1275.88
403.45	1318.89
403.66	1290.22
403.87	1277.93
404.07	1257.45
404.28	1300.46
404.49	1290.22
404.70	1198.06
404.90	1279.98
405.11	1255.40
405.32	1347.56
405.52	1214.45
405.73	1236.97
405.94	1271.79
406.15	1257.45
406.35	1216.49
406.56	1257.45
406.77	1277.93
406.98	1230.83
407.18	1337.32
407.39	1320.94
407.60	1304.56
407.80	1288.17
408.01	1261.55
408.22	1288.17
408.43	1318.89
408.63	1187.82
408.84	1222.64
409.05	1290.22
409.25	1277.93
409.46	1290.22
409.67	1298.41
409.88	1177.58
410.08	1210.35
410.29	1282.03
410.50	1302.51
410.70	1251.31
410.91	1277.93
411.12	1312.75
411.32	1187.82
411.53	1312.75
411.74	1286.12
411.95	1265.64
412.15	1245.16
412.36	1292.27
412.57	1265.64
412.77	1249.26
412.98	1288.17
413.19	1269.74
413.39	1230.83
413.60	1230.83
413.81	1331.18
414.01	1206.25
414.22	1228.78
414.43	1257.45
414.63	1331.18
414.84	1220.59
415.05	1279.98
415.25	1302.51
415.46	1275.88
415.67	1269.74
415.87	1290.22
416.08	1255.40
416.29	1267.69
416.49	1288.17
416.70	1292.27
416.91	1312.75
417.11	1302.51
417.32	1249.26
417.53	1273.84
417.73	1306.60
417.94	1263.60
418.15	1275.88
418.35	1347.56
418.56	1290.22
418.77	1228.78
418.97	1308.65
419.18	1310.70
419.38	1230.83
419.59	1204.21
419.80	1320.94
420.00	1241.07
420.21	1241.07
420.42	1286.12
420.62	1239.02
420.83	1308.65
421.04	1279.98
421.24	1316.84
421.45	1277.93
421.65	1220.59
421.86	1320.94
422.07	1273.84
422.27	1275.88
422.48	1302.51
422.69	1269.74
422.89	1247.21
423.10	1259.50
423.30	1191.92
423.51	1306.60
423.72	1249.26
423.92	1302.51
424.13	1308.65
424.33	1241.07
424.54	1210.35
424.75	1335.28
424.95	1290.22
425.16	1288.17
425.36	1220.59
425.57	1288.17
425.78	1298.41
425.98	1298.41
426.19	1214.45
426.39	1271.79
426.60	1263.60
426.81	1239.02
427.01	1312.75
427.22	1325.04
427.42	1251.31
427.63	1296.36
427.83	1368.04
428.04	1230.83
428.25	1296.36
428.45	1282.03
428.66	1234.93
428.86	1214.45
429.07	1245.16
429.28	1300.46
429.48	1255.40
429.69	1273.84
429.89	1333.23
430.10	1218.54
430.30	1265.64
430.51	1325.04
430.71	1249.26
430.92	1322.99
431.13	1298.41
431.33	1306.60
431.54	1290.22
431.74	1312.75
431.95	1290.22
432.15	1331.18
432.36	1247.21
432.56	1273.84
432.77	1226.73
432.98	1363.95
433.18	1251.31
433.39	1249.26
433.59	1245.16
433.80	1202.16
434.00	1282.03
434.21	1247.21
434.41	1212.40
434.62	1263.60
434.82	1282.03
435.03	1261.55
435.23	1230.83
435.44	1222.64
435.64	1275.88
435.85	1212.40
436.06	1251.31
436.26	1312.75
436.47	1308.65
436.67	1312.75
436.88	1247.21
437.08	1284.08
437.29	1337.32
437.49	1286.12
437.70	1255.40
437.90	1216.49
438.11	1210.35
438.31	1279.98
438.52	1257.45
438.72	1304.56
438.93	1245.16
439.13	1241.07
439.34	1263.60
439.54	1220.59
439.75	1234.93
439.95	1273.84
440.16	1294.32
440.36	1327.08
440.57	1322.99
440.77	1255.40
440.98	1206.25
441.18	1298.41
441.39	1294.32
441.59	1279.98
441.80	1220.59
442.00	1382.38
442.21	1286.12
442.41	1198.06
442.62	1308.65
442.82	1261.55
443.02	1273.84
443.23	1263.60
443.43	1290.22
443.64	1310.70
443.84	1251.31
444.05	1292.27
444.25	1292.27
444.46	1339.37
444.66	1316.84
444.87	1304.56
445.07	1239.02
445.28	1273.84
445.48	1282.03
445.69	1316.84
445.89	1275.88
446.09	1173.49
446.30	1263.60
446.50	1232.88
446.71	1243.12
446.91	1292.27
447.12	1335.28
447.32	1273.84
447.53	1288.17
447.73	1296.36
447.93	1300.46
448.14	1378.28
448.34	1257.45
448.55	1290.22
448.75	1253.36
448.96	1214.45
449.16	1249.26
449.36	1347.56
449.57	1318.89
449.77	1304.56
449.98	1196.01
450.18	1294.32
450.39	1263.60
450.59	1316.84
450.79	1288.17
451.00	1286.12
451.20	1312.75
451.41	1273.84
451.61	1271.79
451.81	1329.13
452.02	1314.80
452.22	1349.61
452.43	1245.16
452.63	1265.64
