SpectraSuite Data File
++++++++++++++++++++++++++++++++++++
Date: Sun Apr 03 19:55:39 CEST 2016
User: root
Dark Spectrum Present: No
Reference Spectrum Present: No
Number of Sampled Component Spectra: 1
Spectrometers: USB4C02835
Integration Time (usec): 10000 (USB4C02835)
Spectra Averaged: 1 (USB4C02835)
Boxcar Smoothing: 0 (USB4C02835)
Correct for Electrical Dark: No (USB4C02835)
Strobe/Lamp Enabled: No (USB4C02835)
Correct for Detector Non-linearity: No (USB4C02835)
Correct for Stray Light: No (USB4C02835)
Number of Pixels in Processed Spectrum: 3648
>>>>>Begin Processed Spectral Data<<<<<
177.47	1271.79
177.69	1271.79
177.91	1271.79
178.13	1204.21
178.36	1261.55
178.58	1224.69
178.80	1265.64
179.02	1265.64
179.24	1343.47
179.46	1335.28
179.68	1259.50
179.90	1282.03
180.13	1302.51
180.35	1224.69
180.57	1298.41
180.79	1314.80
181.01	1273.84
181.23	1302.51
181.45	1290.22
181.67	1273.84
181.90	1222.64
182.12	1345.52
182.34	1218.54
182.56	1181.68
182.78	1241.07
183.00	1288.17
183.22	1257.45
183.44	1339.37
183.66	1255.40
183.89	1302.51
184.11	1265.64
184.33	1206.25
184.55	1249.26
184.77	1286.12
184.99	1271.79
185.21	1275.88
185.43	1347.56
185.65	1247.21
185.87	1267.69
186.10	1261.55
186.32	1230.83
186.54	1265.64
186.76	1273.84
186.98	1290.22
187.20	1263.60
187.42	1273.84
187.64	1265.64
187.86	1306.60
188.08	1247.21
188.30	1296.36
188.52	1232.88
188.75	1230.83
188.97	1253.36
189.19	1265.64
189.41	1251.31
189.63	1255.40
189.85	1249.26
190.07	1277.93
190.29	1257.45
190.51	1193.97
190.73	1263.60
190.95	1322.99
191.17	1290.22
191.39	1288.17
191.61	1247.21
191.84	1318.89
192.06	1224.69
192.28	1191.92
192.50	1261.55
192.72	1257.45
192.94	1230.83
193.16	1271.79
193.38	1261.55
193.60	1230.83
193.82	1271.79
194.04	1261.55
194.26	1331.18
194.48	1279.98
194.70	1269.74
194.92	1277.93
195.14	1292.27
195.36	1277.93
195.58	1271.79
195.80	1322.99
196.02	1298.41
196.24	1255.40
196.46	1325.04
196.69	1261.55
196.91	1288.17
197.13	1226.73
197.35	1216.49
197.57	1253.36
197.79	1310.70
198.01	1249.26
198.23	1273.84
198.45	1265.64
198.67	1253.36
198.89	1316.84
199.11	1318.89
199.33	1353.71
199.55	1212.40
199.77	1273.84
199.99	1261.55
200.21	1267.69
200.43	1204.21
200.65	1247.21
200.87	1327.08
201.09	1316.84
201.31	1288.17
201.53	1292.27
201.75	1322.99
201.97	1228.78
202.19	1312.75
202.41	1241.07
202.63	1329.13
202.85	1320.94
203.07	1290.22
203.29	1232.88
203.51	1265.64
203.73	1374.19
203.95	1249.26
204.17	1255.40
204.39	1267.69
204.61	1179.63
204.83	1290.22
205.05	1214.45
205.27	1327.08
205.49	1261.55
205.71	1173.49
205.93	1198.06
206.15	1218.54
206.37	1269.74
206.59	1277.93
206.81	1269.74
207.03	1239.02
207.25	1279.98
207.47	1320.94
207.69	1306.60
207.91	1263.60
208.13	1320.94
208.34	1292.27
208.56	1234.93
208.78	1282.03
209.00	1241.07
209.22	1228.78
209.44	1245.16
209.66	1216.49
209.88	1261.55
210.10	1269.74
210.32	1298.41
210.54	1234.93
210.76	1228.78
210.98	1288.17
211.20	1249.26
211.42	1347.56
211.64	1286.12
211.86	1247.21
212.08	1302.51
212.30	1294.32
212.52	1234.93
212.74	1257.45
212.96	1298.41
213.17	1320.94
213.39	1267.69
213.61	1271.79
213.83	1325.04
214.05	1331.18
214.27	1183.73
214.49	1245.16
214.71	1269.74
214.93	1357.80
215.15	1224.69
215.37	1239.02
215.59	1232.88
215.81	1304.56
216.03	1314.80
216.24	1257.45
216.46	1288.17
216.68	1265.64
216.90	1269.74
217.12	1222.64
217.34	1286.12
217.56	1325.04
217.78	1279.98
218.00	1282.03
218.22	1255.40
218.44	1296.36
218.66	1169.39
218.87	1245.16
219.09	1257.45
219.31	1306.60
219.53	1232.88
219.75	1267.69
219.97	1245.16
220.19	1247.21
220.41	1259.50
220.63	1224.69
220.85	1249.26
221.06	1241.07
221.28	1310.70
221.50	1290.22
221.72	1304.56
221.94	1314.80
222.16	1236.97
222.38	1355.76
222.60	1269.74
222.82	1312.75
223.03	1302.51
223.25	1169.39
223.47	1302.51
223.69	1296.36
223.91	1343.47
224.13	1279.98
224.35	1204.21
224.57	1243.12
224.78	1275.88
225.00	1277.93
225.22	1286.12
225.44	1296.36
225.66	1269.74
225.88	1245.16
226.10	1261.55
226.32	1239.02
226.53	1241.07
226.75	1249.26
226.97	1251.31
227.19	1277.93
227.41	1298.41
227.63	1206.25
227.85	1216.49
228.06	1282.03
228.28	1200.11
228.50	1267.69
228.72	1249.26
228.94	1282.03
229.16	1347.56
229.37	1208.30
229.59	1247.21
229.81	1241.07
230.03	1236.97
230.25	1308.65
230.47	1312.75
230.69	1202.16
230.90	1267.69
231.12	1232.88
231.34	1218.54
231.56	1271.79
231.78	1236.97
232.00	1337.32
232.21	1347.56
232.43	1255.40
232.65	1265.64
232.87	1288.17
233.09	1296.36
233.30	1288.17
233.52	1255.40
233.74	1214.45
233.96	1234.93
234.18	1282.03
234.40	1247.21
234.61	1296.36
234.83	1306.60
235.05	1275.88
235.27	1261.55
235.49	1261.55
235.70	1243.12
235.92	1243.12
236.14	1282.03
236.36	1282.03
236.58	1290.22
236.79	1232.88
237.01	1312.75
237.23	1312.75
237.45	1236.97
237.67	1327.08
237.88	1243.12
238.10	1257.45
238.32	1212.40
238.54	1357.80
238.76	1196.01
238.97	1245.16
239.19	1255.40
239.41	1288.17
239.63	1210.35
239.85	1288.17
240.06	1249.26
240.28	1259.50
240.50	1239.02
240.72	1255.40
240.93	1296.36
241.15	1226.73
241.37	1228.78
241.59	1290.22
241.81	1206.25
242.02	1322.99
242.24	1263.60
242.46	1265.64
242.68	1302.51
242.89	1251.31
243.11	1193.97
243.33	1298.41
243.55	1243.12
243.76	1196.01
243.98	1265.64
244.20	1273.84
244.42	1241.07
244.64	1302.51
244.85	1288.17
245.07	1306.60
245.29	1282.03
245.51	1279.98
245.72	1314.80
245.94	1300.46
246.16	1187.82
246.38	1245.16
246.59	1212.40
246.81	1257.45
247.03	1318.89
247.24	1251.31
247.46	1300.46
247.68	1236.97
247.90	1277.93
248.11	1150.96
248.33	1298.41
248.55	1251.31
248.77	1230.83
248.98	1284.08
249.20	1275.88
249.42	1286.12
249.64	1282.03
249.85	1236.97
250.07	1286.12
250.29	1247.21
250.50	1257.45
250.72	1310.70
250.94	1214.45
251.16	1349.61
251.37	1349.61
251.59	1212.40
251.81	1224.69
252.02	1271.79
252.24	1193.97
252.46	1269.74
252.68	1306.60
252.89	1277.93
253.11	1290.22
253.33	1327.08
253.54	1230.83
253.76	1259.50
253.98	1265.64
254.20	1220.59
254.41	1249.26
254.63	1224.69
254.85	1230.83
255.06	1310.70
255.28	1284.08
255.50	1277.93
255.71	1304.56
255.93	1245.16
256.15	1300.46
256.36	1267.69
256.58	1253.36
256.80	1265.64
257.02	1314.80
257.23	1271.79
257.45	1255.40
257.67	1220.59
257.88	1249.26
258.10	1277.93
258.32	1245.16
258.53	1327.08
258.75	1253.36
258.97	1269.74
259.18	1267.69
259.40	1282.03
259.62	1269.74
259.83	1271.79
260.05	1279.98
260.27	1257.45
260.48	1296.36
260.70	1265.64
260.92	1279.98
261.13	1296.36
261.35	1296.36
261.57	1355.76
261.78	1247.21
262.00	1247.21
262.22	1296.36
262.43	1263.60
262.65	1257.45
262.86	1204.21
263.08	1239.02
263.30	1255.40
263.51	1312.75
263.73	1327.08
263.95	1292.27
264.16	1277.93
264.38	1234.93
264.60	1277.93
264.81	1355.76
265.03	1265.64
265.25	1218.54
265.46	1265.64
265.68	1228.78
265.89	1273.84
266.11	1347.56
266.33	1312.75
266.54	1232.88
266.76	1320.94
266.98	1243.12
267.19	1310.70
267.41	1269.74
267.62	1257.45
267.84	1257.45
268.06	1286.12
268.27	1245.16
268.49	1331.18
268.70	1263.60
268.92	1298.41
269.14	1312.75
269.35	1306.60
269.57	1277.93
269.79	1296.36
270.00	1290.22
270.22	1257.45
270.43	1279.98
270.65	1185.77
270.87	1271.79
271.08	1220.59
271.30	1239.02
271.51	1265.64
271.73	1259.50
271.95	1298.41
272.16	1279.98
272.38	1290.22
272.59	1322.99
272.81	1265.64
273.02	1251.31
273.24	1275.88
273.46	1314.80
273.67	1308.65
273.89	1263.60
274.10	1253.36
274.32	1228.78
274.54	1279.98
274.75	1267.69
274.97	1329.13
275.18	1271.79
275.40	1257.45
275.61	1239.02
275.83	1271.79
276.05	1327.08
276.26	1290.22
276.48	1294.32
276.69	1179.63
276.91	1257.45
277.12	1308.65
277.34	1329.13
277.55	1265.64
277.77	1296.36
277.99	1277.93
278.20	1234.93
278.42	1212.40
278.63	1222.64
278.85	1355.76
279.06	1247.21
279.28	1249.26
279.49	1325.04
279.71	1218.54
279.93	1290.22
280.14	1288.17
280.36	1288.17
280.57	1294.32
280.79	1316.84
281.00	1226.73
281.22	1275.88
281.43	1253.36
281.65	1284.08
281.86	1320.94
282.08	1181.68
282.29	1261.55
282.51	1083.38
282.73	1267.69
282.94	1247.21
283.16	1267.69
283.37	1284.08
283.59	1181.68
283.80	1273.84
284.02	1249.26
284.23	1236.97
284.45	1306.60
284.66	1245.16
284.88	1224.69
285.09	1296.36
285.31	1288.17
285.52	1277.93
285.74	1265.64
285.95	1320.94
286.17	1214.45
286.38	1157.10
286.60	1304.56
286.81	1214.45
287.03	1214.45
287.24	1286.12
287.46	1239.02
287.67	1255.40
287.89	1325.04
288.10	1304.56
288.32	1241.07
288.53	1239.02
288.75	1320.94
288.96	1220.59
289.18	1310.70
289.39	1329.13
289.61	1337.32
289.82	1386.47
290.04	1288.17
290.25	1259.50
290.47	1259.50
290.68	1241.07
290.90	1296.36
291.11	1257.45
291.33	1349.61
291.54	1325.04
291.76	1261.55
291.97	1243.12
292.18	1224.69
292.40	1251.31
292.61	1269.74
292.83	1277.93
293.04	1265.64
293.26	1273.84
293.47	1257.45
293.69	1306.60
293.90	1271.79
294.12	1357.80
294.33	1312.75
294.55	1269.74
294.76	1322.99
294.97	1279.98
295.19	1234.93
295.40	1325.04
295.62	1204.21
295.83	1284.08
296.05	1298.41
296.26	1267.69
296.48	1232.88
296.69	1257.45
296.90	1253.36
297.12	1222.64
297.33	1177.58
297.55	1236.97
297.76	1253.36
297.98	1290.22
298.19	1249.26
298.41	1294.32
298.62	1247.21
298.83	1214.45
299.05	1296.36
299.26	1269.74
299.48	1243.12
299.69	1249.26
299.90	1331.18
300.12	1226.73
300.33	1224.69
300.55	1255.40
300.76	1263.60
300.98	1308.65
301.19	1267.69
301.40	1306.60
301.62	1249.26
301.83	1312.75
302.05	1284.08
302.26	1304.56
302.47	1279.98
302.69	1271.79
302.90	1279.98
303.12	1304.56
303.33	1279.98
303.54	1286.12
303.76	1286.12
303.97	1273.84
304.19	1282.03
304.40	1247.21
304.61	1230.83
304.83	1273.84
305.04	1288.17
305.26	1241.07
305.47	1181.68
305.68	1191.92
305.90	1261.55
306.11	1269.74
306.33	1329.13
306.54	1271.79
306.75	1329.13
306.97	1206.25
307.18	1298.41
307.39	1265.64
307.61	1269.74
307.82	1200.11
308.04	1224.69
308.25	1284.08
308.46	1271.79
308.68	1257.45
308.89	1257.45
309.10	1288.17
309.32	1298.41
309.53	1320.94
309.74	1265.64
309.96	1335.28
310.17	1316.84
310.39	1222.64
310.60	1279.98
310.81	1300.46
311.03	1247.21
311.24	1220.59
311.45	1359.85
311.67	1247.21
311.88	1368.04
312.09	1275.88
312.31	1253.36
312.52	1208.30
312.73	1320.94
312.95	1312.75
313.16	1327.08
313.37	1265.64
313.59	1318.89
313.80	1312.75
314.01	1302.51
314.23	1251.31
314.44	1255.40
314.65	1216.49
314.87	1271.79
315.08	1265.64
315.29	1366.00
315.51	1169.39
315.72	1318.89
315.93	1239.02
316.15	1232.88
316.36	1308.65
316.57	1259.50
316.79	1288.17
317.00	1337.32
317.21	1325.04
317.43	1273.84
317.64	1279.98
317.85	1279.98
318.07	1296.36
318.28	1265.64
318.49	1261.55
318.70	1327.08
318.92	1245.16
319.13	1290.22
319.34	1363.95
319.56	1302.51
319.77	1212.40
319.98	1325.04
320.20	1224.69
320.41	1339.37
320.62	1241.07
320.83	1286.12
321.05	1284.08
321.26	1230.83
321.47	1277.93
321.69	1251.31
321.90	1228.78
322.11	1191.92
322.32	1243.12
322.54	1228.78
322.75	1325.04
322.96	1230.83
323.18	1204.21
323.39	1232.88
323.60	1224.69
323.81	1236.97
324.03	1210.35
324.24	1241.07
324.45	1263.60
324.66	1312.75
324.88	1292.27
325.09	1239.02
325.30	1241.07
325.52	1263.60
325.73	1263.60
325.94	1257.45
326.15	1200.11
326.37	1267.69
326.58	1189.87
326.79	1241.07
327.00	1253.36
327.22	1304.56
327.43	1253.36
327.64	1277.93
327.85	1259.50
328.07	1245.16
328.28	1310.70
328.49	1273.84
328.70	1314.80
328.92	1239.02
329.13	1302.51
329.34	1296.36
329.55	1353.71
329.76	1290.22
329.98	1224.69
330.19	1312.75
330.40	1329.13
330.61	1245.16
330.83	1282.03
331.04	1288.17
331.25	1239.02
331.46	1247.21
331.68	1286.12
331.89	1343.47
332.10	1251.31
332.31	1316.84
332.52	1282.03
332.74	1220.59
332.95	1255.40
333.16	1212.40
333.37	1273.84
333.58	1245.16
333.80	1200.11
334.01	1275.88
334.22	1296.36
334.43	1243.12
334.64	1337.32
334.86	1228.78
335.07	1261.55
335.28	1304.56
335.49	1249.26
335.70	1247.21
335.92	1175.53
336.13	1292.27
336.34	1304.56
336.55	1304.56
336.76	1243.12
336.98	1267.69
337.19	1269.74
337.40	1269.74
337.61	1304.56
337.82	1243.12
338.04	1234.93
338.25	1157.10
338.46	1249.26
338.67	1265.64
338.88	1239.02
339.09	1249.26
339.31	1318.89
339.52	1341.42
339.73	1271.79
339.94	1261.55
340.15	1241.07
340.36	1277.93
340.58	1243.12
340.79	1267.69
341.00	1216.49
341.21	1296.36
341.42	1302.51
341.63	1306.60
341.85	1265.64
342.06	1241.07
342.27	1273.84
342.48	1261.55
342.69	1337.32
342.90	1204.21
343.12	1259.50
343.33	1308.65
343.54	1275.88
343.75	1220.59
343.96	1208.30
344.17	1247.21
344.38	1279.98
344.60	1308.65
344.81	1325.04
345.02	1212.40
345.23	1247.21
345.44	1290.22
345.65	1312.75
345.86	1306.60
346.07	1234.93
346.29	1294.32
346.50	1196.01
346.71	1202.16
346.92	1232.88
347.13	1261.55
347.34	1187.82
347.55	1247.21
347.76	1234.93
347.98	1277.93
348.19	1275.88
348.40	1273.84
348.61	1249.26
348.82	1265.64
349.03	1204.21
349.24	1290.22
349.45	1282.03
349.66	1298.41
349.88	1200.11
350.09	1308.65
350.30	1245.16
350.51	1257.45
350.72	1306.60
350.93	1253.36
351.14	1300.46
351.35	1292.27
351.56	1284.08
351.77	1239.02
351.99	1202.16
352.20	1327.08
352.41	1261.55
352.62	1279.98
352.83	1200.11
353.04	1284.08
353.25	1335.28
353.46	1251.31
353.67	1282.03
353.88	1263.60
354.09	1261.55
354.30	1312.75
354.52	1222.64
354.73	1243.12
354.94	1224.69
355.15	1267.69
355.36	1329.13
355.57	1253.36
355.78	1271.79
355.99	1282.03
356.20	1153.01
356.41	1257.45
356.62	1224.69
356.83	1249.26
357.04	1286.12
357.25	1243.12
357.46	1224.69
357.68	1329.13
357.89	1249.26
358.10	1239.02
358.31	1255.40
358.52	1282.03
358.73	1277.93
358.94	1284.08
359.15	1282.03
359.36	1210.35
359.57	1325.04
359.78	1257.45
359.99	1230.83
360.20	1304.56
360.41	1226.73
360.62	1312.75
360.83	1265.64
361.04	1314.80
361.25	1243.12
361.46	1310.70
361.67	1177.58
361.88	1279.98
362.09	1224.69
362.30	1302.51
362.51	1255.40
362.72	1241.07
362.93	1222.64
363.14	1210.35
363.35	1288.17
363.56	1314.80
363.78	1267.69
363.99	1277.93
364.20	1302.51
364.41	1251.31
364.62	1325.04
364.83	1282.03
365.04	1271.79
365.25	1310.70
365.46	1331.18
365.67	1241.07
365.88	1239.02
366.09	1298.41
366.30	1249.26
366.51	1308.65
366.72	1269.74
366.93	1329.13
367.14	1253.36
367.35	1232.88
367.56	1325.04
367.77	1267.69
367.98	1214.45
368.18	1279.98
368.39	1265.64
368.60	1263.60
368.81	1239.02
369.02	1255.40
369.23	1296.36
369.44	1206.25
369.65	1257.45
369.86	1222.64
370.07	1316.84
370.28	1288.17
370.49	1200.11
370.70	1208.30
370.91	1230.83
371.12	1279.98
371.33	1214.45
371.54	1345.52
371.75	1335.28
371.96	1214.45
372.17	1288.17
372.38	1275.88
372.59	1241.07
372.80	1257.45
373.01	1296.36
373.22	1255.40
373.43	1253.36
373.64	1277.93
373.85	1255.40
374.06	1253.36
374.26	1279.98
374.47	1322.99
374.68	1200.11
374.89	1290.22
375.10	1290.22
375.31	1288.17
375.52	1269.74
375.73	1290.22
375.94	1329.13
376.15	1206.25
376.36	1212.40
376.57	1210.35
376.78	1224.69
376.99	1230.83
377.20	1275.88
377.40	1310.70
377.61	1232.88
377.82	1284.08
378.03	1310.70
378.24	1257.45
378.45	1267.69
378.66	1296.36
378.87	1290.22
379.08	1261.55
379.29	1333.23
379.50	1310.70
379.71	1320.94
379.91	1271.79
380.12	1257.45
380.33	1294.32
380.54	1220.59
380.75	1239.02
380.96	1243.12
381.17	1304.56
381.38	1306.60
381.59	1210.35
381.80	1322.99
382.00	1296.36
382.21	1284.08
382.42	1294.32
382.63	1320.94
382.84	1314.80
383.05	1320.94
383.26	1322.99
383.47	1228.78
383.68	1236.97
383.88	1318.89
384.09	1220.59
384.30	1286.12
384.51	1286.12
384.72	1275.88
384.93	1220.59
385.14	1249.26
385.35	1273.84
385.55	1273.84
385.76	1267.69
385.97	1257.45
386.18	1257.45
386.39	1277.93
386.60	1284.08
386.81	1351.66
387.02	1222.64
387.22	1296.36
387.43	1267.69
387.64	1310.70
387.85	1218.54
388.06	1257.45
388.27	1243.12
388.48	1263.60
388.68	1255.40
388.89	1169.39
389.10	1222.64
389.31	1351.66
389.52	1273.84
389.73	1245.16
389.93	1245.16
390.14	1234.93
390.35	1236.97
390.56	1251.31
390.77	1267.69
390.98	1239.02
391.18	1304.56
391.39	1292.27
391.60	1277.93
391.81	1318.89
392.02	1275.88
392.23	1275.88
392.43	1279.98
392.64	1234.93
392.85	1212.40
393.06	1322.99
393.27	1257.45
393.47	1255.40
393.68	1255.40
393.89	1380.33
394.10	1200.11
394.31	1206.25
394.52	1261.55
394.72	1296.36
394.93	1249.26
395.14	1343.47
395.35	1292.27
395.56	1214.45
395.76	1384.43
395.97	1316.84
396.18	1257.45
396.39	1275.88
396.60	1273.84
396.80	1253.36
397.01	1269.74
397.22	1257.45
397.43	1261.55
397.64	1206.25
397.84	1239.02
398.05	1286.12
398.26	1249.26
398.47	1241.07
398.67	1228.78
398.88	1210.35
399.09	1253.36
399.30	1157.10
399.51	1267.69
399.71	1208.30
399.92	1222.64
400.13	1210.35
400.34	1292.27
400.54	1216.49
400.75	1298.41
400.96	1302.51
401.17	1312.75
401.37	1241.07
401.58	1279.98
401.79	1249.26
402.00	1236.97
402.21	1304.56
402.41	1282.03
402.62	1243.12
402.83	1245.16
403.04	1243.12
403.24	1269.74
403.45	1337.32
403.66	1263.60
403.87	1290.22
404.07	1261.55
404.28	1310.70
404.49	1210.35
404.70	1277.93
404.90	1259.50
405.11	1277.93
405.32	1265.64
405.52	1322.99
405.73	1257.45
405.94	1245.16
406.15	1257.45
406.35	1216.49
406.56	1292.27
406.77	1255.40
406.98	1267.69
407.18	1269.74
407.39	1335.28
407.60	1265.64
407.80	1300.46
408.01	1247.21
408.22	1290.22
408.43	1318.89
408.63	1298.41
408.84	1267.69
409.05	1249.26
409.25	1255.40
409.46	1249.26
409.67	1210.35
409.88	1247.21
410.08	1226.73
410.29	1298.41
410.50	1277.93
410.70	1282.03
410.91	1232.88
411.12	1269.74
411.32	1241.07
411.53	1279.98
411.74	1245.16
411.95	1314.80
412.15	1232.88
412.36	1335.28
412.57	1234.93
412.77	1288.17
412.98	1294.32
413.19	1306.60
413.39	1232.88
413.60	1306.60
413.81	1277.93
414.01	1267.69
414.22	1349.61
414.43	1273.84
414.63	1279.98
414.84	1228.78
415.05	1228.78
415.25	1269.74
415.46	1257.45
415.67	1273.84
415.87	1232.88
416.08	1277.93
416.29	1234.93
416.49	1271.79
416.70	1296.36
416.91	1282.03
417.11	1189.87
417.32	1294.32
417.53	1298.41
417.73	1312.75
417.94	1255.40
418.15	1271.79
418.35	1333.23
418.56	1279.98
418.77	1296.36
418.97	1265.64
419.18	1273.84
419.38	1286.12
419.59	1179.63
419.80	1290.22
420.00	1261.55
420.21	1312.75
420.42	1212.40
420.62	1335.28
420.83	1210.35
421.04	1361.90
421.24	1245.16
421.45	1298.41
421.65	1275.88
421.86	1247.21
422.07	1253.36
422.27	1343.47
422.48	1345.52
422.69	1253.36
422.89	1279.98
423.10	1296.36
423.30	1335.28
423.51	1206.25
423.72	1302.51
423.92	1269.74
424.13	1282.03
424.33	1296.36
424.54	1312.75
424.75	1263.60
424.95	1267.69
425.16	1288.17
425.36	1181.68
425.57	1232.88
425.78	1294.32
425.98	1316.84
426.19	1294.32
426.39	1247.21
426.60	1279.98
426.81	1257.45
427.01	1277.93
427.22	1216.49
427.42	1269.74
427.63	1279.98
427.83	1316.84
428.04	1247.21
428.25	1267.69
428.45	1320.94
428.66	1302.51
428.86	1249.26
429.07	1255.40
429.28	1312.75
429.48	1363.95
429.69	1226.73
429.89	1212.40
430.10	1253.36
430.30	1251.31
430.51	1292.27
430.71	1265.64
430.92	1282.03
431.13	1214.45
431.33	1290.22
431.54	1312.75
431.74	1310.70
431.95	1296.36
432.15	1290.22
432.36	1331.18
432.56	1259.50
432.77	1241.07
432.98	1214.45
433.18	1273.84
433.39	1310.70
433.59	1253.36
433.80	1306.60
434.00	1251.31
434.21	1212.40
434.41	1322.99
434.62	1409.00
434.82	1290.22
435.03	1269.74
435.23	1263.60
435.44	1226.73
435.64	1202.16
435.85	1267.69
436.06	1277.93
436.26	1236.97
436.47	1265.64
436.67	1220.59
436.88	1288.17
437.08	1241.07
437.29	1269.74
437.49	1288.17
437.70	1222.64
437.90	1288.17
438.11	1306.60
438.31	1236.97
438.52	1234.93
438.72	1275.88
438.93	1150.96
439.13	1279.98
439.34	1286.12
439.54	1198.06
439.75	1273.84
439.95	1275.88
440.16	1302.51
440.36	1322.99
440.57	1286.12
440.77	1265.64
440.98	1257.45
441.18	1253.36
441.39	1263.60
441.59	1249.26
441.80	1286.12
442.00	1220.59
442.21	1279.98
442.41	1273.84
442.62	1343.47
442.82	1341.42
443.02	1288.17
443.23	1271.79
443.43	1277.93
443.64	1271.79
443.84	1302.51
444.05	1247.21
444.25	1234.93
444.46	1308.65
444.66	1255.40
444.87	1316.84
445.07	1261.55
445.28	1255.40
445.48	1247.21
445.69	1331.18
445.89	1368.04
446.09	1214.45
446.30	1228.78
446.50	1292.27
446.71	1257.45
446.91	1241.07
447.12	1271.79
447.32	1263.60
447.53	1300.46
447.73	1279.98
447.93	1288.17
448.14	1290.22
448.34	1189.87
448.55	1247.21
448.75	1298.41
448.96	1265.64
449.16	1169.39
449.36	1290.22
449.57	1312.75
449.77	1310.70
449.98	1308.65
450.18	1335.28
450.39	1245.16
450.59	1304.56
450.79	1314.80
451.00	1282.03
451.20	1286.12
451.41	1290.22
451.61	1263.60
451.81	1216.49
452.02	1279.98
452.22	1296.36
452.43	1247.21
452.63	1263.60
