SpectraSuite Data File
++++++++++++++++++++++++++++++++++++
Date: Sun Apr 03 19:55:21 CEST 2016
User: root
Dark Spectrum Present: No
Reference Spectrum Present: No
Number of Sampled Component Spectra: 1
Spectrometers: USB4C02835
Integration Time (usec): 10000 (USB4C02835)
Spectra Averaged: 1 (USB4C02835)
Boxcar Smoothing: 0 (USB4C02835)
Correct for Electrical Dark: No (USB4C02835)
Strobe/Lamp Enabled: No (USB4C02835)
Correct for Detector Non-linearity: No (USB4C02835)
Correct for Stray Light: No (USB4C02835)
Number of Pixels in Processed Spectrum: 3648
>>>>>Begin Processed Spectral Data<<<<<
177.47	1249.26
177.69	1249.26
177.91	1249.26
178.13	1243.12
178.36	1230.83
178.58	1261.55
178.80	1296.36
179.02	1325.04
179.24	1193.97
179.46	1322.99
179.68	1308.65
179.90	1335.28
180.13	1169.39
180.35	1329.13
180.57	1284.08
180.79	1255.40
181.01	1239.02
181.23	1239.02
181.45	1292.27
181.67	1208.30
181.90	1226.73
182.12	1247.21
182.34	1310.70
182.56	1230.83
182.78	1273.84
183.00	1228.78
183.22	1263.60
183.44	1216.49
183.66	1251.31
183.89	1224.69
184.11	1288.17
184.33	1290.22
184.55	1230.83
184.77	1253.36
184.99	1253.36
185.21	1236.97
185.43	1245.16
185.65	1279.98
185.87	1202.16
186.10	1220.59
186.32	1341.42
186.54	1226.73
186.76	1298.41
186.98	1263.60
187.20	1267.69
187.42	1279.98
187.64	1308.65
187.86	1284.08
188.08	1277.93
188.30	1218.54
188.52	1312.75
188.75	1286.12
188.97	1304.56
189.19	1234.93
189.41	1232.88
189.63	1218.54
189.85	1277.93
190.07	1282.03
190.29	1304.56
190.51	1230.83
190.73	1247.21
190.95	1245.16
191.17	1279.98
191.39	1296.36
191.61	1294.32
191.84	1261.55
192.06	1232.88
192.28	1249.26
192.50	1220.59
192.72	1216.49
192.94	1298.41
193.16	1257.45
193.38	1288.17
193.60	1202.16
193.82	1228.78
194.04	1273.84
194.26	1288.17
194.48	1306.60
194.70	1267.69
194.92	1265.64
195.14	1239.02
195.36	1265.64
195.58	1261.55
195.80	1245.16
196.02	1247.21
196.24	1298.41
196.46	1306.60
196.69	1218.54
196.91	1228.78
197.13	1234.93
197.35	1292.27
197.57	1275.88
197.79	1318.89
198.01	1243.12
198.23	1230.83
198.45	1271.79
198.67	1257.45
198.89	1245.16
199.11	1220.59
199.33	1310.70
199.55	1241.07
199.77	1257.45
199.99	1290.22
200.21	1298.41
200.43	1265.64
200.65	1243.12
200.87	1357.80
201.09	1222.64
201.31	1290.22
201.53	1273.84
201.75	1220.59
201.97	1273.84
202.19	1273.84
202.41	1282.03
202.63	1267.69
202.85	1247.21
203.07	1292.27
203.29	1267.69
203.51	1282.03
203.73	1306.60
203.95	1218.54
204.17	1290.22
204.39	1189.87
204.61	1300.46
204.83	1292.27
205.05	1267.69
205.27	1318.89
205.49	1230.83
205.71	1267.69
205.93	1271.79
206.15	1243.12
206.37	1271.79
206.59	1257.45
206.81	1290.22
207.03	1253.36
207.25	1327.08
207.47	1288.17
207.69	1312.75
207.91	1196.01
208.13	1314.80
208.34	1304.56
208.56	1372.14
208.78	1318.89
209.00	1288.17
209.22	1187.82
209.44	1314.80
209.66	1339.37
209.88	1216.49
210.10	1241.07
210.32	1230.83
210.54	1273.84
210.76	1273.84
210.98	1267.69
211.20	1341.42
211.42	1277.93
211.64	1366.00
211.86	1273.84
212.08	1267.69
212.30	1243.12
212.52	1298.41
212.74	1249.26
212.96	1345.52
213.17	1267.69
213.39	1286.12
213.61	1241.07
213.83	1259.50
214.05	1249.26
214.27	1230.83
214.49	1257.45
214.71	1230.83
214.93	1294.32
215.15	1216.49
215.37	1230.83
215.59	1322.99
215.81	1298.41
216.03	1228.78
216.24	1271.79
216.46	1296.36
216.68	1300.46
216.90	1298.41
217.12	1359.85
217.34	1314.80
217.56	1279.98
217.78	1312.75
218.00	1257.45
218.22	1249.26
218.44	1214.45
218.66	1273.84
218.87	1314.80
219.09	1316.84
219.31	1275.88
219.53	1259.50
219.75	1290.22
219.97	1333.23
220.19	1292.27
220.41	1253.36
220.63	1298.41
220.85	1292.27
221.06	1337.32
221.28	1159.15
221.50	1263.60
221.72	1284.08
221.94	1241.07
222.16	1269.74
222.38	1318.89
222.60	1251.31
222.82	1284.08
223.03	1189.87
223.25	1251.31
223.47	1230.83
223.69	1196.01
223.91	1267.69
224.13	1337.32
224.35	1351.66
224.57	1245.16
224.78	1267.69
225.00	1300.46
225.22	1267.69
225.44	1310.70
225.66	1284.08
225.88	1310.70
226.10	1275.88
226.32	1304.56
226.53	1140.72
226.75	1277.93
226.97	1257.45
227.19	1212.40
227.41	1245.16
227.63	1212.40
227.85	1265.64
228.06	1286.12
228.28	1366.00
228.50	1267.69
228.72	1263.60
228.94	1288.17
229.16	1257.45
229.37	1282.03
229.59	1247.21
229.81	1355.76
230.03	1251.31
230.25	1224.69
230.47	1290.22
230.69	1339.37
230.90	1286.12
231.12	1292.27
231.34	1245.16
231.56	1288.17
231.78	1234.93
232.00	1267.69
232.21	1300.46
232.43	1249.26
232.65	1239.02
232.87	1282.03
233.09	1230.83
233.30	1304.56
233.52	1261.55
233.74	1255.40
233.96	1298.41
234.18	1314.80
234.40	1241.07
234.61	1257.45
234.83	1286.12
235.05	1263.60
235.27	1277.93
235.49	1279.98
235.70	1306.60
235.92	1335.28
236.14	1267.69
236.36	1298.41
236.58	1290.22
236.79	1314.80
237.01	1232.88
237.23	1320.94
237.45	1251.31
237.67	1284.08
237.88	1304.56
238.10	1214.45
238.32	1257.45
238.54	1247.21
238.76	1286.12
238.97	1257.45
239.19	1282.03
239.41	1335.28
239.63	1282.03
239.85	1284.08
240.06	1253.36
240.28	1232.88
240.50	1263.60
240.72	1273.84
240.93	1294.32
241.15	1306.60
241.37	1271.79
241.59	1279.98
241.81	1261.55
242.02	1275.88
242.24	1363.95
242.46	1292.27
242.68	1288.17
242.89	1339.37
243.11	1230.83
243.33	1247.21
243.55	1277.93
243.76	1249.26
243.98	1302.51
244.20	1343.47
244.42	1308.65
244.64	1296.36
244.85	1226.73
245.07	1239.02
245.29	1277.93
245.51	1222.64
245.72	1263.60
245.94	1263.60
246.16	1290.22
246.38	1230.83
246.59	1206.25
246.81	1261.55
247.03	1282.03
247.24	1241.07
247.46	1267.69
247.68	1271.79
247.90	1159.15
248.11	1335.28
248.33	1226.73
248.55	1310.70
248.77	1284.08
248.98	1251.31
249.20	1228.78
249.42	1263.60
249.64	1298.41
249.85	1222.64
250.07	1296.36
250.29	1265.64
250.50	1279.98
250.72	1304.56
250.94	1318.89
251.16	1208.30
251.37	1286.12
251.59	1304.56
251.81	1220.59
252.02	1267.69
252.24	1202.16
252.46	1200.11
252.68	1355.76
252.89	1277.93
253.11	1273.84
253.33	1236.97
253.54	1185.77
253.76	1374.19
253.98	1325.04
254.20	1257.45
254.41	1230.83
254.63	1140.72
254.85	1331.18
255.06	1267.69
255.28	1183.73
255.50	1224.69
255.71	1269.74
255.93	1222.64
256.15	1214.45
256.36	1314.80
256.58	1277.93
256.80	1196.01
257.02	1308.65
257.23	1247.21
257.45	1282.03
257.67	1265.64
257.88	1263.60
258.10	1271.79
258.32	1257.45
258.53	1259.50
258.75	1239.02
258.97	1286.12
259.18	1370.09
259.40	1296.36
259.62	1214.45
259.83	1302.51
260.05	1286.12
260.27	1314.80
260.48	1273.84
260.70	1292.27
260.92	1273.84
261.13	1288.17
261.35	1273.84
261.57	1318.89
261.78	1290.22
262.00	1165.29
262.22	1249.26
262.43	1290.22
262.65	1341.42
262.86	1312.75
263.08	1261.55
263.30	1224.69
263.51	1230.83
263.73	1304.56
263.95	1292.27
264.16	1224.69
264.38	1241.07
264.60	1302.51
264.81	1230.83
265.03	1273.84
265.25	1228.78
265.46	1251.31
265.68	1314.80
265.89	1282.03
266.11	1220.59
266.33	1259.50
266.54	1253.36
266.76	1290.22
266.98	1263.60
267.19	1384.43
267.41	1253.36
267.62	1243.12
267.84	1259.50
268.06	1265.64
268.27	1253.36
268.49	1333.23
268.70	1257.45
268.92	1230.83
269.14	1241.07
269.35	1234.93
269.57	1273.84
269.79	1345.52
270.00	1298.41
270.22	1269.74
270.43	1269.74
270.65	1183.73
270.87	1265.64
271.08	1232.88
271.30	1300.46
271.51	1300.46
271.73	1271.79
271.95	1271.79
272.16	1306.60
272.38	1267.69
272.59	1288.17
272.81	1222.64
273.02	1345.52
273.24	1267.69
273.46	1224.69
273.67	1279.98
273.89	1273.84
274.10	1279.98
274.32	1290.22
274.54	1247.21
274.75	1277.93
274.97	1196.01
275.18	1265.64
275.40	1263.60
275.61	1224.69
275.83	1247.21
276.05	1191.92
276.26	1306.60
276.48	1308.65
276.69	1245.16
276.91	1263.60
277.12	1257.45
277.34	1251.31
277.55	1275.88
277.77	1224.69
277.99	1302.51
278.20	1298.41
278.42	1288.17
278.63	1298.41
278.85	1298.41
279.06	1306.60
279.28	1222.64
279.49	1232.88
279.71	1347.56
279.93	1318.89
280.14	1271.79
280.36	1241.07
280.57	1318.89
280.79	1302.51
281.00	1236.97
281.22	1245.16
281.43	1265.64
281.65	1212.40
281.86	1288.17
282.08	1325.04
282.29	1286.12
282.51	1335.28
282.73	1271.79
282.94	1226.73
283.16	1261.55
283.37	1349.61
283.59	1216.49
283.80	1277.93
284.02	1253.36
284.23	1292.27
284.45	1292.27
284.66	1222.64
284.88	1312.75
285.09	1228.78
285.31	1341.42
285.52	1249.26
285.74	1261.55
285.95	1243.12
286.17	1257.45
286.38	1200.11
286.60	1296.36
286.81	1245.16
287.03	1294.32
287.24	1265.64
287.46	1316.84
287.67	1288.17
287.89	1284.08
288.10	1239.02
288.32	1314.80
288.53	1251.31
288.75	1259.50
288.96	1259.50
289.18	1239.02
289.39	1265.64
289.61	1296.36
289.82	1306.60
290.04	1236.97
290.25	1300.46
290.47	1302.51
290.68	1302.51
290.90	1265.64
291.11	1251.31
291.33	1277.93
291.54	1255.40
291.76	1331.18
291.97	1187.82
292.18	1318.89
292.40	1239.02
292.61	1198.06
292.83	1290.22
293.04	1245.16
293.26	1232.88
293.47	1279.98
293.69	1206.25
293.90	1304.56
294.12	1261.55
294.33	1191.92
294.55	1331.18
294.76	1196.01
294.97	1253.36
295.19	1265.64
295.40	1263.60
295.62	1294.32
295.83	1300.46
296.05	1292.27
296.26	1212.40
296.48	1263.60
296.69	1271.79
296.90	1370.09
297.12	1294.32
297.33	1216.49
297.55	1279.98
297.76	1286.12
297.98	1212.40
298.19	1296.36
298.41	1306.60
298.62	1265.64
298.83	1249.26
299.05	1271.79
299.26	1263.60
299.48	1234.93
299.69	1191.92
299.90	1273.84
300.12	1302.51
300.33	1275.88
300.55	1363.95
300.76	1273.84
300.98	1290.22
301.19	1372.14
301.40	1247.21
301.62	1222.64
301.83	1210.35
302.05	1277.93
302.26	1212.40
302.47	1265.64
302.69	1243.12
302.90	1286.12
303.12	1239.02
303.33	1294.32
303.54	1279.98
303.76	1304.56
303.97	1288.17
304.19	1241.07
304.40	1257.45
304.61	1320.94
304.83	1226.73
305.04	1298.41
305.26	1210.35
305.47	1247.21
305.68	1271.79
305.90	1220.59
306.11	1322.99
306.33	1259.50
306.54	1236.97
306.75	1236.97
306.97	1275.88
307.18	1329.13
307.39	1265.64
307.61	1263.60
307.82	1255.40
308.04	1257.45
308.25	1261.55
308.46	1331.18
308.68	1300.46
308.89	1333.23
309.10	1306.60
309.32	1214.45
309.53	1243.12
309.74	1259.50
309.96	1261.55
310.17	1265.64
310.39	1286.12
310.60	1255.40
310.81	1224.69
311.03	1234.93
311.24	1302.51
311.45	1208.30
311.67	1322.99
311.88	1316.84
312.09	1255.40
312.31	1331.18
312.52	1257.45
312.73	1236.97
312.95	1245.16
313.16	1318.89
313.37	1220.59
313.59	1241.07
313.80	1286.12
314.01	1271.79
314.23	1253.36
314.44	1282.03
314.65	1228.78
314.87	1265.64
315.08	1269.74
315.29	1361.90
315.51	1286.12
315.72	1265.64
315.93	1261.55
316.15	1306.60
316.36	1261.55
316.57	1257.45
316.79	1234.93
317.00	1368.04
317.21	1341.42
317.43	1212.40
317.64	1273.84
317.85	1329.13
318.07	1279.98
318.28	1222.64
318.49	1198.06
318.70	1294.32
318.92	1279.98
319.13	1282.03
319.34	1302.51
319.56	1271.79
319.77	1275.88
319.98	1304.56
320.20	1302.51
320.41	1296.36
320.62	1247.21
320.83	1249.26
321.05	1347.56
321.26	1214.45
321.47	1271.79
321.69	1267.69
321.90	1212.40
322.11	1337.32
322.32	1239.02
322.54	1251.31
322.75	1273.84
322.96	1277.93
323.18	1261.55
323.39	1259.50
323.60	1212.40
323.81	1245.16
324.03	1239.02
324.24	1329.13
324.45	1335.28
324.66	1277.93
324.88	1245.16
325.09	1257.45
325.30	1255.40
325.52	1249.26
325.73	1310.70
325.94	1312.75
326.15	1216.49
326.37	1304.56
326.58	1308.65
326.79	1296.36
327.00	1228.78
327.22	1335.28
327.43	1310.70
327.64	1247.21
327.85	1298.41
328.07	1216.49
328.28	1312.75
328.49	1228.78
328.70	1269.74
328.92	1249.26
329.13	1288.17
329.34	1265.64
329.55	1404.91
329.76	1279.98
329.98	1271.79
330.19	1171.44
330.40	1243.12
330.61	1245.16
330.83	1191.92
331.04	1304.56
331.25	1216.49
331.46	1355.76
331.68	1239.02
331.89	1294.32
332.10	1302.51
332.31	1269.74
332.52	1185.77
332.74	1216.49
332.95	1351.66
333.16	1269.74
333.37	1239.02
333.58	1316.84
333.80	1251.31
334.01	1259.50
334.22	1189.87
334.43	1187.82
334.64	1230.83
334.86	1191.92
335.07	1269.74
335.28	1361.90
335.49	1253.36
335.70	1267.69
335.92	1200.11
336.13	1292.27
336.34	1306.60
336.55	1251.31
336.76	1304.56
336.98	1241.07
337.19	1216.49
337.40	1290.22
337.61	1279.98
337.82	1339.37
338.04	1255.40
338.25	1239.02
338.46	1292.27
338.67	1220.59
338.88	1165.29
339.09	1286.12
339.31	1306.60
339.52	1200.11
339.73	1255.40
339.94	1187.82
340.15	1245.16
340.36	1241.07
340.58	1300.46
340.79	1271.79
341.00	1288.17
341.21	1282.03
341.42	1308.65
341.63	1253.36
341.85	1245.16
342.06	1263.60
342.27	1245.16
342.48	1196.01
342.69	1314.80
342.90	1279.98
343.12	1286.12
343.33	1259.50
343.54	1265.64
343.75	1222.64
343.96	1282.03
344.17	1318.89
344.38	1316.84
344.60	1355.76
344.81	1239.02
345.02	1249.26
345.23	1294.32
345.44	1282.03
345.65	1298.41
345.86	1286.12
346.07	1298.41
346.29	1296.36
346.50	1284.08
346.71	1279.98
346.92	1257.45
347.13	1236.97
347.34	1232.88
347.55	1294.32
347.76	1236.97
347.98	1210.35
348.19	1259.50
348.40	1282.03
348.61	1247.21
348.82	1265.64
349.03	1198.06
349.24	1312.75
349.45	1288.17
349.66	1271.79
349.88	1273.84
350.09	1255.40
350.30	1191.92
350.51	1351.66
350.72	1302.51
350.93	1333.23
351.14	1247.21
351.35	1288.17
351.56	1325.04
351.77	1236.97
351.99	1214.45
352.20	1249.26
352.41	1245.16
352.62	1300.46
352.83	1320.94
353.04	1234.93
353.25	1296.36
353.46	1226.73
353.67	1335.28
353.88	1296.36
354.09	1355.76
354.30	1333.23
354.52	1275.88
354.73	1292.27
354.94	1282.03
355.15	1259.50
355.36	1279.98
355.57	1191.92
355.78	1247.21
355.99	1263.60
356.20	1251.31
356.41	1263.60
356.62	1261.55
356.83	1259.50
357.04	1341.42
357.25	1333.23
357.46	1339.37
357.68	1236.97
357.89	1327.08
358.10	1265.64
358.31	1275.88
358.52	1257.45
358.73	1198.06
358.94	1255.40
359.15	1214.45
359.36	1216.49
359.57	1247.21
359.78	1232.88
359.99	1257.45
360.20	1228.78
360.41	1236.97
360.62	1271.79
360.83	1245.16
361.04	1298.41
361.25	1249.26
361.46	1222.64
361.67	1185.77
361.88	1259.50
362.09	1265.64
362.30	1239.02
362.51	1265.64
362.72	1212.40
362.93	1226.73
363.14	1267.69
363.35	1175.53
363.56	1279.98
363.78	1253.36
363.99	1310.70
364.20	1249.26
364.41	1269.74
364.62	1279.98
364.83	1312.75
365.04	1261.55
365.25	1277.93
365.46	1224.69
365.67	1179.63
365.88	1304.56
366.09	1282.03
366.30	1296.36
366.51	1277.93
366.72	1277.93
366.93	1271.79
367.14	1279.98
367.35	1314.80
367.56	1308.65
367.77	1261.55
367.98	1269.74
368.18	1261.55
368.39	1253.36
368.60	1304.56
368.81	1226.73
369.02	1312.75
369.23	1239.02
369.44	1253.36
369.65	1294.32
369.86	1331.18
370.07	1294.32
370.28	1296.36
370.49	1214.45
370.70	1236.97
370.91	1220.59
371.12	1271.79
371.33	1310.70
371.54	1269.74
371.75	1333.23
371.96	1265.64
372.17	1288.17
372.38	1241.07
372.59	1312.75
372.80	1284.08
373.01	1241.07
373.22	1353.71
373.43	1318.89
373.64	1257.45
373.85	1277.93
374.06	1257.45
374.26	1290.22
374.47	1224.69
374.68	1353.71
374.89	1302.51
375.10	1327.08
375.31	1286.12
375.52	1259.50
375.73	1335.28
375.94	1284.08
376.15	1306.60
376.36	1347.56
376.57	1232.88
376.78	1269.74
376.99	1265.64
377.20	1284.08
377.40	1277.93
377.61	1236.97
377.82	1241.07
378.03	1292.27
378.24	1310.70
378.45	1245.16
378.66	1249.26
378.87	1279.98
379.08	1292.27
379.29	1236.97
379.50	1294.32
379.71	1292.27
379.91	1259.50
380.12	1236.97
380.33	1212.40
380.54	1279.98
380.75	1267.69
380.96	1228.78
381.17	1288.17
381.38	1234.93
381.59	1263.60
381.80	1255.40
382.00	1230.83
382.21	1296.36
382.42	1255.40
382.63	1263.60
382.84	1273.84
383.05	1329.13
383.26	1337.32
383.47	1265.64
383.68	1284.08
383.88	1271.79
384.09	1247.21
384.30	1241.07
384.51	1288.17
384.72	1298.41
384.93	1257.45
385.14	1261.55
385.35	1366.00
385.55	1257.45
385.76	1308.65
385.97	1200.11
386.18	1331.18
386.39	1306.60
386.60	1216.49
386.81	1316.84
387.02	1230.83
387.22	1153.01
387.43	1282.03
387.64	1241.07
387.85	1265.64
388.06	1277.93
388.27	1282.03
388.48	1271.79
388.68	1296.36
388.89	1339.37
389.10	1273.84
389.31	1269.74
389.52	1394.67
389.73	1257.45
389.93	1243.12
390.14	1314.80
390.35	1251.31
390.56	1245.16
390.77	1277.93
390.98	1310.70
391.18	1241.07
391.39	1259.50
391.60	1259.50
391.81	1212.40
392.02	1245.16
392.23	1310.70
392.43	1325.04
392.64	1202.16
392.85	1220.59
393.06	1294.32
393.27	1265.64
393.47	1273.84
393.68	1294.32
393.89	1228.78
394.10	1243.12
394.31	1269.74
394.52	1275.88
394.72	1335.28
394.93	1310.70
395.14	1255.40
395.35	1230.83
395.56	1331.18
395.76	1271.79
395.97	1241.07
396.18	1271.79
396.39	1232.88
396.60	1282.03
396.80	1241.07
397.01	1249.26
397.22	1308.65
397.43	1247.21
397.64	1232.88
397.84	1236.97
398.05	1261.55
398.26	1263.60
398.47	1263.60
398.67	1259.50
398.88	1335.28
399.09	1222.64
399.30	1257.45
399.51	1277.93
399.71	1245.16
399.92	1265.64
400.13	1200.11
400.34	1271.79
400.54	1347.56
400.75	1290.22
400.96	1198.06
401.17	1286.12
401.37	1279.98
401.58	1296.36
401.79	1183.73
402.00	1304.56
402.21	1275.88
402.41	1290.22
402.62	1298.41
402.83	1208.30
403.04	1275.88
403.24	1298.41
403.45	1175.53
403.66	1292.27
403.87	1271.79
404.07	1292.27
404.28	1259.50
404.49	1224.69
404.70	1304.56
404.90	1263.60
405.11	1279.98
405.32	1263.60
405.52	1275.88
405.73	1294.32
405.94	1286.12
406.15	1267.69
406.35	1267.69
406.56	1277.93
406.77	1255.40
406.98	1212.40
407.18	1232.88
407.39	1257.45
407.60	1224.69
407.80	1277.93
408.01	1275.88
408.22	1208.30
408.43	1214.45
408.63	1314.80
408.84	1253.36
409.05	1224.69
409.25	1267.69
409.46	1239.02
409.67	1261.55
409.88	1263.60
410.08	1261.55
410.29	1298.41
410.50	1267.69
410.70	1265.64
410.91	1306.60
411.12	1253.36
411.32	1210.35
411.53	1292.27
411.74	1241.07
411.95	1308.65
412.15	1261.55
412.36	1241.07
412.57	1257.45
412.77	1300.46
412.98	1253.36
413.19	1298.41
413.39	1257.45
413.60	1331.18
413.81	1267.69
414.01	1302.51
414.22	1239.02
414.43	1325.04
414.63	1304.56
414.84	1296.36
415.05	1220.59
415.25	1267.69
415.46	1286.12
415.67	1320.94
415.87	1325.04
416.08	1259.50
416.29	1245.16
416.49	1290.22
416.70	1282.03
416.91	1331.18
417.11	1290.22
417.32	1298.41
417.53	1316.84
417.73	1304.56
417.94	1228.78
418.15	1206.25
418.35	1228.78
418.56	1241.07
418.77	1220.59
418.97	1241.07
419.18	1294.32
419.38	1267.69
419.59	1275.88
419.80	1269.74
420.00	1267.69
420.21	1290.22
420.42	1327.08
420.62	1296.36
420.83	1259.50
421.04	1144.81
421.24	1200.11
421.45	1277.93
421.65	1282.03
421.86	1349.61
422.07	1271.79
422.27	1284.08
422.48	1216.49
422.69	1265.64
422.89	1355.76
423.10	1165.29
423.30	1208.30
423.51	1208.30
423.72	1267.69
423.92	1251.31
424.13	1259.50
424.33	1232.88
424.54	1187.82
424.75	1265.64
424.95	1296.36
425.16	1306.60
425.36	1245.16
425.57	1310.70
425.78	1282.03
425.98	1214.45
426.19	1257.45
426.39	1355.76
426.60	1210.35
426.81	1327.08
427.01	1327.08
427.22	1267.69
427.42	1277.93
427.63	1261.55
427.83	1200.11
428.04	1335.28
428.25	1216.49
428.45	1220.59
428.66	1200.11
428.86	1271.79
429.07	1327.08
429.28	1249.26
429.48	1314.80
429.69	1251.31
429.89	1249.26
430.10	1331.18
430.30	1304.56
430.51	1282.03
430.71	1236.97
430.92	1306.60
431.13	1214.45
431.33	1265.64
431.54	1277.93
431.74	1308.65
431.95	1300.46
432.15	1239.02
432.36	1183.73
432.56	1345.52
432.77	1251.31
432.98	1318.89
433.18	1273.84
433.39	1275.88
433.59	1232.88
433.80	1234.93
434.00	1277.93
434.21	1290.22
434.41	1220.59
434.62	1288.17
434.82	1230.83
435.03	1288.17
435.23	1282.03
435.44	1251.31
435.64	1339.37
435.85	1222.64
436.06	1257.45
436.26	1277.93
436.47	1239.02
436.67	1284.08
436.88	1325.04
437.08	1286.12
437.29	1277.93
437.49	1259.50
437.70	1206.25
437.90	1259.50
438.11	1320.94
438.31	1261.55
438.52	1282.03
438.72	1267.69
438.93	1341.42
439.13	1296.36
439.34	1202.16
439.54	1279.98
439.75	1245.16
439.95	1294.32
440.16	1355.76
440.36	1290.22
440.57	1243.12
440.77	1236.97
440.98	1306.60
441.18	1277.93
441.39	1228.78
441.59	1318.89
441.80	1284.08
442.00	1292.27
442.21	1290.22
442.41	1298.41
442.62	1312.75
442.82	1243.12
443.02	1263.60
443.23	1261.55
443.43	1222.64
443.64	1241.07
443.84	1292.27
444.05	1245.16
444.25	1251.31
444.46	1279.98
444.66	1224.69
444.87	1255.40
445.07	1271.79
445.28	1220.59
445.48	1294.32
445.69	1273.84
445.89	1271.79
446.09	1298.41
446.30	1288.17
446.50	1239.02
446.71	1265.64
446.91	1282.03
447.12	1249.26
447.32	1249.26
447.53	1320.94
447.73	1275.88
447.93	1228.78
448.14	1372.14
448.34	1312.75
448.55	1239.02
448.75	1218.54
448.96	1271.79
449.16	1255.40
449.36	1273.84
449.57	1308.65
449.77	1267.69
449.98	1224.69
450.18	1312.75
450.39	1265.64
450.59	1253.36
450.79	1284.08
451.00	1304.56
451.20	1253.36
451.41	1292.27
451.61	1265.64
451.81	1271.79
452.02	1329.13
452.22	1253.36
452.43	1304.56
452.63	1216.49
