SpectraSuite Data File
++++++++++++++++++++++++++++++++++++
Date: Sun Apr 03 19:55:44 CEST 2016
User: root
Dark Spectrum Present: No
Reference Spectrum Present: No
Number of Sampled Component Spectra: 1
Spectrometers: USB4C02835
Integration Time (usec): 10000 (USB4C02835)
Spectra Averaged: 1 (USB4C02835)
Boxcar Smoothing: 0 (USB4C02835)
Correct for Electrical Dark: No (USB4C02835)
Strobe/Lamp Enabled: No (USB4C02835)
Correct for Detector Non-linearity: No (USB4C02835)
Correct for Stray Light: No (USB4C02835)
Number of Pixels in Processed Spectrum: 3648
>>>>>Begin Processed Spectral Data<<<<<
177.47	1279.98
177.69	1279.98
177.91	1279.98
178.13	1191.92
178.36	1288.17
178.58	1257.45
178.80	1288.17
179.02	1300.46
179.24	1183.73
179.46	1282.03
179.68	1265.64
179.90	1196.01
180.13	1249.26
180.35	1304.56
180.57	1247.21
180.79	1296.36
181.01	1327.08
181.23	1239.02
181.45	1224.69
181.67	1290.22
181.90	1273.84
182.12	1312.75
182.34	1200.11
182.56	1265.64
182.78	1294.32
183.00	1265.64
183.22	1251.31
183.44	1271.79
183.66	1273.84
183.89	1245.16
184.11	1196.01
184.33	1308.65
184.55	1232.88
184.77	1286.12
184.99	1282.03
185.21	1212.40
185.43	1214.45
185.65	1179.63
185.87	1247.21
186.10	1286.12
186.32	1241.07
186.54	1218.54
186.76	1318.89
186.98	1325.04
187.20	1269.74
187.42	1247.21
187.64	1234.93
187.86	1304.56
188.08	1259.50
188.30	1277.93
188.52	1306.60
188.75	1247.21
188.97	1277.93
189.19	1306.60
189.41	1214.45
189.63	1245.16
189.85	1292.27
190.07	1220.59
190.29	1216.49
190.51	1193.97
190.73	1331.18
190.95	1234.93
191.17	1241.07
191.39	1290.22
191.61	1230.83
191.84	1222.64
192.06	1292.27
192.28	1261.55
192.50	1282.03
192.72	1257.45
192.94	1290.22
193.16	1282.03
193.38	1208.30
193.60	1175.53
193.82	1206.25
194.04	1322.99
194.26	1220.59
194.48	1249.26
194.70	1259.50
194.92	1294.32
195.14	1263.60
195.36	1198.06
195.58	1316.84
195.80	1273.84
196.02	1286.12
196.24	1294.32
196.46	1206.25
196.69	1214.45
196.91	1259.50
197.13	1228.78
197.35	1255.40
197.57	1212.40
197.79	1257.45
198.01	1275.88
198.23	1259.50
198.45	1306.60
198.67	1298.41
198.89	1294.32
199.11	1232.88
199.33	1286.12
199.55	1236.97
199.77	1275.88
199.99	1290.22
200.21	1265.64
200.43	1296.36
200.65	1282.03
200.87	1259.50
201.09	1236.97
201.31	1282.03
201.53	1322.99
201.75	1269.74
201.97	1292.27
202.19	1224.69
202.41	1282.03
202.63	1327.08
202.85	1204.21
203.07	1327.08
203.29	1312.75
203.51	1322.99
203.73	1273.84
203.95	1185.77
204.17	1269.74
204.39	1290.22
204.61	1263.60
204.83	1249.26
205.05	1267.69
205.27	1273.84
205.49	1300.46
205.71	1230.83
205.93	1275.88
206.15	1273.84
206.37	1241.07
206.59	1265.64
206.81	1232.88
207.03	1245.16
207.25	1335.28
207.47	1259.50
207.69	1271.79
207.91	1247.21
208.13	1273.84
208.34	1257.45
208.56	1320.94
208.78	1265.64
209.00	1236.97
209.22	1249.26
209.44	1257.45
209.66	1259.50
209.88	1212.40
210.10	1239.02
210.32	1232.88
210.54	1241.07
210.76	1292.27
210.98	1312.75
211.20	1286.12
211.42	1220.59
211.64	1337.32
211.86	1249.26
212.08	1253.36
212.30	1226.73
212.52	1273.84
212.74	1347.56
212.96	1224.69
213.17	1216.49
213.39	1267.69
213.61	1312.75
213.83	1261.55
214.05	1245.16
214.27	1312.75
214.49	1269.74
214.71	1247.21
214.93	1181.68
215.15	1210.35
215.37	1292.27
215.59	1230.83
215.81	1267.69
216.03	1273.84
216.24	1290.22
216.46	1257.45
216.68	1279.98
216.90	1243.12
217.12	1243.12
217.34	1296.36
217.56	1279.98
217.78	1304.56
218.00	1230.83
218.22	1271.79
218.44	1284.08
218.66	1261.55
218.87	1275.88
219.09	1286.12
219.31	1304.56
219.53	1236.97
219.75	1253.36
219.97	1232.88
220.19	1298.41
220.41	1232.88
220.63	1298.41
220.85	1351.66
221.06	1230.83
221.28	1288.17
221.50	1247.21
221.72	1249.26
221.94	1257.45
222.16	1220.59
222.38	1267.69
222.60	1155.05
222.82	1290.22
223.03	1302.51
223.25	1294.32
223.47	1284.08
223.69	1343.47
223.91	1234.93
224.13	1290.22
224.35	1279.98
224.57	1288.17
224.78	1247.21
225.00	1236.97
225.22	1298.41
225.44	1228.78
225.66	1224.69
225.88	1267.69
226.10	1288.17
226.32	1232.88
226.53	1267.69
226.75	1222.64
226.97	1224.69
227.19	1302.51
227.41	1257.45
227.63	1218.54
227.85	1261.55
228.06	1206.25
228.28	1331.18
228.50	1292.27
228.72	1320.94
228.94	1230.83
229.16	1298.41
229.37	1279.98
229.59	1277.93
229.81	1140.72
230.03	1241.07
230.25	1214.45
230.47	1277.93
230.69	1300.46
230.90	1298.41
231.12	1265.64
231.34	1308.65
231.56	1232.88
231.78	1265.64
232.00	1257.45
232.21	1290.22
232.43	1302.51
232.65	1251.31
232.87	1279.98
233.09	1314.80
233.30	1236.97
233.52	1267.69
233.74	1204.21
233.96	1298.41
234.18	1312.75
234.40	1202.16
234.61	1259.50
234.83	1193.97
235.05	1312.75
235.27	1261.55
235.49	1320.94
235.70	1263.60
235.92	1198.06
236.14	1292.27
236.36	1325.04
236.58	1275.88
236.79	1286.12
237.01	1359.85
237.23	1255.40
237.45	1196.01
237.67	1325.04
237.88	1210.35
238.10	1292.27
238.32	1257.45
238.54	1265.64
238.76	1275.88
238.97	1279.98
239.19	1294.32
239.41	1296.36
239.63	1282.03
239.85	1308.65
240.06	1245.16
240.28	1208.30
240.50	1208.30
240.72	1265.64
240.93	1220.59
241.15	1290.22
241.37	1259.50
241.59	1312.75
241.81	1308.65
242.02	1263.60
242.24	1261.55
242.46	1265.64
242.68	1251.31
242.89	1296.36
243.11	1282.03
243.33	1222.64
243.55	1318.89
243.76	1286.12
243.98	1191.92
244.20	1261.55
244.42	1296.36
244.64	1218.54
244.85	1228.78
245.07	1239.02
245.29	1257.45
245.51	1302.51
245.72	1314.80
245.94	1339.37
246.16	1265.64
246.38	1302.51
246.59	1241.07
246.81	1304.56
247.03	1236.97
247.24	1265.64
247.46	1253.36
247.68	1189.87
247.90	1279.98
248.11	1277.93
248.33	1314.80
248.55	1279.98
248.77	1241.07
248.98	1327.08
249.20	1257.45
249.42	1265.64
249.64	1286.12
249.85	1243.12
250.07	1306.60
250.29	1298.41
250.50	1343.47
250.72	1265.64
250.94	1191.92
251.16	1236.97
251.37	1263.60
251.59	1228.78
251.81	1329.13
252.02	1290.22
252.24	1232.88
252.46	1249.26
252.68	1271.79
252.89	1327.08
253.11	1265.64
253.33	1304.56
253.54	1208.30
253.76	1298.41
253.98	1243.12
254.20	1216.49
254.41	1265.64
254.63	1220.59
254.85	1249.26
255.06	1333.23
255.28	1255.40
255.50	1212.40
255.71	1290.22
255.93	1253.36
256.15	1218.54
256.36	1294.32
256.58	1277.93
256.80	1271.79
257.02	1263.60
257.23	1279.98
257.45	1251.31
257.67	1263.60
257.88	1273.84
258.10	1304.56
258.32	1271.79
258.53	1269.74
258.75	1322.99
258.97	1261.55
259.18	1302.51
259.40	1306.60
259.62	1345.52
259.83	1310.70
260.05	1304.56
260.27	1355.76
260.48	1318.89
260.70	1216.49
260.92	1273.84
261.13	1275.88
261.35	1261.55
261.57	1177.58
261.78	1196.01
262.00	1339.37
262.22	1247.21
262.43	1236.97
262.65	1312.75
262.86	1277.93
263.08	1300.46
263.30	1251.31
263.51	1210.35
263.73	1294.32
263.95	1298.41
264.16	1320.94
264.38	1206.25
264.60	1339.37
264.81	1279.98
265.03	1220.59
265.25	1306.60
265.46	1269.74
265.68	1284.08
265.89	1337.32
266.11	1226.73
266.33	1302.51
266.54	1392.62
266.76	1275.88
266.98	1271.79
267.19	1275.88
267.41	1366.00
267.62	1206.25
267.84	1212.40
268.06	1279.98
268.27	1320.94
268.49	1253.36
268.70	1267.69
268.92	1269.74
269.14	1255.40
269.35	1230.83
269.57	1329.13
269.79	1329.13
270.00	1232.88
270.22	1220.59
270.43	1265.64
270.65	1224.69
270.87	1277.93
271.08	1218.54
271.30	1327.08
271.51	1284.08
271.73	1269.74
271.95	1243.12
272.16	1232.88
272.38	1282.03
272.59	1304.56
272.81	1296.36
273.02	1357.80
273.24	1273.84
273.46	1234.93
273.67	1290.22
273.89	1265.64
274.10	1265.64
274.32	1261.55
274.54	1345.52
274.75	1253.36
274.97	1349.61
275.18	1294.32
275.40	1318.89
275.61	1249.26
275.83	1265.64
276.05	1265.64
276.26	1255.40
276.48	1267.69
276.69	1257.45
276.91	1327.08
277.12	1331.18
277.34	1341.42
277.55	1306.60
277.77	1314.80
277.99	1312.75
278.20	1337.32
278.42	1220.59
278.63	1257.45
278.85	1271.79
279.06	1306.60
279.28	1275.88
279.49	1265.64
279.71	1320.94
279.93	1236.97
280.14	1298.41
280.36	1239.02
280.57	1271.79
280.79	1198.06
281.00	1255.40
281.22	1304.56
281.43	1273.84
281.65	1210.35
281.86	1249.26
282.08	1245.16
282.29	1294.32
282.51	1290.22
282.73	1275.88
282.94	1284.08
283.16	1361.90
283.37	1310.70
283.59	1300.46
283.80	1255.40
284.02	1312.75
284.23	1224.69
284.45	1273.84
284.66	1243.12
284.88	1259.50
285.09	1257.45
285.31	1339.37
285.52	1302.51
285.74	1288.17
285.95	1241.07
286.17	1241.07
286.38	1245.16
286.60	1300.46
286.81	1183.73
287.03	1318.89
287.24	1271.79
287.46	1269.74
287.67	1193.97
287.89	1265.64
288.10	1187.82
288.32	1325.04
288.53	1226.73
288.75	1296.36
288.96	1277.93
289.18	1271.79
289.39	1251.31
289.61	1232.88
289.82	1259.50
290.04	1265.64
290.25	1261.55
290.47	1259.50
290.68	1220.59
290.90	1253.36
291.11	1208.30
291.33	1333.23
291.54	1232.88
291.76	1286.12
291.97	1298.41
292.18	1218.54
292.40	1259.50
292.61	1247.21
292.83	1216.49
293.04	1300.46
293.26	1239.02
293.47	1298.41
293.69	1284.08
293.90	1366.00
294.12	1269.74
294.33	1288.17
294.55	1267.69
294.76	1257.45
294.97	1255.40
295.19	1279.98
295.40	1267.69
295.62	1230.83
295.83	1212.40
296.05	1286.12
296.26	1243.12
296.48	1265.64
296.69	1257.45
296.90	1327.08
297.12	1261.55
297.33	1255.40
297.55	1251.31
297.76	1290.22
297.98	1253.36
298.19	1249.26
298.41	1245.16
298.62	1286.12
298.83	1204.21
299.05	1335.28
299.26	1228.78
299.48	1314.80
299.69	1284.08
299.90	1200.11
300.12	1243.12
300.33	1300.46
300.55	1337.32
300.76	1255.40
300.98	1245.16
301.19	1337.32
301.40	1282.03
301.62	1241.07
301.83	1322.99
302.05	1212.40
302.26	1230.83
302.47	1314.80
302.69	1273.84
302.90	1234.93
303.12	1241.07
303.33	1282.03
303.54	1259.50
303.76	1292.27
303.97	1294.32
304.19	1236.97
304.40	1300.46
304.61	1249.26
304.83	1312.75
305.04	1255.40
305.26	1329.13
305.47	1253.36
305.68	1249.26
305.90	1216.49
306.11	1243.12
306.33	1181.68
306.54	1282.03
306.75	1224.69
306.97	1269.74
307.18	1257.45
307.39	1284.08
307.61	1345.52
307.82	1294.32
308.04	1279.98
308.25	1269.74
308.46	1282.03
308.68	1286.12
308.89	1265.64
309.10	1210.35
309.32	1292.27
309.53	1296.36
309.74	1269.74
309.96	1249.26
310.17	1261.55
310.39	1275.88
310.60	1222.64
310.81	1253.36
311.03	1314.80
311.24	1306.60
311.45	1296.36
311.67	1208.30
311.88	1263.60
312.09	1261.55
312.31	1296.36
312.52	1290.22
312.73	1239.02
312.95	1302.51
313.16	1279.98
313.37	1294.32
313.59	1339.37
313.80	1306.60
314.01	1294.32
314.23	1275.88
314.44	1232.88
314.65	1239.02
314.87	1286.12
315.08	1222.64
315.29	1325.04
315.51	1216.49
315.72	1296.36
315.93	1349.61
316.15	1245.16
316.36	1277.93
316.57	1296.36
316.79	1288.17
317.00	1288.17
317.21	1171.44
317.43	1327.08
317.64	1267.69
317.85	1282.03
318.07	1249.26
318.28	1226.73
318.49	1310.70
318.70	1327.08
318.92	1249.26
319.13	1255.40
319.34	1298.41
319.56	1316.84
319.77	1294.32
319.98	1245.16
320.20	1273.84
320.41	1298.41
320.62	1251.31
320.83	1318.89
321.05	1294.32
321.26	1273.84
321.47	1298.41
321.69	1279.98
321.90	1292.27
322.11	1183.73
322.32	1318.89
322.54	1368.04
322.75	1230.83
322.96	1255.40
323.18	1206.25
323.39	1204.21
323.60	1306.60
323.81	1271.79
324.03	1294.32
324.24	1343.47
324.45	1316.84
324.66	1302.51
324.88	1243.12
325.09	1257.45
325.30	1247.21
325.52	1306.60
325.73	1312.75
325.94	1308.65
326.15	1241.07
326.37	1271.79
326.58	1304.56
326.79	1335.28
327.00	1261.55
327.22	1312.75
327.43	1191.92
327.64	1284.08
327.85	1232.88
328.07	1290.22
328.28	1224.69
328.49	1255.40
328.70	1253.36
328.92	1267.69
329.13	1290.22
329.34	1288.17
329.55	1230.83
329.76	1296.36
329.98	1269.74
330.19	1304.56
330.40	1288.17
330.61	1302.51
330.83	1306.60
331.04	1257.45
331.25	1296.36
331.46	1259.50
331.68	1304.56
331.89	1279.98
332.10	1232.88
332.31	1189.87
332.52	1236.97
332.74	1230.83
332.95	1253.36
333.16	1286.12
333.37	1284.08
333.58	1271.79
333.80	1292.27
334.01	1265.64
334.22	1345.52
334.43	1181.68
334.64	1273.84
334.86	1271.79
335.07	1241.07
335.28	1224.69
335.49	1351.66
335.70	1249.26
335.92	1282.03
336.13	1239.02
336.34	1265.64
336.55	1277.93
336.76	1290.22
336.98	1257.45
337.19	1257.45
337.40	1320.94
337.61	1290.22
337.82	1294.32
338.04	1314.80
338.25	1282.03
338.46	1216.49
338.67	1263.60
338.88	1271.79
339.09	1222.64
339.31	1261.55
339.52	1325.04
339.73	1312.75
339.94	1247.21
340.15	1298.41
340.36	1232.88
340.58	1263.60
340.79	1341.42
341.00	1243.12
341.21	1271.79
341.42	1265.64
341.63	1312.75
341.85	1208.30
342.06	1273.84
342.27	1206.25
342.48	1267.69
342.69	1290.22
342.90	1339.37
343.12	1253.36
343.33	1271.79
343.54	1302.51
343.75	1286.12
343.96	1306.60
344.17	1249.26
344.38	1300.46
344.60	1290.22
344.81	1247.21
345.02	1312.75
345.23	1245.16
345.44	1298.41
345.65	1249.26
345.86	1239.02
346.07	1247.21
346.29	1222.64
346.50	1212.40
346.71	1337.32
346.92	1288.17
347.13	1279.98
347.34	1284.08
347.55	1318.89
347.76	1251.31
347.98	1298.41
348.19	1322.99
348.40	1261.55
348.61	1249.26
348.82	1304.56
349.03	1273.84
349.24	1273.84
349.45	1310.70
349.66	1267.69
349.88	1261.55
350.09	1263.60
350.30	1210.35
350.51	1273.84
350.72	1228.78
350.93	1249.26
351.14	1271.79
351.35	1345.52
351.56	1345.52
351.77	1222.64
351.99	1249.26
352.20	1224.69
352.41	1208.30
352.62	1255.40
352.83	1204.21
353.04	1261.55
353.25	1253.36
353.46	1308.65
353.67	1275.88
353.88	1259.50
354.09	1273.84
354.30	1290.22
354.52	1286.12
354.73	1273.84
354.94	1220.59
355.15	1239.02
355.36	1191.92
355.57	1288.17
355.78	1292.27
355.99	1206.25
356.20	1294.32
356.41	1267.69
356.62	1277.93
356.83	1312.75
357.04	1226.73
357.25	1279.98
357.46	1277.93
357.68	1142.77
357.89	1275.88
358.10	1288.17
358.31	1257.45
358.52	1228.78
358.73	1226.73
358.94	1257.45
359.15	1263.60
359.36	1224.69
359.57	1216.49
359.78	1310.70
359.99	1325.04
360.20	1234.93
360.41	1306.60
360.62	1249.26
360.83	1257.45
361.04	1261.55
361.25	1243.12
361.46	1304.56
361.67	1275.88
361.88	1314.80
362.09	1304.56
362.30	1282.03
362.51	1198.06
362.72	1304.56
362.93	1282.03
363.14	1226.73
363.35	1259.50
363.56	1296.36
363.78	1312.75
363.99	1279.98
364.20	1306.60
364.41	1230.83
364.62	1282.03
364.83	1259.50
365.04	1230.83
365.25	1271.79
365.46	1253.36
365.67	1208.30
365.88	1212.40
366.09	1228.78
366.30	1327.08
366.51	1249.26
366.72	1308.65
366.93	1294.32
367.14	1314.80
367.35	1241.07
367.56	1224.69
367.77	1279.98
367.98	1279.98
368.18	1282.03
368.39	1206.25
368.60	1251.31
368.81	1322.99
369.02	1288.17
369.23	1210.35
369.44	1265.64
369.65	1294.32
369.86	1232.88
370.07	1261.55
370.28	1249.26
370.49	1267.69
370.70	1269.74
370.91	1173.49
371.12	1267.69
371.33	1249.26
371.54	1296.36
371.75	1316.84
371.96	1277.93
372.17	1257.45
372.38	1288.17
372.59	1191.92
372.80	1282.03
373.01	1296.36
373.22	1263.60
373.43	1255.40
373.64	1257.45
373.85	1245.16
374.06	1253.36
374.26	1234.93
374.47	1282.03
374.68	1298.41
374.89	1265.64
375.10	1318.89
375.31	1253.36
375.52	1306.60
375.73	1247.21
375.94	1241.07
376.15	1325.04
376.36	1333.23
376.57	1265.64
376.78	1296.36
376.99	1171.44
377.20	1273.84
377.40	1288.17
377.61	1261.55
377.82	1259.50
378.03	1232.88
378.24	1257.45
378.45	1251.31
378.66	1300.46
378.87	1294.32
379.08	1196.01
379.29	1243.12
379.50	1298.41
379.71	1222.64
379.91	1271.79
380.12	1253.36
380.33	1200.11
380.54	1255.40
380.75	1253.36
380.96	1265.64
381.17	1271.79
381.38	1224.69
381.59	1247.21
381.80	1284.08
382.00	1243.12
382.21	1261.55
382.42	1304.56
382.63	1245.16
382.84	1220.59
383.05	1196.01
383.26	1228.78
383.47	1257.45
383.68	1275.88
383.88	1279.98
384.09	1265.64
384.30	1314.80
384.51	1261.55
384.72	1228.78
384.93	1236.97
385.14	1255.40
385.35	1302.51
385.55	1239.02
385.76	1224.69
385.97	1353.71
386.18	1273.84
386.39	1279.98
386.60	1288.17
386.81	1273.84
387.02	1312.75
387.22	1316.84
387.43	1253.36
387.64	1331.18
387.85	1265.64
388.06	1249.26
388.27	1239.02
388.48	1230.83
388.68	1320.94
388.89	1245.16
389.10	1284.08
389.31	1239.02
389.52	1298.41
389.73	1257.45
389.93	1290.22
390.14	1261.55
390.35	1263.60
390.56	1275.88
390.77	1230.83
390.98	1232.88
391.18	1290.22
391.39	1261.55
391.60	1243.12
391.81	1296.36
392.02	1251.31
392.23	1304.56
392.43	1284.08
392.64	1310.70
392.85	1302.51
393.06	1234.93
393.27	1284.08
393.47	1245.16
393.68	1298.41
393.89	1296.36
394.10	1226.73
394.31	1279.98
394.52	1228.78
394.72	1322.99
394.93	1245.16
395.14	1257.45
395.35	1275.88
395.56	1261.55
395.76	1296.36
395.97	1288.17
396.18	1273.84
396.39	1310.70
396.60	1286.12
396.80	1259.50
397.01	1230.83
397.22	1236.97
397.43	1290.22
397.64	1302.51
397.84	1329.13
398.05	1230.83
398.26	1189.87
398.47	1290.22
398.67	1304.56
398.88	1269.74
399.09	1300.46
399.30	1308.65
399.51	1275.88
399.71	1282.03
399.92	1208.30
400.13	1202.16
400.34	1208.30
400.54	1310.70
400.75	1327.08
400.96	1243.12
401.17	1335.28
401.37	1253.36
401.58	1263.60
401.79	1224.69
402.00	1284.08
402.21	1292.27
402.41	1243.12
402.62	1269.74
402.83	1351.66
403.04	1224.69
403.24	1216.49
403.45	1249.26
403.66	1255.40
403.87	1343.47
404.07	1173.49
404.28	1220.59
404.49	1261.55
404.70	1316.84
404.90	1275.88
405.11	1216.49
405.32	1243.12
405.52	1284.08
405.73	1284.08
405.94	1193.97
406.15	1269.74
406.35	1275.88
406.56	1249.26
406.77	1265.64
406.98	1296.36
407.18	1224.69
407.39	1292.27
407.60	1298.41
407.80	1310.70
408.01	1355.76
408.22	1267.69
408.43	1249.26
408.63	1298.41
408.84	1288.17
409.05	1255.40
409.25	1212.40
409.46	1288.17
409.67	1322.99
409.88	1308.65
410.08	1288.17
410.29	1185.77
410.50	1288.17
410.70	1261.55
410.91	1302.51
411.12	1247.21
411.32	1245.16
411.53	1292.27
411.74	1271.79
411.95	1302.51
412.15	1282.03
412.36	1339.37
412.57	1241.07
412.77	1216.49
412.98	1288.17
413.19	1183.73
413.39	1273.84
413.60	1220.59
413.81	1255.40
414.01	1224.69
414.22	1279.98
414.43	1236.97
414.63	1228.78
414.84	1277.93
415.05	1226.73
415.25	1308.65
415.46	1247.21
415.67	1271.79
415.87	1275.88
416.08	1306.60
416.29	1337.32
416.49	1218.54
416.70	1322.99
416.91	1263.60
417.11	1241.07
417.32	1263.60
417.53	1368.04
417.73	1230.83
417.94	1257.45
418.15	1224.69
418.35	1257.45
418.56	1286.12
418.77	1257.45
418.97	1202.16
419.18	1306.60
419.38	1255.40
419.59	1267.69
419.80	1216.49
420.00	1259.50
420.21	1282.03
420.42	1284.08
420.62	1271.79
420.83	1329.13
421.04	1200.11
421.24	1273.84
421.45	1218.54
421.65	1273.84
421.86	1320.94
422.07	1277.93
422.27	1333.23
422.48	1251.31
422.69	1208.30
422.89	1253.36
423.10	1206.25
423.30	1302.51
423.51	1249.26
423.72	1261.55
423.92	1216.49
424.13	1220.59
424.33	1226.73
424.54	1284.08
424.75	1259.50
424.95	1282.03
425.16	1208.30
425.36	1261.55
425.57	1243.12
425.78	1255.40
425.98	1273.84
426.19	1269.74
426.39	1257.45
426.60	1304.56
426.81	1329.13
427.01	1163.25
427.22	1273.84
427.42	1097.71
427.63	1255.40
427.83	1177.58
428.04	1343.47
428.25	1204.21
428.45	1320.94
428.66	1243.12
428.86	1279.98
429.07	1333.23
429.28	1304.56
429.48	1275.88
429.69	1331.18
429.89	1312.75
430.10	1216.49
430.30	1286.12
430.51	1310.70
430.71	1253.36
430.92	1230.83
431.13	1302.51
431.33	1347.56
431.54	1263.60
431.74	1318.89
431.95	1284.08
432.15	1296.36
432.36	1224.69
432.56	1255.40
432.77	1329.13
432.98	1232.88
433.18	1249.26
433.39	1277.93
433.59	1228.78
433.80	1306.60
434.00	1261.55
434.21	1239.02
434.41	1294.32
434.62	1277.93
434.82	1271.79
435.03	1286.12
435.23	1245.16
435.44	1208.30
435.64	1292.27
435.85	1312.75
436.06	1310.70
436.26	1193.97
436.47	1318.89
436.67	1288.17
436.88	1226.73
437.08	1284.08
437.29	1277.93
437.49	1200.11
437.70	1314.80
437.90	1277.93
438.11	1216.49
438.31	1255.40
438.52	1257.45
438.72	1241.07
438.93	1226.73
439.13	1257.45
439.34	1234.93
439.54	1267.69
439.75	1284.08
439.95	1273.84
440.16	1228.78
440.36	1304.56
440.57	1277.93
440.77	1294.32
440.98	1263.60
441.18	1298.41
441.39	1249.26
441.59	1306.60
441.80	1318.89
442.00	1288.17
442.21	1273.84
442.41	1230.83
442.62	1329.13
442.82	1232.88
443.02	1275.88
443.23	1273.84
443.43	1222.64
443.64	1298.41
443.84	1279.98
444.05	1257.45
444.25	1255.40
444.46	1216.49
444.66	1345.52
444.87	1288.17
445.07	1290.22
445.28	1261.55
445.48	1261.55
445.69	1296.36
445.89	1247.21
446.09	1292.27
446.30	1241.07
446.50	1325.04
446.71	1255.40
446.91	1284.08
447.12	1308.65
447.32	1292.27
447.53	1292.27
447.73	1255.40
447.93	1269.74
448.14	1310.70
448.34	1325.04
448.55	1355.76
448.75	1316.84
448.96	1345.52
449.16	1146.86
449.36	1239.02
449.57	1255.40
449.77	1251.31
449.98	1284.08
450.18	1290.22
450.39	1282.03
450.59	1298.41
450.79	1304.56
451.00	1288.17
451.20	1310.70
451.41	1312.75
451.61	1269.74
451.81	1318.89
452.02	1259.50
452.22	1263.60
452.43	1230.83
452.63	1320.94
