SpectraSuite Data File
++++++++++++++++++++++++++++++++++++
Date: Sun Apr 03 19:55:34 CEST 2016
User: root
Dark Spectrum Present: No
Reference Spectrum Present: No
Number of Sampled Component Spectra: 1
Spectrometers: USB4C02835
Integration Time (usec): 10000 (USB4C02835)
Spectra Averaged: 1 (USB4C02835)
Boxcar Smoothing: 0 (USB4C02835)
Correct for Electrical Dark: No (USB4C02835)
Strobe/Lamp Enabled: No (USB4C02835)
Correct for Detector Non-linearity: No (USB4C02835)
Correct for Stray Light: No (USB4C02835)
Number of Pixels in Processed Spectrum: 3648
>>>>>Begin Processed Spectral Data<<<<<
177.47	1224.69
177.69	1224.69
177.91	1224.69
178.13	1232.88
178.36	1292.27
178.58	1241.07
178.80	1218.54
179.02	1218.54
179.24	1279.98
179.46	1300.46
179.68	1284.08
179.90	1290.22
180.13	1273.84
180.35	1255.40
180.57	1296.36
180.79	1267.69
181.01	1318.89
181.23	1232.88
181.45	1196.01
181.67	1259.50
181.90	1243.12
182.12	1318.89
182.34	1220.59
182.56	1294.32
182.78	1259.50
183.00	1253.36
183.22	1255.40
183.44	1257.45
183.66	1261.55
183.89	1212.40
184.11	1361.90
184.33	1300.46
184.55	1183.73
184.77	1267.69
184.99	1306.60
185.21	1275.88
185.43	1267.69
185.65	1210.35
185.87	1306.60
186.10	1294.32
186.32	1282.03
186.54	1314.80
186.76	1236.97
186.98	1273.84
187.20	1234.93
187.42	1288.17
187.64	1245.16
187.86	1279.98
188.08	1314.80
188.30	1224.69
188.52	1230.83
188.75	1198.06
188.97	1296.36
189.19	1265.64
189.41	1279.98
189.63	1239.02
189.85	1259.50
190.07	1292.27
190.29	1306.60
190.51	1302.51
190.73	1234.93
190.95	1277.93
191.17	1282.03
191.39	1273.84
191.61	1286.12
191.84	1345.52
192.06	1261.55
192.28	1271.79
192.50	1284.08
192.72	1245.16
192.94	1320.94
193.16	1234.93
193.38	1218.54
193.60	1220.59
193.82	1275.88
194.04	1316.84
194.26	1306.60
194.48	1292.27
194.70	1259.50
194.92	1245.16
195.14	1200.11
195.36	1255.40
195.58	1275.88
195.80	1296.36
196.02	1265.64
196.24	1232.88
196.46	1282.03
196.69	1251.31
196.91	1284.08
197.13	1290.22
197.35	1255.40
197.57	1224.69
197.79	1341.42
198.01	1249.26
198.23	1312.75
198.45	1232.88
198.67	1275.88
198.89	1224.69
199.11	1273.84
199.33	1253.36
199.55	1216.49
199.77	1267.69
199.99	1239.02
200.21	1245.16
200.43	1255.40
200.65	1279.98
200.87	1228.78
201.09	1226.73
201.31	1247.21
201.53	1271.79
201.75	1265.64
201.97	1255.40
202.19	1259.50
202.41	1253.36
202.63	1261.55
202.85	1230.83
203.07	1277.93
203.29	1292.27
203.51	1363.95
203.73	1247.21
203.95	1275.88
204.17	1257.45
204.39	1247.21
204.61	1279.98
204.83	1288.17
205.05	1239.02
205.27	1210.35
205.49	1314.80
205.71	1261.55
205.93	1284.08
206.15	1236.97
206.37	1265.64
206.59	1290.22
206.81	1259.50
207.03	1275.88
207.25	1259.50
207.47	1206.25
207.69	1300.46
207.91	1263.60
208.13	1277.93
208.34	1218.54
208.56	1337.32
208.78	1322.99
209.00	1214.45
209.22	1191.92
209.44	1236.97
209.66	1294.32
209.88	1214.45
210.10	1286.12
210.32	1277.93
210.54	1255.40
210.76	1218.54
210.98	1343.47
211.20	1261.55
211.42	1273.84
211.64	1263.60
211.86	1245.16
212.08	1282.03
212.30	1273.84
212.52	1304.56
212.74	1306.60
212.96	1257.45
213.17	1290.22
213.39	1251.31
213.61	1286.12
213.83	1255.40
214.05	1259.50
214.27	1267.69
214.49	1245.16
214.71	1253.36
214.93	1329.13
215.15	1224.69
215.37	1243.12
215.59	1257.45
215.81	1292.27
216.03	1253.36
216.24	1228.78
216.46	1210.35
216.68	1273.84
216.90	1150.96
217.12	1288.17
217.34	1257.45
217.56	1292.27
217.78	1245.16
218.00	1290.22
218.22	1226.73
218.44	1308.65
218.66	1257.45
218.87	1277.93
219.09	1232.88
219.31	1325.04
219.53	1214.45
219.75	1255.40
219.97	1308.65
220.19	1286.12
220.41	1275.88
220.63	1310.70
220.85	1284.08
221.06	1300.46
221.28	1232.88
221.50	1269.74
221.72	1277.93
221.94	1257.45
222.16	1298.41
222.38	1214.45
222.60	1290.22
222.82	1363.95
223.03	1273.84
223.25	1302.51
223.47	1220.59
223.69	1333.23
223.91	1275.88
224.13	1316.84
224.35	1318.89
224.57	1267.69
224.78	1265.64
225.00	1271.79
225.22	1279.98
225.44	1251.31
225.66	1232.88
225.88	1269.74
226.10	1265.64
226.32	1249.26
226.53	1337.32
226.75	1275.88
226.97	1316.84
227.19	1210.35
227.41	1218.54
227.63	1337.32
227.85	1239.02
228.06	1167.34
228.28	1232.88
228.50	1337.32
228.72	1224.69
228.94	1222.64
229.16	1261.55
229.37	1155.05
229.59	1343.47
229.81	1259.50
230.03	1271.79
230.25	1269.74
230.47	1253.36
230.69	1306.60
230.90	1265.64
231.12	1269.74
231.34	1189.87
231.56	1257.45
231.78	1263.60
232.00	1300.46
232.21	1277.93
232.43	1277.93
232.65	1255.40
232.87	1284.08
233.09	1247.21
233.30	1302.51
233.52	1261.55
233.74	1343.47
233.96	1275.88
234.18	1341.42
234.40	1322.99
234.61	1335.28
234.83	1220.59
235.05	1335.28
235.27	1269.74
235.49	1294.32
235.70	1302.51
235.92	1269.74
236.14	1257.45
236.36	1306.60
236.58	1210.35
236.79	1325.04
237.01	1302.51
237.23	1318.89
237.45	1308.65
237.67	1296.36
237.88	1191.92
238.10	1263.60
238.32	1249.26
238.54	1259.50
238.76	1327.08
238.97	1247.21
239.19	1302.51
239.41	1282.03
239.63	1292.27
239.85	1269.74
240.06	1189.87
240.28	1247.21
240.50	1224.69
240.72	1298.41
240.93	1312.75
241.15	1271.79
241.37	1251.31
241.59	1302.51
241.81	1294.32
242.02	1302.51
242.24	1243.12
242.46	1261.55
242.68	1196.01
242.89	1277.93
243.11	1267.69
243.33	1193.97
243.55	1282.03
243.76	1275.88
243.98	1284.08
244.20	1271.79
244.42	1318.89
244.64	1273.84
244.85	1261.55
245.07	1279.98
245.29	1267.69
245.51	1232.88
245.72	1210.35
245.94	1327.08
246.16	1263.60
246.38	1306.60
246.59	1232.88
246.81	1329.13
247.03	1218.54
247.24	1230.83
247.46	1241.07
247.68	1298.41
247.90	1228.78
248.11	1198.06
248.33	1327.08
248.55	1284.08
248.77	1282.03
248.98	1273.84
249.20	1261.55
249.42	1282.03
249.64	1320.94
249.85	1314.80
250.07	1200.11
250.29	1257.45
250.50	1179.63
250.72	1296.36
250.94	1210.35
251.16	1261.55
251.37	1306.60
251.59	1269.74
251.81	1241.07
252.02	1286.12
252.24	1308.65
252.46	1204.21
252.68	1222.64
252.89	1279.98
253.11	1279.98
253.33	1279.98
253.54	1216.49
253.76	1232.88
253.98	1267.69
254.20	1286.12
254.41	1196.01
254.63	1318.89
254.85	1298.41
255.06	1218.54
255.28	1236.97
255.50	1277.93
255.71	1294.32
255.93	1200.11
256.15	1302.51
256.36	1267.69
256.58	1300.46
256.80	1380.33
257.02	1267.69
257.23	1337.32
257.45	1218.54
257.67	1327.08
257.88	1296.36
258.10	1331.18
258.32	1296.36
258.53	1261.55
258.75	1279.98
258.97	1294.32
259.18	1300.46
259.40	1347.56
259.62	1308.65
259.83	1277.93
260.05	1271.79
260.27	1263.60
260.48	1277.93
260.70	1284.08
260.92	1302.51
261.13	1271.79
261.35	1236.97
261.57	1288.17
261.78	1232.88
262.00	1261.55
262.22	1198.06
262.43	1224.69
262.65	1249.26
262.86	1282.03
263.08	1327.08
263.30	1331.18
263.51	1273.84
263.73	1245.16
263.95	1267.69
264.16	1265.64
264.38	1261.55
264.60	1257.45
264.81	1292.27
265.03	1298.41
265.25	1265.64
265.46	1239.02
265.68	1320.94
265.89	1245.16
266.11	1253.36
266.33	1351.66
266.54	1245.16
266.76	1228.78
266.98	1257.45
267.19	1220.59
267.41	1265.64
267.62	1294.32
267.84	1267.69
268.06	1263.60
268.27	1253.36
268.49	1243.12
268.70	1230.83
268.92	1212.40
269.14	1335.28
269.35	1292.27
269.57	1247.21
269.79	1232.88
270.00	1224.69
270.22	1290.22
270.43	1286.12
270.65	1306.60
270.87	1220.59
271.08	1335.28
271.30	1269.74
271.51	1341.42
271.73	1263.60
271.95	1257.45
272.16	1224.69
272.38	1302.51
272.59	1263.60
272.81	1265.64
273.02	1349.61
273.24	1286.12
273.46	1226.73
273.67	1265.64
273.89	1335.28
274.10	1318.89
274.32	1292.27
274.54	1265.64
274.75	1290.22
274.97	1222.64
275.18	1249.26
275.40	1288.17
275.61	1314.80
275.83	1251.31
276.05	1232.88
276.26	1296.36
276.48	1329.13
276.69	1312.75
276.91	1261.55
277.12	1302.51
277.34	1290.22
277.55	1304.56
277.77	1300.46
277.99	1331.18
278.20	1267.69
278.42	1257.45
278.63	1253.36
278.85	1191.92
279.06	1288.17
279.28	1286.12
279.49	1284.08
279.71	1271.79
279.93	1296.36
280.14	1247.21
280.36	1224.69
280.57	1261.55
280.79	1294.32
281.00	1263.60
281.22	1282.03
281.43	1286.12
281.65	1269.74
281.86	1249.26
282.08	1298.41
282.29	1216.49
282.51	1318.89
282.73	1226.73
282.94	1216.49
283.16	1261.55
283.37	1288.17
283.59	1267.69
283.80	1312.75
284.02	1296.36
284.23	1208.30
284.45	1257.45
284.66	1277.93
284.88	1267.69
285.09	1261.55
285.31	1279.98
285.52	1296.36
285.74	1243.12
285.95	1245.16
286.17	1222.64
286.38	1271.79
286.60	1316.84
286.81	1245.16
287.03	1261.55
287.24	1290.22
287.46	1292.27
287.67	1265.64
287.89	1286.12
288.10	1243.12
288.32	1279.98
288.53	1245.16
288.75	1325.04
288.96	1253.36
289.18	1249.26
289.39	1216.49
289.61	1251.31
289.82	1284.08
290.04	1265.64
290.25	1224.69
290.47	1214.45
290.68	1261.55
290.90	1265.64
291.11	1202.16
291.33	1286.12
291.54	1255.40
291.76	1277.93
291.97	1243.12
292.18	1200.11
292.40	1296.36
292.61	1261.55
292.83	1288.17
293.04	1202.16
293.26	1257.45
293.47	1288.17
293.69	1245.16
293.90	1214.45
294.12	1273.84
294.33	1343.47
294.55	1263.60
294.76	1286.12
294.97	1214.45
295.19	1220.59
295.40	1255.40
295.62	1314.80
295.83	1249.26
296.05	1292.27
296.26	1308.65
296.48	1286.12
296.69	1316.84
296.90	1294.32
297.12	1236.97
297.33	1294.32
297.55	1261.55
297.76	1292.27
297.98	1245.16
298.19	1247.21
298.41	1308.65
298.62	1265.64
298.83	1267.69
299.05	1222.64
299.26	1366.00
299.48	1279.98
299.69	1263.60
299.90	1265.64
300.12	1290.22
300.33	1339.37
300.55	1226.73
300.76	1234.93
300.98	1271.79
301.19	1292.27
301.40	1251.31
301.62	1341.42
301.83	1245.16
302.05	1376.24
302.26	1232.88
302.47	1239.02
302.69	1320.94
302.90	1261.55
303.12	1236.97
303.33	1284.08
303.54	1193.97
303.76	1259.50
303.97	1267.69
304.19	1255.40
304.40	1271.79
304.61	1269.74
304.83	1296.36
305.04	1265.64
305.26	1277.93
305.47	1302.51
305.68	1232.88
305.90	1269.74
306.11	1331.18
306.33	1251.31
306.54	1292.27
306.75	1331.18
306.97	1314.80
307.18	1249.26
307.39	1236.97
307.61	1314.80
307.82	1288.17
308.04	1306.60
308.25	1331.18
308.46	1255.40
308.68	1236.97
308.89	1273.84
309.10	1212.40
309.32	1325.04
309.53	1261.55
309.74	1269.74
309.96	1310.70
310.17	1279.98
310.39	1224.69
310.60	1325.04
310.81	1308.65
311.03	1208.30
311.24	1181.68
311.45	1345.52
311.67	1243.12
311.88	1198.06
312.09	1228.78
312.31	1275.88
312.52	1245.16
312.73	1243.12
312.95	1247.21
313.16	1327.08
313.37	1216.49
313.59	1286.12
313.80	1310.70
314.01	1216.49
314.23	1265.64
314.44	1306.60
314.65	1286.12
314.87	1271.79
315.08	1263.60
315.29	1243.12
315.51	1292.27
315.72	1212.40
315.93	1255.40
316.15	1310.70
316.36	1179.63
316.57	1304.56
316.79	1322.99
317.00	1230.83
317.21	1261.55
317.43	1253.36
317.64	1224.69
317.85	1239.02
318.07	1271.79
318.28	1236.97
318.49	1226.73
318.70	1247.21
318.92	1224.69
319.13	1275.88
319.34	1294.32
319.56	1236.97
319.77	1214.45
319.98	1296.36
320.20	1196.01
320.41	1265.64
320.62	1322.99
320.83	1273.84
321.05	1290.22
321.26	1335.28
321.47	1271.79
321.69	1273.84
321.90	1263.60
322.11	1331.18
322.32	1333.23
322.54	1222.64
322.75	1273.84
322.96	1349.61
323.18	1296.36
323.39	1161.20
323.60	1277.93
323.81	1273.84
324.03	1239.02
324.24	1208.30
324.45	1302.51
324.66	1288.17
324.88	1298.41
325.09	1304.56
325.30	1322.99
325.52	1269.74
325.73	1308.65
325.94	1355.76
326.15	1251.31
326.37	1320.94
326.58	1236.97
326.79	1325.04
327.00	1300.46
327.22	1206.25
327.43	1288.17
327.64	1271.79
327.85	1239.02
328.07	1314.80
328.28	1214.45
328.49	1269.74
328.70	1259.50
328.92	1265.64
329.13	1284.08
329.34	1234.93
329.55	1255.40
329.76	1236.97
329.98	1263.60
330.19	1273.84
330.40	1282.03
330.61	1345.52
330.83	1294.32
331.04	1296.36
331.25	1318.89
331.46	1322.99
331.68	1236.97
331.89	1265.64
332.10	1222.64
332.31	1314.80
332.52	1298.41
332.74	1302.51
332.95	1279.98
333.16	1284.08
333.37	1282.03
333.58	1290.22
333.80	1261.55
334.01	1253.36
334.22	1263.60
334.43	1282.03
334.64	1230.83
334.86	1337.32
335.07	1247.21
335.28	1222.64
335.49	1327.08
335.70	1279.98
335.92	1265.64
336.13	1310.70
336.34	1265.64
336.55	1271.79
336.76	1306.60
336.98	1265.64
337.19	1282.03
337.40	1282.03
337.61	1245.16
337.82	1183.73
338.04	1236.97
338.25	1249.26
338.46	1214.45
338.67	1251.31
338.88	1292.27
339.09	1230.83
339.31	1273.84
339.52	1279.98
339.73	1236.97
339.94	1269.74
340.15	1265.64
340.36	1255.40
340.58	1339.37
340.79	1261.55
341.00	1224.69
341.21	1230.83
341.42	1284.08
341.63	1214.45
341.85	1284.08
342.06	1257.45
342.27	1282.03
342.48	1314.80
342.69	1226.73
342.90	1189.87
343.12	1279.98
343.33	1339.37
343.54	1249.26
343.75	1200.11
343.96	1261.55
344.17	1239.02
344.38	1298.41
344.60	1236.97
344.81	1200.11
345.02	1294.32
345.23	1298.41
345.44	1339.37
345.65	1318.89
345.86	1314.80
346.07	1343.47
346.29	1267.69
346.50	1310.70
346.71	1288.17
346.92	1236.97
347.13	1343.47
347.34	1226.73
347.55	1247.21
347.76	1292.27
347.98	1208.30
348.19	1275.88
348.40	1292.27
348.61	1245.16
348.82	1286.12
349.03	1265.64
349.24	1249.26
349.45	1236.97
349.66	1279.98
349.88	1318.89
350.09	1269.74
350.30	1282.03
350.51	1263.60
350.72	1255.40
350.93	1247.21
351.14	1265.64
351.35	1275.88
351.56	1296.36
351.77	1230.83
351.99	1316.84
352.20	1298.41
352.41	1275.88
352.62	1310.70
352.83	1253.36
353.04	1327.08
353.25	1216.49
353.46	1282.03
353.67	1255.40
353.88	1329.13
354.09	1286.12
354.30	1288.17
354.52	1255.40
354.73	1265.64
354.94	1245.16
355.15	1243.12
355.36	1337.32
355.57	1284.08
355.78	1327.08
355.99	1279.98
356.20	1302.51
356.41	1320.94
356.62	1273.84
356.83	1347.56
357.04	1241.07
357.25	1277.93
357.46	1245.16
357.68	1314.80
357.89	1322.99
358.10	1327.08
358.31	1220.59
358.52	1222.64
358.73	1261.55
358.94	1265.64
359.15	1271.79
359.36	1216.49
359.57	1265.64
359.78	1265.64
359.99	1163.25
360.20	1339.37
360.41	1290.22
360.62	1308.65
360.83	1189.87
361.04	1255.40
361.25	1353.71
361.46	1249.26
361.67	1318.89
361.88	1191.92
362.09	1349.61
362.30	1288.17
362.51	1191.92
362.72	1261.55
362.93	1284.08
363.14	1335.28
363.35	1310.70
363.56	1325.04
363.78	1282.03
363.99	1357.80
364.20	1277.93
364.41	1298.41
364.62	1275.88
364.83	1296.36
365.04	1230.83
365.25	1271.79
365.46	1232.88
365.67	1241.07
365.88	1255.40
366.09	1288.17
366.30	1263.60
366.51	1228.78
366.72	1316.84
366.93	1257.45
367.14	1265.64
367.35	1349.61
367.56	1282.03
367.77	1214.45
367.98	1243.12
368.18	1245.16
368.39	1226.73
368.60	1275.88
368.81	1253.36
369.02	1222.64
369.23	1243.12
369.44	1290.22
369.65	1284.08
369.86	1314.80
370.07	1308.65
370.28	1282.03
370.49	1257.45
370.70	1206.25
370.91	1236.97
371.12	1306.60
371.33	1271.79
371.54	1267.69
371.75	1290.22
371.96	1247.21
372.17	1261.55
372.38	1363.95
372.59	1247.21
372.80	1263.60
373.01	1288.17
373.22	1249.26
373.43	1216.49
373.64	1232.88
373.85	1331.18
374.06	1335.28
374.26	1288.17
374.47	1329.13
374.68	1316.84
374.89	1257.45
375.10	1218.54
375.31	1247.21
375.52	1241.07
375.73	1222.64
375.94	1259.50
376.15	1300.46
376.36	1286.12
376.57	1327.08
376.78	1259.50
376.99	1298.41
377.20	1265.64
377.40	1296.36
377.61	1304.56
377.82	1325.04
378.03	1300.46
378.24	1279.98
378.45	1232.88
378.66	1271.79
378.87	1177.58
379.08	1236.97
379.29	1232.88
379.50	1288.17
379.71	1290.22
379.91	1329.13
380.12	1263.60
380.33	1284.08
380.54	1265.64
380.75	1298.41
380.96	1230.83
381.17	1247.21
381.38	1236.97
381.59	1310.70
381.80	1241.07
382.00	1241.07
382.21	1277.93
382.42	1298.41
382.63	1304.56
382.84	1353.71
383.05	1220.59
383.26	1312.75
383.47	1191.92
383.68	1241.07
383.88	1298.41
384.09	1259.50
384.30	1288.17
384.51	1249.26
384.72	1241.07
384.93	1286.12
385.14	1236.97
385.35	1220.59
385.55	1302.51
385.76	1261.55
385.97	1216.49
386.18	1230.83
386.39	1251.31
386.60	1216.49
386.81	1294.32
387.02	1282.03
387.22	1224.69
387.43	1212.40
387.64	1218.54
387.85	1298.41
388.06	1277.93
388.27	1296.36
388.48	1253.36
388.68	1353.71
388.89	1286.12
389.10	1290.22
389.31	1216.49
389.52	1261.55
389.73	1212.40
389.93	1263.60
390.14	1292.27
390.35	1253.36
390.56	1249.26
390.77	1294.32
390.98	1204.21
391.18	1314.80
391.39	1304.56
391.60	1290.22
391.81	1210.35
392.02	1288.17
392.23	1247.21
392.43	1318.89
392.64	1302.51
392.85	1249.26
393.06	1255.40
393.27	1290.22
393.47	1196.01
393.68	1314.80
393.89	1320.94
394.10	1288.17
394.31	1228.78
394.52	1282.03
394.72	1304.56
394.93	1273.84
395.14	1269.74
395.35	1279.98
395.56	1257.45
395.76	1253.36
395.97	1288.17
396.18	1282.03
396.39	1232.88
396.60	1249.26
396.80	1224.69
397.01	1339.37
397.22	1320.94
397.43	1284.08
397.64	1277.93
397.84	1226.73
398.05	1196.01
398.26	1232.88
398.47	1220.59
398.67	1318.89
398.88	1206.25
399.09	1267.69
399.30	1249.26
399.51	1298.41
399.71	1292.27
399.92	1269.74
400.13	1261.55
400.34	1265.64
400.54	1308.65
400.75	1337.32
400.96	1267.69
401.17	1288.17
401.37	1226.73
401.58	1279.98
401.79	1263.60
402.00	1277.93
402.21	1243.12
402.41	1277.93
402.62	1257.45
402.83	1314.80
403.04	1259.50
403.24	1224.69
403.45	1261.55
403.66	1279.98
403.87	1275.88
404.07	1341.42
404.28	1261.55
404.49	1304.56
404.70	1316.84
404.90	1304.56
405.11	1267.69
405.32	1288.17
405.52	1216.49
405.73	1259.50
405.94	1253.36
406.15	1265.64
406.35	1339.37
406.56	1304.56
406.77	1304.56
406.98	1347.56
407.18	1292.27
407.39	1351.66
407.60	1216.49
407.80	1239.02
408.01	1310.70
408.22	1310.70
408.43	1249.26
408.63	1239.02
408.84	1275.88
409.05	1210.35
409.25	1312.75
409.46	1282.03
409.67	1310.70
409.88	1325.04
410.08	1232.88
410.29	1282.03
410.50	1202.16
410.70	1263.60
410.91	1306.60
411.12	1222.64
411.32	1247.21
411.53	1210.35
411.74	1257.45
411.95	1294.32
412.15	1310.70
412.36	1312.75
412.57	1247.21
412.77	1320.94
412.98	1263.60
413.19	1251.31
413.39	1314.80
413.60	1339.37
413.81	1290.22
414.01	1286.12
414.22	1222.64
414.43	1304.56
414.63	1261.55
414.84	1255.40
415.05	1273.84
415.25	1208.30
415.46	1261.55
415.67	1277.93
415.87	1296.36
416.08	1298.41
416.29	1282.03
416.49	1277.93
416.70	1302.51
416.91	1232.88
417.11	1318.89
417.32	1228.78
417.53	1175.53
417.73	1200.11
417.94	1245.16
418.15	1310.70
418.35	1259.50
418.56	1279.98
418.77	1312.75
418.97	1206.25
419.18	1331.18
419.38	1230.83
419.59	1228.78
419.80	1198.06
420.00	1249.26
420.21	1355.76
420.42	1239.02
420.62	1247.21
420.83	1255.40
421.04	1212.40
421.24	1251.31
421.45	1282.03
421.65	1247.21
421.86	1236.97
422.07	1257.45
422.27	1314.80
422.48	1224.69
422.69	1247.21
422.89	1298.41
423.10	1247.21
423.30	1263.60
423.51	1282.03
423.72	1245.16
423.92	1306.60
424.13	1236.97
424.33	1282.03
424.54	1308.65
424.75	1267.69
424.95	1312.75
425.16	1292.27
425.36	1220.59
425.57	1288.17
425.78	1290.22
425.98	1327.08
426.19	1232.88
426.39	1296.36
426.60	1251.31
426.81	1193.97
427.01	1243.12
427.22	1245.16
427.42	1230.83
427.63	1277.93
427.83	1327.08
428.04	1241.07
428.25	1275.88
428.45	1189.87
428.66	1249.26
428.86	1269.74
429.07	1357.80
429.28	1222.64
429.48	1216.49
429.69	1263.60
429.89	1279.98
430.10	1224.69
430.30	1302.51
430.51	1224.69
430.71	1312.75
430.92	1208.30
431.13	1245.16
431.33	1275.88
431.54	1322.99
431.74	1226.73
431.95	1198.06
432.15	1308.65
432.36	1298.41
432.56	1308.65
432.77	1247.21
432.98	1277.93
433.18	1279.98
433.39	1249.26
433.59	1236.97
433.80	1284.08
434.00	1255.40
434.21	1279.98
434.41	1290.22
434.62	1286.12
434.82	1318.89
435.03	1322.99
435.23	1312.75
435.44	1370.09
435.64	1255.40
435.85	1247.21
436.06	1304.56
436.26	1279.98
436.47	1243.12
436.67	1253.36
436.88	1261.55
437.08	1290.22
437.29	1296.36
437.49	1339.37
437.70	1234.93
437.90	1239.02
438.11	1273.84
438.31	1310.70
438.52	1228.78
438.72	1273.84
438.93	1243.12
439.13	1269.74
439.34	1236.97
439.54	1249.26
439.75	1288.17
439.95	1245.16
440.16	1212.40
440.36	1271.79
440.57	1294.32
440.77	1310.70
440.98	1296.36
441.18	1288.17
441.39	1275.88
441.59	1222.64
441.80	1257.45
442.00	1284.08
442.21	1216.49
442.41	1331.18
442.62	1310.70
442.82	1263.60
443.02	1228.78
443.23	1265.64
443.43	1271.79
443.64	1255.40
443.84	1232.88
444.05	1230.83
444.25	1239.02
444.46	1253.36
444.66	1277.93
444.87	1288.17
445.07	1255.40
445.28	1337.32
445.48	1220.59
445.69	1247.21
445.89	1245.16
446.09	1234.93
446.30	1261.55
446.50	1314.80
446.71	1284.08
446.91	1298.41
447.12	1241.07
447.32	1277.93
447.53	1282.03
447.73	1296.36
447.93	1265.64
448.14	1298.41
448.34	1224.69
448.55	1191.92
448.75	1298.41
448.96	1304.56
449.16	1245.16
449.36	1314.80
449.57	1290.22
449.77	1310.70
449.98	1230.83
450.18	1220.59
450.39	1316.84
450.59	1255.40
450.79	1191.92
451.00	1230.83
451.20	1222.64
451.41	1275.88
451.61	1269.74
451.81	1314.80
452.02	1179.63
452.22	1241.07
452.43	1282.03
452.63	1308.65
