SpectraSuite Data File
++++++++++++++++++++++++++++++++++++
Date: Sun Apr 03 19:55:47 CEST 2016
User: root
Dark Spectrum Present: No
Reference Spectrum Present: No
Number of Sampled Component Spectra: 1
Spectrometers: USB4C02835
Integration Time (usec): 10000 (USB4C02835)
Spectra Averaged: 1 (USB4C02835)
Boxcar Smoothing: 0 (USB4C02835)
Correct for Electrical Dark: No (USB4C02835)
Strobe/Lamp Enabled: No (USB4C02835)
Correct for Detector Non-linearity: No (USB4C02835)
Correct for Stray Light: No (USB4C02835)
Number of Pixels in Processed Spectrum: 3648
>>>>>Begin Processed Spectral Data<<<<<
177.47	1269.74
177.69	1269.74
177.91	1269.74
178.13	1300.46
178.36	1249.26
178.58	1239.02
178.80	1234.93
179.02	1208.30
179.24	1284.08
179.46	1279.98
179.68	1284.08
179.90	1247.21
180.13	1275.88
180.35	1216.49
180.57	1245.16
180.79	1210.35
181.01	1300.46
181.23	1239.02
181.45	1306.60
181.67	1259.50
181.90	1253.36
182.12	1257.45
182.34	1218.54
182.56	1224.69
182.78	1257.45
183.00	1208.30
183.22	1228.78
183.44	1310.70
183.66	1320.94
183.89	1325.04
184.11	1271.79
184.33	1290.22
184.55	1286.12
184.77	1239.02
184.99	1325.04
185.21	1257.45
185.43	1261.55
185.65	1277.93
185.87	1304.56
186.10	1277.93
186.32	1322.99
186.54	1257.45
186.76	1304.56
186.98	1228.78
187.20	1253.36
187.42	1202.16
187.64	1261.55
187.86	1189.87
188.08	1302.51
188.30	1249.26
188.52	1292.27
188.75	1298.41
188.97	1327.08
189.19	1296.36
189.41	1255.40
189.63	1355.76
189.85	1261.55
190.07	1314.80
190.29	1196.01
190.51	1241.07
190.73	1265.64
190.95	1243.12
191.17	1302.51
191.39	1269.74
191.61	1284.08
191.84	1243.12
192.06	1320.94
192.28	1218.54
192.50	1261.55
192.72	1236.97
192.94	1257.45
193.16	1193.97
193.38	1290.22
193.60	1306.60
193.82	1255.40
194.04	1290.22
194.26	1265.64
194.48	1312.75
194.70	1198.06
194.92	1302.51
195.14	1247.21
195.36	1261.55
195.58	1310.70
195.80	1359.85
196.02	1325.04
196.24	1257.45
196.46	1243.12
196.69	1249.26
196.91	1236.97
197.13	1249.26
197.35	1245.16
197.57	1243.12
197.79	1329.13
198.01	1273.84
198.23	1247.21
198.45	1245.16
198.67	1255.40
198.89	1257.45
199.11	1224.69
199.33	1300.46
199.55	1277.93
199.77	1167.34
199.99	1226.73
200.21	1222.64
200.43	1294.32
200.65	1370.09
200.87	1261.55
201.09	1331.18
201.31	1314.80
201.53	1277.93
201.75	1257.45
201.97	1286.12
202.19	1232.88
202.41	1249.26
202.63	1277.93
202.85	1302.51
203.07	1306.60
203.29	1306.60
203.51	1314.80
203.73	1286.12
203.95	1232.88
204.17	1212.40
204.39	1220.59
204.61	1234.93
204.83	1296.36
205.05	1298.41
205.27	1302.51
205.49	1390.57
205.71	1241.07
205.93	1253.36
206.15	1263.60
206.37	1294.32
206.59	1279.98
206.81	1259.50
207.03	1236.97
207.25	1251.31
207.47	1288.17
207.69	1290.22
207.91	1380.33
208.13	1257.45
208.34	1290.22
208.56	1267.69
208.78	1288.17
209.00	1269.74
209.22	1296.36
209.44	1239.02
209.66	1220.59
209.88	1230.83
210.10	1284.08
210.32	1249.26
210.54	1282.03
210.76	1251.31
210.98	1181.68
211.20	1214.45
211.42	1259.50
211.64	1286.12
211.86	1273.84
212.08	1251.31
212.30	1232.88
212.52	1226.73
212.74	1251.31
212.96	1236.97
213.17	1243.12
213.39	1234.93
213.61	1257.45
213.83	1236.97
214.05	1253.36
214.27	1284.08
214.49	1331.18
214.71	1277.93
214.93	1282.03
215.15	1269.74
215.37	1222.64
215.59	1220.59
215.81	1279.98
216.03	1198.06
216.24	1310.70
216.46	1306.60
216.68	1273.84
216.90	1282.03
217.12	1288.17
217.34	1300.46
217.56	1216.49
217.78	1310.70
218.00	1277.93
218.22	1249.26
218.44	1187.82
218.66	1292.27
218.87	1206.25
219.09	1255.40
219.31	1277.93
219.53	1236.97
219.75	1300.46
219.97	1286.12
220.19	1349.61
220.41	1296.36
220.63	1232.88
220.85	1257.45
221.06	1288.17
221.28	1308.65
221.50	1308.65
221.72	1296.36
221.94	1249.26
222.16	1251.31
222.38	1247.21
222.60	1312.75
222.82	1318.89
223.03	1239.02
223.25	1249.26
223.47	1224.69
223.69	1265.64
223.91	1247.21
224.13	1245.16
224.35	1263.60
224.57	1214.45
224.78	1249.26
225.00	1222.64
225.22	1288.17
225.44	1312.75
225.66	1232.88
225.88	1312.75
226.10	1300.46
226.32	1290.22
226.53	1222.64
226.75	1314.80
226.97	1257.45
227.19	1204.21
227.41	1296.36
227.63	1286.12
227.85	1255.40
228.06	1208.30
228.28	1224.69
228.50	1232.88
228.72	1257.45
228.94	1245.16
229.16	1200.11
229.37	1253.36
229.59	1298.41
229.81	1331.18
230.03	1279.98
230.25	1253.36
230.47	1294.32
230.69	1148.91
230.90	1294.32
231.12	1312.75
231.34	1243.12
231.56	1257.45
231.78	1265.64
232.00	1318.89
232.21	1251.31
232.43	1286.12
232.65	1222.64
232.87	1302.51
233.09	1282.03
233.30	1267.69
233.52	1322.99
233.74	1206.25
233.96	1290.22
234.18	1236.97
234.40	1296.36
234.61	1296.36
234.83	1282.03
235.05	1302.51
235.27	1247.21
235.49	1226.73
235.70	1255.40
235.92	1331.18
236.14	1228.78
236.36	1257.45
236.58	1320.94
236.79	1355.76
237.01	1243.12
237.23	1277.93
237.45	1271.79
237.67	1284.08
237.88	1286.12
238.10	1243.12
238.32	1173.49
238.54	1329.13
238.76	1253.36
238.97	1277.93
239.19	1243.12
239.41	1265.64
239.63	1230.83
239.85	1200.11
240.06	1296.36
240.28	1294.32
240.50	1222.64
240.72	1279.98
240.93	1216.49
241.15	1230.83
241.37	1251.31
241.59	1331.18
241.81	1179.63
242.02	1279.98
242.24	1241.07
242.46	1255.40
242.68	1257.45
242.89	1306.60
243.11	1316.84
243.33	1325.04
243.55	1269.74
243.76	1269.74
243.98	1284.08
244.20	1222.64
244.42	1290.22
244.64	1290.22
244.85	1247.21
245.07	1304.56
245.29	1263.60
245.51	1310.70
245.72	1214.45
245.94	1304.56
246.16	1251.31
246.38	1282.03
246.59	1282.03
246.81	1220.59
247.03	1259.50
247.24	1273.84
247.46	1193.97
247.68	1294.32
247.90	1331.18
248.11	1316.84
248.33	1251.31
248.55	1212.40
248.77	1298.41
248.98	1286.12
249.20	1290.22
249.42	1267.69
249.64	1239.02
249.85	1275.88
250.07	1243.12
250.29	1259.50
250.50	1312.75
250.72	1218.54
250.94	1320.94
251.16	1282.03
251.37	1282.03
251.59	1279.98
251.81	1236.97
252.02	1284.08
252.24	1204.21
252.46	1230.83
252.68	1200.11
252.89	1304.56
253.11	1255.40
253.33	1355.76
253.54	1279.98
253.76	1247.21
253.98	1218.54
254.20	1271.79
254.41	1263.60
254.63	1316.84
254.85	1322.99
255.06	1284.08
255.28	1296.36
255.50	1290.22
255.71	1253.36
255.93	1296.36
256.15	1236.97
256.36	1253.36
256.58	1277.93
256.80	1226.73
257.02	1196.01
257.23	1308.65
257.45	1267.69
257.67	1294.32
257.88	1218.54
258.10	1232.88
258.32	1292.27
258.53	1288.17
258.75	1247.21
258.97	1284.08
259.18	1347.56
259.40	1216.49
259.62	1247.21
259.83	1232.88
260.05	1265.64
260.27	1232.88
260.48	1263.60
260.70	1228.78
260.92	1259.50
261.13	1329.13
261.35	1294.32
261.57	1282.03
261.78	1232.88
262.00	1300.46
262.22	1310.70
262.43	1232.88
262.65	1318.89
262.86	1275.88
263.08	1304.56
263.30	1363.95
263.51	1218.54
263.73	1234.93
263.95	1279.98
264.16	1292.27
264.38	1261.55
264.60	1329.13
264.81	1304.56
265.03	1271.79
265.25	1210.35
265.46	1304.56
265.68	1267.69
265.89	1269.74
266.11	1234.93
266.33	1261.55
266.54	1224.69
266.76	1275.88
266.98	1294.32
267.19	1296.36
267.41	1335.28
267.62	1261.55
267.84	1241.07
268.06	1267.69
268.27	1279.98
268.49	1310.70
268.70	1284.08
268.92	1236.97
269.14	1325.04
269.35	1216.49
269.57	1236.97
269.79	1239.02
270.00	1255.40
270.22	1257.45
270.43	1259.50
270.65	1232.88
270.87	1288.17
271.08	1263.60
271.30	1339.37
271.51	1306.60
271.73	1259.50
271.95	1245.16
272.16	1220.59
272.38	1239.02
272.59	1253.36
272.81	1261.55
273.02	1343.47
273.24	1308.65
273.46	1368.04
273.67	1230.83
273.89	1308.65
274.10	1288.17
274.32	1320.94
274.54	1343.47
274.75	1286.12
274.97	1290.22
275.18	1282.03
275.40	1351.66
275.61	1325.04
275.83	1226.73
276.05	1286.12
276.26	1339.37
276.48	1308.65
276.69	1263.60
276.91	1228.78
277.12	1370.09
277.34	1282.03
277.55	1282.03
277.77	1277.93
277.99	1220.59
278.20	1282.03
278.42	1269.74
278.63	1292.27
278.85	1255.40
279.06	1294.32
279.28	1288.17
279.49	1271.79
279.71	1310.70
279.93	1267.69
280.14	1232.88
280.36	1310.70
280.57	1232.88
280.79	1320.94
281.00	1187.82
281.22	1206.25
281.43	1273.84
281.65	1286.12
281.86	1298.41
282.08	1261.55
282.29	1335.28
282.51	1288.17
282.73	1310.70
282.94	1320.94
283.16	1255.40
283.37	1249.26
283.59	1347.56
283.80	1245.16
284.02	1251.31
284.23	1251.31
284.45	1228.78
284.66	1275.88
284.88	1310.70
285.09	1279.98
285.31	1318.89
285.52	1265.64
285.74	1251.31
285.95	1290.22
286.17	1241.07
286.38	1353.71
286.60	1269.74
286.81	1310.70
287.03	1245.16
287.24	1198.06
287.46	1273.84
287.67	1261.55
287.89	1292.27
288.10	1302.51
288.32	1196.01
288.53	1345.52
288.75	1306.60
288.96	1234.93
289.18	1204.21
289.39	1279.98
289.61	1267.69
289.82	1290.22
290.04	1241.07
290.25	1296.36
290.47	1277.93
290.68	1284.08
290.90	1249.26
291.11	1279.98
291.33	1228.78
291.54	1296.36
291.76	1302.51
291.97	1298.41
292.18	1226.73
292.40	1290.22
292.61	1200.11
292.83	1310.70
293.04	1243.12
293.26	1265.64
293.47	1243.12
293.69	1224.69
293.90	1290.22
294.12	1292.27
294.33	1255.40
294.55	1269.74
294.76	1263.60
294.97	1286.12
295.19	1277.93
295.40	1234.93
295.62	1265.64
295.83	1241.07
296.05	1206.25
296.26	1271.79
296.48	1363.95
296.69	1331.18
296.90	1236.97
297.12	1271.79
297.33	1275.88
297.55	1267.69
297.76	1288.17
297.98	1234.93
298.19	1255.40
298.41	1265.64
298.62	1279.98
298.83	1226.73
299.05	1312.75
299.26	1247.21
299.48	1228.78
299.69	1286.12
299.90	1327.08
300.12	1296.36
300.33	1294.32
300.55	1249.26
300.76	1279.98
300.98	1343.47
301.19	1263.60
301.40	1247.21
301.62	1263.60
301.83	1259.50
302.05	1288.17
302.26	1236.97
302.47	1269.74
302.69	1249.26
302.90	1249.26
303.12	1134.57
303.33	1316.84
303.54	1284.08
303.76	1267.69
303.97	1308.65
304.19	1273.84
304.40	1318.89
304.61	1249.26
304.83	1296.36
305.04	1232.88
305.26	1267.69
305.47	1265.64
305.68	1292.27
305.90	1251.31
306.11	1255.40
306.33	1286.12
306.54	1308.65
306.75	1243.12
306.97	1294.32
307.18	1236.97
307.39	1271.79
307.61	1277.93
307.82	1247.21
308.04	1302.51
308.25	1282.03
308.46	1294.32
308.68	1265.64
308.89	1261.55
309.10	1279.98
309.32	1261.55
309.53	1241.07
309.74	1296.36
309.96	1271.79
310.17	1251.31
310.39	1236.97
310.60	1347.56
310.81	1265.64
311.03	1265.64
311.24	1243.12
311.45	1376.24
311.67	1265.64
311.88	1232.88
312.09	1239.02
312.31	1257.45
312.52	1265.64
312.73	1273.84
312.95	1224.69
313.16	1273.84
313.37	1273.84
313.59	1277.93
313.80	1312.75
314.01	1294.32
314.23	1279.98
314.44	1263.60
314.65	1218.54
314.87	1290.22
315.08	1290.22
315.29	1230.83
315.51	1253.36
315.72	1226.73
315.93	1241.07
316.15	1220.59
316.36	1243.12
316.57	1245.16
316.79	1275.88
317.00	1335.28
317.21	1259.50
317.43	1224.69
317.64	1241.07
317.85	1292.27
318.07	1171.44
318.28	1296.36
318.49	1351.66
318.70	1296.36
318.92	1253.36
319.13	1306.60
319.34	1314.80
319.56	1259.50
319.77	1288.17
319.98	1249.26
320.20	1218.54
320.41	1288.17
320.62	1167.34
320.83	1269.74
321.05	1273.84
321.26	1363.95
321.47	1296.36
321.69	1232.88
321.90	1214.45
322.11	1175.53
322.32	1255.40
322.54	1236.97
322.75	1279.98
322.96	1349.61
323.18	1322.99
323.39	1263.60
323.60	1296.36
323.81	1234.93
324.03	1206.25
324.24	1288.17
324.45	1277.93
324.66	1249.26
324.88	1302.51
325.09	1310.70
325.30	1279.98
325.52	1288.17
325.73	1269.74
325.94	1232.88
326.15	1277.93
326.37	1282.03
326.58	1261.55
326.79	1263.60
327.00	1310.70
327.22	1298.41
327.43	1294.32
327.64	1210.35
327.85	1249.26
328.07	1322.99
328.28	1318.89
328.49	1255.40
328.70	1351.66
328.92	1277.93
329.13	1302.51
329.34	1234.93
329.55	1255.40
329.76	1257.45
329.98	1286.12
330.19	1331.18
330.40	1255.40
330.61	1226.73
330.83	1310.70
331.04	1216.49
331.25	1267.69
331.46	1208.30
331.68	1251.31
331.89	1290.22
332.10	1236.97
332.31	1271.79
332.52	1277.93
332.74	1288.17
332.95	1261.55
333.16	1265.64
333.37	1263.60
333.58	1290.22
333.80	1224.69
334.01	1263.60
334.22	1191.92
334.43	1206.25
334.64	1257.45
334.86	1263.60
335.07	1273.84
335.28	1275.88
335.49	1157.10
335.70	1271.79
335.92	1306.60
336.13	1271.79
336.34	1288.17
336.55	1325.04
336.76	1224.69
336.98	1208.30
337.19	1308.65
337.40	1288.17
337.61	1259.50
337.82	1292.27
338.04	1302.51
338.25	1284.08
338.46	1284.08
338.67	1284.08
338.88	1243.12
339.09	1290.22
339.31	1308.65
339.52	1286.12
339.73	1259.50
339.94	1286.12
340.15	1300.46
340.36	1269.74
340.58	1198.06
340.79	1245.16
341.00	1284.08
341.21	1224.69
341.42	1327.08
341.63	1329.13
341.85	1245.16
342.06	1236.97
342.27	1208.30
342.48	1220.59
342.69	1222.64
342.90	1245.16
343.12	1261.55
343.33	1298.41
343.54	1279.98
343.75	1300.46
343.96	1296.36
344.17	1292.27
344.38	1282.03
344.60	1271.79
344.81	1228.78
345.02	1302.51
345.23	1286.12
345.44	1218.54
345.65	1275.88
345.86	1245.16
346.07	1208.30
346.29	1273.84
346.50	1208.30
346.71	1275.88
346.92	1257.45
347.13	1208.30
347.34	1243.12
347.55	1189.87
347.76	1267.69
347.98	1259.50
348.19	1296.36
348.40	1257.45
348.61	1312.75
348.82	1241.07
349.03	1181.68
349.24	1267.69
349.45	1316.84
349.66	1218.54
349.88	1275.88
350.09	1320.94
350.30	1234.93
350.51	1282.03
350.72	1300.46
350.93	1234.93
351.14	1263.60
351.35	1269.74
351.56	1333.23
351.77	1284.08
351.99	1236.97
352.20	1226.73
352.41	1271.79
352.62	1241.07
352.83	1284.08
353.04	1253.36
353.25	1300.46
353.46	1341.42
353.67	1224.69
353.88	1306.60
354.09	1243.12
354.30	1273.84
354.52	1243.12
354.73	1304.56
354.94	1269.74
355.15	1232.88
355.36	1292.27
355.57	1273.84
355.78	1329.13
355.99	1224.69
356.20	1275.88
356.41	1269.74
356.62	1275.88
356.83	1222.64
357.04	1318.89
357.25	1253.36
357.46	1288.17
357.68	1288.17
357.89	1257.45
358.10	1241.07
358.31	1220.59
358.52	1249.26
358.73	1214.45
358.94	1279.98
359.15	1345.52
359.36	1279.98
359.57	1265.64
359.78	1234.93
359.99	1208.30
360.20	1306.60
360.41	1286.12
360.62	1259.50
360.83	1200.11
361.04	1257.45
361.25	1290.22
361.46	1318.89
361.67	1214.45
361.88	1263.60
362.09	1290.22
362.30	1306.60
362.51	1253.36
362.72	1214.45
362.93	1282.03
363.14	1265.64
363.35	1220.59
363.56	1331.18
363.78	1296.36
363.99	1222.64
364.20	1257.45
364.41	1269.74
364.62	1214.45
364.83	1189.87
365.04	1306.60
365.25	1271.79
365.46	1239.02
365.67	1261.55
365.88	1247.21
366.09	1196.01
366.30	1282.03
366.51	1331.18
366.72	1198.06
366.93	1239.02
367.14	1282.03
367.35	1329.13
367.56	1259.50
367.77	1314.80
367.98	1255.40
368.18	1273.84
368.39	1275.88
368.60	1304.56
368.81	1263.60
369.02	1341.42
369.23	1216.49
369.44	1245.16
369.65	1232.88
369.86	1214.45
370.07	1253.36
370.28	1300.46
370.49	1271.79
370.70	1306.60
370.91	1241.07
371.12	1265.64
371.33	1245.16
371.54	1265.64
371.75	1222.64
371.96	1306.60
372.17	1302.51
372.38	1290.22
372.59	1212.40
372.80	1255.40
373.01	1286.12
373.22	1286.12
373.43	1318.89
373.64	1302.51
373.85	1308.65
374.06	1226.73
374.26	1259.50
374.47	1318.89
374.68	1298.41
374.89	1288.17
375.10	1247.21
375.31	1320.94
375.52	1271.79
375.73	1224.69
375.94	1239.02
376.15	1230.83
376.36	1196.01
376.57	1269.74
376.78	1279.98
376.99	1286.12
377.20	1220.59
377.40	1253.36
377.61	1277.93
377.82	1273.84
378.03	1261.55
378.24	1277.93
378.45	1261.55
378.66	1322.99
378.87	1243.12
379.08	1259.50
379.29	1275.88
379.50	1253.36
379.71	1261.55
379.91	1236.97
380.12	1277.93
380.33	1273.84
380.54	1234.93
380.75	1310.70
380.96	1243.12
381.17	1218.54
381.38	1243.12
381.59	1265.64
381.80	1380.33
382.00	1249.26
382.21	1255.40
382.42	1277.93
382.63	1226.73
382.84	1198.06
383.05	1228.78
383.26	1300.46
383.47	1228.78
383.68	1259.50
383.88	1218.54
384.09	1259.50
384.30	1220.59
384.51	1271.79
384.72	1333.23
384.93	1275.88
385.14	1232.88
385.35	1267.69
385.55	1228.78
385.76	1304.56
385.97	1245.16
386.18	1257.45
386.39	1257.45
386.60	1218.54
386.81	1257.45
387.02	1306.60
387.22	1275.88
387.43	1257.45
387.64	1316.84
387.85	1263.60
388.06	1269.74
388.27	1193.97
388.48	1183.73
388.68	1277.93
388.89	1263.60
389.10	1245.16
389.31	1253.36
389.52	1288.17
389.73	1282.03
389.93	1239.02
390.14	1251.31
390.35	1273.84
390.56	1312.75
390.77	1288.17
390.98	1290.22
391.18	1222.64
391.39	1208.30
391.60	1259.50
391.81	1306.60
392.02	1257.45
392.23	1302.51
392.43	1198.06
392.64	1370.09
392.85	1249.26
393.06	1294.32
393.27	1249.26
393.47	1249.26
393.68	1253.36
393.89	1312.75
394.10	1271.79
394.31	1265.64
394.52	1251.31
394.72	1277.93
394.93	1257.45
395.14	1257.45
395.35	1214.45
395.56	1312.75
395.76	1241.07
395.97	1312.75
396.18	1267.69
396.39	1279.98
396.60	1193.97
396.80	1241.07
397.01	1245.16
397.22	1286.12
397.43	1185.77
397.64	1269.74
397.84	1269.74
398.05	1279.98
398.26	1241.07
398.47	1273.84
398.67	1339.37
398.88	1245.16
399.09	1306.60
399.30	1257.45
399.51	1271.79
399.71	1277.93
399.92	1284.08
400.13	1290.22
400.34	1357.80
400.54	1251.31
400.75	1310.70
400.96	1183.73
401.17	1232.88
401.37	1286.12
401.58	1279.98
401.79	1239.02
402.00	1296.36
402.21	1310.70
402.41	1320.94
402.62	1279.98
402.83	1216.49
403.04	1263.60
403.24	1232.88
403.45	1257.45
403.66	1273.84
403.87	1259.50
404.07	1271.79
404.28	1292.27
404.49	1314.80
404.70	1263.60
404.90	1261.55
405.11	1263.60
405.32	1230.83
405.52	1261.55
405.73	1251.31
405.94	1320.94
406.15	1302.51
406.35	1228.78
406.56	1218.54
406.77	1234.93
406.98	1296.36
407.18	1228.78
407.39	1296.36
407.60	1241.07
407.80	1284.08
408.01	1335.28
408.22	1232.88
408.43	1183.73
408.63	1290.22
408.84	1245.16
409.05	1353.71
409.25	1251.31
409.46	1284.08
409.67	1243.12
409.88	1282.03
410.08	1224.69
410.29	1226.73
410.50	1230.83
410.70	1273.84
410.91	1275.88
411.12	1294.32
411.32	1208.30
411.53	1230.83
411.74	1275.88
411.95	1245.16
412.15	1273.84
412.36	1314.80
412.57	1251.31
412.77	1298.41
412.98	1257.45
413.19	1208.30
413.39	1259.50
413.60	1284.08
413.81	1226.73
414.01	1255.40
414.22	1232.88
414.43	1284.08
414.63	1335.28
414.84	1318.89
415.05	1327.08
415.25	1273.84
415.46	1228.78
415.67	1288.17
415.87	1202.16
416.08	1296.36
416.29	1292.27
416.49	1263.60
416.70	1271.79
416.91	1220.59
417.11	1298.41
417.32	1255.40
417.53	1306.60
417.73	1271.79
417.94	1214.45
418.15	1318.89
418.35	1249.26
418.56	1185.77
418.77	1239.02
418.97	1279.98
419.18	1249.26
419.38	1255.40
419.59	1259.50
419.80	1302.51
420.00	1279.98
420.21	1253.36
420.42	1277.93
420.62	1212.40
420.83	1243.12
421.04	1329.13
421.24	1288.17
421.45	1286.12
421.65	1220.59
421.86	1304.56
422.07	1249.26
422.27	1259.50
422.48	1253.36
422.69	1200.11
422.89	1251.31
423.10	1245.16
423.30	1224.69
423.51	1232.88
423.72	1275.88
423.92	1284.08
424.13	1249.26
424.33	1286.12
424.54	1239.02
424.75	1275.88
424.95	1318.89
425.16	1247.21
425.36	1286.12
425.57	1339.37
425.78	1286.12
425.98	1296.36
426.19	1245.16
426.39	1218.54
426.60	1284.08
426.81	1257.45
427.01	1290.22
427.22	1241.07
427.42	1284.08
427.63	1202.16
427.83	1284.08
428.04	1310.70
428.25	1245.16
428.45	1251.31
428.66	1269.74
428.86	1331.18
429.07	1253.36
429.28	1226.73
429.48	1230.83
429.69	1275.88
429.89	1279.98
430.10	1249.26
430.30	1249.26
430.51	1191.92
430.71	1316.84
430.92	1226.73
431.13	1236.97
431.33	1388.52
431.54	1312.75
431.74	1277.93
431.95	1208.30
432.15	1198.06
432.36	1239.02
432.56	1296.36
432.77	1224.69
432.98	1267.69
433.18	1312.75
433.39	1247.21
433.59	1247.21
433.80	1265.64
434.00	1263.60
434.21	1294.32
434.41	1224.69
434.62	1312.75
434.82	1253.36
435.03	1185.77
435.23	1232.88
435.44	1325.04
435.64	1310.70
435.85	1284.08
436.06	1218.54
436.26	1298.41
436.47	1257.45
436.67	1292.27
436.88	1282.03
437.08	1226.73
437.29	1308.65
437.49	1292.27
437.70	1302.51
437.90	1286.12
438.11	1243.12
438.31	1298.41
438.52	1249.26
438.72	1243.12
438.93	1294.32
439.13	1265.64
439.34	1255.40
439.54	1257.45
439.75	1318.89
439.95	1288.17
440.16	1253.36
440.36	1236.97
440.57	1302.51
440.77	1239.02
440.98	1337.32
441.18	1226.73
441.39	1261.55
441.59	1296.36
441.80	1204.21
442.00	1208.30
442.21	1257.45
442.41	1318.89
442.62	1251.31
442.82	1271.79
443.02	1277.93
443.23	1220.59
443.43	1341.42
443.64	1286.12
443.84	1282.03
444.05	1282.03
444.25	1224.69
444.46	1234.93
444.66	1294.32
444.87	1372.14
445.07	1290.22
445.28	1296.36
445.48	1261.55
445.69	1249.26
445.89	1277.93
446.09	1353.71
446.30	1267.69
446.50	1273.84
446.71	1298.41
446.91	1218.54
447.12	1308.65
447.32	1269.74
447.53	1310.70
447.73	1294.32
447.93	1245.16
448.14	1241.07
448.34	1263.60
448.55	1290.22
448.75	1279.98
448.96	1216.49
449.16	1288.17
449.36	1269.74
449.57	1284.08
449.77	1284.08
449.98	1222.64
450.18	1222.64
450.39	1232.88
450.59	1191.92
450.79	1257.45
451.00	1239.02
451.20	1257.45
451.41	1247.21
451.61	1304.56
451.81	1290.22
452.02	1232.88
452.22	1275.88
452.43	1320.94
452.63	1329.13
