SpectraSuite Data File
++++++++++++++++++++++++++++++++++++
Date: Sun Apr 03 19:55:52 CEST 2016
User: root
Dark Spectrum Present: No
Reference Spectrum Present: No
Number of Sampled Component Spectra: 1
Spectrometers: USB4C02835
Integration Time (usec): 10000 (USB4C02835)
Spectra Averaged: 1 (USB4C02835)
Boxcar Smoothing: 0 (USB4C02835)
Correct for Electrical Dark: No (USB4C02835)
Strobe/Lamp Enabled: No (USB4C02835)
Correct for Detector Non-linearity: No (USB4C02835)
Correct for Stray Light: No (USB4C02835)
Number of Pixels in Processed Spectrum: 3648
>>>>>Begin Processed Spectral Data<<<<<
177.47	1257.45
177.69	1257.45
177.91	1257.45
178.13	1179.63
178.36	1265.64
178.58	1300.46
178.80	1284.08
179.02	1294.32
179.24	1232.88
179.46	1196.01
179.68	1241.07
179.90	1234.93
180.13	1249.26
180.35	1304.56
180.57	1257.45
180.79	1212.40
181.01	1226.73
181.23	1300.46
181.45	1310.70
181.67	1308.65
181.90	1259.50
182.12	1214.45
182.34	1314.80
182.56	1228.78
182.78	1185.77
183.00	1224.69
183.22	1236.97
183.44	1212.40
183.66	1314.80
183.89	1239.02
184.11	1298.41
184.33	1243.12
184.55	1214.45
184.77	1325.04
184.99	1298.41
185.21	1282.03
185.43	1249.26
185.65	1290.22
185.87	1353.71
186.10	1320.94
186.32	1273.84
186.54	1236.97
186.76	1294.32
186.98	1224.69
187.20	1245.16
187.42	1335.28
187.64	1271.79
187.86	1316.84
188.08	1318.89
188.30	1220.59
188.52	1282.03
188.75	1259.50
188.97	1273.84
189.19	1257.45
189.41	1259.50
189.63	1251.31
189.85	1306.60
190.07	1294.32
190.29	1255.40
190.51	1230.83
190.73	1212.40
190.95	1290.22
191.17	1253.36
191.39	1239.02
191.61	1253.36
191.84	1230.83
192.06	1361.90
192.28	1314.80
192.50	1296.36
192.72	1208.30
192.94	1222.64
193.16	1294.32
193.38	1271.79
193.60	1179.63
193.82	1232.88
194.04	1243.12
194.26	1284.08
194.48	1251.31
194.70	1253.36
194.92	1282.03
195.14	1337.32
195.36	1284.08
195.58	1249.26
195.80	1286.12
196.02	1284.08
196.24	1259.50
196.46	1284.08
196.69	1208.30
196.91	1253.36
197.13	1230.83
197.35	1314.80
197.57	1294.32
197.79	1331.18
198.01	1224.69
198.23	1265.64
198.45	1224.69
198.67	1331.18
198.89	1261.55
199.11	1255.40
199.33	1234.93
199.55	1304.56
199.77	1279.98
199.99	1304.56
200.21	1271.79
200.43	1290.22
200.65	1247.21
200.87	1251.31
201.09	1306.60
201.31	1318.89
201.53	1247.21
201.75	1241.07
201.97	1288.17
202.19	1329.13
202.41	1331.18
202.63	1294.32
202.85	1273.84
203.07	1241.07
203.29	1263.60
203.51	1314.80
203.73	1288.17
203.95	1261.55
204.17	1224.69
204.39	1243.12
204.61	1230.83
204.83	1241.07
205.05	1206.25
205.27	1269.74
205.49	1267.69
205.71	1247.21
205.93	1333.23
206.15	1218.54
206.37	1232.88
206.59	1271.79
206.81	1314.80
207.03	1261.55
207.25	1333.23
207.47	1282.03
207.69	1271.79
207.91	1257.45
208.13	1271.79
208.34	1316.84
208.56	1232.88
208.78	1318.89
209.00	1325.04
209.22	1320.94
209.44	1214.45
209.66	1263.60
209.88	1302.51
210.10	1286.12
210.32	1220.59
210.54	1290.22
210.76	1263.60
210.98	1312.75
211.20	1165.29
211.42	1216.49
211.64	1279.98
211.86	1228.78
212.08	1255.40
212.30	1294.32
212.52	1239.02
212.74	1302.51
212.96	1327.08
213.17	1284.08
213.39	1241.07
213.61	1292.27
213.83	1296.36
214.05	1288.17
214.27	1234.93
214.49	1322.99
214.71	1290.22
214.93	1263.60
215.15	1277.93
215.37	1185.77
215.59	1271.79
215.81	1286.12
216.03	1255.40
216.24	1265.64
216.46	1216.49
216.68	1232.88
216.90	1331.18
217.12	1306.60
217.34	1210.35
217.56	1216.49
217.78	1277.93
218.00	1247.21
218.22	1292.27
218.44	1257.45
218.66	1292.27
218.87	1279.98
219.09	1220.59
219.31	1261.55
219.53	1243.12
219.75	1204.21
219.97	1331.18
220.19	1302.51
220.41	1232.88
220.63	1257.45
220.85	1249.26
221.06	1189.87
221.28	1282.03
221.50	1282.03
221.72	1290.22
221.94	1282.03
222.16	1304.56
222.38	1275.88
222.60	1263.60
222.82	1277.93
223.03	1300.46
223.25	1247.21
223.47	1277.93
223.69	1257.45
223.91	1290.22
224.13	1277.93
224.35	1228.78
224.57	1245.16
224.78	1265.64
225.00	1200.11
225.22	1212.40
225.44	1282.03
225.66	1245.16
225.88	1279.98
226.10	1253.36
226.32	1384.43
226.53	1329.13
226.75	1296.36
226.97	1279.98
227.19	1275.88
227.41	1218.54
227.63	1222.64
227.85	1230.83
228.06	1279.98
228.28	1224.69
228.50	1220.59
228.72	1196.01
228.94	1282.03
229.16	1279.98
229.37	1294.32
229.59	1312.75
229.81	1286.12
230.03	1298.41
230.25	1269.74
230.47	1271.79
230.69	1329.13
230.90	1253.36
231.12	1267.69
231.34	1304.56
231.56	1210.35
231.78	1273.84
232.00	1294.32
232.21	1277.93
232.43	1265.64
232.65	1255.40
232.87	1296.36
233.09	1318.89
233.30	1196.01
233.52	1236.97
233.74	1316.84
233.96	1228.78
234.18	1363.95
234.40	1191.92
234.61	1290.22
234.83	1263.60
235.05	1212.40
235.27	1314.80
235.49	1257.45
235.70	1214.45
235.92	1298.41
236.14	1284.08
236.36	1298.41
236.58	1187.82
236.79	1279.98
237.01	1370.09
237.23	1306.60
237.45	1257.45
237.67	1175.53
237.88	1320.94
238.10	1265.64
238.32	1271.79
238.54	1191.92
238.76	1234.93
238.97	1241.07
239.19	1181.68
239.41	1273.84
239.63	1253.36
239.85	1320.94
240.06	1259.50
240.28	1263.60
240.50	1273.84
240.72	1232.88
240.93	1214.45
241.15	1230.83
241.37	1255.40
241.59	1232.88
241.81	1265.64
242.02	1224.69
242.24	1318.89
242.46	1304.56
242.68	1245.16
242.89	1282.03
243.11	1302.51
243.33	1214.45
243.55	1249.26
243.76	1234.93
243.98	1257.45
244.20	1265.64
244.42	1236.97
244.64	1245.16
244.85	1257.45
245.07	1210.35
245.29	1300.46
245.51	1288.17
245.72	1187.82
245.94	1228.78
246.16	1271.79
246.38	1325.04
246.59	1294.32
246.81	1253.36
247.03	1239.02
247.24	1241.07
247.46	1298.41
247.68	1222.64
247.90	1271.79
248.11	1210.35
248.33	1234.93
248.55	1251.31
248.77	1318.89
248.98	1284.08
249.20	1310.70
249.42	1175.53
249.64	1249.26
249.85	1312.75
250.07	1282.03
250.29	1288.17
250.50	1302.51
250.72	1298.41
250.94	1269.74
251.16	1294.32
251.37	1298.41
251.59	1263.60
251.81	1249.26
252.02	1247.21
252.24	1239.02
252.46	1298.41
252.68	1308.65
252.89	1294.32
253.11	1257.45
253.33	1302.51
253.54	1259.50
253.76	1267.69
253.98	1216.49
254.20	1177.58
254.41	1157.10
254.63	1290.22
254.85	1218.54
255.06	1224.69
255.28	1341.42
255.50	1261.55
255.71	1306.60
255.93	1259.50
256.15	1282.03
256.36	1257.45
256.58	1214.45
256.80	1271.79
257.02	1200.11
257.23	1343.47
257.45	1230.83
257.67	1230.83
257.88	1249.26
258.10	1261.55
258.32	1259.50
258.53	1277.93
258.75	1222.64
258.97	1206.25
259.18	1294.32
259.40	1310.70
259.62	1243.12
259.83	1261.55
260.05	1277.93
260.27	1251.31
260.48	1320.94
260.70	1275.88
260.92	1277.93
261.13	1370.09
261.35	1316.84
261.57	1265.64
261.78	1267.69
262.00	1343.47
262.22	1318.89
262.43	1214.45
262.65	1265.64
262.86	1273.84
263.08	1239.02
263.30	1267.69
263.51	1292.27
263.73	1306.60
263.95	1273.84
264.16	1267.69
264.38	1236.97
264.60	1292.27
264.81	1267.69
265.03	1247.21
265.25	1218.54
265.46	1212.40
265.68	1304.56
265.89	1241.07
266.11	1234.93
266.33	1236.97
266.54	1269.74
266.76	1236.97
266.98	1290.22
267.19	1267.69
267.41	1298.41
267.62	1259.50
267.84	1253.36
268.06	1353.71
268.27	1236.97
268.49	1312.75
268.70	1257.45
268.92	1267.69
269.14	1247.21
269.35	1257.45
269.57	1257.45
269.79	1304.56
270.00	1232.88
270.22	1232.88
270.43	1327.08
270.65	1249.26
270.87	1296.36
271.08	1253.36
271.30	1222.64
271.51	1236.97
271.73	1290.22
271.95	1279.98
272.16	1304.56
272.38	1310.70
272.59	1247.21
272.81	1277.93
273.02	1247.21
273.24	1325.04
273.46	1320.94
273.67	1267.69
273.89	1302.51
274.10	1277.93
274.32	1271.79
274.54	1273.84
274.75	1214.45
274.97	1273.84
275.18	1236.97
275.40	1296.36
275.61	1327.08
275.83	1279.98
276.05	1335.28
276.26	1265.64
276.48	1232.88
276.69	1337.32
276.91	1208.30
277.12	1304.56
277.34	1259.50
277.55	1312.75
277.77	1273.84
277.99	1320.94
278.20	1255.40
278.42	1265.64
278.63	1245.16
278.85	1239.02
279.06	1300.46
279.28	1239.02
279.49	1245.16
279.71	1243.12
279.93	1239.02
280.14	1282.03
280.36	1265.64
280.57	1265.64
280.79	1216.49
281.00	1277.93
281.22	1253.36
281.43	1230.83
281.65	1245.16
281.86	1269.74
282.08	1286.12
282.29	1296.36
282.51	1181.68
282.73	1243.12
282.94	1271.79
283.16	1269.74
283.37	1288.17
283.59	1255.40
283.80	1265.64
284.02	1206.25
284.23	1288.17
284.45	1271.79
284.66	1257.45
284.88	1263.60
285.09	1312.75
285.31	1300.46
285.52	1253.36
285.74	1261.55
285.95	1243.12
286.17	1316.84
286.38	1318.89
286.60	1290.22
286.81	1241.07
287.03	1255.40
287.24	1245.16
287.46	1232.88
287.67	1249.26
287.89	1226.73
288.10	1212.40
288.32	1284.08
288.53	1224.69
288.75	1167.34
288.96	1224.69
289.18	1282.03
289.39	1241.07
289.61	1247.21
289.82	1243.12
290.04	1304.56
290.25	1290.22
290.47	1296.36
290.68	1306.60
290.90	1247.21
291.11	1234.93
291.33	1239.02
291.54	1359.85
291.76	1288.17
291.97	1277.93
292.18	1261.55
292.40	1337.32
292.61	1232.88
292.83	1243.12
293.04	1304.56
293.26	1300.46
293.47	1273.84
293.69	1230.83
293.90	1259.50
294.12	1257.45
294.33	1294.32
294.55	1304.56
294.76	1200.11
294.97	1236.97
295.19	1351.66
295.40	1331.18
295.62	1322.99
295.83	1187.82
296.05	1249.26
296.26	1220.59
296.48	1265.64
296.69	1259.50
296.90	1232.88
297.12	1316.84
297.33	1290.22
297.55	1214.45
297.76	1318.89
297.98	1253.36
298.19	1304.56
298.41	1279.98
298.62	1290.22
298.83	1308.65
299.05	1236.97
299.26	1282.03
299.48	1275.88
299.69	1261.55
299.90	1257.45
300.12	1277.93
300.33	1257.45
300.55	1230.83
300.76	1316.84
300.98	1247.21
301.19	1288.17
301.40	1232.88
301.62	1216.49
301.83	1263.60
302.05	1255.40
302.26	1253.36
302.47	1196.01
302.69	1232.88
302.90	1259.50
303.12	1239.02
303.33	1253.36
303.54	1282.03
303.76	1241.07
303.97	1282.03
304.19	1226.73
304.40	1253.36
304.61	1310.70
304.83	1255.40
305.04	1294.32
305.26	1265.64
305.47	1282.03
305.68	1290.22
305.90	1167.34
306.11	1284.08
306.33	1273.84
306.54	1222.64
306.75	1288.17
306.97	1251.31
307.18	1198.06
307.39	1300.46
307.61	1296.36
307.82	1189.87
308.04	1251.31
308.25	1212.40
308.46	1325.04
308.68	1355.76
308.89	1239.02
309.10	1310.70
309.32	1259.50
309.53	1265.64
309.74	1288.17
309.96	1212.40
310.17	1251.31
310.39	1310.70
310.60	1241.07
310.81	1279.98
311.03	1292.27
311.24	1241.07
311.45	1271.79
311.67	1234.93
311.88	1357.80
312.09	1251.31
312.31	1302.51
312.52	1294.32
312.73	1259.50
312.95	1189.87
313.16	1347.56
313.37	1271.79
313.59	1259.50
313.80	1271.79
314.01	1271.79
314.23	1253.36
314.44	1279.98
314.65	1265.64
314.87	1337.32
315.08	1286.12
315.29	1316.84
315.51	1275.88
315.72	1312.75
315.93	1288.17
316.15	1292.27
316.36	1271.79
316.57	1236.97
316.79	1325.04
317.00	1239.02
317.21	1251.31
317.43	1327.08
317.64	1232.88
317.85	1239.02
318.07	1335.28
318.28	1279.98
318.49	1232.88
318.70	1284.08
318.92	1277.93
319.13	1175.53
319.34	1245.16
319.56	1255.40
319.77	1275.88
319.98	1345.52
320.20	1228.78
320.41	1189.87
320.62	1314.80
320.83	1236.97
321.05	1269.74
321.26	1275.88
321.47	1263.60
321.69	1271.79
321.90	1316.84
322.11	1333.23
322.32	1265.64
322.54	1308.65
322.75	1282.03
322.96	1220.59
323.18	1288.17
323.39	1224.69
323.60	1259.50
323.81	1187.82
324.03	1224.69
324.24	1298.41
324.45	1245.16
324.66	1216.49
324.88	1300.46
325.09	1232.88
325.30	1259.50
325.52	1329.13
325.73	1265.64
325.94	1267.69
326.15	1271.79
326.37	1267.69
326.58	1322.99
326.79	1284.08
327.00	1286.12
327.22	1200.11
327.43	1298.41
327.64	1284.08
327.85	1257.45
328.07	1290.22
328.28	1255.40
328.49	1148.91
328.70	1212.40
328.92	1277.93
329.13	1247.21
329.34	1271.79
329.55	1193.97
329.76	1220.59
329.98	1255.40
330.19	1304.56
330.40	1286.12
330.61	1255.40
330.83	1337.32
331.04	1290.22
331.25	1282.03
331.46	1325.04
331.68	1245.16
331.89	1347.56
332.10	1218.54
332.31	1245.16
332.52	1273.84
332.74	1212.40
332.95	1251.31
333.16	1302.51
333.37	1322.99
333.58	1261.55
333.80	1222.64
334.01	1222.64
334.22	1279.98
334.43	1236.97
334.64	1282.03
334.86	1296.36
335.07	1247.21
335.28	1298.41
335.49	1265.64
335.70	1216.49
335.92	1253.36
336.13	1378.28
336.34	1236.97
336.55	1306.60
336.76	1226.73
336.98	1261.55
337.19	1296.36
337.40	1257.45
337.61	1241.07
337.82	1228.78
338.04	1292.27
338.25	1202.16
338.46	1275.88
338.67	1255.40
338.88	1214.45
339.09	1298.41
339.31	1316.84
339.52	1212.40
339.73	1298.41
339.94	1222.64
340.15	1316.84
340.36	1214.45
340.58	1306.60
340.79	1261.55
341.00	1243.12
341.21	1251.31
341.42	1308.65
341.63	1212.40
341.85	1198.06
342.06	1183.73
342.27	1261.55
342.48	1193.97
342.69	1269.74
342.90	1279.98
343.12	1218.54
343.33	1234.93
343.54	1296.36
343.75	1331.18
343.96	1273.84
344.17	1249.26
344.38	1296.36
344.60	1267.69
344.81	1273.84
345.02	1228.78
345.23	1263.60
345.44	1290.22
345.65	1275.88
345.86	1282.03
346.07	1210.35
346.29	1310.70
346.50	1302.51
346.71	1263.60
346.92	1208.30
347.13	1294.32
347.34	1257.45
347.55	1318.89
347.76	1290.22
347.98	1282.03
348.19	1337.32
348.40	1263.60
348.61	1208.30
348.82	1298.41
349.03	1261.55
349.24	1337.32
349.45	1290.22
349.66	1306.60
349.88	1265.64
350.09	1290.22
350.30	1277.93
350.51	1286.12
350.72	1251.31
350.93	1263.60
351.14	1337.32
351.35	1245.16
351.56	1245.16
351.77	1232.88
351.99	1253.36
352.20	1320.94
352.41	1236.97
352.62	1310.70
352.83	1327.08
353.04	1306.60
353.25	1310.70
353.46	1343.47
353.67	1241.07
353.88	1220.59
354.09	1312.75
354.30	1318.89
354.52	1249.26
354.73	1314.80
354.94	1177.58
355.15	1335.28
355.36	1230.83
355.57	1282.03
355.78	1300.46
355.99	1247.21
356.20	1325.04
356.41	1269.74
356.62	1251.31
356.83	1263.60
357.04	1271.79
357.25	1271.79
357.46	1228.78
357.68	1282.03
357.89	1275.88
358.10	1253.36
358.31	1212.40
358.52	1273.84
358.73	1247.21
358.94	1216.49
359.15	1261.55
359.36	1273.84
359.57	1214.45
359.78	1228.78
359.99	1224.69
360.20	1198.06
360.41	1284.08
360.62	1271.79
360.83	1224.69
361.04	1265.64
361.25	1206.25
361.46	1181.68
361.67	1310.70
361.88	1249.26
362.09	1286.12
362.30	1306.60
362.51	1212.40
362.72	1310.70
362.93	1316.84
363.14	1298.41
363.35	1269.74
363.56	1261.55
363.78	1241.07
363.99	1271.79
364.20	1200.11
364.41	1222.64
364.62	1243.12
364.83	1222.64
365.04	1259.50
365.25	1282.03
365.46	1329.13
365.67	1279.98
365.88	1245.16
366.09	1239.02
366.30	1359.85
366.51	1282.03
366.72	1290.22
366.93	1236.97
367.14	1251.31
367.35	1249.26
367.56	1294.32
367.77	1249.26
367.98	1304.56
368.18	1296.36
368.39	1273.84
368.60	1267.69
368.81	1282.03
369.02	1273.84
369.23	1271.79
369.44	1308.65
369.65	1306.60
369.86	1261.55
370.07	1206.25
370.28	1314.80
370.49	1253.36
370.70	1247.21
370.91	1222.64
371.12	1345.52
371.33	1294.32
371.54	1288.17
371.75	1271.79
371.96	1286.12
372.17	1314.80
372.38	1255.40
372.59	1275.88
372.80	1269.74
373.01	1193.97
373.22	1265.64
373.43	1216.49
373.64	1302.51
373.85	1318.89
374.06	1312.75
374.26	1212.40
374.47	1325.04
374.68	1253.36
374.89	1183.73
375.10	1298.41
375.31	1271.79
375.52	1312.75
375.73	1228.78
375.94	1284.08
376.15	1234.93
376.36	1329.13
376.57	1216.49
376.78	1261.55
376.99	1318.89
377.20	1275.88
377.40	1167.34
377.61	1249.26
377.82	1341.42
378.03	1241.07
378.24	1282.03
378.45	1341.42
378.66	1218.54
378.87	1155.05
379.08	1269.74
379.29	1273.84
379.50	1245.16
379.71	1206.25
379.91	1320.94
380.12	1206.25
380.33	1228.78
380.54	1234.93
380.75	1327.08
380.96	1257.45
381.17	1249.26
381.38	1286.12
381.59	1306.60
381.80	1271.79
382.00	1216.49
382.21	1296.36
382.42	1322.99
382.63	1331.18
382.84	1325.04
383.05	1257.45
383.26	1302.51
383.47	1251.31
383.68	1236.97
383.88	1292.27
384.09	1222.64
384.30	1257.45
384.51	1243.12
384.72	1224.69
384.93	1247.21
385.14	1255.40
385.35	1185.77
385.55	1300.46
385.76	1245.16
385.97	1359.85
386.18	1288.17
386.39	1241.07
386.60	1306.60
386.81	1269.74
387.02	1343.47
387.22	1370.09
387.43	1304.56
387.64	1228.78
387.85	1245.16
388.06	1306.60
388.27	1296.36
388.48	1351.66
388.68	1302.51
388.89	1224.69
389.10	1220.59
389.31	1257.45
389.52	1282.03
389.73	1202.16
389.93	1183.73
390.14	1282.03
390.35	1263.60
390.56	1202.16
390.77	1234.93
390.98	1236.97
391.18	1279.98
391.39	1232.88
391.60	1277.93
391.81	1284.08
392.02	1265.64
392.23	1273.84
392.43	1228.78
392.64	1290.22
392.85	1230.83
393.06	1257.45
393.27	1269.74
393.47	1263.60
393.68	1230.83
393.89	1247.21
394.10	1200.11
394.31	1345.52
394.52	1191.92
394.72	1228.78
394.93	1284.08
395.14	1228.78
395.35	1288.17
395.56	1218.54
395.76	1228.78
395.97	1220.59
396.18	1296.36
396.39	1181.68
396.60	1243.12
396.80	1251.31
397.01	1220.59
397.22	1277.93
397.43	1294.32
397.64	1275.88
397.84	1257.45
398.05	1247.21
398.26	1271.79
398.47	1290.22
398.67	1277.93
398.88	1239.02
399.09	1236.97
399.30	1312.75
399.51	1282.03
399.71	1298.41
399.92	1208.30
400.13	1308.65
400.34	1187.82
400.54	1218.54
400.75	1271.79
400.96	1277.93
401.17	1183.73
401.37	1269.74
401.58	1224.69
401.79	1275.88
402.00	1220.59
402.21	1224.69
402.41	1255.40
402.62	1218.54
402.83	1275.88
403.04	1288.17
403.24	1265.64
403.45	1243.12
403.66	1288.17
403.87	1204.21
404.07	1279.98
404.28	1239.02
404.49	1308.65
404.70	1286.12
404.90	1253.36
405.11	1224.69
405.32	1253.36
405.52	1245.16
405.73	1286.12
405.94	1228.78
406.15	1312.75
406.35	1247.21
406.56	1226.73
406.77	1329.13
406.98	1255.40
407.18	1232.88
407.39	1228.78
407.60	1284.08
407.80	1204.21
408.01	1267.69
408.22	1302.51
408.43	1226.73
408.63	1226.73
408.84	1265.64
409.05	1279.98
409.25	1259.50
409.46	1214.45
409.67	1214.45
409.88	1257.45
410.08	1312.75
410.29	1232.88
410.50	1212.40
410.70	1279.98
410.91	1232.88
411.12	1282.03
411.32	1318.89
411.53	1288.17
411.74	1208.30
411.95	1302.51
412.15	1282.03
412.36	1294.32
412.57	1325.04
412.77	1302.51
412.98	1226.73
413.19	1298.41
413.39	1318.89
413.60	1290.22
413.81	1255.40
414.01	1296.36
414.22	1263.60
414.43	1296.36
414.63	1234.93
414.84	1296.36
415.05	1302.51
415.25	1200.11
415.46	1263.60
415.67	1300.46
415.87	1273.84
416.08	1236.97
416.29	1198.06
416.49	1275.88
416.70	1234.93
416.91	1222.64
417.11	1255.40
417.32	1304.56
417.53	1243.12
417.73	1284.08
417.94	1310.70
418.15	1257.45
418.35	1277.93
418.56	1300.46
418.77	1204.21
418.97	1284.08
419.18	1239.02
419.38	1271.79
419.59	1189.87
419.80	1325.04
420.00	1279.98
420.21	1308.65
420.42	1245.16
420.62	1249.26
420.83	1314.80
421.04	1320.94
421.24	1331.18
421.45	1224.69
421.65	1275.88
421.86	1253.36
422.07	1224.69
422.27	1331.18
422.48	1228.78
422.69	1288.17
422.89	1245.16
423.10	1322.99
423.30	1331.18
423.51	1263.60
423.72	1249.26
423.92	1263.60
424.13	1316.84
424.33	1320.94
424.54	1282.03
424.75	1193.97
424.95	1331.18
425.16	1198.06
425.36	1284.08
425.57	1290.22
425.78	1265.64
425.98	1357.80
426.19	1253.36
426.39	1279.98
426.60	1316.84
426.81	1277.93
427.01	1267.69
427.22	1269.74
427.42	1255.40
427.63	1335.28
427.83	1327.08
428.04	1333.23
428.25	1253.36
428.45	1239.02
428.66	1359.85
428.86	1239.02
429.07	1253.36
429.28	1234.93
429.48	1320.94
429.69	1327.08
429.89	1247.21
430.10	1265.64
430.30	1271.79
430.51	1282.03
430.71	1310.70
430.92	1232.88
431.13	1308.65
431.33	1277.93
431.54	1263.60
431.74	1282.03
431.95	1267.69
432.15	1228.78
432.36	1245.16
432.56	1282.03
432.77	1271.79
432.98	1249.26
433.18	1316.84
433.39	1216.49
433.59	1284.08
433.80	1267.69
434.00	1265.64
434.21	1261.55
434.41	1249.26
434.62	1310.70
434.82	1294.32
435.03	1327.08
435.23	1265.64
435.44	1263.60
435.64	1331.18
435.85	1255.40
436.06	1206.25
436.26	1249.26
436.47	1310.70
436.67	1273.84
436.88	1279.98
437.08	1273.84
437.29	1212.40
437.49	1329.13
437.70	1253.36
437.90	1306.60
438.11	1230.83
438.31	1265.64
438.52	1236.97
438.72	1294.32
438.93	1245.16
439.13	1277.93
439.34	1271.79
439.54	1255.40
439.75	1261.55
439.95	1273.84
440.16	1296.36
440.36	1298.41
440.57	1308.65
440.77	1327.08
440.98	1304.56
441.18	1259.50
441.39	1267.69
441.59	1304.56
441.80	1316.84
442.00	1290.22
442.21	1255.40
442.41	1236.97
442.62	1314.80
442.82	1294.32
443.02	1239.02
443.23	1251.31
443.43	1271.79
443.64	1333.23
443.84	1224.69
444.05	1220.59
444.25	1230.83
444.46	1318.89
444.66	1245.16
444.87	1279.98
445.07	1206.25
445.28	1296.36
445.48	1263.60
445.69	1316.84
445.89	1294.32
446.09	1241.07
446.30	1247.21
446.50	1245.16
446.71	1239.02
446.91	1263.60
447.12	1265.64
447.32	1361.90
447.53	1247.21
447.73	1316.84
447.93	1234.93
448.14	1257.45
448.34	1253.36
448.55	1296.36
448.75	1304.56
448.96	1296.36
449.16	1304.56
449.36	1331.18
449.57	1265.64
449.77	1279.98
449.98	1290.22
450.18	1290.22
450.39	1255.40
450.59	1322.99
450.79	1232.88
451.00	1271.79
451.20	1316.84
451.41	1150.96
451.61	1286.12
451.81	1234.93
452.02	1288.17
452.22	1269.74
452.43	1230.83
452.63	1314.80
