SpectraSuite Data File
++++++++++++++++++++++++++++++++++++
Date: Sun Apr 03 19:55:24 CEST 2016
User: root
Dark Spectrum Present: No
Reference Spectrum Present: No
Number of Sampled Component Spectra: 1
Spectrometers: USB4C02835
Integration Time (usec): 10000 (USB4C02835)
Spectra Averaged: 1 (USB4C02835)
Boxcar Smoothing: 0 (USB4C02835)
Correct for Electrical Dark: No (USB4C02835)
Strobe/Lamp Enabled: No (USB4C02835)
Correct for Detector Non-linearity: No (USB4C02835)
Correct for Stray Light: No (USB4C02835)
Number of Pixels in Processed Spectrum: 3648
>>>>>Begin Processed Spectral Data<<<<<
177.47	1196.01
177.69	1196.01
177.91	1196.01
178.13	1259.50
178.36	1239.02
178.58	1277.93
178.80	1208.30
179.02	1251.31
179.24	1314.80
179.46	1212.40
179.68	1273.84
179.90	1220.59
180.13	1302.51
180.35	1331.18
180.57	1216.49
180.79	1304.56
181.01	1257.45
181.23	1228.78
181.45	1265.64
181.67	1177.58
181.90	1200.11
182.12	1279.98
182.34	1198.06
182.56	1296.36
182.78	1212.40
183.00	1263.60
183.22	1306.60
183.44	1175.53
183.66	1347.56
183.89	1286.12
184.11	1208.30
184.33	1292.27
184.55	1312.75
184.77	1265.64
184.99	1263.60
185.21	1185.77
185.43	1261.55
185.65	1273.84
185.87	1222.64
186.10	1230.83
186.32	1232.88
186.54	1277.93
186.76	1226.73
186.98	1292.27
187.20	1284.08
187.42	1259.50
187.64	1230.83
187.86	1236.97
188.08	1271.79
188.30	1189.87
188.52	1241.07
188.75	1282.03
188.97	1265.64
189.19	1288.17
189.41	1265.64
189.63	1218.54
189.85	1298.41
190.07	1224.69
190.29	1300.46
190.51	1275.88
190.73	1249.26
190.95	1247.21
191.17	1290.22
191.39	1198.06
191.61	1259.50
191.84	1210.35
192.06	1228.78
192.28	1269.74
192.50	1261.55
192.72	1290.22
192.94	1286.12
193.16	1322.99
193.38	1290.22
193.60	1247.21
193.82	1286.12
194.04	1251.31
194.26	1279.98
194.48	1304.56
194.70	1288.17
194.92	1335.28
195.14	1245.16
195.36	1300.46
195.58	1298.41
195.80	1216.49
196.02	1224.69
196.24	1286.12
196.46	1259.50
196.69	1257.45
196.91	1269.74
197.13	1312.75
197.35	1277.93
197.57	1286.12
197.79	1241.07
198.01	1208.30
198.23	1300.46
198.45	1277.93
198.67	1331.18
198.89	1255.40
199.11	1282.03
199.33	1300.46
199.55	1236.97
199.77	1255.40
199.99	1245.16
200.21	1243.12
200.43	1282.03
200.65	1310.70
200.87	1347.56
201.09	1320.94
201.31	1224.69
201.53	1204.21
201.75	1234.93
201.97	1214.45
202.19	1247.21
202.41	1286.12
202.63	1302.51
202.85	1302.51
203.07	1232.88
203.29	1267.69
203.51	1255.40
203.73	1316.84
203.95	1241.07
204.17	1265.64
204.39	1230.83
204.61	1292.27
204.83	1198.06
205.05	1204.21
205.27	1273.84
205.49	1331.18
205.71	1230.83
205.93	1247.21
206.15	1267.69
206.37	1296.36
206.59	1337.32
206.81	1296.36
207.03	1288.17
207.25	1265.64
207.47	1269.74
207.69	1277.93
207.91	1275.88
208.13	1357.80
208.34	1284.08
208.56	1251.31
208.78	1265.64
209.00	1243.12
209.22	1255.40
209.44	1277.93
209.66	1296.36
209.88	1212.40
210.10	1269.74
210.32	1269.74
210.54	1255.40
210.76	1286.12
210.98	1241.07
211.20	1275.88
211.42	1241.07
211.64	1277.93
211.86	1267.69
212.08	1279.98
212.30	1302.51
212.52	1218.54
212.74	1298.41
212.96	1294.32
213.17	1265.64
213.39	1236.97
213.61	1282.03
213.83	1304.56
214.05	1216.49
214.27	1294.32
214.49	1282.03
214.71	1304.56
214.93	1269.74
215.15	1312.75
215.37	1206.25
215.59	1261.55
215.81	1279.98
216.03	1222.64
216.24	1271.79
216.46	1208.30
216.68	1279.98
216.90	1257.45
217.12	1302.51
217.34	1251.31
217.56	1245.16
217.78	1290.22
218.00	1339.37
218.22	1275.88
218.44	1288.17
218.66	1267.69
218.87	1312.75
219.09	1212.40
219.31	1288.17
219.53	1210.35
219.75	1271.79
219.97	1236.97
220.19	1234.93
220.41	1218.54
220.63	1333.23
220.85	1234.93
221.06	1277.93
221.28	1294.32
221.50	1302.51
221.72	1214.45
221.94	1257.45
222.16	1255.40
222.38	1214.45
222.60	1302.51
222.82	1265.64
223.03	1331.18
223.25	1216.49
223.47	1343.47
223.69	1298.41
223.91	1277.93
224.13	1265.64
224.35	1206.25
224.57	1234.93
224.78	1269.74
225.00	1265.64
225.22	1269.74
225.44	1257.45
225.66	1269.74
225.88	1249.26
226.10	1216.49
226.32	1273.84
226.53	1366.00
226.75	1245.16
226.97	1282.03
227.19	1265.64
227.41	1220.59
227.63	1232.88
227.85	1247.21
228.06	1247.21
228.28	1275.88
228.50	1314.80
228.72	1282.03
228.94	1249.26
229.16	1265.64
229.37	1259.50
229.59	1288.17
229.81	1232.88
230.03	1284.08
230.25	1288.17
230.47	1204.21
230.69	1257.45
230.90	1255.40
231.12	1273.84
231.34	1296.36
231.56	1298.41
231.78	1304.56
232.00	1277.93
232.21	1214.45
232.43	1304.56
232.65	1243.12
232.87	1308.65
233.09	1308.65
233.30	1308.65
233.52	1300.46
233.74	1232.88
233.96	1284.08
234.18	1312.75
234.40	1249.26
234.61	1255.40
234.83	1325.04
235.05	1300.46
235.27	1306.60
235.49	1224.69
235.70	1312.75
235.92	1282.03
236.14	1288.17
236.36	1312.75
236.58	1290.22
236.79	1228.78
237.01	1249.26
237.23	1306.60
237.45	1341.42
237.67	1241.07
237.88	1290.22
238.10	1261.55
238.32	1353.71
238.54	1261.55
238.76	1253.36
238.97	1327.08
239.19	1298.41
239.41	1228.78
239.63	1310.70
239.85	1232.88
240.06	1282.03
240.28	1206.25
240.50	1251.31
240.72	1347.56
240.93	1261.55
241.15	1361.90
241.37	1304.56
241.59	1277.93
241.81	1298.41
242.02	1312.75
242.24	1261.55
242.46	1304.56
242.68	1294.32
242.89	1318.89
243.11	1245.16
243.33	1245.16
243.55	1275.88
243.76	1253.36
243.98	1210.35
244.20	1193.97
244.42	1282.03
244.64	1359.85
244.85	1279.98
245.07	1232.88
245.29	1363.95
245.51	1308.65
245.72	1234.93
245.94	1259.50
246.16	1282.03
246.38	1294.32
246.59	1296.36
246.81	1314.80
247.03	1265.64
247.24	1236.97
247.46	1327.08
247.68	1249.26
247.90	1300.46
248.11	1247.21
248.33	1314.80
248.55	1288.17
248.77	1304.56
248.98	1333.23
249.20	1236.97
249.42	1306.60
249.64	1273.84
249.85	1347.56
250.07	1292.27
250.29	1253.36
250.50	1220.59
250.72	1325.04
250.94	1259.50
251.16	1339.37
251.37	1255.40
251.59	1265.64
251.81	1294.32
252.02	1241.07
252.24	1273.84
252.46	1286.12
252.68	1245.16
252.89	1298.41
253.11	1290.22
253.33	1304.56
253.54	1257.45
253.76	1165.29
253.98	1275.88
254.20	1347.56
254.41	1249.26
254.63	1292.27
254.85	1261.55
255.06	1312.75
255.28	1265.64
255.50	1314.80
255.71	1275.88
255.93	1257.45
256.15	1228.78
256.36	1322.99
256.58	1247.21
256.80	1257.45
257.02	1247.21
257.23	1169.39
257.45	1279.98
257.67	1347.56
257.88	1202.16
258.10	1302.51
258.32	1306.60
258.53	1343.47
258.75	1306.60
258.97	1302.51
259.18	1292.27
259.40	1265.64
259.62	1220.59
259.83	1296.36
260.05	1255.40
260.27	1247.21
260.48	1257.45
260.70	1279.98
260.92	1269.74
261.13	1363.95
261.35	1265.64
261.57	1265.64
261.78	1224.69
262.00	1316.84
262.22	1265.64
262.43	1279.98
262.65	1249.26
262.86	1290.22
263.08	1239.02
263.30	1286.12
263.51	1261.55
263.73	1200.11
263.95	1292.27
264.16	1208.30
264.38	1322.99
264.60	1230.83
264.81	1298.41
265.03	1236.97
265.25	1271.79
265.46	1300.46
265.68	1226.73
265.89	1310.70
266.11	1261.55
266.33	1193.97
266.54	1263.60
266.76	1273.84
266.98	1216.49
267.19	1282.03
267.41	1269.74
267.62	1271.79
267.84	1271.79
268.06	1251.31
268.27	1226.73
268.49	1288.17
268.70	1239.02
268.92	1220.59
269.14	1286.12
269.35	1308.65
269.57	1243.12
269.79	1302.51
270.00	1224.69
270.22	1232.88
270.43	1288.17
270.65	1296.36
270.87	1206.25
271.08	1294.32
271.30	1275.88
271.51	1251.31
271.73	1245.16
271.95	1271.79
272.16	1306.60
272.38	1296.36
272.59	1249.26
272.81	1224.69
273.02	1263.60
273.24	1265.64
273.46	1290.22
273.67	1322.99
273.89	1220.59
274.10	1263.60
274.32	1216.49
274.54	1271.79
274.75	1302.51
274.97	1277.93
275.18	1294.32
275.40	1265.64
275.61	1263.60
275.83	1292.27
276.05	1318.89
276.26	1255.40
276.48	1290.22
276.69	1144.81
276.91	1273.84
277.12	1253.36
277.34	1232.88
277.55	1345.52
277.77	1245.16
277.99	1288.17
278.20	1269.74
278.42	1269.74
278.63	1243.12
278.85	1255.40
279.06	1214.45
279.28	1316.84
279.49	1271.79
279.71	1322.99
279.93	1300.46
280.14	1284.08
280.36	1267.69
280.57	1277.93
280.79	1271.79
281.00	1304.56
281.22	1187.82
281.43	1261.55
281.65	1251.31
281.86	1284.08
282.08	1222.64
282.29	1294.32
282.51	1322.99
282.73	1284.08
282.94	1329.13
283.16	1255.40
283.37	1347.56
283.59	1286.12
283.80	1228.78
284.02	1302.51
284.23	1241.07
284.45	1296.36
284.66	1230.83
284.88	1253.36
285.09	1279.98
285.31	1265.64
285.52	1320.94
285.74	1249.26
285.95	1300.46
286.17	1292.27
286.38	1226.73
286.60	1202.16
286.81	1241.07
287.03	1255.40
287.24	1286.12
287.46	1241.07
287.67	1337.32
287.89	1292.27
288.10	1226.73
288.32	1236.97
288.53	1212.40
288.75	1230.83
288.96	1204.21
289.18	1267.69
289.39	1302.51
289.61	1259.50
289.82	1261.55
290.04	1277.93
290.25	1304.56
290.47	1230.83
290.68	1302.51
290.90	1284.08
291.11	1216.49
291.33	1292.27
291.54	1298.41
291.76	1361.90
291.97	1292.27
292.18	1175.53
292.40	1314.80
292.61	1271.79
292.83	1239.02
293.04	1273.84
293.26	1218.54
293.47	1167.34
293.69	1271.79
293.90	1306.60
294.12	1261.55
294.33	1224.69
294.55	1355.76
294.76	1232.88
294.97	1234.93
295.19	1345.52
295.40	1234.93
295.62	1222.64
295.83	1302.51
296.05	1253.36
296.26	1243.12
296.48	1288.17
296.69	1267.69
296.90	1296.36
297.12	1320.94
297.33	1269.74
297.55	1245.16
297.76	1245.16
297.98	1282.03
298.19	1271.79
298.41	1247.21
298.62	1218.54
298.83	1232.88
299.05	1259.50
299.26	1210.35
299.48	1296.36
299.69	1216.49
299.90	1300.46
300.12	1294.32
300.33	1236.97
300.55	1304.56
300.76	1200.11
300.98	1267.69
301.19	1300.46
301.40	1257.45
301.62	1212.40
301.83	1284.08
302.05	1239.02
302.26	1259.50
302.47	1282.03
302.69	1208.30
302.90	1279.98
303.12	1179.63
303.33	1296.36
303.54	1239.02
303.76	1239.02
303.97	1263.60
304.19	1247.21
304.40	1236.97
304.61	1290.22
304.83	1236.97
305.04	1271.79
305.26	1241.07
305.47	1320.94
305.68	1318.89
305.90	1312.75
306.11	1220.59
306.33	1257.45
306.54	1314.80
306.75	1263.60
306.97	1249.26
307.18	1304.56
307.39	1306.60
307.61	1286.12
307.82	1265.64
308.04	1253.36
308.25	1279.98
308.46	1370.09
308.68	1230.83
308.89	1267.69
309.10	1269.74
309.32	1296.36
309.53	1249.26
309.74	1290.22
309.96	1210.35
310.17	1292.27
310.39	1308.65
310.60	1257.45
310.81	1222.64
311.03	1263.60
311.24	1245.16
311.45	1220.59
311.67	1243.12
311.88	1284.08
312.09	1210.35
312.31	1200.11
312.52	1300.46
312.73	1314.80
312.95	1226.73
313.16	1331.18
313.37	1249.26
313.59	1232.88
313.80	1304.56
314.01	1284.08
314.23	1249.26
314.44	1265.64
314.65	1173.49
314.87	1308.65
315.08	1322.99
315.29	1269.74
315.51	1241.07
315.72	1255.40
315.93	1261.55
316.15	1277.93
316.36	1282.03
316.57	1263.60
316.79	1234.93
317.00	1189.87
317.21	1286.12
317.43	1253.36
317.64	1267.69
317.85	1251.31
318.07	1298.41
318.28	1247.21
318.49	1261.55
318.70	1277.93
318.92	1290.22
319.13	1210.35
319.34	1259.50
319.56	1236.97
319.77	1253.36
319.98	1255.40
320.20	1302.51
320.41	1267.69
320.62	1290.22
320.83	1294.32
321.05	1259.50
321.26	1210.35
321.47	1261.55
321.69	1234.93
321.90	1275.88
322.11	1314.80
322.32	1282.03
322.54	1292.27
322.75	1269.74
322.96	1263.60
323.18	1249.26
323.39	1290.22
323.60	1214.45
323.81	1257.45
324.03	1204.21
324.24	1282.03
324.45	1261.55
324.66	1296.36
324.88	1269.74
325.09	1206.25
325.30	1343.47
325.52	1314.80
325.73	1349.61
325.94	1265.64
326.15	1310.70
326.37	1269.74
326.58	1343.47
326.79	1290.22
327.00	1249.26
327.22	1286.12
327.43	1327.08
327.64	1349.61
327.85	1255.40
328.07	1345.52
328.28	1294.32
328.49	1296.36
328.70	1335.28
328.92	1243.12
329.13	1279.98
329.34	1312.75
329.55	1208.30
329.76	1247.21
329.98	1261.55
330.19	1253.36
330.40	1259.50
330.61	1255.40
330.83	1325.04
331.04	1249.26
331.25	1234.93
331.46	1314.80
331.68	1193.97
331.89	1320.94
332.10	1271.79
332.31	1249.26
332.52	1191.92
332.74	1282.03
332.95	1275.88
333.16	1193.97
333.37	1265.64
333.58	1259.50
333.80	1245.16
334.01	1306.60
334.22	1257.45
334.43	1306.60
334.64	1300.46
334.86	1331.18
335.07	1245.16
335.28	1257.45
335.49	1314.80
335.70	1267.69
335.92	1282.03
336.13	1345.52
336.34	1247.21
336.55	1300.46
336.76	1230.83
336.98	1279.98
337.19	1226.73
337.40	1335.28
337.61	1279.98
337.82	1259.50
338.04	1212.40
338.25	1208.30
338.46	1239.02
338.67	1320.94
338.88	1236.97
339.09	1236.97
339.31	1218.54
339.52	1320.94
339.73	1263.60
339.94	1296.36
340.15	1265.64
340.36	1292.27
340.58	1263.60
340.79	1247.21
341.00	1234.93
341.21	1241.07
341.42	1296.36
341.63	1294.32
341.85	1282.03
342.06	1269.74
342.27	1279.98
342.48	1234.93
342.69	1257.45
342.90	1263.60
343.12	1224.69
343.33	1294.32
343.54	1273.84
343.75	1298.41
343.96	1282.03
344.17	1232.88
344.38	1228.78
344.60	1335.28
344.81	1224.69
345.02	1232.88
345.23	1187.82
345.44	1302.51
345.65	1339.37
345.86	1304.56
346.07	1216.49
346.29	1200.11
346.50	1218.54
346.71	1288.17
346.92	1277.93
347.13	1322.99
347.34	1279.98
347.55	1294.32
347.76	1286.12
347.98	1267.69
348.19	1185.77
348.40	1300.46
348.61	1331.18
348.82	1294.32
349.03	1218.54
349.24	1343.47
349.45	1232.88
349.66	1304.56
349.88	1218.54
350.09	1308.65
350.30	1228.78
350.51	1228.78
350.72	1234.93
350.93	1286.12
351.14	1239.02
351.35	1290.22
351.56	1216.49
351.77	1222.64
351.99	1200.11
352.20	1333.23
352.41	1175.53
352.62	1212.40
352.83	1255.40
353.04	1275.88
353.25	1296.36
353.46	1267.69
353.67	1294.32
353.88	1259.50
354.09	1302.51
354.30	1255.40
354.52	1239.02
354.73	1318.89
354.94	1271.79
355.15	1273.84
355.36	1298.41
355.57	1267.69
355.78	1212.40
355.99	1224.69
356.20	1169.39
356.41	1271.79
356.62	1198.06
356.83	1243.12
357.04	1277.93
357.25	1228.78
357.46	1284.08
357.68	1314.80
357.89	1232.88
358.10	1302.51
358.31	1314.80
358.52	1239.02
358.73	1282.03
358.94	1265.64
359.15	1269.74
359.36	1224.69
359.57	1187.82
359.78	1261.55
359.99	1181.68
360.20	1247.21
360.41	1255.40
360.62	1228.78
360.83	1234.93
361.04	1234.93
361.25	1279.98
361.46	1259.50
361.67	1239.02
361.88	1255.40
362.09	1349.61
362.30	1247.21
362.51	1292.27
362.72	1335.28
362.93	1216.49
363.14	1318.89
363.35	1228.78
363.56	1239.02
363.78	1267.69
363.99	1290.22
364.20	1239.02
364.41	1259.50
364.62	1335.28
364.83	1290.22
365.04	1290.22
365.25	1331.18
365.46	1220.59
365.67	1308.65
365.88	1222.64
366.09	1253.36
366.30	1239.02
366.51	1257.45
366.72	1171.44
366.93	1230.83
367.14	1327.08
367.35	1284.08
367.56	1331.18
367.77	1239.02
367.98	1288.17
368.18	1265.64
368.39	1253.36
368.60	1249.26
368.81	1290.22
369.02	1198.06
369.23	1298.41
369.44	1312.75
369.65	1320.94
369.86	1304.56
370.07	1263.60
370.28	1300.46
370.49	1247.21
370.70	1277.93
370.91	1261.55
371.12	1181.68
371.33	1232.88
371.54	1236.97
371.75	1298.41
371.96	1245.16
372.17	1249.26
372.38	1247.21
372.59	1282.03
372.80	1298.41
373.01	1263.60
373.22	1298.41
373.43	1255.40
373.64	1243.12
373.85	1271.79
374.06	1312.75
374.26	1255.40
374.47	1247.21
374.68	1220.59
374.89	1200.11
375.10	1200.11
375.31	1308.65
375.52	1296.36
375.73	1343.47
375.94	1206.25
376.15	1239.02
376.36	1312.75
376.57	1296.36
376.78	1224.69
376.99	1296.36
377.20	1314.80
377.40	1251.31
377.61	1316.84
377.82	1273.84
378.03	1230.83
378.24	1275.88
378.45	1230.83
378.66	1275.88
378.87	1296.36
379.08	1245.16
379.29	1251.31
379.50	1228.78
379.71	1259.50
379.91	1298.41
380.12	1292.27
380.33	1304.56
380.54	1263.60
380.75	1243.12
380.96	1279.98
381.17	1263.60
381.38	1222.64
381.59	1284.08
381.80	1249.26
382.00	1259.50
382.21	1236.97
382.42	1255.40
382.63	1173.49
382.84	1243.12
383.05	1234.93
383.26	1259.50
383.47	1273.84
383.68	1247.21
383.88	1316.84
384.09	1220.59
384.30	1335.28
384.51	1245.16
384.72	1296.36
384.93	1286.12
385.14	1236.97
385.35	1273.84
385.55	1232.88
385.76	1355.76
385.97	1234.93
386.18	1302.51
386.39	1284.08
386.60	1224.69
386.81	1282.03
387.02	1259.50
387.22	1294.32
387.43	1286.12
387.64	1290.22
387.85	1275.88
388.06	1212.40
388.27	1290.22
388.48	1277.93
388.68	1267.69
388.89	1255.40
389.10	1284.08
389.31	1216.49
389.52	1257.45
389.73	1212.40
389.93	1335.28
390.14	1243.12
390.35	1294.32
390.56	1236.97
390.77	1239.02
390.98	1234.93
391.18	1314.80
391.39	1308.65
391.60	1286.12
391.81	1165.29
392.02	1288.17
392.23	1245.16
392.43	1310.70
392.64	1316.84
392.85	1341.42
393.06	1236.97
393.27	1271.79
393.47	1261.55
393.68	1298.41
393.89	1333.23
394.10	1239.02
394.31	1259.50
394.52	1282.03
394.72	1222.64
394.93	1247.21
395.14	1251.31
395.35	1265.64
395.56	1243.12
395.76	1249.26
395.97	1245.16
396.18	1374.19
396.39	1226.73
396.60	1282.03
396.80	1253.36
397.01	1245.16
397.22	1224.69
397.43	1316.84
397.64	1259.50
397.84	1298.41
398.05	1212.40
398.26	1169.39
398.47	1224.69
398.67	1214.45
398.88	1230.83
399.09	1329.13
399.30	1257.45
399.51	1251.31
399.71	1163.25
399.92	1265.64
400.13	1269.74
400.34	1255.40
400.54	1257.45
400.75	1265.64
400.96	1271.79
401.17	1257.45
401.37	1275.88
401.58	1345.52
401.79	1296.36
402.00	1239.02
402.21	1228.78
402.41	1265.64
402.62	1202.16
402.83	1200.11
403.04	1300.46
403.24	1316.84
403.45	1247.21
403.66	1263.60
403.87	1290.22
404.07	1241.07
404.28	1243.12
404.49	1214.45
404.70	1269.74
404.90	1220.59
405.11	1239.02
405.32	1239.02
405.52	1232.88
405.73	1351.66
405.94	1306.60
406.15	1312.75
406.35	1322.99
406.56	1271.79
406.77	1304.56
406.98	1292.27
407.18	1261.55
407.39	1288.17
407.60	1200.11
407.80	1189.87
408.01	1294.32
408.22	1253.36
408.43	1310.70
408.63	1243.12
408.84	1290.22
409.05	1177.58
409.25	1230.83
409.46	1241.07
409.67	1236.97
409.88	1288.17
410.08	1269.74
410.29	1251.31
410.50	1255.40
410.70	1325.04
410.91	1236.97
411.12	1243.12
411.32	1243.12
411.53	1273.84
411.74	1341.42
411.95	1290.22
412.15	1257.45
412.36	1265.64
412.57	1288.17
412.77	1282.03
412.98	1243.12
413.19	1234.93
413.39	1304.56
413.60	1232.88
413.81	1230.83
414.01	1296.36
414.22	1218.54
414.43	1282.03
414.63	1279.98
414.84	1282.03
415.05	1282.03
415.25	1271.79
415.46	1257.45
415.67	1329.13
415.87	1245.16
416.08	1245.16
416.29	1269.74
416.49	1316.84
416.70	1284.08
416.91	1263.60
417.11	1263.60
417.32	1335.28
417.53	1247.21
417.73	1257.45
417.94	1357.80
418.15	1294.32
418.35	1331.18
418.56	1294.32
418.77	1300.46
418.97	1218.54
419.18	1279.98
419.38	1230.83
419.59	1335.28
419.80	1292.27
420.00	1187.82
420.21	1284.08
420.42	1257.45
420.62	1196.01
420.83	1329.13
421.04	1232.88
421.24	1236.97
421.45	1267.69
421.65	1310.70
421.86	1310.70
422.07	1288.17
422.27	1236.97
422.48	1263.60
422.69	1228.78
422.89	1198.06
423.10	1269.74
423.30	1218.54
423.51	1271.79
423.72	1298.41
423.92	1261.55
424.13	1267.69
424.33	1290.22
424.54	1220.59
424.75	1273.84
424.95	1320.94
425.16	1236.97
425.36	1273.84
425.57	1337.32
425.78	1271.79
425.98	1296.36
426.19	1269.74
426.39	1165.29
426.60	1302.51
426.81	1273.84
427.01	1226.73
427.22	1226.73
427.42	1296.36
427.63	1269.74
427.83	1261.55
428.04	1290.22
428.25	1310.70
428.45	1355.76
428.66	1241.07
428.86	1255.40
429.07	1257.45
429.28	1312.75
429.48	1286.12
429.69	1267.69
429.89	1196.01
430.10	1247.21
430.30	1349.61
430.51	1331.18
430.71	1296.36
430.92	1265.64
431.13	1300.46
431.33	1312.75
431.54	1234.93
431.74	1249.26
431.95	1230.83
432.15	1230.83
432.36	1296.36
432.56	1263.60
432.77	1312.75
432.98	1228.78
433.18	1269.74
433.39	1304.56
433.59	1239.02
433.80	1267.69
434.00	1263.60
434.21	1226.73
434.41	1284.08
434.62	1214.45
434.82	1298.41
435.03	1220.59
435.23	1226.73
435.44	1210.35
435.64	1224.69
435.85	1241.07
436.06	1261.55
436.26	1273.84
436.47	1239.02
436.67	1265.64
436.88	1255.40
437.08	1310.70
437.29	1277.93
437.49	1298.41
437.70	1298.41
437.90	1239.02
438.11	1288.17
438.31	1210.35
438.52	1269.74
438.72	1185.77
438.93	1282.03
439.13	1257.45
439.34	1265.64
439.54	1263.60
439.75	1269.74
439.95	1253.36
440.16	1255.40
440.36	1298.41
440.57	1204.21
440.77	1255.40
440.98	1304.56
441.18	1251.31
441.39	1251.31
441.59	1206.25
441.80	1284.08
442.00	1351.66
442.21	1265.64
442.41	1193.97
442.62	1304.56
442.82	1230.83
443.02	1300.46
443.23	1275.88
443.43	1337.32
443.64	1204.21
443.84	1302.51
444.05	1267.69
444.25	1191.92
444.46	1304.56
444.66	1316.84
444.87	1247.21
445.07	1245.16
445.28	1298.41
445.48	1267.69
445.69	1253.36
445.89	1165.29
446.09	1243.12
446.30	1265.64
446.50	1329.13
446.71	1279.98
446.91	1255.40
447.12	1277.93
447.32	1265.64
447.53	1282.03
447.73	1320.94
447.93	1220.59
448.14	1331.18
448.34	1275.88
448.55	1257.45
448.75	1277.93
448.96	1339.37
449.16	1253.36
449.36	1267.69
449.57	1331.18
449.77	1257.45
449.98	1228.78
450.18	1308.65
450.39	1331.18
450.59	1253.36
450.79	1253.36
451.00	1298.41
451.20	1308.65
451.41	1298.41
451.61	1224.69
451.81	1212.40
452.02	1320.94
452.22	1277.93
452.43	1261.55
452.63	1234.93
