SpectraSuite Data File
++++++++++++++++++++++++++++++++++++
Date: Sun Apr 03 19:55:36 CEST 2016
User: root
Dark Spectrum Present: No
Reference Spectrum Present: No
Number of Sampled Component Spectra: 1
Spectrometers: USB4C02835
Integration Time (usec): 10000 (USB4C02835)
Spectra Averaged: 1 (USB4C02835)
Boxcar Smoothing: 0 (USB4C02835)
Correct for Electrical Dark: No (USB4C02835)
Strobe/Lamp Enabled: No (USB4C02835)
Correct for Detector Non-linearity: No (USB4C02835)
Correct for Stray Light: No (USB4C02835)
Number of Pixels in Processed Spectrum: 3648
>>>>>Begin Processed Spectral Data<<<<<
177.47	1212.40
177.69	1212.40
177.91	1212.40
178.13	1212.40
178.36	1267.69
178.58	1257.45
178.80	1261.55
179.02	1232.88
179.24	1296.36
179.46	1314.80
179.68	1300.46
179.90	1298.41
180.13	1322.99
180.35	1269.74
180.57	1288.17
180.79	1253.36
181.01	1294.32
181.23	1298.41
181.45	1284.08
181.67	1284.08
181.90	1261.55
182.12	1259.50
182.34	1232.88
182.56	1241.07
182.78	1228.78
183.00	1273.84
183.22	1208.30
183.44	1251.31
183.66	1318.89
183.89	1282.03
184.11	1296.36
184.33	1230.83
184.55	1304.56
184.77	1316.84
184.99	1222.64
185.21	1277.93
185.43	1284.08
185.65	1239.02
185.87	1230.83
186.10	1249.26
186.32	1193.97
186.54	1232.88
186.76	1263.60
186.98	1216.49
187.20	1286.12
187.42	1318.89
187.64	1241.07
187.86	1308.65
188.08	1241.07
188.30	1200.11
188.52	1222.64
188.75	1275.88
188.97	1304.56
189.19	1300.46
189.41	1249.26
189.63	1239.02
189.85	1224.69
190.07	1273.84
190.29	1300.46
190.51	1304.56
190.73	1267.69
190.95	1341.42
191.17	1257.45
191.39	1245.16
191.61	1214.45
191.84	1304.56
192.06	1343.47
192.28	1298.41
192.50	1302.51
192.72	1249.26
192.94	1275.88
193.16	1251.31
193.38	1296.36
193.60	1273.84
193.82	1224.69
194.04	1372.14
194.26	1265.64
194.48	1224.69
194.70	1241.07
194.92	1282.03
195.14	1267.69
195.36	1249.26
195.58	1265.64
195.80	1288.17
196.02	1228.78
196.24	1286.12
196.46	1314.80
196.69	1239.02
196.91	1320.94
197.13	1273.84
197.35	1282.03
197.57	1331.18
197.79	1257.45
198.01	1294.32
198.23	1290.22
198.45	1220.59
198.67	1253.36
198.89	1253.36
199.11	1343.47
199.33	1236.97
199.55	1273.84
199.77	1206.25
199.99	1329.13
200.21	1316.84
200.43	1204.21
200.65	1196.01
200.87	1239.02
201.09	1275.88
201.31	1294.32
201.53	1265.64
201.75	1288.17
201.97	1273.84
202.19	1308.65
202.41	1222.64
202.63	1310.70
202.85	1284.08
203.07	1273.84
203.29	1224.69
203.51	1257.45
203.73	1265.64
203.95	1261.55
204.17	1249.26
204.39	1247.21
204.61	1298.41
204.83	1271.79
205.05	1304.56
205.27	1296.36
205.49	1359.85
205.71	1196.01
205.93	1288.17
206.15	1249.26
206.37	1232.88
206.59	1239.02
206.81	1284.08
207.03	1216.49
207.25	1185.77
207.47	1216.49
207.69	1302.51
207.91	1167.34
208.13	1331.18
208.34	1327.08
208.56	1224.69
208.78	1347.56
209.00	1366.00
209.22	1228.78
209.44	1333.23
209.66	1277.93
209.88	1232.88
210.10	1261.55
210.32	1282.03
210.54	1202.16
210.76	1296.36
210.98	1253.36
211.20	1343.47
211.42	1294.32
211.64	1249.26
211.86	1269.74
212.08	1255.40
212.30	1247.21
212.52	1173.49
212.74	1259.50
212.96	1245.16
213.17	1255.40
213.39	1282.03
213.61	1290.22
213.83	1273.84
214.05	1247.21
214.27	1339.37
214.49	1200.11
214.71	1226.73
214.93	1296.36
215.15	1302.51
215.37	1284.08
215.59	1212.40
215.81	1320.94
216.03	1241.07
216.24	1257.45
216.46	1294.32
216.68	1279.98
216.90	1245.16
217.12	1273.84
217.34	1302.51
217.56	1257.45
217.78	1275.88
218.00	1304.56
218.22	1224.69
218.44	1267.69
218.66	1286.12
218.87	1271.79
219.09	1306.60
219.31	1347.56
219.53	1230.83
219.75	1288.17
219.97	1255.40
220.19	1320.94
220.41	1183.73
220.63	1265.64
220.85	1214.45
221.06	1316.84
221.28	1253.36
221.50	1335.28
221.72	1277.93
221.94	1236.97
222.16	1204.21
222.38	1294.32
222.60	1212.40
222.82	1316.84
223.03	1259.50
223.25	1236.97
223.47	1282.03
223.69	1296.36
223.91	1236.97
224.13	1302.51
224.35	1216.49
224.57	1232.88
224.78	1304.56
225.00	1290.22
225.22	1249.26
225.44	1275.88
225.66	1322.99
225.88	1302.51
226.10	1249.26
226.32	1308.65
226.53	1222.64
226.75	1214.45
226.97	1253.36
227.19	1212.40
227.41	1218.54
227.63	1249.26
227.85	1284.08
228.06	1282.03
228.28	1232.88
228.50	1327.08
228.72	1251.31
228.94	1251.31
229.16	1226.73
229.37	1306.60
229.59	1253.36
229.81	1261.55
230.03	1275.88
230.25	1349.61
230.47	1210.35
230.69	1261.55
230.90	1257.45
231.12	1353.71
231.34	1298.41
231.56	1241.07
231.78	1202.16
232.00	1232.88
232.21	1249.26
232.43	1234.93
232.65	1290.22
232.87	1267.69
233.09	1251.31
233.30	1320.94
233.52	1218.54
233.74	1296.36
233.96	1308.65
234.18	1271.79
234.40	1232.88
234.61	1253.36
234.83	1302.51
235.05	1312.75
235.27	1202.16
235.49	1345.52
235.70	1316.84
235.92	1259.50
236.14	1228.78
236.36	1230.83
236.58	1269.74
236.79	1333.23
237.01	1230.83
237.23	1253.36
237.45	1243.12
237.67	1224.69
237.88	1312.75
238.10	1222.64
238.32	1298.41
238.54	1241.07
238.76	1232.88
238.97	1331.18
239.19	1277.93
239.41	1239.02
239.63	1228.78
239.85	1339.37
240.06	1243.12
240.28	1320.94
240.50	1230.83
240.72	1277.93
240.93	1253.36
241.15	1216.49
241.37	1212.40
241.59	1312.75
241.81	1288.17
242.02	1241.07
242.24	1198.06
242.46	1294.32
242.68	1359.85
242.89	1290.22
243.11	1265.64
243.33	1234.93
243.55	1257.45
243.76	1265.64
243.98	1187.82
244.20	1255.40
244.42	1275.88
244.64	1253.36
244.85	1159.15
245.07	1243.12
245.29	1277.93
245.51	1183.73
245.72	1255.40
245.94	1277.93
246.16	1312.75
246.38	1339.37
246.59	1187.82
246.81	1263.60
247.03	1236.97
247.24	1304.56
247.46	1339.37
247.68	1255.40
247.90	1306.60
248.11	1261.55
248.33	1279.98
248.55	1259.50
248.77	1296.36
248.98	1251.31
249.20	1263.60
249.42	1339.37
249.64	1232.88
249.85	1282.03
250.07	1273.84
250.29	1372.14
250.50	1277.93
250.72	1288.17
250.94	1228.78
251.16	1232.88
251.37	1218.54
251.59	1292.27
251.81	1257.45
252.02	1257.45
252.24	1214.45
252.46	1247.21
252.68	1339.37
252.89	1325.04
253.11	1308.65
253.33	1255.40
253.54	1249.26
253.76	1275.88
253.98	1265.64
254.20	1322.99
254.41	1230.83
254.63	1216.49
254.85	1230.83
255.06	1193.97
255.28	1214.45
255.50	1273.84
255.71	1220.59
255.93	1304.56
256.15	1316.84
256.36	1263.60
256.58	1187.82
256.80	1226.73
257.02	1298.41
257.23	1290.22
257.45	1253.36
257.67	1255.40
257.88	1306.60
258.10	1310.70
258.32	1294.32
258.53	1198.06
258.75	1304.56
258.97	1239.02
259.18	1269.74
259.40	1296.36
259.62	1275.88
259.83	1329.13
260.05	1269.74
260.27	1298.41
260.48	1302.51
260.70	1318.89
260.92	1212.40
261.13	1255.40
261.35	1300.46
261.57	1171.44
261.78	1296.36
262.00	1251.31
262.22	1353.71
262.43	1308.65
262.65	1298.41
262.86	1259.50
263.08	1290.22
263.30	1263.60
263.51	1247.21
263.73	1206.25
263.95	1286.12
264.16	1331.18
264.38	1310.70
264.60	1273.84
264.81	1253.36
265.03	1267.69
265.25	1322.99
265.46	1263.60
265.68	1255.40
265.89	1279.98
266.11	1269.74
266.33	1261.55
266.54	1210.35
266.76	1306.60
266.98	1302.51
267.19	1232.88
267.41	1294.32
267.62	1296.36
267.84	1224.69
268.06	1236.97
268.27	1255.40
268.49	1241.07
268.70	1177.58
268.92	1298.41
269.14	1337.32
269.35	1239.02
269.57	1247.21
269.79	1247.21
270.00	1298.41
270.22	1312.75
270.43	1312.75
270.65	1335.28
270.87	1253.36
271.08	1292.27
271.30	1234.93
271.51	1302.51
271.73	1251.31
271.95	1288.17
272.16	1304.56
272.38	1165.29
272.59	1265.64
272.81	1230.83
273.02	1236.97
273.24	1368.04
273.46	1290.22
273.67	1193.97
273.89	1241.07
274.10	1314.80
274.32	1261.55
274.54	1226.73
274.75	1288.17
274.97	1265.64
275.18	1196.01
275.40	1273.84
275.61	1284.08
275.83	1271.79
276.05	1239.02
276.26	1187.82
276.48	1273.84
276.69	1296.36
276.91	1290.22
277.12	1249.26
277.34	1247.21
277.55	1300.46
277.77	1261.55
277.99	1249.26
278.20	1247.21
278.42	1261.55
278.63	1259.50
278.85	1308.65
279.06	1243.12
279.28	1284.08
279.49	1388.52
279.71	1259.50
279.93	1249.26
280.14	1249.26
280.36	1277.93
280.57	1222.64
280.79	1286.12
281.00	1224.69
281.22	1271.79
281.43	1290.22
281.65	1304.56
281.86	1318.89
282.08	1275.88
282.29	1290.22
282.51	1257.45
282.73	1279.98
282.94	1222.64
283.16	1296.36
283.37	1226.73
283.59	1294.32
283.80	1261.55
284.02	1271.79
284.23	1257.45
284.45	1255.40
284.66	1271.79
284.88	1263.60
285.09	1339.37
285.31	1273.84
285.52	1271.79
285.74	1288.17
285.95	1298.41
286.17	1245.16
286.38	1234.93
286.60	1230.83
286.81	1269.74
287.03	1322.99
287.24	1267.69
287.46	1296.36
287.67	1345.52
287.89	1308.65
288.10	1273.84
288.32	1320.94
288.53	1347.56
288.75	1247.21
288.96	1308.65
289.18	1331.18
289.39	1232.88
289.61	1239.02
289.82	1370.09
290.04	1310.70
290.25	1232.88
290.47	1257.45
290.68	1294.32
290.90	1286.12
291.11	1222.64
291.33	1269.74
291.54	1228.78
291.76	1296.36
291.97	1286.12
292.18	1169.39
292.40	1257.45
292.61	1269.74
292.83	1277.93
293.04	1294.32
293.26	1247.21
293.47	1312.75
293.69	1284.08
293.90	1331.18
294.12	1239.02
294.33	1228.78
294.55	1316.84
294.76	1312.75
294.97	1257.45
295.19	1294.32
295.40	1232.88
295.62	1290.22
295.83	1312.75
296.05	1343.47
296.26	1361.90
296.48	1282.03
296.69	1179.63
296.90	1277.93
297.12	1249.26
297.33	1292.27
297.55	1234.93
297.76	1249.26
297.98	1310.70
298.19	1298.41
298.41	1279.98
298.62	1261.55
298.83	1298.41
299.05	1253.36
299.26	1339.37
299.48	1341.42
299.69	1198.06
299.90	1304.56
300.12	1310.70
300.33	1337.32
300.55	1275.88
300.76	1318.89
300.98	1251.31
301.19	1243.12
301.40	1294.32
301.62	1236.97
301.83	1277.93
302.05	1320.94
302.26	1271.79
302.47	1245.16
302.69	1271.79
302.90	1249.26
303.12	1327.08
303.33	1279.98
303.54	1271.79
303.76	1304.56
303.97	1224.69
304.19	1249.26
304.40	1284.08
304.61	1304.56
304.83	1273.84
305.04	1310.70
305.26	1218.54
305.47	1222.64
305.68	1279.98
305.90	1320.94
306.11	1279.98
306.33	1243.12
306.54	1251.31
306.75	1251.31
306.97	1271.79
307.18	1310.70
307.39	1232.88
307.61	1275.88
307.82	1249.26
308.04	1230.83
308.25	1200.11
308.46	1292.27
308.68	1341.42
308.89	1296.36
309.10	1304.56
309.32	1263.60
309.53	1226.73
309.74	1269.74
309.96	1263.60
310.17	1249.26
310.39	1239.02
310.60	1247.21
310.81	1239.02
311.03	1296.36
311.24	1255.40
311.45	1226.73
311.67	1343.47
311.88	1318.89
312.09	1232.88
312.31	1304.56
312.52	1236.97
312.73	1239.02
312.95	1218.54
313.16	1331.18
313.37	1255.40
313.59	1263.60
313.80	1402.86
314.01	1302.51
314.23	1196.01
314.44	1312.75
314.65	1343.47
314.87	1251.31
315.08	1279.98
315.29	1304.56
315.51	1294.32
315.72	1310.70
315.93	1253.36
316.15	1282.03
316.36	1263.60
316.57	1259.50
316.79	1232.88
317.00	1261.55
317.21	1271.79
317.43	1284.08
317.64	1265.64
317.85	1259.50
318.07	1204.21
318.28	1337.32
318.49	1267.69
318.70	1300.46
318.92	1193.97
319.13	1337.32
319.34	1257.45
319.56	1255.40
319.77	1218.54
319.98	1275.88
320.20	1306.60
320.41	1296.36
320.62	1243.12
320.83	1232.88
321.05	1316.84
321.26	1306.60
321.47	1290.22
321.69	1294.32
321.90	1239.02
322.11	1296.36
322.32	1275.88
322.54	1314.80
322.75	1234.93
322.96	1288.17
323.18	1302.51
323.39	1261.55
323.60	1216.49
323.81	1306.60
324.03	1310.70
324.24	1273.84
324.45	1284.08
324.66	1288.17
324.88	1226.73
325.09	1300.46
325.30	1241.07
325.52	1251.31
325.73	1294.32
325.94	1277.93
326.15	1208.30
326.37	1232.88
326.58	1236.97
326.79	1282.03
327.00	1277.93
327.22	1304.56
327.43	1236.97
327.64	1277.93
327.85	1259.50
328.07	1204.21
328.28	1314.80
328.49	1286.12
328.70	1269.74
328.92	1253.36
329.13	1284.08
329.34	1249.26
329.55	1251.31
329.76	1282.03
329.98	1273.84
330.19	1247.21
330.40	1263.60
330.61	1263.60
330.83	1286.12
331.04	1312.75
331.25	1255.40
331.46	1273.84
331.68	1269.74
331.89	1314.80
332.10	1249.26
332.31	1224.69
332.52	1241.07
332.74	1325.04
332.95	1239.02
333.16	1243.12
333.37	1273.84
333.58	1261.55
333.80	1216.49
334.01	1265.64
334.22	1232.88
334.43	1277.93
334.64	1322.99
334.86	1261.55
335.07	1261.55
335.28	1261.55
335.49	1282.03
335.70	1257.45
335.92	1253.36
336.13	1296.36
336.34	1296.36
336.55	1335.28
336.76	1359.85
336.98	1175.53
337.19	1339.37
337.40	1204.21
337.61	1267.69
337.82	1230.83
338.04	1265.64
338.25	1265.64
338.46	1245.16
338.67	1282.03
338.88	1302.51
339.09	1269.74
339.31	1173.49
339.52	1220.59
339.73	1239.02
339.94	1234.93
340.15	1277.93
340.36	1298.41
340.58	1286.12
340.79	1236.97
341.00	1204.21
341.21	1267.69
341.42	1255.40
341.63	1298.41
341.85	1239.02
342.06	1277.93
342.27	1224.69
342.48	1257.45
342.69	1337.32
342.90	1243.12
343.12	1204.21
343.33	1228.78
343.54	1355.76
343.75	1279.98
343.96	1271.79
344.17	1284.08
344.38	1249.26
344.60	1296.36
344.81	1316.84
345.02	1222.64
345.23	1241.07
345.44	1269.74
345.65	1275.88
345.86	1304.56
346.07	1236.97
346.29	1200.11
346.50	1234.93
346.71	1232.88
346.92	1255.40
347.13	1234.93
347.34	1265.64
347.55	1222.64
347.76	1277.93
347.98	1253.36
348.19	1230.83
348.40	1298.41
348.61	1253.36
348.82	1200.11
349.03	1230.83
349.24	1263.60
349.45	1310.70
349.66	1255.40
349.88	1304.56
350.09	1243.12
350.30	1263.60
350.51	1259.50
350.72	1263.60
350.93	1271.79
351.14	1257.45
351.35	1251.31
351.56	1273.84
351.77	1251.31
351.99	1257.45
352.20	1298.41
352.41	1222.64
352.62	1271.79
352.83	1236.97
353.04	1267.69
353.25	1171.44
353.46	1234.93
353.67	1228.78
353.88	1251.31
354.09	1290.22
354.30	1279.98
354.52	1312.75
354.73	1265.64
354.94	1261.55
355.15	1220.59
355.36	1208.30
355.57	1306.60
355.78	1314.80
355.99	1191.92
356.20	1198.06
356.41	1247.21
356.62	1249.26
356.83	1245.16
357.04	1331.18
357.25	1251.31
357.46	1288.17
357.68	1294.32
357.89	1243.12
358.10	1263.60
358.31	1232.88
358.52	1294.32
358.73	1255.40
358.94	1257.45
359.15	1322.99
359.36	1271.79
359.57	1310.70
359.78	1267.69
359.99	1306.60
360.20	1300.46
360.41	1286.12
360.62	1255.40
360.83	1284.08
361.04	1204.21
361.25	1189.87
361.46	1241.07
361.67	1339.37
361.88	1230.83
362.09	1275.88
362.30	1251.31
362.51	1185.77
362.72	1257.45
362.93	1318.89
363.14	1335.28
363.35	1329.13
363.56	1329.13
363.78	1267.69
363.99	1249.26
364.20	1306.60
364.41	1265.64
364.62	1191.92
364.83	1310.70
365.04	1284.08
365.25	1232.88
365.46	1298.41
365.67	1234.93
365.88	1214.45
366.09	1292.27
366.30	1247.21
366.51	1322.99
366.72	1249.26
366.93	1263.60
367.14	1265.64
367.35	1302.51
367.56	1243.12
367.77	1302.51
367.98	1232.88
368.18	1206.25
368.39	1249.26
368.60	1320.94
368.81	1275.88
369.02	1279.98
369.23	1318.89
369.44	1282.03
369.65	1279.98
369.86	1277.93
370.07	1255.40
370.28	1282.03
370.49	1269.74
370.70	1275.88
370.91	1251.31
371.12	1314.80
371.33	1228.78
371.54	1249.26
371.75	1263.60
371.96	1222.64
372.17	1249.26
372.38	1163.25
372.59	1296.36
372.80	1279.98
373.01	1298.41
373.22	1210.35
373.43	1255.40
373.64	1312.75
373.85	1286.12
374.06	1341.42
374.26	1251.31
374.47	1269.74
374.68	1282.03
374.89	1218.54
375.10	1204.21
375.31	1279.98
375.52	1294.32
375.73	1253.36
375.94	1263.60
376.15	1282.03
376.36	1224.69
376.57	1300.46
376.78	1224.69
376.99	1241.07
377.20	1214.45
377.40	1265.64
377.61	1376.24
377.82	1284.08
378.03	1271.79
378.24	1255.40
378.45	1224.69
378.66	1249.26
378.87	1261.55
379.08	1202.16
379.29	1259.50
379.50	1257.45
379.71	1181.68
379.91	1228.78
380.12	1275.88
380.33	1339.37
380.54	1220.59
380.75	1284.08
380.96	1222.64
381.17	1286.12
381.38	1230.83
381.59	1269.74
381.80	1277.93
382.00	1200.11
382.21	1290.22
382.42	1341.42
382.63	1282.03
382.84	1251.31
383.05	1249.26
383.26	1216.49
383.47	1294.32
383.68	1273.84
383.88	1308.65
384.09	1275.88
384.30	1206.25
384.51	1304.56
384.72	1275.88
384.93	1296.36
385.14	1200.11
385.35	1243.12
385.55	1294.32
385.76	1253.36
385.97	1241.07
386.18	1294.32
386.39	1265.64
386.60	1263.60
386.81	1337.32
387.02	1275.88
387.22	1257.45
387.43	1232.88
387.64	1277.93
387.85	1216.49
388.06	1239.02
388.27	1298.41
388.48	1212.40
388.68	1322.99
388.89	1308.65
389.10	1236.97
389.31	1230.83
389.52	1193.97
389.73	1222.64
389.93	1279.98
390.14	1288.17
390.35	1230.83
390.56	1261.55
390.77	1298.41
390.98	1277.93
391.18	1296.36
391.39	1282.03
391.60	1265.64
391.81	1249.26
392.02	1327.08
392.23	1294.32
392.43	1228.78
392.64	1249.26
392.85	1234.93
393.06	1279.98
393.27	1271.79
393.47	1249.26
393.68	1284.08
393.89	1314.80
394.10	1310.70
394.31	1271.79
394.52	1236.97
394.72	1314.80
394.93	1271.79
395.14	1341.42
395.35	1257.45
395.56	1300.46
395.76	1288.17
395.97	1292.27
396.18	1292.27
396.39	1271.79
396.60	1239.02
396.80	1265.64
397.01	1302.51
397.22	1208.30
397.43	1236.97
397.64	1247.21
397.84	1243.12
398.05	1298.41
398.26	1230.83
398.47	1265.64
398.67	1249.26
398.88	1226.73
399.09	1222.64
399.30	1253.36
399.51	1310.70
399.71	1243.12
399.92	1304.56
400.13	1345.52
400.34	1308.65
400.54	1288.17
400.75	1224.69
400.96	1265.64
401.17	1249.26
401.37	1288.17
401.58	1255.40
401.79	1220.59
402.00	1318.89
402.21	1277.93
402.41	1273.84
402.62	1296.36
402.83	1259.50
403.04	1314.80
403.24	1275.88
403.45	1282.03
403.66	1304.56
403.87	1322.99
404.07	1267.69
404.28	1259.50
404.49	1251.31
404.70	1263.60
404.90	1329.13
405.11	1269.74
405.32	1269.74
405.52	1202.16
405.73	1318.89
405.94	1277.93
406.15	1243.12
406.35	1318.89
406.56	1296.36
406.77	1198.06
406.98	1331.18
407.18	1175.53
407.39	1288.17
407.60	1220.59
407.80	1224.69
408.01	1271.79
408.22	1212.40
408.43	1257.45
408.63	1208.30
408.84	1345.52
409.05	1306.60
409.25	1263.60
409.46	1284.08
409.67	1271.79
409.88	1216.49
410.08	1267.69
410.29	1251.31
410.50	1202.16
410.70	1331.18
410.91	1257.45
411.12	1282.03
411.32	1226.73
411.53	1247.21
411.74	1277.93
411.95	1304.56
412.15	1271.79
412.36	1314.80
412.57	1335.28
412.77	1288.17
412.98	1263.60
413.19	1279.98
413.39	1257.45
413.60	1388.52
413.81	1191.92
414.01	1302.51
414.22	1284.08
414.43	1251.31
414.63	1224.69
414.84	1282.03
415.05	1273.84
415.25	1279.98
415.46	1212.40
415.67	1273.84
415.87	1263.60
416.08	1292.27
416.29	1288.17
416.49	1261.55
416.70	1275.88
416.91	1288.17
417.11	1292.27
417.32	1333.23
417.53	1292.27
417.73	1263.60
417.94	1300.46
418.15	1308.65
418.35	1286.12
418.56	1226.73
418.77	1212.40
418.97	1202.16
419.18	1316.84
419.38	1239.02
419.59	1263.60
419.80	1230.83
420.00	1234.93
420.21	1325.04
420.42	1279.98
420.62	1257.45
420.83	1257.45
421.04	1253.36
421.24	1230.83
421.45	1310.70
421.65	1247.21
421.86	1257.45
422.07	1314.80
422.27	1224.69
422.48	1265.64
422.69	1245.16
422.89	1253.36
423.10	1239.02
423.30	1300.46
423.51	1269.74
423.72	1236.97
423.92	1251.31
424.13	1320.94
424.33	1298.41
424.54	1265.64
424.75	1322.99
424.95	1292.27
425.16	1232.88
425.36	1327.08
425.57	1343.47
425.78	1279.98
425.98	1275.88
426.19	1284.08
426.39	1261.55
426.60	1187.82
426.81	1306.60
427.01	1308.65
427.22	1279.98
427.42	1267.69
427.63	1275.88
427.83	1320.94
428.04	1292.27
428.25	1327.08
428.45	1271.79
428.66	1353.71
428.86	1286.12
429.07	1261.55
429.28	1322.99
429.48	1269.74
429.69	1234.93
429.89	1245.16
430.10	1216.49
430.30	1279.98
430.51	1273.84
430.71	1292.27
430.92	1226.73
431.13	1296.36
431.33	1239.02
431.54	1279.98
431.74	1226.73
431.95	1257.45
432.15	1282.03
432.36	1232.88
432.56	1226.73
432.77	1263.60
432.98	1310.70
433.18	1339.37
433.39	1224.69
433.59	1286.12
433.80	1257.45
434.00	1316.84
434.21	1294.32
434.41	1282.03
434.62	1306.60
434.82	1316.84
435.03	1253.36
435.23	1275.88
435.44	1273.84
435.64	1310.70
435.85	1247.21
436.06	1212.40
436.26	1241.07
436.47	1359.85
436.67	1298.41
436.88	1230.83
437.08	1234.93
437.29	1245.16
437.49	1296.36
437.70	1249.26
437.90	1325.04
438.11	1304.56
438.31	1236.97
438.52	1314.80
438.72	1271.79
438.93	1288.17
439.13	1198.06
439.34	1224.69
439.54	1304.56
439.75	1320.94
439.95	1263.60
440.16	1267.69
440.36	1318.89
440.57	1257.45
440.77	1318.89
440.98	1257.45
441.18	1275.88
441.39	1251.31
441.59	1243.12
441.80	1312.75
442.00	1304.56
442.21	1310.70
442.41	1265.64
442.62	1267.69
442.82	1308.65
443.02	1249.26
443.23	1228.78
443.43	1236.97
443.64	1314.80
443.84	1185.77
444.05	1191.92
444.25	1249.26
444.46	1320.94
444.66	1300.46
444.87	1292.27
445.07	1200.11
445.28	1290.22
445.48	1241.07
445.69	1263.60
445.89	1239.02
446.09	1288.17
446.30	1329.13
446.50	1279.98
446.71	1279.98
446.91	1286.12
447.12	1198.06
447.32	1294.32
447.53	1253.36
447.73	1290.22
447.93	1200.11
448.14	1259.50
448.34	1353.71
448.55	1329.13
448.75	1224.69
448.96	1292.27
449.16	1288.17
449.36	1251.31
449.57	1253.36
449.77	1296.36
449.98	1271.79
450.18	1300.46
450.39	1327.08
450.59	1279.98
450.79	1263.60
451.00	1216.49
451.20	1249.26
451.41	1322.99
451.61	1327.08
451.81	1261.55
452.02	1279.98
452.22	1245.16
452.43	1286.12
452.63	1239.02
