SpectraSuite Data File
++++++++++++++++++++++++++++++++++++
Date: Sun Apr 03 19:55:13 CEST 2016
User: root
Dark Spectrum Present: No
Reference Spectrum Present: No
Number of Sampled Component Spectra: 1
Spectrometers: USB4C02835
Integration Time (usec): 10000 (USB4C02835)
Spectra Averaged: 1 (USB4C02835)
Boxcar Smoothing: 0 (USB4C02835)
Correct for Electrical Dark: No (USB4C02835)
Strobe/Lamp Enabled: No (USB4C02835)
Correct for Detector Non-linearity: No (USB4C02835)
Correct for Stray Light: No (USB4C02835)
Number of Pixels in Processed Spectrum: 3648
>>>>>Begin Processed Spectral Data<<<<<
177.47	1165.29
177.69	1165.29
177.91	1165.29
178.13	1257.45
178.36	1239.02
178.58	1263.60
178.80	1222.64
179.02	1273.84
179.24	1214.45
179.46	1259.50
179.68	1249.26
179.90	1245.16
180.13	1308.65
180.35	1255.40
180.57	1267.69
180.79	1294.32
181.01	1296.36
181.23	1282.03
181.45	1286.12
181.67	1273.84
181.90	1204.21
182.12	1275.88
182.34	1263.60
182.56	1275.88
182.78	1265.64
183.00	1234.93
183.22	1247.21
183.44	1269.74
183.66	1298.41
183.89	1310.70
184.11	1234.93
184.33	1216.49
184.55	1288.17
184.77	1228.78
184.99	1308.65
185.21	1245.16
185.43	1318.89
185.65	1263.60
185.87	1241.07
186.10	1269.74
186.32	1304.56
186.54	1300.46
186.76	1253.36
186.98	1294.32
187.20	1255.40
187.42	1239.02
187.64	1271.79
187.86	1224.69
188.08	1394.67
188.30	1265.64
188.52	1247.21
188.75	1212.40
188.97	1302.51
189.19	1232.88
189.41	1241.07
189.63	1259.50
189.85	1239.02
190.07	1243.12
190.29	1302.51
190.51	1220.59
190.73	1308.65
190.95	1263.60
191.17	1269.74
191.39	1243.12
191.61	1269.74
191.84	1273.84
192.06	1269.74
192.28	1220.59
192.50	1304.56
192.72	1245.16
192.94	1259.50
193.16	1316.84
193.38	1228.78
193.60	1251.31
193.82	1300.46
194.04	1196.01
194.26	1245.16
194.48	1261.55
194.70	1222.64
194.92	1306.60
195.14	1322.99
195.36	1212.40
195.58	1329.13
195.80	1277.93
196.02	1273.84
196.24	1257.45
196.46	1200.11
196.69	1282.03
196.91	1249.26
197.13	1253.36
197.35	1239.02
197.57	1177.58
197.79	1243.12
198.01	1329.13
198.23	1343.47
198.45	1210.35
198.67	1173.49
198.89	1261.55
199.11	1224.69
199.33	1243.12
199.55	1232.88
199.77	1286.12
199.99	1271.79
200.21	1255.40
200.43	1230.83
200.65	1292.27
200.87	1228.78
201.09	1241.07
201.31	1310.70
201.53	1222.64
201.75	1337.32
201.97	1239.02
202.19	1245.16
202.41	1249.26
202.63	1288.17
202.85	1275.88
203.07	1259.50
203.29	1314.80
203.51	1376.24
203.73	1279.98
203.95	1208.30
204.17	1251.31
204.39	1261.55
204.61	1210.35
204.83	1284.08
205.05	1236.97
205.27	1269.74
205.49	1302.51
205.71	1253.36
205.93	1288.17
206.15	1284.08
206.37	1269.74
206.59	1372.14
206.81	1241.07
207.03	1273.84
207.25	1282.03
207.47	1265.64
207.69	1257.45
207.91	1320.94
208.13	1267.69
208.34	1273.84
208.56	1251.31
208.78	1306.60
209.00	1191.92
209.22	1265.64
209.44	1273.84
209.66	1249.26
209.88	1279.98
210.10	1208.30
210.32	1298.41
210.54	1284.08
210.76	1277.93
210.98	1290.22
211.20	1204.21
211.42	1208.30
211.64	1314.80
211.86	1230.83
212.08	1304.56
212.30	1273.84
212.52	1206.25
212.74	1247.21
212.96	1200.11
213.17	1239.02
213.39	1216.49
213.61	1325.04
213.83	1249.26
214.05	1255.40
214.27	1271.79
214.49	1331.18
214.71	1318.89
214.93	1335.28
215.15	1290.22
215.37	1296.36
215.59	1288.17
215.81	1331.18
216.03	1282.03
216.24	1226.73
216.46	1300.46
216.68	1339.37
216.90	1241.07
217.12	1300.46
217.34	1245.16
217.56	1335.28
217.78	1292.27
218.00	1359.85
218.22	1341.42
218.44	1279.98
218.66	1185.77
218.87	1257.45
219.09	1265.64
219.31	1273.84
219.53	1236.97
219.75	1232.88
219.97	1239.02
220.19	1298.41
220.41	1253.36
220.63	1263.60
220.85	1243.12
221.06	1292.27
221.28	1366.00
221.50	1304.56
221.72	1230.83
221.94	1234.93
222.16	1269.74
222.38	1345.52
222.60	1261.55
222.82	1310.70
223.03	1230.83
223.25	1232.88
223.47	1241.07
223.69	1253.36
223.91	1251.31
224.13	1222.64
224.35	1329.13
224.57	1286.12
224.78	1265.64
225.00	1265.64
225.22	1200.11
225.44	1331.18
225.66	1191.92
225.88	1339.37
226.10	1251.31
226.32	1294.32
226.53	1339.37
226.75	1273.84
226.97	1191.92
227.19	1261.55
227.41	1327.08
227.63	1259.50
227.85	1187.82
228.06	1279.98
228.28	1282.03
228.50	1245.16
228.72	1271.79
228.94	1273.84
229.16	1259.50
229.37	1167.34
229.59	1279.98
229.81	1257.45
230.03	1282.03
230.25	1245.16
230.47	1298.41
230.69	1210.35
230.90	1236.97
231.12	1275.88
231.34	1316.84
231.56	1206.25
231.78	1288.17
232.00	1275.88
232.21	1263.60
232.43	1230.83
232.65	1224.69
232.87	1282.03
233.09	1267.69
233.30	1251.31
233.52	1306.60
233.74	1322.99
233.96	1249.26
234.18	1142.77
234.40	1269.74
234.61	1230.83
234.83	1220.59
235.05	1239.02
235.27	1271.79
235.49	1314.80
235.70	1255.40
235.92	1247.21
236.14	1204.21
236.36	1249.26
236.58	1275.88
236.79	1308.65
237.01	1325.04
237.23	1279.98
237.45	1294.32
237.67	1277.93
237.88	1255.40
238.10	1288.17
238.32	1239.02
238.54	1304.56
238.76	1249.26
238.97	1277.93
239.19	1322.99
239.41	1302.51
239.63	1286.12
239.85	1263.60
240.06	1236.97
240.28	1275.88
240.50	1218.54
240.72	1259.50
240.93	1271.79
241.15	1245.16
241.37	1273.84
241.59	1271.79
241.81	1234.93
242.02	1261.55
242.24	1370.09
242.46	1335.28
242.68	1298.41
242.89	1155.05
243.11	1302.51
243.33	1212.40
243.55	1253.36
243.76	1298.41
243.98	1265.64
244.20	1216.49
244.42	1304.56
244.64	1220.59
244.85	1265.64
245.07	1251.31
245.29	1216.49
245.51	1230.83
245.72	1263.60
245.94	1261.55
246.16	1224.69
246.38	1222.64
246.59	1294.32
246.81	1251.31
247.03	1245.16
247.24	1232.88
247.46	1277.93
247.68	1241.07
247.90	1271.79
248.11	1290.22
248.33	1245.16
248.55	1253.36
248.77	1267.69
248.98	1255.40
249.20	1249.26
249.42	1267.69
249.64	1259.50
249.85	1191.92
250.07	1277.93
250.29	1292.27
250.50	1298.41
250.72	1267.69
250.94	1288.17
251.16	1302.51
251.37	1300.46
251.59	1288.17
251.81	1247.21
252.02	1306.60
252.24	1245.16
252.46	1298.41
252.68	1216.49
252.89	1320.94
253.11	1234.93
253.33	1366.00
253.54	1261.55
253.76	1267.69
253.98	1245.16
254.20	1224.69
254.41	1300.46
254.63	1245.16
254.85	1241.07
255.06	1247.21
255.28	1261.55
255.50	1261.55
255.71	1329.13
255.93	1261.55
256.15	1263.60
256.36	1277.93
256.58	1284.08
256.80	1234.93
257.02	1277.93
257.23	1216.49
257.45	1198.06
257.67	1263.60
257.88	1306.60
258.10	1261.55
258.32	1218.54
258.53	1279.98
258.75	1269.74
258.97	1308.65
259.18	1150.96
259.40	1261.55
259.62	1245.16
259.83	1255.40
260.05	1263.60
260.27	1239.02
260.48	1316.84
260.70	1312.75
260.92	1257.45
261.13	1325.04
261.35	1236.97
261.57	1241.07
261.78	1234.93
262.00	1335.28
262.22	1318.89
262.43	1265.64
262.65	1331.18
262.86	1290.22
263.08	1251.31
263.30	1253.36
263.51	1253.36
263.73	1273.84
263.95	1357.80
264.16	1263.60
264.38	1271.79
264.60	1247.21
264.81	1314.80
265.03	1300.46
265.25	1290.22
265.46	1249.26
265.68	1269.74
265.89	1261.55
266.11	1302.51
266.33	1222.64
266.54	1239.02
266.76	1294.32
266.98	1347.56
267.19	1261.55
267.41	1308.65
267.62	1249.26
267.84	1228.78
268.06	1253.36
268.27	1236.97
268.49	1257.45
268.70	1277.93
268.92	1236.97
269.14	1325.04
269.35	1310.70
269.57	1288.17
269.79	1359.85
270.00	1265.64
270.22	1261.55
270.43	1312.75
270.65	1247.21
270.87	1245.16
271.08	1261.55
271.30	1196.01
271.51	1216.49
271.73	1214.45
271.95	1290.22
272.16	1300.46
272.38	1255.40
272.59	1275.88
272.81	1269.74
273.02	1253.36
273.24	1306.60
273.46	1304.56
273.67	1277.93
273.89	1253.36
274.10	1288.17
274.32	1234.93
274.54	1314.80
274.75	1253.36
274.97	1302.51
275.18	1312.75
275.40	1232.88
275.61	1288.17
275.83	1337.32
276.05	1249.26
276.26	1236.97
276.48	1320.94
276.69	1286.12
276.91	1179.63
277.12	1277.93
277.34	1300.46
277.55	1226.73
277.77	1210.35
277.99	1232.88
278.20	1247.21
278.42	1236.97
278.63	1255.40
278.85	1222.64
279.06	1275.88
279.28	1306.60
279.49	1322.99
279.71	1298.41
279.93	1302.51
280.14	1232.88
280.36	1224.69
280.57	1232.88
280.79	1277.93
281.00	1267.69
281.22	1185.77
281.43	1230.83
281.65	1236.97
281.86	1312.75
282.08	1259.50
282.29	1200.11
282.51	1185.77
282.73	1308.65
282.94	1243.12
283.16	1271.79
283.37	1243.12
283.59	1298.41
283.80	1304.56
284.02	1257.45
284.23	1239.02
284.45	1236.97
284.66	1243.12
284.88	1282.03
285.09	1236.97
285.31	1314.80
285.52	1216.49
285.74	1232.88
285.95	1222.64
286.17	1273.84
286.38	1255.40
286.60	1247.21
286.81	1232.88
287.03	1226.73
287.24	1294.32
287.46	1279.98
287.67	1294.32
287.89	1265.64
288.10	1267.69
288.32	1230.83
288.53	1316.84
288.75	1355.76
288.96	1286.12
289.18	1308.65
289.39	1269.74
289.61	1255.40
289.82	1257.45
290.04	1255.40
290.25	1273.84
290.47	1189.87
290.68	1277.93
290.90	1306.60
291.11	1253.36
291.33	1290.22
291.54	1306.60
291.76	1212.40
291.97	1341.42
292.18	1265.64
292.40	1386.47
292.61	1212.40
292.83	1269.74
293.04	1259.50
293.26	1255.40
293.47	1191.92
293.69	1236.97
293.90	1255.40
294.12	1259.50
294.33	1318.89
294.55	1232.88
294.76	1226.73
294.97	1269.74
295.19	1279.98
295.40	1275.88
295.62	1263.60
295.83	1265.64
296.05	1308.65
296.26	1245.16
296.48	1277.93
296.69	1253.36
296.90	1361.90
297.12	1230.83
297.33	1224.69
297.55	1316.84
297.76	1239.02
297.98	1282.03
298.19	1318.89
298.41	1218.54
298.62	1286.12
298.83	1212.40
299.05	1263.60
299.26	1161.20
299.48	1257.45
299.69	1234.93
299.90	1261.55
300.12	1261.55
300.33	1304.56
300.55	1224.69
300.76	1282.03
300.98	1236.97
301.19	1183.73
301.40	1306.60
301.62	1257.45
301.83	1257.45
302.05	1282.03
302.26	1273.84
302.47	1239.02
302.69	1261.55
302.90	1298.41
303.12	1232.88
303.33	1304.56
303.54	1208.30
303.76	1310.70
303.97	1314.80
304.19	1273.84
304.40	1263.60
304.61	1265.64
304.83	1216.49
305.04	1298.41
305.26	1228.78
305.47	1234.93
305.68	1290.22
305.90	1304.56
306.11	1267.69
306.33	1329.13
306.54	1243.12
306.75	1234.93
306.97	1196.01
307.18	1253.36
307.39	1253.36
307.61	1273.84
307.82	1290.22
308.04	1273.84
308.25	1222.64
308.46	1249.26
308.68	1269.74
308.89	1273.84
309.10	1257.45
309.32	1255.40
309.53	1261.55
309.74	1181.68
309.96	1267.69
310.17	1267.69
310.39	1171.44
310.60	1247.21
310.81	1241.07
311.03	1218.54
311.24	1253.36
311.45	1249.26
311.67	1277.93
311.88	1216.49
312.09	1253.36
312.31	1279.98
312.52	1292.27
312.73	1277.93
312.95	1271.79
313.16	1232.88
313.37	1327.08
313.59	1263.60
313.80	1296.36
314.01	1282.03
314.23	1292.27
314.44	1271.79
314.65	1224.69
314.87	1253.36
315.08	1247.21
315.29	1249.26
315.51	1206.25
315.72	1304.56
315.93	1284.08
316.15	1206.25
316.36	1263.60
316.57	1171.44
316.79	1269.74
317.00	1251.31
317.21	1212.40
317.43	1173.49
317.64	1198.06
317.85	1288.17
318.07	1275.88
318.28	1243.12
318.49	1185.77
318.70	1288.17
318.92	1271.79
319.13	1261.55
319.34	1284.08
319.56	1304.56
319.77	1302.51
319.98	1325.04
320.20	1316.84
320.41	1314.80
320.62	1247.21
320.83	1263.60
321.05	1218.54
321.26	1228.78
321.47	1243.12
321.69	1204.21
321.90	1228.78
322.11	1310.70
322.32	1255.40
322.54	1202.16
322.75	1314.80
322.96	1302.51
323.18	1306.60
323.39	1245.16
323.60	1288.17
323.81	1282.03
324.03	1318.89
324.24	1214.45
324.45	1284.08
324.66	1236.97
324.88	1335.28
325.09	1267.69
325.30	1275.88
325.52	1200.11
325.73	1222.64
325.94	1302.51
326.15	1302.51
326.37	1247.21
326.58	1269.74
326.79	1292.27
327.00	1282.03
327.22	1218.54
327.43	1224.69
327.64	1325.04
327.85	1247.21
328.07	1273.84
328.28	1290.22
328.49	1245.16
328.70	1298.41
328.92	1234.93
329.13	1331.18
329.34	1228.78
329.55	1261.55
329.76	1200.11
329.98	1275.88
330.19	1288.17
330.40	1208.30
330.61	1259.50
330.83	1316.84
331.04	1241.07
331.25	1249.26
331.46	1200.11
331.68	1204.21
331.89	1259.50
332.10	1239.02
332.31	1345.52
332.52	1243.12
332.74	1279.98
332.95	1302.51
333.16	1320.94
333.37	1329.13
333.58	1267.69
333.80	1269.74
334.01	1228.78
334.22	1298.41
334.43	1265.64
334.64	1212.40
334.86	1306.60
335.07	1253.36
335.28	1257.45
335.49	1232.88
335.70	1220.59
335.92	1236.97
336.13	1298.41
336.34	1232.88
336.55	1249.26
336.76	1322.99
336.98	1220.59
337.19	1314.80
337.40	1275.88
337.61	1236.97
337.82	1261.55
338.04	1306.60
338.25	1269.74
338.46	1243.12
338.67	1294.32
338.88	1322.99
339.09	1251.31
339.31	1247.21
339.52	1327.08
339.73	1261.55
339.94	1206.25
340.15	1275.88
340.36	1306.60
340.58	1175.53
340.79	1239.02
341.00	1261.55
341.21	1220.59
341.42	1275.88
341.63	1228.78
341.85	1189.87
342.06	1314.80
342.27	1216.49
342.48	1314.80
342.69	1337.32
342.90	1271.79
343.12	1251.31
343.33	1206.25
343.54	1318.89
343.75	1271.79
343.96	1273.84
344.17	1228.78
344.38	1300.46
344.60	1234.93
344.81	1243.12
345.02	1224.69
345.23	1234.93
345.44	1304.56
345.65	1349.61
345.86	1286.12
346.07	1282.03
346.29	1275.88
346.50	1249.26
346.71	1282.03
346.92	1320.94
347.13	1257.45
347.34	1251.31
347.55	1228.78
347.76	1173.49
347.98	1200.11
348.19	1267.69
348.40	1318.89
348.61	1206.25
348.82	1265.64
349.03	1206.25
349.24	1247.21
349.45	1310.70
349.66	1265.64
349.88	1304.56
350.09	1290.22
350.30	1279.98
350.51	1247.21
350.72	1261.55
350.93	1322.99
351.14	1249.26
351.35	1263.60
351.56	1275.88
351.77	1218.54
351.99	1316.84
352.20	1290.22
352.41	1230.83
352.62	1290.22
352.83	1298.41
353.04	1273.84
353.25	1286.12
353.46	1325.04
353.67	1284.08
353.88	1247.21
354.09	1306.60
354.30	1314.80
354.52	1228.78
354.73	1308.65
354.94	1269.74
355.15	1193.97
355.36	1331.18
355.57	1245.16
355.78	1228.78
355.99	1273.84
356.20	1236.97
356.41	1294.32
356.62	1247.21
356.83	1271.79
357.04	1267.69
357.25	1232.88
357.46	1263.60
357.68	1245.16
357.89	1279.98
358.10	1265.64
358.31	1282.03
358.52	1241.07
358.73	1284.08
358.94	1310.70
359.15	1214.45
359.36	1241.07
359.57	1302.51
359.78	1296.36
359.99	1271.79
360.20	1261.55
360.41	1206.25
360.62	1251.31
360.83	1320.94
361.04	1335.28
361.25	1286.12
361.46	1269.74
361.67	1273.84
361.88	1265.64
362.09	1257.45
362.30	1236.97
362.51	1288.17
362.72	1251.31
362.93	1245.16
363.14	1290.22
363.35	1249.26
363.56	1226.73
363.78	1310.70
363.99	1173.49
364.20	1243.12
364.41	1206.25
364.62	1288.17
364.83	1345.52
365.04	1290.22
365.25	1314.80
365.46	1222.64
365.67	1288.17
365.88	1290.22
366.09	1267.69
366.30	1296.36
366.51	1288.17
366.72	1261.55
366.93	1245.16
367.14	1214.45
367.35	1304.56
367.56	1251.31
367.77	1249.26
367.98	1253.36
368.18	1196.01
368.39	1271.79
368.60	1232.88
368.81	1277.93
369.02	1251.31
369.23	1273.84
369.44	1316.84
369.65	1263.60
369.86	1288.17
370.07	1179.63
370.28	1218.54
370.49	1241.07
370.70	1249.26
370.91	1214.45
371.12	1208.30
371.33	1298.41
371.54	1359.85
371.75	1265.64
371.96	1273.84
372.17	1216.49
372.38	1306.60
372.59	1269.74
372.80	1251.31
373.01	1241.07
373.22	1236.97
373.43	1239.02
373.64	1282.03
373.85	1253.36
374.06	1239.02
374.26	1245.16
374.47	1298.41
374.68	1286.12
374.89	1220.59
375.10	1273.84
375.31	1273.84
375.52	1241.07
375.73	1204.21
375.94	1267.69
376.15	1251.31
376.36	1239.02
376.57	1271.79
376.78	1239.02
376.99	1259.50
377.20	1271.79
377.40	1302.51
377.61	1220.59
377.82	1216.49
378.03	1247.21
378.24	1269.74
378.45	1210.35
378.66	1267.69
378.87	1267.69
379.08	1298.41
379.29	1175.53
379.50	1198.06
379.71	1239.02
379.91	1279.98
380.12	1284.08
380.33	1216.49
380.54	1243.12
380.75	1212.40
380.96	1271.79
381.17	1206.25
381.38	1232.88
381.59	1271.79
381.80	1218.54
382.00	1263.60
382.21	1243.12
382.42	1290.22
382.63	1196.01
382.84	1257.45
383.05	1259.50
383.26	1349.61
383.47	1284.08
383.68	1253.36
383.88	1284.08
384.09	1282.03
384.30	1259.50
384.51	1230.83
384.72	1345.52
384.93	1249.26
385.14	1218.54
385.35	1208.30
385.55	1269.74
385.76	1196.01
385.97	1243.12
386.18	1179.63
386.39	1255.40
386.60	1306.60
386.81	1304.56
387.02	1226.73
387.22	1286.12
387.43	1226.73
387.64	1224.69
387.85	1255.40
388.06	1304.56
388.27	1206.25
388.48	1253.36
388.68	1241.07
388.89	1292.27
389.10	1263.60
389.31	1269.74
389.52	1245.16
389.73	1245.16
389.93	1288.17
390.14	1239.02
390.35	1298.41
390.56	1329.13
390.77	1308.65
390.98	1273.84
391.18	1286.12
391.39	1245.16
391.60	1269.74
391.81	1282.03
392.02	1316.84
392.23	1302.51
392.43	1255.40
392.64	1275.88
392.85	1275.88
393.06	1269.74
393.27	1318.89
393.47	1320.94
393.68	1329.13
393.89	1277.93
394.10	1298.41
394.31	1253.36
394.52	1286.12
394.72	1193.97
394.93	1279.98
395.14	1263.60
395.35	1210.35
395.56	1247.21
395.76	1298.41
395.97	1251.31
396.18	1296.36
396.39	1218.54
396.60	1228.78
396.80	1284.08
397.01	1243.12
397.22	1247.21
397.43	1329.13
397.64	1255.40
397.84	1259.50
398.05	1316.84
398.26	1204.21
398.47	1298.41
398.67	1247.21
398.88	1310.70
399.09	1247.21
399.30	1302.51
399.51	1288.17
399.71	1257.45
399.92	1298.41
400.13	1232.88
400.34	1300.46
400.54	1302.51
400.75	1322.99
400.96	1277.93
401.17	1310.70
401.37	1241.07
401.58	1296.36
401.79	1331.18
402.00	1265.64
402.21	1265.64
402.41	1257.45
402.62	1230.83
402.83	1193.97
403.04	1261.55
403.24	1247.21
403.45	1292.27
403.66	1243.12
403.87	1216.49
404.07	1298.41
404.28	1273.84
404.49	1279.98
404.70	1198.06
404.90	1273.84
405.11	1318.89
405.32	1243.12
405.52	1255.40
405.73	1212.40
405.94	1265.64
406.15	1204.21
406.35	1292.27
406.56	1261.55
406.77	1245.16
406.98	1249.26
407.18	1155.05
407.39	1265.64
407.60	1239.02
407.80	1288.17
408.01	1245.16
408.22	1187.82
408.43	1224.69
408.63	1288.17
408.84	1230.83
409.05	1294.32
409.25	1216.49
409.46	1286.12
409.67	1292.27
409.88	1232.88
410.08	1306.60
410.29	1298.41
410.50	1282.03
410.70	1267.69
410.91	1257.45
411.12	1277.93
411.32	1228.78
411.53	1255.40
411.74	1267.69
411.95	1220.59
412.15	1314.80
412.36	1298.41
412.57	1302.51
412.77	1306.60
412.98	1232.88
413.19	1253.36
413.39	1325.04
413.60	1265.64
413.81	1245.16
414.01	1273.84
414.22	1327.08
414.43	1329.13
414.63	1296.36
414.84	1224.69
415.05	1284.08
415.25	1273.84
415.46	1247.21
415.67	1368.04
415.87	1275.88
416.08	1284.08
416.29	1288.17
416.49	1298.41
416.70	1189.87
416.91	1320.94
417.11	1239.02
417.32	1230.83
417.53	1296.36
417.73	1261.55
417.94	1200.11
418.15	1220.59
418.35	1310.70
418.56	1257.45
418.77	1263.60
418.97	1259.50
419.18	1243.12
419.38	1259.50
419.59	1204.21
419.80	1298.41
420.00	1241.07
420.21	1247.21
420.42	1269.74
420.62	1302.51
420.83	1241.07
421.04	1277.93
421.24	1226.73
421.45	1224.69
421.65	1290.22
421.86	1284.08
422.07	1288.17
422.27	1273.84
422.48	1232.88
422.69	1265.64
422.89	1155.05
423.10	1187.82
423.30	1208.30
423.51	1286.12
423.72	1228.78
423.92	1261.55
424.13	1286.12
424.33	1259.50
424.54	1271.79
424.75	1216.49
424.95	1232.88
425.16	1273.84
425.36	1191.92
425.57	1271.79
425.78	1218.54
425.98	1357.80
426.19	1271.79
426.39	1224.69
426.60	1245.16
426.81	1208.30
427.01	1210.35
427.22	1265.64
427.42	1286.12
427.63	1269.74
427.83	1261.55
428.04	1257.45
428.25	1198.06
428.45	1185.77
428.66	1298.41
428.86	1261.55
429.07	1226.73
429.28	1322.99
429.48	1327.08
429.69	1284.08
429.89	1265.64
430.10	1249.26
430.30	1198.06
430.51	1269.74
430.71	1259.50
430.92	1245.16
431.13	1208.30
431.33	1320.94
431.54	1228.78
431.74	1290.22
431.95	1277.93
432.15	1208.30
432.36	1355.76
432.56	1241.07
432.77	1312.75
432.98	1279.98
433.18	1282.03
433.39	1232.88
433.59	1255.40
433.80	1347.56
434.00	1298.41
434.21	1251.31
434.41	1331.18
434.62	1292.27
434.82	1269.74
435.03	1255.40
435.23	1288.17
435.44	1222.64
435.64	1284.08
435.85	1370.09
436.06	1286.12
436.26	1212.40
436.47	1325.04
436.67	1351.66
436.88	1296.36
437.08	1333.23
437.29	1273.84
437.49	1277.93
437.70	1279.98
437.90	1290.22
438.11	1288.17
438.31	1296.36
438.52	1286.12
438.72	1306.60
438.93	1361.90
439.13	1273.84
439.34	1288.17
439.54	1183.73
439.75	1212.40
439.95	1308.65
440.16	1294.32
440.36	1212.40
440.57	1230.83
440.77	1304.56
440.98	1302.51
441.18	1220.59
441.39	1300.46
441.59	1206.25
441.80	1249.26
442.00	1206.25
442.21	1255.40
442.41	1265.64
442.62	1220.59
442.82	1261.55
443.02	1378.28
443.23	1314.80
443.43	1253.36
443.64	1337.32
443.84	1271.79
444.05	1331.18
444.25	1257.45
444.46	1255.40
444.66	1263.60
444.87	1296.36
445.07	1286.12
445.28	1247.21
445.48	1329.13
445.69	1304.56
445.89	1296.36
446.09	1263.60
446.30	1366.00
446.50	1372.14
446.71	1277.93
446.91	1230.83
447.12	1239.02
447.32	1236.97
447.53	1239.02
447.73	1296.36
447.93	1269.74
448.14	1286.12
448.34	1255.40
448.55	1253.36
448.75	1279.98
448.96	1273.84
449.16	1257.45
449.36	1304.56
449.57	1329.13
449.77	1193.97
449.98	1222.64
450.18	1316.84
450.39	1290.22
450.59	1239.02
450.79	1290.22
451.00	1312.75
451.20	1208.30
451.41	1355.76
451.61	1198.06
451.81	1294.32
452.02	1306.60
452.22	1304.56
452.43	1269.74
452.63	1277.93
