SpectraSuite Data File
++++++++++++++++++++++++++++++++++++
Date: Sun Apr 03 19:55:35 CEST 2016
User: root
Dark Spectrum Present: No
Reference Spectrum Present: No
Number of Sampled Component Spectra: 1
Spectrometers: USB4C02835
Integration Time (usec): 10000 (USB4C02835)
Spectra Averaged: 1 (USB4C02835)
Boxcar Smoothing: 0 (USB4C02835)
Correct for Electrical Dark: No (USB4C02835)
Strobe/Lamp Enabled: No (USB4C02835)
Correct for Detector Non-linearity: No (USB4C02835)
Correct for Stray Light: No (USB4C02835)
Number of Pixels in Processed Spectrum: 3648
>>>>>Begin Processed Spectral Data<<<<<
177.47	1216.49
177.69	1216.49
177.91	1216.49
178.13	1214.45
178.36	1271.79
178.58	1277.93
178.80	1232.88
179.02	1298.41
179.24	1300.46
179.46	1243.12
179.68	1245.16
179.90	1312.75
180.13	1249.26
180.35	1230.83
180.57	1247.21
180.79	1196.01
181.01	1306.60
181.23	1251.31
181.45	1353.71
181.67	1314.80
181.90	1290.22
182.12	1204.21
182.34	1261.55
182.56	1171.44
182.78	1331.18
183.00	1304.56
183.22	1175.53
183.44	1253.36
183.66	1288.17
183.89	1241.07
184.11	1314.80
184.33	1232.88
184.55	1304.56
184.77	1282.03
184.99	1296.36
185.21	1310.70
185.43	1277.93
185.65	1275.88
185.87	1220.59
186.10	1204.21
186.32	1355.76
186.54	1298.41
186.76	1273.84
186.98	1343.47
187.20	1302.51
187.42	1251.31
187.64	1282.03
187.86	1204.21
188.08	1253.36
188.30	1273.84
188.52	1277.93
188.75	1212.40
188.97	1320.94
189.19	1296.36
189.41	1181.68
189.63	1277.93
189.85	1239.02
190.07	1347.56
190.29	1243.12
190.51	1273.84
190.73	1263.60
190.95	1265.64
191.17	1331.18
191.39	1271.79
191.61	1224.69
191.84	1288.17
192.06	1265.64
192.28	1265.64
192.50	1320.94
192.72	1236.97
192.94	1214.45
193.16	1200.11
193.38	1359.85
193.60	1279.98
193.82	1263.60
194.04	1284.08
194.26	1179.63
194.48	1230.83
194.70	1294.32
194.92	1232.88
195.14	1243.12
195.36	1263.60
195.58	1263.60
195.80	1251.31
196.02	1286.12
196.24	1249.26
196.46	1339.37
196.69	1155.05
196.91	1271.79
197.13	1234.93
197.35	1230.83
197.57	1236.97
197.79	1290.22
198.01	1318.89
198.23	1265.64
198.45	1247.21
198.67	1279.98
198.89	1290.22
199.11	1279.98
199.33	1196.01
199.55	1275.88
199.77	1243.12
199.99	1329.13
200.21	1322.99
200.43	1296.36
200.65	1273.84
200.87	1218.54
201.09	1339.37
201.31	1226.73
201.53	1286.12
201.75	1241.07
201.97	1288.17
202.19	1325.04
202.41	1290.22
202.63	1294.32
202.85	1261.55
203.07	1290.22
203.29	1214.45
203.51	1265.64
203.73	1265.64
203.95	1286.12
204.17	1296.36
204.39	1331.18
204.61	1261.55
204.83	1259.50
205.05	1331.18
205.27	1331.18
205.49	1304.56
205.71	1177.58
205.93	1271.79
206.15	1241.07
206.37	1228.78
206.59	1257.45
206.81	1216.49
207.03	1298.41
207.25	1218.54
207.47	1249.26
207.69	1230.83
207.91	1316.84
208.13	1275.88
208.34	1275.88
208.56	1191.92
208.78	1206.25
209.00	1269.74
209.22	1239.02
209.44	1234.93
209.66	1249.26
209.88	1220.59
210.10	1296.36
210.32	1253.36
210.54	1372.14
210.76	1314.80
210.98	1304.56
211.20	1239.02
211.42	1302.51
211.64	1261.55
211.86	1232.88
212.08	1191.92
212.30	1247.21
212.52	1191.92
212.74	1220.59
212.96	1269.74
213.17	1212.40
213.39	1232.88
213.61	1304.56
213.83	1255.40
214.05	1273.84
214.27	1245.16
214.49	1230.83
214.71	1275.88
214.93	1331.18
215.15	1273.84
215.37	1239.02
215.59	1232.88
215.81	1351.66
216.03	1224.69
216.24	1310.70
216.46	1255.40
216.68	1232.88
216.90	1298.41
217.12	1251.31
217.34	1169.39
217.56	1259.50
217.78	1232.88
218.00	1290.22
218.22	1259.50
218.44	1224.69
218.66	1353.71
218.87	1249.26
219.09	1259.50
219.31	1200.11
219.53	1279.98
219.75	1214.45
219.97	1267.69
220.19	1343.47
220.41	1216.49
220.63	1269.74
220.85	1243.12
221.06	1175.53
221.28	1300.46
221.50	1265.64
221.72	1275.88
221.94	1298.41
222.16	1241.07
222.38	1265.64
222.60	1259.50
222.82	1255.40
223.03	1245.16
223.25	1239.02
223.47	1210.35
223.69	1255.40
223.91	1228.78
224.13	1239.02
224.35	1245.16
224.57	1255.40
224.78	1284.08
225.00	1343.47
225.22	1189.87
225.44	1318.89
225.66	1282.03
225.88	1187.82
226.10	1253.36
226.32	1249.26
226.53	1306.60
226.75	1208.30
226.97	1253.36
227.19	1277.93
227.41	1241.07
227.63	1249.26
227.85	1220.59
228.06	1394.67
228.28	1204.21
228.50	1288.17
228.72	1257.45
228.94	1222.64
229.16	1329.13
229.37	1212.40
229.59	1298.41
229.81	1200.11
230.03	1249.26
230.25	1243.12
230.47	1253.36
230.69	1290.22
230.90	1279.98
231.12	1308.65
231.34	1273.84
231.56	1296.36
231.78	1267.69
232.00	1325.04
232.21	1236.97
232.43	1329.13
232.65	1263.60
232.87	1200.11
233.09	1228.78
233.30	1269.74
233.52	1275.88
233.74	1263.60
233.96	1269.74
234.18	1286.12
234.40	1257.45
234.61	1308.65
234.83	1279.98
235.05	1294.32
235.27	1245.16
235.49	1306.60
235.70	1312.75
235.92	1187.82
236.14	1271.79
236.36	1234.93
236.58	1253.36
236.79	1302.51
237.01	1269.74
237.23	1271.79
237.45	1300.46
237.67	1222.64
237.88	1232.88
238.10	1216.49
238.32	1189.87
238.54	1282.03
238.76	1306.60
238.97	1304.56
239.19	1271.79
239.41	1214.45
239.63	1322.99
239.85	1263.60
240.06	1249.26
240.28	1257.45
240.50	1259.50
240.72	1351.66
240.93	1232.88
241.15	1245.16
241.37	1220.59
241.59	1312.75
241.81	1177.58
242.02	1282.03
242.24	1279.98
242.46	1282.03
242.68	1298.41
242.89	1312.75
243.11	1271.79
243.33	1298.41
243.55	1284.08
243.76	1267.69
243.98	1196.01
244.20	1249.26
244.42	1191.92
244.64	1216.49
244.85	1243.12
245.07	1239.02
245.29	1298.41
245.51	1306.60
245.72	1265.64
245.94	1232.88
246.16	1271.79
246.38	1241.07
246.59	1228.78
246.81	1241.07
247.03	1284.08
247.24	1351.66
247.46	1294.32
247.68	1220.59
247.90	1173.49
248.11	1216.49
248.33	1327.08
248.55	1245.16
248.77	1300.46
248.98	1279.98
249.20	1241.07
249.42	1284.08
249.64	1220.59
249.85	1282.03
250.07	1222.64
250.29	1259.50
250.50	1265.64
250.72	1271.79
250.94	1193.97
251.16	1269.74
251.37	1243.12
251.59	1296.36
251.81	1298.41
252.02	1255.40
252.24	1376.24
252.46	1241.07
252.68	1257.45
252.89	1265.64
253.11	1302.51
253.33	1335.28
253.54	1241.07
253.76	1241.07
253.98	1273.84
254.20	1343.47
254.41	1288.17
254.63	1179.63
254.85	1327.08
255.06	1269.74
255.28	1279.98
255.50	1339.37
255.71	1245.16
255.93	1304.56
256.15	1234.93
256.36	1325.04
256.58	1263.60
256.80	1255.40
257.02	1241.07
257.23	1257.45
257.45	1271.79
257.67	1271.79
257.88	1265.64
258.10	1288.17
258.32	1294.32
258.53	1349.61
258.75	1189.87
258.97	1200.11
259.18	1212.40
259.40	1292.27
259.62	1181.68
259.83	1351.66
260.05	1314.80
260.27	1339.37
260.48	1331.18
260.70	1224.69
260.92	1327.08
261.13	1247.21
261.35	1310.70
261.57	1292.27
261.78	1253.36
262.00	1267.69
262.22	1224.69
262.43	1329.13
262.65	1279.98
262.86	1318.89
263.08	1279.98
263.30	1214.45
263.51	1202.16
263.73	1296.36
263.95	1198.06
264.16	1255.40
264.38	1224.69
264.60	1310.70
264.81	1265.64
265.03	1277.93
265.25	1290.22
265.46	1316.84
265.68	1210.35
265.89	1306.60
266.11	1286.12
266.33	1245.16
266.54	1306.60
266.76	1318.89
266.98	1265.64
267.19	1327.08
267.41	1239.02
267.62	1222.64
267.84	1318.89
268.06	1302.51
268.27	1275.88
268.49	1243.12
268.70	1257.45
268.92	1296.36
269.14	1232.88
269.35	1302.51
269.57	1298.41
269.79	1261.55
270.00	1310.70
270.22	1265.64
270.43	1308.65
270.65	1245.16
270.87	1249.26
271.08	1267.69
271.30	1265.64
271.51	1310.70
271.73	1259.50
271.95	1312.75
272.16	1277.93
272.38	1343.47
272.59	1263.60
272.81	1249.26
273.02	1265.64
273.24	1243.12
273.46	1239.02
273.67	1282.03
273.89	1290.22
274.10	1253.36
274.32	1259.50
274.54	1253.36
274.75	1249.26
274.97	1220.59
275.18	1290.22
275.40	1343.47
275.61	1263.60
275.83	1273.84
276.05	1255.40
276.26	1294.32
276.48	1255.40
276.69	1306.60
276.91	1263.60
277.12	1249.26
277.34	1257.45
277.55	1314.80
277.77	1296.36
277.99	1271.79
278.20	1279.98
278.42	1335.28
278.63	1288.17
278.85	1275.88
279.06	1314.80
279.28	1251.31
279.49	1273.84
279.71	1306.60
279.93	1294.32
280.14	1226.73
280.36	1288.17
280.57	1226.73
280.79	1302.51
281.00	1322.99
281.22	1337.32
281.43	1228.78
281.65	1294.32
281.86	1236.97
282.08	1279.98
282.29	1279.98
282.51	1243.12
282.73	1273.84
282.94	1269.74
283.16	1298.41
283.37	1193.97
283.59	1296.36
283.80	1290.22
284.02	1257.45
284.23	1277.93
284.45	1277.93
284.66	1298.41
284.88	1331.18
285.09	1282.03
285.31	1325.04
285.52	1249.26
285.74	1251.31
285.95	1208.30
286.17	1167.34
286.38	1249.26
286.60	1267.69
286.81	1282.03
287.03	1286.12
287.24	1249.26
287.46	1247.21
287.67	1239.02
287.89	1296.36
288.10	1296.36
288.32	1257.45
288.53	1251.31
288.75	1306.60
288.96	1327.08
289.18	1288.17
289.39	1257.45
289.61	1318.89
289.82	1234.93
290.04	1275.88
290.25	1212.40
290.47	1331.18
290.68	1277.93
290.90	1267.69
291.11	1294.32
291.33	1271.79
291.54	1220.59
291.76	1279.98
291.97	1282.03
292.18	1284.08
292.40	1230.83
292.61	1290.22
292.83	1222.64
293.04	1306.60
293.26	1279.98
293.47	1218.54
293.69	1269.74
293.90	1251.31
294.12	1302.51
294.33	1279.98
294.55	1304.56
294.76	1292.27
294.97	1214.45
295.19	1302.51
295.40	1296.36
295.62	1241.07
295.83	1263.60
296.05	1267.69
296.26	1279.98
296.48	1241.07
296.69	1257.45
296.90	1296.36
297.12	1239.02
297.33	1241.07
297.55	1208.30
297.76	1359.85
297.98	1251.31
298.19	1312.75
298.41	1271.79
298.62	1259.50
298.83	1222.64
299.05	1318.89
299.26	1202.16
299.48	1298.41
299.69	1322.99
299.90	1304.56
300.12	1239.02
300.33	1263.60
300.55	1296.36
300.76	1198.06
300.98	1320.94
301.19	1275.88
301.40	1249.26
301.62	1271.79
301.83	1241.07
302.05	1331.18
302.26	1300.46
302.47	1302.51
302.69	1239.02
302.90	1185.77
303.12	1279.98
303.33	1333.23
303.54	1312.75
303.76	1331.18
303.97	1282.03
304.19	1263.60
304.40	1267.69
304.61	1312.75
304.83	1347.56
305.04	1196.01
305.26	1226.73
305.47	1275.88
305.68	1259.50
305.90	1318.89
306.11	1236.97
306.33	1341.42
306.54	1243.12
306.75	1255.40
306.97	1226.73
307.18	1245.16
307.39	1265.64
307.61	1249.26
307.82	1191.92
308.04	1257.45
308.25	1263.60
308.46	1273.84
308.68	1316.84
308.89	1222.64
309.10	1241.07
309.32	1277.93
309.53	1249.26
309.74	1282.03
309.96	1335.28
310.17	1271.79
310.39	1210.35
310.60	1220.59
310.81	1208.30
311.03	1253.36
311.24	1341.42
311.45	1322.99
311.67	1318.89
311.88	1265.64
312.09	1277.93
312.31	1259.50
312.52	1290.22
312.73	1329.13
312.95	1249.26
313.16	1294.32
313.37	1288.17
313.59	1314.80
313.80	1333.23
314.01	1316.84
314.23	1232.88
314.44	1314.80
314.65	1212.40
314.87	1273.84
315.08	1290.22
315.29	1214.45
315.51	1236.97
315.72	1220.59
315.93	1265.64
316.15	1200.11
316.36	1277.93
316.57	1310.70
316.79	1271.79
317.00	1224.69
317.21	1263.60
317.43	1247.21
317.64	1269.74
317.85	1253.36
318.07	1243.12
318.28	1261.55
318.49	1269.74
318.70	1239.02
318.92	1189.87
319.13	1263.60
319.34	1290.22
319.56	1304.56
319.77	1159.15
319.98	1228.78
320.20	1269.74
320.41	1265.64
320.62	1243.12
320.83	1241.07
321.05	1263.60
321.26	1298.41
321.47	1196.01
321.69	1296.36
321.90	1261.55
322.11	1216.49
322.32	1261.55
322.54	1345.52
322.75	1282.03
322.96	1322.99
323.18	1269.74
323.39	1300.46
323.60	1318.89
323.81	1298.41
324.03	1239.02
324.24	1265.64
324.45	1294.32
324.66	1257.45
324.88	1292.27
325.09	1271.79
325.30	1353.71
325.52	1288.17
325.73	1288.17
325.94	1308.65
326.15	1265.64
326.37	1189.87
326.58	1214.45
326.79	1294.32
327.00	1187.82
327.22	1316.84
327.43	1224.69
327.64	1210.35
327.85	1275.88
328.07	1312.75
328.28	1247.21
328.49	1245.16
328.70	1286.12
328.92	1257.45
329.13	1304.56
329.34	1249.26
329.55	1286.12
329.76	1351.66
329.98	1282.03
330.19	1173.49
330.40	1249.26
330.61	1339.37
330.83	1236.97
331.04	1304.56
331.25	1279.98
331.46	1308.65
331.68	1251.31
331.89	1236.97
332.10	1288.17
332.31	1300.46
332.52	1271.79
332.74	1261.55
332.95	1292.27
333.16	1325.04
333.37	1226.73
333.58	1314.80
333.80	1312.75
334.01	1218.54
334.22	1239.02
334.43	1302.51
334.64	1216.49
334.86	1282.03
335.07	1261.55
335.28	1292.27
335.49	1230.83
335.70	1218.54
335.92	1300.46
336.13	1239.02
336.34	1269.74
336.55	1273.84
336.76	1284.08
336.98	1298.41
337.19	1314.80
337.40	1269.74
337.61	1226.73
337.82	1216.49
338.04	1171.44
338.25	1310.70
338.46	1290.22
338.67	1275.88
338.88	1247.21
339.09	1325.04
339.31	1257.45
339.52	1241.07
339.73	1275.88
339.94	1189.87
340.15	1292.27
340.36	1245.16
340.58	1296.36
340.79	1239.02
341.00	1275.88
341.21	1259.50
341.42	1308.65
341.63	1271.79
341.85	1275.88
342.06	1265.64
342.27	1228.78
342.48	1261.55
342.69	1306.60
342.90	1224.69
343.12	1286.12
343.33	1292.27
343.54	1308.65
343.75	1247.21
343.96	1298.41
344.17	1318.89
344.38	1251.31
344.60	1226.73
344.81	1273.84
345.02	1241.07
345.23	1259.50
345.44	1273.84
345.65	1290.22
345.86	1226.73
346.07	1298.41
346.29	1341.42
346.50	1296.36
346.71	1234.93
346.92	1241.07
347.13	1216.49
347.34	1282.03
347.55	1300.46
347.76	1286.12
347.98	1282.03
348.19	1220.59
348.40	1253.36
348.61	1284.08
348.82	1322.99
349.03	1263.60
349.24	1247.21
349.45	1282.03
349.66	1267.69
349.88	1259.50
350.09	1241.07
350.30	1306.60
350.51	1370.09
350.72	1249.26
350.93	1257.45
351.14	1265.64
351.35	1222.64
351.56	1220.59
351.77	1286.12
351.99	1308.65
352.20	1298.41
352.41	1243.12
352.62	1286.12
352.83	1275.88
353.04	1191.92
353.25	1216.49
353.46	1247.21
353.67	1302.51
353.88	1300.46
354.09	1216.49
354.30	1306.60
354.52	1255.40
354.73	1257.45
354.94	1257.45
355.15	1220.59
355.36	1236.97
355.57	1206.25
355.78	1204.21
355.99	1265.64
356.20	1241.07
356.41	1255.40
356.62	1173.49
356.83	1363.95
357.04	1267.69
357.25	1193.97
357.46	1271.79
357.68	1249.26
357.89	1294.32
358.10	1304.56
358.31	1232.88
358.52	1218.54
358.73	1298.41
358.94	1222.64
359.15	1212.40
359.36	1312.75
359.57	1277.93
359.78	1230.83
359.99	1265.64
360.20	1304.56
360.41	1314.80
360.62	1304.56
360.83	1277.93
361.04	1316.84
361.25	1261.55
361.46	1251.31
361.67	1249.26
361.88	1347.56
362.09	1247.21
362.30	1241.07
362.51	1216.49
362.72	1279.98
362.93	1353.71
363.14	1277.93
363.35	1220.59
363.56	1286.12
363.78	1286.12
363.99	1247.21
364.20	1236.97
364.41	1282.03
364.62	1243.12
364.83	1261.55
365.04	1226.73
365.25	1265.64
365.46	1212.40
365.67	1232.88
365.88	1279.98
366.09	1259.50
366.30	1208.30
366.51	1286.12
366.72	1279.98
366.93	1275.88
367.14	1314.80
367.35	1296.36
367.56	1284.08
367.77	1310.70
367.98	1267.69
368.18	1314.80
368.39	1234.93
368.60	1234.93
368.81	1304.56
369.02	1277.93
369.23	1243.12
369.44	1329.13
369.65	1282.03
369.86	1310.70
370.07	1232.88
370.28	1212.40
370.49	1273.84
370.70	1263.60
370.91	1198.06
371.12	1265.64
371.33	1257.45
371.54	1241.07
371.75	1322.99
371.96	1259.50
372.17	1312.75
372.38	1312.75
372.59	1306.60
372.80	1269.74
373.01	1312.75
373.22	1290.22
373.43	1243.12
373.64	1236.97
373.85	1214.45
374.06	1232.88
374.26	1327.08
374.47	1261.55
374.68	1271.79
374.89	1327.08
375.10	1269.74
375.31	1245.16
375.52	1243.12
375.73	1247.21
375.94	1204.21
376.15	1236.97
376.36	1261.55
376.57	1318.89
376.78	1269.74
376.99	1224.69
377.20	1224.69
377.40	1271.79
377.61	1269.74
377.82	1247.21
378.03	1275.88
378.24	1288.17
378.45	1216.49
378.66	1325.04
378.87	1245.16
379.08	1290.22
379.29	1255.40
379.50	1261.55
379.71	1300.46
379.91	1253.36
380.12	1279.98
380.33	1300.46
380.54	1300.46
380.75	1239.02
380.96	1302.51
381.17	1212.40
381.38	1226.73
381.59	1284.08
381.80	1282.03
382.00	1259.50
382.21	1265.64
382.42	1253.36
382.63	1306.60
382.84	1292.27
383.05	1173.49
383.26	1257.45
383.47	1216.49
383.68	1226.73
383.88	1198.06
384.09	1271.79
384.30	1269.74
384.51	1259.50
384.72	1292.27
384.93	1249.26
385.14	1241.07
385.35	1322.99
385.55	1239.02
385.76	1302.51
385.97	1284.08
386.18	1292.27
386.39	1261.55
386.60	1224.69
386.81	1220.59
387.02	1337.32
387.22	1218.54
387.43	1247.21
387.64	1228.78
387.85	1261.55
388.06	1243.12
388.27	1347.56
388.48	1257.45
388.68	1234.93
388.89	1216.49
389.10	1228.78
389.31	1241.07
389.52	1222.64
389.73	1265.64
389.93	1271.79
390.14	1318.89
390.35	1267.69
390.56	1234.93
390.77	1263.60
390.98	1277.93
391.18	1286.12
391.39	1210.35
391.60	1304.56
391.81	1245.16
392.02	1228.78
392.23	1314.80
392.43	1249.26
392.64	1329.13
392.85	1308.65
393.06	1306.60
393.27	1247.21
393.47	1253.36
393.68	1232.88
393.89	1257.45
394.10	1273.84
394.31	1265.64
394.52	1255.40
394.72	1294.32
394.93	1239.02
395.14	1302.51
395.35	1275.88
395.56	1239.02
395.76	1200.11
395.97	1271.79
396.18	1161.20
396.39	1269.74
396.60	1257.45
396.80	1257.45
397.01	1298.41
397.22	1261.55
397.43	1288.17
397.64	1290.22
397.84	1247.21
398.05	1249.26
398.26	1251.31
398.47	1247.21
398.67	1331.18
398.88	1306.60
399.09	1300.46
399.30	1247.21
399.51	1306.60
399.71	1226.73
399.92	1282.03
400.13	1277.93
400.34	1290.22
400.54	1220.59
400.75	1277.93
400.96	1288.17
401.17	1253.36
401.37	1308.65
401.58	1271.79
401.79	1308.65
402.00	1228.78
402.21	1273.84
402.41	1259.50
402.62	1277.93
402.83	1277.93
403.04	1318.89
403.24	1271.79
403.45	1343.47
403.66	1253.36
403.87	1208.30
404.07	1220.59
404.28	1271.79
404.49	1239.02
404.70	1218.54
404.90	1269.74
405.11	1241.07
405.32	1286.12
405.52	1296.36
405.73	1239.02
405.94	1290.22
406.15	1259.50
406.35	1296.36
406.56	1261.55
406.77	1312.75
406.98	1300.46
407.18	1191.92
407.39	1232.88
407.60	1247.21
407.80	1302.51
408.01	1222.64
408.22	1298.41
408.43	1261.55
408.63	1290.22
408.84	1275.88
409.05	1329.13
409.25	1294.32
409.46	1380.33
409.67	1257.45
409.88	1159.15
410.08	1273.84
410.29	1322.99
410.50	1269.74
410.70	1288.17
410.91	1284.08
411.12	1255.40
411.32	1286.12
411.53	1327.08
411.74	1251.31
411.95	1282.03
412.15	1290.22
412.36	1298.41
412.57	1222.64
412.77	1249.26
412.98	1269.74
413.19	1306.60
413.39	1269.74
413.60	1271.79
413.81	1271.79
414.01	1245.16
414.22	1288.17
414.43	1189.87
414.63	1292.27
414.84	1232.88
415.05	1265.64
415.25	1236.97
415.46	1290.22
415.67	1232.88
415.87	1290.22
416.08	1253.36
416.29	1236.97
416.49	1298.41
416.70	1322.99
416.91	1263.60
417.11	1327.08
417.32	1298.41
417.53	1271.79
417.73	1271.79
417.94	1296.36
418.15	1269.74
418.35	1279.98
418.56	1335.28
418.77	1263.60
418.97	1255.40
419.18	1249.26
419.38	1253.36
419.59	1298.41
419.80	1210.35
420.00	1239.02
420.21	1239.02
420.42	1234.93
420.62	1279.98
420.83	1318.89
421.04	1288.17
421.24	1294.32
421.45	1263.60
421.65	1370.09
421.86	1249.26
422.07	1300.46
422.27	1263.60
422.48	1253.36
422.69	1214.45
422.89	1187.82
423.10	1261.55
423.30	1210.35
423.51	1253.36
423.72	1228.78
423.92	1228.78
424.13	1245.16
424.33	1236.97
424.54	1290.22
424.75	1341.42
424.95	1236.97
425.16	1228.78
425.36	1222.64
425.57	1267.69
425.78	1343.47
425.98	1275.88
426.19	1241.07
426.39	1210.35
426.60	1249.26
426.81	1306.60
427.01	1210.35
427.22	1230.83
427.42	1271.79
427.63	1275.88
427.83	1243.12
428.04	1290.22
428.25	1308.65
428.45	1290.22
428.66	1329.13
428.86	1279.98
429.07	1302.51
429.28	1372.14
429.48	1255.40
429.69	1247.21
429.89	1239.02
430.10	1292.27
430.30	1277.93
430.51	1261.55
430.71	1155.05
430.92	1267.69
431.13	1275.88
431.33	1214.45
431.54	1337.32
431.74	1226.73
431.95	1251.31
432.15	1282.03
432.36	1234.93
432.56	1316.84
432.77	1302.51
432.98	1241.07
433.18	1312.75
433.39	1286.12
433.59	1249.26
433.80	1343.47
434.00	1312.75
434.21	1222.64
434.41	1282.03
434.62	1282.03
434.82	1208.30
435.03	1224.69
435.23	1341.42
435.44	1189.87
435.64	1230.83
435.85	1296.36
436.06	1251.31
436.26	1306.60
436.47	1341.42
436.67	1263.60
436.88	1337.32
437.08	1269.74
437.29	1292.27
437.49	1282.03
437.70	1275.88
437.90	1218.54
438.11	1249.26
438.31	1253.36
438.52	1251.31
438.72	1277.93
438.93	1265.64
439.13	1253.36
439.34	1294.32
439.54	1298.41
439.75	1204.21
439.95	1232.88
440.16	1284.08
440.36	1279.98
440.57	1318.89
440.77	1265.64
440.98	1243.12
441.18	1353.71
441.39	1277.93
441.59	1216.49
441.80	1212.40
442.00	1298.41
442.21	1343.47
442.41	1333.23
442.62	1243.12
442.82	1271.79
443.02	1232.88
443.23	1247.21
443.43	1232.88
443.64	1257.45
443.84	1243.12
444.05	1224.69
444.25	1300.46
444.46	1318.89
444.66	1284.08
444.87	1241.07
445.07	1288.17
445.28	1253.36
445.48	1322.99
445.69	1282.03
445.89	1232.88
446.09	1239.02
446.30	1277.93
446.50	1298.41
446.71	1261.55
446.91	1308.65
447.12	1171.44
447.32	1320.94
447.53	1282.03
447.73	1345.52
447.93	1226.73
448.14	1290.22
448.34	1279.98
448.55	1247.21
448.75	1273.84
448.96	1255.40
449.16	1288.17
449.36	1333.23
449.57	1312.75
449.77	1279.98
449.98	1251.31
450.18	1271.79
450.39	1210.35
450.59	1204.21
450.79	1212.40
451.00	1329.13
451.20	1228.78
451.41	1247.21
451.61	1327.08
451.81	1222.64
452.02	1290.22
452.22	1294.32
452.43	1296.36
452.63	1277.93
