SpectraSuite Data File
++++++++++++++++++++++++++++++++++++
Date: Sun Apr 03 19:55:14 CEST 2016
User: root
Dark Spectrum Present: No
Reference Spectrum Present: No
Number of Sampled Component Spectra: 1
Spectrometers: USB4C02835
Integration Time (usec): 10000 (USB4C02835)
Spectra Averaged: 1 (USB4C02835)
Boxcar Smoothing: 0 (USB4C02835)
Correct for Electrical Dark: No (USB4C02835)
Strobe/Lamp Enabled: No (USB4C02835)
Correct for Detector Non-linearity: No (USB4C02835)
Correct for Stray Light: No (USB4C02835)
Number of Pixels in Processed Spectrum: 3648
>>>>>Begin Processed Spectral Data<<<<<
177.47	1239.02
177.69	1239.02
177.91	1239.02
178.13	1245.16
178.36	1200.11
178.58	1220.59
178.80	1206.25
179.02	1232.88
179.24	1253.36
179.46	1331.18
179.68	1327.08
179.90	1208.30
180.13	1288.17
180.35	1300.46
180.57	1249.26
180.79	1300.46
181.01	1253.36
181.23	1312.75
181.45	1298.41
181.67	1331.18
181.90	1277.93
182.12	1239.02
182.34	1282.03
182.56	1325.04
182.78	1277.93
183.00	1220.59
183.22	1255.40
183.44	1275.88
183.66	1310.70
183.89	1275.88
184.11	1310.70
184.33	1263.60
184.55	1292.27
184.77	1282.03
184.99	1267.69
185.21	1247.21
185.43	1296.36
185.65	1273.84
185.87	1208.30
186.10	1312.75
186.32	1284.08
186.54	1286.12
186.76	1290.22
186.98	1241.07
187.20	1261.55
187.42	1249.26
187.64	1224.69
187.86	1245.16
188.08	1273.84
188.30	1212.40
188.52	1236.97
188.75	1245.16
188.97	1320.94
189.19	1212.40
189.41	1314.80
189.63	1220.59
189.85	1294.32
190.07	1259.50
190.29	1222.64
190.51	1300.46
190.73	1247.21
190.95	1325.04
191.17	1228.78
191.39	1265.64
191.61	1282.03
191.84	1216.49
192.06	1259.50
192.28	1232.88
192.50	1273.84
192.72	1294.32
192.94	1271.79
193.16	1288.17
193.38	1263.60
193.60	1196.01
193.82	1292.27
194.04	1261.55
194.26	1339.37
194.48	1251.31
194.70	1222.64
194.92	1257.45
195.14	1314.80
195.36	1255.40
195.58	1304.56
195.80	1302.51
196.02	1259.50
196.24	1288.17
196.46	1341.42
196.69	1261.55
196.91	1245.16
197.13	1253.36
197.35	1236.97
197.57	1239.02
197.79	1292.27
198.01	1329.13
198.23	1234.93
198.45	1282.03
198.67	1261.55
198.89	1263.60
199.11	1290.22
199.33	1245.16
199.55	1277.93
199.77	1335.28
199.99	1249.26
200.21	1245.16
200.43	1267.69
200.65	1284.08
200.87	1273.84
201.09	1318.89
201.31	1257.45
201.53	1263.60
201.75	1245.16
201.97	1282.03
202.19	1236.97
202.41	1232.88
202.63	1290.22
202.85	1282.03
203.07	1259.50
203.29	1253.36
203.51	1175.53
203.73	1228.78
203.95	1372.14
204.17	1251.31
204.39	1304.56
204.61	1306.60
204.83	1314.80
205.05	1206.25
205.27	1282.03
205.49	1294.32
205.71	1232.88
205.93	1251.31
206.15	1251.31
206.37	1265.64
206.59	1267.69
206.81	1263.60
207.03	1255.40
207.25	1284.08
207.47	1292.27
207.69	1247.21
207.91	1308.65
208.13	1259.50
208.34	1292.27
208.56	1282.03
208.78	1273.84
209.00	1269.74
209.22	1259.50
209.44	1282.03
209.66	1292.27
209.88	1259.50
210.10	1181.68
210.32	1196.01
210.54	1185.77
210.76	1249.26
210.98	1286.12
211.20	1239.02
211.42	1353.71
211.64	1345.52
211.86	1216.49
212.08	1312.75
212.30	1228.78
212.52	1255.40
212.74	1239.02
212.96	1273.84
213.17	1259.50
213.39	1286.12
213.61	1318.89
213.83	1273.84
214.05	1263.60
214.27	1331.18
214.49	1224.69
214.71	1212.40
214.93	1296.36
215.15	1230.83
215.37	1187.82
215.59	1243.12
215.81	1236.97
216.03	1265.64
216.24	1230.83
216.46	1200.11
216.68	1226.73
216.90	1224.69
217.12	1236.97
217.34	1261.55
217.56	1314.80
217.78	1220.59
218.00	1263.60
218.22	1210.35
218.44	1200.11
218.66	1296.36
218.87	1257.45
219.09	1271.79
219.31	1271.79
219.53	1245.16
219.75	1302.51
219.97	1261.55
220.19	1269.74
220.41	1306.60
220.63	1263.60
220.85	1308.65
221.06	1308.65
221.28	1269.74
221.50	1259.50
221.72	1333.23
221.94	1277.93
222.16	1247.21
222.38	1257.45
222.60	1282.03
222.82	1286.12
223.03	1306.60
223.25	1300.46
223.47	1288.17
223.69	1349.61
223.91	1286.12
224.13	1243.12
224.35	1257.45
224.57	1271.79
224.78	1273.84
225.00	1236.97
225.22	1273.84
225.44	1255.40
225.66	1216.49
225.88	1314.80
226.10	1253.36
226.32	1236.97
226.53	1267.69
226.75	1259.50
226.97	1335.28
227.19	1218.54
227.41	1294.32
227.63	1271.79
227.85	1286.12
228.06	1269.74
228.28	1294.32
228.50	1210.35
228.72	1273.84
228.94	1259.50
229.16	1273.84
229.37	1288.17
229.59	1224.69
229.81	1279.98
230.03	1257.45
230.25	1286.12
230.47	1271.79
230.69	1314.80
230.90	1247.21
231.12	1333.23
231.34	1269.74
231.56	1220.59
231.78	1292.27
232.00	1187.82
232.21	1286.12
232.43	1261.55
232.65	1259.50
232.87	1226.73
233.09	1292.27
233.30	1337.32
233.52	1253.36
233.74	1288.17
233.96	1241.07
234.18	1329.13
234.40	1214.45
234.61	1314.80
234.83	1325.04
235.05	1214.45
235.27	1202.16
235.49	1314.80
235.70	1204.21
235.92	1241.07
236.14	1245.16
236.36	1296.36
236.58	1218.54
236.79	1322.99
237.01	1277.93
237.23	1282.03
237.45	1200.11
237.67	1302.51
237.88	1288.17
238.10	1374.19
238.32	1263.60
238.54	1345.52
238.76	1284.08
238.97	1226.73
239.19	1241.07
239.41	1286.12
239.63	1271.79
239.85	1263.60
240.06	1261.55
240.28	1273.84
240.50	1298.41
240.72	1245.16
240.93	1304.56
241.15	1314.80
241.37	1296.36
241.59	1218.54
241.81	1255.40
242.02	1310.70
242.24	1325.04
242.46	1169.39
242.68	1265.64
242.89	1251.31
243.11	1253.36
243.33	1275.88
243.55	1275.88
243.76	1228.78
243.98	1279.98
244.20	1300.46
244.42	1265.64
244.64	1300.46
244.85	1257.45
245.07	1294.32
245.29	1261.55
245.51	1265.64
245.72	1265.64
245.94	1325.04
246.16	1257.45
246.38	1257.45
246.59	1271.79
246.81	1259.50
247.03	1202.16
247.24	1249.26
247.46	1327.08
247.68	1333.23
247.90	1286.12
248.11	1269.74
248.33	1279.98
248.55	1282.03
248.77	1249.26
248.98	1245.16
249.20	1259.50
249.42	1269.74
249.64	1228.78
249.85	1279.98
250.07	1241.07
250.29	1234.93
250.50	1191.92
250.72	1247.21
250.94	1222.64
251.16	1286.12
251.37	1331.18
251.59	1236.97
251.81	1243.12
252.02	1210.35
252.24	1288.17
252.46	1177.58
252.68	1267.69
252.89	1261.55
253.11	1304.56
253.33	1232.88
253.54	1257.45
253.76	1310.70
253.98	1296.36
254.20	1308.65
254.41	1275.88
254.63	1290.22
254.85	1282.03
255.06	1337.32
255.28	1279.98
255.50	1257.45
255.71	1253.36
255.93	1277.93
256.15	1290.22
256.36	1290.22
256.58	1251.31
256.80	1322.99
257.02	1275.88
257.23	1261.55
257.45	1296.36
257.67	1290.22
257.88	1298.41
258.10	1288.17
258.32	1273.84
258.53	1310.70
258.75	1216.49
258.97	1259.50
259.18	1216.49
259.40	1306.60
259.62	1222.64
259.83	1245.16
260.05	1271.79
260.27	1277.93
260.48	1216.49
260.70	1298.41
260.92	1370.09
261.13	1353.71
261.35	1296.36
261.57	1284.08
261.78	1249.26
262.00	1249.26
262.22	1204.21
262.43	1193.97
262.65	1269.74
262.86	1251.31
263.08	1290.22
263.30	1300.46
263.51	1300.46
263.73	1222.64
263.95	1239.02
264.16	1284.08
264.38	1261.55
264.60	1232.88
264.81	1241.07
265.03	1234.93
265.25	1163.25
265.46	1222.64
265.68	1318.89
265.89	1214.45
266.11	1236.97
266.33	1269.74
266.54	1243.12
266.76	1255.40
266.98	1269.74
267.19	1232.88
267.41	1269.74
267.62	1202.16
267.84	1265.64
268.06	1232.88
268.27	1277.93
268.49	1273.84
268.70	1185.77
268.92	1259.50
269.14	1279.98
269.35	1216.49
269.57	1269.74
269.79	1257.45
270.00	1187.82
270.22	1239.02
270.43	1310.70
270.65	1253.36
270.87	1294.32
271.08	1257.45
271.30	1294.32
271.51	1214.45
271.73	1302.51
271.95	1247.21
272.16	1286.12
272.38	1253.36
272.59	1296.36
272.81	1251.31
273.02	1261.55
273.24	1261.55
273.46	1296.36
273.67	1300.46
273.89	1249.26
274.10	1206.25
274.32	1245.16
274.54	1202.16
274.75	1220.59
274.97	1304.56
275.18	1302.51
275.40	1271.79
275.61	1269.74
275.83	1298.41
276.05	1263.60
276.26	1282.03
276.48	1202.16
276.69	1271.79
276.91	1216.49
277.12	1253.36
277.34	1196.01
277.55	1218.54
277.77	1308.65
277.99	1241.07
278.20	1249.26
278.42	1255.40
278.63	1253.36
278.85	1255.40
279.06	1286.12
279.28	1288.17
279.49	1296.36
279.71	1247.21
279.93	1220.59
280.14	1290.22
280.36	1298.41
280.57	1257.45
280.79	1255.40
281.00	1210.35
281.22	1325.04
281.43	1275.88
281.65	1234.93
281.86	1306.60
282.08	1228.78
282.29	1267.69
282.51	1363.95
282.73	1329.13
282.94	1232.88
283.16	1275.88
283.37	1245.16
283.59	1343.47
283.80	1214.45
284.02	1226.73
284.23	1265.64
284.45	1267.69
284.66	1220.59
284.88	1222.64
285.09	1308.65
285.31	1312.75
285.52	1284.08
285.74	1267.69
285.95	1261.55
286.17	1241.07
286.38	1286.12
286.60	1282.03
286.81	1304.56
287.03	1302.51
287.24	1294.32
287.46	1255.40
287.67	1198.06
287.89	1224.69
288.10	1253.36
288.32	1261.55
288.53	1263.60
288.75	1288.17
288.96	1171.44
289.18	1241.07
289.39	1282.03
289.61	1282.03
289.82	1247.21
290.04	1269.74
290.25	1273.84
290.47	1253.36
290.68	1347.56
290.90	1273.84
291.11	1247.21
291.33	1288.17
291.54	1236.97
291.76	1243.12
291.97	1277.93
292.18	1257.45
292.40	1300.46
292.61	1279.98
292.83	1271.79
293.04	1257.45
293.26	1249.26
293.47	1298.41
293.69	1298.41
293.90	1255.40
294.12	1314.80
294.33	1286.12
294.55	1271.79
294.76	1236.97
294.97	1228.78
295.19	1320.94
295.40	1230.83
295.62	1298.41
295.83	1253.36
296.05	1290.22
296.26	1282.03
296.48	1228.78
296.69	1267.69
296.90	1251.31
297.12	1290.22
297.33	1304.56
297.55	1329.13
297.76	1284.08
297.98	1243.12
298.19	1269.74
298.41	1300.46
298.62	1228.78
298.83	1169.39
299.05	1234.93
299.26	1284.08
299.48	1239.02
299.69	1275.88
299.90	1322.99
300.12	1230.83
300.33	1243.12
300.55	1282.03
300.76	1271.79
300.98	1286.12
301.19	1308.65
301.40	1261.55
301.62	1275.88
301.83	1259.50
302.05	1193.97
302.26	1245.16
302.47	1284.08
302.69	1290.22
302.90	1261.55
303.12	1300.46
303.33	1261.55
303.54	1269.74
303.76	1298.41
303.97	1288.17
304.19	1257.45
304.40	1286.12
304.61	1228.78
304.83	1327.08
305.04	1257.45
305.26	1267.69
305.47	1247.21
305.68	1263.60
305.90	1261.55
306.11	1271.79
306.33	1306.60
306.54	1294.32
306.75	1279.98
306.97	1228.78
307.18	1171.44
307.39	1208.30
307.61	1206.25
307.82	1314.80
308.04	1236.97
308.25	1241.07
308.46	1255.40
308.68	1380.33
308.89	1265.64
309.10	1263.60
309.32	1230.83
309.53	1273.84
309.74	1253.36
309.96	1245.16
310.17	1292.27
310.39	1286.12
310.60	1273.84
310.81	1216.49
311.03	1247.21
311.24	1245.16
311.45	1228.78
311.67	1298.41
311.88	1228.78
312.09	1257.45
312.31	1277.93
312.52	1288.17
312.73	1312.75
312.95	1329.13
313.16	1273.84
313.37	1322.99
313.59	1191.92
313.80	1341.42
314.01	1294.32
314.23	1255.40
314.44	1286.12
314.65	1335.28
314.87	1226.73
315.08	1316.84
315.29	1279.98
315.51	1271.79
315.72	1259.50
315.93	1302.51
316.15	1247.21
316.36	1167.34
316.57	1345.52
316.79	1335.28
317.00	1239.02
317.21	1216.49
317.43	1263.60
317.64	1216.49
317.85	1247.21
318.07	1220.59
318.28	1261.55
318.49	1294.32
318.70	1198.06
318.92	1232.88
319.13	1255.40
319.34	1251.31
319.56	1267.69
319.77	1308.65
319.98	1230.83
320.20	1298.41
320.41	1316.84
320.62	1259.50
320.83	1263.60
321.05	1257.45
321.26	1329.13
321.47	1249.26
321.69	1212.40
321.90	1208.30
322.11	1257.45
322.32	1263.60
322.54	1204.21
322.75	1271.79
322.96	1257.45
323.18	1263.60
323.39	1277.93
323.60	1331.18
323.81	1255.40
324.03	1247.21
324.24	1370.09
324.45	1306.60
324.66	1177.58
324.88	1228.78
325.09	1308.65
325.30	1216.49
325.52	1247.21
325.73	1271.79
325.94	1345.52
326.15	1224.69
326.37	1251.31
326.58	1279.98
326.79	1343.47
327.00	1290.22
327.22	1214.45
327.43	1230.83
327.64	1232.88
327.85	1265.64
328.07	1294.32
328.28	1263.60
328.49	1271.79
328.70	1310.70
328.92	1261.55
329.13	1257.45
329.34	1255.40
329.55	1247.21
329.76	1224.69
329.98	1230.83
330.19	1259.50
330.40	1286.12
330.61	1263.60
330.83	1212.40
331.04	1269.74
331.25	1296.36
331.46	1265.64
331.68	1247.21
331.89	1265.64
332.10	1267.69
332.31	1255.40
332.52	1282.03
332.74	1263.60
332.95	1245.16
333.16	1368.04
333.37	1355.76
333.58	1279.98
333.80	1275.88
334.01	1282.03
334.22	1249.26
334.43	1322.99
334.64	1175.53
334.86	1329.13
335.07	1204.21
335.28	1239.02
335.49	1337.32
335.70	1339.37
335.92	1284.08
336.13	1257.45
336.34	1263.60
336.55	1220.59
336.76	1277.93
336.98	1290.22
337.19	1308.65
337.40	1306.60
337.61	1269.74
337.82	1265.64
338.04	1177.58
338.25	1277.93
338.46	1224.69
338.67	1239.02
338.88	1251.31
339.09	1300.46
339.31	1327.08
339.52	1304.56
339.73	1196.01
339.94	1294.32
340.15	1286.12
340.36	1257.45
340.58	1198.06
340.79	1263.60
341.00	1279.98
341.21	1239.02
341.42	1255.40
341.63	1259.50
341.85	1288.17
342.06	1208.30
342.27	1245.16
342.48	1335.28
342.69	1294.32
342.90	1304.56
343.12	1322.99
343.33	1302.51
343.54	1259.50
343.75	1257.45
343.96	1335.28
344.17	1294.32
344.38	1273.84
344.60	1337.32
344.81	1282.03
345.02	1294.32
345.23	1271.79
345.44	1290.22
345.65	1200.11
345.86	1298.41
346.07	1230.83
346.29	1241.07
346.50	1353.71
346.71	1257.45
346.92	1241.07
347.13	1253.36
347.34	1294.32
347.55	1298.41
347.76	1302.51
347.98	1273.84
348.19	1277.93
348.40	1239.02
348.61	1218.54
348.82	1351.66
349.03	1214.45
349.24	1253.36
349.45	1302.51
349.66	1263.60
349.88	1314.80
350.09	1296.36
350.30	1228.78
350.51	1222.64
350.72	1177.58
350.93	1261.55
351.14	1253.36
351.35	1183.73
351.56	1265.64
351.77	1314.80
351.99	1243.12
352.20	1294.32
352.41	1296.36
352.62	1253.36
352.83	1239.02
353.04	1331.18
353.25	1267.69
353.46	1232.88
353.67	1286.12
353.88	1222.64
354.09	1243.12
354.30	1234.93
354.52	1273.84
354.73	1208.30
354.94	1298.41
355.15	1296.36
355.36	1224.69
355.57	1265.64
355.78	1273.84
355.99	1214.45
356.20	1259.50
356.41	1228.78
356.62	1294.32
356.83	1279.98
357.04	1208.30
357.25	1206.25
357.46	1214.45
357.68	1263.60
357.89	1282.03
358.10	1298.41
358.31	1275.88
358.52	1288.17
358.73	1251.31
358.94	1196.01
359.15	1206.25
359.36	1316.84
359.57	1310.70
359.78	1255.40
359.99	1243.12
360.20	1333.23
360.41	1304.56
360.62	1255.40
360.83	1224.69
361.04	1257.45
361.25	1286.12
361.46	1228.78
361.67	1245.16
361.88	1138.67
362.09	1193.97
362.30	1296.36
362.51	1286.12
362.72	1247.21
362.93	1333.23
363.14	1275.88
363.35	1327.08
363.56	1243.12
363.78	1275.88
363.99	1304.56
364.20	1292.27
364.41	1265.64
364.62	1273.84
364.83	1232.88
365.04	1273.84
365.25	1253.36
365.46	1275.88
365.67	1230.83
365.88	1249.26
366.09	1265.64
366.30	1265.64
366.51	1302.51
366.72	1263.60
366.93	1292.27
367.14	1320.94
367.35	1210.35
367.56	1239.02
367.77	1288.17
367.98	1314.80
368.18	1269.74
368.39	1261.55
368.60	1214.45
368.81	1198.06
369.02	1232.88
369.23	1249.26
369.44	1282.03
369.65	1206.25
369.86	1239.02
370.07	1279.98
370.28	1296.36
370.49	1310.70
370.70	1288.17
370.91	1204.21
371.12	1304.56
371.33	1288.17
371.54	1236.97
371.75	1310.70
371.96	1273.84
372.17	1302.51
372.38	1265.64
372.59	1351.66
372.80	1312.75
373.01	1329.13
373.22	1282.03
373.43	1241.07
373.64	1243.12
373.85	1263.60
374.06	1255.40
374.26	1265.64
374.47	1216.49
374.68	1316.84
374.89	1261.55
375.10	1257.45
375.31	1282.03
375.52	1257.45
375.73	1267.69
375.94	1257.45
376.15	1279.98
376.36	1175.53
376.57	1290.22
376.78	1286.12
376.99	1234.93
377.20	1224.69
377.40	1230.83
377.61	1349.61
377.82	1210.35
378.03	1212.40
378.24	1226.73
378.45	1177.58
378.66	1241.07
378.87	1212.40
379.08	1277.93
379.29	1249.26
379.50	1239.02
379.71	1275.88
379.91	1236.97
380.12	1333.23
380.33	1304.56
380.54	1212.40
380.75	1247.21
380.96	1296.36
381.17	1198.06
381.38	1210.35
381.59	1243.12
381.80	1261.55
382.00	1273.84
382.21	1216.49
382.42	1294.32
382.63	1251.31
382.84	1329.13
383.05	1300.46
383.26	1239.02
383.47	1275.88
383.68	1290.22
383.88	1202.16
384.09	1204.21
384.30	1310.70
384.51	1216.49
384.72	1236.97
384.93	1333.23
385.14	1212.40
385.35	1230.83
385.55	1241.07
385.76	1220.59
385.97	1271.79
386.18	1247.21
386.39	1210.35
386.60	1322.99
386.81	1273.84
387.02	1259.50
387.22	1282.03
387.43	1249.26
387.64	1325.04
387.85	1249.26
388.06	1304.56
388.27	1265.64
388.48	1261.55
388.68	1310.70
388.89	1263.60
389.10	1267.69
389.31	1277.93
389.52	1298.41
389.73	1282.03
389.93	1298.41
390.14	1236.97
390.35	1241.07
390.56	1249.26
390.77	1288.17
390.98	1243.12
391.18	1228.78
391.39	1259.50
391.60	1216.49
391.81	1245.16
392.02	1198.06
392.23	1335.28
392.43	1322.99
392.64	1298.41
392.85	1243.12
393.06	1241.07
393.27	1284.08
393.47	1271.79
393.68	1263.60
393.89	1275.88
394.10	1222.64
394.31	1251.31
394.52	1189.87
394.72	1300.46
394.93	1265.64
395.14	1271.79
395.35	1259.50
395.56	1228.78
395.76	1224.69
395.97	1257.45
396.18	1286.12
396.39	1310.70
396.60	1232.88
396.80	1269.74
397.01	1241.07
397.22	1271.79
397.43	1288.17
397.64	1228.78
397.84	1265.64
398.05	1261.55
398.26	1239.02
398.47	1241.07
398.67	1245.16
398.88	1245.16
399.09	1245.16
399.30	1212.40
399.51	1351.66
399.71	1261.55
399.92	1216.49
400.13	1261.55
400.34	1271.79
400.54	1286.12
400.75	1288.17
400.96	1206.25
401.17	1306.60
401.37	1257.45
401.58	1304.56
401.79	1269.74
402.00	1312.75
402.21	1261.55
402.41	1255.40
402.62	1226.73
402.83	1333.23
403.04	1284.08
403.24	1290.22
403.45	1218.54
403.66	1296.36
403.87	1263.60
404.07	1308.65
404.28	1257.45
404.49	1290.22
404.70	1255.40
404.90	1372.14
405.11	1218.54
405.32	1368.04
405.52	1165.29
405.73	1161.20
405.94	1269.74
406.15	1349.61
406.35	1251.31
406.56	1198.06
406.77	1226.73
406.98	1327.08
407.18	1241.07
407.39	1257.45
407.60	1257.45
407.80	1263.60
408.01	1249.26
408.22	1232.88
408.43	1277.93
408.63	1261.55
408.84	1261.55
409.05	1257.45
409.25	1208.30
409.46	1259.50
409.67	1298.41
409.88	1232.88
410.08	1273.84
410.29	1302.51
410.50	1345.52
410.70	1294.32
410.91	1304.56
411.12	1275.88
411.32	1269.74
411.53	1263.60
411.74	1269.74
411.95	1189.87
412.15	1271.79
412.36	1208.30
412.57	1206.25
412.77	1251.31
412.98	1288.17
413.19	1224.69
413.39	1206.25
413.60	1232.88
413.81	1296.36
414.01	1296.36
414.22	1224.69
414.43	1224.69
414.63	1288.17
414.84	1277.93
415.05	1245.16
415.25	1271.79
415.46	1241.07
415.67	1316.84
415.87	1335.28
416.08	1191.92
416.29	1210.35
416.49	1245.16
416.70	1290.22
416.91	1212.40
417.11	1232.88
417.32	1253.36
417.53	1292.27
417.73	1212.40
417.94	1269.74
418.15	1261.55
418.35	1271.79
418.56	1294.32
418.77	1282.03
418.97	1284.08
419.18	1269.74
419.38	1294.32
419.59	1310.70
419.80	1196.01
420.00	1331.18
420.21	1218.54
420.42	1277.93
420.62	1290.22
420.83	1267.69
421.04	1325.04
421.24	1224.69
421.45	1273.84
421.65	1218.54
421.86	1277.93
422.07	1259.50
422.27	1310.70
422.48	1241.07
422.69	1308.65
422.89	1341.42
423.10	1265.64
423.30	1236.97
423.51	1251.31
423.72	1236.97
423.92	1243.12
424.13	1255.40
424.33	1214.45
424.54	1189.87
424.75	1292.27
424.95	1251.31
425.16	1363.95
425.36	1263.60
425.57	1224.69
425.78	1234.93
425.98	1290.22
426.19	1271.79
426.39	1218.54
426.60	1239.02
426.81	1196.01
427.01	1214.45
427.22	1277.93
427.42	1282.03
427.63	1200.11
427.83	1279.98
428.04	1294.32
428.25	1331.18
428.45	1222.64
428.66	1185.77
428.86	1298.41
429.07	1224.69
429.28	1329.13
429.48	1212.40
429.69	1300.46
429.89	1243.12
430.10	1265.64
430.30	1202.16
430.51	1267.69
430.71	1306.60
430.92	1290.22
431.13	1286.12
431.33	1294.32
431.54	1273.84
431.74	1261.55
431.95	1275.88
432.15	1157.10
432.36	1236.97
432.56	1322.99
432.77	1312.75
432.98	1255.40
433.18	1372.14
433.39	1277.93
433.59	1282.03
433.80	1279.98
434.00	1228.78
434.21	1204.21
434.41	1255.40
434.62	1337.32
434.82	1236.97
435.03	1245.16
435.23	1269.74
435.44	1279.98
435.64	1271.79
435.85	1236.97
436.06	1234.93
436.26	1265.64
436.47	1224.69
436.67	1341.42
436.88	1341.42
437.08	1269.74
437.29	1302.51
437.49	1228.78
437.70	1273.84
437.90	1267.69
438.11	1249.26
438.31	1191.92
438.52	1288.17
438.72	1275.88
438.93	1224.69
439.13	1228.78
439.34	1275.88
439.54	1279.98
439.75	1294.32
439.95	1329.13
440.16	1239.02
440.36	1255.40
440.57	1302.51
440.77	1363.95
440.98	1282.03
441.18	1265.64
441.39	1191.92
441.59	1263.60
441.80	1282.03
442.00	1247.21
442.21	1316.84
442.41	1298.41
442.62	1279.98
442.82	1306.60
443.02	1304.56
443.23	1275.88
443.43	1339.37
443.64	1263.60
443.84	1322.99
444.05	1290.22
444.25	1265.64
444.46	1312.75
444.66	1273.84
444.87	1249.26
445.07	1206.25
445.28	1236.97
445.48	1257.45
445.69	1298.41
445.89	1230.83
446.09	1271.79
446.30	1288.17
446.50	1290.22
446.71	1243.12
446.91	1331.18
447.12	1294.32
447.32	1288.17
447.53	1310.70
447.73	1284.08
447.93	1269.74
448.14	1282.03
448.34	1294.32
448.55	1239.02
448.75	1288.17
448.96	1310.70
449.16	1265.64
449.36	1255.40
449.57	1265.64
449.77	1320.94
449.98	1318.89
450.18	1273.84
450.39	1251.31
450.59	1282.03
450.79	1228.78
451.00	1275.88
451.20	1243.12
451.41	1218.54
451.61	1243.12
451.81	1269.74
452.02	1279.98
452.22	1327.08
452.43	1241.07
452.63	1220.59
