SpectraSuite Data File
++++++++++++++++++++++++++++++++++++
Date: Sun Apr 03 19:55:48 CEST 2016
User: root
Dark Spectrum Present: No
Reference Spectrum Present: No
Number of Sampled Component Spectra: 1
Spectrometers: USB4C02835
Integration Time (usec): 10000 (USB4C02835)
Spectra Averaged: 1 (USB4C02835)
Boxcar Smoothing: 0 (USB4C02835)
Correct for Electrical Dark: No (USB4C02835)
Strobe/Lamp Enabled: No (USB4C02835)
Correct for Detector Non-linearity: No (USB4C02835)
Correct for Stray Light: No (USB4C02835)
Number of Pixels in Processed Spectrum: 3648
>>>>>Begin Processed Spectral Data<<<<<
177.47	1296.36
177.69	1296.36
177.91	1296.36
178.13	1230.83
178.36	1251.31
178.58	1277.93
178.80	1259.50
179.02	1267.69
179.24	1314.80
179.46	1288.17
179.68	1255.40
179.90	1277.93
180.13	1314.80
180.35	1208.30
180.57	1282.03
180.79	1279.98
181.01	1214.45
181.23	1249.26
181.45	1253.36
181.67	1273.84
181.90	1261.55
182.12	1251.31
182.34	1236.97
182.56	1236.97
182.78	1230.83
183.00	1249.26
183.22	1265.64
183.44	1191.92
183.66	1255.40
183.89	1316.84
184.11	1284.08
184.33	1292.27
184.55	1273.84
184.77	1269.74
184.99	1259.50
185.21	1236.97
185.43	1265.64
185.65	1232.88
185.87	1224.69
186.10	1316.84
186.32	1230.83
186.54	1267.69
186.76	1224.69
186.98	1243.12
187.20	1279.98
187.42	1282.03
187.64	1333.23
187.86	1337.32
188.08	1241.07
188.30	1236.97
188.52	1308.65
188.75	1282.03
188.97	1269.74
189.19	1216.49
189.41	1269.74
189.63	1263.60
189.85	1255.40
190.07	1261.55
190.29	1300.46
190.51	1212.40
190.73	1308.65
190.95	1310.70
191.17	1236.97
191.39	1179.63
191.61	1279.98
191.84	1298.41
192.06	1302.51
192.28	1261.55
192.50	1212.40
192.72	1245.16
192.94	1318.89
193.16	1255.40
193.38	1183.73
193.60	1282.03
193.82	1222.64
194.04	1310.70
194.26	1331.18
194.48	1243.12
194.70	1290.22
194.92	1198.06
195.14	1306.60
195.36	1290.22
195.58	1292.27
195.80	1224.69
196.02	1277.93
196.24	1257.45
196.46	1247.21
196.69	1279.98
196.91	1257.45
197.13	1255.40
197.35	1302.51
197.57	1351.66
197.79	1200.11
198.01	1273.84
198.23	1286.12
198.45	1294.32
198.67	1236.97
198.89	1247.21
199.11	1298.41
199.33	1196.01
199.55	1288.17
199.77	1302.51
199.99	1282.03
200.21	1347.56
200.43	1296.36
200.65	1193.97
200.87	1243.12
201.09	1239.02
201.31	1226.73
201.53	1288.17
201.75	1353.71
201.97	1228.78
202.19	1208.30
202.41	1234.93
202.63	1275.88
202.85	1277.93
203.07	1261.55
203.29	1265.64
203.51	1245.16
203.73	1296.36
203.95	1234.93
204.17	1279.98
204.39	1255.40
204.61	1251.31
204.83	1222.64
205.05	1243.12
205.27	1284.08
205.49	1310.70
205.71	1292.27
205.93	1322.99
206.15	1236.97
206.37	1290.22
206.59	1179.63
206.81	1216.49
207.03	1257.45
207.25	1263.60
207.47	1277.93
207.69	1327.08
207.91	1304.56
208.13	1282.03
208.34	1302.51
208.56	1202.16
208.78	1236.97
209.00	1196.01
209.22	1288.17
209.44	1206.25
209.66	1284.08
209.88	1308.65
210.10	1298.41
210.32	1189.87
210.54	1288.17
210.76	1271.79
210.98	1296.36
211.20	1210.35
211.42	1353.71
211.64	1282.03
211.86	1255.40
212.08	1292.27
212.30	1277.93
212.52	1290.22
212.74	1279.98
212.96	1267.69
213.17	1335.28
213.39	1347.56
213.61	1271.79
213.83	1259.50
214.05	1277.93
214.27	1245.16
214.49	1296.36
214.71	1232.88
214.93	1304.56
215.15	1265.64
215.37	1308.65
215.59	1241.07
215.81	1253.36
216.03	1327.08
216.24	1251.31
216.46	1204.21
216.68	1304.56
216.90	1241.07
217.12	1290.22
217.34	1296.36
217.56	1247.21
217.78	1277.93
218.00	1318.89
218.22	1236.97
218.44	1273.84
218.66	1282.03
218.87	1253.36
219.09	1286.12
219.31	1302.51
219.53	1179.63
219.75	1325.04
219.97	1259.50
220.19	1208.30
220.41	1327.08
220.63	1263.60
220.85	1300.46
221.06	1290.22
221.28	1255.40
221.50	1259.50
221.72	1318.89
221.94	1222.64
222.16	1347.56
222.38	1263.60
222.60	1308.65
222.82	1228.78
223.03	1271.79
223.25	1325.04
223.47	1306.60
223.69	1380.33
223.91	1165.29
224.13	1216.49
224.35	1292.27
224.57	1206.25
224.78	1255.40
225.00	1232.88
225.22	1263.60
225.44	1255.40
225.66	1275.88
225.88	1263.60
226.10	1239.02
226.32	1220.59
226.53	1267.69
226.75	1288.17
226.97	1290.22
227.19	1310.70
227.41	1314.80
227.63	1249.26
227.85	1261.55
228.06	1308.65
228.28	1306.60
228.50	1314.80
228.72	1357.80
228.94	1230.83
229.16	1220.59
229.37	1204.21
229.59	1265.64
229.81	1243.12
230.03	1255.40
230.25	1239.02
230.47	1226.73
230.69	1269.74
230.90	1335.28
231.12	1243.12
231.34	1300.46
231.56	1275.88
231.78	1257.45
232.00	1251.31
232.21	1228.78
232.43	1265.64
232.65	1306.60
232.87	1298.41
233.09	1247.21
233.30	1282.03
233.52	1212.40
233.74	1277.93
233.96	1275.88
234.18	1251.31
234.40	1261.55
234.61	1265.64
234.83	1308.65
235.05	1290.22
235.27	1304.56
235.49	1298.41
235.70	1247.21
235.92	1339.37
236.14	1245.16
236.36	1284.08
236.58	1261.55
236.79	1247.21
237.01	1247.21
237.23	1234.93
237.45	1275.88
237.67	1222.64
237.88	1302.51
238.10	1290.22
238.32	1232.88
238.54	1234.93
238.76	1314.80
238.97	1255.40
239.19	1255.40
239.41	1150.96
239.63	1208.30
239.85	1308.65
240.06	1212.40
240.28	1267.69
240.50	1322.99
240.72	1275.88
240.93	1322.99
241.15	1345.52
241.37	1282.03
241.59	1265.64
241.81	1220.59
242.02	1279.98
242.24	1267.69
242.46	1288.17
242.68	1296.36
242.89	1329.13
243.11	1304.56
243.33	1220.59
243.55	1177.58
243.76	1284.08
243.98	1269.74
244.20	1210.35
244.42	1273.84
244.64	1251.31
244.85	1253.36
245.07	1220.59
245.29	1273.84
245.51	1216.49
245.72	1249.26
245.94	1265.64
246.16	1265.64
246.38	1304.56
246.59	1210.35
246.81	1312.75
247.03	1290.22
247.24	1302.51
247.46	1265.64
247.68	1263.60
247.90	1316.84
248.11	1251.31
248.33	1279.98
248.55	1282.03
248.77	1279.98
248.98	1286.12
249.20	1277.93
249.42	1294.32
249.64	1259.50
249.85	1255.40
250.07	1243.12
250.29	1327.08
250.50	1261.55
250.72	1263.60
250.94	1267.69
251.16	1273.84
251.37	1245.16
251.59	1310.70
251.81	1296.36
252.02	1216.49
252.24	1200.11
252.46	1226.73
252.68	1175.53
252.89	1191.92
253.11	1224.69
253.33	1216.49
253.54	1261.55
253.76	1261.55
253.98	1279.98
254.20	1269.74
254.41	1210.35
254.63	1298.41
254.85	1290.22
255.06	1247.21
255.28	1298.41
255.50	1214.45
255.71	1294.32
255.93	1220.59
256.15	1304.56
256.36	1159.15
256.58	1220.59
256.80	1257.45
257.02	1228.78
257.23	1302.51
257.45	1257.45
257.67	1273.84
257.88	1224.69
258.10	1222.64
258.32	1220.59
258.53	1257.45
258.75	1220.59
258.97	1241.07
259.18	1255.40
259.40	1241.07
259.62	1261.55
259.83	1337.32
260.05	1228.78
260.27	1273.84
260.48	1312.75
260.70	1249.26
260.92	1288.17
261.13	1253.36
261.35	1243.12
261.57	1290.22
261.78	1263.60
262.00	1312.75
262.22	1312.75
262.43	1335.28
262.65	1318.89
262.86	1290.22
263.08	1214.45
263.30	1265.64
263.51	1202.16
263.73	1259.50
263.95	1279.98
264.16	1239.02
264.38	1245.16
264.60	1314.80
264.81	1273.84
265.03	1298.41
265.25	1261.55
265.46	1206.25
265.68	1253.36
265.89	1345.52
266.11	1269.74
266.33	1329.13
266.54	1241.07
266.76	1279.98
266.98	1294.32
267.19	1249.26
267.41	1300.46
267.62	1277.93
267.84	1310.70
268.06	1239.02
268.27	1263.60
268.49	1253.36
268.70	1249.26
268.92	1245.16
269.14	1284.08
269.35	1275.88
269.57	1226.73
269.79	1282.03
270.00	1230.83
270.22	1329.13
270.43	1208.30
270.65	1265.64
270.87	1241.07
271.08	1241.07
271.30	1288.17
271.51	1304.56
271.73	1230.83
271.95	1269.74
272.16	1322.99
272.38	1249.26
272.59	1308.65
272.81	1253.36
273.02	1226.73
273.24	1271.79
273.46	1337.32
273.67	1290.22
273.89	1204.21
274.10	1302.51
274.32	1239.02
274.54	1183.73
274.75	1251.31
274.97	1279.98
275.18	1275.88
275.40	1239.02
275.61	1320.94
275.83	1286.12
276.05	1329.13
276.26	1279.98
276.48	1261.55
276.69	1259.50
276.91	1222.64
277.12	1208.30
277.34	1220.59
277.55	1273.84
277.77	1282.03
277.99	1269.74
278.20	1310.70
278.42	1275.88
278.63	1277.93
278.85	1181.68
279.06	1304.56
279.28	1222.64
279.49	1312.75
279.71	1302.51
279.93	1185.77
280.14	1245.16
280.36	1234.93
280.57	1257.45
280.79	1216.49
281.00	1316.84
281.22	1298.41
281.43	1265.64
281.65	1322.99
281.86	1279.98
282.08	1228.78
282.29	1327.08
282.51	1271.79
282.73	1249.26
282.94	1288.17
283.16	1314.80
283.37	1191.92
283.59	1322.99
283.80	1251.31
284.02	1245.16
284.23	1343.47
284.45	1302.51
284.66	1232.88
284.88	1294.32
285.09	1241.07
285.31	1234.93
285.52	1304.56
285.74	1241.07
285.95	1269.74
286.17	1214.45
286.38	1286.12
286.60	1267.69
286.81	1173.49
287.03	1316.84
287.24	1337.32
287.46	1277.93
287.67	1277.93
287.89	1351.66
288.10	1314.80
288.32	1292.27
288.53	1271.79
288.75	1269.74
288.96	1261.55
289.18	1302.51
289.39	1341.42
289.61	1284.08
289.82	1331.18
290.04	1189.87
290.25	1263.60
290.47	1232.88
290.68	1284.08
290.90	1286.12
291.11	1284.08
291.33	1294.32
291.54	1257.45
291.76	1259.50
291.97	1322.99
292.18	1298.41
292.40	1226.73
292.61	1273.84
292.83	1243.12
293.04	1331.18
293.26	1288.17
293.47	1257.45
293.69	1265.64
293.90	1220.59
294.12	1261.55
294.33	1279.98
294.55	1284.08
294.76	1265.64
294.97	1253.36
295.19	1249.26
295.40	1277.93
295.62	1347.56
295.83	1318.89
296.05	1247.21
296.26	1202.16
296.48	1265.64
296.69	1216.49
296.90	1302.51
297.12	1228.78
297.33	1263.60
297.55	1245.16
297.76	1198.06
297.98	1294.32
298.19	1243.12
298.41	1279.98
298.62	1271.79
298.83	1290.22
299.05	1236.97
299.26	1228.78
299.48	1175.53
299.69	1277.93
299.90	1300.46
300.12	1234.93
300.33	1298.41
300.55	1234.93
300.76	1224.69
300.98	1318.89
301.19	1279.98
301.40	1271.79
301.62	1271.79
301.83	1212.40
302.05	1265.64
302.26	1263.60
302.47	1253.36
302.69	1275.88
302.90	1239.02
303.12	1277.93
303.33	1320.94
303.54	1279.98
303.76	1331.18
303.97	1359.85
304.19	1230.83
304.40	1300.46
304.61	1257.45
304.83	1273.84
305.04	1312.75
305.26	1304.56
305.47	1273.84
305.68	1292.27
305.90	1300.46
306.11	1306.60
306.33	1257.45
306.54	1236.97
306.75	1267.69
306.97	1306.60
307.18	1296.36
307.39	1273.84
307.61	1275.88
307.82	1239.02
308.04	1318.89
308.25	1273.84
308.46	1191.92
308.68	1304.56
308.89	1253.36
309.10	1249.26
309.32	1339.37
309.53	1263.60
309.74	1271.79
309.96	1230.83
310.17	1232.88
310.39	1275.88
310.60	1286.12
310.81	1296.36
311.03	1236.97
311.24	1255.40
311.45	1329.13
311.67	1273.84
311.88	1247.21
312.09	1273.84
312.31	1306.60
312.52	1339.37
312.73	1267.69
312.95	1206.25
313.16	1243.12
313.37	1202.16
313.59	1286.12
313.80	1261.55
314.01	1279.98
314.23	1232.88
314.44	1282.03
314.65	1255.40
314.87	1308.65
315.08	1286.12
315.29	1259.50
315.51	1263.60
315.72	1202.16
315.93	1329.13
316.15	1337.32
316.36	1228.78
316.57	1290.22
316.79	1279.98
317.00	1320.94
317.21	1257.45
317.43	1175.53
317.64	1314.80
317.85	1269.74
318.07	1249.26
318.28	1277.93
318.49	1220.59
318.70	1243.12
318.92	1286.12
319.13	1325.04
319.34	1292.27
319.56	1298.41
319.77	1243.12
319.98	1298.41
320.20	1214.45
320.41	1226.73
320.62	1282.03
320.83	1257.45
321.05	1208.30
321.26	1241.07
321.47	1288.17
321.69	1366.00
321.90	1368.04
322.11	1310.70
322.32	1202.16
322.54	1300.46
322.75	1353.71
322.96	1271.79
323.18	1341.42
323.39	1269.74
323.60	1247.21
323.81	1300.46
324.03	1228.78
324.24	1292.27
324.45	1214.45
324.66	1222.64
324.88	1298.41
325.09	1312.75
325.30	1193.97
325.52	1288.17
325.73	1304.56
325.94	1253.36
326.15	1351.66
326.37	1327.08
326.58	1316.84
326.79	1310.70
327.00	1261.55
327.22	1269.74
327.43	1300.46
327.64	1337.32
327.85	1263.60
328.07	1265.64
328.28	1251.31
328.49	1282.03
328.70	1294.32
328.92	1259.50
329.13	1249.26
329.34	1255.40
329.55	1339.37
329.76	1241.07
329.98	1220.59
330.19	1271.79
330.40	1210.35
330.61	1286.12
330.83	1218.54
331.04	1196.01
331.25	1206.25
331.46	1298.41
331.68	1259.50
331.89	1267.69
332.10	1310.70
332.31	1255.40
332.52	1216.49
332.74	1300.46
332.95	1224.69
333.16	1288.17
333.37	1218.54
333.58	1224.69
333.80	1310.70
334.01	1210.35
334.22	1228.78
334.43	1267.69
334.64	1245.16
334.86	1275.88
335.07	1255.40
335.28	1259.50
335.49	1185.77
335.70	1257.45
335.92	1290.22
336.13	1255.40
336.34	1263.60
336.55	1255.40
336.76	1261.55
336.98	1271.79
337.19	1294.32
337.40	1286.12
337.61	1302.51
337.82	1220.59
338.04	1286.12
338.25	1271.79
338.46	1218.54
338.67	1314.80
338.88	1312.75
339.09	1198.06
339.31	1230.83
339.52	1261.55
339.73	1298.41
339.94	1261.55
340.15	1286.12
340.36	1249.26
340.58	1304.56
340.79	1294.32
341.00	1286.12
341.21	1239.02
341.42	1232.88
341.63	1255.40
341.85	1269.74
342.06	1249.26
342.27	1279.98
342.48	1261.55
342.69	1226.73
342.90	1198.06
343.12	1263.60
343.33	1279.98
343.54	1273.84
343.75	1316.84
343.96	1318.89
344.17	1232.88
344.38	1292.27
344.60	1255.40
344.81	1247.21
345.02	1265.64
345.23	1290.22
345.44	1298.41
345.65	1290.22
345.86	1265.64
346.07	1236.97
346.29	1290.22
346.50	1228.78
346.71	1241.07
346.92	1212.40
347.13	1232.88
347.34	1247.21
347.55	1263.60
347.76	1204.21
347.98	1249.26
348.19	1212.40
348.40	1292.27
348.61	1245.16
348.82	1284.08
349.03	1282.03
349.24	1288.17
349.45	1277.93
349.66	1241.07
349.88	1271.79
350.09	1255.40
350.30	1310.70
350.51	1216.49
350.72	1300.46
350.93	1193.97
351.14	1185.77
351.35	1271.79
351.56	1173.49
351.77	1216.49
351.99	1265.64
352.20	1320.94
352.41	1222.64
352.62	1230.83
352.83	1220.59
353.04	1257.45
353.25	1261.55
353.46	1314.80
353.67	1331.18
353.88	1241.07
354.09	1249.26
354.30	1320.94
354.52	1279.98
354.73	1275.88
354.94	1292.27
355.15	1273.84
355.36	1269.74
355.57	1298.41
355.78	1273.84
355.99	1329.13
356.20	1300.46
356.41	1241.07
356.62	1222.64
356.83	1308.65
357.04	1300.46
357.25	1271.79
357.46	1353.71
357.68	1279.98
357.89	1329.13
358.10	1230.83
358.31	1251.31
358.52	1335.28
358.73	1284.08
358.94	1181.68
359.15	1329.13
359.36	1302.51
359.57	1185.77
359.78	1257.45
359.99	1327.08
360.20	1247.21
360.41	1286.12
360.62	1222.64
360.83	1220.59
361.04	1247.21
361.25	1265.64
361.46	1284.08
361.67	1271.79
361.88	1200.11
362.09	1316.84
362.30	1279.98
362.51	1304.56
362.72	1302.51
362.93	1269.74
363.14	1284.08
363.35	1265.64
363.56	1255.40
363.78	1234.93
363.99	1187.82
364.20	1220.59
364.41	1277.93
364.62	1327.08
364.83	1284.08
365.04	1304.56
365.25	1288.17
365.46	1355.76
365.67	1286.12
365.88	1173.49
366.09	1255.40
366.30	1277.93
366.51	1296.36
366.72	1294.32
366.93	1267.69
367.14	1298.41
367.35	1228.78
367.56	1302.51
367.77	1282.03
367.98	1243.12
368.18	1263.60
368.39	1296.36
368.60	1251.31
368.81	1267.69
369.02	1206.25
369.23	1202.16
369.44	1241.07
369.65	1185.77
369.86	1257.45
370.07	1302.51
370.28	1218.54
370.49	1249.26
370.70	1279.98
370.91	1234.93
371.12	1265.64
371.33	1253.36
371.54	1300.46
371.75	1232.88
371.96	1290.22
372.17	1191.92
372.38	1376.24
372.59	1183.73
372.80	1247.21
373.01	1243.12
373.22	1349.61
373.43	1179.63
373.64	1292.27
373.85	1339.37
374.06	1236.97
374.26	1271.79
374.47	1224.69
374.68	1273.84
374.89	1269.74
375.10	1310.70
375.31	1331.18
375.52	1265.64
375.73	1282.03
375.94	1253.36
376.15	1279.98
376.36	1263.60
376.57	1251.31
376.78	1245.16
376.99	1224.69
377.20	1255.40
377.40	1275.88
377.61	1294.32
377.82	1261.55
378.03	1210.35
378.24	1269.74
378.45	1239.02
378.66	1265.64
378.87	1261.55
379.08	1288.17
379.29	1267.69
379.50	1236.97
379.71	1206.25
379.91	1218.54
380.12	1228.78
380.33	1320.94
380.54	1193.97
380.75	1275.88
380.96	1259.50
381.17	1261.55
381.38	1247.21
381.59	1236.97
381.80	1259.50
382.00	1263.60
382.21	1271.79
382.42	1288.17
382.63	1271.79
382.84	1267.69
383.05	1286.12
383.26	1337.32
383.47	1220.59
383.68	1249.26
383.88	1310.70
384.09	1230.83
384.30	1302.51
384.51	1333.23
384.72	1212.40
384.93	1292.27
385.14	1222.64
385.35	1259.50
385.55	1236.97
385.76	1298.41
385.97	1218.54
386.18	1267.69
386.39	1220.59
386.60	1232.88
386.81	1271.79
387.02	1255.40
387.22	1177.58
387.43	1249.26
387.64	1300.46
387.85	1296.36
388.06	1290.22
388.27	1277.93
388.48	1277.93
388.68	1259.50
388.89	1239.02
389.10	1247.21
389.31	1329.13
389.52	1331.18
389.73	1275.88
389.93	1269.74
390.14	1300.46
390.35	1331.18
390.56	1308.65
390.77	1273.84
390.98	1290.22
391.18	1327.08
391.39	1253.36
391.60	1196.01
391.81	1218.54
392.02	1351.66
392.23	1292.27
392.43	1282.03
392.64	1234.93
392.85	1251.31
393.06	1247.21
393.27	1257.45
393.47	1347.56
393.68	1236.97
393.89	1322.99
394.10	1189.87
394.31	1282.03
394.52	1273.84
394.72	1265.64
394.93	1210.35
395.14	1253.36
395.35	1277.93
395.56	1290.22
395.76	1234.93
395.97	1322.99
396.18	1273.84
396.39	1249.26
396.60	1341.42
396.80	1191.92
397.01	1290.22
397.22	1271.79
397.43	1249.26
397.64	1253.36
397.84	1273.84
398.05	1298.41
398.26	1296.36
398.47	1279.98
398.67	1271.79
398.88	1302.51
399.09	1327.08
399.30	1245.16
399.51	1224.69
399.71	1218.54
399.92	1290.22
400.13	1249.26
400.34	1245.16
400.54	1193.97
400.75	1134.57
400.96	1306.60
401.17	1310.70
401.37	1220.59
401.58	1380.33
401.79	1222.64
402.00	1265.64
402.21	1263.60
402.41	1255.40
402.62	1243.12
402.83	1279.98
403.04	1277.93
403.24	1263.60
403.45	1345.52
403.66	1306.60
403.87	1290.22
404.07	1239.02
404.28	1245.16
404.49	1333.23
404.70	1249.26
404.90	1284.08
405.11	1302.51
405.32	1236.97
405.52	1210.35
405.73	1263.60
405.94	1208.30
406.15	1232.88
406.35	1249.26
406.56	1314.80
406.77	1275.88
406.98	1239.02
407.18	1243.12
407.39	1292.27
407.60	1288.17
407.80	1245.16
408.01	1234.93
408.22	1263.60
408.43	1306.60
408.63	1277.93
408.84	1277.93
409.05	1298.41
409.25	1232.88
409.46	1296.36
409.67	1210.35
409.88	1310.70
410.08	1275.88
410.29	1296.36
410.50	1282.03
410.70	1218.54
410.91	1202.16
411.12	1228.78
411.32	1322.99
411.53	1259.50
411.74	1228.78
411.95	1241.07
412.15	1279.98
412.36	1273.84
412.57	1230.83
412.77	1308.65
412.98	1306.60
413.19	1286.12
413.39	1257.45
413.60	1271.79
413.81	1294.32
414.01	1292.27
414.22	1241.07
414.43	1208.30
414.63	1277.93
414.84	1275.88
415.05	1306.60
415.25	1269.74
415.46	1282.03
415.67	1236.97
415.87	1302.51
416.08	1286.12
416.29	1277.93
416.49	1318.89
416.70	1232.88
416.91	1314.80
417.11	1271.79
417.32	1275.88
417.53	1257.45
417.73	1228.78
417.94	1212.40
418.15	1218.54
418.35	1347.56
418.56	1290.22
418.77	1257.45
418.97	1239.02
419.18	1316.84
419.38	1318.89
419.59	1263.60
419.80	1312.75
420.00	1368.04
420.21	1310.70
420.42	1263.60
420.62	1230.83
420.83	1243.12
421.04	1308.65
421.24	1202.16
421.45	1339.37
421.65	1347.56
421.86	1175.53
422.07	1320.94
422.27	1255.40
422.48	1349.61
422.69	1277.93
422.89	1259.50
423.10	1263.60
423.30	1241.07
423.51	1273.84
423.72	1359.85
423.92	1366.00
424.13	1243.12
424.33	1216.49
424.54	1308.65
424.75	1282.03
424.95	1282.03
425.16	1292.27
425.36	1298.41
425.57	1267.69
425.78	1286.12
425.98	1247.21
426.19	1288.17
426.39	1210.35
426.60	1294.32
426.81	1253.36
427.01	1214.45
427.22	1290.22
427.42	1167.34
427.63	1226.73
427.83	1214.45
428.04	1267.69
428.25	1302.51
428.45	1273.84
428.66	1273.84
428.86	1302.51
429.07	1189.87
429.28	1306.60
429.48	1253.36
429.69	1298.41
429.89	1232.88
430.10	1271.79
430.30	1310.70
430.51	1294.32
430.71	1226.73
430.92	1275.88
431.13	1312.75
431.33	1265.64
431.54	1273.84
431.74	1308.65
431.95	1257.45
432.15	1212.40
432.36	1224.69
432.56	1232.88
432.77	1277.93
432.98	1306.60
433.18	1292.27
433.39	1239.02
433.59	1216.49
433.80	1296.36
434.00	1304.56
434.21	1243.12
434.41	1300.46
434.62	1302.51
434.82	1224.69
435.03	1265.64
435.23	1279.98
435.44	1290.22
435.64	1236.97
435.85	1331.18
436.06	1296.36
436.26	1300.46
436.47	1347.56
436.67	1277.93
436.88	1312.75
437.08	1298.41
437.29	1263.60
437.49	1296.36
437.70	1216.49
437.90	1322.99
438.11	1261.55
438.31	1302.51
438.52	1320.94
438.72	1290.22
438.93	1261.55
439.13	1286.12
439.34	1329.13
439.54	1325.04
439.75	1216.49
439.95	1239.02
440.16	1306.60
440.36	1239.02
440.57	1282.03
440.77	1337.32
440.98	1277.93
441.18	1312.75
441.39	1308.65
441.59	1267.69
441.80	1298.41
442.00	1298.41
442.21	1282.03
442.41	1282.03
442.62	1191.92
442.82	1243.12
443.02	1347.56
443.23	1247.21
443.43	1269.74
443.64	1245.16
443.84	1214.45
444.05	1216.49
444.25	1249.26
444.46	1228.78
444.66	1255.40
444.87	1265.64
445.07	1230.83
445.28	1200.11
445.48	1251.31
445.69	1226.73
445.89	1339.37
446.09	1273.84
446.30	1259.50
446.50	1275.88
446.71	1263.60
446.91	1234.93
447.12	1296.36
447.32	1337.32
447.53	1310.70
447.73	1318.89
447.93	1288.17
448.14	1279.98
448.34	1173.49
448.55	1255.40
448.75	1322.99
448.96	1298.41
449.16	1284.08
449.36	1224.69
449.57	1322.99
449.77	1261.55
449.98	1290.22
450.18	1214.45
450.39	1316.84
450.59	1290.22
450.79	1269.74
451.00	1249.26
451.20	1304.56
451.41	1298.41
451.61	1322.99
451.81	1316.84
452.02	1265.64
452.22	1265.64
452.43	1353.71
452.63	1239.02
