SpectraSuite Data File
++++++++++++++++++++++++++++++++++++
Date: Sun Apr 03 19:55:19 CEST 2016
User: root
Dark Spectrum Present: No
Reference Spectrum Present: No
Number of Sampled Component Spectra: 1
Spectrometers: USB4C02835
Integration Time (usec): 10000 (USB4C02835)
Spectra Averaged: 1 (USB4C02835)
Boxcar Smoothing: 0 (USB4C02835)
Correct for Electrical Dark: No (USB4C02835)
Strobe/Lamp Enabled: No (USB4C02835)
Correct for Detector Non-linearity: No (USB4C02835)
Correct for Stray Light: No (USB4C02835)
Number of Pixels in Processed Spectrum: 3648
>>>>>Begin Processed Spectral Data<<<<<
177.47	1216.49
177.69	1216.49
177.91	1216.49
178.13	1310.70
178.36	1302.51
178.58	1259.50
178.80	1300.46
179.02	1249.26
179.24	1277.93
179.46	1214.45
179.68	1269.74
179.90	1339.37
180.13	1296.36
180.35	1218.54
180.57	1236.97
180.79	1288.17
181.01	1175.53
181.23	1282.03
181.45	1296.36
181.67	1234.93
181.90	1286.12
182.12	1265.64
182.34	1267.69
182.56	1210.35
182.78	1249.26
183.00	1339.37
183.22	1273.84
183.44	1288.17
183.66	1290.22
183.89	1310.70
184.11	1316.84
184.33	1222.64
184.55	1271.79
184.77	1245.16
184.99	1333.23
185.21	1200.11
185.43	1273.84
185.65	1259.50
185.87	1308.65
186.10	1243.12
186.32	1298.41
186.54	1265.64
186.76	1261.55
186.98	1236.97
187.20	1288.17
187.42	1277.93
187.64	1279.98
187.86	1271.79
188.08	1300.46
188.30	1337.32
188.52	1222.64
188.75	1241.07
188.97	1269.74
189.19	1267.69
189.41	1269.74
189.63	1232.88
189.85	1271.79
190.07	1263.60
190.29	1306.60
190.51	1245.16
190.73	1189.87
190.95	1300.46
191.17	1236.97
191.39	1249.26
191.61	1234.93
191.84	1273.84
192.06	1316.84
192.28	1253.36
192.50	1300.46
192.72	1288.17
192.94	1255.40
193.16	1261.55
193.38	1290.22
193.60	1345.52
193.82	1243.12
194.04	1298.41
194.26	1210.35
194.48	1220.59
194.70	1187.82
194.92	1255.40
195.14	1331.18
195.36	1253.36
195.58	1273.84
195.80	1261.55
196.02	1249.26
196.24	1257.45
196.46	1271.79
196.69	1271.79
196.91	1294.32
197.13	1302.51
197.35	1314.80
197.57	1286.12
197.79	1273.84
198.01	1253.36
198.23	1214.45
198.45	1251.31
198.67	1249.26
198.89	1279.98
199.11	1232.88
199.33	1218.54
199.55	1296.36
199.77	1230.83
199.99	1245.16
200.21	1269.74
200.43	1265.64
200.65	1279.98
200.87	1255.40
201.09	1300.46
201.31	1259.50
201.53	1310.70
201.75	1290.22
201.97	1302.51
202.19	1251.31
202.41	1359.85
202.63	1288.17
202.85	1304.56
203.07	1302.51
203.29	1230.83
203.51	1302.51
203.73	1314.80
203.95	1292.27
204.17	1257.45
204.39	1269.74
204.61	1224.69
204.83	1263.60
205.05	1263.60
205.27	1259.50
205.49	1275.88
205.71	1304.56
205.93	1257.45
206.15	1251.31
206.37	1247.21
206.59	1261.55
206.81	1275.88
207.03	1282.03
207.25	1234.93
207.47	1277.93
207.69	1292.27
207.91	1253.36
208.13	1243.12
208.34	1239.02
208.56	1185.77
208.78	1247.21
209.00	1292.27
209.22	1167.34
209.44	1255.40
209.66	1236.97
209.88	1228.78
210.10	1265.64
210.32	1286.12
210.54	1249.26
210.76	1236.97
210.98	1259.50
211.20	1212.40
211.42	1220.59
211.64	1241.07
211.86	1204.21
212.08	1279.98
212.30	1204.21
212.52	1243.12
212.74	1214.45
212.96	1249.26
213.17	1218.54
213.39	1249.26
213.61	1292.27
213.83	1259.50
214.05	1269.74
214.27	1273.84
214.49	1251.31
214.71	1243.12
214.93	1257.45
215.15	1220.59
215.37	1290.22
215.59	1210.35
215.81	1226.73
216.03	1298.41
216.24	1296.36
216.46	1306.60
216.68	1269.74
216.90	1310.70
217.12	1279.98
217.34	1245.16
217.56	1247.21
217.78	1341.42
218.00	1243.12
218.22	1247.21
218.44	1329.13
218.66	1343.47
218.87	1257.45
219.09	1361.90
219.31	1284.08
219.53	1259.50
219.75	1245.16
219.97	1296.36
220.19	1275.88
220.41	1271.79
220.63	1312.75
220.85	1269.74
221.06	1290.22
221.28	1232.88
221.50	1261.55
221.72	1300.46
221.94	1318.89
222.16	1247.21
222.38	1247.21
222.60	1282.03
222.82	1253.36
223.03	1302.51
223.25	1275.88
223.47	1335.28
223.69	1198.06
223.91	1271.79
224.13	1245.16
224.35	1251.31
224.57	1284.08
224.78	1298.41
225.00	1247.21
225.22	1294.32
225.44	1298.41
225.66	1333.23
225.88	1284.08
226.10	1210.35
226.32	1216.49
226.53	1296.36
226.75	1265.64
226.97	1273.84
227.19	1282.03
227.41	1279.98
227.63	1259.50
227.85	1247.21
228.06	1239.02
228.28	1247.21
228.50	1294.32
228.72	1294.32
228.94	1279.98
229.16	1204.21
229.37	1241.07
229.59	1224.69
229.81	1279.98
230.03	1243.12
230.25	1282.03
230.47	1230.83
230.69	1316.84
230.90	1241.07
231.12	1261.55
231.34	1230.83
231.56	1236.97
231.78	1218.54
232.00	1220.59
232.21	1279.98
232.43	1259.50
232.65	1243.12
232.87	1290.22
233.09	1185.77
233.30	1273.84
233.52	1175.53
233.74	1322.99
233.96	1173.49
234.18	1271.79
234.40	1249.26
234.61	1275.88
234.83	1267.69
235.05	1210.35
235.27	1339.37
235.49	1335.28
235.70	1294.32
235.92	1331.18
236.14	1286.12
236.36	1318.89
236.58	1253.36
236.79	1286.12
237.01	1294.32
237.23	1318.89
237.45	1251.31
237.67	1316.84
237.88	1202.16
238.10	1241.07
238.32	1304.56
238.54	1247.21
238.76	1304.56
238.97	1320.94
239.19	1275.88
239.41	1282.03
239.63	1224.69
239.85	1267.69
240.06	1232.88
240.28	1292.27
240.50	1271.79
240.72	1366.00
240.93	1265.64
241.15	1296.36
241.37	1196.01
241.59	1265.64
241.81	1314.80
242.02	1224.69
242.24	1284.08
242.46	1267.69
242.68	1220.59
242.89	1288.17
243.11	1273.84
243.33	1269.74
243.55	1351.66
243.76	1294.32
243.98	1218.54
244.20	1218.54
244.42	1245.16
244.64	1329.13
244.85	1259.50
245.07	1259.50
245.29	1228.78
245.51	1206.25
245.72	1322.99
245.94	1251.31
246.16	1290.22
246.38	1288.17
246.59	1241.07
246.81	1263.60
247.03	1314.80
247.24	1277.93
247.46	1249.26
247.68	1245.16
247.90	1263.60
248.11	1298.41
248.33	1222.64
248.55	1226.73
248.77	1241.07
248.98	1304.56
249.20	1298.41
249.42	1193.97
249.64	1322.99
249.85	1232.88
250.07	1318.89
250.29	1230.83
250.50	1300.46
250.72	1304.56
250.94	1236.97
251.16	1286.12
251.37	1243.12
251.59	1337.32
251.81	1353.71
252.02	1294.32
252.24	1284.08
252.46	1220.59
252.68	1331.18
252.89	1226.73
253.11	1232.88
253.33	1263.60
253.54	1318.89
253.76	1247.21
253.98	1216.49
254.20	1228.78
254.41	1296.36
254.63	1306.60
254.85	1273.84
255.06	1273.84
255.28	1222.64
255.50	1239.02
255.71	1189.87
255.93	1234.93
256.15	1228.78
256.36	1216.49
256.58	1245.16
256.80	1314.80
257.02	1284.08
257.23	1259.50
257.45	1316.84
257.67	1204.21
257.88	1226.73
258.10	1253.36
258.32	1234.93
258.53	1267.69
258.75	1310.70
258.97	1286.12
259.18	1253.36
259.40	1189.87
259.62	1239.02
259.83	1279.98
260.05	1245.16
260.27	1322.99
260.48	1249.26
260.70	1214.45
260.92	1214.45
261.13	1275.88
261.35	1329.13
261.57	1247.21
261.78	1216.49
262.00	1308.65
262.22	1269.74
262.43	1218.54
262.65	1275.88
262.86	1236.97
263.08	1271.79
263.30	1267.69
263.51	1279.98
263.73	1273.84
263.95	1312.75
264.16	1292.27
264.38	1257.45
264.60	1341.42
264.81	1236.97
265.03	1314.80
265.25	1247.21
265.46	1177.58
265.68	1202.16
265.89	1232.88
266.11	1253.36
266.33	1288.17
266.54	1214.45
266.76	1298.41
266.98	1228.78
267.19	1335.28
267.41	1222.64
267.62	1273.84
267.84	1318.89
268.06	1169.39
268.27	1273.84
268.49	1306.60
268.70	1245.16
268.92	1161.20
269.14	1243.12
269.35	1257.45
269.57	1247.21
269.79	1318.89
270.00	1150.96
270.22	1314.80
270.43	1255.40
270.65	1267.69
270.87	1269.74
271.08	1234.93
271.30	1265.64
271.51	1282.03
271.73	1239.02
271.95	1239.02
272.16	1284.08
272.38	1216.49
272.59	1271.79
272.81	1261.55
273.02	1288.17
273.24	1255.40
273.46	1300.46
273.67	1286.12
273.89	1214.45
274.10	1288.17
274.32	1304.56
274.54	1261.55
274.75	1249.26
274.97	1257.45
275.18	1210.35
275.40	1222.64
275.61	1273.84
275.83	1273.84
276.05	1259.50
276.26	1288.17
276.48	1236.97
276.69	1257.45
276.91	1302.51
277.12	1232.88
277.34	1286.12
277.55	1247.21
277.77	1226.73
277.99	1269.74
278.20	1359.85
278.42	1259.50
278.63	1230.83
278.85	1241.07
279.06	1349.61
279.28	1286.12
279.49	1267.69
279.71	1259.50
279.93	1306.60
280.14	1310.70
280.36	1253.36
280.57	1284.08
280.79	1249.26
281.00	1267.69
281.22	1308.65
281.43	1310.70
281.65	1249.26
281.86	1269.74
282.08	1282.03
282.29	1296.36
282.51	1286.12
282.73	1331.18
282.94	1302.51
283.16	1284.08
283.37	1325.04
283.59	1265.64
283.80	1241.07
284.02	1263.60
284.23	1277.93
284.45	1269.74
284.66	1232.88
284.88	1239.02
285.09	1220.59
285.31	1183.73
285.52	1290.22
285.74	1282.03
285.95	1265.64
286.17	1329.13
286.38	1263.60
286.60	1322.99
286.81	1193.97
287.03	1294.32
287.24	1247.21
287.46	1253.36
287.67	1314.80
287.89	1292.27
288.10	1222.64
288.32	1224.69
288.53	1251.31
288.75	1249.26
288.96	1353.71
289.18	1284.08
289.39	1259.50
289.61	1353.71
289.82	1239.02
290.04	1259.50
290.25	1290.22
290.47	1200.11
290.68	1282.03
290.90	1296.36
291.11	1318.89
291.33	1296.36
291.54	1239.02
291.76	1261.55
291.97	1316.84
292.18	1228.78
292.40	1261.55
292.61	1249.26
292.83	1261.55
293.04	1208.30
293.26	1218.54
293.47	1208.30
293.69	1239.02
293.90	1193.97
294.12	1290.22
294.33	1236.97
294.55	1325.04
294.76	1294.32
294.97	1253.36
295.19	1292.27
295.40	1296.36
295.62	1298.41
295.83	1241.07
296.05	1236.97
296.26	1232.88
296.48	1216.49
296.69	1243.12
296.90	1329.13
297.12	1249.26
297.33	1282.03
297.55	1265.64
297.76	1310.70
297.98	1259.50
298.19	1193.97
298.41	1277.93
298.62	1310.70
298.83	1269.74
299.05	1232.88
299.26	1257.45
299.48	1247.21
299.69	1275.88
299.90	1327.08
300.12	1284.08
300.33	1243.12
300.55	1269.74
300.76	1306.60
300.98	1290.22
301.19	1298.41
301.40	1255.40
301.62	1261.55
301.83	1253.36
302.05	1277.93
302.26	1296.36
302.47	1300.46
302.69	1230.83
302.90	1230.83
303.12	1245.16
303.33	1263.60
303.54	1312.75
303.76	1271.79
303.97	1376.24
304.19	1239.02
304.40	1378.28
304.61	1298.41
304.83	1318.89
305.04	1279.98
305.26	1314.80
305.47	1284.08
305.68	1294.32
305.90	1218.54
306.11	1277.93
306.33	1320.94
306.54	1236.97
306.75	1343.47
306.97	1196.01
307.18	1275.88
307.39	1173.49
307.61	1163.25
307.82	1322.99
308.04	1335.28
308.25	1210.35
308.46	1275.88
308.68	1279.98
308.89	1368.04
309.10	1202.16
309.32	1234.93
309.53	1228.78
309.74	1298.41
309.96	1212.40
310.17	1286.12
310.39	1224.69
310.60	1267.69
310.81	1216.49
311.03	1292.27
311.24	1247.21
311.45	1241.07
311.67	1243.12
311.88	1265.64
312.09	1298.41
312.31	1275.88
312.52	1167.34
312.73	1255.40
312.95	1286.12
313.16	1241.07
313.37	1290.22
313.59	1255.40
313.80	1222.64
314.01	1204.21
314.23	1163.25
314.44	1271.79
314.65	1222.64
314.87	1224.69
315.08	1304.56
315.29	1241.07
315.51	1286.12
315.72	1279.98
315.93	1253.36
316.15	1322.99
316.36	1210.35
316.57	1236.97
316.79	1269.74
317.00	1288.17
317.21	1263.60
317.43	1329.13
317.64	1263.60
317.85	1337.32
318.07	1329.13
318.28	1253.36
318.49	1261.55
318.70	1277.93
318.92	1259.50
319.13	1318.89
319.34	1206.25
319.56	1247.21
319.77	1273.84
319.98	1277.93
320.20	1200.11
320.41	1296.36
320.62	1282.03
320.83	1249.26
321.05	1271.79
321.26	1286.12
321.47	1286.12
321.69	1300.46
321.90	1288.17
322.11	1202.16
322.32	1316.84
322.54	1294.32
322.75	1271.79
322.96	1277.93
323.18	1251.31
323.39	1255.40
323.60	1214.45
323.81	1335.28
324.03	1298.41
324.24	1234.93
324.45	1257.45
324.66	1282.03
324.88	1239.02
325.09	1185.77
325.30	1279.98
325.52	1320.94
325.73	1202.16
325.94	1282.03
326.15	1204.21
326.37	1267.69
326.58	1277.93
326.79	1298.41
327.00	1298.41
327.22	1230.83
327.43	1265.64
327.64	1318.89
327.85	1206.25
328.07	1265.64
328.28	1265.64
328.49	1318.89
328.70	1216.49
328.92	1214.45
329.13	1232.88
329.34	1290.22
329.55	1339.37
329.76	1226.73
329.98	1222.64
330.19	1269.74
330.40	1259.50
330.61	1314.80
330.83	1271.79
331.04	1265.64
331.25	1308.65
331.46	1296.36
331.68	1263.60
331.89	1269.74
332.10	1292.27
332.31	1232.88
332.52	1243.12
332.74	1265.64
332.95	1181.68
333.16	1327.08
333.37	1181.68
333.58	1296.36
333.80	1300.46
334.01	1279.98
334.22	1191.92
334.43	1271.79
334.64	1187.82
334.86	1265.64
335.07	1294.32
335.28	1304.56
335.49	1259.50
335.70	1234.93
335.92	1282.03
336.13	1257.45
336.34	1216.49
336.55	1300.46
336.76	1298.41
336.98	1279.98
337.19	1257.45
337.40	1204.21
337.61	1253.36
337.82	1249.26
338.04	1337.32
338.25	1243.12
338.46	1249.26
338.67	1314.80
338.88	1325.04
339.09	1290.22
339.31	1347.56
339.52	1339.37
339.73	1271.79
339.94	1333.23
340.15	1300.46
340.36	1312.75
340.58	1257.45
340.79	1249.26
341.00	1286.12
341.21	1245.16
341.42	1372.14
341.63	1304.56
341.85	1308.65
342.06	1310.70
342.27	1286.12
342.48	1279.98
342.69	1282.03
342.90	1218.54
343.12	1329.13
343.33	1265.64
343.54	1282.03
343.75	1239.02
343.96	1320.94
344.17	1222.64
344.38	1239.02
344.60	1222.64
344.81	1191.92
345.02	1241.07
345.23	1247.21
345.44	1329.13
345.65	1294.32
345.86	1234.93
346.07	1226.73
346.29	1224.69
346.50	1234.93
346.71	1290.22
346.92	1220.59
347.13	1216.49
347.34	1171.44
347.55	1298.41
347.76	1312.75
347.98	1251.31
348.19	1265.64
348.40	1273.84
348.61	1271.79
348.82	1220.59
349.03	1230.83
349.24	1265.64
349.45	1290.22
349.66	1282.03
349.88	1236.97
350.09	1216.49
350.30	1239.02
350.51	1247.21
350.72	1230.83
350.93	1265.64
351.14	1300.46
351.35	1282.03
351.56	1234.93
351.77	1261.55
351.99	1263.60
352.20	1202.16
352.41	1251.31
352.62	1267.69
352.83	1320.94
353.04	1255.40
353.25	1259.50
353.46	1224.69
353.67	1204.21
353.88	1259.50
354.09	1208.30
354.30	1261.55
354.52	1257.45
354.73	1320.94
354.94	1357.80
355.15	1224.69
355.36	1341.42
355.57	1325.04
355.78	1265.64
355.99	1320.94
356.20	1355.76
356.41	1273.84
356.62	1286.12
356.83	1253.36
357.04	1230.83
357.25	1302.51
357.46	1277.93
357.68	1290.22
357.89	1306.60
358.10	1208.30
358.31	1263.60
358.52	1279.98
358.73	1187.82
358.94	1312.75
359.15	1261.55
359.36	1275.88
359.57	1286.12
359.78	1245.16
359.99	1312.75
360.20	1226.73
360.41	1245.16
360.62	1277.93
360.83	1271.79
361.04	1312.75
361.25	1261.55
361.46	1322.99
361.67	1335.28
361.88	1257.45
362.09	1302.51
362.30	1245.16
362.51	1230.83
362.72	1222.64
362.93	1286.12
363.14	1263.60
363.35	1316.84
363.56	1259.50
363.78	1284.08
363.99	1263.60
364.20	1239.02
364.41	1220.59
364.62	1314.80
364.83	1310.70
365.04	1300.46
365.25	1282.03
365.46	1284.08
365.67	1269.74
365.88	1273.84
366.09	1241.07
366.30	1265.64
366.51	1306.60
366.72	1376.24
366.93	1277.93
367.14	1271.79
367.35	1327.08
367.56	1277.93
367.77	1298.41
367.98	1234.93
368.18	1298.41
368.39	1230.83
368.60	1327.08
368.81	1220.59
369.02	1329.13
369.23	1267.69
369.44	1255.40
369.65	1239.02
369.86	1294.32
370.07	1339.37
370.28	1320.94
370.49	1294.32
370.70	1294.32
370.91	1265.64
371.12	1210.35
371.33	1306.60
371.54	1298.41
371.75	1241.07
371.96	1247.21
372.17	1322.99
372.38	1290.22
372.59	1243.12
372.80	1253.36
373.01	1271.79
373.22	1259.50
373.43	1249.26
373.64	1320.94
373.85	1249.26
374.06	1273.84
374.26	1204.21
374.47	1257.45
374.68	1320.94
374.89	1232.88
375.10	1282.03
375.31	1241.07
375.52	1267.69
375.73	1347.56
375.94	1206.25
376.15	1296.36
376.36	1302.51
376.57	1304.56
376.78	1253.36
376.99	1273.84
377.20	1212.40
377.40	1282.03
377.61	1261.55
377.82	1247.21
378.03	1232.88
378.24	1232.88
378.45	1308.65
378.66	1279.98
378.87	1325.04
379.08	1241.07
379.29	1253.36
379.50	1296.36
379.71	1316.84
379.91	1310.70
380.12	1282.03
380.33	1232.88
380.54	1241.07
380.75	1357.80
380.96	1294.32
381.17	1294.32
381.38	1296.36
381.59	1298.41
381.80	1267.69
382.00	1273.84
382.21	1267.69
382.42	1288.17
382.63	1333.23
382.84	1302.51
383.05	1259.50
383.26	1269.74
383.47	1247.21
383.68	1241.07
383.88	1279.98
384.09	1259.50
384.30	1288.17
384.51	1282.03
384.72	1269.74
384.93	1320.94
385.14	1277.93
385.35	1210.35
385.55	1267.69
385.76	1325.04
385.97	1298.41
386.18	1282.03
386.39	1306.60
386.60	1257.45
386.81	1314.80
387.02	1279.98
387.22	1288.17
387.43	1300.46
387.64	1241.07
387.85	1300.46
388.06	1239.02
388.27	1189.87
388.48	1337.32
388.68	1249.26
388.89	1279.98
389.10	1222.64
389.31	1226.73
389.52	1263.60
389.73	1191.92
389.93	1247.21
390.14	1249.26
390.35	1222.64
390.56	1298.41
390.77	1273.84
390.98	1232.88
391.18	1286.12
391.39	1275.88
391.60	1322.99
391.81	1343.47
392.02	1234.93
392.23	1355.76
392.43	1265.64
392.64	1267.69
392.85	1284.08
393.06	1275.88
393.27	1273.84
393.47	1234.93
393.68	1234.93
393.89	1310.70
394.10	1214.45
394.31	1241.07
394.52	1216.49
394.72	1288.17
394.93	1275.88
395.14	1232.88
395.35	1333.23
395.56	1210.35
395.76	1312.75
395.97	1212.40
396.18	1255.40
396.39	1275.88
396.60	1294.32
396.80	1187.82
397.01	1320.94
397.22	1230.83
397.43	1312.75
397.64	1308.65
397.84	1245.16
398.05	1273.84
398.26	1269.74
398.47	1157.10
398.67	1175.53
398.88	1216.49
399.09	1302.51
399.30	1245.16
399.51	1279.98
399.71	1267.69
399.92	1292.27
400.13	1251.31
400.34	1230.83
400.54	1277.93
400.75	1206.25
400.96	1314.80
401.17	1259.50
401.37	1220.59
401.58	1232.88
401.79	1210.35
402.00	1345.52
402.21	1249.26
402.41	1253.36
402.62	1282.03
402.83	1267.69
403.04	1279.98
403.24	1288.17
403.45	1316.84
403.66	1245.16
403.87	1284.08
404.07	1261.55
404.28	1247.21
404.49	1257.45
404.70	1214.45
404.90	1322.99
405.11	1224.69
405.32	1232.88
405.52	1228.78
405.73	1249.26
405.94	1241.07
406.15	1361.90
406.35	1294.32
406.56	1288.17
406.77	1218.54
406.98	1236.97
407.18	1329.13
407.39	1302.51
407.60	1206.25
407.80	1290.22
408.01	1279.98
408.22	1273.84
408.43	1286.12
408.63	1220.59
408.84	1241.07
409.05	1288.17
409.25	1282.03
409.46	1230.83
409.67	1265.64
409.88	1277.93
410.08	1259.50
410.29	1292.27
410.50	1263.60
410.70	1263.60
410.91	1249.26
411.12	1310.70
411.32	1191.92
411.53	1214.45
411.74	1193.97
411.95	1284.08
412.15	1296.36
412.36	1243.12
412.57	1228.78
412.77	1296.36
412.98	1259.50
413.19	1261.55
413.39	1302.51
413.60	1222.64
413.81	1249.26
414.01	1271.79
414.22	1275.88
414.43	1288.17
414.63	1271.79
414.84	1263.60
415.05	1196.01
415.25	1271.79
415.46	1255.40
415.67	1312.75
415.87	1306.60
416.08	1292.27
416.29	1259.50
416.49	1243.12
416.70	1292.27
416.91	1271.79
417.11	1294.32
417.32	1263.60
417.53	1284.08
417.73	1232.88
417.94	1275.88
418.15	1279.98
418.35	1247.21
418.56	1296.36
418.77	1300.46
418.97	1269.74
419.18	1230.83
419.38	1265.64
419.59	1316.84
419.80	1267.69
420.00	1251.31
420.21	1241.07
420.42	1261.55
420.62	1263.60
420.83	1212.40
421.04	1286.12
421.24	1271.79
421.45	1288.17
421.65	1345.52
421.86	1288.17
422.07	1265.64
422.27	1198.06
422.48	1243.12
422.69	1247.21
422.89	1327.08
423.10	1273.84
423.30	1308.65
423.51	1196.01
423.72	1298.41
423.92	1298.41
424.13	1271.79
424.33	1273.84
424.54	1308.65
424.75	1296.36
424.95	1318.89
425.16	1196.01
425.36	1218.54
425.57	1331.18
425.78	1226.73
425.98	1296.36
426.19	1251.31
426.39	1314.80
426.60	1312.75
426.81	1232.88
427.01	1220.59
427.22	1288.17
427.42	1273.84
427.63	1312.75
427.83	1259.50
428.04	1275.88
428.25	1265.64
428.45	1273.84
428.66	1218.54
428.86	1302.51
429.07	1290.22
429.28	1255.40
429.48	1245.16
429.69	1271.79
429.89	1243.12
430.10	1273.84
430.30	1251.31
430.51	1296.36
430.71	1214.45
430.92	1259.50
431.13	1249.26
431.33	1267.69
431.54	1257.45
431.74	1220.59
431.95	1304.56
432.15	1239.02
432.36	1251.31
432.56	1345.52
432.77	1234.93
432.98	1271.79
433.18	1298.41
433.39	1300.46
433.59	1239.02
433.80	1304.56
434.00	1222.64
434.21	1232.88
434.41	1255.40
434.62	1275.88
434.82	1167.34
435.03	1325.04
435.23	1296.36
435.44	1255.40
435.64	1306.60
435.85	1273.84
436.06	1251.31
436.26	1304.56
436.47	1214.45
436.67	1302.51
436.88	1177.58
437.08	1269.74
437.29	1366.00
437.49	1259.50
437.70	1228.78
437.90	1279.98
438.11	1337.32
438.31	1210.35
438.52	1239.02
438.72	1255.40
438.93	1241.07
439.13	1200.11
439.34	1196.01
439.54	1247.21
439.75	1265.64
439.95	1279.98
440.16	1232.88
440.36	1189.87
440.57	1271.79
440.77	1318.89
440.98	1296.36
441.18	1277.93
441.39	1236.97
441.59	1216.49
441.80	1355.76
442.00	1294.32
442.21	1249.26
442.41	1296.36
442.62	1355.76
442.82	1282.03
443.02	1220.59
443.23	1255.40
443.43	1210.35
443.64	1314.80
443.84	1335.28
444.05	1325.04
444.25	1322.99
444.46	1265.64
444.66	1325.04
444.87	1255.40
445.07	1220.59
445.28	1228.78
445.48	1265.64
445.69	1296.36
445.89	1247.21
446.09	1230.83
446.30	1265.64
446.50	1220.59
446.71	1243.12
446.91	1316.84
447.12	1247.21
447.32	1318.89
447.53	1261.55
447.73	1236.97
447.93	1282.03
448.14	1263.60
448.34	1212.40
448.55	1282.03
448.75	1329.13
448.96	1298.41
449.16	1234.93
449.36	1290.22
449.57	1232.88
449.77	1251.31
449.98	1361.90
450.18	1320.94
450.39	1232.88
450.59	1230.83
450.79	1253.36
451.00	1249.26
451.20	1116.14
451.41	1245.16
451.61	1220.59
451.81	1318.89
452.02	1247.21
452.22	1257.45
452.43	1322.99
452.63	1292.27
