SpectraSuite Data File
++++++++++++++++++++++++++++++++++++
Date: Sun Apr 03 19:55:36 CEST 2016
User: root
Dark Spectrum Present: No
Reference Spectrum Present: No
Number of Sampled Component Spectra: 1
Spectrometers: USB4C02835
Integration Time (usec): 10000 (USB4C02835)
Spectra Averaged: 1 (USB4C02835)
Boxcar Smoothing: 0 (USB4C02835)
Correct for Electrical Dark: No (USB4C02835)
Strobe/Lamp Enabled: No (USB4C02835)
Correct for Detector Non-linearity: No (USB4C02835)
Correct for Stray Light: No (USB4C02835)
Number of Pixels in Processed Spectrum: 3648
>>>>>Begin Processed Spectral Data<<<<<
177.47	1288.17
177.69	1288.17
177.91	1288.17
178.13	1230.83
178.36	1239.02
178.58	1251.31
178.80	1282.03
179.02	1228.78
179.24	1290.22
179.46	1243.12
179.68	1251.31
179.90	1273.84
180.13	1232.88
180.35	1292.27
180.57	1247.21
180.79	1196.01
181.01	1259.50
181.23	1277.93
181.45	1247.21
181.67	1150.96
181.90	1208.30
182.12	1265.64
182.34	1322.99
182.56	1257.45
182.78	1200.11
183.00	1224.69
183.22	1261.55
183.44	1300.46
183.66	1236.97
183.89	1282.03
184.11	1230.83
184.33	1169.39
184.55	1277.93
184.77	1271.79
184.99	1304.56
185.21	1191.92
185.43	1308.65
185.65	1218.54
185.87	1271.79
186.10	1325.04
186.32	1277.93
186.54	1265.64
186.76	1232.88
186.98	1216.49
187.20	1296.36
187.42	1261.55
187.64	1228.78
187.86	1302.51
188.08	1290.22
188.30	1222.64
188.52	1247.21
188.75	1304.56
188.97	1253.36
189.19	1249.26
189.41	1284.08
189.63	1292.27
189.85	1249.26
190.07	1308.65
190.29	1265.64
190.51	1214.45
190.73	1261.55
190.95	1265.64
191.17	1286.12
191.39	1282.03
191.61	1224.69
191.84	1335.28
192.06	1224.69
192.28	1271.79
192.50	1255.40
192.72	1261.55
192.94	1249.26
193.16	1325.04
193.38	1292.27
193.60	1288.17
193.82	1261.55
194.04	1288.17
194.26	1251.31
194.48	1204.21
194.70	1331.18
194.92	1265.64
195.14	1273.84
195.36	1241.07
195.58	1312.75
195.80	1189.87
196.02	1282.03
196.24	1306.60
196.46	1284.08
196.69	1212.40
196.91	1349.61
197.13	1239.02
197.35	1251.31
197.57	1263.60
197.79	1306.60
198.01	1251.31
198.23	1245.16
198.45	1345.52
198.67	1216.49
198.89	1247.21
199.11	1288.17
199.33	1292.27
199.55	1267.69
199.77	1224.69
199.99	1331.18
200.21	1245.16
200.43	1275.88
200.65	1298.41
200.87	1282.03
201.09	1294.32
201.31	1251.31
201.53	1253.36
201.75	1234.93
201.97	1308.65
202.19	1273.84
202.41	1169.39
202.63	1282.03
202.85	1314.80
203.07	1282.03
203.29	1245.16
203.51	1257.45
203.73	1322.99
203.95	1349.61
204.17	1275.88
204.39	1292.27
204.61	1210.35
204.83	1267.69
205.05	1282.03
205.27	1288.17
205.49	1200.11
205.71	1279.98
205.93	1333.23
206.15	1271.79
206.37	1263.60
206.59	1210.35
206.81	1251.31
207.03	1318.89
207.25	1290.22
207.47	1245.16
207.69	1271.79
207.91	1308.65
208.13	1218.54
208.34	1320.94
208.56	1290.22
208.78	1288.17
209.00	1191.92
209.22	1277.93
209.44	1261.55
209.66	1277.93
209.88	1230.83
210.10	1282.03
210.32	1230.83
210.54	1282.03
210.76	1267.69
210.98	1316.84
211.20	1302.51
211.42	1286.12
211.64	1263.60
211.86	1314.80
212.08	1308.65
212.30	1234.93
212.52	1185.77
212.74	1286.12
212.96	1212.40
213.17	1241.07
213.39	1185.77
213.61	1298.41
213.83	1230.83
214.05	1220.59
214.27	1245.16
214.49	1216.49
214.71	1208.30
214.93	1282.03
215.15	1271.79
215.37	1271.79
215.59	1304.56
215.81	1263.60
216.03	1273.84
216.24	1259.50
216.46	1335.28
216.68	1337.32
216.90	1277.93
217.12	1212.40
217.34	1249.26
217.56	1236.97
217.78	1222.64
218.00	1249.26
218.22	1271.79
218.44	1234.93
218.66	1226.73
218.87	1167.34
219.09	1339.37
219.31	1277.93
219.53	1206.25
219.75	1245.16
219.97	1322.99
220.19	1304.56
220.41	1284.08
220.63	1271.79
220.85	1294.32
221.06	1232.88
221.28	1251.31
221.50	1298.41
221.72	1298.41
221.94	1277.93
222.16	1282.03
222.38	1228.78
222.60	1249.26
222.82	1388.52
223.03	1304.56
223.25	1251.31
223.47	1359.85
223.69	1292.27
223.91	1304.56
224.13	1275.88
224.35	1308.65
224.57	1325.04
224.78	1255.40
225.00	1337.32
225.22	1204.21
225.44	1216.49
225.66	1288.17
225.88	1241.07
226.10	1255.40
226.32	1325.04
226.53	1210.35
226.75	1343.47
226.97	1310.70
227.19	1218.54
227.41	1304.56
227.63	1273.84
227.85	1339.37
228.06	1249.26
228.28	1251.31
228.50	1310.70
228.72	1249.26
228.94	1220.59
229.16	1275.88
229.37	1228.78
229.59	1288.17
229.81	1312.75
230.03	1236.97
230.25	1292.27
230.47	1335.28
230.69	1249.26
230.90	1216.49
231.12	1306.60
231.34	1187.82
231.56	1298.41
231.78	1265.64
232.00	1298.41
232.21	1302.51
232.43	1277.93
232.65	1290.22
232.87	1236.97
233.09	1284.08
233.30	1245.16
233.52	1267.69
233.74	1271.79
233.96	1200.11
234.18	1230.83
234.40	1226.73
234.61	1282.03
234.83	1257.45
235.05	1259.50
235.27	1261.55
235.49	1255.40
235.70	1218.54
235.92	1263.60
236.14	1232.88
236.36	1314.80
236.58	1286.12
236.79	1234.93
237.01	1273.84
237.23	1275.88
237.45	1337.32
237.67	1277.93
237.88	1204.21
238.10	1257.45
238.32	1239.02
238.54	1288.17
238.76	1239.02
238.97	1200.11
239.19	1253.36
239.41	1275.88
239.63	1306.60
239.85	1189.87
240.06	1257.45
240.28	1271.79
240.50	1255.40
240.72	1236.97
240.93	1261.55
241.15	1290.22
241.37	1284.08
241.59	1294.32
241.81	1271.79
242.02	1282.03
242.24	1249.26
242.46	1239.02
242.68	1259.50
242.89	1298.41
243.11	1302.51
243.33	1298.41
243.55	1273.84
243.76	1339.37
243.98	1273.84
244.20	1286.12
244.42	1212.40
244.64	1216.49
244.85	1279.98
245.07	1212.40
245.29	1204.21
245.51	1265.64
245.72	1282.03
245.94	1273.84
246.16	1230.83
246.38	1279.98
246.59	1263.60
246.81	1279.98
247.03	1253.36
247.24	1275.88
247.46	1296.36
247.68	1318.89
247.90	1267.69
248.11	1263.60
248.33	1232.88
248.55	1255.40
248.77	1298.41
248.98	1286.12
249.20	1304.56
249.42	1312.75
249.64	1251.31
249.85	1329.13
250.07	1312.75
250.29	1257.45
250.50	1232.88
250.72	1230.83
250.94	1279.98
251.16	1273.84
251.37	1222.64
251.59	1329.13
251.81	1222.64
252.02	1247.21
252.24	1234.93
252.46	1277.93
252.68	1230.83
252.89	1290.22
253.11	1255.40
253.33	1228.78
253.54	1249.26
253.76	1282.03
253.98	1294.32
254.20	1286.12
254.41	1374.19
254.63	1265.64
254.85	1232.88
255.06	1292.27
255.28	1341.42
255.50	1288.17
255.71	1277.93
255.93	1232.88
256.15	1290.22
256.36	1298.41
256.58	1249.26
256.80	1304.56
257.02	1273.84
257.23	1333.23
257.45	1265.64
257.67	1263.60
257.88	1251.31
258.10	1245.16
258.32	1318.89
258.53	1306.60
258.75	1210.35
258.97	1298.41
259.18	1239.02
259.40	1288.17
259.62	1230.83
259.83	1224.69
260.05	1247.21
260.27	1331.18
260.48	1226.73
260.70	1241.07
260.92	1310.70
261.13	1279.98
261.35	1243.12
261.57	1245.16
261.78	1251.31
262.00	1241.07
262.22	1263.60
262.43	1300.46
262.65	1255.40
262.86	1255.40
263.08	1316.84
263.30	1173.49
263.51	1257.45
263.73	1320.94
263.95	1292.27
264.16	1288.17
264.38	1251.31
264.60	1245.16
264.81	1312.75
265.03	1226.73
265.25	1327.08
265.46	1265.64
265.68	1304.56
265.89	1257.45
266.11	1304.56
266.33	1282.03
266.54	1290.22
266.76	1263.60
266.98	1251.31
267.19	1220.59
267.41	1370.09
267.62	1331.18
267.84	1312.75
268.06	1288.17
268.27	1243.12
268.49	1331.18
268.70	1275.88
268.92	1232.88
269.14	1286.12
269.35	1247.21
269.57	1306.60
269.79	1288.17
270.00	1333.23
270.22	1386.47
270.43	1308.65
270.65	1284.08
270.87	1265.64
271.08	1331.18
271.30	1304.56
271.51	1282.03
271.73	1255.40
271.95	1251.31
272.16	1255.40
272.38	1271.79
272.59	1257.45
272.81	1288.17
273.02	1232.88
273.24	1265.64
273.46	1286.12
273.67	1239.02
273.89	1259.50
274.10	1318.89
274.32	1271.79
274.54	1284.08
274.75	1253.36
274.97	1298.41
275.18	1253.36
275.40	1275.88
275.61	1245.16
275.83	1329.13
276.05	1259.50
276.26	1198.06
276.48	1294.32
276.69	1265.64
276.91	1261.55
277.12	1314.80
277.34	1282.03
277.55	1333.23
277.77	1236.97
277.99	1298.41
278.20	1275.88
278.42	1279.98
278.63	1249.26
278.85	1230.83
279.06	1282.03
279.28	1226.73
279.49	1355.76
279.71	1279.98
279.93	1261.55
280.14	1249.26
280.36	1286.12
280.57	1269.74
280.79	1277.93
281.00	1279.98
281.22	1204.21
281.43	1245.16
281.65	1273.84
281.86	1181.68
282.08	1257.45
282.29	1290.22
282.51	1243.12
282.73	1296.36
282.94	1228.78
283.16	1314.80
283.37	1224.69
283.59	1300.46
283.80	1243.12
284.02	1282.03
284.23	1216.49
284.45	1288.17
284.66	1230.83
284.88	1320.94
285.09	1255.40
285.31	1294.32
285.52	1343.47
285.74	1230.83
285.95	1339.37
286.17	1275.88
286.38	1286.12
286.60	1265.64
286.81	1210.35
287.03	1273.84
287.24	1187.82
287.46	1261.55
287.67	1288.17
287.89	1196.01
288.10	1298.41
288.32	1271.79
288.53	1251.31
288.75	1257.45
288.96	1298.41
289.18	1277.93
289.39	1255.40
289.61	1251.31
289.82	1333.23
290.04	1220.59
290.25	1243.12
290.47	1273.84
290.68	1247.21
290.90	1368.04
291.11	1304.56
291.33	1228.78
291.54	1271.79
291.76	1290.22
291.97	1236.97
292.18	1277.93
292.40	1247.21
292.61	1357.80
292.83	1243.12
293.04	1329.13
293.26	1241.07
293.47	1320.94
293.69	1298.41
293.90	1259.50
294.12	1249.26
294.33	1241.07
294.55	1239.02
294.76	1202.16
294.97	1282.03
295.19	1273.84
295.40	1236.97
295.62	1314.80
295.83	1329.13
296.05	1228.78
296.26	1243.12
296.48	1269.74
296.69	1290.22
296.90	1275.88
297.12	1308.65
297.33	1234.93
297.55	1296.36
297.76	1318.89
297.98	1253.36
298.19	1308.65
298.41	1294.32
298.62	1224.69
298.83	1214.45
299.05	1255.40
299.26	1243.12
299.48	1263.60
299.69	1222.64
299.90	1222.64
300.12	1230.83
300.33	1255.40
300.55	1165.29
300.76	1290.22
300.98	1310.70
301.19	1263.60
301.40	1284.08
301.62	1257.45
301.83	1234.93
302.05	1288.17
302.26	1261.55
302.47	1282.03
302.69	1243.12
302.90	1267.69
303.12	1232.88
303.33	1265.64
303.54	1236.97
303.76	1282.03
303.97	1257.45
304.19	1198.06
304.40	1253.36
304.61	1216.49
304.83	1380.33
305.04	1273.84
305.26	1232.88
305.47	1286.12
305.68	1310.70
305.90	1253.36
306.11	1216.49
306.33	1282.03
306.54	1286.12
306.75	1304.56
306.97	1286.12
307.18	1286.12
307.39	1271.79
307.61	1284.08
307.82	1310.70
308.04	1259.50
308.25	1286.12
308.46	1284.08
308.68	1265.64
308.89	1200.11
309.10	1288.17
309.32	1257.45
309.53	1269.74
309.74	1232.88
309.96	1247.21
310.17	1271.79
310.39	1241.07
310.60	1247.21
310.81	1265.64
311.03	1214.45
311.24	1290.22
311.45	1331.18
311.67	1251.31
311.88	1277.93
312.09	1243.12
312.31	1300.46
312.52	1267.69
312.73	1265.64
312.95	1253.36
313.16	1255.40
313.37	1249.26
313.59	1249.26
313.80	1241.07
314.01	1255.40
314.23	1214.45
314.44	1253.36
314.65	1236.97
314.87	1279.98
315.08	1322.99
315.29	1271.79
315.51	1333.23
315.72	1222.64
315.93	1279.98
316.15	1292.27
316.36	1271.79
316.57	1380.33
316.79	1275.88
317.00	1284.08
317.21	1218.54
317.43	1318.89
317.64	1212.40
317.85	1306.60
318.07	1263.60
318.28	1329.13
318.49	1243.12
318.70	1306.60
318.92	1269.74
319.13	1275.88
319.34	1288.17
319.56	1243.12
319.77	1210.35
319.98	1198.06
320.20	1191.92
320.41	1263.60
320.62	1253.36
320.83	1212.40
321.05	1253.36
321.26	1279.98
321.47	1302.51
321.69	1271.79
321.90	1292.27
322.11	1232.88
322.32	1243.12
322.54	1314.80
322.75	1267.69
322.96	1271.79
323.18	1275.88
323.39	1255.40
323.60	1243.12
323.81	1273.84
324.03	1253.36
324.24	1261.55
324.45	1257.45
324.66	1282.03
324.88	1306.60
325.09	1249.26
325.30	1222.64
325.52	1296.36
325.73	1267.69
325.94	1216.49
326.15	1325.04
326.37	1284.08
326.58	1282.03
326.79	1255.40
327.00	1269.74
327.22	1277.93
327.43	1236.97
327.64	1306.60
327.85	1257.45
328.07	1331.18
328.28	1259.50
328.49	1277.93
328.70	1255.40
328.92	1271.79
329.13	1267.69
329.34	1247.21
329.55	1331.18
329.76	1277.93
329.98	1284.08
330.19	1331.18
330.40	1220.59
330.61	1363.95
330.83	1243.12
331.04	1290.22
331.25	1331.18
331.46	1314.80
331.68	1314.80
331.89	1339.37
332.10	1310.70
332.31	1159.15
332.52	1148.91
332.74	1400.81
332.95	1337.32
333.16	1226.73
333.37	1259.50
333.58	1300.46
333.80	1310.70
334.01	1224.69
334.22	1245.16
334.43	1245.16
334.64	1322.99
334.86	1292.27
335.07	1347.56
335.28	1226.73
335.49	1306.60
335.70	1224.69
335.92	1265.64
336.13	1290.22
336.34	1241.07
336.55	1269.74
336.76	1202.16
336.98	1232.88
337.19	1236.97
337.40	1273.84
337.61	1243.12
337.82	1214.45
338.04	1286.12
338.25	1253.36
338.46	1257.45
338.67	1269.74
338.88	1224.69
339.09	1271.79
339.31	1294.32
339.52	1282.03
339.73	1243.12
339.94	1284.08
340.15	1261.55
340.36	1249.26
340.58	1341.42
340.79	1247.21
341.00	1290.22
341.21	1200.11
341.42	1339.37
341.63	1298.41
341.85	1304.56
342.06	1245.16
342.27	1310.70
342.48	1200.11
342.69	1296.36
342.90	1282.03
343.12	1236.97
343.33	1320.94
343.54	1271.79
343.75	1316.84
343.96	1296.36
344.17	1241.07
344.38	1294.32
344.60	1216.49
344.81	1261.55
345.02	1234.93
345.23	1253.36
345.44	1341.42
345.65	1269.74
345.86	1267.69
346.07	1294.32
346.29	1255.40
346.50	1282.03
346.71	1189.87
346.92	1257.45
347.13	1292.27
347.34	1218.54
347.55	1294.32
347.76	1277.93
347.98	1284.08
348.19	1292.27
348.40	1257.45
348.61	1273.84
348.82	1259.50
349.03	1318.89
349.24	1370.09
349.45	1255.40
349.66	1232.88
349.88	1273.84
350.09	1314.80
350.30	1251.31
350.51	1253.36
350.72	1298.41
350.93	1267.69
351.14	1222.64
351.35	1247.21
351.56	1247.21
351.77	1267.69
351.99	1226.73
352.20	1298.41
352.41	1202.16
352.62	1216.49
352.83	1314.80
353.04	1277.93
353.25	1216.49
353.46	1306.60
353.67	1255.40
353.88	1265.64
354.09	1220.59
354.30	1230.83
354.52	1269.74
354.73	1234.93
354.94	1277.93
355.15	1337.32
355.36	1251.31
355.57	1282.03
355.78	1261.55
355.99	1279.98
356.20	1294.32
356.41	1255.40
356.62	1333.23
356.83	1263.60
357.04	1269.74
357.25	1300.46
357.46	1310.70
357.68	1265.64
357.89	1265.64
358.10	1275.88
358.31	1177.58
358.52	1288.17
358.73	1327.08
358.94	1298.41
359.15	1308.65
359.36	1275.88
359.57	1232.88
359.78	1322.99
359.99	1269.74
360.20	1257.45
360.41	1259.50
360.62	1208.30
360.83	1294.32
361.04	1271.79
361.25	1226.73
361.46	1302.51
361.67	1284.08
361.88	1200.11
362.09	1210.35
362.30	1265.64
362.51	1251.31
362.72	1261.55
362.93	1314.80
363.14	1345.52
363.35	1249.26
363.56	1241.07
363.78	1277.93
363.99	1253.36
364.20	1288.17
364.41	1306.60
364.62	1245.16
364.83	1314.80
365.04	1318.89
365.25	1249.26
365.46	1267.69
365.67	1232.88
365.88	1236.97
366.09	1300.46
366.30	1263.60
366.51	1277.93
366.72	1189.87
366.93	1226.73
367.14	1216.49
367.35	1273.84
367.56	1288.17
367.77	1204.21
367.98	1198.06
368.18	1296.36
368.39	1257.45
368.60	1279.98
368.81	1337.32
369.02	1296.36
369.23	1322.99
369.44	1290.22
369.65	1261.55
369.86	1255.40
370.07	1284.08
370.28	1300.46
370.49	1255.40
370.70	1308.65
370.91	1226.73
371.12	1257.45
371.33	1255.40
371.54	1279.98
371.75	1247.21
371.96	1304.56
372.17	1159.15
372.38	1304.56
372.59	1236.97
372.80	1251.31
373.01	1271.79
373.22	1288.17
373.43	1296.36
373.64	1294.32
373.85	1265.64
374.06	1288.17
374.26	1259.50
374.47	1298.41
374.68	1312.75
374.89	1216.49
375.10	1226.73
375.31	1236.97
375.52	1277.93
375.73	1208.30
375.94	1212.40
376.15	1255.40
376.36	1212.40
376.57	1261.55
376.78	1288.17
376.99	1259.50
377.20	1288.17
377.40	1245.16
377.61	1220.59
377.82	1294.32
378.03	1282.03
378.24	1241.07
378.45	1335.28
378.66	1161.20
378.87	1251.31
379.08	1284.08
379.29	1230.83
379.50	1312.75
379.71	1214.45
379.91	1198.06
380.12	1277.93
380.33	1251.31
380.54	1198.06
380.75	1312.75
380.96	1263.60
381.17	1320.94
381.38	1341.42
381.59	1239.02
381.80	1202.16
382.00	1261.55
382.21	1310.70
382.42	1331.18
382.63	1269.74
382.84	1316.84
383.05	1279.98
383.26	1284.08
383.47	1245.16
383.68	1298.41
383.88	1253.36
384.09	1306.60
384.30	1271.79
384.51	1239.02
384.72	1239.02
384.93	1251.31
385.14	1200.11
385.35	1259.50
385.55	1366.00
385.76	1251.31
385.97	1277.93
386.18	1267.69
386.39	1279.98
386.60	1251.31
386.81	1273.84
387.02	1273.84
387.22	1275.88
387.43	1269.74
387.64	1273.84
387.85	1265.64
388.06	1290.22
388.27	1206.25
388.48	1304.56
388.68	1277.93
388.89	1222.64
389.10	1243.12
389.31	1249.26
389.52	1273.84
389.73	1179.63
389.93	1271.79
390.14	1169.39
390.35	1234.93
390.56	1343.47
390.77	1286.12
390.98	1277.93
391.18	1269.74
391.39	1259.50
391.60	1251.31
391.81	1257.45
392.02	1322.99
392.23	1187.82
392.43	1249.26
392.64	1331.18
392.85	1298.41
393.06	1214.45
393.27	1273.84
393.47	1286.12
393.68	1241.07
393.89	1267.69
394.10	1241.07
394.31	1245.16
394.52	1304.56
394.72	1306.60
394.93	1247.21
395.14	1284.08
395.35	1327.08
395.56	1204.21
395.76	1284.08
395.97	1249.26
396.18	1298.41
396.39	1304.56
396.60	1322.99
396.80	1279.98
397.01	1277.93
397.22	1245.16
397.43	1226.73
397.64	1257.45
397.84	1241.07
398.05	1279.98
398.26	1318.89
398.47	1277.93
398.67	1273.84
398.88	1236.97
399.09	1208.30
399.30	1196.01
399.51	1253.36
399.71	1308.65
399.92	1247.21
400.13	1277.93
400.34	1269.74
400.54	1261.55
400.75	1255.40
400.96	1212.40
401.17	1320.94
401.37	1249.26
401.58	1257.45
401.79	1224.69
402.00	1200.11
402.21	1265.64
402.41	1261.55
402.62	1204.21
402.83	1257.45
403.04	1308.65
403.24	1357.80
403.45	1239.02
403.66	1206.25
403.87	1269.74
404.07	1247.21
404.28	1298.41
404.49	1183.73
404.70	1282.03
404.90	1316.84
405.11	1236.97
405.32	1282.03
405.52	1292.27
405.73	1296.36
405.94	1290.22
406.15	1271.79
406.35	1236.97
406.56	1232.88
406.77	1236.97
406.98	1255.40
407.18	1253.36
407.39	1224.69
407.60	1263.60
407.80	1253.36
408.01	1187.82
408.22	1302.51
408.43	1251.31
408.63	1198.06
408.84	1245.16
409.05	1275.88
409.25	1230.83
409.46	1249.26
409.67	1245.16
409.88	1259.50
410.08	1257.45
410.29	1198.06
410.50	1325.04
410.70	1273.84
410.91	1296.36
411.12	1236.97
411.32	1228.78
411.53	1220.59
411.74	1241.07
411.95	1243.12
412.15	1279.98
412.36	1271.79
412.57	1292.27
412.77	1335.28
412.98	1298.41
413.19	1290.22
413.39	1275.88
413.60	1245.16
413.81	1247.21
414.01	1300.46
414.22	1320.94
414.43	1259.50
414.63	1257.45
414.84	1269.74
415.05	1380.33
415.25	1261.55
415.46	1257.45
415.67	1349.61
415.87	1247.21
416.08	1271.79
416.29	1269.74
416.49	1245.16
416.70	1212.40
416.91	1302.51
417.11	1214.45
417.32	1277.93
417.53	1210.35
417.73	1249.26
417.94	1318.89
418.15	1265.64
418.35	1218.54
418.56	1273.84
418.77	1216.49
418.97	1245.16
419.18	1261.55
419.38	1249.26
419.59	1257.45
419.80	1169.39
420.00	1284.08
420.21	1290.22
420.42	1265.64
420.62	1249.26
420.83	1316.84
421.04	1286.12
421.24	1302.51
421.45	1263.60
421.65	1308.65
421.86	1214.45
422.07	1267.69
422.27	1312.75
422.48	1314.80
422.69	1298.41
422.89	1341.42
423.10	1286.12
423.30	1236.97
423.51	1218.54
423.72	1263.60
423.92	1232.88
424.13	1251.31
424.33	1312.75
424.54	1347.56
424.75	1228.78
424.95	1318.89
425.16	1337.32
425.36	1243.12
425.57	1255.40
425.78	1224.69
425.98	1273.84
426.19	1294.32
426.39	1318.89
426.60	1249.26
426.81	1290.22
427.01	1296.36
427.22	1316.84
427.42	1243.12
427.63	1310.70
427.83	1234.93
428.04	1218.54
428.25	1236.97
428.45	1298.41
428.66	1202.16
428.86	1292.27
429.07	1294.32
429.28	1282.03
429.48	1298.41
429.69	1247.21
429.89	1239.02
430.10	1251.31
430.30	1279.98
430.51	1298.41
430.71	1312.75
430.92	1269.74
431.13	1257.45
431.33	1232.88
431.54	1234.93
431.74	1304.56
431.95	1316.84
432.15	1292.27
432.36	1251.31
432.56	1216.49
432.77	1304.56
432.98	1339.37
433.18	1241.07
433.39	1239.02
433.59	1310.70
433.80	1198.06
434.00	1263.60
434.21	1228.78
434.41	1224.69
434.62	1296.36
434.82	1308.65
435.03	1249.26
435.23	1284.08
435.44	1279.98
435.64	1279.98
435.85	1316.84
436.06	1284.08
436.26	1196.01
436.47	1214.45
436.67	1241.07
436.88	1290.22
437.08	1343.47
437.29	1300.46
437.49	1337.32
437.70	1220.59
437.90	1286.12
438.11	1306.60
438.31	1208.30
438.52	1275.88
438.72	1275.88
438.93	1277.93
439.13	1251.31
439.34	1255.40
439.54	1282.03
439.75	1218.54
439.95	1249.26
440.16	1284.08
440.36	1296.36
440.57	1288.17
440.77	1329.13
440.98	1222.64
441.18	1230.83
441.39	1243.12
441.59	1288.17
441.80	1206.25
442.00	1279.98
442.21	1236.97
442.41	1335.28
442.62	1241.07
442.82	1275.88
443.02	1267.69
443.23	1232.88
443.43	1239.02
443.64	1243.12
443.84	1224.69
444.05	1296.36
444.25	1257.45
444.46	1269.74
444.66	1306.60
444.87	1243.12
445.07	1179.63
445.28	1329.13
445.48	1253.36
445.69	1372.14
445.89	1253.36
446.09	1353.71
446.30	1282.03
446.50	1253.36
446.71	1273.84
446.91	1296.36
447.12	1329.13
447.32	1241.07
447.53	1263.60
447.73	1306.60
447.93	1263.60
448.14	1306.60
448.34	1214.45
448.55	1255.40
448.75	1222.64
448.96	1290.22
449.16	1228.78
449.36	1253.36
449.57	1247.21
449.77	1232.88
449.98	1226.73
450.18	1320.94
450.39	1308.65
450.59	1298.41
450.79	1296.36
451.00	1257.45
451.20	1279.98
451.41	1220.59
451.61	1294.32
451.81	1277.93
452.02	1267.69
452.22	1273.84
452.43	1259.50
452.63	1304.56
