SpectraSuite Data File
++++++++++++++++++++++++++++++++++++
Date: Sun Apr 03 19:55:28 CEST 2016
User: root
Dark Spectrum Present: No
Reference Spectrum Present: No
Number of Sampled Component Spectra: 1
Spectrometers: USB4C02835
Integration Time (usec): 10000 (USB4C02835)
Spectra Averaged: 1 (USB4C02835)
Boxcar Smoothing: 0 (USB4C02835)
Correct for Electrical Dark: No (USB4C02835)
Strobe/Lamp Enabled: No (USB4C02835)
Correct for Detector Non-linearity: No (USB4C02835)
Correct for Stray Light: No (USB4C02835)
Number of Pixels in Processed Spectrum: 3648
>>>>>Begin Processed Spectral Data<<<<<
177.47	1228.78
177.69	1228.78
177.91	1228.78
178.13	1230.83
178.36	1255.40
178.58	1216.49
178.80	1353.71
179.02	1236.97
179.24	1249.26
179.46	1304.56
179.68	1355.76
179.90	1306.60
180.13	1306.60
180.35	1226.73
180.57	1271.79
180.79	1253.36
181.01	1261.55
181.23	1339.37
181.45	1296.36
181.67	1251.31
181.90	1226.73
182.12	1253.36
182.34	1277.93
182.56	1251.31
182.78	1251.31
183.00	1161.20
183.22	1286.12
183.44	1263.60
183.66	1290.22
183.89	1230.83
184.11	1228.78
184.33	1292.27
184.55	1253.36
184.77	1343.47
184.99	1366.00
185.21	1292.27
185.43	1257.45
185.65	1249.26
185.87	1286.12
186.10	1265.64
186.32	1247.21
186.54	1247.21
186.76	1279.98
186.98	1277.93
187.20	1357.80
187.42	1261.55
187.64	1277.93
187.86	1284.08
188.08	1230.83
188.30	1224.69
188.52	1312.75
188.75	1222.64
188.97	1368.04
189.19	1269.74
189.41	1316.84
189.63	1234.93
189.85	1271.79
190.07	1316.84
190.29	1265.64
190.51	1251.31
190.73	1275.88
190.95	1263.60
191.17	1269.74
191.39	1265.64
191.61	1234.93
191.84	1273.84
192.06	1243.12
192.28	1271.79
192.50	1275.88
192.72	1327.08
192.94	1292.27
193.16	1329.13
193.38	1263.60
193.60	1261.55
193.82	1200.11
194.04	1312.75
194.26	1286.12
194.48	1292.27
194.70	1253.36
194.92	1236.97
195.14	1249.26
195.36	1179.63
195.58	1312.75
195.80	1282.03
196.02	1220.59
196.24	1232.88
196.46	1255.40
196.69	1251.31
196.91	1253.36
197.13	1308.65
197.35	1230.83
197.57	1243.12
197.79	1267.69
198.01	1300.46
198.23	1255.40
198.45	1263.60
198.67	1224.69
198.89	1255.40
199.11	1226.73
199.33	1277.93
199.55	1263.60
199.77	1234.93
199.99	1286.12
200.21	1267.69
200.43	1206.25
200.65	1275.88
200.87	1239.02
201.09	1249.26
201.31	1236.97
201.53	1271.79
201.75	1234.93
201.97	1265.64
202.19	1200.11
202.41	1288.17
202.63	1300.46
202.85	1255.40
203.07	1257.45
203.29	1249.26
203.51	1294.32
203.73	1322.99
203.95	1257.45
204.17	1243.12
204.39	1288.17
204.61	1302.51
204.83	1228.78
205.05	1271.79
205.27	1261.55
205.49	1363.95
205.71	1277.93
205.93	1279.98
206.15	1228.78
206.37	1267.69
206.59	1167.34
206.81	1169.39
207.03	1224.69
207.25	1306.60
207.47	1288.17
207.69	1253.36
207.91	1290.22
208.13	1226.73
208.34	1146.86
208.56	1253.36
208.78	1257.45
209.00	1277.93
209.22	1298.41
209.44	1320.94
209.66	1275.88
209.88	1310.70
210.10	1284.08
210.32	1232.88
210.54	1363.95
210.76	1249.26
210.98	1273.84
211.20	1300.46
211.42	1267.69
211.64	1306.60
211.86	1318.89
212.08	1294.32
212.30	1271.79
212.52	1290.22
212.74	1312.75
212.96	1286.12
213.17	1277.93
213.39	1210.35
213.61	1232.88
213.83	1282.03
214.05	1243.12
214.27	1226.73
214.49	1290.22
214.71	1249.26
214.93	1339.37
215.15	1181.68
215.37	1284.08
215.59	1234.93
215.81	1306.60
216.03	1259.50
216.24	1218.54
216.46	1228.78
216.68	1302.51
216.90	1198.06
217.12	1327.08
217.34	1267.69
217.56	1279.98
217.78	1259.50
218.00	1304.56
218.22	1257.45
218.44	1271.79
218.66	1214.45
218.87	1335.28
219.09	1241.07
219.31	1249.26
219.53	1269.74
219.75	1341.42
219.97	1249.26
220.19	1224.69
220.41	1343.47
220.63	1271.79
220.85	1304.56
221.06	1261.55
221.28	1292.27
221.50	1288.17
221.72	1314.80
221.94	1257.45
222.16	1224.69
222.38	1331.18
222.60	1320.94
222.82	1320.94
223.03	1239.02
223.25	1232.88
223.47	1245.16
223.69	1226.73
223.91	1288.17
224.13	1239.02
224.35	1263.60
224.57	1314.80
224.78	1314.80
225.00	1173.49
225.22	1255.40
225.44	1269.74
225.66	1249.26
225.88	1368.04
226.10	1284.08
226.32	1312.75
226.53	1249.26
226.75	1298.41
226.97	1290.22
227.19	1279.98
227.41	1243.12
227.63	1257.45
227.85	1261.55
228.06	1206.25
228.28	1290.22
228.50	1282.03
228.72	1247.21
228.94	1210.35
229.16	1206.25
229.37	1327.08
229.59	1267.69
229.81	1273.84
230.03	1224.69
230.25	1269.74
230.47	1329.13
230.69	1263.60
230.90	1214.45
231.12	1245.16
231.34	1247.21
231.56	1294.32
231.78	1292.27
232.00	1353.71
232.21	1239.02
232.43	1304.56
232.65	1304.56
232.87	1198.06
233.09	1249.26
233.30	1204.21
233.52	1243.12
233.74	1288.17
233.96	1232.88
234.18	1187.82
234.40	1271.79
234.61	1286.12
234.83	1288.17
235.05	1257.45
235.27	1302.51
235.49	1304.56
235.70	1333.23
235.92	1292.27
236.14	1322.99
236.36	1288.17
236.58	1351.66
236.79	1322.99
237.01	1286.12
237.23	1263.60
237.45	1325.04
237.67	1288.17
237.88	1263.60
238.10	1304.56
238.32	1239.02
238.54	1273.84
238.76	1261.55
238.97	1265.64
239.19	1306.60
239.41	1294.32
239.63	1333.23
239.85	1206.25
240.06	1257.45
240.28	1310.70
240.50	1251.31
240.72	1247.21
240.93	1241.07
241.15	1304.56
241.37	1302.51
241.59	1214.45
241.81	1282.03
242.02	1312.75
242.24	1263.60
242.46	1306.60
242.68	1220.59
242.89	1306.60
243.11	1245.16
243.33	1230.83
243.55	1228.78
243.76	1308.65
243.98	1249.26
244.20	1296.36
244.42	1251.31
244.64	1370.09
244.85	1273.84
245.07	1245.16
245.29	1271.79
245.51	1302.51
245.72	1277.93
245.94	1267.69
246.16	1275.88
246.38	1296.36
246.59	1331.18
246.81	1265.64
247.03	1265.64
247.24	1306.60
247.46	1249.26
247.68	1300.46
247.90	1236.97
248.11	1288.17
248.33	1232.88
248.55	1232.88
248.77	1259.50
248.98	1296.36
249.20	1210.35
249.42	1247.21
249.64	1279.98
249.85	1339.37
250.07	1282.03
250.29	1241.07
250.50	1267.69
250.72	1257.45
250.94	1300.46
251.16	1310.70
251.37	1253.36
251.59	1191.92
251.81	1173.49
252.02	1228.78
252.24	1245.16
252.46	1273.84
252.68	1282.03
252.89	1241.07
253.11	1191.92
253.33	1241.07
253.54	1282.03
253.76	1277.93
253.98	1226.73
254.20	1269.74
254.41	1251.31
254.63	1255.40
254.85	1284.08
255.06	1282.03
255.28	1243.12
255.50	1327.08
255.71	1222.64
255.93	1212.40
256.15	1222.64
256.36	1294.32
256.58	1251.31
256.80	1257.45
257.02	1314.80
257.23	1206.25
257.45	1273.84
257.67	1357.80
257.88	1249.26
258.10	1273.84
258.32	1251.31
258.53	1228.78
258.75	1263.60
258.97	1290.22
259.18	1228.78
259.40	1288.17
259.62	1279.98
259.83	1374.19
260.05	1271.79
260.27	1261.55
260.48	1228.78
260.70	1259.50
260.92	1296.36
261.13	1267.69
261.35	1267.69
261.57	1212.40
261.78	1312.75
262.00	1271.79
262.22	1261.55
262.43	1257.45
262.65	1273.84
262.86	1314.80
263.08	1220.59
263.30	1269.74
263.51	1243.12
263.73	1286.12
263.95	1290.22
264.16	1218.54
264.38	1277.93
264.60	1202.16
264.81	1263.60
265.03	1265.64
265.25	1228.78
265.46	1251.31
265.68	1296.36
265.89	1339.37
266.11	1302.51
266.33	1290.22
266.54	1222.64
266.76	1234.93
266.98	1273.84
267.19	1318.89
267.41	1267.69
267.62	1290.22
267.84	1265.64
268.06	1359.85
268.27	1228.78
268.49	1331.18
268.70	1294.32
268.92	1265.64
269.14	1241.07
269.35	1214.45
269.57	1236.97
269.79	1320.94
270.00	1284.08
270.22	1298.41
270.43	1245.16
270.65	1236.97
270.87	1296.36
271.08	1282.03
271.30	1265.64
271.51	1239.02
271.73	1279.98
271.95	1304.56
272.16	1249.26
272.38	1234.93
272.59	1286.12
272.81	1265.64
273.02	1269.74
273.24	1220.59
273.46	1202.16
273.67	1271.79
273.89	1247.21
274.10	1302.51
274.32	1294.32
274.54	1306.60
274.75	1306.60
274.97	1236.97
275.18	1288.17
275.40	1329.13
275.61	1224.69
275.83	1257.45
276.05	1220.59
276.26	1325.04
276.48	1269.74
276.69	1216.49
276.91	1333.23
277.12	1288.17
277.34	1253.36
277.55	1239.02
277.77	1210.35
277.99	1249.26
278.20	1314.80
278.42	1288.17
278.63	1253.36
278.85	1241.07
279.06	1265.64
279.28	1261.55
279.49	1277.93
279.71	1294.32
279.93	1279.98
280.14	1318.89
280.36	1241.07
280.57	1329.13
280.79	1236.97
281.00	1241.07
281.22	1191.92
281.43	1263.60
281.65	1279.98
281.86	1320.94
282.08	1286.12
282.29	1257.45
282.51	1304.56
282.73	1294.32
282.94	1247.21
283.16	1310.70
283.37	1239.02
283.59	1282.03
283.80	1243.12
284.02	1269.74
284.23	1177.58
284.45	1282.03
284.66	1234.93
284.88	1228.78
285.09	1265.64
285.31	1277.93
285.52	1261.55
285.74	1259.50
285.95	1253.36
286.17	1347.56
286.38	1294.32
286.60	1185.77
286.81	1304.56
287.03	1292.27
287.24	1232.88
287.46	1245.16
287.67	1314.80
287.89	1181.68
288.10	1251.31
288.32	1267.69
288.53	1232.88
288.75	1286.12
288.96	1253.36
289.18	1208.30
289.39	1185.77
289.61	1292.27
289.82	1230.83
290.04	1282.03
290.25	1304.56
290.47	1343.47
290.68	1331.18
290.90	1279.98
291.11	1261.55
291.33	1286.12
291.54	1300.46
291.76	1226.73
291.97	1230.83
292.18	1232.88
292.40	1224.69
292.61	1204.21
292.83	1306.60
293.04	1282.03
293.26	1212.40
293.47	1159.15
293.69	1267.69
293.90	1261.55
294.12	1257.45
294.33	1230.83
294.55	1259.50
294.76	1241.07
294.97	1243.12
295.19	1279.98
295.40	1232.88
295.62	1249.26
295.83	1286.12
296.05	1300.46
296.26	1271.79
296.48	1253.36
296.69	1230.83
296.90	1290.22
297.12	1310.70
297.33	1208.30
297.55	1327.08
297.76	1290.22
297.98	1267.69
298.19	1310.70
298.41	1218.54
298.62	1357.80
298.83	1329.13
299.05	1279.98
299.26	1259.50
299.48	1249.26
299.69	1245.16
299.90	1290.22
300.12	1224.69
300.33	1253.36
300.55	1325.04
300.76	1245.16
300.98	1249.26
301.19	1275.88
301.40	1304.56
301.62	1282.03
301.83	1259.50
302.05	1253.36
302.26	1261.55
302.47	1216.49
302.69	1271.79
302.90	1320.94
303.12	1257.45
303.33	1241.07
303.54	1308.65
303.76	1271.79
303.97	1196.01
304.19	1279.98
304.40	1300.46
304.61	1290.22
304.83	1257.45
305.04	1247.21
305.26	1214.45
305.47	1314.80
305.68	1290.22
305.90	1214.45
306.11	1204.21
306.33	1259.50
306.54	1288.17
306.75	1226.73
306.97	1290.22
307.18	1243.12
307.39	1304.56
307.61	1308.65
307.82	1259.50
308.04	1236.97
308.25	1236.97
308.46	1263.60
308.68	1310.70
308.89	1259.50
309.10	1269.74
309.32	1306.60
309.53	1206.25
309.74	1343.47
309.96	1249.26
310.17	1273.84
310.39	1259.50
310.60	1370.09
310.81	1222.64
311.03	1298.41
311.24	1265.64
311.45	1265.64
311.67	1310.70
311.88	1269.74
312.09	1288.17
312.31	1277.93
312.52	1193.97
312.73	1302.51
312.95	1271.79
313.16	1239.02
313.37	1282.03
313.59	1249.26
313.80	1214.45
314.01	1200.11
314.23	1269.74
314.44	1255.40
314.65	1292.27
314.87	1286.12
315.08	1273.84
315.29	1263.60
315.51	1263.60
315.72	1259.50
315.93	1267.69
316.15	1298.41
316.36	1239.02
316.57	1218.54
316.79	1261.55
317.00	1296.36
317.21	1275.88
317.43	1271.79
317.64	1312.75
317.85	1265.64
318.07	1261.55
318.28	1222.64
318.49	1310.70
318.70	1257.45
318.92	1290.22
319.13	1243.12
319.34	1288.17
319.56	1298.41
319.77	1351.66
319.98	1224.69
320.20	1183.73
320.41	1302.51
320.62	1234.93
320.83	1249.26
321.05	1304.56
321.26	1273.84
321.47	1228.78
321.69	1230.83
321.90	1253.36
322.11	1247.21
322.32	1224.69
322.54	1282.03
322.75	1247.21
322.96	1277.93
323.18	1304.56
323.39	1255.40
323.60	1245.16
323.81	1282.03
324.03	1261.55
324.24	1251.31
324.45	1277.93
324.66	1271.79
324.88	1275.88
325.09	1261.55
325.30	1236.97
325.52	1265.64
325.73	1249.26
325.94	1310.70
326.15	1320.94
326.37	1370.09
326.58	1275.88
326.79	1282.03
327.00	1255.40
327.22	1310.70
327.43	1294.32
327.64	1255.40
327.85	1325.04
328.07	1255.40
328.28	1288.17
328.49	1214.45
328.70	1253.36
328.92	1232.88
329.13	1275.88
329.34	1273.84
329.55	1290.22
329.76	1226.73
329.98	1196.01
330.19	1224.69
330.40	1257.45
330.61	1210.35
330.83	1269.74
331.04	1314.80
331.25	1296.36
331.46	1232.88
331.68	1288.17
331.89	1208.30
332.10	1239.02
332.31	1269.74
332.52	1267.69
332.74	1249.26
332.95	1185.77
333.16	1241.07
333.37	1243.12
333.58	1257.45
333.80	1355.76
334.01	1310.70
334.22	1275.88
334.43	1275.88
334.64	1214.45
334.86	1265.64
335.07	1232.88
335.28	1380.33
335.49	1271.79
335.70	1265.64
335.92	1257.45
336.13	1265.64
336.34	1277.93
336.55	1241.07
336.76	1239.02
336.98	1279.98
337.19	1347.56
337.40	1312.75
337.61	1279.98
337.82	1226.73
338.04	1333.23
338.25	1187.82
338.46	1255.40
338.67	1304.56
338.88	1249.26
339.09	1306.60
339.31	1273.84
339.52	1261.55
339.73	1329.13
339.94	1208.30
340.15	1265.64
340.36	1286.12
340.58	1259.50
340.79	1247.21
341.00	1243.12
341.21	1259.50
341.42	1271.79
341.63	1243.12
341.85	1277.93
342.06	1296.36
342.27	1206.25
342.48	1204.21
342.69	1226.73
342.90	1306.60
343.12	1218.54
343.33	1263.60
343.54	1294.32
343.75	1345.52
343.96	1220.59
344.17	1265.64
344.38	1263.60
344.60	1308.65
344.81	1310.70
345.02	1304.56
345.23	1243.12
345.44	1341.42
345.65	1286.12
345.86	1265.64
346.07	1263.60
346.29	1279.98
346.50	1236.97
346.71	1230.83
346.92	1232.88
347.13	1249.26
347.34	1196.01
347.55	1212.40
347.76	1279.98
347.98	1253.36
348.19	1282.03
348.40	1261.55
348.61	1286.12
348.82	1329.13
349.03	1273.84
349.24	1282.03
349.45	1228.78
349.66	1286.12
349.88	1245.16
350.09	1298.41
350.30	1259.50
350.51	1183.73
350.72	1310.70
350.93	1220.59
351.14	1187.82
351.35	1269.74
351.56	1253.36
351.77	1228.78
351.99	1355.76
352.20	1288.17
352.41	1245.16
352.62	1273.84
352.83	1222.64
353.04	1253.36
353.25	1226.73
353.46	1294.32
353.67	1271.79
353.88	1273.84
354.09	1261.55
354.30	1322.99
354.52	1232.88
354.73	1282.03
354.94	1198.06
355.15	1290.22
355.36	1290.22
355.57	1269.74
355.78	1284.08
355.99	1265.64
356.20	1327.08
356.41	1296.36
356.62	1241.07
356.83	1325.04
357.04	1222.64
357.25	1286.12
357.46	1265.64
357.68	1261.55
357.89	1245.16
358.10	1239.02
358.31	1298.41
358.52	1269.74
358.73	1282.03
358.94	1363.95
359.15	1271.79
359.36	1331.18
359.57	1271.79
359.78	1226.73
359.99	1216.49
360.20	1193.97
360.41	1286.12
360.62	1335.28
360.83	1241.07
361.04	1216.49
361.25	1263.60
361.46	1267.69
361.67	1296.36
361.88	1202.16
362.09	1234.93
362.30	1277.93
362.51	1232.88
362.72	1279.98
362.93	1277.93
363.14	1255.40
363.35	1257.45
363.56	1249.26
363.78	1239.02
363.99	1282.03
364.20	1234.93
364.41	1302.51
364.62	1208.30
364.83	1314.80
365.04	1298.41
365.25	1308.65
365.46	1269.74
365.67	1275.88
365.88	1247.21
366.09	1232.88
366.30	1312.75
366.51	1241.07
366.72	1189.87
366.93	1290.22
367.14	1263.60
367.35	1320.94
367.56	1288.17
367.77	1284.08
367.98	1247.21
368.18	1339.37
368.39	1302.51
368.60	1271.79
368.81	1288.17
369.02	1310.70
369.23	1282.03
369.44	1247.21
369.65	1226.73
369.86	1277.93
370.07	1259.50
370.28	1282.03
370.49	1263.60
370.70	1298.41
370.91	1273.84
371.12	1234.93
371.33	1333.23
371.54	1208.30
371.75	1241.07
371.96	1222.64
372.17	1288.17
372.38	1232.88
372.59	1271.79
372.80	1279.98
373.01	1236.97
373.22	1279.98
373.43	1279.98
373.64	1206.25
373.85	1239.02
374.06	1296.36
374.26	1359.85
374.47	1251.31
374.68	1279.98
374.89	1249.26
375.10	1279.98
375.31	1255.40
375.52	1212.40
375.73	1339.37
375.94	1210.35
376.15	1282.03
376.36	1232.88
376.57	1257.45
376.78	1269.74
376.99	1255.40
377.20	1349.61
377.40	1255.40
377.61	1294.32
377.82	1345.52
378.03	1228.78
378.24	1337.32
378.45	1269.74
378.66	1273.84
378.87	1255.40
379.08	1322.99
379.29	1232.88
379.50	1273.84
379.71	1265.64
379.91	1284.08
380.12	1220.59
380.33	1279.98
380.54	1267.69
380.75	1224.69
380.96	1222.64
381.17	1245.16
381.38	1265.64
381.59	1279.98
381.80	1318.89
382.00	1279.98
382.21	1320.94
382.42	1257.45
382.63	1290.22
382.84	1355.76
383.05	1206.25
383.26	1282.03
383.47	1269.74
383.68	1253.36
383.88	1234.93
384.09	1279.98
384.30	1261.55
384.51	1247.21
384.72	1245.16
384.93	1273.84
385.14	1300.46
385.35	1257.45
385.55	1234.93
385.76	1308.65
385.97	1263.60
386.18	1331.18
386.39	1249.26
386.60	1327.08
386.81	1251.31
387.02	1263.60
387.22	1269.74
387.43	1210.35
387.64	1273.84
387.85	1282.03
388.06	1261.55
388.27	1234.93
388.48	1298.41
388.68	1347.56
388.89	1189.87
389.10	1322.99
389.31	1286.12
389.52	1232.88
389.73	1257.45
389.93	1200.11
390.14	1335.28
390.35	1228.78
390.56	1218.54
390.77	1282.03
390.98	1173.49
391.18	1263.60
391.39	1265.64
391.60	1259.50
391.81	1239.02
392.02	1245.16
392.23	1345.52
392.43	1337.32
392.64	1300.46
392.85	1292.27
393.06	1259.50
393.27	1286.12
393.47	1265.64
393.68	1263.60
393.89	1251.31
394.10	1232.88
394.31	1220.59
394.52	1306.60
394.72	1265.64
394.93	1275.88
395.14	1271.79
395.35	1298.41
395.56	1296.36
395.76	1345.52
395.97	1277.93
396.18	1296.36
396.39	1277.93
396.60	1339.37
396.80	1253.36
397.01	1341.42
397.22	1253.36
397.43	1277.93
397.64	1294.32
397.84	1214.45
398.05	1290.22
398.26	1255.40
398.47	1308.65
398.67	1271.79
398.88	1296.36
399.09	1341.42
399.30	1263.60
399.51	1255.40
399.71	1245.16
399.92	1308.65
400.13	1343.47
400.34	1212.40
400.54	1245.16
400.75	1241.07
400.96	1196.01
401.17	1273.84
401.37	1286.12
401.58	1236.97
401.79	1263.60
402.00	1298.41
402.21	1232.88
402.41	1216.49
402.62	1269.74
402.83	1316.84
403.04	1200.11
403.24	1345.52
403.45	1243.12
403.66	1249.26
403.87	1284.08
404.07	1314.80
404.28	1257.45
404.49	1335.28
404.70	1275.88
404.90	1273.84
405.11	1208.30
405.32	1343.47
405.52	1343.47
405.73	1210.35
405.94	1335.28
406.15	1218.54
406.35	1193.97
406.56	1304.56
406.77	1329.13
406.98	1314.80
407.18	1257.45
407.39	1310.70
407.60	1214.45
407.80	1228.78
408.01	1314.80
408.22	1279.98
408.43	1249.26
408.63	1257.45
408.84	1255.40
409.05	1226.73
409.25	1236.97
409.46	1200.11
409.67	1212.40
409.88	1261.55
410.08	1228.78
410.29	1247.21
410.50	1210.35
410.70	1312.75
410.91	1198.06
411.12	1261.55
411.32	1288.17
411.53	1251.31
411.74	1263.60
411.95	1290.22
412.15	1236.97
412.36	1265.64
412.57	1245.16
412.77	1261.55
412.98	1257.45
413.19	1255.40
413.39	1239.02
413.60	1370.09
413.81	1218.54
414.01	1241.07
414.22	1228.78
414.43	1259.50
414.63	1253.36
414.84	1273.84
415.05	1253.36
415.25	1253.36
415.46	1282.03
415.67	1261.55
415.87	1181.68
416.08	1273.84
416.29	1239.02
416.49	1234.93
416.70	1253.36
416.91	1253.36
417.11	1286.12
417.32	1257.45
417.53	1208.30
417.73	1279.98
417.94	1282.03
418.15	1269.74
418.35	1355.76
418.56	1267.69
418.77	1282.03
418.97	1359.85
419.18	1226.73
419.38	1257.45
419.59	1208.30
419.80	1302.51
420.00	1300.46
420.21	1298.41
420.42	1216.49
420.62	1292.27
420.83	1347.56
421.04	1265.64
421.24	1279.98
421.45	1282.03
421.65	1282.03
421.86	1212.40
422.07	1286.12
422.27	1277.93
422.48	1265.64
422.69	1261.55
422.89	1257.45
423.10	1290.22
423.30	1218.54
423.51	1216.49
423.72	1263.60
423.92	1355.76
424.13	1269.74
424.33	1308.65
424.54	1294.32
424.75	1296.36
424.95	1261.55
425.16	1308.65
425.36	1247.21
425.57	1339.37
425.78	1275.88
425.98	1282.03
426.19	1310.70
426.39	1275.88
426.60	1320.94
426.81	1265.64
427.01	1312.75
427.22	1318.89
427.42	1245.16
427.63	1249.26
427.83	1335.28
428.04	1255.40
428.25	1302.51
428.45	1294.32
428.66	1222.64
428.86	1271.79
429.07	1265.64
429.28	1304.56
429.48	1306.60
429.69	1298.41
429.89	1230.83
430.10	1257.45
430.30	1312.75
430.51	1296.36
430.71	1212.40
430.92	1261.55
431.13	1241.07
431.33	1273.84
431.54	1241.07
431.74	1247.21
431.95	1294.32
432.15	1267.69
432.36	1263.60
432.56	1273.84
432.77	1290.22
432.98	1204.21
433.18	1259.50
433.39	1251.31
433.59	1193.97
433.80	1257.45
434.00	1322.99
434.21	1292.27
434.41	1239.02
434.62	1337.32
434.82	1357.80
435.03	1284.08
435.23	1239.02
435.44	1269.74
435.64	1304.56
435.85	1290.22
436.06	1267.69
436.26	1210.35
436.47	1245.16
436.67	1222.64
436.88	1243.12
437.08	1300.46
437.29	1177.58
437.49	1224.69
437.70	1247.21
437.90	1232.88
438.11	1263.60
438.31	1273.84
438.52	1316.84
438.72	1230.83
438.93	1308.65
439.13	1277.93
439.34	1251.31
439.54	1298.41
439.75	1314.80
439.95	1282.03
440.16	1333.23
440.36	1327.08
440.57	1279.98
440.77	1314.80
440.98	1241.07
441.18	1318.89
441.39	1247.21
441.59	1312.75
441.80	1247.21
442.00	1269.74
442.21	1279.98
442.41	1245.16
442.62	1263.60
442.82	1284.08
443.02	1216.49
443.23	1241.07
443.43	1269.74
443.64	1279.98
443.84	1298.41
444.05	1267.69
444.25	1312.75
444.46	1253.36
444.66	1308.65
444.87	1329.13
445.07	1249.26
445.28	1378.28
445.48	1247.21
445.69	1279.98
445.89	1363.95
446.09	1304.56
446.30	1400.81
446.50	1236.97
446.71	1275.88
446.91	1265.64
447.12	1290.22
447.32	1349.61
447.53	1314.80
447.73	1290.22
447.93	1271.79
448.14	1308.65
448.34	1322.99
448.55	1282.03
448.75	1273.84
448.96	1253.36
449.16	1312.75
449.36	1337.32
449.57	1261.55
449.77	1275.88
449.98	1224.69
450.18	1257.45
450.39	1251.31
450.59	1263.60
450.79	1247.21
451.00	1232.88
451.20	1214.45
451.41	1232.88
451.61	1212.40
451.81	1200.11
452.02	1189.87
452.22	1314.80
452.43	1372.14
452.63	1241.07
