SpectraSuite Data File
++++++++++++++++++++++++++++++++++++
Date: Sun Apr 03 19:55:25 CEST 2016
User: root
Dark Spectrum Present: No
Reference Spectrum Present: No
Number of Sampled Component Spectra: 1
Spectrometers: USB4C02835
Integration Time (usec): 10000 (USB4C02835)
Spectra Averaged: 1 (USB4C02835)
Boxcar Smoothing: 0 (USB4C02835)
Correct for Electrical Dark: No (USB4C02835)
Strobe/Lamp Enabled: No (USB4C02835)
Correct for Detector Non-linearity: No (USB4C02835)
Correct for Stray Light: No (USB4C02835)
Number of Pixels in Processed Spectrum: 3648
>>>>>Begin Processed Spectral Data<<<<<
177.47	1243.12
177.69	1243.12
177.91	1243.12
178.13	1212.40
178.36	1302.51
178.58	1292.27
178.80	1243.12
179.02	1292.27
179.24	1212.40
179.46	1269.74
179.68	1259.50
179.90	1191.92
180.13	1331.18
180.35	1275.88
180.57	1208.30
180.79	1267.69
181.01	1245.16
181.23	1273.84
181.45	1187.82
181.67	1259.50
181.90	1304.56
182.12	1267.69
182.34	1257.45
182.56	1267.69
182.78	1296.36
183.00	1247.21
183.22	1335.28
183.44	1351.66
183.66	1290.22
183.89	1269.74
184.11	1212.40
184.33	1249.26
184.55	1294.32
184.77	1269.74
184.99	1224.69
185.21	1161.20
185.43	1282.03
185.65	1263.60
185.87	1241.07
186.10	1265.64
186.32	1253.36
186.54	1333.23
186.76	1249.26
186.98	1198.06
187.20	1255.40
187.42	1298.41
187.64	1337.32
187.86	1261.55
188.08	1279.98
188.30	1261.55
188.52	1304.56
188.75	1222.64
188.97	1273.84
189.19	1269.74
189.41	1228.78
189.63	1245.16
189.85	1325.04
190.07	1230.83
190.29	1253.36
190.51	1224.69
190.73	1294.32
190.95	1218.54
191.17	1245.16
191.39	1288.17
191.61	1306.60
191.84	1259.50
192.06	1277.93
192.28	1265.64
192.50	1322.99
192.72	1312.75
192.94	1239.02
193.16	1286.12
193.38	1325.04
193.60	1312.75
193.82	1193.97
194.04	1214.45
194.26	1255.40
194.48	1277.93
194.70	1218.54
194.92	1265.64
195.14	1292.27
195.36	1243.12
195.58	1200.11
195.80	1329.13
196.02	1243.12
196.24	1220.59
196.46	1320.94
196.69	1249.26
196.91	1249.26
197.13	1239.02
197.35	1273.84
197.57	1304.56
197.79	1300.46
198.01	1282.03
198.23	1265.64
198.45	1249.26
198.67	1179.63
198.89	1251.31
199.11	1214.45
199.33	1327.08
199.55	1298.41
199.77	1263.60
199.99	1263.60
200.21	1314.80
200.43	1241.07
200.65	1236.97
200.87	1306.60
201.09	1234.93
201.31	1261.55
201.53	1193.97
201.75	1247.21
201.97	1202.16
202.19	1206.25
202.41	1210.35
202.63	1249.26
202.85	1251.31
203.07	1277.93
203.29	1218.54
203.51	1284.08
203.73	1202.16
203.95	1239.02
204.17	1355.76
204.39	1304.56
204.61	1234.93
204.83	1279.98
205.05	1284.08
205.27	1275.88
205.49	1308.65
205.71	1275.88
205.93	1275.88
206.15	1327.08
206.37	1212.40
206.59	1304.56
206.81	1245.16
207.03	1271.79
207.25	1249.26
207.47	1345.52
207.69	1269.74
207.91	1292.27
208.13	1333.23
208.34	1273.84
208.56	1286.12
208.78	1298.41
209.00	1273.84
209.22	1249.26
209.44	1261.55
209.66	1279.98
209.88	1226.73
210.10	1273.84
210.32	1273.84
210.54	1282.03
210.76	1257.45
210.98	1310.70
211.20	1230.83
211.42	1226.73
211.64	1284.08
211.86	1224.69
212.08	1263.60
212.30	1298.41
212.52	1253.36
212.74	1134.57
212.96	1224.69
213.17	1259.50
213.39	1292.27
213.61	1296.36
213.83	1273.84
214.05	1216.49
214.27	1318.89
214.49	1296.36
214.71	1267.69
214.93	1320.94
215.15	1277.93
215.37	1325.04
215.59	1214.45
215.81	1279.98
216.03	1273.84
216.24	1263.60
216.46	1271.79
216.68	1298.41
216.90	1243.12
217.12	1220.59
217.34	1275.88
217.56	1322.99
217.78	1306.60
218.00	1228.78
218.22	1261.55
218.44	1259.50
218.66	1216.49
218.87	1263.60
219.09	1177.58
219.31	1298.41
219.53	1327.08
219.75	1208.30
219.97	1241.07
220.19	1318.89
220.41	1349.61
220.63	1224.69
220.85	1267.69
221.06	1241.07
221.28	1294.32
221.50	1314.80
221.72	1249.26
221.94	1273.84
222.16	1265.64
222.38	1208.30
222.60	1249.26
222.82	1279.98
223.03	1329.13
223.25	1271.79
223.47	1275.88
223.69	1308.65
223.91	1257.45
224.13	1257.45
224.35	1359.85
224.57	1224.69
224.78	1224.69
225.00	1263.60
225.22	1226.73
225.44	1263.60
225.66	1265.64
225.88	1206.25
226.10	1271.79
226.32	1279.98
226.53	1265.64
226.75	1290.22
226.97	1232.88
227.19	1284.08
227.41	1302.51
227.63	1200.11
227.85	1247.21
228.06	1296.36
228.28	1286.12
228.50	1196.01
228.72	1351.66
228.94	1314.80
229.16	1263.60
229.37	1247.21
229.59	1269.74
229.81	1275.88
230.03	1277.93
230.25	1279.98
230.47	1298.41
230.69	1212.40
230.90	1279.98
231.12	1220.59
231.34	1239.02
231.56	1290.22
231.78	1265.64
232.00	1253.36
232.21	1277.93
232.43	1273.84
232.65	1251.31
232.87	1294.32
233.09	1322.99
233.30	1247.21
233.52	1271.79
233.74	1236.97
233.96	1294.32
234.18	1292.27
234.40	1277.93
234.61	1212.40
234.83	1193.97
235.05	1267.69
235.27	1277.93
235.49	1277.93
235.70	1265.64
235.92	1232.88
236.14	1335.28
236.36	1275.88
236.58	1214.45
236.79	1298.41
237.01	1282.03
237.23	1261.55
237.45	1290.22
237.67	1236.97
237.88	1343.47
238.10	1255.40
238.32	1232.88
238.54	1198.06
238.76	1310.70
238.97	1298.41
239.19	1261.55
239.41	1222.64
239.63	1255.40
239.85	1302.51
240.06	1253.36
240.28	1302.51
240.50	1261.55
240.72	1247.21
240.93	1226.73
241.15	1304.56
241.37	1261.55
241.59	1314.80
241.81	1228.78
242.02	1243.12
242.24	1236.97
242.46	1216.49
242.68	1218.54
242.89	1271.79
243.11	1243.12
243.33	1288.17
243.55	1279.98
243.76	1267.69
243.98	1271.79
244.20	1314.80
244.42	1220.59
244.64	1298.41
244.85	1277.93
245.07	1253.36
245.29	1224.69
245.51	1288.17
245.72	1243.12
245.94	1214.45
246.16	1253.36
246.38	1247.21
246.59	1265.64
246.81	1318.89
247.03	1300.46
247.24	1277.93
247.46	1286.12
247.68	1322.99
247.90	1263.60
248.11	1249.26
248.33	1275.88
248.55	1234.93
248.77	1247.21
248.98	1224.69
249.20	1282.03
249.42	1255.40
249.64	1279.98
249.85	1308.65
250.07	1314.80
250.29	1241.07
250.50	1304.56
250.72	1316.84
250.94	1300.46
251.16	1263.60
251.37	1161.20
251.59	1288.17
251.81	1224.69
252.02	1308.65
252.24	1220.59
252.46	1316.84
252.68	1202.16
252.89	1263.60
253.11	1300.46
253.33	1368.04
253.54	1247.21
253.76	1300.46
253.98	1294.32
254.20	1277.93
254.41	1228.78
254.63	1239.02
254.85	1292.27
255.06	1273.84
255.28	1290.22
255.50	1279.98
255.71	1296.36
255.93	1251.31
256.15	1239.02
256.36	1183.73
256.58	1222.64
256.80	1335.28
257.02	1206.25
257.23	1327.08
257.45	1261.55
257.67	1298.41
257.88	1273.84
258.10	1331.18
258.32	1269.74
258.53	1222.64
258.75	1290.22
258.97	1241.07
259.18	1341.42
259.40	1282.03
259.62	1282.03
259.83	1273.84
260.05	1288.17
260.27	1271.79
260.48	1304.56
260.70	1290.22
260.92	1273.84
261.13	1304.56
261.35	1216.49
261.57	1320.94
261.78	1224.69
262.00	1312.75
262.22	1282.03
262.43	1198.06
262.65	1249.26
262.86	1230.83
263.08	1263.60
263.30	1251.31
263.51	1282.03
263.73	1198.06
263.95	1294.32
264.16	1239.02
264.38	1216.49
264.60	1265.64
264.81	1265.64
265.03	1347.56
265.25	1224.69
265.46	1259.50
265.68	1247.21
265.89	1298.41
266.11	1331.18
266.33	1300.46
266.54	1257.45
266.76	1263.60
266.98	1277.93
267.19	1271.79
267.41	1175.53
267.62	1253.36
267.84	1191.92
268.06	1345.52
268.27	1263.60
268.49	1318.89
268.70	1288.17
268.92	1210.35
269.14	1312.75
269.35	1298.41
269.57	1220.59
269.79	1200.11
270.00	1247.21
270.22	1220.59
270.43	1312.75
270.65	1312.75
270.87	1257.45
271.08	1314.80
271.30	1243.12
271.51	1241.07
271.73	1200.11
271.95	1236.97
272.16	1345.52
272.38	1310.70
272.59	1294.32
272.81	1300.46
273.02	1275.88
273.24	1353.71
273.46	1224.69
273.67	1347.56
273.89	1196.01
274.10	1187.82
274.32	1298.41
274.54	1265.64
274.75	1251.31
274.97	1224.69
275.18	1286.12
275.40	1234.93
275.61	1288.17
275.83	1318.89
276.05	1232.88
276.26	1204.21
276.48	1312.75
276.69	1269.74
276.91	1241.07
277.12	1312.75
277.34	1286.12
277.55	1282.03
277.77	1224.69
277.99	1263.60
278.20	1212.40
278.42	1304.56
278.63	1239.02
278.85	1277.93
279.06	1198.06
279.28	1279.98
279.49	1232.88
279.71	1300.46
279.93	1320.94
280.14	1224.69
280.36	1202.16
280.57	1259.50
280.79	1277.93
281.00	1251.31
281.22	1296.36
281.43	1259.50
281.65	1253.36
281.86	1241.07
282.08	1208.30
282.29	1320.94
282.51	1253.36
282.73	1290.22
282.94	1196.01
283.16	1288.17
283.37	1271.79
283.59	1279.98
283.80	1261.55
284.02	1298.41
284.23	1288.17
284.45	1271.79
284.66	1243.12
284.88	1243.12
285.09	1259.50
285.31	1261.55
285.52	1230.83
285.74	1273.84
285.95	1220.59
286.17	1196.01
286.38	1216.49
286.60	1288.17
286.81	1214.45
287.03	1271.79
287.24	1298.41
287.46	1284.08
287.67	1298.41
287.89	1275.88
288.10	1282.03
288.32	1288.17
288.53	1292.27
288.75	1247.21
288.96	1384.43
289.18	1292.27
289.39	1257.45
289.61	1257.45
289.82	1269.74
290.04	1292.27
290.25	1259.50
290.47	1259.50
290.68	1269.74
290.90	1288.17
291.11	1245.16
291.33	1241.07
291.54	1228.78
291.76	1312.75
291.97	1277.93
292.18	1247.21
292.40	1253.36
292.61	1273.84
292.83	1269.74
293.04	1273.84
293.26	1288.17
293.47	1306.60
293.69	1228.78
293.90	1230.83
294.12	1259.50
294.33	1236.97
294.55	1259.50
294.76	1234.93
294.97	1173.49
295.19	1312.75
295.40	1310.70
295.62	1290.22
295.83	1232.88
296.05	1316.84
296.26	1212.40
296.48	1263.60
296.69	1259.50
296.90	1300.46
297.12	1241.07
297.33	1275.88
297.55	1320.94
297.76	1247.21
297.98	1230.83
298.19	1255.40
298.41	1259.50
298.62	1265.64
298.83	1298.41
299.05	1322.99
299.26	1230.83
299.48	1329.13
299.69	1304.56
299.90	1253.36
300.12	1222.64
300.33	1284.08
300.55	1255.40
300.76	1220.59
300.98	1257.45
301.19	1306.60
301.40	1245.16
301.62	1284.08
301.83	1216.49
302.05	1247.21
302.26	1304.56
302.47	1290.22
302.69	1308.65
302.90	1257.45
303.12	1325.04
303.33	1247.21
303.54	1241.07
303.76	1236.97
303.97	1267.69
304.19	1316.84
304.40	1247.21
304.61	1255.40
304.83	1271.79
305.04	1296.36
305.26	1269.74
305.47	1316.84
305.68	1306.60
305.90	1286.12
306.11	1290.22
306.33	1271.79
306.54	1310.70
306.75	1302.51
306.97	1255.40
307.18	1304.56
307.39	1259.50
307.61	1245.16
307.82	1327.08
308.04	1327.08
308.25	1251.31
308.46	1232.88
308.68	1320.94
308.89	1282.03
309.10	1257.45
309.32	1263.60
309.53	1212.40
309.74	1253.36
309.96	1216.49
310.17	1263.60
310.39	1308.65
310.60	1273.84
310.81	1255.40
311.03	1271.79
311.24	1347.56
311.45	1275.88
311.67	1273.84
311.88	1241.07
312.09	1234.93
312.31	1263.60
312.52	1290.22
312.73	1243.12
312.95	1300.46
313.16	1318.89
313.37	1310.70
313.59	1314.80
313.80	1230.83
314.01	1341.42
314.23	1251.31
314.44	1230.83
314.65	1290.22
314.87	1210.35
315.08	1247.21
315.29	1249.26
315.51	1241.07
315.72	1267.69
315.93	1239.02
316.15	1241.07
316.36	1255.40
316.57	1259.50
316.79	1249.26
317.00	1236.97
317.21	1308.65
317.43	1275.88
317.64	1210.35
317.85	1253.36
318.07	1171.44
318.28	1267.69
318.49	1304.56
318.70	1294.32
318.92	1275.88
319.13	1302.51
319.34	1294.32
319.56	1251.31
319.77	1298.41
319.98	1314.80
320.20	1288.17
320.41	1261.55
320.62	1263.60
320.83	1284.08
321.05	1259.50
321.26	1249.26
321.47	1232.88
321.69	1279.98
321.90	1241.07
322.11	1226.73
322.32	1216.49
322.54	1271.79
322.75	1275.88
322.96	1216.49
323.18	1232.88
323.39	1241.07
323.60	1226.73
323.81	1261.55
324.03	1302.51
324.24	1208.30
324.45	1230.83
324.66	1196.01
324.88	1257.45
325.09	1325.04
325.30	1306.60
325.52	1304.56
325.73	1257.45
325.94	1294.32
326.15	1286.12
326.37	1173.49
326.58	1277.93
326.79	1282.03
327.00	1261.55
327.22	1204.21
327.43	1236.97
327.64	1269.74
327.85	1302.51
328.07	1288.17
328.28	1230.83
328.49	1232.88
328.70	1265.64
328.92	1204.21
329.13	1220.59
329.34	1329.13
329.55	1265.64
329.76	1325.04
329.98	1269.74
330.19	1253.36
330.40	1249.26
330.61	1343.47
330.83	1275.88
331.04	1245.16
331.25	1259.50
331.46	1263.60
331.68	1290.22
331.89	1220.59
332.10	1294.32
332.31	1288.17
332.52	1234.93
332.74	1282.03
332.95	1257.45
333.16	1304.56
333.37	1284.08
333.58	1269.74
333.80	1279.98
334.01	1312.75
334.22	1191.92
334.43	1185.77
334.64	1251.31
334.86	1234.93
335.07	1298.41
335.28	1320.94
335.49	1325.04
335.70	1243.12
335.92	1316.84
336.13	1247.21
336.34	1243.12
336.55	1284.08
336.76	1189.87
336.98	1277.93
337.19	1294.32
337.40	1320.94
337.61	1304.56
337.82	1226.73
338.04	1279.98
338.25	1247.21
338.46	1239.02
338.67	1288.17
338.88	1273.84
339.09	1298.41
339.31	1257.45
339.52	1255.40
339.73	1302.51
339.94	1216.49
340.15	1261.55
340.36	1331.18
340.58	1232.88
340.79	1206.25
341.00	1261.55
341.21	1259.50
341.42	1302.51
341.63	1230.83
341.85	1271.79
342.06	1220.59
342.27	1232.88
342.48	1284.08
342.69	1196.01
342.90	1234.93
343.12	1200.11
343.33	1234.93
343.54	1245.16
343.75	1232.88
343.96	1198.06
344.17	1290.22
344.38	1181.68
344.60	1253.36
344.81	1273.84
345.02	1312.75
345.23	1314.80
345.44	1294.32
345.65	1239.02
345.86	1322.99
346.07	1306.60
346.29	1226.73
346.50	1259.50
346.71	1296.36
346.92	1292.27
347.13	1232.88
347.34	1259.50
347.55	1212.40
347.76	1277.93
347.98	1347.56
348.19	1273.84
348.40	1359.85
348.61	1308.65
348.82	1298.41
349.03	1275.88
349.24	1286.12
349.45	1376.24
349.66	1327.08
349.88	1282.03
350.09	1198.06
350.30	1286.12
350.51	1329.13
350.72	1257.45
350.93	1243.12
351.14	1386.47
351.35	1255.40
351.56	1253.36
351.77	1279.98
351.99	1310.70
352.20	1253.36
352.41	1243.12
352.62	1249.26
352.83	1290.22
353.04	1310.70
353.25	1308.65
353.46	1345.52
353.67	1265.64
353.88	1265.64
354.09	1214.45
354.30	1298.41
354.52	1210.35
354.73	1282.03
354.94	1300.46
355.15	1232.88
355.36	1255.40
355.57	1282.03
355.78	1253.36
355.99	1271.79
356.20	1277.93
356.41	1255.40
356.62	1314.80
356.83	1277.93
357.04	1245.16
357.25	1355.76
357.46	1279.98
357.68	1318.89
357.89	1222.64
358.10	1284.08
358.31	1261.55
358.52	1232.88
358.73	1261.55
358.94	1312.75
359.15	1228.78
359.36	1302.51
359.57	1312.75
359.78	1273.84
359.99	1347.56
360.20	1277.93
360.41	1265.64
360.62	1239.02
360.83	1286.12
361.04	1310.70
361.25	1171.44
361.46	1255.40
361.67	1241.07
361.88	1327.08
362.09	1290.22
362.30	1310.70
362.51	1236.97
362.72	1204.21
362.93	1267.69
363.14	1226.73
363.35	1179.63
363.56	1212.40
363.78	1243.12
363.99	1249.26
364.20	1228.78
364.41	1243.12
364.62	1282.03
364.83	1298.41
365.04	1261.55
365.25	1267.69
365.46	1314.80
365.67	1257.45
365.88	1232.88
366.09	1347.56
366.30	1241.07
366.51	1298.41
366.72	1312.75
366.93	1296.36
367.14	1277.93
367.35	1239.02
367.56	1181.68
367.77	1273.84
367.98	1267.69
368.18	1265.64
368.39	1316.84
368.60	1306.60
368.81	1277.93
369.02	1318.89
369.23	1265.64
369.44	1208.30
369.65	1245.16
369.86	1253.36
370.07	1290.22
370.28	1298.41
370.49	1279.98
370.70	1345.52
370.91	1253.36
371.12	1224.69
371.33	1198.06
371.54	1218.54
371.75	1247.21
371.96	1239.02
372.17	1325.04
372.38	1228.78
372.59	1228.78
372.80	1234.93
373.01	1220.59
373.22	1290.22
373.43	1196.01
373.64	1292.27
373.85	1269.74
374.06	1337.32
374.26	1228.78
374.47	1312.75
374.68	1257.45
374.89	1292.27
375.10	1245.16
375.31	1239.02
375.52	1279.98
375.73	1251.31
375.94	1249.26
376.15	1306.60
376.36	1224.69
376.57	1329.13
376.78	1249.26
376.99	1218.54
377.20	1214.45
377.40	1247.21
377.61	1337.32
377.82	1216.49
378.03	1282.03
378.24	1288.17
378.45	1333.23
378.66	1288.17
378.87	1271.79
379.08	1249.26
379.29	1284.08
379.50	1220.59
379.71	1331.18
379.91	1300.46
380.12	1275.88
380.33	1296.36
380.54	1183.73
380.75	1277.93
380.96	1271.79
381.17	1216.49
381.38	1245.16
381.59	1294.32
381.80	1249.26
382.00	1290.22
382.21	1314.80
382.42	1261.55
382.63	1236.97
382.84	1284.08
383.05	1236.97
383.26	1345.52
383.47	1198.06
383.68	1216.49
383.88	1306.60
384.09	1187.82
384.30	1245.16
384.51	1230.83
384.72	1290.22
384.93	1279.98
385.14	1222.64
385.35	1243.12
385.55	1253.36
385.76	1263.60
385.97	1226.73
386.18	1132.53
386.39	1282.03
386.60	1279.98
386.81	1312.75
387.02	1275.88
387.22	1269.74
387.43	1253.36
387.64	1366.00
387.85	1257.45
388.06	1273.84
388.27	1267.69
388.48	1232.88
388.68	1245.16
388.89	1263.60
389.10	1259.50
389.31	1253.36
389.52	1265.64
389.73	1234.93
389.93	1208.30
390.14	1259.50
390.35	1271.79
390.56	1302.51
390.77	1349.61
390.98	1316.84
391.18	1279.98
391.39	1185.77
391.60	1263.60
391.81	1282.03
392.02	1308.65
392.23	1306.60
392.43	1241.07
392.64	1253.36
392.85	1249.26
393.06	1279.98
393.27	1327.08
393.47	1261.55
393.68	1222.64
393.89	1257.45
394.10	1271.79
394.31	1304.56
394.52	1265.64
394.72	1316.84
394.93	1279.98
395.14	1263.60
395.35	1306.60
395.56	1337.32
395.76	1226.73
395.97	1282.03
396.18	1273.84
396.39	1314.80
396.60	1253.36
396.80	1265.64
397.01	1181.68
397.22	1282.03
397.43	1230.83
397.64	1265.64
397.84	1331.18
398.05	1267.69
398.26	1208.30
398.47	1253.36
398.67	1236.97
398.88	1275.88
399.09	1277.93
399.30	1298.41
399.51	1263.60
399.71	1290.22
399.92	1255.40
400.13	1279.98
400.34	1337.32
400.54	1239.02
400.75	1341.42
400.96	1208.30
401.17	1306.60
401.37	1247.21
401.58	1204.21
401.79	1265.64
402.00	1251.31
402.21	1236.97
402.41	1292.27
402.62	1198.06
402.83	1286.12
403.04	1255.40
403.24	1335.28
403.45	1171.44
403.66	1318.89
403.87	1329.13
404.07	1282.03
404.28	1243.12
404.49	1255.40
404.70	1261.55
404.90	1263.60
405.11	1247.21
405.32	1265.64
405.52	1347.56
405.73	1359.85
405.94	1298.41
406.15	1339.37
406.35	1273.84
406.56	1222.64
406.77	1296.36
406.98	1284.08
407.18	1310.70
407.39	1312.75
407.60	1257.45
407.80	1218.54
408.01	1320.94
408.22	1271.79
408.43	1279.98
408.63	1251.31
408.84	1263.60
409.05	1273.84
409.25	1288.17
409.46	1277.93
409.67	1275.88
409.88	1263.60
410.08	1277.93
410.29	1275.88
410.50	1243.12
410.70	1251.31
410.91	1251.31
411.12	1257.45
411.32	1257.45
411.53	1290.22
411.74	1220.59
411.95	1263.60
412.15	1292.27
412.36	1189.87
412.57	1234.93
412.77	1316.84
412.98	1284.08
413.19	1300.46
413.39	1210.35
413.60	1275.88
413.81	1331.18
414.01	1239.02
414.22	1269.74
414.43	1241.07
414.63	1245.16
414.84	1312.75
415.05	1263.60
415.25	1257.45
415.46	1189.87
415.67	1263.60
415.87	1220.59
416.08	1296.36
416.29	1214.45
416.49	1265.64
416.70	1322.99
416.91	1247.21
417.11	1349.61
417.32	1296.36
417.53	1245.16
417.73	1282.03
417.94	1298.41
418.15	1208.30
418.35	1200.11
418.56	1282.03
418.77	1232.88
418.97	1198.06
419.18	1208.30
419.38	1304.56
419.59	1282.03
419.80	1200.11
420.00	1236.97
420.21	1277.93
420.42	1239.02
420.62	1241.07
420.83	1224.69
421.04	1329.13
421.24	1318.89
421.45	1218.54
421.65	1241.07
421.86	1329.13
422.07	1257.45
422.27	1241.07
422.48	1275.88
422.69	1224.69
422.89	1294.32
423.10	1267.69
423.30	1282.03
423.51	1292.27
423.72	1216.49
423.92	1243.12
424.13	1249.26
424.33	1322.99
424.54	1261.55
424.75	1261.55
424.95	1275.88
425.16	1265.64
425.36	1196.01
425.57	1288.17
425.78	1255.40
425.98	1288.17
426.19	1206.25
426.39	1310.70
426.60	1273.84
426.81	1265.64
427.01	1290.22
427.22	1275.88
427.42	1255.40
427.63	1259.50
427.83	1198.06
428.04	1335.28
428.25	1302.51
428.45	1232.88
428.66	1277.93
428.86	1249.26
429.07	1257.45
429.28	1347.56
429.48	1239.02
429.69	1300.46
429.89	1216.49
430.10	1253.36
430.30	1314.80
430.51	1241.07
430.71	1249.26
430.92	1226.73
431.13	1300.46
431.33	1279.98
431.54	1251.31
431.74	1271.79
431.95	1241.07
432.15	1267.69
432.36	1314.80
432.56	1261.55
432.77	1234.93
432.98	1263.60
433.18	1150.96
433.39	1193.97
433.59	1294.32
433.80	1269.74
434.00	1249.26
434.21	1351.66
434.41	1189.87
434.62	1259.50
434.82	1239.02
435.03	1308.65
435.23	1361.90
435.44	1294.32
435.64	1187.82
435.85	1359.85
436.06	1306.60
436.26	1316.84
436.47	1267.69
436.67	1271.79
436.88	1269.74
437.08	1318.89
437.29	1230.83
437.49	1284.08
437.70	1271.79
437.90	1259.50
438.11	1310.70
438.31	1306.60
438.52	1251.31
438.72	1310.70
438.93	1253.36
439.13	1251.31
439.34	1247.21
439.54	1218.54
439.75	1218.54
439.95	1308.65
440.16	1312.75
440.36	1245.16
440.57	1302.51
440.77	1214.45
440.98	1271.79
441.18	1296.36
441.39	1286.12
441.59	1216.49
441.80	1288.17
442.00	1265.64
442.21	1282.03
442.41	1253.36
442.62	1263.60
442.82	1304.56
443.02	1320.94
443.23	1253.36
443.43	1224.69
443.64	1251.31
443.84	1222.64
444.05	1271.79
444.25	1241.07
444.46	1288.17
444.66	1298.41
444.87	1265.64
445.07	1267.69
445.28	1296.36
445.48	1261.55
445.69	1306.60
445.89	1296.36
446.09	1273.84
446.30	1282.03
446.50	1265.64
446.71	1290.22
446.91	1255.40
447.12	1325.04
447.32	1200.11
447.53	1224.69
447.73	1247.21
447.93	1308.65
448.14	1214.45
448.34	1241.07
448.55	1191.92
448.75	1236.97
448.96	1228.78
449.16	1239.02
449.36	1282.03
449.57	1202.16
449.77	1247.21
449.98	1277.93
450.18	1275.88
450.39	1236.97
450.59	1386.47
450.79	1232.88
451.00	1265.64
451.20	1273.84
451.41	1282.03
451.61	1249.26
451.81	1325.04
452.02	1269.74
452.22	1249.26
452.43	1298.41
452.63	1208.30
