SpectraSuite Data File
++++++++++++++++++++++++++++++++++++
Date: Sun Apr 03 19:55:50 CEST 2016
User: root
Dark Spectrum Present: No
Reference Spectrum Present: No
Number of Sampled Component Spectra: 1
Spectrometers: USB4C02835
Integration Time (usec): 10000 (USB4C02835)
Spectra Averaged: 1 (USB4C02835)
Boxcar Smoothing: 0 (USB4C02835)
Correct for Electrical Dark: No (USB4C02835)
Strobe/Lamp Enabled: No (USB4C02835)
Correct for Detector Non-linearity: No (USB4C02835)
Correct for Stray Light: No (USB4C02835)
Number of Pixels in Processed Spectrum: 3648
>>>>>Begin Processed Spectral Data<<<<<
177.47	1290.22
177.69	1290.22
177.91	1290.22
178.13	1241.07
178.36	1196.01
178.58	1288.17
178.80	1232.88
179.02	1284.08
179.24	1353.71
179.46	1271.79
179.68	1286.12
179.90	1296.36
180.13	1206.25
180.35	1333.23
180.57	1200.11
180.79	1279.98
181.01	1304.56
181.23	1191.92
181.45	1196.01
181.67	1249.26
181.90	1247.21
182.12	1275.88
182.34	1292.27
182.56	1232.88
182.78	1224.69
183.00	1271.79
183.22	1263.60
183.44	1304.56
183.66	1249.26
183.89	1261.55
184.11	1208.30
184.33	1177.58
184.55	1249.26
184.77	1288.17
184.99	1331.18
185.21	1185.77
185.43	1257.45
185.65	1335.28
185.87	1310.70
186.10	1263.60
186.32	1290.22
186.54	1251.31
186.76	1226.73
186.98	1353.71
187.20	1247.21
187.42	1245.16
187.64	1308.65
187.86	1267.69
188.08	1273.84
188.30	1236.97
188.52	1226.73
188.75	1318.89
188.97	1196.01
189.19	1292.27
189.41	1288.17
189.63	1269.74
189.85	1290.22
190.07	1288.17
190.29	1308.65
190.51	1251.31
190.73	1296.36
190.95	1236.97
191.17	1300.46
191.39	1196.01
191.61	1239.02
191.84	1263.60
192.06	1284.08
192.28	1279.98
192.50	1425.39
192.72	1224.69
192.94	1243.12
193.16	1214.45
193.38	1263.60
193.60	1212.40
193.82	1261.55
194.04	1234.93
194.26	1226.73
194.48	1218.54
194.70	1234.93
194.92	1316.84
195.14	1232.88
195.36	1200.11
195.58	1292.27
195.80	1316.84
196.02	1269.74
196.24	1222.64
196.46	1241.07
196.69	1228.78
196.91	1243.12
197.13	1243.12
197.35	1253.36
197.57	1269.74
197.79	1257.45
198.01	1249.26
198.23	1322.99
198.45	1329.13
198.67	1273.84
198.89	1239.02
199.11	1327.08
199.33	1277.93
199.55	1263.60
199.77	1263.60
199.99	1296.36
200.21	1210.35
200.43	1239.02
200.65	1220.59
200.87	1349.61
201.09	1282.03
201.31	1329.13
201.53	1298.41
201.75	1261.55
201.97	1275.88
202.19	1257.45
202.41	1247.21
202.63	1253.36
202.85	1273.84
203.07	1353.71
203.29	1298.41
203.51	1230.83
203.73	1269.74
203.95	1267.69
204.17	1279.98
204.39	1329.13
204.61	1249.26
204.83	1271.79
205.05	1277.93
205.27	1271.79
205.49	1327.08
205.71	1298.41
205.93	1253.36
206.15	1277.93
206.37	1290.22
206.59	1259.50
206.81	1351.66
207.03	1275.88
207.25	1163.25
207.47	1347.56
207.69	1214.45
207.91	1298.41
208.13	1288.17
208.34	1288.17
208.56	1249.26
208.78	1312.75
209.00	1290.22
209.22	1286.12
209.44	1257.45
209.66	1257.45
209.88	1200.11
210.10	1200.11
210.32	1234.93
210.54	1245.16
210.76	1220.59
210.98	1290.22
211.20	1269.74
211.42	1255.40
211.64	1224.69
211.86	1306.60
212.08	1261.55
212.30	1169.39
212.52	1292.27
212.74	1355.76
212.96	1220.59
213.17	1296.36
213.39	1298.41
213.61	1302.51
213.83	1304.56
214.05	1288.17
214.27	1335.28
214.49	1253.36
214.71	1304.56
214.93	1292.27
215.15	1257.45
215.37	1304.56
215.59	1249.26
215.81	1206.25
216.03	1267.69
216.24	1282.03
216.46	1216.49
216.68	1279.98
216.90	1384.43
217.12	1271.79
217.34	1255.40
217.56	1273.84
217.78	1212.40
218.00	1224.69
218.22	1236.97
218.44	1187.82
218.66	1269.74
218.87	1263.60
219.09	1261.55
219.31	1308.65
219.53	1241.07
219.75	1218.54
219.97	1302.51
220.19	1273.84
220.41	1224.69
220.63	1288.17
220.85	1263.60
221.06	1157.10
221.28	1206.25
221.50	1263.60
221.72	1247.21
221.94	1290.22
222.16	1263.60
222.38	1284.08
222.60	1265.64
222.82	1296.36
223.03	1239.02
223.25	1269.74
223.47	1298.41
223.69	1249.26
223.91	1296.36
224.13	1277.93
224.35	1261.55
224.57	1306.60
224.78	1282.03
225.00	1288.17
225.22	1345.52
225.44	1263.60
225.66	1273.84
225.88	1288.17
226.10	1286.12
226.32	1327.08
226.53	1228.78
226.75	1302.51
226.97	1298.41
227.19	1279.98
227.41	1331.18
227.63	1392.62
227.85	1230.83
228.06	1294.32
228.28	1251.31
228.50	1239.02
228.72	1241.07
228.94	1265.64
229.16	1263.60
229.37	1263.60
229.59	1259.50
229.81	1257.45
230.03	1275.88
230.25	1259.50
230.47	1230.83
230.69	1189.87
230.90	1243.12
231.12	1249.26
231.34	1294.32
231.56	1318.89
231.78	1243.12
232.00	1259.50
232.21	1269.74
232.43	1337.32
232.65	1257.45
232.87	1284.08
233.09	1239.02
233.30	1269.74
233.52	1275.88
233.74	1259.50
233.96	1306.60
234.18	1222.64
234.40	1208.30
234.61	1210.35
234.83	1316.84
235.05	1257.45
235.27	1236.97
235.49	1277.93
235.70	1251.31
235.92	1294.32
236.14	1296.36
236.36	1284.08
236.58	1185.77
236.79	1290.22
237.01	1286.12
237.23	1316.84
237.45	1257.45
237.67	1302.51
237.88	1310.70
238.10	1282.03
238.32	1167.34
238.54	1263.60
238.76	1265.64
238.97	1247.21
239.19	1288.17
239.41	1282.03
239.63	1288.17
239.85	1370.09
240.06	1282.03
240.28	1286.12
240.50	1210.35
240.72	1308.65
240.93	1290.22
241.15	1296.36
241.37	1257.45
241.59	1322.99
241.81	1314.80
242.02	1257.45
242.24	1271.79
242.46	1304.56
242.68	1261.55
242.89	1304.56
243.11	1298.41
243.33	1288.17
243.55	1247.21
243.76	1265.64
243.98	1263.60
244.20	1232.88
244.42	1306.60
244.64	1327.08
244.85	1263.60
245.07	1300.46
245.29	1265.64
245.51	1300.46
245.72	1300.46
245.94	1228.78
246.16	1286.12
246.38	1273.84
246.59	1228.78
246.81	1198.06
247.03	1220.59
247.24	1247.21
247.46	1236.97
247.68	1331.18
247.90	1310.70
248.11	1282.03
248.33	1267.69
248.55	1282.03
248.77	1208.30
248.98	1255.40
249.20	1341.42
249.42	1314.80
249.64	1249.26
249.85	1247.21
250.07	1261.55
250.29	1206.25
250.50	1286.12
250.72	1273.84
250.94	1304.56
251.16	1265.64
251.37	1308.65
251.59	1255.40
251.81	1212.40
252.02	1226.73
252.24	1253.36
252.46	1318.89
252.68	1198.06
252.89	1306.60
253.11	1253.36
253.33	1308.65
253.54	1308.65
253.76	1255.40
253.98	1269.74
254.20	1226.73
254.41	1275.88
254.63	1224.69
254.85	1273.84
255.06	1230.83
255.28	1259.50
255.50	1275.88
255.71	1191.92
255.93	1245.16
256.15	1312.75
256.36	1247.21
256.58	1273.84
256.80	1312.75
257.02	1239.02
257.23	1257.45
257.45	1314.80
257.67	1296.36
257.88	1263.60
258.10	1304.56
258.32	1290.22
258.53	1271.79
258.75	1269.74
258.97	1243.12
259.18	1269.74
259.40	1241.07
259.62	1279.98
259.83	1200.11
260.05	1163.25
260.27	1251.31
260.48	1253.36
260.70	1243.12
260.92	1202.16
261.13	1273.84
261.35	1239.02
261.57	1331.18
261.78	1298.41
262.00	1286.12
262.22	1292.27
262.43	1253.36
262.65	1322.99
262.86	1232.88
263.08	1259.50
263.30	1232.88
263.51	1265.64
263.73	1286.12
263.95	1236.97
264.16	1306.60
264.38	1216.49
264.60	1290.22
264.81	1269.74
265.03	1290.22
265.25	1267.69
265.46	1273.84
265.68	1247.21
265.89	1331.18
266.11	1234.93
266.33	1282.03
266.54	1234.93
266.76	1181.68
266.98	1181.68
267.19	1257.45
267.41	1277.93
267.62	1288.17
267.84	1253.36
268.06	1247.21
268.27	1273.84
268.49	1320.94
268.70	1253.36
268.92	1249.26
269.14	1259.50
269.35	1222.64
269.57	1220.59
269.79	1329.13
270.00	1267.69
270.22	1288.17
270.43	1296.36
270.65	1290.22
270.87	1286.12
271.08	1255.40
271.30	1251.31
271.51	1322.99
271.73	1253.36
271.95	1339.37
272.16	1275.88
272.38	1247.21
272.59	1294.32
272.81	1267.69
273.02	1263.60
273.24	1271.79
273.46	1224.69
273.67	1284.08
273.89	1269.74
274.10	1234.93
274.32	1255.40
274.54	1296.36
274.75	1273.84
274.97	1329.13
275.18	1308.65
275.40	1363.95
275.61	1347.56
275.83	1239.02
276.05	1253.36
276.26	1230.83
276.48	1216.49
276.69	1224.69
276.91	1271.79
277.12	1300.46
277.34	1265.64
277.55	1343.47
277.77	1318.89
277.99	1251.31
278.20	1269.74
278.42	1390.57
278.63	1286.12
278.85	1234.93
279.06	1265.64
279.28	1363.95
279.49	1267.69
279.71	1290.22
279.93	1234.93
280.14	1245.16
280.36	1200.11
280.57	1294.32
280.79	1331.18
281.00	1241.07
281.22	1261.55
281.43	1337.32
281.65	1204.21
281.86	1236.97
282.08	1320.94
282.29	1288.17
282.51	1339.37
282.73	1257.45
282.94	1271.79
283.16	1214.45
283.37	1361.90
283.59	1294.32
283.80	1290.22
284.02	1277.93
284.23	1253.36
284.45	1271.79
284.66	1218.54
284.88	1259.50
285.09	1206.25
285.31	1255.40
285.52	1239.02
285.74	1339.37
285.95	1247.21
286.17	1232.88
286.38	1261.55
286.60	1331.18
286.81	1253.36
287.03	1273.84
287.24	1286.12
287.46	1255.40
287.67	1277.93
287.89	1247.21
288.10	1257.45
288.32	1329.13
288.53	1228.78
288.75	1300.46
288.96	1296.36
289.18	1191.92
289.39	1249.26
289.61	1216.49
289.82	1224.69
290.04	1296.36
290.25	1253.36
290.47	1249.26
290.68	1200.11
290.90	1325.04
291.11	1308.65
291.33	1267.69
291.54	1286.12
291.76	1255.40
291.97	1257.45
292.18	1288.17
292.40	1214.45
292.61	1267.69
292.83	1251.31
293.04	1331.18
293.26	1312.75
293.47	1302.51
293.69	1212.40
293.90	1269.74
294.12	1292.27
294.33	1329.13
294.55	1239.02
294.76	1257.45
294.97	1236.97
295.19	1255.40
295.40	1308.65
295.62	1210.35
295.83	1314.80
296.05	1286.12
296.26	1273.84
296.48	1273.84
296.69	1218.54
296.90	1277.93
297.12	1320.94
297.33	1292.27
297.55	1304.56
297.76	1282.03
297.98	1314.80
298.19	1259.50
298.41	1275.88
298.62	1247.21
298.83	1263.60
299.05	1253.36
299.26	1294.32
299.48	1306.60
299.69	1230.83
299.90	1157.10
300.12	1259.50
300.33	1279.98
300.55	1251.31
300.76	1279.98
300.98	1200.11
301.19	1302.51
301.40	1294.32
301.62	1269.74
301.83	1230.83
302.05	1269.74
302.26	1241.07
302.47	1290.22
302.69	1290.22
302.90	1222.64
303.12	1208.30
303.33	1308.65
303.54	1269.74
303.76	1236.97
303.97	1218.54
304.19	1298.41
304.40	1212.40
304.61	1245.16
304.83	1269.74
305.04	1267.69
305.26	1251.31
305.47	1241.07
305.68	1239.02
305.90	1325.04
306.11	1222.64
306.33	1267.69
306.54	1343.47
306.75	1275.88
306.97	1265.64
307.18	1214.45
307.39	1279.98
307.61	1265.64
307.82	1220.59
308.04	1249.26
308.25	1261.55
308.46	1302.51
308.68	1241.07
308.89	1259.50
309.10	1245.16
309.32	1210.35
309.53	1335.28
309.74	1294.32
309.96	1239.02
310.17	1259.50
310.39	1255.40
310.60	1249.26
310.81	1212.40
311.03	1286.12
311.24	1298.41
311.45	1263.60
311.67	1335.28
311.88	1193.97
312.09	1343.47
312.31	1214.45
312.52	1273.84
312.73	1226.73
312.95	1263.60
313.16	1292.27
313.37	1257.45
313.59	1228.78
313.80	1214.45
314.01	1236.97
314.23	1232.88
314.44	1206.25
314.65	1269.74
314.87	1318.89
315.08	1259.50
315.29	1253.36
315.51	1261.55
315.72	1267.69
315.93	1335.28
316.15	1314.80
316.36	1265.64
316.57	1253.36
316.79	1257.45
317.00	1245.16
317.21	1200.11
317.43	1273.84
317.64	1300.46
317.85	1241.07
318.07	1214.45
318.28	1296.36
318.49	1302.51
318.70	1320.94
318.92	1259.50
319.13	1265.64
319.34	1304.56
319.56	1331.18
319.77	1220.59
319.98	1271.79
320.20	1304.56
320.41	1318.89
320.62	1284.08
320.83	1312.75
321.05	1300.46
321.26	1204.21
321.47	1275.88
321.69	1294.32
321.90	1263.60
322.11	1300.46
322.32	1294.32
322.54	1234.93
322.75	1232.88
322.96	1232.88
323.18	1296.36
323.39	1292.27
323.60	1294.32
323.81	1245.16
324.03	1279.98
324.24	1275.88
324.45	1279.98
324.66	1282.03
324.88	1228.78
325.09	1220.59
325.30	1282.03
325.52	1257.45
325.73	1302.51
325.94	1224.69
326.15	1273.84
326.37	1265.64
326.58	1271.79
326.79	1320.94
327.00	1239.02
327.22	1294.32
327.43	1316.84
327.64	1239.02
327.85	1222.64
328.07	1265.64
328.28	1245.16
328.49	1292.27
328.70	1261.55
328.92	1306.60
329.13	1230.83
329.34	1241.07
329.55	1349.61
329.76	1355.76
329.98	1286.12
330.19	1271.79
330.40	1263.60
330.61	1241.07
330.83	1288.17
331.04	1279.98
331.25	1275.88
331.46	1181.68
331.68	1269.74
331.89	1204.21
332.10	1243.12
332.31	1253.36
332.52	1306.60
332.74	1300.46
332.95	1257.45
333.16	1284.08
333.37	1253.36
333.58	1198.06
333.80	1236.97
334.01	1265.64
334.22	1296.36
334.43	1220.59
334.64	1202.16
334.86	1296.36
335.07	1355.76
335.28	1255.40
335.49	1249.26
335.70	1273.84
335.92	1298.41
336.13	1261.55
336.34	1239.02
336.55	1208.30
336.76	1316.84
336.98	1271.79
337.19	1239.02
337.40	1335.28
337.61	1355.76
337.82	1325.04
338.04	1341.42
338.25	1224.69
338.46	1308.65
338.67	1249.26
338.88	1220.59
339.09	1302.51
339.31	1257.45
339.52	1282.03
339.73	1302.51
339.94	1306.60
340.15	1292.27
340.36	1241.07
340.58	1282.03
340.79	1282.03
341.00	1294.32
341.21	1241.07
341.42	1300.46
341.63	1247.21
341.85	1314.80
342.06	1243.12
342.27	1257.45
342.48	1296.36
342.69	1265.64
342.90	1232.88
343.12	1296.36
343.33	1306.60
343.54	1282.03
343.75	1251.31
343.96	1222.64
344.17	1273.84
344.38	1245.16
344.60	1279.98
344.81	1341.42
345.02	1277.93
345.23	1224.69
345.44	1306.60
345.65	1308.65
345.86	1245.16
346.07	1396.71
346.29	1347.56
346.50	1214.45
346.71	1273.84
346.92	1294.32
347.13	1294.32
347.34	1210.35
347.55	1343.47
347.76	1232.88
347.98	1202.16
348.19	1202.16
348.40	1304.56
348.61	1279.98
348.82	1249.26
349.03	1296.36
349.24	1181.68
349.45	1292.27
349.66	1218.54
349.88	1284.08
350.09	1269.74
350.30	1322.99
350.51	1220.59
350.72	1245.16
350.93	1273.84
351.14	1216.49
351.35	1312.75
351.56	1302.51
351.77	1331.18
351.99	1277.93
352.20	1218.54
352.41	1267.69
352.62	1267.69
352.83	1271.79
353.04	1267.69
353.25	1171.44
353.46	1265.64
353.67	1290.22
353.88	1275.88
354.09	1224.69
354.30	1243.12
354.52	1220.59
354.73	1247.21
354.94	1275.88
355.15	1224.69
355.36	1298.41
355.57	1265.64
355.78	1279.98
355.99	1327.08
356.20	1322.99
356.41	1314.80
356.62	1214.45
356.83	1191.92
357.04	1284.08
357.25	1306.60
357.46	1255.40
357.68	1204.21
357.89	1310.70
358.10	1257.45
358.31	1273.84
358.52	1267.69
358.73	1353.71
358.94	1306.60
359.15	1251.31
359.36	1294.32
359.57	1249.26
359.78	1306.60
359.99	1310.70
360.20	1222.64
360.41	1296.36
360.62	1230.83
360.83	1202.16
361.04	1320.94
361.25	1308.65
361.46	1372.14
361.67	1261.55
361.88	1245.16
362.09	1243.12
362.30	1261.55
362.51	1290.22
362.72	1279.98
362.93	1245.16
363.14	1279.98
363.35	1286.12
363.56	1206.25
363.78	1261.55
363.99	1286.12
364.20	1224.69
364.41	1261.55
364.62	1290.22
364.83	1298.41
365.04	1216.49
365.25	1296.36
365.46	1329.13
365.67	1255.40
365.88	1249.26
366.09	1255.40
366.30	1261.55
366.51	1320.94
366.72	1261.55
366.93	1306.60
367.14	1318.89
367.35	1241.07
367.56	1312.75
367.77	1214.45
367.98	1222.64
368.18	1288.17
368.39	1241.07
368.60	1245.16
368.81	1298.41
369.02	1304.56
369.23	1318.89
369.44	1251.31
369.65	1208.30
369.86	1273.84
370.07	1275.88
370.28	1322.99
370.49	1247.21
370.70	1265.64
370.91	1296.36
371.12	1226.73
371.33	1288.17
371.54	1337.32
371.75	1316.84
371.96	1234.93
372.17	1232.88
372.38	1298.41
372.59	1261.55
372.80	1282.03
373.01	1298.41
373.22	1204.21
373.43	1290.22
373.64	1331.18
373.85	1337.32
374.06	1294.32
374.26	1263.60
374.47	1261.55
374.68	1282.03
374.89	1314.80
375.10	1245.16
375.31	1411.05
375.52	1267.69
375.73	1302.51
375.94	1261.55
376.15	1314.80
376.36	1265.64
376.57	1284.08
376.78	1265.64
376.99	1277.93
377.20	1257.45
377.40	1247.21
377.61	1288.17
377.82	1300.46
378.03	1247.21
378.24	1232.88
378.45	1343.47
378.66	1257.45
378.87	1271.79
379.08	1232.88
379.29	1263.60
379.50	1263.60
379.71	1265.64
379.91	1296.36
380.12	1282.03
380.33	1249.26
380.54	1255.40
380.75	1216.49
380.96	1329.13
381.17	1353.71
381.38	1247.21
381.59	1282.03
381.80	1275.88
382.00	1331.18
382.21	1314.80
382.42	1325.04
382.63	1224.69
382.84	1249.26
383.05	1314.80
383.26	1269.74
383.47	1232.88
383.68	1282.03
383.88	1255.40
384.09	1232.88
384.30	1253.36
384.51	1312.75
384.72	1288.17
384.93	1236.97
385.14	1218.54
385.35	1232.88
385.55	1314.80
385.76	1275.88
385.97	1245.16
386.18	1208.30
386.39	1327.08
386.60	1325.04
386.81	1277.93
387.02	1230.83
387.22	1239.02
387.43	1288.17
387.64	1265.64
387.85	1304.56
388.06	1259.50
388.27	1335.28
388.48	1304.56
388.68	1292.27
388.89	1265.64
389.10	1288.17
389.31	1259.50
389.52	1290.22
389.73	1267.69
389.93	1228.78
390.14	1214.45
390.35	1193.97
390.56	1331.18
390.77	1351.66
390.98	1277.93
391.18	1318.89
391.39	1234.93
391.60	1308.65
391.81	1294.32
392.02	1232.88
392.23	1308.65
392.43	1279.98
392.64	1265.64
392.85	1265.64
393.06	1282.03
393.27	1216.49
393.47	1239.02
393.68	1314.80
393.89	1263.60
394.10	1263.60
394.31	1206.25
394.52	1216.49
394.72	1257.45
394.93	1284.08
395.14	1206.25
395.35	1282.03
395.56	1249.26
395.76	1269.74
395.97	1222.64
396.18	1257.45
396.39	1247.21
396.60	1339.37
396.80	1286.12
397.01	1298.41
397.22	1279.98
397.43	1253.36
397.64	1263.60
397.84	1263.60
398.05	1271.79
398.26	1279.98
398.47	1181.68
398.67	1284.08
398.88	1290.22
399.09	1183.73
399.30	1228.78
399.51	1243.12
399.71	1322.99
399.92	1325.04
400.13	1171.44
400.34	1327.08
400.54	1232.88
400.75	1212.40
400.96	1273.84
401.17	1245.16
401.37	1249.26
401.58	1284.08
401.79	1228.78
402.00	1302.51
402.21	1300.46
402.41	1216.49
402.62	1261.55
402.83	1314.80
403.04	1318.89
403.24	1239.02
403.45	1247.21
403.66	1378.28
403.87	1210.35
404.07	1316.84
404.28	1236.97
404.49	1310.70
404.70	1265.64
404.90	1286.12
405.11	1206.25
405.32	1222.64
405.52	1183.73
405.73	1222.64
405.94	1273.84
406.15	1245.16
406.35	1296.36
406.56	1263.60
406.77	1208.30
406.98	1294.32
407.18	1230.83
407.39	1267.69
407.60	1288.17
407.80	1306.60
408.01	1230.83
408.22	1265.64
408.43	1279.98
408.63	1277.93
408.84	1253.36
409.05	1267.69
409.25	1273.84
409.46	1267.69
409.67	1263.60
409.88	1314.80
410.08	1245.16
410.29	1255.40
410.50	1230.83
410.70	1286.12
410.91	1267.69
411.12	1247.21
411.32	1269.74
411.53	1302.51
411.74	1327.08
411.95	1226.73
412.15	1277.93
412.36	1292.27
412.57	1200.11
412.77	1302.51
412.98	1290.22
413.19	1239.02
413.39	1304.56
413.60	1288.17
413.81	1253.36
414.01	1298.41
414.22	1339.37
414.43	1275.88
414.63	1206.25
414.84	1263.60
415.05	1298.41
415.25	1279.98
415.46	1220.59
415.67	1304.56
415.87	1249.26
416.08	1263.60
416.29	1257.45
416.49	1306.60
416.70	1290.22
416.91	1257.45
417.11	1261.55
417.32	1239.02
417.53	1222.64
417.73	1263.60
417.94	1347.56
418.15	1239.02
418.35	1216.49
418.56	1290.22
418.77	1314.80
418.97	1331.18
419.18	1318.89
419.38	1273.84
419.59	1253.36
419.80	1269.74
420.00	1224.69
420.21	1247.21
420.42	1251.31
420.62	1353.71
420.83	1226.73
421.04	1300.46
421.24	1267.69
421.45	1279.98
421.65	1267.69
421.86	1241.07
422.07	1206.25
422.27	1253.36
422.48	1206.25
422.69	1265.64
422.89	1247.21
423.10	1282.03
423.30	1232.88
423.51	1245.16
423.72	1232.88
423.92	1351.66
424.13	1228.78
424.33	1292.27
424.54	1277.93
424.75	1304.56
424.95	1204.21
425.16	1331.18
425.36	1257.45
425.57	1349.61
425.78	1269.74
425.98	1216.49
426.19	1265.64
426.39	1230.83
426.60	1290.22
426.81	1314.80
427.01	1269.74
427.22	1284.08
427.42	1273.84
427.63	1228.78
427.83	1228.78
428.04	1347.56
428.25	1359.85
428.45	1320.94
428.66	1261.55
428.86	1247.21
429.07	1220.59
429.28	1298.41
429.48	1304.56
429.69	1288.17
429.89	1298.41
430.10	1263.60
430.30	1241.07
430.51	1259.50
430.71	1265.64
430.92	1325.04
431.13	1232.88
431.33	1282.03
431.54	1306.60
431.74	1251.31
431.95	1302.51
432.15	1202.16
432.36	1224.69
432.56	1290.22
432.77	1259.50
432.98	1245.16
433.18	1255.40
433.39	1261.55
433.59	1200.11
433.80	1368.04
434.00	1296.36
434.21	1267.69
434.41	1275.88
434.62	1263.60
434.82	1222.64
435.03	1279.98
435.23	1292.27
435.44	1282.03
435.64	1202.16
435.85	1308.65
436.06	1245.16
436.26	1241.07
436.47	1273.84
436.67	1232.88
436.88	1308.65
437.08	1275.88
437.29	1261.55
437.49	1298.41
437.70	1239.02
437.90	1191.92
438.11	1314.80
438.31	1363.95
438.52	1243.12
438.72	1279.98
438.93	1296.36
439.13	1249.26
439.34	1255.40
439.54	1263.60
439.75	1267.69
439.95	1277.93
440.16	1255.40
440.36	1329.13
440.57	1279.98
440.77	1267.69
440.98	1263.60
441.18	1296.36
441.39	1257.45
441.59	1345.52
441.80	1366.00
442.00	1347.56
442.21	1302.51
442.41	1265.64
442.62	1275.88
442.82	1241.07
443.02	1226.73
443.23	1249.26
443.43	1290.22
443.64	1271.79
443.84	1279.98
444.05	1310.70
444.25	1267.69
444.46	1282.03
444.66	1265.64
444.87	1312.75
445.07	1290.22
445.28	1329.13
445.48	1286.12
445.69	1175.53
445.89	1261.55
446.09	1239.02
446.30	1288.17
446.50	1312.75
446.71	1271.79
446.91	1212.40
447.12	1277.93
447.32	1249.26
447.53	1271.79
447.73	1261.55
447.93	1284.08
448.14	1308.65
448.34	1241.07
448.55	1259.50
448.75	1259.50
448.96	1241.07
449.16	1273.84
449.36	1333.23
449.57	1263.60
449.77	1300.46
449.98	1286.12
450.18	1255.40
450.39	1347.56
450.59	1298.41
450.79	1329.13
451.00	1308.65
451.20	1327.08
451.41	1247.21
451.61	1290.22
451.81	1249.26
452.02	1277.93
452.22	1263.60
452.43	1220.59
452.63	1294.32
