SpectraSuite Data File
++++++++++++++++++++++++++++++++++++
Date: Sun Apr 03 19:55:23 CEST 2016
User: root
Dark Spectrum Present: No
Reference Spectrum Present: No
Number of Sampled Component Spectra: 1
Spectrometers: USB4C02835
Integration Time (usec): 10000 (USB4C02835)
Spectra Averaged: 1 (USB4C02835)
Boxcar Smoothing: 0 (USB4C02835)
Correct for Electrical Dark: No (USB4C02835)
Strobe/Lamp Enabled: No (USB4C02835)
Correct for Detector Non-linearity: No (USB4C02835)
Correct for Stray Light: No (USB4C02835)
Number of Pixels in Processed Spectrum: 3648
>>>>>Begin Processed Spectral Data<<<<<
177.47	1265.64
177.69	1265.64
177.91	1265.64
178.13	1290.22
178.36	1263.60
178.58	1245.16
178.80	1259.50
179.02	1273.84
179.24	1333.23
179.46	1318.89
179.68	1271.79
179.90	1275.88
180.13	1251.31
180.35	1294.32
180.57	1263.60
180.79	1241.07
181.01	1236.97
181.23	1259.50
181.45	1173.49
181.67	1259.50
181.90	1243.12
182.12	1318.89
182.34	1232.88
182.56	1314.80
182.78	1181.68
183.00	1277.93
183.22	1261.55
183.44	1286.12
183.66	1327.08
183.89	1341.42
184.11	1265.64
184.33	1243.12
184.55	1284.08
184.77	1257.45
184.99	1294.32
185.21	1263.60
185.43	1347.56
185.65	1247.21
185.87	1312.75
186.10	1251.31
186.32	1259.50
186.54	1279.98
186.76	1245.16
186.98	1191.92
187.20	1271.79
187.42	1267.69
187.64	1304.56
187.86	1292.27
188.08	1222.64
188.30	1255.40
188.52	1343.47
188.75	1312.75
188.97	1267.69
189.19	1239.02
189.41	1275.88
189.63	1118.19
189.85	1183.73
190.07	1253.36
190.29	1212.40
190.51	1271.79
190.73	1304.56
190.95	1269.74
191.17	1196.01
191.39	1267.69
191.61	1236.97
191.84	1300.46
192.06	1306.60
192.28	1318.89
192.50	1343.47
192.72	1212.40
192.94	1247.21
193.16	1208.30
193.38	1279.98
193.60	1257.45
193.82	1263.60
194.04	1331.18
194.26	1245.16
194.48	1306.60
194.70	1249.26
194.92	1247.21
195.14	1302.51
195.36	1249.26
195.58	1366.00
195.80	1222.64
196.02	1230.83
196.24	1284.08
196.46	1185.77
196.69	1329.13
196.91	1239.02
197.13	1243.12
197.35	1288.17
197.57	1296.36
197.79	1292.27
198.01	1320.94
198.23	1288.17
198.45	1208.30
198.67	1200.11
198.89	1304.56
199.11	1245.16
199.33	1245.16
199.55	1261.55
199.77	1343.47
199.99	1275.88
200.21	1243.12
200.43	1378.28
200.65	1222.64
200.87	1232.88
201.09	1236.97
201.31	1247.21
201.53	1304.56
201.75	1265.64
201.97	1267.69
202.19	1277.93
202.41	1310.70
202.63	1296.36
202.85	1236.97
203.07	1277.93
203.29	1222.64
203.51	1163.25
203.73	1232.88
203.95	1306.60
204.17	1279.98
204.39	1279.98
204.61	1157.10
204.83	1241.07
205.05	1187.82
205.27	1282.03
205.49	1204.21
205.71	1243.12
205.93	1228.78
206.15	1290.22
206.37	1294.32
206.59	1349.61
206.81	1275.88
207.03	1234.93
207.25	1241.07
207.47	1337.32
207.69	1269.74
207.91	1245.16
208.13	1304.56
208.34	1267.69
208.56	1247.21
208.78	1263.60
209.00	1290.22
209.22	1212.40
209.44	1314.80
209.66	1308.65
209.88	1157.10
210.10	1257.45
210.32	1245.16
210.54	1300.46
210.76	1331.18
210.98	1296.36
211.20	1306.60
211.42	1232.88
211.64	1228.78
211.86	1232.88
212.08	1277.93
212.30	1245.16
212.52	1302.51
212.74	1310.70
212.96	1298.41
213.17	1234.93
213.39	1267.69
213.61	1273.84
213.83	1261.55
214.05	1269.74
214.27	1314.80
214.49	1226.73
214.71	1247.21
214.93	1255.40
215.15	1286.12
215.37	1343.47
215.59	1300.46
215.81	1204.21
216.03	1265.64
216.24	1232.88
216.46	1347.56
216.68	1288.17
216.90	1310.70
217.12	1269.74
217.34	1255.40
217.56	1265.64
217.78	1284.08
218.00	1232.88
218.22	1294.32
218.44	1310.70
218.66	1345.52
218.87	1279.98
219.09	1284.08
219.31	1255.40
219.53	1271.79
219.75	1269.74
219.97	1329.13
220.19	1314.80
220.41	1239.02
220.63	1314.80
220.85	1304.56
221.06	1251.31
221.28	1236.97
221.50	1275.88
221.72	1343.47
221.94	1249.26
222.16	1298.41
222.38	1241.07
222.60	1253.36
222.82	1232.88
223.03	1173.49
223.25	1353.71
223.47	1253.36
223.69	1279.98
223.91	1241.07
224.13	1232.88
224.35	1298.41
224.57	1245.16
224.78	1296.36
225.00	1310.70
225.22	1255.40
225.44	1273.84
225.66	1245.16
225.88	1300.46
226.10	1296.36
226.32	1355.76
226.53	1220.59
226.75	1306.60
226.97	1187.82
227.19	1349.61
227.41	1214.45
227.63	1320.94
227.85	1226.73
228.06	1236.97
228.28	1286.12
228.50	1284.08
228.72	1279.98
228.94	1202.16
229.16	1304.56
229.37	1318.89
229.59	1275.88
229.81	1204.21
230.03	1322.99
230.25	1318.89
230.47	1261.55
230.69	1259.50
230.90	1200.11
231.12	1232.88
231.34	1298.41
231.56	1263.60
231.78	1259.50
232.00	1265.64
232.21	1214.45
232.43	1355.76
232.65	1218.54
232.87	1273.84
233.09	1224.69
233.30	1306.60
233.52	1271.79
233.74	1263.60
233.96	1312.75
234.18	1255.40
234.40	1222.64
234.61	1239.02
234.83	1312.75
235.05	1261.55
235.27	1269.74
235.49	1290.22
235.70	1337.32
235.92	1277.93
236.14	1234.93
236.36	1275.88
236.58	1243.12
236.79	1347.56
237.01	1236.97
237.23	1286.12
237.45	1249.26
237.67	1241.07
237.88	1247.21
238.10	1298.41
238.32	1251.31
238.54	1257.45
238.76	1288.17
238.97	1279.98
239.19	1179.63
239.41	1261.55
239.63	1236.97
239.85	1239.02
240.06	1236.97
240.28	1273.84
240.50	1173.49
240.72	1286.12
240.93	1247.21
241.15	1257.45
241.37	1296.36
241.59	1269.74
241.81	1228.78
242.02	1273.84
242.24	1286.12
242.46	1241.07
242.68	1275.88
242.89	1255.40
243.11	1232.88
243.33	1222.64
243.55	1314.80
243.76	1292.27
243.98	1253.36
244.20	1304.56
244.42	1212.40
244.64	1277.93
244.85	1331.18
245.07	1271.79
245.29	1228.78
245.51	1191.92
245.72	1239.02
245.94	1306.60
246.16	1314.80
246.38	1273.84
246.59	1243.12
246.81	1279.98
247.03	1245.16
247.24	1263.60
247.46	1279.98
247.68	1241.07
247.90	1271.79
248.11	1277.93
248.33	1247.21
248.55	1232.88
248.77	1247.21
248.98	1322.99
249.20	1239.02
249.42	1308.65
249.64	1314.80
249.85	1288.17
250.07	1265.64
250.29	1249.26
250.50	1234.93
250.72	1269.74
250.94	1267.69
251.16	1222.64
251.37	1259.50
251.59	1263.60
251.81	1267.69
252.02	1247.21
252.24	1218.54
252.46	1279.98
252.68	1269.74
252.89	1310.70
253.11	1279.98
253.33	1282.03
253.54	1243.12
253.76	1187.82
253.98	1306.60
254.20	1314.80
254.41	1228.78
254.63	1239.02
254.85	1282.03
255.06	1298.41
255.28	1259.50
255.50	1294.32
255.71	1286.12
255.93	1239.02
256.15	1234.93
256.36	1306.60
256.58	1279.98
256.80	1292.27
257.02	1277.93
257.23	1304.56
257.45	1277.93
257.67	1177.58
257.88	1239.02
258.10	1312.75
258.32	1267.69
258.53	1279.98
258.75	1259.50
258.97	1282.03
259.18	1253.36
259.40	1261.55
259.62	1279.98
259.83	1325.04
260.05	1277.93
260.27	1376.24
260.48	1290.22
260.70	1263.60
260.92	1245.16
261.13	1214.45
261.35	1177.58
261.57	1304.56
261.78	1271.79
262.00	1232.88
262.22	1247.21
262.43	1228.78
262.65	1300.46
262.86	1241.07
263.08	1218.54
263.30	1288.17
263.51	1236.97
263.73	1304.56
263.95	1302.51
264.16	1273.84
264.38	1286.12
264.60	1249.26
264.81	1257.45
265.03	1269.74
265.25	1277.93
265.46	1261.55
265.68	1241.07
265.89	1279.98
266.11	1284.08
266.33	1271.79
266.54	1226.73
266.76	1284.08
266.98	1234.93
267.19	1353.71
267.41	1282.03
267.62	1294.32
267.84	1253.36
268.06	1259.50
268.27	1298.41
268.49	1216.49
268.70	1273.84
268.92	1255.40
269.14	1284.08
269.35	1314.80
269.57	1267.69
269.79	1331.18
270.00	1198.06
270.22	1249.26
270.43	1286.12
270.65	1318.89
270.87	1308.65
271.08	1349.61
271.30	1273.84
271.51	1261.55
271.73	1263.60
271.95	1259.50
272.16	1259.50
272.38	1316.84
272.59	1187.82
272.81	1257.45
273.02	1290.22
273.24	1249.26
273.46	1251.31
273.67	1265.64
273.89	1253.36
274.10	1296.36
274.32	1353.71
274.54	1247.21
274.75	1255.40
274.97	1251.31
275.18	1245.16
275.40	1173.49
275.61	1290.22
275.83	1322.99
276.05	1288.17
276.26	1269.74
276.48	1298.41
276.69	1271.79
276.91	1253.36
277.12	1265.64
277.34	1212.40
277.55	1320.94
277.77	1284.08
277.99	1257.45
278.20	1216.49
278.42	1322.99
278.63	1226.73
278.85	1306.60
279.06	1220.59
279.28	1335.28
279.49	1294.32
279.71	1314.80
279.93	1312.75
280.14	1220.59
280.36	1212.40
280.57	1296.36
280.79	1298.41
281.00	1214.45
281.22	1253.36
281.43	1298.41
281.65	1290.22
281.86	1198.06
282.08	1220.59
282.29	1249.26
282.51	1296.36
282.73	1279.98
282.94	1224.69
283.16	1304.56
283.37	1292.27
283.59	1302.51
283.80	1216.49
284.02	1318.89
284.23	1253.36
284.45	1316.84
284.66	1318.89
284.88	1349.61
285.09	1325.04
285.31	1257.45
285.52	1312.75
285.74	1310.70
285.95	1277.93
286.17	1193.97
286.38	1267.69
286.60	1341.42
286.81	1204.21
287.03	1232.88
287.24	1335.28
287.46	1249.26
287.67	1267.69
287.89	1292.27
288.10	1267.69
288.32	1304.56
288.53	1218.54
288.75	1335.28
288.96	1241.07
289.18	1259.50
289.39	1212.40
289.61	1253.36
289.82	1329.13
290.04	1245.16
290.25	1220.59
290.47	1249.26
290.68	1296.36
290.90	1312.75
291.11	1259.50
291.33	1318.89
291.54	1277.93
291.76	1216.49
291.97	1269.74
292.18	1267.69
292.40	1294.32
292.61	1243.12
292.83	1269.74
293.04	1257.45
293.26	1282.03
293.47	1277.93
293.69	1202.16
293.90	1286.12
294.12	1200.11
294.33	1228.78
294.55	1267.69
294.76	1200.11
294.97	1333.23
295.19	1296.36
295.40	1269.74
295.62	1298.41
295.83	1259.50
296.05	1230.83
296.26	1261.55
296.48	1257.45
296.69	1300.46
296.90	1314.80
297.12	1267.69
297.33	1259.50
297.55	1282.03
297.76	1273.84
297.98	1230.83
298.19	1298.41
298.41	1331.18
298.62	1245.16
298.83	1236.97
299.05	1314.80
299.26	1230.83
299.48	1249.26
299.69	1279.98
299.90	1298.41
300.12	1236.97
300.33	1249.26
300.55	1294.32
300.76	1277.93
300.98	1322.99
301.19	1312.75
301.40	1275.88
301.62	1257.45
301.83	1257.45
302.05	1304.56
302.26	1322.99
302.47	1312.75
302.69	1214.45
302.90	1243.12
303.12	1275.88
303.33	1310.70
303.54	1277.93
303.76	1259.50
303.97	1277.93
304.19	1353.71
304.40	1292.27
304.61	1275.88
304.83	1304.56
305.04	1265.64
305.26	1245.16
305.47	1279.98
305.68	1249.26
305.90	1222.64
306.11	1265.64
306.33	1277.93
306.54	1284.08
306.75	1249.26
306.97	1310.70
307.18	1306.60
307.39	1232.88
307.61	1279.98
307.82	1191.92
308.04	1267.69
308.25	1314.80
308.46	1304.56
308.68	1230.83
308.89	1343.47
309.10	1200.11
309.32	1216.49
309.53	1288.17
309.74	1232.88
309.96	1292.27
310.17	1296.36
310.39	1269.74
310.60	1282.03
310.81	1236.97
311.03	1204.21
311.24	1255.40
311.45	1263.60
311.67	1249.26
311.88	1347.56
312.09	1212.40
312.31	1265.64
312.52	1191.92
312.73	1294.32
312.95	1265.64
313.16	1275.88
313.37	1236.97
313.59	1249.26
313.80	1259.50
314.01	1282.03
314.23	1253.36
314.44	1290.22
314.65	1226.73
314.87	1267.69
315.08	1257.45
315.29	1257.45
315.51	1253.36
315.72	1228.78
315.93	1277.93
316.15	1329.13
316.36	1302.51
316.57	1200.11
316.79	1288.17
317.00	1261.55
317.21	1247.21
317.43	1347.56
317.64	1236.97
317.85	1220.59
318.07	1275.88
318.28	1249.26
318.49	1316.84
318.70	1230.83
318.92	1216.49
319.13	1263.60
319.34	1308.65
319.56	1333.23
319.77	1236.97
319.98	1241.07
320.20	1306.60
320.41	1255.40
320.62	1245.16
320.83	1220.59
321.05	1253.36
321.26	1236.97
321.47	1228.78
321.69	1251.31
321.90	1277.93
322.11	1245.16
322.32	1288.17
322.54	1284.08
322.75	1318.89
322.96	1292.27
323.18	1290.22
323.39	1253.36
323.60	1286.12
323.81	1163.25
324.03	1296.36
324.24	1316.84
324.45	1277.93
324.66	1259.50
324.88	1249.26
325.09	1282.03
325.30	1251.31
325.52	1282.03
325.73	1253.36
325.94	1249.26
326.15	1196.01
326.37	1310.70
326.58	1267.69
326.79	1290.22
327.00	1253.36
327.22	1273.84
327.43	1181.68
327.64	1243.12
327.85	1230.83
328.07	1269.74
328.28	1204.21
328.49	1302.51
328.70	1243.12
328.92	1296.36
329.13	1347.56
329.34	1265.64
329.55	1251.31
329.76	1308.65
329.98	1245.16
330.19	1261.55
330.40	1277.93
330.61	1222.64
330.83	1310.70
331.04	1290.22
331.25	1273.84
331.46	1304.56
331.68	1218.54
331.89	1214.45
332.10	1253.36
332.31	1282.03
332.52	1187.82
332.74	1222.64
332.95	1294.32
333.16	1220.59
333.37	1220.59
333.58	1228.78
333.80	1200.11
334.01	1189.87
334.22	1290.22
334.43	1273.84
334.64	1286.12
334.86	1183.73
335.07	1257.45
335.28	1300.46
335.49	1226.73
335.70	1263.60
335.92	1210.35
336.13	1298.41
336.34	1204.21
336.55	1167.34
336.76	1290.22
336.98	1316.84
337.19	1300.46
337.40	1181.68
337.61	1286.12
337.82	1259.50
338.04	1310.70
338.25	1275.88
338.46	1224.69
338.67	1269.74
338.88	1224.69
339.09	1196.01
339.31	1267.69
339.52	1165.29
339.73	1284.08
339.94	1279.98
340.15	1253.36
340.36	1255.40
340.58	1298.41
340.79	1263.60
341.00	1265.64
341.21	1341.42
341.42	1275.88
341.63	1259.50
341.85	1267.69
342.06	1304.56
342.27	1275.88
342.48	1267.69
342.69	1296.36
342.90	1290.22
343.12	1220.59
343.33	1292.27
343.54	1214.45
343.75	1286.12
343.96	1279.98
344.17	1300.46
344.38	1257.45
344.60	1245.16
344.81	1335.28
345.02	1273.84
345.23	1269.74
345.44	1306.60
345.65	1255.40
345.86	1261.55
346.07	1273.84
346.29	1214.45
346.50	1275.88
346.71	1259.50
346.92	1202.16
347.13	1232.88
347.34	1296.36
347.55	1265.64
347.76	1255.40
347.98	1290.22
348.19	1214.45
348.40	1279.98
348.61	1300.46
348.82	1296.36
349.03	1247.21
349.24	1271.79
349.45	1302.51
349.66	1218.54
349.88	1282.03
350.09	1308.65
350.30	1306.60
350.51	1282.03
350.72	1239.02
350.93	1296.36
351.14	1222.64
351.35	1232.88
351.56	1251.31
351.77	1230.83
351.99	1269.74
352.20	1300.46
352.41	1259.50
352.62	1187.82
352.83	1228.78
353.04	1277.93
353.25	1284.08
353.46	1296.36
353.67	1249.26
353.88	1282.03
354.09	1243.12
354.30	1300.46
354.52	1236.97
354.73	1302.51
354.94	1318.89
355.15	1273.84
355.36	1263.60
355.57	1230.83
355.78	1247.21
355.99	1290.22
356.20	1232.88
356.41	1288.17
356.62	1300.46
356.83	1269.74
357.04	1279.98
357.25	1267.69
357.46	1263.60
357.68	1320.94
357.89	1249.26
358.10	1282.03
358.31	1218.54
358.52	1292.27
358.73	1306.60
358.94	1277.93
359.15	1406.95
359.36	1269.74
359.57	1253.36
359.78	1265.64
359.99	1273.84
360.20	1284.08
360.41	1277.93
360.62	1230.83
360.83	1212.40
361.04	1267.69
361.25	1267.69
361.46	1263.60
361.67	1193.97
361.88	1312.75
362.09	1304.56
362.30	1255.40
362.51	1245.16
362.72	1292.27
362.93	1226.73
363.14	1263.60
363.35	1234.93
363.56	1316.84
363.78	1255.40
363.99	1267.69
364.20	1306.60
364.41	1277.93
364.62	1243.12
364.83	1271.79
365.04	1204.21
365.25	1294.32
365.46	1265.64
365.67	1249.26
365.88	1232.88
366.09	1325.04
366.30	1306.60
366.51	1175.53
366.72	1224.69
366.93	1220.59
367.14	1275.88
367.35	1224.69
367.56	1312.75
367.77	1255.40
367.98	1259.50
368.18	1267.69
368.39	1294.32
368.60	1316.84
368.81	1286.12
369.02	1228.78
369.23	1257.45
369.44	1329.13
369.65	1292.27
369.86	1204.21
370.07	1257.45
370.28	1282.03
370.49	1308.65
370.70	1245.16
370.91	1232.88
371.12	1241.07
371.33	1341.42
371.54	1273.84
371.75	1253.36
371.96	1200.11
372.17	1284.08
372.38	1202.16
372.59	1261.55
372.80	1282.03
373.01	1273.84
373.22	1200.11
373.43	1310.70
373.64	1253.36
373.85	1312.75
374.06	1288.17
374.26	1304.56
374.47	1382.38
374.68	1249.26
374.89	1222.64
375.10	1277.93
375.31	1212.40
375.52	1290.22
375.73	1284.08
375.94	1347.56
376.15	1241.07
376.36	1181.68
376.57	1210.35
376.78	1241.07
376.99	1224.69
377.20	1271.79
377.40	1273.84
377.61	1247.21
377.82	1302.51
378.03	1259.50
378.24	1259.50
378.45	1261.55
378.66	1232.88
378.87	1224.69
379.08	1255.40
379.29	1222.64
379.50	1239.02
379.71	1273.84
379.91	1263.60
380.12	1179.63
380.33	1263.60
380.54	1282.03
380.75	1351.66
380.96	1267.69
381.17	1239.02
381.38	1284.08
381.59	1318.89
381.80	1220.59
382.00	1232.88
382.21	1265.64
382.42	1302.51
382.63	1314.80
382.84	1290.22
383.05	1288.17
383.26	1300.46
383.47	1296.36
383.68	1259.50
383.88	1206.25
384.09	1308.65
384.30	1290.22
384.51	1353.71
384.72	1234.93
384.93	1253.36
385.14	1290.22
385.35	1263.60
385.55	1265.64
385.76	1247.21
385.97	1308.65
386.18	1204.21
386.39	1228.78
386.60	1245.16
386.81	1286.12
387.02	1331.18
387.22	1218.54
387.43	1224.69
387.64	1284.08
387.85	1310.70
388.06	1284.08
388.27	1265.64
388.48	1312.75
388.68	1290.22
388.89	1216.49
389.10	1316.84
389.31	1222.64
389.52	1224.69
389.73	1214.45
389.93	1212.40
390.14	1232.88
390.35	1212.40
390.56	1286.12
390.77	1269.74
390.98	1277.93
391.18	1310.70
391.39	1222.64
391.60	1308.65
391.81	1236.97
392.02	1279.98
392.23	1196.01
392.43	1306.60
392.64	1249.26
392.85	1318.89
393.06	1298.41
393.27	1206.25
393.47	1255.40
393.68	1335.28
393.89	1177.58
394.10	1226.73
394.31	1320.94
394.52	1249.26
394.72	1286.12
394.93	1261.55
395.14	1318.89
395.35	1271.79
395.56	1232.88
395.76	1308.65
395.97	1241.07
396.18	1212.40
396.39	1241.07
396.60	1282.03
396.80	1312.75
397.01	1261.55
397.22	1253.36
397.43	1316.84
397.64	1257.45
397.84	1298.41
398.05	1173.49
398.26	1279.98
398.47	1253.36
398.67	1282.03
398.88	1349.61
399.09	1277.93
399.30	1243.12
399.51	1312.75
399.71	1212.40
399.92	1247.21
400.13	1247.21
400.34	1263.60
400.54	1300.46
400.75	1267.69
400.96	1241.07
401.17	1267.69
401.37	1286.12
401.58	1206.25
401.79	1290.22
402.00	1208.30
402.21	1234.93
402.41	1243.12
402.62	1263.60
402.83	1259.50
403.04	1228.78
403.24	1239.02
403.45	1312.75
403.66	1245.16
403.87	1230.83
404.07	1214.45
404.28	1275.88
404.49	1294.32
404.70	1228.78
404.90	1300.46
405.11	1251.31
405.32	1282.03
405.52	1261.55
405.73	1232.88
405.94	1232.88
406.15	1345.52
406.35	1318.89
406.56	1325.04
406.77	1243.12
406.98	1273.84
407.18	1175.53
407.39	1234.93
407.60	1214.45
407.80	1247.21
408.01	1208.30
408.22	1241.07
408.43	1327.08
408.63	1230.83
408.84	1271.79
409.05	1279.98
409.25	1282.03
409.46	1257.45
409.67	1298.41
409.88	1200.11
410.08	1329.13
410.29	1239.02
410.50	1239.02
410.70	1314.80
410.91	1333.23
411.12	1214.45
411.32	1308.65
411.53	1183.73
411.74	1214.45
411.95	1277.93
412.15	1253.36
412.36	1279.98
412.57	1249.26
412.77	1241.07
412.98	1230.83
413.19	1216.49
413.39	1322.99
413.60	1316.84
413.81	1296.36
414.01	1245.16
414.22	1259.50
414.43	1249.26
414.63	1277.93
414.84	1255.40
415.05	1247.21
415.25	1277.93
415.46	1277.93
415.67	1200.11
415.87	1185.77
416.08	1372.14
416.29	1269.74
416.49	1271.79
416.70	1259.50
416.91	1314.80
417.11	1204.21
417.32	1339.37
417.53	1282.03
417.73	1288.17
417.94	1255.40
418.15	1271.79
418.35	1259.50
418.56	1198.06
418.77	1288.17
418.97	1249.26
419.18	1269.74
419.38	1216.49
419.59	1316.84
419.80	1343.47
420.00	1243.12
420.21	1224.69
420.42	1261.55
420.62	1230.83
420.83	1239.02
421.04	1275.88
421.24	1325.04
421.45	1335.28
421.65	1208.30
421.86	1239.02
422.07	1228.78
422.27	1296.36
422.48	1314.80
422.69	1212.40
422.89	1294.32
423.10	1277.93
423.30	1265.64
423.51	1277.93
423.72	1212.40
423.92	1267.69
424.13	1335.28
424.33	1372.14
424.54	1282.03
424.75	1177.58
424.95	1257.45
425.16	1241.07
425.36	1241.07
425.57	1310.70
425.78	1261.55
425.98	1271.79
426.19	1296.36
426.39	1284.08
426.60	1183.73
426.81	1312.75
427.01	1290.22
427.22	1232.88
427.42	1271.79
427.63	1304.56
427.83	1282.03
428.04	1353.71
428.25	1290.22
428.45	1263.60
428.66	1320.94
428.86	1204.21
429.07	1261.55
429.28	1269.74
429.48	1236.97
429.69	1251.31
429.89	1267.69
430.10	1236.97
430.30	1292.27
430.51	1279.98
430.71	1257.45
430.92	1247.21
431.13	1263.60
431.33	1298.41
431.54	1263.60
431.74	1269.74
431.95	1320.94
432.15	1253.36
432.36	1265.64
432.56	1288.17
432.77	1277.93
432.98	1388.52
433.18	1275.88
433.39	1271.79
433.59	1245.16
433.80	1243.12
434.00	1288.17
434.21	1206.25
434.41	1294.32
434.62	1296.36
434.82	1290.22
435.03	1206.25
435.23	1247.21
435.44	1273.84
435.64	1290.22
435.85	1226.73
436.06	1239.02
436.26	1345.52
436.47	1288.17
436.67	1247.21
436.88	1265.64
437.08	1263.60
437.29	1359.85
437.49	1239.02
437.70	1271.79
437.90	1298.41
438.11	1243.12
438.31	1284.08
438.52	1247.21
438.72	1308.65
438.93	1218.54
439.13	1335.28
439.34	1273.84
439.54	1245.16
439.75	1279.98
439.95	1290.22
440.16	1316.84
440.36	1296.36
440.57	1269.74
440.77	1306.60
440.98	1236.97
441.18	1261.55
441.39	1308.65
441.59	1193.97
441.80	1279.98
442.00	1249.26
442.21	1247.21
442.41	1269.74
442.62	1284.08
442.82	1296.36
443.02	1232.88
443.23	1247.21
443.43	1222.64
443.64	1279.98
443.84	1273.84
444.05	1296.36
444.25	1236.97
444.46	1243.12
444.66	1372.14
444.87	1259.50
445.07	1335.28
445.28	1349.61
445.48	1292.27
445.69	1345.52
445.89	1341.42
446.09	1212.40
446.30	1261.55
446.50	1343.47
446.71	1275.88
446.91	1290.22
447.12	1286.12
447.32	1294.32
447.53	1282.03
447.73	1290.22
447.93	1269.74
448.14	1218.54
448.34	1339.37
448.55	1302.51
448.75	1329.13
448.96	1302.51
449.16	1234.93
449.36	1288.17
449.57	1236.97
449.77	1241.07
449.98	1271.79
450.18	1380.33
450.39	1261.55
450.59	1345.52
450.79	1204.21
451.00	1257.45
451.20	1294.32
451.41	1335.28
451.61	1300.46
451.81	1249.26
452.02	1245.16
452.22	1243.12
452.43	1372.14
452.63	1306.60
