SpectraSuite Data File
++++++++++++++++++++++++++++++++++++
Date: Sun Apr 03 19:55:26 CEST 2016
User: root
Dark Spectrum Present: No
Reference Spectrum Present: No
Number of Sampled Component Spectra: 1
Spectrometers: USB4C02835
Integration Time (usec): 10000 (USB4C02835)
Spectra Averaged: 1 (USB4C02835)
Boxcar Smoothing: 0 (USB4C02835)
Correct for Electrical Dark: No (USB4C02835)
Strobe/Lamp Enabled: No (USB4C02835)
Correct for Detector Non-linearity: No (USB4C02835)
Correct for Stray Light: No (USB4C02835)
Number of Pixels in Processed Spectrum: 3648
>>>>>Begin Processed Spectral Data<<<<<
177.47	1265.64
177.69	1265.64
177.91	1265.64
178.13	1277.93
178.36	1222.64
178.58	1318.89
178.80	1253.36
179.02	1249.26
179.24	1216.49
179.46	1183.73
179.68	1241.07
179.90	1236.97
180.13	1265.64
180.35	1292.27
180.57	1179.63
180.79	1251.31
181.01	1267.69
181.23	1331.18
181.45	1265.64
181.67	1212.40
181.90	1294.32
182.12	1282.03
182.34	1239.02
182.56	1257.45
182.78	1191.92
183.00	1267.69
183.22	1263.60
183.44	1284.08
183.66	1273.84
183.89	1241.07
184.11	1204.21
184.33	1243.12
184.55	1275.88
184.77	1255.40
184.99	1273.84
185.21	1327.08
185.43	1288.17
185.65	1341.42
185.87	1296.36
186.10	1222.64
186.32	1345.52
186.54	1273.84
186.76	1273.84
186.98	1265.64
187.20	1269.74
187.42	1232.88
187.64	1261.55
187.86	1265.64
188.08	1198.06
188.30	1265.64
188.52	1308.65
188.75	1267.69
188.97	1290.22
189.19	1263.60
189.41	1290.22
189.63	1322.99
189.85	1306.60
190.07	1218.54
190.29	1290.22
190.51	1310.70
190.73	1257.45
190.95	1302.51
191.17	1263.60
191.39	1220.59
191.61	1228.78
191.84	1273.84
192.06	1220.59
192.28	1232.88
192.50	1337.32
192.72	1302.51
192.94	1322.99
193.16	1320.94
193.38	1265.64
193.60	1175.53
193.82	1228.78
194.04	1236.97
194.26	1251.31
194.48	1191.92
194.70	1222.64
194.92	1347.56
195.14	1271.79
195.36	1214.45
195.58	1318.89
195.80	1304.56
196.02	1228.78
196.24	1261.55
196.46	1247.21
196.69	1271.79
196.91	1294.32
197.13	1261.55
197.35	1263.60
197.57	1267.69
197.79	1202.16
198.01	1322.99
198.23	1222.64
198.45	1306.60
198.67	1286.12
198.89	1204.21
199.11	1292.27
199.33	1325.04
199.55	1320.94
199.77	1302.51
199.99	1259.50
200.21	1200.11
200.43	1220.59
200.65	1253.36
200.87	1310.70
201.09	1243.12
201.31	1300.46
201.53	1288.17
201.75	1269.74
201.97	1241.07
202.19	1257.45
202.41	1310.70
202.63	1257.45
202.85	1298.41
203.07	1292.27
203.29	1277.93
203.51	1304.56
203.73	1214.45
203.95	1273.84
204.17	1322.99
204.39	1279.98
204.61	1263.60
204.83	1310.70
205.05	1284.08
205.27	1286.12
205.49	1298.41
205.71	1230.83
205.93	1294.32
206.15	1296.36
206.37	1329.13
206.59	1255.40
206.81	1288.17
207.03	1279.98
207.25	1300.46
207.47	1312.75
207.69	1298.41
207.91	1314.80
208.13	1275.88
208.34	1306.60
208.56	1259.50
208.78	1320.94
209.00	1239.02
209.22	1230.83
209.44	1282.03
209.66	1271.79
209.88	1279.98
210.10	1339.37
210.32	1267.69
210.54	1241.07
210.76	1255.40
210.98	1279.98
211.20	1241.07
211.42	1296.36
211.64	1290.22
211.86	1265.64
212.08	1275.88
212.30	1304.56
212.52	1257.45
212.74	1241.07
212.96	1322.99
213.17	1169.39
213.39	1249.26
213.61	1275.88
213.83	1347.56
214.05	1253.36
214.27	1265.64
214.49	1241.07
214.71	1243.12
214.93	1290.22
215.15	1204.21
215.37	1304.56
215.59	1288.17
215.81	1263.60
216.03	1226.73
216.24	1273.84
216.46	1263.60
216.68	1279.98
216.90	1275.88
217.12	1247.21
217.34	1214.45
217.56	1251.31
217.78	1300.46
218.00	1275.88
218.22	1249.26
218.44	1273.84
218.66	1216.49
218.87	1277.93
219.09	1277.93
219.31	1320.94
219.53	1245.16
219.75	1257.45
219.97	1239.02
220.19	1247.21
220.41	1355.76
220.63	1257.45
220.85	1292.27
221.06	1271.79
221.28	1232.88
221.50	1273.84
221.72	1325.04
221.94	1322.99
222.16	1200.11
222.38	1300.46
222.60	1263.60
222.82	1273.84
223.03	1165.29
223.25	1183.73
223.47	1263.60
223.69	1245.16
223.91	1245.16
224.13	1255.40
224.35	1232.88
224.57	1224.69
224.78	1251.31
225.00	1239.02
225.22	1261.55
225.44	1277.93
225.66	1290.22
225.88	1292.27
226.10	1275.88
226.32	1331.18
226.53	1259.50
226.75	1298.41
226.97	1290.22
227.19	1292.27
227.41	1216.49
227.63	1306.60
227.85	1271.79
228.06	1253.36
228.28	1343.47
228.50	1314.80
228.72	1290.22
228.94	1265.64
229.16	1298.41
229.37	1222.64
229.59	1245.16
229.81	1279.98
230.03	1265.64
230.25	1255.40
230.47	1261.55
230.69	1232.88
230.90	1224.69
231.12	1304.56
231.34	1298.41
231.56	1232.88
231.78	1216.49
232.00	1292.27
232.21	1261.55
232.43	1236.97
232.65	1288.17
232.87	1269.74
233.09	1312.75
233.30	1257.45
233.52	1210.35
233.74	1265.64
233.96	1267.69
234.18	1273.84
234.40	1304.56
234.61	1327.08
234.83	1316.84
235.05	1292.27
235.27	1267.69
235.49	1259.50
235.70	1253.36
235.92	1214.45
236.14	1269.74
236.36	1261.55
236.58	1271.79
236.79	1269.74
237.01	1314.80
237.23	1228.78
237.45	1310.70
237.67	1236.97
237.88	1292.27
238.10	1279.98
238.32	1282.03
238.54	1368.04
238.76	1224.69
238.97	1357.80
239.19	1269.74
239.41	1212.40
239.63	1298.41
239.85	1232.88
240.06	1247.21
240.28	1179.63
240.50	1247.21
240.72	1220.59
240.93	1251.31
241.15	1261.55
241.37	1290.22
241.59	1359.85
241.81	1286.12
242.02	1210.35
242.24	1269.74
242.46	1275.88
242.68	1253.36
242.89	1337.32
243.11	1234.93
243.33	1228.78
243.55	1253.36
243.76	1308.65
243.98	1286.12
244.20	1230.83
244.42	1359.85
244.64	1302.51
244.85	1226.73
245.07	1253.36
245.29	1249.26
245.51	1294.32
245.72	1271.79
245.94	1245.16
246.16	1271.79
246.38	1304.56
246.59	1263.60
246.81	1236.97
247.03	1243.12
247.24	1208.30
247.46	1255.40
247.68	1329.13
247.90	1249.26
248.11	1253.36
248.33	1275.88
248.55	1312.75
248.77	1284.08
248.98	1322.99
249.20	1265.64
249.42	1327.08
249.64	1292.27
249.85	1294.32
250.07	1216.49
250.29	1275.88
250.50	1261.55
250.72	1232.88
250.94	1196.01
251.16	1279.98
251.37	1290.22
251.59	1271.79
251.81	1232.88
252.02	1314.80
252.24	1292.27
252.46	1271.79
252.68	1253.36
252.89	1267.69
253.11	1306.60
253.33	1243.12
253.54	1245.16
253.76	1282.03
253.98	1284.08
254.20	1277.93
254.41	1267.69
254.63	1271.79
254.85	1234.93
255.06	1212.40
255.28	1265.64
255.50	1230.83
255.71	1198.06
255.93	1288.17
256.15	1310.70
256.36	1185.77
256.58	1255.40
256.80	1314.80
257.02	1298.41
257.23	1269.74
257.45	1282.03
257.67	1306.60
257.88	1296.36
258.10	1214.45
258.32	1277.93
258.53	1288.17
258.75	1236.97
258.97	1333.23
259.18	1294.32
259.40	1322.99
259.62	1224.69
259.83	1298.41
260.05	1202.16
260.27	1286.12
260.48	1236.97
260.70	1220.59
260.92	1200.11
261.13	1298.41
261.35	1249.26
261.57	1310.70
261.78	1353.71
262.00	1267.69
262.22	1212.40
262.43	1232.88
262.65	1298.41
262.86	1296.36
263.08	1243.12
263.30	1273.84
263.51	1220.59
263.73	1355.76
263.95	1247.21
264.16	1298.41
264.38	1320.94
264.60	1263.60
264.81	1218.54
265.03	1300.46
265.25	1245.16
265.46	1271.79
265.68	1243.12
265.89	1277.93
266.11	1200.11
266.33	1200.11
266.54	1277.93
266.76	1220.59
266.98	1220.59
267.19	1253.36
267.41	1273.84
267.62	1310.70
267.84	1257.45
268.06	1263.60
268.27	1327.08
268.49	1169.39
268.70	1220.59
268.92	1263.60
269.14	1210.35
269.35	1310.70
269.57	1251.31
269.79	1308.65
270.00	1316.84
270.22	1251.31
270.43	1296.36
270.65	1284.08
270.87	1308.65
271.08	1210.35
271.30	1257.45
271.51	1335.28
271.73	1236.97
271.95	1296.36
272.16	1275.88
272.38	1263.60
272.59	1218.54
272.81	1239.02
273.02	1277.93
273.24	1277.93
273.46	1318.89
273.67	1259.50
273.89	1148.91
274.10	1204.21
274.32	1245.16
274.54	1263.60
274.75	1243.12
274.97	1304.56
275.18	1259.50
275.40	1275.88
275.61	1304.56
275.83	1294.32
276.05	1204.21
276.26	1273.84
276.48	1271.79
276.69	1245.16
276.91	1292.27
277.12	1222.64
277.34	1245.16
277.55	1241.07
277.77	1300.46
277.99	1206.25
278.20	1189.87
278.42	1298.41
278.63	1259.50
278.85	1284.08
279.06	1259.50
279.28	1230.83
279.49	1245.16
279.71	1277.93
279.93	1306.60
280.14	1230.83
280.36	1308.65
280.57	1263.60
280.79	1228.78
281.00	1253.36
281.22	1273.84
281.43	1226.73
281.65	1236.97
281.86	1251.31
282.08	1157.10
282.29	1245.16
282.51	1222.64
282.73	1273.84
282.94	1208.30
283.16	1269.74
283.37	1306.60
283.59	1277.93
283.80	1206.25
284.02	1241.07
284.23	1263.60
284.45	1208.30
284.66	1181.68
284.88	1204.21
285.09	1261.55
285.31	1279.98
285.52	1239.02
285.74	1163.25
285.95	1239.02
286.17	1304.56
286.38	1257.45
286.60	1306.60
286.81	1234.93
287.03	1310.70
287.24	1222.64
287.46	1306.60
287.67	1202.16
287.89	1296.36
288.10	1239.02
288.32	1218.54
288.53	1298.41
288.75	1243.12
288.96	1247.21
289.18	1239.02
289.39	1222.64
289.61	1296.36
289.82	1279.98
290.04	1275.88
290.25	1363.95
290.47	1253.36
290.68	1288.17
290.90	1312.75
291.11	1327.08
291.33	1304.56
291.54	1253.36
291.76	1300.46
291.97	1310.70
292.18	1253.36
292.40	1257.45
292.61	1212.40
292.83	1318.89
293.04	1241.07
293.26	1265.64
293.47	1355.76
293.69	1275.88
293.90	1325.04
294.12	1320.94
294.33	1234.93
294.55	1339.37
294.76	1275.88
294.97	1308.65
295.19	1331.18
295.40	1320.94
295.62	1290.22
295.83	1306.60
296.05	1251.31
296.26	1243.12
296.48	1331.18
296.69	1204.21
296.90	1249.26
297.12	1271.79
297.33	1308.65
297.55	1267.69
297.76	1370.09
297.98	1339.37
298.19	1261.55
298.41	1294.32
298.62	1286.12
298.83	1216.49
299.05	1302.51
299.26	1298.41
299.48	1269.74
299.69	1296.36
299.90	1292.27
300.12	1249.26
300.33	1349.61
300.55	1210.35
300.76	1267.69
300.98	1230.83
301.19	1267.69
301.40	1251.31
301.62	1288.17
301.83	1191.92
302.05	1239.02
302.26	1288.17
302.47	1353.71
302.69	1284.08
302.90	1228.78
303.12	1247.21
303.33	1378.28
303.54	1144.81
303.76	1259.50
303.97	1251.31
304.19	1251.31
304.40	1298.41
304.61	1224.69
304.83	1341.42
305.04	1271.79
305.26	1251.31
305.47	1232.88
305.68	1265.64
305.90	1255.40
306.11	1249.26
306.33	1214.45
306.54	1247.21
306.75	1304.56
306.97	1191.92
307.18	1308.65
307.39	1298.41
307.61	1251.31
307.82	1290.22
308.04	1257.45
308.25	1306.60
308.46	1257.45
308.68	1273.84
308.89	1279.98
309.10	1257.45
309.32	1206.25
309.53	1243.12
309.74	1261.55
309.96	1226.73
310.17	1279.98
310.39	1308.65
310.60	1245.16
310.81	1282.03
311.03	1316.84
311.24	1241.07
311.45	1253.36
311.67	1202.16
311.88	1292.27
312.09	1294.32
312.31	1247.21
312.52	1269.74
312.73	1318.89
312.95	1308.65
313.16	1271.79
313.37	1366.00
313.59	1288.17
313.80	1298.41
314.01	1363.95
314.23	1218.54
314.44	1335.28
314.65	1165.29
314.87	1249.26
315.08	1224.69
315.29	1245.16
315.51	1236.97
315.72	1216.49
315.93	1234.93
316.15	1232.88
316.36	1255.40
316.57	1318.89
316.79	1236.97
317.00	1273.84
317.21	1306.60
317.43	1226.73
317.64	1316.84
317.85	1259.50
318.07	1247.21
318.28	1247.21
318.49	1257.45
318.70	1236.97
318.92	1263.60
319.13	1267.69
319.34	1241.07
319.56	1216.49
319.77	1196.01
319.98	1255.40
320.20	1284.08
320.41	1298.41
320.62	1308.65
320.83	1300.46
321.05	1249.26
321.26	1298.41
321.47	1257.45
321.69	1261.55
321.90	1306.60
322.11	1279.98
322.32	1220.59
322.54	1169.39
322.75	1269.74
322.96	1337.32
323.18	1196.01
323.39	1230.83
323.60	1239.02
323.81	1243.12
324.03	1249.26
324.24	1294.32
324.45	1243.12
324.66	1288.17
324.88	1314.80
325.09	1318.89
325.30	1269.74
325.52	1267.69
325.73	1304.56
325.94	1302.51
326.15	1284.08
326.37	1335.28
326.58	1230.83
326.79	1183.73
327.00	1259.50
327.22	1245.16
327.43	1318.89
327.64	1257.45
327.85	1253.36
328.07	1269.74
328.28	1304.56
328.49	1259.50
328.70	1294.32
328.92	1327.08
329.13	1234.93
329.34	1241.07
329.55	1234.93
329.76	1208.30
329.98	1232.88
330.19	1298.41
330.40	1232.88
330.61	1318.89
330.83	1322.99
331.04	1249.26
331.25	1204.21
331.46	1253.36
331.68	1230.83
331.89	1222.64
332.10	1222.64
332.31	1257.45
332.52	1257.45
332.74	1304.56
332.95	1302.51
333.16	1239.02
333.37	1245.16
333.58	1286.12
333.80	1257.45
334.01	1286.12
334.22	1300.46
334.43	1292.27
334.64	1347.56
334.86	1224.69
335.07	1351.66
335.28	1277.93
335.49	1267.69
335.70	1290.22
335.92	1216.49
336.13	1314.80
336.34	1279.98
336.55	1232.88
336.76	1327.08
336.98	1282.03
337.19	1220.59
337.40	1243.12
337.61	1298.41
337.82	1304.56
338.04	1368.04
338.25	1292.27
338.46	1261.55
338.67	1288.17
338.88	1333.23
339.09	1279.98
339.31	1296.36
339.52	1327.08
339.73	1282.03
339.94	1282.03
340.15	1351.66
340.36	1306.60
340.58	1249.26
340.79	1286.12
341.00	1290.22
341.21	1251.31
341.42	1314.80
341.63	1241.07
341.85	1232.88
342.06	1251.31
342.27	1306.60
342.48	1292.27
342.69	1314.80
342.90	1249.26
343.12	1288.17
343.33	1236.97
343.54	1322.99
343.75	1257.45
343.96	1200.11
344.17	1224.69
344.38	1290.22
344.60	1224.69
344.81	1241.07
345.02	1236.97
345.23	1288.17
345.44	1296.36
345.65	1286.12
345.86	1224.69
346.07	1216.49
346.29	1320.94
346.50	1226.73
346.71	1286.12
346.92	1298.41
347.13	1220.59
347.34	1257.45
347.55	1249.26
347.76	1273.84
347.98	1249.26
348.19	1310.70
348.40	1196.01
348.61	1243.12
348.82	1310.70
349.03	1320.94
349.24	1292.27
349.45	1257.45
349.66	1228.78
349.88	1265.64
350.09	1304.56
350.30	1224.69
350.51	1249.26
350.72	1345.52
350.93	1271.79
351.14	1265.64
351.35	1290.22
351.56	1269.74
351.77	1216.49
351.99	1255.40
352.20	1249.26
352.41	1257.45
352.62	1255.40
352.83	1234.93
353.04	1275.88
353.25	1296.36
353.46	1294.32
353.67	1269.74
353.88	1290.22
354.09	1300.46
354.30	1318.89
354.52	1292.27
354.73	1212.40
354.94	1290.22
355.15	1279.98
355.36	1245.16
355.57	1290.22
355.78	1243.12
355.99	1363.95
356.20	1267.69
356.41	1257.45
356.62	1263.60
356.83	1300.46
357.04	1236.97
357.25	1288.17
357.46	1292.27
357.68	1228.78
357.89	1349.61
358.10	1271.79
358.31	1294.32
358.52	1253.36
358.73	1220.59
358.94	1202.16
359.15	1267.69
359.36	1304.56
359.57	1277.93
359.78	1300.46
359.99	1257.45
360.20	1243.12
360.41	1251.31
360.62	1292.27
360.83	1275.88
361.04	1271.79
361.25	1310.70
361.46	1329.13
361.67	1245.16
361.88	1185.77
362.09	1241.07
362.30	1249.26
362.51	1261.55
362.72	1290.22
362.93	1322.99
363.14	1306.60
363.35	1279.98
363.56	1247.21
363.78	1251.31
363.99	1306.60
364.20	1243.12
364.41	1222.64
364.62	1224.69
364.83	1288.17
365.04	1300.46
365.25	1222.64
365.46	1284.08
365.67	1300.46
365.88	1279.98
366.09	1247.21
366.30	1259.50
366.51	1318.89
366.72	1255.40
366.93	1273.84
367.14	1214.45
367.35	1318.89
367.56	1204.21
367.77	1224.69
367.98	1259.50
368.18	1325.04
368.39	1241.07
368.60	1226.73
368.81	1187.82
369.02	1290.22
369.23	1294.32
369.44	1273.84
369.65	1255.40
369.86	1259.50
370.07	1245.16
370.28	1312.75
370.49	1210.35
370.70	1253.36
370.91	1255.40
371.12	1282.03
371.33	1234.93
371.54	1198.06
371.75	1322.99
371.96	1253.36
372.17	1290.22
372.38	1247.21
372.59	1306.60
372.80	1345.52
373.01	1243.12
373.22	1302.51
373.43	1234.93
373.64	1226.73
373.85	1269.74
374.06	1249.26
374.26	1271.79
374.47	1226.73
374.68	1177.58
374.89	1257.45
375.10	1269.74
375.31	1263.60
375.52	1228.78
375.73	1282.03
375.94	1212.40
376.15	1288.17
376.36	1265.64
376.57	1277.93
376.78	1230.83
376.99	1263.60
377.20	1322.99
377.40	1318.89
377.61	1300.46
377.82	1290.22
378.03	1226.73
378.24	1208.30
378.45	1251.31
378.66	1275.88
378.87	1288.17
379.08	1273.84
379.29	1296.36
379.50	1277.93
379.71	1263.60
379.91	1214.45
380.12	1282.03
380.33	1320.94
380.54	1226.73
380.75	1216.49
380.96	1214.45
381.17	1196.01
381.38	1247.21
381.59	1279.98
381.80	1253.36
382.00	1288.17
382.21	1259.50
382.42	1290.22
382.63	1245.16
382.84	1234.93
383.05	1241.07
383.26	1249.26
383.47	1284.08
383.68	1282.03
383.88	1327.08
384.09	1241.07
384.30	1286.12
384.51	1298.41
384.72	1261.55
384.93	1204.21
385.14	1284.08
385.35	1290.22
385.55	1232.88
385.76	1308.65
385.97	1234.93
386.18	1292.27
386.39	1265.64
386.60	1286.12
386.81	1257.45
387.02	1261.55
387.22	1259.50
387.43	1251.31
387.64	1286.12
387.85	1292.27
388.06	1263.60
388.27	1271.79
388.48	1228.78
388.68	1355.76
388.89	1308.65
389.10	1343.47
389.31	1290.22
389.52	1230.83
389.73	1255.40
389.93	1286.12
390.14	1259.50
390.35	1288.17
390.56	1286.12
390.77	1310.70
390.98	1226.73
391.18	1263.60
391.39	1249.26
391.60	1239.02
391.81	1261.55
392.02	1298.41
392.23	1327.08
392.43	1243.12
392.64	1259.50
392.85	1257.45
393.06	1183.73
393.27	1300.46
393.47	1271.79
393.68	1275.88
393.89	1224.69
394.10	1279.98
394.31	1247.21
394.52	1329.13
394.72	1239.02
394.93	1355.76
395.14	1204.21
395.35	1273.84
395.56	1269.74
395.76	1265.64
395.97	1306.60
396.18	1236.97
396.39	1230.83
396.60	1312.75
396.80	1245.16
397.01	1267.69
397.22	1265.64
397.43	1216.49
397.64	1230.83
397.84	1255.40
398.05	1245.16
398.26	1245.16
398.47	1210.35
398.67	1200.11
398.88	1191.92
399.09	1343.47
399.30	1310.70
399.51	1290.22
399.71	1298.41
399.92	1277.93
400.13	1267.69
400.34	1222.64
400.54	1269.74
400.75	1257.45
400.96	1239.02
401.17	1271.79
401.37	1257.45
401.58	1196.01
401.79	1210.35
402.00	1325.04
402.21	1216.49
402.41	1193.97
402.62	1226.73
402.83	1275.88
403.04	1318.89
403.24	1224.69
403.45	1269.74
403.66	1306.60
403.87	1255.40
404.07	1331.18
404.28	1259.50
404.49	1265.64
404.70	1286.12
404.90	1267.69
405.11	1290.22
405.32	1325.04
405.52	1234.93
405.73	1284.08
405.94	1224.69
406.15	1204.21
406.35	1290.22
406.56	1245.16
406.77	1196.01
406.98	1298.41
407.18	1298.41
407.39	1257.45
407.60	1200.11
407.80	1255.40
408.01	1275.88
408.22	1243.12
408.43	1333.23
408.63	1249.26
408.84	1208.30
409.05	1259.50
409.25	1300.46
409.46	1337.32
409.67	1312.75
409.88	1271.79
410.08	1318.89
410.29	1265.64
410.50	1275.88
410.70	1265.64
410.91	1322.99
411.12	1253.36
411.32	1290.22
411.53	1263.60
411.74	1314.80
411.95	1279.98
412.15	1312.75
412.36	1265.64
412.57	1273.84
412.77	1296.36
412.98	1255.40
413.19	1265.64
413.39	1232.88
413.60	1370.09
413.81	1163.25
414.01	1290.22
414.22	1249.26
414.43	1306.60
414.63	1239.02
414.84	1273.84
415.05	1288.17
415.25	1296.36
415.46	1269.74
415.67	1341.42
415.87	1253.36
416.08	1257.45
416.29	1255.40
416.49	1239.02
416.70	1253.36
416.91	1294.32
417.11	1288.17
417.32	1296.36
417.53	1282.03
417.73	1271.79
417.94	1253.36
418.15	1292.27
418.35	1236.97
418.56	1175.53
418.77	1314.80
418.97	1241.07
419.18	1275.88
419.38	1294.32
419.59	1320.94
419.80	1310.70
420.00	1290.22
420.21	1296.36
420.42	1284.08
420.62	1304.56
420.83	1300.46
421.04	1261.55
421.24	1302.51
421.45	1165.29
421.65	1269.74
421.86	1251.31
422.07	1275.88
422.27	1339.37
422.48	1263.60
422.69	1271.79
422.89	1318.89
423.10	1265.64
423.30	1253.36
423.51	1159.15
423.72	1224.69
423.92	1302.51
424.13	1220.59
424.33	1247.21
424.54	1312.75
424.75	1208.30
424.95	1261.55
425.16	1249.26
425.36	1200.11
425.57	1320.94
425.78	1312.75
425.98	1322.99
426.19	1288.17
426.39	1312.75
426.60	1263.60
426.81	1318.89
427.01	1292.27
427.22	1257.45
427.42	1261.55
427.63	1255.40
427.83	1286.12
428.04	1224.69
428.25	1308.65
428.45	1249.26
428.66	1245.16
428.86	1200.11
429.07	1257.45
429.28	1279.98
429.48	1243.12
429.69	1327.08
429.89	1271.79
430.10	1259.50
430.30	1308.65
430.51	1257.45
430.71	1253.36
430.92	1218.54
431.13	1222.64
431.33	1234.93
431.54	1337.32
431.74	1370.09
431.95	1267.69
432.15	1241.07
432.36	1300.46
432.56	1384.43
432.77	1327.08
432.98	1308.65
433.18	1251.31
433.39	1277.93
433.59	1259.50
433.80	1251.31
434.00	1277.93
434.21	1265.64
434.41	1316.84
434.62	1284.08
434.82	1243.12
435.03	1267.69
435.23	1255.40
435.44	1212.40
435.64	1224.69
435.85	1290.22
436.06	1318.89
436.26	1357.80
436.47	1218.54
436.67	1245.16
436.88	1247.21
437.08	1241.07
437.29	1279.98
437.49	1271.79
437.70	1351.66
437.90	1322.99
438.11	1302.51
438.31	1304.56
438.52	1269.74
438.72	1271.79
438.93	1247.21
439.13	1329.13
439.34	1257.45
439.54	1337.32
439.75	1314.80
439.95	1314.80
440.16	1374.19
440.36	1253.36
440.57	1298.41
440.77	1261.55
440.98	1249.26
441.18	1279.98
441.39	1228.78
441.59	1300.46
441.80	1249.26
442.00	1298.41
442.21	1255.40
442.41	1269.74
442.62	1306.60
442.82	1232.88
443.02	1284.08
443.23	1267.69
443.43	1249.26
443.64	1269.74
443.84	1265.64
444.05	1249.26
444.25	1271.79
444.46	1241.07
444.66	1286.12
444.87	1310.70
445.07	1206.25
445.28	1247.21
445.48	1282.03
445.69	1363.95
445.89	1265.64
446.09	1189.87
446.30	1292.27
446.50	1247.21
446.71	1308.65
446.91	1214.45
447.12	1247.21
447.32	1339.37
447.53	1269.74
447.73	1300.46
447.93	1286.12
448.14	1318.89
448.34	1269.74
448.55	1322.99
448.75	1267.69
448.96	1331.18
449.16	1273.84
449.36	1230.83
449.57	1224.69
449.77	1314.80
449.98	1292.27
450.18	1329.13
450.39	1212.40
450.59	1208.30
450.79	1282.03
451.00	1302.51
451.20	1206.25
451.41	1273.84
451.61	1304.56
451.81	1286.12
452.02	1255.40
452.22	1218.54
452.43	1251.31
452.63	1269.74
