SpectraSuite Data File
++++++++++++++++++++++++++++++++++++
Date: Sun Apr 03 19:55:19 CEST 2016
User: root
Dark Spectrum Present: No
Reference Spectrum Present: No
Number of Sampled Component Spectra: 1
Spectrometers: USB4C02835
Integration Time (usec): 10000 (USB4C02835)
Spectra Averaged: 1 (USB4C02835)
Boxcar Smoothing: 0 (USB4C02835)
Correct for Electrical Dark: No (USB4C02835)
Strobe/Lamp Enabled: No (USB4C02835)
Correct for Detector Non-linearity: No (USB4C02835)
Correct for Stray Light: No (USB4C02835)
Number of Pixels in Processed Spectrum: 3648
>>>>>Begin Processed Spectral Data<<<<<
177.47	1296.36
177.69	1296.36
177.91	1296.36
178.13	1249.26
178.36	1294.32
178.58	1366.00
178.80	1253.36
179.02	1316.84
179.24	1298.41
179.46	1275.88
179.68	1247.21
179.90	1300.46
180.13	1189.87
180.35	1331.18
180.57	1294.32
180.79	1275.88
181.01	1282.03
181.23	1265.64
181.45	1249.26
181.67	1249.26
181.90	1239.02
182.12	1245.16
182.34	1318.89
182.56	1241.07
182.78	1306.60
183.00	1275.88
183.22	1314.80
183.44	1243.12
183.66	1290.22
183.89	1282.03
184.11	1290.22
184.33	1187.82
184.55	1253.36
184.77	1306.60
184.99	1234.93
185.21	1255.40
185.43	1257.45
185.65	1308.65
185.87	1228.78
186.10	1259.50
186.32	1286.12
186.54	1257.45
186.76	1288.17
186.98	1306.60
187.20	1294.32
187.42	1331.18
187.64	1368.04
187.86	1243.12
188.08	1271.79
188.30	1255.40
188.52	1232.88
188.75	1337.32
188.97	1257.45
189.19	1220.59
189.41	1196.01
189.63	1255.40
189.85	1284.08
190.07	1267.69
190.29	1265.64
190.51	1224.69
190.73	1216.49
190.95	1265.64
191.17	1267.69
191.39	1210.35
191.61	1273.84
191.84	1267.69
192.06	1290.22
192.28	1308.65
192.50	1314.80
192.72	1306.60
192.94	1304.56
193.16	1277.93
193.38	1329.13
193.60	1220.59
193.82	1253.36
194.04	1298.41
194.26	1284.08
194.48	1261.55
194.70	1230.83
194.92	1257.45
195.14	1228.78
195.36	1257.45
195.58	1273.84
195.80	1247.21
196.02	1310.70
196.24	1282.03
196.46	1290.22
196.69	1208.30
196.91	1269.74
197.13	1265.64
197.35	1243.12
197.57	1300.46
197.79	1208.30
198.01	1198.06
198.23	1308.65
198.45	1269.74
198.67	1290.22
198.89	1265.64
199.11	1298.41
199.33	1279.98
199.55	1243.12
199.77	1286.12
199.99	1298.41
200.21	1302.51
200.43	1298.41
200.65	1263.60
200.87	1234.93
201.09	1288.17
201.31	1296.36
201.53	1173.49
201.75	1220.59
201.97	1261.55
202.19	1245.16
202.41	1263.60
202.63	1220.59
202.85	1241.07
203.07	1253.36
203.29	1245.16
203.51	1228.78
203.73	1296.36
203.95	1296.36
204.17	1226.73
204.39	1271.79
204.61	1234.93
204.83	1316.84
205.05	1279.98
205.27	1273.84
205.49	1245.16
205.71	1265.64
205.93	1286.12
206.15	1220.59
206.37	1269.74
206.59	1267.69
206.81	1290.22
207.03	1302.51
207.25	1284.08
207.47	1353.71
207.69	1290.22
207.91	1316.84
208.13	1263.60
208.34	1259.50
208.56	1296.36
208.78	1288.17
209.00	1267.69
209.22	1286.12
209.44	1241.07
209.66	1322.99
209.88	1220.59
210.10	1175.53
210.32	1183.73
210.54	1279.98
210.76	1243.12
210.98	1314.80
211.20	1216.49
211.42	1306.60
211.64	1218.54
211.86	1290.22
212.08	1298.41
212.30	1286.12
212.52	1325.04
212.74	1325.04
212.96	1236.97
213.17	1251.31
213.39	1222.64
213.61	1284.08
213.83	1318.89
214.05	1216.49
214.27	1355.76
214.49	1275.88
214.71	1335.28
214.93	1267.69
215.15	1376.24
215.37	1263.60
215.59	1267.69
215.81	1224.69
216.03	1284.08
216.24	1224.69
216.46	1210.35
216.68	1302.51
216.90	1177.58
217.12	1236.97
217.34	1304.56
217.56	1247.21
217.78	1245.16
218.00	1239.02
218.22	1265.64
218.44	1259.50
218.66	1222.64
218.87	1331.18
219.09	1300.46
219.31	1277.93
219.53	1220.59
219.75	1253.36
219.97	1247.21
220.19	1263.60
220.41	1275.88
220.63	1304.56
220.85	1277.93
221.06	1224.69
221.28	1253.36
221.50	1286.12
221.72	1298.41
221.94	1282.03
222.16	1265.64
222.38	1255.40
222.60	1220.59
222.82	1298.41
223.03	1318.89
223.25	1263.60
223.47	1234.93
223.69	1255.40
223.91	1322.99
224.13	1271.79
224.35	1288.17
224.57	1257.45
224.78	1275.88
225.00	1263.60
225.22	1355.76
225.44	1263.60
225.66	1245.16
225.88	1224.69
226.10	1261.55
226.32	1261.55
226.53	1239.02
226.75	1271.79
226.97	1247.21
227.19	1304.56
227.41	1245.16
227.63	1312.75
227.85	1200.11
228.06	1269.74
228.28	1263.60
228.50	1296.36
228.72	1277.93
228.94	1253.36
229.16	1232.88
229.37	1267.69
229.59	1210.35
229.81	1220.59
230.03	1261.55
230.25	1222.64
230.47	1224.69
230.69	1308.65
230.90	1220.59
231.12	1239.02
231.34	1316.84
231.56	1265.64
231.78	1253.36
232.00	1349.61
232.21	1257.45
232.43	1359.85
232.65	1339.37
232.87	1286.12
233.09	1265.64
233.30	1222.64
233.52	1263.60
233.74	1288.17
233.96	1316.84
234.18	1273.84
234.40	1275.88
234.61	1277.93
234.83	1294.32
235.05	1255.40
235.27	1279.98
235.49	1284.08
235.70	1255.40
235.92	1294.32
236.14	1267.69
236.36	1232.88
236.58	1206.25
236.79	1322.99
237.01	1216.49
237.23	1314.80
237.45	1286.12
237.67	1216.49
237.88	1304.56
238.10	1220.59
238.32	1275.88
238.54	1273.84
238.76	1249.26
238.97	1320.94
239.19	1247.21
239.41	1312.75
239.63	1282.03
239.85	1308.65
240.06	1259.50
240.28	1212.40
240.50	1206.25
240.72	1273.84
240.93	1218.54
241.15	1331.18
241.37	1179.63
241.59	1284.08
241.81	1279.98
242.02	1298.41
242.24	1318.89
242.46	1263.60
242.68	1224.69
242.89	1286.12
243.11	1282.03
243.33	1286.12
243.55	1232.88
243.76	1286.12
243.98	1294.32
244.20	1292.27
244.42	1275.88
244.64	1245.16
244.85	1185.77
245.07	1329.13
245.29	1187.82
245.51	1308.65
245.72	1292.27
245.94	1345.52
246.16	1277.93
246.38	1294.32
246.59	1202.16
246.81	1232.88
247.03	1277.93
247.24	1255.40
247.46	1220.59
247.68	1292.27
247.90	1257.45
248.11	1306.60
248.33	1374.19
248.55	1329.13
248.77	1253.36
248.98	1304.56
249.20	1277.93
249.42	1247.21
249.64	1265.64
249.85	1345.52
250.07	1267.69
250.29	1290.22
250.50	1271.79
250.72	1255.40
250.94	1257.45
251.16	1255.40
251.37	1294.32
251.59	1206.25
251.81	1263.60
252.02	1331.18
252.24	1273.84
252.46	1206.25
252.68	1218.54
252.89	1214.45
253.11	1218.54
253.33	1277.93
253.54	1282.03
253.76	1196.01
253.98	1249.26
254.20	1245.16
254.41	1247.21
254.63	1282.03
254.85	1253.36
255.06	1312.75
255.28	1269.74
255.50	1298.41
255.71	1257.45
255.93	1275.88
256.15	1230.83
256.36	1265.64
256.58	1196.01
256.80	1292.27
257.02	1193.97
257.23	1316.84
257.45	1296.36
257.67	1263.60
257.88	1257.45
258.10	1279.98
258.32	1208.30
258.53	1214.45
258.75	1275.88
258.97	1322.99
259.18	1269.74
259.40	1263.60
259.62	1275.88
259.83	1200.11
260.05	1245.16
260.27	1282.03
260.48	1265.64
260.70	1257.45
260.92	1331.18
261.13	1282.03
261.35	1310.70
261.57	1247.21
261.78	1253.36
262.00	1279.98
262.22	1226.73
262.43	1214.45
262.65	1286.12
262.86	1261.55
263.08	1310.70
263.30	1257.45
263.51	1329.13
263.73	1284.08
263.95	1214.45
264.16	1265.64
264.38	1245.16
264.60	1298.41
264.81	1263.60
265.03	1279.98
265.25	1331.18
265.46	1236.97
265.68	1310.70
265.89	1245.16
266.11	1298.41
266.33	1320.94
266.54	1290.22
266.76	1318.89
266.98	1232.88
267.19	1269.74
267.41	1302.51
267.62	1275.88
267.84	1292.27
268.06	1312.75
268.27	1271.79
268.49	1222.64
268.70	1286.12
268.92	1310.70
269.14	1222.64
269.35	1286.12
269.57	1251.31
269.79	1314.80
270.00	1230.83
270.22	1241.07
270.43	1220.59
270.65	1204.21
270.87	1347.56
271.08	1261.55
271.30	1269.74
271.51	1294.32
271.73	1306.60
271.95	1314.80
272.16	1222.64
272.38	1296.36
272.59	1282.03
272.81	1298.41
273.02	1208.30
273.24	1189.87
273.46	1273.84
273.67	1243.12
273.89	1310.70
274.10	1273.84
274.32	1210.35
274.54	1267.69
274.75	1284.08
274.97	1241.07
275.18	1269.74
275.40	1308.65
275.61	1282.03
275.83	1282.03
276.05	1228.78
276.26	1333.23
276.48	1247.21
276.69	1316.84
276.91	1298.41
277.12	1230.83
277.34	1296.36
277.55	1214.45
277.77	1306.60
277.99	1306.60
278.20	1208.30
278.42	1286.12
278.63	1314.80
278.85	1292.27
279.06	1257.45
279.28	1304.56
279.49	1271.79
279.71	1271.79
279.93	1261.55
280.14	1196.01
280.36	1298.41
280.57	1265.64
280.79	1294.32
281.00	1259.50
281.22	1232.88
281.43	1288.17
281.65	1243.12
281.86	1134.57
282.08	1290.22
282.29	1310.70
282.51	1216.49
282.73	1318.89
282.94	1245.16
283.16	1341.42
283.37	1236.97
283.59	1271.79
283.80	1257.45
284.02	1339.37
284.23	1267.69
284.45	1269.74
284.66	1302.51
284.88	1284.08
285.09	1279.98
285.31	1302.51
285.52	1257.45
285.74	1177.58
285.95	1290.22
286.17	1255.40
286.38	1259.50
286.60	1251.31
286.81	1290.22
287.03	1284.08
287.24	1243.12
287.46	1232.88
287.67	1298.41
287.89	1320.94
288.10	1179.63
288.32	1312.75
288.53	1228.78
288.75	1306.60
288.96	1216.49
289.18	1230.83
289.39	1224.69
289.61	1234.93
289.82	1296.36
290.04	1179.63
290.25	1247.21
290.47	1341.42
290.68	1257.45
290.90	1355.76
291.11	1241.07
291.33	1261.55
291.54	1277.93
291.76	1263.60
291.97	1355.76
292.18	1318.89
292.40	1314.80
292.61	1212.40
292.83	1267.69
293.04	1300.46
293.26	1257.45
293.47	1302.51
293.69	1230.83
293.90	1277.93
294.12	1251.31
294.33	1251.31
294.55	1269.74
294.76	1288.17
294.97	1208.30
295.19	1327.08
295.40	1216.49
295.62	1284.08
295.83	1204.21
296.05	1243.12
296.26	1320.94
296.48	1347.56
296.69	1296.36
296.90	1271.79
297.12	1216.49
297.33	1290.22
297.55	1253.36
297.76	1261.55
297.98	1320.94
298.19	1296.36
298.41	1304.56
298.62	1222.64
298.83	1243.12
299.05	1230.83
299.26	1214.45
299.48	1187.82
299.69	1216.49
299.90	1265.64
300.12	1273.84
300.33	1261.55
300.55	1247.21
300.76	1314.80
300.98	1394.67
301.19	1255.40
301.40	1296.36
301.62	1257.45
301.83	1290.22
302.05	1269.74
302.26	1310.70
302.47	1226.73
302.69	1294.32
302.90	1253.36
303.12	1302.51
303.33	1290.22
303.54	1341.42
303.76	1265.64
303.97	1279.98
304.19	1193.97
304.40	1279.98
304.61	1230.83
304.83	1296.36
305.04	1339.37
305.26	1310.70
305.47	1234.93
305.68	1277.93
305.90	1310.70
306.11	1271.79
306.33	1290.22
306.54	1193.97
306.75	1282.03
306.97	1224.69
307.18	1333.23
307.39	1302.51
307.61	1357.80
307.82	1251.31
308.04	1257.45
308.25	1325.04
308.46	1257.45
308.68	1294.32
308.89	1257.45
309.10	1271.79
309.32	1263.60
309.53	1261.55
309.74	1253.36
309.96	1277.93
310.17	1277.93
310.39	1277.93
310.60	1232.88
310.81	1249.26
311.03	1212.40
311.24	1259.50
311.45	1214.45
311.67	1292.27
311.88	1288.17
312.09	1337.32
312.31	1241.07
312.52	1245.16
312.73	1232.88
312.95	1265.64
313.16	1230.83
313.37	1292.27
313.59	1200.11
313.80	1259.50
314.01	1271.79
314.23	1271.79
314.44	1222.64
314.65	1228.78
314.87	1253.36
315.08	1271.79
315.29	1245.16
315.51	1355.76
315.72	1310.70
315.93	1286.12
316.15	1241.07
316.36	1300.46
316.57	1259.50
316.79	1275.88
317.00	1216.49
317.21	1312.75
317.43	1261.55
317.64	1243.12
317.85	1243.12
318.07	1222.64
318.28	1241.07
318.49	1177.58
318.70	1284.08
318.92	1292.27
319.13	1261.55
319.34	1335.28
319.56	1290.22
319.77	1290.22
319.98	1286.12
320.20	1245.16
320.41	1208.30
320.62	1259.50
320.83	1224.69
321.05	1357.80
321.26	1290.22
321.47	1228.78
321.69	1298.41
321.90	1171.44
322.11	1222.64
322.32	1214.45
322.54	1232.88
322.75	1230.83
322.96	1318.89
323.18	1337.32
323.39	1284.08
323.60	1228.78
323.81	1298.41
324.03	1343.47
324.24	1273.84
324.45	1212.40
324.66	1282.03
324.88	1341.42
325.09	1259.50
325.30	1284.08
325.52	1288.17
325.73	1239.02
325.94	1267.69
326.15	1271.79
326.37	1230.83
326.58	1290.22
326.79	1265.64
327.00	1253.36
327.22	1222.64
327.43	1255.40
327.64	1220.59
327.85	1269.74
328.07	1267.69
328.28	1318.89
328.49	1325.04
328.70	1212.40
328.92	1267.69
329.13	1179.63
329.34	1216.49
329.55	1329.13
329.76	1222.64
329.98	1263.60
330.19	1298.41
330.40	1296.36
330.61	1363.95
330.83	1269.74
331.04	1277.93
331.25	1224.69
331.46	1247.21
331.68	1245.16
331.89	1269.74
332.10	1306.60
332.31	1226.73
332.52	1294.32
332.74	1204.21
332.95	1169.39
333.16	1224.69
333.37	1269.74
333.58	1273.84
333.80	1255.40
334.01	1290.22
334.22	1259.50
334.43	1284.08
334.64	1284.08
334.86	1222.64
335.07	1232.88
335.28	1322.99
335.49	1306.60
335.70	1200.11
335.92	1308.65
336.13	1265.64
336.34	1210.35
336.55	1310.70
336.76	1306.60
336.98	1275.88
337.19	1214.45
337.40	1261.55
337.61	1216.49
337.82	1239.02
338.04	1189.87
338.25	1271.79
338.46	1304.56
338.67	1339.37
338.88	1316.84
339.09	1277.93
339.31	1267.69
339.52	1224.69
339.73	1251.31
339.94	1288.17
340.15	1294.32
340.36	1255.40
340.58	1249.26
340.79	1290.22
341.00	1279.98
341.21	1253.36
341.42	1288.17
341.63	1282.03
341.85	1265.64
342.06	1370.09
342.27	1251.31
342.48	1196.01
342.69	1259.50
342.90	1179.63
343.12	1249.26
343.33	1300.46
343.54	1243.12
343.75	1255.40
343.96	1271.79
344.17	1343.47
344.38	1355.76
344.60	1208.30
344.81	1269.74
345.02	1310.70
345.23	1228.78
345.44	1193.97
345.65	1273.84
345.86	1284.08
346.07	1273.84
346.29	1247.21
346.50	1267.69
346.71	1341.42
346.92	1265.64
347.13	1232.88
347.34	1329.13
347.55	1304.56
347.76	1257.45
347.98	1259.50
348.19	1312.75
348.40	1157.10
348.61	1302.51
348.82	1351.66
349.03	1300.46
349.24	1277.93
349.45	1212.40
349.66	1261.55
349.88	1169.39
350.09	1230.83
350.30	1308.65
350.51	1279.98
350.72	1294.32
350.93	1265.64
351.14	1265.64
351.35	1310.70
351.56	1265.64
351.77	1247.21
351.99	1273.84
352.20	1257.45
352.41	1216.49
352.62	1216.49
352.83	1253.36
353.04	1261.55
353.25	1196.01
353.46	1263.60
353.67	1279.98
353.88	1296.36
354.09	1191.92
354.30	1290.22
354.52	1245.16
354.73	1191.92
354.94	1296.36
355.15	1241.07
355.36	1273.84
355.57	1288.17
355.78	1279.98
355.99	1277.93
356.20	1273.84
356.41	1310.70
356.62	1251.31
356.83	1298.41
357.04	1257.45
357.25	1239.02
357.46	1230.83
357.68	1273.84
357.89	1314.80
358.10	1294.32
358.31	1368.04
358.52	1304.56
358.73	1200.11
358.94	1288.17
359.15	1239.02
359.36	1286.12
359.57	1288.17
359.78	1279.98
359.99	1388.52
360.20	1249.26
360.41	1304.56
360.62	1206.25
360.83	1374.19
361.04	1259.50
361.25	1228.78
361.46	1271.79
361.67	1294.32
361.88	1236.97
362.09	1290.22
362.30	1236.97
362.51	1298.41
362.72	1253.36
362.93	1302.51
363.14	1251.31
363.35	1236.97
363.56	1206.25
363.78	1318.89
363.99	1331.18
364.20	1204.21
364.41	1234.93
364.62	1331.18
364.83	1222.64
365.04	1265.64
365.25	1232.88
365.46	1275.88
365.67	1306.60
365.88	1302.51
366.09	1282.03
366.30	1306.60
366.51	1275.88
366.72	1259.50
366.93	1302.51
367.14	1263.60
367.35	1277.93
367.56	1290.22
367.77	1216.49
367.98	1308.65
368.18	1251.31
368.39	1265.64
368.60	1259.50
368.81	1245.16
369.02	1290.22
369.23	1173.49
369.44	1306.60
369.65	1228.78
369.86	1265.64
370.07	1173.49
370.28	1302.51
370.49	1277.93
370.70	1314.80
370.91	1249.26
371.12	1314.80
371.33	1316.84
371.54	1208.30
371.75	1269.74
371.96	1159.15
372.17	1273.84
372.38	1298.41
372.59	1322.99
372.80	1267.69
373.01	1249.26
373.22	1247.21
373.43	1259.50
373.64	1296.36
373.85	1232.88
374.06	1288.17
374.26	1267.69
374.47	1265.64
374.68	1267.69
374.89	1241.07
375.10	1298.41
375.31	1257.45
375.52	1206.25
375.73	1288.17
375.94	1251.31
376.15	1288.17
376.36	1249.26
376.57	1259.50
376.78	1239.02
376.99	1286.12
377.20	1261.55
377.40	1279.98
377.61	1273.84
377.82	1351.66
378.03	1269.74
378.24	1259.50
378.45	1220.59
378.66	1253.36
378.87	1255.40
379.08	1271.79
379.29	1286.12
379.50	1245.16
379.71	1263.60
379.91	1261.55
380.12	1187.82
380.33	1279.98
380.54	1302.51
380.75	1226.73
380.96	1236.97
381.17	1185.77
381.38	1333.23
381.59	1339.37
381.80	1236.97
382.00	1263.60
382.21	1349.61
382.42	1282.03
382.63	1243.12
382.84	1239.02
383.05	1275.88
383.26	1298.41
383.47	1282.03
383.68	1265.64
383.88	1269.74
384.09	1306.60
384.30	1243.12
384.51	1267.69
384.72	1245.16
384.93	1310.70
385.14	1218.54
385.35	1306.60
385.55	1241.07
385.76	1288.17
385.97	1273.84
386.18	1298.41
386.39	1265.64
386.60	1282.03
386.81	1212.40
387.02	1257.45
387.22	1361.90
387.43	1220.59
387.64	1245.16
387.85	1341.42
388.06	1302.51
388.27	1259.50
388.48	1298.41
388.68	1236.97
388.89	1198.06
389.10	1269.74
389.31	1357.80
389.52	1320.94
389.73	1298.41
389.93	1216.49
390.14	1275.88
390.35	1228.78
390.56	1294.32
390.77	1216.49
390.98	1253.36
391.18	1247.21
391.39	1298.41
391.60	1339.37
391.81	1282.03
392.02	1261.55
392.23	1261.55
392.43	1345.52
392.64	1318.89
392.85	1271.79
393.06	1279.98
393.27	1241.07
393.47	1273.84
393.68	1241.07
393.89	1298.41
394.10	1253.36
394.31	1308.65
394.52	1222.64
394.72	1286.12
394.93	1296.36
395.14	1230.83
395.35	1314.80
395.56	1298.41
395.76	1222.64
395.97	1267.69
396.18	1320.94
396.39	1239.02
396.60	1239.02
396.80	1251.31
397.01	1239.02
397.22	1171.44
397.43	1249.26
397.64	1261.55
397.84	1306.60
398.05	1243.12
398.26	1216.49
398.47	1249.26
398.67	1275.88
398.88	1255.40
399.09	1261.55
399.30	1316.84
399.51	1253.36
399.71	1218.54
399.92	1273.84
400.13	1265.64
400.34	1241.07
400.54	1296.36
400.75	1232.88
400.96	1273.84
401.17	1251.31
401.37	1267.69
401.58	1296.36
401.79	1243.12
402.00	1292.27
402.21	1279.98
402.41	1265.64
402.62	1257.45
402.83	1275.88
403.04	1259.50
403.24	1236.97
403.45	1298.41
403.66	1286.12
403.87	1298.41
404.07	1241.07
404.28	1234.93
404.49	1243.12
404.70	1265.64
404.90	1251.31
405.11	1269.74
405.32	1214.45
405.52	1267.69
405.73	1234.93
405.94	1198.06
406.15	1208.30
406.35	1353.71
406.56	1245.16
406.77	1183.73
406.98	1255.40
407.18	1310.70
407.39	1253.36
407.60	1290.22
407.80	1247.21
408.01	1286.12
408.22	1282.03
408.43	1234.93
408.63	1255.40
408.84	1249.26
409.05	1261.55
409.25	1267.69
409.46	1273.84
409.67	1294.32
409.88	1259.50
410.08	1200.11
410.29	1222.64
410.50	1269.74
410.70	1241.07
410.91	1208.30
411.12	1241.07
411.32	1249.26
411.53	1206.25
411.74	1290.22
411.95	1249.26
412.15	1343.47
412.36	1271.79
412.57	1345.52
412.77	1279.98
412.98	1269.74
413.19	1302.51
413.39	1263.60
413.60	1259.50
413.81	1216.49
414.01	1277.93
414.22	1234.93
414.43	1290.22
414.63	1296.36
414.84	1339.37
415.05	1310.70
415.25	1255.40
415.46	1222.64
415.67	1208.30
415.87	1191.92
416.08	1263.60
416.29	1239.02
416.49	1245.16
416.70	1265.64
416.91	1331.18
417.11	1257.45
417.32	1277.93
417.53	1206.25
417.73	1347.56
417.94	1325.04
418.15	1265.64
418.35	1257.45
418.56	1241.07
418.77	1210.35
418.97	1296.36
419.18	1296.36
419.38	1239.02
419.59	1206.25
419.80	1265.64
420.00	1290.22
420.21	1300.46
420.42	1290.22
420.62	1339.37
420.83	1243.12
421.04	1251.31
421.24	1284.08
421.45	1284.08
421.65	1282.03
421.86	1208.30
422.07	1222.64
422.27	1329.13
422.48	1232.88
422.69	1234.93
422.89	1228.78
423.10	1214.45
423.30	1288.17
423.51	1255.40
423.72	1267.69
423.92	1265.64
424.13	1282.03
424.33	1241.07
424.54	1288.17
424.75	1198.06
424.95	1329.13
425.16	1298.41
425.36	1294.32
425.57	1259.50
425.78	1333.23
425.98	1284.08
426.19	1249.26
426.39	1255.40
426.60	1298.41
426.81	1267.69
427.01	1273.84
427.22	1269.74
427.42	1198.06
427.63	1282.03
427.83	1247.21
428.04	1353.71
428.25	1261.55
428.45	1310.70
428.66	1269.74
428.86	1196.01
429.07	1257.45
429.28	1269.74
429.48	1255.40
429.69	1243.12
429.89	1249.26
430.10	1265.64
430.30	1261.55
430.51	1212.40
430.71	1261.55
430.92	1232.88
431.13	1251.31
431.33	1255.40
431.54	1259.50
431.74	1286.12
431.95	1284.08
432.15	1282.03
432.36	1228.78
432.56	1179.63
432.77	1312.75
432.98	1302.51
433.18	1312.75
433.39	1251.31
433.59	1216.49
433.80	1329.13
434.00	1255.40
434.21	1298.41
434.41	1322.99
434.62	1218.54
434.82	1232.88
435.03	1286.12
435.23	1288.17
435.44	1331.18
435.64	1249.26
435.85	1218.54
436.06	1198.06
436.26	1282.03
436.47	1282.03
436.67	1253.36
436.88	1269.74
437.08	1306.60
437.29	1312.75
437.49	1314.80
437.70	1298.41
437.90	1288.17
438.11	1216.49
438.31	1284.08
438.52	1218.54
438.72	1232.88
438.93	1269.74
439.13	1202.16
439.34	1257.45
439.54	1261.55
439.75	1298.41
439.95	1304.56
440.16	1251.31
440.36	1288.17
440.57	1312.75
440.77	1241.07
440.98	1304.56
441.18	1265.64
441.39	1216.49
441.59	1200.11
441.80	1212.40
442.00	1208.30
442.21	1343.47
442.41	1230.83
442.62	1249.26
442.82	1245.16
443.02	1288.17
443.23	1286.12
443.43	1253.36
443.64	1230.83
443.84	1273.84
444.05	1284.08
444.25	1253.36
444.46	1273.84
444.66	1251.31
444.87	1325.04
445.07	1212.40
445.28	1177.58
445.48	1241.07
445.69	1271.79
445.89	1245.16
446.09	1331.18
446.30	1257.45
446.50	1224.69
446.71	1296.36
446.91	1173.49
447.12	1286.12
447.32	1312.75
447.53	1329.13
447.73	1298.41
447.93	1284.08
448.14	1279.98
448.34	1224.69
448.55	1210.35
448.75	1241.07
448.96	1263.60
449.16	1320.94
449.36	1325.04
449.57	1286.12
449.77	1220.59
449.98	1273.84
450.18	1253.36
450.39	1286.12
450.59	1318.89
450.79	1282.03
451.00	1228.78
451.20	1349.61
451.41	1263.60
451.61	1282.03
451.81	1253.36
452.02	1327.08
452.22	1212.40
452.43	1245.16
452.63	1218.54
