SpectraSuite Data File
++++++++++++++++++++++++++++++++++++
Date: Sun Apr 03 19:55:25 CEST 2016
User: root
Dark Spectrum Present: No
Reference Spectrum Present: No
Number of Sampled Component Spectra: 1
Spectrometers: USB4C02835
Integration Time (usec): 10000 (USB4C02835)
Spectra Averaged: 1 (USB4C02835)
Boxcar Smoothing: 0 (USB4C02835)
Correct for Electrical Dark: No (USB4C02835)
Strobe/Lamp Enabled: No (USB4C02835)
Correct for Detector Non-linearity: No (USB4C02835)
Correct for Stray Light: No (USB4C02835)
Number of Pixels in Processed Spectrum: 3648
>>>>>Begin Processed Spectral Data<<<<<
177.47	1300.46
177.69	1300.46
177.91	1300.46
178.13	1247.21
178.36	1273.84
178.58	1257.45
178.80	1275.88
179.02	1208.30
179.24	1269.74
179.46	1265.64
179.68	1243.12
179.90	1224.69
180.13	1232.88
180.35	1196.01
180.57	1265.64
180.79	1232.88
181.01	1304.56
181.23	1247.21
181.45	1292.27
181.67	1236.97
181.90	1312.75
182.12	1232.88
182.34	1308.65
182.56	1327.08
182.78	1325.04
183.00	1322.99
183.22	1265.64
183.44	1261.55
183.66	1343.47
183.89	1296.36
184.11	1296.36
184.33	1306.60
184.55	1232.88
184.77	1269.74
184.99	1273.84
185.21	1296.36
185.43	1296.36
185.65	1241.07
185.87	1300.46
186.10	1226.73
186.32	1288.17
186.54	1335.28
186.76	1255.40
186.98	1222.64
187.20	1222.64
187.42	1216.49
187.64	1255.40
187.86	1218.54
188.08	1263.60
188.30	1308.65
188.52	1214.45
188.75	1288.17
188.97	1200.11
189.19	1261.55
189.41	1255.40
189.63	1247.21
189.85	1322.99
190.07	1208.30
190.29	1316.84
190.51	1245.16
190.73	1269.74
190.95	1249.26
191.17	1236.97
191.39	1216.49
191.61	1249.26
191.84	1226.73
192.06	1251.31
192.28	1275.88
192.50	1245.16
192.72	1320.94
192.94	1224.69
193.16	1245.16
193.38	1277.93
193.60	1263.60
193.82	1279.98
194.04	1261.55
194.26	1286.12
194.48	1277.93
194.70	1243.12
194.92	1193.97
195.14	1193.97
195.36	1322.99
195.58	1290.22
195.80	1286.12
196.02	1300.46
196.24	1286.12
196.46	1267.69
196.69	1310.70
196.91	1306.60
197.13	1275.88
197.35	1286.12
197.57	1216.49
197.79	1292.27
198.01	1263.60
198.23	1245.16
198.45	1273.84
198.67	1271.79
198.89	1290.22
199.11	1273.84
199.33	1216.49
199.55	1191.92
199.77	1218.54
199.99	1273.84
200.21	1253.36
200.43	1302.51
200.65	1339.37
200.87	1167.34
201.09	1290.22
201.31	1263.60
201.53	1251.31
201.75	1312.75
201.97	1267.69
202.19	1228.78
202.41	1234.93
202.63	1273.84
202.85	1236.97
203.07	1245.16
203.29	1302.51
203.51	1341.42
203.73	1218.54
203.95	1239.02
204.17	1288.17
204.39	1296.36
204.61	1265.64
204.83	1214.45
205.05	1255.40
205.27	1284.08
205.49	1314.80
205.71	1261.55
205.93	1288.17
206.15	1259.50
206.37	1230.83
206.59	1236.97
206.81	1218.54
207.03	1251.31
207.25	1249.26
207.47	1286.12
207.69	1265.64
207.91	1187.82
208.13	1318.89
208.34	1271.79
208.56	1284.08
208.78	1206.25
209.00	1255.40
209.22	1290.22
209.44	1265.64
209.66	1206.25
209.88	1290.22
210.10	1245.16
210.32	1198.06
210.54	1241.07
210.76	1230.83
210.98	1222.64
211.20	1322.99
211.42	1286.12
211.64	1282.03
211.86	1279.98
212.08	1267.69
212.30	1243.12
212.52	1275.88
212.74	1271.79
212.96	1245.16
213.17	1277.93
213.39	1239.02
213.61	1279.98
213.83	1306.60
214.05	1275.88
214.27	1247.21
214.49	1312.75
214.71	1247.21
214.93	1263.60
215.15	1261.55
215.37	1208.30
215.59	1257.45
215.81	1247.21
216.03	1204.21
216.24	1366.00
216.46	1275.88
216.68	1247.21
216.90	1269.74
217.12	1177.58
217.34	1257.45
217.56	1296.36
217.78	1269.74
218.00	1232.88
218.22	1325.04
218.44	1271.79
218.66	1372.14
218.87	1267.69
219.09	1210.35
219.31	1292.27
219.53	1236.97
219.75	1193.97
219.97	1320.94
220.19	1247.21
220.41	1288.17
220.63	1222.64
220.85	1239.02
221.06	1239.02
221.28	1269.74
221.50	1167.34
221.72	1337.32
221.94	1216.49
222.16	1224.69
222.38	1347.56
222.60	1296.36
222.82	1249.26
223.03	1308.65
223.25	1255.40
223.47	1269.74
223.69	1288.17
223.91	1259.50
224.13	1290.22
224.35	1144.81
224.57	1263.60
224.78	1335.28
225.00	1257.45
225.22	1288.17
225.44	1329.13
225.66	1294.32
225.88	1284.08
226.10	1302.51
226.32	1279.98
226.53	1290.22
226.75	1296.36
226.97	1327.08
227.19	1243.12
227.41	1318.89
227.63	1259.50
227.85	1249.26
228.06	1212.40
228.28	1255.40
228.50	1292.27
228.72	1251.31
228.94	1253.36
229.16	1327.08
229.37	1302.51
229.59	1271.79
229.81	1308.65
230.03	1273.84
230.25	1212.40
230.47	1286.12
230.69	1298.41
230.90	1302.51
231.12	1214.45
231.34	1249.26
231.56	1282.03
231.78	1271.79
232.00	1304.56
232.21	1251.31
232.43	1275.88
232.65	1230.83
232.87	1275.88
233.09	1310.70
233.30	1267.69
233.52	1269.74
233.74	1257.45
233.96	1224.69
234.18	1275.88
234.40	1329.13
234.61	1261.55
234.83	1261.55
235.05	1314.80
235.27	1304.56
235.49	1333.23
235.70	1271.79
235.92	1251.31
236.14	1253.36
236.36	1296.36
236.58	1241.07
236.79	1298.41
237.01	1247.21
237.23	1322.99
237.45	1318.89
237.67	1255.40
237.88	1310.70
238.10	1275.88
238.32	1271.79
238.54	1277.93
238.76	1263.60
238.97	1271.79
239.19	1196.01
239.41	1292.27
239.63	1230.83
239.85	1273.84
240.06	1279.98
240.28	1239.02
240.50	1271.79
240.72	1353.71
240.93	1261.55
241.15	1288.17
241.37	1247.21
241.59	1282.03
241.81	1312.75
242.02	1337.32
242.24	1298.41
242.46	1271.79
242.68	1292.27
242.89	1284.08
243.11	1279.98
243.33	1263.60
243.55	1331.18
243.76	1308.65
243.98	1232.88
244.20	1325.04
244.42	1292.27
244.64	1271.79
244.85	1275.88
245.07	1282.03
245.29	1327.08
245.51	1339.37
245.72	1279.98
245.94	1245.16
246.16	1341.42
246.38	1204.21
246.59	1230.83
246.81	1279.98
247.03	1224.69
247.24	1265.64
247.46	1306.60
247.68	1306.60
247.90	1224.69
248.11	1312.75
248.33	1243.12
248.55	1269.74
248.77	1302.51
248.98	1261.55
249.20	1245.16
249.42	1359.85
249.64	1261.55
249.85	1255.40
250.07	1255.40
250.29	1243.12
250.50	1282.03
250.72	1234.93
250.94	1251.31
251.16	1279.98
251.37	1259.50
251.59	1216.49
251.81	1245.16
252.02	1249.26
252.24	1304.56
252.46	1236.97
252.68	1241.07
252.89	1296.36
253.11	1277.93
253.33	1296.36
253.54	1253.36
253.76	1273.84
253.98	1261.55
254.20	1318.89
254.41	1288.17
254.63	1183.73
254.85	1286.12
255.06	1181.68
255.28	1236.97
255.50	1279.98
255.71	1220.59
255.93	1265.64
256.15	1175.53
256.36	1284.08
256.58	1267.69
256.80	1265.64
257.02	1224.69
257.23	1282.03
257.45	1300.46
257.67	1255.40
257.88	1298.41
258.10	1327.08
258.32	1296.36
258.53	1206.25
258.75	1271.79
258.97	1329.13
259.18	1316.84
259.40	1300.46
259.62	1298.41
259.83	1271.79
260.05	1325.04
260.27	1271.79
260.48	1228.78
260.70	1245.16
260.92	1269.74
261.13	1290.22
261.35	1218.54
261.57	1241.07
261.78	1312.75
262.00	1222.64
262.22	1216.49
262.43	1269.74
262.65	1312.75
262.86	1202.16
263.08	1239.02
263.30	1290.22
263.51	1212.40
263.73	1265.64
263.95	1325.04
264.16	1241.07
264.38	1318.89
264.60	1224.69
264.81	1245.16
265.03	1292.27
265.25	1243.12
265.46	1279.98
265.68	1253.36
265.89	1331.18
266.11	1259.50
266.33	1247.21
266.54	1314.80
266.76	1261.55
266.98	1243.12
267.19	1304.56
267.41	1290.22
267.62	1284.08
267.84	1279.98
268.06	1220.59
268.27	1355.76
268.49	1302.51
268.70	1255.40
268.92	1212.40
269.14	1220.59
269.35	1290.22
269.57	1243.12
269.79	1265.64
270.00	1294.32
270.22	1318.89
270.43	1290.22
270.65	1279.98
270.87	1259.50
271.08	1322.99
271.30	1243.12
271.51	1259.50
271.73	1241.07
271.95	1329.13
272.16	1230.83
272.38	1284.08
272.59	1286.12
272.81	1153.01
273.02	1361.90
273.24	1284.08
273.46	1267.69
273.67	1282.03
273.89	1292.27
274.10	1292.27
274.32	1335.28
274.54	1310.70
274.75	1263.60
274.97	1284.08
275.18	1288.17
275.40	1239.02
275.61	1341.42
275.83	1263.60
276.05	1292.27
276.26	1193.97
276.48	1333.23
276.69	1314.80
276.91	1204.21
277.12	1236.97
277.34	1218.54
277.55	1247.21
277.77	1304.56
277.99	1263.60
278.20	1306.60
278.42	1249.26
278.63	1216.49
278.85	1216.49
279.06	1216.49
279.28	1277.93
279.49	1241.07
279.71	1312.75
279.93	1302.51
280.14	1273.84
280.36	1230.83
280.57	1286.12
280.79	1230.83
281.00	1271.79
281.22	1269.74
281.43	1230.83
281.65	1271.79
281.86	1327.08
282.08	1261.55
282.29	1271.79
282.51	1247.21
282.73	1251.31
282.94	1300.46
283.16	1257.45
283.37	1306.60
283.59	1263.60
283.80	1251.31
284.02	1161.20
284.23	1290.22
284.45	1277.93
284.66	1251.31
284.88	1277.93
285.09	1230.83
285.31	1271.79
285.52	1239.02
285.74	1245.16
285.95	1196.01
286.17	1277.93
286.38	1218.54
286.60	1234.93
286.81	1349.61
287.03	1310.70
287.24	1327.08
287.46	1296.36
287.67	1271.79
287.89	1298.41
288.10	1247.21
288.32	1200.11
288.53	1236.97
288.75	1351.66
288.96	1271.79
289.18	1193.97
289.39	1234.93
289.61	1376.24
289.82	1257.45
290.04	1339.37
290.25	1296.36
290.47	1259.50
290.68	1234.93
290.90	1181.68
291.11	1255.40
291.33	1241.07
291.54	1265.64
291.76	1218.54
291.97	1341.42
292.18	1320.94
292.40	1286.12
292.61	1288.17
292.83	1232.88
293.04	1198.06
293.26	1253.36
293.47	1292.27
293.69	1259.50
293.90	1304.56
294.12	1245.16
294.33	1269.74
294.55	1255.40
294.76	1232.88
294.97	1261.55
295.19	1306.60
295.40	1312.75
295.62	1224.69
295.83	1275.88
296.05	1304.56
296.26	1290.22
296.48	1263.60
296.69	1247.21
296.90	1196.01
297.12	1267.69
297.33	1210.35
297.55	1275.88
297.76	1312.75
297.98	1347.56
298.19	1261.55
298.41	1257.45
298.62	1269.74
298.83	1322.99
299.05	1253.36
299.26	1284.08
299.48	1304.56
299.69	1245.16
299.90	1259.50
300.12	1312.75
300.33	1292.27
300.55	1255.40
300.76	1196.01
300.98	1228.78
301.19	1191.92
301.40	1267.69
301.62	1232.88
301.83	1298.41
302.05	1308.65
302.26	1243.12
302.47	1245.16
302.69	1200.11
302.90	1263.60
303.12	1308.65
303.33	1300.46
303.54	1259.50
303.76	1241.07
303.97	1306.60
304.19	1198.06
304.40	1202.16
304.61	1243.12
304.83	1294.32
305.04	1275.88
305.26	1253.36
305.47	1284.08
305.68	1290.22
305.90	1292.27
306.11	1325.04
306.33	1224.69
306.54	1202.16
306.75	1292.27
306.97	1226.73
307.18	1265.64
307.39	1282.03
307.61	1282.03
307.82	1177.58
308.04	1279.98
308.25	1267.69
308.46	1290.22
308.68	1249.26
308.89	1243.12
309.10	1306.60
309.32	1191.92
309.53	1220.59
309.74	1320.94
309.96	1331.18
310.17	1253.36
310.39	1275.88
310.60	1247.21
310.81	1241.07
311.03	1288.17
311.24	1308.65
311.45	1298.41
311.67	1185.77
311.88	1222.64
312.09	1271.79
312.31	1284.08
312.52	1312.75
312.73	1271.79
312.95	1230.83
313.16	1298.41
313.37	1196.01
313.59	1259.50
313.80	1239.02
314.01	1265.64
314.23	1286.12
314.44	1279.98
314.65	1202.16
314.87	1222.64
315.08	1247.21
315.29	1386.47
315.51	1253.36
315.72	1300.46
315.93	1257.45
316.15	1220.59
316.36	1216.49
316.57	1292.27
316.79	1255.40
317.00	1200.11
317.21	1296.36
317.43	1282.03
317.64	1298.41
317.85	1300.46
318.07	1279.98
318.28	1236.97
318.49	1345.52
318.70	1310.70
318.92	1224.69
319.13	1232.88
319.34	1284.08
319.56	1257.45
319.77	1302.51
319.98	1300.46
320.20	1302.51
320.41	1304.56
320.62	1257.45
320.83	1296.36
321.05	1298.41
321.26	1222.64
321.47	1306.60
321.69	1288.17
321.90	1265.64
322.11	1304.56
322.32	1253.36
322.54	1181.68
322.75	1204.21
322.96	1320.94
323.18	1222.64
323.39	1288.17
323.60	1333.23
323.81	1263.60
324.03	1325.04
324.24	1355.76
324.45	1269.74
324.66	1306.60
324.88	1208.30
325.09	1245.16
325.30	1269.74
325.52	1265.64
325.73	1247.21
325.94	1304.56
326.15	1212.40
326.37	1292.27
326.58	1267.69
326.79	1267.69
327.00	1310.70
327.22	1331.18
327.43	1263.60
327.64	1239.02
327.85	1316.84
328.07	1267.69
328.28	1269.74
328.49	1261.55
328.70	1208.30
328.92	1249.26
329.13	1222.64
329.34	1247.21
329.55	1230.83
329.76	1255.40
329.98	1202.16
330.19	1286.12
330.40	1310.70
330.61	1302.51
330.83	1251.31
331.04	1275.88
331.25	1255.40
331.46	1277.93
331.68	1277.93
331.89	1212.40
332.10	1261.55
332.31	1279.98
332.52	1230.83
332.74	1247.21
332.95	1359.85
333.16	1249.26
333.37	1282.03
333.58	1245.16
333.80	1302.51
334.01	1277.93
334.22	1288.17
334.43	1222.64
334.64	1214.45
334.86	1298.41
335.07	1271.79
335.28	1265.64
335.49	1216.49
335.70	1267.69
335.92	1351.66
336.13	1232.88
336.34	1218.54
336.55	1271.79
336.76	1294.32
336.98	1273.84
337.19	1298.41
337.40	1277.93
337.61	1259.50
337.82	1304.56
338.04	1257.45
338.25	1265.64
338.46	1236.97
338.67	1259.50
338.88	1355.76
339.09	1241.07
339.31	1234.93
339.52	1224.69
339.73	1261.55
339.94	1329.13
340.15	1263.60
340.36	1247.21
340.58	1251.31
340.79	1253.36
341.00	1357.80
341.21	1279.98
341.42	1284.08
341.63	1288.17
341.85	1267.69
342.06	1284.08
342.27	1284.08
342.48	1247.21
342.69	1325.04
342.90	1284.08
343.12	1273.84
343.33	1279.98
343.54	1269.74
343.75	1325.04
343.96	1318.89
344.17	1298.41
344.38	1230.83
344.60	1292.27
344.81	1222.64
345.02	1226.73
345.23	1333.23
345.44	1304.56
345.65	1218.54
345.86	1296.36
346.07	1255.40
346.29	1265.64
346.50	1251.31
346.71	1298.41
346.92	1245.16
347.13	1286.12
347.34	1202.16
347.55	1222.64
347.76	1290.22
347.98	1265.64
348.19	1247.21
348.40	1329.13
348.61	1226.73
348.82	1271.79
349.03	1298.41
349.24	1282.03
349.45	1179.63
349.66	1210.35
349.88	1253.36
350.09	1245.16
350.30	1318.89
350.51	1277.93
350.72	1257.45
350.93	1257.45
351.14	1294.32
351.35	1263.60
351.56	1259.50
351.77	1304.56
351.99	1228.78
352.20	1263.60
352.41	1230.83
352.62	1216.49
352.83	1189.87
353.04	1251.31
353.25	1265.64
353.46	1345.52
353.67	1267.69
353.88	1286.12
354.09	1271.79
354.30	1284.08
354.52	1236.97
354.73	1275.88
354.94	1150.96
355.15	1228.78
355.36	1230.83
355.57	1241.07
355.78	1198.06
355.99	1220.59
356.20	1202.16
356.41	1228.78
356.62	1284.08
356.83	1273.84
357.04	1277.93
357.25	1271.79
357.46	1228.78
357.68	1271.79
357.89	1265.64
358.10	1259.50
358.31	1318.89
358.52	1310.70
358.73	1263.60
358.94	1296.36
359.15	1247.21
359.36	1257.45
359.57	1296.36
359.78	1218.54
359.99	1263.60
360.20	1269.74
360.41	1294.32
360.62	1316.84
360.83	1286.12
361.04	1247.21
361.25	1382.38
361.46	1208.30
361.67	1329.13
361.88	1314.80
362.09	1220.59
362.30	1249.26
362.51	1316.84
362.72	1302.51
362.93	1243.12
363.14	1261.55
363.35	1304.56
363.56	1279.98
363.78	1236.97
363.99	1265.64
364.20	1253.36
364.41	1322.99
364.62	1314.80
364.83	1277.93
365.04	1263.60
365.25	1249.26
365.46	1322.99
365.67	1304.56
365.88	1191.92
366.09	1247.21
366.30	1253.36
366.51	1292.27
366.72	1277.93
366.93	1314.80
367.14	1249.26
367.35	1239.02
367.56	1275.88
367.77	1275.88
367.98	1306.60
368.18	1312.75
368.39	1243.12
368.60	1298.41
368.81	1282.03
369.02	1290.22
369.23	1267.69
369.44	1249.26
369.65	1232.88
369.86	1316.84
370.07	1230.83
370.28	1247.21
370.49	1226.73
370.70	1253.36
370.91	1331.18
371.12	1279.98
371.33	1265.64
371.54	1265.64
371.75	1302.51
371.96	1302.51
372.17	1279.98
372.38	1253.36
372.59	1232.88
372.80	1273.84
373.01	1247.21
373.22	1349.61
373.43	1265.64
373.64	1181.68
373.85	1257.45
374.06	1314.80
374.26	1267.69
374.47	1286.12
374.68	1292.27
374.89	1288.17
375.10	1249.26
375.31	1257.45
375.52	1208.30
375.73	1269.74
375.94	1331.18
376.15	1253.36
376.36	1230.83
376.57	1257.45
376.78	1312.75
376.99	1275.88
377.20	1265.64
377.40	1224.69
377.61	1259.50
377.82	1290.22
378.03	1230.83
378.24	1294.32
378.45	1286.12
378.66	1300.46
378.87	1298.41
379.08	1331.18
379.29	1263.60
379.50	1296.36
379.71	1187.82
379.91	1218.54
380.12	1275.88
380.33	1282.03
380.54	1333.23
380.75	1275.88
380.96	1236.97
381.17	1279.98
381.38	1191.92
381.59	1265.64
381.80	1339.37
382.00	1226.73
382.21	1241.07
382.42	1273.84
382.63	1222.64
382.84	1245.16
383.05	1296.36
383.26	1263.60
383.47	1241.07
383.68	1298.41
383.88	1257.45
384.09	1314.80
384.30	1214.45
384.51	1302.51
384.72	1234.93
384.93	1284.08
385.14	1243.12
385.35	1286.12
385.55	1236.97
385.76	1306.60
385.97	1312.75
386.18	1271.79
386.39	1294.32
386.60	1234.93
386.81	1257.45
387.02	1271.79
387.22	1318.89
387.43	1265.64
387.64	1286.12
387.85	1263.60
388.06	1306.60
388.27	1322.99
388.48	1159.15
388.68	1255.40
388.89	1341.42
389.10	1183.73
389.31	1239.02
389.52	1370.09
389.73	1322.99
389.93	1296.36
390.14	1251.31
390.35	1292.27
390.56	1232.88
390.77	1263.60
390.98	1193.97
391.18	1292.27
391.39	1230.83
391.60	1314.80
391.81	1304.56
392.02	1234.93
392.23	1234.93
392.43	1249.26
392.64	1366.00
392.85	1243.12
393.06	1345.52
393.27	1325.04
393.47	1306.60
393.68	1275.88
393.89	1267.69
394.10	1275.88
394.31	1271.79
394.52	1206.25
394.72	1282.03
394.93	1282.03
395.14	1259.50
395.35	1253.36
395.56	1222.64
395.76	1282.03
395.97	1318.89
396.18	1339.37
396.39	1255.40
396.60	1292.27
396.80	1249.26
397.01	1355.76
397.22	1191.92
397.43	1161.20
397.64	1230.83
397.84	1269.74
398.05	1206.25
398.26	1261.55
398.47	1271.79
398.67	1380.33
398.88	1286.12
399.09	1296.36
399.30	1284.08
399.51	1298.41
399.71	1259.50
399.92	1239.02
400.13	1241.07
400.34	1247.21
400.54	1247.21
400.75	1302.51
400.96	1277.93
401.17	1296.36
401.37	1239.02
401.58	1331.18
401.79	1232.88
402.00	1279.98
402.21	1314.80
402.41	1216.49
402.62	1257.45
402.83	1189.87
403.04	1286.12
403.24	1206.25
403.45	1247.21
403.66	1247.21
403.87	1306.60
404.07	1249.26
404.28	1222.64
404.49	1232.88
404.70	1277.93
404.90	1214.45
405.11	1228.78
405.32	1314.80
405.52	1189.87
405.73	1290.22
405.94	1251.31
406.15	1329.13
406.35	1239.02
406.56	1292.27
406.77	1243.12
406.98	1224.69
407.18	1236.97
407.39	1261.55
407.60	1241.07
407.80	1239.02
408.01	1216.49
408.22	1265.64
408.43	1251.31
408.63	1263.60
408.84	1187.82
409.05	1263.60
409.25	1243.12
409.46	1208.30
409.67	1288.17
409.88	1282.03
410.08	1251.31
410.29	1216.49
410.50	1310.70
410.70	1236.97
410.91	1282.03
411.12	1273.84
411.32	1275.88
411.53	1271.79
411.74	1226.73
411.95	1271.79
412.15	1114.10
412.36	1300.46
412.57	1292.27
412.77	1259.50
412.98	1279.98
413.19	1339.37
413.39	1302.51
413.60	1253.36
413.81	1277.93
414.01	1273.84
414.22	1232.88
414.43	1316.84
414.63	1304.56
414.84	1345.52
415.05	1239.02
415.25	1314.80
415.46	1294.32
415.67	1222.64
415.87	1243.12
416.08	1239.02
416.29	1243.12
416.49	1296.36
416.70	1269.74
416.91	1300.46
417.11	1298.41
417.32	1200.11
417.53	1249.26
417.73	1269.74
417.94	1322.99
418.15	1210.35
418.35	1255.40
418.56	1282.03
418.77	1294.32
418.97	1220.59
419.18	1290.22
419.38	1261.55
419.59	1251.31
419.80	1294.32
420.00	1261.55
420.21	1263.60
420.42	1296.36
420.62	1255.40
420.83	1277.93
421.04	1282.03
421.24	1253.36
421.45	1241.07
421.65	1261.55
421.86	1239.02
422.07	1335.28
422.27	1269.74
422.48	1234.93
422.69	1298.41
422.89	1267.69
423.10	1261.55
423.30	1300.46
423.51	1320.94
423.72	1294.32
423.92	1288.17
424.13	1196.01
424.33	1261.55
424.54	1196.01
424.75	1316.84
424.95	1347.56
425.16	1200.11
425.36	1282.03
425.57	1290.22
425.78	1236.97
425.98	1220.59
426.19	1269.74
426.39	1198.06
426.60	1318.89
426.81	1318.89
427.01	1263.60
427.22	1277.93
427.42	1271.79
427.63	1232.88
427.83	1249.26
428.04	1257.45
428.25	1273.84
428.45	1228.78
428.66	1288.17
428.86	1286.12
429.07	1290.22
429.28	1208.30
429.48	1255.40
429.69	1337.32
429.89	1234.93
430.10	1284.08
430.30	1273.84
430.51	1320.94
430.71	1259.50
430.92	1273.84
431.13	1279.98
431.33	1284.08
431.54	1261.55
431.74	1269.74
431.95	1288.17
432.15	1150.96
432.36	1310.70
432.56	1331.18
432.77	1263.60
432.98	1298.41
433.18	1284.08
433.39	1271.79
433.59	1325.04
433.80	1302.51
434.00	1214.45
434.21	1263.60
434.41	1263.60
434.62	1265.64
434.82	1251.31
435.03	1271.79
435.23	1345.52
435.44	1255.40
435.64	1200.11
435.85	1308.65
436.06	1284.08
436.26	1269.74
436.47	1218.54
436.67	1241.07
436.88	1273.84
437.08	1241.07
437.29	1224.69
437.49	1255.40
437.70	1193.97
437.90	1306.60
438.11	1218.54
438.31	1294.32
438.52	1284.08
438.72	1167.34
438.93	1292.27
439.13	1292.27
439.34	1286.12
439.54	1263.60
439.75	1284.08
439.95	1275.88
440.16	1337.32
440.36	1247.21
440.57	1279.98
440.77	1273.84
440.98	1253.36
441.18	1327.08
441.39	1314.80
441.59	1236.97
441.80	1247.21
442.00	1286.12
442.21	1269.74
442.41	1251.31
442.62	1253.36
442.82	1322.99
443.02	1288.17
443.23	1224.69
443.43	1271.79
443.64	1294.32
443.84	1269.74
444.05	1300.46
444.25	1255.40
444.46	1247.21
444.66	1284.08
444.87	1173.49
445.07	1230.83
445.28	1271.79
445.48	1282.03
445.69	1189.87
445.89	1306.60
446.09	1251.31
446.30	1308.65
446.50	1275.88
446.71	1247.21
446.91	1222.64
447.12	1224.69
447.32	1290.22
447.53	1296.36
447.73	1232.88
447.93	1329.13
448.14	1288.17
448.34	1284.08
448.55	1212.40
448.75	1253.36
448.96	1345.52
449.16	1290.22
449.36	1296.36
449.57	1148.91
449.77	1286.12
449.98	1271.79
450.18	1216.49
450.39	1314.80
450.59	1269.74
450.79	1257.45
451.00	1320.94
451.20	1296.36
451.41	1271.79
451.61	1298.41
451.81	1239.02
452.02	1302.51
452.22	1316.84
452.43	1284.08
452.63	1265.64
