SpectraSuite Data File
++++++++++++++++++++++++++++++++++++
Date: Sun Apr 03 19:55:41 CEST 2016
User: root
Dark Spectrum Present: No
Reference Spectrum Present: No
Number of Sampled Component Spectra: 1
Spectrometers: USB4C02835
Integration Time (usec): 10000 (USB4C02835)
Spectra Averaged: 1 (USB4C02835)
Boxcar Smoothing: 0 (USB4C02835)
Correct for Electrical Dark: No (USB4C02835)
Strobe/Lamp Enabled: No (USB4C02835)
Correct for Detector Non-linearity: No (USB4C02835)
Correct for Stray Light: No (USB4C02835)
Number of Pixels in Processed Spectrum: 3648
>>>>>Begin Processed Spectral Data<<<<<
177.47	1193.97
177.69	1193.97
177.91	1193.97
178.13	1290.22
178.36	1210.35
178.58	1277.93
178.80	1247.21
179.02	1208.30
179.24	1322.99
179.46	1257.45
179.68	1243.12
179.90	1267.69
180.13	1239.02
180.35	1206.25
180.57	1290.22
180.79	1308.65
181.01	1259.50
181.23	1224.69
181.45	1288.17
181.67	1226.73
181.90	1241.07
182.12	1224.69
182.34	1296.36
182.56	1329.13
182.78	1263.60
183.00	1269.74
183.22	1206.25
183.44	1302.51
183.66	1310.70
183.89	1245.16
184.11	1214.45
184.33	1343.47
184.55	1265.64
184.77	1325.04
184.99	1263.60
185.21	1224.69
185.43	1304.56
185.65	1294.32
185.87	1296.36
186.10	1259.50
186.32	1222.64
186.54	1282.03
186.76	1298.41
186.98	1216.49
187.20	1304.56
187.42	1198.06
187.64	1331.18
187.86	1294.32
188.08	1329.13
188.30	1265.64
188.52	1228.78
188.75	1249.26
188.97	1247.21
189.19	1245.16
189.41	1275.88
189.63	1290.22
189.85	1335.28
190.07	1183.73
190.29	1189.87
190.51	1200.11
190.73	1296.36
190.95	1357.80
191.17	1318.89
191.39	1210.35
191.61	1228.78
191.84	1265.64
192.06	1251.31
192.28	1275.88
192.50	1302.51
192.72	1304.56
192.94	1288.17
193.16	1216.49
193.38	1271.79
193.60	1253.36
193.82	1271.79
194.04	1249.26
194.26	1288.17
194.48	1345.52
194.70	1263.60
194.92	1189.87
195.14	1288.17
195.36	1210.35
195.58	1261.55
195.80	1253.36
196.02	1279.98
196.24	1173.49
196.46	1265.64
196.69	1316.84
196.91	1228.78
197.13	1271.79
197.35	1206.25
197.57	1310.70
197.79	1251.31
198.01	1290.22
198.23	1263.60
198.45	1193.97
198.67	1226.73
198.89	1212.40
199.11	1310.70
199.33	1239.02
199.55	1255.40
199.77	1263.60
199.99	1271.79
200.21	1327.08
200.43	1286.12
200.65	1275.88
200.87	1245.16
201.09	1234.93
201.31	1251.31
201.53	1257.45
201.75	1239.02
201.97	1269.74
202.19	1216.49
202.41	1316.84
202.63	1322.99
202.85	1286.12
203.07	1226.73
203.29	1249.26
203.51	1288.17
203.73	1224.69
203.95	1271.79
204.17	1259.50
204.39	1241.07
204.61	1282.03
204.83	1318.89
205.05	1239.02
205.27	1331.18
205.49	1193.97
205.71	1216.49
205.93	1277.93
206.15	1249.26
206.37	1177.58
206.59	1282.03
206.81	1210.35
207.03	1310.70
207.25	1150.96
207.47	1277.93
207.69	1277.93
207.91	1288.17
208.13	1302.51
208.34	1290.22
208.56	1308.65
208.78	1298.41
209.00	1286.12
209.22	1187.82
209.44	1294.32
209.66	1216.49
209.88	1181.68
210.10	1271.79
210.32	1282.03
210.54	1314.80
210.76	1200.11
210.98	1290.22
211.20	1253.36
211.42	1279.98
211.64	1314.80
211.86	1241.07
212.08	1239.02
212.30	1335.28
212.52	1206.25
212.74	1196.01
212.96	1234.93
213.17	1284.08
213.39	1288.17
213.61	1253.36
213.83	1228.78
214.05	1183.73
214.27	1263.60
214.49	1286.12
214.71	1216.49
214.93	1286.12
215.15	1204.21
215.37	1265.64
215.59	1329.13
215.81	1255.40
216.03	1294.32
216.24	1312.75
216.46	1341.42
216.68	1271.79
216.90	1339.37
217.12	1331.18
217.34	1288.17
217.56	1224.69
217.78	1214.45
218.00	1236.97
218.22	1322.99
218.44	1292.27
218.66	1243.12
218.87	1265.64
219.09	1261.55
219.31	1312.75
219.53	1286.12
219.75	1300.46
219.97	1239.02
220.19	1359.85
220.41	1288.17
220.63	1253.36
220.85	1279.98
221.06	1263.60
221.28	1345.52
221.50	1312.75
221.72	1322.99
221.94	1312.75
222.16	1261.55
222.38	1282.03
222.60	1253.36
222.82	1273.84
223.03	1216.49
223.25	1232.88
223.47	1228.78
223.69	1347.56
223.91	1265.64
224.13	1230.83
224.35	1224.69
224.57	1255.40
224.78	1241.07
225.00	1298.41
225.22	1232.88
225.44	1314.80
225.66	1286.12
225.88	1241.07
226.10	1255.40
226.32	1206.25
226.53	1189.87
226.75	1232.88
226.97	1282.03
227.19	1290.22
227.41	1308.65
227.63	1271.79
227.85	1257.45
228.06	1302.51
228.28	1228.78
228.50	1282.03
228.72	1298.41
228.94	1308.65
229.16	1257.45
229.37	1341.42
229.59	1277.93
229.81	1286.12
230.03	1325.04
230.25	1257.45
230.47	1204.21
230.69	1216.49
230.90	1292.27
231.12	1251.31
231.34	1255.40
231.56	1245.16
231.78	1251.31
232.00	1275.88
232.21	1277.93
232.43	1302.51
232.65	1261.55
232.87	1288.17
233.09	1290.22
233.30	1286.12
233.52	1290.22
233.74	1300.46
233.96	1265.64
234.18	1306.60
234.40	1290.22
234.61	1259.50
234.83	1198.06
235.05	1216.49
235.27	1271.79
235.49	1271.79
235.70	1322.99
235.92	1277.93
236.14	1269.74
236.36	1284.08
236.58	1298.41
236.79	1318.89
237.01	1279.98
237.23	1320.94
237.45	1277.93
237.67	1277.93
237.88	1316.84
238.10	1232.88
238.32	1269.74
238.54	1292.27
238.76	1263.60
238.97	1333.23
239.19	1329.13
239.41	1279.98
239.63	1269.74
239.85	1345.52
240.06	1284.08
240.28	1314.80
240.50	1282.03
240.72	1300.46
240.93	1263.60
241.15	1286.12
241.37	1294.32
241.59	1269.74
241.81	1212.40
242.02	1241.07
242.24	1296.36
242.46	1312.75
242.68	1204.21
242.89	1286.12
243.11	1282.03
243.33	1196.01
243.55	1275.88
243.76	1275.88
243.98	1265.64
244.20	1271.79
244.42	1222.64
244.64	1294.32
244.85	1243.12
245.07	1251.31
245.29	1263.60
245.51	1284.08
245.72	1269.74
245.94	1284.08
246.16	1288.17
246.38	1239.02
246.59	1322.99
246.81	1290.22
247.03	1331.18
247.24	1259.50
247.46	1265.64
247.68	1292.27
247.90	1247.21
248.11	1253.36
248.33	1208.30
248.55	1241.07
248.77	1273.84
248.98	1236.97
249.20	1277.93
249.42	1224.69
249.64	1310.70
249.85	1230.83
250.07	1236.97
250.29	1261.55
250.50	1265.64
250.72	1257.45
250.94	1322.99
251.16	1253.36
251.37	1241.07
251.59	1265.64
251.81	1316.84
252.02	1290.22
252.24	1294.32
252.46	1294.32
252.68	1271.79
252.89	1275.88
253.11	1253.36
253.33	1249.26
253.54	1314.80
253.76	1277.93
253.98	1259.50
254.20	1275.88
254.41	1245.16
254.63	1275.88
254.85	1316.84
255.06	1257.45
255.28	1253.36
255.50	1232.88
255.71	1177.58
255.93	1234.93
256.15	1290.22
256.36	1165.29
256.58	1286.12
256.80	1286.12
257.02	1243.12
257.23	1208.30
257.45	1327.08
257.67	1290.22
257.88	1253.36
258.10	1275.88
258.32	1318.89
258.53	1271.79
258.75	1255.40
258.97	1263.60
259.18	1282.03
259.40	1173.49
259.62	1308.65
259.83	1302.51
260.05	1226.73
260.27	1331.18
260.48	1202.16
260.70	1222.64
260.92	1210.35
261.13	1255.40
261.35	1277.93
261.57	1245.16
261.78	1245.16
262.00	1273.84
262.22	1234.93
262.43	1257.45
262.65	1198.06
262.86	1204.21
263.08	1316.84
263.30	1263.60
263.51	1275.88
263.73	1288.17
263.95	1228.78
264.16	1286.12
264.38	1318.89
264.60	1239.02
264.81	1282.03
265.03	1298.41
265.25	1265.64
265.46	1251.31
265.68	1214.45
265.89	1232.88
266.11	1230.83
266.33	1275.88
266.54	1294.32
266.76	1318.89
266.98	1271.79
267.19	1265.64
267.41	1269.74
267.62	1275.88
267.84	1191.92
268.06	1296.36
268.27	1265.64
268.49	1232.88
268.70	1261.55
268.92	1263.60
269.14	1249.26
269.35	1257.45
269.57	1222.64
269.79	1308.65
270.00	1296.36
270.22	1290.22
270.43	1263.60
270.65	1212.40
270.87	1267.69
271.08	1314.80
271.30	1290.22
271.51	1290.22
271.73	1220.59
271.95	1335.28
272.16	1210.35
272.38	1247.21
272.59	1210.35
272.81	1290.22
273.02	1220.59
273.24	1271.79
273.46	1304.56
273.67	1279.98
273.89	1294.32
274.10	1316.84
274.32	1210.35
274.54	1296.36
274.75	1259.50
274.97	1265.64
275.18	1304.56
275.40	1271.79
275.61	1241.07
275.83	1216.49
276.05	1255.40
276.26	1222.64
276.48	1257.45
276.69	1282.03
276.91	1247.21
277.12	1275.88
277.34	1290.22
277.55	1370.09
277.77	1325.04
277.99	1257.45
278.20	1241.07
278.42	1239.02
278.63	1282.03
278.85	1269.74
279.06	1239.02
279.28	1239.02
279.49	1259.50
279.71	1222.64
279.93	1302.51
280.14	1267.69
280.36	1322.99
280.57	1290.22
280.79	1361.90
281.00	1265.64
281.22	1255.40
281.43	1333.23
281.65	1245.16
281.86	1284.08
282.08	1294.32
282.29	1347.56
282.51	1253.36
282.73	1312.75
282.94	1234.93
283.16	1239.02
283.37	1230.83
283.59	1294.32
283.80	1300.46
284.02	1257.45
284.23	1177.58
284.45	1282.03
284.66	1259.50
284.88	1282.03
285.09	1257.45
285.31	1300.46
285.52	1339.37
285.74	1282.03
285.95	1318.89
286.17	1273.84
286.38	1263.60
286.60	1294.32
286.81	1277.93
287.03	1318.89
287.24	1331.18
287.46	1302.51
287.67	1292.27
287.89	1239.02
288.10	1282.03
288.32	1239.02
288.53	1167.34
288.75	1230.83
288.96	1251.31
289.18	1298.41
289.39	1216.49
289.61	1271.79
289.82	1236.97
290.04	1206.25
290.25	1261.55
290.47	1216.49
290.68	1253.36
290.90	1275.88
291.11	1310.70
291.33	1267.69
291.54	1236.97
291.76	1329.13
291.97	1294.32
292.18	1296.36
292.40	1269.74
292.61	1267.69
292.83	1249.26
293.04	1320.94
293.26	1290.22
293.47	1185.77
293.69	1279.98
293.90	1249.26
294.12	1304.56
294.33	1239.02
294.55	1253.36
294.76	1230.83
294.97	1279.98
295.19	1372.14
295.40	1245.16
295.62	1253.36
295.83	1296.36
296.05	1249.26
296.26	1261.55
296.48	1349.61
296.69	1257.45
296.90	1269.74
297.12	1253.36
297.33	1222.64
297.55	1257.45
297.76	1245.16
297.98	1327.08
298.19	1218.54
298.41	1282.03
298.62	1257.45
298.83	1325.04
299.05	1249.26
299.26	1366.00
299.48	1298.41
299.69	1306.60
299.90	1282.03
300.12	1314.80
300.33	1243.12
300.55	1277.93
300.76	1277.93
300.98	1357.80
301.19	1200.11
301.40	1222.64
301.62	1241.07
301.83	1273.84
302.05	1284.08
302.26	1286.12
302.47	1243.12
302.69	1212.40
302.90	1327.08
303.12	1212.40
303.33	1296.36
303.54	1341.42
303.76	1257.45
303.97	1230.83
304.19	1284.08
304.40	1259.50
304.61	1339.37
304.83	1247.21
305.04	1271.79
305.26	1210.35
305.47	1269.74
305.68	1228.78
305.90	1236.97
306.11	1234.93
306.33	1300.46
306.54	1273.84
306.75	1239.02
306.97	1261.55
307.18	1331.18
307.39	1236.97
307.61	1331.18
307.82	1255.40
308.04	1349.61
308.25	1288.17
308.46	1275.88
308.68	1363.95
308.89	1282.03
309.10	1298.41
309.32	1290.22
309.53	1273.84
309.74	1214.45
309.96	1282.03
310.17	1249.26
310.39	1251.31
310.60	1306.60
310.81	1236.97
311.03	1290.22
311.24	1232.88
311.45	1269.74
311.67	1282.03
311.88	1261.55
312.09	1290.22
312.31	1302.51
312.52	1239.02
312.73	1290.22
312.95	1335.28
313.16	1343.47
313.37	1236.97
313.59	1179.63
313.80	1243.12
314.01	1269.74
314.23	1275.88
314.44	1327.08
314.65	1314.80
314.87	1232.88
315.08	1284.08
315.29	1310.70
315.51	1271.79
315.72	1327.08
315.93	1269.74
316.15	1196.01
316.36	1220.59
316.57	1312.75
316.79	1288.17
317.00	1245.16
317.21	1265.64
317.43	1263.60
317.64	1249.26
317.85	1255.40
318.07	1279.98
318.28	1261.55
318.49	1232.88
318.70	1327.08
318.92	1253.36
319.13	1220.59
319.34	1269.74
319.56	1234.93
319.77	1347.56
319.98	1247.21
320.20	1300.46
320.41	1363.95
320.62	1265.64
320.83	1234.93
321.05	1275.88
321.26	1265.64
321.47	1261.55
321.69	1302.51
321.90	1259.50
322.11	1304.56
322.32	1335.28
322.54	1298.41
322.75	1306.60
322.96	1220.59
323.18	1294.32
323.39	1277.93
323.60	1261.55
323.81	1279.98
324.03	1243.12
324.24	1288.17
324.45	1243.12
324.66	1322.99
324.88	1312.75
325.09	1359.85
325.30	1243.12
325.52	1265.64
325.73	1214.45
325.94	1267.69
326.15	1327.08
326.37	1271.79
326.58	1204.21
326.79	1292.27
327.00	1302.51
327.22	1265.64
327.43	1325.04
327.64	1339.37
327.85	1306.60
328.07	1277.93
328.28	1218.54
328.49	1279.98
328.70	1183.73
328.92	1282.03
329.13	1345.52
329.34	1241.07
329.55	1239.02
329.76	1372.14
329.98	1265.64
330.19	1253.36
330.40	1257.45
330.61	1341.42
330.83	1253.36
331.04	1253.36
331.25	1243.12
331.46	1271.79
331.68	1247.21
331.89	1310.70
332.10	1263.60
332.31	1288.17
332.52	1282.03
332.74	1214.45
332.95	1296.36
333.16	1265.64
333.37	1306.60
333.58	1226.73
333.80	1286.12
334.01	1312.75
334.22	1253.36
334.43	1298.41
334.64	1220.59
334.86	1335.28
335.07	1282.03
335.28	1232.88
335.49	1198.06
335.70	1247.21
335.92	1277.93
336.13	1261.55
336.34	1333.23
336.55	1216.49
336.76	1310.70
336.98	1257.45
337.19	1263.60
337.40	1269.74
337.61	1290.22
337.82	1277.93
338.04	1279.98
338.25	1249.26
338.46	1314.80
338.67	1253.36
338.88	1241.07
339.09	1339.37
339.31	1325.04
339.52	1327.08
339.73	1259.50
339.94	1232.88
340.15	1273.84
340.36	1214.45
340.58	1273.84
340.79	1312.75
341.00	1290.22
341.21	1314.80
341.42	1286.12
341.63	1304.56
341.85	1249.26
342.06	1339.37
342.27	1286.12
342.48	1259.50
342.69	1304.56
342.90	1185.77
343.12	1224.69
343.33	1243.12
343.54	1247.21
343.75	1322.99
343.96	1236.97
344.17	1236.97
344.38	1306.60
344.60	1241.07
344.81	1292.27
345.02	1310.70
345.23	1320.94
345.44	1263.60
345.65	1202.16
345.86	1224.69
346.07	1286.12
346.29	1271.79
346.50	1265.64
346.71	1241.07
346.92	1279.98
347.13	1267.69
347.34	1320.94
347.55	1275.88
347.76	1286.12
347.98	1185.77
348.19	1275.88
348.40	1279.98
348.61	1286.12
348.82	1298.41
349.03	1247.21
349.24	1296.36
349.45	1269.74
349.66	1298.41
349.88	1273.84
350.09	1271.79
350.30	1206.25
350.51	1271.79
350.72	1206.25
350.93	1308.65
351.14	1185.77
351.35	1294.32
351.56	1224.69
351.77	1251.31
351.99	1300.46
352.20	1216.49
352.41	1294.32
352.62	1267.69
352.83	1228.78
353.04	1245.16
353.25	1245.16
353.46	1232.88
353.67	1226.73
353.88	1279.98
354.09	1243.12
354.30	1269.74
354.52	1210.35
354.73	1245.16
354.94	1236.97
355.15	1333.23
355.36	1247.21
355.57	1292.27
355.78	1236.97
355.99	1241.07
356.20	1308.65
356.41	1239.02
356.62	1269.74
356.83	1284.08
357.04	1212.40
357.25	1261.55
357.46	1269.74
357.68	1189.87
357.89	1335.28
358.10	1222.64
358.31	1255.40
358.52	1318.89
358.73	1265.64
358.94	1251.31
359.15	1261.55
359.36	1241.07
359.57	1331.18
359.78	1288.17
359.99	1269.74
360.20	1343.47
360.41	1228.78
360.62	1312.75
360.83	1288.17
361.04	1282.03
361.25	1322.99
361.46	1267.69
361.67	1177.58
361.88	1204.21
362.09	1275.88
362.30	1294.32
362.51	1220.59
362.72	1224.69
362.93	1275.88
363.14	1271.79
363.35	1247.21
363.56	1243.12
363.78	1310.70
363.99	1322.99
364.20	1290.22
364.41	1279.98
364.62	1239.02
364.83	1329.13
365.04	1282.03
365.25	1253.36
365.46	1220.59
365.67	1271.79
365.88	1300.46
366.09	1302.51
366.30	1265.64
366.51	1341.42
366.72	1298.41
366.93	1306.60
367.14	1239.02
367.35	1292.27
367.56	1292.27
367.77	1257.45
367.98	1232.88
368.18	1310.70
368.39	1304.56
368.60	1261.55
368.81	1320.94
369.02	1271.79
369.23	1269.74
369.44	1269.74
369.65	1263.60
369.86	1212.40
370.07	1243.12
370.28	1286.12
370.49	1314.80
370.70	1196.01
370.91	1234.93
371.12	1183.73
371.33	1253.36
371.54	1265.64
371.75	1277.93
371.96	1245.16
372.17	1275.88
372.38	1300.46
372.59	1224.69
372.80	1189.87
373.01	1230.83
373.22	1316.84
373.43	1286.12
373.64	1239.02
373.85	1277.93
374.06	1275.88
374.26	1347.56
374.47	1296.36
374.68	1226.73
374.89	1296.36
375.10	1239.02
375.31	1290.22
375.52	1298.41
375.73	1204.21
375.94	1282.03
376.15	1286.12
376.36	1253.36
376.57	1255.40
376.78	1298.41
376.99	1273.84
377.20	1298.41
377.40	1345.52
377.61	1257.45
377.82	1220.59
378.03	1155.05
378.24	1298.41
378.45	1253.36
378.66	1222.64
378.87	1306.60
379.08	1273.84
379.29	1253.36
379.50	1314.80
379.71	1247.21
379.91	1282.03
380.12	1308.65
380.33	1288.17
380.54	1269.74
380.75	1263.60
380.96	1314.80
381.17	1112.05
381.38	1243.12
381.59	1347.56
381.80	1290.22
382.00	1241.07
382.21	1267.69
382.42	1273.84
382.63	1222.64
382.84	1232.88
383.05	1249.26
383.26	1212.40
383.47	1257.45
383.68	1216.49
383.88	1318.89
384.09	1290.22
384.30	1298.41
384.51	1302.51
384.72	1269.74
384.93	1282.03
385.14	1245.16
385.35	1304.56
385.55	1284.08
385.76	1320.94
385.97	1200.11
386.18	1222.64
386.39	1263.60
386.60	1230.83
386.81	1292.27
387.02	1298.41
387.22	1257.45
387.43	1241.07
387.64	1261.55
387.85	1269.74
388.06	1239.02
388.27	1243.12
388.48	1292.27
388.68	1302.51
388.89	1208.30
389.10	1234.93
389.31	1230.83
389.52	1282.03
389.73	1245.16
389.93	1257.45
390.14	1271.79
390.35	1255.40
390.56	1243.12
390.77	1296.36
390.98	1267.69
391.18	1275.88
391.39	1314.80
391.60	1302.51
391.81	1273.84
392.02	1290.22
392.23	1284.08
392.43	1200.11
392.64	1298.41
392.85	1267.69
393.06	1191.92
393.27	1294.32
393.47	1304.56
393.68	1251.31
393.89	1282.03
394.10	1232.88
394.31	1273.84
394.52	1322.99
394.72	1277.93
394.93	1232.88
395.14	1261.55
395.35	1269.74
395.56	1277.93
395.76	1247.21
395.97	1327.08
396.18	1288.17
396.39	1265.64
396.60	1298.41
396.80	1284.08
397.01	1259.50
397.22	1337.32
397.43	1314.80
397.64	1273.84
397.84	1288.17
398.05	1206.25
398.26	1275.88
398.47	1300.46
398.67	1224.69
398.88	1173.49
399.09	1232.88
399.30	1282.03
399.51	1210.35
399.71	1247.21
399.92	1232.88
400.13	1220.59
400.34	1306.60
400.54	1277.93
400.75	1302.51
400.96	1304.56
401.17	1290.22
401.37	1269.74
401.58	1277.93
401.79	1286.12
402.00	1333.23
402.21	1284.08
402.41	1306.60
402.62	1279.98
402.83	1320.94
403.04	1245.16
403.24	1206.25
403.45	1310.70
403.66	1282.03
403.87	1325.04
404.07	1310.70
404.28	1271.79
404.49	1245.16
404.70	1265.64
404.90	1230.83
405.11	1273.84
405.32	1255.40
405.52	1208.30
405.73	1226.73
405.94	1171.44
406.15	1236.97
406.35	1191.92
406.56	1298.41
406.77	1247.21
406.98	1302.51
407.18	1173.49
407.39	1255.40
407.60	1286.12
407.80	1282.03
408.01	1284.08
408.22	1298.41
408.43	1298.41
408.63	1239.02
408.84	1279.98
409.05	1249.26
409.25	1322.99
409.46	1265.64
409.67	1282.03
409.88	1286.12
410.08	1249.26
410.29	1267.69
410.50	1306.60
410.70	1290.22
410.91	1202.16
411.12	1271.79
411.32	1296.36
411.53	1296.36
411.74	1234.93
411.95	1226.73
412.15	1263.60
412.36	1286.12
412.57	1257.45
412.77	1206.25
412.98	1247.21
413.19	1273.84
413.39	1232.88
413.60	1337.32
413.81	1243.12
414.01	1259.50
414.22	1312.75
414.43	1269.74
414.63	1302.51
414.84	1290.22
415.05	1292.27
415.25	1255.40
415.46	1241.07
415.67	1292.27
415.87	1292.27
416.08	1310.70
416.29	1222.64
416.49	1298.41
416.70	1302.51
416.91	1230.83
417.11	1257.45
417.32	1296.36
417.53	1265.64
417.73	1241.07
417.94	1275.88
418.15	1232.88
418.35	1294.32
418.56	1273.84
418.77	1265.64
418.97	1282.03
419.18	1327.08
419.38	1241.07
419.59	1261.55
419.80	1267.69
420.00	1222.64
420.21	1312.75
420.42	1284.08
420.62	1220.59
420.83	1273.84
421.04	1286.12
421.24	1198.06
421.45	1249.26
421.65	1224.69
421.86	1294.32
422.07	1257.45
422.27	1298.41
422.48	1249.26
422.69	1259.50
422.89	1333.23
423.10	1226.73
423.30	1220.59
423.51	1255.40
423.72	1325.04
423.92	1288.17
424.13	1181.68
424.33	1296.36
424.54	1296.36
424.75	1239.02
424.95	1228.78
425.16	1239.02
425.36	1191.92
425.57	1282.03
425.78	1249.26
425.98	1245.16
426.19	1355.76
426.39	1269.74
426.60	1288.17
426.81	1239.02
427.01	1216.49
427.22	1269.74
427.42	1306.60
427.63	1386.47
427.83	1257.45
428.04	1214.45
428.25	1208.30
428.45	1327.08
428.66	1284.08
428.86	1304.56
429.07	1263.60
429.28	1239.02
429.48	1259.50
429.69	1224.69
429.89	1222.64
430.10	1294.32
430.30	1292.27
430.51	1308.65
430.71	1275.88
430.92	1282.03
431.13	1312.75
431.33	1310.70
431.54	1239.02
431.74	1241.07
431.95	1230.83
432.15	1220.59
432.36	1269.74
432.56	1257.45
432.77	1273.84
432.98	1243.12
433.18	1255.40
433.39	1322.99
433.59	1257.45
433.80	1290.22
434.00	1290.22
434.21	1320.94
434.41	1294.32
434.62	1273.84
434.82	1257.45
435.03	1263.60
435.23	1284.08
435.44	1282.03
435.64	1208.30
435.85	1249.26
436.06	1288.17
436.26	1284.08
436.47	1241.07
436.67	1212.40
436.88	1265.64
437.08	1271.79
437.29	1253.36
437.49	1318.89
437.70	1312.75
437.90	1263.60
438.11	1286.12
438.31	1269.74
438.52	1253.36
438.72	1232.88
438.93	1298.41
439.13	1239.02
439.34	1251.31
439.54	1271.79
439.75	1279.98
439.95	1259.50
440.16	1206.25
440.36	1298.41
440.57	1284.08
440.77	1267.69
440.98	1300.46
441.18	1273.84
441.39	1286.12
441.59	1279.98
441.80	1286.12
442.00	1208.30
442.21	1230.83
442.41	1320.94
442.62	1265.64
442.82	1275.88
443.02	1337.32
443.23	1249.26
443.43	1261.55
443.64	1304.56
443.84	1265.64
444.05	1271.79
444.25	1275.88
444.46	1282.03
444.66	1304.56
444.87	1249.26
445.07	1290.22
445.28	1220.59
445.48	1228.78
445.69	1255.40
445.89	1351.66
446.09	1304.56
446.30	1275.88
446.50	1245.16
446.71	1251.31
446.91	1275.88
447.12	1337.32
447.32	1273.84
447.53	1282.03
447.73	1339.37
447.93	1234.93
448.14	1298.41
448.34	1265.64
448.55	1263.60
448.75	1318.89
448.96	1251.31
449.16	1239.02
449.36	1359.85
449.57	1327.08
449.77	1312.75
449.98	1247.21
450.18	1310.70
450.39	1282.03
450.59	1304.56
450.79	1259.50
451.00	1228.78
451.20	1298.41
451.41	1279.98
451.61	1255.40
451.81	1308.65
452.02	1259.50
452.22	1253.36
452.43	1290.22
452.63	1196.01
