SpectraSuite Data File
++++++++++++++++++++++++++++++++++++
Date: Sun Apr 03 19:55:15 CEST 2016
User: root
Dark Spectrum Present: No
Reference Spectrum Present: No
Number of Sampled Component Spectra: 1
Spectrometers: USB4C02835
Integration Time (usec): 10000 (USB4C02835)
Spectra Averaged: 1 (USB4C02835)
Boxcar Smoothing: 0 (USB4C02835)
Correct for Electrical Dark: No (USB4C02835)
Strobe/Lamp Enabled: No (USB4C02835)
Correct for Detector Non-linearity: No (USB4C02835)
Correct for Stray Light: No (USB4C02835)
Number of Pixels in Processed Spectrum: 3648
>>>>>Begin Processed Spectral Data<<<<<
177.47	1181.68
177.69	1181.68
177.91	1181.68
178.13	1290.22
178.36	1204.21
178.58	1271.79
178.80	1251.31
179.02	1187.82
179.24	1265.64
179.46	1232.88
179.68	1230.83
179.90	1343.47
180.13	1247.21
180.35	1310.70
180.57	1236.97
180.79	1210.35
181.01	1200.11
181.23	1296.36
181.45	1331.18
181.67	1306.60
181.90	1279.98
182.12	1296.36
182.34	1269.74
182.56	1269.74
182.78	1290.22
183.00	1290.22
183.22	1267.69
183.44	1376.24
183.66	1273.84
183.89	1273.84
184.11	1239.02
184.33	1259.50
184.55	1320.94
184.77	1265.64
184.99	1263.60
185.21	1298.41
185.43	1312.75
185.65	1222.64
185.87	1279.98
186.10	1255.40
186.32	1251.31
186.54	1204.21
186.76	1296.36
186.98	1304.56
187.20	1245.16
187.42	1255.40
187.64	1259.50
187.86	1269.74
188.08	1277.93
188.30	1279.98
188.52	1214.45
188.75	1372.14
188.97	1249.26
189.19	1257.45
189.41	1357.80
189.63	1234.93
189.85	1241.07
190.07	1216.49
190.29	1261.55
190.51	1286.12
190.73	1290.22
190.95	1267.69
191.17	1275.88
191.39	1288.17
191.61	1267.69
191.84	1224.69
192.06	1329.13
192.28	1273.84
192.50	1275.88
192.72	1279.98
192.94	1300.46
193.16	1368.04
193.38	1290.22
193.60	1222.64
193.82	1198.06
194.04	1290.22
194.26	1261.55
194.48	1286.12
194.70	1247.21
194.92	1310.70
195.14	1206.25
195.36	1236.97
195.58	1275.88
195.80	1208.30
196.02	1269.74
196.24	1273.84
196.46	1277.93
196.69	1224.69
196.91	1284.08
197.13	1271.79
197.35	1265.64
197.57	1228.78
197.79	1325.04
198.01	1247.21
198.23	1329.13
198.45	1331.18
198.67	1296.36
198.89	1218.54
199.11	1282.03
199.33	1325.04
199.55	1208.30
199.77	1261.55
199.99	1331.18
200.21	1255.40
200.43	1253.36
200.65	1292.27
200.87	1269.74
201.09	1261.55
201.31	1257.45
201.53	1267.69
201.75	1322.99
201.97	1230.83
202.19	1314.80
202.41	1198.06
202.63	1263.60
202.85	1214.45
203.07	1241.07
203.29	1279.98
203.51	1200.11
203.73	1275.88
203.95	1263.60
204.17	1236.97
204.39	1310.70
204.61	1259.50
204.83	1298.41
205.05	1232.88
205.27	1288.17
205.49	1290.22
205.71	1288.17
205.93	1273.84
206.15	1337.32
206.37	1290.22
206.59	1277.93
206.81	1232.88
207.03	1259.50
207.25	1267.69
207.47	1359.85
207.69	1284.08
207.91	1273.84
208.13	1275.88
208.34	1331.18
208.56	1306.60
208.78	1255.40
209.00	1189.87
209.22	1259.50
209.44	1290.22
209.66	1241.07
209.88	1310.70
210.10	1236.97
210.32	1282.03
210.54	1300.46
210.76	1255.40
210.98	1259.50
211.20	1288.17
211.42	1282.03
211.64	1282.03
211.86	1292.27
212.08	1228.78
212.30	1253.36
212.52	1310.70
212.74	1259.50
212.96	1249.26
213.17	1290.22
213.39	1253.36
213.61	1316.84
213.83	1349.61
214.05	1265.64
214.27	1290.22
214.49	1271.79
214.71	1298.41
214.93	1355.76
215.15	1292.27
215.37	1259.50
215.59	1322.99
215.81	1234.93
216.03	1236.97
216.24	1230.83
216.46	1247.21
216.68	1298.41
216.90	1253.36
217.12	1325.04
217.34	1277.93
217.56	1253.36
217.78	1314.80
218.00	1253.36
218.22	1292.27
218.44	1288.17
218.66	1255.40
218.87	1339.37
219.09	1230.83
219.31	1234.93
219.53	1267.69
219.75	1320.94
219.97	1249.26
220.19	1316.84
220.41	1322.99
220.63	1255.40
220.85	1257.45
221.06	1241.07
221.28	1251.31
221.50	1320.94
221.72	1226.73
221.94	1345.52
222.16	1259.50
222.38	1290.22
222.60	1298.41
222.82	1212.40
223.03	1279.98
223.25	1347.56
223.47	1222.64
223.69	1296.36
223.91	1310.70
224.13	1314.80
224.35	1241.07
224.57	1294.32
224.78	1277.93
225.00	1298.41
225.22	1267.69
225.44	1236.97
225.66	1333.23
225.88	1222.64
226.10	1210.35
226.32	1282.03
226.53	1255.40
226.75	1247.21
226.97	1263.60
227.19	1288.17
227.41	1206.25
227.63	1304.56
227.85	1214.45
228.06	1304.56
228.28	1245.16
228.50	1322.99
228.72	1179.63
228.94	1241.07
229.16	1269.74
229.37	1196.01
229.59	1181.68
229.81	1304.56
230.03	1320.94
230.25	1271.79
230.47	1271.79
230.69	1222.64
230.90	1234.93
231.12	1339.37
231.34	1271.79
231.56	1241.07
231.78	1243.12
232.00	1249.26
232.21	1249.26
232.43	1363.95
232.65	1253.36
232.87	1284.08
233.09	1312.75
233.30	1259.50
233.52	1249.26
233.74	1296.36
233.96	1310.70
234.18	1284.08
234.40	1200.11
234.61	1318.89
234.83	1224.69
235.05	1175.53
235.27	1312.75
235.49	1247.21
235.70	1232.88
235.92	1312.75
236.14	1331.18
236.36	1337.32
236.58	1187.82
236.79	1261.55
237.01	1294.32
237.23	1249.26
237.45	1216.49
237.67	1282.03
237.88	1198.06
238.10	1312.75
238.32	1245.16
238.54	1314.80
238.76	1304.56
238.97	1322.99
239.19	1251.31
239.41	1298.41
239.63	1370.09
239.85	1239.02
240.06	1271.79
240.28	1267.69
240.50	1310.70
240.72	1271.79
240.93	1279.98
241.15	1329.13
241.37	1243.12
241.59	1200.11
241.81	1249.26
242.02	1228.78
242.24	1320.94
242.46	1300.46
242.68	1206.25
242.89	1214.45
243.11	1191.92
243.33	1236.97
243.55	1243.12
243.76	1275.88
243.98	1232.88
244.20	1271.79
244.42	1263.60
244.64	1214.45
244.85	1269.74
245.07	1298.41
245.29	1269.74
245.51	1241.07
245.72	1249.26
245.94	1277.93
246.16	1298.41
246.38	1333.23
246.59	1208.30
246.81	1322.99
247.03	1277.93
247.24	1218.54
247.46	1304.56
247.68	1337.32
247.90	1183.73
248.11	1306.60
248.33	1159.15
248.55	1273.84
248.77	1239.02
248.98	1239.02
249.20	1296.36
249.42	1308.65
249.64	1308.65
249.85	1288.17
250.07	1247.21
250.29	1279.98
250.50	1249.26
250.72	1253.36
250.94	1239.02
251.16	1290.22
251.37	1329.13
251.59	1306.60
251.81	1234.93
252.02	1253.36
252.24	1284.08
252.46	1257.45
252.68	1304.56
252.89	1304.56
253.11	1239.02
253.33	1275.88
253.54	1265.64
253.76	1290.22
253.98	1292.27
254.20	1216.49
254.41	1355.76
254.63	1325.04
254.85	1245.16
255.06	1232.88
255.28	1275.88
255.50	1269.74
255.71	1216.49
255.93	1290.22
256.15	1261.55
256.36	1263.60
256.58	1284.08
256.80	1261.55
257.02	1292.27
257.23	1249.26
257.45	1286.12
257.67	1259.50
257.88	1218.54
258.10	1296.36
258.32	1269.74
258.53	1366.00
258.75	1271.79
258.97	1261.55
259.18	1177.58
259.40	1290.22
259.62	1271.79
259.83	1208.30
260.05	1234.93
260.27	1327.08
260.48	1294.32
260.70	1265.64
260.92	1322.99
261.13	1378.28
261.35	1269.74
261.57	1196.01
261.78	1249.26
262.00	1265.64
262.22	1234.93
262.43	1265.64
262.65	1341.42
262.86	1232.88
263.08	1212.40
263.30	1306.60
263.51	1349.61
263.73	1241.07
263.95	1292.27
264.16	1288.17
264.38	1286.12
264.60	1298.41
264.81	1357.80
265.03	1222.64
265.25	1216.49
265.46	1185.77
265.68	1308.65
265.89	1331.18
266.11	1234.93
266.33	1320.94
266.54	1253.36
266.76	1284.08
266.98	1306.60
267.19	1183.73
267.41	1282.03
267.62	1312.75
267.84	1284.08
268.06	1232.88
268.27	1239.02
268.49	1243.12
268.70	1320.94
268.92	1253.36
269.14	1382.38
269.35	1161.20
269.57	1255.40
269.79	1247.21
270.00	1290.22
270.22	1220.59
270.43	1304.56
270.65	1275.88
270.87	1271.79
271.08	1271.79
271.30	1298.41
271.51	1306.60
271.73	1282.03
271.95	1279.98
272.16	1318.89
272.38	1234.93
272.59	1279.98
272.81	1259.50
273.02	1265.64
273.24	1304.56
273.46	1255.40
273.67	1216.49
273.89	1310.70
274.10	1200.11
274.32	1249.26
274.54	1241.07
274.75	1234.93
274.97	1230.83
275.18	1243.12
275.40	1288.17
275.61	1273.84
275.83	1298.41
276.05	1232.88
276.26	1198.06
276.48	1275.88
276.69	1257.45
276.91	1255.40
277.12	1366.00
277.34	1296.36
277.55	1234.93
277.77	1251.31
277.99	1224.69
278.20	1232.88
278.42	1263.60
278.63	1259.50
278.85	1226.73
279.06	1273.84
279.28	1288.17
279.49	1273.84
279.71	1259.50
279.93	1269.74
280.14	1318.89
280.36	1265.64
280.57	1282.03
280.79	1236.97
281.00	1279.98
281.22	1204.21
281.43	1306.60
281.65	1318.89
281.86	1220.59
282.08	1243.12
282.29	1255.40
282.51	1232.88
282.73	1226.73
282.94	1216.49
283.16	1232.88
283.37	1253.36
283.59	1374.19
283.80	1232.88
284.02	1316.84
284.23	1286.12
284.45	1279.98
284.66	1277.93
284.88	1314.80
285.09	1236.97
285.31	1288.17
285.52	1267.69
285.74	1206.25
285.95	1241.07
286.17	1277.93
286.38	1310.70
286.60	1312.75
286.81	1214.45
287.03	1275.88
287.24	1302.51
287.46	1245.16
287.67	1286.12
287.89	1247.21
288.10	1277.93
288.32	1290.22
288.53	1357.80
288.75	1202.16
288.96	1314.80
289.18	1234.93
289.39	1318.89
289.61	1288.17
289.82	1284.08
290.04	1296.36
290.25	1224.69
290.47	1226.73
290.68	1253.36
290.90	1253.36
291.11	1275.88
291.33	1327.08
291.54	1255.40
291.76	1234.93
291.97	1265.64
292.18	1257.45
292.40	1271.79
292.61	1267.69
292.83	1355.76
293.04	1282.03
293.26	1292.27
293.47	1263.60
293.69	1296.36
293.90	1263.60
294.12	1216.49
294.33	1239.02
294.55	1273.84
294.76	1339.37
294.97	1261.55
295.19	1288.17
295.40	1243.12
295.62	1282.03
295.83	1290.22
296.05	1251.31
296.26	1267.69
296.48	1308.65
296.69	1282.03
296.90	1253.36
297.12	1277.93
297.33	1318.89
297.55	1267.69
297.76	1284.08
297.98	1193.97
298.19	1265.64
298.41	1343.47
298.62	1234.93
298.83	1263.60
299.05	1249.26
299.26	1220.59
299.48	1271.79
299.69	1284.08
299.90	1284.08
300.12	1249.26
300.33	1255.40
300.55	1337.32
300.76	1220.59
300.98	1187.82
301.19	1228.78
301.40	1320.94
301.62	1320.94
301.83	1273.84
302.05	1249.26
302.26	1300.46
302.47	1257.45
302.69	1236.97
302.90	1189.87
303.12	1216.49
303.33	1322.99
303.54	1241.07
303.76	1236.97
303.97	1222.64
304.19	1255.40
304.40	1282.03
304.61	1230.83
304.83	1251.31
305.04	1282.03
305.26	1226.73
305.47	1265.64
305.68	1267.69
305.90	1277.93
306.11	1228.78
306.33	1265.64
306.54	1318.89
306.75	1208.30
306.97	1212.40
307.18	1204.21
307.39	1271.79
307.61	1208.30
307.82	1214.45
308.04	1234.93
308.25	1265.64
308.46	1251.31
308.68	1351.66
308.89	1294.32
309.10	1198.06
309.32	1253.36
309.53	1316.84
309.74	1234.93
309.96	1210.35
310.17	1322.99
310.39	1267.69
310.60	1288.17
310.81	1284.08
311.03	1298.41
311.24	1181.68
311.45	1232.88
311.67	1259.50
311.88	1306.60
312.09	1265.64
312.31	1263.60
312.52	1208.30
312.73	1241.07
312.95	1327.08
313.16	1288.17
313.37	1308.65
313.59	1273.84
313.80	1249.26
314.01	1257.45
314.23	1296.36
314.44	1286.12
314.65	1284.08
314.87	1257.45
315.08	1236.97
315.29	1294.32
315.51	1214.45
315.72	1271.79
315.93	1245.16
316.15	1284.08
316.36	1249.26
316.57	1200.11
316.79	1366.00
317.00	1306.60
317.21	1302.51
317.43	1290.22
317.64	1259.50
317.85	1198.06
318.07	1294.32
318.28	1292.27
318.49	1175.53
318.70	1220.59
318.92	1193.97
319.13	1230.83
319.34	1294.32
319.56	1226.73
319.77	1222.64
319.98	1220.59
320.20	1312.75
320.41	1228.78
320.62	1222.64
320.83	1204.21
321.05	1196.01
321.26	1265.64
321.47	1296.36
321.69	1314.80
321.90	1267.69
322.11	1189.87
322.32	1286.12
322.54	1247.21
322.75	1140.72
322.96	1282.03
323.18	1208.30
323.39	1290.22
323.60	1284.08
323.81	1200.11
324.03	1269.74
324.24	1368.04
324.45	1331.18
324.66	1247.21
324.88	1290.22
325.09	1247.21
325.30	1341.42
325.52	1288.17
325.73	1343.47
325.94	1314.80
326.15	1239.02
326.37	1298.41
326.58	1232.88
326.79	1239.02
327.00	1249.26
327.22	1267.69
327.43	1224.69
327.64	1200.11
327.85	1255.40
328.07	1318.89
328.28	1216.49
328.49	1294.32
328.70	1222.64
328.92	1325.04
329.13	1241.07
329.34	1263.60
329.55	1273.84
329.76	1263.60
329.98	1210.35
330.19	1263.60
330.40	1284.08
330.61	1282.03
330.83	1271.79
331.04	1257.45
331.25	1253.36
331.46	1282.03
331.68	1284.08
331.89	1302.51
332.10	1206.25
332.31	1275.88
332.52	1251.31
332.74	1308.65
332.95	1222.64
333.16	1228.78
333.37	1236.97
333.58	1222.64
333.80	1200.11
334.01	1288.17
334.22	1230.83
334.43	1245.16
334.64	1228.78
334.86	1290.22
335.07	1329.13
335.28	1304.56
335.49	1306.60
335.70	1259.50
335.92	1310.70
336.13	1279.98
336.34	1282.03
336.55	1271.79
336.76	1241.07
336.98	1253.36
337.19	1261.55
337.40	1277.93
337.61	1314.80
337.82	1339.37
338.04	1226.73
338.25	1279.98
338.46	1292.27
338.67	1224.69
338.88	1316.84
339.09	1247.21
339.31	1265.64
339.52	1247.21
339.73	1249.26
339.94	1306.60
340.15	1331.18
340.36	1282.03
340.58	1259.50
340.79	1247.21
341.00	1224.69
341.21	1337.32
341.42	1273.84
341.63	1308.65
341.85	1327.08
342.06	1269.74
342.27	1257.45
342.48	1255.40
342.69	1214.45
342.90	1277.93
343.12	1294.32
343.33	1196.01
343.54	1253.36
343.75	1181.68
343.96	1265.64
344.17	1314.80
344.38	1300.46
344.60	1234.93
344.81	1308.65
345.02	1245.16
345.23	1284.08
345.44	1273.84
345.65	1218.54
345.86	1275.88
346.07	1353.71
346.29	1263.60
346.50	1218.54
346.71	1249.26
346.92	1279.98
347.13	1302.51
347.34	1300.46
347.55	1226.73
347.76	1329.13
347.98	1259.50
348.19	1333.23
348.40	1273.84
348.61	1376.24
348.82	1269.74
349.03	1249.26
349.24	1277.93
349.45	1245.16
349.66	1351.66
349.88	1275.88
350.09	1245.16
350.30	1218.54
350.51	1263.60
350.72	1327.08
350.93	1310.70
351.14	1245.16
351.35	1265.64
351.56	1259.50
351.77	1345.52
351.99	1171.44
352.20	1226.73
352.41	1308.65
352.62	1214.45
352.83	1251.31
353.04	1325.04
353.25	1304.56
353.46	1308.65
353.67	1366.00
353.88	1300.46
354.09	1220.59
354.30	1282.03
354.52	1314.80
354.73	1241.07
354.94	1247.21
355.15	1337.32
355.36	1183.73
355.57	1247.21
355.78	1267.69
355.99	1216.49
356.20	1257.45
356.41	1214.45
356.62	1298.41
356.83	1218.54
357.04	1216.49
357.25	1253.36
357.46	1271.79
357.68	1241.07
357.89	1265.64
358.10	1241.07
358.31	1302.51
358.52	1316.84
358.73	1316.84
358.94	1306.60
359.15	1333.23
359.36	1335.28
359.57	1273.84
359.78	1249.26
359.99	1261.55
360.20	1239.02
360.41	1337.32
360.62	1273.84
360.83	1236.97
361.04	1277.93
361.25	1212.40
361.46	1255.40
361.67	1279.98
361.88	1255.40
362.09	1366.00
362.30	1253.36
362.51	1253.36
362.72	1298.41
362.93	1191.92
363.14	1263.60
363.35	1224.69
363.56	1247.21
363.78	1306.60
363.99	1271.79
364.20	1300.46
364.41	1263.60
364.62	1269.74
364.83	1316.84
365.04	1241.07
365.25	1271.79
365.46	1302.51
365.67	1282.03
365.88	1261.55
366.09	1290.22
366.30	1306.60
366.51	1271.79
366.72	1282.03
366.93	1222.64
367.14	1210.35
367.35	1255.40
367.56	1306.60
367.77	1292.27
367.98	1269.74
368.18	1249.26
368.39	1298.41
368.60	1300.46
368.81	1259.50
369.02	1239.02
369.23	1314.80
369.44	1191.92
369.65	1302.51
369.86	1300.46
370.07	1279.98
370.28	1376.24
370.49	1312.75
370.70	1290.22
370.91	1314.80
371.12	1196.01
371.33	1269.74
371.54	1292.27
371.75	1210.35
371.96	1267.69
372.17	1279.98
372.38	1286.12
372.59	1267.69
372.80	1261.55
373.01	1255.40
373.22	1284.08
373.43	1228.78
373.64	1234.93
373.85	1220.59
374.06	1279.98
374.26	1241.07
374.47	1234.93
374.68	1263.60
374.89	1277.93
375.10	1265.64
375.31	1318.89
375.52	1241.07
375.73	1310.70
375.94	1267.69
376.15	1333.23
376.36	1284.08
376.57	1302.51
376.78	1269.74
376.99	1267.69
377.20	1320.94
377.40	1277.93
377.61	1202.16
377.82	1300.46
378.03	1249.26
378.24	1308.65
378.45	1306.60
378.66	1269.74
378.87	1267.69
379.08	1273.84
379.29	1286.12
379.50	1286.12
379.71	1226.73
379.91	1239.02
380.12	1265.64
380.33	1265.64
380.54	1234.93
380.75	1296.36
380.96	1251.31
381.17	1304.56
381.38	1275.88
381.59	1320.94
381.80	1224.69
382.00	1265.64
382.21	1271.79
382.42	1310.70
382.63	1245.16
382.84	1253.36
383.05	1255.40
383.26	1312.75
383.47	1294.32
383.68	1208.30
383.88	1218.54
384.09	1212.40
384.30	1318.89
384.51	1230.83
384.72	1345.52
384.93	1273.84
385.14	1310.70
385.35	1261.55
385.55	1243.12
385.76	1263.60
385.97	1275.88
386.18	1228.78
386.39	1290.22
386.60	1302.51
386.81	1284.08
387.02	1196.01
387.22	1335.28
387.43	1257.45
387.64	1343.47
387.85	1236.97
388.06	1220.59
388.27	1322.99
388.48	1304.56
388.68	1308.65
388.89	1345.52
389.10	1257.45
389.31	1306.60
389.52	1298.41
389.73	1288.17
389.93	1247.21
390.14	1290.22
390.35	1277.93
390.56	1288.17
390.77	1249.26
390.98	1284.08
391.18	1224.69
391.39	1259.50
391.60	1228.78
391.81	1230.83
392.02	1290.22
392.23	1300.46
392.43	1204.21
392.64	1253.36
392.85	1185.77
393.06	1282.03
393.27	1327.08
393.47	1243.12
393.68	1286.12
393.89	1245.16
394.10	1269.74
394.31	1241.07
394.52	1275.88
394.72	1271.79
394.93	1249.26
395.14	1300.46
395.35	1247.21
395.56	1327.08
395.76	1298.41
395.97	1296.36
396.18	1279.98
396.39	1271.79
396.60	1392.62
396.80	1277.93
397.01	1222.64
397.22	1206.25
397.43	1216.49
397.64	1245.16
397.84	1241.07
398.05	1241.07
398.26	1286.12
398.47	1282.03
398.67	1296.36
398.88	1236.97
399.09	1239.02
399.30	1241.07
399.51	1310.70
399.71	1208.30
399.92	1239.02
400.13	1224.69
400.34	1261.55
400.54	1249.26
400.75	1259.50
400.96	1210.35
401.17	1306.60
401.37	1318.89
401.58	1257.45
401.79	1312.75
402.00	1236.97
402.21	1282.03
402.41	1306.60
402.62	1263.60
402.83	1320.94
403.04	1251.31
403.24	1351.66
403.45	1292.27
403.66	1282.03
403.87	1296.36
404.07	1189.87
404.28	1234.93
404.49	1214.45
404.70	1316.84
404.90	1286.12
405.11	1245.16
405.32	1247.21
405.52	1300.46
405.73	1261.55
405.94	1222.64
406.15	1302.51
406.35	1288.17
406.56	1374.19
406.77	1288.17
406.98	1314.80
407.18	1239.02
407.39	1261.55
407.60	1236.97
407.80	1255.40
408.01	1241.07
408.22	1308.65
408.43	1232.88
408.63	1259.50
408.84	1251.31
409.05	1263.60
409.25	1300.46
409.46	1245.16
409.67	1236.97
409.88	1241.07
410.08	1310.70
410.29	1236.97
410.50	1282.03
410.70	1245.16
410.91	1261.55
411.12	1314.80
411.32	1296.36
411.53	1241.07
411.74	1230.83
411.95	1222.64
412.15	1277.93
412.36	1279.98
412.57	1249.26
412.77	1302.51
412.98	1282.03
413.19	1230.83
413.39	1335.28
413.60	1290.22
413.81	1298.41
414.01	1333.23
414.22	1282.03
414.43	1275.88
414.63	1265.64
414.84	1251.31
415.05	1292.27
415.25	1288.17
415.46	1347.56
415.67	1222.64
415.87	1294.32
416.08	1296.36
416.29	1263.60
416.49	1269.74
416.70	1263.60
416.91	1269.74
417.11	1228.78
417.32	1310.70
417.53	1241.07
417.73	1249.26
417.94	1347.56
418.15	1320.94
418.35	1275.88
418.56	1214.45
418.77	1251.31
418.97	1255.40
419.18	1214.45
419.38	1251.31
419.59	1226.73
419.80	1347.56
420.00	1331.18
420.21	1335.28
420.42	1267.69
420.62	1216.49
420.83	1177.58
421.04	1198.06
421.24	1286.12
421.45	1159.15
421.65	1255.40
421.86	1200.11
422.07	1273.84
422.27	1239.02
422.48	1247.21
422.69	1220.59
422.89	1341.42
423.10	1226.73
423.30	1206.25
423.51	1275.88
423.72	1269.74
423.92	1312.75
424.13	1191.92
424.33	1257.45
424.54	1249.26
424.75	1232.88
424.95	1216.49
425.16	1271.79
425.36	1277.93
425.57	1320.94
425.78	1290.22
425.98	1284.08
426.19	1337.32
426.39	1255.40
426.60	1239.02
426.81	1241.07
427.01	1232.88
427.22	1245.16
427.42	1322.99
427.63	1304.56
427.83	1296.36
428.04	1292.27
428.25	1230.83
428.45	1271.79
428.66	1318.89
428.86	1312.75
429.07	1302.51
429.28	1253.36
429.48	1218.54
429.69	1298.41
429.89	1265.64
430.10	1277.93
430.30	1253.36
430.51	1310.70
430.71	1290.22
430.92	1273.84
431.13	1277.93
431.33	1347.56
431.54	1284.08
431.74	1327.08
431.95	1271.79
432.15	1308.65
432.36	1251.31
432.56	1292.27
432.77	1202.16
432.98	1318.89
433.18	1298.41
433.39	1286.12
433.59	1292.27
433.80	1284.08
434.00	1302.51
434.21	1302.51
434.41	1218.54
434.62	1249.26
434.82	1308.65
435.03	1271.79
435.23	1257.45
435.44	1261.55
435.64	1273.84
435.85	1343.47
436.06	1343.47
436.26	1361.90
436.47	1247.21
436.67	1206.25
436.88	1329.13
437.08	1253.36
437.29	1204.21
437.49	1259.50
437.70	1267.69
437.90	1288.17
438.11	1249.26
438.31	1296.36
438.52	1259.50
438.72	1294.32
438.93	1210.35
439.13	1331.18
439.34	1218.54
439.54	1263.60
439.75	1265.64
439.95	1294.32
440.16	1253.36
440.36	1308.65
440.57	1220.59
440.77	1247.21
440.98	1243.12
441.18	1261.55
441.39	1286.12
441.59	1228.78
441.80	1333.23
442.00	1232.88
442.21	1257.45
442.41	1273.84
442.62	1349.61
442.82	1286.12
443.02	1230.83
443.23	1275.88
443.43	1288.17
443.64	1347.56
443.84	1249.26
444.05	1357.80
444.25	1189.87
444.46	1257.45
444.66	1241.07
444.87	1257.45
445.07	1300.46
445.28	1226.73
445.48	1249.26
445.69	1265.64
445.89	1286.12
446.09	1277.93
446.30	1247.21
446.50	1310.70
446.71	1339.37
446.91	1318.89
447.12	1331.18
447.32	1302.51
447.53	1331.18
447.73	1282.03
447.93	1337.32
448.14	1302.51
448.34	1361.90
448.55	1314.80
448.75	1312.75
448.96	1212.40
449.16	1333.23
449.36	1279.98
449.57	1261.55
449.77	1288.17
449.98	1298.41
450.18	1257.45
450.39	1279.98
450.59	1249.26
450.79	1265.64
451.00	1286.12
451.20	1296.36
451.41	1312.75
451.61	1372.14
451.81	1314.80
452.02	1261.55
452.22	1288.17
452.43	1255.40
452.63	1290.22
