SpectraSuite Data File
++++++++++++++++++++++++++++++++++++
Date: Sun Apr 03 19:55:45 CEST 2016
User: root
Dark Spectrum Present: No
Reference Spectrum Present: No
Number of Sampled Component Spectra: 1
Spectrometers: USB4C02835
Integration Time (usec): 10000 (USB4C02835)
Spectra Averaged: 1 (USB4C02835)
Boxcar Smoothing: 0 (USB4C02835)
Correct for Electrical Dark: No (USB4C02835)
Strobe/Lamp Enabled: No (USB4C02835)
Correct for Detector Non-linearity: No (USB4C02835)
Correct for Stray Light: No (USB4C02835)
Number of Pixels in Processed Spectrum: 3648
>>>>>Begin Processed Spectral Data<<<<<
177.47	1259.50
177.69	1259.50
177.91	1259.50
178.13	1236.97
178.36	1243.12
178.58	1329.13
178.80	1247.21
179.02	1239.02
179.24	1290.22
179.46	1247.21
179.68	1193.97
179.90	1263.60
180.13	1216.49
180.35	1261.55
180.57	1259.50
180.79	1282.03
181.01	1277.93
181.23	1300.46
181.45	1345.52
181.67	1249.26
181.90	1320.94
182.12	1277.93
182.34	1288.17
182.56	1265.64
182.78	1327.08
183.00	1290.22
183.22	1247.21
183.44	1245.16
183.66	1247.21
183.89	1275.88
184.11	1265.64
184.33	1259.50
184.55	1298.41
184.77	1271.79
184.99	1282.03
185.21	1226.73
185.43	1279.98
185.65	1292.27
185.87	1290.22
186.10	1292.27
186.32	1294.32
186.54	1228.78
186.76	1273.84
186.98	1236.97
187.20	1273.84
187.42	1267.69
187.64	1230.83
187.86	1261.55
188.08	1298.41
188.30	1247.21
188.52	1255.40
188.75	1284.08
188.97	1212.40
189.19	1236.97
189.41	1222.64
189.63	1282.03
189.85	1269.74
190.07	1318.89
190.29	1236.97
190.51	1273.84
190.73	1308.65
190.95	1236.97
191.17	1282.03
191.39	1298.41
191.61	1257.45
191.84	1318.89
192.06	1267.69
192.28	1243.12
192.50	1265.64
192.72	1255.40
192.94	1265.64
193.16	1265.64
193.38	1232.88
193.60	1273.84
193.82	1298.41
194.04	1243.12
194.26	1257.45
194.48	1251.31
194.70	1290.22
194.92	1284.08
195.14	1296.36
195.36	1257.45
195.58	1253.36
195.80	1220.59
196.02	1322.99
196.24	1255.40
196.46	1306.60
196.69	1247.21
196.91	1263.60
197.13	1161.20
197.35	1234.93
197.57	1314.80
197.79	1228.78
198.01	1234.93
198.23	1294.32
198.45	1325.04
198.67	1269.74
198.89	1253.36
199.11	1265.64
199.33	1220.59
199.55	1249.26
199.77	1239.02
199.99	1312.75
200.21	1308.65
200.43	1253.36
200.65	1277.93
200.87	1220.59
201.09	1216.49
201.31	1304.56
201.53	1306.60
201.75	1284.08
201.97	1232.88
202.19	1267.69
202.41	1234.93
202.63	1257.45
202.85	1294.32
203.07	1288.17
203.29	1200.11
203.51	1255.40
203.73	1279.98
203.95	1312.75
204.17	1271.79
204.39	1251.31
204.61	1271.79
204.83	1306.60
205.05	1277.93
205.27	1288.17
205.49	1284.08
205.71	1202.16
205.93	1308.65
206.15	1255.40
206.37	1241.07
206.59	1275.88
206.81	1279.98
207.03	1331.18
207.25	1292.27
207.47	1288.17
207.69	1249.26
207.91	1279.98
208.13	1279.98
208.34	1228.78
208.56	1198.06
208.78	1292.27
209.00	1279.98
209.22	1204.21
209.44	1255.40
209.66	1263.60
209.88	1292.27
210.10	1275.88
210.32	1265.64
210.54	1288.17
210.76	1210.35
210.98	1312.75
211.20	1214.45
211.42	1310.70
211.64	1222.64
211.86	1327.08
212.08	1185.77
212.30	1259.50
212.52	1337.32
212.74	1232.88
212.96	1193.97
213.17	1241.07
213.39	1314.80
213.61	1267.69
213.83	1253.36
214.05	1249.26
214.27	1282.03
214.49	1337.32
214.71	1290.22
214.93	1247.21
215.15	1171.44
215.37	1271.79
215.59	1226.73
215.81	1322.99
216.03	1294.32
216.24	1206.25
216.46	1245.16
216.68	1253.36
216.90	1222.64
217.12	1241.07
217.34	1261.55
217.56	1310.70
217.78	1220.59
218.00	1255.40
218.22	1245.16
218.44	1284.08
218.66	1351.66
218.87	1255.40
219.09	1210.35
219.31	1257.45
219.53	1255.40
219.75	1296.36
219.97	1239.02
220.19	1257.45
220.41	1230.83
220.63	1288.17
220.85	1253.36
221.06	1288.17
221.28	1337.32
221.50	1290.22
221.72	1222.64
221.94	1273.84
222.16	1294.32
222.38	1298.41
222.60	1282.03
222.82	1247.21
223.03	1241.07
223.25	1267.69
223.47	1265.64
223.69	1279.98
223.91	1251.31
224.13	1224.69
224.35	1265.64
224.57	1234.93
224.78	1314.80
225.00	1226.73
225.22	1228.78
225.44	1261.55
225.66	1226.73
225.88	1236.97
226.10	1318.89
226.32	1239.02
226.53	1245.16
226.75	1220.59
226.97	1279.98
227.19	1310.70
227.41	1277.93
227.63	1255.40
227.85	1241.07
228.06	1333.23
228.28	1232.88
228.50	1279.98
228.72	1327.08
228.94	1257.45
229.16	1316.84
229.37	1277.93
229.59	1243.12
229.81	1275.88
230.03	1230.83
230.25	1294.32
230.47	1286.12
230.69	1200.11
230.90	1279.98
231.12	1230.83
231.34	1241.07
231.56	1310.70
231.78	1271.79
232.00	1263.60
232.21	1265.64
232.43	1214.45
232.65	1191.92
232.87	1296.36
233.09	1216.49
233.30	1224.69
233.52	1255.40
233.74	1273.84
233.96	1245.16
234.18	1200.11
234.40	1167.34
234.61	1271.79
234.83	1277.93
235.05	1222.64
235.27	1273.84
235.49	1298.41
235.70	1236.97
235.92	1279.98
236.14	1343.47
236.36	1306.60
236.58	1263.60
236.79	1320.94
237.01	1308.65
237.23	1259.50
237.45	1335.28
237.67	1261.55
237.88	1236.97
238.10	1267.69
238.32	1304.56
238.54	1273.84
238.76	1241.07
238.97	1279.98
239.19	1265.64
239.41	1230.83
239.63	1245.16
239.85	1236.97
240.06	1329.13
240.28	1277.93
240.50	1294.32
240.72	1282.03
240.93	1253.36
241.15	1204.21
241.37	1304.56
241.59	1320.94
241.81	1243.12
242.02	1232.88
242.24	1202.16
242.46	1241.07
242.68	1228.78
242.89	1241.07
243.11	1316.84
243.33	1247.21
243.55	1214.45
243.76	1273.84
243.98	1206.25
244.20	1265.64
244.42	1327.08
244.64	1292.27
244.85	1224.69
245.07	1273.84
245.29	1247.21
245.51	1247.21
245.72	1275.88
245.94	1286.12
246.16	1241.07
246.38	1310.70
246.59	1249.26
246.81	1282.03
247.03	1247.21
247.24	1261.55
247.46	1286.12
247.68	1306.60
247.90	1320.94
248.11	1273.84
248.33	1241.07
248.55	1284.08
248.77	1263.60
248.98	1265.64
249.20	1298.41
249.42	1296.36
249.64	1275.88
249.85	1208.30
250.07	1220.59
250.29	1212.40
250.50	1267.69
250.72	1314.80
250.94	1259.50
251.16	1181.68
251.37	1245.16
251.59	1282.03
251.81	1232.88
252.02	1337.32
252.24	1263.60
252.46	1288.17
252.68	1202.16
252.89	1263.60
253.11	1290.22
253.33	1300.46
253.54	1255.40
253.76	1271.79
253.98	1263.60
254.20	1302.51
254.41	1267.69
254.63	1257.45
254.85	1210.35
255.06	1261.55
255.28	1298.41
255.50	1312.75
255.71	1263.60
255.93	1193.97
256.15	1257.45
256.36	1249.26
256.58	1189.87
256.80	1196.01
257.02	1269.74
257.23	1273.84
257.45	1224.69
257.67	1134.57
257.88	1202.16
258.10	1241.07
258.32	1325.04
258.53	1273.84
258.75	1200.11
258.97	1259.50
259.18	1232.88
259.40	1216.49
259.62	1265.64
259.83	1273.84
260.05	1294.32
260.27	1312.75
260.48	1236.97
260.70	1302.51
260.92	1269.74
261.13	1253.36
261.35	1312.75
261.57	1288.17
261.78	1175.53
262.00	1290.22
262.22	1269.74
262.43	1298.41
262.65	1236.97
262.86	1214.45
263.08	1300.46
263.30	1259.50
263.51	1273.84
263.73	1284.08
263.95	1257.45
264.16	1232.88
264.38	1275.88
264.60	1343.47
264.81	1228.78
265.03	1310.70
265.25	1255.40
265.46	1353.71
265.68	1263.60
265.89	1288.17
266.11	1310.70
266.33	1249.26
266.54	1310.70
266.76	1249.26
266.98	1261.55
267.19	1226.73
267.41	1294.32
267.62	1337.32
267.84	1267.69
268.06	1314.80
268.27	1212.40
268.49	1314.80
268.70	1320.94
268.92	1243.12
269.14	1257.45
269.35	1279.98
269.57	1327.08
269.79	1277.93
270.00	1241.07
270.22	1331.18
270.43	1236.97
270.65	1251.31
270.87	1282.03
271.08	1286.12
271.30	1296.36
271.51	1208.30
271.73	1249.26
271.95	1288.17
272.16	1312.75
272.38	1208.30
272.59	1288.17
272.81	1343.47
273.02	1271.79
273.24	1318.89
273.46	1247.21
273.67	1247.21
273.89	1273.84
274.10	1208.30
274.32	1257.45
274.54	1308.65
274.75	1339.37
274.97	1277.93
275.18	1282.03
275.40	1290.22
275.61	1294.32
275.83	1275.88
276.05	1322.99
276.26	1273.84
276.48	1310.70
276.69	1263.60
276.91	1249.26
277.12	1206.25
277.34	1290.22
277.55	1251.31
277.77	1269.74
277.99	1302.51
278.20	1255.40
278.42	1290.22
278.63	1249.26
278.85	1218.54
279.06	1251.31
279.28	1261.55
279.49	1249.26
279.71	1339.37
279.93	1228.78
280.14	1234.93
280.36	1224.69
280.57	1245.16
280.79	1267.69
281.00	1224.69
281.22	1294.32
281.43	1224.69
281.65	1292.27
281.86	1253.36
282.08	1269.74
282.29	1255.40
282.51	1212.40
282.73	1308.65
282.94	1226.73
283.16	1236.97
283.37	1271.79
283.59	1243.12
283.80	1239.02
284.02	1329.13
284.23	1224.69
284.45	1288.17
284.66	1247.21
284.88	1265.64
285.09	1279.98
285.31	1198.06
285.52	1253.36
285.74	1247.21
285.95	1243.12
286.17	1275.88
286.38	1232.88
286.60	1265.64
286.81	1249.26
287.03	1216.49
287.24	1314.80
287.46	1232.88
287.67	1290.22
287.89	1271.79
288.10	1288.17
288.32	1208.30
288.53	1189.87
288.75	1277.93
288.96	1214.45
289.18	1286.12
289.39	1335.28
289.61	1282.03
289.82	1343.47
290.04	1300.46
290.25	1271.79
290.47	1310.70
290.68	1316.84
290.90	1245.16
291.11	1282.03
291.33	1312.75
291.54	1245.16
291.76	1308.65
291.97	1249.26
292.18	1259.50
292.40	1232.88
292.61	1226.73
292.83	1286.12
293.04	1212.40
293.26	1259.50
293.47	1265.64
293.69	1271.79
293.90	1271.79
294.12	1257.45
294.33	1261.55
294.55	1312.75
294.76	1308.65
294.97	1255.40
295.19	1198.06
295.40	1196.01
295.62	1304.56
295.83	1247.21
296.05	1316.84
296.26	1275.88
296.48	1273.84
296.69	1277.93
296.90	1314.80
297.12	1259.50
297.33	1271.79
297.55	1196.01
297.76	1290.22
297.98	1228.78
298.19	1275.88
298.41	1243.12
298.62	1314.80
298.83	1308.65
299.05	1273.84
299.26	1255.40
299.48	1255.40
299.69	1212.40
299.90	1204.21
300.12	1243.12
300.33	1363.95
300.55	1265.64
300.76	1306.60
300.98	1245.16
301.19	1267.69
301.40	1220.59
301.62	1277.93
301.83	1253.36
302.05	1325.04
302.26	1292.27
302.47	1241.07
302.69	1271.79
302.90	1261.55
303.12	1279.98
303.33	1318.89
303.54	1290.22
303.76	1245.16
303.97	1286.12
304.19	1236.97
304.40	1241.07
304.61	1234.93
304.83	1212.40
305.04	1339.37
305.26	1230.83
305.47	1316.84
305.68	1318.89
305.90	1351.66
306.11	1191.92
306.33	1343.47
306.54	1226.73
306.75	1255.40
306.97	1275.88
307.18	1277.93
307.39	1302.51
307.61	1267.69
307.82	1228.78
308.04	1271.79
308.25	1255.40
308.46	1269.74
308.68	1212.40
308.89	1300.46
309.10	1239.02
309.32	1279.98
309.53	1304.56
309.74	1222.64
309.96	1243.12
310.17	1322.99
310.39	1232.88
310.60	1226.73
310.81	1306.60
311.03	1265.64
311.24	1245.16
311.45	1253.36
311.67	1212.40
311.88	1226.73
312.09	1292.27
312.31	1304.56
312.52	1284.08
312.73	1290.22
312.95	1196.01
313.16	1279.98
313.37	1247.21
313.59	1308.65
313.80	1228.78
314.01	1275.88
314.23	1277.93
314.44	1277.93
314.65	1220.59
314.87	1273.84
315.08	1257.45
315.29	1261.55
315.51	1253.36
315.72	1288.17
315.93	1275.88
316.15	1294.32
316.36	1208.30
316.57	1257.45
316.79	1296.36
317.00	1351.66
317.21	1263.60
317.43	1245.16
317.64	1243.12
317.85	1228.78
318.07	1265.64
318.28	1312.75
318.49	1214.45
318.70	1318.89
318.92	1286.12
319.13	1273.84
319.34	1218.54
319.56	1286.12
319.77	1263.60
319.98	1314.80
320.20	1247.21
320.41	1239.02
320.62	1245.16
320.83	1222.64
321.05	1320.94
321.26	1284.08
321.47	1230.83
321.69	1298.41
321.90	1220.59
322.11	1247.21
322.32	1327.08
322.54	1325.04
322.75	1261.55
322.96	1286.12
323.18	1292.27
323.39	1216.49
323.60	1275.88
323.81	1243.12
324.03	1255.40
324.24	1232.88
324.45	1312.75
324.66	1259.50
324.88	1253.36
325.09	1273.84
325.30	1279.98
325.52	1249.26
325.73	1257.45
325.94	1304.56
326.15	1363.95
326.37	1224.69
326.58	1349.61
326.79	1353.71
327.00	1261.55
327.22	1253.36
327.43	1222.64
327.64	1185.77
327.85	1302.51
328.07	1257.45
328.28	1339.37
328.49	1263.60
328.70	1216.49
328.92	1265.64
329.13	1325.04
329.34	1273.84
329.55	1247.21
329.76	1320.94
329.98	1300.46
330.19	1226.73
330.40	1279.98
330.61	1331.18
330.83	1204.21
331.04	1241.07
331.25	1255.40
331.46	1249.26
331.68	1224.69
331.89	1327.08
332.10	1263.60
332.31	1275.88
332.52	1222.64
332.74	1249.26
332.95	1239.02
333.16	1224.69
333.37	1290.22
333.58	1292.27
333.80	1243.12
334.01	1316.84
334.22	1236.97
334.43	1302.51
334.64	1232.88
334.86	1212.40
335.07	1265.64
335.28	1296.36
335.49	1245.16
335.70	1312.75
335.92	1206.25
336.13	1214.45
336.34	1325.04
336.55	1236.97
336.76	1290.22
336.98	1241.07
337.19	1245.16
337.40	1284.08
337.61	1216.49
337.82	1282.03
338.04	1286.12
338.25	1294.32
338.46	1331.18
338.67	1296.36
338.88	1243.12
339.09	1312.75
339.31	1277.93
339.52	1263.60
339.73	1290.22
339.94	1302.51
340.15	1253.36
340.36	1322.99
340.58	1302.51
340.79	1288.17
341.00	1275.88
341.21	1325.04
341.42	1267.69
341.63	1267.69
341.85	1263.60
342.06	1273.84
342.27	1234.93
342.48	1232.88
342.69	1253.36
342.90	1282.03
343.12	1253.36
343.33	1249.26
343.54	1257.45
343.75	1269.74
343.96	1339.37
344.17	1265.64
344.38	1269.74
344.60	1308.65
344.81	1294.32
345.02	1230.83
345.23	1234.93
345.44	1279.98
345.65	1298.41
345.86	1316.84
346.07	1282.03
346.29	1294.32
346.50	1224.69
346.71	1226.73
346.92	1222.64
347.13	1325.04
347.34	1249.26
347.55	1292.27
347.76	1269.74
347.98	1259.50
348.19	1216.49
348.40	1249.26
348.61	1290.22
348.82	1265.64
349.03	1337.32
349.24	1306.60
349.45	1251.31
349.66	1245.16
349.88	1277.93
350.09	1267.69
350.30	1239.02
350.51	1296.36
350.72	1296.36
350.93	1292.27
351.14	1245.16
351.35	1253.36
351.56	1288.17
351.77	1259.50
351.99	1259.50
352.20	1220.59
352.41	1218.54
352.62	1288.17
352.83	1310.70
353.04	1255.40
353.25	1302.51
353.46	1261.55
353.67	1279.98
353.88	1265.64
354.09	1257.45
354.30	1263.60
354.52	1236.97
354.73	1247.21
354.94	1288.17
355.15	1288.17
355.36	1193.97
355.57	1220.59
355.78	1273.84
355.99	1263.60
356.20	1282.03
356.41	1300.46
356.62	1314.80
356.83	1333.23
357.04	1202.16
357.25	1286.12
357.46	1292.27
357.68	1300.46
357.89	1312.75
358.10	1325.04
358.31	1253.36
358.52	1247.21
358.73	1230.83
358.94	1331.18
359.15	1263.60
359.36	1314.80
359.57	1271.79
359.78	1243.12
359.99	1204.21
360.20	1208.30
360.41	1269.74
360.62	1325.04
360.83	1314.80
361.04	1214.45
361.25	1183.73
361.46	1230.83
361.67	1253.36
361.88	1290.22
362.09	1259.50
362.30	1183.73
362.51	1245.16
362.72	1271.79
362.93	1196.01
363.14	1298.41
363.35	1216.49
363.56	1279.98
363.78	1226.73
363.99	1282.03
364.20	1216.49
364.41	1259.50
364.62	1267.69
364.83	1343.47
365.04	1320.94
365.25	1259.50
365.46	1243.12
365.67	1236.97
365.88	1296.36
366.09	1191.92
366.30	1259.50
366.51	1290.22
366.72	1249.26
366.93	1288.17
367.14	1234.93
367.35	1224.69
367.56	1304.56
367.77	1247.21
367.98	1282.03
368.18	1331.18
368.39	1232.88
368.60	1329.13
368.81	1363.95
369.02	1249.26
369.23	1265.64
369.44	1325.04
369.65	1251.31
369.86	1259.50
370.07	1257.45
370.28	1245.16
370.49	1236.97
370.70	1265.64
370.91	1198.06
371.12	1251.31
371.33	1275.88
371.54	1279.98
371.75	1261.55
371.96	1265.64
372.17	1230.83
372.38	1325.04
372.59	1337.32
372.80	1245.16
373.01	1230.83
373.22	1265.64
373.43	1302.51
373.64	1169.39
373.85	1267.69
374.06	1224.69
374.26	1226.73
374.47	1249.26
374.68	1202.16
374.89	1255.40
375.10	1310.70
375.31	1212.40
375.52	1239.02
375.73	1226.73
375.94	1298.41
376.15	1245.16
376.36	1290.22
376.57	1236.97
376.78	1228.78
376.99	1327.08
377.20	1249.26
377.40	1267.69
377.61	1232.88
377.82	1183.73
378.03	1308.65
378.24	1288.17
378.45	1286.12
378.66	1347.56
378.87	1273.84
379.08	1191.92
379.29	1257.45
379.50	1183.73
379.71	1271.79
379.91	1232.88
380.12	1259.50
380.33	1275.88
380.54	1224.69
380.75	1263.60
380.96	1189.87
381.17	1294.32
381.38	1230.83
381.59	1224.69
381.80	1257.45
382.00	1263.60
382.21	1269.74
382.42	1298.41
382.63	1263.60
382.84	1329.13
383.05	1212.40
383.26	1247.21
383.47	1282.03
383.68	1263.60
383.88	1226.73
384.09	1230.83
384.30	1263.60
384.51	1230.83
384.72	1275.88
384.93	1241.07
385.14	1230.83
385.35	1249.26
385.55	1249.26
385.76	1271.79
385.97	1257.45
386.18	1181.68
386.39	1316.84
386.60	1249.26
386.81	1263.60
387.02	1322.99
387.22	1322.99
387.43	1226.73
387.64	1306.60
387.85	1226.73
388.06	1263.60
388.27	1236.97
388.48	1314.80
388.68	1241.07
388.89	1325.04
389.10	1208.30
389.31	1292.27
389.52	1282.03
389.73	1279.98
389.93	1279.98
390.14	1294.32
390.35	1228.78
390.56	1226.73
390.77	1257.45
390.98	1310.70
391.18	1263.60
391.39	1286.12
391.60	1320.94
391.81	1232.88
392.02	1294.32
392.23	1265.64
392.43	1290.22
392.64	1271.79
392.85	1314.80
393.06	1232.88
393.27	1243.12
393.47	1255.40
393.68	1220.59
393.89	1290.22
394.10	1232.88
394.31	1267.69
394.52	1265.64
394.72	1249.26
394.93	1210.35
395.14	1263.60
395.35	1298.41
395.56	1288.17
395.76	1261.55
395.97	1224.69
396.18	1261.55
396.39	1259.50
396.60	1200.11
396.80	1208.30
397.01	1269.74
397.22	1243.12
397.43	1277.93
397.64	1185.77
397.84	1241.07
398.05	1298.41
398.26	1232.88
398.47	1206.25
398.67	1322.99
398.88	1253.36
399.09	1249.26
399.30	1177.58
399.51	1304.56
399.71	1296.36
399.92	1349.61
400.13	1271.79
400.34	1275.88
400.54	1228.78
400.75	1247.21
400.96	1253.36
401.17	1286.12
401.37	1212.40
401.58	1245.16
401.79	1239.02
402.00	1282.03
402.21	1294.32
402.41	1183.73
402.62	1228.78
402.83	1318.89
403.04	1183.73
403.24	1282.03
403.45	1279.98
403.66	1232.88
403.87	1327.08
404.07	1230.83
404.28	1239.02
404.49	1304.56
404.70	1271.79
404.90	1306.60
405.11	1230.83
405.32	1265.64
405.52	1286.12
405.73	1275.88
405.94	1185.77
406.15	1310.70
406.35	1273.84
406.56	1296.36
406.77	1269.74
406.98	1222.64
407.18	1243.12
407.39	1222.64
407.60	1255.40
407.80	1277.93
408.01	1355.76
408.22	1279.98
408.43	1271.79
408.63	1292.27
408.84	1216.49
409.05	1271.79
409.25	1273.84
409.46	1257.45
409.67	1269.74
409.88	1222.64
410.08	1247.21
410.29	1271.79
410.50	1327.08
410.70	1366.00
410.91	1300.46
411.12	1320.94
411.32	1282.03
411.53	1202.16
411.74	1353.71
411.95	1290.22
412.15	1232.88
412.36	1292.27
412.57	1214.45
412.77	1218.54
412.98	1257.45
413.19	1308.65
413.39	1318.89
413.60	1290.22
413.81	1265.64
414.01	1255.40
414.22	1265.64
414.43	1236.97
414.63	1271.79
414.84	1239.02
415.05	1267.69
415.25	1284.08
415.46	1263.60
415.67	1255.40
415.87	1306.60
416.08	1355.76
416.29	1333.23
416.49	1277.93
416.70	1216.49
416.91	1257.45
417.11	1292.27
417.32	1181.68
417.53	1255.40
417.73	1282.03
417.94	1230.83
418.15	1290.22
418.35	1271.79
418.56	1318.89
418.77	1296.36
418.97	1247.21
419.18	1300.46
419.38	1222.64
419.59	1290.22
419.80	1236.97
420.00	1259.50
420.21	1239.02
420.42	1273.84
420.62	1298.41
420.83	1271.79
421.04	1239.02
421.24	1275.88
421.45	1294.32
421.65	1290.22
421.86	1255.40
422.07	1312.75
422.27	1279.98
422.48	1261.55
422.69	1296.36
422.89	1189.87
423.10	1275.88
423.30	1243.12
423.51	1265.64
423.72	1271.79
423.92	1255.40
424.13	1230.83
424.33	1300.46
424.54	1261.55
424.75	1239.02
424.95	1243.12
425.16	1298.41
425.36	1273.84
425.57	1282.03
425.78	1245.16
425.98	1292.27
426.19	1288.17
426.39	1320.94
426.60	1236.97
426.81	1329.13
427.01	1220.59
427.22	1279.98
427.42	1253.36
427.63	1275.88
427.83	1286.12
428.04	1228.78
428.25	1296.36
428.45	1331.18
428.66	1255.40
428.86	1290.22
429.07	1257.45
429.28	1249.26
429.48	1251.31
429.69	1206.25
429.89	1275.88
430.10	1249.26
430.30	1347.56
430.51	1308.65
430.71	1239.02
430.92	1316.84
431.13	1222.64
431.33	1204.21
431.54	1298.41
431.74	1198.06
431.95	1216.49
432.15	1325.04
432.36	1214.45
432.56	1239.02
432.77	1275.88
432.98	1306.60
433.18	1284.08
433.39	1267.69
433.59	1300.46
433.80	1234.93
434.00	1302.51
434.21	1251.31
434.41	1236.97
434.62	1245.16
434.82	1296.36
435.03	1304.56
435.23	1232.88
435.44	1273.84
435.64	1314.80
435.85	1310.70
436.06	1226.73
436.26	1247.21
436.47	1257.45
436.67	1316.84
436.88	1249.26
437.08	1314.80
437.29	1380.33
437.49	1220.59
437.70	1247.21
437.90	1292.27
438.11	1292.27
438.31	1275.88
438.52	1257.45
438.72	1310.70
438.93	1290.22
439.13	1189.87
439.34	1232.88
439.54	1298.41
439.75	1243.12
439.95	1294.32
440.16	1286.12
440.36	1202.16
440.57	1196.01
440.77	1210.35
440.98	1290.22
441.18	1247.21
441.39	1308.65
441.59	1292.27
441.80	1282.03
442.00	1261.55
442.21	1306.60
442.41	1304.56
442.62	1239.02
442.82	1290.22
443.02	1247.21
443.23	1265.64
443.43	1200.11
443.64	1275.88
443.84	1234.93
444.05	1343.47
444.25	1210.35
444.46	1275.88
444.66	1265.64
444.87	1296.36
445.07	1308.65
445.28	1218.54
445.48	1245.16
445.69	1249.26
445.89	1279.98
446.09	1298.41
446.30	1226.73
446.50	1290.22
446.71	1306.60
446.91	1304.56
447.12	1343.47
447.32	1271.79
447.53	1320.94
447.73	1322.99
447.93	1286.12
448.14	1253.36
448.34	1251.31
448.55	1245.16
448.75	1322.99
448.96	1298.41
449.16	1267.69
449.36	1275.88
449.57	1300.46
449.77	1279.98
449.98	1329.13
450.18	1181.68
450.39	1347.56
450.59	1296.36
450.79	1273.84
451.00	1378.28
451.20	1290.22
451.41	1273.84
451.61	1282.03
451.81	1239.02
452.02	1271.79
452.22	1372.14
452.43	1218.54
452.63	1193.97
