SpectraSuite Data File
++++++++++++++++++++++++++++++++++++
Date: Sun Apr 03 19:55:24 CEST 2016
User: root
Dark Spectrum Present: No
Reference Spectrum Present: No
Number of Sampled Component Spectra: 1
Spectrometers: USB4C02835
Integration Time (usec): 10000 (USB4C02835)
Spectra Averaged: 1 (USB4C02835)
Boxcar Smoothing: 0 (USB4C02835)
Correct for Electrical Dark: No (USB4C02835)
Strobe/Lamp Enabled: No (USB4C02835)
Correct for Detector Non-linearity: No (USB4C02835)
Correct for Stray Light: No (USB4C02835)
Number of Pixels in Processed Spectrum: 3648
>>>>>Begin Processed Spectral Data<<<<<
177.47	1234.93
177.69	1234.93
177.91	1234.93
178.13	1257.45
178.36	1271.79
178.58	1267.69
178.80	1320.94
179.02	1296.36
179.24	1236.97
179.46	1288.17
179.68	1374.19
179.90	1228.78
180.13	1234.93
180.35	1257.45
180.57	1255.40
180.79	1253.36
181.01	1226.73
181.23	1284.08
181.45	1310.70
181.67	1316.84
181.90	1282.03
182.12	1251.31
182.34	1241.07
182.56	1191.92
182.78	1304.56
183.00	1216.49
183.22	1257.45
183.44	1284.08
183.66	1316.84
183.89	1279.98
184.11	1208.30
184.33	1372.14
184.55	1314.80
184.77	1257.45
184.99	1271.79
185.21	1249.26
185.43	1298.41
185.65	1239.02
185.87	1234.93
186.10	1265.64
186.32	1241.07
186.54	1224.69
186.76	1284.08
186.98	1294.32
187.20	1273.84
187.42	1243.12
187.64	1230.83
187.86	1306.60
188.08	1257.45
188.30	1265.64
188.52	1216.49
188.75	1298.41
188.97	1290.22
189.19	1253.36
189.41	1275.88
189.63	1210.35
189.85	1232.88
190.07	1271.79
190.29	1247.21
190.51	1241.07
190.73	1239.02
190.95	1306.60
191.17	1298.41
191.39	1267.69
191.61	1232.88
191.84	1200.11
192.06	1255.40
192.28	1277.93
192.50	1257.45
192.72	1277.93
192.94	1183.73
193.16	1327.08
193.38	1230.83
193.60	1234.93
193.82	1279.98
194.04	1261.55
194.26	1302.51
194.48	1335.28
194.70	1275.88
194.92	1212.40
195.14	1306.60
195.36	1259.50
195.58	1273.84
195.80	1191.92
196.02	1282.03
196.24	1245.16
196.46	1304.56
196.69	1267.69
196.91	1368.04
197.13	1335.28
197.35	1277.93
197.57	1230.83
197.79	1236.97
198.01	1234.93
198.23	1267.69
198.45	1259.50
198.67	1269.74
198.89	1243.12
199.11	1292.27
199.33	1241.07
199.55	1298.41
199.77	1271.79
199.99	1239.02
200.21	1288.17
200.43	1255.40
200.65	1257.45
200.87	1271.79
201.09	1200.11
201.31	1288.17
201.53	1212.40
201.75	1253.36
201.97	1331.18
202.19	1271.79
202.41	1304.56
202.63	1224.69
202.85	1159.15
203.07	1275.88
203.29	1255.40
203.51	1304.56
203.73	1292.27
203.95	1210.35
204.17	1185.77
204.39	1247.21
204.61	1304.56
204.83	1267.69
205.05	1288.17
205.27	1265.64
205.49	1282.03
205.71	1351.66
205.93	1339.37
206.15	1232.88
206.37	1292.27
206.59	1273.84
206.81	1288.17
207.03	1279.98
207.25	1279.98
207.47	1275.88
207.69	1247.21
207.91	1282.03
208.13	1236.97
208.34	1271.79
208.56	1333.23
208.78	1282.03
209.00	1253.36
209.22	1267.69
209.44	1212.40
209.66	1288.17
209.88	1212.40
210.10	1290.22
210.32	1212.40
210.54	1249.26
210.76	1286.12
210.98	1304.56
211.20	1234.93
211.42	1353.71
211.64	1292.27
211.86	1273.84
212.08	1286.12
212.30	1271.79
212.52	1214.45
212.74	1222.64
212.96	1292.27
213.17	1263.60
213.39	1226.73
213.61	1282.03
213.83	1282.03
214.05	1298.41
214.27	1310.70
214.49	1175.53
214.71	1308.65
214.93	1351.66
215.15	1288.17
215.37	1284.08
215.59	1284.08
215.81	1255.40
216.03	1275.88
216.24	1282.03
216.46	1230.83
216.68	1300.46
216.90	1261.55
217.12	1236.97
217.34	1304.56
217.56	1269.74
217.78	1265.64
218.00	1300.46
218.22	1247.21
218.44	1263.60
218.66	1206.25
218.87	1298.41
219.09	1325.04
219.31	1279.98
219.53	1329.13
219.75	1329.13
219.97	1200.11
220.19	1236.97
220.41	1322.99
220.63	1302.51
220.85	1220.59
221.06	1224.69
221.28	1257.45
221.50	1288.17
221.72	1261.55
221.94	1294.32
222.16	1312.75
222.38	1214.45
222.60	1286.12
222.82	1275.88
223.03	1255.40
223.25	1275.88
223.47	1255.40
223.69	1286.12
223.91	1245.16
224.13	1282.03
224.35	1312.75
224.57	1216.49
224.78	1255.40
225.00	1239.02
225.22	1314.80
225.44	1275.88
225.66	1226.73
225.88	1316.84
226.10	1273.84
226.32	1267.69
226.53	1320.94
226.75	1271.79
226.97	1286.12
227.19	1286.12
227.41	1232.88
227.63	1249.26
227.85	1222.64
228.06	1288.17
228.28	1312.75
228.50	1222.64
228.72	1204.21
228.94	1288.17
229.16	1232.88
229.37	1232.88
229.59	1230.83
229.81	1236.97
230.03	1302.51
230.25	1339.37
230.47	1263.60
230.69	1232.88
230.90	1292.27
231.12	1271.79
231.34	1265.64
231.56	1304.56
231.78	1226.73
232.00	1273.84
232.21	1167.34
232.43	1247.21
232.65	1241.07
232.87	1224.69
233.09	1224.69
233.30	1277.93
233.52	1208.30
233.74	1239.02
233.96	1277.93
234.18	1286.12
234.40	1230.83
234.61	1288.17
234.83	1216.49
235.05	1232.88
235.27	1265.64
235.49	1265.64
235.70	1241.07
235.92	1212.40
236.14	1279.98
236.36	1269.74
236.58	1224.69
236.79	1290.22
237.01	1255.40
237.23	1239.02
237.45	1333.23
237.67	1249.26
237.88	1222.64
238.10	1269.74
238.32	1314.80
238.54	1298.41
238.76	1230.83
238.97	1314.80
239.19	1273.84
239.41	1255.40
239.63	1318.89
239.85	1308.65
240.06	1243.12
240.28	1359.85
240.50	1277.93
240.72	1327.08
240.93	1279.98
241.15	1284.08
241.37	1318.89
241.59	1322.99
241.81	1212.40
242.02	1212.40
242.24	1236.97
242.46	1318.89
242.68	1232.88
242.89	1294.32
243.11	1267.69
243.33	1271.79
243.55	1232.88
243.76	1230.83
243.98	1271.79
244.20	1265.64
244.42	1234.93
244.64	1282.03
244.85	1247.21
245.07	1241.07
245.29	1255.40
245.51	1257.45
245.72	1282.03
245.94	1239.02
246.16	1241.07
246.38	1322.99
246.59	1294.32
246.81	1249.26
247.03	1249.26
247.24	1314.80
247.46	1257.45
247.68	1279.98
247.90	1298.41
248.11	1259.50
248.33	1298.41
248.55	1269.74
248.77	1224.69
248.98	1245.16
249.20	1263.60
249.42	1269.74
249.64	1327.08
249.85	1300.46
250.07	1245.16
250.29	1261.55
250.50	1310.70
250.72	1208.30
250.94	1210.35
251.16	1239.02
251.37	1284.08
251.59	1253.36
251.81	1312.75
252.02	1308.65
252.24	1320.94
252.46	1329.13
252.68	1296.36
252.89	1232.88
253.11	1261.55
253.33	1284.08
253.54	1251.31
253.76	1206.25
253.98	1314.80
254.20	1284.08
254.41	1232.88
254.63	1206.25
254.85	1257.45
255.06	1267.69
255.28	1271.79
255.50	1288.17
255.71	1261.55
255.93	1234.93
256.15	1259.50
256.36	1273.84
256.58	1279.98
256.80	1269.74
257.02	1218.54
257.23	1218.54
257.45	1259.50
257.67	1239.02
257.88	1282.03
258.10	1259.50
258.32	1232.88
258.53	1329.13
258.75	1210.35
258.97	1206.25
259.18	1296.36
259.40	1286.12
259.62	1265.64
259.83	1290.22
260.05	1306.60
260.27	1267.69
260.48	1290.22
260.70	1232.88
260.92	1230.83
261.13	1265.64
261.35	1322.99
261.57	1290.22
261.78	1275.88
262.00	1312.75
262.22	1267.69
262.43	1277.93
262.65	1286.12
262.86	1255.40
263.08	1286.12
263.30	1284.08
263.51	1316.84
263.73	1263.60
263.95	1300.46
264.16	1253.36
264.38	1308.65
264.60	1263.60
264.81	1277.93
265.03	1269.74
265.25	1230.83
265.46	1296.36
265.68	1185.77
265.89	1247.21
266.11	1275.88
266.33	1241.07
266.54	1271.79
266.76	1325.04
266.98	1298.41
267.19	1325.04
267.41	1249.26
267.62	1232.88
267.84	1204.21
268.06	1279.98
268.27	1261.55
268.49	1290.22
268.70	1241.07
268.92	1286.12
269.14	1314.80
269.35	1255.40
269.57	1286.12
269.79	1271.79
270.00	1224.69
270.22	1312.75
270.43	1200.11
270.65	1259.50
270.87	1335.28
271.08	1284.08
271.30	1282.03
271.51	1216.49
271.73	1212.40
271.95	1314.80
272.16	1304.56
272.38	1259.50
272.59	1222.64
272.81	1245.16
273.02	1212.40
273.24	1298.41
273.46	1277.93
273.67	1255.40
273.89	1263.60
274.10	1271.79
274.32	1239.02
274.54	1320.94
274.75	1232.88
274.97	1218.54
275.18	1290.22
275.40	1308.65
275.61	1302.51
275.83	1241.07
276.05	1204.21
276.26	1263.60
276.48	1265.64
276.69	1200.11
276.91	1245.16
277.12	1341.42
277.34	1257.45
277.55	1251.31
277.77	1202.16
277.99	1271.79
278.20	1177.58
278.42	1232.88
278.63	1261.55
278.85	1241.07
279.06	1333.23
279.28	1322.99
279.49	1183.73
279.71	1265.64
279.93	1193.97
280.14	1298.41
280.36	1245.16
280.57	1253.36
280.79	1251.31
281.00	1296.36
281.22	1267.69
281.43	1253.36
281.65	1263.60
281.86	1208.30
282.08	1304.56
282.29	1173.49
282.51	1234.93
282.73	1279.98
282.94	1202.16
283.16	1273.84
283.37	1253.36
283.59	1263.60
283.80	1296.36
284.02	1292.27
284.23	1314.80
284.45	1224.69
284.66	1261.55
284.88	1153.01
285.09	1263.60
285.31	1234.93
285.52	1271.79
285.74	1236.97
285.95	1218.54
286.17	1269.74
286.38	1275.88
286.60	1384.43
286.81	1279.98
287.03	1308.65
287.24	1255.40
287.46	1241.07
287.67	1345.52
287.89	1312.75
288.10	1206.25
288.32	1310.70
288.53	1239.02
288.75	1257.45
288.96	1263.60
289.18	1247.21
289.39	1177.58
289.61	1296.36
289.82	1236.97
290.04	1210.35
290.25	1308.65
290.47	1282.03
290.68	1214.45
290.90	1232.88
291.11	1263.60
291.33	1232.88
291.54	1275.88
291.76	1230.83
291.97	1294.32
292.18	1284.08
292.40	1333.23
292.61	1210.35
292.83	1249.26
293.04	1200.11
293.26	1251.31
293.47	1263.60
293.69	1273.84
293.90	1230.83
294.12	1294.32
294.33	1308.65
294.55	1269.74
294.76	1245.16
294.97	1271.79
295.19	1298.41
295.40	1255.40
295.62	1277.93
295.83	1198.06
296.05	1279.98
296.26	1316.84
296.48	1245.16
296.69	1304.56
296.90	1251.31
297.12	1343.47
297.33	1298.41
297.55	1310.70
297.76	1306.60
297.98	1277.93
298.19	1263.60
298.41	1259.50
298.62	1257.45
298.83	1271.79
299.05	1310.70
299.26	1277.93
299.48	1230.83
299.69	1255.40
299.90	1271.79
300.12	1308.65
300.33	1277.93
300.55	1337.32
300.76	1249.26
300.98	1331.18
301.19	1316.84
301.40	1212.40
301.62	1290.22
301.83	1267.69
302.05	1339.37
302.26	1249.26
302.47	1308.65
302.69	1284.08
302.90	1228.78
303.12	1198.06
303.33	1349.61
303.54	1253.36
303.76	1239.02
303.97	1275.88
304.19	1275.88
304.40	1228.78
304.61	1253.36
304.83	1277.93
305.04	1279.98
305.26	1249.26
305.47	1255.40
305.68	1273.84
305.90	1288.17
306.11	1253.36
306.33	1214.45
306.54	1224.69
306.75	1222.64
306.97	1259.50
307.18	1249.26
307.39	1335.28
307.61	1204.21
307.82	1247.21
308.04	1288.17
308.25	1273.84
308.46	1228.78
308.68	1296.36
308.89	1261.55
309.10	1312.75
309.32	1282.03
309.53	1234.93
309.74	1271.79
309.96	1277.93
310.17	1279.98
310.39	1185.77
310.60	1243.12
310.81	1247.21
311.03	1230.83
311.24	1253.36
311.45	1241.07
311.67	1286.12
311.88	1279.98
312.09	1333.23
312.31	1224.69
312.52	1329.13
312.73	1271.79
312.95	1253.36
313.16	1284.08
313.37	1239.02
313.59	1234.93
313.80	1292.27
314.01	1271.79
314.23	1259.50
314.44	1232.88
314.65	1339.37
314.87	1189.87
315.08	1273.84
315.29	1257.45
315.51	1265.64
315.72	1212.40
315.93	1273.84
316.15	1306.60
316.36	1243.12
316.57	1306.60
316.79	1202.16
317.00	1304.56
317.21	1284.08
317.43	1222.64
317.64	1304.56
317.85	1298.41
318.07	1245.16
318.28	1236.97
318.49	1175.53
318.70	1290.22
318.92	1259.50
319.13	1282.03
319.34	1304.56
319.56	1275.88
319.77	1277.93
319.98	1255.40
320.20	1294.32
320.41	1308.65
320.62	1296.36
320.83	1226.73
321.05	1290.22
321.26	1239.02
321.47	1261.55
321.69	1300.46
321.90	1312.75
322.11	1288.17
322.32	1200.11
322.54	1335.28
322.75	1257.45
322.96	1298.41
323.18	1288.17
323.39	1269.74
323.60	1298.41
323.81	1292.27
324.03	1253.36
324.24	1230.83
324.45	1275.88
324.66	1282.03
324.88	1300.46
325.09	1363.95
325.30	1239.02
325.52	1310.70
325.73	1286.12
325.94	1263.60
326.15	1253.36
326.37	1216.49
326.58	1318.89
326.79	1236.97
327.00	1220.59
327.22	1253.36
327.43	1261.55
327.64	1177.58
327.85	1282.03
328.07	1245.16
328.28	1271.79
328.49	1239.02
328.70	1265.64
328.92	1310.70
329.13	1275.88
329.34	1284.08
329.55	1261.55
329.76	1325.04
329.98	1312.75
330.19	1265.64
330.40	1257.45
330.61	1325.04
330.83	1275.88
331.04	1286.12
331.25	1198.06
331.46	1222.64
331.68	1247.21
331.89	1284.08
332.10	1284.08
332.31	1239.02
332.52	1232.88
332.74	1208.30
332.95	1239.02
333.16	1294.32
333.37	1187.82
333.58	1251.31
333.80	1241.07
334.01	1255.40
334.22	1300.46
334.43	1249.26
334.64	1304.56
334.86	1282.03
335.07	1257.45
335.28	1271.79
335.49	1290.22
335.70	1241.07
335.92	1300.46
336.13	1234.93
336.34	1253.36
336.55	1302.51
336.76	1294.32
336.98	1239.02
337.19	1247.21
337.40	1288.17
337.61	1310.70
337.82	1259.50
338.04	1249.26
338.25	1261.55
338.46	1214.45
338.67	1288.17
338.88	1261.55
339.09	1241.07
339.31	1257.45
339.52	1230.83
339.73	1212.40
339.94	1214.45
340.15	1243.12
340.36	1288.17
340.58	1228.78
340.79	1271.79
341.00	1279.98
341.21	1275.88
341.42	1312.75
341.63	1290.22
341.85	1339.37
342.06	1263.60
342.27	1300.46
342.48	1370.09
342.69	1247.21
342.90	1282.03
343.12	1273.84
343.33	1306.60
343.54	1355.76
343.75	1304.56
343.96	1316.84
344.17	1265.64
344.38	1275.88
344.60	1286.12
344.81	1241.07
345.02	1310.70
345.23	1224.69
345.44	1292.27
345.65	1310.70
345.86	1279.98
346.07	1232.88
346.29	1304.56
346.50	1265.64
346.71	1284.08
346.92	1277.93
347.13	1249.26
347.34	1112.05
347.55	1255.40
347.76	1310.70
347.98	1232.88
348.19	1265.64
348.40	1314.80
348.61	1320.94
348.82	1320.94
349.03	1275.88
349.24	1282.03
349.45	1288.17
349.66	1202.16
349.88	1224.69
350.09	1216.49
350.30	1206.25
350.51	1247.21
350.72	1257.45
350.93	1277.93
351.14	1204.21
351.35	1241.07
351.56	1275.88
351.77	1269.74
351.99	1310.70
352.20	1230.83
352.41	1318.89
352.62	1224.69
352.83	1298.41
353.04	1275.88
353.25	1327.08
353.46	1255.40
353.67	1290.22
353.88	1251.31
354.09	1300.46
354.30	1239.02
354.52	1255.40
354.73	1169.39
354.94	1218.54
355.15	1310.70
355.36	1275.88
355.57	1253.36
355.78	1243.12
355.99	1214.45
356.20	1265.64
356.41	1312.75
356.62	1255.40
356.83	1218.54
357.04	1300.46
357.25	1282.03
357.46	1306.60
357.68	1222.64
357.89	1275.88
358.10	1275.88
358.31	1298.41
358.52	1263.60
358.73	1214.45
358.94	1247.21
359.15	1257.45
359.36	1257.45
359.57	1302.51
359.78	1206.25
359.99	1368.04
360.20	1290.22
360.41	1222.64
360.62	1236.97
360.83	1327.08
361.04	1263.60
361.25	1236.97
361.46	1245.16
361.67	1273.84
361.88	1343.47
362.09	1294.32
362.30	1271.79
362.51	1273.84
362.72	1298.41
362.93	1261.55
363.14	1273.84
363.35	1200.11
363.56	1228.78
363.78	1236.97
363.99	1327.08
364.20	1234.93
364.41	1255.40
364.62	1245.16
364.83	1239.02
365.04	1173.49
365.25	1265.64
365.46	1279.98
365.67	1267.69
365.88	1284.08
366.09	1257.45
366.30	1220.59
366.51	1224.69
366.72	1288.17
366.93	1275.88
367.14	1232.88
367.35	1310.70
367.56	1277.93
367.77	1257.45
367.98	1337.32
368.18	1296.36
368.39	1294.32
368.60	1243.12
368.81	1298.41
369.02	1306.60
369.23	1214.45
369.44	1230.83
369.65	1222.64
369.86	1318.89
370.07	1214.45
370.28	1320.94
370.49	1277.93
370.70	1286.12
370.91	1249.26
371.12	1251.31
371.33	1226.73
371.54	1228.78
371.75	1239.02
371.96	1214.45
372.17	1312.75
372.38	1247.21
372.59	1265.64
372.80	1230.83
373.01	1261.55
373.22	1263.60
373.43	1275.88
373.64	1284.08
373.85	1308.65
374.06	1320.94
374.26	1218.54
374.47	1308.65
374.68	1284.08
374.89	1273.84
375.10	1191.92
375.31	1282.03
375.52	1284.08
375.73	1249.26
375.94	1271.79
376.15	1198.06
376.36	1316.84
376.57	1234.93
376.78	1298.41
376.99	1236.97
377.20	1302.51
377.40	1220.59
377.61	1241.07
377.82	1267.69
378.03	1198.06
378.24	1296.36
378.45	1243.12
378.66	1325.04
378.87	1345.52
379.08	1251.31
379.29	1218.54
379.50	1282.03
379.71	1255.40
379.91	1290.22
380.12	1226.73
380.33	1304.56
380.54	1243.12
380.75	1298.41
380.96	1251.31
381.17	1353.71
381.38	1202.16
381.59	1304.56
381.80	1255.40
382.00	1206.25
382.21	1263.60
382.42	1253.36
382.63	1228.78
382.84	1243.12
383.05	1230.83
383.26	1271.79
383.47	1261.55
383.68	1271.79
383.88	1304.56
384.09	1263.60
384.30	1253.36
384.51	1247.21
384.72	1232.88
384.93	1279.98
385.14	1257.45
385.35	1247.21
385.55	1224.69
385.76	1275.88
385.97	1337.32
386.18	1282.03
386.39	1230.83
386.60	1298.41
386.81	1247.21
387.02	1239.02
387.22	1296.36
387.43	1257.45
387.64	1263.60
387.85	1284.08
388.06	1200.11
388.27	1241.07
388.48	1193.97
388.68	1230.83
388.89	1347.56
389.10	1224.69
389.31	1286.12
389.52	1304.56
389.73	1300.46
389.93	1310.70
390.14	1329.13
390.35	1271.79
390.56	1257.45
390.77	1298.41
390.98	1236.97
391.18	1236.97
391.39	1239.02
391.60	1241.07
391.81	1239.02
392.02	1230.83
392.23	1220.59
392.43	1304.56
392.64	1230.83
392.85	1300.46
393.06	1232.88
393.27	1191.92
393.47	1335.28
393.68	1243.12
393.89	1298.41
394.10	1247.21
394.31	1277.93
394.52	1261.55
394.72	1241.07
394.93	1277.93
395.14	1234.93
395.35	1245.16
395.56	1230.83
395.76	1241.07
395.97	1206.25
396.18	1263.60
396.39	1263.60
396.60	1267.69
396.80	1261.55
397.01	1255.40
397.22	1271.79
397.43	1271.79
397.64	1232.88
397.84	1261.55
398.05	1329.13
398.26	1224.69
398.47	1257.45
398.67	1271.79
398.88	1269.74
399.09	1247.21
399.30	1218.54
399.51	1251.31
399.71	1187.82
399.92	1304.56
400.13	1298.41
400.34	1320.94
400.54	1241.07
400.75	1277.93
400.96	1224.69
401.17	1224.69
401.37	1249.26
401.58	1208.30
401.79	1261.55
402.00	1189.87
402.21	1308.65
402.41	1236.97
402.62	1290.22
402.83	1259.50
403.04	1341.42
403.24	1230.83
403.45	1300.46
403.66	1234.93
403.87	1257.45
404.07	1306.60
404.28	1243.12
404.49	1245.16
404.70	1230.83
404.90	1294.32
405.11	1310.70
405.32	1318.89
405.52	1273.84
405.73	1261.55
405.94	1220.59
406.15	1314.80
406.35	1230.83
406.56	1296.36
406.77	1259.50
406.98	1312.75
407.18	1273.84
407.39	1247.21
407.60	1361.90
407.80	1282.03
408.01	1284.08
408.22	1259.50
408.43	1273.84
408.63	1220.59
408.84	1193.97
409.05	1253.36
409.25	1290.22
409.46	1318.89
409.67	1222.64
409.88	1318.89
410.08	1214.45
410.29	1318.89
410.50	1249.26
410.70	1304.56
410.91	1175.53
411.12	1306.60
411.32	1277.93
411.53	1271.79
411.74	1318.89
411.95	1302.51
412.15	1241.07
412.36	1296.36
412.57	1249.26
412.77	1277.93
412.98	1298.41
413.19	1275.88
413.39	1224.69
413.60	1265.64
413.81	1249.26
414.01	1320.94
414.22	1249.26
414.43	1282.03
414.63	1247.21
414.84	1310.70
415.05	1255.40
415.25	1312.75
415.46	1257.45
415.67	1241.07
415.87	1255.40
416.08	1271.79
416.29	1249.26
416.49	1310.70
416.70	1357.80
416.91	1267.69
417.11	1331.18
417.32	1273.84
417.53	1290.22
417.73	1234.93
417.94	1226.73
418.15	1292.27
418.35	1298.41
418.56	1230.83
418.77	1224.69
418.97	1292.27
419.18	1245.16
419.38	1273.84
419.59	1216.49
419.80	1259.50
420.00	1208.30
420.21	1282.03
420.42	1228.78
420.62	1265.64
420.83	1212.40
421.04	1327.08
421.24	1277.93
421.45	1277.93
421.65	1259.50
421.86	1298.41
422.07	1282.03
422.27	1241.07
422.48	1308.65
422.69	1249.26
422.89	1294.32
423.10	1277.93
423.30	1312.75
423.51	1263.60
423.72	1277.93
423.92	1214.45
424.13	1279.98
424.33	1126.38
424.54	1226.73
424.75	1294.32
424.95	1290.22
425.16	1290.22
425.36	1261.55
425.57	1247.21
425.78	1335.28
425.98	1282.03
426.19	1265.64
426.39	1294.32
426.60	1249.26
426.81	1273.84
427.01	1263.60
427.22	1185.77
427.42	1269.74
427.63	1273.84
427.83	1226.73
428.04	1292.27
428.25	1247.21
428.45	1273.84
428.66	1232.88
428.86	1308.65
429.07	1308.65
429.28	1322.99
429.48	1294.32
429.69	1232.88
429.89	1236.97
430.10	1290.22
430.30	1220.59
430.51	1269.74
430.71	1325.04
430.92	1300.46
431.13	1216.49
431.33	1257.45
431.54	1386.47
431.74	1249.26
431.95	1247.21
432.15	1241.07
432.36	1279.98
432.56	1273.84
432.77	1214.45
432.98	1312.75
433.18	1308.65
433.39	1308.65
433.59	1296.36
433.80	1247.21
434.00	1277.93
434.21	1298.41
434.41	1243.12
434.62	1222.64
434.82	1271.79
435.03	1204.21
435.23	1253.36
435.44	1208.30
435.64	1286.12
435.85	1318.89
436.06	1247.21
436.26	1273.84
436.47	1284.08
436.67	1255.40
436.88	1241.07
437.08	1304.56
437.29	1212.40
437.49	1230.83
437.70	1255.40
437.90	1288.17
438.11	1318.89
438.31	1333.23
438.52	1271.79
438.72	1277.93
438.93	1224.69
439.13	1304.56
439.34	1304.56
439.54	1204.21
439.75	1257.45
439.95	1241.07
440.16	1282.03
440.36	1298.41
440.57	1279.98
440.77	1251.31
440.98	1206.25
441.18	1314.80
441.39	1226.73
441.59	1290.22
441.80	1267.69
442.00	1265.64
442.21	1337.32
442.41	1292.27
442.62	1236.97
442.82	1282.03
443.02	1286.12
443.23	1247.21
443.43	1249.26
443.64	1263.60
443.84	1302.51
444.05	1339.37
444.25	1261.55
444.46	1298.41
444.66	1251.31
444.87	1241.07
445.07	1296.36
445.28	1265.64
445.48	1216.49
445.69	1282.03
445.89	1298.41
446.09	1241.07
446.30	1355.76
446.50	1288.17
446.71	1275.88
446.91	1245.16
447.12	1308.65
447.32	1247.21
447.53	1378.28
447.73	1304.56
447.93	1343.47
448.14	1198.06
448.34	1318.89
448.55	1288.17
448.75	1267.69
448.96	1322.99
449.16	1253.36
449.36	1282.03
449.57	1239.02
449.77	1259.50
449.98	1314.80
450.18	1204.21
450.39	1269.74
450.59	1286.12
450.79	1245.16
451.00	1265.64
451.20	1300.46
451.41	1298.41
451.61	1236.97
451.81	1288.17
452.02	1265.64
452.22	1271.79
452.43	1286.12
452.63	1273.84
