SpectraSuite Data File
++++++++++++++++++++++++++++++++++++
Date: Sun Apr 03 19:55:38 CEST 2016
User: root
Dark Spectrum Present: No
Reference Spectrum Present: No
Number of Sampled Component Spectra: 1
Spectrometers: USB4C02835
Integration Time (usec): 10000 (USB4C02835)
Spectra Averaged: 1 (USB4C02835)
Boxcar Smoothing: 0 (USB4C02835)
Correct for Electrical Dark: No (USB4C02835)
Strobe/Lamp Enabled: No (USB4C02835)
Correct for Detector Non-linearity: No (USB4C02835)
Correct for Stray Light: No (USB4C02835)
Number of Pixels in Processed Spectrum: 3648
>>>>>Begin Processed Spectral Data<<<<<
177.47	1263.60
177.69	1263.60
177.91	1263.60
178.13	1284.08
178.36	1241.07
178.58	1290.22
178.80	1335.28
179.02	1234.93
179.24	1286.12
179.46	1286.12
179.68	1265.64
179.90	1249.26
180.13	1284.08
180.35	1310.70
180.57	1185.77
180.79	1279.98
181.01	1261.55
181.23	1249.26
181.45	1290.22
181.67	1243.12
181.90	1314.80
182.12	1312.75
182.34	1193.97
182.56	1275.88
182.78	1232.88
183.00	1310.70
183.22	1253.36
183.44	1263.60
183.66	1327.08
183.89	1253.36
184.11	1204.21
184.33	1302.51
184.55	1273.84
184.77	1310.70
184.99	1257.45
185.21	1288.17
185.43	1290.22
185.65	1198.06
185.87	1249.26
186.10	1208.30
186.32	1279.98
186.54	1269.74
186.76	1310.70
186.98	1275.88
187.20	1216.49
187.42	1206.25
187.64	1226.73
187.86	1298.41
188.08	1279.98
188.30	1181.68
188.52	1230.83
188.75	1259.50
188.97	1259.50
189.19	1275.88
189.41	1294.32
189.63	1263.60
189.85	1239.02
190.07	1325.04
190.29	1216.49
190.51	1259.50
190.73	1261.55
190.95	1292.27
191.17	1302.51
191.39	1275.88
191.61	1288.17
191.84	1275.88
192.06	1335.28
192.28	1222.64
192.50	1292.27
192.72	1269.74
192.94	1247.21
193.16	1296.36
193.38	1210.35
193.60	1306.60
193.82	1304.56
194.04	1271.79
194.26	1265.64
194.48	1216.49
194.70	1282.03
194.92	1202.16
195.14	1245.16
195.36	1228.78
195.58	1275.88
195.80	1267.69
196.02	1279.98
196.24	1263.60
196.46	1271.79
196.69	1263.60
196.91	1249.26
197.13	1288.17
197.35	1310.70
197.57	1286.12
197.79	1247.21
198.01	1183.73
198.23	1253.36
198.45	1308.65
198.67	1236.97
198.89	1216.49
199.11	1277.93
199.33	1277.93
199.55	1314.80
199.77	1267.69
199.99	1247.21
200.21	1253.36
200.43	1284.08
200.65	1226.73
200.87	1331.18
201.09	1247.21
201.31	1234.93
201.53	1236.97
201.75	1247.21
201.97	1206.25
202.19	1277.93
202.41	1251.31
202.63	1316.84
202.85	1224.69
203.07	1255.40
203.29	1230.83
203.51	1267.69
203.73	1232.88
203.95	1290.22
204.17	1286.12
204.39	1226.73
204.61	1220.59
204.83	1282.03
205.05	1239.02
205.27	1232.88
205.49	1179.63
205.71	1279.98
205.93	1241.07
206.15	1232.88
206.37	1210.35
206.59	1304.56
206.81	1331.18
207.03	1232.88
207.25	1298.41
207.47	1251.31
207.69	1210.35
207.91	1214.45
208.13	1224.69
208.34	1263.60
208.56	1265.64
208.78	1277.93
209.00	1191.92
209.22	1259.50
209.44	1271.79
209.66	1341.42
209.88	1292.27
210.10	1286.12
210.32	1269.74
210.54	1288.17
210.76	1271.79
210.98	1222.64
211.20	1224.69
211.42	1265.64
211.64	1261.55
211.86	1298.41
212.08	1331.18
212.30	1322.99
212.52	1286.12
212.74	1249.26
212.96	1226.73
213.17	1271.79
213.39	1302.51
213.61	1329.13
213.83	1230.83
214.05	1249.26
214.27	1300.46
214.49	1261.55
214.71	1298.41
214.93	1230.83
215.15	1312.75
215.37	1243.12
215.59	1214.45
215.81	1316.84
216.03	1245.16
216.24	1198.06
216.46	1245.16
216.68	1273.84
216.90	1296.36
217.12	1247.21
217.34	1230.83
217.56	1257.45
217.78	1363.95
218.00	1263.60
218.22	1196.01
218.44	1294.32
218.66	1261.55
218.87	1310.70
219.09	1339.37
219.31	1239.02
219.53	1239.02
219.75	1224.69
219.97	1247.21
220.19	1355.76
220.41	1257.45
220.63	1241.07
220.85	1243.12
221.06	1236.97
221.28	1337.32
221.50	1269.74
221.72	1234.93
221.94	1275.88
222.16	1341.42
222.38	1320.94
222.60	1279.98
222.82	1261.55
223.03	1316.84
223.25	1306.60
223.47	1349.61
223.69	1314.80
223.91	1253.36
224.13	1236.97
224.35	1224.69
224.57	1220.59
224.78	1316.84
225.00	1306.60
225.22	1198.06
225.44	1253.36
225.66	1243.12
225.88	1189.87
226.10	1253.36
226.32	1300.46
226.53	1277.93
226.75	1314.80
226.97	1279.98
227.19	1318.89
227.41	1267.69
227.63	1239.02
227.85	1261.55
228.06	1257.45
228.28	1269.74
228.50	1294.32
228.72	1191.92
228.94	1345.52
229.16	1286.12
229.37	1292.27
229.59	1257.45
229.81	1261.55
230.03	1314.80
230.25	1277.93
230.47	1308.65
230.69	1298.41
230.90	1271.79
231.12	1226.73
231.34	1257.45
231.56	1355.76
231.78	1241.07
232.00	1331.18
232.21	1255.40
232.43	1290.22
232.65	1308.65
232.87	1230.83
233.09	1275.88
233.30	1267.69
233.52	1232.88
233.74	1318.89
233.96	1308.65
234.18	1249.26
234.40	1259.50
234.61	1228.78
234.83	1286.12
235.05	1232.88
235.27	1296.36
235.49	1279.98
235.70	1275.88
235.92	1247.21
236.14	1257.45
236.36	1259.50
236.58	1294.32
236.79	1300.46
237.01	1351.66
237.23	1253.36
237.45	1234.93
237.67	1228.78
237.88	1222.64
238.10	1206.25
238.32	1236.97
238.54	1349.61
238.76	1236.97
238.97	1273.84
239.19	1198.06
239.41	1245.16
239.63	1243.12
239.85	1286.12
240.06	1335.28
240.28	1277.93
240.50	1341.42
240.72	1275.88
240.93	1261.55
241.15	1271.79
241.37	1257.45
241.59	1300.46
241.81	1263.60
242.02	1341.42
242.24	1296.36
242.46	1222.64
242.68	1220.59
242.89	1261.55
243.11	1279.98
243.33	1322.99
243.55	1253.36
243.76	1277.93
243.98	1239.02
244.20	1273.84
244.42	1263.60
244.64	1196.01
244.85	1183.73
245.07	1298.41
245.29	1257.45
245.51	1259.50
245.72	1284.08
245.94	1277.93
246.16	1320.94
246.38	1282.03
246.59	1329.13
246.81	1243.12
247.03	1273.84
247.24	1304.56
247.46	1361.90
247.68	1243.12
247.90	1327.08
248.11	1257.45
248.33	1257.45
248.55	1261.55
248.77	1267.69
248.98	1316.84
249.20	1304.56
249.42	1314.80
249.64	1253.36
249.85	1206.25
250.07	1218.54
250.29	1257.45
250.50	1282.03
250.72	1251.31
250.94	1239.02
251.16	1312.75
251.37	1292.27
251.59	1384.43
251.81	1257.45
252.02	1196.01
252.24	1290.22
252.46	1282.03
252.68	1222.64
252.89	1279.98
253.11	1210.35
253.33	1261.55
253.54	1275.88
253.76	1306.60
253.98	1216.49
254.20	1282.03
254.41	1247.21
254.63	1306.60
254.85	1314.80
255.06	1277.93
255.28	1247.21
255.50	1263.60
255.71	1279.98
255.93	1249.26
256.15	1288.17
256.36	1286.12
256.58	1273.84
256.80	1255.40
257.02	1228.78
257.23	1243.12
257.45	1239.02
257.67	1275.88
257.88	1288.17
258.10	1247.21
258.32	1282.03
258.53	1273.84
258.75	1296.36
258.97	1331.18
259.18	1271.79
259.40	1216.49
259.62	1226.73
259.83	1265.64
260.05	1243.12
260.27	1259.50
260.48	1294.32
260.70	1296.36
260.92	1259.50
261.13	1218.54
261.35	1236.97
261.57	1314.80
261.78	1226.73
262.00	1232.88
262.22	1310.70
262.43	1247.21
262.65	1202.16
262.86	1247.21
263.08	1298.41
263.30	1361.90
263.51	1261.55
263.73	1277.93
263.95	1249.26
264.16	1226.73
264.38	1247.21
264.60	1257.45
264.81	1286.12
265.03	1288.17
265.25	1296.36
265.46	1282.03
265.68	1241.07
265.89	1259.50
266.11	1243.12
266.33	1286.12
266.54	1236.97
266.76	1255.40
266.98	1300.46
267.19	1320.94
267.41	1265.64
267.62	1222.64
267.84	1308.65
268.06	1259.50
268.27	1253.36
268.49	1310.70
268.70	1288.17
268.92	1316.84
269.14	1261.55
269.35	1345.52
269.57	1284.08
269.79	1312.75
270.00	1232.88
270.22	1271.79
270.43	1263.60
270.65	1284.08
270.87	1232.88
271.08	1290.22
271.30	1288.17
271.51	1265.64
271.73	1249.26
271.95	1290.22
272.16	1239.02
272.38	1263.60
272.59	1236.97
272.81	1239.02
273.02	1312.75
273.24	1218.54
273.46	1239.02
273.67	1236.97
273.89	1294.32
274.10	1249.26
274.32	1245.16
274.54	1282.03
274.75	1296.36
274.97	1183.73
275.18	1267.69
275.40	1290.22
275.61	1292.27
275.83	1329.13
276.05	1292.27
276.26	1273.84
276.48	1259.50
276.69	1284.08
276.91	1304.56
277.12	1320.94
277.34	1236.97
277.55	1331.18
277.77	1273.84
277.99	1261.55
278.20	1275.88
278.42	1322.99
278.63	1282.03
278.85	1314.80
279.06	1247.21
279.28	1271.79
279.49	1298.41
279.71	1200.11
279.93	1241.07
280.14	1296.36
280.36	1265.64
280.57	1282.03
280.79	1214.45
281.00	1269.74
281.22	1196.01
281.43	1263.60
281.65	1282.03
281.86	1265.64
282.08	1300.46
282.29	1290.22
282.51	1247.21
282.73	1247.21
282.94	1171.44
283.16	1275.88
283.37	1333.23
283.59	1232.88
283.80	1243.12
284.02	1265.64
284.23	1263.60
284.45	1286.12
284.66	1191.92
284.88	1304.56
285.09	1251.31
285.31	1249.26
285.52	1202.16
285.74	1288.17
285.95	1232.88
286.17	1325.04
286.38	1329.13
286.60	1267.69
286.81	1298.41
287.03	1337.32
287.24	1286.12
287.46	1300.46
287.67	1228.78
287.89	1271.79
288.10	1267.69
288.32	1239.02
288.53	1292.27
288.75	1228.78
288.96	1251.31
289.18	1232.88
289.39	1193.97
289.61	1273.84
289.82	1257.45
290.04	1216.49
290.25	1247.21
290.47	1208.30
290.68	1300.46
290.90	1288.17
291.11	1202.16
291.33	1284.08
291.54	1378.28
291.76	1251.31
291.97	1349.61
292.18	1279.98
292.40	1206.25
292.61	1218.54
292.83	1216.49
293.04	1245.16
293.26	1179.63
293.47	1210.35
293.69	1322.99
293.90	1275.88
294.12	1239.02
294.33	1265.64
294.55	1277.93
294.76	1298.41
294.97	1265.64
295.19	1282.03
295.40	1282.03
295.62	1333.23
295.83	1253.36
296.05	1255.40
296.26	1243.12
296.48	1239.02
296.69	1228.78
296.90	1277.93
297.12	1247.21
297.33	1271.79
297.55	1271.79
297.76	1255.40
297.98	1261.55
298.19	1327.08
298.41	1232.88
298.62	1269.74
298.83	1263.60
299.05	1263.60
299.26	1265.64
299.48	1273.84
299.69	1245.16
299.90	1234.93
300.12	1322.99
300.33	1282.03
300.55	1261.55
300.76	1300.46
300.98	1226.73
301.19	1232.88
301.40	1267.69
301.62	1304.56
301.83	1253.36
302.05	1232.88
302.26	1282.03
302.47	1304.56
302.69	1290.22
302.90	1304.56
303.12	1212.40
303.33	1247.21
303.54	1241.07
303.76	1269.74
303.97	1343.47
304.19	1247.21
304.40	1345.52
304.61	1249.26
304.83	1198.06
305.04	1318.89
305.26	1271.79
305.47	1239.02
305.68	1308.65
305.90	1232.88
306.11	1300.46
306.33	1261.55
306.54	1259.50
306.75	1310.70
306.97	1312.75
307.18	1275.88
307.39	1294.32
307.61	1263.60
307.82	1322.99
308.04	1288.17
308.25	1298.41
308.46	1267.69
308.68	1304.56
308.89	1279.98
309.10	1257.45
309.32	1241.07
309.53	1271.79
309.74	1249.26
309.96	1243.12
310.17	1296.36
310.39	1255.40
310.60	1269.74
310.81	1286.12
311.03	1290.22
311.24	1314.80
311.45	1316.84
311.67	1290.22
311.88	1267.69
312.09	1257.45
312.31	1284.08
312.52	1279.98
312.73	1255.40
312.95	1312.75
313.16	1249.26
313.37	1269.74
313.59	1269.74
313.80	1329.13
314.01	1314.80
314.23	1294.32
314.44	1277.93
314.65	1214.45
314.87	1212.40
315.08	1265.64
315.29	1263.60
315.51	1236.97
315.72	1191.92
315.93	1318.89
316.15	1290.22
316.36	1222.64
316.57	1322.99
316.79	1249.26
317.00	1279.98
317.21	1265.64
317.43	1306.60
317.64	1220.59
317.85	1253.36
318.07	1249.26
318.28	1277.93
318.49	1263.60
318.70	1327.08
318.92	1218.54
319.13	1253.36
319.34	1261.55
319.56	1269.74
319.77	1316.84
319.98	1269.74
320.20	1200.11
320.41	1271.79
320.62	1269.74
320.83	1277.93
321.05	1253.36
321.26	1300.46
321.47	1216.49
321.69	1304.56
321.90	1273.84
322.11	1292.27
322.32	1228.78
322.54	1310.70
322.75	1271.79
322.96	1279.98
323.18	1298.41
323.39	1208.30
323.60	1253.36
323.81	1251.31
324.03	1208.30
324.24	1286.12
324.45	1261.55
324.66	1200.11
324.88	1304.56
325.09	1279.98
325.30	1257.45
325.52	1296.36
325.73	1226.73
325.94	1198.06
326.15	1294.32
326.37	1298.41
326.58	1282.03
326.79	1234.93
327.00	1255.40
327.22	1329.13
327.43	1296.36
327.64	1206.25
327.85	1220.59
328.07	1279.98
328.28	1341.42
328.49	1214.45
328.70	1333.23
328.92	1232.88
329.13	1198.06
329.34	1288.17
329.55	1327.08
329.76	1249.26
329.98	1296.36
330.19	1290.22
330.40	1279.98
330.61	1241.07
330.83	1290.22
331.04	1261.55
331.25	1226.73
331.46	1226.73
331.68	1212.40
331.89	1216.49
332.10	1290.22
332.31	1277.93
332.52	1284.08
332.74	1361.90
332.95	1282.03
333.16	1232.88
333.37	1298.41
333.58	1292.27
333.80	1284.08
334.01	1290.22
334.22	1241.07
334.43	1314.80
334.64	1275.88
334.86	1290.22
335.07	1206.25
335.28	1269.74
335.49	1224.69
335.70	1327.08
335.92	1232.88
336.13	1259.50
336.34	1347.56
336.55	1224.69
336.76	1220.59
336.98	1327.08
337.19	1243.12
337.40	1279.98
337.61	1243.12
337.82	1277.93
338.04	1284.08
338.25	1247.21
338.46	1320.94
338.67	1249.26
338.88	1294.32
339.09	1290.22
339.31	1224.69
339.52	1247.21
339.73	1198.06
339.94	1277.93
340.15	1284.08
340.36	1271.79
340.58	1210.35
340.79	1296.36
341.00	1196.01
341.21	1279.98
341.42	1265.64
341.63	1284.08
341.85	1273.84
342.06	1241.07
342.27	1314.80
342.48	1298.41
342.69	1196.01
342.90	1220.59
343.12	1198.06
343.33	1282.03
343.54	1200.11
343.75	1300.46
343.96	1222.64
344.17	1288.17
344.38	1310.70
344.60	1232.88
344.81	1318.89
345.02	1226.73
345.23	1196.01
345.44	1273.84
345.65	1282.03
345.86	1257.45
346.07	1245.16
346.29	1222.64
346.50	1296.36
346.71	1277.93
346.92	1249.26
347.13	1298.41
347.34	1275.88
347.55	1265.64
347.76	1245.16
347.98	1308.65
348.19	1343.47
348.40	1232.88
348.61	1234.93
348.82	1273.84
349.03	1327.08
349.24	1179.63
349.45	1187.82
349.66	1173.49
349.88	1224.69
350.09	1239.02
350.30	1210.35
350.51	1288.17
350.72	1243.12
350.93	1249.26
351.14	1259.50
351.35	1208.30
351.56	1261.55
351.77	1279.98
351.99	1282.03
352.20	1232.88
352.41	1306.60
352.62	1173.49
352.83	1275.88
353.04	1273.84
353.25	1300.46
353.46	1335.28
353.67	1286.12
353.88	1206.25
354.09	1218.54
354.30	1263.60
354.52	1253.36
354.73	1327.08
354.94	1282.03
355.15	1300.46
355.36	1286.12
355.57	1279.98
355.78	1351.66
355.99	1273.84
356.20	1191.92
356.41	1273.84
356.62	1210.35
356.83	1253.36
357.04	1218.54
357.25	1329.13
357.46	1312.75
357.68	1228.78
357.89	1282.03
358.10	1298.41
358.31	1333.23
358.52	1265.64
358.73	1208.30
358.94	1341.42
359.15	1224.69
359.36	1265.64
359.57	1269.74
359.78	1226.73
359.99	1286.12
360.20	1222.64
360.41	1228.78
360.62	1271.79
360.83	1245.16
361.04	1290.22
361.25	1269.74
361.46	1222.64
361.67	1333.23
361.88	1308.65
362.09	1247.21
362.30	1239.02
362.51	1243.12
362.72	1298.41
362.93	1245.16
363.14	1218.54
363.35	1232.88
363.56	1345.52
363.78	1282.03
363.99	1236.97
364.20	1294.32
364.41	1320.94
364.62	1267.69
364.83	1312.75
365.04	1300.46
365.25	1282.03
365.46	1214.45
365.67	1259.50
365.88	1239.02
366.09	1306.60
366.30	1255.40
366.51	1214.45
366.72	1286.12
366.93	1306.60
367.14	1228.78
367.35	1277.93
367.56	1261.55
367.77	1275.88
367.98	1345.52
368.18	1288.17
368.39	1261.55
368.60	1286.12
368.81	1214.45
369.02	1286.12
369.23	1273.84
369.44	1249.26
369.65	1257.45
369.86	1286.12
370.07	1288.17
370.28	1243.12
370.49	1265.64
370.70	1316.84
370.91	1263.60
371.12	1257.45
371.33	1298.41
371.54	1292.27
371.75	1300.46
371.96	1261.55
372.17	1261.55
372.38	1306.60
372.59	1300.46
372.80	1271.79
373.01	1275.88
373.22	1259.50
373.43	1232.88
373.64	1239.02
373.85	1296.36
374.06	1286.12
374.26	1316.84
374.47	1286.12
374.68	1282.03
374.89	1294.32
375.10	1277.93
375.31	1298.41
375.52	1255.40
375.73	1210.35
375.94	1224.69
376.15	1288.17
376.36	1212.40
376.57	1331.18
376.78	1298.41
376.99	1277.93
377.20	1241.07
377.40	1337.32
377.61	1230.83
377.82	1204.21
378.03	1279.98
378.24	1251.31
378.45	1279.98
378.66	1294.32
378.87	1298.41
379.08	1269.74
379.29	1232.88
379.50	1271.79
379.71	1263.60
379.91	1288.17
380.12	1286.12
380.33	1304.56
380.54	1341.42
380.75	1310.70
380.96	1259.50
381.17	1306.60
381.38	1302.51
381.59	1249.26
381.80	1220.59
382.00	1308.65
382.21	1243.12
382.42	1284.08
382.63	1210.35
382.84	1245.16
383.05	1294.32
383.26	1288.17
383.47	1282.03
383.68	1247.21
383.88	1251.31
384.09	1279.98
384.30	1288.17
384.51	1325.04
384.72	1279.98
384.93	1294.32
385.14	1284.08
385.35	1277.93
385.55	1296.36
385.76	1239.02
385.97	1273.84
386.18	1232.88
386.39	1245.16
386.60	1241.07
386.81	1251.31
387.02	1271.79
387.22	1277.93
387.43	1265.64
387.64	1273.84
387.85	1257.45
388.06	1290.22
388.27	1304.56
388.48	1257.45
388.68	1232.88
388.89	1316.84
389.10	1273.84
389.31	1286.12
389.52	1247.21
389.73	1236.97
389.93	1241.07
390.14	1279.98
390.35	1277.93
390.56	1259.50
390.77	1312.75
390.98	1222.64
391.18	1249.26
391.39	1159.15
391.60	1302.51
391.81	1290.22
392.02	1234.93
392.23	1275.88
392.43	1261.55
392.64	1234.93
392.85	1232.88
393.06	1236.97
393.27	1312.75
393.47	1263.60
393.68	1220.59
393.89	1232.88
394.10	1273.84
394.31	1290.22
394.52	1232.88
394.72	1257.45
394.93	1175.53
395.14	1189.87
395.35	1167.34
395.56	1261.55
395.76	1288.17
395.97	1179.63
396.18	1261.55
396.39	1236.97
396.60	1273.84
396.80	1249.26
397.01	1284.08
397.22	1191.92
397.43	1263.60
397.64	1259.50
397.84	1275.88
398.05	1306.60
398.26	1208.30
398.47	1333.23
398.67	1251.31
398.88	1267.69
399.09	1290.22
399.30	1232.88
399.51	1290.22
399.71	1286.12
399.92	1261.55
400.13	1277.93
400.34	1239.02
400.54	1273.84
400.75	1273.84
400.96	1314.80
401.17	1277.93
401.37	1310.70
401.58	1370.09
401.79	1298.41
402.00	1273.84
402.21	1286.12
402.41	1320.94
402.62	1191.92
402.83	1290.22
403.04	1224.69
403.24	1339.37
403.45	1210.35
403.66	1277.93
403.87	1308.65
404.07	1187.82
404.28	1312.75
404.49	1335.28
404.70	1257.45
404.90	1230.83
405.11	1290.22
405.32	1249.26
405.52	1267.69
405.73	1236.97
405.94	1267.69
406.15	1212.40
406.35	1196.01
406.56	1189.87
406.77	1239.02
406.98	1255.40
407.18	1279.98
407.39	1263.60
407.60	1331.18
407.80	1271.79
408.01	1263.60
408.22	1247.21
408.43	1298.41
408.63	1265.64
408.84	1239.02
409.05	1331.18
409.25	1230.83
409.46	1228.78
409.67	1361.90
409.88	1241.07
410.08	1271.79
410.29	1234.93
410.50	1329.13
410.70	1253.36
410.91	1220.59
411.12	1249.26
411.32	1257.45
411.53	1234.93
411.74	1382.38
411.95	1222.64
412.15	1253.36
412.36	1222.64
412.57	1273.84
412.77	1286.12
412.98	1230.83
413.19	1271.79
413.39	1277.93
413.60	1277.93
413.81	1214.45
414.01	1286.12
414.22	1251.31
414.43	1271.79
414.63	1204.21
414.84	1329.13
415.05	1343.47
415.25	1292.27
415.46	1298.41
415.67	1243.12
415.87	1269.74
416.08	1298.41
416.29	1331.18
416.49	1271.79
416.70	1259.50
416.91	1302.51
417.11	1273.84
417.32	1271.79
417.53	1308.65
417.73	1312.75
417.94	1251.31
418.15	1300.46
418.35	1343.47
418.56	1320.94
418.77	1269.74
418.97	1247.21
419.18	1277.93
419.38	1320.94
419.59	1226.73
419.80	1279.98
420.00	1275.88
420.21	1210.35
420.42	1253.36
420.62	1318.89
420.83	1257.45
421.04	1273.84
421.24	1263.60
421.45	1239.02
421.65	1292.27
421.86	1273.84
422.07	1282.03
422.27	1296.36
422.48	1224.69
422.69	1320.94
422.89	1294.32
423.10	1245.16
423.30	1282.03
423.51	1286.12
423.72	1222.64
423.92	1279.98
424.13	1296.36
424.33	1271.79
424.54	1288.17
424.75	1228.78
424.95	1257.45
425.16	1327.08
425.36	1308.65
425.57	1243.12
425.78	1214.45
425.98	1298.41
426.19	1253.36
426.39	1267.69
426.60	1343.47
426.81	1261.55
427.01	1234.93
427.22	1331.18
427.42	1331.18
427.63	1294.32
427.83	1361.90
428.04	1282.03
428.25	1257.45
428.45	1275.88
428.66	1349.61
428.86	1273.84
429.07	1257.45
429.28	1312.75
429.48	1316.84
429.69	1257.45
429.89	1310.70
430.10	1312.75
430.30	1253.36
430.51	1288.17
430.71	1284.08
430.92	1236.97
431.13	1214.45
431.33	1296.36
431.54	1282.03
431.74	1345.52
431.95	1220.59
432.15	1239.02
432.36	1296.36
432.56	1255.40
432.77	1253.36
432.98	1263.60
433.18	1234.93
433.39	1310.70
433.59	1230.83
433.80	1279.98
434.00	1306.60
434.21	1251.31
434.41	1316.84
434.62	1269.74
434.82	1267.69
435.03	1271.79
435.23	1286.12
435.44	1279.98
435.64	1245.16
435.85	1265.64
436.06	1253.36
436.26	1275.88
436.47	1249.26
436.67	1290.22
436.88	1263.60
437.08	1257.45
437.29	1271.79
437.49	1357.80
437.70	1290.22
437.90	1298.41
438.11	1275.88
438.31	1271.79
438.52	1251.31
438.72	1241.07
438.93	1294.32
439.13	1218.54
439.34	1282.03
439.54	1243.12
439.75	1294.32
439.95	1279.98
440.16	1249.26
440.36	1302.51
440.57	1279.98
440.77	1294.32
440.98	1236.97
441.18	1208.30
441.39	1288.17
441.59	1273.84
441.80	1286.12
442.00	1282.03
442.21	1314.80
442.41	1298.41
442.62	1265.64
442.82	1288.17
443.02	1232.88
443.23	1273.84
443.43	1226.73
443.64	1265.64
443.84	1279.98
444.05	1286.12
444.25	1322.99
444.46	1226.73
444.66	1284.08
444.87	1302.51
445.07	1263.60
445.28	1304.56
445.48	1230.83
445.69	1249.26
445.89	1282.03
446.09	1318.89
446.30	1347.56
446.50	1306.60
446.71	1308.65
446.91	1279.98
447.12	1259.50
447.32	1273.84
447.53	1271.79
447.73	1322.99
447.93	1261.55
448.14	1196.01
448.34	1279.98
448.55	1314.80
448.75	1187.82
448.96	1361.90
449.16	1226.73
449.36	1253.36
449.57	1255.40
449.77	1282.03
449.98	1349.61
450.18	1271.79
450.39	1226.73
450.59	1335.28
450.79	1282.03
451.00	1341.42
451.20	1325.04
451.41	1208.30
451.61	1300.46
451.81	1314.80
452.02	1273.84
452.22	1314.80
452.43	1214.45
452.63	1251.31
