SpectraSuite Data File
++++++++++++++++++++++++++++++++++++
Date: Sun Apr 03 19:55:20 CEST 2016
User: root
Dark Spectrum Present: No
Reference Spectrum Present: No
Number of Sampled Component Spectra: 1
Spectrometers: USB4C02835
Integration Time (usec): 10000 (USB4C02835)
Spectra Averaged: 1 (USB4C02835)
Boxcar Smoothing: 0 (USB4C02835)
Correct for Electrical Dark: No (USB4C02835)
Strobe/Lamp Enabled: No (USB4C02835)
Correct for Detector Non-linearity: No (USB4C02835)
Correct for Stray Light: No (USB4C02835)
Number of Pixels in Processed Spectrum: 3648
>>>>>Begin Processed Spectral Data<<<<<
177.47	1220.59
177.69	1220.59
177.91	1220.59
178.13	1232.88
178.36	1222.64
178.58	1163.25
178.80	1243.12
179.02	1322.99
179.24	1200.11
179.46	1243.12
179.68	1302.51
179.90	1282.03
180.13	1261.55
180.35	1288.17
180.57	1239.02
180.79	1202.16
181.01	1269.74
181.23	1294.32
181.45	1306.60
181.67	1249.26
181.90	1222.64
182.12	1329.13
182.34	1310.70
182.56	1308.65
182.78	1298.41
183.00	1269.74
183.22	1255.40
183.44	1185.77
183.66	1314.80
183.89	1282.03
184.11	1273.84
184.33	1255.40
184.55	1310.70
184.77	1304.56
184.99	1335.28
185.21	1228.78
185.43	1294.32
185.65	1224.69
185.87	1327.08
186.10	1292.27
186.32	1282.03
186.54	1255.40
186.76	1273.84
186.98	1257.45
187.20	1175.53
187.42	1247.21
187.64	1277.93
187.86	1290.22
188.08	1228.78
188.30	1300.46
188.52	1318.89
188.75	1255.40
188.97	1282.03
189.19	1253.36
189.41	1230.83
189.63	1259.50
189.85	1214.45
190.07	1277.93
190.29	1218.54
190.51	1306.60
190.73	1208.30
190.95	1273.84
191.17	1286.12
191.39	1245.16
191.61	1251.31
191.84	1263.60
192.06	1239.02
192.28	1255.40
192.50	1279.98
192.72	1220.59
192.94	1288.17
193.16	1366.00
193.38	1290.22
193.60	1310.70
193.82	1282.03
194.04	1271.79
194.26	1232.88
194.48	1191.92
194.70	1228.78
194.92	1327.08
195.14	1279.98
195.36	1259.50
195.58	1304.56
195.80	1269.74
196.02	1259.50
196.24	1261.55
196.46	1255.40
196.69	1363.95
196.91	1329.13
197.13	1251.31
197.35	1261.55
197.57	1245.16
197.79	1370.09
198.01	1267.69
198.23	1290.22
198.45	1253.36
198.67	1318.89
198.89	1306.60
199.11	1257.45
199.33	1290.22
199.55	1208.30
199.77	1273.84
199.99	1282.03
200.21	1265.64
200.43	1296.36
200.65	1347.56
200.87	1282.03
201.09	1204.21
201.31	1279.98
201.53	1286.12
201.75	1257.45
201.97	1302.51
202.19	1255.40
202.41	1253.36
202.63	1247.21
202.85	1331.18
203.07	1282.03
203.29	1341.42
203.51	1325.04
203.73	1343.47
203.95	1259.50
204.17	1261.55
204.39	1322.99
204.61	1257.45
204.83	1312.75
205.05	1236.97
205.27	1261.55
205.49	1282.03
205.71	1271.79
205.93	1210.35
206.15	1279.98
206.37	1189.87
206.59	1306.60
206.81	1284.08
207.03	1265.64
207.25	1228.78
207.47	1241.07
207.69	1288.17
207.91	1263.60
208.13	1308.65
208.34	1239.02
208.56	1216.49
208.78	1279.98
209.00	1263.60
209.22	1284.08
209.44	1298.41
209.66	1316.84
209.88	1298.41
210.10	1312.75
210.32	1286.12
210.54	1261.55
210.76	1206.25
210.98	1261.55
211.20	1216.49
211.42	1306.60
211.64	1263.60
211.86	1322.99
212.08	1228.78
212.30	1228.78
212.52	1298.41
212.74	1359.85
212.96	1228.78
213.17	1177.58
213.39	1279.98
213.61	1320.94
213.83	1218.54
214.05	1261.55
214.27	1249.26
214.49	1302.51
214.71	1243.12
214.93	1196.01
215.15	1243.12
215.37	1339.37
215.59	1294.32
215.81	1343.47
216.03	1206.25
216.24	1247.21
216.46	1261.55
216.68	1306.60
216.90	1306.60
217.12	1245.16
217.34	1300.46
217.56	1261.55
217.78	1247.21
218.00	1286.12
218.22	1253.36
218.44	1273.84
218.66	1193.97
218.87	1247.21
219.09	1208.30
219.31	1343.47
219.53	1239.02
219.75	1288.17
219.97	1306.60
220.19	1345.52
220.41	1304.56
220.63	1322.99
220.85	1333.23
221.06	1247.21
221.28	1241.07
221.50	1320.94
221.72	1253.36
221.94	1243.12
222.16	1267.69
222.38	1304.56
222.60	1241.07
222.82	1222.64
223.03	1159.15
223.25	1257.45
223.47	1234.93
223.69	1271.79
223.91	1271.79
224.13	1275.88
224.35	1245.16
224.57	1290.22
224.78	1212.40
225.00	1245.16
225.22	1269.74
225.44	1239.02
225.66	1187.82
225.88	1232.88
226.10	1236.97
226.32	1259.50
226.53	1249.26
226.75	1286.12
226.97	1200.11
227.19	1304.56
227.41	1292.27
227.63	1339.37
227.85	1255.40
228.06	1216.49
228.28	1310.70
228.50	1277.93
228.72	1247.21
228.94	1370.09
229.16	1251.31
229.37	1267.69
229.59	1282.03
229.81	1376.24
230.03	1294.32
230.25	1298.41
230.47	1267.69
230.69	1251.31
230.90	1226.73
231.12	1296.36
231.34	1239.02
231.56	1316.84
231.78	1257.45
232.00	1224.69
232.21	1290.22
232.43	1300.46
232.65	1290.22
232.87	1228.78
233.09	1304.56
233.30	1286.12
233.52	1230.83
233.74	1335.28
233.96	1220.59
234.18	1249.26
234.40	1286.12
234.61	1277.93
234.83	1228.78
235.05	1243.12
235.27	1265.64
235.49	1282.03
235.70	1253.36
235.92	1288.17
236.14	1259.50
236.36	1306.60
236.58	1210.35
236.79	1259.50
237.01	1261.55
237.23	1263.60
237.45	1277.93
237.67	1339.37
237.88	1302.51
238.10	1286.12
238.32	1318.89
238.54	1263.60
238.76	1220.59
238.97	1228.78
239.19	1302.51
239.41	1282.03
239.63	1228.78
239.85	1300.46
240.06	1236.97
240.28	1290.22
240.50	1247.21
240.72	1271.79
240.93	1267.69
241.15	1255.40
241.37	1310.70
241.59	1314.80
241.81	1253.36
242.02	1304.56
242.24	1253.36
242.46	1284.08
242.68	1282.03
242.89	1224.69
243.11	1308.65
243.33	1298.41
243.55	1249.26
243.76	1210.35
243.98	1292.27
244.20	1243.12
244.42	1275.88
244.64	1296.36
244.85	1169.39
245.07	1329.13
245.29	1239.02
245.51	1290.22
245.72	1212.40
245.94	1253.36
246.16	1269.74
246.38	1257.45
246.59	1234.93
246.81	1193.97
247.03	1282.03
247.24	1206.25
247.46	1294.32
247.68	1273.84
247.90	1282.03
248.11	1302.51
248.33	1316.84
248.55	1335.28
248.77	1189.87
248.98	1226.73
249.20	1216.49
249.42	1312.75
249.64	1312.75
249.85	1257.45
250.07	1232.88
250.29	1282.03
250.50	1255.40
250.72	1277.93
250.94	1308.65
251.16	1255.40
251.37	1314.80
251.59	1310.70
251.81	1271.79
252.02	1298.41
252.24	1267.69
252.46	1282.03
252.68	1236.97
252.89	1224.69
253.11	1196.01
253.33	1331.18
253.54	1271.79
253.76	1263.60
253.98	1263.60
254.20	1222.64
254.41	1366.00
254.63	1302.51
254.85	1290.22
255.06	1296.36
255.28	1253.36
255.50	1247.21
255.71	1257.45
255.93	1263.60
256.15	1234.93
256.36	1263.60
256.58	1218.54
256.80	1279.98
257.02	1253.36
257.23	1314.80
257.45	1259.50
257.67	1329.13
257.88	1257.45
258.10	1245.16
258.32	1265.64
258.53	1236.97
258.75	1290.22
258.97	1392.62
259.18	1265.64
259.40	1318.89
259.62	1275.88
259.83	1234.93
260.05	1253.36
260.27	1316.84
260.48	1193.97
260.70	1232.88
260.92	1216.49
261.13	1353.71
261.35	1294.32
261.57	1282.03
261.78	1300.46
262.00	1296.36
262.22	1257.45
262.43	1273.84
262.65	1312.75
262.86	1322.99
263.08	1259.50
263.30	1265.64
263.51	1290.22
263.73	1216.49
263.95	1175.53
264.16	1239.02
264.38	1206.25
264.60	1296.36
264.81	1241.07
265.03	1161.20
265.25	1263.60
265.46	1247.21
265.68	1214.45
265.89	1282.03
266.11	1271.79
266.33	1296.36
266.54	1345.52
266.76	1327.08
266.98	1251.31
267.19	1220.59
267.41	1253.36
267.62	1236.97
267.84	1286.12
268.06	1310.70
268.27	1191.92
268.49	1263.60
268.70	1290.22
268.92	1310.70
269.14	1247.21
269.35	1322.99
269.57	1302.51
269.79	1253.36
270.00	1277.93
270.22	1318.89
270.43	1288.17
270.65	1265.64
270.87	1234.93
271.08	1214.45
271.30	1282.03
271.51	1239.02
271.73	1286.12
271.95	1239.02
272.16	1230.83
272.38	1282.03
272.59	1294.32
272.81	1257.45
273.02	1288.17
273.24	1310.70
273.46	1294.32
273.67	1193.97
273.89	1224.69
274.10	1277.93
274.32	1298.41
274.54	1318.89
274.75	1284.08
274.97	1161.20
275.18	1261.55
275.40	1292.27
275.61	1312.75
275.83	1279.98
276.05	1386.47
276.26	1282.03
276.48	1269.74
276.69	1247.21
276.91	1253.36
277.12	1345.52
277.34	1257.45
277.55	1298.41
277.77	1400.81
277.99	1241.07
278.20	1220.59
278.42	1273.84
278.63	1171.44
278.85	1282.03
279.06	1191.92
279.28	1239.02
279.49	1206.25
279.71	1306.60
279.93	1249.26
280.14	1187.82
280.36	1261.55
280.57	1318.89
280.79	1259.50
281.00	1230.83
281.22	1251.31
281.43	1320.94
281.65	1279.98
281.86	1310.70
282.08	1290.22
282.29	1265.64
282.51	1245.16
282.73	1265.64
282.94	1243.12
283.16	1286.12
283.37	1312.75
283.59	1247.21
283.80	1267.69
284.02	1234.93
284.23	1312.75
284.45	1234.93
284.66	1298.41
284.88	1282.03
285.09	1290.22
285.31	1298.41
285.52	1300.46
285.74	1273.84
285.95	1298.41
286.17	1232.88
286.38	1296.36
286.60	1216.49
286.81	1202.16
287.03	1214.45
287.24	1298.41
287.46	1230.83
287.67	1275.88
287.89	1282.03
288.10	1259.50
288.32	1290.22
288.53	1257.45
288.75	1302.51
288.96	1187.82
289.18	1288.17
289.39	1269.74
289.61	1286.12
289.82	1271.79
290.04	1320.94
290.25	1210.35
290.47	1218.54
290.68	1189.87
290.90	1212.40
291.11	1304.56
291.33	1220.59
291.54	1284.08
291.76	1298.41
291.97	1300.46
292.18	1320.94
292.40	1206.25
292.61	1298.41
292.83	1243.12
293.04	1339.37
293.26	1284.08
293.47	1249.26
293.69	1224.69
293.90	1251.31
294.12	1322.99
294.33	1247.21
294.55	1286.12
294.76	1292.27
294.97	1302.51
295.19	1300.46
295.40	1269.74
295.62	1220.59
295.83	1234.93
296.05	1271.79
296.26	1314.80
296.48	1249.26
296.69	1275.88
296.90	1271.79
297.12	1263.60
297.33	1202.16
297.55	1257.45
297.76	1277.93
297.98	1282.03
298.19	1357.80
298.41	1255.40
298.62	1282.03
298.83	1312.75
299.05	1273.84
299.26	1286.12
299.48	1245.16
299.69	1284.08
299.90	1292.27
300.12	1249.26
300.33	1308.65
300.55	1296.36
300.76	1216.49
300.98	1267.69
301.19	1279.98
301.40	1275.88
301.62	1312.75
301.83	1222.64
302.05	1320.94
302.26	1253.36
302.47	1210.35
302.69	1273.84
302.90	1294.32
303.12	1224.69
303.33	1234.93
303.54	1288.17
303.76	1218.54
303.97	1265.64
304.19	1267.69
304.40	1288.17
304.61	1298.41
304.83	1308.65
305.04	1292.27
305.26	1290.22
305.47	1327.08
305.68	1269.74
305.90	1282.03
306.11	1241.07
306.33	1290.22
306.54	1273.84
306.75	1290.22
306.97	1282.03
307.18	1335.28
307.39	1239.02
307.61	1243.12
307.82	1308.65
308.04	1296.36
308.25	1294.32
308.46	1357.80
308.68	1284.08
308.89	1298.41
309.10	1292.27
309.32	1275.88
309.53	1304.56
309.74	1282.03
309.96	1247.21
310.17	1206.25
310.39	1212.40
310.60	1245.16
310.81	1271.79
311.03	1255.40
311.24	1263.60
311.45	1232.88
311.67	1277.93
311.88	1208.30
312.09	1255.40
312.31	1335.28
312.52	1263.60
312.73	1263.60
312.95	1220.59
313.16	1253.36
313.37	1255.40
313.59	1279.98
313.80	1257.45
314.01	1261.55
314.23	1286.12
314.44	1267.69
314.65	1232.88
314.87	1222.64
315.08	1310.70
315.29	1243.12
315.51	1239.02
315.72	1214.45
315.93	1306.60
316.15	1206.25
316.36	1214.45
316.57	1302.51
316.79	1277.93
317.00	1204.21
317.21	1206.25
317.43	1298.41
317.64	1267.69
317.85	1243.12
318.07	1251.31
318.28	1271.79
318.49	1288.17
318.70	1261.55
318.92	1337.32
319.13	1273.84
319.34	1249.26
319.56	1314.80
319.77	1257.45
319.98	1265.64
320.20	1308.65
320.41	1302.51
320.62	1312.75
320.83	1294.32
321.05	1271.79
321.26	1282.03
321.47	1167.34
321.69	1255.40
321.90	1230.83
322.11	1253.36
322.32	1339.37
322.54	1284.08
322.75	1204.21
322.96	1282.03
323.18	1167.34
323.39	1257.45
323.60	1247.21
323.81	1245.16
324.03	1263.60
324.24	1312.75
324.45	1302.51
324.66	1243.12
324.88	1220.59
325.09	1187.82
325.30	1333.23
325.52	1273.84
325.73	1273.84
325.94	1273.84
326.15	1288.17
326.37	1284.08
326.58	1230.83
326.79	1298.41
327.00	1269.74
327.22	1271.79
327.43	1169.39
327.64	1318.89
327.85	1318.89
328.07	1243.12
328.28	1314.80
328.49	1249.26
328.70	1255.40
328.92	1253.36
329.13	1210.35
329.34	1239.02
329.55	1275.88
329.76	1255.40
329.98	1161.20
330.19	1284.08
330.40	1279.98
330.61	1267.69
330.83	1292.27
331.04	1275.88
331.25	1282.03
331.46	1208.30
331.68	1269.74
331.89	1296.36
332.10	1185.77
332.31	1306.60
332.52	1290.22
332.74	1230.83
332.95	1202.16
333.16	1298.41
333.37	1187.82
333.58	1296.36
333.80	1294.32
334.01	1263.60
334.22	1210.35
334.43	1257.45
334.64	1290.22
334.86	1306.60
335.07	1257.45
335.28	1222.64
335.49	1259.50
335.70	1273.84
335.92	1292.27
336.13	1337.32
336.34	1259.50
336.55	1290.22
336.76	1290.22
336.98	1249.26
337.19	1277.93
337.40	1216.49
337.61	1239.02
337.82	1249.26
338.04	1304.56
338.25	1251.31
338.46	1314.80
338.67	1302.51
338.88	1234.93
339.09	1288.17
339.31	1193.97
339.52	1294.32
339.73	1339.37
339.94	1230.83
340.15	1249.26
340.36	1253.36
340.58	1296.36
340.79	1290.22
341.00	1265.64
341.21	1257.45
341.42	1271.79
341.63	1339.37
341.85	1234.93
342.06	1210.35
342.27	1314.80
342.48	1273.84
342.69	1347.56
342.90	1255.40
343.12	1320.94
343.33	1210.35
343.54	1234.93
343.75	1253.36
343.96	1333.23
344.17	1288.17
344.38	1216.49
344.60	1251.31
344.81	1220.59
345.02	1220.59
345.23	1261.55
345.44	1296.36
345.65	1220.59
345.86	1224.69
346.07	1255.40
346.29	1269.74
346.50	1312.75
346.71	1308.65
346.92	1304.56
347.13	1249.26
347.34	1243.12
347.55	1241.07
347.76	1267.69
347.98	1318.89
348.19	1279.98
348.40	1331.18
348.61	1245.16
348.82	1288.17
349.03	1245.16
349.24	1314.80
349.45	1208.30
349.66	1290.22
349.88	1294.32
350.09	1220.59
350.30	1220.59
350.51	1327.08
350.72	1277.93
350.93	1245.16
351.14	1222.64
351.35	1292.27
351.56	1245.16
351.77	1298.41
351.99	1226.73
352.20	1298.41
352.41	1277.93
352.62	1261.55
352.83	1271.79
353.04	1279.98
353.25	1331.18
353.46	1331.18
353.67	1271.79
353.88	1204.21
354.09	1273.84
354.30	1179.63
354.52	1232.88
354.73	1251.31
354.94	1279.98
355.15	1259.50
355.36	1286.12
355.57	1224.69
355.78	1247.21
355.99	1255.40
356.20	1208.30
356.41	1355.76
356.62	1247.21
356.83	1271.79
357.04	1257.45
357.25	1247.21
357.46	1245.16
357.68	1314.80
357.89	1239.02
358.10	1277.93
358.31	1267.69
358.52	1247.21
358.73	1337.32
358.94	1286.12
359.15	1222.64
359.36	1284.08
359.57	1198.06
359.78	1234.93
359.99	1318.89
360.20	1282.03
360.41	1210.35
360.62	1290.22
360.83	1214.45
361.04	1306.60
361.25	1271.79
361.46	1263.60
361.67	1257.45
361.88	1261.55
362.09	1243.12
362.30	1216.49
362.51	1275.88
362.72	1243.12
362.93	1302.51
363.14	1236.97
363.35	1230.83
363.56	1198.06
363.78	1245.16
363.99	1243.12
364.20	1288.17
364.41	1282.03
364.62	1279.98
364.83	1269.74
365.04	1288.17
365.25	1241.07
365.46	1255.40
365.67	1245.16
365.88	1300.46
366.09	1273.84
366.30	1253.36
366.51	1286.12
366.72	1279.98
366.93	1275.88
367.14	1179.63
367.35	1245.16
367.56	1236.97
367.77	1300.46
367.98	1263.60
368.18	1216.49
368.39	1286.12
368.60	1236.97
368.81	1306.60
369.02	1247.21
369.23	1290.22
369.44	1224.69
369.65	1232.88
369.86	1329.13
370.07	1245.16
370.28	1275.88
370.49	1208.30
370.70	1271.79
370.91	1300.46
371.12	1296.36
371.33	1282.03
371.54	1312.75
371.75	1198.06
371.96	1304.56
372.17	1253.36
372.38	1349.61
372.59	1290.22
372.80	1239.02
373.01	1277.93
373.22	1212.40
373.43	1220.59
373.64	1302.51
373.85	1263.60
374.06	1212.40
374.26	1245.16
374.47	1294.32
374.68	1282.03
374.89	1257.45
375.10	1239.02
375.31	1220.59
375.52	1339.37
375.73	1345.52
375.94	1224.69
376.15	1296.36
376.36	1290.22
376.57	1325.04
376.78	1206.25
376.99	1279.98
377.20	1220.59
377.40	1249.26
377.61	1249.26
377.82	1296.36
378.03	1318.89
378.24	1181.68
378.45	1271.79
378.66	1290.22
378.87	1253.36
379.08	1277.93
379.29	1306.60
379.50	1251.31
379.71	1247.21
379.91	1279.98
380.12	1329.13
380.33	1265.64
380.54	1271.79
380.75	1228.78
380.96	1269.74
381.17	1245.16
381.38	1228.78
381.59	1249.26
381.80	1243.12
382.00	1322.99
382.21	1261.55
382.42	1306.60
382.63	1245.16
382.84	1288.17
383.05	1300.46
383.26	1273.84
383.47	1331.18
383.68	1226.73
383.88	1251.31
384.09	1302.51
384.30	1271.79
384.51	1224.69
384.72	1273.84
384.93	1214.45
385.14	1261.55
385.35	1263.60
385.55	1239.02
385.76	1304.56
385.97	1253.36
386.18	1224.69
386.39	1302.51
386.60	1329.13
386.81	1224.69
387.02	1269.74
387.22	1325.04
387.43	1234.93
387.64	1220.59
387.85	1232.88
388.06	1267.69
388.27	1329.13
388.48	1288.17
388.68	1290.22
388.89	1290.22
389.10	1314.80
389.31	1284.08
389.52	1255.40
389.73	1226.73
389.93	1243.12
390.14	1265.64
390.35	1265.64
390.56	1245.16
390.77	1239.02
390.98	1265.64
391.18	1271.79
391.39	1259.50
391.60	1308.65
391.81	1232.88
392.02	1222.64
392.23	1339.37
392.43	1275.88
392.64	1247.21
392.85	1273.84
393.06	1239.02
393.27	1206.25
393.47	1253.36
393.68	1245.16
393.89	1267.69
394.10	1335.28
394.31	1208.30
394.52	1218.54
394.72	1292.27
394.93	1392.62
395.14	1374.19
395.35	1249.26
395.56	1239.02
395.76	1218.54
395.97	1378.28
396.18	1249.26
396.39	1269.74
396.60	1337.32
396.80	1206.25
397.01	1241.07
397.22	1286.12
397.43	1308.65
397.64	1255.40
397.84	1247.21
398.05	1343.47
398.26	1314.80
398.47	1277.93
398.67	1263.60
398.88	1294.32
399.09	1261.55
399.30	1302.51
399.51	1269.74
399.71	1275.88
399.92	1200.11
400.13	1228.78
400.34	1290.22
400.54	1206.25
400.75	1202.16
400.96	1228.78
401.17	1224.69
401.37	1267.69
401.58	1304.56
401.79	1273.84
402.00	1277.93
402.21	1236.97
402.41	1241.07
402.62	1249.26
402.83	1226.73
403.04	1290.22
403.24	1312.75
403.45	1234.93
403.66	1267.69
403.87	1327.08
404.07	1253.36
404.28	1294.32
404.49	1279.98
404.70	1259.50
404.90	1212.40
405.11	1177.58
405.32	1294.32
405.52	1327.08
405.73	1255.40
405.94	1298.41
406.15	1230.83
406.35	1245.16
406.56	1259.50
406.77	1228.78
406.98	1275.88
407.18	1296.36
407.39	1282.03
407.60	1222.64
407.80	1300.46
408.01	1294.32
408.22	1247.21
408.43	1359.85
408.63	1290.22
408.84	1302.51
409.05	1282.03
409.25	1236.97
409.46	1304.56
409.67	1247.21
409.88	1243.12
410.08	1261.55
410.29	1265.64
410.50	1314.80
410.70	1337.32
410.91	1271.79
411.12	1277.93
411.32	1165.29
411.53	1243.12
411.74	1249.26
411.95	1304.56
412.15	1234.93
412.36	1273.84
412.57	1275.88
412.77	1341.42
412.98	1290.22
413.19	1216.49
413.39	1398.76
413.60	1286.12
413.81	1236.97
414.01	1191.92
414.22	1337.32
414.43	1273.84
414.63	1241.07
414.84	1288.17
415.05	1259.50
415.25	1300.46
415.46	1239.02
415.67	1230.83
415.87	1327.08
416.08	1279.98
416.29	1243.12
416.49	1294.32
416.70	1251.31
416.91	1271.79
417.11	1234.93
417.32	1378.28
417.53	1263.60
417.73	1224.69
417.94	1261.55
418.15	1325.04
418.35	1253.36
418.56	1243.12
418.77	1308.65
418.97	1337.32
419.18	1232.88
419.38	1226.73
419.59	1294.32
419.80	1288.17
420.00	1239.02
420.21	1308.65
420.42	1234.93
420.62	1275.88
420.83	1343.47
421.04	1273.84
421.24	1243.12
421.45	1185.77
421.65	1345.52
421.86	1232.88
422.07	1286.12
422.27	1249.26
422.48	1241.07
422.69	1214.45
422.89	1308.65
423.10	1314.80
423.30	1193.97
423.51	1245.16
423.72	1273.84
423.92	1310.70
424.13	1275.88
424.33	1292.27
424.54	1181.68
424.75	1318.89
424.95	1277.93
425.16	1216.49
425.36	1191.92
425.57	1318.89
425.78	1310.70
425.98	1267.69
426.19	1279.98
426.39	1245.16
426.60	1138.67
426.81	1314.80
427.01	1304.56
427.22	1208.30
427.42	1269.74
427.63	1247.21
427.83	1249.26
428.04	1253.36
428.25	1224.69
428.45	1261.55
428.66	1249.26
428.86	1261.55
429.07	1290.22
429.28	1345.52
429.48	1228.78
429.69	1273.84
429.89	1279.98
430.10	1232.88
430.30	1239.02
430.51	1265.64
430.71	1232.88
430.92	1261.55
431.13	1261.55
431.33	1320.94
431.54	1255.40
431.74	1273.84
431.95	1171.44
432.15	1228.78
432.36	1269.74
432.56	1255.40
432.77	1269.74
432.98	1220.59
433.18	1284.08
433.39	1292.27
433.59	1351.66
433.80	1279.98
434.00	1312.75
434.21	1265.64
434.41	1361.90
434.62	1331.18
434.82	1316.84
435.03	1204.21
435.23	1232.88
435.44	1247.21
435.64	1249.26
435.85	1222.64
436.06	1159.15
436.26	1232.88
436.47	1275.88
436.67	1239.02
436.88	1255.40
437.08	1193.97
437.29	1298.41
437.49	1355.76
437.70	1239.02
437.90	1347.56
438.11	1198.06
438.31	1140.72
438.52	1234.93
438.72	1279.98
438.93	1243.12
439.13	1261.55
439.34	1267.69
439.54	1265.64
439.75	1220.59
439.95	1273.84
440.16	1251.31
440.36	1204.21
440.57	1243.12
440.77	1200.11
440.98	1306.60
441.18	1310.70
441.39	1312.75
441.59	1320.94
441.80	1288.17
442.00	1249.26
442.21	1347.56
442.41	1320.94
442.62	1236.97
442.82	1253.36
443.02	1193.97
443.23	1300.46
443.43	1226.73
443.64	1312.75
443.84	1232.88
444.05	1249.26
444.25	1284.08
444.46	1271.79
444.66	1249.26
444.87	1232.88
445.07	1306.60
445.28	1273.84
445.48	1294.32
445.69	1345.52
445.89	1320.94
446.09	1241.07
446.30	1210.35
446.50	1290.22
446.71	1220.59
446.91	1331.18
447.12	1241.07
447.32	1271.79
447.53	1306.60
447.73	1316.84
447.93	1279.98
448.14	1318.89
448.34	1310.70
448.55	1298.41
448.75	1320.94
448.96	1259.50
449.16	1275.88
449.36	1294.32
449.57	1269.74
449.77	1249.26
449.98	1347.56
450.18	1228.78
450.39	1234.93
450.59	1226.73
450.79	1343.47
451.00	1255.40
451.20	1335.28
451.41	1292.27
451.61	1320.94
451.81	1292.27
452.02	1343.47
452.22	1265.64
452.43	1204.21
452.63	1263.60
