SpectraSuite Data File
++++++++++++++++++++++++++++++++++++
Date: Sun Apr 03 19:55:21 CEST 2016
User: root
Dark Spectrum Present: No
Reference Spectrum Present: No
Number of Sampled Component Spectra: 1
Spectrometers: USB4C02835
Integration Time (usec): 10000 (USB4C02835)
Spectra Averaged: 1 (USB4C02835)
Boxcar Smoothing: 0 (USB4C02835)
Correct for Electrical Dark: No (USB4C02835)
Strobe/Lamp Enabled: No (USB4C02835)
Correct for Detector Non-linearity: No (USB4C02835)
Correct for Stray Light: No (USB4C02835)
Number of Pixels in Processed Spectrum: 3648
>>>>>Begin Processed Spectral Data<<<<<
177.47	1265.64
177.69	1265.64
177.91	1265.64
178.13	1273.84
178.36	1261.55
178.58	1189.87
178.80	1255.40
179.02	1284.08
179.24	1214.45
179.46	1234.93
179.68	1284.08
179.90	1200.11
180.13	1253.36
180.35	1337.32
180.57	1275.88
180.79	1290.22
181.01	1261.55
181.23	1261.55
181.45	1322.99
181.67	1271.79
181.90	1300.46
182.12	1249.26
182.34	1239.02
182.56	1255.40
182.78	1265.64
183.00	1273.84
183.22	1253.36
183.44	1243.12
183.66	1322.99
183.89	1302.51
184.11	1279.98
184.33	1335.28
184.55	1249.26
184.77	1210.35
184.99	1282.03
185.21	1273.84
185.43	1300.46
185.65	1296.36
185.87	1298.41
186.10	1243.12
186.32	1329.13
186.54	1224.69
186.76	1136.62
186.98	1312.75
187.20	1181.68
187.42	1245.16
187.64	1302.51
187.86	1282.03
188.08	1232.88
188.30	1255.40
188.52	1243.12
188.75	1257.45
188.97	1306.60
189.19	1302.51
189.41	1296.36
189.63	1302.51
189.85	1304.56
190.07	1175.53
190.29	1198.06
190.51	1320.94
190.73	1249.26
190.95	1275.88
191.17	1257.45
191.39	1251.31
191.61	1279.98
191.84	1308.65
192.06	1292.27
192.28	1224.69
192.50	1277.93
192.72	1198.06
192.94	1255.40
193.16	1198.06
193.38	1304.56
193.60	1232.88
193.82	1261.55
194.04	1255.40
194.26	1259.50
194.48	1202.16
194.70	1318.89
194.92	1253.36
195.14	1286.12
195.36	1171.44
195.58	1322.99
195.80	1232.88
196.02	1292.27
196.24	1277.93
196.46	1290.22
196.69	1349.61
196.91	1302.51
197.13	1269.74
197.35	1294.32
197.57	1286.12
197.79	1241.07
198.01	1214.45
198.23	1220.59
198.45	1265.64
198.67	1263.60
198.89	1224.69
199.11	1267.69
199.33	1236.97
199.55	1255.40
199.77	1228.78
199.99	1314.80
200.21	1273.84
200.43	1282.03
200.65	1265.64
200.87	1222.64
201.09	1265.64
201.31	1247.21
201.53	1314.80
201.75	1284.08
201.97	1251.31
202.19	1316.84
202.41	1265.64
202.63	1255.40
202.85	1314.80
203.07	1265.64
203.29	1212.40
203.51	1257.45
203.73	1257.45
203.95	1290.22
204.17	1267.69
204.39	1292.27
204.61	1249.26
204.83	1253.36
205.05	1273.84
205.27	1284.08
205.49	1224.69
205.71	1245.16
205.93	1228.78
206.15	1265.64
206.37	1179.63
206.59	1271.79
206.81	1333.23
207.03	1259.50
207.25	1245.16
207.47	1300.46
207.69	1181.68
207.91	1308.65
208.13	1224.69
208.34	1257.45
208.56	1331.18
208.78	1294.32
209.00	1267.69
209.22	1241.07
209.44	1298.41
209.66	1275.88
209.88	1343.47
210.10	1263.60
210.32	1275.88
210.54	1232.88
210.76	1310.70
210.98	1384.43
211.20	1239.02
211.42	1271.79
211.64	1220.59
211.86	1298.41
212.08	1298.41
212.30	1247.21
212.52	1294.32
212.74	1234.93
212.96	1226.73
213.17	1296.36
213.39	1298.41
213.61	1290.22
213.83	1304.56
214.05	1198.06
214.27	1224.69
214.49	1259.50
214.71	1193.97
214.93	1277.93
215.15	1296.36
215.37	1243.12
215.59	1218.54
215.81	1304.56
216.03	1261.55
216.24	1251.31
216.46	1300.46
216.68	1243.12
216.90	1269.74
217.12	1282.03
217.34	1282.03
217.56	1275.88
217.78	1290.22
218.00	1271.79
218.22	1255.40
218.44	1304.56
218.66	1279.98
218.87	1275.88
219.09	1290.22
219.31	1261.55
219.53	1230.83
219.75	1245.16
219.97	1292.27
220.19	1257.45
220.41	1302.51
220.63	1284.08
220.85	1232.88
221.06	1255.40
221.28	1275.88
221.50	1253.36
221.72	1312.75
221.94	1318.89
222.16	1232.88
222.38	1308.65
222.60	1271.79
222.82	1282.03
223.03	1335.28
223.25	1335.28
223.47	1230.83
223.69	1298.41
223.91	1251.31
224.13	1308.65
224.35	1253.36
224.57	1239.02
224.78	1325.04
225.00	1269.74
225.22	1267.69
225.44	1200.11
225.66	1257.45
225.88	1208.30
226.10	1232.88
226.32	1263.60
226.53	1318.89
226.75	1269.74
226.97	1304.56
227.19	1198.06
227.41	1239.02
227.63	1263.60
227.85	1239.02
228.06	1216.49
228.28	1335.28
228.50	1302.51
228.72	1255.40
228.94	1226.73
229.16	1234.93
229.37	1320.94
229.59	1251.31
229.81	1279.98
230.03	1247.21
230.25	1312.75
230.47	1169.39
230.69	1224.69
230.90	1304.56
231.12	1255.40
231.34	1296.36
231.56	1333.23
231.78	1243.12
232.00	1249.26
232.21	1308.65
232.43	1265.64
232.65	1245.16
232.87	1236.97
233.09	1226.73
233.30	1179.63
233.52	1290.22
233.74	1206.25
233.96	1230.83
234.18	1263.60
234.40	1220.59
234.61	1273.84
234.83	1181.68
235.05	1284.08
235.27	1296.36
235.49	1232.88
235.70	1234.93
235.92	1296.36
236.14	1243.12
236.36	1267.69
236.58	1273.84
236.79	1216.49
237.01	1224.69
237.23	1214.45
237.45	1230.83
237.67	1269.74
237.88	1159.15
238.10	1189.87
238.32	1286.12
238.54	1320.94
238.76	1322.99
238.97	1284.08
239.19	1308.65
239.41	1257.45
239.63	1243.12
239.85	1257.45
240.06	1232.88
240.28	1333.23
240.50	1374.19
240.72	1277.93
240.93	1296.36
241.15	1253.36
241.37	1290.22
241.59	1294.32
241.81	1196.01
242.02	1243.12
242.24	1286.12
242.46	1249.26
242.68	1273.84
242.89	1277.93
243.11	1341.42
243.33	1234.93
243.55	1216.49
243.76	1263.60
243.98	1230.83
244.20	1253.36
244.42	1234.93
244.64	1202.16
244.85	1224.69
245.07	1241.07
245.29	1216.49
245.51	1310.70
245.72	1210.35
245.94	1181.68
246.16	1286.12
246.38	1296.36
246.59	1273.84
246.81	1286.12
247.03	1249.26
247.24	1265.64
247.46	1191.92
247.68	1282.03
247.90	1253.36
248.11	1236.97
248.33	1273.84
248.55	1251.31
248.77	1284.08
248.98	1275.88
249.20	1265.64
249.42	1259.50
249.64	1253.36
249.85	1359.85
250.07	1306.60
250.29	1226.73
250.50	1275.88
250.72	1306.60
250.94	1261.55
251.16	1230.83
251.37	1265.64
251.59	1239.02
251.81	1243.12
252.02	1236.97
252.24	1259.50
252.46	1286.12
252.68	1353.71
252.89	1294.32
253.11	1214.45
253.33	1245.16
253.54	1304.56
253.76	1255.40
253.98	1241.07
254.20	1310.70
254.41	1218.54
254.63	1255.40
254.85	1286.12
255.06	1181.68
255.28	1296.36
255.50	1306.60
255.71	1243.12
255.93	1259.50
256.15	1347.56
256.36	1251.31
256.58	1312.75
256.80	1265.64
257.02	1288.17
257.23	1230.83
257.45	1265.64
257.67	1304.56
257.88	1155.05
258.10	1259.50
258.32	1259.50
258.53	1196.01
258.75	1298.41
258.97	1230.83
259.18	1290.22
259.40	1322.99
259.62	1269.74
259.83	1241.07
260.05	1271.79
260.27	1245.16
260.48	1279.98
260.70	1247.21
260.92	1220.59
261.13	1251.31
261.35	1243.12
261.57	1228.78
261.78	1273.84
262.00	1288.17
262.22	1236.97
262.43	1351.66
262.65	1300.46
262.86	1239.02
263.08	1251.31
263.30	1232.88
263.51	1159.15
263.73	1298.41
263.95	1318.89
264.16	1239.02
264.38	1243.12
264.60	1226.73
264.81	1284.08
265.03	1345.52
265.25	1222.64
265.46	1249.26
265.68	1331.18
265.89	1284.08
266.11	1153.01
266.33	1337.32
266.54	1206.25
266.76	1222.64
266.98	1269.74
267.19	1224.69
267.41	1294.32
267.62	1228.78
267.84	1263.60
268.06	1273.84
268.27	1261.55
268.49	1253.36
268.70	1292.27
268.92	1245.16
269.14	1329.13
269.35	1318.89
269.57	1220.59
269.79	1290.22
270.00	1286.12
270.22	1294.32
270.43	1273.84
270.65	1212.40
270.87	1257.45
271.08	1273.84
271.30	1318.89
271.51	1269.74
271.73	1327.08
271.95	1261.55
272.16	1183.73
272.38	1290.22
272.59	1269.74
272.81	1288.17
273.02	1273.84
273.24	1212.40
273.46	1294.32
273.67	1247.21
273.89	1249.26
274.10	1279.98
274.32	1298.41
274.54	1241.07
274.75	1255.40
274.97	1279.98
275.18	1218.54
275.40	1304.56
275.61	1236.97
275.83	1255.40
276.05	1316.84
276.26	1279.98
276.48	1179.63
276.69	1216.49
276.91	1279.98
277.12	1292.27
277.34	1255.40
277.55	1279.98
277.77	1269.74
277.99	1157.10
278.20	1300.46
278.42	1241.07
278.63	1282.03
278.85	1347.56
279.06	1347.56
279.28	1181.68
279.49	1255.40
279.71	1269.74
279.93	1298.41
280.14	1296.36
280.36	1249.26
280.57	1247.21
280.79	1243.12
281.00	1241.07
281.22	1271.79
281.43	1269.74
281.65	1253.36
281.86	1282.03
282.08	1335.28
282.29	1290.22
282.51	1224.69
282.73	1259.50
282.94	1288.17
283.16	1208.30
283.37	1296.36
283.59	1265.64
283.80	1286.12
284.02	1320.94
284.23	1310.70
284.45	1257.45
284.66	1210.35
284.88	1204.21
285.09	1267.69
285.31	1322.99
285.52	1253.36
285.74	1286.12
285.95	1230.83
286.17	1241.07
286.38	1249.26
286.60	1282.03
286.81	1320.94
287.03	1361.90
287.24	1247.21
287.46	1308.65
287.67	1292.27
287.89	1259.50
288.10	1298.41
288.32	1243.12
288.53	1265.64
288.75	1327.08
288.96	1216.49
289.18	1275.88
289.39	1271.79
289.61	1329.13
289.82	1273.84
290.04	1288.17
290.25	1325.04
290.47	1279.98
290.68	1294.32
290.90	1226.73
291.11	1247.21
291.33	1277.93
291.54	1277.93
291.76	1259.50
291.97	1239.02
292.18	1249.26
292.40	1206.25
292.61	1150.96
292.83	1296.36
293.04	1376.24
293.26	1259.50
293.47	1259.50
293.69	1263.60
293.90	1302.51
294.12	1310.70
294.33	1302.51
294.55	1251.31
294.76	1267.69
294.97	1275.88
295.19	1402.86
295.40	1236.97
295.62	1312.75
295.83	1265.64
296.05	1292.27
296.26	1265.64
296.48	1261.55
296.69	1208.30
296.90	1265.64
297.12	1286.12
297.33	1282.03
297.55	1339.37
297.76	1193.97
297.98	1214.45
298.19	1279.98
298.41	1304.56
298.62	1232.88
298.83	1232.88
299.05	1259.50
299.26	1353.71
299.48	1189.87
299.69	1314.80
299.90	1216.49
300.12	1218.54
300.33	1294.32
300.55	1349.61
300.76	1267.69
300.98	1310.70
301.19	1290.22
301.40	1228.78
301.62	1220.59
301.83	1247.21
302.05	1302.51
302.26	1343.47
302.47	1314.80
302.69	1374.19
302.90	1282.03
303.12	1277.93
303.33	1292.27
303.54	1198.06
303.76	1216.49
303.97	1271.79
304.19	1310.70
304.40	1298.41
304.61	1300.46
304.83	1257.45
305.04	1331.18
305.26	1236.97
305.47	1288.17
305.68	1249.26
305.90	1273.84
306.11	1249.26
306.33	1282.03
306.54	1331.18
306.75	1263.60
306.97	1228.78
307.18	1214.45
307.39	1220.59
307.61	1306.60
307.82	1343.47
308.04	1202.16
308.25	1275.88
308.46	1206.25
308.68	1226.73
308.89	1228.78
309.10	1255.40
309.32	1329.13
309.53	1263.60
309.74	1263.60
309.96	1241.07
310.17	1288.17
310.39	1265.64
310.60	1284.08
310.81	1282.03
311.03	1239.02
311.24	1228.78
311.45	1279.98
311.67	1279.98
311.88	1255.40
312.09	1247.21
312.31	1261.55
312.52	1288.17
312.73	1284.08
312.95	1247.21
313.16	1253.36
313.37	1247.21
313.59	1224.69
313.80	1359.85
314.01	1282.03
314.23	1343.47
314.44	1261.55
314.65	1251.31
314.87	1253.36
315.08	1249.26
315.29	1212.40
315.51	1230.83
315.72	1253.36
315.93	1261.55
316.15	1273.84
316.36	1222.64
316.57	1335.28
316.79	1282.03
317.00	1261.55
317.21	1247.21
317.43	1196.01
317.64	1273.84
317.85	1265.64
318.07	1236.97
318.28	1263.60
318.49	1234.93
318.70	1249.26
318.92	1269.74
319.13	1198.06
319.34	1249.26
319.56	1282.03
319.77	1353.71
319.98	1265.64
320.20	1318.89
320.41	1261.55
320.62	1259.50
320.83	1273.84
321.05	1236.97
321.26	1257.45
321.47	1216.49
321.69	1345.52
321.90	1327.08
322.11	1255.40
322.32	1259.50
322.54	1249.26
322.75	1247.21
322.96	1230.83
323.18	1212.40
323.39	1290.22
323.60	1245.16
323.81	1294.32
324.03	1275.88
324.24	1239.02
324.45	1249.26
324.66	1228.78
324.88	1271.79
325.09	1210.35
325.30	1247.21
325.52	1251.31
325.73	1284.08
325.94	1189.87
326.15	1243.12
326.37	1277.93
326.58	1329.13
326.79	1263.60
327.00	1294.32
327.22	1279.98
327.43	1269.74
327.64	1257.45
327.85	1316.84
328.07	1275.88
328.28	1290.22
328.49	1314.80
328.70	1322.99
328.92	1216.49
329.13	1226.73
329.34	1259.50
329.55	1277.93
329.76	1335.28
329.98	1249.26
330.19	1261.55
330.40	1286.12
330.61	1290.22
330.83	1243.12
331.04	1255.40
331.25	1277.93
331.46	1259.50
331.68	1312.75
331.89	1282.03
332.10	1236.97
332.31	1181.68
332.52	1314.80
332.74	1251.31
332.95	1239.02
333.16	1292.27
333.37	1220.59
333.58	1302.51
333.80	1288.17
334.01	1298.41
334.22	1236.97
334.43	1247.21
334.64	1267.69
334.86	1191.92
335.07	1286.12
335.28	1333.23
335.49	1298.41
335.70	1349.61
335.92	1277.93
336.13	1265.64
336.34	1226.73
336.55	1234.93
336.76	1253.36
336.98	1243.12
337.19	1232.88
337.40	1310.70
337.61	1273.84
337.82	1241.07
338.04	1222.64
338.25	1257.45
338.46	1234.93
338.67	1277.93
338.88	1222.64
339.09	1329.13
339.31	1236.97
339.52	1212.40
339.73	1351.66
339.94	1273.84
340.15	1339.37
340.36	1290.22
340.58	1331.18
340.79	1312.75
341.00	1347.56
341.21	1294.32
341.42	1314.80
341.63	1314.80
341.85	1269.74
342.06	1312.75
342.27	1187.82
342.48	1239.02
342.69	1236.97
342.90	1271.79
343.12	1239.02
343.33	1255.40
343.54	1335.28
343.75	1277.93
343.96	1204.21
344.17	1282.03
344.38	1294.32
344.60	1236.97
344.81	1247.21
345.02	1304.56
345.23	1212.40
345.44	1304.56
345.65	1234.93
345.86	1228.78
346.07	1300.46
346.29	1296.36
346.50	1208.30
346.71	1296.36
346.92	1302.51
347.13	1302.51
347.34	1228.78
347.55	1302.51
347.76	1257.45
347.98	1294.32
348.19	1298.41
348.40	1296.36
348.61	1214.45
348.82	1220.59
349.03	1263.60
349.24	1243.12
349.45	1286.12
349.66	1243.12
349.88	1273.84
350.09	1245.16
350.30	1257.45
350.51	1288.17
350.72	1247.21
350.93	1173.49
351.14	1232.88
351.35	1298.41
351.56	1263.60
351.77	1241.07
351.99	1288.17
352.20	1345.52
352.41	1183.73
352.62	1216.49
352.83	1230.83
353.04	1247.21
353.25	1204.21
353.46	1193.97
353.67	1335.28
353.88	1232.88
354.09	1243.12
354.30	1179.63
354.52	1208.30
354.73	1318.89
354.94	1212.40
355.15	1263.60
355.36	1230.83
355.57	1232.88
355.78	1212.40
355.99	1265.64
356.20	1132.53
356.41	1345.52
356.62	1292.27
356.83	1267.69
357.04	1226.73
357.25	1320.94
357.46	1191.92
357.68	1239.02
357.89	1284.08
358.10	1333.23
358.31	1200.11
358.52	1214.45
358.73	1288.17
358.94	1277.93
359.15	1257.45
359.36	1312.75
359.57	1304.56
359.78	1304.56
359.99	1277.93
360.20	1288.17
360.41	1337.32
360.62	1228.78
360.83	1239.02
361.04	1259.50
361.25	1286.12
361.46	1277.93
361.67	1290.22
361.88	1302.51
362.09	1275.88
362.30	1181.68
362.51	1222.64
362.72	1273.84
362.93	1255.40
363.14	1257.45
363.35	1214.45
363.56	1327.08
363.78	1294.32
363.99	1259.50
364.20	1241.07
364.41	1277.93
364.62	1322.99
364.83	1288.17
365.04	1284.08
365.25	1329.13
365.46	1214.45
365.67	1300.46
365.88	1214.45
366.09	1282.03
366.30	1284.08
366.51	1243.12
366.72	1253.36
366.93	1275.88
367.14	1247.21
367.35	1234.93
367.56	1322.99
367.77	1241.07
367.98	1275.88
368.18	1265.64
368.39	1210.35
368.60	1269.74
368.81	1277.93
369.02	1232.88
369.23	1239.02
369.44	1304.56
369.65	1271.79
369.86	1255.40
370.07	1325.04
370.28	1282.03
370.49	1292.27
370.70	1292.27
370.91	1228.78
371.12	1239.02
371.33	1228.78
371.54	1241.07
371.75	1341.42
371.96	1255.40
372.17	1331.18
372.38	1273.84
372.59	1232.88
372.80	1187.82
373.01	1294.32
373.22	1245.16
373.43	1253.36
373.64	1339.37
373.85	1253.36
374.06	1294.32
374.26	1298.41
374.47	1269.74
374.68	1312.75
374.89	1226.73
375.10	1298.41
375.31	1288.17
375.52	1263.60
375.73	1306.60
375.94	1292.27
376.15	1241.07
376.36	1249.26
376.57	1208.30
376.78	1183.73
376.99	1357.80
377.20	1302.51
377.40	1298.41
377.61	1282.03
377.82	1273.84
378.03	1234.93
378.24	1224.69
378.45	1251.31
378.66	1206.25
378.87	1335.28
379.08	1294.32
379.29	1191.92
379.50	1232.88
379.71	1218.54
379.91	1314.80
380.12	1310.70
380.33	1322.99
380.54	1298.41
380.75	1230.83
380.96	1230.83
381.17	1306.60
381.38	1204.21
381.59	1288.17
381.80	1249.26
382.00	1220.59
382.21	1255.40
382.42	1316.84
382.63	1230.83
382.84	1282.03
383.05	1286.12
383.26	1269.74
383.47	1253.36
383.68	1271.79
383.88	1275.88
384.09	1288.17
384.30	1306.60
384.51	1257.45
384.72	1232.88
384.93	1253.36
385.14	1226.73
385.35	1253.36
385.55	1196.01
385.76	1212.40
385.97	1300.46
386.18	1308.65
386.39	1263.60
386.60	1269.74
386.81	1288.17
387.02	1329.13
387.22	1206.25
387.43	1241.07
387.64	1269.74
387.85	1331.18
388.06	1202.16
388.27	1277.93
388.48	1368.04
388.68	1259.50
388.89	1288.17
389.10	1253.36
389.31	1261.55
389.52	1302.51
389.73	1247.21
389.93	1286.12
390.14	1277.93
390.35	1271.79
390.56	1318.89
390.77	1232.88
390.98	1216.49
391.18	1314.80
391.39	1286.12
391.60	1302.51
391.81	1251.31
392.02	1306.60
392.23	1261.55
392.43	1388.52
392.64	1279.98
392.85	1216.49
393.06	1226.73
393.27	1232.88
393.47	1245.16
393.68	1343.47
393.89	1294.32
394.10	1241.07
394.31	1269.74
394.52	1298.41
394.72	1226.73
394.93	1228.78
395.14	1232.88
395.35	1304.56
395.56	1265.64
395.76	1243.12
395.97	1247.21
396.18	1210.35
396.39	1331.18
396.60	1308.65
396.80	1230.83
397.01	1200.11
397.22	1288.17
397.43	1294.32
397.64	1300.46
397.84	1263.60
398.05	1259.50
398.26	1294.32
398.47	1286.12
398.67	1265.64
398.88	1255.40
399.09	1226.73
399.30	1286.12
399.51	1288.17
399.71	1296.36
399.92	1282.03
400.13	1181.68
400.34	1241.07
400.54	1220.59
400.75	1249.26
400.96	1302.51
401.17	1259.50
401.37	1232.88
401.58	1183.73
401.79	1339.37
402.00	1273.84
402.21	1239.02
402.41	1232.88
402.62	1284.08
402.83	1279.98
403.04	1222.64
403.24	1298.41
403.45	1239.02
403.66	1265.64
403.87	1302.51
404.07	1357.80
404.28	1265.64
404.49	1263.60
404.70	1230.83
404.90	1234.93
405.11	1275.88
405.32	1353.71
405.52	1292.27
405.73	1275.88
405.94	1247.21
406.15	1316.84
406.35	1310.70
406.56	1241.07
406.77	1355.76
406.98	1284.08
407.18	1263.60
407.39	1243.12
407.60	1183.73
407.80	1253.36
408.01	1218.54
408.22	1300.46
408.43	1302.51
408.63	1273.84
408.84	1251.31
409.05	1273.84
409.25	1310.70
409.46	1277.93
409.67	1267.69
409.88	1214.45
410.08	1200.11
410.29	1322.99
410.50	1249.26
410.70	1245.16
410.91	1282.03
411.12	1275.88
411.32	1304.56
411.53	1255.40
411.74	1222.64
411.95	1329.13
412.15	1322.99
412.36	1265.64
412.57	1273.84
412.77	1353.71
412.98	1159.15
413.19	1257.45
413.39	1329.13
413.60	1314.80
413.81	1259.50
414.01	1230.83
414.22	1282.03
414.43	1304.56
414.63	1290.22
414.84	1245.16
415.05	1286.12
415.25	1288.17
415.46	1243.12
415.67	1247.21
415.87	1232.88
416.08	1218.54
416.29	1318.89
416.49	1228.78
416.70	1243.12
416.91	1265.64
417.11	1294.32
417.32	1318.89
417.53	1218.54
417.73	1202.16
417.94	1304.56
418.15	1271.79
418.35	1255.40
418.56	1269.74
418.77	1288.17
418.97	1318.89
419.18	1259.50
419.38	1306.60
419.59	1251.31
419.80	1312.75
420.00	1277.93
420.21	1269.74
420.42	1339.37
420.62	1327.08
420.83	1288.17
421.04	1247.21
421.24	1234.93
421.45	1261.55
421.65	1245.16
421.86	1290.22
422.07	1294.32
422.27	1234.93
422.48	1226.73
422.69	1288.17
422.89	1279.98
423.10	1310.70
423.30	1255.40
423.51	1241.07
423.72	1279.98
423.92	1247.21
424.13	1232.88
424.33	1265.64
424.54	1306.60
424.75	1224.69
424.95	1314.80
425.16	1282.03
425.36	1255.40
425.57	1361.90
425.78	1333.23
425.98	1253.36
426.19	1277.93
426.39	1314.80
426.60	1345.52
426.81	1181.68
427.01	1318.89
427.22	1222.64
427.42	1206.25
427.63	1249.26
427.83	1245.16
428.04	1239.02
428.25	1212.40
428.45	1314.80
428.66	1191.92
428.86	1308.65
429.07	1222.64
429.28	1312.75
429.48	1327.08
429.69	1255.40
429.89	1271.79
430.10	1271.79
430.30	1234.93
430.51	1331.18
430.71	1191.92
430.92	1255.40
431.13	1279.98
431.33	1273.84
431.54	1312.75
431.74	1193.97
431.95	1249.26
432.15	1304.56
432.36	1286.12
432.56	1279.98
432.77	1288.17
432.98	1282.03
433.18	1269.74
433.39	1263.60
433.59	1253.36
433.80	1312.75
434.00	1300.46
434.21	1290.22
434.41	1249.26
434.62	1247.21
434.82	1296.36
435.03	1312.75
435.23	1286.12
435.44	1236.97
435.64	1243.12
435.85	1200.11
436.06	1265.64
436.26	1273.84
436.47	1202.16
436.67	1255.40
436.88	1294.32
437.08	1216.49
437.29	1236.97
437.49	1298.41
437.70	1318.89
437.90	1308.65
438.11	1275.88
438.31	1277.93
438.52	1288.17
438.72	1267.69
438.93	1183.73
439.13	1253.36
439.34	1257.45
439.54	1279.98
439.75	1308.65
439.95	1279.98
440.16	1241.07
440.36	1275.88
440.57	1284.08
440.77	1331.18
440.98	1294.32
441.18	1316.84
441.39	1292.27
441.59	1304.56
441.80	1277.93
442.00	1220.59
442.21	1226.73
442.41	1298.41
442.62	1271.79
442.82	1249.26
443.02	1265.64
443.23	1329.13
443.43	1279.98
443.64	1230.83
443.84	1226.73
444.05	1286.12
444.25	1216.49
444.46	1304.56
444.66	1224.69
444.87	1286.12
445.07	1296.36
445.28	1306.60
445.48	1296.36
445.69	1335.28
445.89	1308.65
446.09	1273.84
446.30	1267.69
446.50	1261.55
446.71	1202.16
446.91	1273.84
447.12	1247.21
447.32	1310.70
447.53	1245.16
447.73	1351.66
447.93	1288.17
448.14	1226.73
448.34	1224.69
448.55	1359.85
448.75	1214.45
448.96	1261.55
449.16	1282.03
449.36	1263.60
449.57	1304.56
449.77	1230.83
449.98	1259.50
450.18	1279.98
450.39	1306.60
450.59	1257.45
450.79	1275.88
451.00	1247.21
451.20	1273.84
451.41	1255.40
451.61	1224.69
451.81	1267.69
452.02	1230.83
452.22	1384.43
452.43	1304.56
452.63	1271.79
