SpectraSuite Data File
++++++++++++++++++++++++++++++++++++
Date: Sun Apr 03 19:55:48 CEST 2016
User: root
Dark Spectrum Present: No
Reference Spectrum Present: No
Number of Sampled Component Spectra: 1
Spectrometers: USB4C02835
Integration Time (usec): 10000 (USB4C02835)
Spectra Averaged: 1 (USB4C02835)
Boxcar Smoothing: 0 (USB4C02835)
Correct for Electrical Dark: No (USB4C02835)
Strobe/Lamp Enabled: No (USB4C02835)
Correct for Detector Non-linearity: No (USB4C02835)
Correct for Stray Light: No (USB4C02835)
Number of Pixels in Processed Spectrum: 3648
>>>>>Begin Processed Spectral Data<<<<<
177.47	1249.26
177.69	1249.26
177.91	1249.26
178.13	1214.45
178.36	1208.30
178.58	1292.27
178.80	1292.27
179.02	1187.82
179.24	1261.55
179.46	1222.64
179.68	1288.17
179.90	1310.70
180.13	1232.88
180.35	1275.88
180.57	1216.49
180.79	1236.97
181.01	1269.74
181.23	1267.69
181.45	1249.26
181.67	1290.22
181.90	1318.89
182.12	1243.12
182.34	1339.37
182.56	1255.40
182.78	1345.52
183.00	1271.79
183.22	1282.03
183.44	1245.16
183.66	1222.64
183.89	1273.84
184.11	1314.80
184.33	1214.45
184.55	1298.41
184.77	1306.60
184.99	1236.97
185.21	1267.69
185.43	1265.64
185.65	1275.88
185.87	1282.03
186.10	1181.68
186.32	1277.93
186.54	1245.16
186.76	1308.65
186.98	1282.03
187.20	1310.70
187.42	1245.16
187.64	1298.41
187.86	1284.08
188.08	1271.79
188.30	1267.69
188.52	1267.69
188.75	1253.36
188.97	1218.54
189.19	1183.73
189.41	1271.79
189.63	1318.89
189.85	1263.60
190.07	1304.56
190.29	1222.64
190.51	1218.54
190.73	1318.89
190.95	1257.45
191.17	1339.37
191.39	1257.45
191.61	1312.75
191.84	1288.17
192.06	1239.02
192.28	1300.46
192.50	1308.65
192.72	1230.83
192.94	1282.03
193.16	1241.07
193.38	1263.60
193.60	1247.21
193.82	1228.78
194.04	1306.60
194.26	1206.25
194.48	1308.65
194.70	1239.02
194.92	1273.84
195.14	1241.07
195.36	1269.74
195.58	1306.60
195.80	1265.64
196.02	1298.41
196.24	1277.93
196.46	1214.45
196.69	1220.59
196.91	1191.92
197.13	1226.73
197.35	1302.51
197.57	1257.45
197.79	1304.56
198.01	1249.26
198.23	1296.36
198.45	1245.16
198.67	1292.27
198.89	1271.79
199.11	1277.93
199.33	1275.88
199.55	1327.08
199.77	1277.93
199.99	1239.02
200.21	1269.74
200.43	1290.22
200.65	1210.35
200.87	1202.16
201.09	1279.98
201.31	1228.78
201.53	1251.31
201.75	1234.93
201.97	1230.83
202.19	1206.25
202.41	1337.32
202.63	1222.64
202.85	1245.16
203.07	1269.74
203.29	1294.32
203.51	1263.60
203.73	1300.46
203.95	1271.79
204.17	1249.26
204.39	1294.32
204.61	1222.64
204.83	1329.13
205.05	1257.45
205.27	1255.40
205.49	1277.93
205.71	1261.55
205.93	1263.60
206.15	1245.16
206.37	1255.40
206.59	1273.84
206.81	1232.88
207.03	1269.74
207.25	1292.27
207.47	1288.17
207.69	1214.45
207.91	1312.75
208.13	1335.28
208.34	1224.69
208.56	1374.19
208.78	1273.84
209.00	1265.64
209.22	1232.88
209.44	1249.26
209.66	1247.21
209.88	1282.03
210.10	1210.35
210.32	1206.25
210.54	1318.89
210.76	1333.23
210.98	1314.80
211.20	1282.03
211.42	1316.84
211.64	1290.22
211.86	1275.88
212.08	1314.80
212.30	1236.97
212.52	1230.83
212.74	1234.93
212.96	1234.93
213.17	1300.46
213.39	1298.41
213.61	1232.88
213.83	1343.47
214.05	1263.60
214.27	1271.79
214.49	1306.60
214.71	1325.04
214.93	1288.17
215.15	1239.02
215.37	1185.77
215.59	1310.70
215.81	1331.18
216.03	1284.08
216.24	1314.80
216.46	1277.93
216.68	1253.36
216.90	1263.60
217.12	1189.87
217.34	1239.02
217.56	1253.36
217.78	1234.93
218.00	1308.65
218.22	1261.55
218.44	1271.79
218.66	1232.88
218.87	1296.36
219.09	1286.12
219.31	1271.79
219.53	1212.40
219.75	1200.11
219.97	1269.74
220.19	1269.74
220.41	1191.92
220.63	1230.83
220.85	1337.32
221.06	1271.79
221.28	1304.56
221.50	1279.98
221.72	1255.40
221.94	1284.08
222.16	1236.97
222.38	1148.91
222.60	1222.64
222.82	1239.02
223.03	1312.75
223.25	1239.02
223.47	1267.69
223.69	1224.69
223.91	1251.31
224.13	1279.98
224.35	1284.08
224.57	1282.03
224.78	1316.84
225.00	1269.74
225.22	1265.64
225.44	1234.93
225.66	1249.26
225.88	1261.55
226.10	1253.36
226.32	1255.40
226.53	1257.45
226.75	1273.84
226.97	1279.98
227.19	1279.98
227.41	1263.60
227.63	1290.22
227.85	1277.93
228.06	1273.84
228.28	1306.60
228.50	1253.36
228.72	1255.40
228.94	1314.80
229.16	1243.12
229.37	1241.07
229.59	1220.59
229.81	1304.56
230.03	1220.59
230.25	1273.84
230.47	1198.06
230.69	1261.55
230.90	1224.69
231.12	1214.45
231.34	1341.42
231.56	1296.36
231.78	1218.54
232.00	1282.03
232.21	1277.93
232.43	1286.12
232.65	1239.02
232.87	1300.46
233.09	1265.64
233.30	1263.60
233.52	1273.84
233.74	1275.88
233.96	1296.36
234.18	1243.12
234.40	1241.07
234.61	1216.49
234.83	1290.22
235.05	1308.65
235.27	1306.60
235.49	1312.75
235.70	1284.08
235.92	1263.60
236.14	1298.41
236.36	1259.50
236.58	1261.55
236.79	1222.64
237.01	1239.02
237.23	1232.88
237.45	1290.22
237.67	1247.21
237.88	1327.08
238.10	1208.30
238.32	1290.22
238.54	1220.59
238.76	1320.94
238.97	1277.93
239.19	1181.68
239.41	1294.32
239.63	1273.84
239.85	1232.88
240.06	1191.92
240.28	1198.06
240.50	1282.03
240.72	1253.36
240.93	1296.36
241.15	1255.40
241.37	1273.84
241.59	1257.45
241.81	1296.36
242.02	1251.31
242.24	1290.22
242.46	1341.42
242.68	1239.02
242.89	1259.50
243.11	1265.64
243.33	1245.16
243.55	1298.41
243.76	1255.40
243.98	1318.89
244.20	1273.84
244.42	1275.88
244.64	1275.88
244.85	1304.56
245.07	1245.16
245.29	1316.84
245.51	1355.76
245.72	1189.87
245.94	1253.36
246.16	1277.93
246.38	1224.69
246.59	1271.79
246.81	1228.78
247.03	1265.64
247.24	1370.09
247.46	1267.69
247.68	1353.71
247.90	1255.40
248.11	1310.70
248.33	1241.07
248.55	1255.40
248.77	1257.45
248.98	1347.56
249.20	1345.52
249.42	1304.56
249.64	1275.88
249.85	1275.88
250.07	1273.84
250.29	1220.59
250.50	1279.98
250.72	1284.08
250.94	1253.36
251.16	1304.56
251.37	1257.45
251.59	1255.40
251.81	1277.93
252.02	1294.32
252.24	1284.08
252.46	1329.13
252.68	1241.07
252.89	1329.13
253.11	1163.25
253.33	1257.45
253.54	1271.79
253.76	1249.26
253.98	1296.36
254.20	1284.08
254.41	1222.64
254.63	1318.89
254.85	1230.83
255.06	1288.17
255.28	1259.50
255.50	1363.95
255.71	1300.46
255.93	1306.60
256.15	1314.80
256.36	1273.84
256.58	1243.12
256.80	1263.60
257.02	1232.88
257.23	1224.69
257.45	1247.21
257.67	1245.16
257.88	1245.16
258.10	1318.89
258.32	1218.54
258.53	1261.55
258.75	1247.21
258.97	1273.84
259.18	1275.88
259.40	1249.26
259.62	1296.36
259.83	1282.03
260.05	1292.27
260.27	1251.31
260.48	1204.21
260.70	1247.21
260.92	1263.60
261.13	1259.50
261.35	1282.03
261.57	1265.64
261.78	1314.80
262.00	1245.16
262.22	1239.02
262.43	1228.78
262.65	1347.56
262.86	1290.22
263.08	1232.88
263.30	1271.79
263.51	1224.69
263.73	1292.27
263.95	1318.89
264.16	1255.40
264.38	1247.21
264.60	1249.26
264.81	1230.83
265.03	1273.84
265.25	1304.56
265.46	1259.50
265.68	1263.60
265.89	1196.01
266.11	1253.36
266.33	1312.75
266.54	1224.69
266.76	1247.21
266.98	1228.78
267.19	1302.51
267.41	1275.88
267.62	1251.31
267.84	1318.89
268.06	1261.55
268.27	1214.45
268.49	1302.51
268.70	1249.26
268.92	1257.45
269.14	1257.45
269.35	1314.80
269.57	1265.64
269.79	1257.45
270.00	1310.70
270.22	1263.60
270.43	1236.97
270.65	1310.70
270.87	1255.40
271.08	1214.45
271.30	1322.99
271.51	1269.74
271.73	1314.80
271.95	1312.75
272.16	1251.31
272.38	1189.87
272.59	1318.89
272.81	1208.30
273.02	1275.88
273.24	1306.60
273.46	1232.88
273.67	1310.70
273.89	1316.84
274.10	1214.45
274.32	1292.27
274.54	1265.64
274.75	1243.12
274.97	1282.03
275.18	1294.32
275.40	1298.41
275.61	1265.64
275.83	1302.51
276.05	1290.22
276.26	1353.71
276.48	1251.31
276.69	1241.07
276.91	1263.60
277.12	1284.08
277.34	1265.64
277.55	1275.88
277.77	1312.75
277.99	1292.27
278.20	1230.83
278.42	1267.69
278.63	1179.63
278.85	1277.93
279.06	1282.03
279.28	1294.32
279.49	1208.30
279.71	1236.97
279.93	1273.84
280.14	1234.93
280.36	1241.07
280.57	1236.97
280.79	1259.50
281.00	1314.80
281.22	1279.98
281.43	1269.74
281.65	1204.21
281.86	1290.22
282.08	1259.50
282.29	1298.41
282.51	1232.88
282.73	1265.64
282.94	1269.74
283.16	1355.76
283.37	1228.78
283.59	1216.49
283.80	1191.92
284.02	1331.18
284.23	1314.80
284.45	1337.32
284.66	1271.79
284.88	1277.93
285.09	1273.84
285.31	1284.08
285.52	1232.88
285.74	1245.16
285.95	1232.88
286.17	1247.21
286.38	1394.67
286.60	1271.79
286.81	1261.55
287.03	1306.60
287.24	1300.46
287.46	1298.41
287.67	1255.40
287.89	1261.55
288.10	1302.51
288.32	1335.28
288.53	1282.03
288.75	1279.98
288.96	1312.75
289.18	1277.93
289.39	1298.41
289.61	1282.03
289.82	1304.56
290.04	1271.79
290.25	1253.36
290.47	1273.84
290.68	1261.55
290.90	1296.36
291.11	1339.37
291.33	1255.40
291.54	1327.08
291.76	1216.49
291.97	1320.94
292.18	1230.83
292.40	1306.60
292.61	1333.23
292.83	1302.51
293.04	1282.03
293.26	1224.69
293.47	1253.36
293.69	1257.45
293.90	1296.36
294.12	1187.82
294.33	1286.12
294.55	1261.55
294.76	1243.12
294.97	1222.64
295.19	1214.45
295.40	1249.26
295.62	1253.36
295.83	1288.17
296.05	1255.40
296.26	1253.36
296.48	1331.18
296.69	1241.07
296.90	1322.99
297.12	1339.37
297.33	1279.98
297.55	1212.40
297.76	1327.08
297.98	1271.79
298.19	1253.36
298.41	1300.46
298.62	1300.46
298.83	1243.12
299.05	1249.26
299.26	1271.79
299.48	1288.17
299.69	1279.98
299.90	1253.36
300.12	1243.12
300.33	1234.93
300.55	1353.71
300.76	1257.45
300.98	1296.36
301.19	1267.69
301.40	1265.64
301.62	1245.16
301.83	1189.87
302.05	1202.16
302.26	1267.69
302.47	1322.99
302.69	1296.36
302.90	1288.17
303.12	1341.42
303.33	1249.26
303.54	1322.99
303.76	1316.84
303.97	1255.40
304.19	1249.26
304.40	1271.79
304.61	1275.88
304.83	1302.51
305.04	1212.40
305.26	1259.50
305.47	1308.65
305.68	1286.12
305.90	1271.79
306.11	1159.15
306.33	1308.65
306.54	1202.16
306.75	1288.17
306.97	1304.56
307.18	1263.60
307.39	1282.03
307.61	1253.36
307.82	1288.17
308.04	1302.51
308.25	1320.94
308.46	1345.52
308.68	1230.83
308.89	1200.11
309.10	1263.60
309.32	1300.46
309.53	1245.16
309.74	1230.83
309.96	1224.69
310.17	1245.16
310.39	1277.93
310.60	1239.02
310.81	1191.92
311.03	1259.50
311.24	1290.22
311.45	1290.22
311.67	1300.46
311.88	1282.03
312.09	1275.88
312.31	1263.60
312.52	1255.40
312.73	1279.98
312.95	1204.21
313.16	1282.03
313.37	1214.45
313.59	1316.84
313.80	1298.41
314.01	1282.03
314.23	1208.30
314.44	1290.22
314.65	1257.45
314.87	1296.36
315.08	1296.36
315.29	1284.08
315.51	1267.69
315.72	1316.84
315.93	1200.11
316.15	1253.36
316.36	1271.79
316.57	1208.30
316.79	1308.65
317.00	1275.88
317.21	1290.22
317.43	1275.88
317.64	1273.84
317.85	1243.12
318.07	1265.64
318.28	1296.36
318.49	1282.03
318.70	1239.02
318.92	1236.97
319.13	1247.21
319.34	1257.45
319.56	1230.83
319.77	1294.32
319.98	1259.50
320.20	1308.65
320.41	1247.21
320.62	1212.40
320.83	1286.12
321.05	1273.84
321.26	1333.23
321.47	1239.02
321.69	1308.65
321.90	1245.16
322.11	1257.45
322.32	1267.69
322.54	1347.56
322.75	1236.97
322.96	1304.56
323.18	1277.93
323.39	1314.80
323.60	1310.70
323.81	1300.46
324.03	1322.99
324.24	1191.92
324.45	1261.55
324.66	1247.21
324.88	1302.51
325.09	1234.93
325.30	1224.69
325.52	1306.60
325.73	1275.88
325.94	1247.21
326.15	1198.06
326.37	1275.88
326.58	1249.26
326.79	1218.54
327.00	1204.21
327.22	1206.25
327.43	1247.21
327.64	1257.45
327.85	1304.56
328.07	1279.98
328.28	1255.40
328.49	1247.21
328.70	1243.12
328.92	1243.12
329.13	1234.93
329.34	1304.56
329.55	1243.12
329.76	1306.60
329.98	1380.33
330.19	1241.07
330.40	1288.17
330.61	1341.42
330.83	1271.79
331.04	1341.42
331.25	1253.36
331.46	1294.32
331.68	1236.97
331.89	1245.16
332.10	1216.49
332.31	1251.31
332.52	1282.03
332.74	1282.03
332.95	1198.06
333.16	1320.94
333.37	1329.13
333.58	1189.87
333.80	1335.28
334.01	1196.01
334.22	1314.80
334.43	1286.12
334.64	1288.17
334.86	1312.75
335.07	1245.16
335.28	1263.60
335.49	1251.31
335.70	1320.94
335.92	1216.49
336.13	1292.27
336.34	1255.40
336.55	1277.93
336.76	1310.70
336.98	1284.08
337.19	1247.21
337.40	1251.31
337.61	1271.79
337.82	1265.64
338.04	1279.98
338.25	1183.73
338.46	1277.93
338.67	1253.36
338.88	1265.64
339.09	1292.27
339.31	1142.77
339.52	1257.45
339.73	1185.77
339.94	1243.12
340.15	1294.32
340.36	1273.84
340.58	1267.69
340.79	1271.79
341.00	1302.51
341.21	1279.98
341.42	1267.69
341.63	1239.02
341.85	1267.69
342.06	1327.08
342.27	1288.17
342.48	1333.23
342.69	1265.64
342.90	1329.13
343.12	1204.21
343.33	1224.69
343.54	1220.59
343.75	1224.69
343.96	1218.54
344.17	1239.02
344.38	1239.02
344.60	1314.80
344.81	1214.45
345.02	1296.36
345.23	1279.98
345.44	1290.22
345.65	1267.69
345.86	1284.08
346.07	1312.75
346.29	1253.36
346.50	1269.74
346.71	1282.03
346.92	1232.88
347.13	1222.64
347.34	1218.54
347.55	1288.17
347.76	1239.02
347.98	1249.26
348.19	1245.16
348.40	1306.60
348.61	1208.30
348.82	1275.88
349.03	1327.08
349.24	1249.26
349.45	1271.79
349.66	1245.16
349.88	1314.80
350.09	1275.88
350.30	1249.26
350.51	1247.21
350.72	1261.55
350.93	1290.22
351.14	1245.16
351.35	1202.16
351.56	1290.22
351.77	1288.17
351.99	1318.89
352.20	1214.45
352.41	1288.17
352.62	1273.84
352.83	1261.55
353.04	1279.98
353.25	1222.64
353.46	1249.26
353.67	1327.08
353.88	1206.25
354.09	1261.55
354.30	1259.50
354.52	1286.12
354.73	1230.83
354.94	1169.39
355.15	1234.93
355.36	1251.31
355.57	1282.03
355.78	1282.03
355.99	1245.16
356.20	1169.39
356.41	1232.88
356.62	1271.79
356.83	1310.70
357.04	1288.17
357.25	1263.60
357.46	1239.02
357.68	1306.60
357.89	1292.27
358.10	1255.40
358.31	1302.51
358.52	1234.93
358.73	1228.78
358.94	1253.36
359.15	1271.79
359.36	1273.84
359.57	1314.80
359.78	1298.41
359.99	1269.74
360.20	1267.69
360.41	1277.93
360.62	1263.60
360.83	1261.55
361.04	1275.88
361.25	1353.71
361.46	1255.40
361.67	1234.93
361.88	1271.79
362.09	1253.36
362.30	1204.21
362.51	1284.08
362.72	1249.26
362.93	1325.04
363.14	1216.49
363.35	1306.60
363.56	1222.64
363.78	1263.60
363.99	1226.73
364.20	1249.26
364.41	1228.78
364.62	1302.51
364.83	1288.17
365.04	1253.36
365.25	1222.64
365.46	1269.74
365.67	1277.93
365.88	1265.64
366.09	1236.97
366.30	1224.69
366.51	1230.83
366.72	1351.66
366.93	1245.16
367.14	1261.55
367.35	1282.03
367.56	1286.12
367.77	1239.02
367.98	1198.06
368.18	1236.97
368.39	1284.08
368.60	1187.82
368.81	1212.40
369.02	1249.26
369.23	1273.84
369.44	1267.69
369.65	1265.64
369.86	1325.04
370.07	1271.79
370.28	1294.32
370.49	1220.59
370.70	1322.99
370.91	1214.45
371.12	1251.31
371.33	1273.84
371.54	1226.73
371.75	1282.03
371.96	1183.73
372.17	1261.55
372.38	1279.98
372.59	1277.93
372.80	1271.79
373.01	1245.16
373.22	1255.40
373.43	1282.03
373.64	1247.21
373.85	1298.41
374.06	1232.88
374.26	1257.45
374.47	1294.32
374.68	1265.64
374.89	1279.98
375.10	1359.85
375.31	1279.98
375.52	1249.26
375.73	1253.36
375.94	1327.08
376.15	1329.13
376.36	1251.31
376.57	1230.83
376.78	1202.16
376.99	1363.95
377.20	1316.84
377.40	1304.56
377.61	1294.32
377.82	1239.02
378.03	1290.22
378.24	1222.64
378.45	1230.83
378.66	1224.69
378.87	1259.50
379.08	1314.80
379.29	1359.85
379.50	1290.22
379.71	1261.55
379.91	1298.41
380.12	1224.69
380.33	1322.99
380.54	1286.12
380.75	1355.76
380.96	1294.32
381.17	1298.41
381.38	1312.75
381.59	1251.31
381.80	1288.17
382.00	1282.03
382.21	1314.80
382.42	1290.22
382.63	1263.60
382.84	1314.80
383.05	1286.12
383.26	1316.84
383.47	1249.26
383.68	1279.98
383.88	1282.03
384.09	1253.36
384.30	1306.60
384.51	1325.04
384.72	1275.88
384.93	1222.64
385.14	1279.98
385.35	1253.36
385.55	1308.65
385.76	1279.98
385.97	1286.12
386.18	1230.83
386.39	1249.26
386.60	1206.25
386.81	1279.98
387.02	1228.78
387.22	1243.12
387.43	1236.97
387.64	1292.27
387.85	1208.30
388.06	1269.74
388.27	1255.40
388.48	1253.36
388.68	1347.56
388.89	1318.89
389.10	1288.17
389.31	1294.32
389.52	1355.76
389.73	1220.59
389.93	1310.70
390.14	1308.65
390.35	1329.13
390.56	1298.41
390.77	1257.45
390.98	1171.44
391.18	1292.27
391.39	1239.02
391.60	1286.12
391.81	1220.59
392.02	1294.32
392.23	1306.60
392.43	1279.98
392.64	1294.32
392.85	1296.36
393.06	1218.54
393.27	1286.12
393.47	1277.93
393.68	1249.26
393.89	1335.28
394.10	1269.74
394.31	1187.82
394.52	1259.50
394.72	1277.93
394.93	1257.45
395.14	1212.40
395.35	1245.16
395.56	1257.45
395.76	1273.84
395.97	1322.99
396.18	1267.69
396.39	1290.22
396.60	1298.41
396.80	1257.45
397.01	1226.73
397.22	1282.03
397.43	1265.64
397.64	1314.80
397.84	1318.89
398.05	1269.74
398.26	1187.82
398.47	1232.88
398.67	1279.98
398.88	1300.46
399.09	1251.31
399.30	1255.40
399.51	1296.36
399.71	1253.36
399.92	1196.01
400.13	1302.51
400.34	1347.56
400.54	1294.32
400.75	1257.45
400.96	1282.03
401.17	1347.56
401.37	1288.17
401.58	1288.17
401.79	1282.03
402.00	1251.31
402.21	1267.69
402.41	1282.03
402.62	1236.97
402.83	1304.56
403.04	1220.59
403.24	1306.60
403.45	1308.65
403.66	1275.88
403.87	1333.23
404.07	1316.84
404.28	1245.16
404.49	1212.40
404.70	1279.98
404.90	1245.16
405.11	1232.88
405.32	1275.88
405.52	1288.17
405.73	1290.22
405.94	1310.70
406.15	1337.32
406.35	1314.80
406.56	1216.49
406.77	1290.22
406.98	1269.74
407.18	1282.03
407.39	1294.32
407.60	1263.60
407.80	1288.17
408.01	1212.40
408.22	1294.32
408.43	1290.22
408.63	1253.36
408.84	1214.45
409.05	1257.45
409.25	1279.98
409.46	1249.26
409.67	1179.63
409.88	1312.75
410.08	1175.53
410.29	1273.84
410.50	1265.64
410.70	1255.40
410.91	1232.88
411.12	1257.45
411.32	1327.08
411.53	1255.40
411.74	1224.69
411.95	1331.18
412.15	1224.69
412.36	1284.08
412.57	1290.22
412.77	1325.04
412.98	1292.27
413.19	1296.36
413.39	1224.69
413.60	1245.16
413.81	1298.41
414.01	1236.97
414.22	1290.22
414.43	1329.13
414.63	1187.82
414.84	1327.08
415.05	1208.30
415.25	1310.70
415.46	1191.92
415.67	1282.03
415.87	1241.07
416.08	1253.36
416.29	1279.98
416.49	1308.65
416.70	1312.75
416.91	1253.36
417.11	1282.03
417.32	1296.36
417.53	1251.31
417.73	1220.59
417.94	1263.60
418.15	1300.46
418.35	1290.22
418.56	1214.45
418.77	1275.88
418.97	1253.36
419.18	1277.93
419.38	1261.55
419.59	1263.60
419.80	1312.75
420.00	1292.27
420.21	1263.60
420.42	1273.84
420.62	1251.31
420.83	1271.79
421.04	1265.64
421.24	1339.37
421.45	1216.49
421.65	1333.23
421.86	1345.52
422.07	1292.27
422.27	1318.89
422.48	1183.73
422.69	1245.16
422.89	1296.36
423.10	1241.07
423.30	1269.74
423.51	1282.03
423.72	1290.22
423.92	1245.16
424.13	1314.80
424.33	1216.49
424.54	1198.06
424.75	1320.94
424.95	1282.03
425.16	1247.21
425.36	1292.27
425.57	1261.55
425.78	1241.07
425.98	1286.12
426.19	1282.03
426.39	1247.21
426.60	1273.84
426.81	1353.71
427.01	1185.77
427.22	1298.41
427.42	1294.32
427.63	1271.79
427.83	1245.16
428.04	1325.04
428.25	1277.93
428.45	1288.17
428.66	1253.36
428.86	1302.51
429.07	1208.30
429.28	1259.50
429.48	1267.69
429.69	1320.94
429.89	1183.73
430.10	1279.98
430.30	1236.97
430.51	1206.25
430.71	1320.94
430.92	1261.55
431.13	1273.84
431.33	1275.88
431.54	1232.88
431.74	1232.88
431.95	1245.16
432.15	1189.87
432.36	1251.31
432.56	1298.41
432.77	1308.65
432.98	1271.79
433.18	1226.73
433.39	1279.98
433.59	1290.22
433.80	1314.80
434.00	1271.79
434.21	1255.40
434.41	1308.65
434.62	1249.26
434.82	1273.84
435.03	1249.26
435.23	1318.89
435.44	1318.89
435.64	1255.40
435.85	1322.99
436.06	1269.74
436.26	1261.55
436.47	1300.46
436.67	1306.60
436.88	1255.40
437.08	1320.94
437.29	1265.64
437.49	1269.74
437.70	1236.97
437.90	1306.60
438.11	1218.54
438.31	1239.02
438.52	1282.03
438.72	1282.03
438.93	1290.22
439.13	1308.65
439.34	1275.88
439.54	1265.64
439.75	1308.65
439.95	1292.27
440.16	1212.40
440.36	1320.94
440.57	1290.22
440.77	1265.64
440.98	1271.79
441.18	1259.50
441.39	1232.88
441.59	1232.88
441.80	1241.07
442.00	1255.40
442.21	1286.12
442.41	1234.93
442.62	1279.98
442.82	1251.31
443.02	1290.22
443.23	1253.36
443.43	1247.21
443.64	1279.98
443.84	1320.94
444.05	1292.27
444.25	1200.11
444.46	1232.88
444.66	1245.16
444.87	1224.69
445.07	1255.40
445.28	1298.41
445.48	1279.98
445.69	1230.83
445.89	1316.84
446.09	1339.37
446.30	1329.13
446.50	1351.66
446.71	1417.19
446.91	1296.36
447.12	1263.60
447.32	1312.75
447.53	1204.21
447.73	1259.50
447.93	1300.46
448.14	1368.04
448.34	1359.85
448.55	1196.01
448.75	1277.93
448.96	1310.70
449.16	1251.31
449.36	1322.99
449.57	1255.40
449.77	1314.80
449.98	1228.78
450.18	1224.69
450.39	1271.79
450.59	1234.93
450.79	1259.50
451.00	1296.36
451.20	1255.40
451.41	1331.18
451.61	1271.79
451.81	1314.80
452.02	1282.03
452.22	1273.84
452.43	1269.74
452.63	1271.79
