SpectraSuite Data File
++++++++++++++++++++++++++++++++++++
Date: Sun Apr 03 19:55:25 CEST 2016
User: root
Dark Spectrum Present: No
Reference Spectrum Present: No
Number of Sampled Component Spectra: 1
Spectrometers: USB4C02835
Integration Time (usec): 10000 (USB4C02835)
Spectra Averaged: 1 (USB4C02835)
Boxcar Smoothing: 0 (USB4C02835)
Correct for Electrical Dark: No (USB4C02835)
Strobe/Lamp Enabled: No (USB4C02835)
Correct for Detector Non-linearity: No (USB4C02835)
Correct for Stray Light: No (USB4C02835)
Number of Pixels in Processed Spectrum: 3648
>>>>>Begin Processed Spectral Data<<<<<
177.47	1275.88
177.69	1275.88
177.91	1275.88
178.13	1202.16
178.36	1249.26
178.58	1257.45
178.80	1200.11
179.02	1204.21
179.24	1228.78
179.46	1239.02
179.68	1257.45
179.90	1232.88
180.13	1232.88
180.35	1284.08
180.57	1288.17
180.79	1212.40
181.01	1290.22
181.23	1286.12
181.45	1296.36
181.67	1249.26
181.90	1314.80
182.12	1253.36
182.34	1282.03
182.56	1202.16
182.78	1290.22
183.00	1290.22
183.22	1288.17
183.44	1222.64
183.66	1267.69
183.89	1294.32
184.11	1277.93
184.33	1310.70
184.55	1251.31
184.77	1257.45
184.99	1261.55
185.21	1232.88
185.43	1239.02
185.65	1228.78
185.87	1327.08
186.10	1275.88
186.32	1241.07
186.54	1249.26
186.76	1218.54
186.98	1255.40
187.20	1288.17
187.42	1306.60
187.64	1214.45
187.86	1224.69
188.08	1259.50
188.30	1282.03
188.52	1275.88
188.75	1284.08
188.97	1210.35
189.19	1282.03
189.41	1269.74
189.63	1279.98
189.85	1255.40
190.07	1294.32
190.29	1273.84
190.51	1261.55
190.73	1261.55
190.95	1310.70
191.17	1249.26
191.39	1251.31
191.61	1251.31
191.84	1222.64
192.06	1249.26
192.28	1239.02
192.50	1263.60
192.72	1277.93
192.94	1230.83
193.16	1265.64
193.38	1277.93
193.60	1236.97
193.82	1214.45
194.04	1249.26
194.26	1273.84
194.48	1277.93
194.70	1288.17
194.92	1247.21
195.14	1251.31
195.36	1261.55
195.58	1302.51
195.80	1269.74
196.02	1245.16
196.24	1165.29
196.46	1255.40
196.69	1288.17
196.91	1300.46
197.13	1300.46
197.35	1222.64
197.57	1202.16
197.79	1339.37
198.01	1308.65
198.23	1292.27
198.45	1294.32
198.67	1243.12
198.89	1277.93
199.11	1345.52
199.33	1290.22
199.55	1253.36
199.77	1304.56
199.99	1257.45
200.21	1277.93
200.43	1296.36
200.65	1273.84
200.87	1275.88
201.09	1290.22
201.31	1253.36
201.53	1300.46
201.75	1294.32
201.97	1196.01
202.19	1296.36
202.41	1282.03
202.63	1241.07
202.85	1189.87
203.07	1302.51
203.29	1241.07
203.51	1351.66
203.73	1282.03
203.95	1232.88
204.17	1232.88
204.39	1312.75
204.61	1265.64
204.83	1290.22
205.05	1294.32
205.27	1296.36
205.49	1275.88
205.71	1288.17
205.93	1277.93
206.15	1269.74
206.37	1181.68
206.59	1239.02
206.81	1202.16
207.03	1263.60
207.25	1220.59
207.47	1296.36
207.69	1265.64
207.91	1286.12
208.13	1277.93
208.34	1302.51
208.56	1294.32
208.78	1218.54
209.00	1316.84
209.22	1290.22
209.44	1265.64
209.66	1247.21
209.88	1263.60
210.10	1288.17
210.32	1249.26
210.54	1279.98
210.76	1257.45
210.98	1226.73
211.20	1271.79
211.42	1249.26
211.64	1279.98
211.86	1292.27
212.08	1314.80
212.30	1288.17
212.52	1257.45
212.74	1298.41
212.96	1296.36
213.17	1214.45
213.39	1249.26
213.61	1185.77
213.83	1243.12
214.05	1234.93
214.27	1298.41
214.49	1253.36
214.71	1269.74
214.93	1279.98
215.15	1234.93
215.37	1279.98
215.59	1267.69
215.81	1257.45
216.03	1306.60
216.24	1300.46
216.46	1247.21
216.68	1318.89
216.90	1314.80
217.12	1234.93
217.34	1251.31
217.56	1243.12
217.78	1243.12
218.00	1298.41
218.22	1294.32
218.44	1345.52
218.66	1222.64
218.87	1230.83
219.09	1294.32
219.31	1191.92
219.53	1306.60
219.75	1349.61
219.97	1214.45
220.19	1290.22
220.41	1314.80
220.63	1290.22
220.85	1296.36
221.06	1314.80
221.28	1322.99
221.50	1255.40
221.72	1339.37
221.94	1265.64
222.16	1247.21
222.38	1208.30
222.60	1210.35
222.82	1275.88
223.03	1241.07
223.25	1228.78
223.47	1322.99
223.69	1232.88
223.91	1200.11
224.13	1251.31
224.35	1284.08
224.57	1210.35
224.78	1241.07
225.00	1245.16
225.22	1294.32
225.44	1255.40
225.66	1273.84
225.88	1251.31
226.10	1288.17
226.32	1243.12
226.53	1282.03
226.75	1320.94
226.97	1347.56
227.19	1247.21
227.41	1234.93
227.63	1245.16
227.85	1202.16
228.06	1320.94
228.28	1271.79
228.50	1357.80
228.72	1216.49
228.94	1273.84
229.16	1320.94
229.37	1204.21
229.59	1222.64
229.81	1271.79
230.03	1279.98
230.25	1286.12
230.47	1234.93
230.69	1284.08
230.90	1269.74
231.12	1241.07
231.34	1234.93
231.56	1290.22
231.78	1220.59
232.00	1298.41
232.21	1288.17
232.43	1267.69
232.65	1279.98
232.87	1234.93
233.09	1298.41
233.30	1298.41
233.52	1265.64
233.74	1245.16
233.96	1249.26
234.18	1304.56
234.40	1261.55
234.61	1220.59
234.83	1230.83
235.05	1366.00
235.27	1228.78
235.49	1290.22
235.70	1220.59
235.92	1290.22
236.14	1306.60
236.36	1224.69
236.58	1290.22
236.79	1312.75
237.01	1247.21
237.23	1245.16
237.45	1228.78
237.67	1169.39
237.88	1302.51
238.10	1212.40
238.32	1257.45
238.54	1298.41
238.76	1226.73
238.97	1269.74
239.19	1224.69
239.41	1343.47
239.63	1259.50
239.85	1230.83
240.06	1318.89
240.28	1245.16
240.50	1306.60
240.72	1206.25
240.93	1198.06
241.15	1216.49
241.37	1271.79
241.59	1288.17
241.81	1269.74
242.02	1306.60
242.24	1212.40
242.46	1302.51
242.68	1200.11
242.89	1292.27
243.11	1312.75
243.33	1226.73
243.55	1241.07
243.76	1312.75
243.98	1253.36
244.20	1306.60
244.42	1249.26
244.64	1210.35
244.85	1249.26
245.07	1273.84
245.29	1243.12
245.51	1230.83
245.72	1202.16
245.94	1247.21
246.16	1259.50
246.38	1290.22
246.59	1267.69
246.81	1241.07
247.03	1263.60
247.24	1232.88
247.46	1298.41
247.68	1316.84
247.90	1314.80
248.11	1239.02
248.33	1261.55
248.55	1288.17
248.77	1214.45
248.98	1288.17
249.20	1275.88
249.42	1304.56
249.64	1302.51
249.85	1243.12
250.07	1255.40
250.29	1191.92
250.50	1247.21
250.72	1269.74
250.94	1310.70
251.16	1255.40
251.37	1294.32
251.59	1249.26
251.81	1282.03
252.02	1259.50
252.24	1275.88
252.46	1208.30
252.68	1284.08
252.89	1277.93
253.11	1239.02
253.33	1279.98
253.54	1273.84
253.76	1282.03
253.98	1306.60
254.20	1239.02
254.41	1247.21
254.63	1220.59
254.85	1232.88
255.06	1286.12
255.28	1310.70
255.50	1302.51
255.71	1216.49
255.93	1249.26
256.15	1306.60
256.36	1251.31
256.58	1220.59
256.80	1302.51
257.02	1257.45
257.23	1288.17
257.45	1228.78
257.67	1232.88
257.88	1269.74
258.10	1327.08
258.32	1259.50
258.53	1355.76
258.75	1234.93
258.97	1243.12
259.18	1286.12
259.40	1259.50
259.62	1290.22
259.83	1261.55
260.05	1269.74
260.27	1271.79
260.48	1267.69
260.70	1302.51
260.92	1255.40
261.13	1357.80
261.35	1288.17
261.57	1271.79
261.78	1282.03
262.00	1269.74
262.22	1228.78
262.43	1220.59
262.65	1187.82
262.86	1273.84
263.08	1265.64
263.30	1236.97
263.51	1290.22
263.73	1271.79
263.95	1265.64
264.16	1251.31
264.38	1259.50
264.60	1306.60
264.81	1353.71
265.03	1312.75
265.25	1236.97
265.46	1277.93
265.68	1263.60
265.89	1228.78
266.11	1316.84
266.33	1316.84
266.54	1320.94
266.76	1253.36
266.98	1183.73
267.19	1341.42
267.41	1273.84
267.62	1202.16
267.84	1236.97
268.06	1220.59
268.27	1245.16
268.49	1273.84
268.70	1286.12
268.92	1339.37
269.14	1241.07
269.35	1253.36
269.57	1259.50
269.79	1294.32
270.00	1298.41
270.22	1245.16
270.43	1236.97
270.65	1200.11
270.87	1306.60
271.08	1294.32
271.30	1234.93
271.51	1243.12
271.73	1257.45
271.95	1232.88
272.16	1232.88
272.38	1290.22
272.59	1300.46
272.81	1298.41
273.02	1249.26
273.24	1269.74
273.46	1216.49
273.67	1329.13
273.89	1241.07
274.10	1304.56
274.32	1335.28
274.54	1273.84
274.75	1267.69
274.97	1322.99
275.18	1236.97
275.40	1284.08
275.61	1239.02
275.83	1279.98
276.05	1259.50
276.26	1286.12
276.48	1255.40
276.69	1249.26
276.91	1249.26
277.12	1406.95
277.34	1245.16
277.55	1263.60
277.77	1273.84
277.99	1290.22
278.20	1214.45
278.42	1267.69
278.63	1312.75
278.85	1271.79
279.06	1208.30
279.28	1316.84
279.49	1255.40
279.71	1288.17
279.93	1322.99
280.14	1224.69
280.36	1304.56
280.57	1267.69
280.79	1335.28
281.00	1249.26
281.22	1312.75
281.43	1288.17
281.65	1275.88
281.86	1288.17
282.08	1181.68
282.29	1247.21
282.51	1212.40
282.73	1271.79
282.94	1204.21
283.16	1296.36
283.37	1239.02
283.59	1300.46
283.80	1247.21
284.02	1288.17
284.23	1277.93
284.45	1218.54
284.66	1146.86
284.88	1263.60
285.09	1273.84
285.31	1224.69
285.52	1255.40
285.74	1216.49
285.95	1236.97
286.17	1288.17
286.38	1322.99
286.60	1284.08
286.81	1251.31
287.03	1232.88
287.24	1253.36
287.46	1251.31
287.67	1265.64
287.89	1322.99
288.10	1284.08
288.32	1232.88
288.53	1245.16
288.75	1296.36
288.96	1267.69
289.18	1265.64
289.39	1239.02
289.61	1320.94
289.82	1296.36
290.04	1255.40
290.25	1296.36
290.47	1232.88
290.68	1253.36
290.90	1265.64
291.11	1261.55
291.33	1302.51
291.54	1368.04
291.76	1279.98
291.97	1312.75
292.18	1282.03
292.40	1267.69
292.61	1361.90
292.83	1245.16
293.04	1329.13
293.26	1261.55
293.47	1284.08
293.69	1259.50
293.90	1341.42
294.12	1284.08
294.33	1378.28
294.55	1292.27
294.76	1277.93
294.97	1249.26
295.19	1269.74
295.40	1277.93
295.62	1275.88
295.83	1226.73
296.05	1251.31
296.26	1271.79
296.48	1273.84
296.69	1222.64
296.90	1320.94
297.12	1290.22
297.33	1298.41
297.55	1294.32
297.76	1245.16
297.98	1312.75
298.19	1271.79
298.41	1230.83
298.62	1263.60
298.83	1226.73
299.05	1294.32
299.26	1279.98
299.48	1288.17
299.69	1226.73
299.90	1263.60
300.12	1314.80
300.33	1308.65
300.55	1230.83
300.76	1245.16
300.98	1230.83
301.19	1277.93
301.40	1259.50
301.62	1273.84
301.83	1263.60
302.05	1318.89
302.26	1292.27
302.47	1245.16
302.69	1247.21
302.90	1265.64
303.12	1286.12
303.33	1259.50
303.54	1236.97
303.76	1314.80
303.97	1306.60
304.19	1224.69
304.40	1310.70
304.61	1318.89
304.83	1224.69
305.04	1236.97
305.26	1310.70
305.47	1249.26
305.68	1288.17
305.90	1310.70
306.11	1273.84
306.33	1224.69
306.54	1183.73
306.75	1267.69
306.97	1249.26
307.18	1298.41
307.39	1234.93
307.61	1290.22
307.82	1247.21
308.04	1265.64
308.25	1222.64
308.46	1263.60
308.68	1271.79
308.89	1202.16
309.10	1241.07
309.32	1288.17
309.53	1239.02
309.74	1290.22
309.96	1282.03
310.17	1267.69
310.39	1218.54
310.60	1230.83
310.81	1243.12
311.03	1249.26
311.24	1253.36
311.45	1263.60
311.67	1243.12
311.88	1200.11
312.09	1257.45
312.31	1222.64
312.52	1220.59
312.73	1300.46
312.95	1269.74
313.16	1273.84
313.37	1298.41
313.59	1232.88
313.80	1255.40
314.01	1249.26
314.23	1353.71
314.44	1312.75
314.65	1304.56
314.87	1308.65
315.08	1290.22
315.29	1247.21
315.51	1271.79
315.72	1191.92
315.93	1300.46
316.15	1234.93
316.36	1253.36
316.57	1331.18
316.79	1267.69
317.00	1249.26
317.21	1257.45
317.43	1282.03
317.64	1282.03
317.85	1243.12
318.07	1232.88
318.28	1269.74
318.49	1204.21
318.70	1314.80
318.92	1265.64
319.13	1286.12
319.34	1204.21
319.56	1292.27
319.77	1271.79
319.98	1273.84
320.20	1265.64
320.41	1279.98
320.62	1228.78
320.83	1222.64
321.05	1292.27
321.26	1294.32
321.47	1306.60
321.69	1265.64
321.90	1253.36
322.11	1310.70
322.32	1230.83
322.54	1286.12
322.75	1306.60
322.96	1255.40
323.18	1255.40
323.39	1298.41
323.60	1271.79
323.81	1253.36
324.03	1361.90
324.24	1226.73
324.45	1245.16
324.66	1304.56
324.88	1331.18
325.09	1265.64
325.30	1243.12
325.52	1245.16
325.73	1277.93
325.94	1269.74
326.15	1290.22
326.37	1312.75
326.58	1257.45
326.79	1263.60
327.00	1308.65
327.22	1251.31
327.43	1286.12
327.64	1189.87
327.85	1247.21
328.07	1325.04
328.28	1271.79
328.49	1294.32
328.70	1241.07
328.92	1226.73
329.13	1224.69
329.34	1257.45
329.55	1263.60
329.76	1286.12
329.98	1310.70
330.19	1241.07
330.40	1234.93
330.61	1312.75
330.83	1241.07
331.04	1292.27
331.25	1347.56
331.46	1327.08
331.68	1269.74
331.89	1230.83
332.10	1333.23
332.31	1222.64
332.52	1282.03
332.74	1306.60
332.95	1251.31
333.16	1239.02
333.37	1216.49
333.58	1253.36
333.80	1159.15
334.01	1282.03
334.22	1193.97
334.43	1224.69
334.64	1265.64
334.86	1198.06
335.07	1193.97
335.28	1331.18
335.49	1269.74
335.70	1292.27
335.92	1277.93
336.13	1257.45
336.34	1257.45
336.55	1304.56
336.76	1230.83
336.98	1277.93
337.19	1204.21
337.40	1228.78
337.61	1284.08
337.82	1288.17
338.04	1218.54
338.25	1253.36
338.46	1247.21
338.67	1247.21
338.88	1247.21
339.09	1282.03
339.31	1304.56
339.52	1294.32
339.73	1331.18
339.94	1282.03
340.15	1214.45
340.36	1333.23
340.58	1251.31
340.79	1239.02
341.00	1228.78
341.21	1232.88
341.42	1165.29
341.63	1271.79
341.85	1343.47
342.06	1245.16
342.27	1202.16
342.48	1267.69
342.69	1322.99
342.90	1314.80
343.12	1261.55
343.33	1300.46
343.54	1320.94
343.75	1302.51
343.96	1322.99
344.17	1263.60
344.38	1230.83
344.60	1247.21
344.81	1269.74
345.02	1257.45
345.23	1230.83
345.44	1241.07
345.65	1204.21
345.86	1271.79
346.07	1282.03
346.29	1263.60
346.50	1239.02
346.71	1273.84
346.92	1282.03
347.13	1357.80
347.34	1241.07
347.55	1228.78
347.76	1224.69
347.98	1292.27
348.19	1232.88
348.40	1290.22
348.61	1247.21
348.82	1267.69
349.03	1298.41
349.24	1198.06
349.45	1253.36
349.66	1255.40
349.88	1308.65
350.09	1298.41
350.30	1232.88
350.51	1230.83
350.72	1288.17
350.93	1214.45
351.14	1249.26
351.35	1329.13
351.56	1216.49
351.77	1259.50
351.99	1263.60
352.20	1236.97
352.41	1306.60
352.62	1310.70
352.83	1265.64
353.04	1259.50
353.25	1327.08
353.46	1288.17
353.67	1214.45
353.88	1230.83
354.09	1267.69
354.30	1292.27
354.52	1282.03
354.73	1255.40
354.94	1269.74
355.15	1253.36
355.36	1224.69
355.57	1275.88
355.78	1257.45
355.99	1337.32
356.20	1282.03
356.41	1243.12
356.62	1304.56
356.83	1298.41
357.04	1222.64
357.25	1257.45
357.46	1204.21
357.68	1265.64
357.89	1322.99
358.10	1212.40
358.31	1249.26
358.52	1273.84
358.73	1159.15
358.94	1282.03
359.15	1263.60
359.36	1306.60
359.57	1236.97
359.78	1277.93
359.99	1296.36
360.20	1224.69
360.41	1210.35
360.62	1275.88
360.83	1230.83
361.04	1271.79
361.25	1247.21
361.46	1290.22
361.67	1288.17
361.88	1267.69
362.09	1239.02
362.30	1226.73
362.51	1292.27
362.72	1241.07
362.93	1204.21
363.14	1247.21
363.35	1269.74
363.56	1286.12
363.78	1230.83
363.99	1228.78
364.20	1224.69
364.41	1282.03
364.62	1318.89
364.83	1282.03
365.04	1204.21
365.25	1288.17
365.46	1193.97
365.67	1243.12
365.88	1243.12
366.09	1196.01
366.30	1273.84
366.51	1249.26
366.72	1294.32
366.93	1288.17
367.14	1263.60
367.35	1304.56
367.56	1224.69
367.77	1224.69
367.98	1255.40
368.18	1263.60
368.39	1261.55
368.60	1255.40
368.81	1230.83
369.02	1257.45
369.23	1282.03
369.44	1271.79
369.65	1288.17
369.86	1316.84
370.07	1222.64
370.28	1304.56
370.49	1212.40
370.70	1253.36
370.91	1243.12
371.12	1261.55
371.33	1294.32
371.54	1255.40
371.75	1300.46
371.96	1279.98
372.17	1253.36
372.38	1189.87
372.59	1183.73
372.80	1302.51
373.01	1247.21
373.22	1273.84
373.43	1314.80
373.64	1298.41
373.85	1263.60
374.06	1312.75
374.26	1327.08
374.47	1292.27
374.68	1257.45
374.89	1353.71
375.10	1226.73
375.31	1222.64
375.52	1216.49
375.73	1302.51
375.94	1294.32
376.15	1265.64
376.36	1224.69
376.57	1214.45
376.78	1243.12
376.99	1230.83
377.20	1292.27
377.40	1290.22
377.61	1296.36
377.82	1290.22
378.03	1253.36
378.24	1304.56
378.45	1253.36
378.66	1236.97
378.87	1220.59
379.08	1230.83
379.29	1275.88
379.50	1290.22
379.71	1241.07
379.91	1320.94
380.12	1300.46
380.33	1310.70
380.54	1253.36
380.75	1255.40
380.96	1271.79
381.17	1294.32
381.38	1249.26
381.59	1296.36
381.80	1249.26
382.00	1273.84
382.21	1226.73
382.42	1294.32
382.63	1267.69
382.84	1312.75
383.05	1296.36
383.26	1212.40
383.47	1249.26
383.68	1306.60
383.88	1208.30
384.09	1214.45
384.30	1216.49
384.51	1279.98
384.72	1273.84
384.93	1206.25
385.14	1322.99
385.35	1265.64
385.55	1284.08
385.76	1210.35
385.97	1230.83
386.18	1275.88
386.39	1312.75
386.60	1271.79
386.81	1234.93
387.02	1230.83
387.22	1261.55
387.43	1306.60
387.64	1269.74
387.85	1267.69
388.06	1243.12
388.27	1208.30
388.48	1296.36
388.68	1267.69
388.89	1208.30
389.10	1292.27
389.31	1269.74
389.52	1277.93
389.73	1288.17
389.93	1239.02
390.14	1232.88
390.35	1318.89
390.56	1177.58
390.77	1288.17
390.98	1224.69
391.18	1259.50
391.39	1329.13
391.60	1265.64
391.81	1261.55
392.02	1304.56
392.23	1228.78
392.43	1343.47
392.64	1302.51
392.85	1245.16
393.06	1306.60
393.27	1265.64
393.47	1255.40
393.68	1230.83
393.89	1249.26
394.10	1212.40
394.31	1232.88
394.52	1269.74
394.72	1257.45
394.93	1191.92
395.14	1202.16
395.35	1249.26
395.56	1286.12
395.76	1304.56
395.97	1228.78
396.18	1335.28
396.39	1169.39
396.60	1314.80
396.80	1198.06
397.01	1198.06
397.22	1181.68
397.43	1316.84
397.64	1298.41
397.84	1253.36
398.05	1279.98
398.26	1286.12
398.47	1333.23
398.67	1222.64
398.88	1277.93
399.09	1232.88
399.30	1236.97
399.51	1273.84
399.71	1261.55
399.92	1271.79
400.13	1275.88
400.34	1175.53
400.54	1265.64
400.75	1177.58
400.96	1322.99
401.17	1245.16
401.37	1296.36
401.58	1243.12
401.79	1204.21
402.00	1187.82
402.21	1230.83
402.41	1308.65
402.62	1325.04
402.83	1279.98
403.04	1273.84
403.24	1282.03
403.45	1300.46
403.66	1259.50
403.87	1206.25
404.07	1273.84
404.28	1292.27
404.49	1310.70
404.70	1261.55
404.90	1261.55
405.11	1277.93
405.32	1228.78
405.52	1239.02
405.73	1290.22
405.94	1261.55
406.15	1318.89
406.35	1224.69
406.56	1275.88
406.77	1198.06
406.98	1296.36
407.18	1265.64
407.39	1249.26
407.60	1265.64
407.80	1267.69
408.01	1218.54
408.22	1343.47
408.43	1314.80
408.63	1271.79
408.84	1257.45
409.05	1316.84
409.25	1273.84
409.46	1255.40
409.67	1247.21
409.88	1241.07
410.08	1318.89
410.29	1234.93
410.50	1245.16
410.70	1294.32
410.91	1187.82
411.12	1230.83
411.32	1255.40
411.53	1251.31
411.74	1314.80
411.95	1214.45
412.15	1329.13
412.36	1282.03
412.57	1263.60
412.77	1271.79
412.98	1208.30
413.19	1249.26
413.39	1204.21
413.60	1232.88
413.81	1265.64
414.01	1298.41
414.22	1345.52
414.43	1251.31
414.63	1249.26
414.84	1255.40
415.05	1265.64
415.25	1224.69
415.46	1275.88
415.67	1259.50
415.87	1269.74
416.08	1294.32
416.29	1243.12
416.49	1294.32
416.70	1314.80
416.91	1300.46
417.11	1259.50
417.32	1282.03
417.53	1208.30
417.73	1310.70
417.94	1355.76
418.15	1273.84
418.35	1286.12
418.56	1292.27
418.77	1232.88
418.97	1245.16
419.18	1259.50
419.38	1265.64
419.59	1249.26
419.80	1292.27
420.00	1296.36
420.21	1255.40
420.42	1290.22
420.62	1208.30
420.83	1222.64
421.04	1230.83
421.24	1243.12
421.45	1232.88
421.65	1253.36
421.86	1249.26
422.07	1282.03
422.27	1279.98
422.48	1239.02
422.69	1335.28
422.89	1286.12
423.10	1236.97
423.30	1202.16
423.51	1265.64
423.72	1304.56
423.92	1388.52
424.13	1218.54
424.33	1218.54
424.54	1200.11
424.75	1284.08
424.95	1251.31
425.16	1318.89
425.36	1302.51
425.57	1347.56
425.78	1271.79
425.98	1236.97
426.19	1247.21
426.39	1245.16
426.60	1255.40
426.81	1245.16
427.01	1316.84
427.22	1271.79
427.42	1255.40
427.63	1230.83
427.83	1343.47
428.04	1288.17
428.25	1198.06
428.45	1355.76
428.66	1300.46
428.86	1279.98
429.07	1234.93
429.28	1228.78
429.48	1275.88
429.69	1265.64
429.89	1308.65
430.10	1269.74
430.30	1279.98
430.51	1265.64
430.71	1259.50
430.92	1310.70
431.13	1243.12
431.33	1320.94
431.54	1253.36
431.74	1312.75
431.95	1200.11
432.15	1337.32
432.36	1265.64
432.56	1214.45
432.77	1255.40
432.98	1216.49
433.18	1273.84
433.39	1284.08
433.59	1282.03
433.80	1294.32
434.00	1271.79
434.21	1263.60
434.41	1273.84
434.62	1273.84
434.82	1320.94
435.03	1265.64
435.23	1208.30
435.44	1277.93
435.64	1234.93
435.85	1282.03
436.06	1279.98
436.26	1271.79
436.47	1320.94
436.67	1241.07
436.88	1273.84
437.08	1284.08
437.29	1257.45
437.49	1296.36
437.70	1267.69
437.90	1265.64
438.11	1273.84
438.31	1212.40
438.52	1245.16
438.72	1363.95
438.93	1288.17
439.13	1241.07
439.34	1368.04
439.54	1273.84
439.75	1245.16
439.95	1253.36
440.16	1288.17
440.36	1292.27
440.57	1322.99
440.77	1247.21
440.98	1277.93
441.18	1361.90
441.39	1230.83
441.59	1269.74
441.80	1320.94
442.00	1239.02
442.21	1255.40
442.41	1277.93
442.62	1288.17
442.82	1263.60
443.02	1245.16
443.23	1341.42
443.43	1277.93
443.64	1279.98
443.84	1257.45
444.05	1247.21
444.25	1210.35
444.46	1296.36
444.66	1302.51
444.87	1314.80
445.07	1236.97
445.28	1361.90
445.48	1269.74
445.69	1241.07
445.89	1277.93
446.09	1269.74
446.30	1298.41
446.50	1269.74
446.71	1239.02
446.91	1296.36
447.12	1222.64
447.32	1292.27
447.53	1257.45
447.73	1239.02
447.93	1257.45
448.14	1284.08
448.34	1349.61
448.55	1249.26
448.75	1339.37
448.96	1206.25
449.16	1234.93
449.36	1312.75
449.57	1325.04
449.77	1314.80
449.98	1308.65
450.18	1302.51
450.39	1220.59
450.59	1232.88
450.79	1202.16
451.00	1331.18
451.20	1230.83
451.41	1275.88
451.61	1286.12
451.81	1294.32
452.02	1294.32
452.22	1273.84
452.43	1331.18
452.63	1257.45
