SpectraSuite Data File
++++++++++++++++++++++++++++++++++++
Date: Sun Apr 03 19:55:17 CEST 2016
User: root
Dark Spectrum Present: No
Reference Spectrum Present: No
Number of Sampled Component Spectra: 1
Spectrometers: USB4C02835
Integration Time (usec): 10000 (USB4C02835)
Spectra Averaged: 1 (USB4C02835)
Boxcar Smoothing: 0 (USB4C02835)
Correct for Electrical Dark: No (USB4C02835)
Strobe/Lamp Enabled: No (USB4C02835)
Correct for Detector Non-linearity: No (USB4C02835)
Correct for Stray Light: No (USB4C02835)
Number of Pixels in Processed Spectrum: 3648
>>>>>Begin Processed Spectral Data<<<<<
177.47	1232.88
177.69	1232.88
177.91	1232.88
178.13	1157.10
178.36	1247.21
178.58	1363.95
178.80	1210.35
179.02	1226.73
179.24	1267.69
179.46	1284.08
179.68	1200.11
179.90	1247.21
180.13	1220.59
180.35	1247.21
180.57	1286.12
180.79	1210.35
181.01	1269.74
181.23	1329.13
181.45	1279.98
181.67	1296.36
181.90	1206.25
182.12	1296.36
182.34	1224.69
182.56	1269.74
182.78	1224.69
183.00	1286.12
183.22	1171.44
183.44	1279.98
183.66	1228.78
183.89	1304.56
184.11	1273.84
184.33	1265.64
184.55	1224.69
184.77	1163.25
184.99	1239.02
185.21	1214.45
185.43	1302.51
185.65	1265.64
185.87	1253.36
186.10	1271.79
186.32	1275.88
186.54	1261.55
186.76	1259.50
186.98	1230.83
187.20	1271.79
187.42	1239.02
187.64	1259.50
187.86	1241.07
188.08	1279.98
188.30	1269.74
188.52	1284.08
188.75	1267.69
188.97	1275.88
189.19	1331.18
189.41	1255.40
189.63	1339.37
189.85	1306.60
190.07	1206.25
190.29	1312.75
190.51	1282.03
190.73	1224.69
190.95	1273.84
191.17	1314.80
191.39	1290.22
191.61	1296.36
191.84	1316.84
192.06	1228.78
192.28	1316.84
192.50	1308.65
192.72	1245.16
192.94	1271.79
193.16	1312.75
193.38	1282.03
193.60	1351.66
193.82	1214.45
194.04	1204.21
194.26	1247.21
194.48	1210.35
194.70	1241.07
194.92	1290.22
195.14	1239.02
195.36	1265.64
195.58	1220.59
195.80	1220.59
196.02	1255.40
196.24	1257.45
196.46	1282.03
196.69	1230.83
196.91	1243.12
197.13	1247.21
197.35	1210.35
197.57	1294.32
197.79	1279.98
198.01	1271.79
198.23	1210.35
198.45	1261.55
198.67	1290.22
198.89	1304.56
199.11	1261.55
199.33	1222.64
199.55	1257.45
199.77	1275.88
199.99	1253.36
200.21	1263.60
200.43	1257.45
200.65	1368.04
200.87	1189.87
201.09	1261.55
201.31	1282.03
201.53	1308.65
201.75	1286.12
201.97	1273.84
202.19	1286.12
202.41	1288.17
202.63	1265.64
202.85	1249.26
203.07	1228.78
203.29	1265.64
203.51	1277.93
203.73	1257.45
203.95	1335.28
204.17	1304.56
204.39	1331.18
204.61	1251.31
204.83	1282.03
205.05	1306.60
205.27	1300.46
205.49	1357.80
205.71	1275.88
205.93	1247.21
206.15	1265.64
206.37	1335.28
206.59	1275.88
206.81	1222.64
207.03	1259.50
207.25	1261.55
207.47	1191.92
207.69	1259.50
207.91	1251.31
208.13	1284.08
208.34	1279.98
208.56	1277.93
208.78	1271.79
209.00	1171.44
209.22	1298.41
209.44	1286.12
209.66	1241.07
209.88	1302.51
210.10	1310.70
210.32	1359.85
210.54	1318.89
210.76	1282.03
210.98	1298.41
211.20	1284.08
211.42	1290.22
211.64	1257.45
211.86	1290.22
212.08	1245.16
212.30	1251.31
212.52	1210.35
212.74	1253.36
212.96	1179.63
213.17	1279.98
213.39	1269.74
213.61	1271.79
213.83	1353.71
214.05	1286.12
214.27	1228.78
214.49	1292.27
214.71	1200.11
214.93	1329.13
215.15	1236.97
215.37	1314.80
215.59	1292.27
215.81	1191.92
216.03	1282.03
216.24	1306.60
216.46	1292.27
216.68	1224.69
216.90	1236.97
217.12	1228.78
217.34	1279.98
217.56	1269.74
217.78	1241.07
218.00	1271.79
218.22	1290.22
218.44	1363.95
218.66	1347.56
218.87	1239.02
219.09	1310.70
219.31	1306.60
219.53	1300.46
219.75	1275.88
219.97	1218.54
220.19	1322.99
220.41	1296.36
220.63	1251.31
220.85	1288.17
221.06	1247.21
221.28	1273.84
221.50	1234.93
221.72	1265.64
221.94	1273.84
222.16	1271.79
222.38	1210.35
222.60	1239.02
222.82	1218.54
223.03	1234.93
223.25	1288.17
223.47	1279.98
223.69	1273.84
223.91	1191.92
224.13	1273.84
224.35	1316.84
224.57	1273.84
224.78	1273.84
225.00	1259.50
225.22	1282.03
225.44	1267.69
225.66	1290.22
225.88	1179.63
226.10	1185.77
226.32	1294.32
226.53	1257.45
226.75	1220.59
226.97	1302.51
227.19	1230.83
227.41	1245.16
227.63	1259.50
227.85	1181.68
228.06	1349.61
228.28	1296.36
228.50	1265.64
228.72	1361.90
228.94	1249.26
229.16	1228.78
229.37	1286.12
229.59	1302.51
229.81	1286.12
230.03	1224.69
230.25	1296.36
230.47	1255.40
230.69	1275.88
230.90	1191.92
231.12	1171.44
231.34	1247.21
231.56	1284.08
231.78	1218.54
232.00	1286.12
232.21	1296.36
232.43	1228.78
232.65	1249.26
232.87	1275.88
233.09	1292.27
233.30	1263.60
233.52	1288.17
233.74	1302.51
233.96	1232.88
234.18	1269.74
234.40	1261.55
234.61	1263.60
234.83	1267.69
235.05	1181.68
235.27	1304.56
235.49	1249.26
235.70	1247.21
235.92	1294.32
236.14	1318.89
236.36	1271.79
236.58	1261.55
236.79	1308.65
237.01	1275.88
237.23	1230.83
237.45	1290.22
237.67	1290.22
237.88	1200.11
238.10	1288.17
238.32	1245.16
238.54	1241.07
238.76	1314.80
238.97	1288.17
239.19	1214.45
239.41	1247.21
239.63	1318.89
239.85	1269.74
240.06	1282.03
240.28	1259.50
240.50	1322.99
240.72	1290.22
240.93	1282.03
241.15	1257.45
241.37	1253.36
241.59	1230.83
241.81	1206.25
242.02	1241.07
242.24	1253.36
242.46	1263.60
242.68	1220.59
242.89	1253.36
243.11	1234.93
243.33	1224.69
243.55	1232.88
243.76	1249.26
243.98	1245.16
244.20	1277.93
244.42	1245.16
244.64	1269.74
244.85	1320.94
245.07	1216.49
245.29	1263.60
245.51	1249.26
245.72	1232.88
245.94	1312.75
246.16	1277.93
246.38	1304.56
246.59	1241.07
246.81	1310.70
247.03	1198.06
247.24	1265.64
247.46	1220.59
247.68	1263.60
247.90	1224.69
248.11	1265.64
248.33	1261.55
248.55	1282.03
248.77	1304.56
248.98	1228.78
249.20	1370.09
249.42	1273.84
249.64	1265.64
249.85	1275.88
250.07	1288.17
250.29	1257.45
250.50	1308.65
250.72	1241.07
250.94	1351.66
251.16	1269.74
251.37	1271.79
251.59	1200.11
251.81	1318.89
252.02	1300.46
252.24	1249.26
252.46	1306.60
252.68	1302.51
252.89	1263.60
253.11	1241.07
253.33	1286.12
253.54	1288.17
253.76	1294.32
253.98	1269.74
254.20	1275.88
254.41	1224.69
254.63	1339.37
254.85	1193.97
255.06	1230.83
255.28	1298.41
255.50	1269.74
255.71	1255.40
255.93	1206.25
256.15	1318.89
256.36	1275.88
256.58	1277.93
256.80	1263.60
257.02	1257.45
257.23	1257.45
257.45	1267.69
257.67	1282.03
257.88	1232.88
258.10	1208.30
258.32	1257.45
258.53	1261.55
258.75	1232.88
258.97	1275.88
259.18	1239.02
259.40	1290.22
259.62	1228.78
259.83	1265.64
260.05	1222.64
260.27	1241.07
260.48	1306.60
260.70	1318.89
260.92	1239.02
261.13	1263.60
261.35	1220.59
261.57	1241.07
261.78	1245.16
262.00	1255.40
262.22	1275.88
262.43	1241.07
262.65	1279.98
262.86	1269.74
263.08	1273.84
263.30	1257.45
263.51	1329.13
263.73	1290.22
263.95	1308.65
264.16	1298.41
264.38	1183.73
264.60	1322.99
264.81	1251.31
265.03	1312.75
265.25	1243.12
265.46	1298.41
265.68	1257.45
265.89	1290.22
266.11	1263.60
266.33	1224.69
266.54	1282.03
266.76	1282.03
266.98	1368.04
267.19	1333.23
267.41	1288.17
267.62	1234.93
267.84	1294.32
268.06	1314.80
268.27	1333.23
268.49	1282.03
268.70	1339.37
268.92	1314.80
269.14	1269.74
269.35	1286.12
269.57	1189.87
269.79	1288.17
270.00	1255.40
270.22	1224.69
270.43	1273.84
270.65	1241.07
270.87	1304.56
271.08	1273.84
271.30	1316.84
271.51	1189.87
271.73	1249.26
271.95	1241.07
272.16	1267.69
272.38	1286.12
272.59	1259.50
272.81	1300.46
273.02	1232.88
273.24	1290.22
273.46	1269.74
273.67	1298.41
273.89	1265.64
274.10	1277.93
274.32	1279.98
274.54	1226.73
274.75	1320.94
274.97	1337.32
275.18	1230.83
275.40	1189.87
275.61	1236.97
275.83	1257.45
276.05	1275.88
276.26	1298.41
276.48	1247.21
276.69	1380.33
276.91	1298.41
277.12	1312.75
277.34	1220.59
277.55	1239.02
277.77	1275.88
277.99	1366.00
278.20	1245.16
278.42	1232.88
278.63	1282.03
278.85	1273.84
279.06	1220.59
279.28	1241.07
279.49	1210.35
279.71	1306.60
279.93	1232.88
280.14	1220.59
280.36	1308.65
280.57	1226.73
280.79	1255.40
281.00	1366.00
281.22	1243.12
281.43	1314.80
281.65	1216.49
281.86	1361.90
282.08	1306.60
282.29	1304.56
282.51	1245.16
282.73	1271.79
282.94	1312.75
283.16	1210.35
283.37	1249.26
283.59	1267.69
283.80	1257.45
284.02	1232.88
284.23	1290.22
284.45	1226.73
284.66	1226.73
284.88	1282.03
285.09	1239.02
285.31	1304.56
285.52	1208.30
285.74	1241.07
285.95	1218.54
286.17	1306.60
286.38	1290.22
286.60	1279.98
286.81	1273.84
287.03	1286.12
287.24	1245.16
287.46	1304.56
287.67	1239.02
287.89	1341.42
288.10	1259.50
288.32	1269.74
288.53	1290.22
288.75	1286.12
288.96	1245.16
289.18	1333.23
289.39	1173.49
289.61	1261.55
289.82	1304.56
290.04	1236.97
290.25	1247.21
290.47	1329.13
290.68	1302.51
290.90	1286.12
291.11	1200.11
291.33	1331.18
291.54	1259.50
291.76	1286.12
291.97	1284.08
292.18	1243.12
292.40	1249.26
292.61	1312.75
292.83	1308.65
293.04	1198.06
293.26	1232.88
293.47	1286.12
293.69	1275.88
293.90	1296.36
294.12	1296.36
294.33	1271.79
294.55	1308.65
294.76	1286.12
294.97	1271.79
295.19	1251.31
295.40	1329.13
295.62	1257.45
295.83	1322.99
296.05	1306.60
296.26	1300.46
296.48	1191.92
296.69	1243.12
296.90	1257.45
297.12	1306.60
297.33	1271.79
297.55	1292.27
297.76	1331.18
297.98	1245.16
298.19	1263.60
298.41	1277.93
298.62	1249.26
298.83	1275.88
299.05	1265.64
299.26	1226.73
299.48	1265.64
299.69	1210.35
299.90	1290.22
300.12	1224.69
300.33	1314.80
300.55	1288.17
300.76	1306.60
300.98	1302.51
301.19	1351.66
301.40	1290.22
301.62	1263.60
301.83	1300.46
302.05	1312.75
302.26	1257.45
302.47	1232.88
302.69	1331.18
302.90	1290.22
303.12	1277.93
303.33	1257.45
303.54	1277.93
303.76	1241.07
303.97	1296.36
304.19	1292.27
304.40	1298.41
304.61	1257.45
304.83	1304.56
305.04	1271.79
305.26	1230.83
305.47	1210.35
305.68	1292.27
305.90	1314.80
306.11	1271.79
306.33	1284.08
306.54	1269.74
306.75	1259.50
306.97	1273.84
307.18	1294.32
307.39	1279.98
307.61	1241.07
307.82	1222.64
308.04	1304.56
308.25	1249.26
308.46	1294.32
308.68	1239.02
308.89	1298.41
309.10	1241.07
309.32	1249.26
309.53	1261.55
309.74	1302.51
309.96	1316.84
310.17	1292.27
310.39	1230.83
310.60	1306.60
310.81	1267.69
311.03	1296.36
311.24	1290.22
311.45	1284.08
311.67	1243.12
311.88	1298.41
312.09	1282.03
312.31	1355.76
312.52	1243.12
312.73	1239.02
312.95	1288.17
313.16	1232.88
313.37	1253.36
313.59	1204.21
313.80	1341.42
314.01	1253.36
314.23	1292.27
314.44	1267.69
314.65	1241.07
314.87	1261.55
315.08	1339.37
315.29	1265.64
315.51	1286.12
315.72	1282.03
315.93	1224.69
316.15	1234.93
316.36	1296.36
316.57	1234.93
316.79	1269.74
317.00	1273.84
317.21	1218.54
317.43	1255.40
317.64	1267.69
317.85	1312.75
318.07	1255.40
318.28	1239.02
318.49	1318.89
318.70	1292.27
318.92	1331.18
319.13	1325.04
319.34	1288.17
319.56	1279.98
319.77	1298.41
319.98	1241.07
320.20	1216.49
320.41	1292.27
320.62	1206.25
320.83	1306.60
321.05	1265.64
321.26	1224.69
321.47	1191.92
321.69	1208.30
321.90	1247.21
322.11	1271.79
322.32	1292.27
322.54	1243.12
322.75	1271.79
322.96	1275.88
323.18	1259.50
323.39	1265.64
323.60	1214.45
323.81	1296.36
324.03	1302.51
324.24	1304.56
324.45	1247.21
324.66	1275.88
324.88	1259.50
325.09	1220.59
325.30	1271.79
325.52	1341.42
325.73	1208.30
325.94	1331.18
326.15	1265.64
326.37	1318.89
326.58	1304.56
326.79	1263.60
327.00	1265.64
327.22	1275.88
327.43	1306.60
327.64	1216.49
327.85	1333.23
328.07	1296.36
328.28	1294.32
328.49	1355.76
328.70	1239.02
328.92	1296.36
329.13	1234.93
329.34	1243.12
329.55	1282.03
329.76	1173.49
329.98	1247.21
330.19	1265.64
330.40	1331.18
330.61	1253.36
330.83	1308.65
331.04	1239.02
331.25	1314.80
331.46	1300.46
331.68	1279.98
331.89	1314.80
332.10	1236.97
332.31	1234.93
332.52	1228.78
332.74	1196.01
332.95	1318.89
333.16	1298.41
333.37	1275.88
333.58	1292.27
333.80	1220.59
334.01	1271.79
334.22	1312.75
334.43	1263.60
334.64	1249.26
334.86	1257.45
335.07	1286.12
335.28	1282.03
335.49	1292.27
335.70	1325.04
335.92	1230.83
336.13	1294.32
336.34	1230.83
336.55	1320.94
336.76	1282.03
336.98	1294.32
337.19	1241.07
337.40	1304.56
337.61	1179.63
337.82	1290.22
338.04	1241.07
338.25	1304.56
338.46	1290.22
338.67	1243.12
338.88	1294.32
339.09	1245.16
339.31	1249.26
339.52	1298.41
339.73	1239.02
339.94	1189.87
340.15	1277.93
340.36	1259.50
340.58	1228.78
340.79	1257.45
341.00	1273.84
341.21	1265.64
341.42	1222.64
341.63	1198.06
341.85	1279.98
342.06	1273.84
342.27	1236.97
342.48	1316.84
342.69	1337.32
342.90	1288.17
343.12	1353.71
343.33	1263.60
343.54	1241.07
343.75	1232.88
343.96	1298.41
344.17	1210.35
344.38	1279.98
344.60	1189.87
344.81	1210.35
345.02	1263.60
345.23	1210.35
345.44	1333.23
345.65	1251.31
345.86	1259.50
346.07	1210.35
346.29	1234.93
346.50	1296.36
346.71	1255.40
346.92	1318.89
347.13	1249.26
347.34	1263.60
347.55	1245.16
347.76	1212.40
347.98	1271.79
348.19	1294.32
348.40	1241.07
348.61	1189.87
348.82	1245.16
349.03	1294.32
349.24	1296.36
349.45	1259.50
349.66	1204.21
349.88	1253.36
350.09	1288.17
350.30	1218.54
350.51	1241.07
350.72	1302.51
350.93	1273.84
351.14	1277.93
351.35	1220.59
351.56	1271.79
351.77	1292.27
351.99	1249.26
352.20	1249.26
352.41	1284.08
352.62	1259.50
352.83	1282.03
353.04	1271.79
353.25	1261.55
353.46	1230.83
353.67	1286.12
353.88	1216.49
354.09	1294.32
354.30	1318.89
354.52	1288.17
354.73	1251.31
354.94	1273.84
355.15	1239.02
355.36	1302.51
355.57	1261.55
355.78	1273.84
355.99	1298.41
356.20	1335.28
356.41	1275.88
356.62	1239.02
356.83	1247.21
357.04	1257.45
357.25	1357.80
357.46	1275.88
357.68	1288.17
357.89	1288.17
358.10	1292.27
358.31	1261.55
358.52	1288.17
358.73	1308.65
358.94	1243.12
359.15	1236.97
359.36	1177.58
359.57	1191.92
359.78	1249.26
359.99	1218.54
360.20	1157.10
360.41	1228.78
360.62	1257.45
360.83	1253.36
361.04	1218.54
361.25	1239.02
361.46	1257.45
361.67	1230.83
361.88	1345.52
362.09	1249.26
362.30	1284.08
362.51	1312.75
362.72	1271.79
362.93	1331.18
363.14	1302.51
363.35	1304.56
363.56	1286.12
363.78	1216.49
363.99	1228.78
364.20	1232.88
364.41	1257.45
364.62	1267.69
364.83	1308.65
365.04	1196.01
365.25	1333.23
365.46	1263.60
365.67	1232.88
365.88	1255.40
366.09	1234.93
366.30	1257.45
366.51	1308.65
366.72	1165.29
366.93	1208.30
367.14	1236.97
367.35	1333.23
367.56	1257.45
367.77	1341.42
367.98	1277.93
368.18	1253.36
368.39	1271.79
368.60	1370.09
368.81	1255.40
369.02	1288.17
369.23	1247.21
369.44	1255.40
369.65	1310.70
369.86	1322.99
370.07	1212.40
370.28	1241.07
370.49	1320.94
370.70	1273.84
370.91	1216.49
371.12	1236.97
371.33	1232.88
371.54	1273.84
371.75	1255.40
371.96	1247.21
372.17	1279.98
372.38	1249.26
372.59	1196.01
372.80	1228.78
373.01	1306.60
373.22	1249.26
373.43	1200.11
373.64	1265.64
373.85	1181.68
374.06	1247.21
374.26	1284.08
374.47	1212.40
374.68	1241.07
374.89	1304.56
375.10	1277.93
375.31	1322.99
375.52	1247.21
375.73	1308.65
375.94	1271.79
376.15	1286.12
376.36	1263.60
376.57	1302.51
376.78	1300.46
376.99	1259.50
377.20	1265.64
377.40	1245.16
377.61	1230.83
377.82	1249.26
378.03	1292.27
378.24	1232.88
378.45	1294.32
378.66	1318.89
378.87	1279.98
379.08	1284.08
379.29	1175.53
379.50	1347.56
379.71	1269.74
379.91	1300.46
380.12	1249.26
380.33	1243.12
380.54	1228.78
380.75	1232.88
380.96	1202.16
381.17	1353.71
381.38	1214.45
381.59	1294.32
381.80	1304.56
382.00	1183.73
382.21	1306.60
382.42	1310.70
382.63	1318.89
382.84	1173.49
383.05	1318.89
383.26	1204.21
383.47	1271.79
383.68	1200.11
383.88	1228.78
384.09	1271.79
384.30	1271.79
384.51	1208.30
384.72	1253.36
384.93	1275.88
385.14	1202.16
385.35	1306.60
385.55	1263.60
385.76	1265.64
385.97	1314.80
386.18	1257.45
386.39	1191.92
386.60	1296.36
386.81	1286.12
387.02	1243.12
387.22	1275.88
387.43	1187.82
387.64	1269.74
387.85	1232.88
388.06	1261.55
388.27	1267.69
388.48	1284.08
388.68	1253.36
388.89	1296.36
389.10	1304.56
389.31	1298.41
389.52	1275.88
389.73	1259.50
389.93	1230.83
390.14	1300.46
390.35	1255.40
390.56	1251.31
390.77	1271.79
390.98	1230.83
391.18	1271.79
391.39	1212.40
391.60	1294.32
391.81	1308.65
392.02	1236.97
392.23	1257.45
392.43	1257.45
392.64	1277.93
392.85	1255.40
393.06	1335.28
393.27	1282.03
393.47	1292.27
393.68	1230.83
393.89	1314.80
394.10	1290.22
394.31	1234.93
394.52	1273.84
394.72	1224.69
394.93	1265.64
395.14	1318.89
395.35	1253.36
395.56	1239.02
395.76	1298.41
395.97	1312.75
396.18	1284.08
396.39	1228.78
396.60	1290.22
396.80	1210.35
397.01	1257.45
397.22	1249.26
397.43	1325.04
397.64	1343.47
397.84	1261.55
398.05	1232.88
398.26	1259.50
398.47	1220.59
398.67	1300.46
398.88	1261.55
399.09	1331.18
399.30	1267.69
399.51	1212.40
399.71	1226.73
399.92	1343.47
400.13	1249.26
400.34	1306.60
400.54	1302.51
400.75	1247.21
400.96	1230.83
401.17	1263.60
401.37	1284.08
401.58	1288.17
401.79	1290.22
402.00	1302.51
402.21	1296.36
402.41	1220.59
402.62	1253.36
402.83	1265.64
403.04	1239.02
403.24	1304.56
403.45	1216.49
403.66	1327.08
403.87	1198.06
404.07	1284.08
404.28	1353.71
404.49	1366.00
404.70	1300.46
404.90	1224.69
405.11	1279.98
405.32	1220.59
405.52	1191.92
405.73	1267.69
405.94	1187.82
406.15	1290.22
406.35	1251.31
406.56	1271.79
406.77	1290.22
406.98	1241.07
407.18	1261.55
407.39	1282.03
407.60	1273.84
407.80	1277.93
408.01	1265.64
408.22	1325.04
408.43	1263.60
408.63	1261.55
408.84	1269.74
409.05	1212.40
409.25	1202.16
409.46	1267.69
409.67	1337.32
409.88	1263.60
410.08	1236.97
410.29	1327.08
410.50	1286.12
410.70	1302.51
410.91	1327.08
411.12	1320.94
411.32	1234.93
411.53	1325.04
411.74	1245.16
411.95	1302.51
412.15	1361.90
412.36	1294.32
412.57	1239.02
412.77	1277.93
412.98	1292.27
413.19	1269.74
413.39	1259.50
413.60	1314.80
413.81	1239.02
414.01	1251.31
414.22	1239.02
414.43	1333.23
414.63	1300.46
414.84	1220.59
415.05	1236.97
415.25	1239.02
415.46	1292.27
415.67	1282.03
415.87	1292.27
416.08	1279.98
416.29	1298.41
416.49	1220.59
416.70	1322.99
416.91	1230.83
417.11	1347.56
417.32	1236.97
417.53	1226.73
417.73	1245.16
417.94	1253.36
418.15	1259.50
418.35	1343.47
418.56	1259.50
418.77	1273.84
418.97	1269.74
419.18	1187.82
419.38	1224.69
419.59	1302.51
419.80	1273.84
420.00	1234.93
420.21	1306.60
420.42	1247.21
420.62	1220.59
420.83	1241.07
421.04	1302.51
421.24	1236.97
421.45	1193.97
421.65	1308.65
421.86	1253.36
422.07	1366.00
422.27	1310.70
422.48	1265.64
422.69	1271.79
422.89	1290.22
423.10	1234.93
423.30	1288.17
423.51	1265.64
423.72	1222.64
423.92	1226.73
424.13	1161.20
424.33	1257.45
424.54	1253.36
424.75	1247.21
424.95	1253.36
425.16	1294.32
425.36	1216.49
425.57	1239.02
425.78	1296.36
425.98	1202.16
426.19	1304.56
426.39	1208.30
426.60	1294.32
426.81	1236.97
427.01	1255.40
427.22	1294.32
427.42	1245.16
427.63	1228.78
427.83	1261.55
428.04	1286.12
428.25	1314.80
428.45	1261.55
428.66	1265.64
428.86	1224.69
429.07	1259.50
429.28	1277.93
429.48	1265.64
429.69	1279.98
429.89	1212.40
430.10	1318.89
430.30	1284.08
430.51	1329.13
430.71	1298.41
430.92	1245.16
431.13	1275.88
431.33	1292.27
431.54	1320.94
431.74	1249.26
431.95	1286.12
432.15	1267.69
432.36	1300.46
432.56	1234.93
432.77	1263.60
432.98	1320.94
433.18	1226.73
433.39	1290.22
433.59	1234.93
433.80	1355.76
434.00	1243.12
434.21	1327.08
434.41	1204.21
434.62	1249.26
434.82	1249.26
435.03	1282.03
435.23	1286.12
435.44	1282.03
435.64	1185.77
435.85	1265.64
436.06	1345.52
436.26	1282.03
436.47	1284.08
436.67	1191.92
436.88	1282.03
437.08	1255.40
437.29	1220.59
437.49	1337.32
437.70	1331.18
437.90	1277.93
438.11	1257.45
438.31	1366.00
438.52	1253.36
438.72	1249.26
438.93	1273.84
439.13	1320.94
439.34	1249.26
439.54	1275.88
439.75	1181.68
439.95	1220.59
440.16	1257.45
440.36	1302.51
440.57	1249.26
440.77	1314.80
440.98	1259.50
441.18	1247.21
441.39	1329.13
441.59	1282.03
441.80	1343.47
442.00	1376.24
442.21	1222.64
442.41	1290.22
442.62	1288.17
442.82	1277.93
443.02	1200.11
443.23	1206.25
443.43	1310.70
443.64	1351.66
443.84	1267.69
444.05	1224.69
444.25	1193.97
444.46	1290.22
444.66	1265.64
444.87	1208.30
445.07	1273.84
445.28	1288.17
445.48	1302.51
445.69	1249.26
445.89	1271.79
446.09	1273.84
446.30	1271.79
446.50	1265.64
446.71	1279.98
446.91	1267.69
447.12	1277.93
447.32	1261.55
447.53	1286.12
447.73	1265.64
447.93	1216.49
448.14	1279.98
448.34	1255.40
448.55	1298.41
448.75	1302.51
448.96	1191.92
449.16	1265.64
449.36	1294.32
449.57	1259.50
449.77	1337.32
449.98	1310.70
450.18	1241.07
450.39	1263.60
450.59	1273.84
450.79	1308.65
451.00	1290.22
451.20	1292.27
451.41	1261.55
451.61	1241.07
451.81	1267.69
452.02	1290.22
452.22	1322.99
452.43	1187.82
452.63	1294.32
