SpectraSuite Data File
++++++++++++++++++++++++++++++++++++
Date: Sun Apr 03 19:55:26 CEST 2016
User: root
Dark Spectrum Present: No
Reference Spectrum Present: No
Number of Sampled Component Spectra: 1
Spectrometers: USB4C02835
Integration Time (usec): 10000 (USB4C02835)
Spectra Averaged: 1 (USB4C02835)
Boxcar Smoothing: 0 (USB4C02835)
Correct for Electrical Dark: No (USB4C02835)
Strobe/Lamp Enabled: No (USB4C02835)
Correct for Detector Non-linearity: No (USB4C02835)
Correct for Stray Light: No (USB4C02835)
Number of Pixels in Processed Spectrum: 3648
>>>>>Begin Processed Spectral Data<<<<<
177.47	1271.79
177.69	1271.79
177.91	1271.79
178.13	1220.59
178.36	1222.64
178.58	1261.55
178.80	1218.54
179.02	1239.02
179.24	1263.60
179.46	1267.69
179.68	1308.65
179.90	1302.51
180.13	1245.16
180.35	1222.64
180.57	1230.83
180.79	1282.03
181.01	1257.45
181.23	1271.79
181.45	1226.73
181.67	1243.12
181.90	1222.64
182.12	1279.98
182.34	1173.49
182.56	1277.93
182.78	1236.97
183.00	1210.35
183.22	1261.55
183.44	1228.78
183.66	1298.41
183.89	1187.82
184.11	1249.26
184.33	1300.46
184.55	1236.97
184.77	1290.22
184.99	1241.07
185.21	1161.20
185.43	1298.41
185.65	1251.31
185.87	1337.32
186.10	1234.93
186.32	1230.83
186.54	1275.88
186.76	1204.21
186.98	1185.77
187.20	1239.02
187.42	1284.08
187.64	1294.32
187.86	1286.12
188.08	1327.08
188.30	1196.01
188.52	1226.73
188.75	1255.40
188.97	1284.08
189.19	1314.80
189.41	1269.74
189.63	1257.45
189.85	1275.88
190.07	1253.36
190.29	1226.73
190.51	1288.17
190.73	1267.69
190.95	1241.07
191.17	1282.03
191.39	1241.07
191.61	1368.04
191.84	1241.07
192.06	1271.79
192.28	1255.40
192.50	1206.25
192.72	1257.45
192.94	1282.03
193.16	1331.18
193.38	1259.50
193.60	1253.36
193.82	1312.75
194.04	1267.69
194.26	1361.90
194.48	1241.07
194.70	1312.75
194.92	1277.93
195.14	1322.99
195.36	1210.35
195.58	1310.70
195.80	1275.88
196.02	1325.04
196.24	1275.88
196.46	1277.93
196.69	1318.89
196.91	1255.40
197.13	1337.32
197.35	1245.16
197.57	1273.84
197.79	1255.40
198.01	1322.99
198.23	1196.01
198.45	1310.70
198.67	1314.80
198.89	1265.64
199.11	1290.22
199.33	1343.47
199.55	1253.36
199.77	1335.28
199.99	1288.17
200.21	1251.31
200.43	1208.30
200.65	1198.06
200.87	1282.03
201.09	1279.98
201.31	1261.55
201.53	1286.12
201.75	1261.55
201.97	1282.03
202.19	1312.75
202.41	1294.32
202.63	1257.45
202.85	1249.26
203.07	1286.12
203.29	1216.49
203.51	1259.50
203.73	1304.56
203.95	1206.25
204.17	1304.56
204.39	1218.54
204.61	1271.79
204.83	1263.60
205.05	1241.07
205.27	1269.74
205.49	1210.35
205.71	1304.56
205.93	1222.64
206.15	1257.45
206.37	1261.55
206.59	1288.17
206.81	1155.05
207.03	1263.60
207.25	1327.08
207.47	1267.69
207.69	1300.46
207.91	1222.64
208.13	1294.32
208.34	1282.03
208.56	1255.40
208.78	1247.21
209.00	1273.84
209.22	1308.65
209.44	1259.50
209.66	1232.88
209.88	1294.32
210.10	1216.49
210.32	1216.49
210.54	1288.17
210.76	1255.40
210.98	1306.60
211.20	1277.93
211.42	1277.93
211.64	1206.25
211.86	1257.45
212.08	1312.75
212.30	1304.56
212.52	1216.49
212.74	1275.88
212.96	1298.41
213.17	1247.21
213.39	1257.45
213.61	1327.08
213.83	1253.36
214.05	1255.40
214.27	1243.12
214.49	1228.78
214.71	1288.17
214.93	1290.22
215.15	1269.74
215.37	1318.89
215.59	1222.64
215.81	1255.40
216.03	1325.04
216.24	1308.65
216.46	1249.26
216.68	1282.03
216.90	1290.22
217.12	1296.36
217.34	1261.55
217.56	1286.12
217.78	1327.08
218.00	1241.07
218.22	1265.64
218.44	1179.63
218.66	1288.17
218.87	1290.22
219.09	1308.65
219.31	1269.74
219.53	1282.03
219.75	1208.30
219.97	1212.40
220.19	1302.51
220.41	1265.64
220.63	1236.97
220.85	1236.97
221.06	1232.88
221.28	1275.88
221.50	1243.12
221.72	1159.15
221.94	1257.45
222.16	1316.84
222.38	1230.83
222.60	1239.02
222.82	1251.31
223.03	1316.84
223.25	1331.18
223.47	1261.55
223.69	1286.12
223.91	1251.31
224.13	1255.40
224.35	1255.40
224.57	1277.93
224.78	1286.12
225.00	1261.55
225.22	1228.78
225.44	1230.83
225.66	1296.36
225.88	1361.90
226.10	1284.08
226.32	1230.83
226.53	1302.51
226.75	1255.40
226.97	1222.64
227.19	1290.22
227.41	1249.26
227.63	1351.66
227.85	1214.45
228.06	1273.84
228.28	1239.02
228.50	1214.45
228.72	1224.69
228.94	1284.08
229.16	1224.69
229.37	1316.84
229.59	1325.04
229.81	1249.26
230.03	1277.93
230.25	1304.56
230.47	1261.55
230.69	1236.97
230.90	1253.36
231.12	1273.84
231.34	1230.83
231.56	1230.83
231.78	1275.88
232.00	1318.89
232.21	1218.54
232.43	1277.93
232.65	1306.60
232.87	1232.88
233.09	1251.31
233.30	1247.21
233.52	1249.26
233.74	1228.78
233.96	1298.41
234.18	1253.36
234.40	1196.01
234.61	1245.16
234.83	1284.08
235.05	1226.73
235.27	1300.46
235.49	1308.65
235.70	1341.42
235.92	1286.12
236.14	1259.50
236.36	1245.16
236.58	1210.35
236.79	1320.94
237.01	1228.78
237.23	1304.56
237.45	1261.55
237.67	1259.50
237.88	1279.98
238.10	1302.51
238.32	1265.64
238.54	1286.12
238.76	1302.51
238.97	1253.36
239.19	1306.60
239.41	1296.36
239.63	1282.03
239.85	1249.26
240.06	1249.26
240.28	1296.36
240.50	1224.69
240.72	1239.02
240.93	1241.07
241.15	1267.69
241.37	1322.99
241.59	1210.35
241.81	1224.69
242.02	1208.30
242.24	1351.66
242.46	1261.55
242.68	1308.65
242.89	1296.36
243.11	1255.40
243.33	1218.54
243.55	1204.21
243.76	1257.45
243.98	1202.16
244.20	1259.50
244.42	1230.83
244.64	1216.49
244.85	1232.88
245.07	1206.25
245.29	1320.94
245.51	1322.99
245.72	1320.94
245.94	1257.45
246.16	1329.13
246.38	1304.56
246.59	1314.80
246.81	1267.69
247.03	1298.41
247.24	1193.97
247.46	1210.35
247.68	1275.88
247.90	1275.88
248.11	1263.60
248.33	1322.99
248.55	1271.79
248.77	1279.98
248.98	1275.88
249.20	1261.55
249.42	1259.50
249.64	1292.27
249.85	1228.78
250.07	1241.07
250.29	1193.97
250.50	1212.40
250.72	1337.32
250.94	1179.63
251.16	1214.45
251.37	1216.49
251.59	1271.79
251.81	1241.07
252.02	1267.69
252.24	1245.16
252.46	1247.21
252.68	1232.88
252.89	1263.60
253.11	1343.47
253.33	1249.26
253.54	1218.54
253.76	1294.32
253.98	1314.80
254.20	1282.03
254.41	1294.32
254.63	1312.75
254.85	1224.69
255.06	1261.55
255.28	1220.59
255.50	1331.18
255.71	1222.64
255.93	1298.41
256.15	1271.79
256.36	1329.13
256.58	1257.45
256.80	1343.47
257.02	1212.40
257.23	1282.03
257.45	1275.88
257.67	1306.60
257.88	1296.36
258.10	1265.64
258.32	1296.36
258.53	1249.26
258.75	1306.60
258.97	1306.60
259.18	1230.83
259.40	1290.22
259.62	1314.80
259.83	1255.40
260.05	1302.51
260.27	1222.64
260.48	1275.88
260.70	1259.50
260.92	1251.31
261.13	1310.70
261.35	1288.17
261.57	1316.84
261.78	1226.73
262.00	1226.73
262.22	1277.93
262.43	1288.17
262.65	1271.79
262.86	1212.40
263.08	1286.12
263.30	1275.88
263.51	1239.02
263.73	1277.93
263.95	1261.55
264.16	1263.60
264.38	1273.84
264.60	1322.99
264.81	1337.32
265.03	1265.64
265.25	1322.99
265.46	1294.32
265.68	1247.21
265.89	1306.60
266.11	1304.56
266.33	1253.36
266.54	1271.79
266.76	1282.03
266.98	1257.45
267.19	1288.17
267.41	1249.26
267.62	1263.60
267.84	1218.54
268.06	1269.74
268.27	1322.99
268.49	1284.08
268.70	1239.02
268.92	1261.55
269.14	1220.59
269.35	1222.64
269.57	1310.70
269.79	1230.83
270.00	1279.98
270.22	1230.83
270.43	1341.42
270.65	1294.32
270.87	1277.93
271.08	1265.64
271.30	1320.94
271.51	1239.02
271.73	1320.94
271.95	1200.11
272.16	1253.36
272.38	1308.65
272.59	1255.40
272.81	1308.65
273.02	1282.03
273.24	1234.93
273.46	1269.74
273.67	1193.97
273.89	1239.02
274.10	1271.79
274.32	1290.22
274.54	1306.60
274.75	1357.80
274.97	1310.70
275.18	1304.56
275.40	1271.79
275.61	1304.56
275.83	1259.50
276.05	1255.40
276.26	1284.08
276.48	1320.94
276.69	1263.60
276.91	1239.02
277.12	1255.40
277.34	1318.89
277.55	1306.60
277.77	1236.97
277.99	1251.31
278.20	1165.29
278.42	1236.97
278.63	1273.84
278.85	1206.25
279.06	1284.08
279.28	1296.36
279.49	1275.88
279.71	1306.60
279.93	1329.13
280.14	1279.98
280.36	1298.41
280.57	1255.40
280.79	1327.08
281.00	1298.41
281.22	1241.07
281.43	1279.98
281.65	1331.18
281.86	1339.37
282.08	1279.98
282.29	1271.79
282.51	1327.08
282.73	1316.84
282.94	1288.17
283.16	1376.24
283.37	1232.88
283.59	1212.40
283.80	1388.52
284.02	1302.51
284.23	1320.94
284.45	1298.41
284.66	1210.35
284.88	1255.40
285.09	1265.64
285.31	1288.17
285.52	1226.73
285.74	1263.60
285.95	1271.79
286.17	1212.40
286.38	1277.93
286.60	1273.84
286.81	1245.16
287.03	1282.03
287.24	1224.69
287.46	1302.51
287.67	1226.73
287.89	1210.35
288.10	1261.55
288.32	1251.31
288.53	1275.88
288.75	1255.40
288.96	1279.98
289.18	1230.83
289.39	1282.03
289.61	1286.12
289.82	1286.12
290.04	1249.26
290.25	1302.51
290.47	1288.17
290.68	1294.32
290.90	1298.41
291.11	1325.04
291.33	1361.90
291.54	1290.22
291.76	1316.84
291.97	1245.16
292.18	1224.69
292.40	1253.36
292.61	1304.56
292.83	1318.89
293.04	1232.88
293.26	1327.08
293.47	1257.45
293.69	1245.16
293.90	1261.55
294.12	1279.98
294.33	1279.98
294.55	1322.99
294.76	1288.17
294.97	1298.41
295.19	1298.41
295.40	1273.84
295.62	1261.55
295.83	1312.75
296.05	1277.93
296.26	1243.12
296.48	1277.93
296.69	1304.56
296.90	1277.93
297.12	1234.93
297.33	1271.79
297.55	1327.08
297.76	1292.27
297.98	1302.51
298.19	1204.21
298.41	1216.49
298.62	1204.21
298.83	1345.52
299.05	1202.16
299.26	1282.03
299.48	1243.12
299.69	1312.75
299.90	1214.45
300.12	1290.22
300.33	1310.70
300.55	1234.93
300.76	1269.74
300.98	1279.98
301.19	1312.75
301.40	1236.97
301.62	1279.98
301.83	1279.98
302.05	1251.31
302.26	1304.56
302.47	1298.41
302.69	1265.64
302.90	1339.37
303.12	1267.69
303.33	1239.02
303.54	1275.88
303.76	1290.22
303.97	1277.93
304.19	1322.99
304.40	1284.08
304.61	1339.37
304.83	1228.78
305.04	1304.56
305.26	1298.41
305.47	1271.79
305.68	1265.64
305.90	1288.17
306.11	1339.37
306.33	1267.69
306.54	1271.79
306.75	1228.78
306.97	1284.08
307.18	1249.26
307.39	1316.84
307.61	1249.26
307.82	1255.40
308.04	1222.64
308.25	1320.94
308.46	1253.36
308.68	1230.83
308.89	1282.03
309.10	1189.87
309.32	1220.59
309.53	1282.03
309.74	1292.27
309.96	1191.92
310.17	1253.36
310.39	1271.79
310.60	1202.16
310.81	1243.12
311.03	1279.98
311.24	1298.41
311.45	1333.23
311.67	1322.99
311.88	1249.26
312.09	1282.03
312.31	1259.50
312.52	1253.36
312.73	1241.07
312.95	1255.40
313.16	1284.08
313.37	1236.97
313.59	1306.60
313.80	1241.07
314.01	1292.27
314.23	1243.12
314.44	1241.07
314.65	1253.36
314.87	1322.99
315.08	1243.12
315.29	1275.88
315.51	1290.22
315.72	1208.30
315.93	1310.70
316.15	1290.22
316.36	1357.80
316.57	1302.51
316.79	1296.36
317.00	1163.25
317.21	1212.40
317.43	1228.78
317.64	1228.78
317.85	1320.94
318.07	1257.45
318.28	1224.69
318.49	1267.69
318.70	1257.45
318.92	1241.07
319.13	1253.36
319.34	1349.61
319.56	1236.97
319.77	1353.71
319.98	1331.18
320.20	1282.03
320.41	1298.41
320.62	1243.12
320.83	1243.12
321.05	1277.93
321.26	1282.03
321.47	1292.27
321.69	1318.89
321.90	1241.07
322.11	1269.74
322.32	1234.93
322.54	1243.12
322.75	1247.21
322.96	1263.60
323.18	1265.64
323.39	1239.02
323.60	1241.07
323.81	1263.60
324.03	1236.97
324.24	1228.78
324.45	1267.69
324.66	1343.47
324.88	1234.93
325.09	1316.84
325.30	1290.22
325.52	1249.26
325.73	1206.25
325.94	1282.03
326.15	1214.45
326.37	1202.16
326.58	1232.88
326.79	1265.64
327.00	1263.60
327.22	1318.89
327.43	1214.45
327.64	1320.94
327.85	1228.78
328.07	1249.26
328.28	1282.03
328.49	1216.49
328.70	1239.02
328.92	1245.16
329.13	1320.94
329.34	1259.50
329.55	1261.55
329.76	1251.31
329.98	1136.62
330.19	1259.50
330.40	1288.17
330.61	1318.89
330.83	1232.88
331.04	1218.54
331.25	1282.03
331.46	1232.88
331.68	1243.12
331.89	1314.80
332.10	1253.36
332.31	1308.65
332.52	1284.08
332.74	1177.58
332.95	1302.51
333.16	1269.74
333.37	1316.84
333.58	1267.69
333.80	1275.88
334.01	1302.51
334.22	1269.74
334.43	1259.50
334.64	1302.51
334.86	1355.76
335.07	1269.74
335.28	1161.20
335.49	1308.65
335.70	1331.18
335.92	1245.16
336.13	1322.99
336.34	1230.83
336.55	1339.37
336.76	1277.93
336.98	1306.60
337.19	1181.68
337.40	1302.51
337.61	1337.32
337.82	1216.49
338.04	1320.94
338.25	1273.84
338.46	1236.97
338.67	1241.07
338.88	1245.16
339.09	1370.09
339.31	1247.21
339.52	1200.11
339.73	1257.45
339.94	1261.55
340.15	1179.63
340.36	1210.35
340.58	1265.64
340.79	1232.88
341.00	1374.19
341.21	1216.49
341.42	1298.41
341.63	1245.16
341.85	1322.99
342.06	1314.80
342.27	1226.73
342.48	1245.16
342.69	1298.41
342.90	1243.12
343.12	1310.70
343.33	1312.75
343.54	1314.80
343.75	1271.79
343.96	1279.98
344.17	1263.60
344.38	1249.26
344.60	1249.26
344.81	1265.64
345.02	1220.59
345.23	1204.21
345.44	1318.89
345.65	1253.36
345.86	1337.32
346.07	1259.50
346.29	1302.51
346.50	1277.93
346.71	1271.79
346.92	1265.64
347.13	1263.60
347.34	1257.45
347.55	1271.79
347.76	1271.79
347.98	1261.55
348.19	1267.69
348.40	1337.32
348.61	1277.93
348.82	1165.29
349.03	1212.40
349.24	1294.32
349.45	1263.60
349.66	1271.79
349.88	1286.12
350.09	1292.27
350.30	1300.46
350.51	1247.21
350.72	1206.25
350.93	1255.40
351.14	1290.22
351.35	1357.80
351.56	1273.84
351.77	1220.59
351.99	1282.03
352.20	1267.69
352.41	1247.21
352.62	1249.26
352.83	1282.03
353.04	1230.83
353.25	1290.22
353.46	1296.36
353.67	1267.69
353.88	1275.88
354.09	1232.88
354.30	1198.06
354.52	1273.84
354.73	1179.63
354.94	1269.74
355.15	1202.16
355.36	1263.60
355.57	1218.54
355.78	1271.79
355.99	1196.01
356.20	1300.46
356.41	1325.04
356.62	1230.83
356.83	1282.03
357.04	1322.99
357.25	1286.12
357.46	1284.08
357.68	1290.22
357.89	1296.36
358.10	1339.37
358.31	1267.69
358.52	1198.06
358.73	1288.17
358.94	1263.60
359.15	1249.26
359.36	1341.42
359.57	1318.89
359.78	1222.64
359.99	1253.36
360.20	1314.80
360.41	1327.08
360.62	1292.27
360.83	1208.30
361.04	1261.55
361.25	1335.28
361.46	1249.26
361.67	1263.60
361.88	1306.60
362.09	1296.36
362.30	1269.74
362.51	1298.41
362.72	1222.64
362.93	1181.68
363.14	1347.56
363.35	1318.89
363.56	1232.88
363.78	1187.82
363.99	1316.84
364.20	1247.21
364.41	1308.65
364.62	1322.99
364.83	1273.84
365.04	1265.64
365.25	1236.97
365.46	1200.11
365.67	1347.56
365.88	1298.41
366.09	1241.07
366.30	1210.35
366.51	1310.70
366.72	1257.45
366.93	1298.41
367.14	1206.25
367.35	1255.40
367.56	1243.12
367.77	1331.18
367.98	1216.49
368.18	1193.97
368.39	1292.27
368.60	1251.31
368.81	1343.47
369.02	1196.01
369.23	1275.88
369.44	1257.45
369.65	1304.56
369.86	1247.21
370.07	1294.32
370.28	1214.45
370.49	1239.02
370.70	1208.30
370.91	1275.88
371.12	1259.50
371.33	1187.82
371.54	1310.70
371.75	1257.45
371.96	1245.16
372.17	1206.25
372.38	1290.22
372.59	1202.16
372.80	1257.45
373.01	1265.64
373.22	1314.80
373.43	1304.56
373.64	1243.12
373.85	1263.60
374.06	1253.36
374.26	1273.84
374.47	1300.46
374.68	1312.75
374.89	1224.69
375.10	1220.59
375.31	1257.45
375.52	1214.45
375.73	1306.60
375.94	1220.59
376.15	1241.07
376.36	1300.46
376.57	1312.75
376.78	1183.73
376.99	1271.79
377.20	1198.06
377.40	1226.73
377.61	1245.16
377.82	1333.23
378.03	1269.74
378.24	1234.93
378.45	1247.21
378.66	1189.87
378.87	1218.54
379.08	1306.60
379.29	1353.71
379.50	1277.93
379.71	1263.60
379.91	1259.50
380.12	1359.85
380.33	1232.88
380.54	1249.26
380.75	1306.60
380.96	1224.69
381.17	1212.40
381.38	1257.45
381.59	1241.07
381.80	1249.26
382.00	1243.12
382.21	1288.17
382.42	1265.64
382.63	1267.69
382.84	1247.21
383.05	1216.49
383.26	1212.40
383.47	1277.93
383.68	1273.84
383.88	1214.45
384.09	1310.70
384.30	1318.89
384.51	1247.21
384.72	1259.50
384.93	1257.45
385.14	1284.08
385.35	1316.84
385.55	1284.08
385.76	1253.36
385.97	1239.02
386.18	1228.78
386.39	1275.88
386.60	1241.07
386.81	1259.50
387.02	1245.16
387.22	1216.49
387.43	1236.97
387.64	1290.22
387.85	1306.60
388.06	1202.16
388.27	1249.26
388.48	1267.69
388.68	1302.51
388.89	1273.84
389.10	1255.40
389.31	1316.84
389.52	1267.69
389.73	1234.93
389.93	1263.60
390.14	1267.69
390.35	1241.07
390.56	1322.99
390.77	1282.03
390.98	1185.77
391.18	1302.51
391.39	1261.55
391.60	1249.26
391.81	1335.28
392.02	1329.13
392.23	1273.84
392.43	1296.36
392.64	1335.28
392.85	1263.60
393.06	1245.16
393.27	1329.13
393.47	1214.45
393.68	1255.40
393.89	1255.40
394.10	1296.36
394.31	1279.98
394.52	1296.36
394.72	1236.97
394.93	1265.64
395.14	1331.18
395.35	1288.17
395.56	1286.12
395.76	1282.03
395.97	1308.65
396.18	1234.93
396.39	1191.92
396.60	1292.27
396.80	1296.36
397.01	1212.40
397.22	1318.89
397.43	1284.08
397.64	1273.84
397.84	1265.64
398.05	1306.60
398.26	1232.88
398.47	1257.45
398.67	1259.50
398.88	1275.88
399.09	1263.60
399.30	1255.40
399.51	1232.88
399.71	1263.60
399.92	1269.74
400.13	1322.99
400.34	1251.31
400.54	1191.92
400.75	1282.03
400.96	1255.40
401.17	1331.18
401.37	1288.17
401.58	1329.13
401.79	1277.93
402.00	1228.78
402.21	1316.84
402.41	1265.64
402.62	1286.12
402.83	1312.75
403.04	1277.93
403.24	1298.41
403.45	1302.51
403.66	1279.98
403.87	1257.45
404.07	1331.18
404.28	1273.84
404.49	1271.79
404.70	1241.07
404.90	1232.88
405.11	1232.88
405.32	1353.71
405.52	1247.21
405.73	1216.49
405.94	1296.36
406.15	1253.36
406.35	1224.69
406.56	1196.01
406.77	1269.74
406.98	1255.40
407.18	1187.82
407.39	1337.32
407.60	1308.65
407.80	1269.74
408.01	1261.55
408.22	1296.36
408.43	1322.99
408.63	1257.45
408.84	1261.55
409.05	1277.93
409.25	1220.59
409.46	1335.28
409.67	1249.26
409.88	1220.59
410.08	1306.60
410.29	1255.40
410.50	1234.93
410.70	1312.75
410.91	1279.98
411.12	1335.28
411.32	1314.80
411.53	1347.56
411.74	1265.64
411.95	1304.56
412.15	1226.73
412.36	1271.79
412.57	1185.77
412.77	1259.50
412.98	1179.63
413.19	1230.83
413.39	1253.36
413.60	1249.26
413.81	1302.51
414.01	1179.63
414.22	1230.83
414.43	1314.80
414.63	1261.55
414.84	1300.46
415.05	1349.61
415.25	1269.74
415.46	1255.40
415.67	1282.03
415.87	1239.02
416.08	1196.01
416.29	1224.69
416.49	1222.64
416.70	1216.49
416.91	1275.88
417.11	1279.98
417.32	1251.31
417.53	1210.35
417.73	1290.22
417.94	1333.23
418.15	1265.64
418.35	1273.84
418.56	1253.36
418.77	1216.49
418.97	1210.35
419.18	1284.08
419.38	1269.74
419.59	1249.26
419.80	1329.13
420.00	1257.45
420.21	1153.01
420.42	1239.02
420.62	1259.50
420.83	1263.60
421.04	1380.33
421.24	1230.83
421.45	1298.41
421.65	1249.26
421.86	1212.40
422.07	1288.17
422.27	1253.36
422.48	1279.98
422.69	1261.55
422.89	1298.41
423.10	1261.55
423.30	1337.32
423.51	1236.97
423.72	1249.26
423.92	1245.16
424.13	1286.12
424.33	1232.88
424.54	1267.69
424.75	1296.36
424.95	1216.49
425.16	1249.26
425.36	1249.26
425.57	1263.60
425.78	1249.26
425.98	1298.41
426.19	1267.69
426.39	1245.16
426.60	1279.98
426.81	1351.66
427.01	1257.45
427.22	1271.79
427.42	1251.31
427.63	1306.60
427.83	1306.60
428.04	1218.54
428.25	1290.22
428.45	1282.03
428.66	1288.17
428.86	1318.89
429.07	1308.65
429.28	1259.50
429.48	1191.92
429.69	1368.04
429.89	1206.25
430.10	1220.59
430.30	1265.64
430.51	1253.36
430.71	1214.45
430.92	1292.27
431.13	1265.64
431.33	1269.74
431.54	1263.60
431.74	1224.69
431.95	1253.36
432.15	1296.36
432.36	1322.99
432.56	1331.18
432.77	1316.84
432.98	1292.27
433.18	1255.40
433.39	1267.69
433.59	1302.51
433.80	1298.41
434.00	1284.08
434.21	1239.02
434.41	1318.89
434.62	1191.92
434.82	1247.21
435.03	1284.08
435.23	1284.08
435.44	1290.22
435.64	1294.32
435.85	1273.84
436.06	1208.30
436.26	1263.60
436.47	1320.94
436.67	1355.76
436.88	1273.84
437.08	1265.64
437.29	1259.50
437.49	1290.22
437.70	1253.36
437.90	1263.60
438.11	1329.13
438.31	1239.02
438.52	1322.99
438.72	1316.84
438.93	1245.16
439.13	1241.07
439.34	1312.75
439.54	1263.60
439.75	1232.88
439.95	1284.08
440.16	1253.36
440.36	1247.21
440.57	1222.64
440.77	1288.17
440.98	1243.12
441.18	1265.64
441.39	1249.26
441.59	1230.83
441.80	1263.60
442.00	1273.84
442.21	1306.60
442.41	1314.80
442.62	1239.02
442.82	1218.54
443.02	1224.69
443.23	1359.85
443.43	1261.55
443.64	1234.93
443.84	1224.69
444.05	1292.27
444.25	1171.44
444.46	1318.89
444.66	1214.45
444.87	1306.60
445.07	1259.50
445.28	1294.32
445.48	1337.32
445.69	1271.79
445.89	1337.32
446.09	1282.03
446.30	1288.17
446.50	1261.55
446.71	1269.74
446.91	1255.40
447.12	1251.31
447.32	1273.84
447.53	1308.65
447.73	1232.88
447.93	1316.84
448.14	1279.98
448.34	1343.47
448.55	1304.56
448.75	1232.88
448.96	1245.16
449.16	1275.88
449.36	1255.40
449.57	1216.49
449.77	1316.84
449.98	1304.56
450.18	1247.21
450.39	1277.93
450.59	1359.85
450.79	1282.03
451.00	1251.31
451.20	1286.12
451.41	1261.55
451.61	1314.80
451.81	1314.80
452.02	1210.35
452.22	1355.76
452.43	1302.51
452.63	1232.88
