SpectraSuite Data File
++++++++++++++++++++++++++++++++++++
Date: Sun Apr 03 19:55:26 CEST 2016
User: root
Dark Spectrum Present: No
Reference Spectrum Present: No
Number of Sampled Component Spectra: 1
Spectrometers: USB4C02835
Integration Time (usec): 10000 (USB4C02835)
Spectra Averaged: 1 (USB4C02835)
Boxcar Smoothing: 0 (USB4C02835)
Correct for Electrical Dark: No (USB4C02835)
Strobe/Lamp Enabled: No (USB4C02835)
Correct for Detector Non-linearity: No (USB4C02835)
Correct for Stray Light: No (USB4C02835)
Number of Pixels in Processed Spectrum: 3648
>>>>>Begin Processed Spectral Data<<<<<
177.47	1298.41
177.69	1298.41
177.91	1298.41
178.13	1230.83
178.36	1257.45
178.58	1335.28
178.80	1218.54
179.02	1208.30
179.24	1198.06
179.46	1251.31
179.68	1368.04
179.90	1282.03
180.13	1316.84
180.35	1290.22
180.57	1298.41
180.79	1265.64
181.01	1269.74
181.23	1269.74
181.45	1314.80
181.67	1236.97
181.90	1214.45
182.12	1214.45
182.34	1241.07
182.56	1296.36
182.78	1279.98
183.00	1245.16
183.22	1247.21
183.44	1208.30
183.66	1263.60
183.89	1253.36
184.11	1249.26
184.33	1308.65
184.55	1259.50
184.77	1255.40
184.99	1251.31
185.21	1259.50
185.43	1267.69
185.65	1355.76
185.87	1271.79
186.10	1271.79
186.32	1265.64
186.54	1286.12
186.76	1251.31
186.98	1253.36
187.20	1241.07
187.42	1222.64
187.64	1249.26
187.86	1200.11
188.08	1284.08
188.30	1243.12
188.52	1277.93
188.75	1298.41
188.97	1298.41
189.19	1300.46
189.41	1257.45
189.63	1314.80
189.85	1232.88
190.07	1298.41
190.29	1310.70
190.51	1304.56
190.73	1220.59
190.95	1241.07
191.17	1267.69
191.39	1292.27
191.61	1275.88
191.84	1249.26
192.06	1290.22
192.28	1284.08
192.50	1294.32
192.72	1239.02
192.94	1294.32
193.16	1241.07
193.38	1345.52
193.60	1187.82
193.82	1236.97
194.04	1294.32
194.26	1259.50
194.48	1214.45
194.70	1208.30
194.92	1294.32
195.14	1247.21
195.36	1220.59
195.58	1232.88
195.80	1249.26
196.02	1247.21
196.24	1216.49
196.46	1267.69
196.69	1318.89
196.91	1193.97
197.13	1286.12
197.35	1282.03
197.57	1245.16
197.79	1279.98
198.01	1265.64
198.23	1316.84
198.45	1212.40
198.67	1263.60
198.89	1245.16
199.11	1257.45
199.33	1239.02
199.55	1294.32
199.77	1284.08
199.99	1230.83
200.21	1200.11
200.43	1263.60
200.65	1222.64
200.87	1255.40
201.09	1218.54
201.31	1241.07
201.53	1277.93
201.75	1282.03
201.97	1224.69
202.19	1314.80
202.41	1253.36
202.63	1245.16
202.85	1333.23
203.07	1298.41
203.29	1279.98
203.51	1290.22
203.73	1230.83
203.95	1241.07
204.17	1314.80
204.39	1277.93
204.61	1333.23
204.83	1241.07
205.05	1200.11
205.27	1269.74
205.49	1292.27
205.71	1247.21
205.93	1241.07
206.15	1224.69
206.37	1298.41
206.59	1218.54
206.81	1322.99
207.03	1232.88
207.25	1273.84
207.47	1245.16
207.69	1261.55
207.91	1288.17
208.13	1236.97
208.34	1290.22
208.56	1298.41
208.78	1220.59
209.00	1241.07
209.22	1265.64
209.44	1241.07
209.66	1320.94
209.88	1284.08
210.10	1355.76
210.32	1300.46
210.54	1255.40
210.76	1294.32
210.98	1259.50
211.20	1277.93
211.42	1273.84
211.64	1298.41
211.86	1247.21
212.08	1306.60
212.30	1335.28
212.52	1245.16
212.74	1259.50
212.96	1275.88
213.17	1255.40
213.39	1275.88
213.61	1273.84
213.83	1271.79
214.05	1257.45
214.27	1200.11
214.49	1245.16
214.71	1206.25
214.93	1292.27
215.15	1245.16
215.37	1239.02
215.59	1222.64
215.81	1271.79
216.03	1265.64
216.24	1271.79
216.46	1302.51
216.68	1261.55
216.90	1189.87
217.12	1306.60
217.34	1308.65
217.56	1282.03
217.78	1282.03
218.00	1282.03
218.22	1265.64
218.44	1316.84
218.66	1249.26
218.87	1331.18
219.09	1275.88
219.31	1247.21
219.53	1230.83
219.75	1189.87
219.97	1300.46
220.19	1325.04
220.41	1267.69
220.63	1249.26
220.85	1329.13
221.06	1232.88
221.28	1337.32
221.50	1277.93
221.72	1290.22
221.94	1251.31
222.16	1282.03
222.38	1218.54
222.60	1208.30
222.82	1210.35
223.03	1306.60
223.25	1263.60
223.47	1214.45
223.69	1300.46
223.91	1249.26
224.13	1226.73
224.35	1249.26
224.57	1345.52
224.78	1232.88
225.00	1279.98
225.22	1304.56
225.44	1255.40
225.66	1245.16
225.88	1325.04
226.10	1273.84
226.32	1294.32
226.53	1257.45
226.75	1359.85
226.97	1265.64
227.19	1243.12
227.41	1236.97
227.63	1234.93
227.85	1335.28
228.06	1310.70
228.28	1247.21
228.50	1304.56
228.72	1247.21
228.94	1253.36
229.16	1275.88
229.37	1241.07
229.59	1279.98
229.81	1273.84
230.03	1271.79
230.25	1230.83
230.47	1261.55
230.69	1339.37
230.90	1294.32
231.12	1226.73
231.34	1236.97
231.56	1249.26
231.78	1247.21
232.00	1249.26
232.21	1200.11
232.43	1333.23
232.65	1249.26
232.87	1310.70
233.09	1298.41
233.30	1398.76
233.52	1298.41
233.74	1296.36
233.96	1253.36
234.18	1279.98
234.40	1261.55
234.61	1265.64
234.83	1294.32
235.05	1247.21
235.27	1269.74
235.49	1265.64
235.70	1292.27
235.92	1181.68
236.14	1277.93
236.36	1228.78
236.58	1208.30
236.79	1298.41
237.01	1347.56
237.23	1302.51
237.45	1292.27
237.67	1257.45
237.88	1331.18
238.10	1286.12
238.32	1247.21
238.54	1208.30
238.76	1296.36
238.97	1253.36
239.19	1275.88
239.41	1269.74
239.63	1169.39
239.85	1228.78
240.06	1265.64
240.28	1298.41
240.50	1263.60
240.72	1247.21
240.93	1243.12
241.15	1320.94
241.37	1257.45
241.59	1277.93
241.81	1290.22
242.02	1294.32
242.24	1249.26
242.46	1208.30
242.68	1279.98
242.89	1247.21
243.11	1216.49
243.33	1259.50
243.55	1236.97
243.76	1232.88
243.98	1206.25
244.20	1312.75
244.42	1286.12
244.64	1292.27
244.85	1306.60
245.07	1234.93
245.29	1267.69
245.51	1263.60
245.72	1239.02
245.94	1327.08
246.16	1271.79
246.38	1239.02
246.59	1277.93
246.81	1234.93
247.03	1294.32
247.24	1212.40
247.46	1292.27
247.68	1300.46
247.90	1263.60
248.11	1236.97
248.33	1277.93
248.55	1265.64
248.77	1206.25
248.98	1337.32
249.20	1329.13
249.42	1220.59
249.64	1257.45
249.85	1284.08
250.07	1298.41
250.29	1259.50
250.50	1302.51
250.72	1265.64
250.94	1273.84
251.16	1273.84
251.37	1263.60
251.59	1265.64
251.81	1331.18
252.02	1279.98
252.24	1286.12
252.46	1329.13
252.68	1288.17
252.89	1206.25
253.11	1208.30
253.33	1284.08
253.54	1277.93
253.76	1239.02
253.98	1249.26
254.20	1208.30
254.41	1236.97
254.63	1329.13
254.85	1198.06
255.06	1312.75
255.28	1271.79
255.50	1271.79
255.71	1224.69
255.93	1304.56
256.15	1263.60
256.36	1241.07
256.58	1318.89
256.80	1320.94
257.02	1210.35
257.23	1165.29
257.45	1277.93
257.67	1273.84
257.88	1290.22
258.10	1261.55
258.32	1257.45
258.53	1253.36
258.75	1261.55
258.97	1265.64
259.18	1331.18
259.40	1245.16
259.62	1261.55
259.83	1257.45
260.05	1212.40
260.27	1269.74
260.48	1245.16
260.70	1308.65
260.92	1286.12
261.13	1230.83
261.35	1277.93
261.57	1288.17
261.78	1218.54
262.00	1265.64
262.22	1243.12
262.43	1239.02
262.65	1282.03
262.86	1288.17
263.08	1257.45
263.30	1310.70
263.51	1253.36
263.73	1230.83
263.95	1265.64
264.16	1187.82
264.38	1296.36
264.60	1294.32
264.81	1226.73
265.03	1216.49
265.25	1261.55
265.46	1202.16
265.68	1290.22
265.89	1306.60
266.11	1228.78
266.33	1296.36
266.54	1314.80
266.76	1288.17
266.98	1275.88
267.19	1300.46
267.41	1224.69
267.62	1288.17
267.84	1308.65
268.06	1257.45
268.27	1204.21
268.49	1222.64
268.70	1241.07
268.92	1232.88
269.14	1255.40
269.35	1288.17
269.57	1294.32
269.79	1239.02
270.00	1241.07
270.22	1339.37
270.43	1228.78
270.65	1163.25
270.87	1314.80
271.08	1275.88
271.30	1286.12
271.51	1298.41
271.73	1245.16
271.95	1224.69
272.16	1261.55
272.38	1300.46
272.59	1329.13
272.81	1275.88
273.02	1273.84
273.24	1269.74
273.46	1284.08
273.67	1234.93
273.89	1318.89
274.10	1314.80
274.32	1300.46
274.54	1275.88
274.75	1249.26
274.97	1304.56
275.18	1284.08
275.40	1327.08
275.61	1296.36
275.83	1187.82
276.05	1269.74
276.26	1239.02
276.48	1255.40
276.69	1343.47
276.91	1290.22
277.12	1300.46
277.34	1322.99
277.55	1234.93
277.77	1202.16
277.99	1245.16
278.20	1251.31
278.42	1216.49
278.63	1257.45
278.85	1339.37
279.06	1249.26
279.28	1304.56
279.49	1300.46
279.71	1216.49
279.93	1269.74
280.14	1271.79
280.36	1320.94
280.57	1241.07
280.79	1253.36
281.00	1245.16
281.22	1251.31
281.43	1279.98
281.65	1236.97
281.86	1361.90
282.08	1255.40
282.29	1298.41
282.51	1236.97
282.73	1255.40
282.94	1271.79
283.16	1312.75
283.37	1288.17
283.59	1200.11
283.80	1198.06
284.02	1310.70
284.23	1304.56
284.45	1300.46
284.66	1322.99
284.88	1298.41
285.09	1275.88
285.31	1298.41
285.52	1236.97
285.74	1335.28
285.95	1255.40
286.17	1224.69
286.38	1257.45
286.60	1171.44
286.81	1228.78
287.03	1202.16
287.24	1259.50
287.46	1241.07
287.67	1232.88
287.89	1257.45
288.10	1329.13
288.32	1269.74
288.53	1222.64
288.75	1290.22
288.96	1185.77
289.18	1304.56
289.39	1224.69
289.61	1265.64
289.82	1150.96
290.04	1216.49
290.25	1282.03
290.47	1183.73
290.68	1265.64
290.90	1247.21
291.11	1196.01
291.33	1222.64
291.54	1271.79
291.76	1304.56
291.97	1230.83
292.18	1282.03
292.40	1257.45
292.61	1282.03
292.83	1253.36
293.04	1300.46
293.26	1282.03
293.47	1353.71
293.69	1273.84
293.90	1212.40
294.12	1294.32
294.33	1320.94
294.55	1214.45
294.76	1286.12
294.97	1306.60
295.19	1265.64
295.40	1279.98
295.62	1241.07
295.83	1263.60
296.05	1331.18
296.26	1224.69
296.48	1273.84
296.69	1265.64
296.90	1325.04
297.12	1228.78
297.33	1267.69
297.55	1337.32
297.76	1271.79
297.98	1310.70
298.19	1279.98
298.41	1282.03
298.62	1263.60
298.83	1218.54
299.05	1255.40
299.26	1245.16
299.48	1239.02
299.69	1218.54
299.90	1165.29
300.12	1290.22
300.33	1290.22
300.55	1253.36
300.76	1259.50
300.98	1277.93
301.19	1273.84
301.40	1253.36
301.62	1251.31
301.83	1228.78
302.05	1249.26
302.26	1187.82
302.47	1263.60
302.69	1236.97
302.90	1359.85
303.12	1224.69
303.33	1312.75
303.54	1318.89
303.76	1224.69
303.97	1286.12
304.19	1269.74
304.40	1241.07
304.61	1292.27
304.83	1249.26
305.04	1265.64
305.26	1241.07
305.47	1331.18
305.68	1243.12
305.90	1269.74
306.11	1357.80
306.33	1247.21
306.54	1253.36
306.75	1273.84
306.97	1329.13
307.18	1282.03
307.39	1316.84
307.61	1269.74
307.82	1265.64
308.04	1269.74
308.25	1261.55
308.46	1257.45
308.68	1300.46
308.89	1230.83
309.10	1249.26
309.32	1308.65
309.53	1269.74
309.74	1249.26
309.96	1224.69
310.17	1310.70
310.39	1273.84
310.60	1189.87
310.81	1286.12
311.03	1236.97
311.24	1261.55
311.45	1316.84
311.67	1329.13
311.88	1288.17
312.09	1224.69
312.31	1257.45
312.52	1265.64
312.73	1232.88
312.95	1181.68
313.16	1259.50
313.37	1234.93
313.59	1245.16
313.80	1257.45
314.01	1310.70
314.23	1208.30
314.44	1298.41
314.65	1267.69
314.87	1273.84
315.08	1239.02
315.29	1239.02
315.51	1290.22
315.72	1277.93
315.93	1306.60
316.15	1304.56
316.36	1269.74
316.57	1241.07
316.79	1236.97
317.00	1222.64
317.21	1331.18
317.43	1275.88
317.64	1226.73
317.85	1239.02
318.07	1193.97
318.28	1232.88
318.49	1259.50
318.70	1271.79
318.92	1234.93
319.13	1249.26
319.34	1239.02
319.56	1318.89
319.77	1224.69
319.98	1202.16
320.20	1257.45
320.41	1218.54
320.62	1327.08
320.83	1300.46
321.05	1232.88
321.26	1271.79
321.47	1179.63
321.69	1265.64
321.90	1296.36
322.11	1322.99
322.32	1300.46
322.54	1269.74
322.75	1208.30
322.96	1273.84
323.18	1282.03
323.39	1257.45
323.60	1269.74
323.81	1277.93
324.03	1255.40
324.24	1302.51
324.45	1257.45
324.66	1263.60
324.88	1298.41
325.09	1275.88
325.30	1292.27
325.52	1177.58
325.73	1267.69
325.94	1271.79
326.15	1191.92
326.37	1204.21
326.58	1249.26
326.79	1335.28
327.00	1241.07
327.22	1265.64
327.43	1255.40
327.64	1259.50
327.85	1257.45
328.07	1378.28
328.28	1210.35
328.49	1273.84
328.70	1290.22
328.92	1359.85
329.13	1236.97
329.34	1282.03
329.55	1333.23
329.76	1220.59
329.98	1226.73
330.19	1273.84
330.40	1259.50
330.61	1282.03
330.83	1230.83
331.04	1294.32
331.25	1251.31
331.46	1343.47
331.68	1206.25
331.89	1304.56
332.10	1239.02
332.31	1214.45
332.52	1277.93
332.74	1265.64
332.95	1333.23
333.16	1304.56
333.37	1206.25
333.58	1239.02
333.80	1275.88
334.01	1271.79
334.22	1267.69
334.43	1206.25
334.64	1255.40
334.86	1249.26
335.07	1196.01
335.28	1259.50
335.49	1232.88
335.70	1239.02
335.92	1247.21
336.13	1318.89
336.34	1290.22
336.55	1271.79
336.76	1257.45
336.98	1236.97
337.19	1208.30
337.40	1269.74
337.61	1310.70
337.82	1306.60
338.04	1247.21
338.25	1292.27
338.46	1279.98
338.67	1314.80
338.88	1226.73
339.09	1263.60
339.31	1247.21
339.52	1320.94
339.73	1286.12
339.94	1298.41
340.15	1243.12
340.36	1218.54
340.58	1255.40
340.79	1294.32
341.00	1253.36
341.21	1314.80
341.42	1236.97
341.63	1230.83
341.85	1257.45
342.06	1214.45
342.27	1288.17
342.48	1222.64
342.69	1269.74
342.90	1304.56
343.12	1243.12
343.33	1294.32
343.54	1226.73
343.75	1290.22
343.96	1230.83
344.17	1357.80
344.38	1239.02
344.60	1247.21
344.81	1374.19
345.02	1282.03
345.23	1298.41
345.44	1320.94
345.65	1314.80
345.86	1296.36
346.07	1196.01
346.29	1320.94
346.50	1302.51
346.71	1265.64
346.92	1241.07
347.13	1259.50
347.34	1277.93
347.55	1249.26
347.76	1327.08
347.98	1284.08
348.19	1275.88
348.40	1300.46
348.61	1265.64
348.82	1284.08
349.03	1216.49
349.24	1222.64
349.45	1198.06
349.66	1239.02
349.88	1322.99
350.09	1279.98
350.30	1282.03
350.51	1263.60
350.72	1277.93
350.93	1277.93
351.14	1243.12
351.35	1292.27
351.56	1236.97
351.77	1249.26
351.99	1296.36
352.20	1275.88
352.41	1216.49
352.62	1261.55
352.83	1245.16
353.04	1292.27
353.25	1288.17
353.46	1263.60
353.67	1294.32
353.88	1263.60
354.09	1249.26
354.30	1325.04
354.52	1288.17
354.73	1298.41
354.94	1245.16
355.15	1239.02
355.36	1253.36
355.57	1271.79
355.78	1296.36
355.99	1261.55
356.20	1273.84
356.41	1265.64
356.62	1296.36
356.83	1247.21
357.04	1290.22
357.25	1290.22
357.46	1296.36
357.68	1263.60
357.89	1341.42
358.10	1290.22
358.31	1306.60
358.52	1314.80
358.73	1265.64
358.94	1261.55
359.15	1296.36
359.36	1269.74
359.57	1277.93
359.78	1259.50
359.99	1337.32
360.20	1249.26
360.41	1155.05
360.62	1290.22
360.83	1349.61
361.04	1341.42
361.25	1232.88
361.46	1243.12
361.67	1247.21
361.88	1318.89
362.09	1322.99
362.30	1218.54
362.51	1245.16
362.72	1351.66
362.93	1290.22
363.14	1267.69
363.35	1259.50
363.56	1288.17
363.78	1282.03
363.99	1290.22
364.20	1210.35
364.41	1230.83
364.62	1269.74
364.83	1312.75
365.04	1288.17
365.25	1234.93
365.46	1335.28
365.67	1239.02
365.88	1320.94
366.09	1241.07
366.30	1224.69
366.51	1275.88
366.72	1265.64
366.93	1232.88
367.14	1236.97
367.35	1345.52
367.56	1259.50
367.77	1171.44
367.98	1277.93
368.18	1269.74
368.39	1224.69
368.60	1306.60
368.81	1253.36
369.02	1314.80
369.23	1212.40
369.44	1282.03
369.65	1247.21
369.86	1236.97
370.07	1241.07
370.28	1298.41
370.49	1273.84
370.70	1292.27
370.91	1267.69
371.12	1310.70
371.33	1177.58
371.54	1312.75
371.75	1206.25
371.96	1222.64
372.17	1296.36
372.38	1372.14
372.59	1298.41
372.80	1322.99
373.01	1329.13
373.22	1216.49
373.43	1253.36
373.64	1286.12
373.85	1255.40
374.06	1265.64
374.26	1257.45
374.47	1282.03
374.68	1314.80
374.89	1310.70
375.10	1171.44
375.31	1296.36
375.52	1167.34
375.73	1290.22
375.94	1259.50
376.15	1257.45
376.36	1273.84
376.57	1273.84
376.78	1267.69
376.99	1277.93
377.20	1282.03
377.40	1290.22
377.61	1312.75
377.82	1255.40
378.03	1200.11
378.24	1294.32
378.45	1230.83
378.66	1290.22
378.87	1169.39
379.08	1261.55
379.29	1263.60
379.50	1275.88
379.71	1290.22
379.91	1200.11
380.12	1282.03
380.33	1335.28
380.54	1308.65
380.75	1239.02
380.96	1312.75
381.17	1302.51
381.38	1286.12
381.59	1271.79
381.80	1275.88
382.00	1288.17
382.21	1265.64
382.42	1296.36
382.63	1249.26
382.84	1241.07
383.05	1341.42
383.26	1265.64
383.47	1286.12
383.68	1322.99
383.88	1257.45
384.09	1249.26
384.30	1249.26
384.51	1322.99
384.72	1255.40
384.93	1241.07
385.14	1249.26
385.35	1327.08
385.55	1245.16
385.76	1232.88
385.97	1294.32
386.18	1249.26
386.39	1277.93
386.60	1292.27
386.81	1239.02
387.02	1243.12
387.22	1312.75
387.43	1245.16
387.64	1282.03
387.85	1245.16
388.06	1298.41
388.27	1294.32
388.48	1198.06
388.68	1290.22
388.89	1288.17
389.10	1263.60
389.31	1290.22
389.52	1316.84
389.73	1329.13
389.93	1327.08
390.14	1296.36
390.35	1257.45
390.56	1241.07
390.77	1271.79
390.98	1253.36
391.18	1236.97
391.39	1314.80
391.60	1206.25
391.81	1257.45
392.02	1265.64
392.23	1267.69
392.43	1279.98
392.64	1210.35
392.85	1292.27
393.06	1200.11
393.27	1249.26
393.47	1265.64
393.68	1308.65
393.89	1216.49
394.10	1298.41
394.31	1298.41
394.52	1261.55
394.72	1218.54
394.93	1265.64
395.14	1273.84
395.35	1255.40
395.56	1208.30
395.76	1241.07
395.97	1261.55
396.18	1263.60
396.39	1239.02
396.60	1292.27
396.80	1191.92
397.01	1320.94
397.22	1251.31
397.43	1355.76
397.64	1224.69
397.84	1304.56
398.05	1290.22
398.26	1279.98
398.47	1286.12
398.67	1318.89
398.88	1222.64
399.09	1279.98
399.30	1230.83
399.51	1261.55
399.71	1253.36
399.92	1193.97
400.13	1271.79
400.34	1222.64
400.54	1271.79
400.75	1279.98
400.96	1271.79
401.17	1228.78
401.37	1284.08
401.58	1253.36
401.79	1187.82
402.00	1265.64
402.21	1290.22
402.41	1265.64
402.62	1290.22
402.83	1249.26
403.04	1302.51
403.24	1279.98
403.45	1292.27
403.66	1232.88
403.87	1218.54
404.07	1202.16
404.28	1261.55
404.49	1253.36
404.70	1300.46
404.90	1320.94
405.11	1290.22
405.32	1257.45
405.52	1257.45
405.73	1204.21
405.94	1230.83
406.15	1259.50
406.35	1239.02
406.56	1273.84
406.77	1230.83
406.98	1185.77
407.18	1290.22
407.39	1288.17
407.60	1214.45
407.80	1273.84
408.01	1245.16
408.22	1296.36
408.43	1292.27
408.63	1234.93
408.84	1263.60
409.05	1230.83
409.25	1259.50
409.46	1269.74
409.67	1232.88
409.88	1263.60
410.08	1282.03
410.29	1273.84
410.50	1200.11
410.70	1286.12
410.91	1259.50
411.12	1226.73
411.32	1267.69
411.53	1263.60
411.74	1247.21
411.95	1273.84
412.15	1318.89
412.36	1243.12
412.57	1228.78
412.77	1325.04
412.98	1243.12
413.19	1282.03
413.39	1226.73
413.60	1179.63
413.81	1249.26
414.01	1226.73
414.22	1286.12
414.43	1273.84
414.63	1279.98
414.84	1239.02
415.05	1341.42
415.25	1247.21
415.46	1239.02
415.67	1222.64
415.87	1222.64
416.08	1269.74
416.29	1234.93
416.49	1216.49
416.70	1247.21
416.91	1222.64
417.11	1282.03
417.32	1241.07
417.53	1277.93
417.73	1220.59
417.94	1247.21
418.15	1243.12
418.35	1259.50
418.56	1183.73
418.77	1261.55
418.97	1226.73
419.18	1269.74
419.38	1265.64
419.59	1300.46
419.80	1396.71
420.00	1282.03
420.21	1292.27
420.42	1251.31
420.62	1318.89
420.83	1310.70
421.04	1286.12
421.24	1261.55
421.45	1222.64
421.65	1273.84
421.86	1310.70
422.07	1277.93
422.27	1267.69
422.48	1214.45
422.69	1249.26
422.89	1327.08
423.10	1232.88
423.30	1251.31
423.51	1265.64
423.72	1247.21
423.92	1282.03
424.13	1282.03
424.33	1239.02
424.54	1247.21
424.75	1286.12
424.95	1296.36
425.16	1261.55
425.36	1316.84
425.57	1296.36
425.78	1327.08
425.98	1304.56
426.19	1247.21
426.39	1277.93
426.60	1351.66
426.81	1249.26
427.01	1273.84
427.22	1251.31
427.42	1224.69
427.63	1277.93
427.83	1241.07
428.04	1261.55
428.25	1247.21
428.45	1298.41
428.66	1230.83
428.86	1292.27
429.07	1304.56
429.28	1255.40
429.48	1286.12
429.69	1296.36
429.89	1300.46
430.10	1269.74
430.30	1191.92
430.51	1320.94
430.71	1263.60
430.92	1327.08
431.13	1216.49
431.33	1206.25
431.54	1288.17
431.74	1269.74
431.95	1316.84
432.15	1232.88
432.36	1282.03
432.56	1263.60
432.77	1259.50
432.98	1247.21
433.18	1374.19
433.39	1169.39
433.59	1245.16
433.80	1298.41
434.00	1257.45
434.21	1282.03
434.41	1282.03
434.62	1255.40
434.82	1331.18
435.03	1277.93
435.23	1232.88
435.44	1251.31
435.64	1286.12
435.85	1249.26
436.06	1257.45
436.26	1292.27
436.47	1277.93
436.67	1298.41
436.88	1269.74
437.08	1224.69
437.29	1300.46
437.49	1310.70
437.70	1284.08
437.90	1247.21
438.11	1208.30
438.31	1329.13
438.52	1222.64
438.72	1273.84
438.93	1253.36
439.13	1263.60
439.34	1263.60
439.54	1296.36
439.75	1282.03
439.95	1226.73
440.16	1286.12
440.36	1279.98
440.57	1294.32
440.77	1269.74
440.98	1314.80
441.18	1206.25
441.39	1306.60
441.59	1259.50
441.80	1302.51
442.00	1222.64
442.21	1331.18
442.41	1175.53
442.62	1296.36
442.82	1228.78
443.02	1277.93
443.23	1314.80
443.43	1236.97
443.64	1271.79
443.84	1196.01
444.05	1226.73
444.25	1247.21
444.46	1212.40
444.66	1261.55
444.87	1337.32
445.07	1290.22
445.28	1273.84
445.48	1263.60
445.69	1302.51
445.89	1265.64
446.09	1279.98
446.30	1243.12
446.50	1314.80
446.71	1284.08
446.91	1351.66
447.12	1249.26
447.32	1298.41
447.53	1306.60
447.73	1277.93
447.93	1359.85
448.14	1290.22
448.34	1265.64
448.55	1312.75
448.75	1327.08
448.96	1298.41
449.16	1226.73
449.36	1267.69
449.57	1214.45
449.77	1279.98
449.98	1284.08
450.18	1265.64
450.39	1263.60
450.59	1198.06
450.79	1288.17
451.00	1325.04
451.20	1243.12
451.41	1236.97
451.61	1288.17
451.81	1259.50
452.02	1282.03
452.22	1132.53
452.43	1265.64
452.63	1294.32
