SpectraSuite Data File
++++++++++++++++++++++++++++++++++++
Date: Sun Apr 03 19:55:13 CEST 2016
User: root
Dark Spectrum Present: No
Reference Spectrum Present: No
Number of Sampled Component Spectra: 1
Spectrometers: USB4C02835
Integration Time (usec): 10000 (USB4C02835)
Spectra Averaged: 1 (USB4C02835)
Boxcar Smoothing: 0 (USB4C02835)
Correct for Electrical Dark: No (USB4C02835)
Strobe/Lamp Enabled: No (USB4C02835)
Correct for Detector Non-linearity: No (USB4C02835)
Correct for Stray Light: No (USB4C02835)
Number of Pixels in Processed Spectrum: 3648
>>>>>Begin Processed Spectral Data<<<<<
177.47	1261.55
177.69	1261.55
177.91	1261.55
178.13	1241.07
178.36	1247.21
178.58	1282.03
178.80	1275.88
179.02	1247.21
179.24	1249.26
179.46	1224.69
179.68	1298.41
179.90	1255.40
180.13	1302.51
180.35	1267.69
180.57	1257.45
180.79	1251.31
181.01	1243.12
181.23	1230.83
181.45	1271.79
181.67	1277.93
181.90	1259.50
182.12	1214.45
182.34	1302.51
182.56	1271.79
182.78	1314.80
183.00	1212.40
183.22	1308.65
183.44	1259.50
183.66	1253.36
183.89	1249.26
184.11	1308.65
184.33	1222.64
184.55	1267.69
184.77	1257.45
184.99	1282.03
185.21	1257.45
185.43	1259.50
185.65	1294.32
185.87	1290.22
186.10	1245.16
186.32	1232.88
186.54	1255.40
186.76	1253.36
186.98	1331.18
187.20	1329.13
187.42	1337.32
187.64	1337.32
187.86	1228.78
188.08	1275.88
188.30	1275.88
188.52	1286.12
188.75	1222.64
188.97	1306.60
189.19	1257.45
189.41	1302.51
189.63	1331.18
189.85	1273.84
190.07	1214.45
190.29	1322.99
190.51	1275.88
190.73	1239.02
190.95	1259.50
191.17	1255.40
191.39	1286.12
191.61	1329.13
191.84	1275.88
192.06	1306.60
192.28	1366.00
192.50	1236.97
192.72	1265.64
192.94	1288.17
193.16	1267.69
193.38	1224.69
193.60	1202.16
193.82	1296.36
194.04	1275.88
194.26	1292.27
194.48	1206.25
194.70	1212.40
194.92	1271.79
195.14	1228.78
195.36	1265.64
195.58	1286.12
195.80	1331.18
196.02	1204.21
196.24	1230.83
196.46	1247.21
196.69	1273.84
196.91	1277.93
197.13	1261.55
197.35	1239.02
197.57	1232.88
197.79	1183.73
198.01	1191.92
198.23	1327.08
198.45	1230.83
198.67	1216.49
198.89	1325.04
199.11	1224.69
199.33	1333.23
199.55	1220.59
199.77	1234.93
199.99	1236.97
200.21	1167.34
200.43	1269.74
200.65	1292.27
200.87	1255.40
201.09	1267.69
201.31	1261.55
201.53	1222.64
201.75	1249.26
201.97	1245.16
202.19	1171.44
202.41	1257.45
202.63	1263.60
202.85	1265.64
203.07	1236.97
203.29	1286.12
203.51	1267.69
203.73	1243.12
203.95	1189.87
204.17	1249.26
204.39	1222.64
204.61	1249.26
204.83	1232.88
205.05	1277.93
205.27	1243.12
205.49	1224.69
205.71	1241.07
205.93	1210.35
206.15	1290.22
206.37	1265.64
206.59	1220.59
206.81	1236.97
207.03	1325.04
207.25	1198.06
207.47	1259.50
207.69	1241.07
207.91	1298.41
208.13	1234.93
208.34	1253.36
208.56	1245.16
208.78	1245.16
209.00	1290.22
209.22	1198.06
209.44	1335.28
209.66	1224.69
209.88	1284.08
210.10	1273.84
210.32	1290.22
210.54	1245.16
210.76	1269.74
210.98	1320.94
211.20	1298.41
211.42	1286.12
211.64	1247.21
211.86	1331.18
212.08	1284.08
212.30	1247.21
212.52	1269.74
212.74	1355.76
212.96	1267.69
213.17	1288.17
213.39	1257.45
213.61	1312.75
213.83	1243.12
214.05	1243.12
214.27	1282.03
214.49	1304.56
214.71	1310.70
214.93	1337.32
215.15	1271.79
215.37	1228.78
215.59	1290.22
215.81	1320.94
216.03	1306.60
216.24	1288.17
216.46	1257.45
216.68	1177.58
216.90	1294.32
217.12	1310.70
217.34	1300.46
217.56	1249.26
217.78	1204.21
218.00	1290.22
218.22	1230.83
218.44	1275.88
218.66	1226.73
218.87	1273.84
219.09	1249.26
219.31	1245.16
219.53	1271.79
219.75	1284.08
219.97	1234.93
220.19	1236.97
220.41	1261.55
220.63	1290.22
220.85	1320.94
221.06	1275.88
221.28	1261.55
221.50	1249.26
221.72	1259.50
221.94	1261.55
222.16	1308.65
222.38	1204.21
222.60	1241.07
222.82	1298.41
223.03	1282.03
223.25	1269.74
223.47	1294.32
223.69	1275.88
223.91	1249.26
224.13	1302.51
224.35	1255.40
224.57	1259.50
224.78	1308.65
225.00	1320.94
225.22	1271.79
225.44	1218.54
225.66	1257.45
225.88	1249.26
226.10	1296.36
226.32	1300.46
226.53	1294.32
226.75	1345.52
226.97	1294.32
227.19	1236.97
227.41	1230.83
227.63	1249.26
227.85	1308.65
228.06	1292.27
228.28	1308.65
228.50	1310.70
228.72	1245.16
228.94	1255.40
229.16	1320.94
229.37	1282.03
229.59	1296.36
229.81	1290.22
230.03	1196.01
230.25	1298.41
230.47	1302.51
230.69	1255.40
230.90	1253.36
231.12	1290.22
231.34	1316.84
231.56	1263.60
231.78	1304.56
232.00	1265.64
232.21	1261.55
232.43	1296.36
232.65	1312.75
232.87	1261.55
233.09	1271.79
233.30	1322.99
233.52	1255.40
233.74	1200.11
233.96	1286.12
234.18	1241.07
234.40	1286.12
234.61	1308.65
234.83	1198.06
235.05	1275.88
235.27	1286.12
235.49	1288.17
235.70	1251.31
235.92	1273.84
236.14	1320.94
236.36	1312.75
236.58	1228.78
236.79	1277.93
237.01	1345.52
237.23	1286.12
237.45	1251.31
237.67	1251.31
237.88	1228.78
238.10	1253.36
238.32	1259.50
238.54	1279.98
238.76	1349.61
238.97	1261.55
239.19	1273.84
239.41	1296.36
239.63	1294.32
239.85	1257.45
240.06	1304.56
240.28	1247.21
240.50	1294.32
240.72	1298.41
240.93	1271.79
241.15	1200.11
241.37	1277.93
241.59	1236.97
241.81	1316.84
242.02	1263.60
242.24	1298.41
242.46	1306.60
242.68	1249.26
242.89	1257.45
243.11	1298.41
243.33	1161.20
243.55	1232.88
243.76	1249.26
243.98	1273.84
244.20	1265.64
244.42	1259.50
244.64	1288.17
244.85	1273.84
245.07	1296.36
245.29	1249.26
245.51	1302.51
245.72	1277.93
245.94	1212.40
246.16	1236.97
246.38	1245.16
246.59	1286.12
246.81	1243.12
247.03	1267.69
247.24	1202.16
247.46	1208.30
247.68	1255.40
247.90	1267.69
248.11	1220.59
248.33	1277.93
248.55	1306.60
248.77	1265.64
248.98	1288.17
249.20	1224.69
249.42	1198.06
249.64	1304.56
249.85	1263.60
250.07	1251.31
250.29	1304.56
250.50	1267.69
250.72	1308.65
250.94	1241.07
251.16	1255.40
251.37	1312.75
251.59	1198.06
251.81	1251.31
252.02	1314.80
252.24	1286.12
252.46	1384.43
252.68	1251.31
252.89	1216.49
253.11	1308.65
253.33	1339.37
253.54	1298.41
253.76	1204.21
253.98	1249.26
254.20	1300.46
254.41	1222.64
254.63	1288.17
254.85	1331.18
255.06	1318.89
255.28	1312.75
255.50	1255.40
255.71	1279.98
255.93	1269.74
256.15	1245.16
256.36	1290.22
256.58	1241.07
256.80	1208.30
257.02	1286.12
257.23	1273.84
257.45	1261.55
257.67	1290.22
257.88	1224.69
258.10	1249.26
258.32	1253.36
258.53	1220.59
258.75	1216.49
258.97	1329.13
259.18	1275.88
259.40	1282.03
259.62	1196.01
259.83	1314.80
260.05	1251.31
260.27	1255.40
260.48	1267.69
260.70	1265.64
260.92	1339.37
261.13	1224.69
261.35	1239.02
261.57	1306.60
261.78	1302.51
262.00	1241.07
262.22	1320.94
262.43	1329.13
262.65	1261.55
262.86	1302.51
263.08	1304.56
263.30	1241.07
263.51	1247.21
263.73	1282.03
263.95	1282.03
264.16	1218.54
264.38	1290.22
264.60	1249.26
264.81	1296.36
265.03	1226.73
265.25	1345.52
265.46	1224.69
265.68	1267.69
265.89	1282.03
266.11	1228.78
266.33	1241.07
266.54	1218.54
266.76	1314.80
266.98	1214.45
267.19	1349.61
267.41	1259.50
267.62	1284.08
267.84	1249.26
268.06	1259.50
268.27	1292.27
268.49	1239.02
268.70	1355.76
268.92	1249.26
269.14	1251.31
269.35	1177.58
269.57	1243.12
269.79	1249.26
270.00	1251.31
270.22	1316.84
270.43	1267.69
270.65	1259.50
270.87	1318.89
271.08	1327.08
271.30	1234.93
271.51	1318.89
271.73	1228.78
271.95	1277.93
272.16	1273.84
272.38	1271.79
272.59	1296.36
272.81	1286.12
273.02	1228.78
273.24	1308.65
273.46	1335.28
273.67	1236.97
273.89	1308.65
274.10	1210.35
274.32	1286.12
274.54	1222.64
274.75	1308.65
274.97	1273.84
275.18	1234.93
275.40	1265.64
275.61	1310.70
275.83	1232.88
276.05	1228.78
276.26	1255.40
276.48	1234.93
276.69	1259.50
276.91	1243.12
277.12	1296.36
277.34	1220.59
277.55	1236.97
277.77	1277.93
277.99	1191.92
278.20	1267.69
278.42	1271.79
278.63	1263.60
278.85	1296.36
279.06	1288.17
279.28	1302.51
279.49	1325.04
279.71	1263.60
279.93	1269.74
280.14	1288.17
280.36	1214.45
280.57	1302.51
280.79	1181.68
281.00	1284.08
281.22	1257.45
281.43	1320.94
281.65	1257.45
281.86	1214.45
282.08	1263.60
282.29	1202.16
282.51	1191.92
282.73	1234.93
282.94	1339.37
283.16	1214.45
283.37	1282.03
283.59	1349.61
283.80	1290.22
284.02	1296.36
284.23	1306.60
284.45	1312.75
284.66	1226.73
284.88	1245.16
285.09	1167.34
285.31	1251.31
285.52	1230.83
285.74	1320.94
285.95	1257.45
286.17	1284.08
286.38	1273.84
286.60	1310.70
286.81	1302.51
287.03	1275.88
287.24	1216.49
287.46	1329.13
287.67	1318.89
287.89	1255.40
288.10	1282.03
288.32	1234.93
288.53	1249.26
288.75	1261.55
288.96	1261.55
289.18	1347.56
289.39	1226.73
289.61	1300.46
289.82	1306.60
290.04	1267.69
290.25	1290.22
290.47	1247.21
290.68	1206.25
290.90	1296.36
291.11	1239.02
291.33	1314.80
291.54	1282.03
291.76	1189.87
291.97	1284.08
292.18	1310.70
292.40	1239.02
292.61	1296.36
292.83	1261.55
293.04	1312.75
293.26	1300.46
293.47	1273.84
293.69	1216.49
293.90	1300.46
294.12	1282.03
294.33	1265.64
294.55	1224.69
294.76	1228.78
294.97	1249.26
295.19	1189.87
295.40	1331.18
295.62	1290.22
295.83	1267.69
296.05	1349.61
296.26	1343.47
296.48	1224.69
296.69	1273.84
296.90	1263.60
297.12	1218.54
297.33	1337.32
297.55	1308.65
297.76	1210.35
297.98	1269.74
298.19	1253.36
298.41	1239.02
298.62	1257.45
298.83	1232.88
299.05	1320.94
299.26	1267.69
299.48	1292.27
299.69	1251.31
299.90	1257.45
300.12	1284.08
300.33	1294.32
300.55	1261.55
300.76	1243.12
300.98	1331.18
301.19	1286.12
301.40	1202.16
301.62	1249.26
301.83	1202.16
302.05	1310.70
302.26	1271.79
302.47	1218.54
302.69	1286.12
302.90	1247.21
303.12	1212.40
303.33	1335.28
303.54	1300.46
303.76	1247.21
303.97	1314.80
304.19	1279.98
304.40	1302.51
304.61	1292.27
304.83	1306.60
305.04	1325.04
305.26	1300.46
305.47	1236.97
305.68	1200.11
305.90	1259.50
306.11	1316.84
306.33	1288.17
306.54	1265.64
306.75	1275.88
306.97	1243.12
307.18	1257.45
307.39	1265.64
307.61	1230.83
307.82	1224.69
308.04	1257.45
308.25	1253.36
308.46	1277.93
308.68	1290.22
308.89	1347.56
309.10	1257.45
309.32	1333.23
309.53	1271.79
309.74	1290.22
309.96	1206.25
310.17	1261.55
310.39	1257.45
310.60	1255.40
310.81	1232.88
311.03	1249.26
311.24	1271.79
311.45	1300.46
311.67	1202.16
311.88	1228.78
312.09	1296.36
312.31	1198.06
312.52	1327.08
312.73	1228.78
312.95	1257.45
313.16	1320.94
313.37	1210.35
313.59	1304.56
313.80	1222.64
314.01	1255.40
314.23	1236.97
314.44	1222.64
314.65	1241.07
314.87	1261.55
315.08	1333.23
315.29	1279.98
315.51	1257.45
315.72	1245.16
315.93	1187.82
316.15	1247.21
316.36	1269.74
316.57	1273.84
316.79	1353.71
317.00	1265.64
317.21	1234.93
317.43	1202.16
317.64	1267.69
317.85	1282.03
318.07	1351.66
318.28	1306.60
318.49	1247.21
318.70	1249.26
318.92	1314.80
319.13	1329.13
319.34	1265.64
319.56	1284.08
319.77	1257.45
319.98	1304.56
320.20	1265.64
320.41	1236.97
320.62	1204.21
320.83	1265.64
321.05	1249.26
321.26	1265.64
321.47	1251.31
321.69	1191.92
321.90	1234.93
322.11	1284.08
322.32	1284.08
322.54	1292.27
322.75	1308.65
322.96	1353.71
323.18	1232.88
323.39	1249.26
323.60	1224.69
323.81	1273.84
324.03	1273.84
324.24	1349.61
324.45	1236.97
324.66	1263.60
324.88	1316.84
325.09	1271.79
325.30	1261.55
325.52	1288.17
325.73	1245.16
325.94	1284.08
326.15	1275.88
326.37	1236.97
326.58	1277.93
326.79	1249.26
327.00	1216.49
327.22	1169.39
327.43	1234.93
327.64	1304.56
327.85	1312.75
328.07	1312.75
328.28	1267.69
328.49	1286.12
328.70	1275.88
328.92	1277.93
329.13	1187.82
329.34	1226.73
329.55	1286.12
329.76	1212.40
329.98	1234.93
330.19	1312.75
330.40	1251.31
330.61	1361.90
330.83	1263.60
331.04	1269.74
331.25	1243.12
331.46	1290.22
331.68	1218.54
331.89	1300.46
332.10	1247.21
332.31	1261.55
332.52	1226.73
332.74	1249.26
332.95	1224.69
333.16	1288.17
333.37	1310.70
333.58	1298.41
333.80	1292.27
334.01	1251.31
334.22	1304.56
334.43	1277.93
334.64	1271.79
334.86	1230.83
335.07	1234.93
335.28	1269.74
335.49	1366.00
335.70	1275.88
335.92	1286.12
336.13	1279.98
336.34	1308.65
336.55	1292.27
336.76	1273.84
336.98	1228.78
337.19	1253.36
337.40	1261.55
337.61	1304.56
337.82	1269.74
338.04	1308.65
338.25	1273.84
338.46	1251.31
338.67	1286.12
338.88	1363.95
339.09	1273.84
339.31	1226.73
339.52	1234.93
339.73	1249.26
339.94	1333.23
340.15	1226.73
340.36	1347.56
340.58	1177.58
340.79	1341.42
341.00	1271.79
341.21	1265.64
341.42	1261.55
341.63	1241.07
341.85	1341.42
342.06	1249.26
342.27	1290.22
342.48	1331.18
342.69	1206.25
342.90	1292.27
343.12	1144.81
343.33	1337.32
343.54	1232.88
343.75	1261.55
343.96	1302.51
344.17	1286.12
344.38	1239.02
344.60	1239.02
344.81	1286.12
345.02	1236.97
345.23	1300.46
345.44	1282.03
345.65	1214.45
345.86	1243.12
346.07	1208.30
346.29	1267.69
346.50	1284.08
346.71	1284.08
346.92	1271.79
347.13	1253.36
347.34	1265.64
347.55	1288.17
347.76	1236.97
347.98	1290.22
348.19	1265.64
348.40	1269.74
348.61	1241.07
348.82	1224.69
349.03	1300.46
349.24	1318.89
349.45	1290.22
349.66	1300.46
349.88	1279.98
350.09	1277.93
350.30	1226.73
350.51	1267.69
350.72	1366.00
350.93	1275.88
351.14	1271.79
351.35	1306.60
351.56	1320.94
351.77	1255.40
351.99	1265.64
352.20	1286.12
352.41	1214.45
352.62	1292.27
352.83	1257.45
353.04	1263.60
353.25	1308.65
353.46	1249.26
353.67	1306.60
353.88	1265.64
354.09	1249.26
354.30	1255.40
354.52	1255.40
354.73	1239.02
354.94	1239.02
355.15	1294.32
355.36	1320.94
355.57	1232.88
355.78	1300.46
355.99	1265.64
356.20	1275.88
356.41	1314.80
356.62	1226.73
356.83	1310.70
357.04	1298.41
357.25	1249.26
357.46	1263.60
357.68	1236.97
357.89	1265.64
358.10	1218.54
358.31	1261.55
358.52	1296.36
358.73	1277.93
358.94	1228.78
359.15	1361.90
359.36	1239.02
359.57	1259.50
359.78	1214.45
359.99	1269.74
360.20	1251.31
360.41	1277.93
360.62	1277.93
360.83	1239.02
361.04	1316.84
361.25	1327.08
361.46	1290.22
361.67	1288.17
361.88	1345.52
362.09	1302.51
362.30	1277.93
362.51	1310.70
362.72	1290.22
362.93	1226.73
363.14	1298.41
363.35	1269.74
363.56	1251.31
363.78	1310.70
363.99	1282.03
364.20	1290.22
364.41	1251.31
364.62	1228.78
364.83	1298.41
365.04	1257.45
365.25	1241.07
365.46	1335.28
365.67	1282.03
365.88	1216.49
366.09	1306.60
366.30	1306.60
366.51	1302.51
366.72	1243.12
366.93	1232.88
367.14	1265.64
367.35	1249.26
367.56	1275.88
367.77	1331.18
367.98	1206.25
368.18	1277.93
368.39	1310.70
368.60	1253.36
368.81	1337.32
369.02	1247.21
369.23	1198.06
369.44	1269.74
369.65	1255.40
369.86	1290.22
370.07	1314.80
370.28	1325.04
370.49	1277.93
370.70	1294.32
370.91	1255.40
371.12	1216.49
371.33	1210.35
371.54	1294.32
371.75	1267.69
371.96	1245.16
372.17	1286.12
372.38	1273.84
372.59	1329.13
372.80	1251.31
373.01	1247.21
373.22	1277.93
373.43	1337.32
373.64	1320.94
373.85	1236.97
374.06	1247.21
374.26	1202.16
374.47	1206.25
374.68	1294.32
374.89	1298.41
375.10	1277.93
375.31	1265.64
375.52	1257.45
375.73	1300.46
375.94	1236.97
376.15	1245.16
376.36	1200.11
376.57	1357.80
376.78	1236.97
376.99	1331.18
377.20	1277.93
377.40	1282.03
377.61	1267.69
377.82	1220.59
378.03	1265.64
378.24	1230.83
378.45	1284.08
378.66	1245.16
378.87	1232.88
379.08	1277.93
379.29	1200.11
379.50	1271.79
379.71	1230.83
379.91	1298.41
380.12	1222.64
380.33	1259.50
380.54	1265.64
380.75	1234.93
380.96	1316.84
381.17	1341.42
381.38	1298.41
381.59	1241.07
381.80	1275.88
382.00	1288.17
382.21	1267.69
382.42	1236.97
382.63	1259.50
382.84	1269.74
383.05	1306.60
383.26	1314.80
383.47	1290.22
383.68	1314.80
383.88	1245.16
384.09	1265.64
384.30	1304.56
384.51	1286.12
384.72	1247.21
384.93	1314.80
385.14	1239.02
385.35	1249.26
385.55	1298.41
385.76	1232.88
385.97	1341.42
386.18	1251.31
386.39	1230.83
386.60	1261.55
386.81	1239.02
387.02	1325.04
387.22	1314.80
387.43	1267.69
387.64	1239.02
387.85	1331.18
388.06	1232.88
388.27	1259.50
388.48	1288.17
388.68	1222.64
388.89	1257.45
389.10	1245.16
389.31	1226.73
389.52	1222.64
389.73	1257.45
389.93	1312.75
390.14	1275.88
390.35	1259.50
390.56	1261.55
390.77	1306.60
390.98	1224.69
391.18	1261.55
391.39	1279.98
391.60	1255.40
391.81	1218.54
392.02	1282.03
392.23	1255.40
392.43	1304.56
392.64	1269.74
392.85	1286.12
393.06	1304.56
393.27	1245.16
393.47	1320.94
393.68	1298.41
393.89	1249.26
394.10	1226.73
394.31	1302.51
394.52	1271.79
394.72	1284.08
394.93	1230.83
395.14	1320.94
395.35	1218.54
395.56	1253.36
395.76	1249.26
395.97	1257.45
396.18	1232.88
396.39	1232.88
396.60	1288.17
396.80	1304.56
397.01	1306.60
397.22	1249.26
397.43	1263.60
397.64	1251.31
397.84	1239.02
398.05	1245.16
398.26	1271.79
398.47	1261.55
398.67	1290.22
398.88	1253.36
399.09	1226.73
399.30	1267.69
399.51	1200.11
399.71	1322.99
399.92	1320.94
400.13	1245.16
400.34	1298.41
400.54	1273.84
400.75	1284.08
400.96	1271.79
401.17	1263.60
401.37	1224.69
401.58	1341.42
401.79	1267.69
402.00	1224.69
402.21	1327.08
402.41	1261.55
402.62	1251.31
402.83	1239.02
403.04	1298.41
403.24	1263.60
403.45	1277.93
403.66	1331.18
403.87	1298.41
404.07	1310.70
404.28	1193.97
404.49	1267.69
404.70	1265.64
404.90	1304.56
405.11	1230.83
405.32	1241.07
405.52	1239.02
405.73	1275.88
405.94	1286.12
406.15	1265.64
406.35	1257.45
406.56	1253.36
406.77	1245.16
406.98	1320.94
407.18	1239.02
407.39	1290.22
407.60	1220.59
407.80	1267.69
408.01	1277.93
408.22	1312.75
408.43	1265.64
408.63	1255.40
408.84	1247.21
409.05	1275.88
409.25	1257.45
409.46	1294.32
409.67	1314.80
409.88	1312.75
410.08	1312.75
410.29	1247.21
410.50	1275.88
410.70	1243.12
410.91	1220.59
411.12	1302.51
411.32	1230.83
411.53	1210.35
411.74	1220.59
411.95	1273.84
412.15	1314.80
412.36	1222.64
412.57	1234.93
412.77	1167.34
412.98	1226.73
413.19	1261.55
413.39	1261.55
413.60	1290.22
413.81	1325.04
414.01	1263.60
414.22	1277.93
414.43	1292.27
414.63	1198.06
414.84	1339.37
415.05	1279.98
415.25	1304.56
415.46	1257.45
415.67	1279.98
415.87	1249.26
416.08	1228.78
416.29	1273.84
416.49	1282.03
416.70	1310.70
416.91	1263.60
417.11	1306.60
417.32	1269.74
417.53	1247.21
417.73	1232.88
417.94	1204.21
418.15	1261.55
418.35	1306.60
418.56	1251.31
418.77	1271.79
418.97	1269.74
419.18	1222.64
419.38	1284.08
419.59	1196.01
419.80	1232.88
420.00	1320.94
420.21	1329.13
420.42	1292.27
420.62	1331.18
420.83	1322.99
421.04	1357.80
421.24	1257.45
421.45	1273.84
421.65	1263.60
421.86	1320.94
422.07	1331.18
422.27	1200.11
422.48	1286.12
422.69	1216.49
422.89	1310.70
423.10	1214.45
423.30	1314.80
423.51	1294.32
423.72	1181.68
423.92	1243.12
424.13	1222.64
424.33	1267.69
424.54	1234.93
424.75	1261.55
424.95	1320.94
425.16	1277.93
425.36	1241.07
425.57	1226.73
425.78	1288.17
425.98	1282.03
426.19	1175.53
426.39	1226.73
426.60	1183.73
426.81	1191.92
427.01	1271.79
427.22	1243.12
427.42	1318.89
427.63	1351.66
427.83	1275.88
428.04	1290.22
428.25	1257.45
428.45	1292.27
428.66	1249.26
428.86	1269.74
429.07	1257.45
429.28	1241.07
429.48	1241.07
429.69	1241.07
429.89	1347.56
430.10	1232.88
430.30	1212.40
430.51	1296.36
430.71	1249.26
430.92	1239.02
431.13	1251.31
431.33	1288.17
431.54	1236.97
431.74	1247.21
431.95	1253.36
432.15	1339.37
432.36	1245.16
432.56	1304.56
432.77	1302.51
432.98	1257.45
433.18	1345.52
433.39	1269.74
433.59	1255.40
433.80	1316.84
434.00	1210.35
434.21	1273.84
434.41	1318.89
434.62	1316.84
434.82	1245.16
435.03	1247.21
435.23	1273.84
435.44	1222.64
435.64	1314.80
435.85	1234.93
436.06	1284.08
436.26	1253.36
436.47	1224.69
436.67	1290.22
436.88	1253.36
437.08	1290.22
437.29	1236.97
437.49	1286.12
437.70	1284.08
437.90	1357.80
438.11	1222.64
438.31	1282.03
438.52	1239.02
438.72	1298.41
438.93	1243.12
439.13	1239.02
439.34	1265.64
439.54	1273.84
439.75	1290.22
439.95	1275.88
440.16	1191.92
440.36	1292.27
440.57	1261.55
440.77	1300.46
440.98	1286.12
441.18	1269.74
441.39	1282.03
441.59	1378.28
441.80	1322.99
442.00	1259.50
442.21	1288.17
442.41	1290.22
442.62	1275.88
442.82	1347.56
443.02	1245.16
443.23	1226.73
443.43	1308.65
443.64	1361.90
443.84	1239.02
444.05	1312.75
444.25	1212.40
444.46	1226.73
444.66	1189.87
444.87	1329.13
445.07	1284.08
445.28	1304.56
445.48	1322.99
445.69	1322.99
445.89	1243.12
446.09	1275.88
446.30	1284.08
446.50	1247.21
446.71	1249.26
446.91	1220.59
447.12	1255.40
447.32	1345.52
447.53	1284.08
447.73	1304.56
447.93	1288.17
448.14	1273.84
448.34	1245.16
448.55	1294.32
448.75	1284.08
448.96	1282.03
449.16	1243.12
449.36	1304.56
449.57	1226.73
449.77	1265.64
449.98	1226.73
450.18	1304.56
450.39	1284.08
450.59	1265.64
450.79	1255.40
451.00	1282.03
451.20	1214.45
451.41	1277.93
451.61	1320.94
451.81	1310.70
452.02	1241.07
452.22	1265.64
452.43	1290.22
452.63	1249.26
