SpectraSuite Data File
++++++++++++++++++++++++++++++++++++
Date: Sun Apr 03 19:55:36 CEST 2016
User: root
Dark Spectrum Present: No
Reference Spectrum Present: No
Number of Sampled Component Spectra: 1
Spectrometers: USB4C02835
Integration Time (usec): 10000 (USB4C02835)
Spectra Averaged: 1 (USB4C02835)
Boxcar Smoothing: 0 (USB4C02835)
Correct for Electrical Dark: No (USB4C02835)
Strobe/Lamp Enabled: No (USB4C02835)
Correct for Detector Non-linearity: No (USB4C02835)
Correct for Stray Light: No (USB4C02835)
Number of Pixels in Processed Spectrum: 3648
>>>>>Begin Processed Spectral Data<<<<<
177.47	1226.73
177.69	1226.73
177.91	1226.73
178.13	1218.54
178.36	1294.32
178.58	1245.16
178.80	1247.21
179.02	1257.45
179.24	1200.11
179.46	1218.54
179.68	1263.60
179.90	1275.88
180.13	1331.18
180.35	1212.40
180.57	1271.79
180.79	1292.27
181.01	1318.89
181.23	1351.66
181.45	1359.85
181.67	1224.69
181.90	1322.99
182.12	1230.83
182.34	1339.37
182.56	1320.94
182.78	1292.27
183.00	1245.16
183.22	1224.69
183.44	1310.70
183.66	1304.56
183.89	1255.40
184.11	1275.88
184.33	1277.93
184.55	1220.59
184.77	1277.93
184.99	1325.04
185.21	1206.25
185.43	1273.84
185.65	1273.84
185.87	1228.78
186.10	1261.55
186.32	1288.17
186.54	1351.66
186.76	1181.68
186.98	1290.22
187.20	1271.79
187.42	1284.08
187.64	1259.50
187.86	1257.45
188.08	1331.18
188.30	1306.60
188.52	1304.56
188.75	1253.36
188.97	1267.69
189.19	1251.31
189.41	1232.88
189.63	1288.17
189.85	1290.22
190.07	1234.93
190.29	1234.93
190.51	1243.12
190.73	1261.55
190.95	1335.28
191.17	1241.07
191.39	1271.79
191.61	1312.75
191.84	1318.89
192.06	1316.84
192.28	1259.50
192.50	1269.74
192.72	1214.45
192.94	1267.69
193.16	1273.84
193.38	1241.07
193.60	1282.03
193.82	1236.97
194.04	1294.32
194.26	1245.16
194.48	1290.22
194.70	1279.98
194.92	1265.64
195.14	1279.98
195.36	1271.79
195.58	1284.08
195.80	1286.12
196.02	1265.64
196.24	1312.75
196.46	1234.93
196.69	1224.69
196.91	1269.74
197.13	1267.69
197.35	1241.07
197.57	1247.21
197.79	1302.51
198.01	1267.69
198.23	1243.12
198.45	1271.79
198.67	1253.36
198.89	1193.97
199.11	1306.60
199.33	1292.27
199.55	1241.07
199.77	1279.98
199.99	1269.74
200.21	1259.50
200.43	1259.50
200.65	1228.78
200.87	1273.84
201.09	1335.28
201.31	1300.46
201.53	1243.12
201.75	1296.36
201.97	1216.49
202.19	1343.47
202.41	1343.47
202.63	1273.84
202.85	1265.64
203.07	1282.03
203.29	1306.60
203.51	1255.40
203.73	1271.79
203.95	1306.60
204.17	1234.93
204.39	1236.97
204.61	1320.94
204.83	1294.32
205.05	1236.97
205.27	1259.50
205.49	1249.26
205.71	1290.22
205.93	1222.64
206.15	1257.45
206.37	1257.45
206.59	1259.50
206.81	1263.60
207.03	1302.51
207.25	1284.08
207.47	1331.18
207.69	1232.88
207.91	1226.73
208.13	1243.12
208.34	1255.40
208.56	1232.88
208.78	1255.40
209.00	1282.03
209.22	1314.80
209.44	1298.41
209.66	1226.73
209.88	1263.60
210.10	1263.60
210.32	1265.64
210.54	1290.22
210.76	1302.51
210.98	1273.84
211.20	1251.31
211.42	1171.44
211.64	1222.64
211.86	1257.45
212.08	1249.26
212.30	1218.54
212.52	1249.26
212.74	1286.12
212.96	1228.78
213.17	1255.40
213.39	1290.22
213.61	1357.80
213.83	1253.36
214.05	1300.46
214.27	1312.75
214.49	1277.93
214.71	1273.84
214.93	1232.88
215.15	1345.52
215.37	1304.56
215.59	1257.45
215.81	1265.64
216.03	1251.31
216.24	1308.65
216.46	1318.89
216.68	1243.12
216.90	1306.60
217.12	1341.42
217.34	1222.64
217.56	1314.80
217.78	1298.41
218.00	1306.60
218.22	1263.60
218.44	1249.26
218.66	1271.79
218.87	1275.88
219.09	1353.71
219.31	1277.93
219.53	1253.36
219.75	1288.17
219.97	1241.07
220.19	1320.94
220.41	1261.55
220.63	1322.99
220.85	1241.07
221.06	1271.79
221.28	1275.88
221.50	1304.56
221.72	1320.94
221.94	1290.22
222.16	1335.28
222.38	1298.41
222.60	1275.88
222.82	1247.21
223.03	1277.93
223.25	1329.13
223.47	1273.84
223.69	1339.37
223.91	1255.40
224.13	1271.79
224.35	1312.75
224.57	1208.30
224.78	1220.59
225.00	1259.50
225.22	1255.40
225.44	1251.31
225.66	1300.46
225.88	1265.64
226.10	1304.56
226.32	1228.78
226.53	1220.59
226.75	1261.55
226.97	1267.69
227.19	1331.18
227.41	1269.74
227.63	1288.17
227.85	1339.37
228.06	1247.21
228.28	1249.26
228.50	1312.75
228.72	1249.26
228.94	1314.80
229.16	1261.55
229.37	1277.93
229.59	1318.89
229.81	1282.03
230.03	1329.13
230.25	1230.83
230.47	1234.93
230.69	1284.08
230.90	1333.23
231.12	1275.88
231.34	1257.45
231.56	1239.02
231.78	1290.22
232.00	1288.17
232.21	1277.93
232.43	1277.93
232.65	1318.89
232.87	1312.75
233.09	1243.12
233.30	1273.84
233.52	1312.75
233.74	1290.22
233.96	1236.97
234.18	1325.04
234.40	1282.03
234.61	1304.56
234.83	1290.22
235.05	1269.74
235.27	1347.56
235.49	1310.70
235.70	1236.97
235.92	1253.36
236.14	1273.84
236.36	1273.84
236.58	1273.84
236.79	1173.49
237.01	1282.03
237.23	1335.28
237.45	1269.74
237.67	1271.79
237.88	1294.32
238.10	1167.34
238.32	1333.23
238.54	1279.98
238.76	1277.93
238.97	1316.84
239.19	1224.69
239.41	1249.26
239.63	1271.79
239.85	1322.99
240.06	1284.08
240.28	1298.41
240.50	1294.32
240.72	1173.49
240.93	1183.73
241.15	1263.60
241.37	1224.69
241.59	1208.30
241.81	1236.97
242.02	1331.18
242.24	1249.26
242.46	1243.12
242.68	1275.88
242.89	1257.45
243.11	1236.97
243.33	1218.54
243.55	1189.87
243.76	1355.76
243.98	1259.50
244.20	1228.78
244.42	1259.50
244.64	1312.75
244.85	1200.11
245.07	1228.78
245.29	1312.75
245.51	1310.70
245.72	1345.52
245.94	1298.41
246.16	1255.40
246.38	1277.93
246.59	1232.88
246.81	1333.23
247.03	1239.02
247.24	1314.80
247.46	1271.79
247.68	1204.21
247.90	1308.65
248.11	1265.64
248.33	1292.27
248.55	1255.40
248.77	1230.83
248.98	1288.17
249.20	1314.80
249.42	1290.22
249.64	1255.40
249.85	1288.17
250.07	1265.64
250.29	1361.90
250.50	1257.45
250.72	1247.21
250.94	1196.01
251.16	1236.97
251.37	1277.93
251.59	1236.97
251.81	1269.74
252.02	1277.93
252.24	1296.36
252.46	1259.50
252.68	1282.03
252.89	1273.84
253.11	1304.56
253.33	1284.08
253.54	1320.94
253.76	1325.04
253.98	1228.78
254.20	1241.07
254.41	1257.45
254.63	1236.97
254.85	1265.64
255.06	1226.73
255.28	1239.02
255.50	1245.16
255.71	1347.56
255.93	1259.50
256.15	1245.16
256.36	1296.36
256.58	1220.59
256.80	1259.50
257.02	1261.55
257.23	1304.56
257.45	1277.93
257.67	1310.70
257.88	1249.26
258.10	1351.66
258.32	1304.56
258.53	1247.21
258.75	1300.46
258.97	1255.40
259.18	1267.69
259.40	1193.97
259.62	1327.08
259.83	1308.65
260.05	1275.88
260.27	1304.56
260.48	1282.03
260.70	1271.79
260.92	1265.64
261.13	1345.52
261.35	1230.83
261.57	1279.98
261.78	1263.60
262.00	1241.07
262.22	1296.36
262.43	1279.98
262.65	1267.69
262.86	1185.77
263.08	1269.74
263.30	1325.04
263.51	1234.93
263.73	1308.65
263.95	1316.84
264.16	1253.36
264.38	1234.93
264.60	1284.08
264.81	1304.56
265.03	1333.23
265.25	1232.88
265.46	1300.46
265.68	1253.36
265.89	1185.77
266.11	1241.07
266.33	1279.98
266.54	1261.55
266.76	1216.49
266.98	1318.89
267.19	1269.74
267.41	1277.93
267.62	1308.65
267.84	1269.74
268.06	1269.74
268.27	1273.84
268.49	1202.16
268.70	1308.65
268.92	1273.84
269.14	1255.40
269.35	1329.13
269.57	1298.41
269.79	1259.50
270.00	1253.36
270.22	1282.03
270.43	1273.84
270.65	1251.31
270.87	1216.49
271.08	1224.69
271.30	1261.55
271.51	1261.55
271.73	1247.21
271.95	1306.60
272.16	1196.01
272.38	1265.64
272.59	1253.36
272.81	1308.65
273.02	1236.97
273.24	1286.12
273.46	1200.11
273.67	1306.60
273.89	1253.36
274.10	1282.03
274.32	1320.94
274.54	1243.12
274.75	1284.08
274.97	1224.69
275.18	1279.98
275.40	1232.88
275.61	1271.79
275.83	1234.93
276.05	1286.12
276.26	1210.35
276.48	1261.55
276.69	1322.99
276.91	1306.60
277.12	1337.32
277.34	1273.84
277.55	1275.88
277.77	1329.13
277.99	1277.93
278.20	1206.25
278.42	1277.93
278.63	1304.56
278.85	1318.89
279.06	1271.79
279.28	1298.41
279.49	1275.88
279.71	1341.42
279.93	1308.65
280.14	1267.69
280.36	1206.25
280.57	1296.36
280.79	1282.03
281.00	1243.12
281.22	1271.79
281.43	1245.16
281.65	1300.46
281.86	1247.21
282.08	1204.21
282.29	1279.98
282.51	1300.46
282.73	1259.50
282.94	1243.12
283.16	1253.36
283.37	1241.07
283.59	1273.84
283.80	1245.16
284.02	1208.30
284.23	1265.64
284.45	1243.12
284.66	1208.30
284.88	1257.45
285.09	1279.98
285.31	1249.26
285.52	1247.21
285.74	1261.55
285.95	1284.08
286.17	1232.88
286.38	1271.79
286.60	1345.52
286.81	1294.32
287.03	1263.60
287.24	1290.22
287.46	1286.12
287.67	1239.02
287.89	1232.88
288.10	1331.18
288.32	1245.16
288.53	1212.40
288.75	1236.97
288.96	1230.83
289.18	1316.84
289.39	1241.07
289.61	1357.80
289.82	1265.64
290.04	1226.73
290.25	1335.28
290.47	1228.78
290.68	1275.88
290.90	1222.64
291.11	1241.07
291.33	1259.50
291.54	1224.69
291.76	1318.89
291.97	1224.69
292.18	1249.26
292.40	1249.26
292.61	1239.02
292.83	1239.02
293.04	1204.21
293.26	1183.73
293.47	1282.03
293.69	1277.93
293.90	1263.60
294.12	1300.46
294.33	1322.99
294.55	1247.21
294.76	1302.51
294.97	1308.65
295.19	1298.41
295.40	1247.21
295.62	1267.69
295.83	1210.35
296.05	1267.69
296.26	1230.83
296.48	1230.83
296.69	1245.16
296.90	1286.12
297.12	1224.69
297.33	1232.88
297.55	1310.70
297.76	1273.84
297.98	1204.21
298.19	1247.21
298.41	1257.45
298.62	1198.06
298.83	1277.93
299.05	1271.79
299.26	1310.70
299.48	1312.75
299.69	1265.64
299.90	1316.84
300.12	1273.84
300.33	1306.60
300.55	1206.25
300.76	1255.40
300.98	1226.73
301.19	1298.41
301.40	1255.40
301.62	1241.07
301.83	1236.97
302.05	1245.16
302.26	1290.22
302.47	1282.03
302.69	1226.73
302.90	1249.26
303.12	1271.79
303.33	1243.12
303.54	1312.75
303.76	1284.08
303.97	1282.03
304.19	1265.64
304.40	1220.59
304.61	1273.84
304.83	1277.93
305.04	1357.80
305.26	1292.27
305.47	1288.17
305.68	1257.45
305.90	1339.37
306.11	1253.36
306.33	1251.31
306.54	1316.84
306.75	1234.93
306.97	1247.21
307.18	1296.36
307.39	1234.93
307.61	1236.97
307.82	1318.89
308.04	1255.40
308.25	1296.36
308.46	1222.64
308.68	1368.04
308.89	1196.01
309.10	1286.12
309.32	1249.26
309.53	1314.80
309.74	1312.75
309.96	1306.60
310.17	1308.65
310.39	1282.03
310.60	1189.87
310.81	1155.05
311.03	1208.30
311.24	1249.26
311.45	1241.07
311.67	1230.83
311.88	1255.40
312.09	1306.60
312.31	1261.55
312.52	1382.38
312.73	1273.84
312.95	1318.89
313.16	1218.54
313.37	1226.73
313.59	1216.49
313.80	1275.88
314.01	1271.79
314.23	1322.99
314.44	1228.78
314.65	1271.79
314.87	1322.99
315.08	1249.26
315.29	1204.21
315.51	1234.93
315.72	1263.60
315.93	1310.70
316.15	1316.84
316.36	1318.89
316.57	1343.47
316.79	1234.93
317.00	1239.02
317.21	1232.88
317.43	1251.31
317.64	1273.84
317.85	1251.31
318.07	1279.98
318.28	1208.30
318.49	1318.89
318.70	1282.03
318.92	1220.59
319.13	1351.66
319.34	1255.40
319.56	1331.18
319.77	1273.84
319.98	1261.55
320.20	1273.84
320.41	1245.16
320.62	1247.21
320.83	1302.51
321.05	1271.79
321.26	1290.22
321.47	1214.45
321.69	1255.40
321.90	1249.26
322.11	1273.84
322.32	1255.40
322.54	1329.13
322.75	1247.21
322.96	1261.55
323.18	1320.94
323.39	1251.31
323.60	1243.12
323.81	1300.46
324.03	1265.64
324.24	1189.87
324.45	1284.08
324.66	1239.02
324.88	1245.16
325.09	1220.59
325.30	1185.77
325.52	1245.16
325.73	1263.60
325.94	1232.88
326.15	1300.46
326.37	1282.03
326.58	1310.70
326.79	1273.84
327.00	1290.22
327.22	1310.70
327.43	1210.35
327.64	1288.17
327.85	1234.93
328.07	1314.80
328.28	1253.36
328.49	1357.80
328.70	1339.37
328.92	1282.03
329.13	1261.55
329.34	1286.12
329.55	1298.41
329.76	1282.03
329.98	1282.03
330.19	1312.75
330.40	1247.21
330.61	1224.69
330.83	1269.74
331.04	1306.60
331.25	1277.93
331.46	1249.26
331.68	1277.93
331.89	1363.95
332.10	1290.22
332.31	1236.97
332.52	1310.70
332.74	1296.36
332.95	1212.40
333.16	1234.93
333.37	1259.50
333.58	1263.60
333.80	1284.08
334.01	1222.64
334.22	1304.56
334.43	1314.80
334.64	1284.08
334.86	1263.60
335.07	1230.83
335.28	1255.40
335.49	1271.79
335.70	1294.32
335.92	1247.21
336.13	1288.17
336.34	1232.88
336.55	1241.07
336.76	1249.26
336.98	1249.26
337.19	1261.55
337.40	1200.11
337.61	1314.80
337.82	1284.08
338.04	1288.17
338.25	1282.03
338.46	1241.07
338.67	1249.26
338.88	1216.49
339.09	1310.70
339.31	1339.37
339.52	1271.79
339.73	1218.54
339.94	1337.32
340.15	1267.69
340.36	1279.98
340.58	1314.80
340.79	1187.82
341.00	1241.07
341.21	1243.12
341.42	1279.98
341.63	1279.98
341.85	1306.60
342.06	1282.03
342.27	1232.88
342.48	1296.36
342.69	1290.22
342.90	1259.50
343.12	1374.19
343.33	1300.46
343.54	1320.94
343.75	1226.73
343.96	1290.22
344.17	1329.13
344.38	1198.06
344.60	1284.08
344.81	1331.18
345.02	1314.80
345.23	1214.45
345.44	1214.45
345.65	1251.31
345.86	1226.73
346.07	1228.78
346.29	1200.11
346.50	1273.84
346.71	1255.40
346.92	1308.65
347.13	1335.28
347.34	1267.69
347.55	1304.56
347.76	1228.78
347.98	1251.31
348.19	1357.80
348.40	1253.36
348.61	1312.75
348.82	1232.88
349.03	1259.50
349.24	1241.07
349.45	1275.88
349.66	1284.08
349.88	1302.51
350.09	1191.92
350.30	1308.65
350.51	1218.54
350.72	1241.07
350.93	1312.75
351.14	1290.22
351.35	1277.93
351.56	1292.27
351.77	1312.75
351.99	1265.64
352.20	1230.83
352.41	1275.88
352.62	1275.88
352.83	1273.84
353.04	1267.69
353.25	1259.50
353.46	1298.41
353.67	1249.26
353.88	1261.55
354.09	1282.03
354.30	1224.69
354.52	1261.55
354.73	1273.84
354.94	1263.60
355.15	1247.21
355.36	1286.12
355.57	1214.45
355.78	1230.83
355.99	1300.46
356.20	1320.94
356.41	1284.08
356.62	1265.64
356.83	1302.51
357.04	1247.21
357.25	1300.46
357.46	1300.46
357.68	1251.31
357.89	1339.37
358.10	1200.11
358.31	1253.36
358.52	1247.21
358.73	1335.28
358.94	1239.02
359.15	1257.45
359.36	1277.93
359.57	1304.56
359.78	1273.84
359.99	1331.18
360.20	1261.55
360.41	1230.83
360.62	1288.17
360.83	1282.03
361.04	1304.56
361.25	1331.18
361.46	1228.78
361.67	1226.73
361.88	1318.89
362.09	1282.03
362.30	1202.16
362.51	1273.84
362.72	1292.27
362.93	1267.69
363.14	1257.45
363.35	1253.36
363.56	1265.64
363.78	1320.94
363.99	1314.80
364.20	1259.50
364.41	1218.54
364.62	1253.36
364.83	1290.22
365.04	1267.69
365.25	1255.40
365.46	1265.64
365.67	1259.50
365.88	1290.22
366.09	1243.12
366.30	1204.21
366.51	1288.17
366.72	1218.54
366.93	1284.08
367.14	1267.69
367.35	1249.26
367.56	1335.28
367.77	1228.78
367.98	1208.30
368.18	1277.93
368.39	1312.75
368.60	1284.08
368.81	1216.49
369.02	1282.03
369.23	1345.52
369.44	1216.49
369.65	1265.64
369.86	1247.21
370.07	1271.79
370.28	1255.40
370.49	1275.88
370.70	1292.27
370.91	1292.27
371.12	1255.40
371.33	1292.27
371.54	1234.93
371.75	1275.88
371.96	1224.69
372.17	1271.79
372.38	1261.55
372.59	1249.26
372.80	1249.26
373.01	1230.83
373.22	1263.60
373.43	1279.98
373.64	1249.26
373.85	1288.17
374.06	1296.36
374.26	1257.45
374.47	1306.60
374.68	1257.45
374.89	1355.76
375.10	1247.21
375.31	1193.97
375.52	1271.79
375.73	1304.56
375.94	1316.84
376.15	1277.93
376.36	1265.64
376.57	1298.41
376.78	1304.56
376.99	1296.36
377.20	1253.36
377.40	1255.40
377.61	1273.84
377.82	1284.08
378.03	1290.22
378.24	1208.30
378.45	1212.40
378.66	1265.64
378.87	1267.69
379.08	1234.93
379.29	1273.84
379.50	1259.50
379.71	1333.23
379.91	1247.21
380.12	1251.31
380.33	1259.50
380.54	1277.93
380.75	1282.03
380.96	1277.93
381.17	1298.41
381.38	1191.92
381.59	1310.70
381.80	1263.60
382.00	1314.80
382.21	1251.31
382.42	1286.12
382.63	1290.22
382.84	1320.94
383.05	1253.36
383.26	1253.36
383.47	1245.16
383.68	1267.69
383.88	1265.64
384.09	1325.04
384.30	1322.99
384.51	1212.40
384.72	1212.40
384.93	1308.65
385.14	1230.83
385.35	1316.84
385.55	1245.16
385.76	1277.93
385.97	1204.21
386.18	1329.13
386.39	1247.21
386.60	1257.45
386.81	1255.40
387.02	1306.60
387.22	1175.53
387.43	1247.21
387.64	1249.26
387.85	1245.16
388.06	1236.97
388.27	1255.40
388.48	1212.40
388.68	1322.99
388.89	1296.36
389.10	1226.73
389.31	1236.97
389.52	1265.64
389.73	1273.84
389.93	1234.93
390.14	1224.69
390.35	1263.60
390.56	1259.50
390.77	1304.56
390.98	1277.93
391.18	1271.79
391.39	1191.92
391.60	1200.11
391.81	1341.42
392.02	1204.21
392.23	1216.49
392.43	1269.74
392.64	1337.32
392.85	1273.84
393.06	1312.75
393.27	1288.17
393.47	1298.41
393.68	1224.69
393.89	1228.78
394.10	1263.60
394.31	1214.45
394.52	1216.49
394.72	1310.70
394.93	1222.64
395.14	1224.69
395.35	1288.17
395.56	1269.74
395.76	1277.93
395.97	1259.50
396.18	1232.88
396.39	1279.98
396.60	1216.49
396.80	1265.64
397.01	1263.60
397.22	1239.02
397.43	1296.36
397.64	1247.21
397.84	1234.93
398.05	1292.27
398.26	1292.27
398.47	1202.16
398.67	1294.32
398.88	1314.80
399.09	1335.28
399.30	1269.74
399.51	1232.88
399.71	1329.13
399.92	1247.21
400.13	1265.64
400.34	1300.46
400.54	1327.08
400.75	1298.41
400.96	1310.70
401.17	1232.88
401.37	1349.61
401.58	1236.97
401.79	1411.05
402.00	1198.06
402.21	1222.64
402.41	1288.17
402.62	1271.79
402.83	1271.79
403.04	1228.78
403.24	1279.98
403.45	1189.87
403.66	1257.45
403.87	1265.64
404.07	1249.26
404.28	1265.64
404.49	1296.36
404.70	1251.31
404.90	1288.17
405.11	1273.84
405.32	1255.40
405.52	1251.31
405.73	1191.92
405.94	1241.07
406.15	1236.97
406.35	1308.65
406.56	1273.84
406.77	1298.41
406.98	1239.02
407.18	1226.73
407.39	1208.30
407.60	1175.53
407.80	1275.88
408.01	1271.79
408.22	1306.60
408.43	1259.50
408.63	1275.88
408.84	1327.08
409.05	1286.12
409.25	1236.97
409.46	1261.55
409.67	1249.26
409.88	1253.36
410.08	1261.55
410.29	1275.88
410.50	1288.17
410.70	1210.35
410.91	1228.78
411.12	1329.13
411.32	1292.27
411.53	1339.37
411.74	1228.78
411.95	1175.53
412.15	1284.08
412.36	1290.22
412.57	1275.88
412.77	1312.75
412.98	1245.16
413.19	1243.12
413.39	1312.75
413.60	1265.64
413.81	1275.88
414.01	1286.12
414.22	1253.36
414.43	1218.54
414.63	1275.88
414.84	1265.64
415.05	1263.60
415.25	1273.84
415.46	1263.60
415.67	1282.03
415.87	1318.89
416.08	1302.51
416.29	1226.73
416.49	1325.04
416.70	1298.41
416.91	1292.27
417.11	1269.74
417.32	1253.36
417.53	1234.93
417.73	1282.03
417.94	1277.93
418.15	1255.40
418.35	1275.88
418.56	1267.69
418.77	1269.74
418.97	1314.80
419.18	1304.56
419.38	1282.03
419.59	1329.13
419.80	1322.99
420.00	1239.02
420.21	1259.50
420.42	1314.80
420.62	1259.50
420.83	1253.36
421.04	1339.37
421.24	1288.17
421.45	1308.65
421.65	1273.84
421.86	1236.97
422.07	1218.54
422.27	1208.30
422.48	1185.77
422.69	1286.12
422.89	1249.26
423.10	1249.26
423.30	1351.66
423.51	1320.94
423.72	1228.78
423.92	1245.16
424.13	1310.70
424.33	1218.54
424.54	1263.60
424.75	1269.74
424.95	1204.21
425.16	1273.84
425.36	1288.17
425.57	1249.26
425.78	1218.54
425.98	1359.85
426.19	1224.69
426.39	1308.65
426.60	1191.92
426.81	1275.88
427.01	1224.69
427.22	1261.55
427.42	1306.60
427.63	1247.21
427.83	1277.93
428.04	1331.18
428.25	1308.65
428.45	1265.64
428.66	1273.84
428.86	1290.22
429.07	1216.49
429.28	1251.31
429.48	1257.45
429.69	1212.40
429.89	1306.60
430.10	1312.75
430.30	1220.59
430.51	1288.17
430.71	1288.17
430.92	1316.84
431.13	1304.56
431.33	1300.46
431.54	1316.84
431.74	1282.03
431.95	1318.89
432.15	1265.64
432.36	1259.50
432.56	1335.28
432.77	1255.40
432.98	1255.40
433.18	1247.21
433.39	1265.64
433.59	1218.54
433.80	1298.41
434.00	1325.04
434.21	1273.84
434.41	1265.64
434.62	1249.26
434.82	1271.79
435.03	1288.17
435.23	1273.84
435.44	1218.54
435.64	1273.84
435.85	1320.94
436.06	1198.06
436.26	1247.21
436.47	1253.36
436.67	1279.98
436.88	1257.45
437.08	1347.56
437.29	1245.16
437.49	1236.97
437.70	1306.60
437.90	1300.46
438.11	1269.74
438.31	1243.12
438.52	1198.06
438.72	1247.21
438.93	1298.41
439.13	1249.26
439.34	1241.07
439.54	1228.78
439.75	1277.93
439.95	1259.50
440.16	1230.83
440.36	1279.98
440.57	1218.54
440.77	1279.98
440.98	1310.70
441.18	1224.69
441.39	1239.02
441.59	1243.12
441.80	1255.40
442.00	1325.04
442.21	1255.40
442.41	1230.83
442.62	1216.49
442.82	1298.41
443.02	1241.07
443.23	1298.41
443.43	1279.98
443.64	1288.17
443.84	1275.88
444.05	1265.64
444.25	1239.02
444.46	1267.69
444.66	1267.69
444.87	1349.61
445.07	1318.89
445.28	1329.13
445.48	1288.17
445.69	1265.64
445.89	1255.40
446.09	1273.84
446.30	1222.64
446.50	1353.71
446.71	1189.87
446.91	1271.79
447.12	1222.64
447.32	1302.51
447.53	1312.75
447.73	1320.94
447.93	1273.84
448.14	1249.26
448.34	1296.36
448.55	1279.98
448.75	1347.56
448.96	1245.16
449.16	1277.93
449.36	1267.69
449.57	1255.40
449.77	1247.21
449.98	1310.70
450.18	1312.75
450.39	1294.32
450.59	1249.26
450.79	1247.21
451.00	1320.94
451.20	1286.12
451.41	1267.69
451.61	1255.40
451.81	1288.17
452.02	1265.64
452.22	1327.08
452.43	1298.41
452.63	1267.69
