SpectraSuite Data File
++++++++++++++++++++++++++++++++++++
Date: Sun Apr 03 19:55:14 CEST 2016
User: root
Dark Spectrum Present: No
Reference Spectrum Present: No
Number of Sampled Component Spectra: 1
Spectrometers: USB4C02835
Integration Time (usec): 10000 (USB4C02835)
Spectra Averaged: 1 (USB4C02835)
Boxcar Smoothing: 0 (USB4C02835)
Correct for Electrical Dark: No (USB4C02835)
Strobe/Lamp Enabled: No (USB4C02835)
Correct for Detector Non-linearity: No (USB4C02835)
Correct for Stray Light: No (USB4C02835)
Number of Pixels in Processed Spectrum: 3648
>>>>>Begin Processed Spectral Data<<<<<
177.47	1273.84
177.69	1273.84
177.91	1273.84
178.13	1247.21
178.36	1226.73
178.58	1224.69
178.80	1304.56
179.02	1234.93
179.24	1273.84
179.46	1271.79
179.68	1224.69
179.90	1337.32
180.13	1290.22
180.35	1269.74
180.57	1308.65
180.79	1302.51
181.01	1249.26
181.23	1275.88
181.45	1230.83
181.67	1224.69
181.90	1325.04
182.12	1239.02
182.34	1279.98
182.56	1216.49
182.78	1331.18
183.00	1228.78
183.22	1234.93
183.44	1286.12
183.66	1298.41
183.89	1298.41
184.11	1271.79
184.33	1273.84
184.55	1284.08
184.77	1224.69
184.99	1230.83
185.21	1232.88
185.43	1327.08
185.65	1228.78
185.87	1284.08
186.10	1294.32
186.32	1282.03
186.54	1232.88
186.76	1247.21
186.98	1200.11
187.20	1249.26
187.42	1257.45
187.64	1142.77
187.86	1300.46
188.08	1251.31
188.30	1259.50
188.52	1206.25
188.75	1271.79
188.97	1279.98
189.19	1288.17
189.41	1296.36
189.63	1306.60
189.85	1290.22
190.07	1249.26
190.29	1255.40
190.51	1310.70
190.73	1245.16
190.95	1239.02
191.17	1214.45
191.39	1255.40
191.61	1286.12
191.84	1198.06
192.06	1236.97
192.28	1181.68
192.50	1335.28
192.72	1263.60
192.94	1300.46
193.16	1298.41
193.38	1322.99
193.60	1282.03
193.82	1279.98
194.04	1335.28
194.26	1245.16
194.48	1234.93
194.70	1259.50
194.92	1236.97
195.14	1253.36
195.36	1273.84
195.58	1267.69
195.80	1259.50
196.02	1288.17
196.24	1288.17
196.46	1253.36
196.69	1226.73
196.91	1263.60
197.13	1316.84
197.35	1234.93
197.57	1327.08
197.79	1310.70
198.01	1306.60
198.23	1329.13
198.45	1306.60
198.67	1343.47
198.89	1316.84
199.11	1325.04
199.33	1271.79
199.55	1241.07
199.77	1224.69
199.99	1251.31
200.21	1257.45
200.43	1339.37
200.65	1208.30
200.87	1196.01
201.09	1232.88
201.31	1318.89
201.53	1234.93
201.75	1247.21
201.97	1302.51
202.19	1282.03
202.41	1279.98
202.63	1249.26
202.85	1261.55
203.07	1306.60
203.29	1222.64
203.51	1259.50
203.73	1179.63
203.95	1282.03
204.17	1191.92
204.39	1263.60
204.61	1308.65
204.83	1253.36
205.05	1251.31
205.27	1345.52
205.49	1226.73
205.71	1294.32
205.93	1247.21
206.15	1265.64
206.37	1353.71
206.59	1232.88
206.81	1230.83
207.03	1222.64
207.25	1286.12
207.47	1265.64
207.69	1214.45
207.91	1310.70
208.13	1257.45
208.34	1181.68
208.56	1284.08
208.78	1253.36
209.00	1322.99
209.22	1302.51
209.44	1322.99
209.66	1253.36
209.88	1259.50
210.10	1245.16
210.32	1286.12
210.54	1269.74
210.76	1228.78
210.98	1234.93
211.20	1259.50
211.42	1216.49
211.64	1265.64
211.86	1228.78
212.08	1322.99
212.30	1191.92
212.52	1261.55
212.74	1271.79
212.96	1210.35
213.17	1265.64
213.39	1249.26
213.61	1232.88
213.83	1267.69
214.05	1282.03
214.27	1243.12
214.49	1232.88
214.71	1249.26
214.93	1304.56
215.15	1257.45
215.37	1343.47
215.59	1282.03
215.81	1232.88
216.03	1245.16
216.24	1267.69
216.46	1259.50
216.68	1222.64
216.90	1271.79
217.12	1310.70
217.34	1329.13
217.56	1292.27
217.78	1263.60
218.00	1320.94
218.22	1304.56
218.44	1279.98
218.66	1222.64
218.87	1302.51
219.09	1218.54
219.31	1257.45
219.53	1255.40
219.75	1312.75
219.97	1263.60
220.19	1236.97
220.41	1318.89
220.63	1308.65
220.85	1210.35
221.06	1306.60
221.28	1253.36
221.50	1296.36
221.72	1277.93
221.94	1306.60
222.16	1234.93
222.38	1329.13
222.60	1279.98
222.82	1282.03
223.03	1284.08
223.25	1241.07
223.47	1325.04
223.69	1300.46
223.91	1253.36
224.13	1253.36
224.35	1241.07
224.57	1288.17
224.78	1218.54
225.00	1306.60
225.22	1257.45
225.44	1265.64
225.66	1265.64
225.88	1296.36
226.10	1261.55
226.32	1296.36
226.53	1130.48
226.75	1298.41
226.97	1196.01
227.19	1290.22
227.41	1259.50
227.63	1198.06
227.85	1296.36
228.06	1277.93
228.28	1257.45
228.50	1165.29
228.72	1290.22
228.94	1271.79
229.16	1222.64
229.37	1273.84
229.59	1263.60
229.81	1306.60
230.03	1239.02
230.25	1249.26
230.47	1212.40
230.69	1243.12
230.90	1247.21
231.12	1249.26
231.34	1271.79
231.56	1337.32
231.78	1257.45
232.00	1368.04
232.21	1216.49
232.43	1290.22
232.65	1345.52
232.87	1265.64
233.09	1265.64
233.30	1306.60
233.52	1271.79
233.74	1249.26
233.96	1218.54
234.18	1239.02
234.40	1257.45
234.61	1290.22
234.83	1247.21
235.05	1282.03
235.27	1302.51
235.49	1292.27
235.70	1310.70
235.92	1216.49
236.14	1230.83
236.36	1347.56
236.58	1226.73
236.79	1228.78
237.01	1269.74
237.23	1284.08
237.45	1288.17
237.67	1171.44
237.88	1267.69
238.10	1277.93
238.32	1273.84
238.54	1292.27
238.76	1304.56
238.97	1277.93
239.19	1234.93
239.41	1255.40
239.63	1236.97
239.85	1282.03
240.06	1298.41
240.28	1294.32
240.50	1230.83
240.72	1265.64
240.93	1329.13
241.15	1331.18
241.37	1208.30
241.59	1247.21
241.81	1361.90
242.02	1286.12
242.24	1269.74
242.46	1269.74
242.68	1308.65
242.89	1322.99
243.11	1214.45
243.33	1228.78
243.55	1290.22
243.76	1279.98
243.98	1298.41
244.20	1234.93
244.42	1294.32
244.64	1286.12
244.85	1267.69
245.07	1257.45
245.29	1247.21
245.51	1253.36
245.72	1249.26
245.94	1253.36
246.16	1232.88
246.38	1312.75
246.59	1269.74
246.81	1208.30
247.03	1247.21
247.24	1241.07
247.46	1286.12
247.68	1263.60
247.90	1247.21
248.11	1253.36
248.33	1329.13
248.55	1267.69
248.77	1353.71
248.98	1265.64
249.20	1316.84
249.42	1318.89
249.64	1214.45
249.85	1251.31
250.07	1208.30
250.29	1255.40
250.50	1247.21
250.72	1239.02
250.94	1226.73
251.16	1302.51
251.37	1273.84
251.59	1282.03
251.81	1259.50
252.02	1241.07
252.24	1355.76
252.46	1294.32
252.68	1261.55
252.89	1208.30
253.11	1269.74
253.33	1177.58
253.54	1249.26
253.76	1277.93
253.98	1200.11
254.20	1241.07
254.41	1261.55
254.63	1245.16
254.85	1273.84
255.06	1232.88
255.28	1224.69
255.50	1216.49
255.71	1261.55
255.93	1243.12
256.15	1241.07
256.36	1298.41
256.58	1345.52
256.80	1275.88
257.02	1339.37
257.23	1269.74
257.45	1247.21
257.67	1290.22
257.88	1302.51
258.10	1247.21
258.32	1318.89
258.53	1220.59
258.75	1300.46
258.97	1243.12
259.18	1206.25
259.40	1183.73
259.62	1251.31
259.83	1257.45
260.05	1359.85
260.27	1339.37
260.48	1210.35
260.70	1273.84
260.92	1247.21
261.13	1257.45
261.35	1232.88
261.57	1273.84
261.78	1286.12
262.00	1298.41
262.22	1279.98
262.43	1228.78
262.65	1294.32
262.86	1298.41
263.08	1214.45
263.30	1259.50
263.51	1255.40
263.73	1271.79
263.95	1251.31
264.16	1253.36
264.38	1259.50
264.60	1208.30
264.81	1298.41
265.03	1304.56
265.25	1312.75
265.46	1267.69
265.68	1316.84
265.89	1343.47
266.11	1263.60
266.33	1226.73
266.54	1300.46
266.76	1277.93
266.98	1236.97
267.19	1265.64
267.41	1273.84
267.62	1249.26
267.84	1284.08
268.06	1224.69
268.27	1259.50
268.49	1198.06
268.70	1259.50
268.92	1239.02
269.14	1314.80
269.35	1243.12
269.57	1218.54
269.79	1241.07
270.00	1161.20
270.22	1247.21
270.43	1277.93
270.65	1206.25
270.87	1339.37
271.08	1308.65
271.30	1308.65
271.51	1249.26
271.73	1292.27
271.95	1247.21
272.16	1284.08
272.38	1290.22
272.59	1304.56
272.81	1261.55
273.02	1275.88
273.24	1257.45
273.46	1243.12
273.67	1226.73
273.89	1202.16
274.10	1234.93
274.32	1275.88
274.54	1191.92
274.75	1245.16
274.97	1239.02
275.18	1257.45
275.40	1216.49
275.61	1220.59
275.83	1269.74
276.05	1224.69
276.26	1224.69
276.48	1222.64
276.69	1277.93
276.91	1200.11
277.12	1247.21
277.34	1275.88
277.55	1263.60
277.77	1296.36
277.99	1304.56
278.20	1222.64
278.42	1212.40
278.63	1263.60
278.85	1290.22
279.06	1292.27
279.28	1345.52
279.49	1339.37
279.71	1306.60
279.93	1314.80
280.14	1286.12
280.36	1261.55
280.57	1239.02
280.79	1163.25
281.00	1257.45
281.22	1155.05
281.43	1327.08
281.65	1314.80
281.86	1257.45
282.08	1236.97
282.29	1212.40
282.51	1263.60
282.73	1284.08
282.94	1261.55
283.16	1249.26
283.37	1273.84
283.59	1320.94
283.80	1249.26
284.02	1265.64
284.23	1277.93
284.45	1247.21
284.66	1206.25
284.88	1228.78
285.09	1298.41
285.31	1312.75
285.52	1228.78
285.74	1232.88
285.95	1196.01
286.17	1249.26
286.38	1271.79
286.60	1222.64
286.81	1275.88
287.03	1374.19
287.24	1296.36
287.46	1214.45
287.67	1257.45
287.89	1239.02
288.10	1249.26
288.32	1277.93
288.53	1275.88
288.75	1282.03
288.96	1353.71
289.18	1200.11
289.39	1273.84
289.61	1282.03
289.82	1259.50
290.04	1316.84
290.25	1294.32
290.47	1320.94
290.68	1185.77
290.90	1222.64
291.11	1288.17
291.33	1257.45
291.54	1257.45
291.76	1191.92
291.97	1216.49
292.18	1214.45
292.40	1267.69
292.61	1273.84
292.83	1257.45
293.04	1253.36
293.26	1347.56
293.47	1275.88
293.69	1286.12
293.90	1312.75
294.12	1234.93
294.33	1343.47
294.55	1259.50
294.76	1316.84
294.97	1318.89
295.19	1214.45
295.40	1277.93
295.62	1298.41
295.83	1282.03
296.05	1253.36
296.26	1265.64
296.48	1292.27
296.69	1277.93
296.90	1286.12
297.12	1298.41
297.33	1286.12
297.55	1318.89
297.76	1239.02
297.98	1261.55
298.19	1239.02
298.41	1284.08
298.62	1265.64
298.83	1282.03
299.05	1300.46
299.26	1298.41
299.48	1327.08
299.69	1253.36
299.90	1273.84
300.12	1249.26
300.33	1308.65
300.55	1286.12
300.76	1298.41
300.98	1255.40
301.19	1294.32
301.40	1286.12
301.62	1306.60
301.83	1247.21
302.05	1366.00
302.26	1273.84
302.47	1263.60
302.69	1265.64
302.90	1273.84
303.12	1212.40
303.33	1265.64
303.54	1263.60
303.76	1271.79
303.97	1263.60
304.19	1298.41
304.40	1251.31
304.61	1304.56
304.83	1257.45
305.04	1325.04
305.26	1302.51
305.47	1245.16
305.68	1290.22
305.90	1208.30
306.11	1275.88
306.33	1302.51
306.54	1241.07
306.75	1204.21
306.97	1337.32
307.18	1214.45
307.39	1261.55
307.61	1292.27
307.82	1247.21
308.04	1232.88
308.25	1204.21
308.46	1282.03
308.68	1163.25
308.89	1318.89
309.10	1282.03
309.32	1339.37
309.53	1284.08
309.74	1165.29
309.96	1275.88
310.17	1279.98
310.39	1327.08
310.60	1249.26
310.81	1214.45
311.03	1236.97
311.24	1212.40
311.45	1273.84
311.67	1255.40
311.88	1306.60
312.09	1171.44
312.31	1236.97
312.52	1230.83
312.73	1236.97
312.95	1228.78
313.16	1193.97
313.37	1269.74
313.59	1269.74
313.80	1290.22
314.01	1253.36
314.23	1257.45
314.44	1298.41
314.65	1243.12
314.87	1304.56
315.08	1259.50
315.29	1236.97
315.51	1243.12
315.72	1249.26
315.93	1308.65
316.15	1292.27
316.36	1275.88
316.57	1265.64
316.79	1247.21
317.00	1271.79
317.21	1327.08
317.43	1275.88
317.64	1288.17
317.85	1282.03
318.07	1282.03
318.28	1189.87
318.49	1210.35
318.70	1312.75
318.92	1275.88
319.13	1298.41
319.34	1288.17
319.56	1279.98
319.77	1226.73
319.98	1273.84
320.20	1212.40
320.41	1249.26
320.62	1261.55
320.83	1314.80
321.05	1257.45
321.26	1234.93
321.47	1298.41
321.69	1275.88
321.90	1243.12
322.11	1249.26
322.32	1357.80
322.54	1222.64
322.75	1308.65
322.96	1243.12
323.18	1351.66
323.39	1255.40
323.60	1255.40
323.81	1243.12
324.03	1259.50
324.24	1388.52
324.45	1247.21
324.66	1286.12
324.88	1261.55
325.09	1232.88
325.30	1310.70
325.52	1290.22
325.73	1169.39
325.94	1241.07
326.15	1275.88
326.37	1234.93
326.58	1212.40
326.79	1269.74
327.00	1234.93
327.22	1259.50
327.43	1300.46
327.64	1284.08
327.85	1327.08
328.07	1296.36
328.28	1271.79
328.49	1286.12
328.70	1298.41
328.92	1279.98
329.13	1273.84
329.34	1349.61
329.55	1251.31
329.76	1267.69
329.98	1257.45
330.19	1200.11
330.40	1329.13
330.61	1226.73
330.83	1298.41
331.04	1288.17
331.25	1222.64
331.46	1249.26
331.68	1273.84
331.89	1271.79
332.10	1253.36
332.31	1249.26
332.52	1320.94
332.74	1249.26
332.95	1282.03
333.16	1282.03
333.37	1271.79
333.58	1341.42
333.80	1236.97
334.01	1261.55
334.22	1259.50
334.43	1165.29
334.64	1265.64
334.86	1325.04
335.07	1236.97
335.28	1298.41
335.49	1322.99
335.70	1308.65
335.92	1306.60
336.13	1296.36
336.34	1271.79
336.55	1269.74
336.76	1259.50
336.98	1279.98
337.19	1265.64
337.40	1318.89
337.61	1241.07
337.82	1247.21
338.04	1290.22
338.25	1273.84
338.46	1257.45
338.67	1306.60
338.88	1271.79
339.09	1284.08
339.31	1288.17
339.52	1298.41
339.73	1275.88
339.94	1298.41
340.15	1290.22
340.36	1187.82
340.58	1290.22
340.79	1282.03
341.00	1241.07
341.21	1239.02
341.42	1249.26
341.63	1202.16
341.85	1269.74
342.06	1366.00
342.27	1279.98
342.48	1327.08
342.69	1298.41
342.90	1247.21
343.12	1286.12
343.33	1232.88
343.54	1222.64
343.75	1263.60
343.96	1218.54
344.17	1284.08
344.38	1292.27
344.60	1304.56
344.81	1204.21
345.02	1243.12
345.23	1189.87
345.44	1314.80
345.65	1245.16
345.86	1269.74
346.07	1271.79
346.29	1288.17
346.50	1245.16
346.71	1300.46
346.92	1275.88
347.13	1196.01
347.34	1251.31
347.55	1245.16
347.76	1247.21
347.98	1241.07
348.19	1277.93
348.40	1265.64
348.61	1265.64
348.82	1220.59
349.03	1234.93
349.24	1267.69
349.45	1222.64
349.66	1232.88
349.88	1234.93
350.09	1265.64
350.30	1257.45
350.51	1253.36
350.72	1273.84
350.93	1228.78
351.14	1239.02
351.35	1271.79
351.56	1298.41
351.77	1327.08
351.99	1259.50
352.20	1279.98
352.41	1218.54
352.62	1269.74
352.83	1241.07
353.04	1245.16
353.25	1200.11
353.46	1257.45
353.67	1279.98
353.88	1263.60
354.09	1265.64
354.30	1294.32
354.52	1339.37
354.73	1239.02
354.94	1265.64
355.15	1304.56
355.36	1269.74
355.57	1200.11
355.78	1228.78
355.99	1279.98
356.20	1320.94
356.41	1302.51
356.62	1284.08
356.83	1265.64
357.04	1191.92
357.25	1271.79
357.46	1257.45
357.68	1222.64
357.89	1261.55
358.10	1286.12
358.31	1296.36
358.52	1241.07
358.73	1263.60
358.94	1302.51
359.15	1282.03
359.36	1243.12
359.57	1232.88
359.78	1279.98
359.99	1220.59
360.20	1241.07
360.41	1228.78
360.62	1282.03
360.83	1243.12
361.04	1249.26
361.25	1273.84
361.46	1286.12
361.67	1304.56
361.88	1279.98
362.09	1302.51
362.30	1263.60
362.51	1255.40
362.72	1267.69
362.93	1232.88
363.14	1290.22
363.35	1253.36
363.56	1265.64
363.78	1220.59
363.99	1196.01
364.20	1271.79
364.41	1245.16
364.62	1271.79
364.83	1335.28
365.04	1312.75
365.25	1284.08
365.46	1271.79
365.67	1255.40
365.88	1241.07
366.09	1247.21
366.30	1232.88
366.51	1261.55
366.72	1282.03
366.93	1277.93
367.14	1241.07
367.35	1282.03
367.56	1265.64
367.77	1292.27
367.98	1269.74
368.18	1247.21
368.39	1214.45
368.60	1251.31
368.81	1210.35
369.02	1310.70
369.23	1234.93
369.44	1247.21
369.65	1210.35
369.86	1261.55
370.07	1351.66
370.28	1312.75
370.49	1236.97
370.70	1230.83
370.91	1234.93
371.12	1243.12
371.33	1206.25
371.54	1302.51
371.75	1249.26
371.96	1193.97
372.17	1275.88
372.38	1320.94
372.59	1247.21
372.80	1304.56
373.01	1247.21
373.22	1284.08
373.43	1267.69
373.64	1255.40
373.85	1320.94
374.06	1306.60
374.26	1308.65
374.47	1234.93
374.68	1251.31
374.89	1269.74
375.10	1275.88
375.31	1181.68
375.52	1290.22
375.73	1230.83
375.94	1257.45
376.15	1355.76
376.36	1273.84
376.57	1273.84
376.78	1273.84
376.99	1204.21
377.20	1290.22
377.40	1275.88
377.61	1294.32
377.82	1226.73
378.03	1265.64
378.24	1314.80
378.45	1249.26
378.66	1241.07
378.87	1353.71
379.08	1265.64
379.29	1255.40
379.50	1241.07
379.71	1210.35
379.91	1329.13
380.12	1202.16
380.33	1341.42
380.54	1249.26
380.75	1230.83
380.96	1269.74
381.17	1312.75
381.38	1245.16
381.59	1243.12
381.80	1253.36
382.00	1308.65
382.21	1241.07
382.42	1236.97
382.63	1286.12
382.84	1239.02
383.05	1306.60
383.26	1255.40
383.47	1224.69
383.68	1220.59
383.88	1243.12
384.09	1269.74
384.30	1191.92
384.51	1296.36
384.72	1239.02
384.93	1251.31
385.14	1279.98
385.35	1288.17
385.55	1314.80
385.76	1236.97
385.97	1259.50
386.18	1265.64
386.39	1273.84
386.60	1306.60
386.81	1243.12
387.02	1290.22
387.22	1210.35
387.43	1220.59
387.64	1214.45
387.85	1288.17
388.06	1271.79
388.27	1247.21
388.48	1228.78
388.68	1214.45
388.89	1261.55
389.10	1230.83
389.31	1275.88
389.52	1165.29
389.73	1202.16
389.93	1251.31
390.14	1257.45
390.35	1251.31
390.56	1284.08
390.77	1284.08
390.98	1263.60
391.18	1306.60
391.39	1298.41
391.60	1208.30
391.81	1275.88
392.02	1247.21
392.23	1232.88
392.43	1275.88
392.64	1271.79
392.85	1318.89
393.06	1216.49
393.27	1318.89
393.47	1298.41
393.68	1263.60
393.89	1298.41
394.10	1234.93
394.31	1243.12
394.52	1236.97
394.72	1265.64
394.93	1226.73
395.14	1263.60
395.35	1331.18
395.56	1239.02
395.76	1316.84
395.97	1282.03
396.18	1247.21
396.39	1251.31
396.60	1314.80
396.80	1189.87
397.01	1290.22
397.22	1290.22
397.43	1275.88
397.64	1255.40
397.84	1320.94
398.05	1296.36
398.26	1273.84
398.47	1341.42
398.67	1339.37
398.88	1189.87
399.09	1204.21
399.30	1255.40
399.51	1230.83
399.71	1222.64
399.92	1179.63
400.13	1284.08
400.34	1230.83
400.54	1296.36
400.75	1284.08
400.96	1249.26
401.17	1253.36
401.37	1245.16
401.58	1316.84
401.79	1275.88
402.00	1335.28
402.21	1251.31
402.41	1310.70
402.62	1290.22
402.83	1265.64
403.04	1257.45
403.24	1271.79
403.45	1212.40
403.66	1286.12
403.87	1224.69
404.07	1265.64
404.28	1191.92
404.49	1261.55
404.70	1253.36
404.90	1325.04
405.11	1316.84
405.32	1232.88
405.52	1208.30
405.73	1306.60
405.94	1257.45
406.15	1228.78
406.35	1273.84
406.56	1263.60
406.77	1241.07
406.98	1271.79
407.18	1206.25
407.39	1273.84
407.60	1349.61
407.80	1257.45
408.01	1275.88
408.22	1347.56
408.43	1308.65
408.63	1335.28
408.84	1290.22
409.05	1257.45
409.25	1251.31
409.46	1189.87
409.67	1286.12
409.88	1253.36
410.08	1208.30
410.29	1279.98
410.50	1257.45
410.70	1265.64
410.91	1220.59
411.12	1249.26
411.32	1279.98
411.53	1267.69
411.74	1316.84
411.95	1273.84
412.15	1325.04
412.36	1282.03
412.57	1239.02
412.77	1318.89
412.98	1212.40
413.19	1236.97
413.39	1290.22
413.60	1224.69
413.81	1275.88
414.01	1320.94
414.22	1273.84
414.43	1253.36
414.63	1214.45
414.84	1257.45
415.05	1261.55
415.25	1298.41
415.46	1294.32
415.67	1204.21
415.87	1259.50
416.08	1286.12
416.29	1279.98
416.49	1232.88
416.70	1259.50
416.91	1234.93
417.11	1290.22
417.32	1277.93
417.53	1257.45
417.73	1298.41
417.94	1263.60
418.15	1343.47
418.35	1320.94
418.56	1304.56
418.77	1282.03
418.97	1257.45
419.18	1257.45
419.38	1277.93
419.59	1259.50
419.80	1298.41
420.00	1300.46
420.21	1273.84
420.42	1232.88
420.62	1204.21
420.83	1257.45
421.04	1290.22
421.24	1308.65
421.45	1290.22
421.65	1314.80
421.86	1222.64
422.07	1335.28
422.27	1232.88
422.48	1224.69
422.69	1222.64
422.89	1294.32
423.10	1304.56
423.30	1239.02
423.51	1282.03
423.72	1189.87
423.92	1339.37
424.13	1249.26
424.33	1267.69
424.54	1210.35
424.75	1265.64
424.95	1292.27
425.16	1312.75
425.36	1322.99
425.57	1226.73
425.78	1245.16
425.98	1241.07
426.19	1216.49
426.39	1279.98
426.60	1222.64
426.81	1312.75
427.01	1239.02
427.22	1239.02
427.42	1257.45
427.63	1284.08
427.83	1333.23
428.04	1261.55
428.25	1288.17
428.45	1271.79
428.66	1251.31
428.86	1325.04
429.07	1243.12
429.28	1269.74
429.48	1308.65
429.69	1282.03
429.89	1290.22
430.10	1218.54
430.30	1245.16
430.51	1273.84
430.71	1189.87
430.92	1255.40
431.13	1183.73
431.33	1224.69
431.54	1275.88
431.74	1310.70
431.95	1310.70
432.15	1251.31
432.36	1271.79
432.56	1288.17
432.77	1275.88
432.98	1320.94
433.18	1245.16
433.39	1273.84
433.59	1230.83
433.80	1263.60
434.00	1282.03
434.21	1298.41
434.41	1284.08
434.62	1322.99
434.82	1290.22
435.03	1279.98
435.23	1241.07
435.44	1273.84
435.64	1230.83
435.85	1273.84
436.06	1327.08
436.26	1294.32
436.47	1290.22
436.67	1271.79
436.88	1263.60
437.08	1290.22
437.29	1294.32
437.49	1249.26
437.70	1243.12
437.90	1232.88
438.11	1351.66
438.31	1255.40
438.52	1216.49
438.72	1226.73
438.93	1243.12
439.13	1282.03
439.34	1191.92
439.54	1251.31
439.75	1257.45
439.95	1279.98
440.16	1251.31
440.36	1325.04
440.57	1267.69
440.77	1273.84
440.98	1253.36
441.18	1239.02
441.39	1316.84
441.59	1193.97
441.80	1282.03
442.00	1265.64
442.21	1251.31
442.41	1255.40
442.62	1335.28
442.82	1306.60
443.02	1265.64
443.23	1271.79
443.43	1304.56
443.64	1241.07
443.84	1269.74
444.05	1318.89
444.25	1251.31
444.46	1288.17
444.66	1271.79
444.87	1214.45
445.07	1282.03
445.28	1224.69
445.48	1236.97
445.69	1263.60
445.89	1261.55
446.09	1226.73
446.30	1265.64
446.50	1220.59
446.71	1345.52
446.91	1239.02
447.12	1257.45
447.32	1304.56
447.53	1302.51
447.73	1269.74
447.93	1257.45
448.14	1298.41
448.34	1302.51
448.55	1306.60
448.75	1265.64
448.96	1222.64
449.16	1257.45
449.36	1284.08
449.57	1232.88
449.77	1314.80
449.98	1226.73
450.18	1239.02
450.39	1269.74
450.59	1243.12
450.79	1288.17
451.00	1277.93
451.20	1247.21
451.41	1234.93
451.61	1277.93
451.81	1345.52
452.02	1224.69
452.22	1232.88
452.43	1228.78
452.63	1320.94
