SpectraSuite Data File
++++++++++++++++++++++++++++++++++++
Date: Sun Apr 03 19:55:51 CEST 2016
User: root
Dark Spectrum Present: No
Reference Spectrum Present: No
Number of Sampled Component Spectra: 1
Spectrometers: USB4C02835
Integration Time (usec): 10000 (USB4C02835)
Spectra Averaged: 1 (USB4C02835)
Boxcar Smoothing: 0 (USB4C02835)
Correct for Electrical Dark: No (USB4C02835)
Strobe/Lamp Enabled: No (USB4C02835)
Correct for Detector Non-linearity: No (USB4C02835)
Correct for Stray Light: No (USB4C02835)
Number of Pixels in Processed Spectrum: 3648
>>>>>Begin Processed Spectral Data<<<<<
177.47	1214.45
177.69	1214.45
177.91	1214.45
178.13	1175.53
178.36	1284.08
178.58	1290.22
178.80	1288.17
179.02	1234.93
179.24	1284.08
179.46	1247.21
179.68	1347.56
179.90	1230.83
180.13	1239.02
180.35	1277.93
180.57	1267.69
180.79	1257.45
181.01	1241.07
181.23	1232.88
181.45	1269.74
181.67	1273.84
181.90	1331.18
182.12	1263.60
182.34	1267.69
182.56	1327.08
182.78	1261.55
183.00	1322.99
183.22	1220.59
183.44	1243.12
183.66	1265.64
183.89	1282.03
184.11	1308.65
184.33	1189.87
184.55	1282.03
184.77	1320.94
184.99	1279.98
185.21	1224.69
185.43	1269.74
185.65	1279.98
185.87	1263.60
186.10	1392.62
186.32	1353.71
186.54	1228.78
186.76	1181.68
186.98	1216.49
187.20	1241.07
187.42	1269.74
187.64	1288.17
187.86	1292.27
188.08	1282.03
188.30	1228.78
188.52	1271.79
188.75	1290.22
188.97	1273.84
189.19	1277.93
189.41	1257.45
189.63	1310.70
189.85	1228.78
190.07	1275.88
190.29	1245.16
190.51	1259.50
190.73	1187.82
190.95	1224.69
191.17	1241.07
191.39	1304.56
191.61	1306.60
191.84	1206.25
192.06	1269.74
192.28	1320.94
192.50	1275.88
192.72	1245.16
192.94	1310.70
193.16	1333.23
193.38	1187.82
193.60	1210.35
193.82	1236.97
194.04	1241.07
194.26	1271.79
194.48	1200.11
194.70	1302.51
194.92	1230.83
195.14	1253.36
195.36	1236.97
195.58	1245.16
195.80	1290.22
196.02	1267.69
196.24	1257.45
196.46	1239.02
196.69	1234.93
196.91	1298.41
197.13	1296.36
197.35	1277.93
197.57	1185.77
197.79	1251.31
198.01	1245.16
198.23	1302.51
198.45	1263.60
198.67	1308.65
198.89	1216.49
199.11	1269.74
199.33	1279.98
199.55	1312.75
199.77	1249.26
199.99	1269.74
200.21	1249.26
200.43	1265.64
200.65	1247.21
200.87	1249.26
201.09	1247.21
201.31	1316.84
201.53	1263.60
201.75	1290.22
201.97	1290.22
202.19	1322.99
202.41	1247.21
202.63	1322.99
202.85	1210.35
203.07	1236.97
203.29	1290.22
203.51	1312.75
203.73	1243.12
203.95	1271.79
204.17	1310.70
204.39	1271.79
204.61	1253.36
204.83	1269.74
205.05	1239.02
205.27	1259.50
205.49	1267.69
205.71	1327.08
205.93	1198.06
206.15	1249.26
206.37	1277.93
206.59	1257.45
206.81	1286.12
207.03	1167.34
207.25	1249.26
207.47	1286.12
207.69	1249.26
207.91	1271.79
208.13	1243.12
208.34	1263.60
208.56	1236.97
208.78	1322.99
209.00	1267.69
209.22	1312.75
209.44	1263.60
209.66	1300.46
209.88	1255.40
210.10	1226.73
210.32	1267.69
210.54	1232.88
210.76	1245.16
210.98	1216.49
211.20	1259.50
211.42	1279.98
211.64	1218.54
211.86	1314.80
212.08	1247.21
212.30	1296.36
212.52	1214.45
212.74	1263.60
212.96	1366.00
213.17	1222.64
213.39	1255.40
213.61	1318.89
213.83	1292.27
214.05	1232.88
214.27	1255.40
214.49	1247.21
214.71	1236.97
214.93	1290.22
215.15	1302.51
215.37	1300.46
215.59	1322.99
215.81	1298.41
216.03	1249.26
216.24	1263.60
216.46	1261.55
216.68	1275.88
216.90	1347.56
217.12	1232.88
217.34	1282.03
217.56	1224.69
217.78	1267.69
218.00	1218.54
218.22	1187.82
218.44	1282.03
218.66	1267.69
218.87	1265.64
219.09	1298.41
219.31	1288.17
219.53	1277.93
219.75	1269.74
219.97	1263.60
220.19	1196.01
220.41	1241.07
220.63	1241.07
220.85	1251.31
221.06	1251.31
221.28	1204.21
221.50	1273.84
221.72	1327.08
221.94	1232.88
222.16	1277.93
222.38	1193.97
222.60	1261.55
222.82	1251.31
223.03	1298.41
223.25	1214.45
223.47	1279.98
223.69	1314.80
223.91	1284.08
224.13	1228.78
224.35	1222.64
224.57	1247.21
224.78	1282.03
225.00	1290.22
225.22	1241.07
225.44	1255.40
225.66	1245.16
225.88	1245.16
226.10	1320.94
226.32	1279.98
226.53	1159.15
226.75	1325.04
226.97	1316.84
227.19	1230.83
227.41	1329.13
227.63	1218.54
227.85	1243.12
228.06	1282.03
228.28	1245.16
228.50	1277.93
228.72	1273.84
228.94	1279.98
229.16	1292.27
229.37	1271.79
229.59	1241.07
229.81	1275.88
230.03	1257.45
230.25	1261.55
230.47	1241.07
230.69	1255.40
230.90	1255.40
231.12	1261.55
231.34	1333.23
231.56	1331.18
231.78	1302.51
232.00	1249.26
232.21	1290.22
232.43	1259.50
232.65	1251.31
232.87	1302.51
233.09	1239.02
233.30	1318.89
233.52	1245.16
233.74	1290.22
233.96	1247.21
234.18	1224.69
234.40	1208.30
234.61	1275.88
234.83	1302.51
235.05	1335.28
235.27	1273.84
235.49	1277.93
235.70	1288.17
235.92	1228.78
236.14	1257.45
236.36	1239.02
236.58	1318.89
236.79	1372.14
237.01	1243.12
237.23	1204.21
237.45	1347.56
237.67	1275.88
237.88	1337.32
238.10	1286.12
238.32	1322.99
238.54	1286.12
238.76	1288.17
238.97	1265.64
239.19	1300.46
239.41	1257.45
239.63	1269.74
239.85	1245.16
240.06	1228.78
240.28	1265.64
240.50	1314.80
240.72	1249.26
240.93	1245.16
241.15	1261.55
241.37	1290.22
241.59	1290.22
241.81	1271.79
242.02	1257.45
242.24	1302.51
242.46	1290.22
242.68	1261.55
242.89	1253.36
243.11	1306.60
243.33	1247.21
243.55	1257.45
243.76	1335.28
243.98	1294.32
244.20	1298.41
244.42	1263.60
244.64	1302.51
244.85	1241.07
245.07	1282.03
245.29	1273.84
245.51	1263.60
245.72	1292.27
245.94	1271.79
246.16	1193.97
246.38	1288.17
246.59	1206.25
246.81	1286.12
247.03	1304.56
247.24	1284.08
247.46	1253.36
247.68	1265.64
247.90	1230.83
248.11	1267.69
248.33	1296.36
248.55	1331.18
248.77	1267.69
248.98	1259.50
249.20	1255.40
249.42	1337.32
249.64	1253.36
249.85	1210.35
250.07	1312.75
250.29	1302.51
250.50	1228.78
250.72	1339.37
250.94	1239.02
251.16	1259.50
251.37	1265.64
251.59	1273.84
251.81	1310.70
252.02	1230.83
252.24	1269.74
252.46	1306.60
252.68	1327.08
252.89	1259.50
253.11	1300.46
253.33	1257.45
253.54	1230.83
253.76	1253.36
253.98	1271.79
254.20	1224.69
254.41	1363.95
254.63	1234.93
254.85	1245.16
255.06	1312.75
255.28	1259.50
255.50	1282.03
255.71	1212.40
255.93	1273.84
256.15	1222.64
256.36	1314.80
256.58	1251.31
256.80	1267.69
257.02	1253.36
257.23	1257.45
257.45	1261.55
257.67	1314.80
257.88	1265.64
258.10	1306.60
258.32	1271.79
258.53	1249.26
258.75	1259.50
258.97	1234.93
259.18	1288.17
259.40	1292.27
259.62	1253.36
259.83	1318.89
260.05	1333.23
260.27	1230.83
260.48	1267.69
260.70	1249.26
260.92	1296.36
261.13	1220.59
261.35	1247.21
261.57	1245.16
261.78	1249.26
262.00	1202.16
262.22	1325.04
262.43	1251.31
262.65	1271.79
262.86	1239.02
263.08	1267.69
263.30	1243.12
263.51	1218.54
263.73	1288.17
263.95	1196.01
264.16	1204.21
264.38	1234.93
264.60	1284.08
264.81	1314.80
265.03	1251.31
265.25	1345.52
265.46	1261.55
265.68	1239.02
265.89	1220.59
266.11	1265.64
266.33	1304.56
266.54	1263.60
266.76	1263.60
266.98	1294.32
267.19	1273.84
267.41	1234.93
267.62	1255.40
267.84	1226.73
268.06	1310.70
268.27	1292.27
268.49	1294.32
268.70	1224.69
268.92	1247.21
269.14	1267.69
269.35	1247.21
269.57	1243.12
269.79	1230.83
270.00	1255.40
270.22	1312.75
270.43	1224.69
270.65	1282.03
270.87	1228.78
271.08	1247.21
271.30	1222.64
271.51	1312.75
271.73	1279.98
271.95	1353.71
272.16	1204.21
272.38	1247.21
272.59	1253.36
272.81	1214.45
273.02	1239.02
273.24	1263.60
273.46	1275.88
273.67	1275.88
273.89	1343.47
274.10	1269.74
274.32	1275.88
274.54	1282.03
274.75	1257.45
274.97	1294.32
275.18	1210.35
275.40	1300.46
275.61	1331.18
275.83	1310.70
276.05	1279.98
276.26	1337.32
276.48	1273.84
276.69	1265.64
276.91	1255.40
277.12	1302.51
277.34	1202.16
277.55	1269.74
277.77	1306.60
277.99	1261.55
278.20	1257.45
278.42	1259.50
278.63	1210.35
278.85	1239.02
279.06	1282.03
279.28	1271.79
279.49	1279.98
279.71	1322.99
279.93	1275.88
280.14	1329.13
280.36	1249.26
280.57	1288.17
280.79	1239.02
281.00	1259.50
281.22	1247.21
281.43	1255.40
281.65	1286.12
281.86	1288.17
282.08	1247.21
282.29	1255.40
282.51	1259.50
282.73	1261.55
282.94	1310.70
283.16	1302.51
283.37	1327.08
283.59	1241.07
283.80	1286.12
284.02	1298.41
284.23	1259.50
284.45	1245.16
284.66	1206.25
284.88	1320.94
285.09	1259.50
285.31	1263.60
285.52	1277.93
285.74	1331.18
285.95	1284.08
286.17	1271.79
286.38	1204.21
286.60	1214.45
286.81	1255.40
287.03	1191.92
287.24	1269.74
287.46	1204.21
287.67	1267.69
287.89	1325.04
288.10	1290.22
288.32	1267.69
288.53	1302.51
288.75	1327.08
288.96	1282.03
289.18	1216.49
289.39	1234.93
289.61	1257.45
289.82	1200.11
290.04	1271.79
290.25	1241.07
290.47	1243.12
290.68	1316.84
290.90	1308.65
291.11	1273.84
291.33	1304.56
291.54	1230.83
291.76	1255.40
291.97	1275.88
292.18	1251.31
292.40	1222.64
292.61	1308.65
292.83	1208.30
293.04	1327.08
293.26	1253.36
293.47	1232.88
293.69	1300.46
293.90	1198.06
294.12	1310.70
294.33	1261.55
294.55	1298.41
294.76	1255.40
294.97	1224.69
295.19	1259.50
295.40	1214.45
295.62	1255.40
295.83	1275.88
296.05	1175.53
296.26	1257.45
296.48	1277.93
296.69	1259.50
296.90	1226.73
297.12	1241.07
297.33	1271.79
297.55	1271.79
297.76	1245.16
297.98	1337.32
298.19	1232.88
298.41	1212.40
298.62	1298.41
298.83	1265.64
299.05	1363.95
299.26	1277.93
299.48	1325.04
299.69	1239.02
299.90	1255.40
300.12	1220.59
300.33	1298.41
300.55	1308.65
300.76	1220.59
300.98	1212.40
301.19	1296.36
301.40	1296.36
301.62	1310.70
301.83	1171.44
302.05	1241.07
302.26	1318.89
302.47	1263.60
302.69	1212.40
302.90	1335.28
303.12	1259.50
303.33	1282.03
303.54	1288.17
303.76	1234.93
303.97	1282.03
304.19	1292.27
304.40	1306.60
304.61	1247.21
304.83	1279.98
305.04	1296.36
305.26	1341.42
305.47	1296.36
305.68	1257.45
305.90	1249.26
306.11	1181.68
306.33	1232.88
306.54	1187.82
306.75	1277.93
306.97	1163.25
307.18	1331.18
307.39	1294.32
307.61	1269.74
307.82	1267.69
308.04	1314.80
308.25	1284.08
308.46	1228.78
308.68	1232.88
308.89	1320.94
309.10	1267.69
309.32	1263.60
309.53	1245.16
309.74	1200.11
309.96	1271.79
310.17	1277.93
310.39	1286.12
310.60	1284.08
310.81	1277.93
311.03	1294.32
311.24	1290.22
311.45	1185.77
311.67	1271.79
311.88	1269.74
312.09	1355.76
312.31	1273.84
312.52	1239.02
312.73	1318.89
312.95	1216.49
313.16	1214.45
313.37	1232.88
313.59	1288.17
313.80	1277.93
314.01	1255.40
314.23	1208.30
314.44	1271.79
314.65	1261.55
314.87	1241.07
315.08	1224.69
315.29	1226.73
315.51	1200.11
315.72	1296.36
315.93	1310.70
316.15	1273.84
316.36	1275.88
316.57	1267.69
316.79	1253.36
317.00	1294.32
317.21	1249.26
317.43	1230.83
317.64	1239.02
317.85	1282.03
318.07	1202.16
318.28	1220.59
318.49	1241.07
318.70	1267.69
318.92	1288.17
319.13	1157.10
319.34	1210.35
319.56	1196.01
319.77	1263.60
319.98	1275.88
320.20	1294.32
320.41	1341.42
320.62	1275.88
320.83	1261.55
321.05	1251.31
321.26	1261.55
321.47	1286.12
321.69	1271.79
321.90	1214.45
322.11	1202.16
322.32	1265.64
322.54	1341.42
322.75	1202.16
322.96	1298.41
323.18	1243.12
323.39	1267.69
323.60	1253.36
323.81	1316.84
324.03	1277.93
324.24	1251.31
324.45	1296.36
324.66	1253.36
324.88	1249.26
325.09	1222.64
325.30	1378.28
325.52	1257.45
325.73	1204.21
325.94	1261.55
326.15	1316.84
326.37	1220.59
326.58	1198.06
326.79	1249.26
327.00	1304.56
327.22	1224.69
327.43	1288.17
327.64	1261.55
327.85	1310.70
328.07	1310.70
328.28	1335.28
328.49	1189.87
328.70	1294.32
328.92	1279.98
329.13	1234.93
329.34	1310.70
329.55	1247.21
329.76	1284.08
329.98	1269.74
330.19	1226.73
330.40	1292.27
330.61	1253.36
330.83	1249.26
331.04	1290.22
331.25	1290.22
331.46	1339.37
331.68	1302.51
331.89	1265.64
332.10	1298.41
332.31	1220.59
332.52	1273.84
332.74	1212.40
332.95	1218.54
333.16	1292.27
333.37	1284.08
333.58	1257.45
333.80	1277.93
334.01	1255.40
334.22	1312.75
334.43	1230.83
334.64	1271.79
334.86	1198.06
335.07	1308.65
335.28	1282.03
335.49	1251.31
335.70	1277.93
335.92	1292.27
336.13	1298.41
336.34	1294.32
336.55	1247.21
336.76	1241.07
336.98	1167.34
337.19	1267.69
337.40	1275.88
337.61	1259.50
337.82	1234.93
338.04	1230.83
338.25	1208.30
338.46	1245.16
338.67	1333.23
338.88	1251.31
339.09	1290.22
339.31	1314.80
339.52	1316.84
339.73	1271.79
339.94	1255.40
340.15	1265.64
340.36	1251.31
340.58	1236.97
340.79	1327.08
341.00	1255.40
341.21	1275.88
341.42	1198.06
341.63	1298.41
341.85	1298.41
342.06	1267.69
342.27	1282.03
342.48	1300.46
342.69	1282.03
342.90	1298.41
343.12	1284.08
343.33	1263.60
343.54	1269.74
343.75	1286.12
343.96	1331.18
344.17	1290.22
344.38	1228.78
344.60	1216.49
344.81	1337.32
345.02	1251.31
345.23	1275.88
345.44	1245.16
345.65	1239.02
345.86	1263.60
346.07	1327.08
346.29	1277.93
346.50	1284.08
346.71	1325.04
346.92	1263.60
347.13	1288.17
347.34	1255.40
347.55	1249.26
347.76	1265.64
347.98	1220.59
348.19	1204.21
348.40	1228.78
348.61	1257.45
348.82	1273.84
349.03	1333.23
349.24	1222.64
349.45	1310.70
349.66	1198.06
349.88	1251.31
350.09	1351.66
350.30	1257.45
350.51	1300.46
350.72	1241.07
350.93	1296.36
351.14	1306.60
351.35	1302.51
351.56	1216.49
351.77	1296.36
351.99	1318.89
352.20	1208.30
352.41	1290.22
352.62	1314.80
352.83	1267.69
353.04	1259.50
353.25	1247.21
353.46	1257.45
353.67	1255.40
353.88	1265.64
354.09	1214.45
354.30	1259.50
354.52	1189.87
354.73	1310.70
354.94	1247.21
355.15	1300.46
355.36	1300.46
355.57	1249.26
355.78	1300.46
355.99	1269.74
356.20	1257.45
356.41	1279.98
356.62	1208.30
356.83	1318.89
357.04	1331.18
357.25	1275.88
357.46	1153.01
357.68	1271.79
357.89	1298.41
358.10	1212.40
358.31	1200.11
358.52	1247.21
358.73	1279.98
358.94	1275.88
359.15	1286.12
359.36	1306.60
359.57	1282.03
359.78	1290.22
359.99	1322.99
360.20	1318.89
360.41	1296.36
360.62	1269.74
360.83	1232.88
361.04	1308.65
361.25	1257.45
361.46	1247.21
361.67	1230.83
361.88	1300.46
362.09	1269.74
362.30	1304.56
362.51	1259.50
362.72	1273.84
362.93	1273.84
363.14	1298.41
363.35	1290.22
363.56	1275.88
363.78	1255.40
363.99	1257.45
364.20	1290.22
364.41	1253.36
364.62	1296.36
364.83	1351.66
365.04	1298.41
365.25	1216.49
365.46	1327.08
365.67	1218.54
365.88	1312.75
366.09	1292.27
366.30	1273.84
366.51	1216.49
366.72	1286.12
366.93	1206.25
367.14	1218.54
367.35	1226.73
367.56	1284.08
367.77	1298.41
367.98	1277.93
368.18	1273.84
368.39	1327.08
368.60	1220.59
368.81	1257.45
369.02	1347.56
369.23	1265.64
369.44	1288.17
369.65	1302.51
369.86	1253.36
370.07	1261.55
370.28	1265.64
370.49	1298.41
370.70	1263.60
370.91	1302.51
371.12	1335.28
371.33	1284.08
371.54	1306.60
371.75	1247.21
371.96	1314.80
372.17	1247.21
372.38	1310.70
372.59	1196.01
372.80	1216.49
373.01	1277.93
373.22	1300.46
373.43	1304.56
373.64	1236.97
373.85	1314.80
374.06	1296.36
374.26	1312.75
374.47	1370.09
374.68	1288.17
374.89	1284.08
375.10	1232.88
375.31	1298.41
375.52	1239.02
375.73	1257.45
375.94	1202.16
376.15	1304.56
376.36	1288.17
376.57	1277.93
376.78	1265.64
376.99	1265.64
377.20	1337.32
377.40	1267.69
377.61	1232.88
377.82	1216.49
378.03	1288.17
378.24	1245.16
378.45	1208.30
378.66	1331.18
378.87	1241.07
379.08	1236.97
379.29	1236.97
379.50	1243.12
379.71	1200.11
379.91	1282.03
380.12	1265.64
380.33	1255.40
380.54	1300.46
380.75	1218.54
380.96	1304.56
381.17	1316.84
381.38	1300.46
381.59	1306.60
381.80	1329.13
382.00	1257.45
382.21	1298.41
382.42	1345.52
382.63	1214.45
382.84	1232.88
383.05	1294.32
383.26	1302.51
383.47	1261.55
383.68	1245.16
383.88	1224.69
384.09	1298.41
384.30	1196.01
384.51	1294.32
384.72	1271.79
384.93	1236.97
385.14	1212.40
385.35	1277.93
385.55	1239.02
385.76	1257.45
385.97	1288.17
386.18	1269.74
386.39	1236.97
386.60	1271.79
386.81	1216.49
387.02	1302.51
387.22	1222.64
387.43	1263.60
387.64	1206.25
387.85	1273.84
388.06	1308.65
388.27	1320.94
388.48	1351.66
388.68	1267.69
388.89	1273.84
389.10	1204.21
389.31	1196.01
389.52	1286.12
389.73	1318.89
389.93	1263.60
390.14	1249.26
390.35	1312.75
390.56	1255.40
390.77	1282.03
390.98	1359.85
391.18	1279.98
391.39	1314.80
391.60	1290.22
391.81	1206.25
392.02	1267.69
392.23	1333.23
392.43	1288.17
392.64	1353.71
392.85	1277.93
393.06	1247.21
393.27	1232.88
393.47	1273.84
393.68	1263.60
393.89	1253.36
394.10	1251.31
394.31	1316.84
394.52	1288.17
394.72	1187.82
394.93	1331.18
395.14	1267.69
395.35	1253.36
395.56	1286.12
395.76	1236.97
395.97	1245.16
396.18	1236.97
396.39	1263.60
396.60	1337.32
396.80	1282.03
397.01	1239.02
397.22	1247.21
397.43	1314.80
397.64	1277.93
397.84	1335.28
398.05	1312.75
398.26	1247.21
398.47	1310.70
398.67	1337.32
398.88	1271.79
399.09	1267.69
399.30	1251.31
399.51	1265.64
399.71	1267.69
399.92	1239.02
400.13	1380.33
400.34	1286.12
400.54	1273.84
400.75	1273.84
400.96	1261.55
401.17	1269.74
401.37	1212.40
401.58	1286.12
401.79	1310.70
402.00	1286.12
402.21	1232.88
402.41	1187.82
402.62	1300.46
402.83	1306.60
403.04	1214.45
403.24	1253.36
403.45	1189.87
403.66	1210.35
403.87	1249.26
404.07	1257.45
404.28	1294.32
404.49	1290.22
404.70	1308.65
404.90	1312.75
405.11	1212.40
405.32	1220.59
405.52	1251.31
405.73	1259.50
405.94	1208.30
406.15	1259.50
406.35	1347.56
406.56	1294.32
406.77	1236.97
406.98	1345.52
407.18	1198.06
407.39	1271.79
407.60	1312.75
407.80	1333.23
408.01	1308.65
408.22	1228.78
408.43	1249.26
408.63	1298.41
408.84	1284.08
409.05	1320.94
409.25	1294.32
409.46	1282.03
409.67	1159.15
409.88	1288.17
410.08	1265.64
410.29	1241.07
410.50	1304.56
410.70	1222.64
410.91	1249.26
411.12	1279.98
411.32	1255.40
411.53	1298.41
411.74	1298.41
411.95	1370.09
412.15	1253.36
412.36	1224.69
412.57	1267.69
412.77	1335.28
412.98	1275.88
413.19	1212.40
413.39	1218.54
413.60	1253.36
413.81	1253.36
414.01	1189.87
414.22	1232.88
414.43	1261.55
414.63	1208.30
414.84	1247.21
415.05	1218.54
415.25	1296.36
415.46	1259.50
415.67	1320.94
415.87	1331.18
416.08	1282.03
416.29	1232.88
416.49	1290.22
416.70	1228.78
416.91	1257.45
417.11	1265.64
417.32	1277.93
417.53	1314.80
417.73	1284.08
417.94	1257.45
418.15	1265.64
418.35	1273.84
418.56	1265.64
418.77	1349.61
418.97	1249.26
419.18	1257.45
419.38	1322.99
419.59	1200.11
419.80	1282.03
420.00	1255.40
420.21	1243.12
420.42	1241.07
420.62	1273.84
420.83	1200.11
421.04	1247.21
421.24	1312.75
421.45	1325.04
421.65	1257.45
421.86	1329.13
422.07	1193.97
422.27	1226.73
422.48	1286.12
422.69	1310.70
422.89	1220.59
423.10	1314.80
423.30	1202.16
423.51	1288.17
423.72	1300.46
423.92	1216.49
424.13	1372.14
424.33	1306.60
424.54	1279.98
424.75	1343.47
424.95	1214.45
425.16	1261.55
425.36	1226.73
425.57	1236.97
425.78	1351.66
425.98	1302.51
426.19	1263.60
426.39	1165.29
426.60	1286.12
426.81	1218.54
427.01	1241.07
427.22	1257.45
427.42	1273.84
427.63	1263.60
427.83	1241.07
428.04	1269.74
428.25	1294.32
428.45	1327.08
428.66	1286.12
428.86	1230.83
429.07	1302.51
429.28	1232.88
429.48	1191.92
429.69	1314.80
429.89	1351.66
430.10	1347.56
430.30	1245.16
430.51	1279.98
430.71	1318.89
430.92	1349.61
431.13	1273.84
431.33	1322.99
431.54	1368.04
431.74	1265.64
431.95	1206.25
432.15	1177.58
432.36	1286.12
432.56	1294.32
432.77	1230.83
432.98	1265.64
433.18	1261.55
433.39	1236.97
433.59	1320.94
433.80	1216.49
434.00	1239.02
434.21	1294.32
434.41	1296.36
434.62	1300.46
434.82	1290.22
435.03	1296.36
435.23	1245.16
435.44	1275.88
435.64	1298.41
435.85	1251.31
436.06	1263.60
436.26	1310.70
436.47	1257.45
436.67	1247.21
436.88	1275.88
437.08	1290.22
437.29	1286.12
437.49	1273.84
437.70	1277.93
437.90	1296.36
438.11	1216.49
438.31	1296.36
438.52	1261.55
438.72	1218.54
438.93	1267.69
439.13	1284.08
439.34	1239.02
439.54	1279.98
439.75	1296.36
439.95	1253.36
440.16	1259.50
440.36	1318.89
440.57	1320.94
440.77	1269.74
440.98	1253.36
441.18	1202.16
441.39	1284.08
441.59	1292.27
441.80	1279.98
442.00	1249.26
442.21	1329.13
442.41	1249.26
442.62	1224.69
442.82	1267.69
443.02	1302.51
443.23	1300.46
443.43	1239.02
443.64	1216.49
443.84	1282.03
444.05	1245.16
444.25	1249.26
444.46	1382.38
444.66	1273.84
444.87	1275.88
445.07	1245.16
445.28	1320.94
445.48	1335.28
445.69	1347.56
445.89	1263.60
446.09	1312.75
446.30	1265.64
446.50	1363.95
446.71	1273.84
446.91	1353.71
447.12	1275.88
447.32	1310.70
447.53	1288.17
447.73	1181.68
447.93	1273.84
448.14	1259.50
448.34	1247.21
448.55	1243.12
448.75	1284.08
448.96	1312.75
449.16	1261.55
449.36	1263.60
449.57	1296.36
449.77	1302.51
449.98	1347.56
450.18	1343.47
450.39	1296.36
450.59	1198.06
450.79	1265.64
451.00	1245.16
451.20	1263.60
451.41	1335.28
451.61	1310.70
451.81	1312.75
452.02	1322.99
452.22	1245.16
452.43	1279.98
452.63	1257.45
