SpectraSuite Data File
++++++++++++++++++++++++++++++++++++
Date: Sun Apr 03 19:55:45 CEST 2016
User: root
Dark Spectrum Present: No
Reference Spectrum Present: No
Number of Sampled Component Spectra: 1
Spectrometers: USB4C02835
Integration Time (usec): 10000 (USB4C02835)
Spectra Averaged: 1 (USB4C02835)
Boxcar Smoothing: 0 (USB4C02835)
Correct for Electrical Dark: No (USB4C02835)
Strobe/Lamp Enabled: No (USB4C02835)
Correct for Detector Non-linearity: No (USB4C02835)
Correct for Stray Light: No (USB4C02835)
Number of Pixels in Processed Spectrum: 3648
>>>>>Begin Processed Spectral Data<<<<<
177.47	1267.69
177.69	1267.69
177.91	1267.69
178.13	1230.83
178.36	1351.66
178.58	1263.60
178.80	1259.50
179.02	1255.40
179.24	1282.03
179.46	1220.59
179.68	1359.85
179.90	1372.14
180.13	1273.84
180.35	1320.94
180.57	1265.64
180.79	1277.93
181.01	1234.93
181.23	1243.12
181.45	1249.26
181.67	1320.94
181.90	1306.60
182.12	1243.12
182.34	1273.84
182.56	1302.51
182.78	1267.69
183.00	1261.55
183.22	1241.07
183.44	1261.55
183.66	1290.22
183.89	1290.22
184.11	1288.17
184.33	1187.82
184.55	1314.80
184.77	1247.21
184.99	1263.60
185.21	1269.74
185.43	1249.26
185.65	1196.01
185.87	1290.22
186.10	1302.51
186.32	1269.74
186.54	1255.40
186.76	1286.12
186.98	1261.55
187.20	1234.93
187.42	1273.84
187.64	1267.69
187.86	1263.60
188.08	1257.45
188.30	1202.16
188.52	1257.45
188.75	1181.68
188.97	1298.41
189.19	1245.16
189.41	1257.45
189.63	1196.01
189.85	1265.64
190.07	1284.08
190.29	1271.79
190.51	1234.93
190.73	1228.78
190.95	1331.18
191.17	1282.03
191.39	1296.36
191.61	1222.64
191.84	1253.36
192.06	1259.50
192.28	1249.26
192.50	1316.84
192.72	1273.84
192.94	1302.51
193.16	1212.40
193.38	1284.08
193.60	1241.07
193.82	1302.51
194.04	1249.26
194.26	1288.17
194.48	1251.31
194.70	1234.93
194.92	1294.32
195.14	1224.69
195.36	1279.98
195.58	1261.55
195.80	1241.07
196.02	1222.64
196.24	1271.79
196.46	1296.36
196.69	1259.50
196.91	1331.18
197.13	1261.55
197.35	1228.78
197.57	1345.52
197.79	1208.30
198.01	1290.22
198.23	1189.87
198.45	1214.45
198.67	1173.49
198.89	1271.79
199.11	1275.88
199.33	1193.97
199.55	1279.98
199.77	1216.49
199.99	1261.55
200.21	1234.93
200.43	1343.47
200.65	1335.28
200.87	1236.97
201.09	1239.02
201.31	1273.84
201.53	1282.03
201.75	1224.69
201.97	1329.13
202.19	1290.22
202.41	1290.22
202.63	1337.32
202.85	1263.60
203.07	1279.98
203.29	1245.16
203.51	1267.69
203.73	1189.87
203.95	1206.25
204.17	1304.56
204.39	1259.50
204.61	1265.64
204.83	1261.55
205.05	1265.64
205.27	1243.12
205.49	1290.22
205.71	1249.26
205.93	1292.27
206.15	1269.74
206.37	1263.60
206.59	1263.60
206.81	1216.49
207.03	1263.60
207.25	1247.21
207.47	1226.73
207.69	1325.04
207.91	1349.61
208.13	1339.37
208.34	1279.98
208.56	1290.22
208.78	1251.31
209.00	1310.70
209.22	1282.03
209.44	1318.89
209.66	1265.64
209.88	1249.26
210.10	1339.37
210.32	1320.94
210.54	1200.11
210.76	1253.36
210.98	1218.54
211.20	1226.73
211.42	1239.02
211.64	1273.84
211.86	1206.25
212.08	1255.40
212.30	1218.54
212.52	1298.41
212.74	1273.84
212.96	1314.80
213.17	1320.94
213.39	1241.07
213.61	1232.88
213.83	1241.07
214.05	1243.12
214.27	1296.36
214.49	1206.25
214.71	1198.06
214.93	1304.56
215.15	1263.60
215.37	1263.60
215.59	1249.26
215.81	1263.60
216.03	1200.11
216.24	1312.75
216.46	1265.64
216.68	1261.55
216.90	1269.74
217.12	1247.21
217.34	1290.22
217.56	1298.41
217.78	1277.93
218.00	1349.61
218.22	1261.55
218.44	1210.35
218.66	1277.93
218.87	1320.94
219.09	1296.36
219.31	1273.84
219.53	1185.77
219.75	1279.98
219.97	1275.88
220.19	1234.93
220.41	1273.84
220.63	1230.83
220.85	1286.12
221.06	1261.55
221.28	1298.41
221.50	1249.26
221.72	1284.08
221.94	1257.45
222.16	1296.36
222.38	1290.22
222.60	1312.75
222.82	1314.80
223.03	1224.69
223.25	1294.32
223.47	1290.22
223.69	1243.12
223.91	1267.69
224.13	1255.40
224.35	1241.07
224.57	1259.50
224.78	1222.64
225.00	1279.98
225.22	1202.16
225.44	1271.79
225.66	1282.03
225.88	1218.54
226.10	1351.66
226.32	1306.60
226.53	1290.22
226.75	1222.64
226.97	1282.03
227.19	1298.41
227.41	1210.35
227.63	1228.78
227.85	1271.79
228.06	1243.12
228.28	1294.32
228.50	1372.14
228.72	1257.45
228.94	1279.98
229.16	1243.12
229.37	1255.40
229.59	1333.23
229.81	1265.64
230.03	1230.83
230.25	1265.64
230.47	1177.58
230.69	1263.60
230.90	1279.98
231.12	1222.64
231.34	1189.87
231.56	1343.47
231.78	1185.77
232.00	1253.36
232.21	1302.51
232.43	1249.26
232.65	1253.36
232.87	1294.32
233.09	1177.58
233.30	1282.03
233.52	1251.31
233.74	1343.47
233.96	1259.50
234.18	1308.65
234.40	1269.74
234.61	1288.17
234.83	1234.93
235.05	1284.08
235.27	1193.97
235.49	1298.41
235.70	1294.32
235.92	1322.99
236.14	1212.40
236.36	1271.79
236.58	1232.88
236.79	1265.64
237.01	1294.32
237.23	1337.32
237.45	1261.55
237.67	1202.16
237.88	1331.18
238.10	1292.27
238.32	1318.89
238.54	1251.31
238.76	1310.70
238.97	1249.26
239.19	1249.26
239.41	1277.93
239.63	1320.94
239.85	1282.03
240.06	1277.93
240.28	1302.51
240.50	1296.36
240.72	1259.50
240.93	1255.40
241.15	1306.60
241.37	1282.03
241.59	1269.74
241.81	1208.30
242.02	1296.36
242.24	1236.97
242.46	1275.88
242.68	1249.26
242.89	1208.30
243.11	1269.74
243.33	1218.54
243.55	1255.40
243.76	1306.60
243.98	1224.69
244.20	1255.40
244.42	1261.55
244.64	1288.17
244.85	1234.93
245.07	1269.74
245.29	1294.32
245.51	1290.22
245.72	1247.21
245.94	1255.40
246.16	1263.60
246.38	1269.74
246.59	1236.97
246.81	1302.51
247.03	1236.97
247.24	1282.03
247.46	1304.56
247.68	1249.26
247.90	1279.98
248.11	1279.98
248.33	1253.36
248.55	1239.02
248.77	1284.08
248.98	1290.22
249.20	1216.49
249.42	1286.12
249.64	1259.50
249.85	1216.49
250.07	1269.74
250.29	1310.70
250.50	1239.02
250.72	1222.64
250.94	1282.03
251.16	1363.95
251.37	1337.32
251.59	1304.56
251.81	1232.88
252.02	1271.79
252.24	1241.07
252.46	1322.99
252.68	1294.32
252.89	1306.60
253.11	1255.40
253.33	1232.88
253.54	1345.52
253.76	1175.53
253.98	1263.60
254.20	1331.18
254.41	1257.45
254.63	1277.93
254.85	1251.31
255.06	1236.97
255.28	1202.16
255.50	1253.36
255.71	1265.64
255.93	1312.75
256.15	1253.36
256.36	1331.18
256.58	1288.17
256.80	1288.17
257.02	1277.93
257.23	1239.02
257.45	1224.69
257.67	1282.03
257.88	1220.59
258.10	1239.02
258.32	1234.93
258.53	1290.22
258.75	1245.16
258.97	1263.60
259.18	1288.17
259.40	1220.59
259.62	1245.16
259.83	1368.04
260.05	1257.45
260.27	1322.99
260.48	1327.08
260.70	1284.08
260.92	1257.45
261.13	1316.84
261.35	1275.88
261.57	1247.21
261.78	1187.82
262.00	1243.12
262.22	1302.51
262.43	1290.22
262.65	1284.08
262.86	1288.17
263.08	1265.64
263.30	1230.83
263.51	1245.16
263.73	1204.21
263.95	1267.69
264.16	1282.03
264.38	1269.74
264.60	1282.03
264.81	1241.07
265.03	1232.88
265.25	1212.40
265.46	1282.03
265.68	1226.73
265.89	1314.80
266.11	1220.59
266.33	1310.70
266.54	1271.79
266.76	1259.50
266.98	1333.23
267.19	1294.32
267.41	1253.36
267.62	1230.83
267.84	1249.26
268.06	1275.88
268.27	1249.26
268.49	1261.55
268.70	1265.64
268.92	1269.74
269.14	1247.21
269.35	1245.16
269.57	1277.93
269.79	1282.03
270.00	1204.21
270.22	1284.08
270.43	1204.21
270.65	1290.22
270.87	1294.32
271.08	1257.45
271.30	1282.03
271.51	1282.03
271.73	1282.03
271.95	1292.27
272.16	1284.08
272.38	1320.94
272.59	1253.36
272.81	1265.64
273.02	1314.80
273.24	1191.92
273.46	1302.51
273.67	1269.74
273.89	1284.08
274.10	1353.71
274.32	1331.18
274.54	1306.60
274.75	1255.40
274.97	1224.69
275.18	1288.17
275.40	1255.40
275.61	1226.73
275.83	1239.02
276.05	1206.25
276.26	1308.65
276.48	1247.21
276.69	1292.27
276.91	1236.97
277.12	1357.80
277.34	1320.94
277.55	1296.36
277.77	1263.60
277.99	1241.07
278.20	1191.92
278.42	1230.83
278.63	1249.26
278.85	1339.37
279.06	1269.74
279.28	1224.69
279.49	1335.28
279.71	1175.53
279.93	1296.36
280.14	1245.16
280.36	1249.26
280.57	1290.22
280.79	1214.45
281.00	1210.35
281.22	1228.78
281.43	1277.93
281.65	1230.83
281.86	1216.49
282.08	1220.59
282.29	1302.51
282.51	1265.64
282.73	1249.26
282.94	1284.08
283.16	1249.26
283.37	1300.46
283.59	1210.35
283.80	1282.03
284.02	1249.26
284.23	1255.40
284.45	1284.08
284.66	1265.64
284.88	1191.92
285.09	1257.45
285.31	1331.18
285.52	1206.25
285.74	1279.98
285.95	1333.23
286.17	1261.55
286.38	1239.02
286.60	1230.83
286.81	1224.69
287.03	1275.88
287.24	1257.45
287.46	1265.64
287.67	1310.70
287.89	1239.02
288.10	1310.70
288.32	1200.11
288.53	1208.30
288.75	1327.08
288.96	1257.45
289.18	1341.42
289.39	1249.26
289.61	1265.64
289.82	1316.84
290.04	1329.13
290.25	1310.70
290.47	1288.17
290.68	1284.08
290.90	1261.55
291.11	1271.79
291.33	1257.45
291.54	1251.31
291.76	1245.16
291.97	1210.35
292.18	1304.56
292.40	1306.60
292.61	1271.79
292.83	1296.36
293.04	1234.93
293.26	1150.96
293.47	1296.36
293.69	1275.88
293.90	1259.50
294.12	1284.08
294.33	1267.69
294.55	1222.64
294.76	1259.50
294.97	1294.32
295.19	1282.03
295.40	1259.50
295.62	1310.70
295.83	1265.64
296.05	1239.02
296.26	1224.69
296.48	1290.22
296.69	1253.36
296.90	1232.88
297.12	1275.88
297.33	1284.08
297.55	1253.36
297.76	1286.12
297.98	1339.37
298.19	1292.27
298.41	1277.93
298.62	1282.03
298.83	1271.79
299.05	1308.65
299.26	1245.16
299.48	1255.40
299.69	1261.55
299.90	1382.38
300.12	1224.69
300.33	1271.79
300.55	1300.46
300.76	1216.49
300.98	1312.75
301.19	1265.64
301.40	1226.73
301.62	1232.88
301.83	1296.36
302.05	1320.94
302.26	1259.50
302.47	1290.22
302.69	1275.88
302.90	1214.45
303.12	1284.08
303.33	1310.70
303.54	1269.74
303.76	1279.98
303.97	1228.78
304.19	1259.50
304.40	1245.16
304.61	1286.12
304.83	1286.12
305.04	1343.47
305.26	1314.80
305.47	1243.12
305.68	1247.21
305.90	1216.49
306.11	1247.21
306.33	1275.88
306.54	1310.70
306.75	1204.21
306.97	1314.80
307.18	1183.73
307.39	1269.74
307.61	1265.64
307.82	1253.36
308.04	1290.22
308.25	1279.98
308.46	1282.03
308.68	1306.60
308.89	1241.07
309.10	1318.89
309.32	1232.88
309.53	1312.75
309.74	1363.95
309.96	1208.30
310.17	1282.03
310.39	1236.97
310.60	1247.21
310.81	1255.40
311.03	1216.49
311.24	1312.75
311.45	1331.18
311.67	1286.12
311.88	1263.60
312.09	1292.27
312.31	1300.46
312.52	1230.83
312.73	1267.69
312.95	1241.07
313.16	1282.03
313.37	1261.55
313.59	1247.21
313.80	1269.74
314.01	1241.07
314.23	1218.54
314.44	1325.04
314.65	1288.17
314.87	1228.78
315.08	1253.36
315.29	1284.08
315.51	1220.59
315.72	1314.80
315.93	1228.78
316.15	1298.41
316.36	1286.12
316.57	1290.22
316.79	1269.74
317.00	1222.64
317.21	1214.45
317.43	1257.45
317.64	1245.16
317.85	1247.21
318.07	1255.40
318.28	1325.04
318.49	1263.60
318.70	1263.60
318.92	1267.69
319.13	1269.74
319.34	1300.46
319.56	1286.12
319.77	1247.21
319.98	1230.83
320.20	1243.12
320.41	1249.26
320.62	1282.03
320.83	1245.16
321.05	1322.99
321.26	1335.28
321.47	1343.47
321.69	1255.40
321.90	1288.17
322.11	1216.49
322.32	1249.26
322.54	1200.11
322.75	1400.81
322.96	1191.92
323.18	1269.74
323.39	1284.08
323.60	1249.26
323.81	1210.35
324.03	1306.60
324.24	1269.74
324.45	1220.59
324.66	1253.36
324.88	1241.07
325.09	1269.74
325.30	1253.36
325.52	1292.27
325.73	1294.32
325.94	1239.02
326.15	1288.17
326.37	1341.42
326.58	1218.54
326.79	1214.45
327.00	1294.32
327.22	1290.22
327.43	1239.02
327.64	1232.88
327.85	1230.83
328.07	1284.08
328.28	1249.26
328.49	1294.32
328.70	1298.41
328.92	1236.97
329.13	1322.99
329.34	1257.45
329.55	1292.27
329.76	1310.70
329.98	1286.12
330.19	1308.65
330.40	1325.04
330.61	1290.22
330.83	1210.35
331.04	1218.54
331.25	1216.49
331.46	1286.12
331.68	1314.80
331.89	1284.08
332.10	1271.79
332.31	1236.97
332.52	1257.45
332.74	1241.07
332.95	1257.45
333.16	1249.26
333.37	1239.02
333.58	1230.83
333.80	1318.89
334.01	1292.27
334.22	1327.08
334.43	1265.64
334.64	1263.60
334.86	1150.96
335.07	1269.74
335.28	1314.80
335.49	1230.83
335.70	1243.12
335.92	1286.12
336.13	1226.73
336.34	1265.64
336.55	1327.08
336.76	1292.27
336.98	1329.13
337.19	1204.21
337.40	1337.32
337.61	1200.11
337.82	1320.94
338.04	1284.08
338.25	1273.84
338.46	1269.74
338.67	1269.74
338.88	1296.36
339.09	1253.36
339.31	1255.40
339.52	1282.03
339.73	1275.88
339.94	1282.03
340.15	1222.64
340.36	1345.52
340.58	1279.98
340.79	1241.07
341.00	1212.40
341.21	1282.03
341.42	1302.51
341.63	1257.45
341.85	1230.83
342.06	1241.07
342.27	1265.64
342.48	1273.84
342.69	1232.88
342.90	1345.52
343.12	1298.41
343.33	1228.78
343.54	1249.26
343.75	1253.36
343.96	1277.93
344.17	1265.64
344.38	1359.85
344.60	1284.08
344.81	1273.84
345.02	1279.98
345.23	1212.40
345.44	1267.69
345.65	1318.89
345.86	1220.59
346.07	1306.60
346.29	1302.51
346.50	1271.79
346.71	1236.97
346.92	1187.82
347.13	1316.84
347.34	1251.31
347.55	1288.17
347.76	1253.36
347.98	1232.88
348.19	1279.98
348.40	1257.45
348.61	1314.80
348.82	1277.93
349.03	1312.75
349.24	1224.69
349.45	1255.40
349.66	1196.01
349.88	1286.12
350.09	1232.88
350.30	1210.35
350.51	1302.51
350.72	1296.36
350.93	1255.40
351.14	1298.41
351.35	1255.40
351.56	1253.36
351.77	1228.78
351.99	1236.97
352.20	1239.02
352.41	1298.41
352.62	1259.50
352.83	1245.16
353.04	1282.03
353.25	1300.46
353.46	1267.69
353.67	1351.66
353.88	1269.74
354.09	1251.31
354.30	1282.03
354.52	1314.80
354.73	1306.60
354.94	1216.49
355.15	1390.57
355.36	1247.21
355.57	1232.88
355.78	1339.37
355.99	1337.32
356.20	1255.40
356.41	1245.16
356.62	1210.35
356.83	1286.12
357.04	1255.40
357.25	1251.31
357.46	1304.56
357.68	1308.65
357.89	1259.50
358.10	1298.41
358.31	1222.64
358.52	1290.22
358.73	1214.45
358.94	1292.27
359.15	1298.41
359.36	1314.80
359.57	1265.64
359.78	1314.80
359.99	1239.02
360.20	1300.46
360.41	1179.63
360.62	1259.50
360.83	1269.74
361.04	1296.36
361.25	1218.54
361.46	1214.45
361.67	1241.07
361.88	1251.31
362.09	1243.12
362.30	1230.83
362.51	1282.03
362.72	1263.60
362.93	1228.78
363.14	1298.41
363.35	1218.54
363.56	1294.32
363.78	1202.16
363.99	1259.50
364.20	1310.70
364.41	1232.88
364.62	1239.02
364.83	1325.04
365.04	1275.88
365.25	1216.49
365.46	1314.80
365.67	1222.64
365.88	1241.07
366.09	1316.84
366.30	1239.02
366.51	1271.79
366.72	1271.79
366.93	1261.55
367.14	1282.03
367.35	1347.56
367.56	1259.50
367.77	1275.88
367.98	1273.84
368.18	1265.64
368.39	1284.08
368.60	1193.97
368.81	1259.50
369.02	1290.22
369.23	1273.84
369.44	1220.59
369.65	1335.28
369.86	1312.75
370.07	1267.69
370.28	1247.21
370.49	1312.75
370.70	1251.31
370.91	1261.55
371.12	1267.69
371.33	1306.60
371.54	1261.55
371.75	1316.84
371.96	1271.79
372.17	1337.32
372.38	1271.79
372.59	1267.69
372.80	1271.79
373.01	1241.07
373.22	1214.45
373.43	1308.65
373.64	1298.41
373.85	1173.49
374.06	1335.28
374.26	1339.37
374.47	1327.08
374.68	1241.07
374.89	1292.27
375.10	1241.07
375.31	1304.56
375.52	1251.31
375.73	1312.75
375.94	1259.50
376.15	1298.41
376.36	1353.71
376.57	1273.84
376.78	1312.75
376.99	1269.74
377.20	1296.36
377.40	1312.75
377.61	1226.73
377.82	1322.99
378.03	1216.49
378.24	1300.46
378.45	1220.59
378.66	1236.97
378.87	1220.59
379.08	1322.99
379.29	1257.45
379.50	1257.45
379.71	1386.47
379.91	1320.94
380.12	1259.50
380.33	1294.32
380.54	1241.07
380.75	1271.79
380.96	1253.36
381.17	1271.79
381.38	1259.50
381.59	1302.51
381.80	1322.99
382.00	1226.73
382.21	1267.69
382.42	1236.97
382.63	1265.64
382.84	1308.65
383.05	1255.40
383.26	1212.40
383.47	1214.45
383.68	1273.84
383.88	1257.45
384.09	1273.84
384.30	1304.56
384.51	1269.74
384.72	1261.55
384.93	1198.06
385.14	1296.36
385.35	1241.07
385.55	1288.17
385.76	1290.22
385.97	1245.16
386.18	1265.64
386.39	1214.45
386.60	1294.32
386.81	1253.36
387.02	1234.93
387.22	1312.75
387.43	1218.54
387.64	1308.65
387.85	1298.41
388.06	1308.65
388.27	1314.80
388.48	1294.32
388.68	1257.45
388.89	1265.64
389.10	1363.95
389.31	1335.28
389.52	1329.13
389.73	1249.26
389.93	1222.64
390.14	1296.36
390.35	1226.73
390.56	1298.41
390.77	1275.88
390.98	1249.26
391.18	1290.22
391.39	1318.89
391.60	1228.78
391.81	1300.46
392.02	1288.17
392.23	1302.51
392.43	1249.26
392.64	1228.78
392.85	1296.36
393.06	1296.36
393.27	1253.36
393.47	1210.35
393.68	1300.46
393.89	1189.87
394.10	1239.02
394.31	1222.64
394.52	1247.21
394.72	1271.79
394.93	1234.93
395.14	1300.46
395.35	1247.21
395.56	1353.71
395.76	1292.27
395.97	1220.59
396.18	1257.45
396.39	1204.21
396.60	1279.98
396.80	1220.59
397.01	1337.32
397.22	1210.35
397.43	1241.07
397.64	1286.12
397.84	1251.31
398.05	1269.74
398.26	1290.22
398.47	1200.11
398.67	1294.32
398.88	1232.88
399.09	1269.74
399.30	1286.12
399.51	1255.40
399.71	1310.70
399.92	1275.88
400.13	1251.31
400.34	1282.03
400.54	1308.65
400.75	1302.51
400.96	1249.26
401.17	1312.75
401.37	1314.80
401.58	1306.60
401.79	1224.69
402.00	1294.32
402.21	1249.26
402.41	1218.54
402.62	1249.26
402.83	1320.94
403.04	1296.36
403.24	1224.69
403.45	1228.78
403.66	1257.45
403.87	1284.08
404.07	1263.60
404.28	1273.84
404.49	1224.69
404.70	1265.64
404.90	1273.84
405.11	1228.78
405.32	1226.73
405.52	1232.88
405.73	1298.41
405.94	1286.12
406.15	1318.89
406.35	1212.40
406.56	1232.88
406.77	1374.19
406.98	1224.69
407.18	1251.31
407.39	1304.56
407.60	1265.64
407.80	1304.56
408.01	1288.17
408.22	1187.82
408.43	1292.27
408.63	1243.12
408.84	1267.69
409.05	1275.88
409.25	1370.09
409.46	1292.27
409.67	1265.64
409.88	1255.40
410.08	1279.98
410.29	1245.16
410.50	1304.56
410.70	1286.12
410.91	1296.36
411.12	1255.40
411.32	1245.16
411.53	1275.88
411.74	1290.22
411.95	1222.64
412.15	1269.74
412.36	1236.97
412.57	1269.74
412.77	1314.80
412.98	1220.59
413.19	1251.31
413.39	1239.02
413.60	1224.69
413.81	1247.21
414.01	1257.45
414.22	1138.67
414.43	1282.03
414.63	1249.26
414.84	1294.32
415.05	1245.16
415.25	1265.64
415.46	1247.21
415.67	1286.12
415.87	1239.02
416.08	1277.93
416.29	1218.54
416.49	1261.55
416.70	1273.84
416.91	1273.84
417.11	1255.40
417.32	1265.64
417.53	1249.26
417.73	1271.79
417.94	1284.08
418.15	1253.36
418.35	1349.61
418.56	1290.22
418.77	1202.16
418.97	1222.64
419.18	1263.60
419.38	1290.22
419.59	1279.98
419.80	1316.84
420.00	1298.41
420.21	1257.45
420.42	1279.98
420.62	1267.69
420.83	1251.31
421.04	1232.88
421.24	1239.02
421.45	1263.60
421.65	1208.30
421.86	1273.84
422.07	1226.73
422.27	1265.64
422.48	1259.50
422.69	1257.45
422.89	1187.82
423.10	1271.79
423.30	1247.21
423.51	1263.60
423.72	1226.73
423.92	1284.08
424.13	1241.07
424.33	1259.50
424.54	1228.78
424.75	1236.97
424.95	1320.94
425.16	1259.50
425.36	1218.54
425.57	1249.26
425.78	1234.93
425.98	1271.79
426.19	1298.41
426.39	1296.36
426.60	1232.88
426.81	1294.32
427.01	1210.35
427.22	1282.03
427.42	1239.02
427.63	1255.40
427.83	1269.74
428.04	1275.88
428.25	1271.79
428.45	1345.52
428.66	1286.12
428.86	1320.94
429.07	1290.22
429.28	1284.08
429.48	1212.40
429.69	1255.40
429.89	1261.55
430.10	1277.93
430.30	1220.59
430.51	1292.27
430.71	1273.84
430.92	1265.64
431.13	1267.69
431.33	1339.37
431.54	1279.98
431.74	1353.71
431.95	1267.69
432.15	1228.78
432.36	1273.84
432.56	1230.83
432.77	1269.74
432.98	1239.02
433.18	1212.40
433.39	1290.22
433.59	1275.88
433.80	1314.80
434.00	1222.64
434.21	1232.88
434.41	1298.41
434.62	1306.60
434.82	1341.42
435.03	1316.84
435.23	1239.02
435.44	1187.82
435.64	1341.42
435.85	1241.07
436.06	1228.78
436.26	1247.21
436.47	1302.51
436.67	1245.16
436.88	1298.41
437.08	1241.07
437.29	1316.84
437.49	1284.08
437.70	1257.45
437.90	1210.35
438.11	1314.80
438.31	1277.93
438.52	1298.41
438.72	1249.26
438.93	1302.51
439.13	1259.50
439.34	1333.23
439.54	1228.78
439.75	1245.16
439.95	1337.32
440.16	1300.46
440.36	1265.64
440.57	1282.03
440.77	1253.36
440.98	1245.16
441.18	1302.51
441.39	1296.36
441.59	1290.22
441.80	1282.03
442.00	1288.17
442.21	1304.56
442.41	1322.99
442.62	1302.51
442.82	1259.50
443.02	1286.12
443.23	1306.60
443.43	1261.55
443.64	1279.98
443.84	1277.93
444.05	1318.89
444.25	1232.88
444.46	1353.71
444.66	1255.40
444.87	1310.70
445.07	1204.21
445.28	1259.50
445.48	1236.97
445.69	1267.69
445.89	1339.37
446.09	1282.03
446.30	1292.27
446.50	1308.65
446.71	1228.78
446.91	1275.88
447.12	1327.08
447.32	1306.60
447.53	1331.18
447.73	1282.03
447.93	1243.12
448.14	1282.03
448.34	1261.55
448.55	1271.79
448.75	1320.94
448.96	1290.22
449.16	1279.98
449.36	1249.26
449.57	1275.88
449.77	1294.32
449.98	1204.21
450.18	1284.08
450.39	1316.84
450.59	1302.51
450.79	1263.60
451.00	1284.08
451.20	1257.45
451.41	1267.69
451.61	1302.51
451.81	1286.12
452.02	1247.21
452.22	1329.13
452.43	1279.98
452.63	1302.51
