SpectraSuite Data File
++++++++++++++++++++++++++++++++++++
Date: Sun Apr 03 19:55:43 CEST 2016
User: root
Dark Spectrum Present: No
Reference Spectrum Present: No
Number of Sampled Component Spectra: 1
Spectrometers: USB4C02835
Integration Time (usec): 10000 (USB4C02835)
Spectra Averaged: 1 (USB4C02835)
Boxcar Smoothing: 0 (USB4C02835)
Correct for Electrical Dark: No (USB4C02835)
Strobe/Lamp Enabled: No (USB4C02835)
Correct for Detector Non-linearity: No (USB4C02835)
Correct for Stray Light: No (USB4C02835)
Number of Pixels in Processed Spectrum: 3648
>>>>>Begin Processed Spectral Data<<<<<
177.47	1224.69
177.69	1224.69
177.91	1224.69
178.13	1230.83
178.36	1220.59
178.58	1245.16
178.80	1306.60
179.02	1243.12
179.24	1271.79
179.46	1273.84
179.68	1230.83
179.90	1259.50
180.13	1251.31
180.35	1263.60
180.57	1288.17
180.79	1255.40
181.01	1288.17
181.23	1296.36
181.45	1292.27
181.67	1259.50
181.90	1269.74
182.12	1232.88
182.34	1279.98
182.56	1245.16
182.78	1300.46
183.00	1273.84
183.22	1234.93
183.44	1279.98
183.66	1304.56
183.89	1302.51
184.11	1318.89
184.33	1296.36
184.55	1331.18
184.77	1300.46
184.99	1191.92
185.21	1304.56
185.43	1267.69
185.65	1247.21
185.87	1306.60
186.10	1181.68
186.32	1361.90
186.54	1290.22
186.76	1325.04
186.98	1275.88
187.20	1294.32
187.42	1312.75
187.64	1257.45
187.86	1204.21
188.08	1241.07
188.30	1265.64
188.52	1325.04
188.75	1259.50
188.97	1302.51
189.19	1322.99
189.41	1187.82
189.63	1294.32
189.85	1316.84
190.07	1239.02
190.29	1251.31
190.51	1177.58
190.73	1189.87
190.95	1261.55
191.17	1279.98
191.39	1212.40
191.61	1269.74
191.84	1239.02
192.06	1193.97
192.28	1251.31
192.50	1339.37
192.72	1236.97
192.94	1261.55
193.16	1284.08
193.38	1314.80
193.60	1228.78
193.82	1314.80
194.04	1218.54
194.26	1261.55
194.48	1294.32
194.70	1214.45
194.92	1249.26
195.14	1302.51
195.36	1269.74
195.58	1265.64
195.80	1310.70
196.02	1255.40
196.24	1308.65
196.46	1282.03
196.69	1234.93
196.91	1304.56
197.13	1282.03
197.35	1222.64
197.57	1269.74
197.79	1282.03
198.01	1273.84
198.23	1298.41
198.45	1261.55
198.67	1249.26
198.89	1247.21
199.11	1241.07
199.33	1241.07
199.55	1239.02
199.77	1206.25
199.99	1251.31
200.21	1226.73
200.43	1269.74
200.65	1261.55
200.87	1204.21
201.09	1284.08
201.31	1177.58
201.53	1234.93
201.75	1224.69
201.97	1261.55
202.19	1277.93
202.41	1341.42
202.63	1294.32
202.85	1157.10
203.07	1230.83
203.29	1253.36
203.51	1290.22
203.73	1279.98
203.95	1357.80
204.17	1331.18
204.39	1196.01
204.61	1269.74
204.83	1294.32
205.05	1269.74
205.27	1333.23
205.49	1282.03
205.71	1308.65
205.93	1224.69
206.15	1212.40
206.37	1286.12
206.59	1259.50
206.81	1263.60
207.03	1251.31
207.25	1288.17
207.47	1277.93
207.69	1230.83
207.91	1290.22
208.13	1286.12
208.34	1230.83
208.56	1255.40
208.78	1265.64
209.00	1288.17
209.22	1277.93
209.44	1265.64
209.66	1239.02
209.88	1224.69
210.10	1292.27
210.32	1318.89
210.54	1175.53
210.76	1253.36
210.98	1245.16
211.20	1259.50
211.42	1337.32
211.64	1288.17
211.86	1292.27
212.08	1302.51
212.30	1318.89
212.52	1314.80
212.74	1261.55
212.96	1241.07
213.17	1279.98
213.39	1236.97
213.61	1247.21
213.83	1251.31
214.05	1261.55
214.27	1286.12
214.49	1282.03
214.71	1310.70
214.93	1282.03
215.15	1247.21
215.37	1282.03
215.59	1261.55
215.81	1273.84
216.03	1296.36
216.24	1191.92
216.46	1257.45
216.68	1245.16
216.90	1236.97
217.12	1277.93
217.34	1288.17
217.56	1253.36
217.78	1318.89
218.00	1298.41
218.22	1224.69
218.44	1214.45
218.66	1275.88
218.87	1269.74
219.09	1277.93
219.31	1253.36
219.53	1243.12
219.75	1263.60
219.97	1282.03
220.19	1255.40
220.41	1279.98
220.63	1243.12
220.85	1294.32
221.06	1259.50
221.28	1239.02
221.50	1255.40
221.72	1210.35
221.94	1234.93
222.16	1228.78
222.38	1249.26
222.60	1239.02
222.82	1282.03
223.03	1210.35
223.25	1286.12
223.47	1339.37
223.69	1286.12
223.91	1265.64
224.13	1368.04
224.35	1247.21
224.57	1279.98
224.78	1279.98
225.00	1265.64
225.22	1288.17
225.44	1224.69
225.66	1269.74
225.88	1320.94
226.10	1247.21
226.32	1259.50
226.53	1265.64
226.75	1247.21
226.97	1228.78
227.19	1216.49
227.41	1257.45
227.63	1230.83
227.85	1173.49
228.06	1265.64
228.28	1249.26
228.50	1322.99
228.72	1247.21
228.94	1288.17
229.16	1216.49
229.37	1335.28
229.59	1273.84
229.81	1320.94
230.03	1257.45
230.25	1226.73
230.47	1290.22
230.69	1269.74
230.90	1282.03
231.12	1333.23
231.34	1355.76
231.56	1228.78
231.78	1247.21
232.00	1359.85
232.21	1261.55
232.43	1284.08
232.65	1241.07
232.87	1255.40
233.09	1239.02
233.30	1257.45
233.52	1304.56
233.74	1247.21
233.96	1308.65
234.18	1279.98
234.40	1236.97
234.61	1298.41
234.83	1261.55
235.05	1189.87
235.27	1286.12
235.49	1294.32
235.70	1249.26
235.92	1361.90
236.14	1226.73
236.36	1245.16
236.58	1296.36
236.79	1222.64
237.01	1196.01
237.23	1298.41
237.45	1310.70
237.67	1300.46
237.88	1214.45
238.10	1341.42
238.32	1288.17
238.54	1265.64
238.76	1292.27
238.97	1253.36
239.19	1284.08
239.41	1249.26
239.63	1314.80
239.85	1269.74
240.06	1265.64
240.28	1249.26
240.50	1322.99
240.72	1294.32
240.93	1290.22
241.15	1341.42
241.37	1232.88
241.59	1232.88
241.81	1327.08
242.02	1216.49
242.24	1277.93
242.46	1230.83
242.68	1370.09
242.89	1273.84
243.11	1314.80
243.33	1253.36
243.55	1249.26
243.76	1329.13
243.98	1269.74
244.20	1314.80
244.42	1265.64
244.64	1224.69
244.85	1226.73
245.07	1273.84
245.29	1327.08
245.51	1249.26
245.72	1257.45
245.94	1277.93
246.16	1298.41
246.38	1251.31
246.59	1337.32
246.81	1298.41
247.03	1275.88
247.24	1220.59
247.46	1249.26
247.68	1304.56
247.90	1279.98
248.11	1275.88
248.33	1236.97
248.55	1294.32
248.77	1269.74
248.98	1327.08
249.20	1275.88
249.42	1329.13
249.64	1316.84
249.85	1218.54
250.07	1294.32
250.29	1253.36
250.50	1390.57
250.72	1214.45
250.94	1224.69
251.16	1292.27
251.37	1341.42
251.59	1265.64
251.81	1277.93
252.02	1257.45
252.24	1261.55
252.46	1292.27
252.68	1292.27
252.89	1312.75
253.11	1253.36
253.33	1298.41
253.54	1261.55
253.76	1228.78
253.98	1275.88
254.20	1247.21
254.41	1259.50
254.63	1296.36
254.85	1304.56
255.06	1265.64
255.28	1216.49
255.50	1253.36
255.71	1241.07
255.93	1273.84
256.15	1202.16
256.36	1245.16
256.58	1234.93
256.80	1282.03
257.02	1279.98
257.23	1255.40
257.45	1271.79
257.67	1314.80
257.88	1263.60
258.10	1310.70
258.32	1257.45
258.53	1333.23
258.75	1243.12
258.97	1290.22
259.18	1273.84
259.40	1273.84
259.62	1259.50
259.83	1282.03
260.05	1273.84
260.27	1288.17
260.48	1282.03
260.70	1312.75
260.92	1257.45
261.13	1226.73
261.35	1247.21
261.57	1267.69
261.78	1265.64
262.00	1236.97
262.22	1267.69
262.43	1267.69
262.65	1279.98
262.86	1306.60
263.08	1339.37
263.30	1236.97
263.51	1193.97
263.73	1228.78
263.95	1230.83
264.16	1234.93
264.38	1245.16
264.60	1284.08
264.81	1355.76
265.03	1322.99
265.25	1296.36
265.46	1224.69
265.68	1300.46
265.89	1282.03
266.11	1282.03
266.33	1241.07
266.54	1318.89
266.76	1249.26
266.98	1269.74
267.19	1232.88
267.41	1341.42
267.62	1306.60
267.84	1241.07
268.06	1314.80
268.27	1288.17
268.49	1282.03
268.70	1273.84
268.92	1271.79
269.14	1177.58
269.35	1292.27
269.57	1265.64
269.79	1245.16
270.00	1341.42
270.22	1294.32
270.43	1284.08
270.65	1271.79
270.87	1253.36
271.08	1236.97
271.30	1245.16
271.51	1288.17
271.73	1216.49
271.95	1226.73
272.16	1318.89
272.38	1296.36
272.59	1245.16
272.81	1228.78
273.02	1279.98
273.24	1318.89
273.46	1226.73
273.67	1257.45
273.89	1300.46
274.10	1310.70
274.32	1228.78
274.54	1267.69
274.75	1298.41
274.97	1228.78
275.18	1239.02
275.40	1200.11
275.61	1247.21
275.83	1232.88
276.05	1339.37
276.26	1247.21
276.48	1247.21
276.69	1339.37
276.91	1200.11
277.12	1298.41
277.34	1259.50
277.55	1243.12
277.77	1216.49
277.99	1339.37
278.20	1267.69
278.42	1263.60
278.63	1200.11
278.85	1292.27
279.06	1185.77
279.28	1286.12
279.49	1277.93
279.71	1304.56
279.93	1236.97
280.14	1257.45
280.36	1304.56
280.57	1245.16
280.79	1159.15
281.00	1275.88
281.22	1310.70
281.43	1261.55
281.65	1275.88
281.86	1286.12
282.08	1259.50
282.29	1271.79
282.51	1271.79
282.73	1296.36
282.94	1251.31
283.16	1247.21
283.37	1279.98
283.59	1306.60
283.80	1218.54
284.02	1322.99
284.23	1263.60
284.45	1247.21
284.66	1241.07
284.88	1286.12
285.09	1292.27
285.31	1390.57
285.52	1249.26
285.74	1265.64
285.95	1282.03
286.17	1247.21
286.38	1290.22
286.60	1222.64
286.81	1304.56
287.03	1277.93
287.24	1302.51
287.46	1263.60
287.67	1269.74
287.89	1175.53
288.10	1243.12
288.32	1355.76
288.53	1232.88
288.75	1191.92
288.96	1261.55
289.18	1232.88
289.39	1306.60
289.61	1318.89
289.82	1206.25
290.04	1290.22
290.25	1228.78
290.47	1269.74
290.68	1210.35
290.90	1249.26
291.11	1253.36
291.33	1261.55
291.54	1198.06
291.76	1265.64
291.97	1279.98
292.18	1333.23
292.40	1300.46
292.61	1226.73
292.83	1175.53
293.04	1257.45
293.26	1232.88
293.47	1259.50
293.69	1267.69
293.90	1253.36
294.12	1312.75
294.33	1261.55
294.55	1269.74
294.76	1247.21
294.97	1212.40
295.19	1343.47
295.40	1255.40
295.62	1310.70
295.83	1314.80
296.05	1271.79
296.26	1275.88
296.48	1228.78
296.69	1241.07
296.90	1343.47
297.12	1245.16
297.33	1316.84
297.55	1282.03
297.76	1224.69
297.98	1249.26
298.19	1275.88
298.41	1214.45
298.62	1253.36
298.83	1210.35
299.05	1251.31
299.26	1189.87
299.48	1269.74
299.69	1202.16
299.90	1325.04
300.12	1220.59
300.33	1214.45
300.55	1236.97
300.76	1292.27
300.98	1206.25
301.19	1220.59
301.40	1288.17
301.62	1296.36
301.83	1267.69
302.05	1318.89
302.26	1294.32
302.47	1279.98
302.69	1228.78
302.90	1322.99
303.12	1134.57
303.33	1310.70
303.54	1277.93
303.76	1193.97
303.97	1290.22
304.19	1302.51
304.40	1191.92
304.61	1236.97
304.83	1296.36
305.04	1320.94
305.26	1357.80
305.47	1282.03
305.68	1239.02
305.90	1263.60
306.11	1269.74
306.33	1214.45
306.54	1230.83
306.75	1263.60
306.97	1251.31
307.18	1322.99
307.39	1228.78
307.61	1271.79
307.82	1224.69
308.04	1193.97
308.25	1171.44
308.46	1269.74
308.68	1282.03
308.89	1257.45
309.10	1294.32
309.32	1304.56
309.53	1294.32
309.74	1208.30
309.96	1253.36
310.17	1327.08
310.39	1269.74
310.60	1300.46
310.81	1294.32
311.03	1175.53
311.24	1265.64
311.45	1304.56
311.67	1290.22
311.88	1284.08
312.09	1341.42
312.31	1267.69
312.52	1265.64
312.73	1241.07
312.95	1267.69
313.16	1327.08
313.37	1284.08
313.59	1265.64
313.80	1261.55
314.01	1251.31
314.23	1181.68
314.44	1228.78
314.65	1224.69
314.87	1249.26
315.08	1206.25
315.29	1351.66
315.51	1251.31
315.72	1320.94
315.93	1267.69
316.15	1255.40
316.36	1187.82
316.57	1224.69
316.79	1314.80
317.00	1279.98
317.21	1327.08
317.43	1214.45
317.64	1282.03
317.85	1310.70
318.07	1269.74
318.28	1345.52
318.49	1333.23
318.70	1232.88
318.92	1214.45
319.13	1249.26
319.34	1275.88
319.56	1341.42
319.77	1245.16
319.98	1200.11
320.20	1257.45
320.41	1265.64
320.62	1257.45
320.83	1257.45
321.05	1279.98
321.26	1306.60
321.47	1241.07
321.69	1279.98
321.90	1275.88
322.11	1314.80
322.32	1185.77
322.54	1222.64
322.75	1306.60
322.96	1228.78
323.18	1327.08
323.39	1204.21
323.60	1267.69
323.81	1353.71
324.03	1220.59
324.24	1269.74
324.45	1236.97
324.66	1279.98
324.88	1302.51
325.09	1310.70
325.30	1236.97
325.52	1259.50
325.73	1292.27
325.94	1296.36
326.15	1267.69
326.37	1273.84
326.58	1292.27
326.79	1327.08
327.00	1292.27
327.22	1208.30
327.43	1269.74
327.64	1253.36
327.85	1236.97
328.07	1339.37
328.28	1267.69
328.49	1216.49
328.70	1290.22
328.92	1292.27
329.13	1187.82
329.34	1286.12
329.55	1245.16
329.76	1210.35
329.98	1296.36
330.19	1288.17
330.40	1271.79
330.61	1298.41
330.83	1275.88
331.04	1320.94
331.25	1253.36
331.46	1265.64
331.68	1230.83
331.89	1222.64
332.10	1210.35
332.31	1294.32
332.52	1300.46
332.74	1327.08
332.95	1300.46
333.16	1251.31
333.37	1220.59
333.58	1259.50
333.80	1259.50
334.01	1284.08
334.22	1187.82
334.43	1351.66
334.64	1243.12
334.86	1167.34
335.07	1249.26
335.28	1292.27
335.49	1232.88
335.70	1210.35
335.92	1327.08
336.13	1277.93
336.34	1327.08
336.55	1279.98
336.76	1288.17
336.98	1273.84
337.19	1277.93
337.40	1279.98
337.61	1243.12
337.82	1335.28
338.04	1236.97
338.25	1245.16
338.46	1243.12
338.67	1224.69
338.88	1335.28
339.09	1296.36
339.31	1269.74
339.52	1300.46
339.73	1290.22
339.94	1202.16
340.15	1234.93
340.36	1382.38
340.58	1243.12
340.79	1222.64
341.00	1234.93
341.21	1327.08
341.42	1366.00
341.63	1232.88
341.85	1363.95
342.06	1284.08
342.27	1298.41
342.48	1251.31
342.69	1257.45
342.90	1314.80
343.12	1239.02
343.33	1253.36
343.54	1269.74
343.75	1214.45
343.96	1200.11
344.17	1239.02
344.38	1273.84
344.60	1245.16
344.81	1337.32
345.02	1269.74
345.23	1308.65
345.44	1277.93
345.65	1210.35
345.86	1279.98
346.07	1243.12
346.29	1239.02
346.50	1314.80
346.71	1273.84
346.92	1312.75
347.13	1191.92
347.34	1267.69
347.55	1271.79
347.76	1239.02
347.98	1269.74
348.19	1298.41
348.40	1284.08
348.61	1257.45
348.82	1251.31
349.03	1181.68
349.24	1269.74
349.45	1298.41
349.66	1357.80
349.88	1292.27
350.09	1271.79
350.30	1249.26
350.51	1267.69
350.72	1261.55
350.93	1212.40
351.14	1247.21
351.35	1273.84
351.56	1286.12
351.77	1257.45
351.99	1325.04
352.20	1310.70
352.41	1331.18
352.62	1263.60
352.83	1243.12
353.04	1322.99
353.25	1271.79
353.46	1247.21
353.67	1288.17
353.88	1249.26
354.09	1183.73
354.30	1331.18
354.52	1275.88
354.73	1245.16
354.94	1224.69
355.15	1282.03
355.36	1312.75
355.57	1318.89
355.78	1306.60
355.99	1269.74
356.20	1284.08
356.41	1355.76
356.62	1329.13
356.83	1337.32
357.04	1218.54
357.25	1322.99
357.46	1222.64
357.68	1304.56
357.89	1316.84
358.10	1247.21
358.31	1222.64
358.52	1239.02
358.73	1257.45
358.94	1286.12
359.15	1241.07
359.36	1271.79
359.57	1312.75
359.78	1208.30
359.99	1343.47
360.20	1255.40
360.41	1216.49
360.62	1249.26
360.83	1314.80
361.04	1257.45
361.25	1249.26
361.46	1230.83
361.67	1275.88
361.88	1273.84
362.09	1241.07
362.30	1290.22
362.51	1306.60
362.72	1290.22
362.93	1273.84
363.14	1259.50
363.35	1325.04
363.56	1308.65
363.78	1302.51
363.99	1290.22
364.20	1257.45
364.41	1286.12
364.62	1282.03
364.83	1259.50
365.04	1279.98
365.25	1263.60
365.46	1269.74
365.67	1265.64
365.88	1310.70
366.09	1275.88
366.30	1294.32
366.51	1320.94
366.72	1253.36
366.93	1347.56
367.14	1290.22
367.35	1222.64
367.56	1275.88
367.77	1277.93
367.98	1279.98
368.18	1228.78
368.39	1249.26
368.60	1298.41
368.81	1269.74
369.02	1269.74
369.23	1337.32
369.44	1216.49
369.65	1249.26
369.86	1251.31
370.07	1179.63
370.28	1257.45
370.49	1294.32
370.70	1245.16
370.91	1316.84
371.12	1275.88
371.33	1357.80
371.54	1269.74
371.75	1234.93
371.96	1284.08
372.17	1331.18
372.38	1300.46
372.59	1214.45
372.80	1275.88
373.01	1275.88
373.22	1327.08
373.43	1214.45
373.64	1275.88
373.85	1265.64
374.06	1320.94
374.26	1292.27
374.47	1286.12
374.68	1245.16
374.89	1212.40
375.10	1220.59
375.31	1245.16
375.52	1255.40
375.73	1228.78
375.94	1222.64
376.15	1279.98
376.36	1234.93
376.57	1331.18
376.78	1243.12
376.99	1327.08
377.20	1232.88
377.40	1271.79
377.61	1228.78
377.82	1259.50
378.03	1325.04
378.24	1345.52
378.45	1210.35
378.66	1247.21
378.87	1236.97
379.08	1279.98
379.29	1271.79
379.50	1255.40
379.71	1234.93
379.91	1269.74
380.12	1267.69
380.33	1241.07
380.54	1200.11
380.75	1255.40
380.96	1241.07
381.17	1241.07
381.38	1310.70
381.59	1308.65
381.80	1263.60
382.00	1245.16
382.21	1214.45
382.42	1341.42
382.63	1294.32
382.84	1269.74
383.05	1298.41
383.26	1331.18
383.47	1302.51
383.68	1249.26
383.88	1279.98
384.09	1302.51
384.30	1284.08
384.51	1208.30
384.72	1253.36
384.93	1273.84
385.14	1259.50
385.35	1290.22
385.55	1320.94
385.76	1275.88
385.97	1228.78
386.18	1241.07
386.39	1282.03
386.60	1269.74
386.81	1198.06
387.02	1257.45
387.22	1265.64
387.43	1253.36
387.64	1308.65
387.85	1288.17
388.06	1292.27
388.27	1273.84
388.48	1275.88
388.68	1267.69
388.89	1253.36
389.10	1230.83
389.31	1273.84
389.52	1232.88
389.73	1173.49
389.93	1273.84
390.14	1275.88
390.35	1302.51
390.56	1257.45
390.77	1327.08
390.98	1241.07
391.18	1232.88
391.39	1279.98
391.60	1200.11
391.81	1286.12
392.02	1241.07
392.23	1261.55
392.43	1273.84
392.64	1267.69
392.85	1181.68
393.06	1245.16
393.27	1253.36
393.47	1277.93
393.68	1253.36
393.89	1275.88
394.10	1294.32
394.31	1236.97
394.52	1282.03
394.72	1271.79
394.93	1255.40
395.14	1284.08
395.35	1253.36
395.56	1267.69
395.76	1263.60
395.97	1230.83
396.18	1294.32
396.39	1224.69
396.60	1355.76
396.80	1259.50
397.01	1306.60
397.22	1314.80
397.43	1277.93
397.64	1271.79
397.84	1265.64
398.05	1310.70
398.26	1279.98
398.47	1277.93
398.67	1290.22
398.88	1275.88
399.09	1271.79
399.30	1249.26
399.51	1265.64
399.71	1322.99
399.92	1277.93
400.13	1189.87
400.34	1255.40
400.54	1261.55
400.75	1175.53
400.96	1253.36
401.17	1275.88
401.37	1286.12
401.58	1261.55
401.79	1208.30
402.00	1273.84
402.21	1359.85
402.41	1241.07
402.62	1300.46
402.83	1200.11
403.04	1232.88
403.24	1273.84
403.45	1259.50
403.66	1275.88
403.87	1290.22
404.07	1173.49
404.28	1302.51
404.49	1322.99
404.70	1228.78
404.90	1347.56
405.11	1236.97
405.32	1220.59
405.52	1253.36
405.73	1302.51
405.94	1155.05
406.15	1306.60
406.35	1236.97
406.56	1249.26
406.77	1245.16
406.98	1318.89
407.18	1251.31
407.39	1241.07
407.60	1265.64
407.80	1269.74
408.01	1337.32
408.22	1302.51
408.43	1263.60
408.63	1296.36
408.84	1204.21
409.05	1312.75
409.25	1241.07
409.46	1314.80
409.67	1251.31
409.88	1288.17
410.08	1300.46
410.29	1325.04
410.50	1261.55
410.70	1288.17
410.91	1218.54
411.12	1247.21
411.32	1284.08
411.53	1245.16
411.74	1302.51
411.95	1263.60
412.15	1198.06
412.36	1265.64
412.57	1255.40
412.77	1306.60
412.98	1243.12
413.19	1286.12
413.39	1320.94
413.60	1198.06
413.81	1273.84
414.01	1243.12
414.22	1275.88
414.43	1277.93
414.63	1271.79
414.84	1222.64
415.05	1284.08
415.25	1284.08
415.46	1245.16
415.67	1349.61
415.87	1261.55
416.08	1288.17
416.29	1177.58
416.49	1292.27
416.70	1255.40
416.91	1208.30
417.11	1298.41
417.32	1314.80
417.53	1282.03
417.73	1286.12
417.94	1304.56
418.15	1218.54
418.35	1239.02
418.56	1286.12
418.77	1347.56
418.97	1267.69
419.18	1247.21
419.38	1275.88
419.59	1224.69
419.80	1267.69
420.00	1265.64
420.21	1193.97
420.42	1284.08
420.62	1259.50
420.83	1275.88
421.04	1282.03
421.24	1253.36
421.45	1232.88
421.65	1304.56
421.86	1265.64
422.07	1296.36
422.27	1247.21
422.48	1253.36
422.69	1318.89
422.89	1218.54
423.10	1300.46
423.30	1298.41
423.51	1318.89
423.72	1279.98
423.92	1204.21
424.13	1296.36
424.33	1322.99
424.54	1275.88
424.75	1259.50
424.95	1265.64
425.16	1290.22
425.36	1271.79
425.57	1279.98
425.78	1273.84
425.98	1275.88
426.19	1245.16
426.39	1263.60
426.60	1286.12
426.81	1261.55
427.01	1302.51
427.22	1247.21
427.42	1245.16
427.63	1226.73
427.83	1314.80
428.04	1212.40
428.25	1267.69
428.45	1273.84
428.66	1318.89
428.86	1339.37
429.07	1308.65
429.28	1239.02
429.48	1271.79
429.69	1288.17
429.89	1193.97
430.10	1232.88
430.30	1290.22
430.51	1271.79
430.71	1249.26
430.92	1320.94
431.13	1286.12
431.33	1230.83
431.54	1251.31
431.74	1355.76
431.95	1265.64
432.15	1273.84
432.36	1286.12
432.56	1275.88
432.77	1232.88
432.98	1249.26
433.18	1251.31
433.39	1226.73
433.59	1222.64
433.80	1241.07
434.00	1249.26
434.21	1269.74
434.41	1286.12
434.62	1279.98
434.82	1296.36
435.03	1247.21
435.23	1185.77
435.44	1249.26
435.64	1337.32
435.85	1216.49
436.06	1308.65
436.26	1261.55
436.47	1265.64
436.67	1290.22
436.88	1253.36
437.08	1290.22
437.29	1267.69
437.49	1312.75
437.70	1275.88
437.90	1304.56
438.11	1253.36
438.31	1300.46
438.52	1249.26
438.72	1247.21
438.93	1294.32
439.13	1220.59
439.34	1290.22
439.54	1302.51
439.75	1241.07
439.95	1243.12
440.16	1239.02
440.36	1292.27
440.57	1249.26
440.77	1296.36
440.98	1302.51
441.18	1300.46
441.39	1275.88
441.59	1239.02
441.80	1243.12
442.00	1239.02
442.21	1220.59
442.41	1331.18
442.62	1232.88
442.82	1259.50
443.02	1300.46
443.23	1292.27
443.43	1288.17
443.64	1273.84
443.84	1314.80
444.05	1337.32
444.25	1251.31
444.46	1298.41
444.66	1247.21
444.87	1251.31
445.07	1257.45
445.28	1290.22
445.48	1298.41
445.69	1259.50
445.89	1257.45
446.09	1327.08
446.30	1339.37
446.50	1329.13
446.71	1288.17
446.91	1265.64
447.12	1208.30
447.32	1232.88
447.53	1265.64
447.73	1271.79
447.93	1269.74
448.14	1327.08
448.34	1314.80
448.55	1282.03
448.75	1214.45
448.96	1230.83
449.16	1294.32
449.36	1312.75
449.57	1333.23
449.77	1345.52
449.98	1253.36
450.18	1329.13
450.39	1329.13
450.59	1265.64
450.79	1241.07
451.00	1191.92
451.20	1253.36
451.41	1366.00
451.61	1214.45
451.81	1257.45
452.02	1259.50
452.22	1308.65
452.43	1232.88
452.63	1312.75
