SpectraSuite Data File
++++++++++++++++++++++++++++++++++++
Date: Sun Apr 03 19:55:31 CEST 2016
User: root
Dark Spectrum Present: No
Reference Spectrum Present: No
Number of Sampled Component Spectra: 1
Spectrometers: USB4C02835
Integration Time (usec): 10000 (USB4C02835)
Spectra Averaged: 1 (USB4C02835)
Boxcar Smoothing: 0 (USB4C02835)
Correct for Electrical Dark: No (USB4C02835)
Strobe/Lamp Enabled: No (USB4C02835)
Correct for Detector Non-linearity: No (USB4C02835)
Correct for Stray Light: No (USB4C02835)
Number of Pixels in Processed Spectrum: 3648
>>>>>Begin Processed Spectral Data<<<<<
177.47	1226.73
177.69	1226.73
177.91	1226.73
178.13	1210.35
178.36	1277.93
178.58	1247.21
178.80	1218.54
179.02	1200.11
179.24	1300.46
179.46	1347.56
179.68	1259.50
179.90	1220.59
180.13	1341.42
180.35	1239.02
180.57	1273.84
180.79	1193.97
181.01	1335.28
181.23	1208.30
181.45	1333.23
181.67	1265.64
181.90	1302.51
182.12	1310.70
182.34	1230.83
182.56	1255.40
182.78	1228.78
183.00	1322.99
183.22	1263.60
183.44	1247.21
183.66	1277.93
183.89	1189.87
184.11	1269.74
184.33	1339.37
184.55	1224.69
184.77	1271.79
184.99	1257.45
185.21	1259.50
185.43	1273.84
185.65	1187.82
185.87	1282.03
186.10	1165.29
186.32	1292.27
186.54	1165.29
186.76	1247.21
186.98	1247.21
187.20	1320.94
187.42	1288.17
187.64	1271.79
187.86	1239.02
188.08	1241.07
188.30	1245.16
188.52	1253.36
188.75	1351.66
188.97	1261.55
189.19	1322.99
189.41	1306.60
189.63	1314.80
189.85	1271.79
190.07	1222.64
190.29	1290.22
190.51	1236.97
190.73	1277.93
190.95	1273.84
191.17	1316.84
191.39	1253.36
191.61	1284.08
191.84	1259.50
192.06	1345.52
192.28	1214.45
192.50	1275.88
192.72	1243.12
192.94	1245.16
193.16	1251.31
193.38	1282.03
193.60	1187.82
193.82	1294.32
194.04	1304.56
194.26	1322.99
194.48	1304.56
194.70	1243.12
194.92	1320.94
195.14	1284.08
195.36	1277.93
195.58	1353.71
195.80	1261.55
196.02	1292.27
196.24	1296.36
196.46	1257.45
196.69	1183.73
196.91	1228.78
197.13	1294.32
197.35	1271.79
197.57	1322.99
197.79	1232.88
198.01	1226.73
198.23	1288.17
198.45	1271.79
198.67	1265.64
198.89	1265.64
199.11	1265.64
199.33	1206.25
199.55	1239.02
199.77	1253.36
199.99	1234.93
200.21	1277.93
200.43	1267.69
200.65	1157.10
200.87	1239.02
201.09	1236.97
201.31	1351.66
201.53	1292.27
201.75	1253.36
201.97	1300.46
202.19	1232.88
202.41	1290.22
202.63	1234.93
202.85	1228.78
203.07	1236.97
203.29	1236.97
203.51	1316.84
203.73	1306.60
203.95	1265.64
204.17	1210.35
204.39	1206.25
204.61	1251.31
204.83	1290.22
205.05	1265.64
205.27	1261.55
205.49	1241.07
205.71	1210.35
205.93	1255.40
206.15	1251.31
206.37	1318.89
206.59	1236.97
206.81	1273.84
207.03	1234.93
207.25	1296.36
207.47	1355.76
207.69	1277.93
207.91	1163.25
208.13	1318.89
208.34	1200.11
208.56	1273.84
208.78	1349.61
209.00	1206.25
209.22	1261.55
209.44	1302.51
209.66	1234.93
209.88	1314.80
210.10	1298.41
210.32	1316.84
210.54	1304.56
210.76	1339.37
210.98	1265.64
211.20	1206.25
211.42	1288.17
211.64	1290.22
211.86	1265.64
212.08	1214.45
212.30	1288.17
212.52	1318.89
212.74	1191.92
212.96	1251.31
213.17	1327.08
213.39	1224.69
213.61	1331.18
213.83	1202.16
214.05	1269.74
214.27	1331.18
214.49	1284.08
214.71	1208.30
214.93	1304.56
215.15	1243.12
215.37	1222.64
215.59	1290.22
215.81	1232.88
216.03	1198.06
216.24	1247.21
216.46	1261.55
216.68	1302.51
216.90	1345.52
217.12	1279.98
217.34	1257.45
217.56	1255.40
217.78	1257.45
218.00	1234.93
218.22	1333.23
218.44	1230.83
218.66	1273.84
218.87	1271.79
219.09	1236.97
219.31	1230.83
219.53	1275.88
219.75	1273.84
219.97	1267.69
220.19	1296.36
220.41	1206.25
220.63	1265.64
220.85	1325.04
221.06	1239.02
221.28	1302.51
221.50	1384.43
221.72	1277.93
221.94	1273.84
222.16	1310.70
222.38	1312.75
222.60	1329.13
222.82	1300.46
223.03	1294.32
223.25	1255.40
223.47	1284.08
223.69	1267.69
223.91	1310.70
224.13	1345.52
224.35	1196.01
224.57	1279.98
224.78	1259.50
225.00	1265.64
225.22	1228.78
225.44	1284.08
225.66	1302.51
225.88	1245.16
226.10	1220.59
226.32	1257.45
226.53	1179.63
226.75	1284.08
226.97	1267.69
227.19	1290.22
227.41	1255.40
227.63	1322.99
227.85	1279.98
228.06	1255.40
228.28	1251.31
228.50	1257.45
228.72	1269.74
228.94	1265.64
229.16	1202.16
229.37	1275.88
229.59	1204.21
229.81	1279.98
230.03	1165.29
230.25	1269.74
230.47	1314.80
230.69	1320.94
230.90	1251.31
231.12	1218.54
231.34	1249.26
231.56	1224.69
231.78	1206.25
232.00	1189.87
232.21	1271.79
232.43	1298.41
232.65	1316.84
232.87	1288.17
233.09	1239.02
233.30	1249.26
233.52	1292.27
233.74	1294.32
233.96	1214.45
234.18	1329.13
234.40	1322.99
234.61	1251.31
234.83	1312.75
235.05	1257.45
235.27	1316.84
235.49	1314.80
235.70	1265.64
235.92	1310.70
236.14	1257.45
236.36	1279.98
236.58	1265.64
236.79	1257.45
237.01	1228.78
237.23	1263.60
237.45	1304.56
237.67	1282.03
237.88	1267.69
238.10	1320.94
238.32	1273.84
238.54	1222.64
238.76	1302.51
238.97	1279.98
239.19	1310.70
239.41	1306.60
239.63	1214.45
239.85	1261.55
240.06	1312.75
240.28	1198.06
240.50	1198.06
240.72	1263.60
240.93	1210.35
241.15	1279.98
241.37	1296.36
241.59	1310.70
241.81	1282.03
242.02	1224.69
242.24	1269.74
242.46	1267.69
242.68	1222.64
242.89	1349.61
243.11	1263.60
243.33	1263.60
243.55	1257.45
243.76	1241.07
243.98	1261.55
244.20	1290.22
244.42	1263.60
244.64	1290.22
244.85	1308.65
245.07	1300.46
245.29	1214.45
245.51	1277.93
245.72	1273.84
245.94	1232.88
246.16	1308.65
246.38	1288.17
246.59	1271.79
246.81	1261.55
247.03	1212.40
247.24	1255.40
247.46	1222.64
247.68	1230.83
247.90	1294.32
248.11	1263.60
248.33	1183.73
248.55	1331.18
248.77	1296.36
248.98	1228.78
249.20	1333.23
249.42	1234.93
249.64	1277.93
249.85	1316.84
250.07	1286.12
250.29	1306.60
250.50	1370.09
250.72	1333.23
250.94	1341.42
251.16	1282.03
251.37	1279.98
251.59	1220.59
251.81	1329.13
252.02	1245.16
252.24	1212.40
252.46	1271.79
252.68	1255.40
252.89	1318.89
253.11	1189.87
253.33	1230.83
253.54	1224.69
253.76	1329.13
253.98	1306.60
254.20	1200.11
254.41	1271.79
254.63	1302.51
254.85	1245.16
255.06	1263.60
255.28	1202.16
255.50	1245.16
255.71	1206.25
255.93	1269.74
256.15	1347.56
256.36	1261.55
256.58	1271.79
256.80	1191.92
257.02	1202.16
257.23	1241.07
257.45	1308.65
257.67	1249.26
257.88	1224.69
258.10	1296.36
258.32	1269.74
258.53	1312.75
258.75	1200.11
258.97	1200.11
259.18	1179.63
259.40	1306.60
259.62	1279.98
259.83	1261.55
260.05	1239.02
260.27	1273.84
260.48	1290.22
260.70	1294.32
260.92	1247.21
261.13	1288.17
261.35	1236.97
261.57	1257.45
261.78	1218.54
262.00	1318.89
262.22	1257.45
262.43	1298.41
262.65	1335.28
262.86	1271.79
263.08	1200.11
263.30	1335.28
263.51	1226.73
263.73	1273.84
263.95	1253.36
264.16	1294.32
264.38	1325.04
264.60	1228.78
264.81	1218.54
265.03	1316.84
265.25	1312.75
265.46	1226.73
265.68	1284.08
265.89	1261.55
266.11	1245.16
266.33	1275.88
266.54	1226.73
266.76	1224.69
266.98	1273.84
267.19	1228.78
267.41	1339.37
267.62	1245.16
267.84	1279.98
268.06	1261.55
268.27	1300.46
268.49	1306.60
268.70	1267.69
268.92	1310.70
269.14	1245.16
269.35	1253.36
269.57	1275.88
269.79	1224.69
270.00	1261.55
270.22	1282.03
270.43	1216.49
270.65	1269.74
270.87	1286.12
271.08	1202.16
271.30	1206.25
271.51	1218.54
271.73	1234.93
271.95	1243.12
272.16	1253.36
272.38	1263.60
272.59	1247.21
272.81	1263.60
273.02	1259.50
273.24	1322.99
273.46	1290.22
273.67	1206.25
273.89	1279.98
274.10	1304.56
274.32	1275.88
274.54	1241.07
274.75	1302.51
274.97	1421.29
275.18	1234.93
275.40	1290.22
275.61	1224.69
275.83	1279.98
276.05	1255.40
276.26	1255.40
276.48	1200.11
276.69	1224.69
276.91	1259.50
277.12	1282.03
277.34	1247.21
277.55	1302.51
277.77	1249.26
277.99	1304.56
278.20	1269.74
278.42	1255.40
278.63	1294.32
278.85	1269.74
279.06	1259.50
279.28	1304.56
279.49	1261.55
279.71	1282.03
279.93	1263.60
280.14	1249.26
280.36	1245.16
280.57	1296.36
280.79	1300.46
281.00	1271.79
281.22	1255.40
281.43	1288.17
281.65	1257.45
281.86	1312.75
282.08	1271.79
282.29	1302.51
282.51	1255.40
282.73	1282.03
282.94	1349.61
283.16	1277.93
283.37	1222.64
283.59	1261.55
283.80	1325.04
284.02	1198.06
284.23	1327.08
284.45	1259.50
284.66	1224.69
284.88	1320.94
285.09	1245.16
285.31	1347.56
285.52	1327.08
285.74	1257.45
285.95	1249.26
286.17	1257.45
286.38	1261.55
286.60	1312.75
286.81	1271.79
287.03	1243.12
287.24	1263.60
287.46	1337.32
287.67	1275.88
287.89	1314.80
288.10	1239.02
288.32	1368.04
288.53	1337.32
288.75	1198.06
288.96	1210.35
289.18	1230.83
289.39	1177.58
289.61	1277.93
289.82	1279.98
290.04	1308.65
290.25	1298.41
290.47	1253.36
290.68	1318.89
290.90	1290.22
291.11	1224.69
291.33	1255.40
291.54	1232.88
291.76	1339.37
291.97	1245.16
292.18	1310.70
292.40	1249.26
292.61	1204.21
292.83	1267.69
293.04	1249.26
293.26	1286.12
293.47	1302.51
293.69	1243.12
293.90	1267.69
294.12	1232.88
294.33	1288.17
294.55	1273.84
294.76	1288.17
294.97	1263.60
295.19	1216.49
295.40	1224.69
295.62	1253.36
295.83	1214.45
296.05	1249.26
296.26	1310.70
296.48	1284.08
296.69	1247.21
296.90	1294.32
297.12	1314.80
297.33	1286.12
297.55	1214.45
297.76	1308.65
297.98	1230.83
298.19	1327.08
298.41	1279.98
298.62	1222.64
298.83	1249.26
299.05	1294.32
299.26	1236.97
299.48	1337.32
299.69	1208.30
299.90	1318.89
300.12	1310.70
300.33	1259.50
300.55	1226.73
300.76	1292.27
300.98	1292.27
301.19	1245.16
301.40	1304.56
301.62	1249.26
301.83	1282.03
302.05	1241.07
302.26	1255.40
302.47	1245.16
302.69	1224.69
302.90	1263.60
303.12	1257.45
303.33	1249.26
303.54	1300.46
303.76	1279.98
303.97	1271.79
304.19	1308.65
304.40	1228.78
304.61	1230.83
304.83	1290.22
305.04	1300.46
305.26	1341.42
305.47	1286.12
305.68	1298.41
305.90	1298.41
306.11	1249.26
306.33	1286.12
306.54	1134.57
306.75	1286.12
306.97	1220.59
307.18	1257.45
307.39	1249.26
307.61	1222.64
307.82	1234.93
308.04	1251.31
308.25	1261.55
308.46	1255.40
308.68	1261.55
308.89	1230.83
309.10	1265.64
309.32	1284.08
309.53	1288.17
309.74	1269.74
309.96	1241.07
310.17	1294.32
310.39	1382.38
310.60	1316.84
310.81	1165.29
311.03	1255.40
311.24	1284.08
311.45	1259.50
311.67	1228.78
311.88	1320.94
312.09	1220.59
312.31	1331.18
312.52	1273.84
312.73	1298.41
312.95	1234.93
313.16	1261.55
313.37	1282.03
313.59	1277.93
313.80	1261.55
314.01	1286.12
314.23	1181.68
314.44	1277.93
314.65	1189.87
314.87	1298.41
315.08	1177.58
315.29	1337.32
315.51	1298.41
315.72	1245.16
315.93	1312.75
316.15	1267.69
316.36	1325.04
316.57	1279.98
316.79	1327.08
317.00	1228.78
317.21	1275.88
317.43	1337.32
317.64	1263.60
317.85	1306.60
318.07	1318.89
318.28	1214.45
318.49	1204.21
318.70	1290.22
318.92	1220.59
319.13	1288.17
319.34	1249.26
319.56	1282.03
319.77	1286.12
319.98	1325.04
320.20	1243.12
320.41	1275.88
320.62	1318.89
320.83	1327.08
321.05	1255.40
321.26	1318.89
321.47	1267.69
321.69	1347.56
321.90	1306.60
322.11	1275.88
322.32	1241.07
322.54	1263.60
322.75	1171.44
322.96	1181.68
323.18	1210.35
323.39	1263.60
323.60	1234.93
323.81	1286.12
324.03	1302.51
324.24	1222.64
324.45	1349.61
324.66	1202.16
324.88	1200.11
325.09	1290.22
325.30	1239.02
325.52	1241.07
325.73	1284.08
325.94	1251.31
326.15	1261.55
326.37	1255.40
326.58	1234.93
326.79	1220.59
327.00	1302.51
327.22	1322.99
327.43	1343.47
327.64	1241.07
327.85	1247.21
328.07	1380.33
328.28	1314.80
328.49	1288.17
328.70	1249.26
328.92	1226.73
329.13	1245.16
329.34	1361.90
329.55	1267.69
329.76	1232.88
329.98	1279.98
330.19	1284.08
330.40	1245.16
330.61	1261.55
330.83	1339.37
331.04	1282.03
331.25	1290.22
331.46	1230.83
331.68	1273.84
331.89	1214.45
332.10	1298.41
332.31	1269.74
332.52	1271.79
332.74	1273.84
332.95	1341.42
333.16	1212.40
333.37	1253.36
333.58	1255.40
333.80	1249.26
334.01	1251.31
334.22	1284.08
334.43	1271.79
334.64	1288.17
334.86	1265.64
335.07	1300.46
335.28	1241.07
335.49	1277.93
335.70	1206.25
335.92	1249.26
336.13	1337.32
336.34	1239.02
336.55	1193.97
336.76	1247.21
336.98	1296.36
337.19	1267.69
337.40	1257.45
337.61	1251.31
337.82	1187.82
338.04	1257.45
338.25	1243.12
338.46	1265.64
338.67	1241.07
338.88	1275.88
339.09	1226.73
339.31	1263.60
339.52	1300.46
339.73	1224.69
339.94	1153.01
340.15	1255.40
340.36	1214.45
340.58	1273.84
340.79	1318.89
341.00	1277.93
341.21	1284.08
341.42	1294.32
341.63	1239.02
341.85	1249.26
342.06	1277.93
342.27	1275.88
342.48	1271.79
342.69	1230.83
342.90	1282.03
343.12	1251.31
343.33	1228.78
343.54	1269.74
343.75	1251.31
343.96	1284.08
344.17	1310.70
344.38	1247.21
344.60	1198.06
344.81	1253.36
345.02	1251.31
345.23	1220.59
345.44	1314.80
345.65	1302.51
345.86	1304.56
346.07	1261.55
346.29	1171.44
346.50	1275.88
346.71	1271.79
346.92	1363.95
347.13	1296.36
347.34	1224.69
347.55	1292.27
347.76	1271.79
347.98	1224.69
348.19	1261.55
348.40	1284.08
348.61	1312.75
348.82	1284.08
349.03	1202.16
349.24	1210.35
349.45	1302.51
349.66	1273.84
349.88	1187.82
350.09	1361.90
350.30	1257.45
350.51	1294.32
350.72	1273.84
350.93	1288.17
351.14	1241.07
351.35	1245.16
351.56	1218.54
351.77	1275.88
351.99	1286.12
352.20	1273.84
352.41	1298.41
352.62	1183.73
352.83	1261.55
353.04	1279.98
353.25	1318.89
353.46	1296.36
353.67	1298.41
353.88	1220.59
354.09	1384.43
354.30	1296.36
354.52	1241.07
354.73	1226.73
354.94	1214.45
355.15	1282.03
355.36	1259.50
355.57	1228.78
355.78	1236.97
355.99	1316.84
356.20	1294.32
356.41	1341.42
356.62	1239.02
356.83	1210.35
357.04	1288.17
357.25	1267.69
357.46	1239.02
357.68	1212.40
357.89	1251.31
358.10	1214.45
358.31	1257.45
358.52	1232.88
358.73	1212.40
358.94	1222.64
359.15	1202.16
359.36	1216.49
359.57	1228.78
359.78	1265.64
359.99	1232.88
360.20	1271.79
360.41	1163.25
360.62	1265.64
360.83	1269.74
361.04	1265.64
361.25	1343.47
361.46	1292.27
361.67	1286.12
361.88	1265.64
362.09	1257.45
362.30	1294.32
362.51	1314.80
362.72	1267.69
362.93	1314.80
363.14	1308.65
363.35	1269.74
363.56	1243.12
363.78	1257.45
363.99	1241.07
364.20	1243.12
364.41	1314.80
364.62	1261.55
364.83	1286.12
365.04	1251.31
365.25	1239.02
365.46	1239.02
365.67	1320.94
365.88	1259.50
366.09	1302.51
366.30	1277.93
366.51	1204.21
366.72	1257.45
366.93	1251.31
367.14	1255.40
367.35	1257.45
367.56	1234.93
367.77	1310.70
367.98	1261.55
368.18	1265.64
368.39	1222.64
368.60	1322.99
368.81	1277.93
369.02	1261.55
369.23	1273.84
369.44	1259.50
369.65	1308.65
369.86	1312.75
370.07	1230.83
370.28	1226.73
370.49	1267.69
370.70	1222.64
370.91	1214.45
371.12	1341.42
371.33	1230.83
371.54	1220.59
371.75	1353.71
371.96	1214.45
372.17	1306.60
372.38	1265.64
372.59	1263.60
372.80	1325.04
373.01	1261.55
373.22	1284.08
373.43	1202.16
373.64	1279.98
373.85	1212.40
374.06	1245.16
374.26	1249.26
374.47	1253.36
374.68	1320.94
374.89	1400.81
375.10	1218.54
375.31	1343.47
375.52	1339.37
375.73	1241.07
375.94	1271.79
376.15	1302.51
376.36	1243.12
376.57	1228.78
376.78	1247.21
376.99	1267.69
377.20	1279.98
377.40	1279.98
377.61	1239.02
377.82	1279.98
378.03	1269.74
378.24	1298.41
378.45	1308.65
378.66	1222.64
378.87	1286.12
379.08	1335.28
379.29	1314.80
379.50	1230.83
379.71	1277.93
379.91	1316.84
380.12	1253.36
380.33	1282.03
380.54	1296.36
380.75	1261.55
380.96	1263.60
381.17	1212.40
381.38	1355.76
381.59	1308.65
381.80	1267.69
382.00	1322.99
382.21	1224.69
382.42	1372.14
382.63	1232.88
382.84	1255.40
383.05	1241.07
383.26	1288.17
383.47	1320.94
383.68	1253.36
383.88	1204.21
384.09	1271.79
384.30	1249.26
384.51	1247.21
384.72	1271.79
384.93	1282.03
385.14	1263.60
385.35	1331.18
385.55	1247.21
385.76	1243.12
385.97	1312.75
386.18	1245.16
386.39	1265.64
386.60	1255.40
386.81	1298.41
387.02	1302.51
387.22	1273.84
387.43	1265.64
387.64	1341.42
387.85	1302.51
388.06	1249.26
388.27	1224.69
388.48	1263.60
388.68	1239.02
388.89	1290.22
389.10	1241.07
389.31	1257.45
389.52	1255.40
389.73	1257.45
389.93	1263.60
390.14	1245.16
390.35	1277.93
390.56	1228.78
390.77	1312.75
390.98	1296.36
391.18	1322.99
391.39	1239.02
391.60	1249.26
391.81	1304.56
392.02	1296.36
392.23	1298.41
392.43	1239.02
392.64	1286.12
392.85	1306.60
393.06	1247.21
393.27	1251.31
393.47	1304.56
393.68	1257.45
393.89	1230.83
394.10	1218.54
394.31	1310.70
394.52	1329.13
394.72	1261.55
394.93	1261.55
395.14	1271.79
395.35	1265.64
395.56	1290.22
395.76	1304.56
395.97	1312.75
396.18	1282.03
396.39	1249.26
396.60	1269.74
396.80	1296.36
397.01	1263.60
397.22	1228.78
397.43	1232.88
397.64	1214.45
397.84	1159.15
398.05	1304.56
398.26	1241.07
398.47	1296.36
398.67	1286.12
398.88	1208.30
399.09	1245.16
399.30	1222.64
399.51	1304.56
399.71	1329.13
399.92	1247.21
400.13	1292.27
400.34	1275.88
400.54	1234.93
400.75	1337.32
400.96	1259.50
401.17	1296.36
401.37	1198.06
401.58	1288.17
401.79	1226.73
402.00	1251.31
402.21	1316.84
402.41	1322.99
402.62	1169.39
402.83	1265.64
403.04	1255.40
403.24	1224.69
403.45	1267.69
403.66	1345.52
403.87	1245.16
404.07	1349.61
404.28	1255.40
404.49	1239.02
404.70	1267.69
404.90	1300.46
405.11	1286.12
405.32	1181.68
405.52	1282.03
405.73	1273.84
405.94	1275.88
406.15	1249.26
406.35	1247.21
406.56	1298.41
406.77	1284.08
406.98	1208.30
407.18	1269.74
407.39	1269.74
407.60	1234.93
407.80	1255.40
408.01	1251.31
408.22	1222.64
408.43	1318.89
408.63	1277.93
408.84	1284.08
409.05	1322.99
409.25	1302.51
409.46	1239.02
409.67	1265.64
409.88	1327.08
410.08	1271.79
410.29	1179.63
410.50	1232.88
410.70	1257.45
410.91	1247.21
411.12	1204.21
411.32	1187.82
411.53	1189.87
411.74	1255.40
411.95	1275.88
412.15	1359.85
412.36	1222.64
412.57	1263.60
412.77	1357.80
412.98	1327.08
413.19	1273.84
413.39	1304.56
413.60	1236.97
413.81	1298.41
414.01	1224.69
414.22	1296.36
414.43	1259.50
414.63	1290.22
414.84	1243.12
415.05	1253.36
415.25	1236.97
415.46	1241.07
415.67	1288.17
415.87	1234.93
416.08	1259.50
416.29	1236.97
416.49	1267.69
416.70	1316.84
416.91	1318.89
417.11	1292.27
417.32	1251.31
417.53	1249.26
417.73	1273.84
417.94	1196.01
418.15	1290.22
418.35	1253.36
418.56	1300.46
418.77	1222.64
418.97	1200.11
419.18	1284.08
419.38	1161.20
419.59	1243.12
419.80	1298.41
420.00	1273.84
420.21	1277.93
420.42	1302.51
420.62	1230.83
420.83	1275.88
421.04	1234.93
421.24	1322.99
421.45	1257.45
421.65	1279.98
421.86	1327.08
422.07	1298.41
422.27	1216.49
422.48	1271.79
422.69	1259.50
422.89	1187.82
423.10	1241.07
423.30	1331.18
423.51	1179.63
423.72	1312.75
423.92	1226.73
424.13	1259.50
424.33	1245.16
424.54	1259.50
424.75	1228.78
424.95	1304.56
425.16	1261.55
425.36	1273.84
425.57	1329.13
425.78	1263.60
425.98	1187.82
426.19	1294.32
426.39	1257.45
426.60	1251.31
426.81	1306.60
427.01	1290.22
427.22	1259.50
427.42	1296.36
427.63	1318.89
427.83	1320.94
428.04	1247.21
428.25	1239.02
428.45	1275.88
428.66	1288.17
428.86	1267.69
429.07	1245.16
429.28	1255.40
429.48	1318.89
429.69	1347.56
429.89	1239.02
430.10	1243.12
430.30	1286.12
430.51	1329.13
430.71	1249.26
430.92	1284.08
431.13	1230.83
431.33	1296.36
431.54	1228.78
431.74	1325.04
431.95	1257.45
432.15	1239.02
432.36	1236.97
432.56	1261.55
432.77	1232.88
432.98	1347.56
433.18	1351.66
433.39	1296.36
433.59	1277.93
433.80	1212.40
434.00	1308.65
434.21	1361.90
434.41	1210.35
434.62	1234.93
434.82	1230.83
435.03	1329.13
435.23	1288.17
435.44	1251.31
435.64	1241.07
435.85	1275.88
436.06	1298.41
436.26	1230.83
436.47	1329.13
436.67	1304.56
436.88	1232.88
437.08	1259.50
437.29	1239.02
437.49	1261.55
437.70	1210.35
437.90	1224.69
438.11	1245.16
438.31	1271.79
438.52	1259.50
438.72	1279.98
438.93	1234.93
439.13	1308.65
439.34	1316.84
439.54	1269.74
439.75	1220.59
439.95	1279.98
440.16	1210.35
440.36	1282.03
440.57	1249.26
440.77	1214.45
440.98	1191.92
441.18	1255.40
441.39	1294.32
441.59	1253.36
441.80	1206.25
442.00	1210.35
442.21	1255.40
442.41	1277.93
442.62	1232.88
442.82	1282.03
443.02	1204.21
443.23	1214.45
443.43	1200.11
443.64	1247.21
443.84	1249.26
444.05	1261.55
444.25	1236.97
444.46	1232.88
444.66	1243.12
444.87	1306.60
445.07	1230.83
445.28	1282.03
445.48	1282.03
445.69	1273.84
445.89	1259.50
446.09	1277.93
446.30	1288.17
446.50	1282.03
446.71	1230.83
446.91	1320.94
447.12	1320.94
447.32	1249.26
447.53	1279.98
447.73	1353.71
447.93	1325.04
448.14	1243.12
448.34	1284.08
448.55	1298.41
448.75	1222.64
448.96	1318.89
449.16	1253.36
449.36	1370.09
449.57	1298.41
449.77	1374.19
449.98	1261.55
450.18	1314.80
450.39	1245.16
450.59	1300.46
450.79	1292.27
451.00	1273.84
451.20	1290.22
451.41	1277.93
451.61	1261.55
451.81	1247.21
452.02	1171.44
452.22	1286.12
452.43	1275.88
452.63	1261.55
