SpectraSuite Data File
++++++++++++++++++++++++++++++++++++
Date: Sun Apr 03 19:55:23 CEST 2016
User: root
Dark Spectrum Present: No
Reference Spectrum Present: No
Number of Sampled Component Spectra: 1
Spectrometers: USB4C02835
Integration Time (usec): 10000 (USB4C02835)
Spectra Averaged: 1 (USB4C02835)
Boxcar Smoothing: 0 (USB4C02835)
Correct for Electrical Dark: No (USB4C02835)
Strobe/Lamp Enabled: No (USB4C02835)
Correct for Detector Non-linearity: No (USB4C02835)
Correct for Stray Light: No (USB4C02835)
Number of Pixels in Processed Spectrum: 3648
>>>>>Begin Processed Spectral Data<<<<<
177.47	1273.84
177.69	1273.84
177.91	1273.84
178.13	1163.25
178.36	1269.74
178.58	1277.93
178.80	1275.88
179.02	1275.88
179.24	1267.69
179.46	1257.45
179.68	1236.97
179.90	1290.22
180.13	1257.45
180.35	1288.17
180.57	1302.51
180.79	1335.28
181.01	1284.08
181.23	1220.59
181.45	1263.60
181.67	1226.73
181.90	1359.85
182.12	1306.60
182.34	1302.51
182.56	1196.01
182.78	1269.74
183.00	1318.89
183.22	1304.56
183.44	1257.45
183.66	1255.40
183.89	1306.60
184.11	1331.18
184.33	1310.70
184.55	1284.08
184.77	1267.69
184.99	1296.36
185.21	1288.17
185.43	1286.12
185.65	1185.77
185.87	1269.74
186.10	1253.36
186.32	1226.73
186.54	1337.32
186.76	1273.84
186.98	1249.26
187.20	1292.27
187.42	1269.74
187.64	1320.94
187.86	1374.19
188.08	1245.16
188.30	1241.07
188.52	1257.45
188.75	1273.84
188.97	1292.27
189.19	1249.26
189.41	1224.69
189.63	1282.03
189.85	1239.02
190.07	1286.12
190.29	1224.69
190.51	1247.21
190.73	1232.88
190.95	1302.51
191.17	1296.36
191.39	1259.50
191.61	1284.08
191.84	1275.88
192.06	1243.12
192.28	1300.46
192.50	1253.36
192.72	1273.84
192.94	1247.21
193.16	1300.46
193.38	1269.74
193.60	1171.44
193.82	1241.07
194.04	1204.21
194.26	1257.45
194.48	1370.09
194.70	1273.84
194.92	1298.41
195.14	1282.03
195.36	1298.41
195.58	1249.26
195.80	1339.37
196.02	1329.13
196.24	1245.16
196.46	1267.69
196.69	1239.02
196.91	1249.26
197.13	1263.60
197.35	1314.80
197.57	1253.36
197.79	1261.55
198.01	1304.56
198.23	1261.55
198.45	1226.73
198.67	1290.22
198.89	1236.97
199.11	1304.56
199.33	1228.78
199.55	1271.79
199.77	1298.41
199.99	1241.07
200.21	1312.75
200.43	1226.73
200.65	1232.88
200.87	1314.80
201.09	1320.94
201.31	1271.79
201.53	1241.07
201.75	1294.32
201.97	1290.22
202.19	1220.59
202.41	1292.27
202.63	1322.99
202.85	1308.65
203.07	1245.16
203.29	1216.49
203.51	1310.70
203.73	1220.59
203.95	1267.69
204.17	1279.98
204.39	1288.17
204.61	1290.22
204.83	1261.55
205.05	1220.59
205.27	1230.83
205.49	1271.79
205.71	1232.88
205.93	1335.28
206.15	1271.79
206.37	1271.79
206.59	1232.88
206.81	1282.03
207.03	1314.80
207.25	1320.94
207.47	1263.60
207.69	1230.83
207.91	1312.75
208.13	1220.59
208.34	1257.45
208.56	1255.40
208.78	1226.73
209.00	1265.64
209.22	1226.73
209.44	1302.51
209.66	1218.54
209.88	1335.28
210.10	1247.21
210.32	1290.22
210.54	1271.79
210.76	1269.74
210.98	1269.74
211.20	1202.16
211.42	1206.25
211.64	1236.97
211.86	1216.49
212.08	1269.74
212.30	1312.75
212.52	1308.65
212.74	1359.85
212.96	1269.74
213.17	1228.78
213.39	1173.49
213.61	1312.75
213.83	1241.07
214.05	1212.40
214.27	1316.84
214.49	1228.78
214.71	1392.62
214.93	1329.13
215.15	1138.67
215.37	1302.51
215.59	1247.21
215.81	1220.59
216.03	1257.45
216.24	1249.26
216.46	1304.56
216.68	1239.02
216.90	1288.17
217.12	1265.64
217.34	1322.99
217.56	1169.39
217.78	1222.64
218.00	1234.93
218.22	1255.40
218.44	1253.36
218.66	1251.31
218.87	1298.41
219.09	1159.15
219.31	1286.12
219.53	1282.03
219.75	1312.75
219.97	1284.08
220.19	1294.32
220.41	1214.45
220.63	1302.51
220.85	1273.84
221.06	1271.79
221.28	1279.98
221.50	1304.56
221.72	1304.56
221.94	1218.54
222.16	1363.95
222.38	1279.98
222.60	1259.50
222.82	1320.94
223.03	1259.50
223.25	1318.89
223.47	1267.69
223.69	1247.21
223.91	1165.29
224.13	1273.84
224.35	1255.40
224.57	1216.49
224.78	1232.88
225.00	1261.55
225.22	1245.16
225.44	1267.69
225.66	1236.97
225.88	1292.27
226.10	1249.26
226.32	1265.64
226.53	1265.64
226.75	1411.05
226.97	1265.64
227.19	1239.02
227.41	1327.08
227.63	1302.51
227.85	1222.64
228.06	1288.17
228.28	1267.69
228.50	1361.90
228.72	1359.85
228.94	1224.69
229.16	1191.92
229.37	1312.75
229.59	1265.64
229.81	1253.36
230.03	1228.78
230.25	1236.97
230.47	1355.76
230.69	1251.31
230.90	1284.08
231.12	1247.21
231.34	1249.26
231.56	1265.64
231.78	1290.22
232.00	1337.32
232.21	1232.88
232.43	1220.59
232.65	1286.12
232.87	1228.78
233.09	1302.51
233.30	1288.17
233.52	1261.55
233.74	1286.12
233.96	1296.36
234.18	1273.84
234.40	1193.97
234.61	1339.37
234.83	1273.84
235.05	1306.60
235.27	1290.22
235.49	1273.84
235.70	1286.12
235.92	1236.97
236.14	1200.11
236.36	1247.21
236.58	1271.79
236.79	1239.02
237.01	1284.08
237.23	1241.07
237.45	1343.47
237.67	1320.94
237.88	1279.98
238.10	1189.87
238.32	1216.49
238.54	1327.08
238.76	1294.32
238.97	1269.74
239.19	1269.74
239.41	1218.54
239.63	1255.40
239.85	1239.02
240.06	1239.02
240.28	1259.50
240.50	1267.69
240.72	1300.46
240.93	1320.94
241.15	1302.51
241.37	1282.03
241.59	1245.16
241.81	1304.56
242.02	1288.17
242.24	1355.76
242.46	1251.31
242.68	1218.54
242.89	1204.21
243.11	1366.00
243.33	1243.12
243.55	1232.88
243.76	1234.93
243.98	1304.56
244.20	1253.36
244.42	1255.40
244.64	1333.23
244.85	1230.83
245.07	1296.36
245.29	1253.36
245.51	1247.21
245.72	1265.64
245.94	1224.69
246.16	1267.69
246.38	1269.74
246.59	1218.54
246.81	1312.75
247.03	1232.88
247.24	1255.40
247.46	1204.21
247.68	1220.59
247.90	1216.49
248.11	1273.84
248.33	1267.69
248.55	1279.98
248.77	1269.74
248.98	1282.03
249.20	1249.26
249.42	1247.21
249.64	1312.75
249.85	1259.50
250.07	1282.03
250.29	1282.03
250.50	1230.83
250.72	1282.03
250.94	1230.83
251.16	1277.93
251.37	1277.93
251.59	1251.31
251.81	1265.64
252.02	1288.17
252.24	1191.92
252.46	1232.88
252.68	1228.78
252.89	1298.41
253.11	1245.16
253.33	1189.87
253.54	1284.08
253.76	1222.64
253.98	1255.40
254.20	1273.84
254.41	1279.98
254.63	1183.73
254.85	1302.51
255.06	1288.17
255.28	1251.31
255.50	1374.19
255.71	1275.88
255.93	1277.93
256.15	1255.40
256.36	1277.93
256.58	1257.45
256.80	1370.09
257.02	1249.26
257.23	1273.84
257.45	1300.46
257.67	1277.93
257.88	1271.79
258.10	1241.07
258.32	1275.88
258.53	1325.04
258.75	1179.63
258.97	1267.69
259.18	1245.16
259.40	1271.79
259.62	1267.69
259.83	1259.50
260.05	1304.56
260.27	1288.17
260.48	1230.83
260.70	1226.73
260.92	1279.98
261.13	1322.99
261.35	1216.49
261.57	1300.46
261.78	1279.98
262.00	1224.69
262.22	1279.98
262.43	1259.50
262.65	1277.93
262.86	1320.94
263.08	1296.36
263.30	1302.51
263.51	1284.08
263.73	1261.55
263.95	1312.75
264.16	1345.52
264.38	1224.69
264.60	1265.64
264.81	1249.26
265.03	1298.41
265.25	1232.88
265.46	1282.03
265.68	1273.84
265.89	1302.51
266.11	1241.07
266.33	1251.31
266.54	1335.28
266.76	1331.18
266.98	1288.17
267.19	1245.16
267.41	1263.60
267.62	1298.41
267.84	1245.16
268.06	1202.16
268.27	1282.03
268.49	1347.56
268.70	1247.21
268.92	1255.40
269.14	1277.93
269.35	1273.84
269.57	1249.26
269.79	1222.64
270.00	1259.50
270.22	1290.22
270.43	1288.17
270.65	1198.06
270.87	1222.64
271.08	1236.97
271.30	1220.59
271.51	1284.08
271.73	1284.08
271.95	1257.45
272.16	1220.59
272.38	1220.59
272.59	1288.17
272.81	1222.64
273.02	1261.55
273.24	1290.22
273.46	1251.31
273.67	1265.64
273.89	1282.03
274.10	1339.37
274.32	1306.60
274.54	1222.64
274.75	1339.37
274.97	1296.36
275.18	1236.97
275.40	1302.51
275.61	1257.45
275.83	1282.03
276.05	1243.12
276.26	1271.79
276.48	1232.88
276.69	1257.45
276.91	1269.74
277.12	1312.75
277.34	1366.00
277.55	1249.26
277.77	1290.22
277.99	1232.88
278.20	1253.36
278.42	1222.64
278.63	1157.10
278.85	1236.97
279.06	1255.40
279.28	1226.73
279.49	1322.99
279.71	1220.59
279.93	1261.55
280.14	1265.64
280.36	1220.59
280.57	1230.83
280.79	1288.17
281.00	1161.20
281.22	1318.89
281.43	1347.56
281.65	1247.21
281.86	1220.59
282.08	1312.75
282.29	1327.08
282.51	1304.56
282.73	1224.69
282.94	1282.03
283.16	1284.08
283.37	1232.88
283.59	1269.74
283.80	1325.04
284.02	1298.41
284.23	1269.74
284.45	1249.26
284.66	1265.64
284.88	1271.79
285.09	1228.78
285.31	1234.93
285.52	1236.97
285.74	1228.78
285.95	1327.08
286.17	1284.08
286.38	1234.93
286.60	1232.88
286.81	1273.84
287.03	1294.32
287.24	1251.31
287.46	1298.41
287.67	1308.65
287.89	1298.41
288.10	1253.36
288.32	1216.49
288.53	1245.16
288.75	1239.02
288.96	1232.88
289.18	1271.79
289.39	1208.30
289.61	1269.74
289.82	1269.74
290.04	1232.88
290.25	1269.74
290.47	1228.78
290.68	1277.93
290.90	1241.07
291.11	1239.02
291.33	1161.20
291.54	1247.21
291.76	1224.69
291.97	1208.30
292.18	1273.84
292.40	1249.26
292.61	1282.03
292.83	1304.56
293.04	1288.17
293.26	1212.40
293.47	1296.36
293.69	1251.31
293.90	1282.03
294.12	1198.06
294.33	1286.12
294.55	1216.49
294.76	1290.22
294.97	1279.98
295.19	1177.58
295.40	1302.51
295.62	1220.59
295.83	1316.84
296.05	1243.12
296.26	1290.22
296.48	1275.88
296.69	1312.75
296.90	1288.17
297.12	1277.93
297.33	1255.40
297.55	1265.64
297.76	1249.26
297.98	1316.84
298.19	1269.74
298.41	1294.32
298.62	1251.31
298.83	1296.36
299.05	1335.28
299.26	1222.64
299.48	1226.73
299.69	1255.40
299.90	1279.98
300.12	1210.35
300.33	1292.27
300.55	1327.08
300.76	1339.37
300.98	1253.36
301.19	1263.60
301.40	1306.60
301.62	1251.31
301.83	1284.08
302.05	1216.49
302.26	1220.59
302.47	1239.02
302.69	1210.35
302.90	1292.27
303.12	1234.93
303.33	1298.41
303.54	1224.69
303.76	1241.07
303.97	1241.07
304.19	1263.60
304.40	1286.12
304.61	1243.12
304.83	1226.73
305.04	1282.03
305.26	1261.55
305.47	1269.74
305.68	1208.30
305.90	1216.49
306.11	1292.27
306.33	1282.03
306.54	1210.35
306.75	1212.40
306.97	1234.93
307.18	1273.84
307.39	1290.22
307.61	1286.12
307.82	1255.40
308.04	1216.49
308.25	1224.69
308.46	1265.64
308.68	1239.02
308.89	1331.18
309.10	1247.21
309.32	1314.80
309.53	1247.21
309.74	1279.98
309.96	1189.87
310.17	1290.22
310.39	1294.32
310.60	1288.17
310.81	1255.40
311.03	1345.52
311.24	1316.84
311.45	1302.51
311.67	1288.17
311.88	1308.65
312.09	1271.79
312.31	1218.54
312.52	1243.12
312.73	1265.64
312.95	1271.79
313.16	1191.92
313.37	1351.66
313.59	1212.40
313.80	1189.87
314.01	1222.64
314.23	1218.54
314.44	1236.97
314.65	1234.93
314.87	1286.12
315.08	1263.60
315.29	1300.46
315.51	1298.41
315.72	1275.88
315.93	1228.78
316.15	1296.36
316.36	1286.12
316.57	1279.98
316.79	1296.36
317.00	1282.03
317.21	1265.64
317.43	1193.97
317.64	1306.60
317.85	1277.93
318.07	1329.13
318.28	1255.40
318.49	1275.88
318.70	1255.40
318.92	1189.87
319.13	1269.74
319.34	1216.49
319.56	1275.88
319.77	1224.69
319.98	1277.93
320.20	1189.87
320.41	1271.79
320.62	1224.69
320.83	1263.60
321.05	1300.46
321.26	1316.84
321.47	1224.69
321.69	1337.32
321.90	1251.31
322.11	1314.80
322.32	1335.28
322.54	1249.26
322.75	1204.21
322.96	1175.53
323.18	1259.50
323.39	1255.40
323.60	1343.47
323.81	1273.84
324.03	1232.88
324.24	1263.60
324.45	1265.64
324.66	1298.41
324.88	1224.69
325.09	1247.21
325.30	1271.79
325.52	1273.84
325.73	1230.83
325.94	1288.17
326.15	1320.94
326.37	1269.74
326.58	1249.26
326.79	1265.64
327.00	1220.59
327.22	1249.26
327.43	1290.22
327.64	1255.40
327.85	1271.79
328.07	1300.46
328.28	1304.56
328.49	1245.16
328.70	1286.12
328.92	1353.71
329.13	1247.21
329.34	1310.70
329.55	1271.79
329.76	1286.12
329.98	1288.17
330.19	1271.79
330.40	1234.93
330.61	1243.12
330.83	1312.75
331.04	1212.40
331.25	1306.60
331.46	1239.02
331.68	1253.36
331.89	1292.27
332.10	1251.31
332.31	1296.36
332.52	1249.26
332.74	1249.26
332.95	1267.69
333.16	1284.08
333.37	1284.08
333.58	1247.21
333.80	1255.40
334.01	1277.93
334.22	1261.55
334.43	1204.21
334.64	1298.41
334.86	1294.32
335.07	1257.45
335.28	1304.56
335.49	1269.74
335.70	1249.26
335.92	1269.74
336.13	1302.51
336.34	1306.60
336.55	1277.93
336.76	1318.89
336.98	1279.98
337.19	1198.06
337.40	1296.36
337.61	1271.79
337.82	1255.40
338.04	1302.51
338.25	1273.84
338.46	1277.93
338.67	1304.56
338.88	1284.08
339.09	1241.07
339.31	1228.78
339.52	1214.45
339.73	1239.02
339.94	1265.64
340.15	1212.40
340.36	1290.22
340.58	1249.26
340.79	1202.16
341.00	1265.64
341.21	1247.21
341.42	1212.40
341.63	1310.70
341.85	1271.79
342.06	1208.30
342.27	1290.22
342.48	1261.55
342.69	1310.70
342.90	1322.99
343.12	1265.64
343.33	1277.93
343.54	1300.46
343.75	1298.41
343.96	1230.83
344.17	1253.36
344.38	1275.88
344.60	1331.18
344.81	1318.89
345.02	1335.28
345.23	1200.11
345.44	1302.51
345.65	1263.60
345.86	1339.37
346.07	1279.98
346.29	1275.88
346.50	1255.40
346.71	1347.56
346.92	1251.31
347.13	1341.42
347.34	1265.64
347.55	1275.88
347.76	1290.22
347.98	1210.35
348.19	1273.84
348.40	1271.79
348.61	1271.79
348.82	1290.22
349.03	1304.56
349.24	1298.41
349.45	1273.84
349.66	1271.79
349.88	1337.32
350.09	1265.64
350.30	1275.88
350.51	1224.69
350.72	1269.74
350.93	1251.31
351.14	1249.26
351.35	1214.45
351.56	1257.45
351.77	1284.08
351.99	1263.60
352.20	1251.31
352.41	1249.26
352.62	1292.27
352.83	1249.26
353.04	1265.64
353.25	1314.80
353.46	1282.03
353.67	1265.64
353.88	1239.02
354.09	1179.63
354.30	1239.02
354.52	1224.69
354.73	1279.98
354.94	1216.49
355.15	1247.21
355.36	1224.69
355.57	1230.83
355.78	1290.22
355.99	1196.01
356.20	1218.54
356.41	1300.46
356.62	1296.36
356.83	1263.60
357.04	1239.02
357.25	1253.36
357.46	1265.64
357.68	1298.41
357.89	1306.60
358.10	1198.06
358.31	1286.12
358.52	1290.22
358.73	1249.26
358.94	1171.44
359.15	1320.94
359.36	1265.64
359.57	1261.55
359.78	1263.60
359.99	1275.88
360.20	1249.26
360.41	1206.25
360.62	1263.60
360.83	1212.40
361.04	1251.31
361.25	1257.45
361.46	1286.12
361.67	1325.04
361.88	1216.49
362.09	1349.61
362.30	1214.45
362.51	1253.36
362.72	1353.71
362.93	1239.02
363.14	1212.40
363.35	1239.02
363.56	1296.36
363.78	1314.80
363.99	1208.30
364.20	1353.71
364.41	1236.97
364.62	1245.16
364.83	1253.36
365.04	1239.02
365.25	1363.95
365.46	1327.08
365.67	1339.37
365.88	1247.21
366.09	1296.36
366.30	1343.47
366.51	1357.80
366.72	1347.56
366.93	1239.02
367.14	1204.21
367.35	1300.46
367.56	1216.49
367.77	1282.03
367.98	1306.60
368.18	1329.13
368.39	1228.78
368.60	1300.46
368.81	1269.74
369.02	1314.80
369.23	1279.98
369.44	1271.79
369.65	1239.02
369.86	1200.11
370.07	1253.36
370.28	1282.03
370.49	1255.40
370.70	1271.79
370.91	1298.41
371.12	1279.98
371.33	1304.56
371.54	1327.08
371.75	1202.16
371.96	1247.21
372.17	1247.21
372.38	1247.21
372.59	1185.77
372.80	1185.77
373.01	1306.60
373.22	1228.78
373.43	1273.84
373.64	1265.64
373.85	1263.60
374.06	1214.45
374.26	1269.74
374.47	1265.64
374.68	1310.70
374.89	1255.40
375.10	1282.03
375.31	1279.98
375.52	1275.88
375.73	1304.56
375.94	1275.88
376.15	1251.31
376.36	1271.79
376.57	1253.36
376.78	1247.21
376.99	1288.17
377.20	1282.03
377.40	1302.51
377.61	1302.51
377.82	1318.89
378.03	1275.88
378.24	1228.78
378.45	1275.88
378.66	1277.93
378.87	1271.79
379.08	1322.99
379.29	1214.45
379.50	1298.41
379.71	1265.64
379.91	1255.40
380.12	1263.60
380.33	1255.40
380.54	1263.60
380.75	1265.64
380.96	1245.16
381.17	1261.55
381.38	1236.97
381.59	1304.56
381.80	1253.36
382.00	1331.18
382.21	1347.56
382.42	1290.22
382.63	1265.64
382.84	1265.64
383.05	1337.32
383.26	1269.74
383.47	1263.60
383.68	1247.21
383.88	1290.22
384.09	1251.31
384.30	1239.02
384.51	1273.84
384.72	1200.11
384.93	1284.08
385.14	1257.45
385.35	1290.22
385.55	1212.40
385.76	1298.41
385.97	1284.08
386.18	1288.17
386.39	1228.78
386.60	1255.40
386.81	1288.17
387.02	1273.84
387.22	1320.94
387.43	1222.64
387.64	1253.36
387.85	1167.34
388.06	1347.56
388.27	1306.60
388.48	1288.17
388.68	1255.40
388.89	1206.25
389.10	1277.93
389.31	1263.60
389.52	1318.89
389.73	1286.12
389.93	1304.56
390.14	1304.56
390.35	1249.26
390.56	1284.08
390.77	1249.26
390.98	1318.89
391.18	1314.80
391.39	1306.60
391.60	1302.51
391.81	1204.21
392.02	1279.98
392.23	1200.11
392.43	1265.64
392.64	1290.22
392.85	1284.08
393.06	1196.01
393.27	1335.28
393.47	1290.22
393.68	1300.46
393.89	1271.79
394.10	1263.60
394.31	1216.49
394.52	1247.21
394.72	1257.45
394.93	1265.64
395.14	1193.97
395.35	1288.17
395.56	1327.08
395.76	1302.51
395.97	1230.83
396.18	1253.36
396.39	1310.70
396.60	1284.08
396.80	1284.08
397.01	1282.03
397.22	1300.46
397.43	1300.46
397.64	1206.25
397.84	1329.13
398.05	1263.60
398.26	1214.45
398.47	1259.50
398.67	1298.41
398.88	1265.64
399.09	1255.40
399.30	1284.08
399.51	1284.08
399.71	1198.06
399.92	1259.50
400.13	1220.59
400.34	1206.25
400.54	1304.56
400.75	1265.64
400.96	1259.50
401.17	1232.88
401.37	1257.45
401.58	1294.32
401.79	1212.40
402.00	1279.98
402.21	1308.65
402.41	1267.69
402.62	1249.26
402.83	1310.70
403.04	1177.58
403.24	1304.56
403.45	1306.60
403.66	1232.88
403.87	1265.64
404.07	1241.07
404.28	1265.64
404.49	1257.45
404.70	1255.40
404.90	1216.49
405.11	1325.04
405.32	1257.45
405.52	1247.21
405.73	1304.56
405.94	1232.88
406.15	1304.56
406.35	1273.84
406.56	1306.60
406.77	1349.61
406.98	1255.40
407.18	1275.88
407.39	1247.21
407.60	1220.59
407.80	1226.73
408.01	1351.66
408.22	1251.31
408.43	1257.45
408.63	1284.08
408.84	1284.08
409.05	1337.32
409.25	1294.32
409.46	1277.93
409.67	1322.99
409.88	1304.56
410.08	1282.03
410.29	1236.97
410.50	1222.64
410.70	1275.88
410.91	1208.30
411.12	1249.26
411.32	1239.02
411.53	1271.79
411.74	1269.74
411.95	1216.49
412.15	1279.98
412.36	1357.80
412.57	1269.74
412.77	1304.56
412.98	1247.21
413.19	1306.60
413.39	1308.65
413.60	1255.40
413.81	1271.79
414.01	1271.79
414.22	1304.56
414.43	1331.18
414.63	1200.11
414.84	1253.36
415.05	1353.71
415.25	1232.88
415.46	1296.36
415.67	1232.88
415.87	1179.63
416.08	1314.80
416.29	1259.50
416.49	1263.60
416.70	1275.88
416.91	1306.60
417.11	1271.79
417.32	1322.99
417.53	1290.22
417.73	1308.65
417.94	1429.48
418.15	1345.52
418.35	1335.28
418.56	1335.28
418.77	1345.52
418.97	1296.36
419.18	1279.98
419.38	1304.56
419.59	1198.06
419.80	1277.93
420.00	1251.31
420.21	1245.16
420.42	1322.99
420.62	1327.08
420.83	1261.55
421.04	1218.54
421.24	1216.49
421.45	1269.74
421.65	1316.84
421.86	1325.04
422.07	1263.60
422.27	1239.02
422.48	1206.25
422.69	1212.40
422.89	1204.21
423.10	1273.84
423.30	1306.60
423.51	1329.13
423.72	1284.08
423.92	1224.69
424.13	1282.03
424.33	1232.88
424.54	1318.89
424.75	1196.01
424.95	1306.60
425.16	1257.45
425.36	1259.50
425.57	1271.79
425.78	1241.07
425.98	1265.64
426.19	1263.60
426.39	1290.22
426.60	1216.49
426.81	1230.83
427.01	1277.93
427.22	1267.69
427.42	1189.87
427.63	1279.98
427.83	1298.41
428.04	1267.69
428.25	1255.40
428.45	1359.85
428.66	1222.64
428.86	1247.21
429.07	1273.84
429.28	1261.55
429.48	1288.17
429.69	1300.46
429.89	1282.03
430.10	1284.08
430.30	1298.41
430.51	1253.36
430.71	1232.88
430.92	1265.64
431.13	1288.17
431.33	1243.12
431.54	1251.31
431.74	1265.64
431.95	1193.97
432.15	1282.03
432.36	1214.45
432.56	1208.30
432.77	1271.79
432.98	1251.31
433.18	1296.36
433.39	1312.75
433.59	1228.78
433.80	1267.69
434.00	1361.90
434.21	1302.51
434.41	1251.31
434.62	1251.31
434.82	1265.64
435.03	1298.41
435.23	1269.74
435.44	1320.94
435.64	1236.97
435.85	1265.64
436.06	1269.74
436.26	1302.51
436.47	1255.40
436.67	1286.12
436.88	1220.59
437.08	1212.40
437.29	1267.69
437.49	1220.59
437.70	1245.16
437.90	1239.02
438.11	1271.79
438.31	1265.64
438.52	1304.56
438.72	1294.32
438.93	1339.37
439.13	1273.84
439.34	1228.78
439.54	1292.27
439.75	1308.65
439.95	1298.41
440.16	1257.45
440.36	1265.64
440.57	1300.46
440.77	1363.95
440.98	1212.40
441.18	1335.28
441.39	1359.85
441.59	1269.74
441.80	1267.69
442.00	1198.06
442.21	1275.88
442.41	1234.93
442.62	1257.45
442.82	1232.88
443.02	1265.64
443.23	1314.80
443.43	1253.36
443.64	1261.55
443.84	1257.45
444.05	1288.17
444.25	1269.74
444.46	1300.46
444.66	1284.08
444.87	1312.75
445.07	1294.32
445.28	1286.12
445.48	1345.52
445.69	1359.85
445.89	1275.88
446.09	1255.40
446.30	1288.17
446.50	1306.60
446.71	1243.12
446.91	1263.60
447.12	1279.98
447.32	1255.40
447.53	1243.12
447.73	1284.08
447.93	1241.07
448.14	1308.65
448.34	1265.64
448.55	1261.55
448.75	1253.36
448.96	1218.54
449.16	1296.36
449.36	1320.94
449.57	1277.93
449.77	1249.26
449.98	1267.69
450.18	1273.84
450.39	1300.46
450.59	1275.88
450.79	1265.64
451.00	1263.60
451.20	1300.46
451.41	1337.32
451.61	1210.35
451.81	1279.98
452.02	1275.88
452.22	1249.26
452.43	1320.94
452.63	1241.07
