SpectraSuite Data File
++++++++++++++++++++++++++++++++++++
Date: Sun Apr 03 19:55:29 CEST 2016
User: root
Dark Spectrum Present: No
Reference Spectrum Present: No
Number of Sampled Component Spectra: 1
Spectrometers: USB4C02835
Integration Time (usec): 10000 (USB4C02835)
Spectra Averaged: 1 (USB4C02835)
Boxcar Smoothing: 0 (USB4C02835)
Correct for Electrical Dark: No (USB4C02835)
Strobe/Lamp Enabled: No (USB4C02835)
Correct for Detector Non-linearity: No (USB4C02835)
Correct for Stray Light: No (USB4C02835)
Number of Pixels in Processed Spectrum: 3648
>>>>>Begin Processed Spectral Data<<<<<
177.47	1286.12
177.69	1286.12
177.91	1286.12
178.13	1253.36
178.36	1247.21
178.58	1247.21
178.80	1224.69
179.02	1257.45
179.24	1173.49
179.46	1245.16
179.68	1255.40
179.90	1290.22
180.13	1320.94
180.35	1187.82
180.57	1290.22
180.79	1259.50
181.01	1359.85
181.23	1269.74
181.45	1282.03
181.67	1259.50
181.90	1282.03
182.12	1290.22
182.34	1298.41
182.56	1255.40
182.78	1310.70
183.00	1253.36
183.22	1286.12
183.44	1216.49
183.66	1255.40
183.89	1337.32
184.11	1355.76
184.33	1275.88
184.55	1251.31
184.77	1290.22
184.99	1292.27
185.21	1314.80
185.43	1288.17
185.65	1228.78
185.87	1251.31
186.10	1294.32
186.32	1245.16
186.54	1282.03
186.76	1271.79
186.98	1253.36
187.20	1279.98
187.42	1312.75
187.64	1271.79
187.86	1275.88
188.08	1308.65
188.30	1218.54
188.52	1259.50
188.75	1251.31
188.97	1327.08
189.19	1243.12
189.41	1273.84
189.63	1251.31
189.85	1236.97
190.07	1185.77
190.29	1341.42
190.51	1218.54
190.73	1294.32
190.95	1273.84
191.17	1241.07
191.39	1245.16
191.61	1206.25
191.84	1282.03
192.06	1310.70
192.28	1236.97
192.50	1236.97
192.72	1325.04
192.94	1232.88
193.16	1318.89
193.38	1257.45
193.60	1241.07
193.82	1318.89
194.04	1277.93
194.26	1284.08
194.48	1261.55
194.70	1245.16
194.92	1263.60
195.14	1312.75
195.36	1185.77
195.58	1306.60
195.80	1224.69
196.02	1234.93
196.24	1245.16
196.46	1267.69
196.69	1308.65
196.91	1294.32
197.13	1232.88
197.35	1239.02
197.57	1304.56
197.79	1261.55
198.01	1277.93
198.23	1181.68
198.45	1245.16
198.67	1239.02
198.89	1298.41
199.11	1298.41
199.33	1294.32
199.55	1327.08
199.77	1304.56
199.99	1236.97
200.21	1220.59
200.43	1218.54
200.65	1337.32
200.87	1232.88
201.09	1239.02
201.31	1296.36
201.53	1288.17
201.75	1259.50
201.97	1247.21
202.19	1259.50
202.41	1273.84
202.63	1314.80
202.85	1212.40
203.07	1316.84
203.29	1318.89
203.51	1232.88
203.73	1226.73
203.95	1327.08
204.17	1269.74
204.39	1286.12
204.61	1279.98
204.83	1310.70
205.05	1273.84
205.27	1279.98
205.49	1259.50
205.71	1279.98
205.93	1263.60
206.15	1241.07
206.37	1241.07
206.59	1279.98
206.81	1286.12
207.03	1230.83
207.25	1353.71
207.47	1269.74
207.69	1212.40
207.91	1300.46
208.13	1206.25
208.34	1259.50
208.56	1310.70
208.78	1261.55
209.00	1318.89
209.22	1292.27
209.44	1202.16
209.66	1243.12
209.88	1320.94
210.10	1269.74
210.32	1259.50
210.54	1294.32
210.76	1306.60
210.98	1290.22
211.20	1312.75
211.42	1239.02
211.64	1327.08
211.86	1284.08
212.08	1327.08
212.30	1271.79
212.52	1232.88
212.74	1216.49
212.96	1243.12
213.17	1288.17
213.39	1347.56
213.61	1259.50
213.83	1318.89
214.05	1306.60
214.27	1212.40
214.49	1212.40
214.71	1259.50
214.93	1325.04
215.15	1222.64
215.37	1294.32
215.59	1294.32
215.81	1218.54
216.03	1363.95
216.24	1267.69
216.46	1277.93
216.68	1273.84
216.90	1265.64
217.12	1196.01
217.34	1212.40
217.56	1222.64
217.78	1236.97
218.00	1331.18
218.22	1241.07
218.44	1290.22
218.66	1251.31
218.87	1296.36
219.09	1298.41
219.31	1308.65
219.53	1257.45
219.75	1277.93
219.97	1212.40
220.19	1253.36
220.41	1294.32
220.63	1228.78
220.85	1257.45
221.06	1202.16
221.28	1325.04
221.50	1284.08
221.72	1265.64
221.94	1273.84
222.16	1239.02
222.38	1269.74
222.60	1312.75
222.82	1265.64
223.03	1220.59
223.25	1273.84
223.47	1232.88
223.69	1267.69
223.91	1255.40
224.13	1228.78
224.35	1259.50
224.57	1294.32
224.78	1273.84
225.00	1320.94
225.22	1236.97
225.44	1230.83
225.66	1314.80
225.88	1169.39
226.10	1255.40
226.32	1298.41
226.53	1284.08
226.75	1232.88
226.97	1263.60
227.19	1286.12
227.41	1261.55
227.63	1263.60
227.85	1206.25
228.06	1230.83
228.28	1284.08
228.50	1273.84
228.72	1279.98
228.94	1253.36
229.16	1282.03
229.37	1322.99
229.59	1249.26
229.81	1271.79
230.03	1267.69
230.25	1302.51
230.47	1251.31
230.69	1327.08
230.90	1212.40
231.12	1267.69
231.34	1279.98
231.56	1345.52
231.78	1259.50
232.00	1267.69
232.21	1249.26
232.43	1208.30
232.65	1259.50
232.87	1286.12
233.09	1243.12
233.30	1251.31
233.52	1318.89
233.74	1290.22
233.96	1355.76
234.18	1282.03
234.40	1228.78
234.61	1273.84
234.83	1273.84
235.05	1249.26
235.27	1304.56
235.49	1310.70
235.70	1226.73
235.92	1316.84
236.14	1189.87
236.36	1292.27
236.58	1239.02
236.79	1331.18
237.01	1290.22
237.23	1294.32
237.45	1218.54
237.67	1220.59
237.88	1300.46
238.10	1325.04
238.32	1294.32
238.54	1275.88
238.76	1183.73
238.97	1284.08
239.19	1265.64
239.41	1263.60
239.63	1290.22
239.85	1247.21
240.06	1310.70
240.28	1222.64
240.50	1208.30
240.72	1312.75
240.93	1179.63
241.15	1286.12
241.37	1247.21
241.59	1286.12
241.81	1271.79
242.02	1220.59
242.24	1279.98
242.46	1261.55
242.68	1275.88
242.89	1318.89
243.11	1230.83
243.33	1247.21
243.55	1214.45
243.76	1247.21
243.98	1265.64
244.20	1292.27
244.42	1245.16
244.64	1261.55
244.85	1212.40
245.07	1267.69
245.29	1320.94
245.51	1191.92
245.72	1314.80
245.94	1316.84
246.16	1259.50
246.38	1275.88
246.59	1243.12
246.81	1298.41
247.03	1253.36
247.24	1226.73
247.46	1232.88
247.68	1247.21
247.90	1245.16
248.11	1179.63
248.33	1273.84
248.55	1286.12
248.77	1243.12
248.98	1288.17
249.20	1304.56
249.42	1318.89
249.64	1232.88
249.85	1314.80
250.07	1206.25
250.29	1345.52
250.50	1220.59
250.72	1277.93
250.94	1255.40
251.16	1325.04
251.37	1316.84
251.59	1286.12
251.81	1343.47
252.02	1247.21
252.24	1259.50
252.46	1306.60
252.68	1261.55
252.89	1302.51
253.11	1273.84
253.33	1249.26
253.54	1269.74
253.76	1165.29
253.98	1259.50
254.20	1288.17
254.41	1284.08
254.63	1286.12
254.85	1241.07
255.06	1290.22
255.28	1279.98
255.50	1282.03
255.71	1239.02
255.93	1306.60
256.15	1279.98
256.36	1277.93
256.58	1267.69
256.80	1257.45
257.02	1228.78
257.23	1230.83
257.45	1269.74
257.67	1296.36
257.88	1247.21
258.10	1245.16
258.32	1234.93
258.53	1267.69
258.75	1271.79
258.97	1320.94
259.18	1202.16
259.40	1292.27
259.62	1284.08
259.83	1216.49
260.05	1286.12
260.27	1257.45
260.48	1271.79
260.70	1269.74
260.92	1327.08
261.13	1179.63
261.35	1298.41
261.57	1277.93
261.78	1232.88
262.00	1282.03
262.22	1265.64
262.43	1241.07
262.65	1171.44
262.86	1282.03
263.08	1279.98
263.30	1263.60
263.51	1351.66
263.73	1318.89
263.95	1271.79
264.16	1247.21
264.38	1243.12
264.60	1298.41
264.81	1320.94
265.03	1261.55
265.25	1255.40
265.46	1218.54
265.68	1286.12
265.89	1171.44
266.11	1277.93
266.33	1263.60
266.54	1183.73
266.76	1257.45
266.98	1181.68
267.19	1310.70
267.41	1337.32
267.62	1230.83
267.84	1230.83
268.06	1306.60
268.27	1206.25
268.49	1222.64
268.70	1273.84
268.92	1230.83
269.14	1216.49
269.35	1253.36
269.57	1224.69
269.79	1241.07
270.00	1347.56
270.22	1247.21
270.43	1243.12
270.65	1241.07
270.87	1265.64
271.08	1304.56
271.30	1169.39
271.51	1208.30
271.73	1300.46
271.95	1263.60
272.16	1310.70
272.38	1245.16
272.59	1247.21
272.81	1277.93
273.02	1275.88
273.24	1304.56
273.46	1196.01
273.67	1206.25
273.89	1284.08
274.10	1273.84
274.32	1269.74
274.54	1230.83
274.75	1316.84
274.97	1290.22
275.18	1277.93
275.40	1206.25
275.61	1226.73
275.83	1249.26
276.05	1239.02
276.26	1290.22
276.48	1325.04
276.69	1253.36
276.91	1253.36
277.12	1343.47
277.34	1333.23
277.55	1277.93
277.77	1331.18
277.99	1271.79
278.20	1239.02
278.42	1277.93
278.63	1269.74
278.85	1279.98
279.06	1284.08
279.28	1251.31
279.49	1277.93
279.71	1259.50
279.93	1200.11
280.14	1269.74
280.36	1247.21
280.57	1318.89
280.79	1288.17
281.00	1312.75
281.22	1175.53
281.43	1234.93
281.65	1212.40
281.86	1329.13
282.08	1255.40
282.29	1327.08
282.51	1257.45
282.73	1302.51
282.94	1279.98
283.16	1261.55
283.37	1298.41
283.59	1204.21
283.80	1284.08
284.02	1255.40
284.23	1284.08
284.45	1312.75
284.66	1257.45
284.88	1263.60
285.09	1255.40
285.31	1306.60
285.52	1277.93
285.74	1322.99
285.95	1308.65
286.17	1290.22
286.38	1277.93
286.60	1261.55
286.81	1220.59
287.03	1314.80
287.24	1314.80
287.46	1265.64
287.67	1257.45
287.89	1273.84
288.10	1265.64
288.32	1331.18
288.53	1253.36
288.75	1312.75
288.96	1284.08
289.18	1277.93
289.39	1257.45
289.61	1251.31
289.82	1312.75
290.04	1294.32
290.25	1322.99
290.47	1318.89
290.68	1316.84
290.90	1249.26
291.11	1185.77
291.33	1239.02
291.54	1253.36
291.76	1298.41
291.97	1236.97
292.18	1294.32
292.40	1247.21
292.61	1292.27
292.83	1265.64
293.04	1265.64
293.26	1255.40
293.47	1273.84
293.69	1267.69
293.90	1196.01
294.12	1236.97
294.33	1288.17
294.55	1263.60
294.76	1327.08
294.97	1286.12
295.19	1269.74
295.40	1255.40
295.62	1196.01
295.83	1236.97
296.05	1284.08
296.26	1245.16
296.48	1277.93
296.69	1191.92
296.90	1224.69
297.12	1318.89
297.33	1290.22
297.55	1339.37
297.76	1255.40
297.98	1279.98
298.19	1259.50
298.41	1208.30
298.62	1247.21
298.83	1224.69
299.05	1263.60
299.26	1232.88
299.48	1263.60
299.69	1177.58
299.90	1267.69
300.12	1267.69
300.33	1265.64
300.55	1279.98
300.76	1269.74
300.98	1284.08
301.19	1275.88
301.40	1290.22
301.62	1267.69
301.83	1294.32
302.05	1296.36
302.26	1259.50
302.47	1241.07
302.69	1255.40
302.90	1236.97
303.12	1310.70
303.33	1333.23
303.54	1353.71
303.76	1249.26
303.97	1296.36
304.19	1253.36
304.40	1183.73
304.61	1247.21
304.83	1333.23
305.04	1255.40
305.26	1331.18
305.47	1271.79
305.68	1282.03
305.90	1228.78
306.11	1220.59
306.33	1288.17
306.54	1212.40
306.75	1331.18
306.97	1304.56
307.18	1277.93
307.39	1335.28
307.61	1265.64
307.82	1269.74
308.04	1279.98
308.25	1198.06
308.46	1314.80
308.68	1269.74
308.89	1314.80
309.10	1210.35
309.32	1290.22
309.53	1277.93
309.74	1257.45
309.96	1220.59
310.17	1261.55
310.39	1218.54
310.60	1267.69
310.81	1261.55
311.03	1306.60
311.24	1263.60
311.45	1265.64
311.67	1269.74
311.88	1279.98
312.09	1296.36
312.31	1232.88
312.52	1273.84
312.73	1296.36
312.95	1226.73
313.16	1196.01
313.37	1308.65
313.59	1226.73
313.80	1222.64
314.01	1257.45
314.23	1245.16
314.44	1294.32
314.65	1300.46
314.87	1294.32
315.08	1189.87
315.29	1290.22
315.51	1282.03
315.72	1243.12
315.93	1243.12
316.15	1269.74
316.36	1273.84
316.57	1269.74
316.79	1298.41
317.00	1222.64
317.21	1271.79
317.43	1193.97
317.64	1255.40
317.85	1279.98
318.07	1296.36
318.28	1169.39
318.49	1243.12
318.70	1239.02
318.92	1271.79
319.13	1234.93
319.34	1322.99
319.56	1224.69
319.77	1253.36
319.98	1251.31
320.20	1277.93
320.41	1300.46
320.62	1257.45
320.83	1282.03
321.05	1255.40
321.26	1279.98
321.47	1226.73
321.69	1263.60
321.90	1304.56
322.11	1327.08
322.32	1198.06
322.54	1288.17
322.75	1228.78
322.96	1265.64
323.18	1253.36
323.39	1304.56
323.60	1208.30
323.81	1286.12
324.03	1267.69
324.24	1333.23
324.45	1277.93
324.66	1236.97
324.88	1257.45
325.09	1318.89
325.30	1224.69
325.52	1312.75
325.73	1232.88
325.94	1255.40
326.15	1290.22
326.37	1316.84
326.58	1243.12
326.79	1241.07
327.00	1277.93
327.22	1320.94
327.43	1239.02
327.64	1298.41
327.85	1302.51
328.07	1288.17
328.28	1241.07
328.49	1261.55
328.70	1316.84
328.92	1277.93
329.13	1298.41
329.34	1279.98
329.55	1265.64
329.76	1255.40
329.98	1222.64
330.19	1265.64
330.40	1302.51
330.61	1306.60
330.83	1282.03
331.04	1279.98
331.25	1239.02
331.46	1331.18
331.68	1269.74
331.89	1271.79
332.10	1302.51
332.31	1277.93
332.52	1241.07
332.74	1290.22
332.95	1359.85
333.16	1273.84
333.37	1241.07
333.58	1292.27
333.80	1210.35
334.01	1230.83
334.22	1232.88
334.43	1269.74
334.64	1322.99
334.86	1273.84
335.07	1239.02
335.28	1327.08
335.49	1296.36
335.70	1308.65
335.92	1331.18
336.13	1269.74
336.34	1294.32
336.55	1341.42
336.76	1239.02
336.98	1255.40
337.19	1253.36
337.40	1296.36
337.61	1275.88
337.82	1271.79
338.04	1288.17
338.25	1206.25
338.46	1314.80
338.67	1290.22
338.88	1282.03
339.09	1296.36
339.31	1239.02
339.52	1331.18
339.73	1208.30
339.94	1294.32
340.15	1226.73
340.36	1361.90
340.58	1245.16
340.79	1282.03
341.00	1265.64
341.21	1243.12
341.42	1239.02
341.63	1302.51
341.85	1267.69
342.06	1210.35
342.27	1214.45
342.48	1259.50
342.69	1284.08
342.90	1255.40
343.12	1304.56
343.33	1279.98
343.54	1243.12
343.75	1294.32
343.96	1263.60
344.17	1236.97
344.38	1322.99
344.60	1241.07
344.81	1204.21
345.02	1292.27
345.23	1306.60
345.44	1306.60
345.65	1259.50
345.86	1300.46
346.07	1279.98
346.29	1261.55
346.50	1269.74
346.71	1294.32
346.92	1245.16
347.13	1322.99
347.34	1245.16
347.55	1208.30
347.76	1241.07
347.98	1269.74
348.19	1173.49
348.40	1200.11
348.61	1251.31
348.82	1298.41
349.03	1236.97
349.24	1255.40
349.45	1239.02
349.66	1251.31
349.88	1257.45
350.09	1286.12
350.30	1282.03
350.51	1322.99
350.72	1329.13
350.93	1251.31
351.14	1298.41
351.35	1282.03
351.56	1308.65
351.77	1247.21
351.99	1232.88
352.20	1243.12
352.41	1187.82
352.62	1230.83
352.83	1265.64
353.04	1292.27
353.25	1282.03
353.46	1257.45
353.67	1320.94
353.88	1304.56
354.09	1232.88
354.30	1251.31
354.52	1304.56
354.73	1286.12
354.94	1255.40
355.15	1261.55
355.36	1249.26
355.57	1265.64
355.78	1320.94
355.99	1236.97
356.20	1230.83
356.41	1243.12
356.62	1294.32
356.83	1255.40
357.04	1290.22
357.25	1396.71
357.46	1279.98
357.68	1232.88
357.89	1275.88
358.10	1189.87
358.31	1241.07
358.52	1210.35
358.73	1282.03
358.94	1243.12
359.15	1255.40
359.36	1220.59
359.57	1271.79
359.78	1310.70
359.99	1245.16
360.20	1306.60
360.41	1282.03
360.62	1290.22
360.83	1247.21
361.04	1273.84
361.25	1290.22
361.46	1306.60
361.67	1282.03
361.88	1294.32
362.09	1310.70
362.30	1204.21
362.51	1220.59
362.72	1275.88
362.93	1269.74
363.14	1290.22
363.35	1212.40
363.56	1273.84
363.78	1282.03
363.99	1241.07
364.20	1249.26
364.41	1275.88
364.62	1255.40
364.83	1249.26
365.04	1171.44
365.25	1290.22
365.46	1292.27
365.67	1298.41
365.88	1241.07
366.09	1288.17
366.30	1290.22
366.51	1271.79
366.72	1290.22
366.93	1236.97
367.14	1218.54
367.35	1275.88
367.56	1263.60
367.77	1259.50
367.98	1304.56
368.18	1247.21
368.39	1261.55
368.60	1298.41
368.81	1269.74
369.02	1265.64
369.23	1261.55
369.44	1239.02
369.65	1216.49
369.86	1298.41
370.07	1249.26
370.28	1232.88
370.49	1212.40
370.70	1345.52
370.91	1282.03
371.12	1265.64
371.33	1314.80
371.54	1208.30
371.75	1255.40
371.96	1247.21
372.17	1255.40
372.38	1224.69
372.59	1306.60
372.80	1284.08
373.01	1241.07
373.22	1284.08
373.43	1284.08
373.64	1318.89
373.85	1204.21
374.06	1363.95
374.26	1257.45
374.47	1251.31
374.68	1210.35
374.89	1265.64
375.10	1288.17
375.31	1314.80
375.52	1302.51
375.73	1241.07
375.94	1261.55
376.15	1208.30
376.36	1255.40
376.57	1339.37
376.78	1261.55
376.99	1288.17
377.20	1181.68
377.40	1249.26
377.61	1257.45
377.82	1212.40
378.03	1222.64
378.24	1259.50
378.45	1239.02
378.66	1331.18
378.87	1312.75
379.08	1239.02
379.29	1296.36
379.50	1259.50
379.71	1359.85
379.91	1269.74
380.12	1261.55
380.33	1308.65
380.54	1269.74
380.75	1234.93
380.96	1288.17
381.17	1312.75
381.38	1275.88
381.59	1304.56
381.80	1286.12
382.00	1279.98
382.21	1263.60
382.42	1216.49
382.63	1341.42
382.84	1234.93
383.05	1273.84
383.26	1175.53
383.47	1218.54
383.68	1327.08
383.88	1247.21
384.09	1263.60
384.30	1257.45
384.51	1255.40
384.72	1263.60
384.93	1247.21
385.14	1224.69
385.35	1243.12
385.55	1249.26
385.76	1224.69
385.97	1282.03
386.18	1302.51
386.39	1318.89
386.60	1273.84
386.81	1290.22
387.02	1286.12
387.22	1269.74
387.43	1269.74
387.64	1279.98
387.85	1282.03
388.06	1224.69
388.27	1247.21
388.48	1284.08
388.68	1294.32
388.89	1308.65
389.10	1298.41
389.31	1292.27
389.52	1239.02
389.73	1249.26
389.93	1249.26
390.14	1304.56
390.35	1269.74
390.56	1265.64
390.77	1298.41
390.98	1200.11
391.18	1249.26
391.39	1234.93
391.60	1216.49
391.81	1282.03
392.02	1314.80
392.23	1236.97
392.43	1284.08
392.64	1275.88
392.85	1322.99
393.06	1351.66
393.27	1245.16
393.47	1241.07
393.68	1228.78
393.89	1339.37
394.10	1191.92
394.31	1251.31
394.52	1210.35
394.72	1327.08
394.93	1247.21
395.14	1290.22
395.35	1269.74
395.56	1251.31
395.76	1257.45
395.97	1288.17
396.18	1265.64
396.39	1247.21
396.60	1236.97
396.80	1241.07
397.01	1202.16
397.22	1290.22
397.43	1277.93
397.64	1265.64
397.84	1357.80
398.05	1273.84
398.26	1265.64
398.47	1267.69
398.67	1241.07
398.88	1214.45
399.09	1228.78
399.30	1232.88
399.51	1239.02
399.71	1255.40
399.92	1241.07
400.13	1279.98
400.34	1296.36
400.54	1290.22
400.75	1232.88
400.96	1218.54
401.17	1257.45
401.37	1331.18
401.58	1298.41
401.79	1277.93
402.00	1284.08
402.21	1202.16
402.41	1218.54
402.62	1269.74
402.83	1288.17
403.04	1282.03
403.24	1294.32
403.45	1271.79
403.66	1269.74
403.87	1302.51
404.07	1249.26
404.28	1257.45
404.49	1259.50
404.70	1200.11
404.90	1296.36
405.11	1220.59
405.32	1263.60
405.52	1279.98
405.73	1236.97
405.94	1282.03
406.15	1259.50
406.35	1275.88
406.56	1232.88
406.77	1300.46
406.98	1286.12
407.18	1224.69
407.39	1271.79
407.60	1226.73
407.80	1208.30
408.01	1314.80
408.22	1273.84
408.43	1306.60
408.63	1257.45
408.84	1249.26
409.05	1284.08
409.25	1239.02
409.46	1202.16
409.67	1302.51
409.88	1265.64
410.08	1275.88
410.29	1314.80
410.50	1202.16
410.70	1249.26
410.91	1312.75
411.12	1239.02
411.32	1251.31
411.53	1294.32
411.74	1304.56
411.95	1327.08
412.15	1284.08
412.36	1325.04
412.57	1300.46
412.77	1216.49
412.98	1183.73
413.19	1257.45
413.39	1232.88
413.60	1269.74
413.81	1308.65
414.01	1263.60
414.22	1310.70
414.43	1249.26
414.63	1236.97
414.84	1228.78
415.05	1249.26
415.25	1310.70
415.46	1228.78
415.67	1206.25
415.87	1288.17
416.08	1296.36
416.29	1257.45
416.49	1271.79
416.70	1249.26
416.91	1265.64
417.11	1224.69
417.32	1308.65
417.53	1228.78
417.73	1218.54
417.94	1232.88
418.15	1216.49
418.35	1298.41
418.56	1306.60
418.77	1282.03
418.97	1255.40
419.18	1212.40
419.38	1253.36
419.59	1230.83
419.80	1241.07
420.00	1296.36
420.21	1318.89
420.42	1302.51
420.62	1245.16
420.83	1312.75
421.04	1282.03
421.24	1249.26
421.45	1204.21
421.65	1314.80
421.86	1279.98
422.07	1357.80
422.27	1259.50
422.48	1247.21
422.69	1234.93
422.89	1234.93
423.10	1308.65
423.30	1189.87
423.51	1312.75
423.72	1239.02
423.92	1255.40
424.13	1288.17
424.33	1251.31
424.54	1277.93
424.75	1224.69
424.95	1267.69
425.16	1239.02
425.36	1333.23
425.57	1241.07
425.78	1249.26
425.98	1247.21
426.19	1271.79
426.39	1314.80
426.60	1224.69
426.81	1290.22
427.01	1304.56
427.22	1298.41
427.42	1212.40
427.63	1247.21
427.83	1273.84
428.04	1286.12
428.25	1294.32
428.45	1193.97
428.66	1222.64
428.86	1206.25
429.07	1222.64
429.28	1263.60
429.48	1271.79
429.69	1302.51
429.89	1259.50
430.10	1232.88
430.30	1253.36
430.51	1241.07
430.71	1277.93
430.92	1310.70
431.13	1320.94
431.33	1288.17
431.54	1214.45
431.74	1267.69
431.95	1337.32
432.15	1245.16
432.36	1257.45
432.56	1263.60
432.77	1249.26
432.98	1206.25
433.18	1300.46
433.39	1273.84
433.59	1261.55
433.80	1335.28
434.00	1234.93
434.21	1282.03
434.41	1247.21
434.62	1239.02
434.82	1290.22
435.03	1226.73
435.23	1279.98
435.44	1306.60
435.64	1255.40
435.85	1282.03
436.06	1228.78
436.26	1255.40
436.47	1259.50
436.67	1296.36
436.88	1214.45
437.08	1265.64
437.29	1304.56
437.49	1310.70
437.70	1310.70
437.90	1286.12
438.11	1370.09
438.31	1306.60
438.52	1265.64
438.72	1259.50
438.93	1243.12
439.13	1234.93
439.34	1277.93
439.54	1279.98
439.75	1259.50
439.95	1245.16
440.16	1251.31
440.36	1269.74
440.57	1234.93
440.77	1347.56
440.98	1279.98
441.18	1271.79
441.39	1273.84
441.59	1253.36
441.80	1247.21
442.00	1349.61
442.21	1284.08
442.41	1279.98
442.62	1275.88
442.82	1193.97
443.02	1253.36
443.23	1239.02
443.43	1282.03
443.64	1271.79
443.84	1249.26
444.05	1296.36
444.25	1257.45
444.46	1206.25
444.66	1331.18
444.87	1339.37
445.07	1259.50
445.28	1302.51
445.48	1355.76
445.69	1355.76
445.89	1269.74
446.09	1206.25
446.30	1271.79
446.50	1206.25
446.71	1314.80
446.91	1251.31
447.12	1325.04
447.32	1302.51
447.53	1275.88
447.73	1275.88
447.93	1316.84
448.14	1255.40
448.34	1249.26
448.55	1241.07
448.75	1279.98
448.96	1329.13
449.16	1239.02
449.36	1275.88
449.57	1243.12
449.77	1331.18
449.98	1232.88
450.18	1224.69
450.39	1277.93
450.59	1296.36
450.79	1236.97
451.00	1214.45
451.20	1236.97
451.41	1259.50
451.61	1218.54
451.81	1325.04
452.02	1261.55
452.22	1269.74
452.43	1312.75
452.63	1275.88
