SpectraSuite Data File
++++++++++++++++++++++++++++++++++++
Date: Sun Apr 03 19:55:47 CEST 2016
User: root
Dark Spectrum Present: No
Reference Spectrum Present: No
Number of Sampled Component Spectra: 1
Spectrometers: USB4C02835
Integration Time (usec): 10000 (USB4C02835)
Spectra Averaged: 1 (USB4C02835)
Boxcar Smoothing: 0 (USB4C02835)
Correct for Electrical Dark: No (USB4C02835)
Strobe/Lamp Enabled: No (USB4C02835)
Correct for Detector Non-linearity: No (USB4C02835)
Correct for Stray Light: No (USB4C02835)
Number of Pixels in Processed Spectrum: 3648
>>>>>Begin Processed Spectral Data<<<<<
177.47	1290.22
177.69	1290.22
177.91	1290.22
178.13	1236.97
178.36	1236.97
178.58	1271.79
178.80	1284.08
179.02	1341.42
179.24	1255.40
179.46	1304.56
179.68	1363.95
179.90	1298.41
180.13	1263.60
180.35	1224.69
180.57	1218.54
180.79	1255.40
181.01	1284.08
181.23	1339.37
181.45	1308.65
181.67	1335.28
181.90	1298.41
182.12	1245.16
182.34	1327.08
182.56	1288.17
182.78	1247.21
183.00	1292.27
183.22	1265.64
183.44	1243.12
183.66	1263.60
183.89	1273.84
184.11	1312.75
184.33	1265.64
184.55	1255.40
184.77	1241.07
184.99	1200.11
185.21	1288.17
185.43	1316.84
185.65	1304.56
185.87	1247.21
186.10	1337.32
186.32	1265.64
186.54	1310.70
186.76	1296.36
186.98	1218.54
187.20	1329.13
187.42	1224.69
187.64	1265.64
187.86	1277.93
188.08	1255.40
188.30	1261.55
188.52	1273.84
188.75	1267.69
188.97	1310.70
189.19	1296.36
189.41	1253.36
189.63	1296.36
189.85	1294.32
190.07	1251.31
190.29	1253.36
190.51	1314.80
190.73	1288.17
190.95	1241.07
191.17	1216.49
191.39	1290.22
191.61	1243.12
191.84	1239.02
192.06	1370.09
192.28	1177.58
192.50	1288.17
192.72	1267.69
192.94	1261.55
193.16	1314.80
193.38	1206.25
193.60	1312.75
193.82	1308.65
194.04	1271.79
194.26	1296.36
194.48	1214.45
194.70	1251.31
194.92	1277.93
195.14	1314.80
195.36	1269.74
195.58	1265.64
195.80	1230.83
196.02	1261.55
196.24	1353.71
196.46	1267.69
196.69	1257.45
196.91	1224.69
197.13	1378.28
197.35	1228.78
197.57	1318.89
197.79	1249.26
198.01	1273.84
198.23	1290.22
198.45	1273.84
198.67	1243.12
198.89	1302.51
199.11	1271.79
199.33	1236.97
199.55	1208.30
199.77	1302.51
199.99	1343.47
200.21	1257.45
200.43	1302.51
200.65	1261.55
200.87	1265.64
201.09	1263.60
201.31	1265.64
201.53	1263.60
201.75	1253.36
201.97	1310.70
202.19	1339.37
202.41	1288.17
202.63	1275.88
202.85	1263.60
203.07	1257.45
203.29	1245.16
203.51	1241.07
203.73	1200.11
203.95	1306.60
204.17	1200.11
204.39	1232.88
204.61	1230.83
204.83	1286.12
205.05	1255.40
205.27	1224.69
205.49	1271.79
205.71	1267.69
205.93	1275.88
206.15	1200.11
206.37	1304.56
206.59	1271.79
206.81	1314.80
207.03	1232.88
207.25	1292.27
207.47	1265.64
207.69	1267.69
207.91	1310.70
208.13	1230.83
208.34	1304.56
208.56	1271.79
208.78	1232.88
209.00	1286.12
209.22	1286.12
209.44	1277.93
209.66	1218.54
209.88	1218.54
210.10	1222.64
210.32	1277.93
210.54	1304.56
210.76	1286.12
210.98	1216.49
211.20	1216.49
211.42	1304.56
211.64	1234.93
211.86	1294.32
212.08	1251.31
212.30	1273.84
212.52	1247.21
212.74	1259.50
212.96	1335.28
213.17	1294.32
213.39	1279.98
213.61	1271.79
213.83	1263.60
214.05	1282.03
214.27	1222.64
214.49	1279.98
214.71	1214.45
214.93	1302.51
215.15	1257.45
215.37	1267.69
215.59	1277.93
215.81	1226.73
216.03	1206.25
216.24	1320.94
216.46	1249.26
216.68	1306.60
216.90	1279.98
217.12	1273.84
217.34	1316.84
217.56	1253.36
217.78	1306.60
218.00	1282.03
218.22	1210.35
218.44	1259.50
218.66	1216.49
218.87	1318.89
219.09	1224.69
219.31	1251.31
219.53	1271.79
219.75	1329.13
219.97	1288.17
220.19	1298.41
220.41	1282.03
220.63	1273.84
220.85	1359.85
221.06	1327.08
221.28	1294.32
221.50	1298.41
221.72	1273.84
221.94	1310.70
222.16	1245.16
222.38	1269.74
222.60	1259.50
222.82	1200.11
223.03	1222.64
223.25	1249.26
223.47	1249.26
223.69	1257.45
223.91	1312.75
224.13	1239.02
224.35	1269.74
224.57	1253.36
224.78	1206.25
225.00	1302.51
225.22	1263.60
225.44	1282.03
225.66	1210.35
225.88	1310.70
226.10	1308.65
226.32	1269.74
226.53	1294.32
226.75	1279.98
226.97	1294.32
227.19	1236.97
227.41	1255.40
227.63	1253.36
227.85	1204.21
228.06	1232.88
228.28	1290.22
228.50	1236.97
228.72	1251.31
228.94	1333.23
229.16	1263.60
229.37	1312.75
229.59	1226.73
229.81	1247.21
230.03	1279.98
230.25	1282.03
230.47	1239.02
230.69	1339.37
230.90	1279.98
231.12	1257.45
231.34	1261.55
231.56	1290.22
231.78	1273.84
232.00	1239.02
232.21	1239.02
232.43	1169.39
232.65	1267.69
232.87	1337.32
233.09	1284.08
233.30	1277.93
233.52	1273.84
233.74	1290.22
233.96	1300.46
234.18	1263.60
234.40	1292.27
234.61	1271.79
234.83	1239.02
235.05	1230.83
235.27	1234.93
235.49	1279.98
235.70	1198.06
235.92	1304.56
236.14	1200.11
236.36	1241.07
236.58	1288.17
236.79	1249.26
237.01	1269.74
237.23	1230.83
237.45	1265.64
237.67	1234.93
237.88	1226.73
238.10	1296.36
238.32	1236.97
238.54	1222.64
238.76	1282.03
238.97	1275.88
239.19	1267.69
239.41	1279.98
239.63	1232.88
239.85	1296.36
240.06	1320.94
240.28	1279.98
240.50	1292.27
240.72	1304.56
240.93	1251.31
241.15	1279.98
241.37	1202.16
241.59	1302.51
241.81	1282.03
242.02	1282.03
242.24	1265.64
242.46	1277.93
242.68	1337.32
242.89	1159.15
243.11	1255.40
243.33	1310.70
243.55	1292.27
243.76	1255.40
243.98	1347.56
244.20	1257.45
244.42	1224.69
244.64	1288.17
244.85	1247.21
245.07	1300.46
245.29	1300.46
245.51	1294.32
245.72	1302.51
245.94	1282.03
246.16	1300.46
246.38	1343.47
246.59	1325.04
246.81	1253.36
247.03	1251.31
247.24	1216.49
247.46	1322.99
247.68	1257.45
247.90	1290.22
248.11	1259.50
248.33	1320.94
248.55	1284.08
248.77	1288.17
248.98	1273.84
249.20	1306.60
249.42	1232.88
249.64	1269.74
249.85	1208.30
250.07	1320.94
250.29	1261.55
250.50	1300.46
250.72	1239.02
250.94	1294.32
251.16	1251.31
251.37	1243.12
251.59	1339.37
251.81	1234.93
252.02	1298.41
252.24	1236.97
252.46	1275.88
252.68	1296.36
252.89	1208.30
253.11	1224.69
253.33	1290.22
253.54	1265.64
253.76	1302.51
253.98	1265.64
254.20	1212.40
254.41	1263.60
254.63	1284.08
254.85	1279.98
255.06	1257.45
255.28	1316.84
255.50	1298.41
255.71	1247.21
255.93	1366.00
256.15	1273.84
256.36	1202.16
256.58	1245.16
256.80	1306.60
257.02	1296.36
257.23	1271.79
257.45	1200.11
257.67	1282.03
257.88	1310.70
258.10	1302.51
258.32	1247.21
258.53	1279.98
258.75	1290.22
258.97	1253.36
259.18	1222.64
259.40	1273.84
259.62	1277.93
259.83	1359.85
260.05	1320.94
260.27	1327.08
260.48	1275.88
260.70	1189.87
260.92	1310.70
261.13	1322.99
261.35	1320.94
261.57	1210.35
261.78	1277.93
262.00	1265.64
262.22	1282.03
262.43	1249.26
262.65	1277.93
262.86	1241.07
263.08	1222.64
263.30	1247.21
263.51	1286.12
263.73	1232.88
263.95	1294.32
264.16	1255.40
264.38	1220.59
264.60	1279.98
264.81	1159.15
265.03	1288.17
265.25	1261.55
265.46	1318.89
265.68	1247.21
265.89	1333.23
266.11	1230.83
266.33	1196.01
266.54	1294.32
266.76	1298.41
266.98	1214.45
267.19	1267.69
267.41	1284.08
267.62	1279.98
267.84	1247.21
268.06	1187.82
268.27	1216.49
268.49	1228.78
268.70	1279.98
268.92	1214.45
269.14	1234.93
269.35	1181.68
269.57	1247.21
269.79	1230.83
270.00	1245.16
270.22	1273.84
270.43	1290.22
270.65	1247.21
270.87	1273.84
271.08	1286.12
271.30	1241.07
271.51	1325.04
271.73	1366.00
271.95	1222.64
272.16	1273.84
272.38	1275.88
272.59	1249.26
272.81	1304.56
273.02	1261.55
273.24	1239.02
273.46	1265.64
273.67	1282.03
273.89	1282.03
274.10	1257.45
274.32	1275.88
274.54	1277.93
274.75	1294.32
274.97	1286.12
275.18	1269.74
275.40	1196.01
275.61	1302.51
275.83	1255.40
276.05	1261.55
276.26	1304.56
276.48	1232.88
276.69	1236.97
276.91	1236.97
277.12	1243.12
277.34	1325.04
277.55	1241.07
277.77	1249.26
277.99	1296.36
278.20	1226.73
278.42	1294.32
278.63	1304.56
278.85	1304.56
279.06	1239.02
279.28	1290.22
279.49	1314.80
279.71	1306.60
279.93	1247.21
280.14	1245.16
280.36	1290.22
280.57	1314.80
280.79	1259.50
281.00	1230.83
281.22	1290.22
281.43	1325.04
281.65	1234.93
281.86	1300.46
282.08	1296.36
282.29	1247.21
282.51	1325.04
282.73	1277.93
282.94	1290.22
283.16	1230.83
283.37	1290.22
283.59	1259.50
283.80	1232.88
284.02	1292.27
284.23	1236.97
284.45	1282.03
284.66	1282.03
284.88	1271.79
285.09	1243.12
285.31	1288.17
285.52	1245.16
285.74	1239.02
285.95	1251.31
286.17	1325.04
286.38	1294.32
286.60	1288.17
286.81	1269.74
287.03	1263.60
287.24	1267.69
287.46	1335.28
287.67	1277.93
287.89	1294.32
288.10	1263.60
288.32	1333.23
288.53	1273.84
288.75	1333.23
288.96	1247.21
289.18	1265.64
289.39	1306.60
289.61	1263.60
289.82	1271.79
290.04	1292.27
290.25	1292.27
290.47	1288.17
290.68	1296.36
290.90	1396.71
291.11	1228.78
291.33	1230.83
291.54	1294.32
291.76	1331.18
291.97	1292.27
292.18	1308.65
292.40	1222.64
292.61	1263.60
292.83	1226.73
293.04	1273.84
293.26	1230.83
293.47	1255.40
293.69	1261.55
293.90	1236.97
294.12	1261.55
294.33	1269.74
294.55	1224.69
294.76	1204.21
294.97	1306.60
295.19	1314.80
295.40	1273.84
295.62	1302.51
295.83	1300.46
296.05	1249.26
296.26	1296.36
296.48	1316.84
296.69	1333.23
296.90	1302.51
297.12	1306.60
297.33	1318.89
297.55	1241.07
297.76	1277.93
297.98	1259.50
298.19	1216.49
298.41	1304.56
298.62	1306.60
298.83	1273.84
299.05	1253.36
299.26	1322.99
299.48	1290.22
299.69	1286.12
299.90	1253.36
300.12	1230.83
300.33	1300.46
300.55	1265.64
300.76	1263.60
300.98	1347.56
301.19	1290.22
301.40	1265.64
301.62	1204.21
301.83	1339.37
302.05	1267.69
302.26	1327.08
302.47	1325.04
302.69	1255.40
302.90	1294.32
303.12	1298.41
303.33	1347.56
303.54	1239.02
303.76	1241.07
303.97	1300.46
304.19	1292.27
304.40	1265.64
304.61	1413.10
304.83	1224.69
305.04	1279.98
305.26	1212.40
305.47	1288.17
305.68	1277.93
305.90	1271.79
306.11	1259.50
306.33	1216.49
306.54	1177.58
306.75	1275.88
306.97	1286.12
307.18	1257.45
307.39	1327.08
307.61	1329.13
307.82	1255.40
308.04	1277.93
308.25	1282.03
308.46	1212.40
308.68	1271.79
308.89	1247.21
309.10	1239.02
309.32	1261.55
309.53	1269.74
309.74	1251.31
309.96	1265.64
310.17	1325.04
310.39	1220.59
310.60	1288.17
310.81	1329.13
311.03	1267.69
311.24	1247.21
311.45	1257.45
311.67	1228.78
311.88	1228.78
312.09	1292.27
312.31	1277.93
312.52	1277.93
312.73	1271.79
312.95	1236.97
313.16	1241.07
313.37	1296.36
313.59	1335.28
313.80	1277.93
314.01	1347.56
314.23	1226.73
314.44	1269.74
314.65	1239.02
314.87	1288.17
315.08	1290.22
315.29	1298.41
315.51	1224.69
315.72	1230.83
315.93	1275.88
316.15	1288.17
316.36	1249.26
316.57	1366.00
316.79	1318.89
317.00	1161.20
317.21	1255.40
317.43	1288.17
317.64	1290.22
317.85	1271.79
318.07	1288.17
318.28	1251.31
318.49	1327.08
318.70	1245.16
318.92	1271.79
319.13	1255.40
319.34	1189.87
319.56	1288.17
319.77	1263.60
319.98	1249.26
320.20	1216.49
320.41	1304.56
320.62	1310.70
320.83	1298.41
321.05	1271.79
321.26	1222.64
321.47	1288.17
321.69	1228.78
321.90	1310.70
322.11	1261.55
322.32	1343.47
322.54	1290.22
322.75	1302.51
322.96	1261.55
323.18	1277.93
323.39	1241.07
323.60	1214.45
323.81	1267.69
324.03	1277.93
324.24	1339.37
324.45	1255.40
324.66	1228.78
324.88	1218.54
325.09	1277.93
325.30	1224.69
325.52	1259.50
325.73	1222.64
325.94	1312.75
326.15	1255.40
326.37	1282.03
326.58	1261.55
326.79	1273.84
327.00	1239.02
327.22	1257.45
327.43	1253.36
327.64	1286.12
327.85	1310.70
328.07	1296.36
328.28	1185.77
328.49	1302.51
328.70	1216.49
328.92	1245.16
329.13	1261.55
329.34	1292.27
329.55	1296.36
329.76	1298.41
329.98	1282.03
330.19	1267.69
330.40	1214.45
330.61	1282.03
330.83	1302.51
331.04	1267.69
331.25	1208.30
331.46	1290.22
331.68	1247.21
331.89	1259.50
332.10	1263.60
332.31	1222.64
332.52	1290.22
332.74	1292.27
332.95	1191.92
333.16	1228.78
333.37	1249.26
333.58	1302.51
333.80	1320.94
334.01	1341.42
334.22	1284.08
334.43	1259.50
334.64	1245.16
334.86	1259.50
335.07	1322.99
335.28	1298.41
335.49	1312.75
335.70	1271.79
335.92	1320.94
336.13	1230.83
336.34	1202.16
336.55	1288.17
336.76	1249.26
336.98	1298.41
337.19	1259.50
337.40	1310.70
337.61	1322.99
337.82	1230.83
338.04	1241.07
338.25	1318.89
338.46	1187.82
338.67	1239.02
338.88	1314.80
339.09	1294.32
339.31	1284.08
339.52	1216.49
339.73	1290.22
339.94	1277.93
340.15	1298.41
340.36	1249.26
340.58	1253.36
340.79	1316.84
341.00	1206.25
341.21	1218.54
341.42	1183.73
341.63	1181.68
341.85	1296.36
342.06	1208.30
342.27	1345.52
342.48	1269.74
342.69	1222.64
342.90	1282.03
343.12	1247.21
343.33	1224.69
343.54	1259.50
343.75	1370.09
343.96	1331.18
344.17	1232.88
344.38	1241.07
344.60	1218.54
344.81	1314.80
345.02	1222.64
345.23	1304.56
345.44	1222.64
345.65	1214.45
345.86	1263.60
346.07	1253.36
346.29	1263.60
346.50	1263.60
346.71	1294.32
346.92	1288.17
347.13	1312.75
347.34	1175.53
347.55	1292.27
347.76	1312.75
347.98	1259.50
348.19	1187.82
348.40	1241.07
348.61	1257.45
348.82	1292.27
349.03	1224.69
349.24	1308.65
349.45	1318.89
349.66	1271.79
349.88	1245.16
350.09	1236.97
350.30	1157.10
350.51	1257.45
350.72	1279.98
350.93	1286.12
351.14	1298.41
351.35	1331.18
351.56	1275.88
351.77	1224.69
351.99	1277.93
352.20	1269.74
352.41	1329.13
352.62	1163.25
352.83	1316.84
353.04	1257.45
353.25	1265.64
353.46	1327.08
353.67	1279.98
353.88	1284.08
354.09	1288.17
354.30	1277.93
354.52	1296.36
354.73	1226.73
354.94	1325.04
355.15	1263.60
355.36	1241.07
355.57	1208.30
355.78	1249.26
355.99	1325.04
356.20	1304.56
356.41	1300.46
356.62	1284.08
356.83	1263.60
357.04	1298.41
357.25	1234.93
357.46	1177.58
357.68	1288.17
357.89	1318.89
358.10	1294.32
358.31	1300.46
358.52	1251.31
358.73	1275.88
358.94	1318.89
359.15	1232.88
359.36	1228.78
359.57	1265.64
359.78	1271.79
359.99	1290.22
360.20	1204.21
360.41	1300.46
360.62	1306.60
360.83	1288.17
361.04	1273.84
361.25	1200.11
361.46	1282.03
361.67	1200.11
361.88	1302.51
362.09	1245.16
362.30	1290.22
362.51	1331.18
362.72	1245.16
362.93	1298.41
363.14	1175.53
363.35	1302.51
363.56	1271.79
363.78	1284.08
363.99	1236.97
364.20	1198.06
364.41	1292.27
364.62	1257.45
364.83	1335.28
365.04	1255.40
365.25	1208.30
365.46	1320.94
365.67	1265.64
365.88	1257.45
366.09	1310.70
366.30	1200.11
366.51	1253.36
366.72	1210.35
366.93	1284.08
367.14	1300.46
367.35	1247.21
367.56	1232.88
367.77	1222.64
367.98	1210.35
368.18	1284.08
368.39	1275.88
368.60	1249.26
368.81	1298.41
369.02	1286.12
369.23	1222.64
369.44	1279.98
369.65	1286.12
369.86	1271.79
370.07	1259.50
370.28	1243.12
370.49	1234.93
370.70	1333.23
370.91	1318.89
371.12	1290.22
371.33	1304.56
371.54	1214.45
371.75	1308.65
371.96	1273.84
372.17	1253.36
372.38	1193.97
372.59	1288.17
372.80	1282.03
373.01	1253.36
373.22	1251.31
373.43	1292.27
373.64	1269.74
373.85	1253.36
374.06	1347.56
374.26	1257.45
374.47	1261.55
374.68	1232.88
374.89	1308.65
375.10	1239.02
375.31	1269.74
375.52	1239.02
375.73	1198.06
375.94	1265.64
376.15	1179.63
376.36	1318.89
376.57	1298.41
376.78	1210.35
376.99	1314.80
377.20	1269.74
377.40	1241.07
377.61	1269.74
377.82	1257.45
378.03	1267.69
378.24	1327.08
378.45	1322.99
378.66	1310.70
378.87	1267.69
379.08	1236.97
379.29	1298.41
379.50	1288.17
379.71	1288.17
379.91	1193.97
380.12	1300.46
380.33	1298.41
380.54	1171.44
380.75	1312.75
380.96	1277.93
381.17	1249.26
381.38	1273.84
381.59	1282.03
381.80	1263.60
382.00	1241.07
382.21	1288.17
382.42	1353.71
382.63	1220.59
382.84	1380.33
383.05	1284.08
383.26	1249.26
383.47	1273.84
383.68	1322.99
383.88	1277.93
384.09	1263.60
384.30	1325.04
384.51	1259.50
384.72	1269.74
384.93	1204.21
385.14	1273.84
385.35	1304.56
385.55	1253.36
385.76	1284.08
385.97	1212.40
386.18	1271.79
386.39	1239.02
386.60	1263.60
386.81	1234.93
387.02	1347.56
387.22	1224.69
387.43	1302.51
387.64	1284.08
387.85	1327.08
388.06	1298.41
388.27	1271.79
388.48	1294.32
388.68	1232.88
388.89	1304.56
389.10	1265.64
389.31	1236.97
389.52	1288.17
389.73	1320.94
389.93	1249.26
390.14	1275.88
390.35	1275.88
390.56	1341.42
390.77	1267.69
390.98	1331.18
391.18	1265.64
391.39	1236.97
391.60	1226.73
391.81	1284.08
392.02	1306.60
392.23	1265.64
392.43	1347.56
392.64	1257.45
392.85	1288.17
393.06	1282.03
393.27	1245.16
393.47	1257.45
393.68	1286.12
393.89	1277.93
394.10	1296.36
394.31	1269.74
394.52	1284.08
394.72	1327.08
394.93	1331.18
395.14	1232.88
395.35	1333.23
395.56	1290.22
395.76	1277.93
395.97	1308.65
396.18	1257.45
396.39	1228.78
396.60	1200.11
396.80	1216.49
397.01	1294.32
397.22	1226.73
397.43	1282.03
397.64	1261.55
397.84	1253.36
398.05	1288.17
398.26	1296.36
398.47	1257.45
398.67	1245.16
398.88	1245.16
399.09	1271.79
399.30	1255.40
399.51	1247.21
399.71	1267.69
399.92	1220.59
400.13	1255.40
400.34	1214.45
400.54	1241.07
400.75	1251.31
400.96	1224.69
401.17	1259.50
401.37	1294.32
401.58	1230.83
401.79	1253.36
402.00	1249.26
402.21	1249.26
402.41	1304.56
402.62	1261.55
402.83	1273.84
403.04	1251.31
403.24	1259.50
403.45	1304.56
403.66	1265.64
403.87	1247.21
404.07	1359.85
404.28	1314.80
404.49	1310.70
404.70	1187.82
404.90	1304.56
405.11	1265.64
405.32	1361.90
405.52	1282.03
405.73	1298.41
405.94	1308.65
406.15	1302.51
406.35	1222.64
406.56	1282.03
406.77	1349.61
406.98	1290.22
407.18	1282.03
407.39	1232.88
407.60	1361.90
407.80	1310.70
408.01	1286.12
408.22	1310.70
408.43	1253.36
408.63	1175.53
408.84	1304.56
409.05	1271.79
409.25	1255.40
409.46	1277.93
409.67	1230.83
409.88	1265.64
410.08	1267.69
410.29	1265.64
410.50	1239.02
410.70	1292.27
410.91	1290.22
411.12	1288.17
411.32	1310.70
411.53	1241.07
411.74	1224.69
411.95	1296.36
412.15	1232.88
412.36	1345.52
412.57	1212.40
412.77	1302.51
412.98	1236.97
413.19	1320.94
413.39	1294.32
413.60	1228.78
413.81	1318.89
414.01	1302.51
414.22	1277.93
414.43	1249.26
414.63	1261.55
414.84	1251.31
415.05	1288.17
415.25	1208.30
415.46	1320.94
415.67	1302.51
415.87	1269.74
416.08	1329.13
416.29	1302.51
416.49	1279.98
416.70	1298.41
416.91	1339.37
417.11	1304.56
417.32	1302.51
417.53	1320.94
417.73	1284.08
417.94	1304.56
418.15	1251.31
418.35	1263.60
418.56	1265.64
418.77	1296.36
418.97	1320.94
419.18	1249.26
419.38	1226.73
419.59	1193.97
419.80	1312.75
420.00	1222.64
420.21	1241.07
420.42	1286.12
420.62	1267.69
420.83	1273.84
421.04	1273.84
421.24	1214.45
421.45	1214.45
421.65	1290.22
421.86	1277.93
422.07	1271.79
422.27	1271.79
422.48	1277.93
422.69	1232.88
422.89	1263.60
423.10	1288.17
423.30	1282.03
423.51	1247.21
423.72	1216.49
423.92	1228.78
424.13	1296.36
424.33	1284.08
424.54	1265.64
424.75	1200.11
424.95	1333.23
425.16	1273.84
425.36	1204.21
425.57	1273.84
425.78	1241.07
425.98	1261.55
426.19	1294.32
426.39	1241.07
426.60	1335.28
426.81	1214.45
427.01	1261.55
427.22	1308.65
427.42	1196.01
427.63	1279.98
427.83	1296.36
428.04	1296.36
428.25	1247.21
428.45	1247.21
428.66	1304.56
428.86	1214.45
429.07	1171.44
429.28	1322.99
429.48	1261.55
429.69	1247.21
429.89	1187.82
430.10	1214.45
430.30	1239.02
430.51	1314.80
430.71	1265.64
430.92	1273.84
431.13	1239.02
431.33	1269.74
431.54	1331.18
431.74	1298.41
431.95	1320.94
432.15	1222.64
432.36	1224.69
432.56	1273.84
432.77	1249.26
432.98	1249.26
433.18	1218.54
433.39	1230.83
433.59	1236.97
433.80	1228.78
434.00	1257.45
434.21	1210.35
434.41	1216.49
434.62	1294.32
434.82	1275.88
435.03	1294.32
435.23	1224.69
435.44	1212.40
435.64	1312.75
435.85	1265.64
436.06	1277.93
436.26	1222.64
436.47	1228.78
436.67	1259.50
436.88	1224.69
437.08	1333.23
437.29	1333.23
437.49	1273.84
437.70	1234.93
437.90	1292.27
438.11	1267.69
438.31	1232.88
438.52	1206.25
438.72	1279.98
438.93	1243.12
439.13	1269.74
439.34	1294.32
439.54	1359.85
439.75	1220.59
439.95	1247.21
440.16	1292.27
440.36	1255.40
440.57	1312.75
440.77	1277.93
440.98	1314.80
441.18	1236.97
441.39	1253.36
441.59	1234.93
441.80	1247.21
442.00	1239.02
442.21	1288.17
442.41	1269.74
442.62	1296.36
442.82	1265.64
443.02	1286.12
443.23	1343.47
443.43	1366.00
443.64	1261.55
443.84	1253.36
444.05	1249.26
444.25	1236.97
444.46	1271.79
444.66	1275.88
444.87	1325.04
445.07	1155.05
445.28	1241.07
445.48	1267.69
445.69	1239.02
445.89	1286.12
446.09	1306.60
446.30	1308.65
446.50	1261.55
446.71	1302.51
446.91	1296.36
447.12	1347.56
447.32	1212.40
447.53	1202.16
447.73	1263.60
447.93	1251.31
448.14	1294.32
448.34	1288.17
448.55	1251.31
448.75	1253.36
448.96	1245.16
449.16	1265.64
449.36	1304.56
449.57	1255.40
449.77	1245.16
449.98	1234.93
450.18	1318.89
450.39	1216.49
450.59	1253.36
450.79	1239.02
451.00	1245.16
451.20	1232.88
451.41	1247.21
451.61	1277.93
451.81	1314.80
452.02	1277.93
452.22	1230.83
452.43	1294.32
452.63	1304.56
