SpectraSuite Data File
++++++++++++++++++++++++++++++++++++
Date: Sun Apr 03 19:55:22 CEST 2016
User: root
Dark Spectrum Present: No
Reference Spectrum Present: No
Number of Sampled Component Spectra: 1
Spectrometers: USB4C02835
Integration Time (usec): 10000 (USB4C02835)
Spectra Averaged: 1 (USB4C02835)
Boxcar Smoothing: 0 (USB4C02835)
Correct for Electrical Dark: No (USB4C02835)
Strobe/Lamp Enabled: No (USB4C02835)
Correct for Detector Non-linearity: No (USB4C02835)
Correct for Stray Light: No (USB4C02835)
Number of Pixels in Processed Spectrum: 3648
>>>>>Begin Processed Spectral Data<<<<<
177.47	1220.59
177.69	1220.59
177.91	1220.59
178.13	1208.30
178.36	1204.21
178.58	1224.69
178.80	1230.83
179.02	1347.56
179.24	1255.40
179.46	1267.69
179.68	1288.17
179.90	1282.03
180.13	1308.65
180.35	1191.92
180.57	1241.07
180.79	1269.74
181.01	1284.08
181.23	1179.63
181.45	1261.55
181.67	1314.80
181.90	1247.21
182.12	1249.26
182.34	1243.12
182.56	1245.16
182.78	1298.41
183.00	1259.50
183.22	1286.12
183.44	1257.45
183.66	1263.60
183.89	1275.88
184.11	1220.59
184.33	1273.84
184.55	1351.66
184.77	1257.45
184.99	1292.27
185.21	1282.03
185.43	1312.75
185.65	1247.21
185.87	1275.88
186.10	1245.16
186.32	1355.76
186.54	1263.60
186.76	1314.80
186.98	1253.36
187.20	1230.83
187.42	1236.97
187.64	1290.22
187.86	1296.36
188.08	1286.12
188.30	1257.45
188.52	1265.64
188.75	1273.84
188.97	1288.17
189.19	1210.35
189.41	1312.75
189.63	1275.88
189.85	1351.66
190.07	1271.79
190.29	1198.06
190.51	1259.50
190.73	1337.32
190.95	1185.77
191.17	1226.73
191.39	1261.55
191.61	1304.56
191.84	1273.84
192.06	1230.83
192.28	1290.22
192.50	1286.12
192.72	1284.08
192.94	1212.40
193.16	1241.07
193.38	1247.21
193.60	1255.40
193.82	1286.12
194.04	1236.97
194.26	1261.55
194.48	1232.88
194.70	1269.74
194.92	1294.32
195.14	1273.84
195.36	1247.21
195.58	1269.74
195.80	1198.06
196.02	1327.08
196.24	1230.83
196.46	1226.73
196.69	1243.12
196.91	1255.40
197.13	1277.93
197.35	1247.21
197.57	1263.60
197.79	1241.07
198.01	1273.84
198.23	1327.08
198.45	1177.58
198.67	1269.74
198.89	1279.98
199.11	1302.51
199.33	1212.40
199.55	1232.88
199.77	1275.88
199.99	1288.17
200.21	1243.12
200.43	1300.46
200.65	1279.98
200.87	1239.02
201.09	1255.40
201.31	1247.21
201.53	1271.79
201.75	1284.08
201.97	1333.23
202.19	1212.40
202.41	1247.21
202.63	1228.78
202.85	1292.27
203.07	1271.79
203.29	1298.41
203.51	1206.25
203.73	1241.07
203.95	1275.88
204.17	1202.16
204.39	1314.80
204.61	1275.88
204.83	1271.79
205.05	1234.93
205.27	1226.73
205.49	1312.75
205.71	1290.22
205.93	1226.73
206.15	1288.17
206.37	1253.36
206.59	1290.22
206.81	1292.27
207.03	1296.36
207.25	1261.55
207.47	1298.41
207.69	1273.84
207.91	1206.25
208.13	1300.46
208.34	1214.45
208.56	1245.16
208.78	1273.84
209.00	1230.83
209.22	1298.41
209.44	1222.64
209.66	1247.21
209.88	1269.74
210.10	1255.40
210.32	1249.26
210.54	1302.51
210.76	1200.11
210.98	1255.40
211.20	1292.27
211.42	1294.32
211.64	1296.36
211.86	1282.03
212.08	1261.55
212.30	1279.98
212.52	1263.60
212.74	1304.56
212.96	1316.84
213.17	1296.36
213.39	1177.58
213.61	1273.84
213.83	1282.03
214.05	1325.04
214.27	1302.51
214.49	1259.50
214.71	1212.40
214.93	1249.26
215.15	1300.46
215.37	1251.31
215.59	1241.07
215.81	1234.93
216.03	1296.36
216.24	1325.04
216.46	1251.31
216.68	1255.40
216.90	1247.21
217.12	1251.31
217.34	1183.73
217.56	1263.60
217.78	1249.26
218.00	1236.97
218.22	1214.45
218.44	1251.31
218.66	1288.17
218.87	1247.21
219.09	1277.93
219.31	1230.83
219.53	1316.84
219.75	1230.83
219.97	1224.69
220.19	1294.32
220.41	1282.03
220.63	1282.03
220.85	1249.26
221.06	1253.36
221.28	1236.97
221.50	1265.64
221.72	1308.65
221.94	1368.04
222.16	1279.98
222.38	1263.60
222.60	1202.16
222.82	1306.60
223.03	1204.21
223.25	1279.98
223.47	1294.32
223.69	1312.75
223.91	1257.45
224.13	1290.22
224.35	1290.22
224.57	1288.17
224.78	1288.17
225.00	1198.06
225.22	1216.49
225.44	1239.02
225.66	1200.11
225.88	1247.21
226.10	1275.88
226.32	1314.80
226.53	1341.42
226.75	1159.15
226.97	1271.79
227.19	1325.04
227.41	1288.17
227.63	1284.08
227.85	1263.60
228.06	1255.40
228.28	1294.32
228.50	1263.60
228.72	1282.03
228.94	1232.88
229.16	1202.16
229.37	1294.32
229.59	1339.37
229.81	1210.35
230.03	1316.84
230.25	1275.88
230.47	1257.45
230.69	1218.54
230.90	1241.07
231.12	1208.30
231.34	1312.75
231.56	1335.28
231.78	1273.84
232.00	1247.21
232.21	1210.35
232.43	1263.60
232.65	1294.32
232.87	1224.69
233.09	1253.36
233.30	1290.22
233.52	1249.26
233.74	1261.55
233.96	1286.12
234.18	1298.41
234.40	1298.41
234.61	1181.68
234.83	1220.59
235.05	1222.64
235.27	1310.70
235.49	1255.40
235.70	1239.02
235.92	1296.36
236.14	1322.99
236.36	1259.50
236.58	1288.17
236.79	1300.46
237.01	1206.25
237.23	1316.84
237.45	1232.88
237.67	1218.54
237.88	1282.03
238.10	1275.88
238.32	1284.08
238.54	1296.36
238.76	1265.64
238.97	1230.83
239.19	1282.03
239.41	1312.75
239.63	1271.79
239.85	1288.17
240.06	1212.40
240.28	1232.88
240.50	1329.13
240.72	1302.51
240.93	1294.32
241.15	1257.45
241.37	1290.22
241.59	1257.45
241.81	1312.75
242.02	1247.21
242.24	1228.78
242.46	1249.26
242.68	1253.36
242.89	1298.41
243.11	1216.49
243.33	1359.85
243.55	1249.26
243.76	1335.28
243.98	1236.97
244.20	1331.18
244.42	1253.36
244.64	1335.28
244.85	1247.21
245.07	1320.94
245.29	1236.97
245.51	1279.98
245.72	1265.64
245.94	1220.59
246.16	1279.98
246.38	1296.36
246.59	1247.21
246.81	1259.50
247.03	1232.88
247.24	1277.93
247.46	1290.22
247.68	1236.97
247.90	1279.98
248.11	1239.02
248.33	1310.70
248.55	1222.64
248.77	1191.92
248.98	1226.73
249.20	1312.75
249.42	1286.12
249.64	1234.93
249.85	1314.80
250.07	1409.00
250.29	1290.22
250.50	1302.51
250.72	1339.37
250.94	1247.21
251.16	1273.84
251.37	1236.97
251.59	1282.03
251.81	1241.07
252.02	1286.12
252.24	1300.46
252.46	1251.31
252.68	1298.41
252.89	1290.22
253.11	1198.06
253.33	1290.22
253.54	1234.93
253.76	1247.21
253.98	1208.30
254.20	1279.98
254.41	1269.74
254.63	1269.74
254.85	1363.95
255.06	1234.93
255.28	1261.55
255.50	1212.40
255.71	1322.99
255.93	1171.44
256.15	1261.55
256.36	1353.71
256.58	1259.50
256.80	1253.36
257.02	1224.69
257.23	1249.26
257.45	1286.12
257.67	1322.99
257.88	1208.30
258.10	1286.12
258.32	1247.21
258.53	1265.64
258.75	1277.93
258.97	1263.60
259.18	1210.35
259.40	1335.28
259.62	1325.04
259.83	1284.08
260.05	1243.12
260.27	1155.05
260.48	1245.16
260.70	1314.80
260.92	1298.41
261.13	1325.04
261.35	1247.21
261.57	1282.03
261.78	1249.26
262.00	1241.07
262.22	1343.47
262.43	1259.50
262.65	1208.30
262.86	1320.94
263.08	1304.56
263.30	1290.22
263.51	1255.40
263.73	1347.56
263.95	1204.21
264.16	1294.32
264.38	1216.49
264.60	1267.69
264.81	1212.40
265.03	1282.03
265.25	1228.78
265.46	1241.07
265.68	1251.31
265.89	1265.64
266.11	1239.02
266.33	1245.16
266.54	1214.45
266.76	1310.70
266.98	1222.64
267.19	1230.83
267.41	1259.50
267.62	1239.02
267.84	1306.60
268.06	1255.40
268.27	1279.98
268.49	1322.99
268.70	1214.45
268.92	1159.15
269.14	1257.45
269.35	1183.73
269.57	1296.36
269.79	1261.55
270.00	1224.69
270.22	1234.93
270.43	1208.30
270.65	1212.40
270.87	1234.93
271.08	1263.60
271.30	1279.98
271.51	1286.12
271.73	1288.17
271.95	1253.36
272.16	1226.73
272.38	1241.07
272.59	1271.79
272.81	1251.31
273.02	1249.26
273.24	1222.64
273.46	1294.32
273.67	1228.78
273.89	1255.40
274.10	1239.02
274.32	1179.63
274.54	1279.98
274.75	1277.93
274.97	1284.08
275.18	1265.64
275.40	1279.98
275.61	1284.08
275.83	1392.62
276.05	1243.12
276.26	1228.78
276.48	1236.97
276.69	1296.36
276.91	1271.79
277.12	1298.41
277.34	1267.69
277.55	1275.88
277.77	1187.82
277.99	1261.55
278.20	1167.34
278.42	1292.27
278.63	1271.79
278.85	1284.08
279.06	1263.60
279.28	1267.69
279.49	1273.84
279.71	1284.08
279.93	1251.31
280.14	1214.45
280.36	1187.82
280.57	1245.16
280.79	1286.12
281.00	1325.04
281.22	1232.88
281.43	1263.60
281.65	1259.50
281.86	1361.90
282.08	1206.25
282.29	1320.94
282.51	1333.23
282.73	1236.97
282.94	1275.88
283.16	1177.58
283.37	1302.51
283.59	1269.74
283.80	1282.03
284.02	1265.64
284.23	1236.97
284.45	1279.98
284.66	1146.86
284.88	1253.36
285.09	1239.02
285.31	1308.65
285.52	1288.17
285.74	1214.45
285.95	1351.66
286.17	1308.65
286.38	1253.36
286.60	1292.27
286.81	1265.64
287.03	1255.40
287.24	1222.64
287.46	1327.08
287.67	1249.26
287.89	1335.28
288.10	1275.88
288.32	1257.45
288.53	1255.40
288.75	1247.21
288.96	1325.04
289.18	1247.21
289.39	1249.26
289.61	1224.69
289.82	1251.31
290.04	1322.99
290.25	1314.80
290.47	1243.12
290.68	1267.69
290.90	1234.93
291.11	1261.55
291.33	1200.11
291.54	1212.40
291.76	1282.03
291.97	1296.36
292.18	1257.45
292.40	1294.32
292.61	1249.26
292.83	1292.27
293.04	1216.49
293.26	1261.55
293.47	1282.03
293.69	1249.26
293.90	1279.98
294.12	1284.08
294.33	1173.49
294.55	1257.45
294.76	1306.60
294.97	1204.21
295.19	1294.32
295.40	1271.79
295.62	1216.49
295.83	1292.27
296.05	1292.27
296.26	1263.60
296.48	1273.84
296.69	1314.80
296.90	1275.88
297.12	1277.93
297.33	1273.84
297.55	1314.80
297.76	1255.40
297.98	1212.40
298.19	1355.76
298.41	1206.25
298.62	1230.83
298.83	1261.55
299.05	1290.22
299.26	1314.80
299.48	1249.26
299.69	1251.31
299.90	1300.46
300.12	1290.22
300.33	1275.88
300.55	1267.69
300.76	1290.22
300.98	1189.87
301.19	1345.52
301.40	1261.55
301.62	1251.31
301.83	1306.60
302.05	1288.17
302.26	1228.78
302.47	1290.22
302.69	1255.40
302.90	1320.94
303.12	1263.60
303.33	1292.27
303.54	1222.64
303.76	1234.93
303.97	1267.69
304.19	1255.40
304.40	1302.51
304.61	1228.78
304.83	1255.40
305.04	1271.79
305.26	1273.84
305.47	1247.21
305.68	1200.11
305.90	1263.60
306.11	1183.73
306.33	1253.36
306.54	1269.74
306.75	1329.13
306.97	1167.34
307.18	1292.27
307.39	1312.75
307.61	1288.17
307.82	1265.64
308.04	1282.03
308.25	1275.88
308.46	1257.45
308.68	1271.79
308.89	1247.21
309.10	1222.64
309.32	1284.08
309.53	1206.25
309.74	1230.83
309.96	1239.02
310.17	1247.21
310.39	1212.40
310.60	1271.79
310.81	1228.78
311.03	1222.64
311.24	1269.74
311.45	1271.79
311.67	1210.35
311.88	1243.12
312.09	1220.59
312.31	1325.04
312.52	1284.08
312.73	1196.01
312.95	1228.78
313.16	1273.84
313.37	1296.36
313.59	1308.65
313.80	1226.73
314.01	1304.56
314.23	1284.08
314.44	1245.16
314.65	1302.51
314.87	1302.51
315.08	1312.75
315.29	1267.69
315.51	1275.88
315.72	1337.32
315.93	1251.31
316.15	1292.27
316.36	1292.27
316.57	1263.60
316.79	1257.45
317.00	1243.12
317.21	1261.55
317.43	1263.60
317.64	1239.02
317.85	1269.74
318.07	1232.88
318.28	1288.17
318.49	1249.26
318.70	1269.74
318.92	1230.83
319.13	1273.84
319.34	1169.39
319.56	1275.88
319.77	1290.22
319.98	1200.11
320.20	1232.88
320.41	1243.12
320.62	1286.12
320.83	1294.32
321.05	1282.03
321.26	1226.73
321.47	1138.67
321.69	1261.55
321.90	1249.26
322.11	1343.47
322.32	1251.31
322.54	1245.16
322.75	1345.52
322.96	1284.08
323.18	1230.83
323.39	1255.40
323.60	1312.75
323.81	1335.28
324.03	1279.98
324.24	1282.03
324.45	1253.36
324.66	1224.69
324.88	1292.27
325.09	1261.55
325.30	1218.54
325.52	1261.55
325.73	1294.32
325.94	1271.79
326.15	1204.21
326.37	1181.68
326.58	1241.07
326.79	1298.41
327.00	1282.03
327.22	1269.74
327.43	1269.74
327.64	1261.55
327.85	1337.32
328.07	1288.17
328.28	1224.69
328.49	1318.89
328.70	1230.83
328.92	1335.28
329.13	1265.64
329.34	1249.26
329.55	1243.12
329.76	1230.83
329.98	1290.22
330.19	1284.08
330.40	1269.74
330.61	1212.40
330.83	1261.55
331.04	1232.88
331.25	1212.40
331.46	1368.04
331.68	1249.26
331.89	1179.63
332.10	1277.93
332.31	1198.06
332.52	1300.46
332.74	1263.60
332.95	1243.12
333.16	1288.17
333.37	1189.87
333.58	1277.93
333.80	1363.95
334.01	1290.22
334.22	1263.60
334.43	1220.59
334.64	1243.12
334.86	1275.88
335.07	1333.23
335.28	1243.12
335.49	1245.16
335.70	1232.88
335.92	1353.71
336.13	1306.60
336.34	1275.88
336.55	1314.80
336.76	1273.84
336.98	1290.22
337.19	1234.93
337.40	1263.60
337.61	1253.36
337.82	1230.83
338.04	1243.12
338.25	1282.03
338.46	1257.45
338.67	1267.69
338.88	1308.65
339.09	1183.73
339.31	1269.74
339.52	1290.22
339.73	1257.45
339.94	1253.36
340.15	1245.16
340.36	1255.40
340.58	1269.74
340.79	1202.16
341.00	1294.32
341.21	1247.21
341.42	1247.21
341.63	1247.21
341.85	1249.26
342.06	1325.04
342.27	1261.55
342.48	1279.98
342.69	1243.12
342.90	1241.07
343.12	1314.80
343.33	1284.08
343.54	1273.84
343.75	1230.83
343.96	1251.31
344.17	1226.73
344.38	1257.45
344.60	1236.97
344.81	1320.94
345.02	1316.84
345.23	1308.65
345.44	1210.35
345.65	1329.13
345.86	1318.89
346.07	1263.60
346.29	1239.02
346.50	1302.51
346.71	1282.03
346.92	1288.17
347.13	1284.08
347.34	1298.41
347.55	1218.54
347.76	1247.21
347.98	1247.21
348.19	1271.79
348.40	1239.02
348.61	1300.46
348.82	1216.49
349.03	1325.04
349.24	1273.84
349.45	1234.93
349.66	1228.78
349.88	1239.02
350.09	1210.35
350.30	1269.74
350.51	1271.79
350.72	1331.18
350.93	1284.08
351.14	1259.50
351.35	1312.75
351.56	1243.12
351.77	1279.98
351.99	1282.03
352.20	1247.21
352.41	1302.51
352.62	1228.78
352.83	1251.31
353.04	1300.46
353.25	1282.03
353.46	1316.84
353.67	1265.64
353.88	1269.74
354.09	1230.83
354.30	1261.55
354.52	1220.59
354.73	1329.13
354.94	1247.21
355.15	1263.60
355.36	1279.98
355.57	1224.69
355.78	1302.51
355.99	1263.60
356.20	1224.69
356.41	1290.22
356.62	1261.55
356.83	1277.93
357.04	1247.21
357.25	1183.73
357.46	1282.03
357.68	1206.25
357.89	1284.08
358.10	1314.80
358.31	1243.12
358.52	1255.40
358.73	1343.47
358.94	1290.22
359.15	1282.03
359.36	1288.17
359.57	1331.18
359.78	1298.41
359.99	1275.88
360.20	1271.79
360.41	1308.65
360.62	1239.02
360.83	1249.26
361.04	1316.84
361.25	1267.69
361.46	1322.99
361.67	1304.56
361.88	1308.65
362.09	1218.54
362.30	1292.27
362.51	1228.78
362.72	1298.41
362.93	1257.45
363.14	1327.08
363.35	1296.36
363.56	1314.80
363.78	1300.46
363.99	1292.27
364.20	1226.73
364.41	1271.79
364.62	1267.69
364.83	1294.32
365.04	1286.12
365.25	1288.17
365.46	1230.83
365.67	1316.84
365.88	1302.51
366.09	1259.50
366.30	1236.97
366.51	1265.64
366.72	1275.88
366.93	1339.37
367.14	1243.12
367.35	1259.50
367.56	1218.54
367.77	1353.71
367.98	1241.07
368.18	1279.98
368.39	1308.65
368.60	1263.60
368.81	1282.03
369.02	1263.60
369.23	1243.12
369.44	1208.30
369.65	1239.02
369.86	1296.36
370.07	1204.21
370.28	1267.69
370.49	1214.45
370.70	1273.84
370.91	1339.37
371.12	1288.17
371.33	1333.23
371.54	1226.73
371.75	1343.47
371.96	1245.16
372.17	1245.16
372.38	1241.07
372.59	1279.98
372.80	1290.22
373.01	1261.55
373.22	1271.79
373.43	1273.84
373.64	1232.88
373.85	1345.52
374.06	1230.83
374.26	1294.32
374.47	1273.84
374.68	1290.22
374.89	1290.22
375.10	1277.93
375.31	1347.56
375.52	1298.41
375.73	1261.55
375.94	1294.32
376.15	1288.17
376.36	1304.56
376.57	1294.32
376.78	1251.31
376.99	1255.40
377.20	1257.45
377.40	1255.40
377.61	1263.60
377.82	1286.12
378.03	1228.78
378.24	1251.31
378.45	1239.02
378.66	1247.21
378.87	1245.16
379.08	1327.08
379.29	1241.07
379.50	1239.02
379.71	1253.36
379.91	1339.37
380.12	1314.80
380.33	1279.98
380.54	1257.45
380.75	1239.02
380.96	1161.20
381.17	1337.32
381.38	1269.74
381.59	1216.49
381.80	1241.07
382.00	1286.12
382.21	1239.02
382.42	1255.40
382.63	1288.17
382.84	1284.08
383.05	1265.64
383.26	1253.36
383.47	1249.26
383.68	1279.98
383.88	1271.79
384.09	1198.06
384.30	1298.41
384.51	1224.69
384.72	1243.12
384.93	1198.06
385.14	1296.36
385.35	1251.31
385.55	1239.02
385.76	1345.52
385.97	1306.60
386.18	1275.88
386.39	1261.55
386.60	1322.99
386.81	1288.17
387.02	1284.08
387.22	1265.64
387.43	1189.87
387.64	1308.65
387.85	1306.60
388.06	1282.03
388.27	1292.27
388.48	1325.04
388.68	1241.07
388.89	1318.89
389.10	1224.69
389.31	1196.01
389.52	1253.36
389.73	1286.12
389.93	1304.56
390.14	1353.71
390.35	1224.69
390.56	1279.98
390.77	1241.07
390.98	1261.55
391.18	1288.17
391.39	1271.79
391.60	1241.07
391.81	1308.65
392.02	1279.98
392.23	1335.28
392.43	1241.07
392.64	1265.64
392.85	1228.78
393.06	1273.84
393.27	1310.70
393.47	1208.30
393.68	1275.88
393.89	1220.59
394.10	1310.70
394.31	1216.49
394.52	1269.74
394.72	1251.31
394.93	1322.99
395.14	1284.08
395.35	1298.41
395.56	1292.27
395.76	1318.89
395.97	1296.36
396.18	1212.40
396.39	1241.07
396.60	1279.98
396.80	1251.31
397.01	1232.88
397.22	1212.40
397.43	1296.36
397.64	1241.07
397.84	1273.84
398.05	1241.07
398.26	1245.16
398.47	1279.98
398.67	1241.07
398.88	1241.07
399.09	1361.90
399.30	1296.36
399.51	1314.80
399.71	1232.88
399.92	1331.18
400.13	1255.40
400.34	1277.93
400.54	1255.40
400.75	1298.41
400.96	1267.69
401.17	1255.40
401.37	1222.64
401.58	1253.36
401.79	1275.88
402.00	1259.50
402.21	1202.16
402.41	1236.97
402.62	1271.79
402.83	1275.88
403.04	1265.64
403.24	1269.74
403.45	1196.01
403.66	1296.36
403.87	1263.60
404.07	1253.36
404.28	1302.51
404.49	1286.12
404.70	1320.94
404.90	1271.79
405.11	1302.51
405.32	1251.31
405.52	1212.40
405.73	1273.84
405.94	1189.87
406.15	1218.54
406.35	1325.04
406.56	1265.64
406.77	1251.31
406.98	1232.88
407.18	1294.32
407.39	1232.88
407.60	1171.44
407.80	1282.03
408.01	1271.79
408.22	1253.36
408.43	1220.59
408.63	1300.46
408.84	1288.17
409.05	1294.32
409.25	1239.02
409.46	1282.03
409.67	1275.88
409.88	1320.94
410.08	1224.69
410.29	1177.58
410.50	1251.31
410.70	1263.60
410.91	1257.45
411.12	1265.64
411.32	1284.08
411.53	1306.60
411.74	1298.41
411.95	1267.69
412.15	1230.83
412.36	1279.98
412.57	1173.49
412.77	1267.69
412.98	1214.45
413.19	1282.03
413.39	1253.36
413.60	1234.93
413.81	1296.36
414.01	1273.84
414.22	1284.08
414.43	1236.97
414.63	1224.69
414.84	1218.54
415.05	1220.59
415.25	1226.73
415.46	1300.46
415.67	1294.32
415.87	1269.74
416.08	1228.78
416.29	1239.02
416.49	1333.23
416.70	1308.65
416.91	1257.45
417.11	1263.60
417.32	1265.64
417.53	1210.35
417.73	1241.07
417.94	1269.74
418.15	1150.96
418.35	1306.60
418.56	1275.88
418.77	1288.17
418.97	1251.31
419.18	1185.77
419.38	1255.40
419.59	1284.08
419.80	1304.56
420.00	1210.35
420.21	1310.70
420.42	1241.07
420.62	1292.27
420.83	1286.12
421.04	1226.73
421.24	1265.64
421.45	1253.36
421.65	1265.64
421.86	1288.17
422.07	1333.23
422.27	1247.21
422.48	1228.78
422.69	1275.88
422.89	1288.17
423.10	1259.50
423.30	1333.23
423.51	1234.93
423.72	1273.84
423.92	1279.98
424.13	1241.07
424.33	1224.69
424.54	1318.89
424.75	1265.64
424.95	1224.69
425.16	1277.93
425.36	1282.03
425.57	1222.64
425.78	1200.11
425.98	1191.92
426.19	1288.17
426.39	1288.17
426.60	1288.17
426.81	1304.56
427.01	1183.73
427.22	1308.65
427.42	1236.97
427.63	1298.41
427.83	1191.92
428.04	1273.84
428.25	1255.40
428.45	1329.13
428.66	1255.40
428.86	1376.24
429.07	1273.84
429.28	1271.79
429.48	1234.93
429.69	1208.30
429.89	1288.17
430.10	1325.04
430.30	1257.45
430.51	1349.61
430.71	1271.79
430.92	1245.16
431.13	1259.50
431.33	1347.56
431.54	1267.69
431.74	1230.83
431.95	1271.79
432.15	1286.12
432.36	1259.50
432.56	1261.55
432.77	1228.78
432.98	1236.97
433.18	1257.45
433.39	1300.46
433.59	1220.59
433.80	1329.13
434.00	1325.04
434.21	1232.88
434.41	1308.65
434.62	1247.21
434.82	1296.36
435.03	1251.31
435.23	1327.08
435.44	1300.46
435.64	1241.07
435.85	1292.27
436.06	1298.41
436.26	1234.93
436.47	1304.56
436.67	1320.94
436.88	1267.69
437.08	1187.82
437.29	1279.98
437.49	1314.80
437.70	1232.88
437.90	1265.64
438.11	1271.79
438.31	1226.73
438.52	1232.88
438.72	1298.41
438.93	1249.26
439.13	1271.79
439.34	1259.50
439.54	1267.69
439.75	1302.51
439.95	1282.03
440.16	1288.17
440.36	1302.51
440.57	1212.40
440.77	1339.37
440.98	1314.80
441.18	1251.31
441.39	1232.88
441.59	1318.89
441.80	1263.60
442.00	1296.36
442.21	1327.08
442.41	1294.32
442.62	1232.88
442.82	1273.84
443.02	1314.80
443.23	1314.80
443.43	1308.65
443.64	1173.49
443.84	1269.74
444.05	1232.88
444.25	1265.64
444.46	1298.41
444.66	1257.45
444.87	1249.26
445.07	1310.70
445.28	1245.16
445.48	1232.88
445.69	1282.03
445.89	1259.50
446.09	1247.21
446.30	1232.88
446.50	1241.07
446.71	1292.27
446.91	1292.27
447.12	1245.16
447.32	1243.12
447.53	1232.88
447.73	1216.49
447.93	1200.11
448.14	1267.69
448.34	1298.41
448.55	1273.84
448.75	1349.61
448.96	1253.36
449.16	1224.69
449.36	1286.12
449.57	1245.16
449.77	1306.60
449.98	1241.07
450.18	1253.36
450.39	1282.03
450.59	1279.98
450.79	1224.69
451.00	1273.84
451.20	1325.04
451.41	1290.22
451.61	1265.64
451.81	1261.55
452.02	1329.13
452.22	1314.80
452.43	1282.03
452.63	1234.93
