SpectraSuite Data File
++++++++++++++++++++++++++++++++++++
Date: Sun Apr 03 19:55:35 CEST 2016
User: root
Dark Spectrum Present: No
Reference Spectrum Present: No
Number of Sampled Component Spectra: 1
Spectrometers: USB4C02835
Integration Time (usec): 10000 (USB4C02835)
Spectra Averaged: 1 (USB4C02835)
Boxcar Smoothing: 0 (USB4C02835)
Correct for Electrical Dark: No (USB4C02835)
Strobe/Lamp Enabled: No (USB4C02835)
Correct for Detector Non-linearity: No (USB4C02835)
Correct for Stray Light: No (USB4C02835)
Number of Pixels in Processed Spectrum: 3648
>>>>>Begin Processed Spectral Data<<<<<
177.47	1247.21
177.69	1247.21
177.91	1247.21
178.13	1259.50
178.36	1243.12
178.58	1255.40
178.80	1214.45
179.02	1277.93
179.24	1175.53
179.46	1208.30
179.68	1271.79
179.90	1273.84
180.13	1241.07
180.35	1341.42
180.57	1216.49
180.79	1269.74
181.01	1286.12
181.23	1306.60
181.45	1312.75
181.67	1226.73
181.90	1191.92
182.12	1224.69
182.34	1224.69
182.56	1253.36
182.78	1257.45
183.00	1269.74
183.22	1288.17
183.44	1222.64
183.66	1288.17
183.89	1290.22
184.11	1247.21
184.33	1259.50
184.55	1343.47
184.77	1253.36
184.99	1191.92
185.21	1327.08
185.43	1263.60
185.65	1292.27
185.87	1282.03
186.10	1263.60
186.32	1298.41
186.54	1241.07
186.76	1259.50
186.98	1325.04
187.20	1294.32
187.42	1282.03
187.64	1243.12
187.86	1255.40
188.08	1257.45
188.30	1216.49
188.52	1286.12
188.75	1298.41
188.97	1245.16
189.19	1355.76
189.41	1380.33
189.63	1273.84
189.85	1263.60
190.07	1341.42
190.29	1277.93
190.51	1247.21
190.73	1216.49
190.95	1255.40
191.17	1216.49
191.39	1245.16
191.61	1249.26
191.84	1245.16
192.06	1214.45
192.28	1171.44
192.50	1308.65
192.72	1216.49
192.94	1232.88
193.16	1224.69
193.38	1286.12
193.60	1239.02
193.82	1275.88
194.04	1292.27
194.26	1269.74
194.48	1288.17
194.70	1304.56
194.92	1286.12
195.14	1259.50
195.36	1202.16
195.58	1263.60
195.80	1249.26
196.02	1316.84
196.24	1284.08
196.46	1255.40
196.69	1247.21
196.91	1322.99
197.13	1282.03
197.35	1253.36
197.57	1298.41
197.79	1302.51
198.01	1243.12
198.23	1269.74
198.45	1243.12
198.67	1337.32
198.89	1370.09
199.11	1255.40
199.33	1253.36
199.55	1239.02
199.77	1290.22
199.99	1290.22
200.21	1300.46
200.43	1298.41
200.65	1277.93
200.87	1314.80
201.09	1236.97
201.31	1318.89
201.53	1271.79
201.75	1208.30
201.97	1245.16
202.19	1224.69
202.41	1314.80
202.63	1265.64
202.85	1222.64
203.07	1249.26
203.29	1261.55
203.51	1269.74
203.73	1306.60
203.95	1335.28
204.17	1302.51
204.39	1259.50
204.61	1249.26
204.83	1232.88
205.05	1257.45
205.27	1259.50
205.49	1265.64
205.71	1275.88
205.93	1204.21
206.15	1239.02
206.37	1284.08
206.59	1277.93
206.81	1232.88
207.03	1206.25
207.25	1239.02
207.47	1255.40
207.69	1251.31
207.91	1216.49
208.13	1308.65
208.34	1257.45
208.56	1325.04
208.78	1273.84
209.00	1302.51
209.22	1333.23
209.44	1247.21
209.66	1253.36
209.88	1271.79
210.10	1284.08
210.32	1236.97
210.54	1312.75
210.76	1253.36
210.98	1325.04
211.20	1243.12
211.42	1288.17
211.64	1298.41
211.86	1265.64
212.08	1257.45
212.30	1261.55
212.52	1230.83
212.74	1187.82
212.96	1247.21
213.17	1282.03
213.39	1259.50
213.61	1247.21
213.83	1222.64
214.05	1251.31
214.27	1251.31
214.49	1304.56
214.71	1198.06
214.93	1196.01
215.15	1275.88
215.37	1275.88
215.59	1357.80
215.81	1255.40
216.03	1347.56
216.24	1316.84
216.46	1286.12
216.68	1271.79
216.90	1269.74
217.12	1290.22
217.34	1320.94
217.56	1298.41
217.78	1214.45
218.00	1243.12
218.22	1216.49
218.44	1243.12
218.66	1265.64
218.87	1212.40
219.09	1202.16
219.31	1189.87
219.53	1204.21
219.75	1282.03
219.97	1302.51
220.19	1273.84
220.41	1292.27
220.63	1294.32
220.85	1298.41
221.06	1249.26
221.28	1273.84
221.50	1327.08
221.72	1224.69
221.94	1255.40
222.16	1279.98
222.38	1222.64
222.60	1200.11
222.82	1312.75
223.03	1284.08
223.25	1198.06
223.47	1282.03
223.69	1273.84
223.91	1267.69
224.13	1341.42
224.35	1302.51
224.57	1298.41
224.78	1236.97
225.00	1306.60
225.22	1220.59
225.44	1255.40
225.66	1226.73
225.88	1247.21
226.10	1247.21
226.32	1236.97
226.53	1255.40
226.75	1275.88
226.97	1218.54
227.19	1325.04
227.41	1286.12
227.63	1312.75
227.85	1314.80
228.06	1198.06
228.28	1253.36
228.50	1257.45
228.72	1282.03
228.94	1294.32
229.16	1302.51
229.37	1210.35
229.59	1253.36
229.81	1263.60
230.03	1267.69
230.25	1275.88
230.47	1245.16
230.69	1251.31
230.90	1255.40
231.12	1298.41
231.34	1284.08
231.56	1288.17
231.78	1294.32
232.00	1296.36
232.21	1247.21
232.43	1310.70
232.65	1189.87
232.87	1288.17
233.09	1318.89
233.30	1263.60
233.52	1239.02
233.74	1265.64
233.96	1279.98
234.18	1239.02
234.40	1296.36
234.61	1314.80
234.83	1216.49
235.05	1228.78
235.27	1247.21
235.49	1290.22
235.70	1239.02
235.92	1269.74
236.14	1173.49
236.36	1290.22
236.58	1234.93
236.79	1232.88
237.01	1277.93
237.23	1185.77
237.45	1277.93
237.67	1249.26
237.88	1198.06
238.10	1284.08
238.32	1263.60
238.54	1294.32
238.76	1335.28
238.97	1277.93
239.19	1259.50
239.41	1366.00
239.63	1279.98
239.85	1279.98
240.06	1263.60
240.28	1216.49
240.50	1316.84
240.72	1318.89
240.93	1343.47
241.15	1228.78
241.37	1241.07
241.59	1298.41
241.81	1304.56
242.02	1273.84
242.24	1263.60
242.46	1239.02
242.68	1292.27
242.89	1230.83
243.11	1253.36
243.33	1337.32
243.55	1314.80
243.76	1255.40
243.98	1329.13
244.20	1206.25
244.42	1265.64
244.64	1314.80
244.85	1339.37
245.07	1239.02
245.29	1204.21
245.51	1230.83
245.72	1255.40
245.94	1296.36
246.16	1265.64
246.38	1306.60
246.59	1236.97
246.81	1341.42
247.03	1279.98
247.24	1355.76
247.46	1200.11
247.68	1279.98
247.90	1261.55
248.11	1198.06
248.33	1267.69
248.55	1228.78
248.77	1353.71
248.98	1345.52
249.20	1284.08
249.42	1325.04
249.64	1253.36
249.85	1226.73
250.07	1290.22
250.29	1210.35
250.50	1302.51
250.72	1318.89
250.94	1320.94
251.16	1286.12
251.37	1198.06
251.59	1271.79
251.81	1279.98
252.02	1261.55
252.24	1257.45
252.46	1259.50
252.68	1284.08
252.89	1273.84
253.11	1224.69
253.33	1239.02
253.54	1226.73
253.76	1234.93
253.98	1232.88
254.20	1243.12
254.41	1243.12
254.63	1282.03
254.85	1159.15
255.06	1361.90
255.28	1294.32
255.50	1214.45
255.71	1288.17
255.93	1224.69
256.15	1259.50
256.36	1288.17
256.58	1320.94
256.80	1273.84
257.02	1257.45
257.23	1282.03
257.45	1208.30
257.67	1306.60
257.88	1241.07
258.10	1282.03
258.32	1232.88
258.53	1261.55
258.75	1329.13
258.97	1241.07
259.18	1271.79
259.40	1263.60
259.62	1335.28
259.83	1288.17
260.05	1288.17
260.27	1318.89
260.48	1232.88
260.70	1224.69
260.92	1300.46
261.13	1320.94
261.35	1255.40
261.57	1265.64
261.78	1241.07
262.00	1349.61
262.22	1208.30
262.43	1181.68
262.65	1284.08
262.86	1259.50
263.08	1320.94
263.30	1232.88
263.51	1267.69
263.73	1232.88
263.95	1335.28
264.16	1320.94
264.38	1222.64
264.60	1259.50
264.81	1212.40
265.03	1277.93
265.25	1255.40
265.46	1263.60
265.68	1322.99
265.89	1296.36
266.11	1259.50
266.33	1345.52
266.54	1220.59
266.76	1228.78
266.98	1185.77
267.19	1314.80
267.41	1214.45
267.62	1204.21
267.84	1243.12
268.06	1230.83
268.27	1265.64
268.49	1286.12
268.70	1273.84
268.92	1245.16
269.14	1302.51
269.35	1257.45
269.57	1249.26
269.79	1261.55
270.00	1196.01
270.22	1284.08
270.43	1210.35
270.65	1322.99
270.87	1216.49
271.08	1279.98
271.30	1300.46
271.51	1306.60
271.73	1261.55
271.95	1181.68
272.16	1263.60
272.38	1302.51
272.59	1282.03
272.81	1290.22
273.02	1243.12
273.24	1312.75
273.46	1257.45
273.67	1314.80
273.89	1277.93
274.10	1232.88
274.32	1232.88
274.54	1316.84
274.75	1269.74
274.97	1320.94
275.18	1253.36
275.40	1228.78
275.61	1277.93
275.83	1230.83
276.05	1306.60
276.26	1269.74
276.48	1243.12
276.69	1306.60
276.91	1236.97
277.12	1261.55
277.34	1232.88
277.55	1310.70
277.77	1392.62
277.99	1273.84
278.20	1257.45
278.42	1277.93
278.63	1239.02
278.85	1255.40
279.06	1239.02
279.28	1298.41
279.49	1230.83
279.71	1216.49
279.93	1200.11
280.14	1296.36
280.36	1284.08
280.57	1296.36
280.79	1284.08
281.00	1273.84
281.22	1269.74
281.43	1331.18
281.65	1249.26
281.86	1271.79
282.08	1284.08
282.29	1263.60
282.51	1271.79
282.73	1304.56
282.94	1271.79
283.16	1247.21
283.37	1308.65
283.59	1249.26
283.80	1175.53
284.02	1236.97
284.23	1239.02
284.45	1320.94
284.66	1220.59
284.88	1271.79
285.09	1306.60
285.31	1245.16
285.52	1288.17
285.74	1259.50
285.95	1224.69
286.17	1208.30
286.38	1290.22
286.60	1271.79
286.81	1261.55
287.03	1306.60
287.24	1271.79
287.46	1257.45
287.67	1310.70
287.89	1316.84
288.10	1245.16
288.32	1331.18
288.53	1200.11
288.75	1241.07
288.96	1298.41
289.18	1214.45
289.39	1214.45
289.61	1271.79
289.82	1304.56
290.04	1304.56
290.25	1222.64
290.47	1339.37
290.68	1249.26
290.90	1349.61
291.11	1224.69
291.33	1232.88
291.54	1298.41
291.76	1288.17
291.97	1300.46
292.18	1335.28
292.40	1253.36
292.61	1357.80
292.83	1322.99
293.04	1212.40
293.26	1269.74
293.47	1275.88
293.69	1255.40
293.90	1273.84
294.12	1249.26
294.33	1171.44
294.55	1359.85
294.76	1294.32
294.97	1316.84
295.19	1273.84
295.40	1308.65
295.62	1279.98
295.83	1236.97
296.05	1226.73
296.26	1308.65
296.48	1286.12
296.69	1294.32
296.90	1208.30
297.12	1230.83
297.33	1263.60
297.55	1290.22
297.76	1327.08
297.98	1271.79
298.19	1271.79
298.41	1331.18
298.62	1273.84
298.83	1312.75
299.05	1273.84
299.26	1183.73
299.48	1302.51
299.69	1331.18
299.90	1282.03
300.12	1286.12
300.33	1259.50
300.55	1282.03
300.76	1253.36
300.98	1263.60
301.19	1314.80
301.40	1277.93
301.62	1253.36
301.83	1308.65
302.05	1282.03
302.26	1277.93
302.47	1232.88
302.69	1257.45
302.90	1282.03
303.12	1179.63
303.33	1296.36
303.54	1255.40
303.76	1329.13
303.97	1253.36
304.19	1298.41
304.40	1179.63
304.61	1286.12
304.83	1200.11
305.04	1267.69
305.26	1265.64
305.47	1290.22
305.68	1255.40
305.90	1282.03
306.11	1267.69
306.33	1210.35
306.54	1232.88
306.75	1230.83
306.97	1329.13
307.18	1228.78
307.39	1232.88
307.61	1234.93
307.82	1230.83
308.04	1249.26
308.25	1304.56
308.46	1312.75
308.68	1304.56
308.89	1189.87
309.10	1255.40
309.32	1296.36
309.53	1302.51
309.74	1216.49
309.96	1312.75
310.17	1253.36
310.39	1341.42
310.60	1234.93
310.81	1318.89
311.03	1300.46
311.24	1193.97
311.45	1249.26
311.67	1312.75
311.88	1241.07
312.09	1247.21
312.31	1308.65
312.52	1282.03
312.73	1263.60
312.95	1345.52
313.16	1204.21
313.37	1243.12
313.59	1335.28
313.80	1325.04
314.01	1230.83
314.23	1243.12
314.44	1216.49
314.65	1306.60
314.87	1279.98
315.08	1277.93
315.29	1296.36
315.51	1306.60
315.72	1251.31
315.93	1292.27
316.15	1296.36
316.36	1265.64
316.57	1255.40
316.79	1249.26
317.00	1216.49
317.21	1183.73
317.43	1259.50
317.64	1224.69
317.85	1251.31
318.07	1214.45
318.28	1173.49
318.49	1251.31
318.70	1261.55
318.92	1349.61
319.13	1234.93
319.34	1257.45
319.56	1253.36
319.77	1267.69
319.98	1314.80
320.20	1286.12
320.41	1294.32
320.62	1220.59
320.83	1269.74
321.05	1259.50
321.26	1296.36
321.47	1251.31
321.69	1292.27
321.90	1218.54
322.11	1200.11
322.32	1335.28
322.54	1224.69
322.75	1216.49
322.96	1312.75
323.18	1253.36
323.39	1273.84
323.60	1294.32
323.81	1177.58
324.03	1306.60
324.24	1245.16
324.45	1316.84
324.66	1175.53
324.88	1322.99
325.09	1275.88
325.30	1245.16
325.52	1263.60
325.73	1261.55
325.94	1359.85
326.15	1228.78
326.37	1320.94
326.58	1189.87
326.79	1298.41
327.00	1284.08
327.22	1290.22
327.43	1216.49
327.64	1251.31
327.85	1183.73
328.07	1355.76
328.28	1218.54
328.49	1296.36
328.70	1251.31
328.92	1279.98
329.13	1257.45
329.34	1189.87
329.55	1196.01
329.76	1343.47
329.98	1236.97
330.19	1249.26
330.40	1179.63
330.61	1232.88
330.83	1265.64
331.04	1257.45
331.25	1300.46
331.46	1198.06
331.68	1222.64
331.89	1257.45
332.10	1230.83
332.31	1210.35
332.52	1236.97
332.74	1282.03
332.95	1216.49
333.16	1261.55
333.37	1304.56
333.58	1245.16
333.80	1230.83
334.01	1161.20
334.22	1261.55
334.43	1349.61
334.64	1284.08
334.86	1279.98
335.07	1304.56
335.28	1288.17
335.49	1300.46
335.70	1234.93
335.92	1251.31
336.13	1286.12
336.34	1239.02
336.55	1282.03
336.76	1279.98
336.98	1245.16
337.19	1290.22
337.40	1380.33
337.61	1251.31
337.82	1181.68
338.04	1212.40
338.25	1243.12
338.46	1261.55
338.67	1306.60
338.88	1210.35
339.09	1331.18
339.31	1253.36
339.52	1183.73
339.73	1210.35
339.94	1298.41
340.15	1253.36
340.36	1220.59
340.58	1236.97
340.79	1290.22
341.00	1329.13
341.21	1279.98
341.42	1247.21
341.63	1294.32
341.85	1273.84
342.06	1316.84
342.27	1253.36
342.48	1228.78
342.69	1318.89
342.90	1282.03
343.12	1265.64
343.33	1181.68
343.54	1314.80
343.75	1273.84
343.96	1314.80
344.17	1271.79
344.38	1339.37
344.60	1257.45
344.81	1261.55
345.02	1257.45
345.23	1275.88
345.44	1269.74
345.65	1241.07
345.86	1277.93
346.07	1191.92
346.29	1298.41
346.50	1316.84
346.71	1275.88
346.92	1286.12
347.13	1273.84
347.34	1304.56
347.55	1228.78
347.76	1308.65
347.98	1259.50
348.19	1275.88
348.40	1275.88
348.61	1265.64
348.82	1255.40
349.03	1273.84
349.24	1333.23
349.45	1331.18
349.66	1294.32
349.88	1241.07
350.09	1265.64
350.30	1249.26
350.51	1329.13
350.72	1259.50
350.93	1298.41
351.14	1232.88
351.35	1304.56
351.56	1191.92
351.77	1300.46
351.99	1284.08
352.20	1277.93
352.41	1286.12
352.62	1249.26
352.83	1212.40
353.04	1316.84
353.25	1230.83
353.46	1265.64
353.67	1245.16
353.88	1257.45
354.09	1271.79
354.30	1200.11
354.52	1339.37
354.73	1286.12
354.94	1253.36
355.15	1247.21
355.36	1308.65
355.57	1286.12
355.78	1257.45
355.99	1294.32
356.20	1224.69
356.41	1236.97
356.62	1284.08
356.83	1232.88
357.04	1273.84
357.25	1243.12
357.46	1294.32
357.68	1265.64
357.89	1210.35
358.10	1214.45
358.31	1232.88
358.52	1241.07
358.73	1216.49
358.94	1175.53
359.15	1282.03
359.36	1236.97
359.57	1259.50
359.78	1261.55
359.99	1284.08
360.20	1265.64
360.41	1224.69
360.62	1320.94
360.83	1241.07
361.04	1269.74
361.25	1279.98
361.46	1273.84
361.67	1273.84
361.88	1232.88
362.09	1271.79
362.30	1243.12
362.51	1302.51
362.72	1279.98
362.93	1290.22
363.14	1337.32
363.35	1329.13
363.56	1318.89
363.78	1232.88
363.99	1290.22
364.20	1282.03
364.41	1259.50
364.62	1329.13
364.83	1271.79
365.04	1202.16
365.25	1296.36
365.46	1251.31
365.67	1277.93
365.88	1234.93
366.09	1288.17
366.30	1284.08
366.51	1300.46
366.72	1159.15
366.93	1290.22
367.14	1290.22
367.35	1296.36
367.56	1226.73
367.77	1255.40
367.98	1234.93
368.18	1288.17
368.39	1312.75
368.60	1298.41
368.81	1318.89
369.02	1257.45
369.23	1267.69
369.44	1255.40
369.65	1220.59
369.86	1255.40
370.07	1226.73
370.28	1286.12
370.49	1226.73
370.70	1318.89
370.91	1312.75
371.12	1322.99
371.33	1245.16
371.54	1325.04
371.75	1279.98
371.96	1271.79
372.17	1273.84
372.38	1320.94
372.59	1294.32
372.80	1298.41
373.01	1314.80
373.22	1312.75
373.43	1306.60
373.64	1193.97
373.85	1318.89
374.06	1294.32
374.26	1282.03
374.47	1253.36
374.68	1245.16
374.89	1277.93
375.10	1267.69
375.31	1292.27
375.52	1302.51
375.73	1267.69
375.94	1259.50
376.15	1320.94
376.36	1249.26
376.57	1218.54
376.78	1234.93
376.99	1230.83
377.20	1232.88
377.40	1304.56
377.61	1253.36
377.82	1202.16
378.03	1288.17
378.24	1267.69
378.45	1241.07
378.66	1249.26
378.87	1294.32
379.08	1253.36
379.29	1220.59
379.50	1279.98
379.71	1224.69
379.91	1243.12
380.12	1232.88
380.33	1290.22
380.54	1220.59
380.75	1239.02
380.96	1284.08
381.17	1294.32
381.38	1234.93
381.59	1253.36
381.80	1247.21
382.00	1345.52
382.21	1312.75
382.42	1261.55
382.63	1214.45
382.84	1261.55
383.05	1263.60
383.26	1263.60
383.47	1265.64
383.68	1310.70
383.88	1306.60
384.09	1282.03
384.30	1290.22
384.51	1296.36
384.72	1232.88
384.93	1216.49
385.14	1269.74
385.35	1269.74
385.55	1245.16
385.76	1257.45
385.97	1339.37
386.18	1325.04
386.39	1259.50
386.60	1273.84
386.81	1275.88
387.02	1243.12
387.22	1251.31
387.43	1261.55
387.64	1191.92
387.85	1288.17
388.06	1198.06
388.27	1271.79
388.48	1298.41
388.68	1245.16
388.89	1228.78
389.10	1239.02
389.31	1181.68
389.52	1265.64
389.73	1318.89
389.93	1279.98
390.14	1220.59
390.35	1263.60
390.56	1236.97
390.77	1337.32
390.98	1255.40
391.18	1320.94
391.39	1236.97
391.60	1292.27
391.81	1288.17
392.02	1327.08
392.23	1220.59
392.43	1304.56
392.64	1257.45
392.85	1218.54
393.06	1308.65
393.27	1327.08
393.47	1255.40
393.68	1298.41
393.89	1259.50
394.10	1216.49
394.31	1261.55
394.52	1294.32
394.72	1275.88
394.93	1300.46
395.14	1279.98
395.35	1298.41
395.56	1216.49
395.76	1275.88
395.97	1282.03
396.18	1282.03
396.39	1243.12
396.60	1296.36
396.80	1189.87
397.01	1255.40
397.22	1312.75
397.43	1255.40
397.64	1236.97
397.84	1298.41
398.05	1288.17
398.26	1265.64
398.47	1304.56
398.67	1267.69
398.88	1261.55
399.09	1277.93
399.30	1284.08
399.51	1269.74
399.71	1236.97
399.92	1331.18
400.13	1259.50
400.34	1288.17
400.54	1230.83
400.75	1282.03
400.96	1263.60
401.17	1314.80
401.37	1304.56
401.58	1335.28
401.79	1216.49
402.00	1310.70
402.21	1271.79
402.41	1232.88
402.62	1286.12
402.83	1247.21
403.04	1226.73
403.24	1265.64
403.45	1241.07
403.66	1290.22
403.87	1271.79
404.07	1282.03
404.28	1236.97
404.49	1218.54
404.70	1292.27
404.90	1243.12
405.11	1277.93
405.32	1216.49
405.52	1234.93
405.73	1306.60
405.94	1292.27
406.15	1259.50
406.35	1329.13
406.56	1310.70
406.77	1230.83
406.98	1232.88
407.18	1253.36
407.39	1261.55
407.60	1263.60
407.80	1200.11
408.01	1267.69
408.22	1294.32
408.43	1212.40
408.63	1230.83
408.84	1236.97
409.05	1294.32
409.25	1257.45
409.46	1312.75
409.67	1249.26
409.88	1286.12
410.08	1183.73
410.29	1277.93
410.50	1230.83
410.70	1255.40
410.91	1251.31
411.12	1279.98
411.32	1255.40
411.53	1236.97
411.74	1331.18
411.95	1273.84
412.15	1284.08
412.36	1300.46
412.57	1269.74
412.77	1273.84
412.98	1253.36
413.19	1316.84
413.39	1218.54
413.60	1271.79
413.81	1279.98
414.01	1288.17
414.22	1218.54
414.43	1353.71
414.63	1249.26
414.84	1286.12
415.05	1198.06
415.25	1243.12
415.46	1282.03
415.67	1292.27
415.87	1288.17
416.08	1243.12
416.29	1210.35
416.49	1284.08
416.70	1263.60
416.91	1273.84
417.11	1265.64
417.32	1148.91
417.53	1337.32
417.73	1212.40
417.94	1294.32
418.15	1257.45
418.35	1224.69
418.56	1148.91
418.77	1263.60
418.97	1335.28
419.18	1343.47
419.38	1296.36
419.59	1253.36
419.80	1230.83
420.00	1263.60
420.21	1284.08
420.42	1271.79
420.62	1247.21
420.83	1255.40
421.04	1140.72
421.24	1288.17
421.45	1247.21
421.65	1294.32
421.86	1226.73
422.07	1243.12
422.27	1337.32
422.48	1327.08
422.69	1271.79
422.89	1284.08
423.10	1249.26
423.30	1259.50
423.51	1198.06
423.72	1269.74
423.92	1298.41
424.13	1277.93
424.33	1273.84
424.54	1267.69
424.75	1261.55
424.95	1368.04
425.16	1255.40
425.36	1253.36
425.57	1222.64
425.78	1243.12
425.98	1370.09
426.19	1243.12
426.39	1263.60
426.60	1204.21
426.81	1290.22
427.01	1253.36
427.22	1284.08
427.42	1277.93
427.63	1273.84
427.83	1230.83
428.04	1279.98
428.25	1265.64
428.45	1296.36
428.66	1253.36
428.86	1331.18
429.07	1185.77
429.28	1234.93
429.48	1234.93
429.69	1206.25
429.89	1296.36
430.10	1214.45
430.30	1312.75
430.51	1261.55
430.71	1288.17
430.92	1335.28
431.13	1245.16
431.33	1288.17
431.54	1292.27
431.74	1249.26
431.95	1198.06
432.15	1245.16
432.36	1320.94
432.56	1314.80
432.77	1314.80
432.98	1296.36
433.18	1292.27
433.39	1314.80
433.59	1232.88
433.80	1271.79
434.00	1312.75
434.21	1292.27
434.41	1331.18
434.62	1314.80
434.82	1351.66
435.03	1234.93
435.23	1286.12
435.44	1288.17
435.64	1355.76
435.85	1298.41
436.06	1232.88
436.26	1265.64
436.47	1316.84
436.67	1255.40
436.88	1224.69
437.08	1282.03
437.29	1249.26
437.49	1292.27
437.70	1261.55
437.90	1312.75
438.11	1277.93
438.31	1304.56
438.52	1273.84
438.72	1249.26
438.93	1302.51
439.13	1306.60
439.34	1298.41
439.54	1259.50
439.75	1273.84
439.95	1390.57
440.16	1265.64
440.36	1279.98
440.57	1282.03
440.77	1296.36
440.98	1329.13
441.18	1282.03
441.39	1282.03
441.59	1329.13
441.80	1255.40
442.00	1224.69
442.21	1286.12
442.41	1271.79
442.62	1277.93
442.82	1271.79
443.02	1259.50
443.23	1257.45
443.43	1220.59
443.64	1298.41
443.84	1269.74
444.05	1232.88
444.25	1288.17
444.46	1277.93
444.66	1300.46
444.87	1300.46
445.07	1245.16
445.28	1224.69
445.48	1314.80
445.69	1341.42
445.89	1269.74
446.09	1236.97
446.30	1314.80
446.50	1275.88
446.71	1265.64
446.91	1204.21
447.12	1306.60
447.32	1298.41
447.53	1265.64
447.73	1259.50
447.93	1269.74
448.14	1226.73
448.34	1282.03
448.55	1265.64
448.75	1263.60
448.96	1259.50
449.16	1247.21
449.36	1234.93
449.57	1222.64
449.77	1269.74
449.98	1234.93
450.18	1341.42
450.39	1277.93
450.59	1290.22
450.79	1327.08
451.00	1347.56
451.20	1241.07
451.41	1304.56
451.61	1284.08
451.81	1286.12
452.02	1296.36
452.22	1314.80
452.43	1208.30
452.63	1308.65
