SpectraSuite Data File
++++++++++++++++++++++++++++++++++++
Date: Sun Apr 03 19:55:23 CEST 2016
User: root
Dark Spectrum Present: No
Reference Spectrum Present: No
Number of Sampled Component Spectra: 1
Spectrometers: USB4C02835
Integration Time (usec): 10000 (USB4C02835)
Spectra Averaged: 1 (USB4C02835)
Boxcar Smoothing: 0 (USB4C02835)
Correct for Electrical Dark: No (USB4C02835)
Strobe/Lamp Enabled: No (USB4C02835)
Correct for Detector Non-linearity: No (USB4C02835)
Correct for Stray Light: No (USB4C02835)
Number of Pixels in Processed Spectrum: 3648
>>>>>Begin Processed Spectral Data<<<<<
177.47	1269.74
177.69	1269.74
177.91	1269.74
178.13	1294.32
178.36	1282.03
178.58	1259.50
178.80	1206.25
179.02	1243.12
179.24	1232.88
179.46	1220.59
179.68	1259.50
179.90	1263.60
180.13	1279.98
180.35	1173.49
180.57	1269.74
180.79	1253.36
181.01	1230.83
181.23	1263.60
181.45	1329.13
181.67	1302.51
181.90	1275.88
182.12	1271.79
182.34	1271.79
182.56	1275.88
182.78	1230.83
183.00	1243.12
183.22	1265.64
183.44	1333.23
183.66	1325.04
183.89	1316.84
184.11	1257.45
184.33	1300.46
184.55	1202.16
184.77	1228.78
184.99	1320.94
185.21	1259.50
185.43	1269.74
185.65	1306.60
185.87	1275.88
186.10	1236.97
186.32	1271.79
186.54	1302.51
186.76	1202.16
186.98	1224.69
187.20	1232.88
187.42	1226.73
187.64	1253.36
187.86	1216.49
188.08	1241.07
188.30	1277.93
188.52	1273.84
188.75	1271.79
188.97	1316.84
189.19	1253.36
189.41	1269.74
189.63	1304.56
189.85	1212.40
190.07	1277.93
190.29	1245.16
190.51	1292.27
190.73	1243.12
190.95	1275.88
191.17	1271.79
191.39	1175.53
191.61	1236.97
191.84	1322.99
192.06	1322.99
192.28	1187.82
192.50	1267.69
192.72	1333.23
192.94	1261.55
193.16	1234.93
193.38	1212.40
193.60	1198.06
193.82	1222.64
194.04	1288.17
194.26	1282.03
194.48	1279.98
194.70	1234.93
194.92	1284.08
195.14	1290.22
195.36	1343.47
195.58	1241.07
195.80	1247.21
196.02	1234.93
196.24	1241.07
196.46	1292.27
196.69	1273.84
196.91	1286.12
197.13	1212.40
197.35	1308.65
197.57	1239.02
197.79	1292.27
198.01	1269.74
198.23	1224.69
198.45	1347.56
198.67	1257.45
198.89	1245.16
199.11	1253.36
199.33	1271.79
199.55	1249.26
199.77	1327.08
199.99	1294.32
200.21	1257.45
200.43	1269.74
200.65	1290.22
200.87	1259.50
201.09	1241.07
201.31	1265.64
201.53	1277.93
201.75	1261.55
201.97	1216.49
202.19	1331.18
202.41	1232.88
202.63	1308.65
202.85	1208.30
203.07	1253.36
203.29	1275.88
203.51	1294.32
203.73	1220.59
203.95	1232.88
204.17	1271.79
204.39	1290.22
204.61	1232.88
204.83	1232.88
205.05	1255.40
205.27	1304.56
205.49	1265.64
205.71	1251.31
205.93	1335.28
206.15	1216.49
206.37	1279.98
206.59	1265.64
206.81	1255.40
207.03	1249.26
207.25	1255.40
207.47	1269.74
207.69	1296.36
207.91	1265.64
208.13	1216.49
208.34	1255.40
208.56	1296.36
208.78	1202.16
209.00	1306.60
209.22	1204.21
209.44	1230.83
209.66	1322.99
209.88	1279.98
210.10	1279.98
210.32	1259.50
210.54	1341.42
210.76	1261.55
210.98	1163.25
211.20	1189.87
211.42	1304.56
211.64	1255.40
211.86	1277.93
212.08	1239.02
212.30	1284.08
212.52	1331.18
212.74	1273.84
212.96	1286.12
213.17	1271.79
213.39	1269.74
213.61	1314.80
213.83	1261.55
214.05	1239.02
214.27	1282.03
214.49	1239.02
214.71	1288.17
214.93	1230.83
215.15	1282.03
215.37	1232.88
215.59	1312.75
215.81	1329.13
216.03	1255.40
216.24	1304.56
216.46	1282.03
216.68	1157.10
216.90	1228.78
217.12	1269.74
217.34	1257.45
217.56	1275.88
217.78	1255.40
218.00	1298.41
218.22	1265.64
218.44	1269.74
218.66	1296.36
218.87	1279.98
219.09	1243.12
219.31	1310.70
219.53	1214.45
219.75	1200.11
219.97	1314.80
220.19	1296.36
220.41	1234.93
220.63	1310.70
220.85	1286.12
221.06	1312.75
221.28	1236.97
221.50	1236.97
221.72	1271.79
221.94	1284.08
222.16	1316.84
222.38	1306.60
222.60	1220.59
222.82	1312.75
223.03	1322.99
223.25	1226.73
223.47	1245.16
223.69	1230.83
223.91	1257.45
224.13	1218.54
224.35	1224.69
224.57	1183.73
224.78	1228.78
225.00	1316.84
225.22	1292.27
225.44	1206.25
225.66	1271.79
225.88	1263.60
226.10	1343.47
226.32	1312.75
226.53	1234.93
226.75	1267.69
226.97	1271.79
227.19	1261.55
227.41	1269.74
227.63	1208.30
227.85	1161.20
228.06	1306.60
228.28	1312.75
228.50	1261.55
228.72	1263.60
228.94	1243.12
229.16	1284.08
229.37	1255.40
229.59	1286.12
229.81	1279.98
230.03	1224.69
230.25	1230.83
230.47	1243.12
230.69	1325.04
230.90	1267.69
231.12	1210.35
231.34	1370.09
231.56	1282.03
231.78	1277.93
232.00	1253.36
232.21	1210.35
232.43	1290.22
232.65	1198.06
232.87	1296.36
233.09	1320.94
233.30	1279.98
233.52	1249.26
233.74	1296.36
233.96	1265.64
234.18	1277.93
234.40	1275.88
234.61	1210.35
234.83	1241.07
235.05	1243.12
235.27	1292.27
235.49	1212.40
235.70	1286.12
235.92	1247.21
236.14	1247.21
236.36	1275.88
236.58	1279.98
236.79	1249.26
237.01	1204.21
237.23	1302.51
237.45	1286.12
237.67	1273.84
237.88	1249.26
238.10	1277.93
238.32	1191.92
238.54	1255.40
238.76	1212.40
238.97	1304.56
239.19	1277.93
239.41	1261.55
239.63	1345.52
239.85	1318.89
240.06	1271.79
240.28	1298.41
240.50	1257.45
240.72	1236.97
240.93	1193.97
241.15	1282.03
241.37	1253.36
241.59	1316.84
241.81	1318.89
242.02	1259.50
242.24	1267.69
242.46	1259.50
242.68	1259.50
242.89	1206.25
243.11	1241.07
243.33	1251.31
243.55	1208.30
243.76	1273.84
243.98	1314.80
244.20	1273.84
244.42	1249.26
244.64	1200.11
244.85	1226.73
245.07	1243.12
245.29	1261.55
245.51	1282.03
245.72	1232.88
245.94	1306.60
246.16	1331.18
246.38	1228.78
246.59	1279.98
246.81	1214.45
247.03	1232.88
247.24	1220.59
247.46	1255.40
247.68	1253.36
247.90	1279.98
248.11	1249.26
248.33	1243.12
248.55	1273.84
248.77	1271.79
248.98	1267.69
249.20	1212.40
249.42	1187.82
249.64	1339.37
249.85	1249.26
250.07	1245.16
250.29	1257.45
250.50	1322.99
250.72	1292.27
250.94	1212.40
251.16	1345.52
251.37	1255.40
251.59	1269.74
251.81	1333.23
252.02	1265.64
252.24	1316.84
252.46	1325.04
252.68	1294.32
252.89	1185.77
253.11	1163.25
253.33	1296.36
253.54	1353.71
253.76	1314.80
253.98	1251.31
254.20	1335.28
254.41	1249.26
254.63	1247.21
254.85	1226.73
255.06	1304.56
255.28	1310.70
255.50	1251.31
255.71	1249.26
255.93	1304.56
256.15	1282.03
256.36	1253.36
256.58	1243.12
256.80	1218.54
257.02	1294.32
257.23	1269.74
257.45	1232.88
257.67	1337.32
257.88	1271.79
258.10	1243.12
258.32	1286.12
258.53	1253.36
258.75	1257.45
258.97	1349.61
259.18	1193.97
259.40	1187.82
259.62	1220.59
259.83	1294.32
260.05	1210.35
260.27	1273.84
260.48	1212.40
260.70	1239.02
260.92	1249.26
261.13	1298.41
261.35	1300.46
261.57	1206.25
261.78	1286.12
262.00	1306.60
262.22	1314.80
262.43	1316.84
262.65	1204.21
262.86	1265.64
263.08	1300.46
263.30	1212.40
263.51	1228.78
263.73	1189.87
263.95	1314.80
264.16	1288.17
264.38	1314.80
264.60	1210.35
264.81	1206.25
265.03	1275.88
265.25	1275.88
265.46	1267.69
265.68	1243.12
265.89	1261.55
266.11	1198.06
266.33	1271.79
266.54	1265.64
266.76	1253.36
266.98	1220.59
267.19	1284.08
267.41	1265.64
267.62	1294.32
267.84	1306.60
268.06	1236.97
268.27	1255.40
268.49	1292.27
268.70	1224.69
268.92	1288.17
269.14	1269.74
269.35	1261.55
269.57	1265.64
269.79	1290.22
270.00	1282.03
270.22	1271.79
270.43	1251.31
270.65	1316.84
270.87	1243.12
271.08	1226.73
271.30	1286.12
271.51	1294.32
271.73	1292.27
271.95	1236.97
272.16	1290.22
272.38	1277.93
272.59	1224.69
272.81	1288.17
273.02	1294.32
273.24	1279.98
273.46	1329.13
273.67	1208.30
273.89	1216.49
274.10	1331.18
274.32	1302.51
274.54	1257.45
274.75	1284.08
274.97	1261.55
275.18	1279.98
275.40	1253.36
275.61	1314.80
275.83	1279.98
276.05	1218.54
276.26	1249.26
276.48	1232.88
276.69	1200.11
276.91	1202.16
277.12	1361.90
277.34	1308.65
277.55	1296.36
277.77	1226.73
277.99	1198.06
278.20	1269.74
278.42	1267.69
278.63	1245.16
278.85	1230.83
279.06	1216.49
279.28	1232.88
279.49	1261.55
279.71	1300.46
279.93	1329.13
280.14	1355.76
280.36	1331.18
280.57	1298.41
280.79	1275.88
281.00	1214.45
281.22	1247.21
281.43	1349.61
281.65	1224.69
281.86	1236.97
282.08	1361.90
282.29	1241.07
282.51	1259.50
282.73	1249.26
282.94	1232.88
283.16	1269.74
283.37	1347.56
283.59	1257.45
283.80	1171.44
284.02	1204.21
284.23	1247.21
284.45	1245.16
284.66	1212.40
284.88	1277.93
285.09	1226.73
285.31	1322.99
285.52	1269.74
285.74	1322.99
285.95	1265.64
286.17	1191.92
286.38	1284.08
286.60	1259.50
286.81	1259.50
287.03	1255.40
287.24	1226.73
287.46	1286.12
287.67	1288.17
287.89	1255.40
288.10	1282.03
288.32	1247.21
288.53	1263.60
288.75	1253.36
288.96	1337.32
289.18	1282.03
289.39	1241.07
289.61	1298.41
289.82	1251.31
290.04	1279.98
290.25	1236.97
290.47	1277.93
290.68	1175.53
290.90	1271.79
291.11	1308.65
291.33	1241.07
291.54	1277.93
291.76	1239.02
291.97	1298.41
292.18	1288.17
292.40	1310.70
292.61	1206.25
292.83	1249.26
293.04	1267.69
293.26	1284.08
293.47	1214.45
293.69	1286.12
293.90	1216.49
294.12	1222.64
294.33	1277.93
294.55	1300.46
294.76	1292.27
294.97	1255.40
295.19	1259.50
295.40	1282.03
295.62	1284.08
295.83	1249.26
296.05	1298.41
296.26	1316.84
296.48	1208.30
296.69	1230.83
296.90	1230.83
297.12	1368.04
297.33	1292.27
297.55	1234.93
297.76	1288.17
297.98	1292.27
298.19	1351.66
298.41	1236.97
298.62	1265.64
298.83	1372.14
299.05	1312.75
299.26	1175.53
299.48	1296.36
299.69	1296.36
299.90	1253.36
300.12	1279.98
300.33	1247.21
300.55	1290.22
300.76	1306.60
300.98	1251.31
301.19	1345.52
301.40	1300.46
301.62	1300.46
301.83	1243.12
302.05	1284.08
302.26	1206.25
302.47	1198.06
302.69	1214.45
302.90	1249.26
303.12	1275.88
303.33	1269.74
303.54	1220.59
303.76	1265.64
303.97	1286.12
304.19	1282.03
304.40	1349.61
304.61	1320.94
304.83	1267.69
305.04	1290.22
305.26	1239.02
305.47	1335.28
305.68	1210.35
305.90	1298.41
306.11	1234.93
306.33	1322.99
306.54	1187.82
306.75	1255.40
306.97	1282.03
307.18	1318.89
307.39	1230.83
307.61	1331.18
307.82	1269.74
308.04	1290.22
308.25	1294.32
308.46	1277.93
308.68	1187.82
308.89	1284.08
309.10	1279.98
309.32	1277.93
309.53	1277.93
309.74	1284.08
309.96	1318.89
310.17	1288.17
310.39	1261.55
310.60	1296.36
310.81	1214.45
311.03	1263.60
311.24	1249.26
311.45	1263.60
311.67	1269.74
311.88	1296.36
312.09	1273.84
312.31	1185.77
312.52	1277.93
312.73	1275.88
312.95	1333.23
313.16	1331.18
313.37	1253.36
313.59	1239.02
313.80	1212.40
314.01	1310.70
314.23	1265.64
314.44	1224.69
314.65	1224.69
314.87	1257.45
315.08	1251.31
315.29	1241.07
315.51	1318.89
315.72	1224.69
315.93	1243.12
316.15	1222.64
316.36	1314.80
316.57	1204.21
316.79	1290.22
317.00	1236.97
317.21	1290.22
317.43	1251.31
317.64	1282.03
317.85	1296.36
318.07	1271.79
318.28	1253.36
318.49	1249.26
318.70	1279.98
318.92	1361.90
319.13	1269.74
319.34	1284.08
319.56	1265.64
319.77	1261.55
319.98	1236.97
320.20	1243.12
320.41	1216.49
320.62	1259.50
320.83	1255.40
321.05	1251.31
321.26	1263.60
321.47	1277.93
321.69	1312.75
321.90	1245.16
322.11	1251.31
322.32	1263.60
322.54	1312.75
322.75	1196.01
322.96	1267.69
323.18	1265.64
323.39	1232.88
323.60	1261.55
323.81	1406.95
324.03	1269.74
324.24	1247.21
324.45	1202.16
324.66	1191.92
324.88	1267.69
325.09	1302.51
325.30	1318.89
325.52	1255.40
325.73	1273.84
325.94	1243.12
326.15	1208.30
326.37	1218.54
326.58	1232.88
326.79	1245.16
327.00	1273.84
327.22	1296.36
327.43	1296.36
327.64	1341.42
327.85	1218.54
328.07	1249.26
328.28	1277.93
328.49	1322.99
328.70	1226.73
328.92	1269.74
329.13	1265.64
329.34	1243.12
329.55	1296.36
329.76	1296.36
329.98	1202.16
330.19	1265.64
330.40	1282.03
330.61	1273.84
330.83	1277.93
331.04	1277.93
331.25	1191.92
331.46	1228.78
331.68	1202.16
331.89	1245.16
332.10	1316.84
332.31	1273.84
332.52	1261.55
332.74	1335.28
332.95	1259.50
333.16	1255.40
333.37	1304.56
333.58	1267.69
333.80	1214.45
334.01	1279.98
334.22	1273.84
334.43	1355.76
334.64	1216.49
334.86	1257.45
335.07	1284.08
335.28	1288.17
335.49	1296.36
335.70	1271.79
335.92	1277.93
336.13	1298.41
336.34	1241.07
336.55	1239.02
336.76	1314.80
336.98	1265.64
337.19	1376.24
337.40	1275.88
337.61	1284.08
337.82	1251.31
338.04	1316.84
338.25	1247.21
338.46	1259.50
338.67	1198.06
338.88	1275.88
339.09	1228.78
339.31	1236.97
339.52	1277.93
339.73	1335.28
339.94	1298.41
340.15	1232.88
340.36	1222.64
340.58	1230.83
340.79	1292.27
341.00	1331.18
341.21	1236.97
341.42	1331.18
341.63	1339.37
341.85	1290.22
342.06	1288.17
342.27	1277.93
342.48	1228.78
342.69	1222.64
342.90	1286.12
343.12	1277.93
343.33	1226.73
343.54	1302.51
343.75	1263.60
343.96	1255.40
344.17	1292.27
344.38	1214.45
344.60	1181.68
344.81	1257.45
345.02	1271.79
345.23	1286.12
345.44	1226.73
345.65	1257.45
345.86	1251.31
346.07	1202.16
346.29	1232.88
346.50	1322.99
346.71	1241.07
346.92	1251.31
347.13	1374.19
347.34	1282.03
347.55	1198.06
347.76	1277.93
347.98	1216.49
348.19	1255.40
348.40	1265.64
348.61	1257.45
348.82	1255.40
349.03	1243.12
349.24	1279.98
349.45	1302.51
349.66	1320.94
349.88	1286.12
350.09	1296.36
350.30	1234.93
350.51	1277.93
350.72	1257.45
350.93	1259.50
351.14	1230.83
351.35	1198.06
351.56	1343.47
351.77	1279.98
351.99	1243.12
352.20	1282.03
352.41	1335.28
352.62	1273.84
352.83	1177.58
353.04	1269.74
353.25	1259.50
353.46	1228.78
353.67	1212.40
353.88	1243.12
354.09	1265.64
354.30	1359.85
354.52	1306.60
354.73	1306.60
354.94	1247.21
355.15	1267.69
355.36	1253.36
355.57	1259.50
355.78	1335.28
355.99	1288.17
356.20	1298.41
356.41	1284.08
356.62	1183.73
356.83	1241.07
357.04	1290.22
357.25	1206.25
357.46	1216.49
357.68	1218.54
357.89	1261.55
358.10	1341.42
358.31	1294.32
358.52	1318.89
358.73	1187.82
358.94	1191.92
359.15	1292.27
359.36	1271.79
359.57	1232.88
359.78	1304.56
359.99	1314.80
360.20	1273.84
360.41	1263.60
360.62	1257.45
360.83	1251.31
361.04	1247.21
361.25	1300.46
361.46	1343.47
361.67	1257.45
361.88	1206.25
362.09	1267.69
362.30	1251.31
362.51	1284.08
362.72	1288.17
362.93	1232.88
363.14	1226.73
363.35	1282.03
363.56	1261.55
363.78	1327.08
363.99	1267.69
364.20	1243.12
364.41	1296.36
364.62	1267.69
364.83	1257.45
365.04	1263.60
365.25	1249.26
365.46	1251.31
365.67	1241.07
365.88	1224.69
366.09	1247.21
366.30	1255.40
366.51	1263.60
366.72	1269.74
366.93	1165.29
367.14	1329.13
367.35	1286.12
367.56	1239.02
367.77	1308.65
367.98	1251.31
368.18	1298.41
368.39	1249.26
368.60	1236.97
368.81	1163.25
369.02	1292.27
369.23	1257.45
369.44	1179.63
369.65	1214.45
369.86	1318.89
370.07	1259.50
370.28	1165.29
370.49	1253.36
370.70	1255.40
370.91	1322.99
371.12	1269.74
371.33	1249.26
371.54	1331.18
371.75	1273.84
371.96	1245.16
372.17	1298.41
372.38	1200.11
372.59	1335.28
372.80	1245.16
373.01	1208.30
373.22	1267.69
373.43	1294.32
373.64	1179.63
373.85	1294.32
374.06	1257.45
374.26	1302.51
374.47	1304.56
374.68	1300.46
374.89	1224.69
375.10	1224.69
375.31	1343.47
375.52	1282.03
375.73	1257.45
375.94	1251.31
376.15	1322.99
376.36	1241.07
376.57	1226.73
376.78	1322.99
376.99	1206.25
377.20	1243.12
377.40	1288.17
377.61	1228.78
377.82	1265.64
378.03	1294.32
378.24	1269.74
378.45	1183.73
378.66	1220.59
378.87	1245.16
379.08	1210.35
379.29	1212.40
379.50	1298.41
379.71	1249.26
379.91	1245.16
380.12	1366.00
380.33	1255.40
380.54	1267.69
380.75	1304.56
380.96	1257.45
381.17	1279.98
381.38	1241.07
381.59	1312.75
381.80	1267.69
382.00	1243.12
382.21	1304.56
382.42	1247.21
382.63	1345.52
382.84	1222.64
383.05	1279.98
383.26	1169.39
383.47	1282.03
383.68	1243.12
383.88	1241.07
384.09	1263.60
384.30	1290.22
384.51	1308.65
384.72	1263.60
384.93	1236.97
385.14	1271.79
385.35	1294.32
385.55	1279.98
385.76	1216.49
385.97	1275.88
386.18	1310.70
386.39	1288.17
386.60	1320.94
386.81	1220.59
387.02	1255.40
387.22	1290.22
387.43	1228.78
387.64	1257.45
387.85	1292.27
388.06	1228.78
388.27	1259.50
388.48	1226.73
388.68	1202.16
388.89	1232.88
389.10	1181.68
389.31	1224.69
389.52	1271.79
389.73	1275.88
389.93	1253.36
390.14	1361.90
390.35	1226.73
390.56	1267.69
390.77	1214.45
390.98	1273.84
391.18	1306.60
391.39	1243.12
391.60	1263.60
391.81	1232.88
392.02	1290.22
392.23	1263.60
392.43	1318.89
392.64	1294.32
392.85	1282.03
393.06	1294.32
393.27	1435.63
393.47	1290.22
393.68	1310.70
393.89	1265.64
394.10	1304.56
394.31	1320.94
394.52	1273.84
394.72	1294.32
394.93	1261.55
395.14	1265.64
395.35	1169.39
395.56	1177.58
395.76	1263.60
395.97	1271.79
396.18	1345.52
396.39	1343.47
396.60	1261.55
396.80	1259.50
397.01	1333.23
397.22	1286.12
397.43	1234.93
397.64	1277.93
397.84	1261.55
398.05	1271.79
398.26	1249.26
398.47	1224.69
398.67	1243.12
398.88	1325.04
399.09	1286.12
399.30	1296.36
399.51	1275.88
399.71	1175.53
399.92	1277.93
400.13	1290.22
400.34	1298.41
400.54	1253.36
400.75	1228.78
400.96	1304.56
401.17	1253.36
401.37	1263.60
401.58	1339.37
401.79	1290.22
402.00	1320.94
402.21	1261.55
402.41	1316.84
402.62	1290.22
402.83	1284.08
403.04	1249.26
403.24	1296.36
403.45	1253.36
403.66	1318.89
403.87	1249.26
404.07	1241.07
404.28	1175.53
404.49	1275.88
404.70	1306.60
404.90	1271.79
405.11	1353.71
405.32	1298.41
405.52	1296.36
405.73	1304.56
405.94	1314.80
406.15	1318.89
406.35	1265.64
406.56	1296.36
406.77	1288.17
406.98	1191.92
407.18	1191.92
407.39	1325.04
407.60	1210.35
407.80	1220.59
408.01	1265.64
408.22	1279.98
408.43	1294.32
408.63	1298.41
408.84	1257.45
409.05	1296.36
409.25	1310.70
409.46	1228.78
409.67	1306.60
409.88	1267.69
410.08	1269.74
410.29	1275.88
410.50	1261.55
410.70	1331.18
410.91	1300.46
411.12	1241.07
411.32	1247.21
411.53	1302.51
411.74	1241.07
411.95	1265.64
412.15	1261.55
412.36	1302.51
412.57	1247.21
412.77	1228.78
412.98	1296.36
413.19	1269.74
413.39	1230.83
413.60	1304.56
413.81	1353.71
414.01	1230.83
414.22	1267.69
414.43	1314.80
414.63	1263.60
414.84	1304.56
415.05	1232.88
415.25	1269.74
415.46	1327.08
415.67	1271.79
415.87	1232.88
416.08	1306.60
416.29	1290.22
416.49	1263.60
416.70	1341.42
416.91	1249.26
417.11	1265.64
417.32	1294.32
417.53	1222.64
417.73	1212.40
417.94	1212.40
418.15	1255.40
418.35	1282.03
418.56	1308.65
418.77	1222.64
418.97	1286.12
419.18	1253.36
419.38	1318.89
419.59	1265.64
419.80	1251.31
420.00	1245.16
420.21	1288.17
420.42	1236.97
420.62	1200.11
420.83	1232.88
421.04	1214.45
421.24	1335.28
421.45	1265.64
421.65	1232.88
421.86	1230.83
422.07	1230.83
422.27	1327.08
422.48	1304.56
422.69	1263.60
422.89	1279.98
423.10	1353.71
423.30	1267.69
423.51	1337.32
423.72	1236.97
423.92	1273.84
424.13	1247.21
424.33	1265.64
424.54	1263.60
424.75	1239.02
424.95	1310.70
425.16	1236.97
425.36	1316.84
425.57	1294.32
425.78	1259.50
425.98	1216.49
426.19	1183.73
426.39	1292.27
426.60	1234.93
426.81	1335.28
427.01	1282.03
427.22	1284.08
427.42	1249.26
427.63	1257.45
427.83	1218.54
428.04	1273.84
428.25	1261.55
428.45	1312.75
428.66	1304.56
428.86	1282.03
429.07	1236.97
429.28	1187.82
429.48	1273.84
429.69	1222.64
429.89	1146.86
430.10	1290.22
430.30	1271.79
430.51	1226.73
430.71	1259.50
430.92	1263.60
431.13	1355.76
431.33	1302.51
431.54	1343.47
431.74	1253.36
431.95	1279.98
432.15	1212.40
432.36	1282.03
432.56	1261.55
432.77	1187.82
432.98	1255.40
433.18	1355.76
433.39	1284.08
433.59	1255.40
433.80	1267.69
434.00	1325.04
434.21	1279.98
434.41	1208.30
434.62	1226.73
434.82	1243.12
435.03	1275.88
435.23	1247.21
435.44	1306.60
435.64	1202.16
435.85	1247.21
436.06	1271.79
436.26	1263.60
436.47	1210.35
436.67	1253.36
436.88	1212.40
437.08	1308.65
437.29	1265.64
437.49	1275.88
437.70	1224.69
437.90	1263.60
438.11	1234.93
438.31	1310.70
438.52	1265.64
438.72	1222.64
438.93	1220.59
439.13	1247.21
439.34	1284.08
439.54	1302.51
439.75	1216.49
439.95	1335.28
440.16	1187.82
440.36	1230.83
440.57	1247.21
440.77	1257.45
440.98	1241.07
441.18	1251.31
441.39	1335.28
441.59	1249.26
441.80	1292.27
442.00	1277.93
442.21	1241.07
442.41	1298.41
442.62	1257.45
442.82	1282.03
443.02	1290.22
443.23	1261.55
443.43	1353.71
443.64	1306.60
443.84	1181.68
444.05	1279.98
444.25	1243.12
444.46	1288.17
444.66	1329.13
444.87	1202.16
445.07	1251.31
445.28	1228.78
445.48	1267.69
445.69	1300.46
445.89	1271.79
446.09	1232.88
446.30	1222.64
446.50	1263.60
446.71	1261.55
446.91	1304.56
447.12	1198.06
447.32	1253.36
447.53	1284.08
447.73	1304.56
447.93	1368.04
448.14	1302.51
448.34	1306.60
448.55	1249.26
448.75	1257.45
448.96	1273.84
449.16	1267.69
449.36	1288.17
449.57	1269.74
449.77	1304.56
449.98	1304.56
450.18	1249.26
450.39	1241.07
450.59	1273.84
450.79	1241.07
451.00	1208.30
451.20	1298.41
451.41	1271.79
451.61	1241.07
451.81	1343.47
452.02	1220.59
452.22	1275.88
452.43	1298.41
452.63	1423.34
