SpectraSuite Data File
++++++++++++++++++++++++++++++++++++
Date: Sun Apr 03 19:55:18 CEST 2016
User: root
Dark Spectrum Present: No
Reference Spectrum Present: No
Number of Sampled Component Spectra: 1
Spectrometers: USB4C02835
Integration Time (usec): 10000 (USB4C02835)
Spectra Averaged: 1 (USB4C02835)
Boxcar Smoothing: 0 (USB4C02835)
Correct for Electrical Dark: No (USB4C02835)
Strobe/Lamp Enabled: No (USB4C02835)
Correct for Detector Non-linearity: No (USB4C02835)
Correct for Stray Light: No (USB4C02835)
Number of Pixels in Processed Spectrum: 3648
>>>>>Begin Processed Spectral Data<<<<<
177.47	1232.88
177.69	1232.88
177.91	1232.88
178.13	1191.92
178.36	1222.64
178.58	1243.12
178.80	1282.03
179.02	1263.60
179.24	1265.64
179.46	1320.94
179.68	1273.84
179.90	1245.16
180.13	1247.21
180.35	1269.74
180.57	1249.26
180.79	1261.55
181.01	1187.82
181.23	1259.50
181.45	1279.98
181.67	1234.93
181.90	1187.82
182.12	1251.31
182.34	1300.46
182.56	1296.36
182.78	1228.78
183.00	1257.45
183.22	1243.12
183.44	1322.99
183.66	1277.93
183.89	1292.27
184.11	1290.22
184.33	1271.79
184.55	1273.84
184.77	1224.69
184.99	1261.55
185.21	1288.17
185.43	1345.52
185.65	1284.08
185.87	1279.98
186.10	1179.63
186.32	1273.84
186.54	1337.32
186.76	1255.40
186.98	1306.60
187.20	1144.81
187.42	1189.87
187.64	1284.08
187.86	1286.12
188.08	1247.21
188.30	1247.21
188.52	1273.84
188.75	1255.40
188.97	1304.56
189.19	1257.45
189.41	1282.03
189.63	1206.25
189.85	1282.03
190.07	1261.55
190.29	1210.35
190.51	1249.26
190.73	1277.93
190.95	1269.74
191.17	1286.12
191.39	1255.40
191.61	1306.60
191.84	1286.12
192.06	1228.78
192.28	1300.46
192.50	1271.79
192.72	1269.74
192.94	1282.03
193.16	1269.74
193.38	1253.36
193.60	1230.83
193.82	1249.26
194.04	1312.75
194.26	1216.49
194.48	1251.31
194.70	1249.26
194.92	1214.45
195.14	1308.65
195.36	1265.64
195.58	1290.22
195.80	1239.02
196.02	1193.97
196.24	1236.97
196.46	1288.17
196.69	1275.88
196.91	1320.94
197.13	1230.83
197.35	1267.69
197.57	1265.64
197.79	1292.27
198.01	1216.49
198.23	1298.41
198.45	1165.29
198.67	1294.32
198.89	1273.84
199.11	1325.04
199.33	1294.32
199.55	1329.13
199.77	1228.78
199.99	1296.36
200.21	1234.93
200.43	1253.36
200.65	1310.70
200.87	1269.74
201.09	1183.73
201.31	1243.12
201.53	1304.56
201.75	1253.36
201.97	1222.64
202.19	1292.27
202.41	1263.60
202.63	1294.32
202.85	1316.84
203.07	1230.83
203.29	1241.07
203.51	1222.64
203.73	1263.60
203.95	1257.45
204.17	1257.45
204.39	1296.36
204.61	1245.16
204.83	1286.12
205.05	1310.70
205.27	1232.88
205.49	1236.97
205.71	1208.30
205.93	1181.68
206.15	1232.88
206.37	1267.69
206.59	1292.27
206.81	1228.78
207.03	1273.84
207.25	1193.97
207.47	1316.84
207.69	1191.92
207.91	1263.60
208.13	1263.60
208.34	1279.98
208.56	1265.64
208.78	1284.08
209.00	1210.35
209.22	1341.42
209.44	1253.36
209.66	1271.79
209.88	1210.35
210.10	1269.74
210.32	1193.97
210.54	1249.26
210.76	1183.73
210.98	1228.78
211.20	1187.82
211.42	1273.84
211.64	1300.46
211.86	1273.84
212.08	1214.45
212.30	1275.88
212.52	1236.97
212.74	1222.64
212.96	1327.08
213.17	1269.74
213.39	1245.16
213.61	1222.64
213.83	1212.40
214.05	1234.93
214.27	1230.83
214.49	1230.83
214.71	1286.12
214.93	1273.84
215.15	1310.70
215.37	1241.07
215.59	1232.88
215.81	1286.12
216.03	1265.64
216.24	1228.78
216.46	1269.74
216.68	1257.45
216.90	1296.36
217.12	1347.56
217.34	1208.30
217.56	1331.18
217.78	1175.53
218.00	1298.41
218.22	1253.36
218.44	1271.79
218.66	1251.31
218.87	1241.07
219.09	1327.08
219.31	1273.84
219.53	1214.45
219.75	1239.02
219.97	1282.03
220.19	1292.27
220.41	1351.66
220.63	1241.07
220.85	1226.73
221.06	1265.64
221.28	1271.79
221.50	1232.88
221.72	1279.98
221.94	1279.98
222.16	1224.69
222.38	1304.56
222.60	1243.12
222.82	1331.18
223.03	1255.40
223.25	1300.46
223.47	1306.60
223.69	1294.32
223.91	1288.17
224.13	1228.78
224.35	1302.51
224.57	1331.18
224.78	1310.70
225.00	1239.02
225.22	1275.88
225.44	1249.26
225.66	1249.26
225.88	1271.79
226.10	1296.36
226.32	1222.64
226.53	1239.02
226.75	1318.89
226.97	1263.60
227.19	1325.04
227.41	1294.32
227.63	1226.73
227.85	1282.03
228.06	1216.49
228.28	1261.55
228.50	1243.12
228.72	1218.54
228.94	1284.08
229.16	1177.58
229.37	1292.27
229.59	1222.64
229.81	1249.26
230.03	1290.22
230.25	1236.97
230.47	1251.31
230.69	1222.64
230.90	1202.16
231.12	1308.65
231.34	1304.56
231.56	1228.78
231.78	1253.36
232.00	1220.59
232.21	1210.35
232.43	1286.12
232.65	1282.03
232.87	1247.21
233.09	1314.80
233.30	1329.13
233.52	1210.35
233.74	1204.21
233.96	1361.90
234.18	1290.22
234.40	1294.32
234.61	1206.25
234.83	1239.02
235.05	1294.32
235.27	1253.36
235.49	1282.03
235.70	1286.12
235.92	1210.35
236.14	1245.16
236.36	1290.22
236.58	1259.50
236.79	1312.75
237.01	1257.45
237.23	1314.80
237.45	1257.45
237.67	1249.26
237.88	1294.32
238.10	1284.08
238.32	1271.79
238.54	1257.45
238.76	1257.45
238.97	1263.60
239.19	1263.60
239.41	1228.78
239.63	1279.98
239.85	1320.94
240.06	1282.03
240.28	1206.25
240.50	1296.36
240.72	1284.08
240.93	1265.64
241.15	1294.32
241.37	1337.32
241.59	1316.84
241.81	1304.56
242.02	1263.60
242.24	1232.88
242.46	1314.80
242.68	1222.64
242.89	1224.69
243.11	1228.78
243.33	1255.40
243.55	1193.97
243.76	1279.98
243.98	1204.21
244.20	1322.99
244.42	1275.88
244.64	1357.80
244.85	1251.31
245.07	1308.65
245.29	1320.94
245.51	1333.23
245.72	1200.11
245.94	1310.70
246.16	1273.84
246.38	1282.03
246.59	1181.68
246.81	1335.28
247.03	1288.17
247.24	1310.70
247.46	1200.11
247.68	1220.59
247.90	1286.12
248.11	1298.41
248.33	1282.03
248.55	1312.75
248.77	1249.26
248.98	1265.64
249.20	1177.58
249.42	1198.06
249.64	1310.70
249.85	1327.08
250.07	1159.15
250.29	1318.89
250.50	1259.50
250.72	1241.07
250.94	1241.07
251.16	1269.74
251.37	1257.45
251.59	1277.93
251.81	1259.50
252.02	1271.79
252.24	1224.69
252.46	1261.55
252.68	1279.98
252.89	1300.46
253.11	1271.79
253.33	1294.32
253.54	1271.79
253.76	1210.35
253.98	1216.49
254.20	1269.74
254.41	1239.02
254.63	1251.31
254.85	1208.30
255.06	1273.84
255.28	1290.22
255.50	1236.97
255.71	1279.98
255.93	1259.50
256.15	1304.56
256.36	1236.97
256.58	1259.50
256.80	1269.74
257.02	1245.16
257.23	1327.08
257.45	1261.55
257.67	1216.49
257.88	1243.12
258.10	1261.55
258.32	1214.45
258.53	1241.07
258.75	1286.12
258.97	1310.70
259.18	1296.36
259.40	1341.42
259.62	1357.80
259.83	1325.04
260.05	1189.87
260.27	1273.84
260.48	1331.18
260.70	1257.45
260.92	1255.40
261.13	1294.32
261.35	1302.51
261.57	1327.08
261.78	1232.88
262.00	1271.79
262.22	1310.70
262.43	1271.79
262.65	1243.12
262.86	1255.40
263.08	1306.60
263.30	1331.18
263.51	1251.31
263.73	1210.35
263.95	1269.74
264.16	1271.79
264.38	1312.75
264.60	1312.75
264.81	1167.34
265.03	1259.50
265.25	1294.32
265.46	1304.56
265.68	1275.88
265.89	1300.46
266.11	1245.16
266.33	1306.60
266.54	1275.88
266.76	1271.79
266.98	1236.97
267.19	1239.02
267.41	1267.69
267.62	1294.32
267.84	1224.69
268.06	1249.26
268.27	1300.46
268.49	1236.97
268.70	1302.51
268.92	1271.79
269.14	1368.04
269.35	1273.84
269.57	1228.78
269.79	1222.64
270.00	1271.79
270.22	1331.18
270.43	1286.12
270.65	1228.78
270.87	1236.97
271.08	1310.70
271.30	1257.45
271.51	1288.17
271.73	1304.56
271.95	1308.65
272.16	1259.50
272.38	1220.59
272.59	1271.79
272.81	1282.03
273.02	1224.69
273.24	1251.31
273.46	1277.93
273.67	1298.41
273.89	1304.56
274.10	1282.03
274.32	1193.97
274.54	1261.55
274.75	1222.64
274.97	1271.79
275.18	1290.22
275.40	1220.59
275.61	1257.45
275.83	1306.60
276.05	1218.54
276.26	1331.18
276.48	1228.78
276.69	1314.80
276.91	1253.36
277.12	1335.28
277.34	1318.89
277.55	1255.40
277.77	1310.70
277.99	1261.55
278.20	1261.55
278.42	1226.73
278.63	1243.12
278.85	1257.45
279.06	1232.88
279.28	1257.45
279.49	1273.84
279.71	1273.84
279.93	1288.17
280.14	1214.45
280.36	1302.51
280.57	1284.08
280.79	1234.93
281.00	1312.75
281.22	1239.02
281.43	1241.07
281.65	1290.22
281.86	1230.83
282.08	1296.36
282.29	1220.59
282.51	1200.11
282.73	1288.17
282.94	1277.93
283.16	1263.60
283.37	1247.21
283.59	1279.98
283.80	1247.21
284.02	1253.36
284.23	1255.40
284.45	1279.98
284.66	1269.74
284.88	1284.08
285.09	1226.73
285.31	1202.16
285.52	1298.41
285.74	1286.12
285.95	1290.22
286.17	1202.16
286.38	1263.60
286.60	1275.88
286.81	1279.98
287.03	1296.36
287.24	1279.98
287.46	1388.52
287.67	1294.32
287.89	1257.45
288.10	1310.70
288.32	1167.34
288.53	1298.41
288.75	1271.79
288.96	1200.11
289.18	1329.13
289.39	1279.98
289.61	1265.64
289.82	1255.40
290.04	1249.26
290.25	1263.60
290.47	1282.03
290.68	1294.32
290.90	1310.70
291.11	1206.25
291.33	1282.03
291.54	1263.60
291.76	1331.18
291.97	1232.88
292.18	1271.79
292.40	1320.94
292.61	1292.27
292.83	1247.21
293.04	1279.98
293.26	1251.31
293.47	1294.32
293.69	1282.03
293.90	1282.03
294.12	1236.97
294.33	1220.59
294.55	1290.22
294.76	1275.88
294.97	1261.55
295.19	1366.00
295.40	1296.36
295.62	1284.08
295.83	1255.40
296.05	1341.42
296.26	1310.70
296.48	1271.79
296.69	1300.46
296.90	1239.02
297.12	1271.79
297.33	1290.22
297.55	1189.87
297.76	1288.17
297.98	1302.51
298.19	1290.22
298.41	1286.12
298.62	1298.41
298.83	1269.74
299.05	1306.60
299.26	1218.54
299.48	1257.45
299.69	1255.40
299.90	1245.16
300.12	1251.31
300.33	1218.54
300.55	1230.83
300.76	1325.04
300.98	1269.74
301.19	1253.36
301.40	1306.60
301.62	1265.64
301.83	1257.45
302.05	1279.98
302.26	1282.03
302.47	1179.63
302.69	1304.56
302.90	1370.09
303.12	1255.40
303.33	1259.50
303.54	1259.50
303.76	1284.08
303.97	1210.35
304.19	1222.64
304.40	1249.26
304.61	1277.93
304.83	1241.07
305.04	1261.55
305.26	1284.08
305.47	1253.36
305.68	1179.63
305.90	1302.51
306.11	1204.21
306.33	1265.64
306.54	1265.64
306.75	1335.28
306.97	1267.69
307.18	1251.31
307.39	1245.16
307.61	1322.99
307.82	1290.22
308.04	1226.73
308.25	1218.54
308.46	1318.89
308.68	1214.45
308.89	1234.93
309.10	1277.93
309.32	1232.88
309.53	1255.40
309.74	1232.88
309.96	1251.31
310.17	1273.84
310.39	1284.08
310.60	1257.45
310.81	1294.32
311.03	1239.02
311.24	1214.45
311.45	1222.64
311.67	1277.93
311.88	1265.64
312.09	1298.41
312.31	1243.12
312.52	1325.04
312.73	1277.93
312.95	1279.98
313.16	1236.97
313.37	1216.49
313.59	1296.36
313.80	1234.93
314.01	1243.12
314.23	1275.88
314.44	1298.41
314.65	1263.60
314.87	1267.69
315.08	1298.41
315.29	1265.64
315.51	1243.12
315.72	1306.60
315.93	1329.13
316.15	1228.78
316.36	1198.06
316.57	1282.03
316.79	1290.22
317.00	1255.40
317.21	1257.45
317.43	1253.36
317.64	1288.17
317.85	1173.49
318.07	1255.40
318.28	1304.56
318.49	1245.16
318.70	1257.45
318.92	1243.12
319.13	1337.32
319.34	1216.49
319.56	1269.74
319.77	1220.59
319.98	1247.21
320.20	1175.53
320.41	1265.64
320.62	1255.40
320.83	1204.21
321.05	1327.08
321.26	1300.46
321.47	1236.97
321.69	1277.93
321.90	1247.21
322.11	1222.64
322.32	1271.79
322.54	1327.08
322.75	1259.50
322.96	1271.79
323.18	1253.36
323.39	1263.60
323.60	1210.35
323.81	1355.76
324.03	1294.32
324.24	1335.28
324.45	1273.84
324.66	1306.60
324.88	1271.79
325.09	1355.76
325.30	1282.03
325.52	1259.50
325.73	1310.70
325.94	1206.25
326.15	1263.60
326.37	1179.63
326.58	1292.27
326.79	1314.80
327.00	1277.93
327.22	1216.49
327.43	1310.70
327.64	1273.84
327.85	1206.25
328.07	1269.74
328.28	1275.88
328.49	1310.70
328.70	1282.03
328.92	1302.51
329.13	1298.41
329.34	1306.60
329.55	1212.40
329.76	1273.84
329.98	1271.79
330.19	1257.45
330.40	1308.65
330.61	1273.84
330.83	1224.69
331.04	1329.13
331.25	1247.21
331.46	1286.12
331.68	1300.46
331.89	1220.59
332.10	1275.88
332.31	1230.83
332.52	1273.84
332.74	1325.04
332.95	1230.83
333.16	1288.17
333.37	1224.69
333.58	1294.32
333.80	1257.45
334.01	1245.16
334.22	1253.36
334.43	1247.21
334.64	1243.12
334.86	1296.36
335.07	1200.11
335.28	1263.60
335.49	1308.65
335.70	1310.70
335.92	1279.98
336.13	1232.88
336.34	1249.26
336.55	1271.79
336.76	1185.77
336.98	1327.08
337.19	1308.65
337.40	1284.08
337.61	1302.51
337.82	1187.82
338.04	1282.03
338.25	1269.74
338.46	1218.54
338.67	1261.55
338.88	1249.26
339.09	1232.88
339.31	1249.26
339.52	1232.88
339.73	1288.17
339.94	1259.50
340.15	1251.31
340.36	1282.03
340.58	1296.36
340.79	1236.97
341.00	1320.94
341.21	1279.98
341.42	1320.94
341.63	1247.21
341.85	1226.73
342.06	1257.45
342.27	1304.56
342.48	1288.17
342.69	1273.84
342.90	1288.17
343.12	1245.16
343.33	1275.88
343.54	1282.03
343.75	1290.22
343.96	1271.79
344.17	1284.08
344.38	1255.40
344.60	1282.03
344.81	1157.10
345.02	1263.60
345.23	1282.03
345.44	1304.56
345.65	1288.17
345.86	1316.84
346.07	1310.70
346.29	1261.55
346.50	1232.88
346.71	1288.17
346.92	1255.40
347.13	1288.17
347.34	1277.93
347.55	1241.07
347.76	1261.55
347.98	1282.03
348.19	1261.55
348.40	1251.31
348.61	1271.79
348.82	1257.45
349.03	1226.73
349.24	1284.08
349.45	1185.77
349.66	1255.40
349.88	1292.27
350.09	1243.12
350.30	1230.83
350.51	1277.93
350.72	1288.17
350.93	1316.84
351.14	1331.18
351.35	1257.45
351.56	1222.64
351.77	1318.89
351.99	1277.93
352.20	1263.60
352.41	1288.17
352.62	1239.02
352.83	1239.02
353.04	1312.75
353.25	1185.77
353.46	1314.80
353.67	1402.86
353.88	1351.66
354.09	1253.36
354.30	1200.11
354.52	1269.74
354.73	1322.99
354.94	1261.55
355.15	1269.74
355.36	1261.55
355.57	1271.79
355.78	1306.60
355.99	1275.88
356.20	1279.98
356.41	1304.56
356.62	1337.32
356.83	1306.60
357.04	1249.26
357.25	1304.56
357.46	1253.36
357.68	1239.02
357.89	1284.08
358.10	1300.46
358.31	1288.17
358.52	1288.17
358.73	1273.84
358.94	1185.77
359.15	1343.47
359.36	1320.94
359.57	1253.36
359.78	1314.80
359.99	1204.21
360.20	1216.49
360.41	1277.93
360.62	1343.47
360.83	1222.64
361.04	1286.12
361.25	1327.08
361.46	1314.80
361.67	1282.03
361.88	1290.22
362.09	1304.56
362.30	1273.84
362.51	1171.44
362.72	1263.60
362.93	1253.36
363.14	1202.16
363.35	1265.64
363.56	1284.08
363.78	1296.36
363.99	1234.93
364.20	1290.22
364.41	1286.12
364.62	1275.88
364.83	1218.54
365.04	1288.17
365.25	1245.16
365.46	1329.13
365.67	1308.65
365.88	1253.36
366.09	1282.03
366.30	1249.26
366.51	1261.55
366.72	1243.12
366.93	1263.60
367.14	1196.01
367.35	1284.08
367.56	1279.98
367.77	1304.56
367.98	1320.94
368.18	1290.22
368.39	1282.03
368.60	1230.83
368.81	1241.07
369.02	1228.78
369.23	1259.50
369.44	1236.97
369.65	1218.54
369.86	1288.17
370.07	1277.93
370.28	1277.93
370.49	1249.26
370.70	1265.64
370.91	1236.97
371.12	1226.73
371.33	1230.83
371.54	1193.97
371.75	1267.69
371.96	1271.79
372.17	1265.64
372.38	1220.59
372.59	1226.73
372.80	1296.36
373.01	1245.16
373.22	1306.60
373.43	1249.26
373.64	1292.27
373.85	1191.92
374.06	1234.93
374.26	1255.40
374.47	1306.60
374.68	1314.80
374.89	1263.60
375.10	1286.12
375.31	1288.17
375.52	1333.23
375.73	1224.69
375.94	1243.12
376.15	1269.74
376.36	1222.64
376.57	1243.12
376.78	1241.07
376.99	1204.21
377.20	1204.21
377.40	1284.08
377.61	1263.60
377.82	1257.45
378.03	1306.60
378.24	1261.55
378.45	1273.84
378.66	1257.45
378.87	1279.98
379.08	1245.16
379.29	1267.69
379.50	1275.88
379.71	1251.31
379.91	1212.40
380.12	1210.35
380.33	1259.50
380.54	1300.46
380.75	1288.17
380.96	1318.89
381.17	1247.21
381.38	1273.84
381.59	1214.45
381.80	1224.69
382.00	1335.28
382.21	1214.45
382.42	1347.56
382.63	1241.07
382.84	1249.26
383.05	1210.35
383.26	1331.18
383.47	1259.50
383.68	1273.84
383.88	1372.14
384.09	1271.79
384.30	1255.40
384.51	1327.08
384.72	1261.55
384.93	1239.02
385.14	1273.84
385.35	1298.41
385.55	1216.49
385.76	1339.37
385.97	1249.26
386.18	1257.45
386.39	1284.08
386.60	1171.44
386.81	1279.98
387.02	1232.88
387.22	1245.16
387.43	1308.65
387.64	1269.74
387.85	1259.50
388.06	1284.08
388.27	1253.36
388.48	1359.85
388.68	1253.36
388.89	1345.52
389.10	1230.83
389.31	1304.56
389.52	1269.74
389.73	1232.88
389.93	1325.04
390.14	1322.99
390.35	1341.42
390.56	1275.88
390.77	1296.36
390.98	1265.64
391.18	1300.46
391.39	1304.56
391.60	1275.88
391.81	1314.80
392.02	1277.93
392.23	1228.78
392.43	1277.93
392.64	1181.68
392.85	1279.98
393.06	1335.28
393.27	1296.36
393.47	1228.78
393.68	1318.89
393.89	1189.87
394.10	1224.69
394.31	1273.84
394.52	1308.65
394.72	1275.88
394.93	1273.84
395.14	1228.78
395.35	1314.80
395.56	1306.60
395.76	1292.27
395.97	1290.22
396.18	1275.88
396.39	1255.40
396.60	1298.41
396.80	1306.60
397.01	1320.94
397.22	1257.45
397.43	1341.42
397.64	1206.25
397.84	1220.59
398.05	1257.45
398.26	1275.88
398.47	1292.27
398.67	1298.41
398.88	1204.21
399.09	1220.59
399.30	1253.36
399.51	1232.88
399.71	1241.07
399.92	1316.84
400.13	1253.36
400.34	1259.50
400.54	1245.16
400.75	1243.12
400.96	1220.59
401.17	1320.94
401.37	1314.80
401.58	1255.40
401.79	1279.98
402.00	1265.64
402.21	1208.30
402.41	1230.83
402.62	1277.93
402.83	1312.75
403.04	1331.18
403.24	1298.41
403.45	1302.51
403.66	1329.13
403.87	1187.82
404.07	1263.60
404.28	1193.97
404.49	1247.21
404.70	1257.45
404.90	1255.40
405.11	1279.98
405.32	1208.30
405.52	1286.12
405.73	1273.84
405.94	1275.88
406.15	1243.12
406.35	1331.18
406.56	1273.84
406.77	1241.07
406.98	1300.46
407.18	1249.26
407.39	1255.40
407.60	1310.70
407.80	1277.93
408.01	1300.46
408.22	1265.64
408.43	1214.45
408.63	1261.55
408.84	1331.18
409.05	1277.93
409.25	1288.17
409.46	1210.35
409.67	1187.82
409.88	1298.41
410.08	1243.12
410.29	1214.45
410.50	1322.99
410.70	1259.50
410.91	1167.34
411.12	1279.98
411.32	1302.51
411.53	1259.50
411.74	1263.60
411.95	1349.61
412.15	1239.02
412.36	1337.32
412.57	1279.98
412.77	1341.42
412.98	1304.56
413.19	1312.75
413.39	1331.18
413.60	1353.71
413.81	1196.01
414.01	1286.12
414.22	1288.17
414.43	1200.11
414.63	1300.46
414.84	1279.98
415.05	1290.22
415.25	1230.83
415.46	1255.40
415.67	1271.79
415.87	1306.60
416.08	1226.73
416.29	1253.36
416.49	1257.45
416.70	1282.03
416.91	1253.36
417.11	1322.99
417.32	1273.84
417.53	1257.45
417.73	1230.83
417.94	1273.84
418.15	1226.73
418.35	1302.51
418.56	1206.25
418.77	1273.84
418.97	1335.28
419.18	1277.93
419.38	1253.36
419.59	1265.64
419.80	1271.79
420.00	1218.54
420.21	1284.08
420.42	1300.46
420.62	1292.27
420.83	1306.60
421.04	1347.56
421.24	1300.46
421.45	1253.36
421.65	1284.08
421.86	1290.22
422.07	1247.21
422.27	1216.49
422.48	1265.64
422.69	1249.26
422.89	1265.64
423.10	1271.79
423.30	1224.69
423.51	1298.41
423.72	1263.60
423.92	1257.45
424.13	1222.64
424.33	1236.97
424.54	1337.32
424.75	1228.78
424.95	1275.88
425.16	1345.52
425.36	1322.99
425.57	1249.26
425.78	1210.35
425.98	1296.36
426.19	1218.54
426.39	1236.97
426.60	1271.79
426.81	1273.84
427.01	1263.60
427.22	1314.80
427.42	1261.55
427.63	1304.56
427.83	1232.88
428.04	1341.42
428.25	1200.11
428.45	1273.84
428.66	1286.12
428.86	1261.55
429.07	1267.69
429.28	1243.12
429.48	1183.73
429.69	1245.16
429.89	1294.32
430.10	1318.89
430.30	1279.98
430.51	1239.02
430.71	1245.16
430.92	1304.56
431.13	1179.63
431.33	1335.28
431.54	1290.22
431.74	1257.45
431.95	1206.25
432.15	1271.79
432.36	1314.80
432.56	1279.98
432.77	1277.93
432.98	1218.54
433.18	1341.42
433.39	1245.16
433.59	1382.38
433.80	1284.08
434.00	1288.17
434.21	1300.46
434.41	1241.07
434.62	1279.98
434.82	1286.12
435.03	1308.65
435.23	1282.03
435.44	1208.30
435.64	1222.64
435.85	1234.93
436.06	1288.17
436.26	1234.93
436.47	1331.18
436.67	1210.35
436.88	1202.16
437.08	1239.02
437.29	1275.88
437.49	1263.60
437.70	1345.52
437.90	1265.64
438.11	1279.98
438.31	1273.84
438.52	1267.69
438.72	1271.79
438.93	1320.94
439.13	1310.70
439.34	1320.94
439.54	1261.55
439.75	1269.74
439.95	1239.02
440.16	1275.88
440.36	1239.02
440.57	1218.54
440.77	1279.98
440.98	1277.93
441.18	1335.28
441.39	1236.97
441.59	1329.13
441.80	1290.22
442.00	1187.82
442.21	1263.60
442.41	1247.21
442.62	1298.41
442.82	1273.84
443.02	1275.88
443.23	1257.45
443.43	1312.75
443.64	1220.59
443.84	1312.75
444.05	1304.56
444.25	1191.92
444.46	1259.50
444.66	1198.06
444.87	1243.12
445.07	1290.22
445.28	1294.32
445.48	1230.83
445.69	1245.16
445.89	1239.02
446.09	1298.41
446.30	1226.73
446.50	1310.70
446.71	1245.16
446.91	1247.21
447.12	1290.22
447.32	1314.80
447.53	1273.84
447.73	1257.45
447.93	1306.60
448.14	1277.93
448.34	1187.82
448.55	1275.88
448.75	1263.60
448.96	1329.13
449.16	1292.27
449.36	1290.22
449.57	1247.21
449.77	1327.08
449.98	1239.02
450.18	1322.99
450.39	1284.08
450.59	1277.93
450.79	1312.75
451.00	1341.42
451.20	1208.30
451.41	1251.31
451.61	1368.04
451.81	1361.90
452.02	1181.68
452.22	1294.32
452.43	1306.60
452.63	1265.64
