SpectraSuite Data File
++++++++++++++++++++++++++++++++++++
Date: Sun Apr 03 19:55:52 CEST 2016
User: root
Dark Spectrum Present: No
Reference Spectrum Present: No
Number of Sampled Component Spectra: 1
Spectrometers: USB4C02835
Integration Time (usec): 10000 (USB4C02835)
Spectra Averaged: 1 (USB4C02835)
Boxcar Smoothing: 0 (USB4C02835)
Correct for Electrical Dark: No (USB4C02835)
Strobe/Lamp Enabled: No (USB4C02835)
Correct for Detector Non-linearity: No (USB4C02835)
Correct for Stray Light: No (USB4C02835)
Number of Pixels in Processed Spectrum: 3648
>>>>>Begin Processed Spectral Data<<<<<
177.47	1257.45
177.69	1257.45
177.91	1257.45
178.13	1234.93
178.36	1193.97
178.58	1314.80
178.80	1243.12
179.02	1306.60
179.24	1198.06
179.46	1288.17
179.68	1232.88
179.90	1304.56
180.13	1308.65
180.35	1271.79
180.57	1314.80
180.79	1241.07
181.01	1265.64
181.23	1239.02
181.45	1329.13
181.67	1273.84
181.90	1257.45
182.12	1302.51
182.34	1273.84
182.56	1247.21
182.78	1300.46
183.00	1290.22
183.22	1271.79
183.44	1312.75
183.66	1277.93
183.89	1155.05
184.11	1241.07
184.33	1298.41
184.55	1249.26
184.77	1257.45
184.99	1277.93
185.21	1247.21
185.43	1247.21
185.65	1261.55
185.87	1247.21
186.10	1259.50
186.32	1312.75
186.54	1329.13
186.76	1298.41
186.98	1177.58
187.20	1308.65
187.42	1306.60
187.64	1212.40
187.86	1220.59
188.08	1253.36
188.30	1327.08
188.52	1292.27
188.75	1239.02
188.97	1316.84
189.19	1202.16
189.41	1290.22
189.63	1249.26
189.85	1228.78
190.07	1265.64
190.29	1290.22
190.51	1284.08
190.73	1247.21
190.95	1243.12
191.17	1214.45
191.39	1265.64
191.61	1249.26
191.84	1286.12
192.06	1265.64
192.28	1288.17
192.50	1247.21
192.72	1310.70
192.94	1236.97
193.16	1222.64
193.38	1308.65
193.60	1243.12
193.82	1251.31
194.04	1304.56
194.26	1245.16
194.48	1308.65
194.70	1282.03
194.92	1253.36
195.14	1222.64
195.36	1247.21
195.58	1249.26
195.80	1282.03
196.02	1253.36
196.24	1277.93
196.46	1267.69
196.69	1232.88
196.91	1228.78
197.13	1232.88
197.35	1275.88
197.57	1351.66
197.79	1218.54
198.01	1234.93
198.23	1298.41
198.45	1191.92
198.67	1298.41
198.89	1243.12
199.11	1279.98
199.33	1196.01
199.55	1320.94
199.77	1216.49
199.99	1306.60
200.21	1247.21
200.43	1239.02
200.65	1148.91
200.87	1306.60
201.09	1370.09
201.31	1228.78
201.53	1208.30
201.75	1296.36
201.97	1241.07
202.19	1261.55
202.41	1269.74
202.63	1304.56
202.85	1284.08
203.07	1220.59
203.29	1191.92
203.51	1228.78
203.73	1251.31
203.95	1218.54
204.17	1294.32
204.39	1271.79
204.61	1245.16
204.83	1247.21
205.05	1191.92
205.27	1275.88
205.49	1239.02
205.71	1269.74
205.93	1253.36
206.15	1249.26
206.37	1261.55
206.59	1355.76
206.81	1218.54
207.03	1239.02
207.25	1333.23
207.47	1308.65
207.69	1316.84
207.91	1245.16
208.13	1249.26
208.34	1265.64
208.56	1314.80
208.78	1265.64
209.00	1247.21
209.22	1226.73
209.44	1200.11
209.66	1304.56
209.88	1265.64
210.10	1200.11
210.32	1243.12
210.54	1265.64
210.76	1273.84
210.98	1296.36
211.20	1325.04
211.42	1304.56
211.64	1294.32
211.86	1245.16
212.08	1316.84
212.30	1257.45
212.52	1271.79
212.74	1255.40
212.96	1179.63
213.17	1284.08
213.39	1292.27
213.61	1277.93
213.83	1312.75
214.05	1187.82
214.27	1130.48
214.49	1304.56
214.71	1245.16
214.93	1232.88
215.15	1183.73
215.37	1263.60
215.59	1284.08
215.81	1304.56
216.03	1267.69
216.24	1306.60
216.46	1251.31
216.68	1322.99
216.90	1282.03
217.12	1298.41
217.34	1251.31
217.56	1230.83
217.78	1290.22
218.00	1269.74
218.22	1257.45
218.44	1251.31
218.66	1261.55
218.87	1343.47
219.09	1290.22
219.31	1265.64
219.53	1318.89
219.75	1273.84
219.97	1222.64
220.19	1265.64
220.41	1359.85
220.63	1255.40
220.85	1249.26
221.06	1304.56
221.28	1251.31
221.50	1253.36
221.72	1230.83
221.94	1322.99
222.16	1257.45
222.38	1241.07
222.60	1273.84
222.82	1271.79
223.03	1294.32
223.25	1331.18
223.47	1351.66
223.69	1292.27
223.91	1269.74
224.13	1245.16
224.35	1241.07
224.57	1277.93
224.78	1265.64
225.00	1306.60
225.22	1253.36
225.44	1183.73
225.66	1308.65
225.88	1220.59
226.10	1232.88
226.32	1282.03
226.53	1308.65
226.75	1255.40
226.97	1187.82
227.19	1234.93
227.41	1218.54
227.63	1234.93
227.85	1300.46
228.06	1251.31
228.28	1241.07
228.50	1245.16
228.72	1210.35
228.94	1339.37
229.16	1359.85
229.37	1241.07
229.59	1167.34
229.81	1265.64
230.03	1279.98
230.25	1296.36
230.47	1249.26
230.69	1253.36
230.90	1302.51
231.12	1257.45
231.34	1241.07
231.56	1306.60
231.78	1230.83
232.00	1230.83
232.21	1239.02
232.43	1279.98
232.65	1220.59
232.87	1216.49
233.09	1290.22
233.30	1296.36
233.52	1290.22
233.74	1271.79
233.96	1234.93
234.18	1279.98
234.40	1259.50
234.61	1312.75
234.83	1282.03
235.05	1247.21
235.27	1263.60
235.49	1230.83
235.70	1239.02
235.92	1230.83
236.14	1294.32
236.36	1265.64
236.58	1279.98
236.79	1302.51
237.01	1292.27
237.23	1220.59
237.45	1228.78
237.67	1239.02
237.88	1216.49
238.10	1286.12
238.32	1245.16
238.54	1271.79
238.76	1306.60
238.97	1316.84
239.19	1230.83
239.41	1267.69
239.63	1300.46
239.85	1341.42
240.06	1247.21
240.28	1226.73
240.50	1296.36
240.72	1191.92
240.93	1210.35
241.15	1261.55
241.37	1306.60
241.59	1249.26
241.81	1210.35
242.02	1234.93
242.24	1247.21
242.46	1257.45
242.68	1220.59
242.89	1279.98
243.11	1288.17
243.33	1261.55
243.55	1320.94
243.76	1267.69
243.98	1310.70
244.20	1257.45
244.42	1277.93
244.64	1214.45
244.85	1251.31
245.07	1331.18
245.29	1218.54
245.51	1294.32
245.72	1259.50
245.94	1269.74
246.16	1331.18
246.38	1376.24
246.59	1214.45
246.81	1282.03
247.03	1267.69
247.24	1282.03
247.46	1331.18
247.68	1292.27
247.90	1234.93
248.11	1286.12
248.33	1277.93
248.55	1245.16
248.77	1261.55
248.98	1322.99
249.20	1316.84
249.42	1316.84
249.64	1206.25
249.85	1304.56
250.07	1222.64
250.29	1253.36
250.50	1277.93
250.72	1228.78
250.94	1296.36
251.16	1300.46
251.37	1239.02
251.59	1271.79
251.81	1218.54
252.02	1290.22
252.24	1279.98
252.46	1302.51
252.68	1263.60
252.89	1226.73
253.11	1265.64
253.33	1253.36
253.54	1253.36
253.76	1320.94
253.98	1214.45
254.20	1253.36
254.41	1261.55
254.63	1212.40
254.85	1302.51
255.06	1277.93
255.28	1312.75
255.50	1234.93
255.71	1200.11
255.93	1273.84
256.15	1275.88
256.36	1300.46
256.58	1304.56
256.80	1216.49
257.02	1273.84
257.23	1298.41
257.45	1265.64
257.67	1292.27
257.88	1228.78
258.10	1255.40
258.32	1286.12
258.53	1292.27
258.75	1247.21
258.97	1304.56
259.18	1337.32
259.40	1331.18
259.62	1245.16
259.83	1333.23
260.05	1261.55
260.27	1304.56
260.48	1296.36
260.70	1411.05
260.92	1273.84
261.13	1290.22
261.35	1241.07
261.57	1228.78
261.78	1277.93
262.00	1282.03
262.22	1232.88
262.43	1261.55
262.65	1191.92
262.86	1247.21
263.08	1220.59
263.30	1239.02
263.51	1236.97
263.73	1228.78
263.95	1267.69
264.16	1247.21
264.38	1263.60
264.60	1308.65
264.81	1259.50
265.03	1284.08
265.25	1230.83
265.46	1241.07
265.68	1226.73
265.89	1216.49
266.11	1173.49
266.33	1335.28
266.54	1177.58
266.76	1230.83
266.98	1253.36
267.19	1267.69
267.41	1251.31
267.62	1239.02
267.84	1279.98
268.06	1279.98
268.27	1255.40
268.49	1294.32
268.70	1275.88
268.92	1284.08
269.14	1335.28
269.35	1271.79
269.57	1306.60
269.79	1243.12
270.00	1327.08
270.22	1333.23
270.43	1265.64
270.65	1198.06
270.87	1300.46
271.08	1232.88
271.30	1353.71
271.51	1239.02
271.73	1198.06
271.95	1341.42
272.16	1228.78
272.38	1220.59
272.59	1300.46
272.81	1196.01
273.02	1282.03
273.24	1255.40
273.46	1292.27
273.67	1196.01
273.89	1316.84
274.10	1279.98
274.32	1286.12
274.54	1271.79
274.75	1308.65
274.97	1327.08
275.18	1259.50
275.40	1312.75
275.61	1241.07
275.83	1220.59
276.05	1257.45
276.26	1286.12
276.48	1298.41
276.69	1212.40
276.91	1296.36
277.12	1294.32
277.34	1286.12
277.55	1298.41
277.77	1277.93
277.99	1347.56
278.20	1236.97
278.42	1298.41
278.63	1241.07
278.85	1222.64
279.06	1208.30
279.28	1263.60
279.49	1239.02
279.71	1226.73
279.93	1263.60
280.14	1259.50
280.36	1239.02
280.57	1257.45
280.79	1193.97
281.00	1327.08
281.22	1241.07
281.43	1290.22
281.65	1279.98
281.86	1261.55
282.08	1257.45
282.29	1288.17
282.51	1224.69
282.73	1216.49
282.94	1292.27
283.16	1292.27
283.37	1320.94
283.59	1210.35
283.80	1243.12
284.02	1273.84
284.23	1236.97
284.45	1306.60
284.66	1232.88
284.88	1241.07
285.09	1271.79
285.31	1304.56
285.52	1241.07
285.74	1277.93
285.95	1191.92
286.17	1193.97
286.38	1335.28
286.60	1277.93
286.81	1247.21
287.03	1277.93
287.24	1245.16
287.46	1243.12
287.67	1292.27
287.89	1222.64
288.10	1247.21
288.32	1312.75
288.53	1333.23
288.75	1286.12
288.96	1294.32
289.18	1286.12
289.39	1236.97
289.61	1267.69
289.82	1271.79
290.04	1241.07
290.25	1286.12
290.47	1273.84
290.68	1224.69
290.90	1288.17
291.11	1200.11
291.33	1222.64
291.54	1296.36
291.76	1193.97
291.97	1265.64
292.18	1236.97
292.40	1261.55
292.61	1255.40
292.83	1302.51
293.04	1273.84
293.26	1247.21
293.47	1286.12
293.69	1234.93
293.90	1282.03
294.12	1259.50
294.33	1310.70
294.55	1224.69
294.76	1216.49
294.97	1243.12
295.19	1339.37
295.40	1189.87
295.62	1183.73
295.83	1257.45
296.05	1302.51
296.26	1331.18
296.48	1341.42
296.69	1261.55
296.90	1298.41
297.12	1257.45
297.33	1259.50
297.55	1218.54
297.76	1331.18
297.98	1286.12
298.19	1273.84
298.41	1241.07
298.62	1257.45
298.83	1245.16
299.05	1257.45
299.26	1331.18
299.48	1232.88
299.69	1257.45
299.90	1267.69
300.12	1261.55
300.33	1273.84
300.55	1314.80
300.76	1271.79
300.98	1257.45
301.19	1269.74
301.40	1288.17
301.62	1239.02
301.83	1277.93
302.05	1339.37
302.26	1290.22
302.47	1298.41
302.69	1249.26
302.90	1253.36
303.12	1277.93
303.33	1267.69
303.54	1290.22
303.76	1273.84
303.97	1316.84
304.19	1249.26
304.40	1257.45
304.61	1306.60
304.83	1327.08
305.04	1286.12
305.26	1210.35
305.47	1286.12
305.68	1245.16
305.90	1202.16
306.11	1214.45
306.33	1306.60
306.54	1306.60
306.75	1253.36
306.97	1251.31
307.18	1359.85
307.39	1239.02
307.61	1320.94
307.82	1200.11
308.04	1273.84
308.25	1284.08
308.46	1265.64
308.68	1327.08
308.89	1290.22
309.10	1255.40
309.32	1306.60
309.53	1331.18
309.74	1257.45
309.96	1322.99
310.17	1284.08
310.39	1243.12
310.60	1279.98
310.81	1275.88
311.03	1187.82
311.24	1384.43
311.45	1286.12
311.67	1349.61
311.88	1265.64
312.09	1218.54
312.31	1304.56
312.52	1261.55
312.73	1239.02
312.95	1275.88
313.16	1271.79
313.37	1310.70
313.59	1253.36
313.80	1263.60
314.01	1271.79
314.23	1296.36
314.44	1263.60
314.65	1247.21
314.87	1263.60
315.08	1191.92
315.29	1230.83
315.51	1224.69
315.72	1249.26
315.93	1261.55
316.15	1265.64
316.36	1290.22
316.57	1306.60
316.79	1331.18
317.00	1251.31
317.21	1253.36
317.43	1316.84
317.64	1290.22
317.85	1249.26
318.07	1294.32
318.28	1236.97
318.49	1290.22
318.70	1363.95
318.92	1210.35
319.13	1329.13
319.34	1243.12
319.56	1279.98
319.77	1206.25
319.98	1288.17
320.20	1232.88
320.41	1304.56
320.62	1239.02
320.83	1271.79
321.05	1312.75
321.26	1255.40
321.47	1228.78
321.69	1318.89
321.90	1318.89
322.11	1296.36
322.32	1275.88
322.54	1322.99
322.75	1236.97
322.96	1314.80
323.18	1247.21
323.39	1239.02
323.60	1286.12
323.81	1249.26
324.03	1335.28
324.24	1181.68
324.45	1277.93
324.66	1255.40
324.88	1271.79
325.09	1304.56
325.30	1204.21
325.52	1292.27
325.73	1226.73
325.94	1294.32
326.15	1247.21
326.37	1243.12
326.58	1196.01
326.79	1271.79
327.00	1304.56
327.22	1230.83
327.43	1216.49
327.64	1294.32
327.85	1263.60
328.07	1273.84
328.28	1294.32
328.49	1261.55
328.70	1273.84
328.92	1286.12
329.13	1290.22
329.34	1261.55
329.55	1249.26
329.76	1261.55
329.98	1277.93
330.19	1245.16
330.40	1286.12
330.61	1236.97
330.83	1196.01
331.04	1241.07
331.25	1279.98
331.46	1241.07
331.68	1239.02
331.89	1236.97
332.10	1284.08
332.31	1210.35
332.52	1302.51
332.74	1259.50
332.95	1277.93
333.16	1279.98
333.37	1298.41
333.58	1279.98
333.80	1220.59
334.01	1275.88
334.22	1267.69
334.43	1255.40
334.64	1263.60
334.86	1279.98
335.07	1187.82
335.28	1284.08
335.49	1243.12
335.70	1196.01
335.92	1277.93
336.13	1284.08
336.34	1296.36
336.55	1304.56
336.76	1329.13
336.98	1298.41
337.19	1275.88
337.40	1232.88
337.61	1273.84
337.82	1294.32
338.04	1230.83
338.25	1265.64
338.46	1218.54
338.67	1239.02
338.88	1243.12
339.09	1290.22
339.31	1284.08
339.52	1269.74
339.73	1306.60
339.94	1314.80
340.15	1255.40
340.36	1261.55
340.58	1239.02
340.79	1275.88
341.00	1243.12
341.21	1290.22
341.42	1308.65
341.63	1277.93
341.85	1271.79
342.06	1271.79
342.27	1267.69
342.48	1279.98
342.69	1300.46
342.90	1320.94
343.12	1259.50
343.33	1298.41
343.54	1269.74
343.75	1259.50
343.96	1189.87
344.17	1314.80
344.38	1275.88
344.60	1263.60
344.81	1269.74
345.02	1304.56
345.23	1292.27
345.44	1267.69
345.65	1310.70
345.86	1306.60
346.07	1290.22
346.29	1275.88
346.50	1275.88
346.71	1234.93
346.92	1251.31
347.13	1337.32
347.34	1273.84
347.55	1275.88
347.76	1271.79
347.98	1267.69
348.19	1232.88
348.40	1282.03
348.61	1202.16
348.82	1282.03
349.03	1245.16
349.24	1218.54
349.45	1320.94
349.66	1230.83
349.88	1267.69
350.09	1306.60
350.30	1253.36
350.51	1189.87
350.72	1357.80
350.93	1230.83
351.14	1224.69
351.35	1296.36
351.56	1296.36
351.77	1288.17
351.99	1212.40
352.20	1277.93
352.41	1247.21
352.62	1279.98
352.83	1257.45
353.04	1259.50
353.25	1183.73
353.46	1263.60
353.67	1236.97
353.88	1230.83
354.09	1206.25
354.30	1241.07
354.52	1251.31
354.73	1222.64
354.94	1300.46
355.15	1347.56
355.36	1286.12
355.57	1241.07
355.78	1253.36
355.99	1376.24
356.20	1273.84
356.41	1333.23
356.62	1308.65
356.83	1247.21
357.04	1314.80
357.25	1259.50
357.46	1341.42
357.68	1314.80
357.89	1269.74
358.10	1265.64
358.31	1249.26
358.52	1249.26
358.73	1230.83
358.94	1249.26
359.15	1298.41
359.36	1318.89
359.57	1282.03
359.78	1329.13
359.99	1179.63
360.20	1230.83
360.41	1288.17
360.62	1288.17
360.83	1204.21
361.04	1239.02
361.25	1212.40
361.46	1294.32
361.67	1253.36
361.88	1249.26
362.09	1318.89
362.30	1230.83
362.51	1269.74
362.72	1216.49
362.93	1329.13
363.14	1277.93
363.35	1243.12
363.56	1294.32
363.78	1273.84
363.99	1308.65
364.20	1263.60
364.41	1234.93
364.62	1300.46
364.83	1277.93
365.04	1234.93
365.25	1226.73
365.46	1247.21
365.67	1232.88
365.88	1290.22
366.09	1148.91
366.30	1200.11
366.51	1185.77
366.72	1284.08
366.93	1230.83
367.14	1245.16
367.35	1296.36
367.56	1267.69
367.77	1282.03
367.98	1185.77
368.18	1257.45
368.39	1282.03
368.60	1275.88
368.81	1261.55
369.02	1284.08
369.23	1177.58
369.44	1335.28
369.65	1263.60
369.86	1257.45
370.07	1243.12
370.28	1312.75
370.49	1306.60
370.70	1232.88
370.91	1343.47
371.12	1290.22
371.33	1269.74
371.54	1253.36
371.75	1232.88
371.96	1191.92
372.17	1273.84
372.38	1236.97
372.59	1322.99
372.80	1265.64
373.01	1273.84
373.22	1228.78
373.43	1232.88
373.64	1255.40
373.85	1239.02
374.06	1290.22
374.26	1253.36
374.47	1322.99
374.68	1257.45
374.89	1224.69
375.10	1271.79
375.31	1304.56
375.52	1316.84
375.73	1206.25
375.94	1292.27
376.15	1288.17
376.36	1275.88
376.57	1294.32
376.78	1249.26
376.99	1167.34
377.20	1210.35
377.40	1249.26
377.61	1288.17
377.82	1259.50
378.03	1314.80
378.24	1224.69
378.45	1236.97
378.66	1259.50
378.87	1241.07
379.08	1279.98
379.29	1263.60
379.50	1148.91
379.71	1198.06
379.91	1249.26
380.12	1261.55
380.33	1265.64
380.54	1302.51
380.75	1255.40
380.96	1247.21
381.17	1308.65
381.38	1282.03
381.59	1228.78
381.80	1239.02
382.00	1337.32
382.21	1245.16
382.42	1253.36
382.63	1245.16
382.84	1253.36
383.05	1183.73
383.26	1259.50
383.47	1259.50
383.68	1294.32
383.88	1198.06
384.09	1275.88
384.30	1310.70
384.51	1247.21
384.72	1216.49
384.93	1322.99
385.14	1290.22
385.35	1232.88
385.55	1282.03
385.76	1314.80
385.97	1257.45
386.18	1214.45
386.39	1198.06
386.60	1253.36
386.81	1257.45
387.02	1310.70
387.22	1243.12
387.43	1275.88
387.64	1239.02
387.85	1224.69
388.06	1273.84
388.27	1187.82
388.48	1277.93
388.68	1290.22
388.89	1275.88
389.10	1286.12
389.31	1310.70
389.52	1259.50
389.73	1261.55
389.93	1206.25
390.14	1228.78
390.35	1200.11
390.56	1269.74
390.77	1267.69
390.98	1279.98
391.18	1228.78
391.39	1300.46
391.60	1183.73
391.81	1255.40
392.02	1257.45
392.23	1263.60
392.43	1271.79
392.64	1290.22
392.85	1239.02
393.06	1251.31
393.27	1253.36
393.47	1247.21
393.68	1271.79
393.89	1220.59
394.10	1191.92
394.31	1247.21
394.52	1304.56
394.72	1222.64
394.93	1343.47
395.14	1265.64
395.35	1304.56
395.56	1247.21
395.76	1249.26
395.97	1298.41
396.18	1316.84
396.39	1232.88
396.60	1251.31
396.80	1282.03
397.01	1232.88
397.22	1239.02
397.43	1294.32
397.64	1314.80
397.84	1279.98
398.05	1304.56
398.26	1300.46
398.47	1265.64
398.67	1347.56
398.88	1267.69
399.09	1292.27
399.30	1220.59
399.51	1224.69
399.71	1269.74
399.92	1257.45
400.13	1304.56
400.34	1294.32
400.54	1282.03
400.75	1249.26
400.96	1347.56
401.17	1294.32
401.37	1300.46
401.58	1329.13
401.79	1282.03
402.00	1236.97
402.21	1232.88
402.41	1292.27
402.62	1267.69
402.83	1234.93
403.04	1329.13
403.24	1243.12
403.45	1243.12
403.66	1322.99
403.87	1263.60
404.07	1226.73
404.28	1269.74
404.49	1267.69
404.70	1251.31
404.90	1294.32
405.11	1275.88
405.32	1296.36
405.52	1257.45
405.73	1253.36
405.94	1298.41
406.15	1232.88
406.35	1296.36
406.56	1198.06
406.77	1277.93
406.98	1243.12
407.18	1353.71
407.39	1220.59
407.60	1206.25
407.80	1253.36
408.01	1284.08
408.22	1333.23
408.43	1312.75
408.63	1257.45
408.84	1232.88
409.05	1279.98
409.25	1308.65
409.46	1239.02
409.67	1247.21
409.88	1312.75
410.08	1269.74
410.29	1277.93
410.50	1245.16
410.70	1341.42
410.91	1234.93
411.12	1245.16
411.32	1230.83
411.53	1204.21
411.74	1349.61
411.95	1279.98
412.15	1292.27
412.36	1236.97
412.57	1196.01
412.77	1175.53
412.98	1214.45
413.19	1353.71
413.39	1271.79
413.60	1232.88
413.81	1253.36
414.01	1275.88
414.22	1286.12
414.43	1259.50
414.63	1228.78
414.84	1277.93
415.05	1218.54
415.25	1290.22
415.46	1265.64
415.67	1288.17
415.87	1327.08
416.08	1273.84
416.29	1277.93
416.49	1265.64
416.70	1243.12
416.91	1277.93
417.11	1243.12
417.32	1343.47
417.53	1239.02
417.73	1290.22
417.94	1292.27
418.15	1271.79
418.35	1226.73
418.56	1243.12
418.77	1271.79
418.97	1220.59
419.18	1259.50
419.38	1261.55
419.59	1271.79
419.80	1261.55
420.00	1150.96
420.21	1255.40
420.42	1286.12
420.62	1241.07
420.83	1249.26
421.04	1290.22
421.24	1290.22
421.45	1333.23
421.65	1253.36
421.86	1257.45
422.07	1224.69
422.27	1286.12
422.48	1302.51
422.69	1314.80
422.89	1245.16
423.10	1234.93
423.30	1261.55
423.51	1298.41
423.72	1306.60
423.92	1282.03
424.13	1263.60
424.33	1286.12
424.54	1271.79
424.75	1290.22
424.95	1329.13
425.16	1234.93
425.36	1337.32
425.57	1304.56
425.78	1296.36
425.98	1325.04
426.19	1300.46
426.39	1327.08
426.60	1267.69
426.81	1234.93
427.01	1220.59
427.22	1241.07
427.42	1259.50
427.63	1308.65
427.83	1253.36
428.04	1320.94
428.25	1296.36
428.45	1249.26
428.66	1253.36
428.86	1361.90
429.07	1269.74
429.28	1294.32
429.48	1275.88
429.69	1224.69
429.89	1245.16
430.10	1294.32
430.30	1206.25
430.51	1337.32
430.71	1304.56
430.92	1302.51
431.13	1216.49
431.33	1288.17
431.54	1232.88
431.74	1232.88
431.95	1312.75
432.15	1277.93
432.36	1228.78
432.56	1245.16
432.77	1320.94
432.98	1275.88
433.18	1290.22
433.39	1290.22
433.59	1269.74
433.80	1290.22
434.00	1253.36
434.21	1294.32
434.41	1267.69
434.62	1322.99
434.82	1251.31
435.03	1193.97
435.23	1277.93
435.44	1296.36
435.64	1290.22
435.85	1263.60
436.06	1298.41
436.26	1263.60
436.47	1206.25
436.67	1263.60
436.88	1271.79
437.08	1296.36
437.29	1271.79
437.49	1300.46
437.70	1290.22
437.90	1222.64
438.11	1253.36
438.31	1298.41
438.52	1279.98
438.72	1300.46
438.93	1212.40
439.13	1275.88
439.34	1273.84
439.54	1243.12
439.75	1300.46
439.95	1288.17
440.16	1255.40
440.36	1224.69
440.57	1294.32
440.77	1279.98
440.98	1271.79
441.18	1273.84
441.39	1208.30
441.59	1241.07
441.80	1263.60
442.00	1290.22
442.21	1277.93
442.41	1232.88
442.62	1267.69
442.82	1271.79
443.02	1275.88
443.23	1277.93
443.43	1302.51
443.64	1279.98
443.84	1212.40
444.05	1255.40
444.25	1359.85
444.46	1273.84
444.66	1279.98
444.87	1345.52
445.07	1306.60
445.28	1247.21
445.48	1232.88
445.69	1316.84
445.89	1288.17
446.09	1312.75
446.30	1204.21
446.50	1325.04
446.71	1230.83
446.91	1269.74
447.12	1259.50
447.32	1273.84
447.53	1349.61
447.73	1300.46
447.93	1212.40
448.14	1249.26
448.34	1347.56
448.55	1210.35
448.75	1286.12
448.96	1257.45
449.16	1261.55
449.36	1339.37
449.57	1351.66
449.77	1288.17
449.98	1296.36
450.18	1296.36
450.39	1288.17
450.59	1298.41
450.79	1216.49
451.00	1267.69
451.20	1320.94
451.41	1273.84
451.61	1255.40
451.81	1312.75
452.02	1257.45
452.22	1335.28
452.43	1257.45
452.63	1245.16
