SpectraSuite Data File
++++++++++++++++++++++++++++++++++++
Date: Sun Apr 03 19:55:16 CEST 2016
User: root
Dark Spectrum Present: No
Reference Spectrum Present: No
Number of Sampled Component Spectra: 1
Spectrometers: USB4C02835
Integration Time (usec): 10000 (USB4C02835)
Spectra Averaged: 1 (USB4C02835)
Boxcar Smoothing: 0 (USB4C02835)
Correct for Electrical Dark: No (USB4C02835)
Strobe/Lamp Enabled: No (USB4C02835)
Correct for Detector Non-linearity: No (USB4C02835)
Correct for Stray Light: No (USB4C02835)
Number of Pixels in Processed Spectrum: 3648
>>>>>Begin Processed Spectral Data<<<<<
177.47	1273.84
177.69	1273.84
177.91	1273.84
178.13	1273.84
178.36	1175.53
178.58	1249.26
178.80	1239.02
179.02	1251.31
179.24	1271.79
179.46	1249.26
179.68	1247.21
179.90	1263.60
180.13	1173.49
180.35	1298.41
180.57	1277.93
180.79	1316.84
181.01	1320.94
181.23	1353.71
181.45	1304.56
181.67	1265.64
181.90	1282.03
182.12	1318.89
182.34	1308.65
182.56	1325.04
182.78	1245.16
183.00	1265.64
183.22	1251.31
183.44	1230.83
183.66	1222.64
183.89	1302.51
184.11	1288.17
184.33	1277.93
184.55	1255.40
184.77	1253.36
184.99	1251.31
185.21	1275.88
185.43	1298.41
185.65	1239.02
185.87	1288.17
186.10	1320.94
186.32	1298.41
186.54	1292.27
186.76	1290.22
186.98	1300.46
187.20	1269.74
187.42	1189.87
187.64	1249.26
187.86	1181.68
188.08	1320.94
188.30	1183.73
188.52	1306.60
188.75	1333.23
188.97	1257.45
189.19	1251.31
189.41	1251.31
189.63	1198.06
189.85	1271.79
190.07	1224.69
190.29	1200.11
190.51	1275.88
190.73	1236.97
190.95	1265.64
191.17	1275.88
191.39	1232.88
191.61	1259.50
191.84	1232.88
192.06	1292.27
192.28	1241.07
192.50	1335.28
192.72	1249.26
192.94	1265.64
193.16	1273.84
193.38	1298.41
193.60	1257.45
193.82	1241.07
194.04	1263.60
194.26	1204.21
194.48	1277.93
194.70	1210.35
194.92	1325.04
195.14	1187.82
195.36	1236.97
195.58	1267.69
195.80	1167.34
196.02	1247.21
196.24	1271.79
196.46	1259.50
196.69	1304.56
196.91	1353.71
197.13	1310.70
197.35	1230.83
197.57	1273.84
197.79	1245.16
198.01	1331.18
198.23	1275.88
198.45	1269.74
198.67	1220.59
198.89	1239.02
199.11	1208.30
199.33	1267.69
199.55	1243.12
199.77	1232.88
199.99	1196.01
200.21	1255.40
200.43	1353.71
200.65	1245.16
200.87	1218.54
201.09	1325.04
201.31	1267.69
201.53	1302.51
201.75	1230.83
201.97	1212.40
202.19	1275.88
202.41	1341.42
202.63	1234.93
202.85	1312.75
203.07	1279.98
203.29	1247.21
203.51	1277.93
203.73	1247.21
203.95	1251.31
204.17	1329.13
204.39	1320.94
204.61	1351.66
204.83	1222.64
205.05	1234.93
205.27	1282.03
205.49	1298.41
205.71	1298.41
205.93	1269.74
206.15	1245.16
206.37	1290.22
206.59	1234.93
206.81	1279.98
207.03	1286.12
207.25	1224.69
207.47	1251.31
207.69	1298.41
207.91	1204.21
208.13	1296.36
208.34	1284.08
208.56	1306.60
208.78	1263.60
209.00	1232.88
209.22	1271.79
209.44	1243.12
209.66	1187.82
209.88	1265.64
210.10	1306.60
210.32	1245.16
210.54	1292.27
210.76	1222.64
210.98	1298.41
211.20	1302.51
211.42	1249.26
211.64	1247.21
211.86	1253.36
212.08	1325.04
212.30	1413.10
212.52	1243.12
212.74	1232.88
212.96	1292.27
213.17	1255.40
213.39	1294.32
213.61	1253.36
213.83	1257.45
214.05	1255.40
214.27	1232.88
214.49	1310.70
214.71	1273.84
214.93	1210.35
215.15	1282.03
215.37	1243.12
215.59	1300.46
215.81	1329.13
216.03	1290.22
216.24	1298.41
216.46	1273.84
216.68	1214.45
216.90	1310.70
217.12	1267.69
217.34	1292.27
217.56	1198.06
217.78	1275.88
218.00	1296.36
218.22	1312.75
218.44	1306.60
218.66	1288.17
218.87	1271.79
219.09	1251.31
219.31	1275.88
219.53	1220.59
219.75	1277.93
219.97	1292.27
220.19	1308.65
220.41	1230.83
220.63	1308.65
220.85	1310.70
221.06	1351.66
221.28	1224.69
221.50	1286.12
221.72	1271.79
221.94	1261.55
222.16	1298.41
222.38	1251.31
222.60	1253.36
222.82	1318.89
223.03	1290.22
223.25	1275.88
223.47	1363.95
223.69	1298.41
223.91	1269.74
224.13	1263.60
224.35	1243.12
224.57	1245.16
224.78	1288.17
225.00	1288.17
225.22	1241.07
225.44	1304.56
225.66	1263.60
225.88	1302.51
226.10	1345.52
226.32	1267.69
226.53	1296.36
226.75	1282.03
226.97	1294.32
227.19	1316.84
227.41	1204.21
227.63	1249.26
227.85	1193.97
228.06	1298.41
228.28	1361.90
228.50	1302.51
228.72	1265.64
228.94	1292.27
229.16	1292.27
229.37	1302.51
229.59	1296.36
229.81	1337.32
230.03	1265.64
230.25	1298.41
230.47	1349.61
230.69	1312.75
230.90	1273.84
231.12	1296.36
231.34	1226.73
231.56	1277.93
231.78	1218.54
232.00	1300.46
232.21	1273.84
232.43	1308.65
232.65	1249.26
232.87	1318.89
233.09	1222.64
233.30	1257.45
233.52	1171.44
233.74	1234.93
233.96	1204.21
234.18	1290.22
234.40	1232.88
234.61	1288.17
234.83	1232.88
235.05	1282.03
235.27	1273.84
235.49	1224.69
235.70	1277.93
235.92	1271.79
236.14	1234.93
236.36	1279.98
236.58	1214.45
236.79	1271.79
237.01	1222.64
237.23	1187.82
237.45	1267.69
237.67	1284.08
237.88	1261.55
238.10	1302.51
238.32	1267.69
238.54	1212.40
238.76	1284.08
238.97	1325.04
239.19	1320.94
239.41	1271.79
239.63	1284.08
239.85	1286.12
240.06	1245.16
240.28	1263.60
240.50	1273.84
240.72	1282.03
240.93	1284.08
241.15	1292.27
241.37	1302.51
241.59	1208.30
241.81	1236.97
242.02	1232.88
242.24	1236.97
242.46	1320.94
242.68	1216.49
242.89	1255.40
243.11	1267.69
243.33	1351.66
243.55	1263.60
243.76	1255.40
243.98	1189.87
244.20	1279.98
244.42	1320.94
244.64	1187.82
244.85	1302.51
245.07	1255.40
245.29	1255.40
245.51	1306.60
245.72	1236.97
245.94	1247.21
246.16	1193.97
246.38	1288.17
246.59	1259.50
246.81	1230.83
247.03	1327.08
247.24	1290.22
247.46	1327.08
247.68	1263.60
247.90	1165.29
248.11	1302.51
248.33	1279.98
248.55	1284.08
248.77	1243.12
248.98	1347.56
249.20	1273.84
249.42	1318.89
249.64	1288.17
249.85	1292.27
250.07	1265.64
250.29	1216.49
250.50	1331.18
250.72	1282.03
250.94	1265.64
251.16	1208.30
251.37	1275.88
251.59	1253.36
251.81	1230.83
252.02	1279.98
252.24	1243.12
252.46	1241.07
252.68	1245.16
252.89	1204.21
253.11	1226.73
253.33	1253.36
253.54	1249.26
253.76	1269.74
253.98	1261.55
254.20	1206.25
254.41	1259.50
254.63	1277.93
254.85	1257.45
255.06	1288.17
255.28	1296.36
255.50	1298.41
255.71	1322.99
255.93	1267.69
256.15	1243.12
256.36	1279.98
256.58	1273.84
256.80	1255.40
257.02	1239.02
257.23	1232.88
257.45	1169.39
257.67	1214.45
257.88	1279.98
258.10	1255.40
258.32	1288.17
258.53	1277.93
258.75	1318.89
258.97	1314.80
259.18	1259.50
259.40	1218.54
259.62	1255.40
259.83	1261.55
260.05	1243.12
260.27	1314.80
260.48	1284.08
260.70	1212.40
260.92	1355.76
261.13	1255.40
261.35	1236.97
261.57	1310.70
261.78	1277.93
262.00	1226.73
262.22	1273.84
262.43	1265.64
262.65	1261.55
262.86	1232.88
263.08	1312.75
263.30	1214.45
263.51	1284.08
263.73	1273.84
263.95	1216.49
264.16	1308.65
264.38	1243.12
264.60	1294.32
264.81	1273.84
265.03	1257.45
265.25	1296.36
265.46	1275.88
265.68	1282.03
265.89	1265.64
266.11	1277.93
266.33	1314.80
266.54	1288.17
266.76	1212.40
266.98	1232.88
267.19	1253.36
267.41	1257.45
267.62	1341.42
267.84	1257.45
268.06	1312.75
268.27	1269.74
268.49	1376.24
268.70	1316.84
268.92	1335.28
269.14	1255.40
269.35	1269.74
269.57	1290.22
269.79	1228.78
270.00	1239.02
270.22	1214.45
270.43	1265.64
270.65	1255.40
270.87	1253.36
271.08	1255.40
271.30	1265.64
271.51	1263.60
271.73	1267.69
271.95	1282.03
272.16	1241.07
272.38	1228.78
272.59	1306.60
272.81	1284.08
273.02	1279.98
273.24	1257.45
273.46	1212.40
273.67	1224.69
273.89	1263.60
274.10	1271.79
274.32	1218.54
274.54	1269.74
274.75	1239.02
274.97	1196.01
275.18	1363.95
275.40	1241.07
275.61	1241.07
275.83	1267.69
276.05	1296.36
276.26	1318.89
276.48	1265.64
276.69	1261.55
276.91	1261.55
277.12	1165.29
277.34	1257.45
277.55	1273.84
277.77	1214.45
277.99	1282.03
278.20	1302.51
278.42	1292.27
278.63	1265.64
278.85	1251.31
279.06	1228.78
279.28	1230.83
279.49	1234.93
279.71	1322.99
279.93	1257.45
280.14	1228.78
280.36	1286.12
280.57	1284.08
280.79	1277.93
281.00	1212.40
281.22	1378.28
281.43	1243.12
281.65	1245.16
281.86	1239.02
282.08	1300.46
282.29	1243.12
282.51	1220.59
282.73	1298.41
282.94	1218.54
283.16	1253.36
283.37	1282.03
283.59	1257.45
283.80	1232.88
284.02	1257.45
284.23	1271.79
284.45	1261.55
284.66	1290.22
284.88	1222.64
285.09	1239.02
285.31	1300.46
285.52	1243.12
285.74	1224.69
285.95	1257.45
286.17	1243.12
286.38	1275.88
286.60	1243.12
286.81	1122.29
287.03	1314.80
287.24	1265.64
287.46	1282.03
287.67	1261.55
287.89	1314.80
288.10	1216.49
288.32	1271.79
288.53	1308.65
288.75	1253.36
288.96	1261.55
289.18	1314.80
289.39	1222.64
289.61	1181.68
289.82	1245.16
290.04	1292.27
290.25	1253.36
290.47	1269.74
290.68	1265.64
290.90	1290.22
291.11	1327.08
291.33	1306.60
291.54	1304.56
291.76	1198.06
291.97	1343.47
292.18	1261.55
292.40	1259.50
292.61	1247.21
292.83	1312.75
293.04	1322.99
293.26	1310.70
293.47	1257.45
293.69	1316.84
293.90	1294.32
294.12	1306.60
294.33	1308.65
294.55	1239.02
294.76	1263.60
294.97	1292.27
295.19	1269.74
295.40	1292.27
295.62	1261.55
295.83	1310.70
296.05	1198.06
296.26	1253.36
296.48	1316.84
296.69	1271.79
296.90	1269.74
297.12	1267.69
297.33	1282.03
297.55	1269.74
297.76	1302.51
297.98	1267.69
298.19	1232.88
298.41	1282.03
298.62	1265.64
298.83	1355.76
299.05	1236.97
299.26	1253.36
299.48	1333.23
299.69	1267.69
299.90	1249.26
300.12	1308.65
300.33	1271.79
300.55	1193.97
300.76	1234.93
300.98	1249.26
301.19	1312.75
301.40	1259.50
301.62	1247.21
301.83	1214.45
302.05	1296.36
302.26	1302.51
302.47	1296.36
302.69	1249.26
302.90	1298.41
303.12	1277.93
303.33	1333.23
303.54	1245.16
303.76	1216.49
303.97	1286.12
304.19	1308.65
304.40	1185.77
304.61	1261.55
304.83	1243.12
305.04	1286.12
305.26	1265.64
305.47	1208.30
305.68	1183.73
305.90	1312.75
306.11	1183.73
306.33	1372.14
306.54	1228.78
306.75	1318.89
306.97	1232.88
307.18	1230.83
307.39	1265.64
307.61	1247.21
307.82	1259.50
308.04	1226.73
308.25	1265.64
308.46	1257.45
308.68	1249.26
308.89	1357.80
309.10	1222.64
309.32	1232.88
309.53	1216.49
309.74	1167.34
309.96	1255.40
310.17	1230.83
310.39	1265.64
310.60	1271.79
310.81	1247.21
311.03	1284.08
311.24	1200.11
311.45	1200.11
311.67	1265.64
311.88	1292.27
312.09	1329.13
312.31	1249.26
312.52	1286.12
312.73	1216.49
312.95	1316.84
313.16	1255.40
313.37	1189.87
313.59	1255.40
313.80	1304.56
314.01	1257.45
314.23	1279.98
314.44	1269.74
314.65	1286.12
314.87	1296.36
315.08	1306.60
315.29	1263.60
315.51	1253.36
315.72	1167.34
315.93	1226.73
316.15	1271.79
316.36	1329.13
316.57	1282.03
316.79	1318.89
317.00	1241.07
317.21	1206.25
317.43	1234.93
317.64	1206.25
317.85	1220.59
318.07	1208.30
318.28	1273.84
318.49	1208.30
318.70	1339.37
318.92	1269.74
319.13	1308.65
319.34	1308.65
319.56	1200.11
319.77	1284.08
319.98	1265.64
320.20	1282.03
320.41	1310.70
320.62	1222.64
320.83	1275.88
321.05	1298.41
321.26	1275.88
321.47	1269.74
321.69	1239.02
321.90	1247.21
322.11	1273.84
322.32	1243.12
322.54	1318.89
322.75	1265.64
322.96	1232.88
323.18	1253.36
323.39	1286.12
323.60	1277.93
323.81	1241.07
324.03	1249.26
324.24	1314.80
324.45	1320.94
324.66	1263.60
324.88	1275.88
325.09	1222.64
325.30	1261.55
325.52	1322.99
325.73	1236.97
325.94	1257.45
326.15	1308.65
326.37	1214.45
326.58	1333.23
326.79	1245.16
327.00	1306.60
327.22	1294.32
327.43	1226.73
327.64	1331.18
327.85	1241.07
328.07	1269.74
328.28	1208.30
328.49	1343.47
328.70	1329.13
328.92	1290.22
329.13	1290.22
329.34	1204.21
329.55	1314.80
329.76	1335.28
329.98	1279.98
330.19	1267.69
330.40	1193.97
330.61	1226.73
330.83	1241.07
331.04	1320.94
331.25	1243.12
331.46	1249.26
331.68	1310.70
331.89	1257.45
332.10	1224.69
332.31	1216.49
332.52	1345.52
332.74	1253.36
332.95	1288.17
333.16	1183.73
333.37	1277.93
333.58	1230.83
333.80	1269.74
334.01	1329.13
334.22	1271.79
334.43	1255.40
334.64	1257.45
334.86	1247.21
335.07	1249.26
335.28	1300.46
335.49	1345.52
335.70	1161.20
335.92	1306.60
336.13	1298.41
336.34	1290.22
336.55	1288.17
336.76	1302.51
336.98	1263.60
337.19	1255.40
337.40	1314.80
337.61	1300.46
337.82	1228.78
338.04	1271.79
338.25	1298.41
338.46	1273.84
338.67	1304.56
338.88	1230.83
339.09	1216.49
339.31	1265.64
339.52	1200.11
339.73	1275.88
339.94	1322.99
340.15	1251.31
340.36	1327.08
340.58	1322.99
340.79	1279.98
341.00	1347.56
341.21	1232.88
341.42	1257.45
341.63	1273.84
341.85	1294.32
342.06	1277.93
342.27	1247.21
342.48	1273.84
342.69	1304.56
342.90	1232.88
343.12	1261.55
343.33	1265.64
343.54	1288.17
343.75	1263.60
343.96	1284.08
344.17	1257.45
344.38	1275.88
344.60	1220.59
344.81	1265.64
345.02	1306.60
345.23	1275.88
345.44	1312.75
345.65	1294.32
345.86	1239.02
346.07	1290.22
346.29	1279.98
346.50	1245.16
346.71	1243.12
346.92	1255.40
347.13	1267.69
347.34	1253.36
347.55	1265.64
347.76	1230.83
347.98	1263.60
348.19	1282.03
348.40	1284.08
348.61	1257.45
348.82	1216.49
349.03	1181.68
349.24	1296.36
349.45	1306.60
349.66	1314.80
349.88	1292.27
350.09	1286.12
350.30	1253.36
350.51	1294.32
350.72	1267.69
350.93	1263.60
351.14	1271.79
351.35	1263.60
351.56	1320.94
351.77	1247.21
351.99	1241.07
352.20	1282.03
352.41	1247.21
352.62	1259.50
352.83	1304.56
353.04	1339.37
353.25	1316.84
353.46	1216.49
353.67	1366.00
353.88	1253.36
354.09	1288.17
354.30	1202.16
354.52	1241.07
354.73	1284.08
354.94	1191.92
355.15	1329.13
355.36	1271.79
355.57	1288.17
355.78	1273.84
355.99	1302.51
356.20	1298.41
356.41	1253.36
356.62	1232.88
356.83	1245.16
357.04	1218.54
357.25	1316.84
357.46	1249.26
357.68	1271.79
357.89	1265.64
358.10	1349.61
358.31	1249.26
358.52	1269.74
358.73	1304.56
358.94	1288.17
359.15	1261.55
359.36	1271.79
359.57	1210.35
359.78	1353.71
359.99	1273.84
360.20	1265.64
360.41	1282.03
360.62	1257.45
360.83	1232.88
361.04	1277.93
361.25	1341.42
361.46	1308.65
361.67	1263.60
361.88	1277.93
362.09	1232.88
362.30	1212.40
362.51	1245.16
362.72	1261.55
362.93	1243.12
363.14	1239.02
363.35	1314.80
363.56	1294.32
363.78	1306.60
363.99	1206.25
364.20	1282.03
364.41	1273.84
364.62	1196.01
364.83	1251.31
365.04	1277.93
365.25	1216.49
365.46	1308.65
365.67	1241.07
365.88	1310.70
366.09	1298.41
366.30	1368.04
366.51	1263.60
366.72	1169.39
366.93	1267.69
367.14	1265.64
367.35	1300.46
367.56	1257.45
367.77	1312.75
367.98	1247.21
368.18	1234.93
368.39	1290.22
368.60	1218.54
368.81	1347.56
369.02	1259.50
369.23	1288.17
369.44	1245.16
369.65	1236.97
369.86	1241.07
370.07	1361.90
370.28	1290.22
370.49	1279.98
370.70	1255.40
370.91	1183.73
371.12	1370.09
371.33	1273.84
371.54	1255.40
371.75	1302.51
371.96	1247.21
372.17	1245.16
372.38	1275.88
372.59	1249.26
372.80	1314.80
373.01	1185.77
373.22	1284.08
373.43	1300.46
373.64	1290.22
373.85	1294.32
374.06	1284.08
374.26	1294.32
374.47	1292.27
374.68	1261.55
374.89	1271.79
375.10	1267.69
375.31	1241.07
375.52	1271.79
375.73	1290.22
375.94	1298.41
376.15	1312.75
376.36	1290.22
376.57	1277.93
376.78	1234.93
376.99	1193.97
377.20	1183.73
377.40	1284.08
377.61	1249.26
377.82	1310.70
378.03	1298.41
378.24	1296.36
378.45	1269.74
378.66	1275.88
378.87	1329.13
379.08	1308.65
379.29	1259.50
379.50	1277.93
379.71	1261.55
379.91	1249.26
380.12	1325.04
380.33	1267.69
380.54	1312.75
380.75	1265.64
380.96	1243.12
381.17	1322.99
381.38	1241.07
381.59	1241.07
381.80	1263.60
382.00	1277.93
382.21	1279.98
382.42	1212.40
382.63	1310.70
382.84	1259.50
383.05	1304.56
383.26	1249.26
383.47	1222.64
383.68	1263.60
383.88	1273.84
384.09	1292.27
384.30	1224.69
384.51	1232.88
384.72	1294.32
384.93	1206.25
385.14	1218.54
385.35	1204.21
385.55	1189.87
385.76	1232.88
385.97	1132.53
386.18	1351.66
386.39	1314.80
386.60	1239.02
386.81	1253.36
387.02	1314.80
387.22	1230.83
387.43	1200.11
387.64	1288.17
387.85	1273.84
388.06	1275.88
388.27	1241.07
388.48	1206.25
388.68	1286.12
388.89	1259.50
389.10	1239.02
389.31	1269.74
389.52	1277.93
389.73	1292.27
389.93	1255.40
390.14	1314.80
390.35	1273.84
390.56	1277.93
390.77	1314.80
390.98	1273.84
391.18	1243.12
391.39	1253.36
391.60	1245.16
391.81	1161.20
392.02	1292.27
392.23	1257.45
392.43	1261.55
392.64	1306.60
392.85	1191.92
393.06	1257.45
393.27	1269.74
393.47	1224.69
393.68	1361.90
393.89	1265.64
394.10	1267.69
394.31	1253.36
394.52	1329.13
394.72	1282.03
394.93	1273.84
395.14	1265.64
395.35	1302.51
395.56	1279.98
395.76	1218.54
395.97	1277.93
396.18	1257.45
396.39	1269.74
396.60	1282.03
396.80	1230.83
397.01	1277.93
397.22	1150.96
397.43	1286.12
397.64	1271.79
397.84	1341.42
398.05	1206.25
398.26	1273.84
398.47	1368.04
398.67	1288.17
398.88	1265.64
399.09	1236.97
399.30	1296.36
399.51	1294.32
399.71	1230.83
399.92	1245.16
400.13	1290.22
400.34	1204.21
400.54	1273.84
400.75	1294.32
400.96	1267.69
401.17	1208.30
401.37	1333.23
401.58	1255.40
401.79	1267.69
402.00	1296.36
402.21	1220.59
402.41	1214.45
402.62	1220.59
402.83	1259.50
403.04	1245.16
403.24	1290.22
403.45	1232.88
403.66	1259.50
403.87	1261.55
404.07	1265.64
404.28	1282.03
404.49	1320.94
404.70	1318.89
404.90	1257.45
405.11	1341.42
405.32	1257.45
405.52	1257.45
405.73	1210.35
405.94	1306.60
406.15	1255.40
406.35	1290.22
406.56	1359.85
406.77	1206.25
406.98	1290.22
407.18	1228.78
407.39	1189.87
407.60	1255.40
407.80	1210.35
408.01	1243.12
408.22	1204.21
408.43	1204.21
408.63	1241.07
408.84	1290.22
409.05	1363.95
409.25	1255.40
409.46	1298.41
409.67	1263.60
409.88	1269.74
410.08	1220.59
410.29	1232.88
410.50	1261.55
410.70	1329.13
410.91	1361.90
411.12	1236.97
411.32	1267.69
411.53	1200.11
411.74	1294.32
411.95	1185.77
412.15	1304.56
412.36	1234.93
412.57	1288.17
412.77	1290.22
412.98	1216.49
413.19	1267.69
413.39	1282.03
413.60	1210.35
413.81	1304.56
414.01	1296.36
414.22	1314.80
414.43	1212.40
414.63	1239.02
414.84	1236.97
415.05	1224.69
415.25	1236.97
415.46	1290.22
415.67	1249.26
415.87	1269.74
416.08	1304.56
416.29	1251.31
416.49	1273.84
416.70	1263.60
416.91	1271.79
417.11	1310.70
417.32	1251.31
417.53	1286.12
417.73	1312.75
417.94	1245.16
418.15	1320.94
418.35	1230.83
418.56	1169.39
418.77	1300.46
418.97	1269.74
419.18	1292.27
419.38	1261.55
419.59	1206.25
419.80	1302.51
420.00	1318.89
420.21	1271.79
420.42	1206.25
420.62	1308.65
420.83	1331.18
421.04	1290.22
421.24	1216.49
421.45	1241.07
421.65	1255.40
421.86	1167.34
422.07	1273.84
422.27	1316.84
422.48	1279.98
422.69	1232.88
422.89	1310.70
423.10	1294.32
423.30	1302.51
423.51	1310.70
423.72	1253.36
423.92	1271.79
424.13	1239.02
424.33	1220.59
424.54	1187.82
424.75	1228.78
424.95	1298.41
425.16	1230.83
425.36	1314.80
425.57	1271.79
425.78	1245.16
425.98	1327.08
426.19	1275.88
426.39	1245.16
426.60	1259.50
426.81	1263.60
427.01	1232.88
427.22	1249.26
427.42	1239.02
427.63	1288.17
427.83	1208.30
428.04	1216.49
428.25	1302.51
428.45	1302.51
428.66	1294.32
428.86	1296.36
429.07	1253.36
429.28	1282.03
429.48	1277.93
429.69	1259.50
429.89	1232.88
430.10	1312.75
430.30	1298.41
430.51	1257.45
430.71	1351.66
430.92	1230.83
431.13	1310.70
431.33	1257.45
431.54	1224.69
431.74	1310.70
431.95	1193.97
432.15	1234.93
432.36	1204.21
432.56	1243.12
432.77	1329.13
432.98	1374.19
433.18	1232.88
433.39	1257.45
433.59	1249.26
433.80	1257.45
434.00	1247.21
434.21	1191.92
434.41	1249.26
434.62	1308.65
434.82	1257.45
435.03	1239.02
435.23	1265.64
435.44	1302.51
435.64	1222.64
435.85	1189.87
436.06	1261.55
436.26	1277.93
436.47	1255.40
436.67	1279.98
436.88	1325.04
437.08	1282.03
437.29	1218.54
437.49	1298.41
437.70	1249.26
437.90	1253.36
438.11	1271.79
438.31	1259.50
438.52	1263.60
438.72	1296.36
438.93	1279.98
439.13	1296.36
439.34	1304.56
439.54	1251.31
439.75	1251.31
439.95	1284.08
440.16	1216.49
440.36	1306.60
440.57	1196.01
440.77	1234.93
440.98	1275.88
441.18	1259.50
441.39	1284.08
441.59	1273.84
441.80	1290.22
442.00	1253.36
442.21	1298.41
442.41	1322.99
442.62	1269.74
442.82	1267.69
443.02	1298.41
443.23	1269.74
443.43	1304.56
443.64	1234.93
443.84	1245.16
444.05	1327.08
444.25	1239.02
444.46	1279.98
444.66	1300.46
444.87	1333.23
445.07	1253.36
445.28	1265.64
445.48	1251.31
445.69	1300.46
445.89	1275.88
446.09	1263.60
446.30	1269.74
446.50	1310.70
446.71	1234.93
446.91	1222.64
447.12	1322.99
447.32	1271.79
447.53	1271.79
447.73	1275.88
447.93	1277.93
448.14	1288.17
448.34	1308.65
448.55	1265.64
448.75	1247.21
448.96	1208.30
449.16	1296.36
449.36	1329.13
449.57	1290.22
449.77	1318.89
449.98	1239.02
450.18	1255.40
450.39	1249.26
450.59	1308.65
450.79	1298.41
451.00	1273.84
451.20	1296.36
451.41	1243.12
451.61	1271.79
451.81	1239.02
452.02	1288.17
452.22	1255.40
452.43	1286.12
452.63	1226.73
