SpectraSuite Data File
++++++++++++++++++++++++++++++++++++
Date: Sun Apr 03 19:55:24 CEST 2016
User: root
Dark Spectrum Present: No
Reference Spectrum Present: No
Number of Sampled Component Spectra: 1
Spectrometers: USB4C02835
Integration Time (usec): 10000 (USB4C02835)
Spectra Averaged: 1 (USB4C02835)
Boxcar Smoothing: 0 (USB4C02835)
Correct for Electrical Dark: No (USB4C02835)
Strobe/Lamp Enabled: No (USB4C02835)
Correct for Detector Non-linearity: No (USB4C02835)
Correct for Stray Light: No (USB4C02835)
Number of Pixels in Processed Spectrum: 3648
>>>>>Begin Processed Spectral Data<<<<<
177.47	1226.73
177.69	1226.73
177.91	1226.73
178.13	1196.01
178.36	1345.52
178.58	1255.40
178.80	1286.12
179.02	1243.12
179.24	1273.84
179.46	1314.80
179.68	1247.21
179.90	1251.31
180.13	1288.17
180.35	1318.89
180.57	1232.88
180.79	1247.21
181.01	1275.88
181.23	1253.36
181.45	1298.41
181.67	1298.41
181.90	1290.22
182.12	1216.49
182.34	1306.60
182.56	1243.12
182.78	1298.41
183.00	1308.65
183.22	1310.70
183.44	1241.07
183.66	1292.27
183.89	1271.79
184.11	1249.26
184.33	1302.51
184.55	1329.13
184.77	1353.71
184.99	1304.56
185.21	1296.36
185.43	1296.36
185.65	1236.97
185.87	1247.21
186.10	1181.68
186.32	1298.41
186.54	1288.17
186.76	1308.65
186.98	1275.88
187.20	1239.02
187.42	1318.89
187.64	1253.36
187.86	1241.07
188.08	1183.73
188.30	1325.04
188.52	1292.27
188.75	1288.17
188.97	1284.08
189.19	1282.03
189.41	1310.70
189.63	1249.26
189.85	1335.28
190.07	1232.88
190.29	1247.21
190.51	1308.65
190.73	1165.29
190.95	1222.64
191.17	1329.13
191.39	1273.84
191.61	1361.90
191.84	1284.08
192.06	1226.73
192.28	1318.89
192.50	1245.16
192.72	1255.40
192.94	1282.03
193.16	1263.60
193.38	1292.27
193.60	1286.12
193.82	1239.02
194.04	1320.94
194.26	1216.49
194.48	1290.22
194.70	1232.88
194.92	1261.55
195.14	1271.79
195.36	1292.27
195.58	1259.50
195.80	1259.50
196.02	1271.79
196.24	1243.12
196.46	1378.28
196.69	1259.50
196.91	1282.03
197.13	1239.02
197.35	1249.26
197.57	1191.92
197.79	1288.17
198.01	1290.22
198.23	1255.40
198.45	1249.26
198.67	1310.70
198.89	1241.07
199.11	1298.41
199.33	1253.36
199.55	1310.70
199.77	1267.69
199.99	1273.84
200.21	1218.54
200.43	1267.69
200.65	1290.22
200.87	1322.99
201.09	1279.98
201.31	1345.52
201.53	1189.87
201.75	1300.46
201.97	1191.92
202.19	1296.36
202.41	1247.21
202.63	1279.98
202.85	1304.56
203.07	1230.83
203.29	1372.14
203.51	1308.65
203.73	1290.22
203.95	1322.99
204.17	1212.40
204.39	1253.36
204.61	1286.12
204.83	1200.11
205.05	1286.12
205.27	1273.84
205.49	1202.16
205.71	1259.50
205.93	1271.79
206.15	1312.75
206.37	1267.69
206.59	1277.93
206.81	1257.45
207.03	1259.50
207.25	1271.79
207.47	1345.52
207.69	1312.75
207.91	1267.69
208.13	1220.59
208.34	1265.64
208.56	1314.80
208.78	1310.70
209.00	1216.49
209.22	1263.60
209.44	1302.51
209.66	1263.60
209.88	1232.88
210.10	1267.69
210.32	1329.13
210.54	1218.54
210.76	1232.88
210.98	1288.17
211.20	1236.97
211.42	1265.64
211.64	1320.94
211.86	1253.36
212.08	1218.54
212.30	1247.21
212.52	1286.12
212.74	1363.95
212.96	1265.64
213.17	1269.74
213.39	1282.03
213.61	1286.12
213.83	1331.18
214.05	1282.03
214.27	1269.74
214.49	1292.27
214.71	1288.17
214.93	1329.13
215.15	1288.17
215.37	1206.25
215.59	1245.16
215.81	1228.78
216.03	1243.12
216.24	1273.84
216.46	1255.40
216.68	1181.68
216.90	1257.45
217.12	1282.03
217.34	1263.60
217.56	1288.17
217.78	1284.08
218.00	1220.59
218.22	1216.49
218.44	1288.17
218.66	1198.06
218.87	1245.16
219.09	1314.80
219.31	1239.02
219.53	1300.46
219.75	1208.30
219.97	1298.41
220.19	1331.18
220.41	1226.73
220.63	1306.60
220.85	1314.80
221.06	1282.03
221.28	1253.36
221.50	1314.80
221.72	1255.40
221.94	1193.97
222.16	1236.97
222.38	1216.49
222.60	1288.17
222.82	1322.99
223.03	1255.40
223.25	1302.51
223.47	1196.01
223.69	1245.16
223.91	1204.21
224.13	1288.17
224.35	1261.55
224.57	1257.45
224.78	1253.36
225.00	1255.40
225.22	1263.60
225.44	1271.79
225.66	1257.45
225.88	1243.12
226.10	1224.69
226.32	1253.36
226.53	1273.84
226.75	1345.52
226.97	1265.64
227.19	1288.17
227.41	1275.88
227.63	1302.51
227.85	1187.82
228.06	1228.78
228.28	1263.60
228.50	1320.94
228.72	1300.46
228.94	1298.41
229.16	1257.45
229.37	1298.41
229.59	1277.93
229.81	1224.69
230.03	1300.46
230.25	1329.13
230.47	1236.97
230.69	1204.21
230.90	1286.12
231.12	1279.98
231.34	1327.08
231.56	1290.22
231.78	1267.69
232.00	1261.55
232.21	1239.02
232.43	1331.18
232.65	1245.16
232.87	1259.50
233.09	1224.69
233.30	1320.94
233.52	1247.21
233.74	1298.41
233.96	1204.21
234.18	1277.93
234.40	1333.23
234.61	1312.75
234.83	1255.40
235.05	1175.53
235.27	1216.49
235.49	1226.73
235.70	1282.03
235.92	1247.21
236.14	1224.69
236.36	1271.79
236.58	1200.11
236.79	1261.55
237.01	1271.79
237.23	1314.80
237.45	1308.65
237.67	1269.74
237.88	1255.40
238.10	1314.80
238.32	1263.60
238.54	1275.88
238.76	1277.93
238.97	1224.69
239.19	1247.21
239.41	1310.70
239.63	1239.02
239.85	1263.60
240.06	1302.51
240.28	1218.54
240.50	1296.36
240.72	1208.30
240.93	1296.36
241.15	1320.94
241.37	1261.55
241.59	1202.16
241.81	1214.45
242.02	1310.70
242.24	1206.25
242.46	1320.94
242.68	1228.78
242.89	1288.17
243.11	1308.65
243.33	1292.27
243.55	1284.08
243.76	1320.94
243.98	1177.58
244.20	1318.89
244.42	1265.64
244.64	1277.93
244.85	1306.60
245.07	1265.64
245.29	1236.97
245.51	1261.55
245.72	1300.46
245.94	1322.99
246.16	1261.55
246.38	1312.75
246.59	1261.55
246.81	1325.04
247.03	1298.41
247.24	1247.21
247.46	1306.60
247.68	1259.50
247.90	1216.49
248.11	1286.12
248.33	1214.45
248.55	1275.88
248.77	1214.45
248.98	1232.88
249.20	1267.69
249.42	1286.12
249.64	1257.45
249.85	1247.21
250.07	1265.64
250.29	1185.77
250.50	1251.31
250.72	1226.73
250.94	1312.75
251.16	1286.12
251.37	1257.45
251.59	1222.64
251.81	1236.97
252.02	1236.97
252.24	1349.61
252.46	1255.40
252.68	1300.46
252.89	1208.30
253.11	1255.40
253.33	1302.51
253.54	1249.26
253.76	1277.93
253.98	1243.12
254.20	1353.71
254.41	1257.45
254.63	1257.45
254.85	1189.87
255.06	1302.51
255.28	1327.08
255.50	1218.54
255.71	1202.16
255.93	1265.64
256.15	1241.07
256.36	1234.93
256.58	1261.55
256.80	1382.38
257.02	1230.83
257.23	1306.60
257.45	1331.18
257.67	1277.93
257.88	1175.53
258.10	1331.18
258.32	1259.50
258.53	1298.41
258.75	1255.40
258.97	1314.80
259.18	1271.79
259.40	1234.93
259.62	1239.02
259.83	1187.82
260.05	1304.56
260.27	1206.25
260.48	1251.31
260.70	1312.75
260.92	1255.40
261.13	1314.80
261.35	1214.45
261.57	1202.16
261.78	1261.55
262.00	1320.94
262.22	1261.55
262.43	1300.46
262.65	1304.56
262.86	1306.60
263.08	1257.45
263.30	1306.60
263.51	1261.55
263.73	1292.27
263.95	1320.94
264.16	1239.02
264.38	1216.49
264.60	1241.07
264.81	1230.83
265.03	1263.60
265.25	1279.98
265.46	1257.45
265.68	1304.56
265.89	1245.16
266.11	1269.74
266.33	1265.64
266.54	1304.56
266.76	1263.60
266.98	1220.59
267.19	1308.65
267.41	1255.40
267.62	1302.51
267.84	1210.35
268.06	1282.03
268.27	1298.41
268.49	1206.25
268.70	1308.65
268.92	1273.84
269.14	1253.36
269.35	1308.65
269.57	1181.68
269.79	1296.36
270.00	1247.21
270.22	1294.32
270.43	1224.69
270.65	1187.82
270.87	1294.32
271.08	1292.27
271.30	1234.93
271.51	1325.04
271.73	1234.93
271.95	1247.21
272.16	1279.98
272.38	1257.45
272.59	1208.30
272.81	1216.49
273.02	1292.27
273.24	1306.60
273.46	1277.93
273.67	1298.41
273.89	1220.59
274.10	1282.03
274.32	1279.98
274.54	1208.30
274.75	1255.40
274.97	1214.45
275.18	1318.89
275.40	1277.93
275.61	1204.21
275.83	1204.21
276.05	1228.78
276.26	1337.32
276.48	1282.03
276.69	1282.03
276.91	1228.78
277.12	1339.37
277.34	1275.88
277.55	1220.59
277.77	1234.93
277.99	1247.21
278.20	1255.40
278.42	1288.17
278.63	1275.88
278.85	1241.07
279.06	1236.97
279.28	1263.60
279.49	1232.88
279.71	1253.36
279.93	1312.75
280.14	1257.45
280.36	1232.88
280.57	1325.04
280.79	1239.02
281.00	1273.84
281.22	1271.79
281.43	1269.74
281.65	1243.12
281.86	1222.64
282.08	1345.52
282.29	1286.12
282.51	1257.45
282.73	1294.32
282.94	1216.49
283.16	1220.59
283.37	1277.93
283.59	1247.21
283.80	1290.22
284.02	1173.49
284.23	1191.92
284.45	1269.74
284.66	1259.50
284.88	1245.16
285.09	1241.07
285.31	1265.64
285.52	1279.98
285.74	1257.45
285.95	1294.32
286.17	1214.45
286.38	1249.26
286.60	1288.17
286.81	1228.78
287.03	1275.88
287.24	1310.70
287.46	1245.16
287.67	1255.40
287.89	1308.65
288.10	1288.17
288.32	1265.64
288.53	1273.84
288.75	1277.93
288.96	1216.49
289.18	1341.42
289.39	1230.83
289.61	1253.36
289.82	1271.79
290.04	1282.03
290.25	1306.60
290.47	1241.07
290.68	1290.22
290.90	1312.75
291.11	1193.97
291.33	1361.90
291.54	1273.84
291.76	1193.97
291.97	1290.22
292.18	1265.64
292.40	1257.45
292.61	1239.02
292.83	1304.56
293.04	1339.37
293.26	1296.36
293.47	1347.56
293.69	1212.40
293.90	1279.98
294.12	1269.74
294.33	1251.31
294.55	1261.55
294.76	1339.37
294.97	1265.64
295.19	1318.89
295.40	1345.52
295.62	1300.46
295.83	1275.88
296.05	1216.49
296.26	1259.50
296.48	1259.50
296.69	1284.08
296.90	1259.50
297.12	1284.08
297.33	1286.12
297.55	1284.08
297.76	1316.84
297.98	1241.07
298.19	1204.21
298.41	1253.36
298.62	1320.94
298.83	1232.88
299.05	1316.84
299.26	1224.69
299.48	1279.98
299.69	1279.98
299.90	1337.32
300.12	1230.83
300.33	1267.69
300.55	1255.40
300.76	1245.16
300.98	1224.69
301.19	1294.32
301.40	1279.98
301.62	1322.99
301.83	1226.73
302.05	1331.18
302.26	1290.22
302.47	1306.60
302.69	1298.41
302.90	1277.93
303.12	1251.31
303.33	1353.71
303.54	1275.88
303.76	1292.27
303.97	1239.02
304.19	1261.55
304.40	1284.08
304.61	1257.45
304.83	1257.45
305.04	1282.03
305.26	1236.97
305.47	1273.84
305.68	1239.02
305.90	1282.03
306.11	1234.93
306.33	1298.41
306.54	1198.06
306.75	1320.94
306.97	1220.59
307.18	1331.18
307.39	1220.59
307.61	1261.55
307.82	1304.56
308.04	1275.88
308.25	1251.31
308.46	1282.03
308.68	1232.88
308.89	1292.27
309.10	1329.13
309.32	1251.31
309.53	1320.94
309.74	1282.03
309.96	1304.56
310.17	1175.53
310.39	1243.12
310.60	1263.60
310.81	1245.16
311.03	1247.21
311.24	1208.30
311.45	1273.84
311.67	1257.45
311.88	1263.60
312.09	1265.64
312.31	1251.31
312.52	1275.88
312.73	1290.22
312.95	1220.59
313.16	1249.26
313.37	1361.90
313.59	1345.52
313.80	1279.98
314.01	1284.08
314.23	1181.68
314.44	1271.79
314.65	1245.16
314.87	1247.21
315.08	1275.88
315.29	1257.45
315.51	1202.16
315.72	1228.78
315.93	1236.97
316.15	1310.70
316.36	1259.50
316.57	1292.27
316.79	1284.08
317.00	1253.36
317.21	1327.08
317.43	1241.07
317.64	1226.73
317.85	1243.12
318.07	1312.75
318.28	1298.41
318.49	1241.07
318.70	1247.21
318.92	1284.08
319.13	1212.40
319.34	1261.55
319.56	1200.11
319.77	1204.21
319.98	1234.93
320.20	1320.94
320.41	1282.03
320.62	1230.83
320.83	1308.65
321.05	1220.59
321.26	1232.88
321.47	1322.99
321.69	1265.64
321.90	1279.98
322.11	1294.32
322.32	1282.03
322.54	1251.31
322.75	1298.41
322.96	1314.80
323.18	1204.21
323.39	1261.55
323.60	1298.41
323.81	1239.02
324.03	1247.21
324.24	1259.50
324.45	1224.69
324.66	1271.79
324.88	1218.54
325.09	1275.88
325.30	1357.80
325.52	1331.18
325.73	1282.03
325.94	1239.02
326.15	1239.02
326.37	1271.79
326.58	1241.07
326.79	1294.32
327.00	1257.45
327.22	1279.98
327.43	1296.36
327.64	1267.69
327.85	1292.27
328.07	1185.77
328.28	1304.56
328.49	1327.08
328.70	1308.65
328.92	1239.02
329.13	1284.08
329.34	1196.01
329.55	1284.08
329.76	1212.40
329.98	1298.41
330.19	1271.79
330.40	1208.30
330.61	1245.16
330.83	1288.17
331.04	1279.98
331.25	1255.40
331.46	1325.04
331.68	1279.98
331.89	1306.60
332.10	1226.73
332.31	1249.26
332.52	1261.55
332.74	1288.17
332.95	1286.12
333.16	1275.88
333.37	1273.84
333.58	1230.83
333.80	1255.40
334.01	1257.45
334.22	1218.54
334.43	1347.56
334.64	1288.17
334.86	1288.17
335.07	1271.79
335.28	1224.69
335.49	1236.97
335.70	1259.50
335.92	1331.18
336.13	1255.40
336.34	1239.02
336.55	1345.52
336.76	1327.08
336.98	1241.07
337.19	1204.21
337.40	1394.67
337.61	1310.70
337.82	1218.54
338.04	1232.88
338.25	1257.45
338.46	1277.93
338.67	1214.45
338.88	1251.31
339.09	1241.07
339.31	1314.80
339.52	1279.98
339.73	1267.69
339.94	1298.41
340.15	1304.56
340.36	1243.12
340.58	1189.87
340.79	1271.79
341.00	1251.31
341.21	1279.98
341.42	1322.99
341.63	1269.74
341.85	1296.36
342.06	1259.50
342.27	1245.16
342.48	1335.28
342.69	1349.61
342.90	1247.21
343.12	1239.02
343.33	1325.04
343.54	1200.11
343.75	1298.41
343.96	1337.32
344.17	1243.12
344.38	1198.06
344.60	1251.31
344.81	1271.79
345.02	1249.26
345.23	1228.78
345.44	1310.70
345.65	1214.45
345.86	1269.74
346.07	1320.94
346.29	1282.03
346.50	1234.93
346.71	1300.46
346.92	1265.64
347.13	1191.92
347.34	1255.40
347.55	1314.80
347.76	1234.93
347.98	1263.60
348.19	1251.31
348.40	1245.16
348.61	1265.64
348.82	1220.59
349.03	1249.26
349.24	1255.40
349.45	1292.27
349.66	1241.07
349.88	1236.97
350.09	1312.75
350.30	1243.12
350.51	1286.12
350.72	1243.12
350.93	1271.79
351.14	1284.08
351.35	1298.41
351.56	1216.49
351.77	1142.77
351.99	1247.21
352.20	1292.27
352.41	1179.63
352.62	1368.04
352.83	1193.97
353.04	1322.99
353.25	1251.31
353.46	1257.45
353.67	1304.56
353.88	1288.17
354.09	1331.18
354.30	1302.51
354.52	1314.80
354.73	1257.45
354.94	1218.54
355.15	1265.64
355.36	1234.93
355.57	1214.45
355.78	1253.36
355.99	1284.08
356.20	1273.84
356.41	1220.59
356.62	1228.78
356.83	1216.49
357.04	1222.64
357.25	1249.26
357.46	1251.31
357.68	1286.12
357.89	1253.36
358.10	1255.40
358.31	1226.73
358.52	1251.31
358.73	1239.02
358.94	1288.17
359.15	1265.64
359.36	1255.40
359.57	1257.45
359.78	1257.45
359.99	1314.80
360.20	1279.98
360.41	1247.21
360.62	1296.36
360.83	1318.89
361.04	1273.84
361.25	1249.26
361.46	1312.75
361.67	1349.61
361.88	1288.17
362.09	1232.88
362.30	1329.13
362.51	1208.30
362.72	1335.28
362.93	1314.80
363.14	1271.79
363.35	1249.26
363.56	1234.93
363.78	1284.08
363.99	1316.84
364.20	1228.78
364.41	1234.93
364.62	1202.16
364.83	1286.12
365.04	1220.59
365.25	1271.79
365.46	1234.93
365.67	1308.65
365.88	1273.84
366.09	1251.31
366.30	1179.63
366.51	1247.21
366.72	1198.06
366.93	1214.45
367.14	1312.75
367.35	1320.94
367.56	1284.08
367.77	1284.08
367.98	1288.17
368.18	1249.26
368.39	1245.16
368.60	1279.98
368.81	1314.80
369.02	1249.26
369.23	1282.03
369.44	1253.36
369.65	1212.40
369.86	1288.17
370.07	1210.35
370.28	1300.46
370.49	1267.69
370.70	1263.60
370.91	1191.92
371.12	1314.80
371.33	1251.31
371.54	1249.26
371.75	1253.36
371.96	1249.26
372.17	1196.01
372.38	1318.89
372.59	1253.36
372.80	1314.80
373.01	1284.08
373.22	1282.03
373.43	1302.51
373.64	1312.75
373.85	1298.41
374.06	1257.45
374.26	1259.50
374.47	1269.74
374.68	1286.12
374.89	1284.08
375.10	1265.64
375.31	1249.26
375.52	1249.26
375.73	1331.18
375.94	1247.21
376.15	1277.93
376.36	1241.07
376.57	1273.84
376.78	1220.59
376.99	1253.36
377.20	1179.63
377.40	1265.64
377.61	1206.25
377.82	1222.64
378.03	1263.60
378.24	1343.47
378.45	1302.51
378.66	1234.93
378.87	1263.60
379.08	1204.21
379.29	1290.22
379.50	1345.52
379.71	1273.84
379.91	1279.98
380.12	1253.36
380.33	1261.55
380.54	1318.89
380.75	1269.74
380.96	1245.16
381.17	1320.94
381.38	1232.88
381.59	1298.41
381.80	1259.50
382.00	1216.49
382.21	1259.50
382.42	1243.12
382.63	1247.21
382.84	1265.64
383.05	1337.32
383.26	1261.55
383.47	1263.60
383.68	1193.97
383.88	1230.83
384.09	1296.36
384.30	1196.01
384.51	1241.07
384.72	1222.64
384.93	1239.02
385.14	1318.89
385.35	1314.80
385.55	1253.36
385.76	1310.70
385.97	1198.06
386.18	1286.12
386.39	1292.27
386.60	1269.74
386.81	1275.88
387.02	1279.98
387.22	1263.60
387.43	1282.03
387.64	1277.93
387.85	1269.74
388.06	1247.21
388.27	1318.89
388.48	1318.89
388.68	1282.03
388.89	1222.64
389.10	1243.12
389.31	1294.32
389.52	1204.21
389.73	1232.88
389.93	1314.80
390.14	1212.40
390.35	1236.97
390.56	1157.10
390.77	1284.08
390.98	1263.60
391.18	1322.99
391.39	1206.25
391.60	1165.29
391.81	1267.69
392.02	1245.16
392.23	1232.88
392.43	1314.80
392.64	1247.21
392.85	1249.26
393.06	1282.03
393.27	1263.60
393.47	1288.17
393.68	1251.31
393.89	1245.16
394.10	1259.50
394.31	1196.01
394.52	1302.51
394.72	1263.60
394.93	1261.55
395.14	1286.12
395.35	1228.78
395.56	1169.39
395.76	1284.08
395.97	1153.01
396.18	1267.69
396.39	1320.94
396.60	1288.17
396.80	1226.73
397.01	1187.82
397.22	1247.21
397.43	1282.03
397.64	1200.11
397.84	1376.24
398.05	1251.31
398.26	1282.03
398.47	1314.80
398.67	1296.36
398.88	1279.98
399.09	1294.32
399.30	1290.22
399.51	1251.31
399.71	1267.69
399.92	1243.12
400.13	1296.36
400.34	1251.31
400.54	1198.06
400.75	1257.45
400.96	1257.45
401.17	1257.45
401.37	1255.40
401.58	1277.93
401.79	1257.45
402.00	1271.79
402.21	1249.26
402.41	1302.51
402.62	1294.32
402.83	1257.45
403.04	1349.61
403.24	1298.41
403.45	1236.97
403.66	1183.73
403.87	1288.17
404.07	1220.59
404.28	1173.49
404.49	1206.25
404.70	1245.16
404.90	1296.36
405.11	1347.56
405.32	1286.12
405.52	1290.22
405.73	1245.16
405.94	1265.64
406.15	1255.40
406.35	1265.64
406.56	1290.22
406.77	1337.32
406.98	1245.16
407.18	1241.07
407.39	1288.17
407.60	1277.93
407.80	1232.88
408.01	1302.51
408.22	1298.41
408.43	1271.79
408.63	1316.84
408.84	1249.26
409.05	1249.26
409.25	1220.59
409.46	1284.08
409.67	1245.16
409.88	1284.08
410.08	1341.42
410.29	1308.65
410.50	1304.56
410.70	1286.12
410.91	1316.84
411.12	1245.16
411.32	1241.07
411.53	1243.12
411.74	1243.12
411.95	1253.36
412.15	1206.25
412.36	1290.22
412.57	1271.79
412.77	1337.32
412.98	1282.03
413.19	1331.18
413.39	1257.45
413.60	1212.40
413.81	1271.79
414.01	1259.50
414.22	1320.94
414.43	1226.73
414.63	1241.07
414.84	1292.27
415.05	1296.36
415.25	1300.46
415.46	1220.59
415.67	1306.60
415.87	1234.93
416.08	1327.08
416.29	1249.26
416.49	1263.60
416.70	1353.71
416.91	1337.32
417.11	1214.45
417.32	1279.98
417.53	1337.32
417.73	1310.70
417.94	1245.16
418.15	1265.64
418.35	1312.75
418.56	1343.47
418.77	1296.36
418.97	1251.31
419.18	1263.60
419.38	1294.32
419.59	1316.84
419.80	1329.13
420.00	1241.07
420.21	1282.03
420.42	1275.88
420.62	1265.64
420.83	1230.83
421.04	1306.60
421.24	1288.17
421.45	1259.50
421.65	1298.41
421.86	1263.60
422.07	1249.26
422.27	1263.60
422.48	1236.97
422.69	1288.17
422.89	1263.60
423.10	1257.45
423.30	1255.40
423.51	1294.32
423.72	1210.35
423.92	1228.78
424.13	1259.50
424.33	1277.93
424.54	1327.08
424.75	1253.36
424.95	1343.47
425.16	1271.79
425.36	1218.54
425.57	1267.69
425.78	1304.56
425.98	1300.46
426.19	1288.17
426.39	1253.36
426.60	1263.60
426.81	1243.12
427.01	1214.45
427.22	1322.99
427.42	1206.25
427.63	1267.69
427.83	1220.59
428.04	1300.46
428.25	1282.03
428.45	1251.31
428.66	1312.75
428.86	1257.45
429.07	1298.41
429.28	1200.11
429.48	1308.65
429.69	1263.60
429.89	1277.93
430.10	1261.55
430.30	1304.56
430.51	1249.26
430.71	1232.88
430.92	1312.75
431.13	1327.08
431.33	1290.22
431.54	1279.98
431.74	1255.40
431.95	1265.64
432.15	1290.22
432.36	1353.71
432.56	1353.71
432.77	1296.36
432.98	1382.38
433.18	1279.98
433.39	1277.93
433.59	1255.40
433.80	1261.55
434.00	1296.36
434.21	1271.79
434.41	1306.60
434.62	1191.92
434.82	1196.01
435.03	1279.98
435.23	1296.36
435.44	1263.60
435.64	1363.95
435.85	1257.45
436.06	1288.17
436.26	1288.17
436.47	1241.07
436.67	1269.74
436.88	1277.93
437.08	1279.98
437.29	1245.16
437.49	1294.32
437.70	1290.22
437.90	1269.74
438.11	1253.36
438.31	1253.36
438.52	1275.88
438.72	1286.12
438.93	1259.50
439.13	1218.54
439.34	1310.70
439.54	1296.36
439.75	1228.78
439.95	1249.26
440.16	1261.55
440.36	1267.69
440.57	1271.79
440.77	1251.31
440.98	1302.51
441.18	1282.03
441.39	1167.34
441.59	1282.03
441.80	1275.88
442.00	1245.16
442.21	1271.79
442.41	1253.36
442.62	1282.03
442.82	1304.56
443.02	1265.64
443.23	1267.69
443.43	1241.07
443.64	1300.46
443.84	1208.30
444.05	1236.97
444.25	1241.07
444.46	1273.84
444.66	1243.12
444.87	1257.45
445.07	1257.45
445.28	1245.16
445.48	1300.46
445.69	1333.23
445.89	1284.08
446.09	1320.94
446.30	1232.88
446.50	1265.64
446.71	1343.47
446.91	1247.21
447.12	1308.65
447.32	1247.21
447.53	1314.80
447.73	1263.60
447.93	1267.69
448.14	1239.02
448.34	1374.19
448.55	1275.88
448.75	1284.08
448.96	1374.19
449.16	1294.32
449.36	1263.60
449.57	1247.21
449.77	1214.45
449.98	1261.55
450.18	1314.80
450.39	1337.32
450.59	1322.99
450.79	1282.03
451.00	1320.94
451.20	1329.13
451.41	1282.03
451.61	1251.31
451.81	1294.32
452.02	1298.41
452.22	1290.22
452.43	1335.28
452.63	1282.03
