SpectraSuite Data File
++++++++++++++++++++++++++++++++++++
Date: Sun Apr 03 19:55:49 CEST 2016
User: root
Dark Spectrum Present: No
Reference Spectrum Present: No
Number of Sampled Component Spectra: 1
Spectrometers: USB4C02835
Integration Time (usec): 10000 (USB4C02835)
Spectra Averaged: 1 (USB4C02835)
Boxcar Smoothing: 0 (USB4C02835)
Correct for Electrical Dark: No (USB4C02835)
Strobe/Lamp Enabled: No (USB4C02835)
Correct for Detector Non-linearity: No (USB4C02835)
Correct for Stray Light: No (USB4C02835)
Number of Pixels in Processed Spectrum: 3648
>>>>>Begin Processed Spectral Data<<<<<
177.47	1277.93
177.69	1277.93
177.91	1277.93
178.13	1212.40
178.36	1230.83
178.58	1304.56
178.80	1322.99
179.02	1282.03
179.24	1271.79
179.46	1257.45
179.68	1318.89
179.90	1206.25
180.13	1263.60
180.35	1288.17
180.57	1273.84
180.79	1271.79
181.01	1296.36
181.23	1183.73
181.45	1273.84
181.67	1191.92
181.90	1286.12
182.12	1167.34
182.34	1263.60
182.56	1310.70
182.78	1253.36
183.00	1294.32
183.22	1257.45
183.44	1273.84
183.66	1265.64
183.89	1265.64
184.11	1279.98
184.33	1353.71
184.55	1202.16
184.77	1247.21
184.99	1329.13
185.21	1236.97
185.43	1249.26
185.65	1224.69
185.87	1271.79
186.10	1265.64
186.32	1288.17
186.54	1261.55
186.76	1322.99
186.98	1286.12
187.20	1249.26
187.42	1218.54
187.64	1228.78
187.86	1220.59
188.08	1320.94
188.30	1232.88
188.52	1265.64
188.75	1273.84
188.97	1279.98
189.19	1206.25
189.41	1314.80
189.63	1310.70
189.85	1318.89
190.07	1255.40
190.29	1232.88
190.51	1236.97
190.73	1247.21
190.95	1273.84
191.17	1200.11
191.39	1243.12
191.61	1263.60
191.84	1257.45
192.06	1300.46
192.28	1290.22
192.50	1181.68
192.72	1177.58
192.94	1355.76
193.16	1263.60
193.38	1267.69
193.60	1216.49
193.82	1230.83
194.04	1255.40
194.26	1236.97
194.48	1267.69
194.70	1171.44
194.92	1273.84
195.14	1296.36
195.36	1325.04
195.58	1239.02
195.80	1316.84
196.02	1243.12
196.24	1259.50
196.46	1259.50
196.69	1247.21
196.91	1265.64
197.13	1243.12
197.35	1273.84
197.57	1273.84
197.79	1296.36
198.01	1239.02
198.23	1331.18
198.45	1265.64
198.67	1255.40
198.89	1271.79
199.11	1279.98
199.33	1263.60
199.55	1234.93
199.77	1265.64
199.99	1294.32
200.21	1277.93
200.43	1286.12
200.65	1247.21
200.87	1253.36
201.09	1232.88
201.31	1282.03
201.53	1347.56
201.75	1255.40
201.97	1251.31
202.19	1333.23
202.41	1228.78
202.63	1292.27
202.85	1175.53
203.07	1284.08
203.29	1277.93
203.51	1189.87
203.73	1230.83
203.95	1277.93
204.17	1282.03
204.39	1202.16
204.61	1310.70
204.83	1322.99
205.05	1300.46
205.27	1277.93
205.49	1265.64
205.71	1288.17
205.93	1236.97
206.15	1345.52
206.37	1257.45
206.59	1255.40
206.81	1279.98
207.03	1226.73
207.25	1286.12
207.47	1286.12
207.69	1253.36
207.91	1263.60
208.13	1380.33
208.34	1241.07
208.56	1271.79
208.78	1308.65
209.00	1265.64
209.22	1255.40
209.44	1269.74
209.66	1329.13
209.88	1236.97
210.10	1253.36
210.32	1253.36
210.54	1316.84
210.76	1296.36
210.98	1355.76
211.20	1279.98
211.42	1202.16
211.64	1273.84
211.86	1226.73
212.08	1216.49
212.30	1306.60
212.52	1322.99
212.74	1220.59
212.96	1277.93
213.17	1306.60
213.39	1284.08
213.61	1202.16
213.83	1224.69
214.05	1251.31
214.27	1294.32
214.49	1236.97
214.71	1294.32
214.93	1347.56
215.15	1224.69
215.37	1257.45
215.59	1247.21
215.81	1251.31
216.03	1312.75
216.24	1239.02
216.46	1302.51
216.68	1265.64
216.90	1255.40
217.12	1308.65
217.34	1310.70
217.56	1265.64
217.78	1261.55
218.00	1261.55
218.22	1331.18
218.44	1343.47
218.66	1265.64
218.87	1325.04
219.09	1142.77
219.31	1265.64
219.53	1298.41
219.75	1181.68
219.97	1259.50
220.19	1239.02
220.41	1310.70
220.63	1212.40
220.85	1261.55
221.06	1241.07
221.28	1210.35
221.50	1286.12
221.72	1212.40
221.94	1224.69
222.16	1165.29
222.38	1236.97
222.60	1298.41
222.82	1314.80
223.03	1232.88
223.25	1312.75
223.47	1253.36
223.69	1290.22
223.91	1267.69
224.13	1232.88
224.35	1259.50
224.57	1265.64
224.78	1189.87
225.00	1259.50
225.22	1282.03
225.44	1279.98
225.66	1316.84
225.88	1255.40
226.10	1257.45
226.32	1279.98
226.53	1226.73
226.75	1247.21
226.97	1275.88
227.19	1251.31
227.41	1265.64
227.63	1122.29
227.85	1239.02
228.06	1279.98
228.28	1300.46
228.50	1181.68
228.72	1277.93
228.94	1298.41
229.16	1259.50
229.37	1251.31
229.59	1239.02
229.81	1277.93
230.03	1232.88
230.25	1271.79
230.47	1275.88
230.69	1286.12
230.90	1310.70
231.12	1265.64
231.34	1277.93
231.56	1263.60
231.78	1208.30
232.00	1275.88
232.21	1239.02
232.43	1236.97
232.65	1294.32
232.87	1265.64
233.09	1241.07
233.30	1314.80
233.52	1230.83
233.74	1331.18
233.96	1306.60
234.18	1288.17
234.40	1277.93
234.61	1273.84
234.83	1259.50
235.05	1261.55
235.27	1220.59
235.49	1277.93
235.70	1230.83
235.92	1271.79
236.14	1204.21
236.36	1310.70
236.58	1300.46
236.79	1251.31
237.01	1335.28
237.23	1294.32
237.45	1273.84
237.67	1249.26
237.88	1255.40
238.10	1239.02
238.32	1312.75
238.54	1333.23
238.76	1239.02
238.97	1247.21
239.19	1265.64
239.41	1320.94
239.63	1239.02
239.85	1153.01
240.06	1263.60
240.28	1232.88
240.50	1267.69
240.72	1247.21
240.93	1247.21
241.15	1288.17
241.37	1257.45
241.59	1310.70
241.81	1263.60
242.02	1290.22
242.24	1279.98
242.46	1275.88
242.68	1273.84
242.89	1247.21
243.11	1318.89
243.33	1265.64
243.55	1282.03
243.76	1284.08
243.98	1165.29
244.20	1282.03
244.42	1267.69
244.64	1290.22
244.85	1196.01
245.07	1198.06
245.29	1222.64
245.51	1279.98
245.72	1325.04
245.94	1263.60
246.16	1282.03
246.38	1290.22
246.59	1308.65
246.81	1200.11
247.03	1286.12
247.24	1300.46
247.46	1308.65
247.68	1331.18
247.90	1337.32
248.11	1279.98
248.33	1220.59
248.55	1255.40
248.77	1202.16
248.98	1277.93
249.20	1312.75
249.42	1269.74
249.64	1308.65
249.85	1290.22
250.07	1249.26
250.29	1230.83
250.50	1318.89
250.72	1279.98
250.94	1329.13
251.16	1245.16
251.37	1290.22
251.59	1282.03
251.81	1222.64
252.02	1183.73
252.24	1249.26
252.46	1314.80
252.68	1177.58
252.89	1193.97
253.11	1210.35
253.33	1282.03
253.54	1212.40
253.76	1331.18
253.98	1343.47
254.20	1316.84
254.41	1284.08
254.63	1288.17
254.85	1234.93
255.06	1224.69
255.28	1306.60
255.50	1224.69
255.71	1288.17
255.93	1290.22
256.15	1273.84
256.36	1208.30
256.58	1224.69
256.80	1249.26
257.02	1306.60
257.23	1282.03
257.45	1325.04
257.67	1234.93
257.88	1249.26
258.10	1288.17
258.32	1232.88
258.53	1230.83
258.75	1216.49
258.97	1314.80
259.18	1253.36
259.40	1265.64
259.62	1290.22
259.83	1277.93
260.05	1304.56
260.27	1279.98
260.48	1255.40
260.70	1230.83
260.92	1232.88
261.13	1273.84
261.35	1300.46
261.57	1288.17
261.78	1273.84
262.00	1208.30
262.22	1304.56
262.43	1261.55
262.65	1243.12
262.86	1198.06
263.08	1245.16
263.30	1218.54
263.51	1345.52
263.73	1322.99
263.95	1298.41
264.16	1173.49
264.38	1304.56
264.60	1341.42
264.81	1341.42
265.03	1277.93
265.25	1222.64
265.46	1267.69
265.68	1247.21
265.89	1300.46
266.11	1341.42
266.33	1298.41
266.54	1331.18
266.76	1253.36
266.98	1300.46
267.19	1249.26
267.41	1224.69
267.62	1263.60
267.84	1179.63
268.06	1378.28
268.27	1277.93
268.49	1300.46
268.70	1232.88
268.92	1296.36
269.14	1302.51
269.35	1253.36
269.57	1282.03
269.79	1228.78
270.00	1226.73
270.22	1234.93
270.43	1232.88
270.65	1320.94
270.87	1249.26
271.08	1243.12
271.30	1234.93
271.51	1273.84
271.73	1234.93
271.95	1265.64
272.16	1318.89
272.38	1282.03
272.59	1259.50
272.81	1198.06
273.02	1224.69
273.24	1253.36
273.46	1220.59
273.67	1193.97
273.89	1232.88
274.10	1296.36
274.32	1347.56
274.54	1255.40
274.75	1236.97
274.97	1230.83
275.18	1273.84
275.40	1253.36
275.61	1230.83
275.83	1259.50
276.05	1245.16
276.26	1216.49
276.48	1282.03
276.69	1282.03
276.91	1279.98
277.12	1263.60
277.34	1290.22
277.55	1271.79
277.77	1298.41
277.99	1261.55
278.20	1234.93
278.42	1273.84
278.63	1277.93
278.85	1269.74
279.06	1239.02
279.28	1243.12
279.49	1257.45
279.71	1306.60
279.93	1228.78
280.14	1265.64
280.36	1298.41
280.57	1181.68
280.79	1290.22
281.00	1191.92
281.22	1300.46
281.43	1322.99
281.65	1212.40
281.86	1298.41
282.08	1249.26
282.29	1263.60
282.51	1271.79
282.73	1279.98
282.94	1204.21
283.16	1253.36
283.37	1296.36
283.59	1306.60
283.80	1290.22
284.02	1290.22
284.23	1208.30
284.45	1247.21
284.66	1259.50
284.88	1339.37
285.09	1249.26
285.31	1245.16
285.52	1241.07
285.74	1318.89
285.95	1298.41
286.17	1282.03
286.38	1282.03
286.60	1239.02
286.81	1204.21
287.03	1298.41
287.24	1243.12
287.46	1284.08
287.67	1308.65
287.89	1269.74
288.10	1314.80
288.32	1218.54
288.53	1290.22
288.75	1218.54
288.96	1153.01
289.18	1228.78
289.39	1327.08
289.61	1253.36
289.82	1236.97
290.04	1335.28
290.25	1320.94
290.47	1320.94
290.68	1245.16
290.90	1257.45
291.11	1243.12
291.33	1327.08
291.54	1259.50
291.76	1275.88
291.97	1279.98
292.18	1230.83
292.40	1218.54
292.61	1290.22
292.83	1222.64
293.04	1173.49
293.26	1361.90
293.47	1290.22
293.69	1245.16
293.90	1277.93
294.12	1363.95
294.33	1376.24
294.55	1279.98
294.76	1271.79
294.97	1284.08
295.19	1253.36
295.40	1255.40
295.62	1247.21
295.83	1269.74
296.05	1259.50
296.26	1284.08
296.48	1259.50
296.69	1314.80
296.90	1253.36
297.12	1343.47
297.33	1265.64
297.55	1259.50
297.76	1269.74
297.98	1259.50
298.19	1292.27
298.41	1249.26
298.62	1257.45
298.83	1255.40
299.05	1267.69
299.26	1273.84
299.48	1259.50
299.69	1196.01
299.90	1259.50
300.12	1302.51
300.33	1271.79
300.55	1279.98
300.76	1222.64
300.98	1239.02
301.19	1282.03
301.40	1191.92
301.62	1206.25
301.83	1243.12
302.05	1279.98
302.26	1316.84
302.47	1304.56
302.69	1222.64
302.90	1329.13
303.12	1286.12
303.33	1290.22
303.54	1251.31
303.76	1200.11
303.97	1359.85
304.19	1204.21
304.40	1288.17
304.61	1216.49
304.83	1333.23
305.04	1224.69
305.26	1282.03
305.47	1269.74
305.68	1183.73
305.90	1255.40
306.11	1265.64
306.33	1255.40
306.54	1275.88
306.75	1275.88
306.97	1243.12
307.18	1214.45
307.39	1273.84
307.61	1259.50
307.82	1257.45
308.04	1245.16
308.25	1216.49
308.46	1247.21
308.68	1273.84
308.89	1288.17
309.10	1282.03
309.32	1282.03
309.53	1282.03
309.74	1294.32
309.96	1288.17
310.17	1273.84
310.39	1226.73
310.60	1261.55
310.81	1298.41
311.03	1282.03
311.24	1296.36
311.45	1279.98
311.67	1271.79
311.88	1253.36
312.09	1263.60
312.31	1286.12
312.52	1282.03
312.73	1148.91
312.95	1294.32
313.16	1279.98
313.37	1292.27
313.59	1282.03
313.80	1273.84
314.01	1255.40
314.23	1251.31
314.44	1236.97
314.65	1218.54
314.87	1241.07
315.08	1261.55
315.29	1220.59
315.51	1337.32
315.72	1239.02
315.93	1318.89
316.15	1314.80
316.36	1310.70
316.57	1214.45
316.79	1206.25
317.00	1220.59
317.21	1296.36
317.43	1249.26
317.64	1255.40
317.85	1320.94
318.07	1232.88
318.28	1265.64
318.49	1239.02
318.70	1245.16
318.92	1245.16
319.13	1243.12
319.34	1316.84
319.56	1304.56
319.77	1210.35
319.98	1241.07
320.20	1210.35
320.41	1286.12
320.62	1359.85
320.83	1277.93
321.05	1343.47
321.26	1257.45
321.47	1302.51
321.69	1212.40
321.90	1214.45
322.11	1259.50
322.32	1288.17
322.54	1232.88
322.75	1232.88
322.96	1361.90
323.18	1247.21
323.39	1245.16
323.60	1282.03
323.81	1232.88
324.03	1210.35
324.24	1245.16
324.45	1302.51
324.66	1306.60
324.88	1320.94
325.09	1193.97
325.30	1345.52
325.52	1239.02
325.73	1212.40
325.94	1249.26
326.15	1220.59
326.37	1196.01
326.58	1265.64
326.79	1239.02
327.00	1286.12
327.22	1314.80
327.43	1230.83
327.64	1263.60
327.85	1320.94
328.07	1247.21
328.28	1218.54
328.49	1304.56
328.70	1286.12
328.92	1329.13
329.13	1259.50
329.34	1183.73
329.55	1294.32
329.76	1335.28
329.98	1228.78
330.19	1243.12
330.40	1263.60
330.61	1269.74
330.83	1236.97
331.04	1273.84
331.25	1265.64
331.46	1304.56
331.68	1304.56
331.89	1253.36
332.10	1298.41
332.31	1241.07
332.52	1239.02
332.74	1277.93
332.95	1218.54
333.16	1277.93
333.37	1294.32
333.58	1290.22
333.80	1220.59
334.01	1247.21
334.22	1310.70
334.43	1269.74
334.64	1310.70
334.86	1208.30
335.07	1341.42
335.28	1279.98
335.49	1239.02
335.70	1241.07
335.92	1239.02
336.13	1337.32
336.34	1300.46
336.55	1282.03
336.76	1255.40
336.98	1329.13
337.19	1218.54
337.40	1322.99
337.61	1261.55
337.82	1232.88
338.04	1329.13
338.25	1306.60
338.46	1216.49
338.67	1249.26
338.88	1263.60
339.09	1261.55
339.31	1294.32
339.52	1198.06
339.73	1222.64
339.94	1294.32
340.15	1228.78
340.36	1288.17
340.58	1236.97
340.79	1251.31
341.00	1308.65
341.21	1220.59
341.42	1216.49
341.63	1196.01
341.85	1257.45
342.06	1263.60
342.27	1263.60
342.48	1273.84
342.69	1247.21
342.90	1294.32
343.12	1351.66
343.33	1302.51
343.54	1273.84
343.75	1230.83
343.96	1228.78
344.17	1298.41
344.38	1277.93
344.60	1318.89
344.81	1329.13
345.02	1339.37
345.23	1282.03
345.44	1257.45
345.65	1306.60
345.86	1232.88
346.07	1265.64
346.29	1251.31
346.50	1243.12
346.71	1249.26
346.92	1341.42
347.13	1228.78
347.34	1288.17
347.55	1316.84
347.76	1181.68
347.98	1267.69
348.19	1251.31
348.40	1247.21
348.61	1239.02
348.82	1241.07
349.03	1310.70
349.24	1241.07
349.45	1263.60
349.66	1206.25
349.88	1286.12
350.09	1343.47
350.30	1275.88
350.51	1245.16
350.72	1298.41
350.93	1257.45
351.14	1163.25
351.35	1329.13
351.56	1316.84
351.77	1216.49
351.99	1265.64
352.20	1257.45
352.41	1290.22
352.62	1196.01
352.83	1236.97
353.04	1255.40
353.25	1298.41
353.46	1325.04
353.67	1271.79
353.88	1239.02
354.09	1245.16
354.30	1277.93
354.52	1269.74
354.73	1337.32
354.94	1239.02
355.15	1230.83
355.36	1282.03
355.57	1288.17
355.78	1230.83
355.99	1183.73
356.20	1320.94
356.41	1314.80
356.62	1241.07
356.83	1349.61
357.04	1265.64
357.25	1277.93
357.46	1206.25
357.68	1216.49
357.89	1224.69
358.10	1298.41
358.31	1259.50
358.52	1292.27
358.73	1255.40
358.94	1257.45
359.15	1228.78
359.36	1298.41
359.57	1314.80
359.78	1239.02
359.99	1269.74
360.20	1265.64
360.41	1314.80
360.62	1257.45
360.83	1226.73
361.04	1247.21
361.25	1277.93
361.46	1241.07
361.67	1279.98
361.88	1204.21
362.09	1263.60
362.30	1282.03
362.51	1253.36
362.72	1208.30
362.93	1271.79
363.14	1259.50
363.35	1271.79
363.56	1247.21
363.78	1198.06
363.99	1310.70
364.20	1239.02
364.41	1306.60
364.62	1241.07
364.83	1255.40
365.04	1181.68
365.25	1247.21
365.46	1251.31
365.67	1343.47
365.88	1259.50
366.09	1249.26
366.30	1269.74
366.51	1265.64
366.72	1327.08
366.93	1343.47
367.14	1337.32
367.35	1230.83
367.56	1306.60
367.77	1310.70
367.98	1210.35
368.18	1286.12
368.39	1259.50
368.60	1269.74
368.81	1296.36
369.02	1261.55
369.23	1292.27
369.44	1308.65
369.65	1322.99
369.86	1200.11
370.07	1241.07
370.28	1239.02
370.49	1189.87
370.70	1273.84
370.91	1259.50
371.12	1292.27
371.33	1327.08
371.54	1255.40
371.75	1296.36
371.96	1230.83
372.17	1271.79
372.38	1255.40
372.59	1173.49
372.80	1259.50
373.01	1294.32
373.22	1226.73
373.43	1265.64
373.64	1273.84
373.85	1206.25
374.06	1226.73
374.26	1177.58
374.47	1286.12
374.68	1230.83
374.89	1239.02
375.10	1257.45
375.31	1314.80
375.52	1296.36
375.73	1296.36
375.94	1298.41
376.15	1284.08
376.36	1236.97
376.57	1290.22
376.78	1314.80
376.99	1245.16
377.20	1273.84
377.40	1296.36
377.61	1294.32
377.82	1271.79
378.03	1288.17
378.24	1290.22
378.45	1363.95
378.66	1269.74
378.87	1284.08
379.08	1222.64
379.29	1310.70
379.50	1267.69
379.71	1351.66
379.91	1222.64
380.12	1208.30
380.33	1251.31
380.54	1226.73
380.75	1251.31
380.96	1243.12
381.17	1343.47
381.38	1226.73
381.59	1259.50
381.80	1322.99
382.00	1296.36
382.21	1214.45
382.42	1253.36
382.63	1212.40
382.84	1218.54
383.05	1296.36
383.26	1259.50
383.47	1224.69
383.68	1249.26
383.88	1269.74
384.09	1236.97
384.30	1376.24
384.51	1304.56
384.72	1310.70
384.93	1279.98
385.14	1265.64
385.35	1267.69
385.55	1269.74
385.76	1314.80
385.97	1296.36
386.18	1253.36
386.39	1269.74
386.60	1200.11
386.81	1257.45
387.02	1216.49
387.22	1247.21
387.43	1271.79
387.64	1220.59
387.85	1232.88
388.06	1308.65
388.27	1284.08
388.48	1292.27
388.68	1279.98
388.89	1232.88
389.10	1279.98
389.31	1241.07
389.52	1218.54
389.73	1216.49
389.93	1220.59
390.14	1376.24
390.35	1247.21
390.56	1316.84
390.77	1255.40
390.98	1288.17
391.18	1212.40
391.39	1249.26
391.60	1271.79
391.81	1214.45
392.02	1353.71
392.23	1206.25
392.43	1253.36
392.64	1275.88
392.85	1298.41
393.06	1187.82
393.27	1214.45
393.47	1265.64
393.68	1253.36
393.89	1218.54
394.10	1308.65
394.31	1249.26
394.52	1239.02
394.72	1214.45
394.93	1314.80
395.14	1267.69
395.35	1320.94
395.56	1290.22
395.76	1245.16
395.97	1247.21
396.18	1236.97
396.39	1279.98
396.60	1282.03
396.80	1310.70
397.01	1271.79
397.22	1275.88
397.43	1275.88
397.64	1210.35
397.84	1304.56
398.05	1337.32
398.26	1275.88
398.47	1239.02
398.67	1269.74
398.88	1322.99
399.09	1267.69
399.30	1255.40
399.51	1376.24
399.71	1284.08
399.92	1329.13
400.13	1222.64
400.34	1296.36
400.54	1265.64
400.75	1241.07
400.96	1251.31
401.17	1175.53
401.37	1263.60
401.58	1308.65
401.79	1206.25
402.00	1284.08
402.21	1257.45
402.41	1263.60
402.62	1232.88
402.83	1300.46
403.04	1273.84
403.24	1239.02
403.45	1255.40
403.66	1331.18
403.87	1316.84
404.07	1261.55
404.28	1204.21
404.49	1320.94
404.70	1265.64
404.90	1196.01
405.11	1298.41
405.32	1257.45
405.52	1253.36
405.73	1191.92
405.94	1253.36
406.15	1271.79
406.35	1208.30
406.56	1282.03
406.77	1341.42
406.98	1200.11
407.18	1261.55
407.39	1273.84
407.60	1298.41
407.80	1230.83
408.01	1366.00
408.22	1204.21
408.43	1314.80
408.63	1216.49
408.84	1226.73
409.05	1232.88
409.25	1267.69
409.46	1282.03
409.67	1286.12
409.88	1265.64
410.08	1286.12
410.29	1314.80
410.50	1257.45
410.70	1322.99
410.91	1218.54
411.12	1263.60
411.32	1288.17
411.53	1232.88
411.74	1306.60
411.95	1243.12
412.15	1241.07
412.36	1249.26
412.57	1300.46
412.77	1230.83
412.98	1290.22
413.19	1320.94
413.39	1253.36
413.60	1208.30
413.81	1202.16
414.01	1259.50
414.22	1341.42
414.43	1265.64
414.63	1232.88
414.84	1275.88
415.05	1263.60
415.25	1212.40
415.46	1216.49
415.67	1187.82
415.87	1267.69
416.08	1208.30
416.29	1236.97
416.49	1208.30
416.70	1261.55
416.91	1239.02
417.11	1296.36
417.32	1292.27
417.53	1277.93
417.73	1273.84
417.94	1265.64
418.15	1247.21
418.35	1286.12
418.56	1277.93
418.77	1222.64
418.97	1351.66
419.18	1304.56
419.38	1265.64
419.59	1243.12
419.80	1269.74
420.00	1290.22
420.21	1275.88
420.42	1251.31
420.62	1230.83
420.83	1228.78
421.04	1239.02
421.24	1298.41
421.45	1251.31
421.65	1189.87
421.86	1282.03
422.07	1265.64
422.27	1320.94
422.48	1214.45
422.69	1288.17
422.89	1335.28
423.10	1259.50
423.30	1259.50
423.51	1288.17
423.72	1245.16
423.92	1275.88
424.13	1271.79
424.33	1232.88
424.54	1284.08
424.75	1243.12
424.95	1267.69
425.16	1218.54
425.36	1269.74
425.57	1247.21
425.78	1296.36
425.98	1249.26
426.19	1208.30
426.39	1282.03
426.60	1298.41
426.81	1345.52
427.01	1286.12
427.22	1363.95
427.42	1306.60
427.63	1304.56
427.83	1269.74
428.04	1230.83
428.25	1304.56
428.45	1200.11
428.66	1177.58
428.86	1243.12
429.07	1236.97
429.28	1277.93
429.48	1286.12
429.69	1296.36
429.89	1249.26
430.10	1230.83
430.30	1247.21
430.51	1230.83
430.71	1236.97
430.92	1331.18
431.13	1218.54
431.33	1243.12
431.54	1251.31
431.74	1273.84
431.95	1267.69
432.15	1337.32
432.36	1257.45
432.56	1306.60
432.77	1298.41
432.98	1173.49
433.18	1271.79
433.39	1271.79
433.59	1284.08
433.80	1298.41
434.00	1218.54
434.21	1277.93
434.41	1296.36
434.62	1290.22
434.82	1259.50
435.03	1347.56
435.23	1257.45
435.44	1232.88
435.64	1320.94
435.85	1265.64
436.06	1241.07
436.26	1216.49
436.47	1288.17
436.67	1282.03
436.88	1335.28
437.08	1255.40
437.29	1355.76
437.49	1230.83
437.70	1294.32
437.90	1255.40
438.11	1284.08
438.31	1226.73
438.52	1198.06
438.72	1294.32
438.93	1202.16
439.13	1314.80
439.34	1329.13
439.54	1247.21
439.75	1210.35
439.95	1290.22
440.16	1202.16
440.36	1263.60
440.57	1300.46
440.77	1325.04
440.98	1265.64
441.18	1290.22
441.39	1236.97
441.59	1216.49
441.80	1294.32
442.00	1320.94
442.21	1322.99
442.41	1265.64
442.62	1259.50
442.82	1314.80
443.02	1239.02
443.23	1265.64
443.43	1286.12
443.64	1269.74
443.84	1304.56
444.05	1282.03
444.25	1279.98
444.46	1341.42
444.66	1245.16
444.87	1259.50
445.07	1294.32
445.28	1345.52
445.48	1249.26
445.69	1312.75
445.89	1302.51
446.09	1206.25
446.30	1304.56
446.50	1236.97
446.71	1288.17
446.91	1294.32
447.12	1312.75
447.32	1290.22
447.53	1236.97
447.73	1267.69
447.93	1368.04
448.14	1259.50
448.34	1265.64
448.55	1341.42
448.75	1282.03
448.96	1284.08
449.16	1257.45
449.36	1273.84
449.57	1300.46
449.77	1220.59
449.98	1226.73
450.18	1273.84
450.39	1331.18
450.59	1271.79
450.79	1220.59
451.00	1257.45
451.20	1300.46
451.41	1292.27
451.61	1255.40
451.81	1286.12
452.02	1294.32
452.22	1271.79
452.43	1290.22
452.63	1296.36
