SpectraSuite Data File
++++++++++++++++++++++++++++++++++++
Date: Sun Apr 03 19:55:14 CEST 2016
User: root
Dark Spectrum Present: No
Reference Spectrum Present: No
Number of Sampled Component Spectra: 1
Spectrometers: USB4C02835
Integration Time (usec): 10000 (USB4C02835)
Spectra Averaged: 1 (USB4C02835)
Boxcar Smoothing: 0 (USB4C02835)
Correct for Electrical Dark: No (USB4C02835)
Strobe/Lamp Enabled: No (USB4C02835)
Correct for Detector Non-linearity: No (USB4C02835)
Correct for Stray Light: No (USB4C02835)
Number of Pixels in Processed Spectrum: 3648
>>>>>Begin Processed Spectral Data<<<<<
177.47	1279.98
177.69	1279.98
177.91	1279.98
178.13	1216.49
178.36	1206.25
178.58	1257.45
178.80	1255.40
179.02	1273.84
179.24	1236.97
179.46	1257.45
179.68	1277.93
179.90	1222.64
180.13	1255.40
180.35	1282.03
180.57	1331.18
180.79	1263.60
181.01	1216.49
181.23	1216.49
181.45	1298.41
181.67	1271.79
181.90	1279.98
182.12	1191.92
182.34	1249.26
182.56	1257.45
182.78	1228.78
183.00	1230.83
183.22	1255.40
183.44	1257.45
183.66	1288.17
183.89	1257.45
184.11	1243.12
184.33	1253.36
184.55	1279.98
184.77	1253.36
184.99	1286.12
185.21	1304.56
185.43	1263.60
185.65	1269.74
185.87	1290.22
186.10	1277.93
186.32	1284.08
186.54	1304.56
186.76	1177.58
186.98	1259.50
187.20	1224.69
187.42	1296.36
187.64	1394.67
187.86	1241.07
188.08	1214.45
188.30	1261.55
188.52	1310.70
188.75	1271.79
188.97	1275.88
189.19	1191.92
189.41	1314.80
189.63	1265.64
189.85	1341.42
190.07	1249.26
190.29	1185.77
190.51	1298.41
190.73	1230.83
190.95	1314.80
191.17	1316.84
191.39	1261.55
191.61	1271.79
191.84	1247.21
192.06	1259.50
192.28	1304.56
192.50	1304.56
192.72	1279.98
192.94	1251.31
193.16	1230.83
193.38	1216.49
193.60	1271.79
193.82	1220.59
194.04	1261.55
194.26	1261.55
194.48	1241.07
194.70	1271.79
194.92	1257.45
195.14	1208.30
195.36	1267.69
195.58	1286.12
195.80	1230.83
196.02	1255.40
196.24	1214.45
196.46	1263.60
196.69	1273.84
196.91	1267.69
197.13	1331.18
197.35	1204.21
197.57	1312.75
197.79	1300.46
198.01	1187.82
198.23	1230.83
198.45	1253.36
198.67	1177.58
198.89	1284.08
199.11	1224.69
199.33	1208.30
199.55	1271.79
199.77	1230.83
199.99	1308.65
200.21	1269.74
200.43	1210.35
200.65	1286.12
200.87	1282.03
201.09	1212.40
201.31	1361.90
201.53	1279.98
201.75	1257.45
201.97	1177.58
202.19	1316.84
202.41	1257.45
202.63	1277.93
202.85	1267.69
203.07	1261.55
203.29	1273.84
203.51	1275.88
203.73	1230.83
203.95	1300.46
204.17	1290.22
204.39	1314.80
204.61	1265.64
204.83	1239.02
205.05	1275.88
205.27	1314.80
205.49	1257.45
205.71	1259.50
205.93	1335.28
206.15	1286.12
206.37	1216.49
206.59	1263.60
206.81	1251.31
207.03	1300.46
207.25	1243.12
207.47	1267.69
207.69	1241.07
207.91	1249.26
208.13	1234.93
208.34	1261.55
208.56	1355.76
208.78	1279.98
209.00	1277.93
209.22	1296.36
209.44	1273.84
209.66	1216.49
209.88	1251.31
210.10	1232.88
210.32	1277.93
210.54	1304.56
210.76	1251.31
210.98	1181.68
211.20	1243.12
211.42	1239.02
211.64	1220.59
211.86	1304.56
212.08	1263.60
212.30	1286.12
212.52	1245.16
212.74	1277.93
212.96	1333.23
213.17	1210.35
213.39	1267.69
213.61	1322.99
213.83	1202.16
214.05	1333.23
214.27	1304.56
214.49	1269.74
214.71	1257.45
214.93	1288.17
215.15	1255.40
215.37	1257.45
215.59	1288.17
215.81	1263.60
216.03	1300.46
216.24	1187.82
216.46	1255.40
216.68	1300.46
216.90	1298.41
217.12	1304.56
217.34	1269.74
217.56	1265.64
217.78	1282.03
218.00	1294.32
218.22	1179.63
218.44	1206.25
218.66	1255.40
218.87	1208.30
219.09	1269.74
219.31	1284.08
219.53	1347.56
219.75	1327.08
219.97	1257.45
220.19	1214.45
220.41	1196.01
220.63	1236.97
220.85	1206.25
221.06	1263.60
221.28	1275.88
221.50	1261.55
221.72	1247.21
221.94	1279.98
222.16	1298.41
222.38	1216.49
222.60	1288.17
222.82	1286.12
223.03	1300.46
223.25	1273.84
223.47	1247.21
223.69	1249.26
223.91	1255.40
224.13	1282.03
224.35	1286.12
224.57	1331.18
224.78	1267.69
225.00	1165.29
225.22	1243.12
225.44	1273.84
225.66	1234.93
225.88	1292.27
226.10	1204.21
226.32	1277.93
226.53	1308.65
226.75	1284.08
226.97	1253.36
227.19	1304.56
227.41	1265.64
227.63	1279.98
227.85	1282.03
228.06	1265.64
228.28	1187.82
228.50	1257.45
228.72	1314.80
228.94	1249.26
229.16	1316.84
229.37	1247.21
229.59	1335.28
229.81	1241.07
230.03	1259.50
230.25	1220.59
230.47	1191.92
230.69	1247.21
230.90	1236.97
231.12	1282.03
231.34	1275.88
231.56	1288.17
231.78	1304.56
232.00	1245.16
232.21	1224.69
232.43	1255.40
232.65	1257.45
232.87	1239.02
233.09	1247.21
233.30	1306.60
233.52	1282.03
233.74	1249.26
233.96	1230.83
234.18	1327.08
234.40	1234.93
234.61	1275.88
234.83	1294.32
235.05	1236.97
235.27	1206.25
235.49	1292.27
235.70	1355.76
235.92	1310.70
236.14	1155.05
236.36	1282.03
236.58	1265.64
236.79	1290.22
237.01	1241.07
237.23	1232.88
237.45	1253.36
237.67	1304.56
237.88	1296.36
238.10	1259.50
238.32	1298.41
238.54	1314.80
238.76	1200.11
238.97	1279.98
239.19	1282.03
239.41	1290.22
239.63	1259.50
239.85	1318.89
240.06	1245.16
240.28	1253.36
240.50	1193.97
240.72	1277.93
240.93	1241.07
241.15	1247.21
241.37	1263.60
241.59	1320.94
241.81	1322.99
242.02	1257.45
242.24	1347.56
242.46	1236.97
242.68	1275.88
242.89	1279.98
243.11	1312.75
243.33	1228.78
243.55	1277.93
243.76	1300.46
243.98	1298.41
244.20	1191.92
244.42	1243.12
244.64	1216.49
244.85	1269.74
245.07	1269.74
245.29	1243.12
245.51	1304.56
245.72	1261.55
245.94	1273.84
246.16	1284.08
246.38	1232.88
246.59	1239.02
246.81	1226.73
247.03	1279.98
247.24	1335.28
247.46	1261.55
247.68	1279.98
247.90	1210.35
248.11	1257.45
248.33	1224.69
248.55	1339.37
248.77	1253.36
248.98	1245.16
249.20	1361.90
249.42	1255.40
249.64	1247.21
249.85	1310.70
250.07	1230.83
250.29	1320.94
250.50	1236.97
250.72	1263.60
250.94	1257.45
251.16	1288.17
251.37	1284.08
251.59	1189.87
251.81	1234.93
252.02	1302.51
252.24	1279.98
252.46	1216.49
252.68	1271.79
252.89	1224.69
253.11	1210.35
253.33	1284.08
253.54	1284.08
253.76	1282.03
253.98	1269.74
254.20	1263.60
254.41	1273.84
254.63	1384.43
254.85	1255.40
255.06	1333.23
255.28	1206.25
255.50	1286.12
255.71	1251.31
255.93	1273.84
256.15	1339.37
256.36	1169.39
256.58	1304.56
256.80	1279.98
257.02	1259.50
257.23	1249.26
257.45	1286.12
257.67	1236.97
257.88	1204.21
258.10	1286.12
258.32	1273.84
258.53	1318.89
258.75	1284.08
258.97	1269.74
259.18	1314.80
259.40	1234.93
259.62	1239.02
259.83	1261.55
260.05	1273.84
260.27	1355.76
260.48	1261.55
260.70	1286.12
260.92	1263.60
261.13	1304.56
261.35	1292.27
261.57	1214.45
261.78	1269.74
262.00	1222.64
262.22	1302.51
262.43	1253.36
262.65	1271.79
262.86	1255.40
263.08	1220.59
263.30	1226.73
263.51	1216.49
263.73	1257.45
263.95	1306.60
264.16	1271.79
264.38	1239.02
264.60	1298.41
264.81	1267.69
265.03	1261.55
265.25	1271.79
265.46	1277.93
265.68	1269.74
265.89	1304.56
266.11	1249.26
266.33	1284.08
266.54	1288.17
266.76	1269.74
266.98	1282.03
267.19	1253.36
267.41	1327.08
267.62	1304.56
267.84	1200.11
268.06	1296.36
268.27	1251.31
268.49	1228.78
268.70	1175.53
268.92	1335.28
269.14	1296.36
269.35	1206.25
269.57	1216.49
269.79	1304.56
270.00	1306.60
270.22	1302.51
270.43	1277.93
270.65	1275.88
270.87	1239.02
271.08	1290.22
271.30	1257.45
271.51	1259.50
271.73	1331.18
271.95	1296.36
272.16	1302.51
272.38	1286.12
272.59	1290.22
272.81	1300.46
273.02	1249.26
273.24	1214.45
273.46	1263.60
273.67	1245.16
273.89	1265.64
274.10	1253.36
274.32	1292.27
274.54	1300.46
274.75	1208.30
274.97	1214.45
275.18	1296.36
275.40	1236.97
275.61	1224.69
275.83	1277.93
276.05	1204.21
276.26	1243.12
276.48	1320.94
276.69	1245.16
276.91	1236.97
277.12	1335.28
277.34	1335.28
277.55	1185.77
277.77	1290.22
277.99	1304.56
278.20	1277.93
278.42	1290.22
278.63	1322.99
278.85	1331.18
279.06	1284.08
279.28	1304.56
279.49	1290.22
279.71	1234.93
279.93	1275.88
280.14	1273.84
280.36	1282.03
280.57	1263.60
280.79	1300.46
281.00	1277.93
281.22	1267.69
281.43	1294.32
281.65	1320.94
281.86	1200.11
282.08	1300.46
282.29	1310.70
282.51	1259.50
282.73	1251.31
282.94	1249.26
283.16	1173.49
283.37	1247.21
283.59	1241.07
283.80	1216.49
284.02	1288.17
284.23	1236.97
284.45	1249.26
284.66	1306.60
284.88	1361.90
285.09	1363.95
285.31	1208.30
285.52	1175.53
285.74	1288.17
285.95	1265.64
286.17	1241.07
286.38	1191.92
286.60	1312.75
286.81	1181.68
287.03	1243.12
287.24	1249.26
287.46	1271.79
287.67	1236.97
287.89	1267.69
288.10	1204.21
288.32	1282.03
288.53	1243.12
288.75	1241.07
288.96	1294.32
289.18	1228.78
289.39	1267.69
289.61	1253.36
289.82	1310.70
290.04	1179.63
290.25	1312.75
290.47	1249.26
290.68	1316.84
290.90	1210.35
291.11	1185.77
291.33	1157.10
291.54	1275.88
291.76	1296.36
291.97	1200.11
292.18	1212.40
292.40	1267.69
292.61	1353.71
292.83	1292.27
293.04	1296.36
293.26	1275.88
293.47	1216.49
293.69	1269.74
293.90	1249.26
294.12	1273.84
294.33	1247.21
294.55	1269.74
294.76	1220.59
294.97	1224.69
295.19	1292.27
295.40	1228.78
295.62	1296.36
295.83	1269.74
296.05	1239.02
296.26	1261.55
296.48	1228.78
296.69	1255.40
296.90	1239.02
297.12	1298.41
297.33	1310.70
297.55	1189.87
297.76	1329.13
297.98	1279.98
298.19	1296.36
298.41	1288.17
298.62	1241.07
298.83	1232.88
299.05	1181.68
299.26	1273.84
299.48	1277.93
299.69	1271.79
299.90	1247.21
300.12	1232.88
300.33	1282.03
300.55	1267.69
300.76	1335.28
300.98	1300.46
301.19	1255.40
301.40	1327.08
301.62	1318.89
301.83	1294.32
302.05	1232.88
302.26	1265.64
302.47	1314.80
302.69	1239.02
302.90	1337.32
303.12	1304.56
303.33	1234.93
303.54	1282.03
303.76	1214.45
303.97	1298.41
304.19	1253.36
304.40	1343.47
304.61	1175.53
304.83	1232.88
305.04	1275.88
305.26	1282.03
305.47	1292.27
305.68	1239.02
305.90	1275.88
306.11	1310.70
306.33	1222.64
306.54	1349.61
306.75	1236.97
306.97	1253.36
307.18	1230.83
307.39	1243.12
307.61	1263.60
307.82	1286.12
308.04	1224.69
308.25	1224.69
308.46	1343.47
308.68	1312.75
308.89	1290.22
309.10	1343.47
309.32	1228.78
309.53	1341.42
309.74	1257.45
309.96	1275.88
310.17	1261.55
310.39	1269.74
310.60	1273.84
310.81	1226.73
311.03	1255.40
311.24	1255.40
311.45	1279.98
311.67	1261.55
311.88	1263.60
312.09	1239.02
312.31	1269.74
312.52	1282.03
312.73	1335.28
312.95	1210.35
313.16	1220.59
313.37	1269.74
313.59	1150.96
313.80	1241.07
314.01	1216.49
314.23	1220.59
314.44	1234.93
314.65	1253.36
314.87	1193.97
315.08	1282.03
315.29	1282.03
315.51	1261.55
315.72	1329.13
315.93	1341.42
316.15	1335.28
316.36	1290.22
316.57	1296.36
316.79	1261.55
317.00	1224.69
317.21	1292.27
317.43	1214.45
317.64	1193.97
317.85	1224.69
318.07	1247.21
318.28	1337.32
318.49	1202.16
318.70	1282.03
318.92	1253.36
319.13	1247.21
319.34	1259.50
319.56	1279.98
319.77	1316.84
319.98	1236.97
320.20	1269.74
320.41	1282.03
320.62	1282.03
320.83	1296.36
321.05	1263.60
321.26	1222.64
321.47	1241.07
321.69	1273.84
321.90	1325.04
322.11	1179.63
322.32	1316.84
322.54	1327.08
322.75	1312.75
322.96	1257.45
323.18	1241.07
323.39	1292.27
323.60	1247.21
323.81	1241.07
324.03	1220.59
324.24	1247.21
324.45	1243.12
324.66	1261.55
324.88	1275.88
325.09	1286.12
325.30	1273.84
325.52	1247.21
325.73	1265.64
325.94	1318.89
326.15	1327.08
326.37	1288.17
326.58	1198.06
326.79	1343.47
327.00	1214.45
327.22	1273.84
327.43	1247.21
327.64	1320.94
327.85	1277.93
328.07	1273.84
328.28	1255.40
328.49	1288.17
328.70	1257.45
328.92	1310.70
329.13	1228.78
329.34	1261.55
329.55	1273.84
329.76	1263.60
329.98	1363.95
330.19	1288.17
330.40	1333.23
330.61	1316.84
330.83	1187.82
331.04	1325.04
331.25	1247.21
331.46	1265.64
331.68	1232.88
331.89	1271.79
332.10	1218.54
332.31	1318.89
332.52	1236.97
332.74	1290.22
332.95	1302.51
333.16	1220.59
333.37	1286.12
333.58	1255.40
333.80	1271.79
334.01	1239.02
334.22	1261.55
334.43	1216.49
334.64	1296.36
334.86	1230.83
335.07	1257.45
335.28	1316.84
335.49	1259.50
335.70	1226.73
335.92	1308.65
336.13	1308.65
336.34	1294.32
336.55	1261.55
336.76	1232.88
336.98	1263.60
337.19	1191.92
337.40	1292.27
337.61	1259.50
337.82	1245.16
338.04	1279.98
338.25	1265.64
338.46	1314.80
338.67	1333.23
338.88	1177.58
339.09	1286.12
339.31	1206.25
339.52	1249.26
339.73	1232.88
339.94	1279.98
340.15	1277.93
340.36	1265.64
340.58	1216.49
340.79	1306.60
341.00	1271.79
341.21	1265.64
341.42	1284.08
341.63	1259.50
341.85	1265.64
342.06	1333.23
342.27	1314.80
342.48	1204.21
342.69	1290.22
342.90	1294.32
343.12	1296.36
343.33	1241.07
343.54	1206.25
343.75	1325.04
343.96	1241.07
344.17	1232.88
344.38	1239.02
344.60	1181.68
344.81	1251.31
345.02	1239.02
345.23	1265.64
345.44	1232.88
345.65	1222.64
345.86	1333.23
346.07	1251.31
346.29	1263.60
346.50	1284.08
346.71	1185.77
346.92	1306.60
347.13	1273.84
347.34	1288.17
347.55	1243.12
347.76	1257.45
347.98	1261.55
348.19	1306.60
348.40	1247.21
348.61	1273.84
348.82	1271.79
349.03	1261.55
349.24	1226.73
349.45	1277.93
349.66	1224.69
349.88	1226.73
350.09	1245.16
350.30	1263.60
350.51	1265.64
350.72	1284.08
350.93	1255.40
351.14	1320.94
351.35	1341.42
351.56	1255.40
351.77	1212.40
351.99	1271.79
352.20	1249.26
352.41	1294.32
352.62	1335.28
352.83	1314.80
353.04	1255.40
353.25	1249.26
353.46	1355.76
353.67	1263.60
353.88	1212.40
354.09	1251.31
354.30	1316.84
354.52	1232.88
354.73	1216.49
354.94	1251.31
355.15	1216.49
355.36	1243.12
355.57	1359.85
355.78	1261.55
355.99	1249.26
356.20	1255.40
356.41	1249.26
356.62	1322.99
356.83	1271.79
357.04	1204.21
357.25	1304.56
357.46	1220.59
357.68	1253.36
357.89	1255.40
358.10	1230.83
358.31	1249.26
358.52	1306.60
358.73	1267.69
358.94	1214.45
359.15	1224.69
359.36	1284.08
359.57	1220.59
359.78	1228.78
359.99	1306.60
360.20	1271.79
360.41	1226.73
360.62	1279.98
360.83	1271.79
361.04	1288.17
361.25	1265.64
361.46	1255.40
361.67	1296.36
361.88	1279.98
362.09	1228.78
362.30	1271.79
362.51	1249.26
362.72	1257.45
362.93	1220.59
363.14	1239.02
363.35	1247.21
363.56	1265.64
363.78	1232.88
363.99	1286.12
364.20	1243.12
364.41	1277.93
364.62	1218.54
364.83	1298.41
365.04	1347.56
365.25	1282.03
365.46	1249.26
365.67	1277.93
365.88	1286.12
366.09	1208.30
366.30	1275.88
366.51	1269.74
366.72	1273.84
366.93	1380.33
367.14	1288.17
367.35	1314.80
367.56	1236.97
367.77	1247.21
367.98	1234.93
368.18	1245.16
368.39	1214.45
368.60	1204.21
368.81	1220.59
369.02	1312.75
369.23	1277.93
369.44	1286.12
369.65	1284.08
369.86	1314.80
370.07	1298.41
370.28	1198.06
370.49	1290.22
370.70	1224.69
370.91	1282.03
371.12	1259.50
371.33	1308.65
371.54	1310.70
371.75	1265.64
371.96	1335.28
372.17	1245.16
372.38	1300.46
372.59	1261.55
372.80	1232.88
373.01	1284.08
373.22	1230.83
373.43	1275.88
373.64	1239.02
373.85	1294.32
374.06	1212.40
374.26	1286.12
374.47	1263.60
374.68	1236.97
374.89	1322.99
375.10	1263.60
375.31	1241.07
375.52	1234.93
375.73	1224.69
375.94	1241.07
376.15	1284.08
376.36	1290.22
376.57	1325.04
376.78	1345.52
376.99	1304.56
377.20	1204.21
377.40	1288.17
377.61	1275.88
377.82	1279.98
378.03	1300.46
378.24	1275.88
378.45	1327.08
378.66	1308.65
378.87	1232.88
379.08	1177.58
379.29	1224.69
379.50	1290.22
379.71	1208.30
379.91	1239.02
380.12	1261.55
380.33	1327.08
380.54	1290.22
380.75	1216.49
380.96	1300.46
381.17	1327.08
381.38	1255.40
381.59	1341.42
381.80	1306.60
382.00	1267.69
382.21	1288.17
382.42	1245.16
382.63	1351.66
382.84	1269.74
383.05	1253.36
383.26	1247.21
383.47	1273.84
383.68	1298.41
383.88	1320.94
384.09	1288.17
384.30	1230.83
384.51	1222.64
384.72	1353.71
384.93	1245.16
385.14	1316.84
385.35	1214.45
385.55	1327.08
385.76	1273.84
385.97	1267.69
386.18	1249.26
386.39	1308.65
386.60	1243.12
386.81	1261.55
387.02	1173.49
387.22	1228.78
387.43	1241.07
387.64	1294.32
387.85	1265.64
388.06	1224.69
388.27	1196.01
388.48	1302.51
388.68	1300.46
388.89	1300.46
389.10	1169.39
389.31	1214.45
389.52	1306.60
389.73	1306.60
389.93	1255.40
390.14	1243.12
390.35	1255.40
390.56	1253.36
390.77	1286.12
390.98	1236.97
391.18	1232.88
391.39	1232.88
391.60	1290.22
391.81	1267.69
392.02	1296.36
392.23	1290.22
392.43	1222.64
392.64	1286.12
392.85	1267.69
393.06	1306.60
393.27	1322.99
393.47	1263.60
393.68	1273.84
393.89	1300.46
394.10	1304.56
394.31	1286.12
394.52	1204.21
394.72	1277.93
394.93	1251.31
395.14	1269.74
395.35	1282.03
395.56	1314.80
395.76	1331.18
395.97	1359.85
396.18	1228.78
396.39	1220.59
396.60	1349.61
396.80	1265.64
397.01	1357.80
397.22	1271.79
397.43	1261.55
397.64	1286.12
397.84	1306.60
398.05	1292.27
398.26	1314.80
398.47	1265.64
398.67	1232.88
398.88	1320.94
399.09	1253.36
399.30	1249.26
399.51	1247.21
399.71	1302.51
399.92	1261.55
400.13	1236.97
400.34	1339.37
400.54	1249.26
400.75	1294.32
400.96	1312.75
401.17	1312.75
401.37	1230.83
401.58	1286.12
401.79	1310.70
402.00	1259.50
402.21	1251.31
402.41	1251.31
402.62	1210.35
402.83	1155.05
403.04	1267.69
403.24	1241.07
403.45	1296.36
403.66	1228.78
403.87	1253.36
404.07	1232.88
404.28	1249.26
404.49	1249.26
404.70	1224.69
404.90	1265.64
405.11	1275.88
405.32	1208.30
405.52	1241.07
405.73	1294.32
405.94	1282.03
406.15	1222.64
406.35	1302.51
406.56	1302.51
406.77	1269.74
406.98	1263.60
407.18	1263.60
407.39	1265.64
407.60	1294.32
407.80	1308.65
408.01	1271.79
408.22	1284.08
408.43	1220.59
408.63	1296.36
408.84	1265.64
409.05	1290.22
409.25	1290.22
409.46	1302.51
409.67	1275.88
409.88	1249.26
410.08	1263.60
410.29	1222.64
410.50	1253.36
410.70	1277.93
410.91	1234.93
411.12	1355.76
411.32	1183.73
411.53	1306.60
411.74	1259.50
411.95	1232.88
412.15	1265.64
412.36	1175.53
412.57	1296.36
412.77	1265.64
412.98	1275.88
413.19	1347.56
413.39	1208.30
413.60	1308.65
413.81	1224.69
414.01	1273.84
414.22	1298.41
414.43	1273.84
414.63	1269.74
414.84	1308.65
415.05	1279.98
415.25	1284.08
415.46	1216.49
415.67	1275.88
415.87	1263.60
416.08	1298.41
416.29	1284.08
416.49	1290.22
416.70	1327.08
416.91	1261.55
417.11	1275.88
417.32	1232.88
417.53	1269.74
417.73	1226.73
417.94	1234.93
418.15	1198.06
418.35	1247.21
418.56	1320.94
418.77	1275.88
418.97	1245.16
419.18	1236.97
419.38	1286.12
419.59	1292.27
419.80	1271.79
420.00	1257.45
420.21	1288.17
420.42	1224.69
420.62	1253.36
420.83	1185.77
421.04	1228.78
421.24	1253.36
421.45	1277.93
421.65	1304.56
421.86	1265.64
422.07	1269.74
422.27	1300.46
422.48	1277.93
422.69	1232.88
422.89	1277.93
423.10	1288.17
423.30	1294.32
423.51	1216.49
423.72	1232.88
423.92	1185.77
424.13	1247.21
424.33	1284.08
424.54	1222.64
424.75	1314.80
424.95	1241.07
425.16	1298.41
425.36	1257.45
425.57	1298.41
425.78	1218.54
425.98	1282.03
426.19	1232.88
426.39	1288.17
426.60	1277.93
426.81	1212.40
427.01	1296.36
427.22	1288.17
427.42	1312.75
427.63	1253.36
427.83	1181.68
428.04	1169.39
428.25	1253.36
428.45	1335.28
428.66	1210.35
428.86	1314.80
429.07	1308.65
429.28	1318.89
429.48	1253.36
429.69	1204.21
429.89	1247.21
430.10	1224.69
430.30	1331.18
430.51	1288.17
430.71	1241.07
430.92	1277.93
431.13	1269.74
431.33	1269.74
431.54	1273.84
431.74	1300.46
431.95	1236.97
432.15	1247.21
432.36	1284.08
432.56	1327.08
432.77	1339.37
432.98	1284.08
433.18	1327.08
433.39	1271.79
433.59	1271.79
433.80	1267.69
434.00	1216.49
434.21	1273.84
434.41	1355.76
434.62	1345.52
434.82	1296.36
435.03	1261.55
435.23	1275.88
435.44	1353.71
435.64	1218.54
435.85	1222.64
436.06	1267.69
436.26	1306.60
436.47	1196.01
436.67	1288.17
436.88	1361.90
437.08	1277.93
437.29	1275.88
437.49	1318.89
437.70	1239.02
437.90	1292.27
438.11	1247.21
438.31	1288.17
438.52	1284.08
438.72	1257.45
438.93	1288.17
439.13	1251.31
439.34	1267.69
439.54	1329.13
439.75	1267.69
439.95	1273.84
440.16	1232.88
440.36	1239.02
440.57	1275.88
440.77	1327.08
440.98	1230.83
441.18	1335.28
441.39	1245.16
441.59	1337.32
441.80	1322.99
442.00	1325.04
442.21	1296.36
442.41	1288.17
442.62	1306.60
442.82	1292.27
443.02	1261.55
443.23	1232.88
443.43	1259.50
443.64	1329.13
443.84	1292.27
444.05	1296.36
444.25	1230.83
444.46	1259.50
444.66	1251.31
444.87	1279.98
445.07	1263.60
445.28	1239.02
445.48	1232.88
445.69	1249.26
445.89	1363.95
446.09	1292.27
446.30	1288.17
446.50	1288.17
446.71	1269.74
446.91	1247.21
447.12	1298.41
447.32	1269.74
447.53	1316.84
447.73	1232.88
447.93	1300.46
448.14	1273.84
448.34	1232.88
448.55	1187.82
448.75	1341.42
448.96	1290.22
449.16	1214.45
449.36	1302.51
449.57	1279.98
449.77	1316.84
449.98	1257.45
450.18	1255.40
450.39	1241.07
450.59	1253.36
450.79	1265.64
451.00	1325.04
451.20	1245.16
451.41	1282.03
451.61	1214.45
451.81	1224.69
452.02	1204.21
452.22	1241.07
452.43	1339.37
452.63	1298.41
