SpectraSuite Data File
++++++++++++++++++++++++++++++++++++
Date: Sun Apr 03 19:55:39 CEST 2016
User: root
Dark Spectrum Present: No
Reference Spectrum Present: No
Number of Sampled Component Spectra: 1
Spectrometers: USB4C02835
Integration Time (usec): 10000 (USB4C02835)
Spectra Averaged: 1 (USB4C02835)
Boxcar Smoothing: 0 (USB4C02835)
Correct for Electrical Dark: No (USB4C02835)
Strobe/Lamp Enabled: No (USB4C02835)
Correct for Detector Non-linearity: No (USB4C02835)
Correct for Stray Light: No (USB4C02835)
Number of Pixels in Processed Spectrum: 3648
>>>>>Begin Processed Spectral Data<<<<<
177.47	1220.59
177.69	1220.59
177.91	1220.59
178.13	1218.54
178.36	1282.03
178.58	1296.36
178.80	1249.26
179.02	1286.12
179.24	1298.41
179.46	1269.74
179.68	1314.80
179.90	1247.21
180.13	1259.50
180.35	1290.22
180.57	1236.97
180.79	1304.56
181.01	1329.13
181.23	1331.18
181.45	1265.64
181.67	1318.89
181.90	1273.84
182.12	1263.60
182.34	1318.89
182.56	1275.88
182.78	1269.74
183.00	1279.98
183.22	1212.40
183.44	1232.88
183.66	1343.47
183.89	1167.34
184.11	1380.33
184.33	1261.55
184.55	1245.16
184.77	1314.80
184.99	1298.41
185.21	1273.84
185.43	1306.60
185.65	1206.25
185.87	1265.64
186.10	1265.64
186.32	1292.27
186.54	1265.64
186.76	1304.56
186.98	1239.02
187.20	1294.32
187.42	1306.60
187.64	1318.89
187.86	1355.76
188.08	1267.69
188.30	1271.79
188.52	1343.47
188.75	1187.82
188.97	1236.97
189.19	1230.83
189.41	1196.01
189.63	1226.73
189.85	1273.84
190.07	1255.40
190.29	1243.12
190.51	1273.84
190.73	1232.88
190.95	1300.46
191.17	1265.64
191.39	1349.61
191.61	1234.93
191.84	1214.45
192.06	1279.98
192.28	1288.17
192.50	1335.28
192.72	1247.21
192.94	1279.98
193.16	1273.84
193.38	1253.36
193.60	1310.70
193.82	1333.23
194.04	1353.71
194.26	1267.69
194.48	1226.73
194.70	1284.08
194.92	1214.45
195.14	1325.04
195.36	1271.79
195.58	1247.21
195.80	1302.51
196.02	1224.69
196.24	1220.59
196.46	1191.92
196.69	1325.04
196.91	1198.06
197.13	1286.12
197.35	1241.07
197.57	1269.74
197.79	1286.12
198.01	1335.28
198.23	1216.49
198.45	1327.08
198.67	1288.17
198.89	1230.83
199.11	1159.15
199.33	1159.15
199.55	1271.79
199.77	1279.98
199.99	1212.40
200.21	1200.11
200.43	1271.79
200.65	1249.26
200.87	1239.02
201.09	1261.55
201.31	1296.36
201.53	1273.84
201.75	1257.45
201.97	1220.59
202.19	1343.47
202.41	1284.08
202.63	1279.98
202.85	1267.69
203.07	1241.07
203.29	1251.31
203.51	1298.41
203.73	1271.79
203.95	1253.36
204.17	1265.64
204.39	1216.49
204.61	1191.92
204.83	1175.53
205.05	1265.64
205.27	1263.60
205.49	1239.02
205.71	1298.41
205.93	1181.68
206.15	1253.36
206.37	1282.03
206.59	1343.47
206.81	1265.64
207.03	1255.40
207.25	1282.03
207.47	1277.93
207.69	1282.03
207.91	1224.69
208.13	1275.88
208.34	1265.64
208.56	1251.31
208.78	1292.27
209.00	1304.56
209.22	1261.55
209.44	1241.07
209.66	1296.36
209.88	1304.56
210.10	1271.79
210.32	1234.93
210.54	1241.07
210.76	1337.32
210.98	1236.97
211.20	1269.74
211.42	1302.51
211.64	1208.30
211.86	1247.21
212.08	1286.12
212.30	1290.22
212.52	1363.95
212.74	1216.49
212.96	1288.17
213.17	1286.12
213.39	1251.31
213.61	1314.80
213.83	1286.12
214.05	1380.33
214.27	1275.88
214.49	1286.12
214.71	1284.08
214.93	1218.54
215.15	1300.46
215.37	1290.22
215.59	1249.26
215.81	1247.21
216.03	1331.18
216.24	1292.27
216.46	1220.59
216.68	1226.73
216.90	1261.55
217.12	1296.36
217.34	1304.56
217.56	1284.08
217.78	1286.12
218.00	1318.89
218.22	1286.12
218.44	1298.41
218.66	1181.68
218.87	1298.41
219.09	1277.93
219.31	1222.64
219.53	1263.60
219.75	1275.88
219.97	1257.45
220.19	1284.08
220.41	1296.36
220.63	1271.79
220.85	1304.56
221.06	1302.51
221.28	1277.93
221.50	1269.74
221.72	1257.45
221.94	1239.02
222.16	1228.78
222.38	1249.26
222.60	1212.40
222.82	1296.36
223.03	1300.46
223.25	1275.88
223.47	1343.47
223.69	1320.94
223.91	1216.49
224.13	1157.10
224.35	1275.88
224.57	1222.64
224.78	1286.12
225.00	1208.30
225.22	1243.12
225.44	1288.17
225.66	1263.60
225.88	1259.50
226.10	1282.03
226.32	1206.25
226.53	1304.56
226.75	1329.13
226.97	1198.06
227.19	1241.07
227.41	1218.54
227.63	1292.27
227.85	1214.45
228.06	1206.25
228.28	1251.31
228.50	1304.56
228.72	1232.88
228.94	1259.50
229.16	1329.13
229.37	1261.55
229.59	1204.21
229.81	1239.02
230.03	1302.51
230.25	1273.84
230.47	1247.21
230.69	1247.21
230.90	1232.88
231.12	1245.16
231.34	1284.08
231.56	1261.55
231.78	1232.88
232.00	1331.18
232.21	1220.59
232.43	1316.84
232.65	1282.03
232.87	1292.27
233.09	1257.45
233.30	1218.54
233.52	1257.45
233.74	1255.40
233.96	1257.45
234.18	1245.16
234.40	1298.41
234.61	1259.50
234.83	1267.69
235.05	1269.74
235.27	1300.46
235.49	1236.97
235.70	1312.75
235.92	1357.80
236.14	1220.59
236.36	1286.12
236.58	1284.08
236.79	1286.12
237.01	1322.99
237.23	1249.26
237.45	1347.56
237.67	1249.26
237.88	1175.53
238.10	1300.46
238.32	1224.69
238.54	1296.36
238.76	1247.21
238.97	1286.12
239.19	1212.40
239.41	1173.49
239.63	1294.32
239.85	1275.88
240.06	1236.97
240.28	1259.50
240.50	1271.79
240.72	1226.73
240.93	1232.88
241.15	1275.88
241.37	1273.84
241.59	1325.04
241.81	1304.56
242.02	1300.46
242.24	1314.80
242.46	1214.45
242.68	1267.69
242.89	1331.18
243.11	1245.16
243.33	1241.07
243.55	1263.60
243.76	1255.40
243.98	1208.30
244.20	1257.45
244.42	1306.60
244.64	1255.40
244.85	1304.56
245.07	1279.98
245.29	1234.93
245.51	1333.23
245.72	1253.36
245.94	1257.45
246.16	1275.88
246.38	1322.99
246.59	1179.63
246.81	1224.69
247.03	1296.36
247.24	1282.03
247.46	1327.08
247.68	1214.45
247.90	1310.70
248.11	1247.21
248.33	1255.40
248.55	1236.97
248.77	1286.12
248.98	1241.07
249.20	1241.07
249.42	1304.56
249.64	1212.40
249.85	1204.21
250.07	1331.18
250.29	1183.73
250.50	1212.40
250.72	1284.08
250.94	1267.69
251.16	1279.98
251.37	1275.88
251.59	1292.27
251.81	1257.45
252.02	1253.36
252.24	1304.56
252.46	1345.52
252.68	1284.08
252.89	1232.88
253.11	1214.45
253.33	1341.42
253.54	1249.26
253.76	1267.69
253.98	1277.93
254.20	1296.36
254.41	1253.36
254.63	1243.12
254.85	1245.16
255.06	1241.07
255.28	1265.64
255.50	1232.88
255.71	1218.54
255.93	1335.28
256.15	1269.74
256.36	1277.93
256.58	1253.36
256.80	1236.97
257.02	1224.69
257.23	1286.12
257.45	1232.88
257.67	1253.36
257.88	1243.12
258.10	1265.64
258.32	1288.17
258.53	1267.69
258.75	1310.70
258.97	1222.64
259.18	1247.21
259.40	1265.64
259.62	1273.84
259.83	1306.60
260.05	1269.74
260.27	1312.75
260.48	1394.67
260.70	1288.17
260.92	1265.64
261.13	1322.99
261.35	1191.92
261.57	1273.84
261.78	1232.88
262.00	1314.80
262.22	1222.64
262.43	1232.88
262.65	1273.84
262.86	1247.21
263.08	1239.02
263.30	1228.78
263.51	1286.12
263.73	1255.40
263.95	1239.02
264.16	1327.08
264.38	1282.03
264.60	1312.75
264.81	1275.88
265.03	1271.79
265.25	1253.36
265.46	1249.26
265.68	1226.73
265.89	1277.93
266.11	1261.55
266.33	1288.17
266.54	1210.35
266.76	1234.93
266.98	1282.03
267.19	1265.64
267.41	1298.41
267.62	1255.40
267.84	1224.69
268.06	1300.46
268.27	1267.69
268.49	1318.89
268.70	1318.89
268.92	1284.08
269.14	1273.84
269.35	1267.69
269.57	1277.93
269.79	1322.99
270.00	1239.02
270.22	1300.46
270.43	1202.16
270.65	1263.60
270.87	1265.64
271.08	1232.88
271.30	1241.07
271.51	1234.93
271.73	1290.22
271.95	1343.47
272.16	1251.31
272.38	1284.08
272.59	1236.97
272.81	1290.22
273.02	1247.21
273.24	1257.45
273.46	1263.60
273.67	1249.26
273.89	1288.17
274.10	1269.74
274.32	1304.56
274.54	1241.07
274.75	1267.69
274.97	1322.99
275.18	1243.12
275.40	1232.88
275.61	1279.98
275.83	1271.79
276.05	1277.93
276.26	1275.88
276.48	1304.56
276.69	1331.18
276.91	1204.21
277.12	1353.71
277.34	1208.30
277.55	1304.56
277.77	1257.45
277.99	1273.84
278.20	1251.31
278.42	1200.11
278.63	1341.42
278.85	1318.89
279.06	1230.83
279.28	1327.08
279.49	1327.08
279.71	1265.64
279.93	1208.30
280.14	1220.59
280.36	1269.74
280.57	1339.37
280.79	1245.16
281.00	1265.64
281.22	1251.31
281.43	1331.18
281.65	1230.83
281.86	1241.07
282.08	1286.12
282.29	1208.30
282.51	1292.27
282.73	1339.37
282.94	1288.17
283.16	1249.26
283.37	1216.49
283.59	1214.45
283.80	1292.27
284.02	1343.47
284.23	1349.61
284.45	1284.08
284.66	1265.64
284.88	1269.74
285.09	1249.26
285.31	1294.32
285.52	1259.50
285.74	1282.03
285.95	1179.63
286.17	1306.60
286.38	1275.88
286.60	1253.36
286.81	1335.28
287.03	1269.74
287.24	1208.30
287.46	1255.40
287.67	1269.74
287.89	1271.79
288.10	1341.42
288.32	1273.84
288.53	1296.36
288.75	1263.60
288.96	1236.97
289.18	1249.26
289.39	1230.83
289.61	1230.83
289.82	1261.55
290.04	1284.08
290.25	1245.16
290.47	1277.93
290.68	1261.55
290.90	1312.75
291.11	1257.45
291.33	1208.30
291.54	1239.02
291.76	1339.37
291.97	1286.12
292.18	1216.49
292.40	1292.27
292.61	1279.98
292.83	1298.41
293.04	1210.35
293.26	1269.74
293.47	1298.41
293.69	1261.55
293.90	1275.88
294.12	1282.03
294.33	1206.25
294.55	1265.64
294.76	1241.07
294.97	1230.83
295.19	1312.75
295.40	1247.21
295.62	1183.73
295.83	1241.07
296.05	1208.30
296.26	1318.89
296.48	1292.27
296.69	1175.53
296.90	1222.64
297.12	1294.32
297.33	1282.03
297.55	1277.93
297.76	1214.45
297.98	1339.37
298.19	1239.02
298.41	1290.22
298.62	1245.16
298.83	1314.80
299.05	1320.94
299.26	1347.56
299.48	1271.79
299.69	1216.49
299.90	1271.79
300.12	1279.98
300.33	1273.84
300.55	1267.69
300.76	1314.80
300.98	1314.80
301.19	1220.59
301.40	1226.73
301.62	1327.08
301.83	1271.79
302.05	1245.16
302.26	1273.84
302.47	1351.66
302.69	1271.79
302.90	1253.36
303.12	1380.33
303.33	1310.70
303.54	1290.22
303.76	1263.60
303.97	1286.12
304.19	1275.88
304.40	1212.40
304.61	1257.45
304.83	1259.50
305.04	1312.75
305.26	1312.75
305.47	1255.40
305.68	1363.95
305.90	1265.64
306.11	1345.52
306.33	1232.88
306.54	1216.49
306.75	1269.74
306.97	1286.12
307.18	1279.98
307.39	1206.25
307.61	1351.66
307.82	1210.35
308.04	1288.17
308.25	1277.93
308.46	1200.11
308.68	1306.60
308.89	1325.04
309.10	1273.84
309.32	1273.84
309.53	1191.92
309.74	1263.60
309.96	1232.88
310.17	1255.40
310.39	1310.70
310.60	1275.88
310.81	1265.64
311.03	1267.69
311.24	1247.21
311.45	1275.88
311.67	1298.41
311.88	1351.66
312.09	1249.26
312.31	1204.21
312.52	1275.88
312.73	1288.17
312.95	1187.82
313.16	1255.40
313.37	1273.84
313.59	1232.88
313.80	1183.73
314.01	1241.07
314.23	1206.25
314.44	1206.25
314.65	1286.12
314.87	1259.50
315.08	1210.35
315.29	1292.27
315.51	1316.84
315.72	1273.84
315.93	1253.36
316.15	1234.93
316.36	1320.94
316.57	1220.59
316.79	1218.54
317.00	1288.17
317.21	1230.83
317.43	1210.35
317.64	1241.07
317.85	1273.84
318.07	1232.88
318.28	1216.49
318.49	1261.55
318.70	1253.36
318.92	1279.98
319.13	1179.63
319.34	1245.16
319.56	1222.64
319.77	1310.70
319.98	1275.88
320.20	1335.28
320.41	1329.13
320.62	1302.51
320.83	1275.88
321.05	1277.93
321.26	1212.40
321.47	1218.54
321.69	1277.93
321.90	1310.70
322.11	1261.55
322.32	1286.12
322.54	1288.17
322.75	1273.84
322.96	1288.17
323.18	1220.59
323.39	1218.54
323.60	1214.45
323.81	1320.94
324.03	1286.12
324.24	1263.60
324.45	1292.27
324.66	1232.88
324.88	1249.26
325.09	1290.22
325.30	1306.60
325.52	1277.93
325.73	1306.60
325.94	1263.60
326.15	1290.22
326.37	1271.79
326.58	1314.80
326.79	1292.27
327.00	1294.32
327.22	1243.12
327.43	1273.84
327.64	1257.45
327.85	1255.40
328.07	1290.22
328.28	1294.32
328.49	1306.60
328.70	1298.41
328.92	1249.26
329.13	1269.74
329.34	1239.02
329.55	1290.22
329.76	1222.64
329.98	1204.21
330.19	1294.32
330.40	1189.87
330.61	1210.35
330.83	1243.12
331.04	1312.75
331.25	1331.18
331.46	1296.36
331.68	1228.78
331.89	1284.08
332.10	1273.84
332.31	1212.40
332.52	1232.88
332.74	1243.12
332.95	1310.70
333.16	1228.78
333.37	1286.12
333.58	1292.27
333.80	1277.93
334.01	1263.60
334.22	1226.73
334.43	1273.84
334.64	1320.94
334.86	1226.73
335.07	1245.16
335.28	1239.02
335.49	1302.51
335.70	1286.12
335.92	1261.55
336.13	1269.74
336.34	1292.27
336.55	1327.08
336.76	1318.89
336.98	1310.70
337.19	1269.74
337.40	1181.68
337.61	1300.46
337.82	1257.45
338.04	1310.70
338.25	1224.69
338.46	1241.07
338.67	1259.50
338.88	1331.18
339.09	1312.75
339.31	1335.28
339.52	1279.98
339.73	1277.93
339.94	1304.56
340.15	1251.31
340.36	1286.12
340.58	1251.31
340.79	1345.52
341.00	1273.84
341.21	1212.40
341.42	1304.56
341.63	1304.56
341.85	1239.02
342.06	1255.40
342.27	1279.98
342.48	1300.46
342.69	1282.03
342.90	1331.18
343.12	1366.00
343.33	1253.36
343.54	1333.23
343.75	1263.60
343.96	1314.80
344.17	1349.61
344.38	1224.69
344.60	1247.21
344.81	1265.64
345.02	1320.94
345.23	1306.60
345.44	1290.22
345.65	1298.41
345.86	1331.18
346.07	1318.89
346.29	1277.93
346.50	1263.60
346.71	1261.55
346.92	1269.74
347.13	1234.93
347.34	1300.46
347.55	1208.30
347.76	1286.12
347.98	1265.64
348.19	1277.93
348.40	1296.36
348.61	1279.98
348.82	1251.31
349.03	1265.64
349.24	1208.30
349.45	1333.23
349.66	1304.56
349.88	1298.41
350.09	1275.88
350.30	1353.71
350.51	1226.73
350.72	1245.16
350.93	1279.98
351.14	1259.50
351.35	1282.03
351.56	1214.45
351.77	1228.78
351.99	1263.60
352.20	1310.70
352.41	1294.32
352.62	1239.02
352.83	1306.60
353.04	1214.45
353.25	1198.06
353.46	1226.73
353.67	1302.51
353.88	1275.88
354.09	1333.23
354.30	1255.40
354.52	1255.40
354.73	1257.45
354.94	1318.89
355.15	1236.97
355.36	1261.55
355.57	1277.93
355.78	1228.78
355.99	1232.88
356.20	1298.41
356.41	1181.68
356.62	1292.27
356.83	1241.07
357.04	1224.69
357.25	1368.04
357.46	1257.45
357.68	1296.36
357.89	1214.45
358.10	1279.98
358.31	1263.60
358.52	1261.55
358.73	1286.12
358.94	1363.95
359.15	1275.88
359.36	1251.31
359.57	1159.15
359.78	1220.59
359.99	1214.45
360.20	1245.16
360.41	1286.12
360.62	1271.79
360.83	1245.16
361.04	1259.50
361.25	1196.01
361.46	1271.79
361.67	1267.69
361.88	1271.79
362.09	1167.34
362.30	1329.13
362.51	1253.36
362.72	1255.40
362.93	1265.64
363.14	1216.49
363.35	1257.45
363.56	1314.80
363.78	1306.60
363.99	1245.16
364.20	1224.69
364.41	1261.55
364.62	1347.56
364.83	1320.94
365.04	1179.63
365.25	1322.99
365.46	1267.69
365.67	1265.64
365.88	1236.97
366.09	1189.87
366.30	1275.88
366.51	1279.98
366.72	1265.64
366.93	1224.69
367.14	1282.03
367.35	1294.32
367.56	1239.02
367.77	1263.60
367.98	1282.03
368.18	1294.32
368.39	1288.17
368.60	1312.75
368.81	1216.49
369.02	1286.12
369.23	1310.70
369.44	1232.88
369.65	1269.74
369.86	1241.07
370.07	1228.78
370.28	1232.88
370.49	1212.40
370.70	1239.02
370.91	1204.21
371.12	1187.82
371.33	1251.31
371.54	1329.13
371.75	1294.32
371.96	1292.27
372.17	1224.69
372.38	1292.27
372.59	1288.17
372.80	1337.32
373.01	1267.69
373.22	1259.50
373.43	1243.12
373.64	1208.30
373.85	1298.41
374.06	1212.40
374.26	1230.83
374.47	1304.56
374.68	1261.55
374.89	1214.45
375.10	1226.73
375.31	1279.98
375.52	1298.41
375.73	1251.31
375.94	1253.36
376.15	1277.93
376.36	1286.12
376.57	1249.26
376.78	1275.88
376.99	1271.79
377.20	1370.09
377.40	1279.98
377.61	1243.12
377.82	1265.64
378.03	1212.40
378.24	1294.32
378.45	1273.84
378.66	1316.84
378.87	1277.93
379.08	1251.31
379.29	1296.36
379.50	1279.98
379.71	1236.97
379.91	1308.65
380.12	1263.60
380.33	1251.31
380.54	1239.02
380.75	1284.08
380.96	1267.69
381.17	1282.03
381.38	1302.51
381.59	1193.97
381.80	1279.98
382.00	1279.98
382.21	1286.12
382.42	1329.13
382.63	1241.07
382.84	1302.51
383.05	1329.13
383.26	1259.50
383.47	1191.92
383.68	1198.06
383.88	1275.88
384.09	1239.02
384.30	1329.13
384.51	1247.21
384.72	1255.40
384.93	1288.17
385.14	1269.74
385.35	1255.40
385.55	1253.36
385.76	1298.41
385.97	1263.60
386.18	1277.93
386.39	1171.44
386.60	1294.32
386.81	1282.03
387.02	1243.12
387.22	1257.45
387.43	1320.94
387.64	1224.69
387.85	1277.93
388.06	1210.35
388.27	1273.84
388.48	1335.28
388.68	1216.49
388.89	1277.93
389.10	1245.16
389.31	1181.68
389.52	1312.75
389.73	1275.88
389.93	1306.60
390.14	1247.21
390.35	1298.41
390.56	1202.16
390.77	1214.45
390.98	1349.61
391.18	1292.27
391.39	1333.23
391.60	1191.92
391.81	1329.13
392.02	1251.31
392.23	1245.16
392.43	1267.69
392.64	1302.51
392.85	1265.64
393.06	1314.80
393.27	1282.03
393.47	1224.69
393.68	1284.08
393.89	1269.74
394.10	1200.11
394.31	1257.45
394.52	1288.17
394.72	1339.37
394.93	1265.64
395.14	1265.64
395.35	1286.12
395.56	1245.16
395.76	1286.12
395.97	1218.54
396.18	1204.21
396.39	1241.07
396.60	1249.26
396.80	1251.31
397.01	1288.17
397.22	1216.49
397.43	1265.64
397.64	1300.46
397.84	1271.79
398.05	1261.55
398.26	1224.69
398.47	1241.07
398.67	1310.70
398.88	1302.51
399.09	1265.64
399.30	1273.84
399.51	1261.55
399.71	1236.97
399.92	1269.74
400.13	1232.88
400.34	1288.17
400.54	1325.04
400.75	1220.59
400.96	1241.07
401.17	1296.36
401.37	1269.74
401.58	1181.68
401.79	1239.02
402.00	1257.45
402.21	1210.35
402.41	1269.74
402.62	1249.26
402.83	1263.60
403.04	1277.93
403.24	1290.22
403.45	1263.60
403.66	1232.88
403.87	1304.56
404.07	1273.84
404.28	1329.13
404.49	1247.21
404.70	1320.94
404.90	1341.42
405.11	1318.89
405.32	1279.98
405.52	1282.03
405.73	1239.02
405.94	1286.12
406.15	1277.93
406.35	1218.54
406.56	1359.85
406.77	1294.32
406.98	1325.04
407.18	1298.41
407.39	1261.55
407.60	1216.49
407.80	1208.30
408.01	1284.08
408.22	1251.31
408.43	1247.21
408.63	1236.97
408.84	1271.79
409.05	1312.75
409.25	1265.64
409.46	1230.83
409.67	1300.46
409.88	1208.30
410.08	1255.40
410.29	1279.98
410.50	1275.88
410.70	1343.47
410.91	1263.60
411.12	1181.68
411.32	1318.89
411.53	1296.36
411.74	1271.79
411.95	1331.18
412.15	1304.56
412.36	1243.12
412.57	1259.50
412.77	1251.31
412.98	1273.84
413.19	1263.60
413.39	1198.06
413.60	1208.30
413.81	1247.21
414.01	1253.36
414.22	1310.70
414.43	1337.32
414.63	1271.79
414.84	1277.93
415.05	1265.64
415.25	1302.51
415.46	1333.23
415.67	1206.25
415.87	1259.50
416.08	1228.78
416.29	1298.41
416.49	1265.64
416.70	1290.22
416.91	1286.12
417.11	1234.93
417.32	1279.98
417.53	1263.60
417.73	1314.80
417.94	1294.32
418.15	1224.69
418.35	1286.12
418.56	1236.97
418.77	1290.22
418.97	1261.55
419.18	1325.04
419.38	1302.51
419.59	1296.36
419.80	1247.21
420.00	1236.97
420.21	1290.22
420.42	1269.74
420.62	1261.55
420.83	1251.31
421.04	1263.60
421.24	1236.97
421.45	1257.45
421.65	1220.59
421.86	1273.84
422.07	1304.56
422.27	1294.32
422.48	1316.84
422.69	1232.88
422.89	1247.21
423.10	1224.69
423.30	1271.79
423.51	1261.55
423.72	1345.52
423.92	1265.64
424.13	1267.69
424.33	1282.03
424.54	1222.64
424.75	1312.75
424.95	1265.64
425.16	1216.49
425.36	1193.97
425.57	1279.98
425.78	1234.93
425.98	1243.12
426.19	1261.55
426.39	1247.21
426.60	1241.07
426.81	1331.18
427.01	1245.16
427.22	1279.98
427.42	1224.69
427.63	1339.37
427.83	1230.83
428.04	1279.98
428.25	1232.88
428.45	1355.76
428.66	1249.26
428.86	1191.92
429.07	1296.36
429.28	1302.51
429.48	1228.78
429.69	1208.30
429.89	1300.46
430.10	1210.35
430.30	1310.70
430.51	1263.60
430.71	1296.36
430.92	1216.49
431.13	1177.58
431.33	1273.84
431.54	1292.27
431.74	1302.51
431.95	1179.63
432.15	1241.07
432.36	1210.35
432.56	1298.41
432.77	1187.82
432.98	1267.69
433.18	1277.93
433.39	1306.60
433.59	1316.84
433.80	1288.17
434.00	1230.83
434.21	1343.47
434.41	1288.17
434.62	1327.08
434.82	1228.78
435.03	1298.41
435.23	1320.94
435.44	1245.16
435.64	1234.93
435.85	1294.32
436.06	1347.56
436.26	1279.98
436.47	1247.21
436.67	1206.25
436.88	1300.46
437.08	1224.69
437.29	1265.64
437.49	1263.60
437.70	1327.08
437.90	1249.26
438.11	1316.84
438.31	1273.84
438.52	1302.51
438.72	1310.70
438.93	1245.16
439.13	1282.03
439.34	1349.61
439.54	1347.56
439.75	1251.31
439.95	1306.60
440.16	1271.79
440.36	1322.99
440.57	1308.65
440.77	1241.07
440.98	1290.22
441.18	1255.40
441.39	1327.08
441.59	1273.84
441.80	1230.83
442.00	1282.03
442.21	1185.77
442.41	1263.60
442.62	1343.47
442.82	1318.89
443.02	1318.89
443.23	1310.70
443.43	1210.35
443.64	1310.70
443.84	1249.26
444.05	1335.28
444.25	1226.73
444.46	1294.32
444.66	1286.12
444.87	1294.32
445.07	1271.79
445.28	1368.04
445.48	1288.17
445.69	1259.50
445.89	1257.45
446.09	1341.42
446.30	1265.64
446.50	1290.22
446.71	1378.28
446.91	1261.55
447.12	1226.73
447.32	1239.02
447.53	1306.60
447.73	1271.79
447.93	1232.88
448.14	1255.40
448.34	1257.45
448.55	1224.69
448.75	1298.41
448.96	1298.41
449.16	1284.08
449.36	1267.69
449.57	1292.27
449.77	1277.93
449.98	1245.16
450.18	1275.88
450.39	1318.89
450.59	1308.65
450.79	1234.93
451.00	1316.84
451.20	1236.97
451.41	1329.13
451.61	1302.51
451.81	1247.21
452.02	1366.00
452.22	1275.88
452.43	1204.21
452.63	1216.49
