SpectraSuite Data File
++++++++++++++++++++++++++++++++++++
Date: Sun Apr 03 19:55:16 CEST 2016
User: root
Dark Spectrum Present: No
Reference Spectrum Present: No
Number of Sampled Component Spectra: 1
Spectrometers: USB4C02835
Integration Time (usec): 10000 (USB4C02835)
Spectra Averaged: 1 (USB4C02835)
Boxcar Smoothing: 0 (USB4C02835)
Correct for Electrical Dark: No (USB4C02835)
Strobe/Lamp Enabled: No (USB4C02835)
Correct for Detector Non-linearity: No (USB4C02835)
Correct for Stray Light: No (USB4C02835)
Number of Pixels in Processed Spectrum: 3648
>>>>>Begin Processed Spectral Data<<<<<
177.47	1300.46
177.69	1300.46
177.91	1300.46
178.13	1279.98
178.36	1159.15
178.58	1302.51
178.80	1310.70
179.02	1259.50
179.24	1253.36
179.46	1243.12
179.68	1265.64
179.90	1245.16
180.13	1269.74
180.35	1300.46
180.57	1249.26
180.79	1243.12
181.01	1189.87
181.23	1255.40
181.45	1263.60
181.67	1245.16
181.90	1296.36
182.12	1181.68
182.34	1288.17
182.56	1239.02
182.78	1277.93
183.00	1310.70
183.22	1263.60
183.44	1241.07
183.66	1239.02
183.89	1220.59
184.11	1239.02
184.33	1222.64
184.55	1210.35
184.77	1259.50
184.99	1363.95
185.21	1290.22
185.43	1277.93
185.65	1269.74
185.87	1312.75
186.10	1247.21
186.32	1282.03
186.54	1259.50
186.76	1249.26
186.98	1251.31
187.20	1277.93
187.42	1300.46
187.64	1189.87
187.86	1277.93
188.08	1320.94
188.30	1343.47
188.52	1239.02
188.75	1257.45
188.97	1271.79
189.19	1251.31
189.41	1247.21
189.63	1253.36
189.85	1329.13
190.07	1300.46
190.29	1234.93
190.51	1265.64
190.73	1329.13
190.95	1290.22
191.17	1279.98
191.39	1284.08
191.61	1226.73
191.84	1236.97
192.06	1304.56
192.28	1255.40
192.50	1263.60
192.72	1224.69
192.94	1243.12
193.16	1261.55
193.38	1224.69
193.60	1325.04
193.82	1241.07
194.04	1255.40
194.26	1296.36
194.48	1318.89
194.70	1273.84
194.92	1146.86
195.14	1224.69
195.36	1214.45
195.58	1265.64
195.80	1341.42
196.02	1214.45
196.24	1271.79
196.46	1261.55
196.69	1273.84
196.91	1306.60
197.13	1300.46
197.35	1255.40
197.57	1230.83
197.79	1259.50
198.01	1304.56
198.23	1339.37
198.45	1296.36
198.67	1314.80
198.89	1257.45
199.11	1302.51
199.33	1306.60
199.55	1284.08
199.77	1206.25
199.99	1187.82
200.21	1314.80
200.43	1284.08
200.65	1247.21
200.87	1230.83
201.09	1288.17
201.31	1249.26
201.53	1312.75
201.75	1269.74
201.97	1298.41
202.19	1253.36
202.41	1222.64
202.63	1306.60
202.85	1230.83
203.07	1263.60
203.29	1304.56
203.51	1247.21
203.73	1290.22
203.95	1253.36
204.17	1269.74
204.39	1224.69
204.61	1245.16
204.83	1251.31
205.05	1335.28
205.27	1198.06
205.49	1267.69
205.71	1349.61
205.93	1282.03
206.15	1228.78
206.37	1249.26
206.59	1267.69
206.81	1277.93
207.03	1294.32
207.25	1286.12
207.47	1357.80
207.69	1296.36
207.91	1265.64
208.13	1241.07
208.34	1239.02
208.56	1312.75
208.78	1306.60
209.00	1247.21
209.22	1253.36
209.44	1230.83
209.66	1226.73
209.88	1243.12
210.10	1275.88
210.32	1249.26
210.54	1290.22
210.76	1329.13
210.98	1228.78
211.20	1279.98
211.42	1259.50
211.64	1214.45
211.86	1263.60
212.08	1269.74
212.30	1310.70
212.52	1279.98
212.74	1193.97
212.96	1269.74
213.17	1253.36
213.39	1304.56
213.61	1263.60
213.83	1191.92
214.05	1249.26
214.27	1232.88
214.49	1239.02
214.71	1247.21
214.93	1169.39
215.15	1198.06
215.37	1271.79
215.59	1290.22
215.81	1294.32
216.03	1316.84
216.24	1236.97
216.46	1318.89
216.68	1251.31
216.90	1269.74
217.12	1286.12
217.34	1230.83
217.56	1275.88
217.78	1294.32
218.00	1271.79
218.22	1300.46
218.44	1273.84
218.66	1261.55
218.87	1220.59
219.09	1251.31
219.31	1275.88
219.53	1267.69
219.75	1249.26
219.97	1279.98
220.19	1224.69
220.41	1286.12
220.63	1247.21
220.85	1353.71
221.06	1239.02
221.28	1208.30
221.50	1288.17
221.72	1220.59
221.94	1320.94
222.16	1222.64
222.38	1226.73
222.60	1271.79
222.82	1249.26
223.03	1290.22
223.25	1339.37
223.47	1263.60
223.69	1294.32
223.91	1335.28
224.13	1236.97
224.35	1292.27
224.57	1265.64
224.78	1206.25
225.00	1353.71
225.22	1277.93
225.44	1255.40
225.66	1279.98
225.88	1302.51
226.10	1236.97
226.32	1236.97
226.53	1247.21
226.75	1320.94
226.97	1279.98
227.19	1261.55
227.41	1318.89
227.63	1279.98
227.85	1253.36
228.06	1320.94
228.28	1228.78
228.50	1212.40
228.72	1261.55
228.94	1261.55
229.16	1267.69
229.37	1314.80
229.59	1265.64
229.81	1259.50
230.03	1230.83
230.25	1255.40
230.47	1255.40
230.69	1263.60
230.90	1181.68
231.12	1253.36
231.34	1224.69
231.56	1263.60
231.78	1241.07
232.00	1253.36
232.21	1312.75
232.43	1212.40
232.65	1279.98
232.87	1310.70
233.09	1286.12
233.30	1171.44
233.52	1224.69
233.74	1267.69
233.96	1212.40
234.18	1327.08
234.40	1294.32
234.61	1257.45
234.83	1263.60
235.05	1236.97
235.27	1253.36
235.49	1216.49
235.70	1253.36
235.92	1304.56
236.14	1224.69
236.36	1271.79
236.58	1302.51
236.79	1331.18
237.01	1284.08
237.23	1224.69
237.45	1265.64
237.67	1314.80
237.88	1251.31
238.10	1216.49
238.32	1224.69
238.54	1218.54
238.76	1251.31
238.97	1267.69
239.19	1177.58
239.41	1329.13
239.63	1341.42
239.85	1269.74
240.06	1335.28
240.28	1279.98
240.50	1198.06
240.72	1312.75
240.93	1249.26
241.15	1208.30
241.37	1245.16
241.59	1263.60
241.81	1304.56
242.02	1335.28
242.24	1181.68
242.46	1204.21
242.68	1261.55
242.89	1273.84
243.11	1273.84
243.33	1200.11
243.55	1308.65
243.76	1212.40
243.98	1243.12
244.20	1181.68
244.42	1216.49
244.64	1286.12
244.85	1236.97
245.07	1155.05
245.29	1269.74
245.51	1259.50
245.72	1228.78
245.94	1306.60
246.16	1196.01
246.38	1298.41
246.59	1251.31
246.81	1318.89
247.03	1212.40
247.24	1269.74
247.46	1243.12
247.68	1275.88
247.90	1249.26
248.11	1220.59
248.33	1218.54
248.55	1216.49
248.77	1185.77
248.98	1275.88
249.20	1245.16
249.42	1239.02
249.64	1175.53
249.85	1306.60
250.07	1306.60
250.29	1302.51
250.50	1306.60
250.72	1306.60
250.94	1193.97
251.16	1331.18
251.37	1335.28
251.59	1302.51
251.81	1294.32
252.02	1325.04
252.24	1279.98
252.46	1290.22
252.68	1290.22
252.89	1279.98
253.11	1200.11
253.33	1232.88
253.54	1247.21
253.76	1232.88
253.98	1259.50
254.20	1271.79
254.41	1218.54
254.63	1277.93
254.85	1189.87
255.06	1232.88
255.28	1282.03
255.50	1286.12
255.71	1286.12
255.93	1288.17
256.15	1269.74
256.36	1243.12
256.58	1290.22
256.80	1232.88
257.02	1292.27
257.23	1155.05
257.45	1333.23
257.67	1241.07
257.88	1222.64
258.10	1261.55
258.32	1167.34
258.53	1243.12
258.75	1308.65
258.97	1249.26
259.18	1218.54
259.40	1210.35
259.62	1204.21
259.83	1288.17
260.05	1255.40
260.27	1298.41
260.48	1296.36
260.70	1226.73
260.92	1261.55
261.13	1241.07
261.35	1245.16
261.57	1243.12
261.78	1263.60
262.00	1282.03
262.22	1370.09
262.43	1236.97
262.65	1286.12
262.86	1257.45
263.08	1234.93
263.30	1273.84
263.51	1208.30
263.73	1288.17
263.95	1277.93
264.16	1191.92
264.38	1241.07
264.60	1306.60
264.81	1173.49
265.03	1261.55
265.25	1306.60
265.46	1271.79
265.68	1216.49
265.89	1306.60
266.11	1277.93
266.33	1220.59
266.54	1245.16
266.76	1347.56
266.98	1292.27
267.19	1339.37
267.41	1239.02
267.62	1243.12
267.84	1222.64
268.06	1243.12
268.27	1273.84
268.49	1277.93
268.70	1279.98
268.92	1263.60
269.14	1290.22
269.35	1243.12
269.57	1269.74
269.79	1271.79
270.00	1296.36
270.22	1294.32
270.43	1290.22
270.65	1284.08
270.87	1269.74
271.08	1245.16
271.30	1308.65
271.51	1282.03
271.73	1331.18
271.95	1241.07
272.16	1271.79
272.38	1222.64
272.59	1251.31
272.81	1263.60
273.02	1220.59
273.24	1347.56
273.46	1298.41
273.67	1257.45
273.89	1318.89
274.10	1259.50
274.32	1294.32
274.54	1202.16
274.75	1232.88
274.97	1275.88
275.18	1220.59
275.40	1282.03
275.61	1312.75
275.83	1288.17
276.05	1263.60
276.26	1257.45
276.48	1259.50
276.69	1259.50
276.91	1243.12
277.12	1298.41
277.34	1251.31
277.55	1245.16
277.77	1298.41
277.99	1265.64
278.20	1288.17
278.42	1290.22
278.63	1322.99
278.85	1288.17
279.06	1220.59
279.28	1236.97
279.49	1259.50
279.71	1249.26
279.93	1245.16
280.14	1282.03
280.36	1284.08
280.57	1277.93
280.79	1308.65
281.00	1263.60
281.22	1236.97
281.43	1337.32
281.65	1273.84
281.86	1282.03
282.08	1251.31
282.29	1341.42
282.51	1267.69
282.73	1232.88
282.94	1230.83
283.16	1327.08
283.37	1318.89
283.59	1255.40
283.80	1263.60
284.02	1255.40
284.23	1284.08
284.45	1320.94
284.66	1261.55
284.88	1282.03
285.09	1257.45
285.31	1259.50
285.52	1243.12
285.74	1304.56
285.95	1261.55
286.17	1239.02
286.38	1236.97
286.60	1341.42
286.81	1253.36
287.03	1302.51
287.24	1288.17
287.46	1236.97
287.67	1204.21
287.89	1277.93
288.10	1353.71
288.32	1312.75
288.53	1282.03
288.75	1275.88
288.96	1286.12
289.18	1284.08
289.39	1191.92
289.61	1286.12
289.82	1269.74
290.04	1308.65
290.25	1249.26
290.47	1380.33
290.68	1247.21
290.90	1275.88
291.11	1259.50
291.33	1228.78
291.54	1275.88
291.76	1239.02
291.97	1253.36
292.18	1341.42
292.40	1314.80
292.61	1253.36
292.83	1314.80
293.04	1298.41
293.26	1296.36
293.47	1239.02
293.69	1251.31
293.90	1298.41
294.12	1329.13
294.33	1296.36
294.55	1286.12
294.76	1314.80
294.97	1255.40
295.19	1269.74
295.40	1261.55
295.62	1292.27
295.83	1277.93
296.05	1249.26
296.26	1239.02
296.48	1275.88
296.69	1183.73
296.90	1279.98
297.12	1271.79
297.33	1273.84
297.55	1259.50
297.76	1257.45
297.98	1312.75
298.19	1275.88
298.41	1275.88
298.62	1296.36
298.83	1282.03
299.05	1216.49
299.26	1224.69
299.48	1228.78
299.69	1271.79
299.90	1257.45
300.12	1304.56
300.33	1296.36
300.55	1222.64
300.76	1282.03
300.98	1230.83
301.19	1255.40
301.40	1222.64
301.62	1241.07
301.83	1288.17
302.05	1279.98
302.26	1193.97
302.47	1308.65
302.69	1273.84
302.90	1302.51
303.12	1304.56
303.33	1320.94
303.54	1267.69
303.76	1273.84
303.97	1259.50
304.19	1255.40
304.40	1243.12
304.61	1318.89
304.83	1249.26
305.04	1300.46
305.26	1267.69
305.47	1302.51
305.68	1222.64
305.90	1267.69
306.11	1286.12
306.33	1322.99
306.54	1234.93
306.75	1265.64
306.97	1292.27
307.18	1277.93
307.39	1304.56
307.61	1341.42
307.82	1292.27
308.04	1245.16
308.25	1220.59
308.46	1318.89
308.68	1236.97
308.89	1288.17
309.10	1263.60
309.32	1239.02
309.53	1304.56
309.74	1331.18
309.96	1312.75
310.17	1253.36
310.39	1298.41
310.60	1257.45
310.81	1183.73
311.03	1234.93
311.24	1286.12
311.45	1335.28
311.67	1241.07
311.88	1273.84
312.09	1234.93
312.31	1261.55
312.52	1247.21
312.73	1288.17
312.95	1261.55
313.16	1322.99
313.37	1212.40
313.59	1296.36
313.80	1249.26
314.01	1236.97
314.23	1234.93
314.44	1236.97
314.65	1267.69
314.87	1239.02
315.08	1267.69
315.29	1318.89
315.51	1218.54
315.72	1275.88
315.93	1208.30
316.15	1226.73
316.36	1259.50
316.57	1196.01
316.79	1243.12
317.00	1263.60
317.21	1241.07
317.43	1282.03
317.64	1241.07
317.85	1253.36
318.07	1294.32
318.28	1368.04
318.49	1304.56
318.70	1294.32
318.92	1230.83
319.13	1286.12
319.34	1224.69
319.56	1255.40
319.77	1214.45
319.98	1257.45
320.20	1300.46
320.41	1286.12
320.62	1351.66
320.83	1247.21
321.05	1239.02
321.26	1269.74
321.47	1279.98
321.69	1296.36
321.90	1304.56
322.11	1296.36
322.32	1314.80
322.54	1314.80
322.75	1318.89
322.96	1245.16
323.18	1277.93
323.39	1253.36
323.60	1286.12
323.81	1216.49
324.03	1282.03
324.24	1249.26
324.45	1277.93
324.66	1300.46
324.88	1251.31
325.09	1310.70
325.30	1257.45
325.52	1351.66
325.73	1271.79
325.94	1279.98
326.15	1322.99
326.37	1273.84
326.58	1327.08
326.79	1288.17
327.00	1228.78
327.22	1292.27
327.43	1341.42
327.64	1257.45
327.85	1273.84
328.07	1279.98
328.28	1271.79
328.49	1294.32
328.70	1177.58
328.92	1286.12
329.13	1288.17
329.34	1306.60
329.55	1263.60
329.76	1269.74
329.98	1316.84
330.19	1273.84
330.40	1257.45
330.61	1331.18
330.83	1296.36
331.04	1245.16
331.25	1265.64
331.46	1284.08
331.68	1312.75
331.89	1232.88
332.10	1308.65
332.31	1327.08
332.52	1345.52
332.74	1261.55
332.95	1306.60
333.16	1185.77
333.37	1275.88
333.58	1269.74
333.80	1322.99
334.01	1320.94
334.22	1290.22
334.43	1218.54
334.64	1255.40
334.86	1286.12
335.07	1286.12
335.28	1277.93
335.49	1251.31
335.70	1263.60
335.92	1216.49
336.13	1261.55
336.34	1302.51
336.55	1257.45
336.76	1349.61
336.98	1234.93
337.19	1294.32
337.40	1312.75
337.61	1284.08
337.82	1259.50
338.04	1169.39
338.25	1339.37
338.46	1253.36
338.67	1288.17
338.88	1236.97
339.09	1296.36
339.31	1228.78
339.52	1263.60
339.73	1247.21
339.94	1339.37
340.15	1230.83
340.36	1222.64
340.58	1290.22
340.79	1310.70
341.00	1257.45
341.21	1257.45
341.42	1236.97
341.63	1273.84
341.85	1253.36
342.06	1216.49
342.27	1279.98
342.48	1247.21
342.69	1320.94
342.90	1282.03
343.12	1251.31
343.33	1306.60
343.54	1292.27
343.75	1318.89
343.96	1265.64
344.17	1372.14
344.38	1226.73
344.60	1259.50
344.81	1265.64
345.02	1267.69
345.23	1277.93
345.44	1269.74
345.65	1296.36
345.86	1216.49
346.07	1253.36
346.29	1255.40
346.50	1216.49
346.71	1259.50
346.92	1224.69
347.13	1253.36
347.34	1282.03
347.55	1314.80
347.76	1353.71
347.98	1265.64
348.19	1226.73
348.40	1320.94
348.61	1253.36
348.82	1320.94
349.03	1335.28
349.24	1232.88
349.45	1255.40
349.66	1320.94
349.88	1212.40
350.09	1249.26
350.30	1294.32
350.51	1239.02
350.72	1222.64
350.93	1261.55
351.14	1318.89
351.35	1269.74
351.56	1214.45
351.77	1269.74
351.99	1247.21
352.20	1322.99
352.41	1241.07
352.62	1183.73
352.83	1251.31
353.04	1269.74
353.25	1206.25
353.46	1316.84
353.67	1214.45
353.88	1286.12
354.09	1355.76
354.30	1288.17
354.52	1263.60
354.73	1243.12
354.94	1257.45
355.15	1271.79
355.36	1318.89
355.57	1277.93
355.78	1314.80
355.99	1249.26
356.20	1288.17
356.41	1306.60
356.62	1273.84
356.83	1284.08
357.04	1318.89
357.25	1236.97
357.46	1275.88
357.68	1271.79
357.89	1286.12
358.10	1232.88
358.31	1312.75
358.52	1241.07
358.73	1282.03
358.94	1271.79
359.15	1267.69
359.36	1267.69
359.57	1277.93
359.78	1165.29
359.99	1241.07
360.20	1292.27
360.41	1282.03
360.62	1269.74
360.83	1288.17
361.04	1273.84
361.25	1224.69
361.46	1275.88
361.67	1327.08
361.88	1265.64
362.09	1247.21
362.30	1341.42
362.51	1339.37
362.72	1265.64
362.93	1290.22
363.14	1288.17
363.35	1269.74
363.56	1196.01
363.78	1232.88
363.99	1277.93
364.20	1249.26
364.41	1210.35
364.62	1245.16
364.83	1273.84
365.04	1241.07
365.25	1316.84
365.46	1282.03
365.67	1255.40
365.88	1290.22
366.09	1245.16
366.30	1232.88
366.51	1308.65
366.72	1282.03
366.93	1284.08
367.14	1257.45
367.35	1290.22
367.56	1232.88
367.77	1304.56
367.98	1243.12
368.18	1275.88
368.39	1284.08
368.60	1210.35
368.81	1269.74
369.02	1259.50
369.23	1228.78
369.44	1245.16
369.65	1263.60
369.86	1312.75
370.07	1308.65
370.28	1228.78
370.49	1220.59
370.70	1300.46
370.91	1275.88
371.12	1236.97
371.33	1228.78
371.54	1312.75
371.75	1222.64
371.96	1353.71
372.17	1314.80
372.38	1273.84
372.59	1243.12
372.80	1206.25
373.01	1230.83
373.22	1232.88
373.43	1232.88
373.64	1234.93
373.85	1234.93
374.06	1222.64
374.26	1249.26
374.47	1277.93
374.68	1259.50
374.89	1261.55
375.10	1212.40
375.31	1310.70
375.52	1302.51
375.73	1269.74
375.94	1312.75
376.15	1271.79
376.36	1241.07
376.57	1218.54
376.78	1269.74
376.99	1314.80
377.20	1282.03
377.40	1312.75
377.61	1288.17
377.82	1249.26
378.03	1331.18
378.24	1288.17
378.45	1243.12
378.66	1343.47
378.87	1187.82
379.08	1245.16
379.29	1226.73
379.50	1300.46
379.71	1286.12
379.91	1214.45
380.12	1265.64
380.33	1257.45
380.54	1261.55
380.75	1275.88
380.96	1290.22
381.17	1257.45
381.38	1255.40
381.59	1228.78
381.80	1282.03
382.00	1308.65
382.21	1286.12
382.42	1290.22
382.63	1296.36
382.84	1296.36
383.05	1257.45
383.26	1275.88
383.47	1232.88
383.68	1273.84
383.88	1318.89
384.09	1294.32
384.30	1296.36
384.51	1249.26
384.72	1271.79
384.93	1251.31
385.14	1210.35
385.35	1302.51
385.55	1228.78
385.76	1318.89
385.97	1306.60
386.18	1228.78
386.39	1292.27
386.60	1239.02
386.81	1279.98
387.02	1163.25
387.22	1265.64
387.43	1327.08
387.64	1282.03
387.85	1171.44
388.06	1296.36
388.27	1216.49
388.48	1292.27
388.68	1239.02
388.89	1273.84
389.10	1243.12
389.31	1236.97
389.52	1282.03
389.73	1255.40
389.93	1347.56
390.14	1239.02
390.35	1273.84
390.56	1271.79
390.77	1273.84
390.98	1286.12
391.18	1277.93
391.39	1271.79
391.60	1216.49
391.81	1249.26
392.02	1245.16
392.23	1275.88
392.43	1284.08
392.64	1257.45
392.85	1257.45
393.06	1288.17
393.27	1247.21
393.47	1196.01
393.68	1230.83
393.89	1261.55
394.10	1286.12
394.31	1271.79
394.52	1284.08
394.72	1320.94
394.93	1306.60
395.14	1294.32
395.35	1232.88
395.56	1292.27
395.76	1249.26
395.97	1314.80
396.18	1284.08
396.39	1241.07
396.60	1255.40
396.80	1267.69
397.01	1265.64
397.22	1236.97
397.43	1282.03
397.64	1329.13
397.84	1247.21
398.05	1269.74
398.26	1282.03
398.47	1282.03
398.67	1177.58
398.88	1286.12
399.09	1288.17
399.30	1259.50
399.51	1288.17
399.71	1257.45
399.92	1189.87
400.13	1239.02
400.34	1282.03
400.54	1269.74
400.75	1300.46
400.96	1255.40
401.17	1247.21
401.37	1349.61
401.58	1267.69
401.79	1284.08
402.00	1241.07
402.21	1282.03
402.41	1275.88
402.62	1255.40
402.83	1267.69
403.04	1232.88
403.24	1259.50
403.45	1216.49
403.66	1302.51
403.87	1216.49
404.07	1228.78
404.28	1322.99
404.49	1263.60
404.70	1216.49
404.90	1230.83
405.11	1204.21
405.32	1279.98
405.52	1249.26
405.73	1318.89
405.94	1292.27
406.15	1263.60
406.35	1253.36
406.56	1271.79
406.77	1273.84
406.98	1341.42
407.18	1288.17
407.39	1277.93
407.60	1249.26
407.80	1239.02
408.01	1228.78
408.22	1333.23
408.43	1279.98
408.63	1271.79
408.84	1236.97
409.05	1271.79
409.25	1271.79
409.46	1200.11
409.67	1249.26
409.88	1310.70
410.08	1255.40
410.29	1247.21
410.50	1292.27
410.70	1290.22
410.91	1259.50
411.12	1271.79
411.32	1269.74
411.53	1232.88
411.74	1261.55
411.95	1191.92
412.15	1298.41
412.36	1259.50
412.57	1353.71
412.77	1290.22
412.98	1355.76
413.19	1255.40
413.39	1269.74
413.60	1267.69
413.81	1193.97
414.01	1251.31
414.22	1275.88
414.43	1267.69
414.63	1292.27
414.84	1255.40
415.05	1241.07
415.25	1314.80
415.46	1310.70
415.67	1286.12
415.87	1236.97
416.08	1310.70
416.29	1243.12
416.49	1269.74
416.70	1263.60
416.91	1349.61
417.11	1277.93
417.32	1241.07
417.53	1257.45
417.73	1312.75
417.94	1320.94
418.15	1290.22
418.35	1208.30
418.56	1241.07
418.77	1241.07
418.97	1206.25
419.18	1378.28
419.38	1241.07
419.59	1234.93
419.80	1261.55
420.00	1251.31
420.21	1304.56
420.42	1265.64
420.62	1243.12
420.83	1302.51
421.04	1269.74
421.24	1259.50
421.45	1310.70
421.65	1279.98
421.86	1288.17
422.07	1259.50
422.27	1322.99
422.48	1284.08
422.69	1282.03
422.89	1294.32
423.10	1230.83
423.30	1267.69
423.51	1251.31
423.72	1269.74
423.92	1253.36
424.13	1288.17
424.33	1269.74
424.54	1279.98
424.75	1241.07
424.95	1275.88
425.16	1290.22
425.36	1267.69
425.57	1245.16
425.78	1204.21
425.98	1345.52
426.19	1271.79
426.39	1261.55
426.60	1259.50
426.81	1241.07
427.01	1279.98
427.22	1247.21
427.42	1241.07
427.63	1284.08
427.83	1226.73
428.04	1241.07
428.25	1279.98
428.45	1275.88
428.66	1347.56
428.86	1286.12
429.07	1245.16
429.28	1245.16
429.48	1279.98
429.69	1265.64
429.89	1355.76
430.10	1232.88
430.30	1202.16
430.51	1316.84
430.71	1263.60
430.92	1320.94
431.13	1220.59
431.33	1214.45
431.54	1286.12
431.74	1282.03
431.95	1290.22
432.15	1230.83
432.36	1302.51
432.56	1292.27
432.77	1282.03
432.98	1296.36
433.18	1343.47
433.39	1302.51
433.59	1298.41
433.80	1325.04
434.00	1234.93
434.21	1224.69
434.41	1267.69
434.62	1269.74
434.82	1322.99
435.03	1304.56
435.23	1333.23
435.44	1263.60
435.64	1335.28
435.85	1318.89
436.06	1275.88
436.26	1275.88
436.47	1300.46
436.67	1302.51
436.88	1286.12
437.08	1230.83
437.29	1286.12
437.49	1279.98
437.70	1347.56
437.90	1212.40
438.11	1224.69
438.31	1335.28
438.52	1249.26
438.72	1253.36
438.93	1277.93
439.13	1302.51
439.34	1290.22
439.54	1339.37
439.75	1226.73
439.95	1232.88
440.16	1206.25
440.36	1265.64
440.57	1239.02
440.77	1261.55
440.98	1275.88
441.18	1269.74
441.39	1232.88
441.59	1282.03
441.80	1284.08
442.00	1314.80
442.21	1275.88
442.41	1216.49
442.62	1271.79
442.82	1308.65
443.02	1239.02
443.23	1259.50
443.43	1224.69
443.64	1249.26
443.84	1288.17
444.05	1277.93
444.25	1304.56
444.46	1253.36
444.66	1269.74
444.87	1257.45
445.07	1286.12
445.28	1376.24
445.48	1218.54
445.69	1273.84
445.89	1239.02
446.09	1265.64
446.30	1284.08
446.50	1335.28
446.71	1306.60
446.91	1298.41
447.12	1247.21
447.32	1232.88
447.53	1304.56
447.73	1351.66
447.93	1294.32
448.14	1316.84
448.34	1265.64
448.55	1279.98
448.75	1253.36
448.96	1329.13
449.16	1277.93
449.36	1253.36
449.57	1279.98
449.77	1286.12
449.98	1296.36
450.18	1288.17
450.39	1288.17
450.59	1294.32
450.79	1288.17
451.00	1245.16
451.20	1245.16
451.41	1271.79
451.61	1191.92
451.81	1255.40
452.02	1378.28
452.22	1308.65
452.43	1253.36
452.63	1357.80
