SpectraSuite Data File
++++++++++++++++++++++++++++++++++++
Date: Sun Apr 03 19:55:35 CEST 2016
User: root
Dark Spectrum Present: No
Reference Spectrum Present: No
Number of Sampled Component Spectra: 1
Spectrometers: USB4C02835
Integration Time (usec): 10000 (USB4C02835)
Spectra Averaged: 1 (USB4C02835)
Boxcar Smoothing: 0 (USB4C02835)
Correct for Electrical Dark: No (USB4C02835)
Strobe/Lamp Enabled: No (USB4C02835)
Correct for Detector Non-linearity: No (USB4C02835)
Correct for Stray Light: No (USB4C02835)
Number of Pixels in Processed Spectrum: 3648
>>>>>Begin Processed Spectral Data<<<<<
177.47	1224.69
177.69	1224.69
177.91	1224.69
178.13	1228.78
178.36	1218.54
178.58	1292.27
178.80	1206.25
179.02	1282.03
179.24	1263.60
179.46	1259.50
179.68	1232.88
179.90	1232.88
180.13	1263.60
180.35	1216.49
180.57	1279.98
180.79	1251.31
181.01	1253.36
181.23	1296.36
181.45	1294.32
181.67	1191.92
181.90	1294.32
182.12	1187.82
182.34	1165.29
182.56	1263.60
182.78	1306.60
183.00	1232.88
183.22	1271.79
183.44	1206.25
183.66	1212.40
183.89	1222.64
184.11	1331.18
184.33	1290.22
184.55	1245.16
184.77	1202.16
184.99	1265.64
185.21	1212.40
185.43	1255.40
185.65	1196.01
185.87	1253.36
186.10	1218.54
186.32	1282.03
186.54	1236.97
186.76	1241.07
186.98	1290.22
187.20	1243.12
187.42	1196.01
187.64	1206.25
187.86	1271.79
188.08	1320.94
188.30	1249.26
188.52	1300.46
188.75	1331.18
188.97	1210.35
189.19	1263.60
189.41	1257.45
189.63	1236.97
189.85	1284.08
190.07	1298.41
190.29	1259.50
190.51	1271.79
190.73	1292.27
190.95	1218.54
191.17	1251.31
191.39	1294.32
191.61	1327.08
191.84	1273.84
192.06	1249.26
192.28	1255.40
192.50	1239.02
192.72	1216.49
192.94	1286.12
193.16	1222.64
193.38	1333.23
193.60	1265.64
193.82	1265.64
194.04	1263.60
194.26	1251.31
194.48	1269.74
194.70	1251.31
194.92	1357.80
195.14	1347.56
195.36	1228.78
195.58	1249.26
195.80	1304.56
196.02	1282.03
196.24	1296.36
196.46	1286.12
196.69	1216.49
196.91	1245.16
197.13	1226.73
197.35	1316.84
197.57	1222.64
197.79	1243.12
198.01	1282.03
198.23	1312.75
198.45	1224.69
198.67	1247.21
198.89	1249.26
199.11	1327.08
199.33	1300.46
199.55	1318.89
199.77	1322.99
199.99	1288.17
200.21	1269.74
200.43	1230.83
200.65	1236.97
200.87	1261.55
201.09	1191.92
201.31	1232.88
201.53	1277.93
201.75	1224.69
201.97	1308.65
202.19	1208.30
202.41	1259.50
202.63	1302.51
202.85	1288.17
203.07	1320.94
203.29	1316.84
203.51	1333.23
203.73	1316.84
203.95	1345.52
204.17	1261.55
204.39	1277.93
204.61	1265.64
204.83	1265.64
205.05	1273.84
205.27	1288.17
205.49	1269.74
205.71	1239.02
205.93	1173.49
206.15	1312.75
206.37	1284.08
206.59	1247.21
206.81	1298.41
207.03	1320.94
207.25	1218.54
207.47	1277.93
207.69	1273.84
207.91	1306.60
208.13	1263.60
208.34	1306.60
208.56	1271.79
208.78	1279.98
209.00	1200.11
209.22	1302.51
209.44	1206.25
209.66	1247.21
209.88	1255.40
210.10	1312.75
210.32	1245.16
210.54	1222.64
210.76	1232.88
210.98	1304.56
211.20	1208.30
211.42	1275.88
211.64	1267.69
211.86	1224.69
212.08	1196.01
212.30	1261.55
212.52	1288.17
212.74	1247.21
212.96	1284.08
213.17	1249.26
213.39	1253.36
213.61	1296.36
213.83	1245.16
214.05	1279.98
214.27	1306.60
214.49	1282.03
214.71	1251.31
214.93	1279.98
215.15	1265.64
215.37	1275.88
215.59	1282.03
215.81	1267.69
216.03	1263.60
216.24	1269.74
216.46	1232.88
216.68	1232.88
216.90	1191.92
217.12	1263.60
217.34	1232.88
217.56	1355.76
217.78	1224.69
218.00	1294.32
218.22	1255.40
218.44	1239.02
218.66	1253.36
218.87	1347.56
219.09	1265.64
219.31	1288.17
219.53	1308.65
219.75	1214.45
219.97	1294.32
220.19	1290.22
220.41	1288.17
220.63	1308.65
220.85	1167.34
221.06	1347.56
221.28	1282.03
221.50	1245.16
221.72	1265.64
221.94	1372.14
222.16	1239.02
222.38	1294.32
222.60	1337.32
222.82	1329.13
223.03	1331.18
223.25	1269.74
223.47	1249.26
223.69	1214.45
223.91	1353.71
224.13	1267.69
224.35	1300.46
224.57	1296.36
224.78	1318.89
225.00	1196.01
225.22	1265.64
225.44	1261.55
225.66	1275.88
225.88	1241.07
226.10	1269.74
226.32	1284.08
226.53	1224.69
226.75	1286.12
226.97	1230.83
227.19	1228.78
227.41	1255.40
227.63	1257.45
227.85	1212.40
228.06	1322.99
228.28	1275.88
228.50	1261.55
228.72	1230.83
228.94	1269.74
229.16	1253.36
229.37	1226.73
229.59	1277.93
229.81	1349.61
230.03	1267.69
230.25	1183.73
230.47	1341.42
230.69	1284.08
230.90	1335.28
231.12	1251.31
231.34	1284.08
231.56	1273.84
231.78	1296.36
232.00	1263.60
232.21	1243.12
232.43	1265.64
232.65	1220.59
232.87	1247.21
233.09	1255.40
233.30	1261.55
233.52	1292.27
233.74	1196.01
233.96	1273.84
234.18	1327.08
234.40	1298.41
234.61	1265.64
234.83	1245.16
235.05	1228.78
235.27	1234.93
235.49	1325.04
235.70	1247.21
235.92	1204.21
236.14	1261.55
236.36	1263.60
236.58	1286.12
236.79	1214.45
237.01	1196.01
237.23	1263.60
237.45	1288.17
237.67	1226.73
237.88	1294.32
238.10	1273.84
238.32	1318.89
238.54	1312.75
238.76	1294.32
238.97	1284.08
239.19	1241.07
239.41	1296.36
239.63	1263.60
239.85	1257.45
240.06	1284.08
240.28	1263.60
240.50	1261.55
240.72	1273.84
240.93	1316.84
241.15	1302.51
241.37	1269.74
241.59	1298.41
241.81	1327.08
242.02	1247.21
242.24	1277.93
242.46	1216.49
242.68	1298.41
242.89	1294.32
243.11	1198.06
243.33	1228.78
243.55	1279.98
243.76	1294.32
243.98	1261.55
244.20	1249.26
244.42	1181.68
244.64	1271.79
244.85	1265.64
245.07	1239.02
245.29	1284.08
245.51	1243.12
245.72	1279.98
245.94	1306.60
246.16	1212.40
246.38	1286.12
246.59	1257.45
246.81	1232.88
247.03	1310.70
247.24	1331.18
247.46	1275.88
247.68	1316.84
247.90	1282.03
248.11	1241.07
248.33	1265.64
248.55	1282.03
248.77	1241.07
248.98	1234.93
249.20	1232.88
249.42	1302.51
249.64	1292.27
249.85	1277.93
250.07	1239.02
250.29	1220.59
250.50	1245.16
250.72	1239.02
250.94	1249.26
251.16	1236.97
251.37	1339.37
251.59	1282.03
251.81	1282.03
252.02	1236.97
252.24	1222.64
252.46	1257.45
252.68	1286.12
252.89	1255.40
253.11	1210.35
253.33	1302.51
253.54	1239.02
253.76	1265.64
253.98	1257.45
254.20	1271.79
254.41	1302.51
254.63	1261.55
254.85	1296.36
255.06	1320.94
255.28	1347.56
255.50	1204.21
255.71	1318.89
255.93	1204.21
256.15	1153.01
256.36	1298.41
256.58	1302.51
256.80	1255.40
257.02	1253.36
257.23	1279.98
257.45	1236.97
257.67	1282.03
257.88	1226.73
258.10	1282.03
258.32	1245.16
258.53	1292.27
258.75	1265.64
258.97	1275.88
259.18	1271.79
259.40	1224.69
259.62	1224.69
259.83	1261.55
260.05	1286.12
260.27	1312.75
260.48	1292.27
260.70	1290.22
260.92	1241.07
261.13	1228.78
261.35	1271.79
261.57	1257.45
261.78	1259.50
262.00	1298.41
262.22	1273.84
262.43	1259.50
262.65	1271.79
262.86	1265.64
263.08	1345.52
263.30	1312.75
263.51	1271.79
263.73	1271.79
263.95	1222.64
264.16	1286.12
264.38	1255.40
264.60	1214.45
264.81	1318.89
265.03	1251.31
265.25	1249.26
265.46	1325.04
265.68	1234.93
265.89	1247.21
266.11	1247.21
266.33	1241.07
266.54	1259.50
266.76	1296.36
266.98	1187.82
267.19	1298.41
267.41	1306.60
267.62	1226.73
267.84	1320.94
268.06	1255.40
268.27	1263.60
268.49	1349.61
268.70	1310.70
268.92	1271.79
269.14	1214.45
269.35	1261.55
269.57	1220.59
269.79	1236.97
270.00	1196.01
270.22	1241.07
270.43	1282.03
270.65	1232.88
270.87	1249.26
271.08	1206.25
271.30	1239.02
271.51	1294.32
271.73	1333.23
271.95	1312.75
272.16	1298.41
272.38	1239.02
272.59	1196.01
272.81	1261.55
273.02	1218.54
273.24	1232.88
273.46	1230.83
273.67	1288.17
273.89	1290.22
274.10	1306.60
274.32	1173.49
274.54	1257.45
274.75	1314.80
274.97	1296.36
275.18	1216.49
275.40	1343.47
275.61	1249.26
275.83	1298.41
276.05	1279.98
276.26	1277.93
276.48	1259.50
276.69	1261.55
276.91	1224.69
277.12	1222.64
277.34	1286.12
277.55	1228.78
277.77	1292.27
277.99	1357.80
278.20	1279.98
278.42	1286.12
278.63	1329.13
278.85	1224.69
279.06	1255.40
279.28	1304.56
279.49	1236.97
279.71	1239.02
279.93	1318.89
280.14	1261.55
280.36	1196.01
280.57	1290.22
280.79	1253.36
281.00	1198.06
281.22	1288.17
281.43	1282.03
281.65	1234.93
281.86	1253.36
282.08	1257.45
282.29	1271.79
282.51	1255.40
282.73	1232.88
282.94	1314.80
283.16	1261.55
283.37	1243.12
283.59	1304.56
283.80	1271.79
284.02	1169.39
284.23	1222.64
284.45	1243.12
284.66	1271.79
284.88	1245.16
285.09	1261.55
285.31	1286.12
285.52	1232.88
285.74	1286.12
285.95	1241.07
286.17	1208.30
286.38	1230.83
286.60	1251.31
286.81	1273.84
287.03	1277.93
287.24	1308.65
287.46	1267.69
287.67	1249.26
287.89	1263.60
288.10	1282.03
288.32	1341.42
288.53	1290.22
288.75	1273.84
288.96	1304.56
289.18	1222.64
289.39	1191.92
289.61	1218.54
289.82	1275.88
290.04	1296.36
290.25	1331.18
290.47	1241.07
290.68	1290.22
290.90	1366.00
291.11	1308.65
291.33	1134.57
291.54	1292.27
291.76	1282.03
291.97	1224.69
292.18	1253.36
292.40	1179.63
292.61	1255.40
292.83	1265.64
293.04	1247.21
293.26	1275.88
293.47	1271.79
293.69	1253.36
293.90	1249.26
294.12	1220.59
294.33	1329.13
294.55	1288.17
294.76	1253.36
294.97	1318.89
295.19	1279.98
295.40	1296.36
295.62	1269.74
295.83	1253.36
296.05	1234.93
296.26	1308.65
296.48	1302.51
296.69	1271.79
296.90	1243.12
297.12	1241.07
297.33	1265.64
297.55	1282.03
297.76	1249.26
297.98	1259.50
298.19	1288.17
298.41	1271.79
298.62	1312.75
298.83	1232.88
299.05	1259.50
299.26	1271.79
299.48	1290.22
299.69	1251.31
299.90	1245.16
300.12	1320.94
300.33	1249.26
300.55	1290.22
300.76	1296.36
300.98	1230.83
301.19	1320.94
301.40	1255.40
301.62	1286.12
301.83	1243.12
302.05	1218.54
302.26	1320.94
302.47	1269.74
302.69	1202.16
302.90	1245.16
303.12	1296.36
303.33	1222.64
303.54	1265.64
303.76	1267.69
303.97	1277.93
304.19	1245.16
304.40	1236.97
304.61	1241.07
304.83	1349.61
305.04	1308.65
305.26	1294.32
305.47	1292.27
305.68	1230.83
305.90	1296.36
306.11	1341.42
306.33	1343.47
306.54	1279.98
306.75	1234.93
306.97	1290.22
307.18	1282.03
307.39	1312.75
307.61	1310.70
307.82	1226.73
308.04	1200.11
308.25	1175.53
308.46	1232.88
308.68	1239.02
308.89	1232.88
309.10	1290.22
309.32	1257.45
309.53	1202.16
309.74	1279.98
309.96	1282.03
310.17	1255.40
310.39	1302.51
310.60	1288.17
310.81	1251.31
311.03	1226.73
311.24	1249.26
311.45	1206.25
311.67	1261.55
311.88	1249.26
312.09	1247.21
312.31	1298.41
312.52	1187.82
312.73	1251.31
312.95	1234.93
313.16	1302.51
313.37	1173.49
313.59	1234.93
313.80	1308.65
314.01	1193.97
314.23	1226.73
314.44	1312.75
314.65	1335.28
314.87	1288.17
315.08	1306.60
315.29	1265.64
315.51	1290.22
315.72	1245.16
315.93	1314.80
316.15	1292.27
316.36	1282.03
316.57	1273.84
316.79	1306.60
317.00	1318.89
317.21	1234.93
317.43	1306.60
317.64	1279.98
317.85	1261.55
318.07	1257.45
318.28	1310.70
318.49	1290.22
318.70	1294.32
318.92	1318.89
319.13	1290.22
319.34	1298.41
319.56	1222.64
319.77	1304.56
319.98	1249.26
320.20	1230.83
320.41	1296.36
320.62	1275.88
320.83	1320.94
321.05	1277.93
321.26	1234.93
321.47	1312.75
321.69	1275.88
321.90	1259.50
322.11	1335.28
322.32	1273.84
322.54	1279.98
322.75	1290.22
322.96	1306.60
323.18	1271.79
323.39	1298.41
323.60	1251.31
323.81	1265.64
324.03	1224.69
324.24	1339.37
324.45	1312.75
324.66	1257.45
324.88	1230.83
325.09	1232.88
325.30	1236.97
325.52	1298.41
325.73	1277.93
325.94	1290.22
326.15	1253.36
326.37	1296.36
326.58	1269.74
326.79	1275.88
327.00	1226.73
327.22	1361.90
327.43	1255.40
327.64	1271.79
327.85	1261.55
328.07	1220.59
328.28	1267.69
328.49	1257.45
328.70	1216.49
328.92	1353.71
329.13	1279.98
329.34	1288.17
329.55	1308.65
329.76	1228.78
329.98	1204.21
330.19	1306.60
330.40	1331.18
330.61	1316.84
330.83	1277.93
331.04	1263.60
331.25	1282.03
331.46	1259.50
331.68	1335.28
331.89	1239.02
332.10	1224.69
332.31	1271.79
332.52	1257.45
332.74	1259.50
332.95	1265.64
333.16	1386.47
333.37	1279.98
333.58	1228.78
333.80	1247.21
334.01	1269.74
334.22	1234.93
334.43	1290.22
334.64	1263.60
334.86	1208.30
335.07	1310.70
335.28	1251.31
335.49	1224.69
335.70	1312.75
335.92	1308.65
336.13	1255.40
336.34	1292.27
336.55	1304.56
336.76	1282.03
336.98	1224.69
337.19	1318.89
337.40	1255.40
337.61	1243.12
337.82	1241.07
338.04	1279.98
338.25	1239.02
338.46	1347.56
338.67	1253.36
338.88	1296.36
339.09	1296.36
339.31	1331.18
339.52	1161.20
339.73	1271.79
339.94	1292.27
340.15	1257.45
340.36	1292.27
340.58	1284.08
340.79	1241.07
341.00	1286.12
341.21	1259.50
341.42	1306.60
341.63	1308.65
341.85	1261.55
342.06	1304.56
342.27	1245.16
342.48	1241.07
342.69	1331.18
342.90	1259.50
343.12	1251.31
343.33	1355.76
343.54	1294.32
343.75	1251.31
343.96	1275.88
344.17	1306.60
344.38	1204.21
344.60	1212.40
344.81	1267.69
345.02	1296.36
345.23	1300.46
345.44	1298.41
345.65	1288.17
345.86	1206.25
346.07	1257.45
346.29	1265.64
346.50	1253.36
346.71	1347.56
346.92	1251.31
347.13	1316.84
347.34	1253.36
347.55	1255.40
347.76	1265.64
347.98	1210.35
348.19	1282.03
348.40	1329.13
348.61	1304.56
348.82	1318.89
349.03	1232.88
349.24	1284.08
349.45	1265.64
349.66	1222.64
349.88	1304.56
350.09	1296.36
350.30	1265.64
350.51	1290.22
350.72	1261.55
350.93	1294.32
351.14	1212.40
351.35	1247.21
351.56	1212.40
351.77	1232.88
351.99	1259.50
352.20	1257.45
352.41	1265.64
352.62	1269.74
352.83	1290.22
353.04	1275.88
353.25	1271.79
353.46	1241.07
353.67	1200.11
353.88	1292.27
354.09	1249.26
354.30	1277.93
354.52	1245.16
354.73	1294.32
354.94	1310.70
355.15	1230.83
355.36	1277.93
355.57	1239.02
355.78	1269.74
355.99	1337.32
356.20	1269.74
356.41	1292.27
356.62	1273.84
356.83	1263.60
357.04	1290.22
357.25	1218.54
357.46	1183.73
357.68	1308.65
357.89	1300.46
358.10	1239.02
358.31	1257.45
358.52	1271.79
358.73	1216.49
358.94	1247.21
359.15	1216.49
359.36	1325.04
359.57	1257.45
359.78	1298.41
359.99	1236.97
360.20	1161.20
360.41	1282.03
360.62	1224.69
360.83	1230.83
361.04	1241.07
361.25	1214.45
361.46	1232.88
361.67	1230.83
361.88	1288.17
362.09	1269.74
362.30	1286.12
362.51	1318.89
362.72	1259.50
362.93	1279.98
363.14	1269.74
363.35	1306.60
363.56	1255.40
363.78	1271.79
363.99	1298.41
364.20	1269.74
364.41	1241.07
364.62	1265.64
364.83	1322.99
365.04	1277.93
365.25	1249.26
365.46	1298.41
365.67	1306.60
365.88	1275.88
366.09	1292.27
366.30	1261.55
366.51	1245.16
366.72	1241.07
366.93	1314.80
367.14	1286.12
367.35	1247.21
367.56	1290.22
367.77	1200.11
367.98	1269.74
368.18	1228.78
368.39	1273.84
368.60	1304.56
368.81	1310.70
369.02	1265.64
369.23	1228.78
369.44	1230.83
369.65	1343.47
369.86	1292.27
370.07	1261.55
370.28	1290.22
370.49	1288.17
370.70	1275.88
370.91	1267.69
371.12	1226.73
371.33	1337.32
371.54	1269.74
371.75	1243.12
371.96	1337.32
372.17	1306.60
372.38	1261.55
372.59	1236.97
372.80	1282.03
373.01	1187.82
373.22	1273.84
373.43	1316.84
373.64	1269.74
373.85	1271.79
374.06	1310.70
374.26	1288.17
374.47	1253.36
374.68	1210.35
374.89	1263.60
375.10	1269.74
375.31	1267.69
375.52	1210.35
375.73	1294.32
375.94	1279.98
376.15	1271.79
376.36	1335.28
376.57	1269.74
376.78	1275.88
376.99	1204.21
377.20	1363.95
377.40	1212.40
377.61	1232.88
377.82	1249.26
378.03	1335.28
378.24	1302.51
378.45	1282.03
378.66	1267.69
378.87	1220.59
379.08	1236.97
379.29	1304.56
379.50	1247.21
379.71	1271.79
379.91	1241.07
380.12	1198.06
380.33	1306.60
380.54	1247.21
380.75	1314.80
380.96	1294.32
381.17	1306.60
381.38	1243.12
381.59	1249.26
381.80	1224.69
382.00	1318.89
382.21	1339.37
382.42	1288.17
382.63	1216.49
382.84	1224.69
383.05	1302.51
383.26	1204.21
383.47	1214.45
383.68	1288.17
383.88	1241.07
384.09	1239.02
384.30	1302.51
384.51	1304.56
384.72	1241.07
384.93	1253.36
385.14	1249.26
385.35	1259.50
385.55	1275.88
385.76	1263.60
385.97	1200.11
386.18	1208.30
386.39	1185.77
386.60	1286.12
386.81	1288.17
387.02	1341.42
387.22	1327.08
387.43	1239.02
387.64	1298.41
387.85	1277.93
388.06	1265.64
388.27	1220.59
388.48	1222.64
388.68	1304.56
388.89	1284.08
389.10	1322.99
389.31	1298.41
389.52	1220.59
389.73	1148.91
389.93	1314.80
390.14	1261.55
390.35	1306.60
390.56	1290.22
390.77	1320.94
390.98	1216.49
391.18	1275.88
391.39	1241.07
391.60	1284.08
391.81	1290.22
392.02	1263.60
392.23	1263.60
392.43	1294.32
392.64	1257.45
392.85	1322.99
393.06	1267.69
393.27	1187.82
393.47	1191.92
393.68	1218.54
393.89	1255.40
394.10	1234.93
394.31	1355.76
394.52	1279.98
394.72	1306.60
394.93	1271.79
395.14	1218.54
395.35	1296.36
395.56	1282.03
395.76	1245.16
395.97	1228.78
396.18	1255.40
396.39	1345.52
396.60	1222.64
396.80	1265.64
397.01	1343.47
397.22	1269.74
397.43	1204.21
397.64	1200.11
397.84	1312.75
398.05	1292.27
398.26	1249.26
398.47	1241.07
398.67	1232.88
398.88	1241.07
399.09	1249.26
399.30	1298.41
399.51	1273.84
399.71	1286.12
399.92	1296.36
400.13	1241.07
400.34	1253.36
400.54	1204.21
400.75	1282.03
400.96	1286.12
401.17	1310.70
401.37	1185.77
401.58	1333.23
401.79	1306.60
402.00	1286.12
402.21	1290.22
402.41	1273.84
402.62	1269.74
402.83	1232.88
403.04	1312.75
403.24	1314.80
403.45	1306.60
403.66	1273.84
403.87	1327.08
404.07	1300.46
404.28	1232.88
404.49	1193.97
404.70	1228.78
404.90	1308.65
405.11	1322.99
405.32	1234.93
405.52	1259.50
405.73	1337.32
405.94	1271.79
406.15	1241.07
406.35	1273.84
406.56	1308.65
406.77	1318.89
406.98	1322.99
407.18	1263.60
407.39	1271.79
407.60	1243.12
407.80	1294.32
408.01	1247.21
408.22	1320.94
408.43	1173.49
408.63	1325.04
408.84	1290.22
409.05	1316.84
409.25	1214.45
409.46	1236.97
409.67	1253.36
409.88	1259.50
410.08	1241.07
410.29	1271.79
410.50	1273.84
410.70	1183.73
410.91	1255.40
411.12	1290.22
411.32	1185.77
411.53	1200.11
411.74	1245.16
411.95	1251.31
412.15	1279.98
412.36	1296.36
412.57	1236.97
412.77	1241.07
412.98	1232.88
413.19	1239.02
413.39	1212.40
413.60	1277.93
413.81	1236.97
414.01	1282.03
414.22	1351.66
414.43	1265.64
414.63	1322.99
414.84	1279.98
415.05	1245.16
415.25	1198.06
415.46	1275.88
415.67	1214.45
415.87	1230.83
416.08	1302.51
416.29	1198.06
416.49	1226.73
416.70	1214.45
416.91	1210.35
417.11	1286.12
417.32	1320.94
417.53	1228.78
417.73	1275.88
417.94	1241.07
418.15	1171.44
418.35	1267.69
418.56	1249.26
418.77	1300.46
418.97	1282.03
419.18	1271.79
419.38	1333.23
419.59	1224.69
419.80	1306.60
420.00	1220.59
420.21	1189.87
420.42	1245.16
420.62	1273.84
420.83	1288.17
421.04	1228.78
421.24	1224.69
421.45	1308.65
421.65	1191.92
421.86	1308.65
422.07	1251.31
422.27	1294.32
422.48	1269.74
422.69	1241.07
422.89	1259.50
423.10	1236.97
423.30	1288.17
423.51	1241.07
423.72	1189.87
423.92	1263.60
424.13	1255.40
424.33	1269.74
424.54	1204.21
424.75	1261.55
424.95	1236.97
425.16	1306.60
425.36	1253.36
425.57	1210.35
425.78	1255.40
425.98	1312.75
426.19	1263.60
426.39	1314.80
426.60	1198.06
426.81	1226.73
427.01	1226.73
427.22	1261.55
427.42	1187.82
427.63	1294.32
427.83	1290.22
428.04	1183.73
428.25	1337.32
428.45	1251.31
428.66	1263.60
428.86	1292.27
429.07	1343.47
429.28	1304.56
429.48	1282.03
429.69	1226.73
429.89	1296.36
430.10	1232.88
430.30	1138.67
430.51	1198.06
430.71	1265.64
430.92	1347.56
431.13	1267.69
431.33	1214.45
431.54	1226.73
431.74	1288.17
431.95	1294.32
432.15	1200.11
432.36	1271.79
432.56	1288.17
432.77	1304.56
432.98	1259.50
433.18	1335.28
433.39	1239.02
433.59	1320.94
433.80	1210.35
434.00	1279.98
434.21	1298.41
434.41	1257.45
434.62	1255.40
434.82	1306.60
435.03	1265.64
435.23	1200.11
435.44	1304.56
435.64	1298.41
435.85	1333.23
436.06	1308.65
436.26	1257.45
436.47	1249.26
436.67	1314.80
436.88	1308.65
437.08	1282.03
437.29	1236.97
437.49	1335.28
437.70	1286.12
437.90	1218.54
438.11	1292.27
438.31	1259.50
438.52	1273.84
438.72	1269.74
438.93	1316.84
439.13	1351.66
439.34	1351.66
439.54	1329.13
439.75	1265.64
439.95	1206.25
440.16	1263.60
440.36	1361.90
440.57	1318.89
440.77	1255.40
440.98	1247.21
441.18	1302.51
441.39	1247.21
441.59	1220.59
441.80	1255.40
442.00	1288.17
442.21	1279.98
442.41	1310.70
442.62	1353.71
442.82	1271.79
443.02	1247.21
443.23	1302.51
443.43	1210.35
443.64	1314.80
443.84	1320.94
444.05	1269.74
444.25	1302.51
444.46	1277.93
444.66	1251.31
444.87	1259.50
445.07	1245.16
445.28	1245.16
445.48	1212.40
445.69	1296.36
445.89	1273.84
446.09	1345.52
446.30	1255.40
446.50	1329.13
446.71	1322.99
446.91	1279.98
447.12	1300.46
447.32	1228.78
447.53	1261.55
447.73	1253.36
447.93	1310.70
448.14	1290.22
448.34	1273.84
448.55	1239.02
448.75	1282.03
448.96	1325.04
449.16	1322.99
449.36	1267.69
449.57	1302.51
449.77	1337.32
449.98	1232.88
450.18	1263.60
450.39	1230.83
450.59	1259.50
450.79	1320.94
451.00	1218.54
451.20	1275.88
451.41	1300.46
451.61	1302.51
451.81	1300.46
452.02	1349.61
452.22	1177.58
452.43	1318.89
452.63	1265.64
