SpectraSuite Data File
++++++++++++++++++++++++++++++++++++
Date: Sun Apr 03 19:55:20 CEST 2016
User: root
Dark Spectrum Present: No
Reference Spectrum Present: No
Number of Sampled Component Spectra: 1
Spectrometers: USB4C02835
Integration Time (usec): 10000 (USB4C02835)
Spectra Averaged: 1 (USB4C02835)
Boxcar Smoothing: 0 (USB4C02835)
Correct for Electrical Dark: No (USB4C02835)
Strobe/Lamp Enabled: No (USB4C02835)
Correct for Detector Non-linearity: No (USB4C02835)
Correct for Stray Light: No (USB4C02835)
Number of Pixels in Processed Spectrum: 3648
>>>>>Begin Processed Spectral Data<<<<<
177.47	1265.64
177.69	1265.64
177.91	1265.64
178.13	1208.30
178.36	1282.03
178.58	1282.03
178.80	1269.74
179.02	1327.08
179.24	1304.56
179.46	1282.03
179.68	1241.07
179.90	1226.73
180.13	1236.97
180.35	1257.45
180.57	1271.79
180.79	1273.84
181.01	1230.83
181.23	1228.78
181.45	1249.26
181.67	1210.35
181.90	1298.41
182.12	1245.16
182.34	1220.59
182.56	1239.02
182.78	1282.03
183.00	1284.08
183.22	1263.60
183.44	1226.73
183.66	1286.12
183.89	1218.54
184.11	1298.41
184.33	1339.37
184.55	1306.60
184.77	1306.60
184.99	1282.03
185.21	1234.93
185.43	1306.60
185.65	1253.36
185.87	1288.17
186.10	1294.32
186.32	1253.36
186.54	1204.21
186.76	1284.08
186.98	1282.03
187.20	1241.07
187.42	1224.69
187.64	1247.21
187.86	1286.12
188.08	1284.08
188.30	1257.45
188.52	1228.78
188.75	1259.50
188.97	1257.45
189.19	1257.45
189.41	1263.60
189.63	1267.69
189.85	1318.89
190.07	1261.55
190.29	1259.50
190.51	1251.31
190.73	1290.22
190.95	1282.03
191.17	1267.69
191.39	1255.40
191.61	1333.23
191.84	1232.88
192.06	1255.40
192.28	1218.54
192.50	1267.69
192.72	1290.22
192.94	1282.03
193.16	1298.41
193.38	1202.16
193.60	1253.36
193.82	1277.93
194.04	1290.22
194.26	1290.22
194.48	1230.83
194.70	1257.45
194.92	1271.79
195.14	1228.78
195.36	1218.54
195.58	1320.94
195.80	1224.69
196.02	1267.69
196.24	1251.31
196.46	1239.02
196.69	1255.40
196.91	1277.93
197.13	1286.12
197.35	1251.31
197.57	1355.76
197.79	1296.36
198.01	1255.40
198.23	1220.59
198.45	1312.75
198.67	1249.26
198.89	1261.55
199.11	1257.45
199.33	1275.88
199.55	1218.54
199.77	1234.93
199.99	1255.40
200.21	1320.94
200.43	1253.36
200.65	1271.79
200.87	1247.21
201.09	1220.59
201.31	1282.03
201.53	1333.23
201.75	1202.16
201.97	1257.45
202.19	1327.08
202.41	1220.59
202.63	1261.55
202.85	1241.07
203.07	1275.88
203.29	1222.64
203.51	1243.12
203.73	1331.18
203.95	1306.60
204.17	1226.73
204.39	1253.36
204.61	1243.12
204.83	1294.32
205.05	1245.16
205.27	1253.36
205.49	1304.56
205.71	1259.50
205.93	1255.40
206.15	1243.12
206.37	1245.16
206.59	1286.12
206.81	1228.78
207.03	1224.69
207.25	1308.65
207.47	1230.83
207.69	1247.21
207.91	1312.75
208.13	1290.22
208.34	1296.36
208.56	1292.27
208.78	1275.88
209.00	1312.75
209.22	1259.50
209.44	1300.46
209.66	1261.55
209.88	1279.98
210.10	1196.01
210.32	1279.98
210.54	1257.45
210.76	1329.13
210.98	1284.08
211.20	1277.93
211.42	1320.94
211.64	1232.88
211.86	1255.40
212.08	1349.61
212.30	1292.27
212.52	1310.70
212.74	1269.74
212.96	1312.75
213.17	1284.08
213.39	1232.88
213.61	1236.97
213.83	1296.36
214.05	1263.60
214.27	1302.51
214.49	1275.88
214.71	1257.45
214.93	1181.68
215.15	1271.79
215.37	1273.84
215.59	1304.56
215.81	1288.17
216.03	1214.45
216.24	1296.36
216.46	1288.17
216.68	1290.22
216.90	1273.84
217.12	1329.13
217.34	1286.12
217.56	1322.99
217.78	1212.40
218.00	1259.50
218.22	1243.12
218.44	1290.22
218.66	1210.35
218.87	1322.99
219.09	1308.65
219.31	1253.36
219.53	1331.18
219.75	1210.35
219.97	1316.84
220.19	1298.41
220.41	1253.36
220.63	1300.46
220.85	1269.74
221.06	1312.75
221.28	1314.80
221.50	1245.16
221.72	1275.88
221.94	1294.32
222.16	1232.88
222.38	1343.47
222.60	1259.50
222.82	1253.36
223.03	1327.08
223.25	1294.32
223.47	1288.17
223.69	1290.22
223.91	1198.06
224.13	1259.50
224.35	1247.21
224.57	1236.97
224.78	1277.93
225.00	1294.32
225.22	1267.69
225.44	1216.49
225.66	1279.98
225.88	1239.02
226.10	1294.32
226.32	1253.36
226.53	1302.51
226.75	1296.36
226.97	1218.54
227.19	1239.02
227.41	1296.36
227.63	1357.80
227.85	1251.31
228.06	1306.60
228.28	1279.98
228.50	1193.97
228.72	1175.53
228.94	1306.60
229.16	1253.36
229.37	1224.69
229.59	1243.12
229.81	1249.26
230.03	1312.75
230.25	1286.12
230.47	1284.08
230.69	1251.31
230.90	1232.88
231.12	1282.03
231.34	1298.41
231.56	1263.60
231.78	1294.32
232.00	1308.65
232.21	1173.49
232.43	1327.08
232.65	1241.07
232.87	1226.73
233.09	1210.35
233.30	1232.88
233.52	1224.69
233.74	1355.76
233.96	1243.12
234.18	1218.54
234.40	1271.79
234.61	1275.88
234.83	1325.04
235.05	1224.69
235.27	1251.31
235.49	1300.46
235.70	1263.60
235.92	1263.60
236.14	1284.08
236.36	1277.93
236.58	1284.08
236.79	1257.45
237.01	1257.45
237.23	1263.60
237.45	1196.01
237.67	1339.37
237.88	1302.51
238.10	1255.40
238.32	1179.63
238.54	1325.04
238.76	1216.49
238.97	1273.84
239.19	1282.03
239.41	1226.73
239.63	1292.27
239.85	1234.93
240.06	1279.98
240.28	1218.54
240.50	1284.08
240.72	1296.36
240.93	1279.98
241.15	1257.45
241.37	1329.13
241.59	1314.80
241.81	1298.41
242.02	1318.89
242.24	1288.17
242.46	1247.21
242.68	1282.03
242.89	1288.17
243.11	1277.93
243.33	1322.99
243.55	1279.98
243.76	1277.93
243.98	1239.02
244.20	1279.98
244.42	1286.12
244.64	1325.04
244.85	1220.59
245.07	1257.45
245.29	1245.16
245.51	1306.60
245.72	1277.93
245.94	1310.70
246.16	1204.21
246.38	1322.99
246.59	1241.07
246.81	1232.88
247.03	1232.88
247.24	1210.35
247.46	1263.60
247.68	1337.32
247.90	1224.69
248.11	1249.26
248.33	1273.84
248.55	1214.45
248.77	1325.04
248.98	1198.06
249.20	1263.60
249.42	1286.12
249.64	1234.93
249.85	1228.78
250.07	1351.66
250.29	1290.22
250.50	1279.98
250.72	1288.17
250.94	1239.02
251.16	1267.69
251.37	1335.28
251.59	1259.50
251.81	1302.51
252.02	1279.98
252.24	1255.40
252.46	1282.03
252.68	1196.01
252.89	1267.69
253.11	1335.28
253.33	1257.45
253.54	1216.49
253.76	1269.74
253.98	1273.84
254.20	1216.49
254.41	1257.45
254.63	1300.46
254.85	1286.12
255.06	1249.26
255.28	1322.99
255.50	1245.16
255.71	1245.16
255.93	1269.74
256.15	1271.79
256.36	1216.49
256.58	1296.36
256.80	1320.94
257.02	1290.22
257.23	1273.84
257.45	1304.56
257.67	1202.16
257.88	1253.36
258.10	1239.02
258.32	1230.83
258.53	1257.45
258.75	1208.30
258.97	1271.79
259.18	1249.26
259.40	1275.88
259.62	1249.26
259.83	1232.88
260.05	1277.93
260.27	1275.88
260.48	1343.47
260.70	1306.60
260.92	1267.69
261.13	1271.79
261.35	1224.69
261.57	1234.93
261.78	1189.87
262.00	1253.36
262.22	1236.97
262.43	1255.40
262.65	1271.79
262.86	1241.07
263.08	1322.99
263.30	1247.21
263.51	1349.61
263.73	1222.64
263.95	1286.12
264.16	1288.17
264.38	1302.51
264.60	1300.46
264.81	1261.55
265.03	1257.45
265.25	1314.80
265.46	1193.97
265.68	1259.50
265.89	1257.45
266.11	1210.35
266.33	1263.60
266.54	1286.12
266.76	1306.60
266.98	1282.03
267.19	1337.32
267.41	1230.83
267.62	1255.40
267.84	1247.21
268.06	1329.13
268.27	1298.41
268.49	1259.50
268.70	1224.69
268.92	1239.02
269.14	1318.89
269.35	1259.50
269.57	1314.80
269.79	1298.41
270.00	1265.64
270.22	1279.98
270.43	1198.06
270.65	1200.11
270.87	1212.40
271.08	1253.36
271.30	1273.84
271.51	1302.51
271.73	1269.74
271.95	1245.16
272.16	1257.45
272.38	1279.98
272.59	1269.74
272.81	1286.12
273.02	1251.31
273.24	1306.60
273.46	1310.70
273.67	1265.64
273.89	1341.42
274.10	1337.32
274.32	1257.45
274.54	1374.19
274.75	1363.95
274.97	1396.71
275.18	1251.31
275.40	1306.60
275.61	1230.83
275.83	1232.88
276.05	1230.83
276.26	1366.00
276.48	1269.74
276.69	1241.07
276.91	1318.89
277.12	1345.52
277.34	1273.84
277.55	1214.45
277.77	1210.35
277.99	1210.35
278.20	1230.83
278.42	1214.45
278.63	1298.41
278.85	1222.64
279.06	1216.49
279.28	1337.32
279.49	1255.40
279.71	1198.06
279.93	1232.88
280.14	1282.03
280.36	1265.64
280.57	1255.40
280.79	1284.08
281.00	1220.59
281.22	1236.97
281.43	1300.46
281.65	1261.55
281.86	1298.41
282.08	1314.80
282.29	1243.12
282.51	1239.02
282.73	1353.71
282.94	1255.40
283.16	1310.70
283.37	1277.93
283.59	1232.88
283.80	1241.07
284.02	1279.98
284.23	1316.84
284.45	1261.55
284.66	1230.83
284.88	1230.83
285.09	1253.36
285.31	1314.80
285.52	1241.07
285.74	1241.07
285.95	1255.40
286.17	1306.60
286.38	1339.37
286.60	1247.21
286.81	1265.64
287.03	1349.61
287.24	1239.02
287.46	1343.47
287.67	1267.69
287.89	1261.55
288.10	1277.93
288.32	1306.60
288.53	1261.55
288.75	1253.36
288.96	1263.60
289.18	1245.16
289.39	1220.59
289.61	1267.69
289.82	1234.93
290.04	1275.88
290.25	1308.65
290.47	1298.41
290.68	1263.60
290.90	1304.56
291.11	1234.93
291.33	1329.13
291.54	1218.54
291.76	1265.64
291.97	1273.84
292.18	1290.22
292.40	1247.21
292.61	1232.88
292.83	1249.26
293.04	1269.74
293.26	1257.45
293.47	1357.80
293.69	1341.42
293.90	1296.36
294.12	1304.56
294.33	1265.64
294.55	1265.64
294.76	1279.98
294.97	1314.80
295.19	1308.65
295.40	1202.16
295.62	1308.65
295.83	1251.31
296.05	1259.50
296.26	1261.55
296.48	1265.64
296.69	1329.13
296.90	1230.83
297.12	1265.64
297.33	1292.27
297.55	1259.50
297.76	1273.84
297.98	1263.60
298.19	1292.27
298.41	1269.74
298.62	1282.03
298.83	1236.97
299.05	1234.93
299.26	1261.55
299.48	1322.99
299.69	1228.78
299.90	1277.93
300.12	1279.98
300.33	1300.46
300.55	1228.78
300.76	1327.08
300.98	1320.94
301.19	1277.93
301.40	1282.03
301.62	1275.88
301.83	1253.36
302.05	1284.08
302.26	1271.79
302.47	1302.51
302.69	1294.32
302.90	1259.50
303.12	1304.56
303.33	1286.12
303.54	1286.12
303.76	1185.77
303.97	1314.80
304.19	1273.84
304.40	1232.88
304.61	1277.93
304.83	1265.64
305.04	1286.12
305.26	1325.04
305.47	1331.18
305.68	1239.02
305.90	1259.50
306.11	1314.80
306.33	1298.41
306.54	1253.36
306.75	1214.45
306.97	1210.35
307.18	1208.30
307.39	1333.23
307.61	1265.64
307.82	1212.40
308.04	1245.16
308.25	1146.86
308.46	1296.36
308.68	1331.18
308.89	1239.02
309.10	1212.40
309.32	1196.01
309.53	1277.93
309.74	1189.87
309.96	1241.07
310.17	1298.41
310.39	1232.88
310.60	1308.65
310.81	1347.56
311.03	1259.50
311.24	1284.08
311.45	1226.73
311.67	1273.84
311.88	1286.12
312.09	1269.74
312.31	1292.27
312.52	1310.70
312.73	1265.64
312.95	1304.56
313.16	1325.04
313.37	1265.64
313.59	1257.45
313.80	1294.32
314.01	1288.17
314.23	1226.73
314.44	1267.69
314.65	1302.51
314.87	1216.49
315.08	1214.45
315.29	1253.36
315.51	1298.41
315.72	1226.73
315.93	1259.50
316.15	1306.60
316.36	1267.69
316.57	1253.36
316.79	1257.45
317.00	1239.02
317.21	1308.65
317.43	1228.78
317.64	1243.12
317.85	1251.31
318.07	1243.12
318.28	1257.45
318.49	1273.84
318.70	1249.26
318.92	1183.73
319.13	1288.17
319.34	1253.36
319.56	1236.97
319.77	1230.83
319.98	1339.37
320.20	1337.32
320.41	1249.26
320.62	1200.11
320.83	1249.26
321.05	1312.75
321.26	1249.26
321.47	1177.58
321.69	1273.84
321.90	1286.12
322.11	1265.64
322.32	1337.32
322.54	1247.21
322.75	1292.27
322.96	1196.01
323.18	1296.36
323.39	1273.84
323.60	1181.68
323.81	1220.59
324.03	1273.84
324.24	1255.40
324.45	1241.07
324.66	1241.07
324.88	1181.68
325.09	1282.03
325.30	1257.45
325.52	1249.26
325.73	1245.16
325.94	1255.40
326.15	1241.07
326.37	1269.74
326.58	1243.12
326.79	1202.16
327.00	1212.40
327.22	1310.70
327.43	1325.04
327.64	1222.64
327.85	1230.83
328.07	1249.26
328.28	1279.98
328.49	1304.56
328.70	1243.12
328.92	1249.26
329.13	1226.73
329.34	1380.33
329.55	1298.41
329.76	1216.49
329.98	1259.50
330.19	1339.37
330.40	1249.26
330.61	1196.01
330.83	1273.84
331.04	1310.70
331.25	1208.30
331.46	1263.60
331.68	1269.74
331.89	1208.30
332.10	1234.93
332.31	1325.04
332.52	1198.06
332.74	1206.25
332.95	1275.88
333.16	1314.80
333.37	1232.88
333.58	1271.79
333.80	1263.60
334.01	1263.60
334.22	1282.03
334.43	1275.88
334.64	1296.36
334.86	1257.45
335.07	1273.84
335.28	1212.40
335.49	1267.69
335.70	1267.69
335.92	1333.23
336.13	1312.75
336.34	1198.06
336.55	1253.36
336.76	1255.40
336.98	1245.16
337.19	1300.46
337.40	1329.13
337.61	1304.56
337.82	1234.93
338.04	1277.93
338.25	1241.07
338.46	1257.45
338.67	1183.73
338.88	1294.32
339.09	1249.26
339.31	1253.36
339.52	1279.98
339.73	1179.63
339.94	1296.36
340.15	1267.69
340.36	1234.93
340.58	1312.75
340.79	1269.74
341.00	1241.07
341.21	1341.42
341.42	1214.45
341.63	1273.84
341.85	1249.26
342.06	1140.72
342.27	1271.79
342.48	1259.50
342.69	1308.65
342.90	1259.50
343.12	1304.56
343.33	1306.60
343.54	1275.88
343.75	1292.27
343.96	1230.83
344.17	1269.74
344.38	1222.64
344.60	1239.02
344.81	1269.74
345.02	1308.65
345.23	1312.75
345.44	1271.79
345.65	1296.36
345.86	1228.78
346.07	1298.41
346.29	1298.41
346.50	1267.69
346.71	1329.13
346.92	1286.12
347.13	1239.02
347.34	1288.17
347.55	1228.78
347.76	1261.55
347.98	1298.41
348.19	1304.56
348.40	1271.79
348.61	1288.17
348.82	1275.88
349.03	1249.26
349.24	1282.03
349.45	1232.88
349.66	1320.94
349.88	1292.27
350.09	1239.02
350.30	1206.25
350.51	1271.79
350.72	1275.88
350.93	1202.16
351.14	1226.73
351.35	1294.32
351.56	1294.32
351.77	1232.88
351.99	1279.98
352.20	1277.93
352.41	1288.17
352.62	1335.28
352.83	1333.23
353.04	1251.31
353.25	1267.69
353.46	1314.80
353.67	1355.76
353.88	1273.84
354.09	1363.95
354.30	1322.99
354.52	1214.45
354.73	1214.45
354.94	1206.25
355.15	1310.70
355.36	1296.36
355.57	1265.64
355.78	1232.88
355.99	1249.26
356.20	1275.88
356.41	1267.69
356.62	1308.65
356.83	1298.41
357.04	1259.50
357.25	1296.36
357.46	1226.73
357.68	1243.12
357.89	1189.87
358.10	1208.30
358.31	1282.03
358.52	1259.50
358.73	1216.49
358.94	1290.22
359.15	1181.68
359.36	1245.16
359.57	1236.97
359.78	1355.76
359.99	1212.40
360.20	1273.84
360.41	1290.22
360.62	1275.88
360.83	1265.64
361.04	1218.54
361.25	1259.50
361.46	1226.73
361.67	1282.03
361.88	1263.60
362.09	1234.93
362.30	1255.40
362.51	1226.73
362.72	1206.25
362.93	1265.64
363.14	1222.64
363.35	1224.69
363.56	1273.84
363.78	1284.08
363.99	1257.45
364.20	1316.84
364.41	1251.31
364.62	1224.69
364.83	1302.51
365.04	1290.22
365.25	1294.32
365.46	1212.40
365.67	1165.29
365.88	1234.93
366.09	1294.32
366.30	1298.41
366.51	1210.35
366.72	1265.64
366.93	1349.61
367.14	1232.88
367.35	1253.36
367.56	1228.78
367.77	1282.03
367.98	1306.60
368.18	1234.93
368.39	1204.21
368.60	1259.50
368.81	1245.16
369.02	1230.83
369.23	1191.92
369.44	1243.12
369.65	1263.60
369.86	1204.21
370.07	1282.03
370.28	1226.73
370.49	1259.50
370.70	1253.36
370.91	1269.74
371.12	1269.74
371.33	1320.94
371.54	1236.97
371.75	1312.75
371.96	1304.56
372.17	1212.40
372.38	1288.17
372.59	1273.84
372.80	1253.36
373.01	1341.42
373.22	1259.50
373.43	1259.50
373.64	1245.16
373.85	1374.19
374.06	1327.08
374.26	1269.74
374.47	1327.08
374.68	1245.16
374.89	1214.45
375.10	1245.16
375.31	1267.69
375.52	1243.12
375.73	1288.17
375.94	1241.07
376.15	1247.21
376.36	1294.32
376.57	1286.12
376.78	1296.36
376.99	1249.26
377.20	1253.36
377.40	1220.59
377.61	1308.65
377.82	1261.55
378.03	1282.03
378.24	1257.45
378.45	1275.88
378.66	1241.07
378.87	1277.93
379.08	1269.74
379.29	1181.68
379.50	1304.56
379.71	1273.84
379.91	1259.50
380.12	1312.75
380.33	1306.60
380.54	1275.88
380.75	1290.22
380.96	1251.31
381.17	1277.93
381.38	1187.82
381.59	1325.04
381.80	1243.12
382.00	1294.32
382.21	1335.28
382.42	1243.12
382.63	1230.83
382.84	1353.71
383.05	1296.36
383.26	1298.41
383.47	1304.56
383.68	1245.16
383.88	1308.65
384.09	1351.66
384.30	1284.08
384.51	1269.74
384.72	1288.17
384.93	1228.78
385.14	1322.99
385.35	1343.47
385.55	1257.45
385.76	1273.84
385.97	1175.53
386.18	1200.11
386.39	1331.18
386.60	1282.03
386.81	1224.69
387.02	1286.12
387.22	1292.27
387.43	1308.65
387.64	1253.36
387.85	1282.03
388.06	1273.84
388.27	1335.28
388.48	1232.88
388.68	1267.69
388.89	1294.32
389.10	1302.51
389.31	1247.21
389.52	1345.52
389.73	1243.12
389.93	1304.56
390.14	1214.45
390.35	1265.64
390.56	1220.59
390.77	1212.40
390.98	1214.45
391.18	1263.60
391.39	1335.28
391.60	1234.93
391.81	1263.60
392.02	1245.16
392.23	1304.56
392.43	1329.13
392.64	1304.56
392.85	1241.07
393.06	1236.97
393.27	1218.54
393.47	1251.31
393.68	1284.08
393.89	1300.46
394.10	1273.84
394.31	1304.56
394.52	1251.31
394.72	1286.12
394.93	1284.08
395.14	1165.29
395.35	1263.60
395.56	1279.98
395.76	1271.79
395.97	1277.93
396.18	1255.40
396.39	1259.50
396.60	1304.56
396.80	1249.26
397.01	1286.12
397.22	1279.98
397.43	1292.27
397.64	1257.45
397.84	1263.60
398.05	1261.55
398.26	1294.32
398.47	1245.16
398.67	1241.07
398.88	1212.40
399.09	1304.56
399.30	1294.32
399.51	1318.89
399.71	1249.26
399.92	1243.12
400.13	1277.93
400.34	1290.22
400.54	1249.26
400.75	1306.60
400.96	1269.74
401.17	1298.41
401.37	1261.55
401.58	1200.11
401.79	1290.22
402.00	1271.79
402.21	1296.36
402.41	1314.80
402.62	1189.87
402.83	1308.65
403.04	1263.60
403.24	1318.89
403.45	1269.74
403.66	1284.08
403.87	1210.35
404.07	1279.98
404.28	1273.84
404.49	1257.45
404.70	1275.88
404.90	1316.84
405.11	1243.12
405.32	1222.64
405.52	1290.22
405.73	1239.02
405.94	1212.40
406.15	1255.40
406.35	1239.02
406.56	1261.55
406.77	1255.40
406.98	1226.73
407.18	1228.78
407.39	1259.50
407.60	1224.69
407.80	1290.22
408.01	1241.07
408.22	1284.08
408.43	1322.99
408.63	1263.60
408.84	1310.70
409.05	1241.07
409.25	1308.65
409.46	1220.59
409.67	1345.52
409.88	1224.69
410.08	1259.50
410.29	1284.08
410.50	1255.40
410.70	1294.32
410.91	1273.84
411.12	1316.84
411.32	1302.51
411.53	1204.21
411.74	1253.36
411.95	1243.12
412.15	1241.07
412.36	1341.42
412.57	1224.69
412.77	1290.22
412.98	1245.16
413.19	1249.26
413.39	1218.54
413.60	1259.50
413.81	1286.12
414.01	1337.32
414.22	1206.25
414.43	1220.59
414.63	1392.62
414.84	1255.40
415.05	1273.84
415.25	1218.54
415.46	1257.45
415.67	1327.08
415.87	1241.07
416.08	1292.27
416.29	1253.36
416.49	1300.46
416.70	1308.65
416.91	1232.88
417.11	1214.45
417.32	1275.88
417.53	1222.64
417.73	1234.93
417.94	1234.93
418.15	1249.26
418.35	1247.21
418.56	1306.60
418.77	1335.28
418.97	1196.01
419.18	1177.58
419.38	1259.50
419.59	1337.32
419.80	1273.84
420.00	1187.82
420.21	1273.84
420.42	1239.02
420.62	1351.66
420.83	1286.12
421.04	1247.21
421.24	1273.84
421.45	1230.83
421.65	1284.08
421.86	1275.88
422.07	1304.56
422.27	1222.64
422.48	1286.12
422.69	1247.21
422.89	1253.36
423.10	1253.36
423.30	1294.32
423.51	1236.97
423.72	1271.79
423.92	1290.22
424.13	1271.79
424.33	1265.64
424.54	1271.79
424.75	1282.03
424.95	1220.59
425.16	1234.93
425.36	1265.64
425.57	1288.17
425.78	1253.36
425.98	1339.37
426.19	1208.30
426.39	1183.73
426.60	1230.83
426.81	1253.36
427.01	1306.60
427.22	1236.97
427.42	1247.21
427.63	1200.11
427.83	1232.88
428.04	1257.45
428.25	1300.46
428.45	1343.47
428.66	1185.77
428.86	1255.40
429.07	1196.01
429.28	1298.41
429.48	1243.12
429.69	1286.12
429.89	1304.56
430.10	1239.02
430.30	1298.41
430.51	1206.25
430.71	1279.98
430.92	1193.97
431.13	1245.16
431.33	1296.36
431.54	1296.36
431.74	1306.60
431.95	1298.41
432.15	1255.40
432.36	1292.27
432.56	1275.88
432.77	1320.94
432.98	1351.66
433.18	1259.50
433.39	1247.21
433.59	1292.27
433.80	1234.93
434.00	1275.88
434.21	1277.93
434.41	1212.40
434.62	1277.93
434.82	1224.69
435.03	1282.03
435.23	1247.21
435.44	1218.54
435.64	1245.16
435.85	1298.41
436.06	1290.22
436.26	1282.03
436.47	1232.88
436.67	1210.35
436.88	1292.27
437.08	1380.33
437.29	1241.07
437.49	1302.51
437.70	1269.74
437.90	1208.30
438.11	1353.71
438.31	1351.66
438.52	1216.49
438.72	1265.64
438.93	1218.54
439.13	1239.02
439.34	1308.65
439.54	1228.78
439.75	1286.12
439.95	1312.75
440.16	1243.12
440.36	1265.64
440.57	1232.88
440.77	1296.36
440.98	1232.88
441.18	1253.36
441.39	1267.69
441.59	1140.72
441.80	1282.03
442.00	1292.27
442.21	1277.93
442.41	1236.97
442.62	1263.60
442.82	1208.30
443.02	1173.49
443.23	1286.12
443.43	1290.22
443.64	1255.40
443.84	1210.35
444.05	1282.03
444.25	1302.51
444.46	1318.89
444.66	1355.76
444.87	1345.52
445.07	1245.16
445.28	1232.88
445.48	1255.40
445.69	1261.55
445.89	1267.69
446.09	1329.13
446.30	1202.16
446.50	1232.88
446.71	1277.93
446.91	1261.55
447.12	1327.08
447.32	1306.60
447.53	1193.97
447.73	1286.12
447.93	1269.74
448.14	1306.60
448.34	1269.74
448.55	1300.46
448.75	1290.22
448.96	1279.98
449.16	1286.12
449.36	1232.88
449.57	1277.93
449.77	1341.42
449.98	1243.12
450.18	1243.12
450.39	1261.55
450.59	1263.60
450.79	1298.41
451.00	1331.18
451.20	1290.22
451.41	1292.27
451.61	1298.41
451.81	1279.98
452.02	1351.66
452.22	1263.60
452.43	1302.51
452.63	1245.16
