SpectraSuite Data File
++++++++++++++++++++++++++++++++++++
Date: Sun Apr 03 19:55:20 CEST 2016
User: root
Dark Spectrum Present: No
Reference Spectrum Present: No
Number of Sampled Component Spectra: 1
Spectrometers: USB4C02835
Integration Time (usec): 10000 (USB4C02835)
Spectra Averaged: 1 (USB4C02835)
Boxcar Smoothing: 0 (USB4C02835)
Correct for Electrical Dark: No (USB4C02835)
Strobe/Lamp Enabled: No (USB4C02835)
Correct for Detector Non-linearity: No (USB4C02835)
Correct for Stray Light: No (USB4C02835)
Number of Pixels in Processed Spectrum: 3648
>>>>>Begin Processed Spectral Data<<<<<
177.47	1236.97
177.69	1236.97
177.91	1236.97
178.13	1286.12
178.36	1263.60
178.58	1212.40
178.80	1277.93
179.02	1239.02
179.24	1232.88
179.46	1212.40
179.68	1222.64
179.90	1279.98
180.13	1277.93
180.35	1243.12
180.57	1306.60
180.79	1314.80
181.01	1259.50
181.23	1222.64
181.45	1282.03
181.67	1226.73
181.90	1290.22
182.12	1298.41
182.34	1239.02
182.56	1265.64
182.78	1273.84
183.00	1216.49
183.22	1343.47
183.44	1261.55
183.66	1279.98
183.89	1290.22
184.11	1255.40
184.33	1261.55
184.55	1257.45
184.77	1349.61
184.99	1267.69
185.21	1183.73
185.43	1222.64
185.65	1245.16
185.87	1273.84
186.10	1294.32
186.32	1290.22
186.54	1208.30
186.76	1241.07
186.98	1253.36
187.20	1269.74
187.42	1177.58
187.64	1271.79
187.86	1265.64
188.08	1241.07
188.30	1259.50
188.52	1255.40
188.75	1245.16
188.97	1208.30
189.19	1239.02
189.41	1234.93
189.63	1271.79
189.85	1218.54
190.07	1196.01
190.29	1292.27
190.51	1208.30
190.73	1273.84
190.95	1286.12
191.17	1304.56
191.39	1210.35
191.61	1304.56
191.84	1230.83
192.06	1206.25
192.28	1224.69
192.50	1224.69
192.72	1232.88
192.94	1251.31
193.16	1247.21
193.38	1249.26
193.60	1239.02
193.82	1257.45
194.04	1310.70
194.26	1222.64
194.48	1245.16
194.70	1230.83
194.92	1234.93
195.14	1245.16
195.36	1198.06
195.58	1257.45
195.80	1253.36
196.02	1286.12
196.24	1255.40
196.46	1181.68
196.69	1296.36
196.91	1337.32
197.13	1294.32
197.35	1193.97
197.57	1234.93
197.79	1312.75
198.01	1230.83
198.23	1275.88
198.45	1230.83
198.67	1302.51
198.89	1302.51
199.11	1189.87
199.33	1232.88
199.55	1165.29
199.77	1300.46
199.99	1239.02
200.21	1300.46
200.43	1312.75
200.65	1267.69
200.87	1202.16
201.09	1351.66
201.31	1284.08
201.53	1306.60
201.75	1263.60
201.97	1255.40
202.19	1208.30
202.41	1249.26
202.63	1325.04
202.85	1329.13
203.07	1279.98
203.29	1253.36
203.51	1263.60
203.73	1277.93
203.95	1275.88
204.17	1298.41
204.39	1339.37
204.61	1312.75
204.83	1216.49
205.05	1275.88
205.27	1320.94
205.49	1241.07
205.71	1286.12
205.93	1230.83
206.15	1234.93
206.37	1183.73
206.59	1314.80
206.81	1288.17
207.03	1253.36
207.25	1277.93
207.47	1351.66
207.69	1232.88
207.91	1310.70
208.13	1269.74
208.34	1214.45
208.56	1329.13
208.78	1206.25
209.00	1255.40
209.22	1234.93
209.44	1288.17
209.66	1302.51
209.88	1230.83
210.10	1306.60
210.32	1189.87
210.54	1249.26
210.76	1222.64
210.98	1273.84
211.20	1236.97
211.42	1286.12
211.64	1267.69
211.86	1298.41
212.08	1282.03
212.30	1230.83
212.52	1208.30
212.74	1296.36
212.96	1263.60
213.17	1300.46
213.39	1241.07
213.61	1247.21
213.83	1259.50
214.05	1296.36
214.27	1325.04
214.49	1257.45
214.71	1259.50
214.93	1265.64
215.15	1236.97
215.37	1232.88
215.59	1257.45
215.81	1243.12
216.03	1196.01
216.24	1339.37
216.46	1296.36
216.68	1249.26
216.90	1292.27
217.12	1282.03
217.34	1296.36
217.56	1259.50
217.78	1263.60
218.00	1288.17
218.22	1204.21
218.44	1230.83
218.66	1224.69
218.87	1331.18
219.09	1277.93
219.31	1275.88
219.53	1253.36
219.75	1255.40
219.97	1288.17
220.19	1279.98
220.41	1167.34
220.63	1218.54
220.85	1230.83
221.06	1306.60
221.28	1214.45
221.50	1273.84
221.72	1275.88
221.94	1296.36
222.16	1306.60
222.38	1212.40
222.60	1228.78
222.82	1249.26
223.03	1322.99
223.25	1216.49
223.47	1245.16
223.69	1333.23
223.91	1206.25
224.13	1265.64
224.35	1243.12
224.57	1286.12
224.78	1288.17
225.00	1214.45
225.22	1273.84
225.44	1282.03
225.66	1185.77
225.88	1226.73
226.10	1220.59
226.32	1245.16
226.53	1273.84
226.75	1269.74
226.97	1298.41
227.19	1255.40
227.41	1333.23
227.63	1220.59
227.85	1347.56
228.06	1193.97
228.28	1255.40
228.50	1236.97
228.72	1243.12
228.94	1300.46
229.16	1310.70
229.37	1243.12
229.59	1265.64
229.81	1265.64
230.03	1284.08
230.25	1298.41
230.47	1302.51
230.69	1179.63
230.90	1282.03
231.12	1232.88
231.34	1322.99
231.56	1251.31
231.78	1257.45
232.00	1255.40
232.21	1234.93
232.43	1251.31
232.65	1253.36
232.87	1249.26
233.09	1316.84
233.30	1298.41
233.52	1239.02
233.74	1241.07
233.96	1189.87
234.18	1253.36
234.40	1259.50
234.61	1320.94
234.83	1284.08
235.05	1249.26
235.27	1341.42
235.49	1222.64
235.70	1263.60
235.92	1273.84
236.14	1200.11
236.36	1179.63
236.58	1185.77
236.79	1282.03
237.01	1247.21
237.23	1269.74
237.45	1226.73
237.67	1382.38
237.88	1247.21
238.10	1294.32
238.32	1236.97
238.54	1247.21
238.76	1277.93
238.97	1249.26
239.19	1302.51
239.41	1318.89
239.63	1341.42
239.85	1232.88
240.06	1249.26
240.28	1259.50
240.50	1234.93
240.72	1183.73
240.93	1214.45
241.15	1284.08
241.37	1175.53
241.59	1290.22
241.81	1271.79
242.02	1228.78
242.24	1306.60
242.46	1241.07
242.68	1226.73
242.89	1314.80
243.11	1216.49
243.33	1255.40
243.55	1269.74
243.76	1253.36
243.98	1181.68
244.20	1269.74
244.42	1181.68
244.64	1251.31
244.85	1214.45
245.07	1216.49
245.29	1222.64
245.51	1271.79
245.72	1259.50
245.94	1265.64
246.16	1216.49
246.38	1255.40
246.59	1279.98
246.81	1302.51
247.03	1292.27
247.24	1320.94
247.46	1318.89
247.68	1255.40
247.90	1189.87
248.11	1230.83
248.33	1271.79
248.55	1247.21
248.77	1204.21
248.98	1271.79
249.20	1292.27
249.42	1273.84
249.64	1257.45
249.85	1265.64
250.07	1216.49
250.29	1232.88
250.50	1247.21
250.72	1312.75
250.94	1279.98
251.16	1243.12
251.37	1279.98
251.59	1259.50
251.81	1279.98
252.02	1230.83
252.24	1261.55
252.46	1308.65
252.68	1290.22
252.89	1288.17
253.11	1284.08
253.33	1259.50
253.54	1292.27
253.76	1222.64
253.98	1279.98
254.20	1282.03
254.41	1198.06
254.63	1263.60
254.85	1290.22
255.06	1298.41
255.28	1198.06
255.50	1279.98
255.71	1261.55
255.93	1232.88
256.15	1322.99
256.36	1232.88
256.58	1310.70
256.80	1236.97
257.02	1275.88
257.23	1288.17
257.45	1183.73
257.67	1263.60
257.88	1263.60
258.10	1249.26
258.32	1318.89
258.53	1212.40
258.75	1300.46
258.97	1261.55
259.18	1234.93
259.40	1216.49
259.62	1284.08
259.83	1236.97
260.05	1327.08
260.27	1320.94
260.48	1357.80
260.70	1339.37
260.92	1245.16
261.13	1263.60
261.35	1228.78
261.57	1220.59
261.78	1298.41
262.00	1200.11
262.22	1157.10
262.43	1300.46
262.65	1230.83
262.86	1253.36
263.08	1253.36
263.30	1284.08
263.51	1239.02
263.73	1300.46
263.95	1277.93
264.16	1288.17
264.38	1300.46
264.60	1265.64
264.81	1224.69
265.03	1306.60
265.25	1214.45
265.46	1239.02
265.68	1306.60
265.89	1243.12
266.11	1294.32
266.33	1292.27
266.54	1271.79
266.76	1312.75
266.98	1286.12
267.19	1290.22
267.41	1288.17
267.62	1271.79
267.84	1198.06
268.06	1253.36
268.27	1269.74
268.49	1206.25
268.70	1239.02
268.92	1267.69
269.14	1279.98
269.35	1218.54
269.57	1241.07
269.79	1316.84
270.00	1277.93
270.22	1314.80
270.43	1243.12
270.65	1253.36
270.87	1247.21
271.08	1245.16
271.30	1290.22
271.51	1251.31
271.73	1312.75
271.95	1241.07
272.16	1314.80
272.38	1269.74
272.59	1245.16
272.81	1282.03
273.02	1204.21
273.24	1277.93
273.46	1288.17
273.67	1310.70
273.89	1224.69
274.10	1282.03
274.32	1210.35
274.54	1224.69
274.75	1296.36
274.97	1277.93
275.18	1292.27
275.40	1290.22
275.61	1288.17
275.83	1234.93
276.05	1257.45
276.26	1210.35
276.48	1279.98
276.69	1265.64
276.91	1263.60
277.12	1232.88
277.34	1208.30
277.55	1308.65
277.77	1228.78
277.99	1325.04
278.20	1247.21
278.42	1191.92
278.63	1302.51
278.85	1214.45
279.06	1259.50
279.28	1269.74
279.49	1275.88
279.71	1290.22
279.93	1243.12
280.14	1253.36
280.36	1273.84
280.57	1232.88
280.79	1302.51
281.00	1294.32
281.22	1282.03
281.43	1284.08
281.65	1282.03
281.86	1296.36
282.08	1224.69
282.29	1273.84
282.51	1181.68
282.73	1298.41
282.94	1265.64
283.16	1306.60
283.37	1243.12
283.59	1198.06
283.80	1259.50
284.02	1257.45
284.23	1275.88
284.45	1314.80
284.66	1265.64
284.88	1290.22
285.09	1273.84
285.31	1341.42
285.52	1267.69
285.74	1304.56
285.95	1275.88
286.17	1290.22
286.38	1224.69
286.60	1241.07
286.81	1196.01
287.03	1327.08
287.24	1284.08
287.46	1271.79
287.67	1271.79
287.89	1286.12
288.10	1243.12
288.32	1214.45
288.53	1218.54
288.75	1185.77
288.96	1337.32
289.18	1232.88
289.39	1255.40
289.61	1243.12
289.82	1273.84
290.04	1261.55
290.25	1224.69
290.47	1222.64
290.68	1202.16
290.90	1263.60
291.11	1257.45
291.33	1292.27
291.54	1202.16
291.76	1251.31
291.97	1277.93
292.18	1282.03
292.40	1230.83
292.61	1275.88
292.83	1226.73
293.04	1163.25
293.26	1183.73
293.47	1206.25
293.69	1277.93
293.90	1288.17
294.12	1333.23
294.33	1284.08
294.55	1259.50
294.76	1288.17
294.97	1251.31
295.19	1288.17
295.40	1216.49
295.62	1273.84
295.83	1247.21
296.05	1259.50
296.26	1241.07
296.48	1294.32
296.69	1277.93
296.90	1249.26
297.12	1269.74
297.33	1265.64
297.55	1279.98
297.76	1310.70
297.98	1255.40
298.19	1275.88
298.41	1288.17
298.62	1294.32
298.83	1255.40
299.05	1220.59
299.26	1294.32
299.48	1255.40
299.69	1222.64
299.90	1304.56
300.12	1320.94
300.33	1261.55
300.55	1273.84
300.76	1249.26
300.98	1261.55
301.19	1279.98
301.40	1284.08
301.62	1249.26
301.83	1355.76
302.05	1284.08
302.26	1284.08
302.47	1263.60
302.69	1245.16
302.90	1333.23
303.12	1224.69
303.33	1214.45
303.54	1290.22
303.76	1312.75
303.97	1290.22
304.19	1263.60
304.40	1288.17
304.61	1275.88
304.83	1306.60
305.04	1249.26
305.26	1298.41
305.47	1265.64
305.68	1353.71
305.90	1243.12
306.11	1193.97
306.33	1263.60
306.54	1236.97
306.75	1292.27
306.97	1230.83
307.18	1267.69
307.39	1296.36
307.61	1257.45
307.82	1298.41
308.04	1243.12
308.25	1253.36
308.46	1271.79
308.68	1286.12
308.89	1271.79
309.10	1308.65
309.32	1175.53
309.53	1232.88
309.74	1306.60
309.96	1224.69
310.17	1286.12
310.39	1226.73
310.60	1298.41
310.81	1257.45
311.03	1249.26
311.24	1269.74
311.45	1314.80
311.67	1294.32
311.88	1275.88
312.09	1236.97
312.31	1224.69
312.52	1257.45
312.73	1208.30
312.95	1208.30
313.16	1282.03
313.37	1249.26
313.59	1255.40
313.80	1331.18
314.01	1288.17
314.23	1236.97
314.44	1320.94
314.65	1279.98
314.87	1273.84
315.08	1275.88
315.29	1273.84
315.51	1140.72
315.72	1206.25
315.93	1312.75
316.15	1255.40
316.36	1265.64
316.57	1159.15
316.79	1322.99
317.00	1294.32
317.21	1296.36
317.43	1220.59
317.64	1322.99
317.85	1298.41
318.07	1224.69
318.28	1337.32
318.49	1290.22
318.70	1224.69
318.92	1259.50
319.13	1204.21
319.34	1329.13
319.56	1251.31
319.77	1335.28
319.98	1310.70
320.20	1187.82
320.41	1333.23
320.62	1290.22
320.83	1259.50
321.05	1277.93
321.26	1286.12
321.47	1257.45
321.69	1269.74
321.90	1241.07
322.11	1273.84
322.32	1220.59
322.54	1241.07
322.75	1263.60
322.96	1331.18
323.18	1279.98
323.39	1263.60
323.60	1193.97
323.81	1241.07
324.03	1255.40
324.24	1308.65
324.45	1322.99
324.66	1318.89
324.88	1314.80
325.09	1292.27
325.30	1255.40
325.52	1259.50
325.73	1183.73
325.94	1304.56
326.15	1230.83
326.37	1296.36
326.58	1288.17
326.79	1193.97
327.00	1308.65
327.22	1269.74
327.43	1341.42
327.64	1300.46
327.85	1226.73
328.07	1290.22
328.28	1253.36
328.49	1320.94
328.70	1275.88
328.92	1318.89
329.13	1226.73
329.34	1247.21
329.55	1241.07
329.76	1318.89
329.98	1261.55
330.19	1243.12
330.40	1279.98
330.61	1167.34
330.83	1265.64
331.04	1255.40
331.25	1267.69
331.46	1314.80
331.68	1267.69
331.89	1279.98
332.10	1224.69
332.31	1257.45
332.52	1306.60
332.74	1222.64
332.95	1232.88
333.16	1265.64
333.37	1224.69
333.58	1271.79
333.80	1236.97
334.01	1224.69
334.22	1271.79
334.43	1259.50
334.64	1206.25
334.86	1279.98
335.07	1263.60
335.28	1265.64
335.49	1249.26
335.70	1294.32
335.92	1279.98
336.13	1249.26
336.34	1216.49
336.55	1226.73
336.76	1200.11
336.98	1263.60
337.19	1232.88
337.40	1284.08
337.61	1216.49
337.82	1257.45
338.04	1290.22
338.25	1370.09
338.46	1265.64
338.67	1261.55
338.88	1247.21
339.09	1288.17
339.31	1271.79
339.52	1322.99
339.73	1173.49
339.94	1339.37
340.15	1284.08
340.36	1314.80
340.58	1327.08
340.79	1312.75
341.00	1243.12
341.21	1347.56
341.42	1273.84
341.63	1189.87
341.85	1265.64
342.06	1222.64
342.27	1325.04
342.48	1239.02
342.69	1202.16
342.90	1193.97
343.12	1273.84
343.33	1273.84
343.54	1222.64
343.75	1312.75
343.96	1275.88
344.17	1279.98
344.38	1253.36
344.60	1294.32
344.81	1247.21
345.02	1230.83
345.23	1247.21
345.44	1339.37
345.65	1232.88
345.86	1275.88
346.07	1271.79
346.29	1232.88
346.50	1267.69
346.71	1232.88
346.92	1261.55
347.13	1255.40
347.34	1263.60
347.55	1224.69
347.76	1306.60
347.98	1257.45
348.19	1277.93
348.40	1306.60
348.61	1284.08
348.82	1241.07
349.03	1212.40
349.24	1310.70
349.45	1279.98
349.66	1304.56
349.88	1239.02
350.09	1288.17
350.30	1181.68
350.51	1327.08
350.72	1220.59
350.93	1243.12
351.14	1222.64
351.35	1300.46
351.56	1275.88
351.77	1239.02
351.99	1296.36
352.20	1202.16
352.41	1193.97
352.62	1329.13
352.83	1310.70
353.04	1347.56
353.25	1271.79
353.46	1236.97
353.67	1282.03
353.88	1310.70
354.09	1224.69
354.30	1236.97
354.52	1249.26
354.73	1259.50
354.94	1259.50
355.15	1191.92
355.36	1230.83
355.57	1337.32
355.78	1300.46
355.99	1353.71
356.20	1294.32
356.41	1261.55
356.62	1306.60
356.83	1318.89
357.04	1212.40
357.25	1308.65
357.46	1243.12
357.68	1200.11
357.89	1243.12
358.10	1255.40
358.31	1277.93
358.52	1224.69
358.73	1202.16
358.94	1189.87
359.15	1232.88
359.36	1284.08
359.57	1251.31
359.78	1251.31
359.99	1265.64
360.20	1261.55
360.41	1173.49
360.62	1327.08
360.83	1232.88
361.04	1193.97
361.25	1271.79
361.46	1294.32
361.67	1327.08
361.88	1253.36
362.09	1251.31
362.30	1275.88
362.51	1243.12
362.72	1269.74
362.93	1253.36
363.14	1312.75
363.35	1306.60
363.56	1308.65
363.78	1208.30
363.99	1251.31
364.20	1253.36
364.41	1243.12
364.62	1286.12
364.83	1314.80
365.04	1212.40
365.25	1263.60
365.46	1236.97
365.67	1255.40
365.88	1322.99
366.09	1198.06
366.30	1273.84
366.51	1265.64
366.72	1257.45
366.93	1228.78
367.14	1284.08
367.35	1245.16
367.56	1228.78
367.77	1257.45
367.98	1259.50
368.18	1243.12
368.39	1269.74
368.60	1310.70
368.81	1296.36
369.02	1230.83
369.23	1255.40
369.44	1306.60
369.65	1290.22
369.86	1198.06
370.07	1275.88
370.28	1255.40
370.49	1232.88
370.70	1316.84
370.91	1253.36
371.12	1269.74
371.33	1263.60
371.54	1261.55
371.75	1290.22
371.96	1200.11
372.17	1259.50
372.38	1218.54
372.59	1243.12
372.80	1353.71
373.01	1216.49
373.22	1320.94
373.43	1247.21
373.64	1263.60
373.85	1282.03
374.06	1339.37
374.26	1247.21
374.47	1257.45
374.68	1218.54
374.89	1220.59
375.10	1236.97
375.31	1239.02
375.52	1265.64
375.73	1247.21
375.94	1339.37
376.15	1304.56
376.36	1277.93
376.57	1263.60
376.78	1292.27
376.99	1282.03
377.20	1263.60
377.40	1347.56
377.61	1312.75
377.82	1212.40
378.03	1255.40
378.24	1232.88
378.45	1282.03
378.66	1294.32
378.87	1253.36
379.08	1193.97
379.29	1216.49
379.50	1263.60
379.71	1318.89
379.91	1306.60
380.12	1304.56
380.33	1249.26
380.54	1296.36
380.75	1318.89
380.96	1204.21
381.17	1249.26
381.38	1241.07
381.59	1216.49
381.80	1394.67
382.00	1263.60
382.21	1335.28
382.42	1284.08
382.63	1255.40
382.84	1243.12
383.05	1255.40
383.26	1245.16
383.47	1234.93
383.68	1259.50
383.88	1286.12
384.09	1279.98
384.30	1261.55
384.51	1222.64
384.72	1224.69
384.93	1230.83
385.14	1232.88
385.35	1322.99
385.55	1277.93
385.76	1370.09
385.97	1259.50
386.18	1263.60
386.39	1191.92
386.60	1269.74
386.81	1216.49
387.02	1251.31
387.22	1255.40
387.43	1298.41
387.64	1216.49
387.85	1298.41
388.06	1224.69
388.27	1279.98
388.48	1267.69
388.68	1298.41
388.89	1241.07
389.10	1288.17
389.31	1265.64
389.52	1318.89
389.73	1241.07
389.93	1300.46
390.14	1277.93
390.35	1179.63
390.56	1314.80
390.77	1185.77
390.98	1277.93
391.18	1273.84
391.39	1269.74
391.60	1236.97
391.81	1279.98
392.02	1236.97
392.23	1210.35
392.43	1282.03
392.64	1265.64
392.85	1241.07
393.06	1273.84
393.27	1220.59
393.47	1239.02
393.68	1212.40
393.89	1269.74
394.10	1302.51
394.31	1208.30
394.52	1277.93
394.72	1265.64
394.93	1298.41
395.14	1208.30
395.35	1308.65
395.56	1271.79
395.76	1243.12
395.97	1322.99
396.18	1224.69
396.39	1253.36
396.60	1359.85
396.80	1267.69
397.01	1216.49
397.22	1220.59
397.43	1265.64
397.64	1273.84
397.84	1304.56
398.05	1245.16
398.26	1241.07
398.47	1314.80
398.67	1271.79
398.88	1198.06
399.09	1286.12
399.30	1224.69
399.51	1239.02
399.71	1292.27
399.92	1296.36
400.13	1279.98
400.34	1290.22
400.54	1255.40
400.75	1273.84
400.96	1230.83
401.17	1241.07
401.37	1288.17
401.58	1255.40
401.79	1304.56
402.00	1267.69
402.21	1257.45
402.41	1232.88
402.62	1302.51
402.83	1249.26
403.04	1257.45
403.24	1200.11
403.45	1271.79
403.66	1329.13
403.87	1200.11
404.07	1292.27
404.28	1204.21
404.49	1286.12
404.70	1296.36
404.90	1245.16
405.11	1296.36
405.32	1279.98
405.52	1216.49
405.73	1259.50
405.94	1232.88
406.15	1220.59
406.35	1220.59
406.56	1271.79
406.77	1306.60
406.98	1224.69
407.18	1318.89
407.39	1302.51
407.60	1271.79
407.80	1253.36
408.01	1273.84
408.22	1251.31
408.43	1216.49
408.63	1296.36
408.84	1247.21
409.05	1329.13
409.25	1257.45
409.46	1286.12
409.67	1370.09
409.88	1279.98
410.08	1257.45
410.29	1290.22
410.50	1247.21
410.70	1267.69
410.91	1257.45
411.12	1251.31
411.32	1282.03
411.53	1275.88
411.74	1245.16
411.95	1273.84
412.15	1279.98
412.36	1245.16
412.57	1251.31
412.77	1288.17
412.98	1269.74
413.19	1261.55
413.39	1263.60
413.60	1273.84
413.81	1214.45
414.01	1232.88
414.22	1308.65
414.43	1228.78
414.63	1322.99
414.84	1257.45
415.05	1214.45
415.25	1241.07
415.46	1298.41
415.67	1241.07
415.87	1271.79
416.08	1277.93
416.29	1273.84
416.49	1298.41
416.70	1263.60
416.91	1298.41
417.11	1292.27
417.32	1255.40
417.53	1222.64
417.73	1294.32
417.94	1216.49
418.15	1296.36
418.35	1292.27
418.56	1245.16
418.77	1257.45
418.97	1226.73
419.18	1294.32
419.38	1284.08
419.59	1236.97
419.80	1181.68
420.00	1269.74
420.21	1279.98
420.42	1259.50
420.62	1279.98
420.83	1269.74
421.04	1265.64
421.24	1247.21
421.45	1322.99
421.65	1273.84
421.86	1271.79
422.07	1245.16
422.27	1310.70
422.48	1261.55
422.69	1255.40
422.89	1304.56
423.10	1232.88
423.30	1294.32
423.51	1267.69
423.72	1216.49
423.92	1202.16
424.13	1216.49
424.33	1200.11
424.54	1261.55
424.75	1218.54
424.95	1222.64
425.16	1259.50
425.36	1196.01
425.57	1267.69
425.78	1210.35
425.98	1232.88
426.19	1216.49
426.39	1253.36
426.60	1165.29
426.81	1273.84
427.01	1271.79
427.22	1187.82
427.42	1288.17
427.63	1265.64
427.83	1232.88
428.04	1239.02
428.25	1282.03
428.45	1337.32
428.66	1308.65
428.86	1257.45
429.07	1232.88
429.28	1329.13
429.48	1255.40
429.69	1306.60
429.89	1239.02
430.10	1249.26
430.30	1247.21
430.51	1208.30
430.71	1263.60
430.92	1247.21
431.13	1286.12
431.33	1230.83
431.54	1243.12
431.74	1314.80
431.95	1232.88
432.15	1292.27
432.36	1284.08
432.56	1232.88
432.77	1253.36
432.98	1300.46
433.18	1265.64
433.39	1267.69
433.59	1294.32
433.80	1265.64
434.00	1286.12
434.21	1226.73
434.41	1265.64
434.62	1255.40
434.82	1269.74
435.03	1304.56
435.23	1277.93
435.44	1224.69
435.64	1247.21
435.85	1265.64
436.06	1247.21
436.26	1349.61
436.47	1275.88
436.67	1243.12
436.88	1345.52
437.08	1230.83
437.29	1320.94
437.49	1322.99
437.70	1314.80
437.90	1376.24
438.11	1273.84
438.31	1273.84
438.52	1210.35
438.72	1316.84
438.93	1271.79
439.13	1322.99
439.34	1277.93
439.54	1251.31
439.75	1331.18
439.95	1232.88
440.16	1222.64
440.36	1253.36
440.57	1251.31
440.77	1296.36
440.98	1220.59
441.18	1273.84
441.39	1241.07
441.59	1349.61
441.80	1241.07
442.00	1288.17
442.21	1220.59
442.41	1226.73
442.62	1273.84
442.82	1292.27
443.02	1275.88
443.23	1251.31
443.43	1265.64
443.64	1241.07
443.84	1261.55
444.05	1312.75
444.25	1228.78
444.46	1288.17
444.66	1265.64
444.87	1282.03
445.07	1214.45
445.28	1282.03
445.48	1298.41
445.69	1191.92
445.89	1300.46
446.09	1253.36
446.30	1300.46
446.50	1265.64
446.71	1255.40
446.91	1228.78
447.12	1245.16
447.32	1345.52
447.53	1300.46
447.73	1261.55
447.93	1241.07
448.14	1306.60
448.34	1294.32
448.55	1210.35
448.75	1380.33
448.96	1232.88
449.16	1200.11
449.36	1290.22
449.57	1288.17
449.77	1245.16
449.98	1251.31
450.18	1392.62
450.39	1308.65
450.59	1290.22
450.79	1239.02
451.00	1263.60
451.20	1322.99
451.41	1327.08
451.61	1277.93
451.81	1273.84
452.02	1318.89
452.22	1282.03
452.43	1230.83
452.63	1275.88
