SpectraSuite Data File
++++++++++++++++++++++++++++++++++++
Date: Sun Apr 03 19:55:40 CEST 2016
User: root
Dark Spectrum Present: No
Reference Spectrum Present: No
Number of Sampled Component Spectra: 1
Spectrometers: USB4C02835
Integration Time (usec): 10000 (USB4C02835)
Spectra Averaged: 1 (USB4C02835)
Boxcar Smoothing: 0 (USB4C02835)
Correct for Electrical Dark: No (USB4C02835)
Strobe/Lamp Enabled: No (USB4C02835)
Correct for Detector Non-linearity: No (USB4C02835)
Correct for Stray Light: No (USB4C02835)
Number of Pixels in Processed Spectrum: 3648
>>>>>Begin Processed Spectral Data<<<<<
177.47	1224.69
177.69	1224.69
177.91	1224.69
178.13	1239.02
178.36	1253.36
178.58	1294.32
178.80	1239.02
179.02	1216.49
179.24	1222.64
179.46	1200.11
179.68	1282.03
179.90	1282.03
180.13	1302.51
180.35	1304.56
180.57	1282.03
180.79	1290.22
181.01	1327.08
181.23	1224.69
181.45	1284.08
181.67	1253.36
181.90	1253.36
182.12	1181.68
182.34	1236.97
182.56	1255.40
182.78	1277.93
183.00	1269.74
183.22	1320.94
183.44	1277.93
183.66	1290.22
183.89	1220.59
184.11	1259.50
184.33	1269.74
184.55	1247.21
184.77	1257.45
184.99	1310.70
185.21	1320.94
185.43	1312.75
185.65	1261.55
185.87	1210.35
186.10	1294.32
186.32	1263.60
186.54	1271.79
186.76	1310.70
186.98	1187.82
187.20	1279.98
187.42	1271.79
187.64	1265.64
187.86	1220.59
188.08	1269.74
188.30	1210.35
188.52	1327.08
188.75	1228.78
188.97	1325.04
189.19	1230.83
189.41	1255.40
189.63	1251.31
189.85	1189.87
190.07	1202.16
190.29	1257.45
190.51	1298.41
190.73	1265.64
190.95	1296.36
191.17	1275.88
191.39	1310.70
191.61	1300.46
191.84	1222.64
192.06	1267.69
192.28	1302.51
192.50	1239.02
192.72	1253.36
192.94	1224.69
193.16	1292.27
193.38	1284.08
193.60	1300.46
193.82	1296.36
194.04	1239.02
194.26	1251.31
194.48	1286.12
194.70	1222.64
194.92	1255.40
195.14	1298.41
195.36	1318.89
195.58	1320.94
195.80	1239.02
196.02	1327.08
196.24	1241.07
196.46	1294.32
196.69	1255.40
196.91	1175.53
197.13	1253.36
197.35	1273.84
197.57	1288.17
197.79	1269.74
198.01	1228.78
198.23	1296.36
198.45	1204.21
198.67	1269.74
198.89	1292.27
199.11	1300.46
199.33	1253.36
199.55	1247.21
199.77	1255.40
199.99	1253.36
200.21	1220.59
200.43	1294.32
200.65	1249.26
200.87	1214.45
201.09	1255.40
201.31	1212.40
201.53	1247.21
201.75	1306.60
201.97	1277.93
202.19	1241.07
202.41	1236.97
202.63	1312.75
202.85	1277.93
203.07	1310.70
203.29	1308.65
203.51	1316.84
203.73	1247.21
203.95	1355.76
204.17	1212.40
204.39	1284.08
204.61	1292.27
204.83	1361.90
205.05	1245.16
205.27	1208.30
205.49	1239.02
205.71	1251.31
205.93	1263.60
206.15	1255.40
206.37	1185.77
206.59	1259.50
206.81	1306.60
207.03	1265.64
207.25	1185.77
207.47	1298.41
207.69	1308.65
207.91	1273.84
208.13	1353.71
208.34	1261.55
208.56	1228.78
208.78	1224.69
209.00	1230.83
209.22	1292.27
209.44	1265.64
209.66	1251.31
209.88	1200.11
210.10	1306.60
210.32	1261.55
210.54	1277.93
210.76	1282.03
210.98	1277.93
211.20	1222.64
211.42	1249.26
211.64	1185.77
211.86	1290.22
212.08	1337.32
212.30	1304.56
212.52	1234.93
212.74	1247.21
212.96	1255.40
213.17	1261.55
213.39	1247.21
213.61	1265.64
213.83	1290.22
214.05	1224.69
214.27	1298.41
214.49	1290.22
214.71	1290.22
214.93	1279.98
215.15	1224.69
215.37	1316.84
215.59	1224.69
215.81	1271.79
216.03	1341.42
216.24	1318.89
216.46	1245.16
216.68	1277.93
216.90	1320.94
217.12	1341.42
217.34	1335.28
217.56	1216.49
217.78	1269.74
218.00	1249.26
218.22	1279.98
218.44	1329.13
218.66	1290.22
218.87	1263.60
219.09	1314.80
219.31	1353.71
219.53	1239.02
219.75	1214.45
219.97	1228.78
220.19	1308.65
220.41	1265.64
220.63	1259.50
220.85	1286.12
221.06	1279.98
221.28	1304.56
221.50	1359.85
221.72	1259.50
221.94	1329.13
222.16	1241.07
222.38	1329.13
222.60	1263.60
222.82	1239.02
223.03	1294.32
223.25	1251.31
223.47	1175.53
223.69	1249.26
223.91	1239.02
224.13	1296.36
224.35	1290.22
224.57	1208.30
224.78	1279.98
225.00	1218.54
225.22	1335.28
225.44	1335.28
225.66	1294.32
225.88	1245.16
226.10	1286.12
226.32	1306.60
226.53	1339.37
226.75	1259.50
226.97	1302.51
227.19	1279.98
227.41	1177.58
227.63	1282.03
227.85	1220.59
228.06	1292.27
228.28	1312.75
228.50	1290.22
228.72	1273.84
228.94	1322.99
229.16	1306.60
229.37	1282.03
229.59	1261.55
229.81	1282.03
230.03	1257.45
230.25	1288.17
230.47	1302.51
230.69	1257.45
230.90	1292.27
231.12	1218.54
231.34	1275.88
231.56	1322.99
231.78	1247.21
232.00	1275.88
232.21	1255.40
232.43	1279.98
232.65	1230.83
232.87	1224.69
233.09	1245.16
233.30	1249.26
233.52	1243.12
233.74	1261.55
233.96	1265.64
234.18	1349.61
234.40	1286.12
234.61	1257.45
234.83	1193.97
235.05	1259.50
235.27	1261.55
235.49	1239.02
235.70	1210.35
235.92	1232.88
236.14	1269.74
236.36	1228.78
236.58	1331.18
236.79	1265.64
237.01	1302.51
237.23	1212.40
237.45	1208.30
237.67	1277.93
237.88	1228.78
238.10	1298.41
238.32	1220.59
238.54	1318.89
238.76	1273.84
238.97	1298.41
239.19	1193.97
239.41	1314.80
239.63	1243.12
239.85	1245.16
240.06	1288.17
240.28	1308.65
240.50	1218.54
240.72	1339.37
240.93	1277.93
241.15	1263.60
241.37	1294.32
241.59	1255.40
241.81	1206.25
242.02	1318.89
242.24	1239.02
242.46	1253.36
242.68	1206.25
242.89	1257.45
243.11	1271.79
243.33	1198.06
243.55	1294.32
243.76	1290.22
243.98	1196.01
244.20	1273.84
244.42	1251.31
244.64	1269.74
244.85	1222.64
245.07	1294.32
245.29	1257.45
245.51	1255.40
245.72	1208.30
245.94	1245.16
246.16	1214.45
246.38	1282.03
246.59	1277.93
246.81	1249.26
247.03	1279.98
247.24	1232.88
247.46	1312.75
247.68	1228.78
247.90	1214.45
248.11	1243.12
248.33	1288.17
248.55	1218.54
248.77	1243.12
248.98	1265.64
249.20	1279.98
249.42	1277.93
249.64	1333.23
249.85	1277.93
250.07	1265.64
250.29	1228.78
250.50	1245.16
250.72	1257.45
250.94	1247.21
251.16	1279.98
251.37	1245.16
251.59	1257.45
251.81	1263.60
252.02	1212.40
252.24	1269.74
252.46	1267.69
252.68	1230.83
252.89	1230.83
253.11	1294.32
253.33	1253.36
253.54	1247.21
253.76	1214.45
253.98	1341.42
254.20	1294.32
254.41	1243.12
254.63	1263.60
254.85	1255.40
255.06	1226.73
255.28	1273.84
255.50	1245.16
255.71	1277.93
255.93	1220.59
256.15	1292.27
256.36	1277.93
256.58	1308.65
256.80	1239.02
257.02	1259.50
257.23	1322.99
257.45	1265.64
257.67	1247.21
257.88	1185.77
258.10	1296.36
258.32	1271.79
258.53	1359.85
258.75	1294.32
258.97	1329.13
259.18	1204.21
259.40	1288.17
259.62	1273.84
259.83	1329.13
260.05	1228.78
260.27	1316.84
260.48	1271.79
260.70	1273.84
260.92	1314.80
261.13	1298.41
261.35	1255.40
261.57	1269.74
261.78	1224.69
262.00	1255.40
262.22	1320.94
262.43	1294.32
262.65	1296.36
262.86	1263.60
263.08	1241.07
263.30	1224.69
263.51	1255.40
263.73	1294.32
263.95	1273.84
264.16	1294.32
264.38	1232.88
264.60	1304.56
264.81	1261.55
265.03	1247.21
265.25	1257.45
265.46	1284.08
265.68	1329.13
265.89	1271.79
266.11	1243.12
266.33	1275.88
266.54	1316.84
266.76	1288.17
266.98	1277.93
267.19	1263.60
267.41	1200.11
267.62	1259.50
267.84	1148.91
268.06	1269.74
268.27	1282.03
268.49	1316.84
268.70	1318.89
268.92	1198.06
269.14	1245.16
269.35	1316.84
269.57	1357.80
269.79	1267.69
270.00	1331.18
270.22	1245.16
270.43	1265.64
270.65	1255.40
270.87	1212.40
271.08	1339.37
271.30	1200.11
271.51	1308.65
271.73	1320.94
271.95	1271.79
272.16	1277.93
272.38	1247.21
272.59	1263.60
272.81	1294.32
273.02	1306.60
273.24	1239.02
273.46	1292.27
273.67	1236.97
273.89	1288.17
274.10	1308.65
274.32	1253.36
274.54	1316.84
274.75	1302.51
274.97	1251.31
275.18	1288.17
275.40	1187.82
275.61	1198.06
275.83	1257.45
276.05	1267.69
276.26	1296.36
276.48	1259.50
276.69	1234.93
276.91	1245.16
277.12	1220.59
277.34	1273.84
277.55	1273.84
277.77	1220.59
277.99	1251.31
278.20	1275.88
278.42	1263.60
278.63	1294.32
278.85	1294.32
279.06	1310.70
279.28	1310.70
279.49	1286.12
279.71	1294.32
279.93	1224.69
280.14	1206.25
280.36	1171.44
280.57	1265.64
280.79	1200.11
281.00	1312.75
281.22	1302.51
281.43	1296.36
281.65	1228.78
281.86	1288.17
282.08	1241.07
282.29	1314.80
282.51	1263.60
282.73	1173.49
282.94	1306.60
283.16	1314.80
283.37	1310.70
283.59	1396.71
283.80	1279.98
284.02	1288.17
284.23	1253.36
284.45	1277.93
284.66	1277.93
284.88	1296.36
285.09	1257.45
285.31	1263.60
285.52	1257.45
285.74	1234.93
285.95	1232.88
286.17	1185.77
286.38	1298.41
286.60	1228.78
286.81	1214.45
287.03	1245.16
287.24	1269.74
287.46	1232.88
287.67	1329.13
287.89	1261.55
288.10	1337.32
288.32	1345.52
288.53	1290.22
288.75	1275.88
288.96	1355.76
289.18	1290.22
289.39	1257.45
289.61	1226.73
289.82	1292.27
290.04	1306.60
290.25	1247.21
290.47	1296.36
290.68	1296.36
290.90	1204.21
291.11	1306.60
291.33	1267.69
291.54	1306.60
291.76	1224.69
291.97	1243.12
292.18	1253.36
292.40	1251.31
292.61	1322.99
292.83	1300.46
293.04	1320.94
293.26	1257.45
293.47	1243.12
293.69	1259.50
293.90	1247.21
294.12	1220.59
294.33	1300.46
294.55	1257.45
294.76	1265.64
294.97	1277.93
295.19	1312.75
295.40	1204.21
295.62	1325.04
295.83	1267.69
296.05	1243.12
296.26	1257.45
296.48	1284.08
296.69	1288.17
296.90	1265.64
297.12	1318.89
297.33	1275.88
297.55	1265.64
297.76	1263.60
297.98	1265.64
298.19	1288.17
298.41	1310.70
298.62	1273.84
298.83	1273.84
299.05	1279.98
299.26	1208.30
299.48	1318.89
299.69	1279.98
299.90	1302.51
300.12	1257.45
300.33	1273.84
300.55	1279.98
300.76	1286.12
300.98	1183.73
301.19	1282.03
301.40	1253.36
301.62	1292.27
301.83	1236.97
302.05	1335.28
302.26	1273.84
302.47	1279.98
302.69	1306.60
302.90	1263.60
303.12	1351.66
303.33	1253.36
303.54	1271.79
303.76	1198.06
303.97	1222.64
304.19	1308.65
304.40	1261.55
304.61	1288.17
304.83	1304.56
305.04	1349.61
305.26	1214.45
305.47	1288.17
305.68	1329.13
305.90	1271.79
306.11	1273.84
306.33	1265.64
306.54	1239.02
306.75	1230.83
306.97	1284.08
307.18	1263.60
307.39	1277.93
307.61	1232.88
307.82	1216.49
308.04	1302.51
308.25	1187.82
308.46	1302.51
308.68	1218.54
308.89	1296.36
309.10	1263.60
309.32	1296.36
309.53	1290.22
309.74	1290.22
309.96	1288.17
310.17	1275.88
310.39	1282.03
310.60	1232.88
310.81	1253.36
311.03	1241.07
311.24	1366.00
311.45	1206.25
311.67	1230.83
311.88	1273.84
312.09	1308.65
312.31	1259.50
312.52	1282.03
312.73	1224.69
312.95	1234.93
313.16	1230.83
313.37	1269.74
313.59	1288.17
313.80	1261.55
314.01	1261.55
314.23	1282.03
314.44	1304.56
314.65	1290.22
314.87	1261.55
315.08	1224.69
315.29	1331.18
315.51	1249.26
315.72	1193.97
315.93	1263.60
316.15	1193.97
316.36	1234.93
316.57	1220.59
316.79	1245.16
317.00	1255.40
317.21	1255.40
317.43	1226.73
317.64	1304.56
317.85	1279.98
318.07	1196.01
318.28	1314.80
318.49	1302.51
318.70	1300.46
318.92	1200.11
319.13	1284.08
319.34	1214.45
319.56	1273.84
319.77	1267.69
319.98	1212.40
320.20	1228.78
320.41	1322.99
320.62	1290.22
320.83	1253.36
321.05	1208.30
321.26	1241.07
321.47	1210.35
321.69	1275.88
321.90	1239.02
322.11	1314.80
322.32	1339.37
322.54	1345.52
322.75	1263.60
322.96	1251.31
323.18	1243.12
323.39	1343.47
323.60	1241.07
323.81	1245.16
324.03	1296.36
324.24	1304.56
324.45	1269.74
324.66	1218.54
324.88	1220.59
325.09	1245.16
325.30	1271.79
325.52	1368.04
325.73	1253.36
325.94	1294.32
326.15	1232.88
326.37	1191.92
326.58	1310.70
326.79	1265.64
327.00	1267.69
327.22	1320.94
327.43	1265.64
327.64	1325.04
327.85	1224.69
328.07	1294.32
328.28	1316.84
328.49	1220.59
328.70	1320.94
328.92	1271.79
329.13	1206.25
329.34	1271.79
329.55	1277.93
329.76	1236.97
329.98	1286.12
330.19	1239.02
330.40	1300.46
330.61	1257.45
330.83	1220.59
331.04	1257.45
331.25	1210.35
331.46	1312.75
331.68	1310.70
331.89	1318.89
332.10	1271.79
332.31	1361.90
332.52	1230.83
332.74	1273.84
332.95	1196.01
333.16	1245.16
333.37	1255.40
333.58	1300.46
333.80	1275.88
334.01	1320.94
334.22	1251.31
334.43	1232.88
334.64	1277.93
334.86	1273.84
335.07	1359.85
335.28	1273.84
335.49	1265.64
335.70	1337.32
335.92	1230.83
336.13	1290.22
336.34	1216.49
336.55	1265.64
336.76	1314.80
336.98	1249.26
337.19	1269.74
337.40	1253.36
337.61	1370.09
337.82	1292.27
338.04	1247.21
338.25	1290.22
338.46	1382.38
338.67	1279.98
338.88	1224.69
339.09	1331.18
339.31	1306.60
339.52	1239.02
339.73	1187.82
339.94	1271.79
340.15	1198.06
340.36	1214.45
340.58	1282.03
340.79	1247.21
341.00	1196.01
341.21	1181.68
341.42	1310.70
341.63	1179.63
341.85	1263.60
342.06	1288.17
342.27	1249.26
342.48	1279.98
342.69	1286.12
342.90	1322.99
343.12	1265.64
343.33	1271.79
343.54	1185.77
343.75	1261.55
343.96	1218.54
344.17	1261.55
344.38	1212.40
344.60	1302.51
344.81	1316.84
345.02	1284.08
345.23	1212.40
345.44	1247.21
345.65	1265.64
345.86	1277.93
346.07	1282.03
346.29	1239.02
346.50	1325.04
346.71	1318.89
346.92	1284.08
347.13	1273.84
347.34	1331.18
347.55	1239.02
347.76	1310.70
347.98	1286.12
348.19	1196.01
348.40	1259.50
348.61	1286.12
348.82	1271.79
349.03	1224.69
349.24	1316.84
349.45	1269.74
349.66	1253.36
349.88	1259.50
350.09	1239.02
350.30	1228.78
350.51	1306.60
350.72	1253.36
350.93	1331.18
351.14	1292.27
351.35	1271.79
351.56	1271.79
351.77	1239.02
351.99	1286.12
352.20	1247.21
352.41	1255.40
352.62	1253.36
352.83	1271.79
353.04	1351.66
353.25	1243.12
353.46	1263.60
353.67	1282.03
353.88	1306.60
354.09	1214.45
354.30	1339.37
354.52	1253.36
354.73	1282.03
354.94	1253.36
355.15	1263.60
355.36	1288.17
355.57	1308.65
355.78	1261.55
355.99	1292.27
356.20	1247.21
356.41	1286.12
356.62	1259.50
356.83	1277.93
357.04	1294.32
357.25	1329.13
357.46	1241.07
357.68	1216.49
357.89	1220.59
358.10	1275.88
358.31	1284.08
358.52	1261.55
358.73	1253.36
358.94	1230.83
359.15	1222.64
359.36	1320.94
359.57	1247.21
359.78	1290.22
359.99	1257.45
360.20	1269.74
360.41	1265.64
360.62	1298.41
360.83	1322.99
361.04	1335.28
361.25	1275.88
361.46	1212.40
361.67	1204.21
361.88	1230.83
362.09	1294.32
362.30	1282.03
362.51	1157.10
362.72	1241.07
362.93	1253.36
363.14	1251.31
363.35	1202.16
363.56	1275.88
363.78	1333.23
363.99	1239.02
364.20	1322.99
364.41	1230.83
364.62	1333.23
364.83	1214.45
365.04	1222.64
365.25	1298.41
365.46	1300.46
365.67	1210.35
365.88	1214.45
366.09	1263.60
366.30	1234.93
366.51	1308.65
366.72	1298.41
366.93	1325.04
367.14	1257.45
367.35	1320.94
367.56	1259.50
367.77	1247.21
367.98	1337.32
368.18	1259.50
368.39	1296.36
368.60	1331.18
368.81	1255.40
369.02	1193.97
369.23	1241.07
369.44	1282.03
369.65	1214.45
369.86	1249.26
370.07	1318.89
370.28	1255.40
370.49	1331.18
370.70	1282.03
370.91	1253.36
371.12	1232.88
371.33	1294.32
371.54	1273.84
371.75	1265.64
371.96	1284.08
372.17	1366.00
372.38	1273.84
372.59	1312.75
372.80	1273.84
373.01	1286.12
373.22	1312.75
373.43	1200.11
373.64	1284.08
373.85	1251.31
374.06	1239.02
374.26	1224.69
374.47	1257.45
374.68	1245.16
374.89	1226.73
375.10	1191.92
375.31	1253.36
375.52	1284.08
375.73	1269.74
375.94	1214.45
376.15	1294.32
376.36	1243.12
376.57	1269.74
376.78	1271.79
376.99	1288.17
377.20	1165.29
377.40	1302.51
377.61	1292.27
377.82	1279.98
378.03	1263.60
378.24	1265.64
378.45	1298.41
378.66	1204.21
378.87	1302.51
379.08	1306.60
379.29	1288.17
379.50	1294.32
379.71	1296.36
379.91	1277.93
380.12	1257.45
380.33	1282.03
380.54	1282.03
380.75	1277.93
380.96	1183.73
381.17	1294.32
381.38	1304.56
381.59	1265.64
381.80	1339.37
382.00	1312.75
382.21	1269.74
382.42	1261.55
382.63	1263.60
382.84	1261.55
383.05	1318.89
383.26	1271.79
383.47	1306.60
383.68	1232.88
383.88	1234.93
384.09	1306.60
384.30	1292.27
384.51	1200.11
384.72	1322.99
384.93	1263.60
385.14	1263.60
385.35	1286.12
385.55	1214.45
385.76	1239.02
385.97	1290.22
386.18	1265.64
386.39	1333.23
386.60	1236.97
386.81	1304.56
387.02	1232.88
387.22	1196.01
387.43	1232.88
387.64	1234.93
387.85	1302.51
388.06	1249.26
388.27	1191.92
388.48	1345.52
388.68	1267.69
388.89	1271.79
389.10	1253.36
389.31	1153.01
389.52	1304.56
389.73	1208.30
389.93	1286.12
390.14	1306.60
390.35	1273.84
390.56	1193.97
390.77	1261.55
390.98	1241.07
391.18	1200.11
391.39	1173.49
391.60	1322.99
391.81	1277.93
392.02	1300.46
392.23	1273.84
392.43	1253.36
392.64	1304.56
392.85	1318.89
393.06	1320.94
393.27	1339.37
393.47	1302.51
393.68	1247.21
393.89	1236.97
394.10	1243.12
394.31	1257.45
394.52	1204.21
394.72	1212.40
394.93	1339.37
395.14	1208.30
395.35	1239.02
395.56	1310.70
395.76	1218.54
395.97	1288.17
396.18	1243.12
396.39	1298.41
396.60	1241.07
396.80	1249.26
397.01	1239.02
397.22	1255.40
397.43	1269.74
397.64	1255.40
397.84	1206.25
398.05	1261.55
398.26	1296.36
398.47	1234.93
398.67	1253.36
398.88	1288.17
399.09	1269.74
399.30	1220.59
399.51	1322.99
399.71	1247.21
399.92	1306.60
400.13	1228.78
400.34	1239.02
400.54	1257.45
400.75	1296.36
400.96	1204.21
401.17	1282.03
401.37	1335.28
401.58	1243.12
401.79	1247.21
402.00	1292.27
402.21	1322.99
402.41	1243.12
402.62	1257.45
402.83	1275.88
403.04	1286.12
403.24	1271.79
403.45	1292.27
403.66	1316.84
403.87	1245.16
404.07	1269.74
404.28	1253.36
404.49	1292.27
404.70	1294.32
404.90	1273.84
405.11	1210.35
405.32	1343.47
405.52	1314.80
405.73	1267.69
405.94	1282.03
406.15	1220.59
406.35	1292.27
406.56	1222.64
406.77	1220.59
406.98	1277.93
407.18	1277.93
407.39	1320.94
407.60	1263.60
407.80	1265.64
408.01	1206.25
408.22	1292.27
408.43	1251.31
408.63	1187.82
408.84	1271.79
409.05	1277.93
409.25	1253.36
409.46	1269.74
409.67	1251.31
409.88	1216.49
410.08	1284.08
410.29	1187.82
410.50	1327.08
410.70	1267.69
410.91	1222.64
411.12	1263.60
411.32	1257.45
411.53	1228.78
411.74	1234.93
411.95	1277.93
412.15	1267.69
412.36	1286.12
412.57	1265.64
412.77	1296.36
412.98	1300.46
413.19	1275.88
413.39	1308.65
413.60	1302.51
413.81	1273.84
414.01	1222.64
414.22	1329.13
414.43	1271.79
414.63	1286.12
414.84	1300.46
415.05	1249.26
415.25	1255.40
415.46	1239.02
415.67	1208.30
415.87	1243.12
416.08	1257.45
416.29	1300.46
416.49	1279.98
416.70	1232.88
416.91	1277.93
417.11	1331.18
417.32	1216.49
417.53	1277.93
417.73	1265.64
417.94	1208.30
418.15	1353.71
418.35	1228.78
418.56	1210.35
418.77	1347.56
418.97	1251.31
419.18	1257.45
419.38	1247.21
419.59	1302.51
419.80	1296.36
420.00	1310.70
420.21	1216.49
420.42	1214.45
420.62	1277.93
420.83	1173.49
421.04	1286.12
421.24	1298.41
421.45	1263.60
421.65	1267.69
421.86	1253.36
422.07	1261.55
422.27	1269.74
422.48	1259.50
422.69	1261.55
422.89	1228.78
423.10	1228.78
423.30	1318.89
423.51	1322.99
423.72	1232.88
423.92	1320.94
424.13	1263.60
424.33	1247.21
424.54	1335.28
424.75	1171.44
424.95	1296.36
425.16	1271.79
425.36	1320.94
425.57	1269.74
425.78	1331.18
425.98	1316.84
426.19	1312.75
426.39	1345.52
426.60	1333.23
426.81	1304.56
427.01	1314.80
427.22	1290.22
427.42	1241.07
427.63	1290.22
427.83	1277.93
428.04	1259.50
428.25	1312.75
428.45	1263.60
428.66	1255.40
428.86	1282.03
429.07	1236.97
429.28	1290.22
429.48	1208.30
429.69	1208.30
429.89	1275.88
430.10	1261.55
430.30	1200.11
430.51	1284.08
430.71	1247.21
430.92	1273.84
431.13	1277.93
431.33	1277.93
431.54	1255.40
431.74	1333.23
431.95	1279.98
432.15	1263.60
432.36	1218.54
432.56	1273.84
432.77	1241.07
432.98	1251.31
433.18	1206.25
433.39	1241.07
433.59	1249.26
433.80	1335.28
434.00	1236.97
434.21	1261.55
434.41	1273.84
434.62	1314.80
434.82	1282.03
435.03	1302.51
435.23	1290.22
435.44	1263.60
435.64	1284.08
435.85	1241.07
436.06	1286.12
436.26	1247.21
436.47	1290.22
436.67	1257.45
436.88	1218.54
437.08	1302.51
437.29	1255.40
437.49	1294.32
437.70	1247.21
437.90	1316.84
438.11	1267.69
438.31	1212.40
438.52	1271.79
438.72	1232.88
438.93	1290.22
439.13	1343.47
439.34	1322.99
439.54	1296.36
439.75	1282.03
439.95	1206.25
440.16	1271.79
440.36	1337.32
440.57	1261.55
440.77	1275.88
440.98	1284.08
441.18	1292.27
441.39	1224.69
441.59	1286.12
441.80	1279.98
442.00	1200.11
442.21	1234.93
442.41	1249.26
442.62	1316.84
442.82	1220.59
443.02	1265.64
443.23	1282.03
443.43	1294.32
443.64	1273.84
443.84	1284.08
444.05	1236.97
444.25	1325.04
444.46	1191.92
444.66	1263.60
444.87	1292.27
445.07	1224.69
445.28	1337.32
445.48	1318.89
445.69	1228.78
445.89	1279.98
446.09	1300.46
446.30	1245.16
446.50	1249.26
446.71	1292.27
446.91	1288.17
447.12	1218.54
447.32	1335.28
447.53	1288.17
447.73	1263.60
447.93	1230.83
448.14	1222.64
448.34	1292.27
448.55	1329.13
448.75	1224.69
448.96	1259.50
449.16	1335.28
449.36	1234.93
449.57	1325.04
449.77	1245.16
449.98	1232.88
450.18	1294.32
450.39	1288.17
450.59	1302.51
450.79	1269.74
451.00	1251.31
451.20	1304.56
451.41	1300.46
451.61	1247.21
451.81	1255.40
452.02	1251.31
452.22	1234.93
452.43	1355.76
452.63	1290.22
