SpectraSuite Data File
++++++++++++++++++++++++++++++++++++
Date: Sun Apr 03 19:55:29 CEST 2016
User: root
Dark Spectrum Present: No
Reference Spectrum Present: No
Number of Sampled Component Spectra: 1
Spectrometers: USB4C02835
Integration Time (usec): 10000 (USB4C02835)
Spectra Averaged: 1 (USB4C02835)
Boxcar Smoothing: 0 (USB4C02835)
Correct for Electrical Dark: No (USB4C02835)
Strobe/Lamp Enabled: No (USB4C02835)
Correct for Detector Non-linearity: No (USB4C02835)
Correct for Stray Light: No (USB4C02835)
Number of Pixels in Processed Spectrum: 3648
>>>>>Begin Processed Spectral Data<<<<<
177.47	1228.78
177.69	1228.78
177.91	1228.78
178.13	1245.16
178.36	1316.84
178.58	1325.04
178.80	1224.69
179.02	1290.22
179.24	1247.21
179.46	1216.49
179.68	1265.64
179.90	1271.79
180.13	1304.56
180.35	1245.16
180.57	1263.60
180.79	1241.07
181.01	1247.21
181.23	1290.22
181.45	1304.56
181.67	1245.16
181.90	1316.84
182.12	1228.78
182.34	1193.97
182.56	1230.83
182.78	1173.49
183.00	1220.59
183.22	1259.50
183.44	1234.93
183.66	1245.16
183.89	1251.31
184.11	1196.01
184.33	1273.84
184.55	1329.13
184.77	1320.94
184.99	1214.45
185.21	1265.64
185.43	1341.42
185.65	1243.12
185.87	1300.46
186.10	1228.78
186.32	1263.60
186.54	1284.08
186.76	1279.98
186.98	1310.70
187.20	1290.22
187.42	1302.51
187.64	1263.60
187.86	1245.16
188.08	1337.32
188.30	1255.40
188.52	1279.98
188.75	1210.35
188.97	1241.07
189.19	1273.84
189.41	1294.32
189.63	1236.97
189.85	1329.13
190.07	1232.88
190.29	1257.45
190.51	1286.12
190.73	1271.79
190.95	1288.17
191.17	1265.64
191.39	1331.18
191.61	1220.59
191.84	1222.64
192.06	1296.36
192.28	1177.58
192.50	1245.16
192.72	1310.70
192.94	1247.21
193.16	1253.36
193.38	1208.30
193.60	1255.40
193.82	1222.64
194.04	1279.98
194.26	1212.40
194.48	1275.88
194.70	1196.01
194.92	1331.18
195.14	1322.99
195.36	1314.80
195.58	1269.74
195.80	1271.79
196.02	1265.64
196.24	1296.36
196.46	1214.45
196.69	1308.65
196.91	1257.45
197.13	1232.88
197.35	1196.01
197.57	1282.03
197.79	1218.54
198.01	1224.69
198.23	1296.36
198.45	1284.08
198.67	1284.08
198.89	1226.73
199.11	1296.36
199.33	1253.36
199.55	1253.36
199.77	1312.75
199.99	1271.79
200.21	1245.16
200.43	1232.88
200.65	1208.30
200.87	1261.55
201.09	1265.64
201.31	1216.49
201.53	1234.93
201.75	1292.27
201.97	1206.25
202.19	1253.36
202.41	1308.65
202.63	1300.46
202.85	1300.46
203.07	1239.02
203.29	1247.21
203.51	1269.74
203.73	1271.79
203.95	1216.49
204.17	1288.17
204.39	1277.93
204.61	1232.88
204.83	1304.56
205.05	1220.59
205.27	1236.97
205.49	1261.55
205.71	1259.50
205.93	1257.45
206.15	1265.64
206.37	1312.75
206.59	1263.60
206.81	1306.60
207.03	1288.17
207.25	1292.27
207.47	1271.79
207.69	1218.54
207.91	1234.93
208.13	1273.84
208.34	1310.70
208.56	1265.64
208.78	1265.64
209.00	1284.08
209.22	1245.16
209.44	1234.93
209.66	1196.01
209.88	1302.51
210.10	1257.45
210.32	1275.88
210.54	1347.56
210.76	1325.04
210.98	1312.75
211.20	1259.50
211.42	1339.37
211.64	1296.36
211.86	1290.22
212.08	1230.83
212.30	1253.36
212.52	1249.26
212.74	1292.27
212.96	1261.55
213.17	1210.35
213.39	1220.59
213.61	1279.98
213.83	1306.60
214.05	1165.29
214.27	1310.70
214.49	1298.41
214.71	1298.41
214.93	1255.40
215.15	1320.94
215.37	1306.60
215.59	1269.74
215.81	1294.32
216.03	1275.88
216.24	1222.64
216.46	1298.41
216.68	1253.36
216.90	1306.60
217.12	1239.02
217.34	1193.97
217.56	1265.64
217.78	1302.51
218.00	1249.26
218.22	1216.49
218.44	1236.97
218.66	1275.88
218.87	1304.56
219.09	1224.69
219.31	1253.36
219.53	1300.46
219.75	1339.37
219.97	1251.31
220.19	1257.45
220.41	1196.01
220.63	1275.88
220.85	1257.45
221.06	1296.36
221.28	1185.77
221.50	1236.97
221.72	1296.36
221.94	1259.50
222.16	1298.41
222.38	1316.84
222.60	1300.46
222.82	1294.32
223.03	1312.75
223.25	1288.17
223.47	1271.79
223.69	1253.36
223.91	1241.07
224.13	1241.07
224.35	1331.18
224.57	1304.56
224.78	1200.11
225.00	1279.98
225.22	1284.08
225.44	1282.03
225.66	1277.93
225.88	1277.93
226.10	1279.98
226.32	1279.98
226.53	1347.56
226.75	1273.84
226.97	1265.64
227.19	1273.84
227.41	1208.30
227.63	1232.88
227.85	1273.84
228.06	1226.73
228.28	1314.80
228.50	1249.26
228.72	1253.36
228.94	1325.04
229.16	1269.74
229.37	1255.40
229.59	1286.12
229.81	1304.56
230.03	1273.84
230.25	1249.26
230.47	1261.55
230.69	1251.31
230.90	1290.22
231.12	1277.93
231.34	1267.69
231.56	1339.37
231.78	1282.03
232.00	1282.03
232.21	1261.55
232.43	1273.84
232.65	1363.95
232.87	1249.26
233.09	1245.16
233.30	1333.23
233.52	1333.23
233.74	1279.98
233.96	1288.17
234.18	1210.35
234.40	1271.79
234.61	1220.59
234.83	1245.16
235.05	1206.25
235.27	1271.79
235.49	1271.79
235.70	1308.65
235.92	1265.64
236.14	1265.64
236.36	1284.08
236.58	1312.75
236.79	1255.40
237.01	1257.45
237.23	1222.64
237.45	1302.51
237.67	1312.75
237.88	1255.40
238.10	1218.54
238.32	1189.87
238.54	1273.84
238.76	1277.93
238.97	1290.22
239.19	1249.26
239.41	1265.64
239.63	1220.59
239.85	1316.84
240.06	1282.03
240.28	1216.49
240.50	1327.08
240.72	1218.54
240.93	1304.56
241.15	1255.40
241.37	1214.45
241.59	1271.79
241.81	1234.93
242.02	1288.17
242.24	1193.97
242.46	1232.88
242.68	1294.32
242.89	1288.17
243.11	1296.36
243.33	1249.26
243.55	1314.80
243.76	1308.65
243.98	1261.55
244.20	1290.22
244.42	1273.84
244.64	1290.22
244.85	1329.13
245.07	1220.59
245.29	1257.45
245.51	1335.28
245.72	1322.99
245.94	1279.98
246.16	1263.60
246.38	1261.55
246.59	1245.16
246.81	1284.08
247.03	1253.36
247.24	1284.08
247.46	1247.21
247.68	1187.82
247.90	1288.17
248.11	1245.16
248.33	1271.79
248.55	1282.03
248.77	1267.69
248.98	1273.84
249.20	1277.93
249.42	1245.16
249.64	1282.03
249.85	1208.30
250.07	1245.16
250.29	1255.40
250.50	1249.26
250.72	1327.08
250.94	1273.84
251.16	1251.31
251.37	1302.51
251.59	1277.93
251.81	1265.64
252.02	1300.46
252.24	1208.30
252.46	1255.40
252.68	1232.88
252.89	1306.60
253.11	1239.02
253.33	1263.60
253.54	1329.13
253.76	1243.12
253.98	1259.50
254.20	1167.34
254.41	1222.64
254.63	1296.36
254.85	1200.11
255.06	1232.88
255.28	1329.13
255.50	1208.30
255.71	1294.32
255.93	1294.32
256.15	1259.50
256.36	1277.93
256.58	1253.36
256.80	1310.70
257.02	1191.92
257.23	1288.17
257.45	1351.66
257.67	1308.65
257.88	1255.40
258.10	1275.88
258.32	1279.98
258.53	1394.67
258.75	1222.64
258.97	1267.69
259.18	1341.42
259.40	1245.16
259.62	1251.31
259.83	1212.40
260.05	1247.21
260.27	1267.69
260.48	1286.12
260.70	1236.97
260.92	1216.49
261.13	1265.64
261.35	1277.93
261.57	1333.23
261.78	1193.97
262.00	1230.83
262.22	1230.83
262.43	1275.88
262.65	1308.65
262.86	1208.30
263.08	1183.73
263.30	1196.01
263.51	1177.58
263.73	1279.98
263.95	1241.07
264.16	1302.51
264.38	1249.26
264.60	1318.89
264.81	1304.56
265.03	1251.31
265.25	1296.36
265.46	1269.74
265.68	1327.08
265.89	1286.12
266.11	1177.58
266.33	1230.83
266.54	1341.42
266.76	1277.93
266.98	1271.79
267.19	1216.49
267.41	1273.84
267.62	1255.40
267.84	1263.60
268.06	1286.12
268.27	1277.93
268.49	1316.84
268.70	1271.79
268.92	1302.51
269.14	1290.22
269.35	1290.22
269.57	1208.30
269.79	1271.79
270.00	1230.83
270.22	1275.88
270.43	1263.60
270.65	1247.21
270.87	1314.80
271.08	1261.55
271.30	1251.31
271.51	1325.04
271.73	1298.41
271.95	1261.55
272.16	1273.84
272.38	1347.56
272.59	1267.69
272.81	1269.74
273.02	1226.73
273.24	1253.36
273.46	1224.69
273.67	1239.02
273.89	1251.31
274.10	1279.98
274.32	1200.11
274.54	1261.55
274.75	1200.11
274.97	1263.60
275.18	1243.12
275.40	1243.12
275.61	1275.88
275.83	1343.47
276.05	1314.80
276.26	1320.94
276.48	1239.02
276.69	1232.88
276.91	1318.89
277.12	1269.74
277.34	1249.26
277.55	1259.50
277.77	1239.02
277.99	1245.16
278.20	1255.40
278.42	1298.41
278.63	1298.41
278.85	1255.40
279.06	1267.69
279.28	1310.70
279.49	1216.49
279.71	1232.88
279.93	1300.46
280.14	1357.80
280.36	1314.80
280.57	1279.98
280.79	1300.46
281.00	1251.31
281.22	1279.98
281.43	1230.83
281.65	1234.93
281.86	1286.12
282.08	1273.84
282.29	1314.80
282.51	1251.31
282.73	1298.41
282.94	1265.64
283.16	1241.07
283.37	1310.70
283.59	1277.93
283.80	1300.46
284.02	1200.11
284.23	1263.60
284.45	1245.16
284.66	1284.08
284.88	1292.27
285.09	1351.66
285.31	1243.12
285.52	1273.84
285.74	1214.45
285.95	1282.03
286.17	1255.40
286.38	1322.99
286.60	1271.79
286.81	1273.84
287.03	1247.21
287.24	1265.64
287.46	1245.16
287.67	1251.31
287.89	1253.36
288.10	1249.26
288.32	1265.64
288.53	1288.17
288.75	1189.87
288.96	1292.27
289.18	1222.64
289.39	1318.89
289.61	1236.97
289.82	1243.12
290.04	1339.37
290.25	1292.27
290.47	1253.36
290.68	1257.45
290.90	1271.79
291.11	1214.45
291.33	1314.80
291.54	1267.69
291.76	1255.40
291.97	1273.84
292.18	1282.03
292.40	1296.36
292.61	1308.65
292.83	1245.16
293.04	1292.27
293.26	1245.16
293.47	1292.27
293.69	1232.88
293.90	1312.75
294.12	1284.08
294.33	1331.18
294.55	1304.56
294.76	1265.64
294.97	1234.93
295.19	1265.64
295.40	1243.12
295.62	1269.74
295.83	1198.06
296.05	1249.26
296.26	1257.45
296.48	1279.98
296.69	1228.78
296.90	1284.08
297.12	1335.28
297.33	1263.60
297.55	1253.36
297.76	1206.25
297.98	1204.21
298.19	1306.60
298.41	1286.12
298.62	1275.88
298.83	1255.40
299.05	1320.94
299.26	1204.21
299.48	1249.26
299.69	1282.03
299.90	1257.45
300.12	1279.98
300.33	1257.45
300.55	1300.46
300.76	1296.36
300.98	1327.08
301.19	1239.02
301.40	1304.56
301.62	1204.21
301.83	1189.87
302.05	1187.82
302.26	1234.93
302.47	1226.73
302.69	1312.75
302.90	1259.50
303.12	1368.04
303.33	1234.93
303.54	1226.73
303.76	1325.04
303.97	1316.84
304.19	1288.17
304.40	1241.07
304.61	1290.22
304.83	1277.93
305.04	1249.26
305.26	1282.03
305.47	1236.97
305.68	1298.41
305.90	1312.75
306.11	1302.51
306.33	1310.70
306.54	1304.56
306.75	1353.71
306.97	1247.21
307.18	1198.06
307.39	1247.21
307.61	1216.49
307.82	1308.65
308.04	1296.36
308.25	1230.83
308.46	1271.79
308.68	1263.60
308.89	1318.89
309.10	1284.08
309.32	1286.12
309.53	1249.26
309.74	1363.95
309.96	1288.17
310.17	1271.79
310.39	1214.45
310.60	1279.98
310.81	1359.85
311.03	1241.07
311.24	1267.69
311.45	1261.55
311.67	1294.32
311.88	1327.08
312.09	1249.26
312.31	1224.69
312.52	1277.93
312.73	1239.02
312.95	1322.99
313.16	1200.11
313.37	1243.12
313.59	1302.51
313.80	1226.73
314.01	1279.98
314.23	1253.36
314.44	1269.74
314.65	1288.17
314.87	1277.93
315.08	1298.41
315.29	1241.07
315.51	1259.50
315.72	1245.16
315.93	1302.51
316.15	1271.79
316.36	1206.25
316.57	1247.21
316.79	1257.45
317.00	1253.36
317.21	1286.12
317.43	1255.40
317.64	1224.69
317.85	1316.84
318.07	1243.12
318.28	1236.97
318.49	1263.60
318.70	1249.26
318.92	1347.56
319.13	1261.55
319.34	1204.21
319.56	1253.36
319.77	1191.92
319.98	1296.36
320.20	1263.60
320.41	1282.03
320.62	1161.20
320.83	1277.93
321.05	1228.78
321.26	1232.88
321.47	1298.41
321.69	1245.16
321.90	1290.22
322.11	1300.46
322.32	1316.84
322.54	1302.51
322.75	1302.51
322.96	1249.26
323.18	1298.41
323.39	1249.26
323.60	1247.21
323.81	1173.49
324.03	1277.93
324.24	1210.35
324.45	1306.60
324.66	1345.52
324.88	1253.36
325.09	1255.40
325.30	1279.98
325.52	1224.69
325.73	1314.80
325.94	1273.84
326.15	1320.94
326.37	1271.79
326.58	1220.59
326.79	1236.97
327.00	1263.60
327.22	1255.40
327.43	1261.55
327.64	1271.79
327.85	1239.02
328.07	1298.41
328.28	1275.88
328.49	1247.21
328.70	1273.84
328.92	1288.17
329.13	1329.13
329.34	1245.16
329.55	1247.21
329.76	1298.41
329.98	1249.26
330.19	1263.60
330.40	1230.83
330.61	1247.21
330.83	1292.27
331.04	1282.03
331.25	1224.69
331.46	1284.08
331.68	1251.31
331.89	1249.26
332.10	1206.25
332.31	1325.04
332.52	1339.37
332.74	1267.69
332.95	1255.40
333.16	1232.88
333.37	1277.93
333.58	1193.97
333.80	1290.22
334.01	1232.88
334.22	1292.27
334.43	1239.02
334.64	1228.78
334.86	1259.50
335.07	1245.16
335.28	1322.99
335.49	1259.50
335.70	1290.22
335.92	1314.80
336.13	1206.25
336.34	1245.16
336.55	1236.97
336.76	1257.45
336.98	1239.02
337.19	1320.94
337.40	1345.52
337.61	1284.08
337.82	1279.98
338.04	1267.69
338.25	1286.12
338.46	1277.93
338.67	1306.60
338.88	1214.45
339.09	1259.50
339.31	1255.40
339.52	1161.20
339.73	1282.03
339.94	1310.70
340.15	1339.37
340.36	1318.89
340.58	1226.73
340.79	1224.69
341.00	1255.40
341.21	1347.56
341.42	1302.51
341.63	1222.64
341.85	1322.99
342.06	1247.21
342.27	1279.98
342.48	1216.49
342.69	1304.56
342.90	1269.74
343.12	1253.36
343.33	1306.60
343.54	1273.84
343.75	1339.37
343.96	1298.41
344.17	1359.85
344.38	1269.74
344.60	1286.12
344.81	1286.12
345.02	1249.26
345.23	1236.97
345.44	1284.08
345.65	1249.26
345.86	1216.49
346.07	1245.16
346.29	1232.88
346.50	1247.21
346.71	1265.64
346.92	1210.35
347.13	1298.41
347.34	1234.93
347.55	1232.88
347.76	1271.79
347.98	1310.70
348.19	1265.64
348.40	1234.93
348.61	1273.84
348.82	1269.74
349.03	1216.49
349.24	1255.40
349.45	1224.69
349.66	1277.93
349.88	1255.40
350.09	1265.64
350.30	1263.60
350.51	1277.93
350.72	1265.64
350.93	1312.75
351.14	1269.74
351.35	1241.07
351.56	1282.03
351.77	1241.07
351.99	1288.17
352.20	1224.69
352.41	1241.07
352.62	1193.97
352.83	1300.46
353.04	1269.74
353.25	1312.75
353.46	1347.56
353.67	1243.12
353.88	1216.49
354.09	1290.22
354.30	1263.60
354.52	1292.27
354.73	1265.64
354.94	1228.78
355.15	1279.98
355.36	1284.08
355.57	1224.69
355.78	1243.12
355.99	1282.03
356.20	1169.39
356.41	1247.21
356.62	1290.22
356.83	1279.98
357.04	1226.73
357.25	1216.49
357.46	1316.84
357.68	1249.26
357.89	1286.12
358.10	1294.32
358.31	1239.02
358.52	1257.45
358.73	1222.64
358.94	1296.36
359.15	1226.73
359.36	1245.16
359.57	1243.12
359.78	1230.83
359.99	1261.55
360.20	1259.50
360.41	1214.45
360.62	1247.21
360.83	1261.55
361.04	1216.49
361.25	1269.74
361.46	1267.69
361.67	1257.45
361.88	1339.37
362.09	1236.97
362.30	1396.71
362.51	1261.55
362.72	1273.84
362.93	1349.61
363.14	1277.93
363.35	1267.69
363.56	1269.74
363.78	1300.46
363.99	1288.17
364.20	1267.69
364.41	1298.41
364.62	1331.18
364.83	1259.50
365.04	1279.98
365.25	1298.41
365.46	1269.74
365.67	1257.45
365.88	1290.22
366.09	1220.59
366.30	1312.75
366.51	1222.64
366.72	1253.36
366.93	1322.99
367.14	1224.69
367.35	1290.22
367.56	1216.49
367.77	1224.69
367.98	1210.35
368.18	1220.59
368.39	1247.21
368.60	1308.65
368.81	1247.21
369.02	1245.16
369.23	1247.21
369.44	1257.45
369.65	1259.50
369.86	1236.97
370.07	1232.88
370.28	1224.69
370.49	1243.12
370.70	1320.94
370.91	1296.36
371.12	1308.65
371.33	1318.89
371.54	1312.75
371.75	1177.58
371.96	1251.31
372.17	1224.69
372.38	1230.83
372.59	1269.74
372.80	1218.54
373.01	1263.60
373.22	1298.41
373.43	1236.97
373.64	1269.74
373.85	1294.32
374.06	1302.51
374.26	1265.64
374.47	1310.70
374.68	1206.25
374.89	1269.74
375.10	1255.40
375.31	1294.32
375.52	1200.11
375.73	1322.99
375.94	1257.45
376.15	1320.94
376.36	1273.84
376.57	1234.93
376.78	1224.69
376.99	1290.22
377.20	1273.84
377.40	1273.84
377.61	1261.55
377.82	1290.22
378.03	1310.70
378.24	1263.60
378.45	1210.35
378.66	1222.64
378.87	1206.25
379.08	1251.31
379.29	1282.03
379.50	1271.79
379.71	1214.45
379.91	1239.02
380.12	1232.88
380.33	1208.30
380.54	1267.69
380.75	1277.93
380.96	1177.58
381.17	1222.64
381.38	1214.45
381.59	1302.51
381.80	1222.64
382.00	1359.85
382.21	1265.64
382.42	1222.64
382.63	1253.36
382.84	1259.50
383.05	1200.11
383.26	1286.12
383.47	1277.93
383.68	1253.36
383.88	1302.51
384.09	1298.41
384.30	1232.88
384.51	1359.85
384.72	1216.49
384.93	1304.56
385.14	1173.49
385.35	1325.04
385.55	1196.01
385.76	1282.03
385.97	1245.16
386.18	1286.12
386.39	1249.26
386.60	1302.51
386.81	1304.56
387.02	1210.35
387.22	1249.26
387.43	1304.56
387.64	1232.88
387.85	1247.21
388.06	1257.45
388.27	1245.16
388.48	1251.31
388.68	1255.40
388.89	1249.26
389.10	1263.60
389.31	1290.22
389.52	1265.64
389.73	1236.97
389.93	1290.22
390.14	1255.40
390.35	1226.73
390.56	1275.88
390.77	1253.36
390.98	1325.04
391.18	1304.56
391.39	1279.98
391.60	1290.22
391.81	1331.18
392.02	1257.45
392.23	1232.88
392.43	1298.41
392.64	1277.93
392.85	1279.98
393.06	1247.21
393.27	1263.60
393.47	1261.55
393.68	1261.55
393.89	1214.45
394.10	1329.13
394.31	1230.83
394.52	1282.03
394.72	1210.35
394.93	1247.21
395.14	1269.74
395.35	1210.35
395.56	1218.54
395.76	1335.28
395.97	1220.59
396.18	1265.64
396.39	1273.84
396.60	1243.12
396.80	1218.54
397.01	1265.64
397.22	1316.84
397.43	1251.31
397.64	1247.21
397.84	1277.93
398.05	1316.84
398.26	1257.45
398.47	1275.88
398.67	1228.78
398.88	1275.88
399.09	1290.22
399.30	1275.88
399.51	1296.36
399.71	1306.60
399.92	1232.88
400.13	1218.54
400.34	1322.99
400.54	1320.94
400.75	1314.80
400.96	1306.60
401.17	1249.26
401.37	1265.64
401.58	1224.69
401.79	1318.89
402.00	1296.36
402.21	1234.93
402.41	1230.83
402.62	1300.46
402.83	1265.64
403.04	1267.69
403.24	1241.07
403.45	1245.16
403.66	1284.08
403.87	1241.07
404.07	1273.84
404.28	1253.36
404.49	1325.04
404.70	1241.07
404.90	1130.48
405.11	1349.61
405.32	1282.03
405.52	1275.88
405.73	1257.45
405.94	1355.76
406.15	1275.88
406.35	1232.88
406.56	1298.41
406.77	1275.88
406.98	1298.41
407.18	1222.64
407.39	1292.27
407.60	1263.60
407.80	1265.64
408.01	1277.93
408.22	1284.08
408.43	1298.41
408.63	1275.88
408.84	1251.31
409.05	1304.56
409.25	1255.40
409.46	1288.17
409.67	1245.16
409.88	1232.88
410.08	1228.78
410.29	1216.49
410.50	1322.99
410.70	1259.50
410.91	1296.36
411.12	1294.32
411.32	1265.64
411.53	1267.69
411.74	1279.98
411.95	1288.17
412.15	1216.49
412.36	1298.41
412.57	1282.03
412.77	1269.74
412.98	1273.84
413.19	1277.93
413.39	1259.50
413.60	1277.93
413.81	1175.53
414.01	1220.59
414.22	1271.79
414.43	1196.01
414.63	1212.40
414.84	1232.88
415.05	1251.31
415.25	1267.69
415.46	1228.78
415.67	1206.25
415.87	1216.49
416.08	1273.84
416.29	1247.21
416.49	1257.45
416.70	1255.40
416.91	1308.65
417.11	1265.64
417.32	1341.42
417.53	1239.02
417.73	1282.03
417.94	1312.75
418.15	1245.16
418.35	1218.54
418.56	1251.31
418.77	1298.41
418.97	1314.80
419.18	1257.45
419.38	1263.60
419.59	1318.89
419.80	1322.99
420.00	1298.41
420.21	1208.30
420.42	1185.77
420.62	1261.55
420.83	1271.79
421.04	1247.21
421.24	1261.55
421.45	1259.50
421.65	1267.69
421.86	1206.25
422.07	1296.36
422.27	1275.88
422.48	1226.73
422.69	1292.27
422.89	1259.50
423.10	1177.58
423.30	1249.26
423.51	1282.03
423.72	1300.46
423.92	1245.16
424.13	1316.84
424.33	1304.56
424.54	1253.36
424.75	1257.45
424.95	1273.84
425.16	1284.08
425.36	1273.84
425.57	1275.88
425.78	1322.99
425.98	1265.64
426.19	1243.12
426.39	1200.11
426.60	1259.50
426.81	1314.80
427.01	1290.22
427.22	1247.21
427.42	1271.79
427.63	1243.12
427.83	1210.35
428.04	1290.22
428.25	1261.55
428.45	1306.60
428.66	1325.04
428.86	1206.25
429.07	1216.49
429.28	1312.75
429.48	1247.21
429.69	1306.60
429.89	1196.01
430.10	1241.07
430.30	1277.93
430.51	1263.60
430.71	1226.73
430.92	1224.69
431.13	1294.32
431.33	1331.18
431.54	1296.36
431.74	1210.35
431.95	1290.22
432.15	1304.56
432.36	1312.75
432.56	1271.79
432.77	1257.45
432.98	1257.45
433.18	1210.35
433.39	1261.55
433.59	1218.54
433.80	1300.46
434.00	1261.55
434.21	1257.45
434.41	1292.27
434.62	1271.79
434.82	1263.60
435.03	1306.60
435.23	1222.64
435.44	1249.26
435.64	1277.93
435.85	1296.36
436.06	1232.88
436.26	1253.36
436.47	1179.63
436.67	1216.49
436.88	1249.26
437.08	1304.56
437.29	1286.12
437.49	1279.98
437.70	1218.54
437.90	1341.42
438.11	1261.55
438.31	1216.49
438.52	1208.30
438.72	1275.88
438.93	1257.45
439.13	1282.03
439.34	1306.60
439.54	1288.17
439.75	1210.35
439.95	1341.42
440.16	1259.50
440.36	1329.13
440.57	1249.26
440.77	1302.51
440.98	1263.60
441.18	1277.93
441.39	1294.32
441.59	1275.88
441.80	1265.64
442.00	1333.23
442.21	1304.56
442.41	1263.60
442.62	1263.60
442.82	1257.45
443.02	1224.69
443.23	1318.89
443.43	1282.03
443.64	1310.70
443.84	1337.32
444.05	1228.78
444.25	1189.87
444.46	1263.60
444.66	1249.26
444.87	1298.41
445.07	1363.95
445.28	1269.74
445.48	1247.21
445.69	1257.45
445.89	1363.95
446.09	1306.60
446.30	1316.84
446.50	1212.40
446.71	1247.21
446.91	1247.21
447.12	1273.84
447.32	1265.64
447.53	1331.18
447.73	1298.41
447.93	1279.98
448.14	1232.88
448.34	1249.26
448.55	1302.51
448.75	1243.12
448.96	1279.98
449.16	1259.50
449.36	1288.17
449.57	1304.56
449.77	1226.73
449.98	1302.51
450.18	1298.41
450.39	1292.27
450.59	1312.75
450.79	1318.89
451.00	1224.69
451.20	1226.73
451.41	1257.45
451.61	1343.47
451.81	1304.56
452.02	1290.22
452.22	1257.45
452.43	1273.84
452.63	1239.02
