SpectraSuite Data File
++++++++++++++++++++++++++++++++++++
Date: Sun Apr 03 19:55:50 CEST 2016
User: root
Dark Spectrum Present: No
Reference Spectrum Present: No
Number of Sampled Component Spectra: 1
Spectrometers: USB4C02835
Integration Time (usec): 10000 (USB4C02835)
Spectra Averaged: 1 (USB4C02835)
Boxcar Smoothing: 0 (USB4C02835)
Correct for Electrical Dark: No (USB4C02835)
Strobe/Lamp Enabled: No (USB4C02835)
Correct for Detector Non-linearity: No (USB4C02835)
Correct for Stray Light: No (USB4C02835)
Number of Pixels in Processed Spectrum: 3648
>>>>>Begin Processed Spectral Data<<<<<
177.47	1277.93
177.69	1277.93
177.91	1277.93
178.13	1318.89
178.36	1310.70
178.58	1302.51
178.80	1245.16
179.02	1273.84
179.24	1265.64
179.46	1279.98
179.68	1327.08
179.90	1312.75
180.13	1308.65
180.35	1251.31
180.57	1316.84
180.79	1294.32
181.01	1277.93
181.23	1345.52
181.45	1322.99
181.67	1236.97
181.90	1247.21
182.12	1239.02
182.34	1259.50
182.56	1243.12
182.78	1294.32
183.00	1261.55
183.22	1273.84
183.44	1253.36
183.66	1224.69
183.89	1251.31
184.11	1247.21
184.33	1224.69
184.55	1333.23
184.77	1290.22
184.99	1261.55
185.21	1234.93
185.43	1271.79
185.65	1232.88
185.87	1267.69
186.10	1304.56
186.32	1304.56
186.54	1277.93
186.76	1236.97
186.98	1320.94
187.20	1302.51
187.42	1271.79
187.64	1241.07
187.86	1267.69
188.08	1202.16
188.30	1228.78
188.52	1290.22
188.75	1298.41
188.97	1304.56
189.19	1228.78
189.41	1290.22
189.63	1269.74
189.85	1251.31
190.07	1314.80
190.29	1290.22
190.51	1255.40
190.73	1206.25
190.95	1255.40
191.17	1320.94
191.39	1230.83
191.61	1257.45
191.84	1302.51
192.06	1341.42
192.28	1181.68
192.50	1210.35
192.72	1241.07
192.94	1261.55
193.16	1226.73
193.38	1253.36
193.60	1286.12
193.82	1265.64
194.04	1255.40
194.26	1372.14
194.48	1210.35
194.70	1259.50
194.92	1249.26
195.14	1337.32
195.36	1273.84
195.58	1347.56
195.80	1273.84
196.02	1337.32
196.24	1263.60
196.46	1251.31
196.69	1312.75
196.91	1314.80
197.13	1232.88
197.35	1288.17
197.57	1224.69
197.79	1247.21
198.01	1306.60
198.23	1263.60
198.45	1245.16
198.67	1294.32
198.89	1255.40
199.11	1282.03
199.33	1300.46
199.55	1232.88
199.77	1271.79
199.99	1228.78
200.21	1275.88
200.43	1269.74
200.65	1230.83
200.87	1243.12
201.09	1306.60
201.31	1206.25
201.53	1275.88
201.75	1187.82
201.97	1257.45
202.19	1312.75
202.41	1267.69
202.63	1290.22
202.85	1226.73
203.07	1269.74
203.29	1228.78
203.51	1339.37
203.73	1343.47
203.95	1277.93
204.17	1310.70
204.39	1232.88
204.61	1269.74
204.83	1196.01
205.05	1253.36
205.27	1279.98
205.49	1312.75
205.71	1290.22
205.93	1208.30
206.15	1286.12
206.37	1236.97
206.59	1247.21
206.81	1296.36
207.03	1255.40
207.25	1239.02
207.47	1261.55
207.69	1304.56
207.91	1267.69
208.13	1320.94
208.34	1204.21
208.56	1200.11
208.78	1253.36
209.00	1234.93
209.22	1294.32
209.44	1214.45
209.66	1279.98
209.88	1204.21
210.10	1271.79
210.32	1290.22
210.54	1269.74
210.76	1273.84
210.98	1277.93
211.20	1292.27
211.42	1277.93
211.64	1282.03
211.86	1267.69
212.08	1322.99
212.30	1271.79
212.52	1277.93
212.74	1241.07
212.96	1304.56
213.17	1339.37
213.39	1316.84
213.61	1273.84
213.83	1327.08
214.05	1275.88
214.27	1314.80
214.49	1265.64
214.71	1230.83
214.93	1286.12
215.15	1243.12
215.37	1335.28
215.59	1327.08
215.81	1247.21
216.03	1265.64
216.24	1300.46
216.46	1222.64
216.68	1206.25
216.90	1220.59
217.12	1277.93
217.34	1236.97
217.56	1302.51
217.78	1234.93
218.00	1343.47
218.22	1343.47
218.44	1253.36
218.66	1343.47
218.87	1259.50
219.09	1253.36
219.31	1282.03
219.53	1249.26
219.75	1275.88
219.97	1310.70
220.19	1286.12
220.41	1327.08
220.63	1267.69
220.85	1257.45
221.06	1314.80
221.28	1249.26
221.50	1261.55
221.72	1308.65
221.94	1247.21
222.16	1275.88
222.38	1282.03
222.60	1271.79
222.82	1261.55
223.03	1230.83
223.25	1234.93
223.47	1210.35
223.69	1282.03
223.91	1273.84
224.13	1263.60
224.35	1288.17
224.57	1228.78
224.78	1243.12
225.00	1263.60
225.22	1243.12
225.44	1257.45
225.66	1212.40
225.88	1265.64
226.10	1302.51
226.32	1306.60
226.53	1290.22
226.75	1333.23
226.97	1204.21
227.19	1310.70
227.41	1275.88
227.63	1202.16
227.85	1325.04
228.06	1228.78
228.28	1265.64
228.50	1298.41
228.72	1259.50
228.94	1329.13
229.16	1288.17
229.37	1230.83
229.59	1259.50
229.81	1200.11
230.03	1269.74
230.25	1257.45
230.47	1249.26
230.69	1249.26
230.90	1228.78
231.12	1187.82
231.34	1298.41
231.56	1265.64
231.78	1214.45
232.00	1269.74
232.21	1298.41
232.43	1222.64
232.65	1267.69
232.87	1220.59
233.09	1275.88
233.30	1273.84
233.52	1196.01
233.74	1314.80
233.96	1382.38
234.18	1208.30
234.40	1290.22
234.61	1284.08
234.83	1241.07
235.05	1322.99
235.27	1232.88
235.49	1288.17
235.70	1292.27
235.92	1282.03
236.14	1236.97
236.36	1292.27
236.58	1308.65
236.79	1277.93
237.01	1259.50
237.23	1191.92
237.45	1286.12
237.67	1243.12
237.88	1296.36
238.10	1239.02
238.32	1288.17
238.54	1222.64
238.76	1265.64
238.97	1261.55
239.19	1331.18
239.41	1259.50
239.63	1222.64
239.85	1214.45
240.06	1296.36
240.28	1302.51
240.50	1218.54
240.72	1255.40
240.93	1243.12
241.15	1288.17
241.37	1253.36
241.59	1208.30
241.81	1269.74
242.02	1257.45
242.24	1294.32
242.46	1206.25
242.68	1245.16
242.89	1234.93
243.11	1253.36
243.33	1247.21
243.55	1230.83
243.76	1245.16
243.98	1247.21
244.20	1277.93
244.42	1288.17
244.64	1279.98
244.85	1288.17
245.07	1206.25
245.29	1275.88
245.51	1208.30
245.72	1224.69
245.94	1320.94
246.16	1181.68
246.38	1368.04
246.59	1271.79
246.81	1255.40
247.03	1279.98
247.24	1263.60
247.46	1206.25
247.68	1236.97
247.90	1284.08
248.11	1271.79
248.33	1239.02
248.55	1273.84
248.77	1275.88
248.98	1239.02
249.20	1273.84
249.42	1304.56
249.64	1259.50
249.85	1288.17
250.07	1288.17
250.29	1284.08
250.50	1302.51
250.72	1349.61
250.94	1300.46
251.16	1249.26
251.37	1308.65
251.59	1271.79
251.81	1249.26
252.02	1257.45
252.24	1232.88
252.46	1271.79
252.68	1279.98
252.89	1359.85
253.11	1271.79
253.33	1288.17
253.54	1306.60
253.76	1322.99
253.98	1357.80
254.20	1325.04
254.41	1263.60
254.63	1290.22
254.85	1290.22
255.06	1277.93
255.28	1234.93
255.50	1279.98
255.71	1222.64
255.93	1279.98
256.15	1232.88
256.36	1214.45
256.58	1206.25
256.80	1265.64
257.02	1298.41
257.23	1378.28
257.45	1271.79
257.67	1259.50
257.88	1263.60
258.10	1273.84
258.32	1251.31
258.53	1259.50
258.75	1310.70
258.97	1181.68
259.18	1232.88
259.40	1288.17
259.62	1228.78
259.83	1261.55
260.05	1224.69
260.27	1245.16
260.48	1296.36
260.70	1253.36
260.92	1331.18
261.13	1286.12
261.35	1302.51
261.57	1269.74
261.78	1183.73
262.00	1224.69
262.22	1191.92
262.43	1302.51
262.65	1275.88
262.86	1228.78
263.08	1234.93
263.30	1294.32
263.51	1304.56
263.73	1298.41
263.95	1290.22
264.16	1224.69
264.38	1314.80
264.60	1306.60
264.81	1263.60
265.03	1255.40
265.25	1296.36
265.46	1185.77
265.68	1302.51
265.89	1345.52
266.11	1267.69
266.33	1236.97
266.54	1294.32
266.76	1282.03
266.98	1236.97
267.19	1306.60
267.41	1314.80
267.62	1314.80
267.84	1224.69
268.06	1308.65
268.27	1265.64
268.49	1308.65
268.70	1249.26
268.92	1261.55
269.14	1214.45
269.35	1259.50
269.57	1316.84
269.79	1263.60
270.00	1218.54
270.22	1349.61
270.43	1226.73
270.65	1230.83
270.87	1259.50
271.08	1298.41
271.30	1243.12
271.51	1249.26
271.73	1271.79
271.95	1216.49
272.16	1222.64
272.38	1243.12
272.59	1284.08
272.81	1273.84
273.02	1255.40
273.24	1339.37
273.46	1322.99
273.67	1236.97
273.89	1261.55
274.10	1269.74
274.32	1275.88
274.54	1220.59
274.75	1257.45
274.97	1279.98
275.18	1298.41
275.40	1318.89
275.61	1179.63
275.83	1331.18
276.05	1257.45
276.26	1314.80
276.48	1222.64
276.69	1234.93
276.91	1271.79
277.12	1294.32
277.34	1282.03
277.55	1222.64
277.77	1308.65
277.99	1232.88
278.20	1263.60
278.42	1286.12
278.63	1279.98
278.85	1402.86
279.06	1273.84
279.28	1298.41
279.49	1187.82
279.71	1279.98
279.93	1216.49
280.14	1206.25
280.36	1302.51
280.57	1247.21
280.79	1218.54
281.00	1329.13
281.22	1230.83
281.43	1286.12
281.65	1224.69
281.86	1327.08
282.08	1347.56
282.29	1214.45
282.51	1335.28
282.73	1232.88
282.94	1269.74
283.16	1288.17
283.37	1353.71
283.59	1279.98
283.80	1236.97
284.02	1222.64
284.23	1310.70
284.45	1306.60
284.66	1304.56
284.88	1249.26
285.09	1265.64
285.31	1316.84
285.52	1239.02
285.74	1200.11
285.95	1173.49
286.17	1255.40
286.38	1310.70
286.60	1286.12
286.81	1210.35
287.03	1284.08
287.24	1288.17
287.46	1263.60
287.67	1292.27
287.89	1275.88
288.10	1257.45
288.32	1271.79
288.53	1265.64
288.75	1288.17
288.96	1279.98
289.18	1284.08
289.39	1298.41
289.61	1327.08
289.82	1339.37
290.04	1208.30
290.25	1249.26
290.47	1265.64
290.68	1173.49
290.90	1251.31
291.11	1243.12
291.33	1306.60
291.54	1191.92
291.76	1187.82
291.97	1173.49
292.18	1294.32
292.40	1304.56
292.61	1327.08
292.83	1353.71
293.04	1234.93
293.26	1370.09
293.47	1249.26
293.69	1318.89
293.90	1243.12
294.12	1224.69
294.33	1222.64
294.55	1222.64
294.76	1314.80
294.97	1251.31
295.19	1294.32
295.40	1239.02
295.62	1214.45
295.83	1273.84
296.05	1263.60
296.26	1177.58
296.48	1298.41
296.69	1288.17
296.90	1253.36
297.12	1198.06
297.33	1269.74
297.55	1290.22
297.76	1243.12
297.98	1249.26
298.19	1298.41
298.41	1236.97
298.62	1310.70
298.83	1251.31
299.05	1296.36
299.26	1247.21
299.48	1279.98
299.69	1189.87
299.90	1359.85
300.12	1335.28
300.33	1202.16
300.55	1284.08
300.76	1306.60
300.98	1325.04
301.19	1271.79
301.40	1216.49
301.62	1265.64
301.83	1239.02
302.05	1322.99
302.26	1230.83
302.47	1282.03
302.69	1228.78
302.90	1261.55
303.12	1304.56
303.33	1261.55
303.54	1210.35
303.76	1288.17
303.97	1251.31
304.19	1241.07
304.40	1251.31
304.61	1257.45
304.83	1269.74
305.04	1277.93
305.26	1335.28
305.47	1296.36
305.68	1243.12
305.90	1271.79
306.11	1208.30
306.33	1265.64
306.54	1230.83
306.75	1282.03
306.97	1230.83
307.18	1322.99
307.39	1245.16
307.61	1282.03
307.82	1253.36
308.04	1329.13
308.25	1253.36
308.46	1275.88
308.68	1290.22
308.89	1253.36
309.10	1294.32
309.32	1310.70
309.53	1239.02
309.74	1286.12
309.96	1245.16
310.17	1257.45
310.39	1296.36
310.60	1351.66
310.81	1290.22
311.03	1251.31
311.24	1265.64
311.45	1288.17
311.67	1255.40
311.88	1222.64
312.09	1263.60
312.31	1255.40
312.52	1267.69
312.73	1236.97
312.95	1304.56
313.16	1355.76
313.37	1275.88
313.59	1284.08
313.80	1249.26
314.01	1302.51
314.23	1335.28
314.44	1282.03
314.65	1300.46
314.87	1247.21
315.08	1325.04
315.29	1304.56
315.51	1337.32
315.72	1245.16
315.93	1253.36
316.15	1245.16
316.36	1275.88
316.57	1241.07
316.79	1232.88
317.00	1261.55
317.21	1245.16
317.43	1265.64
317.64	1243.12
317.85	1251.31
318.07	1259.50
318.28	1298.41
318.49	1286.12
318.70	1241.07
318.92	1226.73
319.13	1327.08
319.34	1265.64
319.56	1255.40
319.77	1228.78
319.98	1249.26
320.20	1257.45
320.41	1228.78
320.62	1279.98
320.83	1275.88
321.05	1271.79
321.26	1214.45
321.47	1294.32
321.69	1253.36
321.90	1263.60
322.11	1325.04
322.32	1243.12
322.54	1210.35
322.75	1277.93
322.96	1322.99
323.18	1269.74
323.39	1306.60
323.60	1282.03
323.81	1292.27
324.03	1310.70
324.24	1282.03
324.45	1298.41
324.66	1273.84
324.88	1220.59
325.09	1222.64
325.30	1265.64
325.52	1304.56
325.73	1259.50
325.94	1255.40
326.15	1230.83
326.37	1282.03
326.58	1314.80
326.79	1316.84
327.00	1236.97
327.22	1271.79
327.43	1239.02
327.64	1310.70
327.85	1177.58
328.07	1241.07
328.28	1294.32
328.49	1341.42
328.70	1257.45
328.92	1329.13
329.13	1269.74
329.34	1296.36
329.55	1210.35
329.76	1286.12
329.98	1288.17
330.19	1318.89
330.40	1275.88
330.61	1288.17
330.83	1236.97
331.04	1275.88
331.25	1322.99
331.46	1247.21
331.68	1314.80
331.89	1308.65
332.10	1241.07
332.31	1312.75
332.52	1228.78
332.74	1296.36
332.95	1302.51
333.16	1243.12
333.37	1318.89
333.58	1269.74
333.80	1273.84
334.01	1279.98
334.22	1263.60
334.43	1312.75
334.64	1351.66
334.86	1277.93
335.07	1310.70
335.28	1271.79
335.49	1253.36
335.70	1232.88
335.92	1206.25
336.13	1316.84
336.34	1257.45
336.55	1200.11
336.76	1224.69
336.98	1312.75
337.19	1253.36
337.40	1366.00
337.61	1257.45
337.82	1185.77
338.04	1224.69
338.25	1273.84
338.46	1308.65
338.67	1263.60
338.88	1333.23
339.09	1214.45
339.31	1267.69
339.52	1273.84
339.73	1325.04
339.94	1296.36
340.15	1247.21
340.36	1232.88
340.58	1224.69
340.79	1249.26
341.00	1239.02
341.21	1245.16
341.42	1234.93
341.63	1243.12
341.85	1271.79
342.06	1257.45
342.27	1255.40
342.48	1374.19
342.69	1210.35
342.90	1279.98
343.12	1241.07
343.33	1282.03
343.54	1243.12
343.75	1255.40
343.96	1322.99
344.17	1234.93
344.38	1214.45
344.60	1241.07
344.81	1251.31
345.02	1251.31
345.23	1255.40
345.44	1282.03
345.65	1282.03
345.86	1310.70
346.07	1255.40
346.29	1290.22
346.50	1288.17
346.71	1263.60
346.92	1312.75
347.13	1245.16
347.34	1296.36
347.55	1329.13
347.76	1290.22
347.98	1286.12
348.19	1284.08
348.40	1277.93
348.61	1282.03
348.82	1275.88
349.03	1255.40
349.24	1249.26
349.45	1292.27
349.66	1245.16
349.88	1253.36
350.09	1220.59
350.30	1261.55
350.51	1267.69
350.72	1292.27
350.93	1183.73
351.14	1214.45
351.35	1241.07
351.56	1294.32
351.77	1282.03
351.99	1296.36
352.20	1232.88
352.41	1226.73
352.62	1368.04
352.83	1259.50
353.04	1245.16
353.25	1286.12
353.46	1279.98
353.67	1206.25
353.88	1249.26
354.09	1220.59
354.30	1292.27
354.52	1282.03
354.73	1236.97
354.94	1331.18
355.15	1329.13
355.36	1251.31
355.57	1261.55
355.78	1275.88
355.99	1251.31
356.20	1288.17
356.41	1277.93
356.62	1222.64
356.83	1239.02
357.04	1290.22
357.25	1257.45
357.46	1232.88
357.68	1275.88
357.89	1241.07
358.10	1306.60
358.31	1296.36
358.52	1230.83
358.73	1279.98
358.94	1249.26
359.15	1271.79
359.36	1288.17
359.57	1177.58
359.78	1296.36
359.99	1234.93
360.20	1292.27
360.41	1282.03
360.62	1261.55
360.83	1325.04
361.04	1288.17
361.25	1224.69
361.46	1290.22
361.67	1290.22
361.88	1277.93
362.09	1261.55
362.30	1212.40
362.51	1306.60
362.72	1255.40
362.93	1183.73
363.14	1261.55
363.35	1300.46
363.56	1361.90
363.78	1304.56
363.99	1216.49
364.20	1245.16
364.41	1329.13
364.62	1341.42
364.83	1232.88
365.04	1286.12
365.25	1271.79
365.46	1239.02
365.67	1265.64
365.88	1277.93
366.09	1282.03
366.30	1202.16
366.51	1366.00
366.72	1327.08
366.93	1269.74
367.14	1259.50
367.35	1249.26
367.56	1273.84
367.77	1290.22
367.98	1208.30
368.18	1271.79
368.39	1267.69
368.60	1236.97
368.81	1224.69
369.02	1247.21
369.23	1331.18
369.44	1320.94
369.65	1224.69
369.86	1263.60
370.07	1247.21
370.28	1224.69
370.49	1230.83
370.70	1320.94
370.91	1267.69
371.12	1261.55
371.33	1218.54
371.54	1310.70
371.75	1269.74
371.96	1214.45
372.17	1265.64
372.38	1314.80
372.59	1249.26
372.80	1251.31
373.01	1322.99
373.22	1306.60
373.43	1302.51
373.64	1208.30
373.85	1318.89
374.06	1298.41
374.26	1232.88
374.47	1282.03
374.68	1279.98
374.89	1306.60
375.10	1202.16
375.31	1247.21
375.52	1222.64
375.73	1263.60
375.94	1208.30
376.15	1273.84
376.36	1220.59
376.57	1286.12
376.78	1284.08
376.99	1208.30
377.20	1263.60
377.40	1292.27
377.61	1269.74
377.82	1353.71
378.03	1282.03
378.24	1288.17
378.45	1236.97
378.66	1288.17
378.87	1239.02
379.08	1296.36
379.29	1284.08
379.50	1302.51
379.71	1322.99
379.91	1277.93
380.12	1292.27
380.33	1337.32
380.54	1218.54
380.75	1226.73
380.96	1245.16
381.17	1282.03
381.38	1290.22
381.59	1277.93
381.80	1265.64
382.00	1236.97
382.21	1202.16
382.42	1277.93
382.63	1189.87
382.84	1361.90
383.05	1165.29
383.26	1277.93
383.47	1228.78
383.68	1269.74
383.88	1269.74
384.09	1271.79
384.30	1314.80
384.51	1273.84
384.72	1236.97
384.93	1263.60
385.14	1234.93
385.35	1245.16
385.55	1306.60
385.76	1308.65
385.97	1271.79
386.18	1288.17
386.39	1341.42
386.60	1279.98
386.81	1214.45
387.02	1183.73
387.22	1327.08
387.43	1282.03
387.64	1333.23
387.85	1286.12
388.06	1261.55
388.27	1212.40
388.48	1304.56
388.68	1232.88
388.89	1290.22
389.10	1232.88
389.31	1263.60
389.52	1247.21
389.73	1286.12
389.93	1247.21
390.14	1339.37
390.35	1269.74
390.56	1275.88
390.77	1263.60
390.98	1210.35
391.18	1296.36
391.39	1265.64
391.60	1253.36
391.81	1263.60
392.02	1241.07
392.23	1222.64
392.43	1239.02
392.64	1271.79
392.85	1236.97
393.06	1282.03
393.27	1249.26
393.47	1290.22
393.68	1337.32
393.89	1189.87
394.10	1273.84
394.31	1239.02
394.52	1279.98
394.72	1220.59
394.93	1206.25
395.14	1312.75
395.35	1290.22
395.56	1288.17
395.76	1290.22
395.97	1208.30
396.18	1337.32
396.39	1228.78
396.60	1312.75
396.80	1200.11
397.01	1353.71
397.22	1345.52
397.43	1269.74
397.64	1355.76
397.84	1241.07
398.05	1257.45
398.26	1279.98
398.47	1245.16
398.67	1318.89
398.88	1288.17
399.09	1302.51
399.30	1265.64
399.51	1259.50
399.71	1230.83
399.92	1257.45
400.13	1279.98
400.34	1241.07
400.54	1288.17
400.75	1200.11
400.96	1310.70
401.17	1322.99
401.37	1228.78
401.58	1239.02
401.79	1265.64
402.00	1239.02
402.21	1218.54
402.41	1241.07
402.62	1214.45
402.83	1282.03
403.04	1247.21
403.24	1259.50
403.45	1318.89
403.66	1312.75
403.87	1304.56
404.07	1191.92
404.28	1253.36
404.49	1304.56
404.70	1243.12
404.90	1286.12
405.11	1271.79
405.32	1318.89
405.52	1210.35
405.73	1316.84
405.94	1239.02
406.15	1265.64
406.35	1228.78
406.56	1298.41
406.77	1277.93
406.98	1249.26
407.18	1282.03
407.39	1245.16
407.60	1325.04
407.80	1318.89
408.01	1212.40
408.22	1265.64
408.43	1277.93
408.63	1263.60
408.84	1251.31
409.05	1322.99
409.25	1234.93
409.46	1263.60
409.67	1308.65
409.88	1329.13
410.08	1169.39
410.29	1265.64
410.50	1261.55
410.70	1296.36
410.91	1302.51
411.12	1288.17
411.32	1279.98
411.53	1204.21
411.74	1259.50
411.95	1216.49
412.15	1294.32
412.36	1271.79
412.57	1296.36
412.77	1316.84
412.98	1335.28
413.19	1245.16
413.39	1263.60
413.60	1234.93
413.81	1249.26
414.01	1282.03
414.22	1277.93
414.43	1279.98
414.63	1333.23
414.84	1273.84
415.05	1341.42
415.25	1265.64
415.46	1247.21
415.67	1271.79
415.87	1265.64
416.08	1300.46
416.29	1331.18
416.49	1265.64
416.70	1259.50
416.91	1292.27
417.11	1288.17
417.32	1312.75
417.53	1269.74
417.73	1310.70
417.94	1222.64
418.15	1302.51
418.35	1286.12
418.56	1296.36
418.77	1300.46
418.97	1288.17
419.18	1247.21
419.38	1257.45
419.59	1255.40
419.80	1263.60
420.00	1255.40
420.21	1449.96
420.42	1343.47
420.62	1282.03
420.83	1271.79
421.04	1204.21
421.24	1261.55
421.45	1255.40
421.65	1241.07
421.86	1298.41
422.07	1339.37
422.27	1255.40
422.48	1269.74
422.69	1245.16
422.89	1245.16
423.10	1318.89
423.30	1220.59
423.51	1314.80
423.72	1249.26
423.92	1257.45
424.13	1331.18
424.33	1251.31
424.54	1318.89
424.75	1339.37
424.95	1277.93
425.16	1284.08
425.36	1277.93
425.57	1290.22
425.78	1255.40
425.98	1243.12
426.19	1277.93
426.39	1214.45
426.60	1320.94
426.81	1308.65
427.01	1204.21
427.22	1222.64
427.42	1304.56
427.63	1329.13
427.83	1296.36
428.04	1339.37
428.25	1300.46
428.45	1273.84
428.66	1236.97
428.86	1282.03
429.07	1259.50
429.28	1263.60
429.48	1224.69
429.69	1294.32
429.89	1243.12
430.10	1327.08
430.30	1214.45
430.51	1273.84
430.71	1263.60
430.92	1312.75
431.13	1269.74
431.33	1312.75
431.54	1263.60
431.74	1265.64
431.95	1296.36
432.15	1275.88
432.36	1304.56
432.56	1261.55
432.77	1312.75
432.98	1380.33
433.18	1220.59
433.39	1269.74
433.59	1288.17
433.80	1259.50
434.00	1282.03
434.21	1249.26
434.41	1253.36
434.62	1310.70
434.82	1214.45
435.03	1282.03
435.23	1279.98
435.44	1220.59
435.64	1269.74
435.85	1269.74
436.06	1337.32
436.26	1292.27
436.47	1241.07
436.67	1245.16
436.88	1282.03
437.08	1302.51
437.29	1269.74
437.49	1263.60
437.70	1290.22
437.90	1230.83
438.11	1241.07
438.31	1284.08
438.52	1339.37
438.72	1298.41
438.93	1193.97
439.13	1228.78
439.34	1275.88
439.54	1257.45
439.75	1261.55
439.95	1288.17
440.16	1363.95
440.36	1193.97
440.57	1279.98
440.77	1292.27
440.98	1304.56
441.18	1329.13
441.39	1306.60
441.59	1208.30
441.80	1224.69
442.00	1257.45
442.21	1329.13
442.41	1277.93
442.62	1265.64
442.82	1345.52
443.02	1259.50
443.23	1327.08
443.43	1331.18
443.64	1210.35
443.84	1224.69
444.05	1286.12
444.25	1249.26
444.46	1251.31
444.66	1308.65
444.87	1335.28
445.07	1304.56
445.28	1294.32
445.48	1265.64
445.69	1300.46
445.89	1271.79
446.09	1290.22
446.30	1267.69
446.50	1300.46
446.71	1263.60
446.91	1255.40
447.12	1232.88
447.32	1263.60
447.53	1271.79
447.73	1234.93
447.93	1269.74
448.14	1282.03
448.34	1327.08
448.55	1226.73
448.75	1251.31
448.96	1327.08
449.16	1226.73
449.36	1310.70
449.57	1243.12
449.77	1261.55
449.98	1241.07
450.18	1269.74
450.39	1257.45
450.59	1325.04
450.79	1382.38
451.00	1300.46
451.20	1294.32
451.41	1331.18
451.61	1304.56
451.81	1259.50
452.02	1298.41
452.22	1251.31
452.43	1263.60
452.63	1357.80
