SpectraSuite Data File
++++++++++++++++++++++++++++++++++++
Date: Wed May 04 22:45:22 CEST 2016
User: root
Dark Spectrum Present: No
Reference Spectrum Present: No
Number of Sampled Component Spectra: 1
Spectrometers: USB4C02835
Integration Time (usec): 100000 (USB4C02835)
Spectra Averaged: 1 (USB4C02835)
Boxcar Smoothing: 0 (USB4C02835)
Correct for Electrical Dark: No (USB4C02835)
Strobe/Lamp Enabled: No (USB4C02835)
Correct for Detector Non-linearity: No (USB4C02835)
Correct for Stray Light: No (USB4C02835)
Number of Pixels in Processed Spectrum: 3648
>>>>>Begin Processed Spectral Data<<<<<
177.47	1644.52
177.69	1644.52
177.91	1644.52
178.13	1626.09
178.36	1576.94
178.58	1845.22
178.80	2031.58
179.02	1834.98
179.24	1884.13
179.46	1978.34
179.68	1998.82
179.90	1925.09
180.13	2007.01
180.35	1847.27
180.57	1902.56
180.79	1998.82
181.01	1933.28
181.23	2072.54
181.45	2000.87
181.67	2086.88
181.90	1968.10
182.12	1961.95
182.34	1834.98
182.56	2021.35
182.78	2009.06
183.00	1880.04
183.22	2029.54
183.44	1882.08
183.66	2129.89
183.89	1986.53
184.11	1861.60
184.33	1961.95
184.55	2066.40
184.77	1957.86
184.99	1980.39
185.21	1943.52
185.43	2148.32
185.65	1886.18
185.87	1910.75
186.10	2136.03
186.32	2115.55
186.54	1982.43
186.76	1953.76
186.98	2007.01
187.20	1933.28
187.42	1886.18
187.64	1939.43
187.86	1984.48
188.08	2068.45
188.30	1865.70
188.52	1990.63
188.75	2056.16
188.97	2072.54
189.19	1837.03
189.41	1937.38
189.63	1992.67
189.85	1906.66
190.07	1839.08
190.29	1892.32
190.51	1943.52
190.73	1843.17
190.95	1998.82
191.17	1953.76
191.39	1789.92
191.61	1968.10
191.84	1931.23
192.06	1949.67
192.28	1832.93
192.50	2244.57
192.72	1976.29
192.94	2000.87
193.16	2021.35
193.38	1923.04
193.60	1882.08
193.82	1880.04
194.04	2078.69
194.26	1980.39
194.48	1937.38
194.70	1888.23
194.92	1984.48
195.14	2072.54
195.36	1841.12
195.58	1927.14
195.80	1908.71
196.02	1947.62
196.24	1880.04
196.46	1949.67
196.69	1892.32
196.91	2136.03
197.13	1894.37
197.35	1861.60
197.57	2117.60
197.79	1968.10
198.01	1945.57
198.23	1982.43
198.45	1941.47
198.67	1902.56
198.89	1912.80
199.11	1955.81
199.33	1912.80
199.55	1894.37
199.77	1908.71
199.99	2017.25
200.21	1953.76
200.43	1953.76
200.65	1855.46
200.87	1771.49
201.09	1920.99
201.31	1912.80
201.53	2017.25
201.75	1996.77
201.97	1953.76
202.19	1968.10
202.41	1984.48
202.63	2125.79
202.85	2019.30
203.07	1949.67
203.29	1941.47
203.51	1800.16
203.73	1947.62
203.95	2174.94
204.17	1929.19
204.39	2000.87
204.61	1976.29
204.83	1896.42
205.05	2047.97
205.27	1959.91
205.49	2095.07
205.71	1880.04
205.93	1843.17
206.15	1882.08
206.37	2025.44
206.59	1925.09
206.81	1814.50
207.03	1859.56
207.25	1920.99
207.47	2033.63
207.69	1916.90
207.91	2097.12
208.13	2060.26
208.34	1900.52
208.56	1849.32
208.78	1896.42
209.00	1882.08
209.22	1982.43
209.44	1945.57
209.66	1953.76
209.88	1964.00
210.10	1933.28
210.32	1888.23
210.54	1984.48
210.76	1929.19
210.98	1982.43
211.20	1787.88
211.42	1880.04
211.64	2035.68
211.86	2023.39
212.08	2029.54
212.30	1941.47
212.52	1933.28
212.74	1976.29
212.96	1925.09
213.17	2033.63
213.39	1951.71
213.61	2131.94
213.83	1937.38
214.05	1923.04
214.27	2097.12
214.49	1837.03
214.71	1908.71
214.93	1882.08
215.15	1937.38
215.37	1925.09
215.59	1802.21
215.81	1943.52
216.03	1974.24
216.24	2009.06
216.46	1941.47
216.68	1908.71
216.90	2017.25
217.12	2011.11
217.34	1986.53
217.56	2056.16
217.78	1998.82
218.00	1972.19
218.22	2031.58
218.44	1964.00
218.66	1949.67
218.87	2074.59
219.09	1863.65
219.31	1955.81
219.53	1966.05
219.75	1871.84
219.97	2023.39
220.19	1882.08
220.41	1957.86
220.63	2054.11
220.85	1918.95
221.06	1908.71
221.28	2043.87
221.50	1986.53
221.72	1867.75
221.94	1894.37
222.16	2035.68
222.38	1996.77
222.60	1923.04
222.82	1939.43
223.03	1961.95
223.25	1902.56
223.47	1904.61
223.69	2060.26
223.91	1904.61
224.13	1966.05
224.35	1873.89
224.57	1904.61
224.78	2050.02
225.00	1849.32
225.22	1882.08
225.44	1980.39
225.66	2039.78
225.88	1929.19
226.10	2000.87
226.32	1920.99
226.53	2070.50
226.75	1906.66
226.97	1884.13
227.19	1945.57
227.41	1847.27
227.63	1970.15
227.85	1802.21
228.06	1998.82
228.28	1886.18
228.50	1996.77
228.72	1857.51
228.94	1949.67
229.16	1808.36
229.37	1847.27
229.59	1949.67
229.81	2047.97
230.03	1949.67
230.25	1890.28
230.47	1880.04
230.69	1861.60
230.90	2025.44
231.12	1949.67
231.34	1920.99
231.56	2076.64
231.78	1826.79
232.00	1970.15
232.21	1914.85
232.43	1873.89
232.65	1806.31
232.87	1994.72
233.09	1837.03
233.30	1892.32
233.52	2095.07
233.74	1947.62
233.96	1886.18
234.18	1863.65
234.40	1912.80
234.61	2043.87
234.83	1849.32
235.05	1830.88
235.27	2234.33
235.49	2027.49
235.70	1984.48
235.92	1980.39
236.14	1968.10
236.36	2181.09
236.58	1861.60
236.79	1982.43
237.01	1912.80
237.23	1968.10
237.45	2107.36
237.67	1945.57
237.88	2009.06
238.10	2123.74
238.32	1882.08
238.54	1892.32
238.76	1951.71
238.97	1849.32
239.19	1886.18
239.41	2054.11
239.63	2076.64
239.85	1867.75
240.06	1900.52
240.28	1900.52
240.50	2027.49
240.72	1959.91
240.93	1912.80
241.15	2017.25
241.37	2013.15
241.59	2064.35
241.81	1968.10
242.02	1933.28
242.24	1947.62
242.46	2013.15
242.68	1914.85
242.89	1996.77
243.11	2015.20
243.33	1925.09
243.55	2002.91
243.76	2013.15
243.98	1933.28
244.20	1941.47
244.42	1918.95
244.64	1918.95
244.85	1904.61
245.07	1871.84
245.29	1990.63
245.51	1984.48
245.72	2035.68
245.94	2039.78
246.16	1953.76
246.38	1976.29
246.59	1906.66
246.81	1849.32
247.03	1896.42
247.24	1902.56
247.46	1884.13
247.68	1996.77
247.90	1974.24
248.11	1918.95
248.33	2031.58
248.55	1949.67
248.77	1920.99
248.98	2021.35
249.20	2066.40
249.42	1964.00
249.64	1908.71
249.85	1970.15
250.07	1925.09
250.29	1998.82
250.50	2002.91
250.72	1902.56
250.94	1970.15
251.16	2056.16
251.37	1959.91
251.59	1966.05
251.81	1943.52
252.02	2060.26
252.24	1929.19
252.46	2023.39
252.68	1939.43
252.89	1914.85
253.11	1898.47
253.33	2052.06
253.54	2062.30
253.76	1828.84
253.98	1904.61
254.20	1916.90
254.41	1822.69
254.63	1935.33
254.85	1865.70
255.06	1998.82
255.28	1974.24
255.50	1994.72
255.71	1939.43
255.93	1882.08
256.15	1945.57
256.36	2041.82
256.58	1939.43
256.80	1955.81
257.02	1816.55
257.23	1927.14
257.45	1945.57
257.67	2017.25
257.88	1898.47
258.10	1990.63
258.32	1904.61
258.53	1888.23
258.75	2047.97
258.97	1935.33
259.18	1945.57
259.40	1875.94
259.62	2123.74
259.83	2064.35
260.05	1982.43
260.27	2312.16
260.48	2035.68
260.70	1814.50
260.92	1945.57
261.13	1988.58
261.35	1949.67
261.57	1933.28
261.78	1771.49
262.00	1892.32
262.22	1927.14
262.43	1894.37
262.65	1939.43
262.86	1974.24
263.08	2211.81
263.30	1947.62
263.51	1791.97
263.73	1832.93
263.95	2099.17
264.16	1912.80
264.38	1785.83
264.60	1894.37
264.81	1939.43
265.03	2099.17
265.25	2029.54
265.46	1959.91
265.68	2023.39
265.89	1968.10
266.11	1820.64
266.33	1931.23
266.54	2070.50
266.76	2000.87
266.98	1966.05
267.19	2068.45
267.41	1980.39
267.62	1937.38
267.84	1869.80
268.06	1923.04
268.27	1992.67
268.49	2047.97
268.70	2050.02
268.92	1914.85
269.14	1810.40
269.35	1828.84
269.57	1972.19
269.79	2015.20
270.00	1929.19
270.22	2127.84
270.43	1984.48
270.65	1751.01
270.87	2031.58
271.08	2015.20
271.30	1988.58
271.51	1935.33
271.73	1978.34
271.95	2035.68
272.16	2019.30
272.38	1929.19
272.59	1841.12
272.81	2011.11
273.02	1939.43
273.24	1984.48
273.46	2047.97
273.67	1880.04
273.89	1834.98
274.10	1925.09
274.32	2025.44
274.54	1927.14
274.75	1990.63
274.97	1929.19
275.18	2039.78
275.40	1980.39
275.61	1953.76
275.83	1910.75
276.05	1918.95
276.26	2002.91
276.48	1974.24
276.69	1947.62
276.91	1951.71
277.12	2047.97
277.34	2029.54
277.55	2017.25
277.77	1986.53
277.99	1902.56
278.20	1886.18
278.42	1853.41
278.63	1910.75
278.85	1927.14
279.06	1886.18
279.28	2025.44
279.49	2125.79
279.71	2019.30
279.93	1933.28
280.14	1863.65
280.36	1861.60
280.57	2027.49
280.79	2043.87
281.00	1843.17
281.22	1976.29
281.43	1982.43
281.65	1888.23
281.86	1882.08
282.08	1947.62
282.29	2082.78
282.51	1951.71
282.73	1957.86
282.94	1959.91
283.16	2050.02
283.37	2037.73
283.59	1888.23
283.80	1957.86
284.02	2021.35
284.23	2009.06
284.45	1947.62
284.66	1857.51
284.88	1961.95
285.09	2009.06
285.31	1976.29
285.52	1964.00
285.74	1824.74
285.95	2035.68
286.17	1982.43
286.38	2076.64
286.60	1900.52
286.81	1871.84
287.03	1882.08
287.24	1961.95
287.46	1927.14
287.67	2047.97
287.89	2115.55
288.10	1902.56
288.32	1898.47
288.53	2090.98
288.75	1951.71
288.96	1990.63
289.18	1914.85
289.39	1884.13
289.61	1994.72
289.82	2113.50
290.04	1986.53
290.25	1826.79
290.47	1927.14
290.68	1923.04
290.90	2058.21
291.11	1861.60
291.33	2054.11
291.54	1978.34
291.76	1929.19
291.97	1982.43
292.18	1955.81
292.40	1920.99
292.61	1939.43
292.83	2107.36
293.04	1972.19
293.26	1968.10
293.47	1941.47
293.69	1857.51
293.90	1961.95
294.12	1990.63
294.33	1974.24
294.55	1923.04
294.76	1998.82
294.97	2111.46
295.19	2080.74
295.40	1906.66
295.62	1980.39
295.83	2025.44
296.05	1908.71
296.26	2019.30
296.48	1916.90
296.69	2007.01
296.90	2037.73
297.12	2052.06
297.33	2066.40
297.55	1943.52
297.76	1968.10
297.98	2015.20
298.19	1970.15
298.41	1935.33
298.62	1920.99
298.83	2086.88
299.05	1978.34
299.26	1949.67
299.48	1914.85
299.69	2007.01
299.90	1910.75
300.12	1941.47
300.33	2035.68
300.55	1976.29
300.76	2015.20
300.98	1771.49
301.19	1988.58
301.40	1947.62
301.62	1927.14
301.83	2027.49
302.05	2002.91
302.26	2025.44
302.47	2031.58
302.69	1935.33
302.90	1961.95
303.12	1816.55
303.33	2009.06
303.54	2113.50
303.76	1859.56
303.97	1955.81
304.19	2078.69
304.40	1845.22
304.61	1935.33
304.83	2050.02
305.04	2023.39
305.26	2017.25
305.47	2015.20
305.68	1961.95
305.90	1892.32
306.11	2056.16
306.33	1875.94
306.54	1867.75
306.75	1988.58
306.97	1867.75
307.18	1941.47
307.39	1910.75
307.61	2013.15
307.82	1935.33
308.04	1980.39
308.25	1914.85
308.46	1980.39
308.68	1906.66
308.89	1925.09
309.10	2052.06
309.32	1966.05
309.53	2009.06
309.74	1957.86
309.96	1902.56
310.17	2076.64
310.39	1931.23
310.60	2023.39
310.81	1980.39
311.03	1896.42
311.24	2076.64
311.45	1955.81
311.67	2056.16
311.88	1992.67
312.09	1912.80
312.31	1964.00
312.52	1943.52
312.73	1920.99
312.95	1886.18
313.16	1951.71
313.37	2113.50
313.59	1947.62
313.80	1986.53
314.01	2105.31
314.23	1832.93
314.44	1816.55
314.65	1902.56
314.87	1877.99
315.08	1980.39
315.29	1843.17
315.51	1857.51
315.72	1857.51
315.93	1998.82
316.15	2017.25
316.36	1916.90
316.57	1900.52
316.79	1972.19
317.00	1959.91
317.21	2021.35
317.43	1880.04
317.64	1974.24
317.85	1906.66
318.07	1892.32
318.28	1990.63
318.49	2172.89
318.70	2244.57
318.92	2150.37
319.13	2144.22
319.34	2127.84
319.56	2131.94
319.77	2176.99
319.98	2088.93
320.20	2146.27
320.41	2113.50
320.62	2033.63
320.83	1982.43
321.05	2119.65
321.26	1982.43
321.47	1947.62
321.69	2019.30
321.90	1841.12
322.11	1910.75
322.32	2029.54
322.54	2078.69
322.75	1900.52
322.96	2133.98
323.18	1884.13
323.39	1820.64
323.60	1847.27
323.81	2062.30
324.03	1961.95
324.24	1980.39
324.45	2017.25
324.66	1882.08
324.88	2015.20
325.09	2090.98
325.30	1996.77
325.52	1867.75
325.73	2004.96
325.94	1929.19
326.15	1798.12
326.37	1939.43
326.58	2029.54
326.79	2121.70
327.00	1912.80
327.22	1939.43
327.43	1865.70
327.64	1863.65
327.85	2009.06
328.07	2000.87
328.28	2109.41
328.49	1916.90
328.70	1998.82
328.92	1984.48
329.13	1986.53
329.34	2000.87
329.55	2062.30
329.76	2025.44
329.98	2021.35
330.19	2000.87
330.40	1988.58
330.61	1964.00
330.83	2035.68
331.04	1857.51
331.25	1984.48
331.46	1949.67
331.68	1871.84
331.89	2097.12
332.10	1900.52
332.31	1888.23
332.52	1970.15
332.74	2068.45
332.95	1947.62
333.16	1964.00
333.37	2019.30
333.58	1857.51
333.80	1988.58
334.01	1794.02
334.22	1898.47
334.43	1935.33
334.64	1843.17
334.86	1837.03
335.07	1916.90
335.28	2017.25
335.49	1834.98
335.70	1996.77
335.92	2045.92
336.13	2084.83
336.34	2017.25
336.55	2004.96
336.76	1968.10
336.98	1828.84
337.19	1945.57
337.40	2097.12
337.61	2140.13
337.82	1933.28
338.04	2011.11
338.25	1818.60
338.46	1898.47
338.67	1990.63
338.88	1877.99
339.09	1896.42
339.31	1959.91
339.52	1941.47
339.73	1939.43
339.94	1945.57
340.15	1998.82
340.36	1904.61
340.58	1996.77
340.79	1882.08
341.00	1978.34
341.21	1892.32
341.42	2095.07
341.63	1949.67
341.85	2068.45
342.06	1990.63
342.27	1927.14
342.48	2033.63
342.69	1816.55
342.90	1978.34
343.12	2039.78
343.33	1980.39
343.54	2019.30
343.75	2035.68
343.96	2007.01
344.17	1871.84
344.38	1918.95
344.60	1810.40
344.81	1931.23
345.02	1951.71
345.23	1980.39
345.44	2099.17
345.65	2070.50
345.86	2058.21
346.07	1949.67
346.29	1918.95
346.50	1980.39
346.71	1964.00
346.92	2043.87
347.13	2121.70
347.34	1912.80
347.55	1937.38
347.76	2039.78
347.98	1914.85
348.19	1937.38
348.40	2041.82
348.61	1935.33
348.82	2041.82
349.03	2064.35
349.24	1959.91
349.45	2050.02
349.66	1816.55
349.88	2000.87
350.09	1916.90
350.30	2093.02
350.51	2064.35
350.72	1961.95
350.93	1961.95
351.14	1910.75
351.35	2009.06
351.56	1875.94
351.77	1947.62
351.99	1974.24
352.20	2052.06
352.41	2011.11
352.62	1861.60
352.83	1953.76
353.04	1931.23
353.25	1939.43
353.46	1994.72
353.67	2131.94
353.88	1847.27
354.09	1984.48
354.30	1953.76
354.52	2000.87
354.73	1994.72
354.94	1923.04
355.15	2004.96
355.36	2123.74
355.57	1945.57
355.78	1945.57
355.99	1896.42
356.20	1916.90
356.41	2099.17
356.62	1986.53
356.83	1994.72
357.04	2043.87
357.25	1892.32
357.46	1927.14
357.68	1865.70
357.89	1855.46
358.10	1945.57
358.31	1994.72
358.52	1853.41
358.73	1884.13
358.94	1832.93
359.15	1882.08
359.36	2047.97
359.57	1904.61
359.78	2004.96
359.99	2017.25
360.20	1947.62
360.41	1937.38
360.62	2011.11
360.83	1941.47
361.04	1914.85
361.25	1968.10
361.46	2078.69
361.67	1970.15
361.88	1972.19
362.09	1996.77
362.30	2000.87
362.51	1890.28
362.72	1920.99
362.93	1980.39
363.14	2011.11
363.35	2007.01
363.56	1892.32
363.78	1980.39
363.99	2025.44
364.20	1923.04
364.41	2011.11
364.62	2113.50
364.83	1943.52
365.04	1918.95
365.25	1949.67
365.46	2062.30
365.67	1916.90
365.88	1976.29
366.09	1908.71
366.30	1869.80
366.51	1947.62
366.72	1918.95
366.93	2015.20
367.14	1970.15
367.35	2095.07
367.56	2002.91
367.77	2076.64
367.98	1933.28
368.18	1955.81
368.39	1986.53
368.60	1843.17
368.81	1982.43
369.02	1988.58
369.23	1908.71
369.44	1886.18
369.65	1929.19
369.86	1931.23
370.07	2007.01
370.28	1894.37
370.49	1966.05
370.70	2000.87
370.91	1861.60
371.12	1912.80
371.33	2119.65
371.54	1898.47
371.75	2033.63
371.96	1816.55
372.17	2031.58
372.38	1918.95
372.59	2060.26
372.80	1884.13
373.01	2019.30
373.22	2056.16
373.43	1931.23
373.64	1914.85
373.85	2064.35
374.06	2090.98
374.26	2062.30
374.47	2064.35
374.68	2017.25
374.89	1992.67
375.10	1927.14
375.31	2009.06
375.52	1984.48
375.73	1904.61
375.94	1941.47
376.15	2015.20
376.36	1884.13
376.57	1906.66
376.78	1908.71
376.99	2045.92
377.20	2146.27
377.40	1837.03
377.61	2060.26
377.82	1918.95
378.03	2037.73
378.24	2050.02
378.45	2002.91
378.66	1992.67
378.87	1837.03
379.08	1871.84
379.29	1892.32
379.50	2125.79
379.71	1974.24
379.91	1996.77
380.12	1888.23
380.33	1959.91
380.54	1931.23
380.75	1902.56
380.96	1984.48
381.17	1990.63
381.38	1978.34
381.59	2011.11
381.80	1906.66
382.00	2254.81
382.21	2080.74
382.42	2113.50
382.63	2170.85
382.84	2015.20
383.05	1978.34
383.26	2140.13
383.47	2052.06
383.68	2031.58
383.88	2033.63
384.09	2037.73
384.30	2062.30
384.51	1984.48
384.72	1939.43
384.93	1855.46
385.14	2050.02
385.35	2054.11
385.55	1908.71
385.76	2039.78
385.97	1869.80
386.18	1916.90
386.39	1916.90
386.60	1949.67
386.81	1955.81
387.02	1923.04
387.22	1923.04
387.43	2027.49
387.64	2066.40
387.85	2140.13
388.06	2205.66
388.27	3968.96
388.48	8578.94
388.68	12140.36
388.89	14481.19
389.10	15619.86
389.31	13971.24
389.52	11286.36
389.73	9607.02
389.93	8744.83
390.14	8071.04
390.35	7165.84
390.56	6451.10
390.77	5347.25
390.98	4136.90
391.18	3217.36
391.39	2564.06
391.60	2205.66
391.81	2207.71
392.02	1980.39
392.23	2199.52
392.43	1986.53
392.64	2072.54
392.85	1996.77
393.06	2080.74
393.27	1984.48
393.47	1920.99
393.68	1992.67
393.89	2015.20
394.10	2052.06
394.31	1916.90
394.52	1964.00
394.72	1935.33
394.93	2070.50
395.14	1947.62
395.35	2031.58
395.56	1908.71
395.76	1970.15
395.97	2017.25
396.18	2099.17
396.39	2095.07
396.60	2338.78
396.80	2226.14
397.01	2185.18
397.22	2156.51
397.43	2193.37
397.64	1988.58
397.84	2035.68
398.05	2244.57
398.26	1996.77
398.47	2052.06
398.67	2078.69
398.88	1996.77
399.09	1976.29
399.30	1945.57
399.51	2074.59
399.71	1904.61
399.92	1968.10
400.13	1966.05
400.34	1959.91
400.54	1976.29
400.75	2080.74
400.96	2017.25
401.17	2189.28
401.37	1939.43
401.58	1996.77
401.79	1916.90
402.00	2080.74
402.21	2328.54
402.41	2303.96
402.62	2314.20
402.83	2494.43
403.04	2381.79
403.24	2414.56
403.45	2222.05
403.66	2224.09
403.87	2242.53
404.07	2144.22
404.28	2160.61
404.49	2162.66
404.70	2133.98
404.90	2080.74
405.11	1937.38
405.32	1982.43
405.52	1941.47
405.73	1910.75
405.94	1861.60
406.15	2027.49
406.35	2056.16
406.56	2007.01
406.77	2015.20
406.98	1937.38
407.18	1910.75
407.39	2060.26
407.60	1945.57
407.80	1961.95
408.01	1871.84
408.22	1976.29
408.43	1849.32
408.63	1996.77
408.84	2088.93
409.05	1964.00
409.25	1949.67
409.46	1908.71
409.67	1943.52
409.88	1898.47
410.08	1998.82
410.29	1902.56
410.50	2031.58
410.70	1923.04
410.91	1941.47
411.12	1875.94
411.32	2002.91
411.53	1916.90
411.74	2066.40
411.95	2158.56
412.15	2072.54
412.36	2160.61
412.57	2084.83
412.77	2107.36
412.98	1986.53
413.19	1949.67
413.39	2068.45
413.60	2002.91
413.81	2062.30
414.01	1910.75
414.22	2052.06
414.43	2009.06
414.63	1929.19
414.84	2056.16
415.05	1945.57
415.25	1886.18
415.46	2007.01
415.67	1955.81
415.87	1961.95
416.08	1982.43
416.29	1964.00
416.49	1984.48
416.70	1951.71
416.91	1882.08
417.11	1978.34
417.32	2076.64
417.53	1998.82
417.73	1966.05
417.94	1951.71
418.15	1996.77
418.35	2009.06
418.56	1943.52
418.77	2144.22
418.97	1937.38
419.18	1935.33
419.38	1812.45
419.59	1902.56
419.80	2052.06
420.00	1976.29
420.21	1912.80
420.42	2019.30
420.62	2035.68
420.83	1920.99
421.04	1937.38
421.24	1951.71
421.45	2056.16
421.65	2027.49
421.86	1937.38
422.07	1918.95
422.27	2033.63
422.48	1992.67
422.69	1869.80
422.89	1880.04
423.10	1890.28
423.30	1914.85
423.51	1990.63
423.72	1966.05
423.92	2039.78
424.13	1886.18
424.33	2007.01
424.54	2021.35
424.75	2029.54
424.95	2056.16
425.16	1953.76
425.36	1976.29
425.57	2095.07
425.78	2029.54
425.98	2015.20
426.19	1933.28
426.39	1875.94
426.60	2027.49
426.81	2033.63
427.01	2019.30
427.22	1875.94
427.42	1845.22
427.63	1916.90
427.83	2039.78
428.04	2129.89
428.25	2084.83
428.45	2076.64
428.66	1978.34
428.86	1970.15
429.07	1978.34
429.28	2000.87
429.48	1972.19
429.69	1869.80
429.89	2035.68
430.10	1869.80
430.30	1920.99
430.51	2054.11
430.71	1900.52
430.92	1961.95
431.13	1914.85
431.33	1929.19
431.54	1910.75
431.74	2107.36
431.95	2078.69
432.15	1902.56
432.36	1939.43
432.56	1939.43
432.77	2080.74
432.98	2105.31
433.18	2039.78
433.39	1988.58
433.59	1990.63
433.80	1988.58
434.00	2150.37
434.21	1886.18
434.41	1853.41
434.62	2095.07
434.82	1910.75
435.03	1834.98
435.23	1970.15
435.44	1890.28
435.64	2004.96
435.85	1959.91
436.06	2021.35
436.26	2058.21
436.47	1949.67
436.67	1970.15
436.88	1908.71
437.08	1961.95
437.29	2045.92
437.49	2021.35
437.70	2076.64
437.90	1939.43
438.11	2101.22
438.31	2064.35
438.52	2209.76
438.72	2101.22
438.93	2179.04
439.13	2150.37
439.34	2082.78
439.54	2097.12
439.75	2029.54
439.95	2152.42
440.16	1978.34
440.36	2052.06
440.57	2015.20
440.77	2002.91
440.98	2052.06
441.18	2004.96
441.39	1923.04
441.59	1822.69
441.80	2039.78
442.00	1871.84
442.21	2125.79
442.41	1802.21
442.62	2088.93
442.82	1943.52
443.02	1988.58
443.23	2007.01
443.43	1933.28
443.64	2142.18
443.84	1896.42
444.05	2062.30
444.25	2054.11
444.46	1951.71
444.66	1951.71
444.87	2125.79
445.07	1851.36
445.28	1927.14
445.48	2027.49
445.69	2068.45
445.89	2088.93
446.09	1992.67
446.30	2170.85
446.50	2676.70
446.71	4161.47
446.91	5369.77
447.12	6053.80
447.32	6432.67
447.53	6033.32
447.73	4988.85
447.93	4458.43
448.14	4038.59
448.34	3864.52
448.55	3467.21
448.75	3420.11
448.96	3145.68
449.16	2908.12
449.36	2580.44
449.57	2363.36
449.77	2185.18
449.98	2056.16
450.18	2033.63
450.39	2021.35
450.59	2015.20
450.79	2013.15
451.00	1964.00
451.20	2086.88
451.41	1912.80
451.61	2025.44
451.81	1955.81
452.02	1972.19
452.22	1968.10
452.43	1961.95
452.63	1914.85
