SpectraSuite Data File
++++++++++++++++++++++++++++++++++++
Date: Wed May 04 22:46:10 CEST 2016
User: root
Dark Spectrum Present: No
Reference Spectrum Present: No
Number of Sampled Component Spectra: 1
Spectrometers: USB4C02835
Integration Time (usec): 100000 (USB4C02835)
Spectra Averaged: 1 (USB4C02835)
Boxcar Smoothing: 0 (USB4C02835)
Correct for Electrical Dark: No (USB4C02835)
Strobe/Lamp Enabled: No (USB4C02835)
Correct for Detector Non-linearity: No (USB4C02835)
Correct for Stray Light: No (USB4C02835)
Number of Pixels in Processed Spectrum: 3648
>>>>>Begin Processed Spectral Data<<<<<
177.47	1619.94
177.69	1619.94
177.91	1619.94
178.13	1640.42
178.36	1619.94
178.58	1910.75
178.80	2027.49
179.02	1857.51
179.24	1834.98
179.46	1880.04
179.68	1966.05
179.90	1980.39
180.13	1906.66
180.35	1978.34
180.57	1972.19
180.79	2097.12
181.01	1974.24
181.23	1947.62
181.45	2054.11
181.67	1920.99
181.90	1955.81
182.12	1912.80
182.34	1826.79
182.56	1912.80
182.78	1955.81
183.00	1943.52
183.22	1916.90
183.44	1882.08
183.66	2140.13
183.89	2070.50
184.11	1964.00
184.33	2009.06
184.55	2007.01
184.77	1961.95
184.99	1974.24
185.21	1941.47
185.43	2058.21
185.65	1857.51
185.87	1933.28
186.10	2199.52
186.32	2123.74
186.54	2023.39
186.76	1998.82
186.98	2011.11
187.20	2025.44
187.42	1843.17
187.64	1943.52
187.86	2017.25
188.08	2086.88
188.30	1914.85
188.52	1916.90
188.75	1990.63
188.97	2050.02
189.19	1802.21
189.41	1871.84
189.63	2037.73
189.85	1968.10
190.07	1847.27
190.29	1896.42
190.51	1984.48
190.73	1886.18
190.95	1959.91
191.17	1972.19
191.39	1916.90
191.61	1947.62
191.84	1941.47
192.06	2035.68
192.28	1822.69
192.50	2211.81
192.72	2009.06
192.94	1892.32
193.16	1988.58
193.38	2058.21
193.60	1935.33
193.82	1892.32
194.04	1949.67
194.26	2025.44
194.48	1968.10
194.70	1871.84
194.92	1902.56
195.14	1982.43
195.36	1871.84
195.58	2013.15
195.80	1998.82
196.02	1955.81
196.24	1957.86
196.46	1916.90
196.69	1929.19
196.91	2150.37
197.13	1884.13
197.35	1951.71
197.57	2045.92
197.79	2002.91
198.01	1990.63
198.23	2009.06
198.45	2021.35
198.67	1855.46
198.89	1912.80
199.11	2037.73
199.33	1894.37
199.55	1847.27
199.77	1998.82
199.99	2039.78
200.21	1929.19
200.43	1986.53
200.65	1855.46
200.87	1816.55
201.09	2074.59
201.31	2000.87
201.53	1939.43
201.75	1937.38
201.97	2027.49
202.19	1898.47
202.41	2013.15
202.63	2060.26
202.85	1976.29
203.07	1953.76
203.29	1910.75
203.51	1927.14
203.73	1902.56
203.95	2080.74
204.17	1992.67
204.39	1845.22
204.61	1943.52
204.83	1927.14
205.05	1964.00
205.27	1992.67
205.49	2148.32
205.71	1920.99
205.93	1814.50
206.15	1884.13
206.37	1929.19
206.59	1943.52
206.81	1857.51
207.03	1841.12
207.25	1914.85
207.47	2086.88
207.69	1974.24
207.91	2070.50
208.13	2119.65
208.34	1957.86
208.56	1812.45
208.78	1902.56
209.00	1908.71
209.22	1896.42
209.44	1918.95
209.66	1945.57
209.88	1906.66
210.10	1916.90
210.32	1923.04
210.54	1941.47
210.76	1896.42
210.98	2066.40
211.20	1849.32
211.42	2000.87
211.64	1978.34
211.86	2041.82
212.08	1947.62
212.30	1949.67
212.52	1925.09
212.74	2000.87
212.96	2009.06
213.17	1968.10
213.39	1990.63
213.61	2158.56
213.83	1937.38
214.05	1978.34
214.27	2068.45
214.49	1935.33
214.71	1810.40
214.93	1976.29
215.15	1955.81
215.37	2004.96
215.59	1839.08
215.81	2054.11
216.03	2058.21
216.24	1892.32
216.46	1966.05
216.68	1896.42
216.90	1912.80
217.12	2050.02
217.34	1910.75
217.56	1949.67
217.78	2017.25
218.00	2035.68
218.22	1931.23
218.44	2013.15
218.66	1972.19
218.87	2000.87
219.09	1953.76
219.31	1959.91
219.53	1984.48
219.75	1910.75
219.97	1953.76
220.19	1972.19
220.41	1951.71
220.63	2123.74
220.85	1904.61
221.06	1898.47
221.28	2050.02
221.50	1980.39
221.72	1955.81
221.94	1865.70
222.16	1957.86
222.38	2060.26
222.60	1894.37
222.82	1890.28
223.03	2070.50
223.25	1896.42
223.47	1964.00
223.69	2125.79
223.91	2035.68
224.13	1955.81
224.35	1912.80
224.57	2021.35
224.78	1933.28
225.00	1865.70
225.22	1980.39
225.44	1961.95
225.66	2062.30
225.88	1961.95
226.10	1986.53
226.32	2017.25
226.53	2062.30
226.75	1927.14
226.97	1949.67
227.19	1892.32
227.41	1912.80
227.63	1902.56
227.85	1834.98
228.06	1933.28
228.28	2009.06
228.50	1990.63
228.72	1839.08
228.94	1802.21
229.16	1906.66
229.37	1939.43
229.59	1814.50
229.81	2060.26
230.03	1968.10
230.25	1841.12
230.47	1890.28
230.69	1832.93
230.90	1988.58
231.12	1869.80
231.34	1933.28
231.56	2009.06
231.78	1814.50
232.00	2009.06
232.21	1851.36
232.43	1937.38
232.65	1787.88
232.87	1920.99
233.09	1927.14
233.30	1824.74
233.52	2101.22
233.74	1951.71
233.96	1953.76
234.18	1961.95
234.40	1986.53
234.61	2115.55
234.83	1853.41
235.05	1875.94
235.27	2189.28
235.49	2127.84
235.70	1933.28
235.92	2027.49
236.14	1986.53
236.36	2076.64
236.58	1814.50
236.79	1990.63
237.01	1941.47
237.23	1916.90
237.45	2068.45
237.67	1972.19
237.88	1982.43
238.10	2111.46
238.32	1816.55
238.54	1937.38
238.76	1972.19
238.97	1861.60
239.19	1906.66
239.41	1970.15
239.63	2029.54
239.85	1959.91
240.06	1912.80
240.28	1910.75
240.50	1951.71
240.72	1976.29
240.93	1925.09
241.15	1988.58
241.37	1955.81
241.59	2064.35
241.81	1947.62
242.02	1923.04
242.24	2011.11
242.46	2064.35
242.68	1941.47
242.89	1937.38
243.11	2007.01
243.33	1978.34
243.55	1998.82
243.76	2015.20
243.98	1914.85
244.20	1959.91
244.42	1884.13
244.64	2027.49
244.85	1822.69
245.07	1877.99
245.29	1951.71
245.51	1898.47
245.72	1959.91
245.94	2021.35
246.16	1939.43
246.38	1964.00
246.59	1908.71
246.81	1931.23
247.03	1923.04
247.24	1810.40
247.46	1972.19
247.68	1994.72
247.90	1937.38
248.11	1939.43
248.33	1994.72
248.55	2027.49
248.77	1978.34
248.98	2062.30
249.20	2047.97
249.42	1959.91
249.64	1953.76
249.85	1945.57
250.07	1949.67
250.29	2037.73
250.50	2050.02
250.72	1867.75
250.94	1910.75
251.16	2052.06
251.37	2031.58
251.59	1988.58
251.81	2021.35
252.02	2109.41
252.24	1970.15
252.46	2015.20
252.68	1857.51
252.89	1947.62
253.11	1861.60
253.33	2045.92
253.54	2078.69
253.76	1896.42
253.98	1929.19
254.20	1888.23
254.41	1875.94
254.63	1959.91
254.85	1810.40
255.06	1927.14
255.28	1920.99
255.50	1916.90
255.71	1861.60
255.93	1834.98
256.15	1972.19
256.36	1972.19
256.58	1851.36
256.80	1894.37
257.02	1943.52
257.23	1908.71
257.45	1964.00
257.67	2015.20
257.88	1933.28
258.10	1996.77
258.32	1947.62
258.53	1910.75
258.75	2121.70
258.97	1902.56
259.18	1937.38
259.40	1986.53
259.62	2088.93
259.83	2060.26
260.05	2041.82
260.27	2349.02
260.48	1998.82
260.70	1830.88
260.92	1841.12
261.13	1937.38
261.35	1961.95
261.57	2023.39
261.78	1859.56
262.00	1841.12
262.22	2035.68
262.43	1920.99
262.65	1908.71
262.86	2013.15
263.08	2082.78
263.30	1986.53
263.51	1785.83
263.73	1830.88
263.95	2052.06
264.16	1898.47
264.38	1824.74
264.60	1884.13
264.81	1923.04
265.03	2068.45
265.25	2039.78
265.46	1957.86
265.68	2039.78
265.89	2047.97
266.11	1785.83
266.33	1941.47
266.54	1988.58
266.76	1998.82
266.98	2004.96
267.19	1945.57
267.41	2019.30
267.62	1929.19
267.84	1810.40
268.06	1955.81
268.27	1968.10
268.49	2037.73
268.70	1947.62
268.92	1978.34
269.14	1837.03
269.35	1867.75
269.57	1949.67
269.79	1978.34
270.00	1978.34
270.22	2084.83
270.43	1863.65
270.65	1828.84
270.87	1998.82
271.08	2013.15
271.30	1959.91
271.51	1941.47
271.73	1955.81
271.95	2037.73
272.16	1892.32
272.38	1918.95
272.59	1933.28
272.81	2037.73
273.02	1898.47
273.24	1959.91
273.46	2015.20
273.67	1882.08
273.89	1908.71
274.10	1988.58
274.32	1951.71
274.54	1953.76
274.75	1970.15
274.97	1937.38
275.18	1976.29
275.40	2013.15
275.61	1947.62
275.83	1943.52
276.05	1849.32
276.26	1998.82
276.48	1953.76
276.69	1910.75
276.91	1955.81
277.12	2115.55
277.34	2052.06
277.55	2090.98
277.77	2017.25
277.99	1992.67
278.20	1927.14
278.42	1820.64
278.63	1955.81
278.85	1890.28
279.06	1837.03
279.28	1970.15
279.49	1972.19
279.71	2017.25
279.93	2011.11
280.14	1912.80
280.36	1947.62
280.57	2002.91
280.79	1998.82
281.00	1906.66
281.22	1931.23
281.43	2072.54
281.65	1775.59
281.86	1929.19
282.08	2035.68
282.29	2047.97
282.51	1927.14
282.73	1832.93
282.94	1832.93
283.16	2017.25
283.37	2013.15
283.59	1992.67
283.80	2015.20
284.02	2021.35
284.23	2066.40
284.45	1882.08
284.66	1929.19
284.88	1863.65
285.09	2031.58
285.31	2115.55
285.52	1992.67
285.74	1800.16
285.95	1992.67
286.17	1986.53
286.38	1980.39
286.60	1912.80
286.81	1904.61
287.03	1976.29
287.24	1996.77
287.46	1994.72
287.67	1972.19
287.89	2035.68
288.10	1884.13
288.32	2004.96
288.53	2017.25
288.75	1978.34
288.96	2043.87
289.18	1974.24
289.39	2004.96
289.61	1961.95
289.82	2189.28
290.04	2011.11
290.25	1828.84
290.47	2002.91
290.68	1886.18
290.90	2080.74
291.11	1796.07
291.33	1941.47
291.54	1951.71
291.76	1892.32
291.97	1992.67
292.18	1964.00
292.40	1880.04
292.61	1837.03
292.83	2097.12
293.04	1925.09
293.26	1918.95
293.47	1982.43
293.69	1894.37
293.90	1929.19
294.12	2080.74
294.33	2007.01
294.55	1974.24
294.76	1972.19
294.97	2023.39
295.19	2090.98
295.40	1910.75
295.62	2070.50
295.83	2060.26
296.05	1957.86
296.26	1966.05
296.48	1927.14
296.69	1920.99
296.90	1970.15
297.12	2086.88
297.33	1998.82
297.55	1957.86
297.76	2062.30
297.98	2082.78
298.19	1933.28
298.41	1929.19
298.62	1882.08
298.83	2056.16
299.05	1937.38
299.26	1982.43
299.48	1888.23
299.69	1884.13
299.90	1910.75
300.12	1880.04
300.33	1990.63
300.55	2068.45
300.76	2017.25
300.98	1900.52
301.19	2021.35
301.40	1923.04
301.62	1906.66
301.83	2029.54
302.05	1859.56
302.26	1849.32
302.47	1906.66
302.69	1923.04
302.90	1976.29
303.12	1824.74
303.33	2058.21
303.54	2039.78
303.76	1916.90
303.97	1920.99
304.19	2058.21
304.40	1859.56
304.61	2004.96
304.83	2152.42
305.04	2084.83
305.26	1945.57
305.47	1910.75
305.68	1970.15
305.90	1830.88
306.11	2009.06
306.33	1882.08
306.54	1947.62
306.75	1937.38
306.97	1845.22
307.18	1888.23
307.39	1920.99
307.61	2009.06
307.82	1933.28
308.04	1968.10
308.25	1884.13
308.46	1984.48
308.68	1972.19
308.89	1918.95
309.10	2025.44
309.32	1998.82
309.53	1998.82
309.74	1974.24
309.96	1951.71
310.17	2082.78
310.39	1980.39
310.60	1966.05
310.81	1984.48
311.03	1888.23
311.24	2037.73
311.45	1976.29
311.67	2111.46
311.88	1931.23
312.09	1886.18
312.31	1920.99
312.52	1927.14
312.73	1990.63
312.95	1857.51
313.16	1918.95
313.37	2119.65
313.59	2004.96
313.80	2000.87
314.01	2052.06
314.23	1886.18
314.44	1900.52
314.65	1865.70
314.87	1828.84
315.08	1898.47
315.29	1900.52
315.51	1920.99
315.72	1861.60
315.93	2172.89
316.15	2037.73
316.36	1908.71
316.57	1892.32
316.79	1953.76
317.00	1941.47
317.21	2033.63
317.43	1863.65
317.64	2009.06
317.85	1945.57
318.07	1957.86
318.28	1992.67
318.49	2074.59
318.70	2187.23
318.92	2213.85
319.13	2176.99
319.34	2156.51
319.56	2019.30
319.77	2027.49
319.98	2127.84
320.20	2121.70
320.41	2144.22
320.62	1974.24
320.83	1955.81
321.05	2105.31
321.26	1986.53
321.47	2035.68
321.69	1984.48
321.90	1861.60
322.11	1937.38
322.32	1964.00
322.54	2121.70
322.75	2033.63
322.96	2121.70
323.18	1871.84
323.39	1818.60
323.60	1898.47
323.81	2050.02
324.03	1972.19
324.24	1947.62
324.45	1968.10
324.66	1984.48
324.88	2031.58
325.09	2080.74
325.30	2002.91
325.52	1906.66
325.73	1943.52
325.94	1869.80
326.15	1873.89
326.37	1947.62
326.58	1994.72
326.79	1974.24
327.00	1863.65
327.22	1961.95
327.43	2015.20
327.64	1888.23
327.85	2031.58
328.07	1918.95
328.28	2058.21
328.49	1847.27
328.70	1898.47
328.92	1953.76
329.13	1951.71
329.34	2000.87
329.55	2121.70
329.76	1992.67
329.98	1929.19
330.19	1992.67
330.40	2080.74
330.61	2041.82
330.83	1972.19
331.04	1890.28
331.25	1955.81
331.46	1853.41
331.68	1904.61
331.89	2035.68
332.10	1939.43
332.31	1935.33
332.52	1964.00
332.74	2095.07
332.95	1814.50
333.16	1902.56
333.37	2029.54
333.58	1908.71
333.80	2041.82
334.01	1871.84
334.22	1976.29
334.43	1951.71
334.64	1943.52
334.86	1824.74
335.07	1941.47
335.28	2027.49
335.49	1888.23
335.70	2017.25
335.92	2074.59
336.13	2164.70
336.34	1988.58
336.55	1931.23
336.76	1937.38
336.98	1818.60
337.19	1937.38
337.40	2086.88
337.61	2222.05
337.82	1990.63
338.04	2011.11
338.25	1859.56
338.46	1918.95
338.67	1986.53
338.88	1925.09
339.09	1877.99
339.31	1939.43
339.52	1834.98
339.73	1890.28
339.94	1865.70
340.15	1980.39
340.36	1964.00
340.58	1964.00
340.79	1890.28
341.00	1890.28
341.21	1855.46
341.42	2037.73
341.63	2025.44
341.85	1978.34
342.06	1912.80
342.27	1918.95
342.48	2074.59
342.69	1923.04
342.90	1931.23
343.12	2033.63
343.33	1912.80
343.54	1970.15
343.75	2113.50
343.96	1912.80
344.17	1824.74
344.38	1978.34
344.60	1902.56
344.81	1861.60
345.02	1867.75
345.23	2004.96
345.44	2156.51
345.65	1972.19
345.86	1910.75
346.07	1957.86
346.29	1949.67
346.50	1976.29
346.71	1968.10
346.92	2072.54
347.13	2111.46
347.34	1904.61
347.55	1931.23
347.76	2023.39
347.98	1871.84
348.19	1959.91
348.40	2043.87
348.61	1929.19
348.82	2138.08
349.03	2033.63
349.24	1828.84
349.45	2080.74
349.66	1791.97
349.88	1996.77
350.09	1867.75
350.30	2007.01
350.51	2060.26
350.72	2025.44
350.93	1968.10
351.14	1931.23
351.35	1964.00
351.56	1927.14
351.77	1947.62
351.99	2000.87
352.20	2158.56
352.41	2080.74
352.62	1898.47
352.83	1943.52
353.04	1978.34
353.25	1914.85
353.46	2023.39
353.67	2025.44
353.88	1771.49
354.09	1976.29
354.30	1947.62
354.52	1976.29
354.73	1986.53
354.94	1945.57
355.15	1916.90
355.36	2109.41
355.57	2004.96
355.78	1972.19
355.99	1875.94
356.20	1890.28
356.41	2023.39
356.62	2017.25
356.83	1943.52
357.04	2054.11
357.25	1877.99
357.46	1935.33
357.68	1890.28
357.89	1865.70
358.10	1929.19
358.31	1966.05
358.52	1966.05
358.73	1959.91
358.94	1867.75
359.15	1941.47
359.36	1970.15
359.57	1984.48
359.78	1966.05
359.99	2007.01
360.20	1837.03
360.41	1988.58
360.62	1896.42
360.83	1923.04
361.04	1943.52
361.25	2031.58
361.46	2027.49
361.67	2033.63
361.88	1986.53
362.09	2052.06
362.30	1947.62
362.51	1902.56
362.72	2027.49
362.93	2090.98
363.14	2025.44
363.35	1964.00
363.56	1894.37
363.78	1957.86
363.99	2050.02
364.20	1953.76
364.41	1959.91
364.62	2174.94
364.83	2019.30
365.04	1923.04
365.25	1980.39
365.46	2074.59
365.67	1986.53
365.88	2050.02
366.09	1929.19
366.30	1947.62
366.51	1947.62
366.72	1820.64
366.93	1945.57
367.14	1964.00
367.35	2095.07
367.56	2027.49
367.77	1970.15
367.98	1945.57
368.18	1988.58
368.39	1935.33
368.60	1898.47
368.81	1996.77
369.02	2021.35
369.23	1972.19
369.44	1853.41
369.65	1853.41
369.86	2021.35
370.07	2041.82
370.28	1953.76
370.49	2011.11
370.70	1980.39
370.91	1945.57
371.12	1830.88
371.33	2090.98
371.54	1931.23
371.75	1982.43
371.96	1798.12
372.17	2017.25
372.38	1970.15
372.59	2017.25
372.80	1978.34
373.01	1931.23
373.22	1978.34
373.43	1910.75
373.64	1816.55
373.85	2033.63
374.06	2070.50
374.26	2088.93
374.47	2027.49
374.68	2058.21
374.89	2004.96
375.10	1927.14
375.31	2043.87
375.52	1964.00
375.73	1964.00
375.94	1857.51
376.15	2090.98
376.36	1871.84
376.57	1935.33
376.78	1927.14
376.99	2000.87
377.20	2068.45
377.40	1996.77
377.61	2074.59
377.82	1873.89
378.03	2062.30
378.24	2039.78
378.45	1974.24
378.66	1945.57
378.87	1871.84
379.08	1865.70
379.29	1871.84
379.50	2054.11
379.71	1959.91
379.91	1984.48
380.12	1923.04
380.33	1986.53
380.54	1949.67
380.75	1933.28
380.96	1884.13
381.17	1984.48
381.38	2037.73
381.59	2004.96
381.80	1994.72
382.00	2164.70
382.21	1982.43
382.42	2054.11
382.63	2150.37
382.84	2033.63
383.05	2021.35
383.26	2125.79
383.47	1974.24
383.68	2045.92
383.88	1998.82
384.09	1990.63
384.30	2086.88
384.51	2017.25
384.72	1970.15
384.93	1843.17
385.14	2011.11
385.35	2054.11
385.55	1839.08
385.76	2090.98
385.97	1988.58
386.18	1916.90
386.39	1880.04
386.60	1912.80
386.81	1978.34
387.02	1964.00
387.22	1906.66
387.43	1998.82
387.64	2043.87
387.85	2164.70
388.06	2166.75
388.27	4020.16
388.48	8558.46
388.68	12154.69
388.89	14321.45
389.10	15501.08
389.31	14010.15
389.52	10948.44
389.73	9426.80
389.93	8667.00
390.14	7864.20
390.35	7135.12
390.56	6367.13
390.77	5201.84
390.98	4009.92
391.18	3221.45
391.39	2582.49
391.60	2181.09
391.81	2179.04
392.02	1966.05
392.23	2176.99
392.43	2062.30
392.64	1996.77
392.85	1890.28
393.06	2060.26
393.27	2011.11
393.47	1916.90
393.68	2004.96
393.89	1834.98
394.10	2054.11
394.31	1937.38
394.52	1992.67
394.72	1898.47
394.93	2086.88
395.14	1914.85
395.35	2060.26
395.56	2007.01
395.76	1959.91
395.97	1996.77
396.18	2047.97
396.39	2166.75
396.60	2316.25
396.80	2230.24
397.01	2166.75
397.22	2113.50
397.43	2170.85
397.64	2011.11
397.84	2068.45
398.05	2199.52
398.26	1994.72
398.47	2154.46
398.67	2080.74
398.88	1976.29
399.09	2062.30
399.30	1937.38
399.51	1923.04
399.71	1849.32
399.92	1957.86
400.13	1984.48
400.34	1939.43
400.54	1941.47
400.75	2099.17
400.96	2011.11
401.17	2123.74
401.37	2033.63
401.58	1972.19
401.79	2056.16
402.00	2060.26
402.21	2269.15
402.41	2320.35
402.62	2369.50
402.83	2439.13
403.04	2377.69
403.24	2498.52
403.45	2060.26
403.66	2279.39
403.87	2170.85
404.07	2248.67
404.28	2189.28
404.49	2101.22
404.70	2115.55
404.90	2054.11
405.11	2045.92
405.32	2025.44
405.52	1916.90
405.73	1902.56
405.94	1847.27
406.15	1972.19
406.35	2056.16
406.56	2058.21
406.77	1939.43
406.98	1951.71
407.18	1884.13
407.39	2140.13
407.60	1941.47
407.80	1957.86
408.01	2013.15
408.22	2031.58
408.43	1875.94
408.63	2019.30
408.84	1992.67
409.05	2025.44
409.25	1871.84
409.46	1869.80
409.67	1945.57
409.88	1923.04
410.08	2004.96
410.29	1931.23
410.50	2009.06
410.70	2031.58
410.91	1865.70
411.12	1972.19
411.32	1996.77
411.53	1953.76
411.74	2099.17
411.95	2043.87
412.15	2004.96
412.36	2041.82
412.57	2162.66
412.77	2117.60
412.98	1990.63
413.19	1955.81
413.39	1957.86
413.60	2002.91
413.81	2084.83
414.01	1898.47
414.22	2007.01
414.43	2054.11
414.63	2004.96
414.84	1996.77
415.05	1986.53
415.25	1834.98
415.46	2052.06
415.67	1933.28
415.87	2023.39
416.08	1959.91
416.29	1941.47
416.49	2076.64
416.70	1951.71
416.91	1880.04
417.11	1968.10
417.32	1986.53
417.53	2064.35
417.73	2009.06
417.94	1933.28
418.15	2017.25
418.35	2015.20
418.56	1927.14
418.77	2140.13
418.97	1994.72
419.18	1972.19
419.38	1871.84
419.59	1964.00
419.80	2099.17
420.00	1949.67
420.21	1945.57
420.42	2033.63
420.62	1984.48
420.83	1945.57
421.04	1914.85
421.24	1949.67
421.45	2062.30
421.65	2056.16
421.86	1976.29
422.07	1964.00
422.27	1947.62
422.48	2000.87
422.69	1865.70
422.89	2013.15
423.10	1906.66
423.30	1908.71
423.51	1994.72
423.72	2086.88
423.92	2058.21
424.13	1931.23
424.33	1945.57
424.54	1961.95
424.75	1980.39
424.95	2086.88
425.16	2019.30
425.36	1931.23
425.57	2007.01
425.78	1957.86
425.98	1992.67
426.19	1947.62
426.39	1892.32
426.60	1916.90
426.81	2088.93
427.01	1964.00
427.22	1839.08
427.42	1814.50
427.63	1931.23
427.83	1988.58
428.04	2164.70
428.25	2025.44
428.45	2000.87
428.66	2105.31
428.86	1916.90
429.07	1912.80
429.28	2002.91
429.48	1923.04
429.69	1900.52
429.89	1953.76
430.10	1861.60
430.30	1906.66
430.51	2062.30
430.71	1867.75
430.92	1941.47
431.13	1927.14
431.33	2002.91
431.54	2054.11
431.74	2062.30
431.95	2043.87
432.15	1929.19
432.36	1955.81
432.56	1949.67
432.77	2168.80
432.98	2062.30
433.18	1966.05
433.39	1867.75
433.59	1947.62
433.80	2111.46
434.00	2146.27
434.21	1839.08
434.41	1904.61
434.62	2109.41
434.82	1900.52
435.03	1935.33
435.23	2015.20
435.44	1828.84
435.64	1955.81
435.85	2017.25
436.06	2039.78
436.26	2097.12
436.47	1964.00
436.67	1974.24
436.88	2002.91
437.08	1988.58
437.29	2123.74
437.49	1949.67
437.70	2017.25
437.90	1982.43
438.11	2127.84
438.31	2107.36
438.52	2232.29
438.72	2105.31
438.93	2205.66
439.13	2035.68
439.34	2109.41
439.54	2031.58
439.75	1996.77
439.95	2035.68
440.16	1941.47
440.36	2064.35
440.57	2004.96
440.77	1964.00
440.98	2007.01
441.18	2041.82
441.39	1949.67
441.59	1949.67
441.80	2086.88
442.00	1951.71
442.21	2080.74
442.41	1857.51
442.62	2007.01
442.82	1906.66
443.02	1964.00
443.23	1986.53
443.43	2019.30
443.64	2117.60
443.84	1923.04
444.05	2115.55
444.25	1980.39
444.46	1976.29
444.66	1937.38
444.87	2090.98
445.07	1888.23
445.28	1980.39
445.48	2113.50
445.69	2084.83
445.89	2119.65
446.09	1990.63
446.30	2242.53
446.50	2582.49
446.71	4229.06
446.91	5375.92
447.12	5982.12
447.32	6360.99
447.53	6043.56
447.73	4859.83
447.93	4321.21
448.14	3997.64
448.34	3803.08
448.55	3532.75
448.75	3297.23
448.96	3192.78
449.16	2885.59
449.36	2668.50
449.57	2326.49
449.77	2097.12
449.98	2009.06
450.18	2013.15
450.39	2021.35
450.59	2078.69
450.79	2007.01
451.00	1929.19
451.20	2066.40
451.41	2050.02
451.61	2050.02
451.81	2009.06
452.02	1920.99
452.22	1961.95
452.43	1912.80
452.63	1894.37
