SpectraSuite Data File
++++++++++++++++++++++++++++++++++++
Date: Wed May 04 22:45:46 CEST 2016
User: root
Dark Spectrum Present: No
Reference Spectrum Present: No
Number of Sampled Component Spectra: 1
Spectrometers: USB4C02835
Integration Time (usec): 100000 (USB4C02835)
Spectra Averaged: 1 (USB4C02835)
Boxcar Smoothing: 0 (USB4C02835)
Correct for Electrical Dark: No (USB4C02835)
Strobe/Lamp Enabled: No (USB4C02835)
Correct for Detector Non-linearity: No (USB4C02835)
Correct for Stray Light: No (USB4C02835)
Number of Pixels in Processed Spectrum: 3648
>>>>>Begin Processed Spectral Data<<<<<
177.47	1662.95
177.69	1662.95
177.91	1662.95
178.13	1611.75
178.36	1660.90
178.58	1818.60
178.80	1961.95
179.02	1929.19
179.24	1923.04
179.46	1992.67
179.68	2027.49
179.90	1951.71
180.13	2066.40
180.35	1808.36
180.57	1923.04
180.79	2082.78
181.01	1961.95
181.23	2007.01
181.45	2023.39
181.67	1941.47
181.90	2066.40
182.12	1875.94
182.34	1900.52
182.56	1998.82
182.78	1937.38
183.00	1865.70
183.22	1974.24
183.44	1820.64
183.66	2154.46
183.89	2056.16
184.11	1976.29
184.33	1996.77
184.55	2017.25
184.77	1943.52
184.99	1957.86
185.21	1886.18
185.43	2158.56
185.65	1832.93
185.87	1920.99
186.10	2146.27
186.32	2123.74
186.54	2007.01
186.76	2017.25
186.98	1990.63
187.20	1910.75
187.42	1931.23
187.64	1937.38
187.86	2031.58
188.08	2047.97
188.30	1933.28
188.52	2017.25
188.75	2078.69
188.97	1980.39
189.19	1916.90
189.41	1859.56
189.63	2025.44
189.85	1953.76
190.07	1877.99
190.29	1824.74
190.51	1964.00
190.73	1839.08
190.95	2009.06
191.17	1947.62
191.39	1882.08
191.61	1947.62
191.84	1832.93
192.06	1904.61
192.28	1873.89
192.50	2209.76
192.72	1966.05
192.94	1914.85
193.16	2000.87
193.38	2004.96
193.60	1867.75
193.82	1898.47
194.04	2015.20
194.26	1994.72
194.48	1937.38
194.70	1898.47
194.92	1843.17
195.14	2031.58
195.36	1791.97
195.58	1959.91
195.80	1959.91
196.02	1943.52
196.24	1888.23
196.46	2002.91
196.69	1916.90
196.91	2187.23
197.13	1947.62
197.35	1904.61
197.57	2158.56
197.79	1982.43
198.01	1939.43
198.23	1941.47
198.45	1959.91
198.67	1910.75
198.89	1908.71
199.11	1968.10
199.33	1867.75
199.55	1779.68
199.77	1902.56
199.99	2045.92
200.21	1906.66
200.43	1935.33
200.65	1898.47
200.87	1787.88
201.09	1976.29
201.31	1945.57
201.53	1959.91
201.75	2045.92
201.97	2009.06
202.19	1927.14
202.41	2009.06
202.63	2064.35
202.85	2062.30
203.07	1957.86
203.29	1871.84
203.51	1914.85
203.73	1865.70
203.95	2127.84
204.17	1908.71
204.39	2029.54
204.61	1933.28
204.83	1904.61
205.05	1931.23
205.27	1955.81
205.49	2088.93
205.71	2007.01
205.93	1791.97
206.15	1877.99
206.37	1937.38
206.59	1920.99
206.81	1898.47
207.03	1800.16
207.25	1900.52
207.47	1982.43
207.69	2023.39
207.91	2101.22
208.13	2029.54
208.34	1873.89
208.56	1849.32
208.78	1931.23
209.00	1947.62
209.22	1898.47
209.44	1865.70
209.66	1871.84
209.88	1935.33
210.10	1935.33
210.32	1955.81
210.54	2058.21
210.76	1988.58
210.98	2021.35
211.20	1765.35
211.42	2033.63
211.64	2105.31
211.86	1923.04
212.08	2023.39
212.30	1910.75
212.52	1890.28
212.74	1972.19
212.96	1935.33
213.17	2023.39
213.39	2035.68
213.61	2154.46
213.83	1966.05
214.05	1873.89
214.27	2033.63
214.49	1900.52
214.71	1880.04
214.93	1968.10
215.15	1988.58
215.37	1976.29
215.59	1925.09
215.81	1916.90
216.03	2060.26
216.24	1933.28
216.46	1923.04
216.68	1970.15
216.90	2082.78
217.12	1945.57
217.34	2000.87
217.56	1984.48
217.78	2007.01
218.00	1953.76
218.22	2002.91
218.44	1888.23
218.66	2000.87
218.87	2103.26
219.09	1914.85
219.31	1882.08
219.53	1957.86
219.75	1824.74
219.97	1898.47
220.19	1988.58
220.41	1941.47
220.63	2062.30
220.85	1953.76
221.06	1841.12
221.28	2031.58
221.50	1929.19
221.72	1873.89
221.94	1896.42
222.16	1990.63
222.38	2029.54
222.60	1992.67
222.82	1974.24
223.03	2041.82
223.25	1890.28
223.47	1992.67
223.69	2170.85
223.91	2035.68
224.13	2062.30
224.35	1869.80
224.57	2058.21
224.78	2019.30
225.00	1896.42
225.22	1929.19
225.44	1900.52
225.66	1957.86
225.88	1875.94
226.10	1974.24
226.32	1968.10
226.53	2060.26
226.75	1974.24
226.97	1875.94
227.19	1968.10
227.41	1882.08
227.63	1910.75
227.85	1834.98
228.06	1939.43
228.28	1951.71
228.50	2056.16
228.72	1800.16
228.94	1900.52
229.16	1873.89
229.37	1890.28
229.59	1877.99
229.81	2009.06
230.03	1892.32
230.25	1877.99
230.47	1877.99
230.69	1871.84
230.90	1994.72
231.12	1896.42
231.34	1972.19
231.56	2039.78
231.78	1861.60
232.00	1976.29
232.21	1953.76
232.43	1941.47
232.65	1851.36
232.87	2056.16
233.09	1777.64
233.30	1875.94
233.52	2029.54
233.74	1920.99
233.96	1916.90
234.18	1974.24
234.40	2000.87
234.61	2101.22
234.83	1884.13
235.05	1875.94
235.27	2162.66
235.49	2084.83
235.70	1916.90
235.92	2017.25
236.14	2023.39
236.36	2211.81
236.58	1834.98
236.79	1955.81
237.01	1974.24
237.23	2002.91
237.45	2111.46
237.67	1849.32
237.88	1978.34
238.10	2062.30
238.32	1896.42
238.54	1972.19
238.76	1984.48
238.97	1894.37
239.19	1892.32
239.41	1978.34
239.63	1988.58
239.85	1902.56
240.06	1933.28
240.28	1871.84
240.50	2041.82
240.72	1978.34
240.93	1875.94
241.15	2088.93
241.37	1996.77
241.59	2054.11
241.81	1851.36
242.02	1935.33
242.24	1959.91
242.46	2025.44
242.68	1945.57
242.89	2025.44
243.11	2066.40
243.33	1974.24
243.55	1882.08
243.76	1994.72
243.98	1908.71
244.20	1978.34
244.42	1900.52
244.64	1904.61
244.85	1877.99
245.07	1869.80
245.29	1968.10
245.51	1951.71
245.72	1984.48
245.94	2029.54
246.16	1957.86
246.38	1945.57
246.59	1957.86
246.81	1892.32
247.03	1900.52
247.24	1849.32
247.46	1929.19
247.68	1920.99
247.90	1900.52
248.11	1923.04
248.33	2007.01
248.55	1996.77
248.77	1910.75
248.98	1953.76
249.20	2045.92
249.42	1941.47
249.64	2029.54
249.85	1916.90
250.07	1900.52
250.29	2004.96
250.50	1970.15
250.72	1906.66
250.94	1994.72
251.16	2084.83
251.37	1974.24
251.59	1941.47
251.81	2043.87
252.02	2033.63
252.24	1961.95
252.46	2080.74
252.68	1824.74
252.89	1886.18
253.11	1710.05
253.33	2066.40
253.54	2062.30
253.76	1880.04
253.98	1959.91
254.20	1959.91
254.41	1802.21
254.63	1871.84
254.85	1898.47
255.06	1906.66
255.28	2017.25
255.50	1912.80
255.71	1832.93
255.93	1877.99
256.15	1976.29
256.36	1982.43
256.58	1916.90
256.80	1959.91
257.02	1955.81
257.23	1947.62
257.45	1974.24
257.67	1970.15
257.88	1826.79
258.10	2047.97
258.32	1939.43
258.53	1996.77
258.75	2021.35
258.97	1875.94
259.18	1853.41
259.40	1959.91
259.62	2062.30
259.83	2074.59
260.05	2023.39
260.27	2246.62
260.48	2037.73
260.70	1826.79
260.92	1949.67
261.13	1925.09
261.35	1978.34
261.57	1988.58
261.78	1841.12
262.00	1937.38
262.22	2013.15
262.43	1935.33
262.65	1912.80
262.86	1927.14
263.08	2154.46
263.30	2017.25
263.51	1837.03
263.73	1914.85
263.95	1955.81
264.16	1904.61
264.38	1929.19
264.60	2004.96
264.81	1931.23
265.03	2033.63
265.25	1968.10
265.46	1943.52
265.68	2072.54
265.89	1964.00
266.11	1828.84
266.33	2029.54
266.54	2021.35
266.76	2025.44
266.98	1949.67
267.19	1984.48
267.41	2060.26
267.62	1929.19
267.84	1841.12
268.06	1996.77
268.27	1953.76
268.49	2004.96
268.70	2031.58
268.92	1900.52
269.14	1935.33
269.35	1888.23
269.57	1947.62
269.79	2035.68
270.00	1898.47
270.22	2056.16
270.43	1916.90
270.65	1804.26
270.87	2021.35
271.08	1953.76
271.30	1935.33
271.51	1877.99
271.73	1951.71
271.95	2045.92
272.16	1851.36
272.38	1988.58
272.59	1943.52
272.81	2002.91
273.02	1877.99
273.24	1964.00
273.46	2035.68
273.67	1929.19
273.89	1800.16
274.10	1884.13
274.32	2099.17
274.54	1976.29
274.75	1929.19
274.97	1945.57
275.18	2009.06
275.40	2039.78
275.61	1947.62
275.83	1943.52
276.05	1875.94
276.26	1988.58
276.48	1904.61
276.69	1947.62
276.91	1939.43
277.12	2017.25
277.34	2035.68
277.55	1904.61
277.77	1974.24
277.99	1918.95
278.20	1902.56
278.42	1849.32
278.63	1843.17
278.85	1861.60
279.06	1904.61
279.28	1955.81
279.49	1945.57
279.71	1974.24
279.93	1986.53
280.14	1986.53
280.36	1884.13
280.57	2009.06
280.79	2023.39
281.00	1796.07
281.22	1929.19
281.43	2021.35
281.65	1820.64
281.86	1923.04
282.08	1943.52
282.29	2183.13
282.51	1855.46
282.73	1890.28
282.94	1832.93
283.16	1976.29
283.37	2088.93
283.59	1904.61
283.80	2023.39
284.02	1974.24
284.23	1974.24
284.45	1953.76
284.66	1849.32
284.88	1935.33
285.09	2050.02
285.31	1957.86
285.52	2013.15
285.74	1877.99
285.95	2027.49
286.17	1968.10
286.38	2031.58
286.60	1869.80
286.81	1861.60
287.03	1949.67
287.24	1982.43
287.46	2037.73
287.67	1978.34
287.89	2095.07
288.10	1998.82
288.32	2009.06
288.53	2097.12
288.75	1906.66
288.96	1955.81
289.18	1865.70
289.39	1867.75
289.61	2035.68
289.82	2160.61
290.04	2142.18
290.25	1865.70
290.47	1953.76
290.68	1968.10
290.90	2033.63
291.11	1808.36
291.33	2021.35
291.54	1814.50
291.76	1880.04
291.97	1996.77
292.18	1937.38
292.40	1894.37
292.61	1869.80
292.83	2133.98
293.04	1998.82
293.26	1941.47
293.47	1923.04
293.69	1904.61
293.90	1920.99
294.12	2000.87
294.33	1910.75
294.55	1892.32
294.76	2078.69
294.97	2064.35
295.19	2080.74
295.40	2007.01
295.62	1894.37
295.83	2045.92
296.05	1961.95
296.26	2021.35
296.48	1949.67
296.69	1953.76
296.90	1939.43
297.12	2023.39
297.33	2074.59
297.55	1923.04
297.76	2011.11
297.98	2029.54
298.19	2027.49
298.41	1906.66
298.62	1873.89
298.83	2045.92
299.05	2025.44
299.26	1959.91
299.48	1886.18
299.69	1949.67
299.90	2013.15
300.12	1882.08
300.33	2023.39
300.55	1916.90
300.76	1990.63
300.98	1941.47
301.19	2004.96
301.40	1931.23
301.62	1927.14
301.83	1953.76
302.05	1939.43
302.26	1990.63
302.47	1992.67
302.69	1863.65
302.90	2013.15
303.12	1779.68
303.33	2002.91
303.54	2072.54
303.76	1931.23
303.97	1906.66
304.19	2105.31
304.40	1941.47
304.61	1998.82
304.83	2086.88
305.04	2086.88
305.26	1933.28
305.47	1955.81
305.68	2017.25
305.90	1853.41
306.11	2101.22
306.33	1931.23
306.54	1914.85
306.75	1896.42
306.97	1734.63
307.18	1957.86
307.39	1855.46
307.61	1955.81
307.82	1953.76
308.04	1986.53
308.25	1865.70
308.46	2068.45
308.68	2009.06
308.89	1988.58
309.10	2056.16
309.32	1925.09
309.53	1935.33
309.74	2021.35
309.96	1892.32
310.17	2041.82
310.39	1896.42
310.60	2068.45
310.81	1925.09
311.03	1863.65
311.24	1972.19
311.45	1949.67
311.67	2127.84
311.88	1945.57
312.09	1877.99
312.31	1929.19
312.52	1988.58
312.73	1929.19
312.95	1906.66
313.16	1914.85
313.37	2035.68
313.59	2011.11
313.80	1972.19
314.01	2002.91
314.23	1877.99
314.44	1867.75
314.65	1867.75
314.87	1992.67
315.08	2025.44
315.29	1925.09
315.51	1939.43
315.72	1847.27
315.93	2029.54
316.15	1990.63
316.36	1953.76
316.57	1931.23
316.79	1951.71
317.00	1894.37
317.21	2072.54
317.43	1931.23
317.64	1947.62
317.85	1873.89
318.07	1839.08
318.28	2004.96
318.49	2090.98
318.70	2228.19
318.92	2133.98
319.13	2179.04
319.34	2146.27
319.56	2121.70
319.77	2142.18
319.98	2047.97
320.20	2066.40
320.41	2105.31
320.62	2027.49
320.83	1927.14
321.05	2144.22
321.26	1982.43
321.47	1927.14
321.69	1976.29
321.90	1896.42
322.11	1953.76
322.32	1996.77
322.54	2125.79
322.75	1966.05
322.96	2179.04
323.18	1837.03
323.39	1804.26
323.60	1882.08
323.81	2031.58
324.03	1900.52
324.24	1918.95
324.45	1974.24
324.66	1898.47
324.88	2062.30
325.09	2140.13
325.30	1982.43
325.52	2072.54
325.73	1955.81
325.94	1918.95
326.15	1785.83
326.37	1880.04
326.58	2019.30
326.79	2086.88
327.00	1900.52
327.22	1929.19
327.43	1998.82
327.64	1828.84
327.85	2084.83
328.07	1933.28
328.28	2107.36
328.49	1931.23
328.70	1877.99
328.92	1939.43
329.13	1904.61
329.34	1888.23
329.55	2103.26
329.76	2097.12
329.98	2004.96
330.19	2060.26
330.40	1976.29
330.61	2000.87
330.83	2015.20
331.04	1814.50
331.25	1974.24
331.46	1972.19
331.68	1900.52
331.89	2099.17
332.10	2019.30
332.31	1865.70
332.52	1980.39
332.74	2035.68
332.95	1877.99
333.16	2002.91
333.37	1994.72
333.58	1933.28
333.80	1933.28
334.01	1896.42
334.22	1888.23
334.43	1966.05
334.64	1943.52
334.86	1900.52
335.07	1812.45
335.28	2088.93
335.49	1859.56
335.70	2009.06
335.92	1998.82
336.13	2138.08
336.34	2027.49
336.55	2060.26
336.76	1980.39
336.98	1818.60
337.19	1937.38
337.40	2033.63
337.61	2154.46
337.82	1912.80
338.04	1951.71
338.25	1806.31
338.46	1972.19
338.67	1900.52
338.88	1925.09
339.09	1892.32
339.31	1906.66
339.52	1859.56
339.73	1920.99
339.94	1945.57
340.15	1978.34
340.36	1923.04
340.58	1978.34
340.79	1918.95
341.00	2013.15
341.21	1912.80
341.42	2074.59
341.63	1916.90
341.85	1984.48
342.06	1955.81
342.27	1865.70
342.48	2023.39
342.69	1851.36
342.90	2039.78
343.12	1986.53
343.33	1849.32
343.54	2080.74
343.75	1980.39
343.96	1996.77
344.17	1884.13
344.38	1949.67
344.60	1961.95
344.81	1875.94
345.02	1949.67
345.23	2004.96
345.44	2144.22
345.65	2070.50
345.86	1970.15
346.07	2007.01
346.29	1927.14
346.50	1994.72
346.71	2062.30
346.92	2097.12
347.13	2099.17
347.34	1949.67
347.55	1902.56
347.76	1949.67
347.98	1810.40
348.19	1949.67
348.40	2050.02
348.61	1896.42
348.82	2050.02
349.03	2058.21
349.24	1908.71
349.45	2119.65
349.66	1820.64
349.88	1929.19
350.09	1935.33
350.30	2017.25
350.51	2074.59
350.72	1927.14
350.93	1925.09
351.14	1974.24
351.35	1943.52
351.56	1918.95
351.77	1927.14
351.99	1982.43
352.20	2105.31
352.41	2041.82
352.62	1804.26
352.83	1916.90
353.04	1968.10
353.25	1916.90
353.46	2064.35
353.67	2068.45
353.88	1839.08
354.09	2021.35
354.30	1931.23
354.52	1961.95
354.73	1914.85
354.94	1920.99
355.15	1964.00
355.36	2090.98
355.57	1857.51
355.78	1953.76
355.99	1935.33
356.20	1910.75
356.41	2013.15
356.62	1953.76
356.83	1982.43
357.04	2052.06
357.25	1869.80
357.46	2019.30
357.68	1877.99
357.89	1988.58
358.10	2007.01
358.31	1906.66
358.52	1996.77
358.73	1923.04
358.94	1908.71
359.15	1894.37
359.36	2025.44
359.57	1892.32
359.78	1972.19
359.99	1968.10
360.20	1849.32
360.41	2004.96
360.62	1986.53
360.83	2002.91
361.04	2021.35
361.25	2033.63
361.46	2050.02
361.67	1992.67
361.88	1900.52
362.09	2033.63
362.30	2007.01
362.51	1902.56
362.72	1910.75
362.93	2111.46
363.14	1988.58
363.35	1939.43
363.56	1918.95
363.78	2058.21
363.99	2015.20
364.20	1859.56
364.41	1972.19
364.62	2127.84
364.83	2009.06
365.04	1976.29
365.25	1957.86
365.46	2156.51
365.67	1890.28
365.88	1984.48
366.09	1884.13
366.30	1992.67
366.51	1970.15
366.72	1898.47
366.93	1957.86
367.14	1966.05
367.35	2050.02
367.56	1898.47
367.77	2056.16
367.98	2013.15
368.18	2000.87
368.39	1964.00
368.60	1861.60
368.81	1996.77
369.02	2021.35
369.23	1957.86
369.44	1806.31
369.65	1855.46
369.86	1943.52
370.07	1998.82
370.28	1968.10
370.49	1968.10
370.70	2002.91
370.91	1892.32
371.12	1818.60
371.33	1964.00
371.54	1884.13
371.75	2105.31
371.96	1740.77
372.17	1892.32
372.38	1984.48
372.59	1945.57
372.80	1949.67
373.01	1947.62
373.22	1972.19
373.43	1957.86
373.64	1855.46
373.85	2074.59
374.06	2050.02
374.26	2009.06
374.47	2031.58
374.68	2021.35
374.89	1966.05
375.10	1992.67
375.31	2015.20
375.52	2054.11
375.73	2064.35
375.94	1869.80
376.15	2080.74
376.36	1861.60
376.57	1873.89
376.78	1920.99
376.99	1984.48
377.20	2109.41
377.40	1916.90
377.61	2119.65
377.82	1808.36
378.03	2082.78
378.24	2058.21
378.45	1966.05
378.66	2023.39
378.87	1873.89
379.08	1896.42
379.29	1892.32
379.50	2099.17
379.71	1970.15
379.91	2027.49
380.12	1888.23
380.33	1980.39
380.54	1875.94
380.75	1853.41
380.96	1957.86
381.17	1996.77
381.38	1964.00
381.59	1990.63
381.80	2011.11
382.00	2125.79
382.21	2080.74
382.42	2140.13
382.63	2158.56
382.84	2064.35
383.05	2033.63
383.26	2148.32
383.47	2021.35
383.68	2037.73
383.88	2027.49
384.09	2031.58
384.30	2070.50
384.51	1974.24
384.72	1910.75
384.93	1875.94
385.14	1949.67
385.35	2064.35
385.55	1826.79
385.76	2090.98
385.97	1947.62
386.18	1843.17
386.39	1955.81
386.60	1943.52
386.81	1984.48
387.02	1865.70
387.22	1884.13
387.43	1990.63
387.64	2109.41
387.85	2082.78
388.06	2320.35
388.27	3954.63
388.48	8626.04
388.68	11847.50
388.89	14276.39
389.10	15372.05
389.31	13895.47
389.52	10962.78
389.73	9572.21
389.93	8687.48
390.14	7956.36
390.35	7182.23
390.56	6545.31
390.77	5402.54
390.98	4028.35
391.18	3225.55
391.39	2688.98
391.60	2117.60
391.81	2088.93
392.02	1957.86
392.23	2074.59
392.43	2037.73
392.64	2045.92
392.85	1966.05
393.06	2172.89
393.27	1992.67
393.47	1875.94
393.68	1943.52
393.89	1941.47
394.10	2076.64
394.31	1964.00
394.52	1912.80
394.72	1906.66
394.93	1959.91
395.14	1931.23
395.35	2052.06
395.56	1912.80
395.76	1943.52
395.97	2035.68
396.18	2138.08
396.39	2111.46
396.60	2471.90
396.80	2195.42
397.01	2164.70
397.22	2164.70
397.43	2154.46
397.64	2039.78
397.84	2045.92
398.05	2152.42
398.26	2027.49
398.47	2000.87
398.67	2041.82
398.88	1914.85
399.09	1966.05
399.30	1953.76
399.51	1957.86
399.71	1906.66
399.92	1943.52
400.13	2050.02
400.34	1998.82
400.54	1886.18
400.75	2101.22
400.96	2029.54
401.17	2123.74
401.37	2021.35
401.58	1945.57
401.79	1968.10
402.00	2068.45
402.21	2351.07
402.41	2346.97
402.62	2316.25
402.83	2426.84
403.04	2394.08
403.24	2494.43
403.45	2187.23
403.66	2240.48
403.87	2164.70
404.07	2197.47
404.28	2187.23
404.49	2197.47
404.70	2009.06
404.90	2121.70
405.11	2121.70
405.32	2041.82
405.52	1923.04
405.73	1865.70
405.94	1996.77
406.15	1943.52
406.35	1982.43
406.56	2072.54
406.77	1923.04
406.98	2050.02
407.18	1843.17
407.39	2078.69
407.60	1929.19
407.80	1961.95
408.01	1957.86
408.22	1996.77
408.43	1920.99
408.63	2009.06
408.84	2064.35
409.05	2054.11
409.25	1925.09
409.46	1900.52
409.67	1970.15
409.88	1941.47
410.08	1966.05
410.29	1949.67
410.50	1959.91
410.70	2013.15
410.91	1839.08
411.12	2068.45
411.32	1990.63
411.53	1943.52
411.74	2062.30
411.95	2078.69
412.15	2080.74
412.36	2127.84
412.57	2045.92
412.77	2123.74
412.98	2064.35
413.19	1953.76
413.39	2017.25
413.60	2056.16
413.81	2029.54
414.01	1892.32
414.22	2021.35
414.43	1998.82
414.63	2000.87
414.84	2002.91
415.05	1943.52
415.25	1888.23
415.46	1976.29
415.67	2007.01
415.87	1990.63
416.08	1998.82
416.29	1972.19
416.49	2041.82
416.70	1914.85
416.91	1943.52
417.11	1972.19
417.32	2021.35
417.53	2033.63
417.73	1994.72
417.94	1974.24
418.15	1972.19
418.35	1953.76
418.56	1951.71
418.77	2174.94
418.97	1968.10
419.18	2025.44
419.38	1775.59
419.59	1966.05
419.80	2039.78
420.00	1892.32
420.21	1984.48
420.42	2127.84
420.62	1976.29
420.83	1923.04
421.04	2019.30
421.24	1953.76
421.45	1953.76
421.65	1953.76
421.86	1886.18
422.07	2000.87
422.27	2052.06
422.48	2013.15
422.69	1898.47
422.89	2066.40
423.10	1986.53
423.30	1920.99
423.51	1945.57
423.72	2027.49
423.92	1949.67
424.13	1845.22
424.33	1990.63
424.54	2039.78
424.75	1970.15
424.95	2035.68
425.16	1988.58
425.36	1775.59
425.57	2015.20
425.78	2080.74
425.98	2019.30
426.19	1982.43
426.39	1906.66
426.60	1920.99
426.81	1982.43
427.01	2031.58
427.22	1910.75
427.42	1851.36
427.63	1875.94
427.83	1992.67
428.04	2068.45
428.25	2019.30
428.45	2084.83
428.66	1986.53
428.86	1906.66
429.07	1900.52
429.28	1976.29
429.48	1927.14
429.69	1949.67
429.89	1964.00
430.10	1849.32
430.30	1978.34
430.51	2017.25
430.71	1904.61
430.92	1957.86
431.13	1914.85
431.33	1961.95
431.54	1945.57
431.74	2054.11
431.95	2090.98
432.15	1886.18
432.36	1988.58
432.56	2072.54
432.77	2131.94
432.98	2234.33
433.18	2088.93
433.39	1918.95
433.59	1939.43
433.80	2084.83
434.00	2142.18
434.21	1992.67
434.41	1927.14
434.62	2105.31
434.82	1855.46
435.03	1877.99
435.23	2002.91
435.44	1916.90
435.64	1988.58
435.85	2002.91
436.06	1994.72
436.26	2015.20
436.47	1986.53
436.67	1925.09
436.88	1929.19
437.08	2068.45
437.29	2039.78
437.49	1996.77
437.70	1982.43
437.90	1998.82
438.11	2197.47
438.31	2058.21
438.52	2076.64
438.72	2199.52
438.93	2170.85
439.13	2074.59
439.34	2080.74
439.54	2121.70
439.75	1978.34
439.95	2076.64
440.16	1923.04
440.36	2013.15
440.57	2086.88
440.77	2009.06
440.98	1900.52
441.18	2023.39
441.39	1976.29
441.59	1949.67
441.80	2136.03
442.00	1941.47
442.21	2090.98
442.41	1855.46
442.62	2080.74
442.82	1953.76
443.02	1945.57
443.23	2007.01
443.43	1998.82
443.64	2082.78
443.84	1982.43
444.05	2023.39
444.25	1988.58
444.46	1939.43
444.66	1939.43
444.87	2082.78
445.07	1851.36
445.28	1937.38
445.48	2056.16
445.69	2162.66
445.89	2230.24
446.09	1961.95
446.30	2228.19
446.50	2562.01
446.71	4265.92
446.91	5220.27
447.12	6137.76
447.32	6573.98
447.53	5818.28
447.73	4851.64
447.93	4366.27
448.14	4044.74
448.34	3772.36
448.55	3409.87
448.75	3260.37
448.96	3231.69
449.16	2891.73
449.36	2574.30
449.57	2353.12
449.77	2133.98
449.98	2054.11
450.18	2004.96
450.39	2076.64
450.59	2078.69
450.79	1918.95
451.00	1927.14
451.20	2056.16
451.41	1937.38
451.61	1984.48
451.81	2002.91
452.02	2013.15
452.22	1984.48
452.43	1927.14
452.63	1978.34
