SpectraSuite Data File
++++++++++++++++++++++++++++++++++++
Date: Wed May 04 22:46:15 CEST 2016
User: root
Dark Spectrum Present: No
Reference Spectrum Present: No
Number of Sampled Component Spectra: 1
Spectrometers: USB4C02835
Integration Time (usec): 100000 (USB4C02835)
Spectra Averaged: 1 (USB4C02835)
Boxcar Smoothing: 0 (USB4C02835)
Correct for Electrical Dark: No (USB4C02835)
Strobe/Lamp Enabled: No (USB4C02835)
Correct for Detector Non-linearity: No (USB4C02835)
Correct for Stray Light: No (USB4C02835)
Number of Pixels in Processed Spectrum: 3648
>>>>>Begin Processed Spectral Data<<<<<
177.47	1619.94
177.69	1619.94
177.91	1619.94
178.13	1611.75
178.36	1628.14
178.58	1845.22
178.80	2021.35
179.02	1818.60
179.24	1912.80
179.46	1867.75
179.68	1943.52
179.90	1988.58
180.13	1929.19
180.35	1886.18
180.57	1968.10
180.79	2060.26
181.01	1955.81
181.23	1961.95
181.45	2058.21
181.67	1953.76
181.90	2041.82
182.12	1929.19
182.34	1888.23
182.56	1992.67
182.78	1955.81
183.00	1943.52
183.22	1939.43
183.44	1853.41
183.66	2176.99
183.89	2047.97
184.11	1884.13
184.33	1986.53
184.55	1968.10
184.77	1966.05
184.99	1884.13
185.21	1884.13
185.43	2105.31
185.65	1894.37
185.87	1994.72
186.10	2150.37
186.32	2148.32
186.54	1986.53
186.76	1918.95
186.98	2041.82
187.20	1927.14
187.42	1869.80
187.64	1933.28
187.86	2045.92
188.08	2013.15
188.30	1943.52
188.52	1886.18
188.75	1984.48
188.97	2050.02
189.19	1871.84
189.41	1896.42
189.63	1947.62
189.85	1933.28
190.07	1873.89
190.29	1857.51
190.51	1996.77
190.73	1880.04
190.95	2002.91
191.17	1939.43
191.39	1800.16
191.61	2007.01
191.84	1873.89
192.06	1918.95
192.28	1812.45
192.50	2191.33
192.72	1978.34
192.94	1849.32
193.16	2043.87
193.38	1986.53
193.60	1847.27
193.82	1970.15
194.04	2017.25
194.26	1933.28
194.48	1890.28
194.70	1865.70
194.92	1880.04
195.14	2095.07
195.36	1894.37
195.58	1935.33
195.80	1972.19
196.02	1914.85
196.24	1920.99
196.46	1984.48
196.69	1912.80
196.91	2215.90
197.13	1949.67
197.35	1933.28
197.57	2025.44
197.79	1994.72
198.01	1927.14
198.23	1964.00
198.45	2002.91
198.67	1822.69
198.89	1822.69
199.11	1949.67
199.33	1949.67
199.55	1783.78
199.77	1970.15
199.99	2035.68
200.21	1937.38
200.43	1935.33
200.65	1837.03
200.87	1888.23
201.09	1933.28
201.31	1943.52
201.53	1957.86
201.75	1892.32
201.97	1998.82
202.19	2058.21
202.41	1964.00
202.63	2111.46
202.85	1996.77
203.07	1933.28
203.29	1910.75
203.51	1834.98
203.73	1951.71
203.95	2217.95
204.17	1957.86
204.39	1988.58
204.61	1912.80
204.83	1857.51
205.05	1998.82
205.27	2033.63
205.49	2082.78
205.71	1976.29
205.93	1882.08
206.15	1951.71
206.37	1990.63
206.59	1935.33
206.81	1851.36
207.03	1849.32
207.25	1859.56
207.47	2031.58
207.69	1941.47
207.91	2058.21
208.13	2017.25
208.34	1892.32
208.56	1871.84
208.78	1982.43
209.00	1970.15
209.22	1871.84
209.44	1945.57
209.66	1832.93
209.88	1986.53
210.10	1875.94
210.32	1847.27
210.54	1990.63
210.76	1916.90
210.98	2080.74
211.20	1822.69
211.42	1943.52
211.64	2054.11
211.86	2023.39
212.08	1941.47
212.30	1988.58
212.52	1929.19
212.74	1968.10
212.96	1951.71
213.17	1976.29
213.39	1966.05
213.61	2066.40
213.83	1931.23
214.05	1980.39
214.27	2029.54
214.49	1773.54
214.71	1841.12
214.93	2054.11
215.15	1933.28
215.37	2029.54
215.59	1863.65
215.81	1964.00
216.03	2060.26
216.24	1941.47
216.46	1978.34
216.68	1953.76
216.90	1988.58
217.12	2064.35
217.34	2025.44
217.56	1968.10
217.78	2062.30
218.00	2002.91
218.22	1900.52
218.44	1968.10
218.66	1931.23
218.87	2162.66
219.09	1882.08
219.31	1990.63
219.53	2025.44
219.75	1888.23
219.97	1882.08
220.19	1949.67
220.41	1966.05
220.63	2121.70
220.85	2041.82
221.06	1953.76
221.28	2045.92
221.50	2023.39
221.72	1992.67
221.94	1951.71
222.16	2000.87
222.38	1996.77
222.60	1947.62
222.82	1972.19
223.03	1980.39
223.25	1933.28
223.47	2023.39
223.69	2095.07
223.91	1992.67
224.13	2033.63
224.35	1892.32
224.57	2050.02
224.78	1984.48
225.00	1873.89
225.22	1892.32
225.44	1947.62
225.66	1992.67
225.88	1892.32
226.10	2011.11
226.32	1935.33
226.53	2070.50
226.75	1945.57
226.97	1949.67
227.19	1927.14
227.41	1865.70
227.63	1875.94
227.85	1789.92
228.06	1920.99
228.28	1976.29
228.50	2015.20
228.72	1845.22
228.94	1918.95
229.16	1832.93
229.37	1892.32
229.59	1851.36
229.81	2058.21
230.03	1957.86
230.25	1886.18
230.47	1824.74
230.69	1937.38
230.90	1992.67
231.12	1851.36
231.34	1953.76
231.56	1996.77
231.78	1867.75
232.00	2072.54
232.21	1972.19
232.43	1939.43
232.65	1832.93
232.87	2037.73
233.09	1869.80
233.30	1871.84
233.52	2068.45
233.74	1927.14
233.96	1898.47
234.18	1904.61
234.40	2023.39
234.61	2187.23
234.83	1767.40
235.05	1857.51
235.27	2111.46
235.49	2082.78
235.70	1982.43
235.92	2070.50
236.14	2033.63
236.36	2136.03
236.58	1824.74
236.79	1990.63
237.01	1896.42
237.23	1996.77
237.45	2000.87
237.67	1880.04
237.88	1982.43
238.10	2111.46
238.32	1920.99
238.54	1920.99
238.76	1994.72
238.97	1865.70
239.19	1818.60
239.41	2025.44
239.63	2007.01
239.85	1939.43
240.06	1982.43
240.28	1800.16
240.50	2011.11
240.72	1978.34
240.93	1902.56
241.15	2000.87
241.37	1974.24
241.59	1961.95
241.81	1880.04
242.02	1941.47
242.24	1996.77
242.46	2029.54
242.68	1912.80
242.89	1959.91
243.11	1996.77
243.33	1939.43
243.55	1966.05
243.76	1935.33
243.98	1845.22
244.20	1920.99
244.42	1931.23
244.64	1959.91
244.85	1890.28
245.07	1908.71
245.29	1877.99
245.51	1937.38
245.72	1994.72
245.94	2027.49
246.16	1900.52
246.38	1966.05
246.59	1898.47
246.81	1939.43
247.03	1906.66
247.24	1820.64
247.46	1955.81
247.68	2002.91
247.90	1859.56
248.11	1912.80
248.33	2007.01
248.55	1988.58
248.77	1920.99
248.98	1976.29
249.20	2111.46
249.42	2029.54
249.64	1890.28
249.85	1947.62
250.07	1947.62
250.29	2004.96
250.50	1906.66
250.72	1875.94
250.94	2023.39
251.16	2111.46
251.37	1941.47
251.59	1992.67
251.81	2009.06
252.02	2078.69
252.24	1953.76
252.46	2007.01
252.68	1884.13
252.89	1931.23
253.11	1769.44
253.33	2050.02
253.54	2062.30
253.76	1851.36
253.98	1959.91
254.20	1863.65
254.41	1847.27
254.63	1904.61
254.85	1900.52
255.06	1953.76
255.28	1982.43
255.50	1939.43
255.71	1931.23
255.93	1906.66
256.15	1966.05
256.36	1986.53
256.58	1875.94
256.80	1957.86
257.02	1964.00
257.23	1929.19
257.45	2007.01
257.67	1990.63
257.88	1964.00
258.10	1966.05
258.32	1992.67
258.53	1933.28
258.75	2064.35
258.97	1900.52
259.18	1947.62
259.40	1896.42
259.62	2101.22
259.83	2070.50
260.05	1972.19
260.27	2297.82
260.48	2056.16
260.70	1845.22
260.92	1914.85
261.13	2007.01
261.35	1906.66
261.57	2027.49
261.78	1865.70
262.00	1931.23
262.22	1970.15
262.43	1898.47
262.65	1894.37
262.86	1925.09
263.08	2127.84
263.30	1968.10
263.51	1826.79
263.73	1806.31
263.95	2054.11
264.16	1839.08
264.38	1851.36
264.60	2047.97
264.81	1880.04
265.03	1966.05
265.25	1966.05
265.46	1908.71
265.68	2029.54
265.89	1937.38
266.11	1834.98
266.33	1925.09
266.54	2033.63
266.76	2031.58
266.98	1951.71
267.19	2011.11
267.41	1888.23
267.62	1937.38
267.84	1873.89
268.06	2017.25
268.27	2037.73
268.49	1980.39
268.70	2011.11
268.92	1959.91
269.14	1900.52
269.35	1800.16
269.57	1916.90
269.79	2033.63
270.00	1912.80
270.22	2119.65
270.43	1877.99
270.65	1777.64
270.87	1982.43
271.08	1980.39
271.30	1943.52
271.51	1925.09
271.73	1957.86
271.95	2035.68
272.16	1964.00
272.38	2004.96
272.59	1931.23
272.81	1974.24
273.02	1970.15
273.24	1953.76
273.46	1972.19
273.67	1914.85
273.89	1873.89
274.10	1943.52
274.32	2017.25
274.54	1986.53
274.75	1900.52
274.97	1925.09
275.18	2019.30
275.40	2050.02
275.61	2000.87
275.83	1961.95
276.05	1804.26
276.26	1955.81
276.48	1988.58
276.69	1857.51
276.91	1996.77
277.12	2029.54
277.34	2037.73
277.55	2011.11
277.77	1951.71
277.99	1978.34
278.20	1888.23
278.42	1871.84
278.63	1845.22
278.85	1898.47
279.06	1839.08
279.28	2004.96
279.49	1984.48
279.71	2115.55
279.93	1980.39
280.14	1900.52
280.36	1888.23
280.57	2035.68
280.79	2029.54
281.00	1912.80
281.22	1964.00
281.43	2035.68
281.65	1818.60
281.86	1855.46
282.08	1976.29
282.29	2140.13
282.51	1904.61
282.73	1882.08
282.94	1834.98
283.16	1974.24
283.37	2037.73
283.59	1884.13
283.80	1955.81
284.02	1949.67
284.23	2017.25
284.45	1906.66
284.66	1853.41
284.88	1808.36
285.09	1990.63
285.31	1972.19
285.52	1988.58
285.74	1894.37
285.95	1982.43
286.17	1935.33
286.38	2068.45
286.60	1865.70
286.81	1966.05
287.03	1877.99
287.24	1947.62
287.46	1951.71
287.67	1978.34
287.89	2162.66
288.10	1990.63
288.32	1916.90
288.53	2000.87
288.75	1916.90
288.96	2031.58
289.18	1931.23
289.39	1914.85
289.61	1984.48
289.82	2160.61
290.04	2041.82
290.25	1787.88
290.47	1896.42
290.68	1865.70
290.90	2074.59
291.11	1824.74
291.33	2033.63
291.54	1904.61
291.76	1900.52
291.97	1933.28
292.18	1898.47
292.40	1947.62
292.61	1855.46
292.83	2183.13
293.04	1953.76
293.26	2086.88
293.47	1955.81
293.69	1834.98
293.90	1941.47
294.12	2031.58
294.33	2033.63
294.55	2025.44
294.76	2000.87
294.97	2099.17
295.19	2144.22
295.40	1888.23
295.62	1914.85
295.83	2039.78
296.05	1910.75
296.26	2045.92
296.48	1900.52
296.69	1947.62
296.90	1865.70
297.12	1943.52
297.33	2025.44
297.55	2015.20
297.76	1970.15
297.98	2060.26
298.19	1961.95
298.41	1839.08
298.62	1886.18
298.83	2041.82
299.05	2015.20
299.26	1914.85
299.48	1910.75
299.69	1914.85
299.90	1875.94
300.12	1853.41
300.33	1984.48
300.55	2004.96
300.76	2017.25
300.98	1880.04
301.19	2045.92
301.40	1964.00
301.62	1906.66
301.83	1998.82
302.05	2029.54
302.26	1927.14
302.47	2031.58
302.69	1869.80
302.90	2017.25
303.12	1783.78
303.33	2045.92
303.54	2095.07
303.76	1892.32
303.97	1935.33
304.19	1982.43
304.40	1910.75
304.61	2004.96
304.83	2056.16
305.04	1984.48
305.26	1968.10
305.47	1925.09
305.68	1961.95
305.90	1886.18
306.11	2060.26
306.33	1970.15
306.54	1941.47
306.75	1914.85
306.97	1869.80
307.18	1906.66
307.39	1910.75
307.61	2007.01
307.82	1900.52
308.04	1968.10
308.25	1968.10
308.46	2031.58
308.68	1996.77
308.89	1966.05
309.10	2002.91
309.32	1982.43
309.53	1978.34
309.74	2056.16
309.96	1894.37
310.17	1984.48
310.39	1931.23
310.60	1964.00
310.81	1925.09
311.03	1880.04
311.24	1970.15
311.45	1837.03
311.67	2097.12
311.88	1966.05
312.09	1941.47
312.31	1898.47
312.52	1966.05
312.73	1951.71
312.95	1910.75
313.16	1900.52
313.37	2107.36
313.59	1916.90
313.80	2054.11
314.01	2117.60
314.23	1923.04
314.44	1920.99
314.65	1849.32
314.87	1923.04
315.08	1877.99
315.29	1990.63
315.51	1859.56
315.72	1925.09
315.93	2066.40
316.15	1972.19
316.36	1873.89
316.57	1978.34
316.79	1935.33
317.00	1902.56
317.21	1935.33
317.43	1865.70
317.64	1939.43
317.85	1937.38
318.07	1951.71
318.28	1949.67
318.49	2045.92
318.70	2256.86
318.92	2142.18
319.13	2191.33
319.34	2156.51
319.56	2084.83
319.77	2027.49
319.98	2109.41
320.20	2076.64
320.41	2029.54
320.62	2035.68
320.83	1904.61
321.05	2107.36
321.26	2029.54
321.47	1957.86
321.69	2062.30
321.90	1802.21
322.11	1904.61
322.32	1947.62
322.54	2074.59
322.75	1931.23
322.96	2160.61
323.18	1890.28
323.39	1896.42
323.60	1880.04
323.81	2004.96
324.03	1908.71
324.24	1949.67
324.45	1982.43
324.66	1904.61
324.88	2037.73
325.09	2064.35
325.30	2017.25
325.52	2029.54
325.73	2021.35
325.94	1902.56
326.15	1834.98
326.37	1939.43
326.58	1996.77
326.79	2068.45
327.00	1914.85
327.22	1964.00
327.43	1947.62
327.64	1865.70
327.85	1937.38
328.07	1906.66
328.28	2107.36
328.49	1902.56
328.70	1927.14
328.92	1931.23
329.13	1935.33
329.34	1964.00
329.55	2121.70
329.76	2070.50
329.98	1853.41
330.19	1990.63
330.40	1931.23
330.61	2002.91
330.83	2004.96
331.04	1933.28
331.25	2002.91
331.46	1892.32
331.68	1865.70
331.89	1970.15
332.10	1945.57
332.31	1902.56
332.52	1996.77
332.74	2047.97
332.95	1851.36
333.16	1980.39
333.37	2050.02
333.58	1937.38
333.80	1935.33
334.01	1818.60
334.22	1890.28
334.43	1894.37
334.64	1933.28
334.86	1847.27
335.07	1978.34
335.28	2045.92
335.49	1810.40
335.70	2037.73
335.92	2021.35
336.13	2107.36
336.34	2045.92
336.55	2017.25
336.76	1996.77
336.98	1894.37
337.19	1972.19
337.40	2068.45
337.61	2166.75
337.82	1882.08
338.04	2021.35
338.25	1765.35
338.46	2002.91
338.67	1945.57
338.88	1851.36
339.09	1798.12
339.31	1853.41
339.52	1865.70
339.73	1826.79
339.94	2027.49
340.15	1966.05
340.36	1892.32
340.58	2043.87
340.79	1941.47
341.00	2013.15
341.21	1873.89
341.42	2133.98
341.63	1923.04
341.85	2045.92
342.06	1939.43
342.27	1863.65
342.48	2009.06
342.69	1916.90
342.90	1951.71
343.12	2047.97
343.33	1906.66
343.54	2007.01
343.75	2058.21
343.96	1882.08
344.17	1933.28
344.38	1914.85
344.60	1845.22
344.81	1853.41
345.02	1943.52
345.23	2043.87
345.44	2142.18
345.65	1990.63
345.86	1996.77
346.07	1939.43
346.29	1904.61
346.50	1998.82
346.71	2029.54
346.92	2078.69
347.13	2121.70
347.34	1959.91
347.55	1892.32
347.76	1998.82
347.98	1877.99
348.19	1875.94
348.40	2078.69
348.61	1886.18
348.82	2070.50
349.03	1966.05
349.24	1900.52
349.45	2160.61
349.66	1789.92
349.88	2047.97
350.09	1914.85
350.30	2113.50
350.51	2037.73
350.72	1964.00
350.93	1959.91
351.14	1896.42
351.35	2027.49
351.56	1943.52
351.77	1869.80
351.99	2023.39
352.20	2090.98
352.41	1949.67
352.62	1855.46
352.83	1951.71
353.04	1972.19
353.25	1906.66
353.46	2015.20
353.67	2109.41
353.88	1865.70
354.09	2031.58
354.30	2047.97
354.52	1966.05
354.73	1994.72
354.94	1898.47
355.15	2000.87
355.36	2054.11
355.57	1959.91
355.78	1996.77
355.99	1992.67
356.20	1935.33
356.41	2054.11
356.62	1988.58
356.83	1923.04
357.04	2047.97
357.25	1851.36
357.46	1982.43
357.68	1931.23
357.89	1918.95
358.10	2011.11
358.31	1916.90
358.52	1890.28
358.73	1822.69
358.94	1880.04
359.15	1855.46
359.36	2047.97
359.57	1947.62
359.78	1892.32
359.99	2029.54
360.20	1820.64
360.41	2021.35
360.62	1923.04
360.83	2007.01
361.04	2000.87
361.25	2007.01
361.46	2056.16
361.67	1990.63
361.88	2025.44
362.09	1968.10
362.30	1994.72
362.51	1900.52
362.72	2029.54
362.93	2072.54
363.14	2011.11
363.35	1976.29
363.56	1925.09
363.78	2000.87
363.99	2013.15
364.20	1882.08
364.41	1949.67
364.62	2066.40
364.83	2009.06
365.04	2000.87
365.25	1908.71
365.46	2166.75
365.67	1982.43
365.88	1886.18
366.09	1896.42
366.30	1898.47
366.51	2027.49
366.72	1863.65
366.93	1941.47
367.14	1968.10
367.35	2052.06
367.56	1892.32
367.77	2062.30
367.98	1906.66
368.18	2025.44
368.39	2043.87
368.60	1849.32
368.81	1996.77
369.02	1935.33
369.23	1959.91
369.44	1830.88
369.65	1927.14
369.86	1931.23
370.07	2047.97
370.28	1900.52
370.49	2023.39
370.70	2013.15
370.91	1886.18
371.12	1859.56
371.33	2121.70
371.54	1908.71
371.75	2084.83
371.96	1787.88
372.17	1966.05
372.38	1939.43
372.59	2045.92
372.80	1927.14
373.01	1972.19
373.22	1943.52
373.43	1927.14
373.64	1839.08
373.85	2052.06
374.06	2117.60
374.26	2060.26
374.47	1935.33
374.68	1982.43
374.89	1941.47
375.10	1914.85
375.31	2074.59
375.52	1998.82
375.73	2027.49
375.94	1830.88
376.15	2074.59
376.36	1904.61
376.57	1882.08
376.78	1857.51
376.99	1914.85
377.20	2086.88
377.40	1941.47
377.61	2086.88
377.82	1955.81
378.03	1990.63
378.24	2045.92
378.45	1978.34
378.66	1947.62
378.87	1847.27
379.08	1841.12
379.29	1861.60
379.50	2019.30
379.71	1892.32
379.91	1959.91
380.12	1988.58
380.33	1935.33
380.54	1929.19
380.75	1992.67
380.96	1939.43
381.17	1970.15
381.38	1970.15
381.59	2047.97
381.80	1964.00
382.00	2056.16
382.21	2041.82
382.42	2160.61
382.63	2201.57
382.84	2033.63
383.05	2047.97
383.26	2113.50
383.47	2004.96
383.68	2015.20
383.88	1955.81
384.09	2043.87
384.30	2066.40
384.51	2064.35
384.72	1945.57
384.93	1892.32
385.14	1976.29
385.35	1994.72
385.55	1875.94
385.76	2115.55
385.97	1957.86
386.18	1834.98
386.39	1955.81
386.60	1914.85
386.81	1955.81
387.02	1925.09
387.22	1912.80
387.43	2045.92
387.64	2027.49
387.85	2117.60
388.06	2252.77
388.27	3973.06
388.48	8611.71
388.68	11974.47
388.89	14155.56
389.10	15423.25
389.31	13928.24
389.52	11130.71
389.73	9533.29
389.93	8646.52
390.14	7985.03
390.35	7239.57
390.56	6360.99
390.77	5279.66
390.98	4032.45
391.18	3246.03
391.39	2611.16
391.60	2105.31
391.81	2133.98
392.02	1920.99
392.23	2123.74
392.43	1976.29
392.64	2027.49
392.85	2027.49
393.06	2125.79
393.27	1927.14
393.47	1918.95
393.68	1970.15
393.89	1996.77
394.10	2035.68
394.31	1935.33
394.52	1900.52
394.72	1966.05
394.93	2082.78
395.14	1892.32
395.35	1984.48
395.56	1873.89
395.76	1925.09
395.97	2023.39
396.18	2050.02
396.39	2140.13
396.60	2326.49
396.80	2275.29
397.01	2230.24
397.22	2133.98
397.43	2060.26
397.64	2033.63
397.84	2027.49
398.05	2162.66
398.26	1927.14
398.47	2058.21
398.67	2033.63
398.88	1994.72
399.09	1955.81
399.30	1925.09
399.51	1939.43
399.71	1912.80
399.92	1910.75
400.13	1984.48
400.34	1888.23
400.54	1945.57
400.75	2056.16
400.96	1920.99
401.17	2138.08
401.37	2027.49
401.58	1978.34
401.79	1947.62
402.00	2043.87
402.21	2355.16
402.41	2342.88
402.62	2377.69
402.83	2432.99
403.04	2443.23
403.24	2490.33
403.45	2117.60
403.66	2240.48
403.87	2193.37
404.07	2267.10
404.28	2226.14
404.49	2232.29
404.70	2043.87
404.90	2060.26
405.11	2019.30
405.32	2043.87
405.52	1853.41
405.73	1882.08
405.94	1935.33
406.15	1984.48
406.35	2004.96
406.56	2035.68
406.77	1867.75
406.98	1947.62
407.18	1914.85
407.39	2007.01
407.60	1945.57
407.80	2015.20
408.01	2007.01
408.22	1990.63
408.43	1964.00
408.63	1996.77
408.84	2062.30
409.05	2076.64
409.25	1910.75
409.46	1886.18
409.67	1918.95
409.88	1925.09
410.08	1910.75
410.29	1935.33
410.50	1996.77
410.70	2013.15
410.91	1900.52
411.12	1931.23
411.32	2015.20
411.53	1898.47
411.74	2095.07
411.95	2002.91
412.15	2105.31
412.36	2101.22
412.57	2082.78
412.77	2103.26
412.98	2060.26
413.19	1982.43
413.39	2097.12
413.60	2029.54
413.81	2234.33
414.01	1978.34
414.22	1994.72
414.43	1980.39
414.63	2033.63
414.84	2138.08
415.05	2004.96
415.25	1884.13
415.46	2004.96
415.67	1929.19
415.87	1984.48
416.08	1918.95
416.29	1894.37
416.49	2050.02
416.70	1847.27
416.91	1955.81
417.11	1994.72
417.32	1988.58
417.53	2025.44
417.73	2013.15
417.94	1972.19
418.15	1947.62
418.35	1916.90
418.56	1943.52
418.77	2107.36
418.97	1976.29
419.18	2029.54
419.38	1810.40
419.59	1933.28
419.80	2045.92
420.00	1890.28
420.21	2000.87
420.42	2039.78
420.62	2019.30
420.83	1959.91
421.04	1939.43
421.24	1957.86
421.45	2011.11
421.65	2007.01
421.86	1941.47
422.07	1968.10
422.27	2031.58
422.48	1974.24
422.69	1812.45
422.89	1896.42
423.10	1908.71
423.30	1923.04
423.51	1923.04
423.72	1953.76
423.92	2068.45
424.13	1937.38
424.33	2000.87
424.54	2025.44
424.75	1920.99
424.95	2064.35
425.16	2002.91
425.36	1968.10
425.57	2033.63
425.78	2039.78
425.98	2017.25
426.19	1986.53
426.39	1849.32
426.60	2004.96
426.81	2115.55
427.01	1951.71
427.22	1888.23
427.42	1877.99
427.63	1945.57
427.83	1998.82
428.04	2072.54
428.25	2019.30
428.45	2004.96
428.66	1998.82
428.86	1986.53
429.07	2009.06
429.28	1976.29
429.48	1927.14
429.69	1904.61
429.89	2007.01
430.10	1888.23
430.30	1998.82
430.51	2072.54
430.71	1912.80
430.92	1980.39
431.13	1927.14
431.33	1980.39
431.54	1976.29
431.74	2086.88
431.95	2150.37
432.15	1873.89
432.36	1951.71
432.56	1968.10
432.77	2123.74
432.98	2113.50
433.18	1961.95
433.39	1951.71
433.59	1929.19
433.80	2068.45
434.00	2066.40
434.21	1943.52
434.41	1861.60
434.62	2111.46
434.82	1871.84
435.03	1871.84
435.23	1949.67
435.44	1853.41
435.64	1953.76
435.85	1976.29
436.06	2015.20
436.26	2039.78
436.47	1978.34
436.67	1957.86
436.88	2002.91
437.08	2023.39
437.29	2045.92
437.49	1966.05
437.70	2013.15
437.90	1923.04
438.11	2086.88
438.31	2031.58
438.52	2181.09
438.72	2160.61
438.93	2250.72
439.13	2066.40
439.34	2136.03
439.54	2017.25
439.75	2066.40
439.95	2033.63
440.16	1943.52
440.36	2025.44
440.57	2047.97
440.77	1966.05
440.98	1990.63
441.18	2023.39
441.39	1951.71
441.59	1892.32
441.80	2150.37
442.00	1935.33
442.21	2090.98
442.41	1873.89
442.62	2115.55
442.82	1953.76
443.02	1961.95
443.23	2015.20
443.43	1982.43
443.64	2140.13
443.84	1972.19
444.05	2129.89
444.25	2101.22
444.46	2004.96
444.66	1941.47
444.87	2119.65
445.07	1783.78
445.28	1998.82
445.48	2080.74
445.69	1984.48
445.89	2131.94
446.09	1957.86
446.30	2269.15
446.50	2627.54
446.71	4210.62
446.91	5412.78
447.12	6250.40
447.32	6510.49
447.53	5986.21
447.73	4933.56
447.93	4337.60
448.14	4054.98
448.34	3624.90
448.55	3467.21
448.75	3389.39
448.96	3239.89
449.16	2895.83
449.36	2686.94
449.57	2340.83
449.77	2160.61
449.98	1990.63
450.18	2009.06
450.39	2119.65
450.59	2021.35
450.79	1937.38
451.00	1992.67
451.20	2025.44
451.41	2002.91
451.61	2074.59
451.81	1988.58
452.02	1970.15
452.22	1980.39
452.43	1990.63
452.63	1953.76
