SpectraSuite Data File
++++++++++++++++++++++++++++++++++++
Date: Wed May 04 22:46:14 CEST 2016
User: root
Dark Spectrum Present: No
Reference Spectrum Present: No
Number of Sampled Component Spectra: 1
Spectrometers: USB4C02835
Integration Time (usec): 100000 (USB4C02835)
Spectra Averaged: 1 (USB4C02835)
Boxcar Smoothing: 0 (USB4C02835)
Correct for Electrical Dark: No (USB4C02835)
Strobe/Lamp Enabled: No (USB4C02835)
Correct for Detector Non-linearity: No (USB4C02835)
Correct for Stray Light: No (USB4C02835)
Number of Pixels in Processed Spectrum: 3648
>>>>>Begin Processed Spectral Data<<<<<
177.47	1636.33
177.69	1636.33
177.91	1636.33
178.13	1597.42
178.36	1671.14
178.58	1916.90
178.80	1990.63
179.02	1843.17
179.24	1873.89
179.46	1916.90
179.68	1951.71
179.90	1974.24
180.13	1935.33
180.35	1898.47
180.57	1859.56
180.79	1968.10
181.01	1941.47
181.23	2039.78
181.45	1990.63
181.67	2031.58
181.90	1957.86
182.12	1877.99
182.34	1773.54
182.56	2058.21
182.78	1937.38
183.00	1912.80
183.22	1964.00
183.44	1804.26
183.66	2058.21
183.89	2078.69
184.11	1875.94
184.33	2029.54
184.55	2002.91
184.77	1949.67
184.99	2050.02
185.21	1925.09
185.43	2154.46
185.65	1966.05
185.87	1902.56
186.10	2088.93
186.32	2211.81
186.54	2052.06
186.76	1908.71
186.98	2017.25
187.20	1912.80
187.42	1855.46
187.64	1941.47
187.86	1945.57
188.08	2025.44
188.30	1859.56
188.52	1992.67
188.75	2101.22
188.97	2074.59
189.19	1914.85
189.41	1892.32
189.63	2002.91
189.85	1964.00
190.07	1916.90
190.29	1804.26
190.51	1976.29
190.73	1914.85
190.95	1937.38
191.17	1920.99
191.39	1834.98
191.61	1990.63
191.84	1949.67
192.06	1984.48
192.28	1873.89
192.50	2144.22
192.72	1947.62
192.94	2029.54
193.16	1935.33
193.38	2007.01
193.60	1871.84
193.82	1941.47
194.04	2070.50
194.26	1959.91
194.48	1951.71
194.70	1871.84
194.92	1912.80
195.14	1964.00
195.36	1898.47
195.58	1935.33
195.80	1970.15
196.02	1961.95
196.24	2013.15
196.46	1886.18
196.69	1908.71
196.91	2103.26
197.13	1841.12
197.35	1853.41
197.57	2062.30
197.79	1933.28
198.01	1988.58
198.23	2023.39
198.45	2035.68
198.67	1779.68
198.89	1898.47
199.11	1994.72
199.33	1888.23
199.55	1808.36
199.77	1966.05
199.99	2035.68
200.21	1939.43
200.43	1935.33
200.65	1886.18
200.87	1812.45
201.09	1988.58
201.31	1947.62
201.53	1947.62
201.75	2039.78
201.97	1925.09
202.19	1894.37
202.41	2031.58
202.63	2074.59
202.85	1890.28
203.07	1994.72
203.29	1916.90
203.51	1890.28
203.73	1918.95
203.95	2107.36
204.17	1949.67
204.39	2025.44
204.61	1949.67
204.83	1898.47
205.05	2064.35
205.27	1976.29
205.49	2082.78
205.71	1951.71
205.93	1880.04
206.15	1957.86
206.37	1890.28
206.59	1945.57
206.81	1918.95
207.03	1847.27
207.25	1912.80
207.47	2013.15
207.69	1902.56
207.91	2047.97
208.13	2131.94
208.34	1982.43
208.56	1843.17
208.78	1920.99
209.00	1910.75
209.22	1947.62
209.44	1941.47
209.66	1896.42
209.88	1927.14
210.10	1867.75
210.32	1871.84
210.54	1988.58
210.76	1996.77
210.98	2033.63
211.20	1832.93
211.42	1900.52
211.64	2066.40
211.86	1955.81
212.08	2002.91
212.30	2002.91
212.52	1931.23
212.74	1935.33
212.96	1894.37
213.17	2002.91
213.39	1998.82
213.61	2156.51
213.83	1884.13
214.05	1947.62
214.27	2050.02
214.49	1884.13
214.71	1896.42
214.93	2119.65
215.15	1968.10
215.37	1957.86
215.59	1886.18
215.81	1955.81
216.03	2007.01
216.24	2031.58
216.46	1943.52
216.68	1935.33
216.90	1961.95
217.12	2047.97
217.34	1892.32
217.56	2027.49
217.78	2043.87
218.00	1986.53
218.22	1976.29
218.44	2011.11
218.66	1916.90
218.87	2138.08
219.09	1925.09
219.31	2033.63
219.53	1994.72
219.75	1957.86
219.97	1890.28
220.19	1988.58
220.41	1972.19
220.63	2086.88
220.85	1908.71
221.06	1916.90
221.28	1998.82
221.50	2041.82
221.72	1939.43
221.94	1972.19
222.16	1953.76
222.38	2029.54
222.60	1933.28
222.82	1925.09
223.03	1972.19
223.25	1834.98
223.47	1908.71
223.69	2117.60
223.91	2023.39
224.13	2019.30
224.35	1884.13
224.57	1964.00
224.78	2045.92
225.00	1814.50
225.22	1925.09
225.44	2019.30
225.66	2064.35
225.88	1992.67
226.10	1976.29
226.32	1918.95
226.53	2142.18
226.75	1910.75
226.97	1929.19
227.19	1943.52
227.41	1959.91
227.63	1898.47
227.85	1781.73
228.06	1974.24
228.28	2035.68
228.50	2029.54
228.72	1851.36
228.94	1982.43
229.16	1902.56
229.37	1912.80
229.59	1865.70
229.81	1994.72
230.03	1888.23
230.25	1875.94
230.47	1839.08
230.69	1912.80
230.90	2004.96
231.12	1931.23
231.34	1990.63
231.56	2031.58
231.78	1843.17
232.00	1968.10
232.21	1914.85
232.43	1910.75
232.65	1775.59
232.87	1974.24
233.09	1877.99
233.30	1861.60
233.52	2041.82
233.74	2021.35
233.96	1941.47
234.18	1941.47
234.40	1931.23
234.61	2125.79
234.83	1798.12
235.05	1941.47
235.27	2172.89
235.49	2074.59
235.70	1935.33
235.92	1959.91
236.14	1961.95
236.36	2181.09
236.58	1830.88
236.79	1988.58
237.01	1916.90
237.23	1964.00
237.45	2066.40
237.67	1984.48
237.88	1964.00
238.10	2127.84
238.32	1871.84
238.54	1935.33
238.76	1906.66
238.97	1861.60
239.19	1812.45
239.41	2002.91
239.63	2056.16
239.85	1884.13
240.06	1947.62
240.28	1886.18
240.50	2011.11
240.72	1964.00
240.93	1894.37
241.15	1949.67
241.37	1912.80
241.59	2062.30
241.81	1955.81
242.02	1896.42
242.24	1933.28
242.46	2023.39
242.68	1906.66
242.89	2013.15
243.11	2076.64
243.33	1982.43
243.55	1890.28
243.76	2035.68
243.98	1884.13
244.20	1871.84
244.42	1957.86
244.64	1925.09
244.85	1892.32
245.07	1918.95
245.29	1949.67
245.51	1935.33
245.72	2021.35
245.94	2015.20
246.16	1957.86
246.38	1957.86
246.59	1949.67
246.81	1830.88
247.03	1941.47
247.24	1841.12
247.46	1832.93
247.68	2031.58
247.90	1943.52
248.11	1908.71
248.33	2004.96
248.55	1937.38
248.77	1945.57
248.98	2015.20
249.20	2136.03
249.42	1982.43
249.64	1964.00
249.85	1923.04
250.07	1859.56
250.29	2004.96
250.50	1976.29
250.72	1767.40
250.94	2009.06
251.16	2103.26
251.37	1984.48
251.59	1970.15
251.81	1968.10
252.02	2043.87
252.24	1927.14
252.46	2045.92
252.68	1947.62
252.89	1867.75
253.11	1804.26
253.33	2052.06
253.54	2080.74
253.76	1859.56
253.98	1894.37
254.20	1873.89
254.41	1857.51
254.63	1884.13
254.85	1832.93
255.06	1875.94
255.28	2068.45
255.50	1955.81
255.71	1931.23
255.93	1826.79
256.15	2000.87
256.36	2025.44
256.58	1834.98
256.80	2043.87
257.02	1910.75
257.23	2035.68
257.45	1980.39
257.67	1953.76
257.88	1933.28
258.10	2041.82
258.32	1966.05
258.53	1939.43
258.75	2078.69
258.97	1900.52
259.18	2000.87
259.40	1941.47
259.62	2004.96
259.83	2076.64
260.05	1990.63
260.27	2250.72
260.48	2041.82
260.70	1853.41
260.92	1933.28
261.13	1941.47
261.35	1953.76
261.57	2054.11
261.78	1818.60
262.00	1949.67
262.22	1990.63
262.43	1918.95
262.65	1945.57
262.86	1943.52
263.08	2154.46
263.30	2070.50
263.51	1806.31
263.73	1986.53
263.95	2074.59
264.16	1857.51
264.38	1816.55
264.60	1910.75
264.81	1935.33
265.03	2080.74
265.25	1955.81
265.46	1970.15
265.68	2078.69
265.89	2052.06
266.11	1738.73
266.33	1980.39
266.54	2084.83
266.76	1990.63
266.98	1959.91
267.19	2019.30
267.41	1978.34
267.62	1951.71
267.84	1845.22
268.06	2033.63
268.27	1935.33
268.49	1966.05
268.70	1982.43
268.92	1886.18
269.14	1908.71
269.35	1798.12
269.57	1906.66
269.79	1949.67
270.00	1925.09
270.22	2062.30
270.43	1826.79
270.65	1748.97
270.87	1941.47
271.08	2023.39
271.30	2045.92
271.51	1892.32
271.73	1931.23
271.95	2037.73
272.16	1927.14
272.38	2025.44
272.59	1931.23
272.81	2013.15
273.02	1945.57
273.24	1966.05
273.46	2054.11
273.67	1900.52
273.89	1906.66
274.10	1957.86
274.32	2031.58
274.54	1925.09
274.75	1996.77
274.97	1966.05
275.18	1996.77
275.40	2056.16
275.61	1888.23
275.83	1931.23
276.05	1867.75
276.26	1953.76
276.48	1982.43
276.69	1949.67
276.91	1918.95
277.12	2121.70
277.34	1990.63
277.55	1953.76
277.77	1918.95
277.99	1947.62
278.20	1871.84
278.42	1886.18
278.63	1882.08
278.85	1812.45
279.06	1894.37
279.28	1988.58
279.49	1972.19
279.71	1984.48
279.93	2023.39
280.14	1884.13
280.36	1923.04
280.57	1998.82
280.79	2021.35
281.00	1898.47
281.22	1939.43
281.43	1953.76
281.65	1757.16
281.86	1904.61
282.08	1957.86
282.29	2144.22
282.51	1849.32
282.73	1802.21
282.94	1875.94
283.16	2004.96
283.37	2062.30
283.59	1884.13
283.80	1986.53
284.02	2011.11
284.23	1998.82
284.45	1908.71
284.66	1830.88
284.88	1947.62
285.09	1947.62
285.31	2056.16
285.52	2025.44
285.74	1814.50
285.95	2031.58
286.17	1964.00
286.38	2058.21
286.60	1902.56
286.81	1945.57
287.03	1935.33
287.24	1923.04
287.46	1953.76
287.67	1898.47
287.89	2099.17
288.10	1947.62
288.32	2027.49
288.53	2037.73
288.75	1953.76
288.96	2093.02
289.18	1902.56
289.39	1912.80
289.61	2021.35
289.82	2209.76
290.04	2076.64
290.25	1871.84
290.47	1861.60
290.68	1947.62
290.90	2035.68
291.11	1890.28
291.33	2050.02
291.54	1820.64
291.76	1830.88
291.97	1943.52
292.18	2019.30
292.40	1937.38
292.61	1853.41
292.83	2117.60
293.04	1966.05
293.26	1955.81
293.47	1968.10
293.69	1814.50
293.90	1832.93
294.12	1998.82
294.33	1964.00
294.55	2009.06
294.76	2027.49
294.97	2035.68
295.19	2060.26
295.40	1914.85
295.62	1937.38
295.83	2084.83
296.05	1898.47
296.26	2033.63
296.48	1865.70
296.69	2017.25
296.90	1937.38
297.12	2011.11
297.33	2060.26
297.55	1974.24
297.76	2039.78
297.98	1959.91
298.19	1943.52
298.41	1974.24
298.62	1857.51
298.83	2009.06
299.05	1984.48
299.26	1996.77
299.48	1886.18
299.69	2000.87
299.90	1933.28
300.12	1865.70
300.33	1961.95
300.55	1970.15
300.76	1937.38
300.98	1867.75
301.19	1982.43
301.40	2000.87
301.62	1894.37
301.83	2017.25
302.05	1931.23
302.26	1978.34
302.47	2031.58
302.69	1894.37
302.90	1935.33
303.12	1853.41
303.33	2007.01
303.54	2086.88
303.76	1927.14
303.97	2009.06
304.19	2043.87
304.40	1873.89
304.61	1996.77
304.83	2105.31
305.04	2007.01
305.26	1978.34
305.47	1894.37
305.68	1898.47
305.90	1867.75
306.11	1996.77
306.33	1939.43
306.54	1941.47
306.75	1857.51
306.97	1843.17
307.18	1837.03
307.39	1912.80
307.61	2031.58
307.82	1982.43
308.04	2021.35
308.25	1859.56
308.46	1982.43
308.68	1966.05
308.89	1998.82
309.10	2000.87
309.32	1974.24
309.53	1910.75
309.74	2002.91
309.96	1972.19
310.17	2056.16
310.39	1945.57
310.60	2035.68
310.81	1966.05
311.03	1834.98
311.24	2000.87
311.45	2000.87
311.67	2121.70
311.88	2011.11
312.09	1939.43
312.31	1869.80
312.52	1984.48
312.73	1933.28
312.95	1849.32
313.16	1984.48
313.37	1994.72
313.59	1974.24
313.80	1966.05
314.01	2029.54
314.23	1970.15
314.44	1814.50
314.65	1933.28
314.87	1900.52
315.08	1908.71
315.29	1929.19
315.51	1873.89
315.72	1888.23
315.93	2025.44
316.15	2019.30
316.36	1873.89
316.57	1894.37
316.79	2002.91
317.00	1968.10
317.21	2047.97
317.43	1863.65
317.64	1957.86
317.85	1845.22
318.07	1968.10
318.28	2007.01
318.49	2127.84
318.70	2179.04
318.92	2133.98
319.13	2217.95
319.34	2189.28
319.56	2080.74
319.77	2205.66
319.98	2088.93
320.20	2125.79
320.41	2099.17
320.62	1955.81
320.83	1976.29
321.05	2129.89
321.26	1986.53
321.47	1933.28
321.69	2025.44
321.90	1945.57
322.11	1947.62
322.32	2027.49
322.54	2043.87
322.75	1935.33
322.96	2201.57
323.18	1939.43
323.39	1861.60
323.60	1908.71
323.81	2009.06
324.03	1861.60
324.24	1951.71
324.45	1890.28
324.66	1880.04
324.88	2017.25
325.09	2037.73
325.30	1980.39
325.52	2072.54
325.73	1947.62
325.94	1951.71
326.15	1822.69
326.37	1898.47
326.58	2031.58
326.79	2076.64
327.00	1931.23
327.22	1929.19
327.43	2019.30
327.64	1855.46
327.85	1968.10
328.07	1955.81
328.28	2166.75
328.49	1904.61
328.70	1984.48
328.92	1980.39
329.13	1914.85
329.34	2009.06
329.55	2025.44
329.76	2021.35
329.98	1890.28
330.19	2078.69
330.40	1947.62
330.61	1910.75
330.83	2011.11
331.04	1974.24
331.25	1929.19
331.46	1957.86
331.68	1925.09
331.89	2019.30
332.10	1931.23
332.31	1830.88
332.52	1964.00
332.74	2045.92
332.95	1906.66
333.16	1918.95
333.37	2054.11
333.58	1912.80
333.80	1986.53
334.01	1806.31
334.22	1927.14
334.43	1857.51
334.64	1961.95
334.86	1884.13
335.07	1972.19
335.28	2095.07
335.49	1867.75
335.70	1961.95
335.92	2056.16
336.13	2074.59
336.34	2004.96
336.55	1968.10
336.76	1955.81
336.98	1863.65
337.19	1953.76
337.40	2082.78
337.61	2115.55
337.82	1931.23
338.04	1982.43
338.25	1830.88
338.46	1994.72
338.67	1941.47
338.88	1865.70
339.09	1884.13
339.31	1941.47
339.52	1896.42
339.73	1877.99
339.94	2025.44
340.15	1990.63
340.36	1935.33
340.58	1980.39
340.79	1970.15
341.00	1976.29
341.21	1925.09
341.42	2078.69
341.63	1906.66
341.85	2011.11
342.06	1953.76
342.27	1996.77
342.48	1947.62
342.69	1898.47
342.90	2031.58
343.12	2021.35
343.33	1964.00
343.54	2054.11
343.75	2052.06
343.96	1896.42
344.17	1900.52
344.38	1937.38
344.60	1920.99
344.81	1892.32
345.02	1920.99
345.23	2050.02
345.44	2209.76
345.65	2023.39
345.86	1949.67
346.07	1990.63
346.29	1892.32
346.50	2015.20
346.71	2033.63
346.92	2039.78
347.13	2070.50
347.34	1943.52
347.55	1931.23
347.76	1994.72
347.98	1855.46
348.19	1880.04
348.40	2031.58
348.61	1925.09
348.82	2056.16
349.03	2054.11
349.24	1933.28
349.45	2068.45
349.66	1857.51
349.88	1923.04
350.09	1933.28
350.30	2068.45
350.51	1959.91
350.72	1904.61
350.93	1916.90
351.14	1959.91
351.35	2009.06
351.56	2019.30
351.77	1984.48
351.99	2027.49
352.20	2045.92
352.41	2035.68
352.62	1775.59
352.83	2023.39
353.04	1984.48
353.25	1931.23
353.46	1990.63
353.67	2045.92
353.88	1826.79
354.09	2031.58
354.30	1988.58
354.52	2050.02
354.73	1941.47
354.94	1941.47
355.15	1955.81
355.36	2101.22
355.57	1929.19
355.78	2021.35
355.99	1964.00
356.20	1939.43
356.41	2050.02
356.62	1986.53
356.83	1955.81
357.04	2011.11
357.25	1828.84
357.46	1896.42
357.68	1853.41
357.89	1890.28
358.10	1947.62
358.31	1892.32
358.52	1953.76
358.73	1873.89
358.94	1908.71
359.15	1902.56
359.36	1998.82
359.57	1988.58
359.78	1955.81
359.99	2023.39
360.20	1927.14
360.41	1945.57
360.62	2017.25
360.83	1945.57
361.04	1970.15
361.25	1959.91
361.46	2064.35
361.67	2011.11
361.88	1994.72
362.09	1970.15
362.30	2013.15
362.51	1906.66
362.72	1945.57
362.93	2064.35
363.14	2093.02
363.35	1949.67
363.56	1877.99
363.78	2041.82
363.99	1957.86
364.20	1783.78
364.41	1976.29
364.62	2097.12
364.83	1906.66
365.04	1994.72
365.25	1916.90
365.46	2090.98
365.67	1910.75
365.88	1890.28
366.09	1959.91
366.30	1966.05
366.51	1892.32
366.72	1920.99
366.93	1923.04
367.14	1955.81
367.35	2082.78
367.56	1923.04
367.77	2027.49
367.98	1986.53
368.18	2047.97
368.39	1990.63
368.60	1810.40
368.81	1947.62
369.02	2037.73
369.23	1964.00
369.44	1880.04
369.65	1908.71
369.86	2095.07
370.07	1978.34
370.28	1898.47
370.49	1951.71
370.70	2031.58
370.91	1894.37
371.12	1783.78
371.33	2039.78
371.54	1857.51
371.75	2023.39
371.96	1851.36
372.17	1949.67
372.38	1939.43
372.59	1957.86
372.80	1925.09
373.01	1937.38
373.22	1966.05
373.43	1927.14
373.64	1865.70
373.85	2109.41
374.06	2078.69
374.26	2088.93
374.47	2002.91
374.68	2113.50
374.89	1957.86
375.10	1957.86
375.31	2023.39
375.52	1959.91
375.73	1988.58
375.94	1906.66
376.15	2099.17
376.36	1939.43
376.57	1896.42
376.78	1943.52
376.99	1966.05
377.20	1984.48
377.40	1923.04
377.61	1992.67
377.82	1783.78
378.03	2052.06
378.24	1964.00
378.45	2015.20
378.66	1910.75
378.87	1851.36
379.08	1847.27
379.29	1988.58
379.50	2088.93
379.71	1892.32
379.91	2066.40
380.12	2013.15
380.33	1978.34
380.54	1984.48
380.75	1923.04
380.96	1994.72
381.17	2078.69
381.38	1974.24
381.59	1941.47
381.80	1947.62
382.00	2099.17
382.21	2019.30
382.42	2150.37
382.63	2160.61
382.84	2103.26
383.05	2095.07
383.26	2119.65
383.47	1968.10
383.68	2056.16
383.88	2029.54
384.09	2052.06
384.30	2052.06
384.51	2031.58
384.72	1970.15
384.93	1904.61
385.14	1949.67
385.35	1957.86
385.55	1849.32
385.76	2084.83
385.97	1910.75
386.18	1812.45
386.39	1898.47
386.60	1972.19
386.81	1845.22
387.02	1937.38
387.22	1814.50
387.43	2072.54
387.64	2103.26
387.85	2119.65
388.06	2291.68
388.27	4022.21
388.48	8390.53
388.68	11968.33
388.89	14411.56
389.10	15359.77
389.31	14186.28
389.52	11114.33
389.73	9619.31
389.93	8587.13
390.14	7911.30
390.35	7079.83
390.56	6324.13
390.77	5279.66
390.98	4071.36
391.18	3172.30
391.39	2572.25
391.60	2232.29
391.81	2056.16
392.02	2021.35
392.23	2213.85
392.43	2027.49
392.64	2045.92
392.85	2035.68
393.06	2080.74
393.27	2019.30
393.47	1890.28
393.68	1992.67
393.89	1918.95
394.10	2002.91
394.31	1964.00
394.52	1882.08
394.72	1918.95
394.93	2050.02
395.14	1906.66
395.35	2025.44
395.56	1966.05
395.76	2011.11
395.97	2011.11
396.18	2088.93
396.39	2115.55
396.60	2387.93
396.80	2209.76
397.01	2074.59
397.22	2240.48
397.43	2109.41
397.64	1978.34
397.84	2023.39
398.05	2211.81
398.26	2000.87
398.47	2107.36
398.67	2004.96
398.88	1947.62
399.09	1984.48
399.30	1974.24
399.51	2011.11
399.71	1894.37
399.92	1953.76
400.13	1996.77
400.34	2017.25
400.54	1992.67
400.75	2084.83
400.96	2029.54
401.17	2029.54
401.37	2019.30
401.58	1912.80
401.79	1988.58
402.00	2111.46
402.21	2281.44
402.41	2320.35
402.62	2355.16
402.83	2453.47
403.04	2381.79
403.24	2363.36
403.45	2109.41
403.66	2226.14
403.87	2211.81
404.07	2254.81
404.28	2203.61
404.49	2129.89
404.70	1996.77
404.90	2113.50
405.11	1990.63
405.32	2017.25
405.52	1906.66
405.73	1902.56
405.94	1900.52
406.15	2043.87
406.35	2033.63
406.56	1988.58
406.77	1976.29
406.98	2058.21
407.18	1845.22
407.39	2066.40
407.60	1896.42
407.80	1974.24
408.01	1916.90
408.22	2062.30
408.43	1980.39
408.63	1978.34
408.84	2029.54
409.05	2009.06
409.25	1980.39
409.46	1882.08
409.67	1902.56
409.88	1888.23
410.08	1980.39
410.29	1984.48
410.50	1964.00
410.70	1931.23
410.91	1890.28
411.12	1998.82
411.32	2045.92
411.53	1947.62
411.74	2060.26
411.95	2021.35
412.15	2058.21
412.36	2025.44
412.57	2164.70
412.77	2078.69
412.98	2031.58
413.19	1906.66
413.39	2107.36
413.60	1992.67
413.81	2080.74
414.01	1966.05
414.22	2033.63
414.43	2084.83
414.63	1990.63
414.84	2082.78
415.05	1955.81
415.25	1890.28
415.46	2045.92
415.67	1982.43
415.87	2021.35
416.08	1998.82
416.29	2033.63
416.49	1959.91
416.70	1908.71
416.91	1961.95
417.11	1939.43
417.32	2064.35
417.53	2013.15
417.73	1978.34
417.94	1968.10
418.15	1990.63
418.35	1998.82
418.56	1943.52
418.77	2129.89
418.97	1953.76
419.18	1898.47
419.38	1810.40
419.59	1945.57
419.80	2031.58
420.00	1990.63
420.21	2002.91
420.42	2002.91
420.62	1939.43
420.83	1984.48
421.04	1961.95
421.24	1914.85
421.45	1988.58
421.65	2013.15
421.86	1904.61
422.07	2050.02
422.27	1939.43
422.48	1996.77
422.69	1898.47
422.89	1953.76
423.10	1947.62
423.30	1841.12
423.51	1982.43
423.72	2009.06
423.92	2035.68
424.13	1783.78
424.33	1945.57
424.54	1996.77
424.75	2072.54
424.95	2076.64
425.16	1955.81
425.36	1914.85
425.57	2029.54
425.78	2029.54
425.98	2074.59
426.19	1912.80
426.39	1888.23
426.60	1990.63
426.81	2050.02
427.01	1941.47
427.22	1968.10
427.42	1779.68
427.63	1937.38
427.83	1970.15
428.04	2084.83
428.25	2074.59
428.45	1998.82
428.66	2027.49
428.86	1957.86
429.07	2007.01
429.28	2011.11
429.48	1923.04
429.69	1898.47
429.89	2037.73
430.10	1877.99
430.30	1943.52
430.51	2027.49
430.71	1964.00
430.92	1908.71
431.13	1976.29
431.33	1937.38
431.54	2000.87
431.74	2113.50
431.95	2113.50
432.15	1818.60
432.36	1873.89
432.56	1978.34
432.77	2054.11
432.98	2000.87
433.18	2013.15
433.39	1908.71
433.59	1914.85
433.80	2093.02
434.00	2119.65
434.21	1902.56
434.41	1966.05
434.62	2199.52
434.82	1841.12
435.03	1894.37
435.23	1976.29
435.44	1863.65
435.64	1929.19
435.85	1968.10
436.06	1992.67
436.26	2070.50
436.47	2013.15
436.67	1966.05
436.88	1980.39
437.08	2035.68
437.29	2105.31
437.49	2021.35
437.70	2068.45
437.90	1959.91
438.11	2111.46
438.31	2054.11
438.52	2162.66
438.72	2090.98
438.93	2306.01
439.13	2117.60
439.34	2152.42
439.54	1988.58
439.75	2027.49
439.95	2062.30
440.16	1898.47
440.36	1943.52
440.57	2056.16
440.77	1970.15
440.98	2047.97
441.18	2076.64
441.39	1966.05
441.59	1902.56
441.80	2068.45
442.00	1988.58
442.21	2115.55
442.41	1906.66
442.62	2050.02
442.82	1935.33
443.02	1972.19
443.23	1988.58
443.43	1945.57
443.64	2099.17
443.84	1974.24
444.05	2084.83
444.25	2025.44
444.46	1959.91
444.66	1964.00
444.87	2158.56
445.07	1908.71
445.28	1978.34
445.48	2064.35
445.69	2009.06
445.89	2127.84
446.09	1970.15
446.30	2220.00
446.50	2676.70
446.71	4196.29
446.91	5453.74
447.12	6258.59
447.32	6481.82
447.53	5908.39
447.73	4788.15
447.93	4353.98
448.14	3985.35
448.34	3805.13
448.55	3418.06
448.75	3280.85
448.96	3233.74
449.16	2873.30
449.36	2648.02
449.57	2422.75
449.77	2187.23
449.98	1976.29
450.18	2037.73
450.39	2066.40
450.59	2047.97
450.79	1974.24
451.00	1982.43
451.20	2088.93
451.41	2086.88
451.61	1992.67
451.81	1974.24
452.02	1906.66
452.22	1959.91
452.43	2013.15
452.63	1974.24
